TimeStamp,Delta_TP9,Delta_AF7,Delta_AF8,Delta_TP10,Theta_TP9,Theta_AF7,Theta_AF8,Theta_TP10,Alpha_TP9,Alpha_AF7,Alpha_AF8,Alpha_TP10,Beta_TP9,Beta_AF7,Beta_AF8,Beta_TP10,Gamma_TP9,Gamma_AF7,Gamma_AF8,Gamma_TP10,RAW_TP9,RAW_AF7,RAW_AF8,RAW_TP10,AUX_RIGHT,Accelerometer_X,Accelerometer_Y,Accelerometer_Z,Gyro_X,Gyro_Y,Gyro_Z,HeadBandOn,HSI_TP9,HSI_AF7,HSI_AF8,HSI_TP10,Battery,Elements
13:25:42.894,-0.27753088,0.6887135,0.4162364,0.061950285,0.42146277,-0.25241026,-0.20776689,0.24984369,0.69188505,0.018393148,-0.37415045,0.6459036,0.40861523,0.2989442,-0.4250295,0.4353208,0.36119846,-0.13335586,-0.67545843,0.23103297,745.82416,649.92676,809.0842,785.31134,789.7436,-0.2391357421875,0.16357421875,0.94775390625,1.2261962890625,-0.97198486328125,0.201873779296875,1.0,1.0,4.0,1.0,1.0,100.0,event
13:25:42.896,-0.27753088,0.6887135,0.4162364,0.061950285,0.42146277,-0.25241026,-0.20776689,0.24984369,0.69188505,0.018393148,-0.37415045,0.6459036,0.40861523,0.2989442,-0.4250295,0.4353208,0.36119846,-0.13335586,-0.67545843,0.23103297,808.68134,772.8205,811.0989,787.72894,770.80585,-0.2391357421875,0.16357421875,0.94775390625,1.2261962890625,-0.97198486328125,0.201873779296875,1.0,1.0,4.0,1.0,1.0,100.0,event
13:25:42.897,-0.27753088,0.6887135,0.4162364,0.061950285,0.42146277,-0.25241026,-0.20776689,0.24984369,0.69188505,0.018393148,-0.37415045,0.6459036,0.40861523,0.2989442,-0.4250295,0.4353208,0.36119846,-0.13335586,-0.67545843,0.23103297,809.0842,816.337,820.7692,820.7692,740.989,-0.2391357421875,0.16357421875,0.94775390625,1.2261962890625,-0.97198486328125,0.201873779296875,1.0,1.0,4.0,1.0,1.0,100.0,event
13:25:42.897,-0.27753088,0.6887135,0.4162364,0.061950285,0.42146277,-0.25241026,-0.20776689,0.24984369,0.69188505,0.018393148,-0.37415045,0.6459036,0.40861523,0.2989442,-0.4250295,0.4353208,0.36119846,-0.13335586,-0.67545843,0.23103297,821.978,1024.652,815.5311,803.44324,725.2747,-0.2391357421875,0.16357421875,0.94775390625,1.2261962890625,-0.97198486328125,0.201873779296875,1.0,1.0,4.0,1.0,1.0,100.0,event
13:25:42.899,-0.27753088,0.6887135,0.4162364,0.061950285,0.42146277,-0.25241026,-0.20776689,0.24984369,0.69188505,0.018393148,-0.37415045,0.6459036,0.40861523,0.2989442,-0.4250295,0.4353208,0.36119846,-0.13335586,-0.67545843,0.23103297,834.0659,500.43958,822.7839,806.6667,801.4286,-0.2391357421875,0.16357421875,0.94775390625,1.2261962890625,-0.97198486328125,0.201873779296875,1.0,1.0,4.0,1.0,1.0,100.0,event
13:25:42.901,-0.27753088,0.6887135,0.4162364,0.061950285,0.42146277,-0.25241026,-0.20776689,0.24984369,0.69188505,0.018393148,-0.37415045,0.6459036,0.40861523,0.2989442,-0.4250295,0.4353208,0.36119846,-0.13335586,-0.67545843,0.23103297,823.9927,672.8938,826.0073,800.2198,838.49817,-0.2391357421875,0.16357421875,0.94775390625,1.2261962890625,-0.97198486328125,0.201873779296875,1.0,1.0,4.0,1.0,1.0,100.0,event
13:25:42.902,-0.27753088,0.6887135,0.4162364,0.061950285,0.42146277,-0.25241026,-0.20776689,0.24984369,0.69188505,0.018393148,-0.37415045,0.6459036,0.40861523,0.2989442,-0.4250295,0.4353208,0.36119846,-0.13335586,-0.67545843,0.23103297,811.0989,840.10986,824.3956,796.1905,878.7912,-0.2391357421875,0.16357421875,0.94775390625,1.2261962890625,-0.97198486328125,0.201873779296875,1.0,1.0,4.0,1.0,1.0,100.0,event
13:25:42.903,-0.27753088,0.6887135,0.4162364,0.061950285,0.42146277,-0.25241026,-0.20776689,0.24984369,0.69188505,0.018393148,-0.37415045,0.6459036,0.40861523,0.2989442,-0.4250295,0.4353208,0.36119846,-0.13335586,-0.67545843,0.23103297,804.65204,630.58606,818.7546,782.49084,890.07324,-0.2391357421875,0.16357421875,0.94775390625,1.2261962890625,-0.97198486328125,0.201873779296875,1.0,1.0,4.0,1.0,1.0,100.0,event
13:25:42.903,-0.27753088,0.6887135,0.4162364,0.061950285,0.42146277,-0.25241026,-0.20776689,0.24984369,0.69188505,0.018393148,-0.37415045,0.6459036,0.40861523,0.2989442,-0.4250295,0.4353208,0.36119846,-0.13335586,-0.67545843,0.23103297,746.63007,163.18681,821.1722,782.8938,945.2747,-0.2391357421875,0.16357421875,0.94775390625,1.2261962890625,-0.97198486328125,0.201873779296875,1.0,1.0,4.0,1.0,1.0,100.0,event
13:25:42.904,-0.27753088,0.6887135,0.4162364,0.061950285,0.42146277,-0.25241026,-0.20776689,0.24984369,0.69188505,0.018393148,-0.37415045,0.6459036,0.40861523,0.2989442,-0.4250295,0.4353208,0.36119846,-0.13335586,-0.67545843,0.23103297,768.7912,671.28204,824.7985,790.14655,832.4542,-0.2391357421875,0.16357421875,0.94775390625,1.2261962890625,-0.97198486328125,0.201873779296875,1.0,1.0,4.0,1.0,1.0,100.0,event
13:25:42.905,-0.27753088,0.6887135,0.4162364,0.061950285,0.42146277,-0.25241026,-0.20776689,0.24984369,0.69188505,0.018393148,-0.37415045,0.6459036,0.40861523,0.2989442,-0.4250295,0.4353208,0.36119846,-0.13335586,-0.67545843,0.23103297,820.3663,1172.9304,829.6337,809.4872,742.6007,-0.2391357421875,0.16357421875,0.94775390625,1.2261962890625,-0.97198486328125,0.201873779296875,1.0,1.0,4.0,1.0,1.0,100.0,event
13:25:42.906,-0.27753088,0.6887135,0.4162364,0.061950285,0.42146277,-0.25241026,-0.20776689,0.24984369,0.69188505,0.018393148,-0.37415045,0.6459036,0.40861523,0.2989442,-0.4250295,0.4353208,0.36119846,-0.13335586,-0.67545843,0.23103297,823.5897,954.5421,833.663,810.293,788.93774,-0.2391357421875,0.16357421875,0.94775390625,1.2261962890625,-0.97198486328125,0.201873779296875,1.0,1.0,4.0,1.0,1.0,100.0,event
13:25:42.933,-0.27753088,0.6887135,0.4162364,0.061950285,0.42146277,-0.25241026,-0.20776689,0.24984369,0.69188505,0.018393148,-0.37415045,0.6459036,0.40861523,0.2989442,-0.4250295,0.4353208,0.36119846,-0.13335586,-0.67545843,0.23103297,802.23444,896.52014,833.2601,786.9231,796.99634,-0.2391357421875,0.16357421875,0.94775390625,1.2261962890625,-0.97198486328125,0.201873779296875,1.0,1.0,4.0,1.0,1.0,100.0,event
13:25:42.936,-0.27753088,0.6887135,0.4162364,0.061950285,0.42146277,-0.25241026,-0.20776689,0.24984369,0.69188505,0.018393148,-0.37415045,0.6459036,0.40861523,0.2989442,-0.4250295,0.4353208,0.36119846,-0.13335586,-0.67545843,0.23103297,785.7143,971.06226,838.0952,794.17584,695.05493,-0.2391357421875,0.16357421875,0.94775390625,1.2261962890625,-0.97198486328125,0.201873779296875,1.0,1.0,4.0,1.0,1.0,100.0,event
13:25:42.939,-0.27753088,0.6887135,0.4162364,0.061950285,0.42146277,-0.25241026,-0.20776689,0.24984369,0.69188505,0.018393148,-0.37415045,0.6459036,0.40861523,0.2989442,-0.4250295,0.4353208,0.36119846,-0.13335586,-0.67545843,0.23103297,806.6667,985.56775,844.5421,826.8132,678.93774,-0.2391357421875,0.16357421875,0.94775390625,1.2261962890625,-0.97198486328125,0.201873779296875,1.0,1.0,4.0,1.0,1.0,100.0,event
13:25:42.941,-0.25923005,0.6887135,0.35635173,0.06980674,0.47266766,-0.25241026,-0.20391689,0.2904616,0.7876054,0.018393148,-0.35412243,0.7517189,0.44225937,0.2989442,-0.43244848,0.43908724,0.44056526,-0.13335586,-0.6499909,0.2698041,818.3516,762.3443,845.7509,804.2491,810.293,-0.2391357421875,0.16357421875,0.94775390625,1.2261962890625,-0.97198486328125,0.201873779296875,1.0,1.0,4.0,1.0,1.0,100.0,event
13:25:42.946,-0.25923005,0.6887135,0.35635173,0.06980674,0.47266766,-0.25241026,-0.20391689,0.2904616,0.7876054,0.018393148,-0.35412243,0.7517189,0.44225937,0.2989442,-0.43244848,0.43908724,0.44056526,-0.13335586,-0.6499909,0.2698041,819.15753,766.77655,847.76556,781.28204,806.26373,-0.2391357421875,0.16357421875,0.94775390625,1.2261962890625,-0.97198486328125,0.201873779296875,1.0,1.0,4.0,1.0,1.0,100.0,event
13:25:42.947,-0.25923005,0.6887135,0.35635173,0.06980674,0.47266766,-0.25241026,-0.20391689,0.2904616,0.7876054,0.018393148,-0.35412243,0.7517189,0.44225937,0.2989442,-0.43244848,0.43908724,0.44056526,-0.13335586,-0.6499909,0.2698041,815.12823,755.4945,845.7509,771.2088,814.3223,-0.2391357421875,0.16357421875,0.94775390625,1.2261962890625,-0.97198486328125,0.201873779296875,1.0,1.0,4.0,1.0,1.0,100.0,event
13:25:42.948,-0.25923005,0.6887135,0.35635173,0.06980674,0.47266766,-0.25241026,-0.20391689,0.2904616,0.7876054,0.018393148,-0.35412243,0.7517189,0.44225937,0.2989442,-0.43244848,0.43908724,0.44056526,-0.13335586,-0.6499909,0.2698041,765.9707,638.24176,844.1392,750.2564,833.663,-0.2391357421875,0.16357421875,0.94775390625,1.2261962890625,-0.97198486328125,0.201873779296875,1.0,1.0,4.0,1.0,1.0,100.0,event
13:25:42.949,-0.25923005,0.6887135,0.35635173,0.06980674,0.47266766,-0.25241026,-0.20391689,0.2904616,0.7876054,0.018393148,-0.35412243,0.7517189,0.44225937,0.2989442,-0.43244848,0.43908724,0.44056526,-0.13335586,-0.6499909,0.2698041,777.25275,316.7033,850.18317,774.43225,961.79486,-0.2391357421875,0.16357421875,0.94775390625,1.2261962890625,-0.97198486328125,0.201873779296875,1.0,1.0,4.0,1.0,1.0,100.0,event
13:25:42.949,-0.25923005,0.6887135,0.35635173,0.06980674,0.47266766,-0.25241026,-0.20391689,0.2904616,0.7876054,0.018393148,-0.35412243,0.7517189,0.44225937,0.2989442,-0.43244848,0.43908724,0.44056526,-0.13335586,-0.6499909,0.2698041,805.8608,88.24176,849.3773,774.43225,1124.1758,-0.2391357421875,0.16357421875,0.94775390625,1.2261962890625,-0.97198486328125,0.201873779296875,1.0,1.0,4.0,1.0,1.0,100.0,event
13:25:42.950,-0.25923005,0.6887135,0.35635173,0.06980674,0.47266766,-0.25241026,-0.20391689,0.2904616,0.7876054,0.018393148,-0.35412243,0.7517189,0.44225937,0.2989442,-0.43244848,0.43908724,0.44056526,-0.13335586,-0.6499909,0.2698041,781.28204,879.19415,844.94507,751.8681,842.9304,-0.2391357421875,0.16357421875,0.94775390625,1.2261962890625,-0.97198486328125,0.201873779296875,1.0,1.0,4.0,1.0,1.0,100.0,event
13:25:42.951,-0.25923005,0.6887135,0.35635173,0.06980674,0.47266766,-0.25241026,-0.20391689,0.2904616,0.7876054,0.018393148,-0.35412243,0.7517189,0.44225937,0.2989442,-0.43244848,0.43908724,0.44056526,-0.13335586,-0.6499909,0.2698041,789.7436,1050.0366,846.55676,764.35895,691.4286,-0.2391357421875,0.16357421875,0.94775390625,1.2261962890625,-0.97198486328125,0.201873779296875,1.0,1.0,4.0,1.0,1.0,100.0,event
13:25:42.952,-0.25923005,0.6887135,0.35635173,0.06980674,0.47266766,-0.25241026,-0.20391689,0.2904616,0.7876054,0.018393148,-0.35412243,0.7517189,0.44225937,0.2989442,-0.43244848,0.43908724,0.44056526,-0.13335586,-0.6499909,0.2698041,790.14655,672.0879,848.97437,757.1062,697.0696,-0.2391357421875,0.16357421875,0.94775390625,1.2261962890625,-0.97198486328125,0.201873779296875,1.0,1.0,4.0,1.0,1.0,100.0,event
13:25:42.975,-0.25923005,0.6887135,0.35635173,0.06980674,0.47266766,-0.25241026,-0.20391689,0.2904616,0.7876054,0.018393148,-0.35412243,0.7517189,0.44225937,0.2989442,-0.43244848,0.43908724,0.44056526,-0.13335586,-0.6499909,0.2698041,745.0183,851.79486,848.5714,731.31866,637.03296,-0.241455078125,0.16058349609375,0.94610595703125,2.19818115234375,-0.2392578125,0.157012939453125,1.0,1.0,4.0,1.0,1.0,100.0,event
13:25:42.976,-0.25923005,0.6887135,0.35635173,0.06980674,0.47266766,-0.25241026,-0.20391689,0.2904616,0.7876054,0.018393148,-0.35412243,0.7517189,0.44225937,0.2989442,-0.43244848,0.43908724,0.44056526,-0.13335586,-0.6499909,0.2698041,793.36993,1054.4689,851.79486,759.12085,638.24176,-0.241455078125,0.16058349609375,0.94610595703125,2.19818115234375,-0.2392578125,0.157012939453125,1.0,1.0,4.0,1.0,1.0,100.0,event
13:25:42.977,-0.25923005,0.6887135,0.35635173,0.06980674,0.47266766,-0.25241026,-0.20391689,0.2904616,0.7876054,0.018393148,-0.35412243,0.7517189,0.44225937,0.2989442,-0.43244848,0.43908724,0.44056526,-0.13335586,-0.6499909,0.2698041,830.84247,1000.4762,851.39197,775.64105,713.5897,-0.241455078125,0.16058349609375,0.94610595703125,2.19818115234375,-0.2392578125,0.157012939453125,1.0,1.0,4.0,1.0,1.0,100.0,event
13:25:42.977,-0.25923005,0.6887135,0.35635173,0.06980674,0.47266766,-0.25241026,-0.20391689,0.2904616,0.7876054,0.018393148,-0.35412243,0.7517189,0.44225937,0.2989442,-0.43244848,0.43908724,0.44056526,-0.13335586,-0.6499909,0.2698041,798.60803,839.707,852.6007,767.1795,757.9121,-0.241455078125,0.16058349609375,0.94610595703125,2.19818115234375,-0.2392578125,0.157012939453125,1.0,1.0,4.0,1.0,1.0,100.0,event
13:25:42.978,-0.25923005,0.6887135,0.35635173,0.06980674,0.47266766,-0.25241026,-0.20391689,0.2904616,0.7876054,0.018393148,-0.35412243,0.7517189,0.44225937,0.2989442,-0.43244848,0.43908724,0.44056526,-0.13335586,-0.6499909,0.2698041,762.74725,858.6447,855.0183,779.2674,747.4359,-0.241455078125,0.16058349609375,0.94610595703125,2.19818115234375,-0.2392578125,0.157012939453125,1.0,1.0,4.0,1.0,1.0,100.0,event
13:25:42.979,-0.25923005,0.6887135,0.35635173,0.06980674,0.47266766,-0.25241026,-0.20391689,0.2904616,0.7876054,0.018393148,-0.35412243,0.7517189,0.44225937,0.2989442,-0.43244848,0.43908724,0.44056526,-0.13335586,-0.6499909,0.2698041,774.43225,758.71796,851.39197,780.07324,798.20514,-0.241455078125,0.16058349609375,0.94610595703125,2.19818115234375,-0.2392578125,0.157012939453125,1.0,1.0,4.0,1.0,1.0,100.0,event
13:25:42.979,-0.25923005,0.6887135,0.35635173,0.06980674,0.47266766,-0.25241026,-0.20391689,0.2904616,0.7876054,0.018393148,-0.35412243,0.7517189,0.44225937,0.2989442,-0.43244848,0.43908724,0.44056526,-0.13335586,-0.6499909,0.2698041,781.28204,583.44324,855.42126,775.2381,845.7509,-0.241455078125,0.16058349609375,0.94610595703125,2.19818115234375,-0.2392578125,0.157012939453125,1.0,1.0,4.0,1.0,1.0,100.0,event
13:25:42.980,-0.25923005,0.6887135,0.35635173,0.06980674,0.47266766,-0.25241026,-0.20391689,0.2904616,0.7876054,0.018393148,-0.35412243,0.7517189,0.44225937,0.2989442,-0.43244848,0.43908724,0.44056526,-0.13335586,-0.6499909,0.2698041,784.5055,118.86447,859.85345,772.4176,1082.2711,-0.241455078125,0.16058349609375,0.94610595703125,2.19818115234375,-0.2392578125,0.157012939453125,1.0,1.0,4.0,1.0,1.0,100.0,event
13:25:42.981,-0.25923005,0.6887135,0.35635173,0.06980674,0.47266766,-0.25241026,-0.20391689,0.2904616,0.7876054,0.018393148,-0.35412243,0.7517189,0.44225937,0.2989442,-0.43244848,0.43908724,0.44056526,-0.13335586,-0.6499909,0.2698041,804.2491,328.7912,859.45056,784.10254,979.12085,-0.241455078125,0.16058349609375,0.94610595703125,2.19818115234375,-0.2392578125,0.157012939453125,1.0,1.0,4.0,1.0,1.0,100.0,event
13:25:42.981,-0.25923005,0.6887135,0.35635173,0.06980674,0.47266766,-0.25241026,-0.20391689,0.2904616,0.7876054,0.018393148,-0.35412243,0.7517189,0.44225937,0.2989442,-0.43244848,0.43908724,0.44056526,-0.13335586,-0.6499909,0.2698041,815.9341,924.3223,862.674,788.5348,676.52014,-0.241455078125,0.16058349609375,0.94610595703125,2.19818115234375,-0.2392578125,0.157012939453125,1.0,1.0,4.0,1.0,1.0,100.0,event
13:25:42.982,-0.25923005,0.6887135,0.35635173,0.06980674,0.47266766,-0.25241026,-0.20391689,0.2904616,0.7876054,0.018393148,-0.35412243,0.7517189,0.44225937,0.2989442,-0.43244848,0.43908724,0.44056526,-0.13335586,-0.6499909,0.2698041,787.72894,812.3077,857.4359,777.6557,749.0476,-0.241455078125,0.16058349609375,0.94610595703125,2.19818115234375,-0.2392578125,0.157012939453125,1.0,1.0,4.0,1.0,1.0,100.0,event
13:25:42.983,-0.25923005,0.6887135,0.35635173,0.06980674,0.47266766,-0.25241026,-0.20391689,0.2904616,0.7876054,0.018393148,-0.35412243,0.7517189,0.44225937,0.2989442,-0.43244848,0.43908724,0.44056526,-0.13335586,-0.6499909,0.2698041,790.54944,805.05493,853.4066,782.49084,786.52014,-0.241455078125,0.16058349609375,0.94610595703125,2.19818115234375,-0.2392578125,0.157012939453125,1.0,1.0,4.0,1.0,1.0,100.0,event
13:25:43.029,-0.25923005,0.6887135,0.35635173,0.06980674,0.47266766,-0.25241026,-0.20391689,0.2904616,0.7876054,0.018393148,-0.35412243,0.7517189,0.44225937,0.2989442,-0.43244848,0.43908724,0.44056526,-0.13335586,-0.6499909,0.2698041,814.3223,1096.7766,852.1978,795.78754,718.8278,-0.244873046875,0.1641845703125,0.94183349609375,1.936492919921875,-0.61309814453125,-0.07476806640625,1.0,1.0,4.0,1.0,1.0,100.0,event
13:25:43.030,-0.25923005,0.6887135,0.35635173,0.06980674,0.47266766,-0.25241026,-0.20391689,0.2904616,0.7876054,0.018393148,-0.35412243,0.7517189,0.44225937,0.2989442,-0.43244848,0.43908724,0.44056526,-0.13335586,-0.6499909,0.2698041,813.91943,1095.5677,851.79486,782.49084,738.97437,-0.244873046875,0.1641845703125,0.94183349609375,1.936492919921875,-0.61309814453125,-0.07476806640625,1.0,1.0,4.0,1.0,1.0,100.0,event
13:25:43.031,-0.25923005,0.6887135,0.35635173,0.06980674,0.47266766,-0.25241026,-0.20391689,0.2904616,0.7876054,0.018393148,-0.35412243,0.7517189,0.44225937,0.2989442,-0.43244848,0.43908724,0.44056526,-0.13335586,-0.6499909,0.2698041,793.7729,749.85345,850.58606,782.0879,790.54944,-0.244873046875,0.1641845703125,0.94183349609375,1.936492919921875,-0.61309814453125,-0.07476806640625,1.0,1.0,4.0,1.0,1.0,100.0,event
13:25:43.032,-0.25923005,0.6887135,0.35635173,0.06980674,0.47266766,-0.25241026,-0.20391689,0.2904616,0.7876054,0.018393148,-0.35412243,0.7517189,0.44225937,0.2989442,-0.43244848,0.43908724,0.44056526,-0.13335586,-0.6499909,0.2698041,769.19415,768.3883,850.18317,793.36993,765.16486,-0.244873046875,0.1641845703125,0.94183349609375,1.936492919921875,-0.61309814453125,-0.07476806640625,1.0,1.0,4.0,1.0,1.0,100.0,event
13:25:43.032,-0.25923005,0.6887135,0.35635173,0.06980674,0.47266766,-0.25241026,-0.20391689,0.2904616,0.7876054,0.018393148,-0.35412243,0.7517189,0.44225937,0.2989442,-0.43244848,0.43908724,0.44056526,-0.13335586,-0.6499909,0.2698041,776.04395,997.6557,852.1978,790.9524,786.52014,-0.244873046875,0.1641845703125,0.94183349609375,1.936492919921875,-0.61309814453125,-0.07476806640625,1.0,1.0,4.0,1.0,1.0,100.0,event
13:25:43.033,-0.26079592,0.6887135,0.38218302,0.11490278,0.50503606,-0.25241026,-0.2021867,0.32078663,0.8170736,0.018393148,-0.3116201,0.80178314,0.47713393,0.2989442,-0.43071413,0.4539744,0.51134616,-0.13335586,-0.6215357,0.3118402,820.7692,956.1539,848.5714,791.75824,897.72894,-0.244873046875,0.1641845703125,0.94183349609375,1.936492919921875,-0.61309814453125,-0.07476806640625,1.0,1.0,4.0,1.0,1.0,100.0,event
13:25:43.037,-0.26079592,0.6887135,0.38218302,0.11490278,0.50503606,-0.25241026,-0.2021867,0.32078663,0.8170736,0.018393148,-0.3116201,0.80178314,0.47713393,0.2989442,-0.43071413,0.4539744,0.51134616,-0.13335586,-0.6215357,0.3118402,826.4103,440.80585,844.94507,803.0403,1074.2124,-0.244873046875,0.1641845703125,0.94183349609375,1.936492919921875,-0.61309814453125,-0.07476806640625,1.0,1.0,4.0,1.0,1.0,100.0,event
13:25:43.037,-0.26079592,0.6887135,0.38218302,0.11490278,0.50503606,-0.25241026,-0.2021867,0.32078663,0.8170736,0.018393148,-0.3116201,0.80178314,0.47713393,0.2989442,-0.43071413,0.4539744,0.51134616,-0.13335586,-0.6215357,0.3118402,807.8755,239.74359,843.73627,796.5934,1022.23444,-0.244873046875,0.1641845703125,0.94183349609375,1.936492919921875,-0.61309814453125,-0.07476806640625,1.0,1.0,4.0,1.0,1.0,100.0,event
13:25:43.038,-0.26079592,0.6887135,0.38218302,0.11490278,0.50503606,-0.25241026,-0.2021867,0.32078663,0.8170736,0.018393148,-0.3116201,0.80178314,0.47713393,0.2989442,-0.43071413,0.4539744,0.51134616,-0.13335586,-0.6215357,0.3118402,788.1319,867.9121,842.52747,768.3883,782.49084,-0.244873046875,0.1641845703125,0.94183349609375,1.936492919921875,-0.61309814453125,-0.07476806640625,1.0,1.0,4.0,1.0,1.0,100.0,event
13:25:43.039,-0.26079592,0.6887135,0.38218302,0.11490278,0.50503606,-0.25241026,-0.2021867,0.32078663,0.8170736,0.018393148,-0.3116201,0.80178314,0.47713393,0.2989442,-0.43071413,0.4539744,0.51134616,-0.13335586,-0.6215357,0.3118402,807.8755,672.0879,845.7509,803.44324,906.5934,-0.244873046875,0.1641845703125,0.94183349609375,1.936492919921875,-0.61309814453125,-0.07476806640625,1.0,1.0,4.0,1.0,1.0,100.0,event
13:25:43.039,-0.26079592,0.6887135,0.38218302,0.11490278,0.50503606,-0.25241026,-0.2021867,0.32078663,0.8170736,0.018393148,-0.3116201,0.80178314,0.47713393,0.2989442,-0.43071413,0.4539744,0.51134616,-0.13335586,-0.6215357,0.3118402,791.3553,969.85345,842.9304,772.8205,831.6484,-0.244873046875,0.1641845703125,0.94183349609375,1.936492919921875,-0.61309814453125,-0.07476806640625,1.0,1.0,4.0,1.0,1.0,100.0,event
13:25:43.040,-0.26079592,0.6887135,0.38218302,0.11490278,0.50503606,-0.25241026,-0.2021867,0.32078663,0.8170736,0.018393148,-0.3116201,0.80178314,0.47713393,0.2989442,-0.43071413,0.4539744,0.51134616,-0.13335586,-0.6215357,0.3118402,818.7546,847.3626,847.3626,813.1135,754.68866,-0.244873046875,0.1641845703125,0.94183349609375,1.936492919921875,-0.61309814453125,-0.07476806640625,1.0,1.0,4.0,1.0,1.0,100.0,event
13:25:43.063,-0.26079592,0.6887135,0.38218302,0.11490278,0.50503606,-0.25241026,-0.2021867,0.32078663,0.8170736,0.018393148,-0.3116201,0.80178314,0.47713393,0.2989442,-0.43071413,0.4539744,0.51134616,-0.13335586,-0.6215357,0.3118402,828.022,1045.6044,840.9158,802.6374,716.0073,-0.249267578125,0.1629638671875,0.94671630859375,1.8841552734375,-1.263580322265625,-0.3887939453125,1.0,1.0,4.0,1.0,1.0,100.0,event
13:25:43.064,-0.26079592,0.6887135,0.38218302,0.11490278,0.50503606,-0.25241026,-0.2021867,0.32078663,0.8170736,0.018393148,-0.3116201,0.80178314,0.47713393,0.2989442,-0.43071413,0.4539744,0.51134616,-0.13335586,-0.6215357,0.3118402,818.3516,805.05493,839.707,797.3993,758.315,-0.249267578125,0.1629638671875,0.94671630859375,1.8841552734375,-1.263580322265625,-0.3887939453125,1.0,1.0,4.0,1.0,1.0,100.0,event
13:25:43.065,-0.26079592,0.6887135,0.38218302,0.11490278,0.50503606,-0.25241026,-0.2021867,0.32078663,0.8170736,0.018393148,-0.3116201,0.80178314,0.47713393,0.2989442,-0.43071413,0.4539744,0.51134616,-0.13335586,-0.6215357,0.3118402,802.23444,429.5238,840.5128,799.011,873.5531,-0.249267578125,0.1629638671875,0.94671630859375,1.8841552734375,-1.263580322265625,-0.3887939453125,1.0,1.0,4.0,1.0,1.0,100.0,event
13:25:43.065,-0.26079592,0.6887135,0.38218302,0.11490278,0.50503606,-0.25241026,-0.2021867,0.32078663,0.8170736,0.018393148,-0.3116201,0.80178314,0.47713393,0.2989442,-0.43071413,0.4539744,0.51134616,-0.13335586,-0.6215357,0.3118402,799.81683,838.9011,839.707,801.4286,825.6044,-0.249267578125,0.1629638671875,0.94671630859375,1.8841552734375,-1.263580322265625,-0.3887939453125,1.0,1.0,4.0,1.0,1.0,100.0,event
13:25:43.066,-0.26079592,0.6887135,0.38218302,0.11490278,0.50503606,-0.25241026,-0.2021867,0.32078663,0.8170736,0.018393148,-0.3116201,0.80178314,0.47713393,0.2989442,-0.43071413,0.4539744,0.51134616,-0.13335586,-0.6215357,0.3118402,799.81683,1123.37,841.31866,804.2491,765.16486,-0.249267578125,0.1629638671875,0.94671630859375,1.8841552734375,-1.263580322265625,-0.3887939453125,1.0,1.0,4.0,1.0,1.0,100.0,event
13:25:43.066,-0.26079592,0.6887135,0.38218302,0.11490278,0.50503606,-0.25241026,-0.2021867,0.32078663,0.8170736,0.018393148,-0.3116201,0.80178314,0.47713393,0.2989442,-0.43071413,0.4539744,0.51134616,-0.13335586,-0.6215357,0.3118402,813.1135,695.8608,840.5128,808.68134,906.5934,-0.249267578125,0.1629638671875,0.94671630859375,1.8841552734375,-1.263580322265625,-0.3887939453125,1.0,1.0,4.0,1.0,1.0,100.0,event
13:25:43.067,-0.26079592,0.6887135,0.38218302,0.11490278,0.50503606,-0.25241026,-0.2021867,0.32078663,0.8170736,0.018393148,-0.3116201,0.80178314,0.47713393,0.2989442,-0.43071413,0.4539744,0.51134616,-0.13335586,-0.6215357,0.3118402,814.7253,389.6337,832.8571,805.8608,1013.36993,-0.249267578125,0.1629638671875,0.94671630859375,1.8841552734375,-1.263580322265625,-0.3887939453125,1.0,1.0,4.0,1.0,1.0,100.0,event
13:25:43.067,-0.26079592,0.6887135,0.38218302,0.11490278,0.50503606,-0.25241026,-0.2021867,0.32078663,0.8170736,0.018393148,-0.3116201,0.80178314,0.47713393,0.2989442,-0.43071413,0.4539744,0.51134616,-0.13335586,-0.6215357,0.3118402,799.011,683.36993,828.022,798.60803,838.9011,-0.249267578125,0.1629638671875,0.94671630859375,1.8841552734375,-1.263580322265625,-0.3887939453125,1.0,1.0,4.0,1.0,1.0,100.0,event
13:25:43.068,-0.26079592,0.6887135,0.38218302,0.11490278,0.50503606,-0.25241026,-0.2021867,0.32078663,0.8170736,0.018393148,-0.3116201,0.80178314,0.47713393,0.2989442,-0.43071413,0.4539744,0.51134616,-0.13335586,-0.6215357,0.3118402,810.696,1036.337,828.022,799.81683,667.6557,-0.249267578125,0.1629638671875,0.94671630859375,1.8841552734375,-1.263580322265625,-0.3887939453125,1.0,1.0,4.0,1.0,1.0,100.0,event
13:25:43.069,-0.26079592,0.6887135,0.38218302,0.11490278,0.50503606,-0.25241026,-0.2021867,0.32078663,0.8170736,0.018393148,-0.3116201,0.80178314,0.47713393,0.2989442,-0.43071413,0.4539744,0.51134616,-0.13335586,-0.6215357,0.3118402,807.47253,794.9817,830.0366,812.3077,771.6117,-0.249267578125,0.1629638671875,0.94671630859375,1.8841552734375,-1.263580322265625,-0.3887939453125,1.0,1.0,4.0,1.0,1.0,100.0,event
13:25:43.069,-0.26079592,0.6887135,0.38218302,0.11490278,0.50503606,-0.25241026,-0.2021867,0.32078663,0.8170736,0.018393148,-0.3116201,0.80178314,0.47713393,0.2989442,-0.43071413,0.4539744,0.51134616,-0.13335586,-0.6215357,0.3118402,805.8608,156.73993,831.6484,810.293,968.24176,-0.249267578125,0.1629638671875,0.94671630859375,1.8841552734375,-1.263580322265625,-0.3887939453125,1.0,1.0,4.0,1.0,1.0,100.0,event
13:25:43.070,-0.26079592,0.6887135,0.38218302,0.11490278,0.50503606,-0.25241026,-0.2021867,0.32078663,0.8170736,0.018393148,-0.3116201,0.80178314,0.47713393,0.2989442,-0.43071413,0.4539744,0.51134616,-0.13335586,-0.6215357,0.3118402,791.75824,496.00732,832.4542,805.4579,731.31866,-0.249267578125,0.1629638671875,0.94671630859375,1.8841552734375,-1.263580322265625,-0.3887939453125,1.0,1.0,4.0,1.0,1.0,100.0,event
13:25:43.131,-0.26079592,0.6887135,0.38218302,0.11490278,0.50503606,-0.25241026,-0.2021867,0.32078663,0.8170736,0.018393148,-0.3116201,0.80178314,0.47713393,0.2989442,-0.43071413,0.4539744,0.51134616,-0.13335586,-0.6215357,0.3118402,777.6557,891.28204,832.4542,809.89014,620.9158,-0.2481689453125,0.16375732421875,0.94769287109375,2.31781005859375,-2.46734619140625,0.695343017578125,1.0,1.0,4.0,1.0,1.0,100.0,event
13:25:43.133,-0.26079592,0.6887135,0.38218302,0.11490278,0.50503606,-0.25241026,-0.2021867,0.32078663,0.8170736,0.018393148,-0.3116201,0.80178314,0.47713393,0.2989442,-0.43071413,0.4539744,0.51134616,-0.13335586,-0.6215357,0.3118402,799.41394,596.337,833.663,809.4872,826.0073,-0.2481689453125,0.16375732421875,0.94769287109375,2.31781005859375,-2.46734619140625,0.695343017578125,1.0,1.0,4.0,1.0,1.0,100.0,event
13:25:43.133,-0.26079592,0.6887135,0.38218302,0.11490278,0.50503606,-0.25241026,-0.2021867,0.32078663,0.8170736,0.018393148,-0.3116201,0.80178314,0.47713393,0.2989442,-0.43071413,0.4539744,0.51134616,-0.13335586,-0.6215357,0.3118402,815.5311,653.5531,829.6337,822.381,862.674,-0.2481689453125,0.16375732421875,0.94769287109375,2.31781005859375,-2.46734619140625,0.695343017578125,1.0,1.0,4.0,1.0,1.0,100.0,event
13:25:43.134,-0.26079592,0.6887135,0.38218302,0.11490278,0.50503606,-0.25241026,-0.2021867,0.32078663,0.8170736,0.018393148,-0.3116201,0.80178314,0.47713393,0.2989442,-0.43071413,0.4539744,0.51134616,-0.13335586,-0.6215357,0.3118402,811.50183,991.2088,825.2015,823.9927,773.6264,-0.2481689453125,0.16375732421875,0.94769287109375,2.31781005859375,-2.46734619140625,0.695343017578125,1.0,1.0,4.0,1.0,1.0,100.0,event
13:25:43.135,-0.26079592,0.6887135,0.38218302,0.11490278,0.50503606,-0.25241026,-0.2021867,0.32078663,0.8170736,0.018393148,-0.3116201,0.80178314,0.47713393,0.2989442,-0.43071413,0.4539744,0.51134616,-0.13335586,-0.6215357,0.3118402,780.4762,913.44324,823.1868,794.57874,770.40295,-0.2481689453125,0.16375732421875,0.94769287109375,2.31781005859375,-2.46734619140625,0.695343017578125,1.0,1.0,4.0,1.0,1.0,100.0,event
13:25:43.136,-0.26079592,0.6887135,0.38218302,0.11490278,0.50503606,-0.25241026,-0.2021867,0.32078663,0.8170736,0.018393148,-0.3116201,0.80178314,0.47713393,0.2989442,-0.43071413,0.4539744,0.51134616,-0.13335586,-0.6215357,0.3118402,780.07324,541.9414,821.978,786.9231,875.9707,-0.2481689453125,0.16375732421875,0.94769287109375,2.31781005859375,-2.46734619140625,0.695343017578125,1.0,1.0,4.0,1.0,1.0,100.0,event
13:25:43.136,-0.26079592,0.6887135,0.38218302,0.11490278,0.50503606,-0.25241026,-0.2021867,0.32078663,0.8170736,0.018393148,-0.3116201,0.80178314,0.47713393,0.2989442,-0.43071413,0.4539744,0.51134616,-0.13335586,-0.6215357,0.3118402,792.96704,502.05127,822.381,790.54944,898.5348,-0.2481689453125,0.16375732421875,0.94769287109375,2.31781005859375,-2.46734619140625,0.695343017578125,1.0,1.0,4.0,1.0,1.0,100.0,event
13:25:43.137,-0.26542324,0.6887135,0.37141433,0.2148881,0.5225008,-0.25241026,-0.18339686,0.34464723,0.8394681,0.018393148,-0.3116201,0.8232369,0.5157274,0.2989442,-0.4307634,0.4780913,0.5672974,-0.13335586,-0.6097954,0.35623074,806.26373,854.61536,821.5751,792.1612,770.40295,-0.2481689453125,0.16375732421875,0.94769287109375,2.31781005859375,-2.46734619140625,0.695343017578125,1.0,1.0,4.0,1.0,1.0,100.0,event
13:25:43.142,-0.26542324,0.6887135,0.37141433,0.2148881,0.5225008,-0.25241026,-0.18339686,0.34464723,0.8394681,0.018393148,-0.3116201,0.8232369,0.5157274,0.2989442,-0.4307634,0.4780913,0.5672974,-0.13335586,-0.6097954,0.35623074,813.1135,955.7509,817.9487,793.36993,732.52747,-0.2481689453125,0.16375732421875,0.94769287109375,2.31781005859375,-2.46734619140625,0.695343017578125,1.0,1.0,4.0,1.0,1.0,100.0,event
13:25:43.142,-0.26542324,0.6887135,0.37141433,0.2148881,0.5225008,-0.25241026,-0.18339686,0.34464723,0.8394681,0.018393148,-0.3116201,0.8232369,0.5157274,0.2989442,-0.4307634,0.4780913,0.5672974,-0.13335586,-0.6097954,0.35623074,790.14655,330.80585,815.12823,797.3993,906.99634,-0.2481689453125,0.16375732421875,0.94769287109375,2.31781005859375,-2.46734619140625,0.695343017578125,1.0,1.0,4.0,1.0,1.0,100.0,event
13:25:43.143,-0.26542324,0.6887135,0.37141433,0.2148881,0.5225008,-0.25241026,-0.18339686,0.34464723,0.8394681,0.018393148,-0.3116201,0.8232369,0.5157274,0.2989442,-0.4307634,0.4780913,0.5672974,-0.13335586,-0.6097954,0.35623074,786.1172,340.4762,817.1429,798.60803,854.21246,-0.2481689453125,0.16375732421875,0.94769287109375,2.31781005859375,-2.46734619140625,0.695343017578125,1.0,1.0,4.0,1.0,1.0,100.0,event
13:25:43.144,-0.26542324,0.6887135,0.37141433,0.2148881,0.5225008,-0.25241026,-0.18339686,0.34464723,0.8394681,0.018393148,-0.3116201,0.8232369,0.5157274,0.2989442,-0.4307634,0.4780913,0.5672974,-0.13335586,-0.6097954,0.35623074,797.8022,965.42126,817.9487,777.25275,692.6374,-0.2481689453125,0.16375732421875,0.94769287109375,2.31781005859375,-2.46734619140625,0.695343017578125,1.0,1.0,4.0,1.0,1.0,100.0,event
13:25:43.167,-0.26542324,0.6887135,0.37141433,0.2148881,0.5225008,-0.25241026,-0.18339686,0.34464723,0.8394681,0.018393148,-0.3116201,0.8232369,0.5157274,0.2989442,-0.4307634,0.4780913,0.5672974,-0.13335586,-0.6097954,0.35623074,800.6227,937.2161,815.5311,783.2967,709.9634,-0.2481689453125,0.16375732421875,0.94769287109375,2.31781005859375,-2.46734619140625,0.695343017578125,1.0,1.0,4.0,1.0,1.0,100.0,event
13:25:43.168,-0.26542324,0.6887135,0.37141433,0.2148881,0.5225008,-0.25241026,-0.18339686,0.34464723,0.8394681,0.018393148,-0.3116201,0.8232369,0.5157274,0.2989442,-0.4307634,0.4780913,0.5672974,-0.13335586,-0.6097954,0.35623074,797.8022,709.9634,811.9048,797.3993,755.4945,-0.2481689453125,0.16375732421875,0.94769287109375,2.31781005859375,-2.46734619140625,0.695343017578125,1.0,1.0,4.0,1.0,1.0,100.0,event
13:25:43.169,-0.26542324,0.6887135,0.37141433,0.2148881,0.5225008,-0.25241026,-0.18339686,0.34464723,0.8394681,0.018393148,-0.3116201,0.8232369,0.5157274,0.2989442,-0.4307634,0.4780913,0.5672974,-0.13335586,-0.6097954,0.35623074,805.8608,794.9817,810.293,799.41394,751.4652,-0.2481689453125,0.16375732421875,0.94769287109375,2.31781005859375,-2.46734619140625,0.695343017578125,1.0,1.0,4.0,1.0,1.0,100.0,event
13:25:43.169,-0.26542324,0.6887135,0.37141433,0.2148881,0.5225008,-0.25241026,-0.18339686,0.34464723,0.8394681,0.018393148,-0.3116201,0.8232369,0.5157274,0.2989442,-0.4307634,0.4780913,0.5672974,-0.13335586,-0.6097954,0.35623074,794.17584,888.86444,809.4872,793.7729,726.08057,-0.2481689453125,0.16375732421875,0.94769287109375,2.31781005859375,-2.46734619140625,0.695343017578125,1.0,1.0,4.0,1.0,1.0,100.0,event
13:25:43.170,-0.26542324,0.6887135,0.37141433,0.2148881,0.5225008,-0.25241026,-0.18339686,0.34464723,0.8394681,0.018393148,-0.3116201,0.8232369,0.5157274,0.2989442,-0.4307634,0.4780913,0.5672974,-0.13335586,-0.6097954,0.35623074,785.7143,681.3553,809.89014,798.20514,902.96704,-0.2481689453125,0.16375732421875,0.94769287109375,2.31781005859375,-2.46734619140625,0.695343017578125,1.0,1.0,4.0,1.0,1.0,100.0,event
13:25:43.171,-0.26542324,0.6887135,0.37141433,0.2148881,0.5225008,-0.25241026,-0.18339686,0.34464723,0.8394681,0.018393148,-0.3116201,0.8232369,0.5157274,0.2989442,-0.4307634,0.4780913,0.5672974,-0.13335586,-0.6097954,0.35623074,784.10254,231.28206,812.3077,807.8755,1041.5751,-0.2481689453125,0.16375732421875,0.94769287109375,2.31781005859375,-2.46734619140625,0.695343017578125,1.0,1.0,4.0,1.0,1.0,100.0,event
13:25:43.172,-0.26542324,0.6887135,0.37141433,0.2148881,0.5225008,-0.25241026,-0.18339686,0.34464723,0.8394681,0.018393148,-0.3116201,0.8232369,0.5157274,0.2989442,-0.4307634,0.4780913,0.5672974,-0.13335586,-0.6097954,0.35623074,792.1612,393.26007,809.89014,803.44324,855.42126,-0.2481689453125,0.16375732421875,0.94769287109375,2.31781005859375,-2.46734619140625,0.695343017578125,1.0,1.0,4.0,1.0,1.0,100.0,event
13:25:43.172,-0.26542324,0.6887135,0.37141433,0.2148881,0.5225008,-0.25241026,-0.18339686,0.34464723,0.8394681,0.018393148,-0.3116201,0.8232369,0.5157274,0.2989442,-0.4307634,0.4780913,0.5672974,-0.13335586,-0.6097954,0.35623074,811.0989,783.69965,807.47253,805.4579,666.8498,-0.2481689453125,0.16375732421875,0.94769287109375,2.31781005859375,-2.46734619140625,0.695343017578125,1.0,1.0,4.0,1.0,1.0,100.0,event
13:25:43.173,-0.26542324,0.6887135,0.37141433,0.2148881,0.5225008,-0.25241026,-0.18339686,0.34464723,0.8394681,0.018393148,-0.3116201,0.8232369,0.5157274,0.2989442,-0.4307634,0.4780913,0.5672974,-0.13335586,-0.6097954,0.35623074,792.5641,572.1612,810.293,810.696,710.7692,-0.2481689453125,0.16375732421875,0.94769287109375,2.31781005859375,-2.46734619140625,0.695343017578125,1.0,1.0,4.0,1.0,1.0,100.0,event
13:25:43.174,-0.26542324,0.6887135,0.37141433,0.2148881,0.5225008,-0.25241026,-0.18339686,0.34464723,0.8394681,0.018393148,-0.3116201,0.8232369,0.5157274,0.2989442,-0.4307634,0.4780913,0.5672974,-0.13335586,-0.6097954,0.35623074,782.8938,215.16484,810.293,791.75824,932.381,-0.2481689453125,0.16375732421875,0.94769287109375,2.31781005859375,-2.46734619140625,0.695343017578125,1.0,1.0,4.0,1.0,1.0,100.0,event
13:25:43.174,-0.26542324,0.6887135,0.37141433,0.2148881,0.5225008,-0.25241026,-0.18339686,0.34464723,0.8394681,0.018393148,-0.3116201,0.8232369,0.5157274,0.2989442,-0.4307634,0.4780913,0.5672974,-0.13335586,-0.6097954,0.35623074,797.8022,714.3956,807.8755,790.9524,778.0586,-0.2481689453125,0.16375732421875,0.94769287109375,2.31781005859375,-2.46734619140625,0.695343017578125,1.0,1.0,4.0,1.0,1.0,100.0,event
13:25:43.175,-0.26542324,0.6887135,0.37141433,0.2148881,0.5225008,-0.25241026,-0.18339686,0.34464723,0.8394681,0.018393148,-0.3116201,0.8232369,0.5157274,0.2989442,-0.4307634,0.4780913,0.5672974,-0.13335586,-0.6097954,0.35623074,799.81683,950.5128,800.2198,807.47253,722.0513,-0.2481689453125,0.16375732421875,0.94769287109375,2.31781005859375,-2.46734619140625,0.695343017578125,1.0,1.0,4.0,1.0,1.0,100.0,event
13:25:43.197,-0.26542324,0.6887135,0.37141433,0.2148881,0.5225008,-0.25241026,-0.18339686,0.34464723,0.8394681,0.018393148,-0.3116201,0.8232369,0.5157274,0.2989442,-0.4307634,0.4780913,0.5672974,-0.13335586,-0.6097954,0.35623074,817.1429,676.52014,801.02563,798.20514,824.3956,-0.24359130859375,0.16046142578125,0.9334716796875,2.115936279296875,-4.3963623046875,1.308441162109375,1.0,1.0,4.0,1.0,1.0,100.0,event
13:25:43.198,-0.26542324,0.6887135,0.37141433,0.2148881,0.5225008,-0.25241026,-0.18339686,0.34464723,0.8394681,0.018393148,-0.3116201,0.8232369,0.5157274,0.2989442,-0.4307634,0.4780913,0.5672974,-0.13335586,-0.6097954,0.35623074,790.9524,629.3773,806.26373,799.011,770.80585,-0.24359130859375,0.16046142578125,0.9334716796875,2.115936279296875,-4.3963623046875,1.308441162109375,1.0,1.0,4.0,1.0,1.0,100.0,event
13:25:43.199,-0.26542324,0.6887135,0.37141433,0.2148881,0.5225008,-0.25241026,-0.18339686,0.34464723,0.8394681,0.018393148,-0.3116201,0.8232369,0.5157274,0.2989442,-0.4307634,0.4780913,0.5672974,-0.13335586,-0.6097954,0.35623074,775.2381,876.77655,803.8461,809.4872,673.69965,-0.24359130859375,0.16046142578125,0.9334716796875,2.115936279296875,-4.3963623046875,1.308441162109375,1.0,1.0,4.0,1.0,1.0,100.0,event
13:25:43.200,-0.26542324,0.6887135,0.37141433,0.2148881,0.5225008,-0.25241026,-0.18339686,0.34464723,0.8394681,0.018393148,-0.3116201,0.8232369,0.5157274,0.2989442,-0.4307634,0.4780913,0.5672974,-0.13335586,-0.6097954,0.35623074,807.47253,949.707,804.65204,801.4286,670.4762,-0.24359130859375,0.16046142578125,0.9334716796875,2.115936279296875,-4.3963623046875,1.308441162109375,1.0,1.0,4.0,1.0,1.0,100.0,event
13:25:43.201,-0.26542324,0.6887135,0.37141433,0.2148881,0.5225008,-0.25241026,-0.18339686,0.34464723,0.8394681,0.018393148,-0.3116201,0.8232369,0.5157274,0.2989442,-0.4307634,0.4780913,0.5672974,-0.13335586,-0.6097954,0.35623074,802.23444,481.0989,796.99634,792.96704,800.2198,-0.24359130859375,0.16046142578125,0.9334716796875,2.115936279296875,-4.3963623046875,1.308441162109375,1.0,1.0,4.0,1.0,1.0,100.0,event
13:25:43.201,-0.26542324,0.6887135,0.37141433,0.2148881,0.5225008,-0.25241026,-0.18339686,0.34464723,0.8394681,0.018393148,-0.3116201,0.8232369,0.5157274,0.2989442,-0.4307634,0.4780913,0.5672974,-0.13335586,-0.6097954,0.35623074,815.9341,691.4286,804.2491,799.41394,752.27106,-0.24359130859375,0.16046142578125,0.9334716796875,2.115936279296875,-4.3963623046875,1.308441162109375,1.0,1.0,4.0,1.0,1.0,100.0,event
13:25:43.202,-0.26542324,0.6887135,0.37141433,0.2148881,0.5225008,-0.25241026,-0.18339686,0.34464723,0.8394681,0.018393148,-0.3116201,0.8232369,0.5157274,0.2989442,-0.4307634,0.4780913,0.5672974,-0.13335586,-0.6097954,0.35623074,795.78754,453.69965,798.60803,791.75824,842.52747,-0.24359130859375,0.16046142578125,0.9334716796875,2.115936279296875,-4.3963623046875,1.308441162109375,1.0,1.0,4.0,1.0,1.0,100.0,event
13:25:43.202,-0.26542324,0.6887135,0.37141433,0.2148881,0.5225008,-0.25241026,-0.18339686,0.34464723,0.8394681,0.018393148,-0.3116201,0.8232369,0.5157274,0.2989442,-0.4307634,0.4780913,0.5672974,-0.13335586,-0.6097954,0.35623074,789.7436,582.23444,799.41394,796.1905,799.41394,-0.24359130859375,0.16046142578125,0.9334716796875,2.115936279296875,-4.3963623046875,1.308441162109375,1.0,1.0,4.0,1.0,1.0,100.0,event
13:25:43.203,-0.26542324,0.6887135,0.37141433,0.2148881,0.5225008,-0.25241026,-0.18339686,0.34464723,0.8394681,0.018393148,-0.3116201,0.8232369,0.5157274,0.2989442,-0.4307634,0.4780913,0.5672974,-0.13335586,-0.6097954,0.35623074,799.011,279.23077,794.17584,796.5934,922.71063,-0.24359130859375,0.16046142578125,0.9334716796875,2.115936279296875,-4.3963623046875,1.308441162109375,1.0,1.0,4.0,1.0,1.0,100.0,event
13:25:43.204,-0.26518783,0.6887135,0.34937978,0.34605253,0.53495175,-0.25241026,-0.16814284,0.3847397,0.84573275,0.018393148,-0.3116201,0.8429723,0.5638829,0.2989442,-0.42714882,0.5066859,0.60903,-0.13335586,-0.6023402,0.40356603,808.2784,53.992676,794.57874,791.75824,1060.5128,-0.24359130859375,0.16046142578125,0.9334716796875,2.115936279296875,-4.3963623046875,1.308441162109375,1.0,1.0,4.0,1.0,1.0,100.0,event
13:25:43.209,-0.26518783,0.6887135,0.34937978,0.34605253,0.53495175,-0.25241026,-0.16814284,0.3847397,0.84573275,0.018393148,-0.3116201,0.8429723,0.5638829,0.2989442,-0.42714882,0.5066859,0.60903,-0.13335586,-0.6023402,0.40356603,799.41394,706.7399,792.96704,795.38464,781.28204,-0.24359130859375,0.16046142578125,0.9334716796875,2.115936279296875,-4.3963623046875,1.308441162109375,1.0,1.0,4.0,1.0,1.0,100.0,event
13:25:43.210,-0.26518783,0.6887135,0.34937978,0.34605253,0.53495175,-0.25241026,-0.16814284,0.3847397,0.84573275,0.018393148,-0.3116201,0.8429723,0.5638829,0.2989442,-0.42714882,0.5066859,0.60903,-0.13335586,-0.6023402,0.40356603,796.99634,835.6777,789.7436,813.5165,695.4579,-0.24359130859375,0.16046142578125,0.9334716796875,2.115936279296875,-4.3963623046875,1.308441162109375,1.0,1.0,4.0,1.0,1.0,100.0,event
13:25:43.274,-0.26518783,0.6887135,0.34937978,0.34605253,0.53495175,-0.25241026,-0.16814284,0.3847397,0.84573275,0.018393148,-0.3116201,0.8429723,0.5638829,0.2989442,-0.42714882,0.5066859,0.60903,-0.13335586,-0.6023402,0.40356603,790.9524,666.04395,790.9524,807.47253,780.4762,-0.24560546875,0.16583251953125,0.958251953125,2.474822998046875,-4.66552734375,1.263580322265625,1.0,1.0,4.0,1.0,1.0,100.0,event
13:25:43.276,-0.26518783,0.6887135,0.34937978,0.34605253,0.53495175,-0.25241026,-0.16814284,0.3847397,0.84573275,0.018393148,-0.3116201,0.8429723,0.5638829,0.2989442,-0.42714882,0.5066859,0.60903,-0.13335586,-0.6023402,0.40356603,813.5165,1073.4066,790.14655,795.78754,724.4689,-0.24560546875,0.16583251953125,0.958251953125,2.474822998046875,-4.66552734375,1.263580322265625,1.0,1.0,4.0,1.0,1.0,100.0,event
13:25:43.276,-0.26518783,0.6887135,0.34937978,0.34605253,0.53495175,-0.25241026,-0.16814284,0.3847397,0.84573275,0.018393148,-0.3116201,0.8429723,0.5638829,0.2989442,-0.42714882,0.5066859,0.60903,-0.13335586,-0.6023402,0.40356603,795.78754,949.707,792.5641,798.60803,742.6007,-0.24560546875,0.16583251953125,0.958251953125,2.474822998046875,-4.66552734375,1.263580322265625,1.0,1.0,4.0,1.0,1.0,100.0,event
13:25:43.277,-0.26518783,0.6887135,0.34937978,0.34605253,0.53495175,-0.25241026,-0.16814284,0.3847397,0.84573275,0.018393148,-0.3116201,0.8429723,0.5638829,0.2989442,-0.42714882,0.5066859,0.60903,-0.13335586,-0.6023402,0.40356603,819.9634,844.1392,786.9231,798.60803,706.7399,-0.24560546875,0.16583251953125,0.958251953125,2.474822998046875,-4.66552734375,1.263580322265625,1.0,1.0,4.0,1.0,1.0,100.0,event
13:25:43.278,-0.26518783,0.6887135,0.34937978,0.34605253,0.53495175,-0.25241026,-0.16814284,0.3847397,0.84573275,0.018393148,-0.3116201,0.8429723,0.5638829,0.2989442,-0.42714882,0.5066859,0.60903,-0.13335586,-0.6023402,0.40356603,784.90845,623.3333,790.14655,807.8755,746.63007,-0.24560546875,0.16583251953125,0.958251953125,2.474822998046875,-4.66552734375,1.263580322265625,1.0,1.0,4.0,1.0,1.0,100.0,event
13:25:43.279,-0.26518783,0.6887135,0.34937978,0.34605253,0.53495175,-0.25241026,-0.16814284,0.3847397,0.84573275,0.018393148,-0.3116201,0.8429723,0.5638829,0.2989442,-0.42714882,0.5066859,0.60903,-0.13335586,-0.6023402,0.40356603,775.2381,627.76556,790.14655,788.93774,831.6484,-0.24560546875,0.16583251953125,0.958251953125,2.474822998046875,-4.66552734375,1.263580322265625,1.0,1.0,4.0,1.0,1.0,100.0,event
13:25:43.279,-0.26518783,0.6887135,0.34937978,0.34605253,0.53495175,-0.25241026,-0.16814284,0.3847397,0.84573275,0.018393148,-0.3116201,0.8429723,0.5638829,0.2989442,-0.42714882,0.5066859,0.60903,-0.13335586,-0.6023402,0.40356603,786.9231,699.89014,791.3553,772.8205,777.6557,-0.24560546875,0.16583251953125,0.958251953125,2.474822998046875,-4.66552734375,1.263580322265625,1.0,1.0,4.0,1.0,1.0,100.0,event
13:25:43.280,-0.26518783,0.6887135,0.34937978,0.34605253,0.53495175,-0.25241026,-0.16814284,0.3847397,0.84573275,0.018393148,-0.3116201,0.8429723,0.5638829,0.2989442,-0.42714882,0.5066859,0.60903,-0.13335586,-0.6023402,0.40356603,780.4762,628.5714,792.5641,805.05493,833.2601,-0.24560546875,0.16583251953125,0.958251953125,2.474822998046875,-4.66552734375,1.263580322265625,1.0,1.0,4.0,1.0,1.0,100.0,event
13:25:43.281,-0.26518783,0.6887135,0.34937978,0.34605253,0.53495175,-0.25241026,-0.16814284,0.3847397,0.84573275,0.018393148,-0.3116201,0.8429723,0.5638829,0.2989442,-0.42714882,0.5066859,0.60903,-0.13335586,-0.6023402,0.40356603,795.78754,195.42125,788.93774,813.91943,1085.0916,-0.24560546875,0.16583251953125,0.958251953125,2.474822998046875,-4.66552734375,1.263580322265625,1.0,1.0,4.0,1.0,1.0,100.0,event
13:25:43.282,-0.26518783,0.6887135,0.34937978,0.34605253,0.53495175,-0.25241026,-0.16814284,0.3847397,0.84573275,0.018393148,-0.3116201,0.8429723,0.5638829,0.2989442,-0.42714882,0.5066859,0.60903,-0.13335586,-0.6023402,0.40356603,784.90845,510.51282,789.7436,790.14655,900.14655,-0.24560546875,0.16583251953125,0.958251953125,2.474822998046875,-4.66552734375,1.263580322265625,1.0,1.0,4.0,1.0,1.0,100.0,event
13:25:43.283,-0.26518783,0.6887135,0.34937978,0.34605253,0.53495175,-0.25241026,-0.16814284,0.3847397,0.84573275,0.018393148,-0.3116201,0.8429723,0.5638829,0.2989442,-0.42714882,0.5066859,0.60903,-0.13335586,-0.6023402,0.40356603,763.5531,788.93774,790.54944,790.9524,744.21246,-0.24560546875,0.16583251953125,0.958251953125,2.474822998046875,-4.66552734375,1.263580322265625,1.0,1.0,4.0,1.0,1.0,100.0,event
13:25:43.283,-0.26518783,0.6887135,0.34937978,0.34605253,0.53495175,-0.25241026,-0.16814284,0.3847397,0.84573275,0.018393148,-0.3116201,0.8429723,0.5638829,0.2989442,-0.42714882,0.5066859,0.60903,-0.13335586,-0.6023402,0.40356603,776.8498,619.707,786.52014,777.25275,837.6923,-0.24560546875,0.16583251953125,0.958251953125,2.474822998046875,-4.66552734375,1.263580322265625,1.0,1.0,4.0,1.0,1.0,100.0,event
13:25:43.313,-0.26518783,0.6887135,0.34937978,0.34605253,0.53495175,-0.25241026,-0.16814284,0.3847397,0.84573275,0.018393148,-0.3116201,0.8429723,0.5638829,0.2989442,-0.42714882,0.5066859,0.60903,-0.13335586,-0.6023402,0.40356603,803.0403,731.7216,785.31134,774.43225,858.24176,-0.24267578125,0.161376953125,0.9412841796875,2.46734619140625,-4.269256591796875,-0.179443359375,1.0,1.0,4.0,1.0,1.0,100.0,event
13:25:43.315,-0.26518783,0.6887135,0.34937978,0.34605253,0.53495175,-0.25241026,-0.16814284,0.3847397,0.84573275,0.018393148,-0.3116201,0.8429723,0.5638829,0.2989442,-0.42714882,0.5066859,0.60903,-0.13335586,-0.6023402,0.40356603,807.8755,1008.1319,782.8938,801.02563,792.1612,-0.24267578125,0.161376953125,0.9412841796875,2.46734619140625,-4.269256591796875,-0.179443359375,1.0,1.0,4.0,1.0,1.0,100.0,event
13:25:43.316,-0.26518783,0.6887135,0.34937978,0.34605253,0.53495175,-0.25241026,-0.16814284,0.3847397,0.84573275,0.018393148,-0.3116201,0.8429723,0.5638829,0.2989442,-0.42714882,0.5066859,0.60903,-0.13335586,-0.6023402,0.40356603,792.96704,958.97437,785.31134,806.26373,806.26373,-0.24267578125,0.161376953125,0.9412841796875,2.46734619140625,-4.269256591796875,-0.179443359375,1.0,1.0,4.0,1.0,1.0,100.0,event
13:25:43.317,-0.26518783,0.6887135,0.34937978,0.34605253,0.53495175,-0.25241026,-0.16814284,0.3847397,0.84573275,0.018393148,-0.3116201,0.8429723,0.5638829,0.2989442,-0.42714882,0.5066859,0.60903,-0.13335586,-0.6023402,0.40356603,790.14655,713.5897,790.14655,793.36993,843.3333,-0.24267578125,0.161376953125,0.9412841796875,2.46734619140625,-4.269256591796875,-0.179443359375,1.0,1.0,4.0,1.0,1.0,100.0,event
13:25:43.317,-0.26518783,0.6887135,0.34937978,0.34605253,0.53495175,-0.25241026,-0.16814284,0.3847397,0.84573275,0.018393148,-0.3116201,0.8429723,0.5638829,0.2989442,-0.42714882,0.5066859,0.60903,-0.13335586,-0.6023402,0.40356603,808.2784,849.3773,788.5348,793.36993,799.41394,-0.24267578125,0.161376953125,0.9412841796875,2.46734619140625,-4.269256591796875,-0.179443359375,1.0,1.0,4.0,1.0,1.0,100.0,event
13:25:43.318,-0.26518783,0.6887135,0.34937978,0.34605253,0.53495175,-0.25241026,-0.16814284,0.3847397,0.84573275,0.018393148,-0.3116201,0.8429723,0.5638829,0.2989442,-0.42714882,0.5066859,0.60903,-0.13335586,-0.6023402,0.40356603,805.4579,835.6777,790.54944,790.9524,809.4872,-0.24267578125,0.161376953125,0.9412841796875,2.46734619140625,-4.269256591796875,-0.179443359375,1.0,1.0,4.0,1.0,1.0,100.0,event
13:25:43.319,-0.26518783,0.6887135,0.34937978,0.34605253,0.53495175,-0.25241026,-0.16814284,0.3847397,0.84573275,0.018393148,-0.3116201,0.8429723,0.5638829,0.2989442,-0.42714882,0.5066859,0.60903,-0.13335586,-0.6023402,0.40356603,780.87915,675.7143,790.54944,790.9524,849.3773,-0.24267578125,0.161376953125,0.9412841796875,2.46734619140625,-4.269256591796875,-0.179443359375,1.0,1.0,4.0,1.0,1.0,100.0,event
13:25:43.319,-0.26518783,0.6887135,0.34937978,0.34605253,0.53495175,-0.25241026,-0.16814284,0.3847397,0.84573275,0.018393148,-0.3116201,0.8429723,0.5638829,0.2989442,-0.42714882,0.5066859,0.60903,-0.13335586,-0.6023402,0.40356603,797.3993,297.76556,788.5348,796.1905,1002.49084,-0.24267578125,0.161376953125,0.9412841796875,2.46734619140625,-4.269256591796875,-0.179443359375,1.0,1.0,4.0,1.0,1.0,100.0,event
13:25:43.320,-0.26518783,0.6887135,0.34937978,0.34605253,0.53495175,-0.25241026,-0.16814284,0.3847397,0.84573275,0.018393148,-0.3116201,0.8429723,0.5638829,0.2989442,-0.42714882,0.5066859,0.60903,-0.13335586,-0.6023402,0.40356603,804.2491,269.56042,789.34064,803.44324,944.87177,-0.24267578125,0.161376953125,0.9412841796875,2.46734619140625,-4.269256591796875,-0.179443359375,1.0,1.0,4.0,1.0,1.0,100.0,event
13:25:43.321,-0.26518783,0.6887135,0.34937978,0.34605253,0.53495175,-0.25241026,-0.16814284,0.3847397,0.84573275,0.018393148,-0.3116201,0.8429723,0.5638829,0.2989442,-0.42714882,0.5066859,0.60903,-0.13335586,-0.6023402,0.40356603,809.0842,971.06226,791.3553,820.3663,763.5531,-0.24267578125,0.161376953125,0.9412841796875,2.46734619140625,-4.269256591796875,-0.179443359375,1.0,1.0,4.0,1.0,1.0,100.0,event
13:25:43.321,-0.26518783,0.6887135,0.34937978,0.34605253,0.53495175,-0.25241026,-0.16814284,0.3847397,0.84573275,0.018393148,-0.3116201,0.8429723,0.5638829,0.2989442,-0.42714882,0.5066859,0.60903,-0.13335586,-0.6023402,0.40356603,834.4689,1066.1538,796.1905,817.9487,779.2674,-0.24267578125,0.161376953125,0.9412841796875,2.46734619140625,-4.269256591796875,-0.179443359375,1.0,1.0,4.0,1.0,1.0,100.0,event
13:25:43.322,-0.2411755,0.6887135,0.3291718,0.47988465,0.55059785,-0.25241026,-0.16528192,0.45183513,0.84573275,0.018393148,-0.3173437,0.8735456,0.6152592,0.2989442,-0.41882807,0.5336847,0.6408881,-0.13335586,-0.59893256,0.44876447,828.022,749.0476,792.96704,798.60803,762.74725,-0.24267578125,0.161376953125,0.9412841796875,2.46734619140625,-4.269256591796875,-0.179443359375,1.0,1.0,4.0,1.0,1.0,100.0,event
13:25:43.352,-0.2411755,0.6887135,0.3291718,0.47988465,0.55059785,-0.25241026,-0.16528192,0.45183513,0.84573275,0.018393148,-0.3173437,0.8735456,0.6152592,0.2989442,-0.41882807,0.5336847,0.6408881,-0.13335586,-0.59893256,0.44876447,807.0696,799.41394,791.75824,800.2198,718.022,-0.23504638671875,0.16717529296875,0.955322265625,1.308441162109375,-3.33465576171875,-0.43365478515625,1.0,1.0,4.0,1.0,1.0,100.0,event
13:25:43.353,-0.2411755,0.6887135,0.3291718,0.47988465,0.55059785,-0.25241026,-0.16528192,0.45183513,0.84573275,0.018393148,-0.3173437,0.8735456,0.6152592,0.2989442,-0.41882807,0.5336847,0.6408881,-0.13335586,-0.59893256,0.44876447,805.05493,806.26373,792.5641,809.0842,707.1429,-0.23504638671875,0.16717529296875,0.955322265625,1.308441162109375,-3.33465576171875,-0.43365478515625,1.0,1.0,4.0,1.0,1.0,100.0,event
13:25:43.353,-0.2411755,0.6887135,0.3291718,0.47988465,0.55059785,-0.25241026,-0.16528192,0.45183513,0.84573275,0.018393148,-0.3173437,0.8735456,0.6152592,0.2989442,-0.41882807,0.5336847,0.6408881,-0.13335586,-0.59893256,0.44876447,805.4579,639.0476,787.326,807.0696,819.9634,-0.23504638671875,0.16717529296875,0.955322265625,1.308441162109375,-3.33465576171875,-0.43365478515625,1.0,1.0,4.0,1.0,1.0,100.0,event
13:25:43.354,-0.2411755,0.6887135,0.3291718,0.47988465,0.55059785,-0.25241026,-0.16528192,0.45183513,0.84573275,0.018393148,-0.3173437,0.8735456,0.6152592,0.2989442,-0.41882807,0.5336847,0.6408881,-0.13335586,-0.59893256,0.44876447,796.99634,556.4469,788.5348,807.8755,925.5311,-0.23504638671875,0.16717529296875,0.955322265625,1.308441162109375,-3.33465576171875,-0.43365478515625,1.0,1.0,4.0,1.0,1.0,100.0,event
13:25:43.355,-0.2411755,0.6887135,0.3291718,0.47988465,0.55059785,-0.25241026,-0.16528192,0.45183513,0.84573275,0.018393148,-0.3173437,0.8735456,0.6152592,0.2989442,-0.41882807,0.5336847,0.6408881,-0.13335586,-0.59893256,0.44876447,792.1612,869.92676,790.14655,813.5165,858.6447,-0.23504638671875,0.16717529296875,0.955322265625,1.308441162109375,-3.33465576171875,-0.43365478515625,1.0,1.0,4.0,1.0,1.0,100.0,event
13:25:43.355,-0.2411755,0.6887135,0.3291718,0.47988465,0.55059785,-0.25241026,-0.16528192,0.45183513,0.84573275,0.018393148,-0.3173437,0.8735456,0.6152592,0.2989442,-0.41882807,0.5336847,0.6408881,-0.13335586,-0.59893256,0.44876447,785.31134,772.01465,782.8938,796.99634,805.4579,-0.23504638671875,0.16717529296875,0.955322265625,1.308441162109375,-3.33465576171875,-0.43365478515625,1.0,1.0,4.0,1.0,1.0,100.0,event
13:25:43.356,-0.2411755,0.6887135,0.3291718,0.47988465,0.55059785,-0.25241026,-0.16528192,0.45183513,0.84573275,0.018393148,-0.3173437,0.8735456,0.6152592,0.2989442,-0.41882807,0.5336847,0.6408881,-0.13335586,-0.59893256,0.44876447,789.7436,437.58243,781.685,795.38464,890.87915,-0.23504638671875,0.16717529296875,0.955322265625,1.308441162109375,-3.33465576171875,-0.43365478515625,1.0,1.0,4.0,1.0,1.0,100.0,event
13:25:43.356,-0.2411755,0.6887135,0.3291718,0.47988465,0.55059785,-0.25241026,-0.16528192,0.45183513,0.84573275,0.018393148,-0.3173437,0.8735456,0.6152592,0.2989442,-0.41882807,0.5336847,0.6408881,-0.13335586,-0.59893256,0.44876447,800.2198,147.47253,782.0879,798.60803,1034.3224,-0.23504638671875,0.16717529296875,0.955322265625,1.308441162109375,-3.33465576171875,-0.43365478515625,1.0,1.0,4.0,1.0,1.0,100.0,event
13:25:43.357,-0.2411755,0.6887135,0.3291718,0.47988465,0.55059785,-0.25241026,-0.16528192,0.45183513,0.84573275,0.018393148,-0.3173437,0.8735456,0.6152592,0.2989442,-0.41882807,0.5336847,0.6408881,-0.13335586,-0.59893256,0.44876447,816.7399,644.2857,780.4762,809.0842,842.1245,-0.23504638671875,0.16717529296875,0.955322265625,1.308441162109375,-3.33465576171875,-0.43365478515625,1.0,1.0,4.0,1.0,1.0,100.0,event
13:25:43.358,-0.2411755,0.6887135,0.3291718,0.47988465,0.55059785,-0.25241026,-0.16528192,0.45183513,0.84573275,0.018393148,-0.3173437,0.8735456,0.6152592,0.2989442,-0.41882807,0.5336847,0.6408881,-0.13335586,-0.59893256,0.44876447,790.9524,795.78754,780.07324,794.9817,766.77655,-0.23504638671875,0.16717529296875,0.955322265625,1.308441162109375,-3.33465576171875,-0.43365478515625,1.0,1.0,4.0,1.0,1.0,100.0,event
13:25:43.358,-0.2411755,0.6887135,0.3291718,0.47988465,0.55059785,-0.25241026,-0.16528192,0.45183513,0.84573275,0.018393148,-0.3173437,0.8735456,0.6152592,0.2989442,-0.41882807,0.5336847,0.6408881,-0.13335586,-0.59893256,0.44876447,822.381,1109.6703,779.67035,816.7399,700.696,-0.23504638671875,0.16717529296875,0.955322265625,1.308441162109375,-3.33465576171875,-0.43365478515625,1.0,1.0,4.0,1.0,1.0,100.0,event
13:25:43.359,-0.2411755,0.6887135,0.3291718,0.47988465,0.55059785,-0.25241026,-0.16528192,0.45183513,0.84573275,0.018393148,-0.3173437,0.8735456,0.6152592,0.2989442,-0.41882807,0.5336847,0.6408881,-0.13335586,-0.59893256,0.44876447,773.22345,714.7985,779.67035,790.9524,753.47986,-0.23504638671875,0.16717529296875,0.955322265625,1.308441162109375,-3.33465576171875,-0.43365478515625,1.0,1.0,4.0,1.0,1.0,100.0,event
13:25:43.418,-0.2411755,0.6887135,0.3291718,0.47988465,0.55059785,-0.25241026,-0.16528192,0.45183513,0.84573275,0.018393148,-0.3173437,0.8735456,0.6152592,0.2989442,-0.41882807,0.5336847,0.6408881,-0.13335586,-0.59893256,0.44876447,785.7143,997.6557,780.07324,804.2491,741.39197,-0.23504638671875,0.16717529296875,0.955322265625,1.308441162109375,-3.33465576171875,-0.43365478515625,1.0,1.0,4.0,1.0,1.0,100.0,event
13:25:43.419,-0.2411755,0.6887135,0.3291718,0.47988465,0.55059785,-0.25241026,-0.16528192,0.45183513,0.84573275,0.018393148,-0.3173437,0.8735456,0.6152592,0.2989442,-0.41882807,0.5336847,0.6408881,-0.13335586,-0.59893256,0.44876447,796.99634,1060.5128,784.90845,811.50183,736.55676,-0.23504638671875,0.16717529296875,0.955322265625,1.308441162109375,-3.33465576171875,-0.43365478515625,1.0,1.0,4.0,1.0,1.0,100.0,event
13:25:43.420,-0.2411755,0.6887135,0.3291718,0.47988465,0.55059785,-0.25241026,-0.16528192,0.45183513,0.84573275,0.018393148,-0.3173437,0.8735456,0.6152592,0.2989442,-0.41882807,0.5336847,0.6408881,-0.13335586,-0.59893256,0.44876447,790.9524,822.381,790.54944,797.3993,815.5311,-0.23504638671875,0.16717529296875,0.955322265625,1.308441162109375,-3.33465576171875,-0.43365478515625,1.0,1.0,4.0,1.0,1.0,100.0,event
13:25:43.421,-0.2411755,0.6887135,0.3291718,0.47988465,0.55059785,-0.25241026,-0.16528192,0.45183513,0.84573275,0.018393148,-0.3173437,0.8735456,0.6152592,0.2989442,-0.41882807,0.5336847,0.6408881,-0.13335586,-0.59893256,0.44876447,806.6667,810.293,786.1172,801.4286,827.619,-0.23504638671875,0.16717529296875,0.955322265625,1.308441162109375,-3.33465576171875,-0.43365478515625,1.0,1.0,4.0,1.0,1.0,100.0,event
13:25:43.421,-0.2411755,0.6887135,0.3291718,0.47988465,0.55059785,-0.25241026,-0.16528192,0.45183513,0.84573275,0.018393148,-0.3173437,0.8735456,0.6152592,0.2989442,-0.41882807,0.5336847,0.6408881,-0.13335586,-0.59893256,0.44876447,811.0989,774.43225,783.69965,807.0696,773.6264,-0.23504638671875,0.16717529296875,0.955322265625,1.308441162109375,-3.33465576171875,-0.43365478515625,1.0,1.0,4.0,1.0,1.0,100.0,event
13:25:43.422,-0.2411755,0.6887135,0.3291718,0.47988465,0.55059785,-0.25241026,-0.16528192,0.45183513,0.84573275,0.018393148,-0.3173437,0.8735456,0.6152592,0.2989442,-0.41882807,0.5336847,0.6408881,-0.13335586,-0.59893256,0.44876447,815.9341,673.69965,789.7436,796.99634,817.1429,-0.23504638671875,0.16717529296875,0.955322265625,1.308441162109375,-3.33465576171875,-0.43365478515625,1.0,1.0,4.0,1.0,1.0,100.0,event
13:25:43.423,-0.2411755,0.6887135,0.3291718,0.47988465,0.55059785,-0.25241026,-0.16528192,0.45183513,0.84573275,0.018393148,-0.3173437,0.8735456,0.6152592,0.2989442,-0.41882807,0.5336847,0.6408881,-0.13335586,-0.59893256,0.44876447,823.9927,373.9194,792.5641,795.38464,1083.4799,-0.23504638671875,0.16717529296875,0.955322265625,1.308441162109375,-3.33465576171875,-0.43365478515625,1.0,1.0,4.0,1.0,1.0,100.0,event
13:25:43.424,-0.2411755,0.6887135,0.3291718,0.47988465,0.55059785,-0.25241026,-0.16528192,0.45183513,0.84573275,0.018393148,-0.3173437,0.8735456,0.6152592,0.2989442,-0.41882807,0.5336847,0.6408881,-0.13335586,-0.59893256,0.44876447,800.2198,66.48351,792.1612,794.17584,1254.3224,-0.23504638671875,0.16717529296875,0.955322265625,1.308441162109375,-3.33465576171875,-0.43365478515625,1.0,1.0,4.0,1.0,1.0,100.0,event
13:25:43.424,-0.2411755,0.6887135,0.3291718,0.47988465,0.55059785,-0.25241026,-0.16528192,0.45183513,0.84573275,0.018393148,-0.3173437,0.8735456,0.6152592,0.2989442,-0.41882807,0.5336847,0.6408881,-0.13335586,-0.59893256,0.44876447,779.67035,684.57874,789.7436,804.2491,853.4066,-0.23504638671875,0.16717529296875,0.955322265625,1.308441162109375,-3.33465576171875,-0.43365478515625,1.0,1.0,4.0,1.0,1.0,100.0,event
13:25:43.425,-0.2411755,0.6887135,0.3291718,0.47988465,0.55059785,-0.25241026,-0.16528192,0.45183513,0.84573275,0.018393148,-0.3173437,0.8735456,0.6152592,0.2989442,-0.41882807,0.5336847,0.6408881,-0.13335586,-0.59893256,0.44876447,776.4469,904.9817,788.93774,803.8461,705.9341,-0.23504638671875,0.16717529296875,0.955322265625,1.308441162109375,-3.33465576171875,-0.43365478515625,1.0,1.0,4.0,1.0,1.0,100.0,event
13:25:43.426,-0.2411755,0.6887135,0.3291718,0.47988465,0.55059785,-0.25241026,-0.16528192,0.45183513,0.84573275,0.018393148,-0.3173437,0.8735456,0.6152592,0.2989442,-0.41882807,0.5336847,0.6408881,-0.13335586,-0.59893256,0.44876447,784.10254,879.19415,792.96704,794.17584,703.91943,-0.23504638671875,0.16717529296875,0.955322265625,1.308441162109375,-3.33465576171875,-0.43365478515625,1.0,1.0,4.0,1.0,1.0,100.0,event
13:25:43.426,-0.2411755,0.6887135,0.3291718,0.47988465,0.55059785,-0.25241026,-0.16528192,0.45183513,0.84573275,0.018393148,-0.3173437,0.8735456,0.6152592,0.2989442,-0.41882807,0.5336847,0.6408881,-0.13335586,-0.59893256,0.44876447,776.04395,634.21246,793.36993,788.5348,815.9341,-0.23504638671875,0.16717529296875,0.955322265625,1.308441162109375,-3.33465576171875,-0.43365478515625,1.0,1.0,4.0,1.0,1.0,100.0,event
13:25:43.453,-0.2411755,0.6887135,0.3291718,0.47988465,0.55059785,-0.25241026,-0.16528192,0.45183513,0.84573275,0.018393148,-0.3173437,0.8735456,0.6152592,0.2989442,-0.41882807,0.5336847,0.6408881,-0.13335586,-0.59893256,0.44876447,808.2784,1116.5201,789.7436,786.1172,680.9524,-0.2471923828125,0.15869140625,0.949951171875,2.086029052734375,-2.0037841796875,-0.52337646484375,1.0,1.0,4.0,1.0,1.0,100.0,event
13:25:43.454,-0.19508618,0.6887135,0.32247123,0.5951981,0.56894654,-0.25241026,-0.18111683,0.5250367,0.84573275,0.018393148,-0.32548633,0.90243423,0.6548629,0.2989442,-0.4043544,0.5528243,0.6642979,-0.13335586,-0.59492904,0.4829489,811.9048,921.9048,793.7729,811.0989,746.2271,-0.2471923828125,0.15869140625,0.949951171875,2.086029052734375,-2.0037841796875,-0.52337646484375,1.0,1.0,4.0,1.0,1.0,100.0,event
13:25:43.459,-0.19508618,0.6887135,0.32247123,0.5951981,0.56894654,-0.25241026,-0.18111683,0.5250367,0.84573275,0.018393148,-0.32548633,0.90243423,0.6548629,0.2989442,-0.4043544,0.5528243,0.6642979,-0.13335586,-0.59492904,0.4829489,790.54944,655.56775,793.36993,835.6777,775.64105,-0.2471923828125,0.15869140625,0.949951171875,2.086029052734375,-2.0037841796875,-0.52337646484375,1.0,1.0,4.0,1.0,1.0,100.0,event
13:25:43.459,-0.19508618,0.6887135,0.32247123,0.5951981,0.56894654,-0.25241026,-0.18111683,0.5250367,0.84573275,0.018393148,-0.32548633,0.90243423,0.6548629,0.2989442,-0.4043544,0.5528243,0.6642979,-0.13335586,-0.59492904,0.4829489,776.04395,803.8461,790.14655,796.1905,690.2198,-0.2471923828125,0.15869140625,0.949951171875,2.086029052734375,-2.0037841796875,-0.52337646484375,1.0,1.0,4.0,1.0,1.0,100.0,event
13:25:43.460,-0.19508618,0.6887135,0.32247123,0.5951981,0.56894654,-0.25241026,-0.18111683,0.5250367,0.84573275,0.018393148,-0.32548633,0.90243423,0.6548629,0.2989442,-0.4043544,0.5528243,0.6642979,-0.13335586,-0.59492904,0.4829489,794.17584,995.2381,790.54944,777.6557,643.47986,-0.2471923828125,0.15869140625,0.949951171875,2.086029052734375,-2.0037841796875,-0.52337646484375,1.0,1.0,4.0,1.0,1.0,100.0,event
13:25:43.461,-0.19508618,0.6887135,0.32247123,0.5951981,0.56894654,-0.25241026,-0.18111683,0.5250367,0.84573275,0.018393148,-0.32548633,0.90243423,0.6548629,0.2989442,-0.4043544,0.5528243,0.6642979,-0.13335586,-0.59492904,0.4829489,805.05493,709.9634,793.7729,796.5934,839.304,-0.2471923828125,0.15869140625,0.949951171875,2.086029052734375,-2.0037841796875,-0.52337646484375,1.0,1.0,4.0,1.0,1.0,100.0,event
13:25:43.461,-0.19508618,0.6887135,0.32247123,0.5951981,0.56894654,-0.25241026,-0.18111683,0.5250367,0.84573275,0.018393148,-0.32548633,0.90243423,0.6548629,0.2989442,-0.4043544,0.5528243,0.6642979,-0.13335586,-0.59492904,0.4829489,784.10254,220.80586,796.1905,812.3077,1015.38464,-0.2471923828125,0.15869140625,0.949951171875,2.086029052734375,-2.0037841796875,-0.52337646484375,1.0,1.0,4.0,1.0,1.0,100.0,event
13:25:43.462,-0.19508618,0.6887135,0.32247123,0.5951981,0.56894654,-0.25241026,-0.18111683,0.5250367,0.84573275,0.018393148,-0.32548633,0.90243423,0.6548629,0.2989442,-0.4043544,0.5528243,0.6642979,-0.13335586,-0.59492904,0.4829489,780.4762,389.23077,796.1905,808.68134,827.2161,-0.2471923828125,0.15869140625,0.949951171875,2.086029052734375,-2.0037841796875,-0.52337646484375,1.0,1.0,4.0,1.0,1.0,100.0,event
13:25:43.463,-0.19508618,0.6887135,0.32247123,0.5951981,0.56894654,-0.25241026,-0.18111683,0.5250367,0.84573275,0.018393148,-0.32548633,0.90243423,0.6548629,0.2989442,-0.4043544,0.5528243,0.6642979,-0.13335586,-0.59492904,0.4829489,784.5055,707.9487,801.02563,799.41394,775.64105,-0.2471923828125,0.15869140625,0.949951171875,2.086029052734375,-2.0037841796875,-0.52337646484375,1.0,1.0,4.0,1.0,1.0,100.0,event
13:25:43.463,-0.19508618,0.6887135,0.32247123,0.5951981,0.56894654,-0.25241026,-0.18111683,0.5250367,0.84573275,0.018393148,-0.32548633,0.90243423,0.6548629,0.2989442,-0.4043544,0.5528243,0.6642979,-0.13335586,-0.59492904,0.4829489,783.2967,767.1795,798.60803,800.2198,676.52014,-0.2471923828125,0.15869140625,0.949951171875,2.086029052734375,-2.0037841796875,-0.52337646484375,1.0,1.0,4.0,1.0,1.0,100.0,event
13:25:43.464,-0.19508618,0.6887135,0.32247123,0.5951981,0.56894654,-0.25241026,-0.18111683,0.5250367,0.84573275,0.018393148,-0.32548633,0.90243423,0.6548629,0.2989442,-0.4043544,0.5528243,0.6642979,-0.13335586,-0.59492904,0.4829489,796.99634,305.0183,799.011,798.60803,947.28937,-0.2471923828125,0.15869140625,0.949951171875,2.086029052734375,-2.0037841796875,-0.52337646484375,1.0,1.0,4.0,1.0,1.0,100.0,event
13:25:43.465,-0.19508618,0.6887135,0.32247123,0.5951981,0.56894654,-0.25241026,-0.18111683,0.5250367,0.84573275,0.018393148,-0.32548633,0.90243423,0.6548629,0.2989442,-0.4043544,0.5528243,0.6642979,-0.13335586,-0.59492904,0.4829489,790.9524,730.5128,793.36993,787.72894,805.8608,-0.2471923828125,0.15869140625,0.949951171875,2.086029052734375,-2.0037841796875,-0.52337646484375,1.0,1.0,4.0,1.0,1.0,100.0,event
13:25:43.519,-0.19508618,0.6887135,0.32247123,0.5951981,0.56894654,-0.25241026,-0.18111683,0.5250367,0.84573275,0.018393148,-0.32548633,0.90243423,0.6548629,0.2989442,-0.4043544,0.5528243,0.6642979,-0.13335586,-0.59492904,0.4829489,794.9817,918.68134,791.75824,798.20514,686.99634,-0.24029541015625,0.16619873046875,0.95196533203125,2.85614013671875,-3.177642822265625,-0.2691650390625,1.0,1.0,4.0,1.0,1.0,100.0,event
13:25:43.520,-0.19508618,0.6887135,0.32247123,0.5951981,0.56894654,-0.25241026,-0.18111683,0.5250367,0.84573275,0.018393148,-0.32548633,0.90243423,0.6548629,0.2989442,-0.4043544,0.5528243,0.6642979,-0.13335586,-0.59492904,0.4829489,806.26373,666.04395,796.5934,803.8461,747.4359,-0.24029541015625,0.16619873046875,0.95196533203125,2.85614013671875,-3.177642822265625,-0.2691650390625,1.0,1.0,4.0,1.0,1.0,100.0,event
13:25:43.521,-0.19508618,0.6887135,0.32247123,0.5951981,0.56894654,-0.25241026,-0.18111683,0.5250367,0.84573275,0.018393148,-0.32548633,0.90243423,0.6548629,0.2989442,-0.4043544,0.5528243,0.6642979,-0.13335586,-0.59492904,0.4829489,796.99634,754.68866,799.81683,789.7436,699.89014,-0.24029541015625,0.16619873046875,0.95196533203125,2.85614013671875,-3.177642822265625,-0.2691650390625,1.0,1.0,4.0,1.0,1.0,100.0,event
13:25:43.521,-0.19508618,0.6887135,0.32247123,0.5951981,0.56894654,-0.25241026,-0.18111683,0.5250367,0.84573275,0.018393148,-0.32548633,0.90243423,0.6548629,0.2989442,-0.4043544,0.5528243,0.6642979,-0.13335586,-0.59492904,0.4829489,791.75824,985.56775,798.20514,784.90845,657.1795,-0.24029541015625,0.16619873046875,0.95196533203125,2.85614013671875,-3.177642822265625,-0.2691650390625,1.0,1.0,4.0,1.0,1.0,100.0,event
13:25:43.522,-0.19508618,0.6887135,0.32247123,0.5951981,0.56894654,-0.25241026,-0.18111683,0.5250367,0.84573275,0.018393148,-0.32548633,0.90243423,0.6548629,0.2989442,-0.4043544,0.5528243,0.6642979,-0.13335586,-0.59492904,0.4829489,796.99634,956.9597,799.41394,788.93774,739.3773,-0.24029541015625,0.16619873046875,0.95196533203125,2.85614013671875,-3.177642822265625,-0.2691650390625,1.0,1.0,4.0,1.0,1.0,100.0,event
13:25:43.523,-0.19508618,0.6887135,0.32247123,0.5951981,0.56894654,-0.25241026,-0.18111683,0.5250367,0.84573275,0.018393148,-0.32548633,0.90243423,0.6548629,0.2989442,-0.4043544,0.5528243,0.6642979,-0.13335586,-0.59492904,0.4829489,784.90845,484.32236,801.02563,787.326,894.5055,-0.24029541015625,0.16619873046875,0.95196533203125,2.85614013671875,-3.177642822265625,-0.2691650390625,1.0,1.0,4.0,1.0,1.0,100.0,event
13:25:43.524,-0.19508618,0.6887135,0.32247123,0.5951981,0.56894654,-0.25241026,-0.18111683,0.5250367,0.84573275,0.018393148,-0.32548633,0.90243423,0.6548629,0.2989442,-0.4043544,0.5528243,0.6642979,-0.13335586,-0.59492904,0.4829489,781.28204,767.1795,802.23444,800.2198,755.09155,-0.24029541015625,0.16619873046875,0.95196533203125,2.85614013671875,-3.177642822265625,-0.2691650390625,1.0,1.0,4.0,1.0,1.0,100.0,event
13:25:43.524,-0.19508618,0.6887135,0.32247123,0.5951981,0.56894654,-0.25241026,-0.18111683,0.5250367,0.84573275,0.018393148,-0.32548633,0.90243423,0.6548629,0.2989442,-0.4043544,0.5528243,0.6642979,-0.13335586,-0.59492904,0.4829489,774.43225,375.1282,805.05493,791.75824,919.89014,-0.24029541015625,0.16619873046875,0.95196533203125,2.85614013671875,-3.177642822265625,-0.2691650390625,1.0,1.0,4.0,1.0,1.0,100.0,event
13:25:43.525,-0.19508618,0.6887135,0.32247123,0.5951981,0.56894654,-0.25241026,-0.18111683,0.5250367,0.84573275,0.018393148,-0.32548633,0.90243423,0.6548629,0.2989442,-0.4043544,0.5528243,0.6642979,-0.13335586,-0.59492904,0.4829489,800.2198,937.2161,800.2198,791.3553,693.0403,-0.24029541015625,0.16619873046875,0.95196533203125,2.85614013671875,-3.177642822265625,-0.2691650390625,1.0,1.0,4.0,1.0,1.0,100.0,event
13:25:43.526,-0.19508618,0.6887135,0.32247123,0.5951981,0.56894654,-0.25241026,-0.18111683,0.5250367,0.84573275,0.018393148,-0.32548633,0.90243423,0.6548629,0.2989442,-0.4043544,0.5528243,0.6642979,-0.13335586,-0.59492904,0.4829489,813.91943,398.09525,802.23444,786.9231,863.47986,-0.24029541015625,0.16619873046875,0.95196533203125,2.85614013671875,-3.177642822265625,-0.2691650390625,1.0,1.0,4.0,1.0,1.0,100.0,event
13:25:43.526,-0.19508618,0.6887135,0.32247123,0.5951981,0.56894654,-0.25241026,-0.18111683,0.5250367,0.84573275,0.018393148,-0.32548633,0.90243423,0.6548629,0.2989442,-0.4043544,0.5528243,0.6642979,-0.13335586,-0.59492904,0.4829489,799.81683,257.87546,799.81683,797.3993,844.1392,-0.24029541015625,0.16619873046875,0.95196533203125,2.85614013671875,-3.177642822265625,-0.2691650390625,1.0,1.0,4.0,1.0,1.0,100.0,event
13:25:43.527,-0.19508618,0.6887135,0.32247123,0.5951981,0.56894654,-0.25241026,-0.18111683,0.5250367,0.84573275,0.018393148,-0.32548633,0.90243423,0.6548629,0.2989442,-0.4043544,0.5528243,0.6642979,-0.13335586,-0.59492904,0.4829489,789.34064,654.35895,805.4579,801.02563,745.0183,-0.24029541015625,0.16619873046875,0.95196533203125,2.85614013671875,-3.177642822265625,-0.2691650390625,1.0,1.0,4.0,1.0,1.0,100.0,event
13:25:43.556,-0.19508618,0.6887135,0.32247123,0.5951981,0.56894654,-0.25241026,-0.18111683,0.5250367,0.84573275,0.018393148,-0.32548633,0.90243423,0.6548629,0.2989442,-0.4043544,0.5528243,0.6642979,-0.13335586,-0.59492904,0.4829489,807.0696,765.16486,811.0989,803.44324,743.8095,-0.2418212890625,0.16485595703125,0.94244384765625,2.093505859375,-3.170166015625,1.375732421875,1.0,1.0,4.0,1.0,1.0,100.0,event
13:25:43.557,-0.19508618,0.6887135,0.32247123,0.5951981,0.56894654,-0.25241026,-0.18111683,0.5250367,0.84573275,0.018393148,-0.32548633,0.90243423,0.6548629,0.2989442,-0.4043544,0.5528243,0.6642979,-0.13335586,-0.59492904,0.4829489,802.6374,522.1978,810.696,801.02563,849.7802,-0.2418212890625,0.16485595703125,0.94244384765625,2.093505859375,-3.170166015625,1.375732421875,1.0,1.0,4.0,1.0,1.0,100.0,event
13:25:43.558,-0.19508618,0.6887135,0.32247123,0.5951981,0.56894654,-0.25241026,-0.18111683,0.5250367,0.84573275,0.018393148,-0.32548633,0.90243423,0.6548629,0.2989442,-0.4043544,0.5528243,0.6642979,-0.13335586,-0.59492904,0.4829489,802.6374,786.52014,807.47253,784.90845,823.5897,-0.2418212890625,0.16485595703125,0.94244384765625,2.093505859375,-3.170166015625,1.375732421875,1.0,1.0,4.0,1.0,1.0,100.0,event
13:25:43.559,-0.14041281,0.6887135,0.32723406,0.6908808,0.58384174,-0.25241026,-0.21560267,0.58676004,0.84573275,0.018393148,-0.3561259,0.90923434,0.6756901,0.2989442,-0.38547406,0.56759447,0.67773354,-0.13335586,-0.58696115,0.511696,816.337,932.381,806.6667,793.36993,690.2198,-0.2418212890625,0.16485595703125,0.94244384765625,2.093505859375,-3.170166015625,1.375732421875,1.0,1.0,4.0,1.0,1.0,100.0,event
13:25:43.564,-0.14041281,0.6887135,0.32723406,0.6908808,0.58384174,-0.25241026,-0.21560267,0.58676004,0.84573275,0.018393148,-0.3561259,0.90923434,0.6756901,0.2989442,-0.38547406,0.56759447,0.67773354,-0.13335586,-0.58696115,0.511696,794.57874,746.2271,808.68134,802.23444,719.2308,-0.2418212890625,0.16485595703125,0.94244384765625,2.093505859375,-3.170166015625,1.375732421875,1.0,1.0,4.0,1.0,1.0,100.0,event
13:25:43.565,-0.14041281,0.6887135,0.32723406,0.6908808,0.58384174,-0.25241026,-0.21560267,0.58676004,0.84573275,0.018393148,-0.3561259,0.90923434,0.6756901,0.2989442,-0.38547406,0.56759447,0.67773354,-0.13335586,-0.58696115,0.511696,790.14655,562.0879,806.26373,788.5348,842.9304,-0.2418212890625,0.16485595703125,0.94244384765625,2.093505859375,-3.170166015625,1.375732421875,1.0,1.0,4.0,1.0,1.0,100.0,event
13:25:43.566,-0.14041281,0.6887135,0.32723406,0.6908808,0.58384174,-0.25241026,-0.21560267,0.58676004,0.84573275,0.018393148,-0.3561259,0.90923434,0.6756901,0.2989442,-0.38547406,0.56759447,0.67773354,-0.13335586,-0.58696115,0.511696,807.8755,595.9341,803.0403,790.54944,863.0769,-0.2418212890625,0.16485595703125,0.94244384765625,2.093505859375,-3.170166015625,1.375732421875,1.0,1.0,4.0,1.0,1.0,100.0,event
13:25:43.567,-0.14041281,0.6887135,0.32723406,0.6908808,0.58384174,-0.25241026,-0.21560267,0.58676004,0.84573275,0.018393148,-0.3561259,0.90923434,0.6756901,0.2989442,-0.38547406,0.56759447,0.67773354,-0.13335586,-0.58696115,0.511696,814.7253,927.5458,804.65204,794.9817,781.685,-0.2418212890625,0.16485595703125,0.94244384765625,2.093505859375,-3.170166015625,1.375732421875,1.0,1.0,4.0,1.0,1.0,100.0,event
13:25:43.568,-0.14041281,0.6887135,0.32723406,0.6908808,0.58384174,-0.25241026,-0.21560267,0.58676004,0.84573275,0.018393148,-0.3561259,0.90923434,0.6756901,0.2989442,-0.38547406,0.56759447,0.67773354,-0.13335586,-0.58696115,0.511696,805.8608,698.2784,807.8755,799.81683,767.1795,-0.2418212890625,0.16485595703125,0.94244384765625,2.093505859375,-3.170166015625,1.375732421875,1.0,1.0,4.0,1.0,1.0,100.0,event
13:25:43.569,-0.14041281,0.6887135,0.32723406,0.6908808,0.58384174,-0.25241026,-0.21560267,0.58676004,0.84573275,0.018393148,-0.3561259,0.90923434,0.6756901,0.2989442,-0.38547406,0.56759447,0.67773354,-0.13335586,-0.58696115,0.511696,794.57874,114.83517,809.0842,808.2784,958.1685,-0.2418212890625,0.16485595703125,0.94244384765625,2.093505859375,-3.170166015625,1.375732421875,1.0,1.0,4.0,1.0,1.0,100.0,event
13:25:43.570,-0.14041281,0.6887135,0.32723406,0.6908808,0.58384174,-0.25241026,-0.21560267,0.58676004,0.84573275,0.018393148,-0.3561259,0.90923434,0.6756901,0.2989442,-0.38547406,0.56759447,0.67773354,-0.13335586,-0.58696115,0.511696,790.54944,610.0366,805.8608,799.011,827.619,-0.2418212890625,0.16485595703125,0.94244384765625,2.093505859375,-3.170166015625,1.375732421875,1.0,1.0,4.0,1.0,1.0,100.0,event
13:25:43.571,-0.14041281,0.6887135,0.32723406,0.6908808,0.58384174,-0.25241026,-0.21560267,0.58676004,0.84573275,0.018393148,-0.3561259,0.90923434,0.6756901,0.2989442,-0.38547406,0.56759447,0.67773354,-0.13335586,-0.58696115,0.511696,811.50183,1068.5714,804.2491,790.14655,704.7253,-0.2418212890625,0.16485595703125,0.94244384765625,2.093505859375,-3.170166015625,1.375732421875,1.0,1.0,4.0,1.0,1.0,100.0,event
13:25:43.594,-0.14041281,0.6887135,0.32723406,0.6908808,0.58384174,-0.25241026,-0.21560267,0.58676004,0.84573275,0.018393148,-0.3561259,0.90923434,0.6756901,0.2989442,-0.38547406,0.56759447,0.67773354,-0.13335586,-0.58696115,0.511696,820.3663,840.9158,802.6374,798.20514,808.68134,-0.24853515625,0.16485595703125,0.94952392578125,2.205657958984375,-4.508514404296875,-0.0897216796875,1.0,1.0,4.0,1.0,1.0,100.0,event
13:25:43.595,-0.14041281,0.6887135,0.32723406,0.6908808,0.58384174,-0.25241026,-0.21560267,0.58676004,0.84573275,0.018393148,-0.3561259,0.90923434,0.6756901,0.2989442,-0.38547406,0.56759447,0.67773354,-0.13335586,-0.58696115,0.511696,800.2198,662.01465,803.0403,802.6374,822.381,-0.24853515625,0.16485595703125,0.94952392578125,2.205657958984375,-4.508514404296875,-0.0897216796875,1.0,1.0,4.0,1.0,1.0,100.0,event
13:25:43.596,-0.14041281,0.6887135,0.32723406,0.6908808,0.58384174,-0.25241026,-0.21560267,0.58676004,0.84573275,0.018393148,-0.3561259,0.90923434,0.6756901,0.2989442,-0.38547406,0.56759447,0.67773354,-0.13335586,-0.58696115,0.511696,787.326,629.7802,807.0696,805.4579,780.87915,-0.24853515625,0.16485595703125,0.94952392578125,2.205657958984375,-4.508514404296875,-0.0897216796875,1.0,1.0,4.0,1.0,1.0,100.0,event
13:25:43.597,-0.14041281,0.6887135,0.32723406,0.6908808,0.58384174,-0.25241026,-0.21560267,0.58676004,0.84573275,0.018393148,-0.3561259,0.90923434,0.6756901,0.2989442,-0.38547406,0.56759447,0.67773354,-0.13335586,-0.58696115,0.511696,789.7436,847.3626,808.2784,794.9817,719.6337,-0.24853515625,0.16485595703125,0.94952392578125,2.205657958984375,-4.508514404296875,-0.0897216796875,1.0,1.0,4.0,1.0,1.0,100.0,event
13:25:43.597,-0.14041281,0.6887135,0.32723406,0.6908808,0.58384174,-0.25241026,-0.21560267,0.58676004,0.84573275,0.018393148,-0.3561259,0.90923434,0.6756901,0.2989442,-0.38547406,0.56759447,0.67773354,-0.13335586,-0.58696115,0.511696,794.57874,731.7216,807.0696,797.8022,896.9231,-0.24853515625,0.16485595703125,0.94952392578125,2.205657958984375,-4.508514404296875,-0.0897216796875,1.0,1.0,4.0,1.0,1.0,100.0,event
13:25:43.598,-0.14041281,0.6887135,0.32723406,0.6908808,0.58384174,-0.25241026,-0.21560267,0.58676004,0.84573275,0.018393148,-0.3561259,0.90923434,0.6756901,0.2989442,-0.38547406,0.56759447,0.67773354,-0.13335586,-0.58696115,0.511696,826.4103,569.7436,805.4579,808.68134,795.78754,-0.24853515625,0.16485595703125,0.94952392578125,2.205657958984375,-4.508514404296875,-0.0897216796875,1.0,1.0,4.0,1.0,1.0,100.0,event
13:25:43.598,-0.14041281,0.6887135,0.32723406,0.6908808,0.58384174,-0.25241026,-0.21560267,0.58676004,0.84573275,0.018393148,-0.3561259,0.90923434,0.6756901,0.2989442,-0.38547406,0.56759447,0.67773354,-0.13335586,-0.58696115,0.511696,817.9487,501.24542,806.26373,812.71063,969.85345,-0.24853515625,0.16485595703125,0.94952392578125,2.205657958984375,-4.508514404296875,-0.0897216796875,1.0,1.0,4.0,1.0,1.0,100.0,event
13:25:43.599,-0.14041281,0.6887135,0.32723406,0.6908808,0.58384174,-0.25241026,-0.21560267,0.58676004,0.84573275,0.018393148,-0.3561259,0.90923434,0.6756901,0.2989442,-0.38547406,0.56759447,0.67773354,-0.13335586,-0.58696115,0.511696,797.8022,760.7326,808.68134,800.2198,715.6044,-0.24853515625,0.16485595703125,0.94952392578125,2.205657958984375,-4.508514404296875,-0.0897216796875,1.0,1.0,4.0,1.0,1.0,100.0,event
13:25:43.600,-0.14041281,0.6887135,0.32723406,0.6908808,0.58384174,-0.25241026,-0.21560267,0.58676004,0.84573275,0.018393148,-0.3561259,0.90923434,0.6756901,0.2989442,-0.38547406,0.56759447,0.67773354,-0.13335586,-0.58696115,0.511696,770.40295,361.8315,809.4872,798.60803,867.9121,-0.24853515625,0.16485595703125,0.94952392578125,2.205657958984375,-4.508514404296875,-0.0897216796875,1.0,1.0,4.0,1.0,1.0,100.0,event
13:25:43.600,-0.14041281,0.6887135,0.32723406,0.6908808,0.58384174,-0.25241026,-0.21560267,0.58676004,0.84573275,0.018393148,-0.3561259,0.90923434,0.6756901,0.2989442,-0.38547406,0.56759447,0.67773354,-0.13335586,-0.58696115,0.511696,799.81683,346.92307,807.0696,817.1429,911.02563,-0.24853515625,0.16485595703125,0.94952392578125,2.205657958984375,-4.508514404296875,-0.0897216796875,1.0,1.0,4.0,1.0,1.0,100.0,event
13:25:43.601,-0.14041281,0.6887135,0.32723406,0.6908808,0.58384174,-0.25241026,-0.21560267,0.58676004,0.84573275,0.018393148,-0.3561259,0.90923434,0.6756901,0.2989442,-0.38547406,0.56759447,0.67773354,-0.13335586,-0.58696115,0.511696,819.15753,996.04395,804.65204,804.2491,723.663,-0.24853515625,0.16485595703125,0.94952392578125,2.205657958984375,-4.508514404296875,-0.0897216796875,1.0,1.0,4.0,1.0,1.0,100.0,event
13:25:43.601,-0.14041281,0.6887135,0.32723406,0.6908808,0.58384174,-0.25241026,-0.21560267,0.58676004,0.84573275,0.018393148,-0.3561259,0.90923434,0.6756901,0.2989442,-0.38547406,0.56759447,0.67773354,-0.13335586,-0.58696115,0.511696,808.2784,714.3956,803.44324,785.7143,741.39197,-0.24853515625,0.16485595703125,0.94952392578125,2.205657958984375,-4.508514404296875,-0.0897216796875,1.0,1.0,4.0,1.0,1.0,100.0,event
13:25:43.635,-0.14041281,0.6887135,0.32723406,0.6908808,0.58384174,-0.25241026,-0.21560267,0.58676004,0.84573275,0.018393148,-0.3561259,0.90923434,0.6756901,0.2989442,-0.38547406,0.56759447,0.67773354,-0.13335586,-0.58696115,0.511696,784.5055,479.08426,807.47253,803.44324,768.7912,-0.24853515625,0.16485595703125,0.94952392578125,2.205657958984375,-4.508514404296875,-0.0897216796875,1.0,1.0,4.0,1.0,1.0,100.0,event
13:25:43.636,-0.14041281,0.6887135,0.32723406,0.6908808,0.58384174,-0.25241026,-0.21560267,0.58676004,0.84573275,0.018393148,-0.3561259,0.90923434,0.6756901,0.2989442,-0.38547406,0.56759447,0.67773354,-0.13335586,-0.58696115,0.511696,777.25275,831.2454,810.293,810.696,679.7436,-0.24853515625,0.16485595703125,0.94952392578125,2.205657958984375,-4.508514404296875,-0.0897216796875,1.0,1.0,4.0,1.0,1.0,100.0,event
13:25:43.637,-0.14041281,0.6887135,0.32723406,0.6908808,0.58384174,-0.25241026,-0.21560267,0.58676004,0.84573275,0.018393148,-0.3561259,0.90923434,0.6756901,0.2989442,-0.38547406,0.56759447,0.67773354,-0.13335586,-0.58696115,0.511696,818.7546,1006.52014,807.47253,807.0696,749.85345,-0.24853515625,0.16485595703125,0.94952392578125,2.205657958984375,-4.508514404296875,-0.0897216796875,1.0,1.0,4.0,1.0,1.0,100.0,event
13:25:43.637,-0.14041281,0.6887135,0.32723406,0.6908808,0.58384174,-0.25241026,-0.21560267,0.58676004,0.84573275,0.018393148,-0.3561259,0.90923434,0.6756901,0.2989442,-0.38547406,0.56759447,0.67773354,-0.13335586,-0.58696115,0.511696,806.6667,1072.6007,806.6667,795.78754,684.9817,-0.24853515625,0.16485595703125,0.94952392578125,2.205657958984375,-4.508514404296875,-0.0897216796875,1.0,1.0,4.0,1.0,1.0,100.0,event
13:25:43.638,-0.14041281,0.6887135,0.32723406,0.6908808,0.58384174,-0.25241026,-0.21560267,0.58676004,0.84573275,0.018393148,-0.3561259,0.90923434,0.6756901,0.2989442,-0.38547406,0.56759447,0.67773354,-0.13335586,-0.58696115,0.511696,810.696,770.0,806.26373,805.4579,765.16486,-0.24853515625,0.16485595703125,0.94952392578125,2.205657958984375,-4.508514404296875,-0.0897216796875,1.0,1.0,4.0,1.0,1.0,100.0,event
13:25:43.639,-0.082546465,0.6887135,0.32130098,0.71391296,0.60366315,-0.25241026,-0.263497,0.59495825,0.84573275,0.018393148,-0.3649238,0.90923434,0.7075567,0.2989442,-0.36629558,0.57437396,0.701339,-0.13335586,-0.5777772,0.5242273,792.96704,622.52747,799.011,790.54944,830.84247,-0.24853515625,0.16485595703125,0.94952392578125,2.205657958984375,-4.508514404296875,-0.0897216796875,1.0,1.0,4.0,1.0,1.0,100.0,event
13:25:43.643,-0.082546465,0.6887135,0.32130098,0.71391296,0.60366315,-0.25241026,-0.263497,0.59495825,0.84573275,0.018393148,-0.3649238,0.90923434,0.7075567,0.2989442,-0.36629558,0.57437396,0.701339,-0.13335586,-0.5777772,0.5242273,786.52014,626.1539,801.8315,793.7729,813.5165,-0.24853515625,0.16485595703125,0.94952392578125,2.205657958984375,-4.508514404296875,-0.0897216796875,1.0,1.0,4.0,1.0,1.0,100.0,event
13:25:43.644,-0.082546465,0.6887135,0.32130098,0.71391296,0.60366315,-0.25241026,-0.263497,0.59495825,0.84573275,0.018393148,-0.3649238,0.90923434,0.7075567,0.2989442,-0.36629558,0.57437396,0.701339,-0.13335586,-0.5777772,0.5242273,770.0,562.0879,805.8608,792.1612,773.6264,-0.24853515625,0.16485595703125,0.94952392578125,2.205657958984375,-4.508514404296875,-0.0897216796875,1.0,1.0,4.0,1.0,1.0,100.0,event
13:25:43.645,-0.082546465,0.6887135,0.32130098,0.71391296,0.60366315,-0.25241026,-0.263497,0.59495825,0.84573275,0.018393148,-0.3649238,0.90923434,0.7075567,0.2989442,-0.36629558,0.57437396,0.701339,-0.13335586,-0.5777772,0.5242273,763.5531,109.19414,805.05493,796.99634,1005.7143,-0.24853515625,0.16485595703125,0.94952392578125,2.205657958984375,-4.508514404296875,-0.0897216796875,1.0,1.0,4.0,1.0,1.0,100.0,event
13:25:43.646,-0.082546465,0.6887135,0.32130098,0.71391296,0.60366315,-0.25241026,-0.263497,0.59495825,0.84573275,0.018393148,-0.3649238,0.90923434,0.7075567,0.2989442,-0.36629558,0.57437396,0.701339,-0.13335586,-0.5777772,0.5242273,791.3553,371.0989,803.44324,799.81683,884.83514,-0.24853515625,0.16485595703125,0.94952392578125,2.205657958984375,-4.508514404296875,-0.0897216796875,1.0,1.0,4.0,1.0,1.0,100.0,event
13:25:43.646,-0.082546465,0.6887135,0.32130098,0.71391296,0.60366315,-0.25241026,-0.263497,0.59495825,0.84573275,0.018393148,-0.3649238,0.90923434,0.7075567,0.2989442,-0.36629558,0.57437396,0.701339,-0.13335586,-0.5777772,0.5242273,805.8608,930.3663,804.2491,798.20514,686.5934,-0.24853515625,0.16485595703125,0.94952392578125,2.205657958984375,-4.508514404296875,-0.0897216796875,1.0,1.0,4.0,1.0,1.0,100.0,event
13:25:43.647,-0.082546465,0.6887135,0.32130098,0.71391296,0.60366315,-0.25241026,-0.263497,0.59495825,0.84573275,0.018393148,-0.3649238,0.90923434,0.7075567,0.2989442,-0.36629558,0.57437396,0.701339,-0.13335586,-0.5777772,0.5242273,780.87915,778.86444,806.6667,794.17584,701.0989,-0.24853515625,0.16485595703125,0.94952392578125,2.205657958984375,-4.508514404296875,-0.0897216796875,1.0,1.0,4.0,1.0,1.0,100.0,event
13:25:43.675,-0.082546465,0.6887135,0.32130098,0.71391296,0.60366315,-0.25241026,-0.263497,0.59495825,0.84573275,0.018393148,-0.3649238,0.90923434,0.7075567,0.2989442,-0.36629558,0.57437396,0.701339,-0.13335586,-0.5777772,0.5242273,779.67035,815.12823,802.6374,788.1319,678.1319,-0.2296142578125,0.1600341796875,0.95013427734375,1.734619140625,-2.7215576171875,-0.22430419921875,1.0,1.0,4.0,1.0,1.0,100.0,event
13:25:43.676,-0.082546465,0.6887135,0.32130098,0.71391296,0.60366315,-0.25241026,-0.263497,0.59495825,0.84573275,0.018393148,-0.3649238,0.90923434,0.7075567,0.2989442,-0.36629558,0.57437396,0.701339,-0.13335586,-0.5777772,0.5242273,786.9231,1114.9084,796.99634,785.31134,722.0513,-0.2296142578125,0.1600341796875,0.95013427734375,1.734619140625,-2.7215576171875,-0.22430419921875,1.0,1.0,4.0,1.0,1.0,100.0,event
13:25:43.677,-0.082546465,0.6887135,0.32130098,0.71391296,0.60366315,-0.25241026,-0.263497,0.59495825,0.84573275,0.018393148,-0.3649238,0.90923434,0.7075567,0.2989442,-0.36629558,0.57437396,0.701339,-0.13335586,-0.5777772,0.5242273,780.4762,1051.6483,799.011,778.46155,777.25275,-0.2296142578125,0.1600341796875,0.95013427734375,1.734619140625,-2.7215576171875,-0.22430419921875,1.0,1.0,4.0,1.0,1.0,100.0,event
13:25:43.679,-0.082546465,0.6887135,0.32130098,0.71391296,0.60366315,-0.25241026,-0.263497,0.59495825,0.84573275,0.018393148,-0.3649238,0.90923434,0.7075567,0.2989442,-0.36629558,0.57437396,0.701339,-0.13335586,-0.5777772,0.5242273,799.81683,713.5897,798.60803,786.52014,770.0,-0.2296142578125,0.1600341796875,0.95013427734375,1.734619140625,-2.7215576171875,-0.22430419921875,1.0,1.0,4.0,1.0,1.0,100.0,event
13:25:43.680,-0.082546465,0.6887135,0.32130098,0.71391296,0.60366315,-0.25241026,-0.263497,0.59495825,0.84573275,0.018393148,-0.3649238,0.90923434,0.7075567,0.2989442,-0.36629558,0.57437396,0.701339,-0.13335586,-0.5777772,0.5242273,793.36993,705.9341,797.8022,785.31134,691.4286,-0.2296142578125,0.1600341796875,0.95013427734375,1.734619140625,-2.7215576171875,-0.22430419921875,1.0,1.0,4.0,1.0,1.0,100.0,event
13:25:43.681,-0.082546465,0.6887135,0.32130098,0.71391296,0.60366315,-0.25241026,-0.263497,0.59495825,0.84573275,0.018393148,-0.3649238,0.90923434,0.7075567,0.2989442,-0.36629558,0.57437396,0.701339,-0.13335586,-0.5777772,0.5242273,785.7143,737.76556,800.6227,792.5641,728.9011,-0.2296142578125,0.1600341796875,0.95013427734375,1.734619140625,-2.7215576171875,-0.22430419921875,1.0,1.0,4.0,1.0,1.0,100.0,event
13:25:43.684,-0.082546465,0.6887135,0.32130098,0.71391296,0.60366315,-0.25241026,-0.263497,0.59495825,0.84573275,0.018393148,-0.3649238,0.90923434,0.7075567,0.2989442,-0.36629558,0.57437396,0.701339,-0.13335586,-0.5777772,0.5242273,819.15753,736.9597,799.011,802.23444,820.7692,-0.2296142578125,0.1600341796875,0.95013427734375,1.734619140625,-2.7215576171875,-0.22430419921875,1.0,1.0,4.0,1.0,1.0,100.0,event
13:25:43.685,-0.082546465,0.6887135,0.32130098,0.71391296,0.60366315,-0.25241026,-0.263497,0.59495825,0.84573275,0.018393148,-0.3649238,0.90923434,0.7075567,0.2989442,-0.36629558,0.57437396,0.701339,-0.13335586,-0.5777772,0.5242273,818.3516,366.26373,799.41394,802.6374,944.0659,-0.2296142578125,0.1600341796875,0.95013427734375,1.734619140625,-2.7215576171875,-0.22430419921875,1.0,1.0,4.0,1.0,1.0,100.0,event
13:25:43.686,-0.082546465,0.6887135,0.32130098,0.71391296,0.60366315,-0.25241026,-0.263497,0.59495825,0.84573275,0.018393148,-0.3649238,0.90923434,0.7075567,0.2989442,-0.36629558,0.57437396,0.701339,-0.13335586,-0.5777772,0.5242273,797.3993,150.29305,803.44324,813.5165,998.46155,-0.2296142578125,0.1600341796875,0.95013427734375,1.734619140625,-2.7215576171875,-0.22430419921875,1.0,1.0,4.0,1.0,1.0,100.0,event
13:25:43.686,-0.082546465,0.6887135,0.32130098,0.71391296,0.60366315,-0.25241026,-0.263497,0.59495825,0.84573275,0.018393148,-0.3649238,0.90923434,0.7075567,0.2989442,-0.36629558,0.57437396,0.701339,-0.13335586,-0.5777772,0.5242273,794.17584,794.57874,801.4286,808.68134,762.3443,-0.2296142578125,0.1600341796875,0.95013427734375,1.734619140625,-2.7215576171875,-0.22430419921875,1.0,1.0,4.0,1.0,1.0,100.0,event
13:25:43.688,-0.082546465,0.6887135,0.32130098,0.71391296,0.60366315,-0.25241026,-0.263497,0.59495825,0.84573275,0.018393148,-0.3649238,0.90923434,0.7075567,0.2989442,-0.36629558,0.57437396,0.701339,-0.13335586,-0.5777772,0.5242273,787.72894,988.7912,799.011,793.7729,715.2015,-0.2296142578125,0.1600341796875,0.95013427734375,1.734619140625,-2.7215576171875,-0.22430419921875,1.0,1.0,4.0,1.0,1.0,100.0,event
13:25:43.689,-0.082546465,0.6887135,0.32130098,0.71391296,0.60366315,-0.25241026,-0.263497,0.59495825,0.84573275,0.018393148,-0.3649238,0.90923434,0.7075567,0.2989442,-0.36629558,0.57437396,0.701339,-0.13335586,-0.5777772,0.5242273,807.0696,571.3553,803.44324,795.38464,863.8828,-0.2296142578125,0.1600341796875,0.95013427734375,1.734619140625,-2.7215576171875,-0.22430419921875,1.0,1.0,4.0,1.0,1.0,100.0,event
13:25:43.745,-0.082546465,0.6887135,0.32130098,0.71391296,0.60366315,-0.25241026,-0.263497,0.59495825,0.84573275,0.018393148,-0.3649238,0.90923434,0.7075567,0.2989442,-0.36629558,0.57437396,0.701339,-0.13335586,-0.5777772,0.5242273,823.5897,752.674,805.8608,813.5165,748.6447,-0.2379150390625,0.158935546875,0.9427490234375,1.876678466796875,-2.811279296875,0.590667724609375,1.0,1.0,4.0,1.0,1.0,100.0,event
13:25:43.746,-0.082546465,0.6887135,0.32130098,0.71391296,0.60366315,-0.25241026,-0.263497,0.59495825,0.84573275,0.018393148,-0.3649238,0.90923434,0.7075567,0.2989442,-0.36629558,0.57437396,0.701339,-0.13335586,-0.5777772,0.5242273,820.3663,1037.1428,805.8608,816.337,705.5311,-0.2379150390625,0.158935546875,0.9427490234375,1.876678466796875,-2.811279296875,0.590667724609375,1.0,1.0,4.0,1.0,1.0,100.0,event
13:25:43.746,-0.082546465,0.6887135,0.32130098,0.71391296,0.60366315,-0.25241026,-0.263497,0.59495825,0.84573275,0.018393148,-0.3649238,0.90923434,0.7075567,0.2989442,-0.36629558,0.57437396,0.701339,-0.13335586,-0.5777772,0.5242273,801.8315,864.2857,803.44324,794.57874,767.98535,-0.2379150390625,0.158935546875,0.9427490234375,1.876678466796875,-2.811279296875,0.590667724609375,1.0,1.0,4.0,1.0,1.0,100.0,event
13:25:43.747,-0.082546465,0.6887135,0.32130098,0.71391296,0.60366315,-0.25241026,-0.263497,0.59495825,0.84573275,0.018393148,-0.3649238,0.90923434,0.7075567,0.2989442,-0.36629558,0.57437396,0.701339,-0.13335586,-0.5777772,0.5242273,793.7729,784.10254,802.6374,810.696,770.80585,-0.2379150390625,0.158935546875,0.9427490234375,1.876678466796875,-2.811279296875,0.590667724609375,1.0,1.0,4.0,1.0,1.0,100.0,event
13:25:43.748,-0.082546465,0.6887135,0.32130098,0.71391296,0.60366315,-0.25241026,-0.263497,0.59495825,0.84573275,0.018393148,-0.3649238,0.90923434,0.7075567,0.2989442,-0.36629558,0.57437396,0.701339,-0.13335586,-0.5777772,0.5242273,799.81683,983.1502,807.0696,835.2747,780.07324,-0.2379150390625,0.158935546875,0.9427490234375,1.876678466796875,-2.811279296875,0.590667724609375,1.0,1.0,4.0,1.0,1.0,100.0,event
13:25:43.748,-0.082546465,0.6887135,0.32130098,0.71391296,0.60366315,-0.25241026,-0.263497,0.59495825,0.84573275,0.018393148,-0.3649238,0.90923434,0.7075567,0.2989442,-0.36629558,0.57437396,0.701339,-0.13335586,-0.5777772,0.5242273,801.02563,869.5238,806.6667,809.89014,834.87177,-0.2379150390625,0.158935546875,0.9427490234375,1.876678466796875,-2.811279296875,0.590667724609375,1.0,1.0,4.0,1.0,1.0,100.0,event
13:25:43.749,-0.082546465,0.6887135,0.32130098,0.71391296,0.60366315,-0.25241026,-0.263497,0.59495825,0.84573275,0.018393148,-0.3649238,0.90923434,0.7075567,0.2989442,-0.36629558,0.57437396,0.701339,-0.13335586,-0.5777772,0.5242273,799.81683,550.40295,803.44324,796.5934,906.99634,-0.2379150390625,0.158935546875,0.9427490234375,1.876678466796875,-2.811279296875,0.590667724609375,1.0,1.0,4.0,1.0,1.0,100.0,event
13:25:43.750,-0.036402963,0.6887135,0.28890362,0.74142593,0.617089,-0.25241026,-0.30486342,0.6082161,0.84573275,0.018393148,-0.3649238,0.908995,0.73862535,0.2989442,-0.3513649,0.5825111,0.71952635,-0.13335586,-0.5736911,0.54066914,780.87915,139.81685,801.8315,796.99634,1008.5348,-0.2379150390625,0.158935546875,0.9427490234375,1.876678466796875,-2.811279296875,0.590667724609375,1.0,1.0,4.0,1.0,1.0,100.0,event
13:25:43.753,-0.036402963,0.6887135,0.28890362,0.74142593,0.617089,-0.25241026,-0.30486342,0.6082161,0.84573275,0.018393148,-0.3649238,0.908995,0.73862535,0.2989442,-0.3513649,0.5825111,0.71952635,-0.13335586,-0.5736911,0.54066914,776.4469,538.315,802.23444,793.7729,796.99634,-0.2379150390625,0.158935546875,0.9427490234375,1.876678466796875,-2.811279296875,0.590667724609375,1.0,1.0,4.0,1.0,1.0,100.0,event
13:25:43.753,-0.036402963,0.6887135,0.28890362,0.74142593,0.617089,-0.25241026,-0.30486342,0.6082161,0.84573275,0.018393148,-0.3649238,0.908995,0.73862535,0.2989442,-0.3513649,0.5825111,0.71952635,-0.13335586,-0.5736911,0.54066914,802.6374,1057.2894,803.44324,792.5641,630.58606,-0.2379150390625,0.158935546875,0.9427490234375,1.876678466796875,-2.811279296875,0.590667724609375,1.0,1.0,4.0,1.0,1.0,100.0,event
13:25:43.753,-0.036402963,0.6887135,0.28890362,0.74142593,0.617089,-0.25241026,-0.30486342,0.6082161,0.84573275,0.018393148,-0.3649238,0.908995,0.73862535,0.2989442,-0.3513649,0.5825111,0.71952635,-0.13335586,-0.5736911,0.54066914,803.8461,833.2601,806.6667,802.23444,732.52747,-0.2379150390625,0.158935546875,0.9427490234375,1.876678466796875,-2.811279296875,0.590667724609375,1.0,1.0,4.0,1.0,1.0,100.0,event
13:25:43.754,-0.036402963,0.6887135,0.28890362,0.74142593,0.617089,-0.25241026,-0.30486342,0.6082161,0.84573275,0.018393148,-0.3649238,0.908995,0.73862535,0.2989442,-0.3513649,0.5825111,0.71952635,-0.13335586,-0.5736911,0.54066914,789.34064,587.47253,802.6374,795.78754,816.7399,-0.2379150390625,0.158935546875,0.9427490234375,1.876678466796875,-2.811279296875,0.590667724609375,1.0,1.0,4.0,1.0,1.0,100.0,event
13:25:43.777,-0.036402963,0.6887135,0.28890362,0.74142593,0.617089,-0.25241026,-0.30486342,0.6082161,0.84573275,0.018393148,-0.3649238,0.908995,0.73862535,0.2989442,-0.3513649,0.5825111,0.71952635,-0.13335586,-0.5736911,0.54066914,803.44324,753.8828,801.02563,792.96704,714.3956,-0.2503662109375,0.1649169921875,0.95001220703125,3.297271728515625,-2.250518798828125,0.530853271484375,1.0,1.0,4.0,1.0,1.0,100.0,event
13:25:43.778,-0.036402963,0.6887135,0.28890362,0.74142593,0.617089,-0.25241026,-0.30486342,0.6082161,0.84573275,0.018393148,-0.3649238,0.908995,0.73862535,0.2989442,-0.3513649,0.5825111,0.71952635,-0.13335586,-0.5736911,0.54066914,783.2967,723.2601,807.47253,794.57874,799.011,-0.2503662109375,0.1649169921875,0.95001220703125,3.297271728515625,-2.250518798828125,0.530853271484375,1.0,1.0,4.0,1.0,1.0,100.0,event
13:25:43.778,-0.036402963,0.6887135,0.28890362,0.74142593,0.617089,-0.25241026,-0.30486342,0.6082161,0.84573275,0.018393148,-0.3649238,0.908995,0.73862535,0.2989442,-0.3513649,0.5825111,0.71952635,-0.13335586,-0.5736911,0.54066914,803.44324,960.58606,807.8755,801.4286,662.4176,-0.2503662109375,0.1649169921875,0.95001220703125,3.297271728515625,-2.250518798828125,0.530853271484375,1.0,1.0,4.0,1.0,1.0,100.0,event
13:25:43.779,-0.036402963,0.6887135,0.28890362,0.74142593,0.617089,-0.25241026,-0.30486342,0.6082161,0.84573275,0.018393148,-0.3649238,0.908995,0.73862535,0.2989442,-0.3513649,0.5825111,0.71952635,-0.13335586,-0.5736911,0.54066914,793.7729,691.4286,801.02563,786.1172,849.3773,-0.2503662109375,0.1649169921875,0.95001220703125,3.297271728515625,-2.250518798828125,0.530853271484375,1.0,1.0,4.0,1.0,1.0,100.0,event
13:25:43.779,-0.036402963,0.6887135,0.28890362,0.74142593,0.617089,-0.25241026,-0.30486342,0.6082161,0.84573275,0.018393148,-0.3649238,0.908995,0.73862535,0.2989442,-0.3513649,0.5825111,0.71952635,-0.13335586,-0.5736911,0.54066914,794.17584,906.5934,799.011,780.07324,709.15753,-0.2503662109375,0.1649169921875,0.95001220703125,3.297271728515625,-2.250518798828125,0.530853271484375,1.0,1.0,4.0,1.0,1.0,100.0,event
13:25:43.780,-0.036402963,0.6887135,0.28890362,0.74142593,0.617089,-0.25241026,-0.30486342,0.6082161,0.84573275,0.018393148,-0.3649238,0.908995,0.73862535,0.2989442,-0.3513649,0.5825111,0.71952635,-0.13335586,-0.5736911,0.54066914,790.9524,671.28204,801.8315,783.2967,759.12085,-0.2503662109375,0.1649169921875,0.95001220703125,3.297271728515625,-2.250518798828125,0.530853271484375,1.0,1.0,4.0,1.0,1.0,100.0,event
13:25:43.780,-0.036402963,0.6887135,0.28890362,0.74142593,0.617089,-0.25241026,-0.30486342,0.6082161,0.84573275,0.018393148,-0.3649238,0.908995,0.73862535,0.2989442,-0.3513649,0.5825111,0.71952635,-0.13335586,-0.5736911,0.54066914,801.8315,305.42123,803.44324,783.2967,942.0513,-0.2503662109375,0.1649169921875,0.95001220703125,3.297271728515625,-2.250518798828125,0.530853271484375,1.0,1.0,4.0,1.0,1.0,100.0,event
13:25:43.780,-0.036402963,0.6887135,0.28890362,0.74142593,0.617089,-0.25241026,-0.30486342,0.6082161,0.84573275,0.018393148,-0.3649238,0.908995,0.73862535,0.2989442,-0.3513649,0.5825111,0.71952635,-0.13335586,-0.5736911,0.54066914,811.50183,569.34064,799.81683,780.07324,850.58606,-0.2503662109375,0.1649169921875,0.95001220703125,3.297271728515625,-2.250518798828125,0.530853271484375,1.0,1.0,4.0,1.0,1.0,100.0,event
13:25:43.781,-0.036402963,0.6887135,0.28890362,0.74142593,0.617089,-0.25241026,-0.30486342,0.6082161,0.84573275,0.018393148,-0.3649238,0.908995,0.73862535,0.2989442,-0.3513649,0.5825111,0.71952635,-0.13335586,-0.5736911,0.54066914,801.4286,1050.4396,800.6227,790.14655,718.8278,-0.2503662109375,0.1649169921875,0.95001220703125,3.297271728515625,-2.250518798828125,0.530853271484375,1.0,1.0,4.0,1.0,1.0,100.0,event
13:25:43.781,-0.036402963,0.6887135,0.28890362,0.74142593,0.617089,-0.25241026,-0.30486342,0.6082161,0.84573275,0.018393148,-0.3649238,0.908995,0.73862535,0.2989442,-0.3513649,0.5825111,0.71952635,-0.13335586,-0.5736911,0.54066914,804.65204,971.4652,802.6374,806.26373,770.80585,-0.2503662109375,0.1649169921875,0.95001220703125,3.297271728515625,-2.250518798828125,0.530853271484375,1.0,1.0,4.0,1.0,1.0,100.0,event
13:25:43.782,-0.036402963,0.6887135,0.28890362,0.74142593,0.617089,-0.25241026,-0.30486342,0.6082161,0.84573275,0.018393148,-0.3649238,0.908995,0.73862535,0.2989442,-0.3513649,0.5825111,0.71952635,-0.13335586,-0.5736911,0.54066914,807.47253,383.1868,801.02563,805.4579,933.1868,-0.2503662109375,0.1649169921875,0.95001220703125,3.297271728515625,-2.250518798828125,0.530853271484375,1.0,1.0,4.0,1.0,1.0,100.0,event
13:25:43.782,-0.036402963,0.6887135,0.28890362,0.74142593,0.617089,-0.25241026,-0.30486342,0.6082161,0.84573275,0.018393148,-0.3649238,0.908995,0.73862535,0.2989442,-0.3513649,0.5825111,0.71952635,-0.13335586,-0.5736911,0.54066914,797.3993,505.27472,801.8315,791.3553,829.6337,-0.2503662109375,0.1649169921875,0.95001220703125,3.297271728515625,-2.250518798828125,0.530853271484375,1.0,1.0,4.0,1.0,1.0,100.0,event
13:25:43.870,-0.036402963,0.6887135,0.28890362,0.74142593,0.617089,-0.25241026,-0.30486342,0.6082161,0.84573275,0.018393148,-0.3649238,0.908995,0.73862535,0.2989442,-0.3513649,0.5825111,0.71952635,-0.13335586,-0.5736911,0.54066914,811.0989,1032.3077,801.02563,806.26373,676.1172,-0.2503662109375,0.1649169921875,0.95001220703125,3.297271728515625,-2.250518798828125,0.530853271484375,1.0,1.0,4.0,1.0,1.0,100.0,event
13:25:43.872,-0.036402963,0.6887135,0.28890362,0.74142593,0.617089,-0.25241026,-0.30486342,0.6082161,0.84573275,0.018393148,-0.3649238,0.908995,0.73862535,0.2989442,-0.3513649,0.5825111,0.71952635,-0.13335586,-0.5736911,0.54066914,817.1429,963.00366,798.60803,820.3663,767.5824,-0.2503662109375,0.1649169921875,0.95001220703125,3.297271728515625,-2.250518798828125,0.530853271484375,1.0,1.0,4.0,1.0,1.0,100.0,event
13:25:43.872,-0.036402963,0.6887135,0.28890362,0.74142593,0.617089,-0.25241026,-0.30486342,0.6082161,0.84573275,0.018393148,-0.3649238,0.908995,0.73862535,0.2989442,-0.3513649,0.5825111,0.71952635,-0.13335586,-0.5736911,0.54066914,803.8461,649.92676,799.41394,820.7692,906.5934,-0.2503662109375,0.1649169921875,0.95001220703125,3.297271728515625,-2.250518798828125,0.530853271484375,1.0,1.0,4.0,1.0,1.0,100.0,event
13:25:43.873,-0.036402963,0.6887135,0.28890362,0.74142593,0.617089,-0.25241026,-0.30486342,0.6082161,0.84573275,0.018393148,-0.3649238,0.908995,0.73862535,0.2989442,-0.3513649,0.5825111,0.71952635,-0.13335586,-0.5736911,0.54066914,801.02563,686.5934,801.8315,816.337,778.46155,-0.2503662109375,0.1649169921875,0.95001220703125,3.297271728515625,-2.250518798828125,0.530853271484375,1.0,1.0,4.0,1.0,1.0,100.0,event
13:25:43.874,-0.036402963,0.6887135,0.28890362,0.74142593,0.617089,-0.25241026,-0.30486342,0.6082161,0.84573275,0.018393148,-0.3649238,0.908995,0.73862535,0.2989442,-0.3513649,0.5825111,0.71952635,-0.13335586,-0.5736911,0.54066914,802.6374,910.2198,802.23444,790.14655,687.3993,-0.2503662109375,0.1649169921875,0.95001220703125,3.297271728515625,-2.250518798828125,0.530853271484375,1.0,1.0,4.0,1.0,1.0,100.0,event
13:25:43.875,-0.036402963,0.6887135,0.28890362,0.74142593,0.617089,-0.25241026,-0.30486342,0.6082161,0.84573275,0.018393148,-0.3649238,0.908995,0.73862535,0.2989442,-0.3513649,0.5825111,0.71952635,-0.13335586,-0.5736911,0.54066914,791.75824,707.5458,804.65204,795.78754,820.7692,-0.2503662109375,0.1649169921875,0.95001220703125,3.297271728515625,-2.250518798828125,0.530853271484375,1.0,1.0,4.0,1.0,1.0,100.0,event
13:25:43.875,-0.036402963,0.6887135,0.28890362,0.74142593,0.617089,-0.25241026,-0.30486342,0.6082161,0.84573275,0.018393148,-0.3649238,0.908995,0.73862535,0.2989442,-0.3513649,0.5825111,0.71952635,-0.13335586,-0.5736911,0.54066914,786.1172,97.91209,807.47253,824.3956,1096.7766,-0.2503662109375,0.1649169921875,0.95001220703125,3.297271728515625,-2.250518798828125,0.530853271484375,1.0,1.0,4.0,1.0,1.0,100.0,event
13:25:43.876,-0.036402963,0.6887135,0.28890362,0.74142593,0.617089,-0.25241026,-0.30486342,0.6082161,0.84573275,0.018393148,-0.3649238,0.908995,0.73862535,0.2989442,-0.3513649,0.5825111,0.71952635,-0.13335586,-0.5736911,0.54066914,792.1612,240.54945,807.47253,799.81683,1007.326,-0.2503662109375,0.1649169921875,0.95001220703125,3.297271728515625,-2.250518798828125,0.530853271484375,1.0,1.0,4.0,1.0,1.0,100.0,event
13:25:43.877,-0.036402963,0.6887135,0.28890362,0.74142593,0.617089,-0.25241026,-0.30486342,0.6082161,0.84573275,0.018393148,-0.3649238,0.908995,0.73862535,0.2989442,-0.3513649,0.5825111,0.71952635,-0.13335586,-0.5736911,0.54066914,799.011,878.3883,806.26373,801.4286,749.45056,-0.2503662109375,0.1649169921875,0.95001220703125,3.297271728515625,-2.250518798828125,0.530853271484375,1.0,1.0,4.0,1.0,1.0,100.0,event
13:25:43.877,-0.0058570653,0.6887135,0.24190502,0.77107966,0.6301428,-0.25241026,-0.31908566,0.63074493,0.8530178,0.018393148,-0.36522534,0.9077862,0.7713608,0.2989442,-0.34129813,0.59317815,0.73568726,-0.13335586,-0.57487833,0.5614612,811.0989,796.1905,802.6374,818.3516,740.58606,-0.2503662109375,0.1649169921875,0.95001220703125,3.297271728515625,-2.250518798828125,0.530853271484375,1.0,1.0,4.0,1.0,1.0,100.0,event
13:25:43.881,-0.0058570653,0.6887135,0.24190502,0.77107966,0.6301428,-0.25241026,-0.31908566,0.63074493,0.8530178,0.018393148,-0.36522534,0.9077862,0.7713608,0.2989442,-0.34129813,0.59317815,0.73568726,-0.13335586,-0.57487833,0.5614612,791.75824,752.674,799.81683,790.54944,751.4652,-0.2503662109375,0.1649169921875,0.95001220703125,3.297271728515625,-2.250518798828125,0.530853271484375,1.0,1.0,4.0,1.0,1.0,100.0,event
13:25:43.882,-0.0058570653,0.6887135,0.24190502,0.77107966,0.6301428,-0.25241026,-0.31908566,0.63074493,0.8530178,0.018393148,-0.36522534,0.9077862,0.7713608,0.2989442,-0.34129813,0.59317815,0.73568726,-0.13335586,-0.57487833,0.5614612,796.5934,1053.2601,803.0403,780.07324,751.4652,-0.2503662109375,0.1649169921875,0.95001220703125,3.297271728515625,-2.250518798828125,0.530853271484375,1.0,1.0,4.0,1.0,1.0,100.0,event
13:25:43.930,-0.0058570653,0.6887135,0.24190502,0.77107966,0.6301428,-0.25241026,-0.31908566,0.63074493,0.8530178,0.018393148,-0.36522534,0.9077862,0.7713608,0.2989442,-0.34129813,0.59317815,0.73568726,-0.13335586,-0.57487833,0.5614612,800.6227,1028.2784,803.44324,776.04395,708.3516,-0.23583984375,0.16949462890625,0.9378662109375,1.248626708984375,-3.028106689453125,0.49346923828125,1.0,1.0,4.0,1.0,1.0,100.0,event
13:25:43.931,-0.0058570653,0.6887135,0.24190502,0.77107966,0.6301428,-0.25241026,-0.31908566,0.63074493,0.8530178,0.018393148,-0.36522534,0.9077862,0.7713608,0.2989442,-0.34129813,0.59317815,0.73568726,-0.13335586,-0.57487833,0.5614612,786.9231,756.7033,803.44324,770.40295,778.86444,-0.23583984375,0.16949462890625,0.9378662109375,1.248626708984375,-3.028106689453125,0.49346923828125,1.0,1.0,4.0,1.0,1.0,100.0,event
13:25:43.931,-0.0058570653,0.6887135,0.24190502,0.77107966,0.6301428,-0.25241026,-0.31908566,0.63074493,0.8530178,0.018393148,-0.36522534,0.9077862,0.7713608,0.2989442,-0.34129813,0.59317815,0.73568726,-0.13335586,-0.57487833,0.5614612,773.6264,769.59705,802.23444,764.7619,823.1868,-0.23583984375,0.16949462890625,0.9378662109375,1.248626708984375,-3.028106689453125,0.49346923828125,1.0,1.0,4.0,1.0,1.0,100.0,event
13:25:43.932,-0.0058570653,0.6887135,0.24190502,0.77107966,0.6301428,-0.25241026,-0.31908566,0.63074493,0.8530178,0.018393148,-0.36522534,0.9077862,0.7713608,0.2989442,-0.34129813,0.59317815,0.73568726,-0.13335586,-0.57487833,0.5614612,770.80585,1015.38464,801.02563,764.7619,772.01465,-0.23583984375,0.16949462890625,0.9378662109375,1.248626708984375,-3.028106689453125,0.49346923828125,1.0,1.0,4.0,1.0,1.0,100.0,event
13:25:43.933,-0.0058570653,0.6887135,0.24190502,0.77107966,0.6301428,-0.25241026,-0.31908566,0.63074493,0.8530178,0.018393148,-0.36522534,0.9077862,0.7713608,0.2989442,-0.34129813,0.59317815,0.73568726,-0.13335586,-0.57487833,0.5614612,783.69965,1033.9194,802.23444,764.35895,767.98535,-0.23583984375,0.16949462890625,0.9378662109375,1.248626708984375,-3.028106689453125,0.49346923828125,1.0,1.0,4.0,1.0,1.0,100.0,event
13:25:43.933,-0.0058570653,0.6887135,0.24190502,0.77107966,0.6301428,-0.25241026,-0.31908566,0.63074493,0.8530178,0.018393148,-0.36522534,0.9077862,0.7713608,0.2989442,-0.34129813,0.59317815,0.73568726,-0.13335586,-0.57487833,0.5614612,784.5055,656.3736,802.6374,774.43225,908.20514,-0.23583984375,0.16949462890625,0.9378662109375,1.248626708984375,-3.028106689453125,0.49346923828125,1.0,1.0,4.0,1.0,1.0,100.0,event
13:25:43.934,-0.0058570653,0.6887135,0.24190502,0.77107966,0.6301428,-0.25241026,-0.31908566,0.63074493,0.8530178,0.018393148,-0.36522534,0.9077862,0.7713608,0.2989442,-0.34129813,0.59317815,0.73568726,-0.13335586,-0.57487833,0.5614612,799.41394,491.17215,802.6374,783.69965,967.8388,-0.23583984375,0.16949462890625,0.9378662109375,1.248626708984375,-3.028106689453125,0.49346923828125,1.0,1.0,4.0,1.0,1.0,100.0,event
13:25:43.936,-0.0058570653,0.6887135,0.24190502,0.77107966,0.6301428,-0.25241026,-0.31908566,0.63074493,0.8530178,0.018393148,-0.36522534,0.9077862,0.7713608,0.2989442,-0.34129813,0.59317815,0.73568726,-0.13335586,-0.57487833,0.5614612,781.28204,557.6557,801.8315,780.4762,852.1978,-0.23583984375,0.16949462890625,0.9378662109375,1.248626708984375,-3.028106689453125,0.49346923828125,1.0,1.0,4.0,1.0,1.0,100.0,event
13:25:43.936,-0.0058570653,0.6887135,0.24190502,0.77107966,0.6301428,-0.25241026,-0.31908566,0.63074493,0.8530178,0.018393148,-0.36522534,0.9077862,0.7713608,0.2989442,-0.34129813,0.59317815,0.73568726,-0.13335586,-0.57487833,0.5614612,770.40295,781.685,804.2491,786.9231,735.7509,-0.23583984375,0.16949462890625,0.9378662109375,1.248626708984375,-3.028106689453125,0.49346923828125,1.0,1.0,4.0,1.0,1.0,100.0,event
13:25:43.937,-0.0058570653,0.6887135,0.24190502,0.77107966,0.6301428,-0.25241026,-0.31908566,0.63074493,0.8530178,0.018393148,-0.36522534,0.9077862,0.7713608,0.2989442,-0.34129813,0.59317815,0.73568726,-0.13335586,-0.57487833,0.5614612,771.6117,403.33334,803.8461,792.5641,925.5311,-0.23583984375,0.16949462890625,0.9378662109375,1.248626708984375,-3.028106689453125,0.49346923828125,1.0,1.0,4.0,1.0,1.0,100.0,event
13:25:43.938,-0.0058570653,0.6887135,0.24190502,0.77107966,0.6301428,-0.25241026,-0.31908566,0.63074493,0.8530178,0.018393148,-0.36522534,0.9077862,0.7713608,0.2989442,-0.34129813,0.59317815,0.73568726,-0.13335586,-0.57487833,0.5614612,787.326,216.37363,803.8461,784.90845,1055.2748,-0.23583984375,0.16949462890625,0.9378662109375,1.248626708984375,-3.028106689453125,0.49346923828125,1.0,1.0,4.0,1.0,1.0,100.0,event
13:25:43.939,-0.0058570653,0.6887135,0.24190502,0.77107966,0.6301428,-0.25241026,-0.31908566,0.63074493,0.8530178,0.018393148,-0.36522534,0.9077862,0.7713608,0.2989442,-0.34129813,0.59317815,0.73568726,-0.13335586,-0.57487833,0.5614612,789.34064,883.22345,803.0403,786.1172,799.011,-0.23583984375,0.16949462890625,0.9378662109375,1.248626708984375,-3.028106689453125,0.49346923828125,1.0,1.0,4.0,1.0,1.0,100.0,event
13:25:43.940,-0.0058570653,0.6887135,0.24190502,0.77107966,0.6301428,-0.25241026,-0.31908566,0.63074493,0.8530178,0.018393148,-0.36522534,0.9077862,0.7713608,0.2989442,-0.34129813,0.59317815,0.73568726,-0.13335586,-0.57487833,0.5614612,766.77655,903.36993,801.8315,781.685,756.30035,-0.25189208984375,0.16497802734375,0.9405517578125,1.413116455078125,-3.416900634765625,0.635528564453125,1.0,1.0,4.0,1.0,1.0,100.0,event
13:25:43.941,-0.0058570653,0.6887135,0.24190502,0.77107966,0.6301428,-0.25241026,-0.31908566,0.63074493,0.8530178,0.018393148,-0.36522534,0.9077862,0.7713608,0.2989442,-0.34129813,0.59317815,0.73568726,-0.13335586,-0.57487833,0.5614612,782.49084,724.87177,807.47253,792.5641,776.8498,-0.25189208984375,0.16497802734375,0.9405517578125,1.413116455078125,-3.416900634765625,0.635528564453125,1.0,1.0,4.0,1.0,1.0,100.0,event
13:25:43.941,-0.0058570653,0.6887135,0.24190502,0.77107966,0.6301428,-0.25241026,-0.31908566,0.63074493,0.8530178,0.018393148,-0.36522534,0.9077862,0.7713608,0.2989442,-0.34129813,0.59317815,0.73568726,-0.13335586,-0.57487833,0.5614612,801.8315,964.21246,805.4579,795.38464,765.9707,-0.25189208984375,0.16497802734375,0.9405517578125,1.413116455078125,-3.416900634765625,0.635528564453125,1.0,1.0,4.0,1.0,1.0,100.0,event
13:25:43.942,-0.0058570653,0.6887135,0.24190502,0.77107966,0.6301428,-0.25241026,-0.31908566,0.63074493,0.8530178,0.018393148,-0.36522534,0.9077862,0.7713608,0.2989442,-0.34129813,0.59317815,0.73568726,-0.13335586,-0.57487833,0.5614612,789.7436,1117.326,800.6227,782.0879,799.41394,-0.25189208984375,0.16497802734375,0.9405517578125,1.413116455078125,-3.416900634765625,0.635528564453125,1.0,1.0,4.0,1.0,1.0,100.0,event
13:25:43.943,-0.0058570653,0.6887135,0.24190502,0.77107966,0.6301428,-0.25241026,-0.31908566,0.63074493,0.8530178,0.018393148,-0.36522534,0.9077862,0.7713608,0.2989442,-0.34129813,0.59317815,0.73568726,-0.13335586,-0.57487833,0.5614612,788.93774,918.68134,801.8315,798.20514,811.0989,-0.25189208984375,0.16497802734375,0.9405517578125,1.413116455078125,-3.416900634765625,0.635528564453125,1.0,1.0,4.0,1.0,1.0,100.0,event
13:25:43.944,-0.0058570653,0.6887135,0.24190502,0.77107966,0.6301428,-0.25241026,-0.31908566,0.63074493,0.8530178,0.018393148,-0.36522534,0.9077862,0.7713608,0.2989442,-0.34129813,0.59317815,0.73568726,-0.13335586,-0.57487833,0.5614612,774.83514,523.00366,801.02563,798.20514,884.83514,-0.25189208984375,0.16497802734375,0.9405517578125,1.413116455078125,-3.416900634765625,0.635528564453125,1.0,1.0,4.0,1.0,1.0,100.0,event
13:25:43.944,-0.0058570653,0.6887135,0.24190502,0.77107966,0.6301428,-0.25241026,-0.31908566,0.63074493,0.8530178,0.018393148,-0.36522534,0.9077862,0.7713608,0.2989442,-0.34129813,0.59317815,0.73568726,-0.13335586,-0.57487833,0.5614612,760.7326,539.12085,799.81683,778.86444,890.4762,-0.25189208984375,0.16497802734375,0.9405517578125,1.413116455078125,-3.416900634765625,0.635528564453125,1.0,1.0,4.0,1.0,1.0,100.0,event
13:25:43.945,-0.0058570653,0.6887135,0.24190502,0.77107966,0.6301428,-0.25241026,-0.31908566,0.63074493,0.8530178,0.018393148,-0.36522534,0.9077862,0.7713608,0.2989442,-0.34129813,0.59317815,0.73568726,-0.13335586,-0.57487833,0.5614612,788.5348,913.0403,797.3993,786.9231,746.63007,-0.25189208984375,0.16497802734375,0.9405517578125,1.413116455078125,-3.416900634765625,0.635528564453125,1.0,1.0,4.0,1.0,1.0,100.0,event
13:25:43.946,-0.0058570653,0.6887135,0.24190502,0.77107966,0.6301428,-0.25241026,-0.31908566,0.63074493,0.8530178,0.018393148,-0.36522534,0.9077862,0.7713608,0.2989442,-0.34129813,0.59317815,0.73568726,-0.13335586,-0.57487833,0.5614612,794.57874,133.36996,796.99634,786.1172,1112.4908,-0.25189208984375,0.16497802734375,0.9405517578125,1.413116455078125,-3.416900634765625,0.635528564453125,1.0,1.0,4.0,1.0,1.0,100.0,event
13:25:43.946,-0.0058570653,0.6887135,0.24190502,0.77107966,0.6301428,-0.25241026,-0.31908566,0.63074493,0.8530178,0.018393148,-0.36522534,0.9077862,0.7713608,0.2989442,-0.34129813,0.59317815,0.73568726,-0.13335586,-0.57487833,0.5614612,800.6227,841.7216,796.99634,794.17584,817.9487,-0.25189208984375,0.16497802734375,0.9405517578125,1.413116455078125,-3.416900634765625,0.635528564453125,1.0,1.0,4.0,1.0,1.0,100.0,event
13:25:43.949,-0.0058570653,0.6887135,0.24190502,0.77107966,0.6301428,-0.25241026,-0.31908566,0.63074493,0.8530178,0.018393148,-0.36522534,0.9077862,0.7713608,0.2989442,-0.34129813,0.59317815,0.73568726,-0.13335586,-0.57487833,0.5614612,781.28204,417.43588,795.78754,777.6557,979.12085,-0.25189208984375,0.16497802734375,0.9405517578125,1.413116455078125,-3.416900634765625,0.635528564453125,1.0,1.0,4.0,1.0,1.0,100.0,event
13:25:43.950,0.012438535,0.6887135,0.21822044,0.7743197,0.64638764,-0.25241026,-0.31421468,0.6429867,0.8640177,0.018393148,-0.3687385,0.9025769,0.7985847,0.2989442,-0.33455205,0.58311075,0.7518787,-0.13335586,-0.5733194,0.5804831,778.46155,993.6264,800.2198,784.90845,738.97437,-0.25189208984375,0.16497802734375,0.9405517578125,1.413116455078125,-3.416900634765625,0.635528564453125,1.0,1.0,4.0,1.0,1.0,100.0,event
13:25:43.998,0.012438535,0.6887135,0.21822044,0.7743197,0.64638764,-0.25241026,-0.31421468,0.6429867,0.8640177,0.018393148,-0.3687385,0.9025769,0.7985847,0.2989442,-0.33455205,0.58311075,0.7518787,-0.13335586,-0.5733194,0.5804831,799.81683,856.2271,803.0403,794.9817,758.71796,-0.2420654296875,0.16485595703125,0.9521484375,1.80938720703125,-2.13836669921875,0.43365478515625,1.0,1.0,4.0,1.0,1.0,100.0,event
13:25:43.999,0.012438535,0.6887135,0.21822044,0.7743197,0.64638764,-0.25241026,-0.31421468,0.6429867,0.8640177,0.018393148,-0.3687385,0.9025769,0.7985847,0.2989442,-0.33455205,0.58311075,0.7518787,-0.13335586,-0.5733194,0.5804831,808.68134,846.9597,801.4286,784.90845,731.7216,-0.2420654296875,0.16485595703125,0.9521484375,1.80938720703125,-2.13836669921875,0.43365478515625,1.0,1.0,4.0,1.0,1.0,100.0,event
13:25:44.000,0.012438535,0.6887135,0.21822044,0.7743197,0.64638764,-0.25241026,-0.31421468,0.6429867,0.8640177,0.018393148,-0.3687385,0.9025769,0.7985847,0.2989442,-0.33455205,0.58311075,0.7518787,-0.13335586,-0.5733194,0.5804831,816.337,1008.1319,799.81683,798.20514,707.9487,-0.2420654296875,0.16485595703125,0.9521484375,1.80938720703125,-2.13836669921875,0.43365478515625,1.0,1.0,4.0,1.0,1.0,100.0,event
13:25:44.000,0.012438535,0.6887135,0.21822044,0.7743197,0.64638764,-0.25241026,-0.31421468,0.6429867,0.8640177,0.018393148,-0.3687385,0.9025769,0.7985847,0.2989442,-0.33455205,0.58311075,0.7518787,-0.13335586,-0.5733194,0.5804831,811.9048,941.6484,800.2198,806.26373,738.1685,-0.2420654296875,0.16485595703125,0.9521484375,1.80938720703125,-2.13836669921875,0.43365478515625,1.0,1.0,4.0,1.0,1.0,100.0,event
13:25:44.001,0.012438535,0.6887135,0.21822044,0.7743197,0.64638764,-0.25241026,-0.31421468,0.6429867,0.8640177,0.018393148,-0.3687385,0.9025769,0.7985847,0.2989442,-0.33455205,0.58311075,0.7518787,-0.13335586,-0.5733194,0.5804831,786.1172,646.30035,798.60803,789.7436,712.7839,-0.2420654296875,0.16485595703125,0.9521484375,1.80938720703125,-2.13836669921875,0.43365478515625,1.0,1.0,4.0,1.0,1.0,100.0,event
13:25:44.001,0.012438535,0.6887135,0.21822044,0.7743197,0.64638764,-0.25241026,-0.31421468,0.6429867,0.8640177,0.018393148,-0.3687385,0.9025769,0.7985847,0.2989442,-0.33455205,0.58311075,0.7518787,-0.13335586,-0.5733194,0.5804831,781.28204,553.6264,794.9817,782.49084,751.8681,-0.2420654296875,0.16485595703125,0.9521484375,1.80938720703125,-2.13836669921875,0.43365478515625,1.0,1.0,4.0,1.0,1.0,100.0,event
13:25:44.002,0.012438535,0.6887135,0.21822044,0.7743197,0.64638764,-0.25241026,-0.31421468,0.6429867,0.8640177,0.018393148,-0.3687385,0.9025769,0.7985847,0.2989442,-0.33455205,0.58311075,0.7518787,-0.13335586,-0.5733194,0.5804831,799.81683,841.31866,795.78754,805.4579,703.1135,-0.2420654296875,0.16485595703125,0.9521484375,1.80938720703125,-2.13836669921875,0.43365478515625,1.0,1.0,4.0,1.0,1.0,100.0,event
13:25:44.002,0.012438535,0.6887135,0.21822044,0.7743197,0.64638764,-0.25241026,-0.31421468,0.6429867,0.8640177,0.018393148,-0.3687385,0.9025769,0.7985847,0.2989442,-0.33455205,0.58311075,0.7518787,-0.13335586,-0.5733194,0.5804831,796.5934,697.8755,795.78754,795.78754,800.6227,-0.2420654296875,0.16485595703125,0.9521484375,1.80938720703125,-2.13836669921875,0.43365478515625,1.0,1.0,4.0,1.0,1.0,100.0,event
13:25:44.003,0.012438535,0.6887135,0.21822044,0.7743197,0.64638764,-0.25241026,-0.31421468,0.6429867,0.8640177,0.018393148,-0.3687385,0.9025769,0.7985847,0.2989442,-0.33455205,0.58311075,0.7518787,-0.13335586,-0.5733194,0.5804831,795.78754,349.34067,794.9817,801.8315,858.24176,-0.2420654296875,0.16485595703125,0.9521484375,1.80938720703125,-2.13836669921875,0.43365478515625,1.0,1.0,4.0,1.0,1.0,100.0,event
13:25:44.003,0.012438535,0.6887135,0.21822044,0.7743197,0.64638764,-0.25241026,-0.31421468,0.6429867,0.8640177,0.018393148,-0.3687385,0.9025769,0.7985847,0.2989442,-0.33455205,0.58311075,0.7518787,-0.13335586,-0.5733194,0.5804831,779.2674,258.6813,799.011,798.20514,942.4542,-0.2420654296875,0.16485595703125,0.9521484375,1.80938720703125,-2.13836669921875,0.43365478515625,1.0,1.0,4.0,1.0,1.0,100.0,event
13:25:44.004,0.012438535,0.6887135,0.21822044,0.7743197,0.64638764,-0.25241026,-0.31421468,0.6429867,0.8640177,0.018393148,-0.3687385,0.9025769,0.7985847,0.2989442,-0.33455205,0.58311075,0.7518787,-0.13335586,-0.5733194,0.5804831,794.9817,964.61536,800.2198,785.7143,714.7985,-0.2420654296875,0.16485595703125,0.9521484375,1.80938720703125,-2.13836669921875,0.43365478515625,1.0,1.0,4.0,1.0,1.0,100.0,event
13:25:44.004,0.012438535,0.6887135,0.21822044,0.7743197,0.64638764,-0.25241026,-0.31421468,0.6429867,0.8640177,0.018393148,-0.3687385,0.9025769,0.7985847,0.2989442,-0.33455205,0.58311075,0.7518787,-0.13335586,-0.5733194,0.5804831,809.0842,958.1685,798.60803,785.31134,790.54944,-0.2420654296875,0.16485595703125,0.9521484375,1.80938720703125,-2.13836669921875,0.43365478515625,1.0,1.0,4.0,1.0,1.0,100.0,event
13:25:44.030,0.012438535,0.6887135,0.21822044,0.7743197,0.64638764,-0.25241026,-0.31421468,0.6429867,0.8640177,0.018393148,-0.3687385,0.9025769,0.7985847,0.2989442,-0.33455205,0.58311075,0.7518787,-0.13335586,-0.5733194,0.5804831,811.9048,487.54578,797.8022,807.47253,960.18317,-0.248779296875,0.1614990234375,0.9388427734375,1.248626708984375,-3.33465576171875,-0.695343017578125,1.0,1.0,4.0,1.0,1.0,100.0,event
