TimeStamp,Delta_TP9,Delta_AF7,Delta_AF8,Delta_TP10,Theta_TP9,Theta_AF7,Theta_AF8,Theta_TP10,Alpha_TP9,Alpha_AF7,Alpha_AF8,Alpha_TP10,Beta_TP9,Beta_AF7,Beta_AF8,Beta_TP10,Gamma_TP9,Gamma_AF7,Gamma_AF8,Gamma_TP10,RAW_TP9,RAW_AF7,RAW_AF8,RAW_TP10,AUX_RIGHT,Accelerometer_X,Accelerometer_Y,Accelerometer_Z,Gyro_X,Gyro_Y,Gyro_Z,HeadBandOn,HSI_TP9,HSI_AF7,HSI_AF8,HSI_TP10,Battery,Elements
13:15:33.681,0.35673064,0.6887135,0.44549203,0.25499555,0.3205171,-0.25241026,-0.3170261,0.36506045,0.43096396,0.018393148,-0.05421532,0.6100344,0.5699886,0.2989442,-0.19524898,0.56301427,0.5206337,-0.13335586,-0.6703227,0.2535662,813.1135,1071.7949,803.44324,793.7729,795.78754,-0.24151611328125,0.11767578125,0.9501953125,2.190704345703125,-3.48419189453125,0.396270751953125,1.0,1.0,4.0,1.0,1.0,100.0,event
13:15:33.682,0.35673064,0.6887135,0.44549203,0.25499555,0.3205171,-0.25241026,-0.3170261,0.36506045,0.43096396,0.018393148,-0.05421532,0.6100344,0.5699886,0.2989442,-0.19524898,0.56301427,0.5206337,-0.13335586,-0.6703227,0.2535662,802.6374,1215.641,803.8461,788.1319,736.55676,-0.24151611328125,0.11767578125,0.9501953125,2.190704345703125,-3.48419189453125,0.396270751953125,1.0,1.0,4.0,1.0,1.0,100.0,event
13:15:33.683,0.35673064,0.6887135,0.44549203,0.25499555,0.3205171,-0.25241026,-0.3170261,0.36506045,0.43096396,0.018393148,-0.05421532,0.6100344,0.5699886,0.2989442,-0.19524898,0.56301427,0.5206337,-0.13335586,-0.6703227,0.2535662,802.23444,962.6007,803.0403,796.99634,855.82416,-0.24151611328125,0.11767578125,0.9501953125,2.190704345703125,-3.48419189453125,0.396270751953125,1.0,1.0,4.0,1.0,1.0,100.0,event
13:15:33.683,0.35673064,0.6887135,0.44549203,0.25499555,0.3205171,-0.25241026,-0.3170261,0.36506045,0.43096396,0.018393148,-0.05421532,0.6100344,0.5699886,0.2989442,-0.19524898,0.56301427,0.5206337,-0.13335586,-0.6703227,0.2535662,800.2198,1118.5348,801.02563,786.52014,757.1062,-0.24151611328125,0.11767578125,0.9501953125,2.190704345703125,-3.48419189453125,0.396270751953125,1.0,1.0,4.0,1.0,1.0,100.0,event
13:15:33.684,0.35673064,0.6887135,0.44549203,0.25499555,0.3205171,-0.25241026,-0.3170261,0.36506045,0.43096396,0.018393148,-0.05421532,0.6100344,0.5699886,0.2989442,-0.19524898,0.56301427,0.5206337,-0.13335586,-0.6703227,0.2535662,817.5458,1103.2234,807.47253,811.9048,842.1245,-0.24151611328125,0.11767578125,0.9501953125,2.190704345703125,-3.48419189453125,0.396270751953125,1.0,1.0,4.0,1.0,1.0,100.0,event
13:15:33.685,0.35673064,0.6887135,0.44549203,0.25499555,0.3205171,-0.25241026,-0.3170261,0.36506045,0.43096396,0.018393148,-0.05421532,0.6100344,0.5699886,0.2989442,-0.19524898,0.56301427,0.5206337,-0.13335586,-0.6703227,0.2535662,824.3956,1020.2198,808.2784,810.696,832.0513,-0.24151611328125,0.11767578125,0.9501953125,2.190704345703125,-3.48419189453125,0.396270751953125,1.0,1.0,4.0,1.0,1.0,100.0,event
13:15:33.685,0.35673064,0.6887135,0.44549203,0.25499555,0.3205171,-0.25241026,-0.3170261,0.36506045,0.43096396,0.018393148,-0.05421532,0.6100344,0.5699886,0.2989442,-0.19524898,0.56301427,0.5206337,-0.13335586,-0.6703227,0.2535662,801.4286,849.7802,807.8755,805.4579,873.95605,-0.24151611328125,0.11767578125,0.9501953125,2.190704345703125,-3.48419189453125,0.396270751953125,1.0,1.0,4.0,1.0,1.0,100.0,event
13:15:33.686,0.35673064,0.6887135,0.44549203,0.25499555,0.3205171,-0.25241026,-0.3170261,0.36506045,0.43096396,0.018393148,-0.05421532,0.6100344,0.5699886,0.2989442,-0.19524898,0.56301427,0.5206337,-0.13335586,-0.6703227,0.2535662,784.90845,355.78754,806.6667,794.9817,984.7619,-0.24151611328125,0.11767578125,0.9501953125,2.190704345703125,-3.48419189453125,0.396270751953125,1.0,1.0,4.0,1.0,1.0,100.0,event
13:15:33.687,0.35673064,0.6887135,0.44549203,0.25499555,0.3205171,-0.25241026,-0.3170261,0.36506045,0.43096396,0.018393148,-0.05421532,0.6100344,0.5699886,0.2989442,-0.19524898,0.56301427,0.5206337,-0.13335586,-0.6703227,0.2535662,811.0989,228.86447,805.8608,800.2198,982.74725,-0.24151611328125,0.11767578125,0.9501953125,2.190704345703125,-3.48419189453125,0.396270751953125,1.0,1.0,4.0,1.0,1.0,100.0,event
13:15:33.687,0.35673064,0.6887135,0.44549203,0.25499555,0.3205171,-0.25241026,-0.3170261,0.36506045,0.43096396,0.018393148,-0.05421532,0.6100344,0.5699886,0.2989442,-0.19524898,0.56301427,0.5206337,-0.13335586,-0.6703227,0.2535662,824.7985,1103.2234,807.0696,807.8755,782.49084,-0.24151611328125,0.11767578125,0.9501953125,2.190704345703125,-3.48419189453125,0.396270751953125,1.0,1.0,4.0,1.0,1.0,100.0,event
13:15:33.688,0.35673064,0.6887135,0.44549203,0.25499555,0.3205171,-0.25241026,-0.3170261,0.36506045,0.43096396,0.018393148,-0.05421532,0.6100344,0.5699886,0.2989442,-0.19524898,0.56301427,0.5206337,-0.13335586,-0.6703227,0.2535662,793.36993,1251.5018,807.47253,801.4286,791.75824,-0.24151611328125,0.11767578125,0.9501953125,2.190704345703125,-3.48419189453125,0.396270751953125,1.0,1.0,4.0,1.0,1.0,100.0,event
13:15:33.688,0.35673064,0.6887135,0.44549203,0.25499555,0.3205171,-0.25241026,-0.3170261,0.36506045,0.43096396,0.018393148,-0.05421532,0.6100344,0.5699886,0.2989442,-0.19524898,0.56301427,0.5206337,-0.13335586,-0.6703227,0.2535662,794.57874,911.4286,807.0696,798.20514,839.707,-0.24151611328125,0.11767578125,0.9501953125,2.190704345703125,-3.48419189453125,0.396270751953125,1.0,1.0,4.0,1.0,1.0,100.0,event
13:15:33.774,0.35673064,0.6887135,0.44549203,0.25499555,0.3205171,-0.25241026,-0.3170261,0.36506045,0.43096396,0.018393148,-0.05421532,0.6100344,0.5699886,0.2989442,-0.19524898,0.56301427,0.5206337,-0.13335586,-0.6703227,0.2535662,796.5934,1056.4835,807.47253,794.17584,771.2088,-0.2408447265625,0.12451171875,0.9556884765625,2.056121826171875,-3.641204833984375,0.538330078125,1.0,1.0,4.0,1.0,1.0,100.0,event
13:15:33.775,0.35673064,0.6887135,0.44549203,0.25499555,0.3205171,-0.25241026,-0.3170261,0.36506045,0.43096396,0.018393148,-0.05421532,0.6100344,0.5699886,0.2989442,-0.19524898,0.56301427,0.5206337,-0.13335586,-0.6703227,0.2535662,800.2198,1130.2197,800.6227,800.6227,738.97437,-0.2408447265625,0.12451171875,0.9556884765625,2.056121826171875,-3.641204833984375,0.538330078125,1.0,1.0,4.0,1.0,1.0,100.0,event
13:15:33.775,0.35673064,0.6887135,0.44549203,0.25499555,0.3205171,-0.25241026,-0.3170261,0.36506045,0.43096396,0.018393148,-0.05421532,0.6100344,0.5699886,0.2989442,-0.19524898,0.56301427,0.5206337,-0.13335586,-0.6703227,0.2535662,796.99634,1203.1501,803.8461,799.41394,678.5348,-0.2408447265625,0.12451171875,0.9556884765625,2.056121826171875,-3.641204833984375,0.538330078125,1.0,1.0,4.0,1.0,1.0,100.0,event
13:15:33.776,0.35673064,0.6887135,0.44549203,0.25499555,0.3205171,-0.25241026,-0.3170261,0.36506045,0.43096396,0.018393148,-0.05421532,0.6100344,0.5699886,0.2989442,-0.19524898,0.56301427,0.5206337,-0.13335586,-0.6703227,0.2535662,801.02563,1094.359,801.4286,795.38464,826.0073,-0.2408447265625,0.12451171875,0.9556884765625,2.056121826171875,-3.641204833984375,0.538330078125,1.0,1.0,4.0,1.0,1.0,100.0,event
13:15:33.777,0.35673064,0.6887135,0.44549203,0.25499555,0.3205171,-0.25241026,-0.3170261,0.36506045,0.43096396,0.018393148,-0.05421532,0.6100344,0.5699886,0.2989442,-0.19524898,0.56301427,0.5206337,-0.13335586,-0.6703227,0.2535662,780.4762,1121.3553,803.44324,790.54944,775.64105,-0.2408447265625,0.12451171875,0.9556884765625,2.056121826171875,-3.641204833984375,0.538330078125,1.0,1.0,4.0,1.0,1.0,100.0,event
13:15:33.777,0.35673064,0.6887135,0.44549203,0.25499555,0.3205171,-0.25241026,-0.3170261,0.36506045,0.43096396,0.018393148,-0.05421532,0.6100344,0.5699886,0.2989442,-0.19524898,0.56301427,0.5206337,-0.13335586,-0.6703227,0.2535662,775.2381,953.3333,805.4579,786.52014,788.1319,-0.2408447265625,0.12451171875,0.9556884765625,2.056121826171875,-3.641204833984375,0.538330078125,1.0,1.0,4.0,1.0,1.0,100.0,event
13:15:33.778,0.35673064,0.6887135,0.44549203,0.25499555,0.3205171,-0.25241026,-0.3170261,0.36506045,0.43096396,0.018393148,-0.05421532,0.6100344,0.5699886,0.2989442,-0.19524898,0.56301427,0.5206337,-0.13335586,-0.6703227,0.2535662,784.90845,674.10254,807.0696,786.52014,830.4396,-0.2408447265625,0.12451171875,0.9556884765625,2.056121826171875,-3.641204833984375,0.538330078125,1.0,1.0,4.0,1.0,1.0,100.0,event
13:15:33.778,0.35673064,0.6887135,0.32617885,0.23565269,0.3205171,-0.25241026,-0.35962272,0.38894793,0.43096396,0.018393148,-0.05421532,0.6100344,0.5699886,0.2989442,-0.19460925,0.53615063,0.5206337,-0.13335586,-0.66266716,0.20228902,801.8315,278.4249,804.65204,794.57874,1016.1905,-0.2408447265625,0.12451171875,0.9556884765625,2.056121826171875,-3.641204833984375,0.538330078125,1.0,1.0,4.0,1.0,1.0,100.0,event
13:15:33.783,0.35673064,0.6887135,0.32617885,0.23565269,0.3205171,-0.25241026,-0.35962272,0.38894793,0.43096396,0.018393148,-0.05421532,0.6100344,0.5699886,0.2989442,-0.19460925,0.53615063,0.5206337,-0.13335586,-0.66266716,0.20228902,810.696,874.35895,805.8608,805.05493,924.7253,-0.2408447265625,0.12451171875,0.9556884765625,2.056121826171875,-3.641204833984375,0.538330078125,1.0,1.0,4.0,1.0,1.0,100.0,event
13:15:33.784,0.35673064,0.6887135,0.32617885,0.23565269,0.3205171,-0.25241026,-0.35962272,0.38894793,0.43096396,0.018393148,-0.05421532,0.6100344,0.5699886,0.2989442,-0.19460925,0.53615063,0.5206337,-0.13335586,-0.66266716,0.20228902,813.5165,1294.6154,805.4579,805.4579,700.696,-0.2408447265625,0.12451171875,0.9556884765625,2.056121826171875,-3.641204833984375,0.538330078125,1.0,1.0,4.0,1.0,1.0,100.0,event
13:15:33.785,0.35673064,0.6887135,0.32617885,0.23565269,0.3205171,-0.25241026,-0.35962272,0.38894793,0.43096396,0.018393148,-0.05421532,0.6100344,0.5699886,0.2989442,-0.19460925,0.53615063,0.5206337,-0.13335586,-0.66266716,0.20228902,816.7399,936.8132,799.41394,794.57874,754.68866,-0.2408447265625,0.12451171875,0.9556884765625,2.056121826171875,-3.641204833984375,0.538330078125,1.0,1.0,4.0,1.0,1.0,100.0,event
13:15:33.786,0.35673064,0.6887135,0.32617885,0.23565269,0.3205171,-0.25241026,-0.35962272,0.38894793,0.43096396,0.018393148,-0.05421532,0.6100344,0.5699886,0.2989442,-0.19460925,0.53615063,0.5206337,-0.13335586,-0.66266716,0.20228902,781.28204,842.1245,800.6227,780.87915,837.28937,-0.2408447265625,0.12451171875,0.9556884765625,2.056121826171875,-3.641204833984375,0.538330078125,1.0,1.0,4.0,1.0,1.0,100.0,event
13:15:33.809,0.35673064,0.6887135,0.32617885,0.23565269,0.3205171,-0.25241026,-0.35962272,0.38894793,0.43096396,0.018393148,-0.05421532,0.6100344,0.5699886,0.2989442,-0.19460925,0.53615063,0.5206337,-0.13335586,-0.66266716,0.20228902,777.25275,1143.9194,806.26373,790.14655,770.0,-0.2474365234375,0.12396240234375,0.948486328125,1.772003173828125,-3.15521240234375,0.097198486328125,1.0,1.0,4.0,1.0,1.0,100.0,event
13:15:33.810,0.35673064,0.6887135,0.32617885,0.23565269,0.3205171,-0.25241026,-0.35962272,0.38894793,0.43096396,0.018393148,-0.05421532,0.6100344,0.5699886,0.2989442,-0.19460925,0.53615063,0.5206337,-0.13335586,-0.66266716,0.20228902,796.99634,1321.6117,805.4579,801.02563,752.674,-0.2474365234375,0.12396240234375,0.948486328125,1.772003173828125,-3.15521240234375,0.097198486328125,1.0,1.0,4.0,1.0,1.0,100.0,event
13:15:33.810,0.35673064,0.6887135,0.32617885,0.23565269,0.3205171,-0.25241026,-0.35962272,0.38894793,0.43096396,0.018393148,-0.05421532,0.6100344,0.5699886,0.2989442,-0.19460925,0.53615063,0.5206337,-0.13335586,-0.66266716,0.20228902,794.57874,895.7143,803.8461,801.02563,834.87177,-0.2474365234375,0.12396240234375,0.948486328125,1.772003173828125,-3.15521240234375,0.097198486328125,1.0,1.0,4.0,1.0,1.0,100.0,event
13:15:33.811,0.35673064,0.6887135,0.32617885,0.23565269,0.3205171,-0.25241026,-0.35962272,0.38894793,0.43096396,0.018393148,-0.05421532,0.6100344,0.5699886,0.2989442,-0.19460925,0.53615063,0.5206337,-0.13335586,-0.66266716,0.20228902,780.4762,807.8755,807.47253,798.20514,803.44324,-0.2474365234375,0.12396240234375,0.948486328125,1.772003173828125,-3.15521240234375,0.097198486328125,1.0,1.0,4.0,1.0,1.0,100.0,event
13:15:33.811,0.35673064,0.6887135,0.32617885,0.23565269,0.3205171,-0.25241026,-0.35962272,0.38894793,0.43096396,0.018393148,-0.05421532,0.6100344,0.5699886,0.2989442,-0.19460925,0.53615063,0.5206337,-0.13335586,-0.66266716,0.20228902,780.07324,1114.1025,809.89014,809.4872,685.78754,-0.2474365234375,0.12396240234375,0.948486328125,1.772003173828125,-3.15521240234375,0.097198486328125,1.0,1.0,4.0,1.0,1.0,100.0,event
13:15:33.812,0.35673064,0.6887135,0.32617885,0.23565269,0.3205171,-0.25241026,-0.35962272,0.38894793,0.43096396,0.018393148,-0.05421532,0.6100344,0.5699886,0.2989442,-0.19460925,0.53615063,0.5206337,-0.13335586,-0.66266716,0.20228902,796.1905,1010.9524,807.8755,794.57874,777.6557,-0.2474365234375,0.12396240234375,0.948486328125,1.772003173828125,-3.15521240234375,0.097198486328125,1.0,1.0,4.0,1.0,1.0,100.0,event
13:15:33.812,0.35673064,0.6887135,0.32617885,0.23565269,0.3205171,-0.25241026,-0.35962272,0.38894793,0.43096396,0.018393148,-0.05421532,0.6100344,0.5699886,0.2989442,-0.19460925,0.53615063,0.5206337,-0.13335586,-0.66266716,0.20228902,807.8755,525.82416,805.4579,779.67035,1035.1282,-0.2474365234375,0.12396240234375,0.948486328125,1.772003173828125,-3.15521240234375,0.097198486328125,1.0,1.0,4.0,1.0,1.0,100.0,event
13:15:33.813,0.35673064,0.6887135,0.32617885,0.23565269,0.3205171,-0.25241026,-0.35962272,0.38894793,0.43096396,0.018393148,-0.05421532,0.6100344,0.5699886,0.2989442,-0.19460925,0.53615063,0.5206337,-0.13335586,-0.66266716,0.20228902,784.90845,527.03296,803.44324,792.5641,1057.2894,-0.2474365234375,0.12396240234375,0.948486328125,1.772003173828125,-3.15521240234375,0.097198486328125,1.0,1.0,4.0,1.0,1.0,100.0,event
13:15:33.814,0.35673064,0.6887135,0.32617885,0.23565269,0.3205171,-0.25241026,-0.35962272,0.38894793,0.43096396,0.018393148,-0.05421532,0.6100344,0.5699886,0.2989442,-0.19460925,0.53615063,0.5206337,-0.13335586,-0.66266716,0.20228902,768.3883,1124.1758,803.44324,799.011,778.86444,-0.2474365234375,0.12396240234375,0.948486328125,1.772003173828125,-3.15521240234375,0.097198486328125,1.0,1.0,4.0,1.0,1.0,100.0,event
13:15:33.814,0.35673064,0.6887135,0.32617885,0.23565269,0.3205171,-0.25241026,-0.35962272,0.38894793,0.43096396,0.018393148,-0.05421532,0.6100344,0.5699886,0.2989442,-0.19460925,0.53615063,0.5206337,-0.13335586,-0.66266716,0.20228902,785.7143,1093.5531,806.6667,798.60803,655.16486,-0.2474365234375,0.12396240234375,0.948486328125,1.772003173828125,-3.15521240234375,0.097198486328125,1.0,1.0,4.0,1.0,1.0,100.0,event
13:15:33.815,0.35673064,0.6887135,0.32617885,0.23565269,0.3205171,-0.25241026,-0.35962272,0.38894793,0.43096396,0.018393148,-0.05421532,0.6100344,0.5699886,0.2989442,-0.19460925,0.53615063,0.5206337,-0.13335586,-0.66266716,0.20228902,798.60803,1133.0403,806.26373,788.5348,738.1685,-0.2474365234375,0.12396240234375,0.948486328125,1.772003173828125,-3.15521240234375,0.097198486328125,1.0,1.0,4.0,1.0,1.0,100.0,event
13:15:33.815,0.35673064,0.6887135,0.32617885,0.23565269,0.3205171,-0.25241026,-0.35962272,0.38894793,0.43096396,0.018393148,-0.05421532,0.6100344,0.5699886,0.2989442,-0.19460925,0.53615063,0.5206337,-0.13335586,-0.66266716,0.20228902,804.65204,879.19415,806.26373,794.57874,744.21246,-0.2474365234375,0.12396240234375,0.948486328125,1.772003173828125,-3.15521240234375,0.097198486328125,1.0,1.0,4.0,1.0,1.0,100.0,event
13:15:33.840,0.35673064,0.6887135,0.32617885,0.23565269,0.3205171,-0.25241026,-0.35962272,0.38894793,0.43096396,0.018393148,-0.05421532,0.6100344,0.5699886,0.2989442,-0.19460925,0.53615063,0.5206337,-0.13335586,-0.66266716,0.20228902,782.8938,1291.7949,807.0696,789.7436,685.38464,-0.2474365234375,0.12396240234375,0.948486328125,1.772003173828125,-3.15521240234375,0.097198486328125,1.0,1.0,4.0,1.0,1.0,100.0,event
13:15:33.841,0.35673064,0.6887135,0.32617885,0.23565269,0.3205171,-0.25241026,-0.35962272,0.38894793,0.43096396,0.018393148,-0.05421532,0.6100344,0.5699886,0.2989442,-0.19460925,0.53615063,0.5206337,-0.13335586,-0.66266716,0.20228902,778.46155,1105.238,804.65204,788.5348,765.16486,-0.2474365234375,0.12396240234375,0.948486328125,1.772003173828125,-3.15521240234375,0.097198486328125,1.0,1.0,4.0,1.0,1.0,100.0,event
13:15:33.841,0.35673064,0.6887135,0.32617885,0.23565269,0.3205171,-0.25241026,-0.35962272,0.38894793,0.43096396,0.018393148,-0.05421532,0.6100344,0.5699886,0.2989442,-0.19460925,0.53615063,0.5206337,-0.13335586,-0.66266716,0.20228902,790.54944,852.1978,802.6374,794.17584,869.92676,-0.2474365234375,0.12396240234375,0.948486328125,1.772003173828125,-3.15521240234375,0.097198486328125,1.0,1.0,4.0,1.0,1.0,100.0,event
13:15:33.842,0.35673064,0.6887135,0.32617885,0.23565269,0.3205171,-0.25241026,-0.35962272,0.38894793,0.43096396,0.018393148,-0.05421532,0.6100344,0.5699886,0.2989442,-0.19460925,0.53615063,0.5206337,-0.13335586,-0.66266716,0.20228902,801.4286,1044.7986,805.05493,797.8022,783.2967,-0.2474365234375,0.12396240234375,0.948486328125,1.772003173828125,-3.15521240234375,0.097198486328125,1.0,1.0,4.0,1.0,1.0,100.0,event
13:15:33.842,0.35673064,0.6887135,0.32617885,0.23565269,0.3205171,-0.25241026,-0.35962272,0.38894793,0.43096396,0.018393148,-0.05421532,0.6100344,0.5699886,0.2989442,-0.19460925,0.53615063,0.5206337,-0.13335586,-0.66266716,0.20228902,812.3077,1315.5677,807.8755,805.8608,762.3443,-0.2474365234375,0.12396240234375,0.948486328125,1.772003173828125,-3.15521240234375,0.097198486328125,1.0,1.0,4.0,1.0,1.0,100.0,event
13:15:33.843,0.35673064,0.6887135,0.32617885,0.23565269,0.3205171,-0.25241026,-0.35962272,0.38894793,0.43096396,0.018393148,-0.05421532,0.6100344,0.5699886,0.2989442,-0.19460925,0.53615063,0.5206337,-0.13335586,-0.66266716,0.20228902,810.293,961.79486,805.05493,815.9341,880.0,-0.2474365234375,0.12396240234375,0.948486328125,1.772003173828125,-3.15521240234375,0.097198486328125,1.0,1.0,4.0,1.0,1.0,100.0,event
13:15:33.844,0.35673064,0.6887135,0.32617885,0.23565269,0.3205171,-0.25241026,-0.35962272,0.38894793,0.43096396,0.018393148,-0.05421532,0.6100344,0.5699886,0.2989442,-0.19460925,0.53615063,0.5206337,-0.13335586,-0.66266716,0.20228902,789.7436,160.3663,802.23444,803.8461,1069.7803,-0.2474365234375,0.12396240234375,0.948486328125,1.772003173828125,-3.15521240234375,0.097198486328125,1.0,1.0,4.0,1.0,1.0,100.0,event
13:15:33.844,0.35673064,0.6887135,0.32617885,0.23565269,0.3205171,-0.25241026,-0.35962272,0.38894793,0.43096396,0.018393148,-0.05421532,0.6100344,0.5699886,0.2989442,-0.19460925,0.53615063,0.5206337,-0.13335586,-0.66266716,0.20228902,787.326,493.58975,807.0696,781.28204,899.34064,-0.2474365234375,0.12396240234375,0.948486328125,1.772003173828125,-3.15521240234375,0.097198486328125,1.0,1.0,4.0,1.0,1.0,100.0,event
13:15:33.845,0.35673064,0.6887135,0.19436568,0.20910047,0.3205171,-0.25241026,-0.40224326,0.42551467,0.43096396,0.018393148,-0.064162195,0.6099034,0.5699886,0.2989442,-0.19817199,0.5158623,0.5206337,-0.13335586,-0.6667657,0.17189339,802.23444,1099.1941,805.8608,804.65204,752.674,-0.2474365234375,0.12396240234375,0.948486328125,1.772003173828125,-3.15521240234375,0.097198486328125,1.0,1.0,4.0,1.0,1.0,100.0,event
13:15:33.845,0.35673064,0.6887135,0.32617885,0.23565269,0.3205171,-0.25241026,-0.35962272,0.38894793,0.43096396,0.018393148,-0.05421532,0.6100344,0.5699886,0.2989442,-0.19460925,0.53615063,0.5206337,-0.13335586,-0.66266716,0.20228902,799.011,1177.7656,806.6667,789.34064,660.0,-0.2474365234375,0.12396240234375,0.948486328125,1.772003173828125,-3.15521240234375,0.097198486328125,1.0,1.0,4.0,1.0,1.0,100.0,event
13:15:33.850,0.35673064,0.6887135,0.19436568,0.20910047,0.3205171,-0.25241026,-0.40224326,0.42551467,0.43096396,0.018393148,-0.064162195,0.6099034,0.5699886,0.2989442,-0.19817199,0.5158623,0.5206337,-0.13335586,-0.6667657,0.17189339,817.1429,1099.597,809.4872,801.02563,779.2674,-0.2474365234375,0.12396240234375,0.948486328125,1.772003173828125,-3.15521240234375,0.097198486328125,1.0,1.0,4.0,1.0,1.0,100.0,event
13:15:33.850,0.35673064,0.6887135,0.19436568,0.20910047,0.3205171,-0.25241026,-0.40224326,0.42551467,0.43096396,0.018393148,-0.064162195,0.6099034,0.5699886,0.2989442,-0.19817199,0.5158623,0.5206337,-0.13335586,-0.6667657,0.17189339,819.9634,1236.1904,807.8755,795.38464,765.56775,-0.2474365234375,0.12396240234375,0.948486328125,1.772003173828125,-3.15521240234375,0.097198486328125,1.0,1.0,4.0,1.0,1.0,100.0,event
13:15:33.911,0.35673064,0.6887135,0.19436568,0.20910047,0.3205171,-0.25241026,-0.40224326,0.42551467,0.43096396,0.018393148,-0.064162195,0.6099034,0.5699886,0.2989442,-0.19817199,0.5158623,0.5206337,-0.13335586,-0.6667657,0.17189339,786.1172,1164.4689,806.6667,785.7143,716.0073,-0.24627685546875,0.122802734375,0.9554443359375,2.100982666015625,-3.84307861328125,-0.605621337890625,1.0,1.0,4.0,1.0,1.0,100.0,event
13:15:33.912,0.35673064,0.6887135,0.19436568,0.20910047,0.3205171,-0.25241026,-0.40224326,0.42551467,0.43096396,0.018393148,-0.064162195,0.6099034,0.5699886,0.2989442,-0.19817199,0.5158623,0.5206337,-0.13335586,-0.6667657,0.17189339,782.8938,970.65936,803.8461,783.2967,761.53845,-0.24627685546875,0.122802734375,0.9554443359375,2.100982666015625,-3.84307861328125,-0.605621337890625,1.0,1.0,4.0,1.0,1.0,100.0,event
13:15:33.913,0.35673064,0.6887135,0.19436568,0.20910047,0.3205171,-0.25241026,-0.40224326,0.42551467,0.43096396,0.018393148,-0.064162195,0.6099034,0.5699886,0.2989442,-0.19817199,0.5158623,0.5206337,-0.13335586,-0.6667657,0.17189339,800.6227,1044.7986,807.8755,799.81683,772.01465,-0.24627685546875,0.122802734375,0.9554443359375,2.100982666015625,-3.84307861328125,-0.605621337890625,1.0,1.0,4.0,1.0,1.0,100.0,event
13:15:33.913,0.35673064,0.6887135,0.19436568,0.20910047,0.3205171,-0.25241026,-0.40224326,0.42551467,0.43096396,0.018393148,-0.064162195,0.6099034,0.5699886,0.2989442,-0.19817199,0.5158623,0.5206337,-0.13335586,-0.6667657,0.17189339,797.3993,1222.4908,811.9048,798.60803,712.7839,-0.24627685546875,0.122802734375,0.9554443359375,2.100982666015625,-3.84307861328125,-0.605621337890625,1.0,1.0,4.0,1.0,1.0,100.0,event
13:15:33.914,0.35673064,0.6887135,0.19436568,0.20910047,0.3205171,-0.25241026,-0.40224326,0.42551467,0.43096396,0.018393148,-0.064162195,0.6099034,0.5699886,0.2989442,-0.19817199,0.5158623,0.5206337,-0.13335586,-0.6667657,0.17189339,780.87915,762.74725,807.47253,788.93774,938.4249,-0.24627685546875,0.122802734375,0.9554443359375,2.100982666015625,-3.84307861328125,-0.605621337890625,1.0,1.0,4.0,1.0,1.0,100.0,event
13:15:33.914,0.35673064,0.6887135,0.19436568,0.20910047,0.3205171,-0.25241026,-0.40224326,0.42551467,0.43096396,0.018393148,-0.064162195,0.6099034,0.5699886,0.2989442,-0.19817199,0.5158623,0.5206337,-0.13335586,-0.6667657,0.17189339,792.5641,1146.7399,807.8755,790.54944,784.5055,-0.24627685546875,0.122802734375,0.9554443359375,2.100982666015625,-3.84307861328125,-0.605621337890625,1.0,1.0,4.0,1.0,1.0,100.0,event
13:15:33.915,0.35673064,0.6887135,0.19436568,0.20910047,0.3205171,-0.25241026,-0.40224326,0.42551467,0.43096396,0.018393148,-0.064162195,0.6099034,0.5699886,0.2989442,-0.19817199,0.5158623,0.5206337,-0.13335586,-0.6667657,0.17189339,782.8938,688.20514,811.0989,790.14655,947.6923,-0.24627685546875,0.122802734375,0.9554443359375,2.100982666015625,-3.84307861328125,-0.605621337890625,1.0,1.0,4.0,1.0,1.0,100.0,event
13:15:33.916,0.35673064,0.6887135,0.19436568,0.20910047,0.3205171,-0.25241026,-0.40224326,0.42551467,0.43096396,0.018393148,-0.064162195,0.6099034,0.5699886,0.2989442,-0.19817199,0.5158623,0.5206337,-0.13335586,-0.6667657,0.17189339,804.2491,917.0696,810.293,793.36993,925.9341,-0.24627685546875,0.122802734375,0.9554443359375,2.100982666015625,-3.84307861328125,-0.605621337890625,1.0,1.0,4.0,1.0,1.0,100.0,event
13:15:33.916,0.35673064,0.6887135,0.19436568,0.20910047,0.3205171,-0.25241026,-0.40224326,0.42551467,0.43096396,0.018393148,-0.064162195,0.6099034,0.5699886,0.2989442,-0.19817199,0.5158623,0.5206337,-0.13335586,-0.6667657,0.17189339,796.1905,1139.0842,811.50183,798.60803,900.9524,-0.24627685546875,0.122802734375,0.9554443359375,2.100982666015625,-3.84307861328125,-0.605621337890625,1.0,1.0,4.0,1.0,1.0,100.0,event
13:15:33.917,0.35673064,0.6887135,0.19436568,0.20910047,0.3205171,-0.25241026,-0.40224326,0.42551467,0.43096396,0.018393148,-0.064162195,0.6099034,0.5699886,0.2989442,-0.19817199,0.5158623,0.5206337,-0.13335586,-0.6667657,0.17189339,793.36993,531.06226,808.2784,801.02563,1057.2894,-0.24627685546875,0.122802734375,0.9554443359375,2.100982666015625,-3.84307861328125,-0.605621337890625,1.0,1.0,4.0,1.0,1.0,100.0,event
13:15:33.918,0.35673064,0.6887135,0.19436568,0.20910047,0.3205171,-0.25241026,-0.40224326,0.42551467,0.43096396,0.018393148,-0.064162195,0.6099034,0.5699886,0.2989442,-0.19817199,0.5158623,0.5206337,-0.13335586,-0.6667657,0.17189339,788.1319,299.3773,805.05493,795.78754,1010.9524,-0.24627685546875,0.122802734375,0.9554443359375,2.100982666015625,-3.84307861328125,-0.605621337890625,1.0,1.0,4.0,1.0,1.0,100.0,event
13:15:33.918,0.35673064,0.6887135,0.19436568,0.20910047,0.3205171,-0.25241026,-0.40224326,0.42551467,0.43096396,0.018393148,-0.064162195,0.6099034,0.5699886,0.2989442,-0.19817199,0.5158623,0.5206337,-0.13335586,-0.6667657,0.17189339,787.326,1044.7986,807.0696,785.7143,720.84247,-0.24627685546875,0.122802734375,0.9554443359375,2.100982666015625,-3.84307861328125,-0.605621337890625,1.0,1.0,4.0,1.0,1.0,100.0,event
13:15:33.958,0.35673064,0.6887135,0.19436568,0.20910047,0.3205171,-0.25241026,-0.40224326,0.42551467,0.43096396,0.018393148,-0.064162195,0.6099034,0.5699886,0.2989442,-0.19817199,0.5158623,0.5206337,-0.13335586,-0.6667657,0.17189339,820.3663,1185.4213,807.0696,795.78754,796.99634,-0.24169921875,0.12017822265625,0.946533203125,2.07855224609375,-3.24493408203125,-0.396270751953125,1.0,1.0,4.0,1.0,1.0,100.0,event
13:15:33.960,0.35673064,0.6887135,0.19436568,0.20910047,0.3205171,-0.25241026,-0.40224326,0.42551467,0.43096396,0.018393148,-0.064162195,0.6099034,0.5699886,0.2989442,-0.19817199,0.5158623,0.5206337,-0.13335586,-0.6667657,0.17189339,808.68134,1054.4689,805.4579,799.41394,878.3883,-0.24169921875,0.12017822265625,0.946533203125,2.07855224609375,-3.24493408203125,-0.396270751953125,1.0,1.0,4.0,1.0,1.0,100.0,event
13:15:33.960,0.35673064,0.6887135,0.19436568,0.20910047,0.3205171,-0.25241026,-0.40224326,0.42551467,0.43096396,0.018393148,-0.064162195,0.6099034,0.5699886,0.2989442,-0.19817199,0.5158623,0.5206337,-0.13335586,-0.6667657,0.17189339,770.80585,1108.4615,807.0696,798.60803,791.3553,-0.24169921875,0.12017822265625,0.946533203125,2.07855224609375,-3.24493408203125,-0.396270751953125,1.0,1.0,4.0,1.0,1.0,100.0,event
13:15:33.961,0.35673064,0.6887135,0.19436568,0.20910047,0.3205171,-0.25241026,-0.40224326,0.42551467,0.43096396,0.018393148,-0.064162195,0.6099034,0.5699886,0.2989442,-0.19817199,0.5158623,0.5206337,-0.13335586,-0.6667657,0.17189339,767.1795,1126.9963,808.68134,787.326,723.2601,-0.24169921875,0.12017822265625,0.946533203125,2.07855224609375,-3.24493408203125,-0.396270751953125,1.0,1.0,4.0,1.0,1.0,100.0,event
13:15:33.962,0.35673064,0.6887135,0.19436568,0.20910047,0.3205171,-0.25241026,-0.40224326,0.42551467,0.43096396,0.018393148,-0.064162195,0.6099034,0.5699886,0.2989442,-0.19817199,0.5158623,0.5206337,-0.13335586,-0.6667657,0.17189339,781.28204,995.64105,809.4872,777.25275,732.52747,-0.24169921875,0.12017822265625,0.946533203125,2.07855224609375,-3.24493408203125,-0.396270751953125,1.0,1.0,4.0,1.0,1.0,100.0,event
13:15:33.962,0.35673064,0.6887135,0.19436568,0.20910047,0.3205171,-0.25241026,-0.40224326,0.42551467,0.43096396,0.018393148,-0.064162195,0.6099034,0.5699886,0.2989442,-0.19817199,0.5158623,0.5206337,-0.13335586,-0.6667657,0.17189339,796.1905,768.7912,809.0842,782.0879,864.68866,-0.24169921875,0.12017822265625,0.946533203125,2.07855224609375,-3.24493408203125,-0.396270751953125,1.0,1.0,4.0,1.0,1.0,100.0,event
13:15:33.963,0.35673064,0.6887135,0.19436568,0.20910047,0.3205171,-0.25241026,-0.40224326,0.42551467,0.43096396,0.018393148,-0.064162195,0.6099034,0.5699886,0.2989442,-0.19817199,0.5158623,0.5206337,-0.13335586,-0.6667657,0.17189339,803.8461,761.9414,808.68134,786.1172,885.2381,-0.24169921875,0.12017822265625,0.946533203125,2.07855224609375,-3.24493408203125,-0.396270751953125,1.0,1.0,4.0,1.0,1.0,100.0,event
13:15:33.964,0.35673064,0.6887135,0.19436568,0.20910047,0.3205171,-0.25241026,-0.40224326,0.42551467,0.43096396,0.018393148,-0.064162195,0.6099034,0.5699886,0.2989442,-0.19817199,0.5158623,0.5206337,-0.13335586,-0.6667657,0.17189339,790.9524,1021.8315,806.6667,791.75824,776.8498,-0.24169921875,0.12017822265625,0.946533203125,2.07855224609375,-3.24493408203125,-0.396270751953125,1.0,1.0,4.0,1.0,1.0,100.0,event
13:15:33.965,0.35673064,0.6887135,0.19436568,0.20910047,0.3205171,-0.25241026,-0.40224326,0.42551467,0.43096396,0.018393148,-0.064162195,0.6099034,0.5699886,0.2989442,-0.19817199,0.5158623,0.5206337,-0.13335586,-0.6667657,0.17189339,786.1172,750.65936,806.26373,789.7436,806.6667,-0.24169921875,0.12017822265625,0.946533203125,2.07855224609375,-3.24493408203125,-0.396270751953125,1.0,1.0,4.0,1.0,1.0,100.0,event
13:15:33.965,0.35673064,0.6887135,0.19436568,0.20910047,0.3205171,-0.25241026,-0.40224326,0.42551467,0.43096396,0.018393148,-0.064162195,0.6099034,0.5699886,0.2989442,-0.19817199,0.5158623,0.5206337,-0.13335586,-0.6667657,0.17189339,784.90845,214.35898,805.4579,786.9231,948.0952,-0.24169921875,0.12017822265625,0.946533203125,2.07855224609375,-3.24493408203125,-0.396270751953125,1.0,1.0,4.0,1.0,1.0,100.0,event
13:15:33.966,0.35673064,0.6887135,0.19436568,0.20910047,0.3205171,-0.25241026,-0.40224326,0.42551467,0.43096396,0.018393148,-0.064162195,0.6099034,0.5699886,0.2989442,-0.19817199,0.5158623,0.5206337,-0.13335586,-0.6667657,0.17189339,792.5641,796.99634,806.26373,787.326,792.96704,-0.24169921875,0.12017822265625,0.946533203125,2.07855224609375,-3.24493408203125,-0.396270751953125,1.0,1.0,4.0,1.0,1.0,100.0,event
13:15:33.967,0.35673064,0.6887135,0.08460724,0.18280704,0.3205171,-0.25241026,-0.43889356,0.4741485,0.43096396,0.018393148,-0.12977478,0.585311,0.5699886,0.2989442,-0.20279019,0.5085955,0.5206337,-0.13335586,-0.67536503,0.14638174,803.8461,1187.4359,813.1135,798.60803,647.1062,-0.24169921875,0.12017822265625,0.946533203125,2.07855224609375,-3.24493408203125,-0.396270751953125,1.0,1.0,4.0,1.0,1.0,100.0,event
13:15:34.022,0.35673064,0.6887135,0.08460724,0.18280704,0.3205171,-0.25241026,-0.43889356,0.4741485,0.43096396,0.018393148,-0.12977478,0.585311,0.5699886,0.2989442,-0.20279019,0.5085955,0.5206337,-0.13335586,-0.67536503,0.14638174,795.78754,751.8681,810.696,805.4579,804.2491,-0.24188232421875,0.1221923828125,0.95013427734375,2.1533203125,-3.521575927734375,0.1495361328125,1.0,1.0,4.0,1.0,1.0,100.0,event
13:15:34.023,0.35673064,0.6887135,0.08460724,0.18280704,0.3205171,-0.25241026,-0.43889356,0.4741485,0.43096396,0.018393148,-0.12977478,0.585311,0.5699886,0.2989442,-0.20279019,0.5085955,0.5206337,-0.13335586,-0.67536503,0.14638174,794.9817,595.5311,803.8461,798.60803,912.23444,-0.24188232421875,0.1221923828125,0.95013427734375,2.1533203125,-3.521575927734375,0.1495361328125,1.0,1.0,4.0,1.0,1.0,100.0,event
13:15:34.024,0.35673064,0.6887135,0.08460724,0.18280704,0.3205171,-0.25241026,-0.43889356,0.4741485,0.43096396,0.018393148,-0.12977478,0.585311,0.5699886,0.2989442,-0.20279019,0.5085955,0.5206337,-0.13335586,-0.67536503,0.14638174,790.54944,968.24176,807.0696,797.3993,701.0989,-0.24188232421875,0.1221923828125,0.95013427734375,2.1533203125,-3.521575927734375,0.1495361328125,1.0,1.0,4.0,1.0,1.0,100.0,event
13:15:34.025,0.35673064,0.6887135,0.08460724,0.18280704,0.3205171,-0.25241026,-0.43889356,0.4741485,0.43096396,0.018393148,-0.12977478,0.585311,0.5699886,0.2989442,-0.20279019,0.5085955,0.5206337,-0.13335586,-0.67536503,0.14638174,792.1612,1028.2784,807.0696,804.65204,641.06226,-0.24188232421875,0.1221923828125,0.95013427734375,2.1533203125,-3.521575927734375,0.1495361328125,1.0,1.0,4.0,1.0,1.0,100.0,event
13:15:34.026,0.35673064,0.6887135,0.08460724,0.18280704,0.3205171,-0.25241026,-0.43889356,0.4741485,0.43096396,0.018393148,-0.12977478,0.585311,0.5699886,0.2989442,-0.20279019,0.5085955,0.5206337,-0.13335586,-0.67536503,0.14638174,805.4579,818.7546,807.0696,798.60803,774.43225,-0.24188232421875,0.1221923828125,0.95013427734375,2.1533203125,-3.521575927734375,0.1495361328125,1.0,1.0,4.0,1.0,1.0,100.0,event
13:15:34.026,0.35673064,0.6887135,0.08460724,0.18280704,0.3205171,-0.25241026,-0.43889356,0.4741485,0.43096396,0.018393148,-0.12977478,0.585311,0.5699886,0.2989442,-0.20279019,0.5085955,0.5206337,-0.13335586,-0.67536503,0.14638174,800.2198,694.2491,807.0696,782.0879,788.5348,-0.24188232421875,0.1221923828125,0.95013427734375,2.1533203125,-3.521575927734375,0.1495361328125,1.0,1.0,4.0,1.0,1.0,100.0,event
13:15:34.027,0.35673064,0.6887135,0.08460724,0.18280704,0.3205171,-0.25241026,-0.43889356,0.4741485,0.43096396,0.018393148,-0.12977478,0.585311,0.5699886,0.2989442,-0.20279019,0.5085955,0.5206337,-0.13335586,-0.67536503,0.14638174,791.75824,676.9231,807.0696,780.87915,793.36993,-0.24188232421875,0.1221923828125,0.95013427734375,2.1533203125,-3.521575927734375,0.1495361328125,1.0,1.0,4.0,1.0,1.0,100.0,event
13:15:34.028,0.35673064,0.6887135,0.08460724,0.18280704,0.3205171,-0.25241026,-0.43889356,0.4741485,0.43096396,0.018393148,-0.12977478,0.585311,0.5699886,0.2989442,-0.20279019,0.5085955,0.5206337,-0.13335586,-0.67536503,0.14638174,778.46155,738.1685,807.0696,783.69965,826.8132,-0.24188232421875,0.1221923828125,0.95013427734375,2.1533203125,-3.521575927734375,0.1495361328125,1.0,1.0,4.0,1.0,1.0,100.0,event
13:15:34.028,0.35673064,0.6887135,0.08460724,0.18280704,0.3205171,-0.25241026,-0.43889356,0.4741485,0.43096396,0.018393148,-0.12977478,0.585311,0.5699886,0.2989442,-0.20279019,0.5085955,0.5206337,-0.13335586,-0.67536503,0.14638174,779.2674,354.1758,812.3077,791.3553,961.79486,-0.24188232421875,0.1221923828125,0.95013427734375,2.1533203125,-3.521575927734375,0.1495361328125,1.0,1.0,4.0,1.0,1.0,100.0,event
13:15:34.029,0.35673064,0.6887135,0.08460724,0.18280704,0.3205171,-0.25241026,-0.43889356,0.4741485,0.43096396,0.018393148,-0.12977478,0.585311,0.5699886,0.2989442,-0.20279019,0.5085955,0.5206337,-0.13335586,-0.67536503,0.14638174,809.0842,398.49817,808.2784,802.6374,904.9817,-0.24188232421875,0.1221923828125,0.95013427734375,2.1533203125,-3.521575927734375,0.1495361328125,1.0,1.0,4.0,1.0,1.0,100.0,event
13:15:34.030,0.35673064,0.6887135,0.08460724,0.18280704,0.3205171,-0.25241026,-0.43889356,0.4741485,0.43096396,0.018393148,-0.12977478,0.585311,0.5699886,0.2989442,-0.20279019,0.5085955,0.5206337,-0.13335586,-0.67536503,0.14638174,813.1135,1014.57874,803.8461,803.0403,728.0952,-0.24188232421875,0.1221923828125,0.95013427734375,2.1533203125,-3.521575927734375,0.1495361328125,1.0,1.0,4.0,1.0,1.0,100.0,event
13:15:34.031,0.35673064,0.6887135,0.08460724,0.18280704,0.3205171,-0.25241026,-0.43889356,0.4741485,0.43096396,0.018393148,-0.12977478,0.585311,0.5699886,0.2989442,-0.20279019,0.5085955,0.5206337,-0.13335586,-0.67536503,0.14638174,793.7729,770.0,808.68134,796.5934,851.39197,-0.24188232421875,0.1221923828125,0.95013427734375,2.1533203125,-3.521575927734375,0.1495361328125,1.0,1.0,4.0,1.0,1.0,100.0,event
13:15:34.057,0.35673064,0.6887135,0.08460724,0.18280704,0.3205171,-0.25241026,-0.43889356,0.4741485,0.43096396,0.018393148,-0.12977478,0.585311,0.5699886,0.2989442,-0.20279019,0.5085955,0.5206337,-0.13335586,-0.67536503,0.14638174,785.31134,257.87546,807.8755,797.3993,982.3443,-0.24505615234375,0.12493896484375,0.95458984375,2.489776611328125,-3.058013916015625,-0.11962890625,1.0,1.0,4.0,1.0,1.0,100.0,event
13:15:34.058,0.35673064,0.6887135,0.08460724,0.18280704,0.3205171,-0.25241026,-0.43889356,0.4741485,0.43096396,0.018393148,-0.12977478,0.585311,0.5699886,0.2989442,-0.20279019,0.5085955,0.5206337,-0.13335586,-0.67536503,0.14638174,809.0842,699.89014,806.6667,800.6227,789.34064,-0.24505615234375,0.12493896484375,0.95458984375,2.489776611328125,-3.058013916015625,-0.11962890625,1.0,1.0,4.0,1.0,1.0,100.0,event
13:15:34.059,0.35673064,0.6887135,0.08460724,0.18280704,0.3205171,-0.25241026,-0.43889356,0.4741485,0.43096396,0.018393148,-0.12977478,0.585311,0.5699886,0.2989442,-0.20279019,0.5085955,0.5206337,-0.13335586,-0.67536503,0.14638174,817.1429,1120.9524,807.8755,802.6374,693.8461,-0.24505615234375,0.12493896484375,0.95458984375,2.489776611328125,-3.058013916015625,-0.11962890625,1.0,1.0,4.0,1.0,1.0,100.0,event
13:15:34.060,0.35673064,0.6887135,0.08460724,0.18280704,0.3205171,-0.25241026,-0.43889356,0.4741485,0.43096396,0.018393148,-0.12977478,0.585311,0.5699886,0.2989442,-0.20279019,0.5085955,0.5206337,-0.13335586,-0.67536503,0.14638174,803.44324,966.63007,805.8608,799.81683,770.40295,-0.24505615234375,0.12493896484375,0.95458984375,2.489776611328125,-3.058013916015625,-0.11962890625,1.0,1.0,4.0,1.0,1.0,100.0,event
13:15:34.061,0.35673064,0.6887135,0.08460724,0.18280704,0.3205171,-0.25241026,-0.43889356,0.4741485,0.43096396,0.018393148,-0.12977478,0.585311,0.5699886,0.2989442,-0.20279019,0.5085955,0.5206337,-0.13335586,-0.67536503,0.14638174,809.4872,713.9927,813.91943,797.8022,832.4542,-0.24505615234375,0.12493896484375,0.95458984375,2.489776611328125,-3.058013916015625,-0.11962890625,1.0,1.0,4.0,1.0,1.0,100.0,event
13:15:34.061,0.35673064,0.6887135,0.08460724,0.18280704,0.3205171,-0.25241026,-0.43889356,0.4741485,0.43096396,0.018393148,-0.12977478,0.585311,0.5699886,0.2989442,-0.20279019,0.5085955,0.5206337,-0.13335586,-0.67536503,0.14638174,808.68134,817.1429,810.696,799.41394,773.22345,-0.24505615234375,0.12493896484375,0.95458984375,2.489776611328125,-3.058013916015625,-0.11962890625,1.0,1.0,4.0,1.0,1.0,100.0,event
13:15:34.062,0.35673064,0.6887135,0.08460724,0.18280704,0.3205171,-0.25241026,-0.43889356,0.4741485,0.43096396,0.018393148,-0.12977478,0.585311,0.5699886,0.2989442,-0.20279019,0.5085955,0.5206337,-0.13335586,-0.67536503,0.14638174,794.57874,704.7253,812.71063,794.57874,828.4249,-0.24505615234375,0.12493896484375,0.95458984375,2.489776611328125,-3.058013916015625,-0.11962890625,1.0,1.0,4.0,1.0,1.0,100.0,event
13:15:34.063,0.35673064,0.6887135,0.08460724,0.18280704,0.3205171,-0.25241026,-0.43889356,0.4741485,0.43096396,0.018393148,-0.12977478,0.585311,0.5699886,0.2989442,-0.20279019,0.5085955,0.5206337,-0.13335586,-0.67536503,0.14638174,789.34064,597.5458,815.12823,803.0403,793.7729,-0.24505615234375,0.12493896484375,0.95458984375,2.489776611328125,-3.058013916015625,-0.11962890625,1.0,1.0,4.0,1.0,1.0,100.0,event
13:15:34.064,0.35673064,0.6887135,0.08460724,0.18280704,0.3205171,-0.25241026,-0.43889356,0.4741485,0.43096396,0.018393148,-0.12977478,0.585311,0.5699886,0.2989442,-0.20279019,0.5085955,0.5206337,-0.13335586,-0.67536503,0.14638174,800.2198,170.03664,815.12823,809.0842,967.8388,-0.24505615234375,0.12493896484375,0.95458984375,2.489776611328125,-3.058013916015625,-0.11962890625,1.0,1.0,4.0,1.0,1.0,100.0,event
13:15:34.064,0.35673064,0.6887135,0.08460724,0.18280704,0.3205171,-0.25241026,-0.43889356,0.4741485,0.43096396,0.018393148,-0.12977478,0.585311,0.5699886,0.2989442,-0.20279019,0.5085955,0.5206337,-0.13335586,-0.67536503,0.14638174,804.2491,590.696,811.9048,800.2198,793.7729,-0.24505615234375,0.12493896484375,0.95458984375,2.489776611328125,-3.058013916015625,-0.11962890625,1.0,1.0,4.0,1.0,1.0,100.0,event
13:15:34.065,0.35673064,0.6887135,0.08460724,0.18280704,0.3205171,-0.25241026,-0.43889356,0.4741485,0.43096396,0.018393148,-0.12977478,0.585311,0.5699886,0.2989442,-0.20279019,0.5085955,0.5206337,-0.13335586,-0.67536503,0.14638174,784.5055,961.79486,811.0989,790.14655,597.9487,-0.24505615234375,0.12493896484375,0.95458984375,2.489776611328125,-3.058013916015625,-0.11962890625,1.0,1.0,4.0,1.0,1.0,100.0,event
13:15:34.066,0.35673064,0.6887135,0.08460724,0.18280704,0.3205171,-0.25241026,-0.43889356,0.4741485,0.43096396,0.018393148,-0.12977478,0.585311,0.5699886,0.2989442,-0.20279019,0.5085955,0.5206337,-0.13335586,-0.67536503,0.14638174,775.64105,741.39197,813.1135,792.5641,705.5311,-0.24505615234375,0.12493896484375,0.95458984375,2.489776611328125,-3.058013916015625,-0.11962890625,1.0,1.0,4.0,1.0,1.0,100.0,event
13:15:34.066,0.35673064,0.6887135,0.08460724,0.18280704,0.3205171,-0.25241026,-0.43889356,0.4741485,0.43096396,0.018393148,-0.12977478,0.585311,0.5699886,0.2989442,-0.20279019,0.5085955,0.5206337,-0.13335586,-0.67536503,0.14638174,794.9817,827.619,812.3077,805.4579,727.28937,-0.24505615234375,0.12493896484375,0.95458984375,2.489776611328125,-3.058013916015625,-0.11962890625,1.0,1.0,4.0,1.0,1.0,100.0,event
13:15:34.067,0.3623464,0.6887135,0.013457051,0.1831353,0.33104473,-0.25241026,-0.46927106,0.5297042,0.43096396,0.018393148,-0.24624999,0.5456177,0.58913547,0.2989442,-0.20840162,0.5141719,0.5290367,-0.13335586,-0.68223596,0.12007073,798.60803,1027.4725,809.89014,793.36993,686.99634,-0.24505615234375,0.12493896484375,0.95458984375,2.489776611328125,-3.058013916015625,-0.11962890625,1.0,1.0,4.0,1.0,1.0,100.0,event
13:15:34.072,0.3623464,0.6887135,0.013457051,0.1831353,0.33104473,-0.25241026,-0.46927106,0.5297042,0.43096396,0.018393148,-0.24624999,0.5456177,0.58913547,0.2989442,-0.20840162,0.5141719,0.5290367,-0.13335586,-0.68223596,0.12007073,801.4286,879.59705,810.696,785.31134,731.31866,-0.24505615234375,0.12493896484375,0.95458984375,2.489776611328125,-3.058013916015625,-0.11962890625,1.0,1.0,4.0,1.0,1.0,100.0,event
13:15:34.072,0.3623464,0.6887135,0.013457051,0.1831353,0.33104473,-0.25241026,-0.46927106,0.5297042,0.43096396,0.018393148,-0.24624999,0.5456177,0.58913547,0.2989442,-0.20840162,0.5141719,0.5290367,-0.13335586,-0.68223596,0.12007073,795.78754,421.86813,811.0989,788.93774,802.6374,-0.24505615234375,0.12493896484375,0.95458984375,2.489776611328125,-3.058013916015625,-0.11962890625,1.0,1.0,4.0,1.0,1.0,100.0,event
13:15:34.073,0.3623464,0.6887135,0.013457051,0.1831353,0.33104473,-0.25241026,-0.46927106,0.5297042,0.43096396,0.018393148,-0.24624999,0.5456177,0.58913547,0.2989442,-0.20840162,0.5141719,0.5290367,-0.13335586,-0.68223596,0.12007073,793.7729,533.0769,809.4872,790.14655,756.7033,-0.24505615234375,0.12493896484375,0.95458984375,2.489776611328125,-3.058013916015625,-0.11962890625,1.0,1.0,4.0,1.0,1.0,100.0,event
13:15:34.074,0.3623464,0.6887135,0.013457051,0.1831353,0.33104473,-0.25241026,-0.46927106,0.5297042,0.43096396,0.018393148,-0.24624999,0.5456177,0.58913547,0.2989442,-0.20840162,0.5141719,0.5290367,-0.13335586,-0.68223596,0.12007073,789.7436,710.3663,811.50183,799.41394,735.34796,-0.24505615234375,0.12493896484375,0.95458984375,2.489776611328125,-3.058013916015625,-0.11962890625,1.0,1.0,4.0,1.0,1.0,100.0,event
13:15:34.074,0.3623464,0.6887135,0.013457051,0.1831353,0.33104473,-0.25241026,-0.46927106,0.5297042,0.43096396,0.018393148,-0.24624999,0.5456177,0.58913547,0.2989442,-0.20840162,0.5141719,0.5290367,-0.13335586,-0.68223596,0.12007073,805.8608,612.4542,813.5165,814.7253,802.23444,-0.24505615234375,0.12493896484375,0.95458984375,2.489776611328125,-3.058013916015625,-0.11962890625,1.0,1.0,4.0,1.0,1.0,100.0,event
13:15:34.075,0.3623464,0.6887135,0.013457051,0.1831353,0.33104473,-0.25241026,-0.46927106,0.5297042,0.43096396,0.018393148,-0.24624999,0.5456177,0.58913547,0.2989442,-0.20840162,0.5141719,0.5290367,-0.13335586,-0.68223596,0.12007073,806.26373,232.49084,809.89014,805.05493,925.5311,-0.24505615234375,0.12493896484375,0.95458984375,2.489776611328125,-3.058013916015625,-0.11962890625,1.0,1.0,4.0,1.0,1.0,100.0,event
13:15:34.076,0.3623464,0.6887135,0.013457051,0.1831353,0.33104473,-0.25241026,-0.46927106,0.5297042,0.43096396,0.018393148,-0.24624999,0.5456177,0.58913547,0.2989442,-0.20840162,0.5141719,0.5290367,-0.13335586,-0.68223596,0.12007073,796.1905,286.88644,811.9048,790.54944,894.5055,-0.24505615234375,0.12493896484375,0.95458984375,2.489776611328125,-3.058013916015625,-0.11962890625,1.0,1.0,4.0,1.0,1.0,100.0,event
13:15:34.076,0.3623464,0.6887135,0.013457051,0.1831353,0.33104473,-0.25241026,-0.46927106,0.5297042,0.43096396,0.018393148,-0.24624999,0.5456177,0.58913547,0.2989442,-0.20840162,0.5141719,0.5290367,-0.13335586,-0.68223596,0.12007073,802.6374,901.75824,810.293,791.75824,713.5897,-0.24505615234375,0.12493896484375,0.95458984375,2.489776611328125,-3.058013916015625,-0.11962890625,1.0,1.0,4.0,1.0,1.0,100.0,event
13:15:34.077,0.3623464,0.6887135,0.013457051,0.1831353,0.33104473,-0.25241026,-0.46927106,0.5297042,0.43096396,0.018393148,-0.24624999,0.5456177,0.58913547,0.2989442,-0.20840162,0.5141719,0.5290367,-0.13335586,-0.68223596,0.12007073,809.4872,906.1905,806.6667,804.2491,681.75824,-0.24505615234375,0.12493896484375,0.95458984375,2.489776611328125,-3.058013916015625,-0.11962890625,1.0,1.0,4.0,1.0,1.0,100.0,event
13:15:34.078,0.3623464,0.6887135,0.013457051,0.1831353,0.33104473,-0.25241026,-0.46927106,0.5297042,0.43096396,0.018393148,-0.24624999,0.5456177,0.58913547,0.2989442,-0.20840162,0.5141719,0.5290367,-0.13335586,-0.68223596,0.12007073,810.696,718.8278,807.0696,803.44324,733.3333,-0.24505615234375,0.12493896484375,0.95458984375,2.489776611328125,-3.058013916015625,-0.11962890625,1.0,1.0,4.0,1.0,1.0,100.0,event
13:15:34.099,0.3623464,0.6887135,0.013457051,0.1831353,0.33104473,-0.25241026,-0.46927106,0.5297042,0.43096396,0.018393148,-0.24624999,0.5456177,0.58913547,0.2989442,-0.20840162,0.5141719,0.5290367,-0.13335586,-0.68223596,0.12007073,803.8461,842.9304,805.8608,795.78754,732.52747,-0.24053955078125,0.1197509765625,0.9478759765625,1.9140625,-3.850555419921875,0.620574951171875,1.0,1.0,4.0,1.0,1.0,100.0,event
13:15:34.100,0.3623464,0.6887135,0.013457051,0.1831353,0.33104473,-0.25241026,-0.46927106,0.5297042,0.43096396,0.018393148,-0.24624999,0.5456177,0.58913547,0.2989442,-0.20840162,0.5141719,0.5290367,-0.13335586,-0.68223596,0.12007073,790.9524,939.6337,809.89014,784.5055,699.4872,-0.24053955078125,0.1197509765625,0.9478759765625,1.9140625,-3.850555419921875,0.620574951171875,1.0,1.0,4.0,1.0,1.0,100.0,event
13:15:34.101,0.3623464,0.6887135,0.013457051,0.1831353,0.33104473,-0.25241026,-0.46927106,0.5297042,0.43096396,0.018393148,-0.24624999,0.5456177,0.58913547,0.2989442,-0.20840162,0.5141719,0.5290367,-0.13335586,-0.68223596,0.12007073,788.5348,707.5458,809.0842,795.38464,716.0073,-0.24053955078125,0.1197509765625,0.9478759765625,1.9140625,-3.850555419921875,0.620574951171875,1.0,1.0,4.0,1.0,1.0,100.0,event
13:15:34.101,0.3623464,0.6887135,0.013457051,0.1831353,0.33104473,-0.25241026,-0.46927106,0.5297042,0.43096396,0.018393148,-0.24624999,0.5456177,0.58913547,0.2989442,-0.20840162,0.5141719,0.5290367,-0.13335586,-0.68223596,0.12007073,781.685,791.75824,809.4872,784.10254,708.7546,-0.24053955078125,0.1197509765625,0.9478759765625,1.9140625,-3.850555419921875,0.620574951171875,1.0,1.0,4.0,1.0,1.0,100.0,event
13:15:34.102,0.3623464,0.6887135,0.013457051,0.1831353,0.33104473,-0.25241026,-0.46927106,0.5297042,0.43096396,0.018393148,-0.24624999,0.5456177,0.58913547,0.2989442,-0.20840162,0.5141719,0.5290367,-0.13335586,-0.68223596,0.12007073,805.4579,828.4249,810.293,804.2491,716.4103,-0.24053955078125,0.1197509765625,0.9478759765625,1.9140625,-3.850555419921875,0.620574951171875,1.0,1.0,4.0,1.0,1.0,100.0,event
13:15:34.102,0.3623464,0.6887135,0.013457051,0.1831353,0.33104473,-0.25241026,-0.46927106,0.5297042,0.43096396,0.018393148,-0.24624999,0.5456177,0.58913547,0.2989442,-0.20840162,0.5141719,0.5290367,-0.13335586,-0.68223596,0.12007073,803.44324,701.0989,808.68134,809.4872,796.5934,-0.24053955078125,0.1197509765625,0.9478759765625,1.9140625,-3.850555419921875,0.620574951171875,1.0,1.0,4.0,1.0,1.0,100.0,event
13:15:34.103,0.3623464,0.6887135,0.013457051,0.1831353,0.33104473,-0.25241026,-0.46927106,0.5297042,0.43096396,0.018393148,-0.24624999,0.5456177,0.58913547,0.2989442,-0.20840162,0.5141719,0.5290367,-0.13335586,-0.68223596,0.12007073,782.8938,471.02563,809.4872,803.0403,896.1172,-0.24053955078125,0.1197509765625,0.9478759765625,1.9140625,-3.850555419921875,0.620574951171875,1.0,1.0,4.0,1.0,1.0,100.0,event
13:15:34.104,0.3623464,0.6887135,0.013457051,0.1831353,0.33104473,-0.25241026,-0.46927106,0.5297042,0.43096396,0.018393148,-0.24624999,0.5456177,0.58913547,0.2989442,-0.20840162,0.5141719,0.5290367,-0.13335586,-0.68223596,0.12007073,784.90845,79.78022,809.0842,803.44324,1147.9487,-0.24053955078125,0.1197509765625,0.9478759765625,1.9140625,-3.850555419921875,0.620574951171875,1.0,1.0,4.0,1.0,1.0,100.0,event
13:15:34.105,0.3623464,0.6887135,0.013457051,0.1831353,0.33104473,-0.25241026,-0.46927106,0.5297042,0.43096396,0.018393148,-0.24624999,0.5456177,0.58913547,0.2989442,-0.20840162,0.5141719,0.5290367,-0.13335586,-0.68223596,0.12007073,800.2198,430.7326,807.0696,799.011,983.5531,-0.24053955078125,0.1197509765625,0.9478759765625,1.9140625,-3.850555419921875,0.620574951171875,1.0,1.0,4.0,1.0,1.0,100.0,event
13:15:34.105,0.3623464,0.6887135,0.013457051,0.1831353,0.33104473,-0.25241026,-0.46927106,0.5297042,0.43096396,0.018393148,-0.24624999,0.5456177,0.58913547,0.2989442,-0.20840162,0.5141719,0.5290367,-0.13335586,-0.68223596,0.12007073,831.2454,984.35895,808.68134,811.9048,741.79486,-0.24053955078125,0.1197509765625,0.9478759765625,1.9140625,-3.850555419921875,0.620574951171875,1.0,1.0,4.0,1.0,1.0,100.0,event
13:15:34.106,0.3623464,0.6887135,0.013457051,0.1831353,0.33104473,-0.25241026,-0.46927106,0.5297042,0.43096396,0.018393148,-0.24624999,0.5456177,0.58913547,0.2989442,-0.20840162,0.5141719,0.5290367,-0.13335586,-0.68223596,0.12007073,823.9927,796.1905,811.50183,808.68134,826.4103,-0.24053955078125,0.1197509765625,0.9478759765625,1.9140625,-3.850555419921875,0.620574951171875,1.0,1.0,4.0,1.0,1.0,100.0,event
13:15:34.106,0.3623464,0.6887135,0.013457051,0.1831353,0.33104473,-0.25241026,-0.46927106,0.5297042,0.43096396,0.018393148,-0.24624999,0.5456177,0.58913547,0.2989442,-0.20840162,0.5141719,0.5290367,-0.13335586,-0.68223596,0.12007073,764.35895,772.01465,809.89014,792.96704,824.7985,-0.24053955078125,0.1197509765625,0.9478759765625,1.9140625,-3.850555419921875,0.620574951171875,1.0,1.0,4.0,1.0,1.0,100.0,event
13:15:34.160,0.3623464,0.6887135,0.013457051,0.1831353,0.33104473,-0.25241026,-0.46927106,0.5297042,0.43096396,0.018393148,-0.24624999,0.5456177,0.58913547,0.2989442,-0.20840162,0.5141719,0.5290367,-0.13335586,-0.68223596,0.12007073,760.32965,906.99634,804.2491,788.5348,702.3077,-0.248046875,0.12274169921875,0.95660400390625,2.205657958984375,-4.164581298828125,0.10467529296875,1.0,1.0,4.0,1.0,1.0,100.0,event
13:15:34.162,0.3623464,0.6887135,0.013457051,0.1831353,0.33104473,-0.25241026,-0.46927106,0.5297042,0.43096396,0.018393148,-0.24624999,0.5456177,0.58913547,0.2989442,-0.20840162,0.5141719,0.5290367,-0.13335586,-0.68223596,0.12007073,775.2381,875.9707,803.0403,796.99634,662.4176,-0.248046875,0.12274169921875,0.95660400390625,2.205657958984375,-4.164581298828125,0.10467529296875,1.0,1.0,4.0,1.0,1.0,100.0,event
13:15:34.163,0.3623464,0.6887135,0.013457051,0.1831353,0.33104473,-0.25241026,-0.46927106,0.5297042,0.43096396,0.018393148,-0.24624999,0.5456177,0.58913547,0.2989442,-0.20840162,0.5141719,0.5290367,-0.13335586,-0.68223596,0.12007073,792.96704,698.68134,806.26373,816.337,802.6374,-0.248046875,0.12274169921875,0.95660400390625,2.205657958984375,-4.164581298828125,0.10467529296875,1.0,1.0,4.0,1.0,1.0,100.0,event
13:15:34.164,0.34735596,0.6887135,-0.019957673,0.20640041,0.34569687,-0.25241026,-0.49798405,0.58615696,0.43096396,0.018393148,-0.30165946,0.5130869,0.6064609,0.2989442,-0.21862969,0.5286519,0.5424134,-0.13335586,-0.68469155,0.09429928,800.6227,743.4066,807.8755,810.293,805.8608,-0.248046875,0.12274169921875,0.95660400390625,2.205657958984375,-4.164581298828125,0.10467529296875,1.0,1.0,4.0,1.0,1.0,100.0,event
13:15:34.168,0.34735596,0.6887135,-0.019957673,0.20640041,0.34569687,-0.25241026,-0.49798405,0.58615696,0.43096396,0.018393148,-0.30165946,0.5130869,0.6064609,0.2989442,-0.21862969,0.5286519,0.5424134,-0.13335586,-0.68469155,0.09429928,787.326,842.9304,807.0696,800.2198,710.7692,-0.248046875,0.12274169921875,0.95660400390625,2.205657958984375,-4.164581298828125,0.10467529296875,1.0,1.0,4.0,1.0,1.0,100.0,event
13:15:34.169,0.34735596,0.6887135,-0.019957673,0.20640041,0.34569687,-0.25241026,-0.49798405,0.58615696,0.43096396,0.018393148,-0.30165946,0.5130869,0.6064609,0.2989442,-0.21862969,0.5286519,0.5424134,-0.13335586,-0.68469155,0.09429928,783.2967,620.10986,808.2784,784.5055,758.71796,-0.248046875,0.12274169921875,0.95660400390625,2.205657958984375,-4.164581298828125,0.10467529296875,1.0,1.0,4.0,1.0,1.0,100.0,event
13:15:34.170,0.34735596,0.6887135,-0.019957673,0.20640041,0.34569687,-0.25241026,-0.49798405,0.58615696,0.43096396,0.018393148,-0.30165946,0.5130869,0.6064609,0.2989442,-0.21862969,0.5286519,0.5424134,-0.13335586,-0.68469155,0.09429928,795.38464,175.27472,807.0696,792.96704,1023.0403,-0.248046875,0.12274169921875,0.95660400390625,2.205657958984375,-4.164581298828125,0.10467529296875,1.0,1.0,4.0,1.0,1.0,100.0,event
13:15:34.172,0.34735596,0.6887135,-0.019957673,0.20640041,0.34569687,-0.25241026,-0.49798405,0.58615696,0.43096396,0.018393148,-0.30165946,0.5130869,0.6064609,0.2989442,-0.21862969,0.5286519,0.5424134,-0.13335586,-0.68469155,0.09429928,813.1135,267.94873,805.4579,811.0989,1004.90845,-0.248046875,0.12274169921875,0.95660400390625,2.205657958984375,-4.164581298828125,0.10467529296875,1.0,1.0,4.0,1.0,1.0,100.0,event
13:15:34.173,0.34735596,0.6887135,-0.019957673,0.20640041,0.34569687,-0.25241026,-0.49798405,0.58615696,0.43096396,0.018393148,-0.30165946,0.5130869,0.6064609,0.2989442,-0.21862969,0.5286519,0.5424134,-0.13335586,-0.68469155,0.09429928,799.011,782.8938,809.4872,801.02563,711.978,-0.248046875,0.12274169921875,0.95660400390625,2.205657958984375,-4.164581298828125,0.10467529296875,1.0,1.0,4.0,1.0,1.0,100.0,event
13:15:34.174,0.34735596,0.6887135,-0.019957673,0.20640041,0.34569687,-0.25241026,-0.49798405,0.58615696,0.43096396,0.018393148,-0.30165946,0.5130869,0.6064609,0.2989442,-0.21862969,0.5286519,0.5424134,-0.13335586,-0.68469155,0.09429928,784.90845,597.1429,812.71063,788.5348,801.4286,-0.248046875,0.12274169921875,0.95660400390625,2.205657958984375,-4.164581298828125,0.10467529296875,1.0,1.0,4.0,1.0,1.0,100.0,event
13:15:34.175,0.34735596,0.6887135,-0.019957673,0.20640041,0.34569687,-0.25241026,-0.49798405,0.58615696,0.43096396,0.018393148,-0.30165946,0.5130869,0.6064609,0.2989442,-0.21862969,0.5286519,0.5424134,-0.13335586,-0.68469155,0.09429928,793.36993,263.51648,814.3223,790.14655,925.12823,-0.248046875,0.12274169921875,0.95660400390625,2.205657958984375,-4.164581298828125,0.10467529296875,1.0,1.0,4.0,1.0,1.0,100.0,event
13:15:34.176,0.34735596,0.6887135,-0.019957673,0.20640041,0.34569687,-0.25241026,-0.49798405,0.58615696,0.43096396,0.018393148,-0.30165946,0.5130869,0.6064609,0.2989442,-0.21862969,0.5286519,0.5424134,-0.13335586,-0.68469155,0.09429928,798.60803,645.09155,814.3223,794.17584,762.3443,-0.248046875,0.12274169921875,0.95660400390625,2.205657958984375,-4.164581298828125,0.10467529296875,1.0,1.0,4.0,1.0,1.0,100.0,event
13:15:34.243,0.34735596,0.6887135,-0.019957673,0.20640041,0.34569687,-0.25241026,-0.49798405,0.58615696,0.43096396,0.018393148,-0.30165946,0.5130869,0.6064609,0.2989442,-0.21862969,0.5286519,0.5424134,-0.13335586,-0.68469155,0.09429928,799.011,926.337,814.3223,803.8461,645.4945,-0.23675537109375,0.1190185546875,0.94525146484375,2.130889892578125,-3.536529541015625,0.11962890625,1.0,1.0,4.0,1.0,1.0,100.0,event
13:15:34.244,0.34735596,0.6887135,-0.019957673,0.20640041,0.34569687,-0.25241026,-0.49798405,0.58615696,0.43096396,0.018393148,-0.30165946,0.5130869,0.6064609,0.2989442,-0.21862969,0.5286519,0.5424134,-0.13335586,-0.68469155,0.09429928,805.05493,775.64105,816.7399,821.978,715.6044,-0.23675537109375,0.1190185546875,0.94525146484375,2.130889892578125,-3.536529541015625,0.11962890625,1.0,1.0,4.0,1.0,1.0,100.0,event
13:15:34.245,0.34735596,0.6887135,-0.019957673,0.20640041,0.34569687,-0.25241026,-0.49798405,0.58615696,0.43096396,0.018393148,-0.30165946,0.5130869,0.6064609,0.2989442,-0.21862969,0.5286519,0.5424134,-0.13335586,-0.68469155,0.09429928,801.02563,646.7033,815.9341,807.0696,758.71796,-0.23675537109375,0.1190185546875,0.94525146484375,2.130889892578125,-3.536529541015625,0.11962890625,1.0,1.0,4.0,1.0,1.0,100.0,event
13:15:34.246,0.34735596,0.6887135,-0.019957673,0.20640041,0.34569687,-0.25241026,-0.49798405,0.58615696,0.43096396,0.018393148,-0.30165946,0.5130869,0.6064609,0.2989442,-0.21862969,0.5286519,0.5424134,-0.13335586,-0.68469155,0.09429928,777.6557,736.1539,812.71063,790.14655,691.4286,-0.23675537109375,0.1190185546875,0.94525146484375,2.130889892578125,-3.536529541015625,0.11962890625,1.0,1.0,4.0,1.0,1.0,100.0,event
13:15:34.246,0.34735596,0.6887135,-0.019957673,0.20640041,0.34569687,-0.25241026,-0.49798405,0.58615696,0.43096396,0.018393148,-0.30165946,0.5130869,0.6064609,0.2989442,-0.21862969,0.5286519,0.5424134,-0.13335586,-0.68469155,0.09429928,797.3993,872.3443,813.1135,797.3993,692.23444,-0.23675537109375,0.1190185546875,0.94525146484375,2.130889892578125,-3.536529541015625,0.11962890625,1.0,1.0,4.0,1.0,1.0,100.0,event
13:15:34.247,0.34735596,0.6887135,-0.019957673,0.20640041,0.34569687,-0.25241026,-0.49798405,0.58615696,0.43096396,0.018393148,-0.30165946,0.5130869,0.6064609,0.2989442,-0.21862969,0.5286519,0.5424134,-0.13335586,-0.68469155,0.09429928,818.7546,664.0293,812.3077,806.6667,985.56775,-0.23675537109375,0.1190185546875,0.94525146484375,2.130889892578125,-3.536529541015625,0.11962890625,1.0,1.0,4.0,1.0,1.0,100.0,event
13:15:34.248,0.34735596,0.6887135,-0.019957673,0.20640041,0.34569687,-0.25241026,-0.49798405,0.58615696,0.43096396,0.018393148,-0.30165946,0.5130869,0.6064609,0.2989442,-0.21862969,0.5286519,0.5424134,-0.13335586,-0.68469155,0.09429928,793.7729,185.34799,811.9048,807.47253,1153.9927,-0.23675537109375,0.1190185546875,0.94525146484375,2.130889892578125,-3.536529541015625,0.11962890625,1.0,1.0,4.0,1.0,1.0,100.0,event
13:15:34.248,0.34735596,0.6887135,-0.019957673,0.20640041,0.34569687,-0.25241026,-0.49798405,0.58615696,0.43096396,0.018393148,-0.30165946,0.5130869,0.6064609,0.2989442,-0.21862969,0.5286519,0.5424134,-0.13335586,-0.68469155,0.09429928,782.0879,393.26007,811.9048,800.6227,854.21246,-0.23675537109375,0.1190185546875,0.94525146484375,2.130889892578125,-3.536529541015625,0.11962890625,1.0,1.0,4.0,1.0,1.0,100.0,event
13:15:34.249,0.34735596,0.6887135,-0.019957673,0.20640041,0.34569687,-0.25241026,-0.49798405,0.58615696,0.43096396,0.018393148,-0.30165946,0.5130869,0.6064609,0.2989442,-0.21862969,0.5286519,0.5424134,-0.13335586,-0.68469155,0.09429928,784.5055,832.0513,811.9048,797.8022,675.31134,-0.23675537109375,0.1190185546875,0.94525146484375,2.130889892578125,-3.536529541015625,0.11962890625,1.0,1.0,4.0,1.0,1.0,100.0,event
13:15:34.249,0.34735596,0.6887135,-0.019957673,0.20640041,0.34569687,-0.25241026,-0.49798405,0.58615696,0.43096396,0.018393148,-0.30165946,0.5130869,0.6064609,0.2989442,-0.21862969,0.5286519,0.5424134,-0.13335586,-0.68469155,0.09429928,782.0879,622.9304,812.3077,797.8022,807.47253,-0.23675537109375,0.1190185546875,0.94525146484375,2.130889892578125,-3.536529541015625,0.11962890625,1.0,1.0,4.0,1.0,1.0,100.0,event
13:15:34.250,0.34735596,0.6887135,-0.019957673,0.20640041,0.34569687,-0.25241026,-0.49798405,0.58615696,0.43096396,0.018393148,-0.30165946,0.5130869,0.6064609,0.2989442,-0.21862969,0.5286519,0.5424134,-0.13335586,-0.68469155,0.09429928,805.4579,432.34433,810.696,806.6667,949.304,-0.23675537109375,0.1190185546875,0.94525146484375,2.130889892578125,-3.536529541015625,0.11962890625,1.0,1.0,4.0,1.0,1.0,100.0,event
13:15:34.251,0.34735596,0.6887135,-0.019957673,0.20640041,0.34569687,-0.25241026,-0.49798405,0.58615696,0.43096396,0.018393148,-0.30165946,0.5130869,0.6064609,0.2989442,-0.21862969,0.5286519,0.5424134,-0.13335586,-0.68469155,0.09429928,823.1868,818.7546,810.696,804.2491,864.68866,-0.23675537109375,0.1190185546875,0.94525146484375,2.130889892578125,-3.536529541015625,0.11962890625,1.0,1.0,4.0,1.0,1.0,100.0,event
13:15:34.290,0.34735596,0.6887135,-0.019957673,0.20640041,0.34569687,-0.25241026,-0.49798405,0.58615696,0.43096396,0.018393148,-0.30165946,0.5130869,0.6064609,0.2989442,-0.21862969,0.5286519,0.5424134,-0.13335586,-0.68469155,0.09429928,803.44324,739.7802,811.9048,809.89014,833.663,-0.24603271484375,0.12115478515625,0.95819091796875,2.04864501953125,-3.289794921875,0.059814453125,1.0,1.0,4.0,1.0,1.0,100.0,event
13:15:34.291,0.34735596,0.6887135,-0.019957673,0.20640041,0.34569687,-0.25241026,-0.49798405,0.58615696,0.43096396,0.018393148,-0.30165946,0.5130869,0.6064609,0.2989442,-0.21862969,0.5286519,0.5424134,-0.13335586,-0.68469155,0.09429928,793.36993,379.56042,813.91943,801.8315,832.8571,-0.24603271484375,0.12115478515625,0.95819091796875,2.04864501953125,-3.289794921875,0.059814453125,1.0,1.0,4.0,1.0,1.0,100.0,event
13:15:34.292,0.34735596,0.6887135,-0.019957673,0.20640041,0.34569687,-0.25241026,-0.49798405,0.58615696,0.43096396,0.018393148,-0.30165946,0.5130869,0.6064609,0.2989442,-0.21862969,0.5286519,0.5424134,-0.13335586,-0.68469155,0.09429928,802.23444,504.06595,809.4872,798.60803,786.1172,-0.24603271484375,0.12115478515625,0.95819091796875,2.04864501953125,-3.289794921875,0.059814453125,1.0,1.0,4.0,1.0,1.0,100.0,event
13:15:34.293,0.34735596,0.6887135,-0.019957673,0.20640041,0.34569687,-0.25241026,-0.49798405,0.58615696,0.43096396,0.018393148,-0.30165946,0.5130869,0.6064609,0.2989442,-0.21862969,0.5286519,0.5424134,-0.13335586,-0.68469155,0.09429928,825.6044,902.96704,808.68134,816.7399,736.55676,-0.24603271484375,0.12115478515625,0.95819091796875,2.04864501953125,-3.289794921875,0.059814453125,1.0,1.0,4.0,1.0,1.0,100.0,event
13:15:34.293,0.34735596,0.6887135,-0.019957673,0.20640041,0.34569687,-0.25241026,-0.49798405,0.58615696,0.43096396,0.018393148,-0.30165946,0.5130869,0.6064609,0.2989442,-0.21862969,0.5286519,0.5424134,-0.13335586,-0.68469155,0.09429928,819.5604,912.6374,816.7399,814.3223,761.9414,-0.24603271484375,0.12115478515625,0.95819091796875,2.04864501953125,-3.289794921875,0.059814453125,1.0,1.0,4.0,1.0,1.0,100.0,event
13:15:34.294,0.31925055,0.6887135,-0.025093429,0.21273576,0.35522354,-0.25241026,-0.5161708,0.63538015,0.43096396,0.018393148,-0.31484932,0.48167738,0.61324227,0.2989442,-0.23590395,0.546615,0.55532485,-0.13335586,-0.6846994,0.072837286,786.9231,514.1392,814.7253,806.26373,920.696,-0.24603271484375,0.12115478515625,0.95819091796875,2.04864501953125,-3.289794921875,0.059814453125,1.0,1.0,4.0,1.0,1.0,100.0,event
13:15:34.299,0.31925055,0.6887135,-0.025093429,0.21273576,0.35522354,-0.25241026,-0.5161708,0.63538015,0.43096396,0.018393148,-0.31484932,0.48167738,0.61324227,0.2989442,-0.23590395,0.546615,0.55532485,-0.13335586,-0.6846994,0.072837286,783.69965,438.7912,808.2784,792.96704,951.31866,-0.24603271484375,0.12115478515625,0.95819091796875,2.04864501953125,-3.289794921875,0.059814453125,1.0,1.0,4.0,1.0,1.0,100.0,event
13:15:34.300,0.31925055,0.6887135,-0.025093429,0.21273576,0.35522354,-0.25241026,-0.5161708,0.63538015,0.43096396,0.018393148,-0.31484932,0.48167738,0.61324227,0.2989442,-0.23590395,0.546615,0.55532485,-0.13335586,-0.6846994,0.072837286,787.326,795.78754,811.0989,790.54944,784.5055,-0.24603271484375,0.12115478515625,0.95819091796875,2.04864501953125,-3.289794921875,0.059814453125,1.0,1.0,4.0,1.0,1.0,100.0,event
13:15:34.300,0.31925055,0.6887135,-0.025093429,0.21273576,0.35522354,-0.25241026,-0.5161708,0.63538015,0.43096396,0.018393148,-0.31484932,0.48167738,0.61324227,0.2989442,-0.23590395,0.546615,0.55532485,-0.13335586,-0.6846994,0.072837286,778.46155,842.1245,810.696,799.011,759.92676,-0.24603271484375,0.12115478515625,0.95819091796875,2.04864501953125,-3.289794921875,0.059814453125,1.0,1.0,4.0,1.0,1.0,100.0,event
13:15:34.301,0.31925055,0.6887135,-0.025093429,0.21273576,0.35522354,-0.25241026,-0.5161708,0.63538015,0.43096396,0.018393148,-0.31484932,0.48167738,0.61324227,0.2989442,-0.23590395,0.546615,0.55532485,-0.13335586,-0.6846994,0.072837286,800.6227,509.30402,809.0842,812.71063,922.3077,-0.24603271484375,0.12115478515625,0.95819091796875,2.04864501953125,-3.289794921875,0.059814453125,1.0,1.0,4.0,1.0,1.0,100.0,event
13:15:34.302,0.31925055,0.6887135,-0.025093429,0.21273576,0.35522354,-0.25241026,-0.5161708,0.63538015,0.43096396,0.018393148,-0.31484932,0.48167738,0.61324227,0.2989442,-0.23590395,0.546615,0.55532485,-0.13335586,-0.6846994,0.072837286,783.2967,934.3956,808.68134,806.26373,725.2747,-0.24603271484375,0.12115478515625,0.95819091796875,2.04864501953125,-3.289794921875,0.059814453125,1.0,1.0,4.0,1.0,1.0,100.0,event
13:15:34.302,0.31925055,0.6887135,-0.025093429,0.21273576,0.35522354,-0.25241026,-0.5161708,0.63538015,0.43096396,0.018393148,-0.31484932,0.48167738,0.61324227,0.2989442,-0.23590395,0.546615,0.55532485,-0.13335586,-0.6846994,0.072837286,803.0403,692.6374,807.8755,817.1429,864.2857,-0.24603271484375,0.12115478515625,0.95819091796875,2.04864501953125,-3.289794921875,0.059814453125,1.0,1.0,4.0,1.0,1.0,100.0,event
13:15:34.343,0.31925055,0.6887135,-0.025093429,0.21273576,0.35522354,-0.25241026,-0.5161708,0.63538015,0.43096396,0.018393148,-0.31484932,0.48167738,0.61324227,0.2989442,-0.23590395,0.546615,0.55532485,-0.13335586,-0.6846994,0.072837286,786.1172,734.5421,812.71063,805.4579,748.24176,-0.24603271484375,0.12115478515625,0.95819091796875,2.04864501953125,-3.289794921875,0.059814453125,1.0,1.0,4.0,1.0,1.0,100.0,event
13:15:34.344,0.31925055,0.6887135,-0.025093429,0.21273576,0.35522354,-0.25241026,-0.5161708,0.63538015,0.43096396,0.018393148,-0.31484932,0.48167738,0.61324227,0.2989442,-0.23590395,0.546615,0.55532485,-0.13335586,-0.6846994,0.072837286,803.0403,204.28572,810.293,807.47253,944.0659,-0.24603271484375,0.12115478515625,0.95819091796875,2.04864501953125,-3.289794921875,0.059814453125,1.0,1.0,4.0,1.0,1.0,100.0,event
13:15:34.345,0.31925055,0.6887135,-0.025093429,0.21273576,0.35522354,-0.25241026,-0.5161708,0.63538015,0.43096396,0.018393148,-0.31484932,0.48167738,0.61324227,0.2989442,-0.23590395,0.546615,0.55532485,-0.13335586,-0.6846994,0.072837286,825.2015,448.86447,808.68134,812.71063,879.59705,-0.24603271484375,0.12115478515625,0.95819091796875,2.04864501953125,-3.289794921875,0.059814453125,1.0,1.0,4.0,1.0,1.0,100.0,event
13:15:34.346,0.31925055,0.6887135,-0.025093429,0.21273576,0.35522354,-0.25241026,-0.5161708,0.63538015,0.43096396,0.018393148,-0.31484932,0.48167738,0.61324227,0.2989442,-0.23590395,0.546615,0.55532485,-0.13335586,-0.6846994,0.072837286,814.3223,695.05493,808.68134,799.41394,759.5238,-0.24603271484375,0.12115478515625,0.95819091796875,2.04864501953125,-3.289794921875,0.059814453125,1.0,1.0,4.0,1.0,1.0,100.0,event
13:15:34.347,0.31925055,0.6887135,-0.025093429,0.21273576,0.35522354,-0.25241026,-0.5161708,0.63538015,0.43096396,0.018393148,-0.31484932,0.48167738,0.61324227,0.2989442,-0.23590395,0.546615,0.55532485,-0.13335586,-0.6846994,0.072837286,792.1612,456.52014,809.4872,784.90845,798.20514,-0.24603271484375,0.12115478515625,0.95819091796875,2.04864501953125,-3.289794921875,0.059814453125,1.0,1.0,4.0,1.0,1.0,100.0,event
13:15:34.348,0.31925055,0.6887135,-0.025093429,0.21273576,0.35522354,-0.25241026,-0.5161708,0.63538015,0.43096396,0.018393148,-0.31484932,0.48167738,0.61324227,0.2989442,-0.23590395,0.546615,0.55532485,-0.13335586,-0.6846994,0.072837286,796.5934,257.87546,809.89014,791.75824,929.15753,-0.24603271484375,0.12115478515625,0.95819091796875,2.04864501953125,-3.289794921875,0.059814453125,1.0,1.0,4.0,1.0,1.0,100.0,event
13:15:34.348,0.31925055,0.6887135,-0.025093429,0.21273576,0.35522354,-0.25241026,-0.5161708,0.63538015,0.43096396,0.018393148,-0.31484932,0.48167738,0.61324227,0.2989442,-0.23590395,0.546615,0.55532485,-0.13335586,-0.6846994,0.072837286,805.4579,451.68497,809.89014,790.9524,946.08057,-0.24603271484375,0.12115478515625,0.95819091796875,2.04864501953125,-3.289794921875,0.059814453125,1.0,1.0,4.0,1.0,1.0,100.0,event
13:15:34.349,0.31925055,0.6887135,-0.025093429,0.21273576,0.35522354,-0.25241026,-0.5161708,0.63538015,0.43096396,0.018393148,-0.31484932,0.48167738,0.61324227,0.2989442,-0.23590395,0.546615,0.55532485,-0.13335586,-0.6846994,0.072837286,807.47253,884.0293,809.89014,796.1905,814.3223,-0.24603271484375,0.12115478515625,0.95819091796875,2.04864501953125,-3.289794921875,0.059814453125,1.0,1.0,4.0,1.0,1.0,100.0,event
13:15:34.350,0.31925055,0.6887135,-0.025093429,0.21273576,0.35522354,-0.25241026,-0.5161708,0.63538015,0.43096396,0.018393148,-0.31484932,0.48167738,0.61324227,0.2989442,-0.23590395,0.546615,0.55532485,-0.13335586,-0.6846994,0.072837286,778.46155,147.0696,803.44324,788.1319,1002.8938,-0.24603271484375,0.12115478515625,0.95819091796875,2.04864501953125,-3.289794921875,0.059814453125,1.0,1.0,4.0,1.0,1.0,100.0,event
13:15:34.350,0.31925055,0.6887135,-0.025093429,0.21273576,0.35522354,-0.25241026,-0.5161708,0.63538015,0.43096396,0.018393148,-0.31484932,0.48167738,0.61324227,0.2989442,-0.23590395,0.546615,0.55532485,-0.13335586,-0.6846994,0.072837286,815.9341,726.4835,807.0696,790.9524,838.49817,-0.24603271484375,0.12115478515625,0.95819091796875,2.04864501953125,-3.289794921875,0.059814453125,1.0,1.0,4.0,1.0,1.0,100.0,event
13:15:34.351,0.31925055,0.6887135,-0.025093429,0.21273576,0.35522354,-0.25241026,-0.5161708,0.63538015,0.43096396,0.018393148,-0.31484932,0.48167738,0.61324227,0.2989442,-0.23590395,0.546615,0.55532485,-0.13335586,-0.6846994,0.072837286,769.19415,593.1135,802.23444,792.96704,836.08057,-0.24603271484375,0.12115478515625,0.95819091796875,2.04864501953125,-3.289794921875,0.059814453125,1.0,1.0,4.0,1.0,1.0,100.0,event
13:15:34.352,0.31925055,0.6887135,-0.025093429,0.21273576,0.35522354,-0.25241026,-0.5161708,0.63538015,0.43096396,0.018393148,-0.31484932,0.48167738,0.61324227,0.2989442,-0.23590395,0.546615,0.55532485,-0.13335586,-0.6846994,0.072837286,818.3516,948.9011,806.6667,793.36993,674.90845,-0.24603271484375,0.12115478515625,0.95819091796875,2.04864501953125,-3.289794921875,0.059814453125,1.0,1.0,4.0,1.0,1.0,100.0,event
13:15:34.392,0.31925055,0.6887135,-0.025093429,0.21273576,0.35522354,-0.25241026,-0.5161708,0.63538015,0.43096396,0.018393148,-0.31484932,0.48167738,0.61324227,0.2989442,-0.23590395,0.546615,0.55532485,-0.13335586,-0.6846994,0.072837286,815.12823,663.22345,810.696,790.14655,749.0476,-0.2373046875,0.12017822265625,0.95556640625,2.669219970703125,-3.24493408203125,0.231781005859375,1.0,1.0,4.0,1.0,1.0,100.0,event
13:15:34.393,0.31925055,0.6887135,-0.025093429,0.21273576,0.35522354,-0.25241026,-0.5161708,0.63538015,0.43096396,0.018393148,-0.31484932,0.48167738,0.61324227,0.2989442,-0.23590395,0.546615,0.55532485,-0.13335586,-0.6846994,0.072837286,785.7143,713.5897,809.89014,797.8022,739.3773,-0.2373046875,0.12017822265625,0.95556640625,2.669219970703125,-3.24493408203125,0.231781005859375,1.0,1.0,4.0,1.0,1.0,100.0,event
13:15:34.394,0.31925055,0.6887135,-0.025093429,0.21273576,0.35522354,-0.25241026,-0.5161708,0.63538015,0.43096396,0.018393148,-0.31484932,0.48167738,0.61324227,0.2989442,-0.23590395,0.546615,0.55532485,-0.13335586,-0.6846994,0.072837286,787.326,879.59705,808.68134,802.6374,690.6227,-0.2373046875,0.12017822265625,0.95556640625,2.669219970703125,-3.24493408203125,0.231781005859375,1.0,1.0,4.0,1.0,1.0,100.0,event
13:15:34.395,0.31925055,0.6887135,-0.025093429,0.21273576,0.35522354,-0.25241026,-0.5161708,0.63538015,0.43096396,0.018393148,-0.31484932,0.48167738,0.61324227,0.2989442,-0.23590395,0.546615,0.55532485,-0.13335586,-0.6846994,0.072837286,805.8608,849.3773,805.4579,794.9817,732.9304,-0.2373046875,0.12017822265625,0.95556640625,2.669219970703125,-3.24493408203125,0.231781005859375,1.0,1.0,4.0,1.0,1.0,100.0,event
13:15:34.396,0.31925055,0.6887135,-0.025093429,0.21273576,0.35522354,-0.25241026,-0.5161708,0.63538015,0.43096396,0.018393148,-0.31484932,0.48167738,0.61324227,0.2989442,-0.23590395,0.546615,0.55532485,-0.13335586,-0.6846994,0.072837286,790.54944,607.619,804.65204,787.326,796.99634,-0.2373046875,0.12017822265625,0.95556640625,2.669219970703125,-3.24493408203125,0.231781005859375,1.0,1.0,4.0,1.0,1.0,100.0,event
13:15:34.396,0.31925055,0.6887135,-0.025093429,0.21273576,0.35522354,-0.25241026,-0.5161708,0.63538015,0.43096396,0.018393148,-0.31484932,0.48167738,0.61324227,0.2989442,-0.23590395,0.546615,0.55532485,-0.13335586,-0.6846994,0.072837286,769.59705,508.49817,807.0696,784.10254,876.3736,-0.2373046875,0.12017822265625,0.95556640625,2.669219970703125,-3.24493408203125,0.231781005859375,1.0,1.0,4.0,1.0,1.0,100.0,event
13:15:34.397,0.31925055,0.6887135,-0.025093429,0.21273576,0.35522354,-0.25241026,-0.5161708,0.63538015,0.43096396,0.018393148,-0.31484932,0.48167738,0.61324227,0.2989442,-0.23590395,0.546615,0.55532485,-0.13335586,-0.6846994,0.072837286,794.57874,587.47253,808.2784,794.9817,918.68134,-0.2373046875,0.12017822265625,0.95556640625,2.669219970703125,-3.24493408203125,0.231781005859375,1.0,1.0,4.0,1.0,1.0,100.0,event
13:15:34.398,0.31925055,0.6887135,-0.02600732,0.21273576,0.35522354,-0.25241026,-0.52182585,0.63538015,0.43096396,0.018393148,-0.30030924,0.48167738,0.61324227,0.2989442,-0.25858605,0.546615,0.55532485,-0.13335586,-0.6843544,0.072837286,791.3553,587.47253,809.0842,801.8315,894.90845,-0.2373046875,0.12017822265625,0.95556640625,2.669219970703125,-3.24493408203125,0.231781005859375,1.0,1.0,4.0,1.0,1.0,100.0,event
13:15:34.404,0.31925055,0.6887135,-0.02600732,0.21273576,0.35522354,-0.25241026,-0.52182585,0.63538015,0.43096396,0.018393148,-0.30030924,0.48167738,0.61324227,0.2989442,-0.25858605,0.546615,0.55532485,-0.13335586,-0.6843544,0.072837286,774.83514,166.00732,804.2491,787.72894,973.47986,-0.2373046875,0.12017822265625,0.95556640625,2.669219970703125,-3.24493408203125,0.231781005859375,1.0,1.0,4.0,1.0,1.0,100.0,event
13:15:34.405,0.31925055,0.6887135,-0.02600732,0.21273576,0.35522354,-0.25241026,-0.52182585,0.63538015,0.43096396,0.018393148,-0.30030924,0.48167738,0.61324227,0.2989442,-0.25858605,0.546615,0.55532485,-0.13335586,-0.6843544,0.072837286,796.5934,74.94505,803.8461,780.4762,1021.4286,-0.2373046875,0.12017822265625,0.95556640625,2.669219970703125,-3.24493408203125,0.231781005859375,1.0,1.0,4.0,1.0,1.0,100.0,event
13:15:34.405,0.31925055,0.6887135,-0.02600732,0.21273576,0.35522354,-0.25241026,-0.52182585,0.63538015,0.43096396,0.018393148,-0.30030924,0.48167738,0.61324227,0.2989442,-0.25858605,0.546615,0.55532485,-0.13335586,-0.6843544,0.072837286,811.0989,771.6117,805.4579,792.96704,815.5311,-0.2373046875,0.12017822265625,0.95556640625,2.669219970703125,-3.24493408203125,0.231781005859375,1.0,1.0,4.0,1.0,1.0,100.0,event
13:15:34.406,0.31925055,0.6887135,-0.02600732,0.21273576,0.35522354,-0.25241026,-0.52182585,0.63538015,0.43096396,0.018393148,-0.30030924,0.48167738,0.61324227,0.2989442,-0.25858605,0.546615,0.55532485,-0.13335586,-0.6843544,0.072837286,804.65204,906.99634,806.26373,805.05493,740.58606,-0.2373046875,0.12017822265625,0.95556640625,2.669219970703125,-3.24493408203125,0.231781005859375,1.0,1.0,4.0,1.0,1.0,100.0,event
13:15:34.434,0.31925055,0.6887135,-0.02600732,0.21273576,0.35522354,-0.25241026,-0.52182585,0.63538015,0.43096396,0.018393148,-0.30030924,0.48167738,0.61324227,0.2989442,-0.25858605,0.546615,0.55532485,-0.13335586,-0.6843544,0.072837286,794.57874,689.41394,809.4872,805.4579,786.9231,-0.2410888671875,0.11773681640625,0.94842529296875,2.130889892578125,-0.814971923828125,-0.441131591796875,1.0,1.0,4.0,1.0,1.0,100.0,event
13:15:34.437,0.31925055,0.6887135,-0.02600732,0.21273576,0.35522354,-0.25241026,-0.52182585,0.63538015,0.43096396,0.018393148,-0.30030924,0.48167738,0.61324227,0.2989442,-0.25858605,0.546615,0.55532485,-0.13335586,-0.6843544,0.072837286,791.3553,843.3333,809.4872,802.6374,762.3443,-0.2410888671875,0.11773681640625,0.94842529296875,2.130889892578125,-0.814971923828125,-0.441131591796875,1.0,1.0,4.0,1.0,1.0,100.0,event
13:15:34.438,0.31925055,0.6887135,-0.02600732,0.21273576,0.35522354,-0.25241026,-0.52182585,0.63538015,0.43096396,0.018393148,-0.30030924,0.48167738,0.61324227,0.2989442,-0.25858605,0.546615,0.55532485,-0.13335586,-0.6843544,0.072837286,789.7436,908.60803,811.50183,799.41394,684.17584,-0.2410888671875,0.11773681640625,0.94842529296875,2.130889892578125,-0.814971923828125,-0.441131591796875,1.0,1.0,4.0,1.0,1.0,100.0,event
13:15:34.439,0.31925055,0.6887135,-0.02600732,0.21273576,0.35522354,-0.25241026,-0.52182585,0.63538015,0.43096396,0.018393148,-0.30030924,0.48167738,0.61324227,0.2989442,-0.25858605,0.546615,0.55532485,-0.13335586,-0.6843544,0.072837286,784.5055,777.6557,811.50183,803.0403,707.9487,-0.2410888671875,0.11773681640625,0.94842529296875,2.130889892578125,-0.814971923828125,-0.441131591796875,1.0,1.0,4.0,1.0,1.0,100.0,event
13:15:34.440,0.31925055,0.6887135,-0.02600732,0.21273576,0.35522354,-0.25241026,-0.52182585,0.63538015,0.43096396,0.018393148,-0.30030924,0.48167738,0.61324227,0.2989442,-0.25858605,0.546615,0.55532485,-0.13335586,-0.6843544,0.072837286,808.2784,744.21246,805.8608,811.0989,812.3077,-0.2410888671875,0.11773681640625,0.94842529296875,2.130889892578125,-0.814971923828125,-0.441131591796875,1.0,1.0,4.0,1.0,1.0,100.0,event
13:15:34.441,0.31925055,0.6887135,-0.02600732,0.21273576,0.35522354,-0.25241026,-0.52182585,0.63538015,0.43096396,0.018393148,-0.30030924,0.48167738,0.61324227,0.2989442,-0.25858605,0.546615,0.55532485,-0.13335586,-0.6843544,0.072837286,815.5311,629.3773,807.8755,807.47253,879.59705,-0.2410888671875,0.11773681640625,0.94842529296875,2.130889892578125,-0.814971923828125,-0.441131591796875,1.0,1.0,4.0,1.0,1.0,100.0,event
13:15:34.441,0.31925055,0.6887135,-0.02600732,0.21273576,0.35522354,-0.25241026,-0.52182585,0.63538015,0.43096396,0.018393148,-0.30030924,0.48167738,0.61324227,0.2989442,-0.25858605,0.546615,0.55532485,-0.13335586,-0.6843544,0.072837286,794.57874,514.5421,807.0696,790.54944,817.5458,-0.2410888671875,0.11773681640625,0.94842529296875,2.130889892578125,-0.814971923828125,-0.441131591796875,1.0,1.0,4.0,1.0,1.0,100.0,event
13:15:34.442,0.31925055,0.6887135,-0.02600732,0.21273576,0.35522354,-0.25241026,-0.52182585,0.63538015,0.43096396,0.018393148,-0.30030924,0.48167738,0.61324227,0.2989442,-0.25858605,0.546615,0.55532485,-0.13335586,-0.6843544,0.072837286,784.5055,460.54944,805.4579,788.1319,764.7619,-0.2410888671875,0.11773681640625,0.94842529296875,2.130889892578125,-0.814971923828125,-0.441131591796875,1.0,1.0,4.0,1.0,1.0,100.0,event
13:15:34.443,0.31925055,0.6887135,-0.02600732,0.21273576,0.35522354,-0.25241026,-0.52182585,0.63538015,0.43096396,0.018393148,-0.30030924,0.48167738,0.61324227,0.2989442,-0.25858605,0.546615,0.55532485,-0.13335586,-0.6843544,0.072837286,792.5641,127.326004,806.26373,801.4286,975.09155,-0.2410888671875,0.11773681640625,0.94842529296875,2.130889892578125,-0.814971923828125,-0.441131591796875,1.0,1.0,4.0,1.0,1.0,100.0,event
13:15:34.443,0.31925055,0.6887135,-0.02600732,0.21273576,0.35522354,-0.25241026,-0.52182585,0.63538015,0.43096396,0.018393148,-0.30030924,0.48167738,0.61324227,0.2989442,-0.25858605,0.546615,0.55532485,-0.13335586,-0.6843544,0.072837286,808.68134,408.1685,804.2491,805.05493,924.3223,-0.2410888671875,0.11773681640625,0.94842529296875,2.130889892578125,-0.814971923828125,-0.441131591796875,1.0,1.0,4.0,1.0,1.0,100.0,event
13:15:34.444,0.31925055,0.6887135,-0.02600732,0.21273576,0.35522354,-0.25241026,-0.52182585,0.63538015,0.43096396,0.018393148,-0.30030924,0.48167738,0.61324227,0.2989442,-0.25858605,0.546615,0.55532485,-0.13335586,-0.6843544,0.072837286,809.89014,874.35895,803.0403,799.81683,773.6264,-0.2410888671875,0.11773681640625,0.94842529296875,2.130889892578125,-0.814971923828125,-0.441131591796875,1.0,1.0,4.0,1.0,1.0,100.0,event
13:15:34.445,0.31925055,0.6887135,-0.02600732,0.21273576,0.35522354,-0.25241026,-0.52182585,0.63538015,0.43096396,0.018393148,-0.30030924,0.48167738,0.61324227,0.2989442,-0.25858605,0.546615,0.55532485,-0.13335586,-0.6843544,0.072837286,797.8022,570.14655,809.89014,801.02563,845.7509,-0.2410888671875,0.11773681640625,0.94842529296875,2.130889892578125,-0.814971923828125,-0.441131591796875,1.0,1.0,4.0,1.0,1.0,100.0,event
13:15:34.446,0.31925055,0.6887135,-0.02600732,0.21273576,0.35522354,-0.25241026,-0.52182585,0.63538015,0.43096396,0.018393148,-0.30030924,0.48167738,0.61324227,0.2989442,-0.25858605,0.546615,0.55532485,-0.13335586,-0.6843544,0.072837286,799.41394,388.02197,811.0989,799.41394,858.6447,-0.24432373046875,0.124267578125,0.947998046875,2.52716064453125,-1.801910400390625,-0.485992431640625,1.0,1.0,4.0,1.0,1.0,100.0,event
13:15:34.446,0.31925055,0.6887135,-0.02600732,0.21273576,0.35522354,-0.25241026,-0.52182585,0.63538015,0.43096396,0.018393148,-0.30030924,0.48167738,0.61324227,0.2989442,-0.25858605,0.546615,0.55532485,-0.13335586,-0.6843544,0.072837286,808.68134,840.9158,809.0842,793.36993,707.5458,-0.24432373046875,0.124267578125,0.947998046875,2.52716064453125,-1.801910400390625,-0.485992431640625,1.0,1.0,4.0,1.0,1.0,100.0,event
13:15:34.447,0.31925055,0.6887135,-0.02600732,0.21273576,0.35522354,-0.25241026,-0.52182585,0.63538015,0.43096396,0.018393148,-0.30030924,0.48167738,0.61324227,0.2989442,-0.25858605,0.546615,0.55532485,-0.13335586,-0.6843544,0.072837286,811.0989,969.0476,813.1135,798.20514,737.76556,-0.24432373046875,0.124267578125,0.947998046875,2.52716064453125,-1.801910400390625,-0.485992431640625,1.0,1.0,4.0,1.0,1.0,100.0,event
13:15:34.447,0.31925055,0.6887135,-0.02600732,0.21273576,0.35522354,-0.25241026,-0.52182585,0.63538015,0.43096396,0.018393148,-0.30030924,0.48167738,0.61324227,0.2989442,-0.25858605,0.546615,0.55532485,-0.13335586,-0.6843544,0.072837286,797.3993,744.61536,811.9048,799.011,843.3333,-0.24432373046875,0.124267578125,0.947998046875,2.52716064453125,-1.801910400390625,-0.485992431640625,1.0,1.0,4.0,1.0,1.0,100.0,event
13:15:34.448,0.31925055,0.6887135,-0.02600732,0.21273576,0.35522354,-0.25241026,-0.52182585,0.63538015,0.43096396,0.018393148,-0.30030924,0.48167738,0.61324227,0.2989442,-0.25858605,0.546615,0.55532485,-0.13335586,-0.6843544,0.072837286,785.7143,782.0879,809.4872,801.02563,812.3077,-0.24432373046875,0.124267578125,0.947998046875,2.52716064453125,-1.801910400390625,-0.485992431640625,1.0,1.0,4.0,1.0,1.0,100.0,event
13:15:34.449,0.31925055,0.6887135,-0.02600732,0.21273576,0.35522354,-0.25241026,-0.52182585,0.63538015,0.43096396,0.018393148,-0.30030924,0.48167738,0.61324227,0.2989442,-0.25858605,0.546615,0.55532485,-0.13335586,-0.6843544,0.072837286,813.1135,584.65204,816.337,801.02563,853.00366,-0.24432373046875,0.124267578125,0.947998046875,2.52716064453125,-1.801910400390625,-0.485992431640625,1.0,1.0,4.0,1.0,1.0,100.0,event
13:15:34.449,0.31925055,0.6887135,-0.02600732,0.21273576,0.35522354,-0.25241026,-0.52182585,0.63538015,0.43096396,0.018393148,-0.30030924,0.48167738,0.61324227,0.2989442,-0.25858605,0.546615,0.55532485,-0.13335586,-0.6843544,0.072837286,798.60803,707.9487,814.3223,799.011,774.83514,-0.24432373046875,0.124267578125,0.947998046875,2.52716064453125,-1.801910400390625,-0.485992431640625,1.0,1.0,4.0,1.0,1.0,100.0,event
13:15:34.450,0.31925055,0.6887135,-0.02600732,0.21273576,0.35522354,-0.25241026,-0.52182585,0.63538015,0.43096396,0.018393148,-0.30030924,0.48167738,0.61324227,0.2989442,-0.25858605,0.546615,0.55532485,-0.13335586,-0.6843544,0.072837286,822.381,286.48352,815.9341,816.7399,1024.652,-0.24432373046875,0.124267578125,0.947998046875,2.52716064453125,-1.801910400390625,-0.485992431640625,1.0,1.0,4.0,1.0,1.0,100.0,event
13:15:34.451,0.31925055,0.6887135,-0.02600732,0.21273576,0.35522354,-0.25241026,-0.52182585,0.63538015,0.43096396,0.018393148,-0.30030924,0.48167738,0.61324227,0.2989442,-0.25858605,0.546615,0.55532485,-0.13335586,-0.6843544,0.072837286,810.293,322.74725,814.3223,812.3077,976.30035,-0.24432373046875,0.124267578125,0.947998046875,2.52716064453125,-1.801910400390625,-0.485992431640625,1.0,1.0,4.0,1.0,1.0,100.0,event
13:15:34.451,0.31925055,0.6887135,-0.037375722,0.21273576,0.35522354,-0.25241026,-0.5146122,0.63538015,0.43096396,0.018393148,-0.2743624,0.48167738,0.61324227,0.2989442,-0.2817172,0.546615,0.55532485,-0.13335586,-0.68443507,0.072837286,781.28204,866.7033,813.1135,805.05493,739.3773,-0.24432373046875,0.124267578125,0.947998046875,2.52716064453125,-1.801910400390625,-0.485992431640625,1.0,1.0,4.0,1.0,1.0,100.0,event
13:15:34.455,0.31925055,0.6887135,-0.037375722,0.21273576,0.35522354,-0.25241026,-0.5146122,0.63538015,0.43096396,0.018393148,-0.2743624,0.48167738,0.61324227,0.2989442,-0.2817172,0.546615,0.55532485,-0.13335586,-0.68443507,0.072837286,770.0,842.9304,811.0989,805.05493,668.46155,-0.24432373046875,0.124267578125,0.947998046875,2.52716064453125,-1.801910400390625,-0.485992431640625,1.0,1.0,4.0,1.0,1.0,100.0,event
13:15:34.456,0.31925055,0.6887135,-0.037375722,0.21273576,0.35522354,-0.25241026,-0.5146122,0.63538015,0.43096396,0.018393148,-0.2743624,0.48167738,0.61324227,0.2989442,-0.2817172,0.546615,0.55532485,-0.13335586,-0.68443507,0.072837286,790.54944,680.14655,808.68134,811.0989,736.9597,-0.24432373046875,0.124267578125,0.947998046875,2.52716064453125,-1.801910400390625,-0.485992431640625,1.0,1.0,4.0,1.0,1.0,100.0,event
13:15:34.483,0.31925055,0.6887135,-0.037375722,0.21273576,0.35522354,-0.25241026,-0.5146122,0.63538015,0.43096396,0.018393148,-0.2743624,0.48167738,0.61324227,0.2989442,-0.2817172,0.546615,0.55532485,-0.13335586,-0.68443507,0.072837286,807.0696,719.6337,810.293,815.5311,836.4835,-0.253173828125,0.12652587890625,0.95709228515625,2.474822998046875,-3.6785888671875,1.487884521484375,1.0,1.0,4.0,1.0,1.0,100.0,event
13:15:34.484,0.31925055,0.6887135,-0.037375722,0.21273576,0.35522354,-0.25241026,-0.5146122,0.63538015,0.43096396,0.018393148,-0.2743624,0.48167738,0.61324227,0.2989442,-0.2817172,0.546615,0.55532485,-0.13335586,-0.68443507,0.072837286,802.23444,863.47986,814.7253,803.44324,752.674,-0.253173828125,0.12652587890625,0.95709228515625,2.474822998046875,-3.6785888671875,1.487884521484375,1.0,1.0,4.0,1.0,1.0,100.0,event
13:15:34.485,0.31925055,0.6887135,-0.037375722,0.21273576,0.35522354,-0.25241026,-0.5146122,0.63538015,0.43096396,0.018393148,-0.2743624,0.48167738,0.61324227,0.2989442,-0.2817172,0.546615,0.55532485,-0.13335586,-0.68443507,0.072837286,785.7143,758.71796,816.337,793.7729,720.0366,-0.253173828125,0.12652587890625,0.95709228515625,2.474822998046875,-3.6785888671875,1.487884521484375,1.0,1.0,4.0,1.0,1.0,100.0,event
13:15:34.485,0.31925055,0.6887135,-0.037375722,0.21273576,0.35522354,-0.25241026,-0.5146122,0.63538015,0.43096396,0.018393148,-0.2743624,0.48167738,0.61324227,0.2989442,-0.2817172,0.546615,0.55532485,-0.13335586,-0.68443507,0.072837286,786.9231,424.68866,813.5165,788.1319,809.89014,-0.253173828125,0.12652587890625,0.95709228515625,2.474822998046875,-3.6785888671875,1.487884521484375,1.0,1.0,4.0,1.0,1.0,100.0,event
13:15:34.486,0.31925055,0.6887135,-0.037375722,0.21273576,0.35522354,-0.25241026,-0.5146122,0.63538015,0.43096396,0.018393148,-0.2743624,0.48167738,0.61324227,0.2989442,-0.2817172,0.546615,0.55532485,-0.13335586,-0.68443507,0.072837286,792.1612,826.8132,811.0989,788.93774,814.3223,-0.253173828125,0.12652587890625,0.95709228515625,2.474822998046875,-3.6785888671875,1.487884521484375,1.0,1.0,4.0,1.0,1.0,100.0,event
13:15:34.486,0.31925055,0.6887135,-0.037375722,0.21273576,0.35522354,-0.25241026,-0.5146122,0.63538015,0.43096396,0.018393148,-0.2743624,0.48167738,0.61324227,0.2989442,-0.2817172,0.546615,0.55532485,-0.13335586,-0.68443507,0.072837286,801.8315,718.022,811.50183,792.1612,780.4762,-0.253173828125,0.12652587890625,0.95709228515625,2.474822998046875,-3.6785888671875,1.487884521484375,1.0,1.0,4.0,1.0,1.0,100.0,event
13:15:34.487,0.31925055,0.6887135,-0.037375722,0.21273576,0.35522354,-0.25241026,-0.5146122,0.63538015,0.43096396,0.018393148,-0.2743624,0.48167738,0.61324227,0.2989442,-0.2817172,0.546615,0.55532485,-0.13335586,-0.68443507,0.072837286,802.23444,538.315,811.0989,786.52014,907.8022,-0.253173828125,0.12652587890625,0.95709228515625,2.474822998046875,-3.6785888671875,1.487884521484375,1.0,1.0,4.0,1.0,1.0,100.0,event
13:15:34.487,0.31925055,0.6887135,-0.037375722,0.21273576,0.35522354,-0.25241026,-0.5146122,0.63538015,0.43096396,0.018393148,-0.2743624,0.48167738,0.61324227,0.2989442,-0.2817172,0.546615,0.55532485,-0.13335586,-0.68443507,0.072837286,813.91943,128.13187,805.4579,787.326,1024.249,-0.253173828125,0.12652587890625,0.95709228515625,2.474822998046875,-3.6785888671875,1.487884521484375,1.0,1.0,4.0,1.0,1.0,100.0,event
13:15:34.488,0.31925055,0.6887135,-0.037375722,0.21273576,0.35522354,-0.25241026,-0.5146122,0.63538015,0.43096396,0.018393148,-0.2743624,0.48167738,0.61324227,0.2989442,-0.2817172,0.546615,0.55532485,-0.13335586,-0.68443507,0.072837286,785.31134,516.9597,805.05493,782.8938,782.8938,-0.253173828125,0.12652587890625,0.95709228515625,2.474822998046875,-3.6785888671875,1.487884521484375,1.0,1.0,4.0,1.0,1.0,100.0,event
13:15:34.489,0.31925055,0.6887135,-0.037375722,0.21273576,0.35522354,-0.25241026,-0.5146122,0.63538015,0.43096396,0.018393148,-0.2743624,0.48167738,0.61324227,0.2989442,-0.2817172,0.546615,0.55532485,-0.13335586,-0.68443507,0.072837286,790.14655,936.4103,806.26373,786.1172,656.3736,-0.253173828125,0.12652587890625,0.95709228515625,2.474822998046875,-3.6785888671875,1.487884521484375,1.0,1.0,4.0,1.0,1.0,100.0,event
13:15:34.489,0.31925055,0.6887135,-0.037375722,0.21273576,0.35522354,-0.25241026,-0.5146122,0.63538015,0.43096396,0.018393148,-0.2743624,0.48167738,0.61324227,0.2989442,-0.2817172,0.546615,0.55532485,-0.13335586,-0.68443507,0.072837286,814.3223,763.1502,808.2784,797.3993,765.9707,-0.253173828125,0.12652587890625,0.95709228515625,2.474822998046875,-3.6785888671875,1.487884521484375,1.0,1.0,4.0,1.0,1.0,100.0,event
13:15:34.490,0.31925055,0.6887135,-0.037375722,0.21273576,0.35522354,-0.25241026,-0.5146122,0.63538015,0.43096396,0.018393148,-0.2743624,0.48167738,0.61324227,0.2989442,-0.2817172,0.546615,0.55532485,-0.13335586,-0.68443507,0.072837286,801.4286,802.23444,813.91943,800.6227,772.01465,-0.253173828125,0.12652587890625,0.95709228515625,2.474822998046875,-3.6785888671875,1.487884521484375,1.0,1.0,4.0,1.0,1.0,100.0,event
13:15:34.574,0.31925055,0.6887135,-0.037375722,0.21273576,0.35522354,-0.25241026,-0.5146122,0.63538015,0.43096396,0.018393148,-0.2743624,0.48167738,0.61324227,0.2989442,-0.2817172,0.546615,0.55532485,-0.13335586,-0.68443507,0.072837286,785.31134,944.0659,812.71063,809.89014,737.3626,-0.253173828125,0.12652587890625,0.95709228515625,2.474822998046875,-3.6785888671875,1.487884521484375,1.0,1.0,4.0,1.0,1.0,100.0,event
13:15:34.576,0.31925055,0.6887135,-0.037375722,0.21273576,0.35522354,-0.25241026,-0.5146122,0.63538015,0.43096396,0.018393148,-0.2743624,0.48167738,0.61324227,0.2989442,-0.2817172,0.546615,0.55532485,-0.13335586,-0.68443507,0.072837286,795.78754,611.6484,812.71063,799.81683,836.4835,-0.253173828125,0.12652587890625,0.95709228515625,2.474822998046875,-3.6785888671875,1.487884521484375,1.0,1.0,4.0,1.0,1.0,100.0,event
13:15:34.576,0.31925055,0.6887135,-0.037375722,0.21273576,0.35522354,-0.25241026,-0.5146122,0.63538015,0.43096396,0.018393148,-0.2743624,0.48167738,0.61324227,0.2989442,-0.2817172,0.546615,0.55532485,-0.13335586,-0.68443507,0.072837286,786.52014,910.6227,808.2784,804.65204,725.2747,-0.253173828125,0.12652587890625,0.95709228515625,2.474822998046875,-3.6785888671875,1.487884521484375,1.0,1.0,4.0,1.0,1.0,100.0,event
13:15:34.577,0.31925055,0.6887135,-0.037375722,0.21273576,0.35522354,-0.25241026,-0.5146122,0.63538015,0.43096396,0.018393148,-0.2743624,0.48167738,0.61324227,0.2989442,-0.2817172,0.546615,0.55532485,-0.13335586,-0.68443507,0.072837286,803.0403,585.8608,814.7253,799.41394,931.978,-0.253173828125,0.12652587890625,0.95709228515625,2.474822998046875,-3.6785888671875,1.487884521484375,1.0,1.0,4.0,1.0,1.0,100.0,event
13:15:34.578,0.31925055,0.6887135,-0.037375722,0.21273576,0.35522354,-0.25241026,-0.5146122,0.63538015,0.43096396,0.018393148,-0.2743624,0.48167738,0.61324227,0.2989442,-0.2817172,0.546615,0.55532485,-0.13335586,-0.68443507,0.072837286,794.9817,780.4762,806.26373,795.78754,875.16486,-0.253173828125,0.12652587890625,0.95709228515625,2.474822998046875,-3.6785888671875,1.487884521484375,1.0,1.0,4.0,1.0,1.0,100.0,event
13:15:34.579,0.31925055,0.6887135,-0.037375722,0.21273576,0.35522354,-0.25241026,-0.5146122,0.63538015,0.43096396,0.018393148,-0.2743624,0.48167738,0.61324227,0.2989442,-0.2817172,0.546615,0.55532485,-0.13335586,-0.68443507,0.072837286,791.3553,689.81683,806.26373,801.8315,831.2454,-0.253173828125,0.12652587890625,0.95709228515625,2.474822998046875,-3.6785888671875,1.487884521484375,1.0,1.0,4.0,1.0,1.0,100.0,event
13:15:34.579,0.31925055,0.6887135,-0.037375722,0.21273576,0.35522354,-0.25241026,-0.5146122,0.63538015,0.43096396,0.018393148,-0.2743624,0.48167738,0.61324227,0.2989442,-0.2817172,0.546615,0.55532485,-0.13335586,-0.68443507,0.072837286,779.67035,211.53847,805.8608,794.17584,1019.011,-0.253173828125,0.12652587890625,0.95709228515625,2.474822998046875,-3.6785888671875,1.487884521484375,1.0,1.0,4.0,1.0,1.0,100.0,event
13:15:34.580,0.31925055,0.6887135,-0.037375722,0.21273576,0.35522354,-0.25241026,-0.5146122,0.63538015,0.43096396,0.018393148,-0.2743624,0.48167738,0.61324227,0.2989442,-0.2817172,0.546615,0.55532485,-0.13335586,-0.68443507,0.072837286,777.25275,31.02564,801.8315,798.60803,1118.9377,-0.253173828125,0.12652587890625,0.95709228515625,2.474822998046875,-3.6785888671875,1.487884521484375,1.0,1.0,4.0,1.0,1.0,100.0,event
13:15:34.581,0.31925055,0.6887135,-0.037375722,0.21273576,0.35522354,-0.25241026,-0.5146122,0.63538015,0.43096396,0.018393148,-0.2743624,0.48167738,0.61324227,0.2989442,-0.2817172,0.546615,0.55532485,-0.13335586,-0.68443507,0.072837286,796.5934,714.3956,803.8461,804.65204,803.8461,-0.253173828125,0.12652587890625,0.95709228515625,2.474822998046875,-3.6785888671875,1.487884521484375,1.0,1.0,4.0,1.0,1.0,100.0,event
13:15:34.582,0.31925055,0.6887135,-0.037375722,0.21273576,0.35522354,-0.25241026,-0.5146122,0.63538015,0.43096396,0.018393148,-0.2743624,0.48167738,0.61324227,0.2989442,-0.2817172,0.546615,0.55532485,-0.13335586,-0.68443507,0.072837286,810.696,957.76556,807.8755,800.2198,706.7399,-0.253173828125,0.12652587890625,0.95709228515625,2.474822998046875,-3.6785888671875,1.487884521484375,1.0,1.0,4.0,1.0,1.0,100.0,event
13:15:34.583,0.31925055,0.6887135,-0.037375722,0.21273576,0.35522354,-0.25241026,-0.5146122,0.63538015,0.43096396,0.018393148,-0.2743624,0.48167738,0.61324227,0.2989442,-0.2817172,0.546615,0.55532485,-0.13335586,-0.68443507,0.072837286,807.47253,733.3333,808.68134,801.4286,815.9341,-0.253173828125,0.12652587890625,0.95709228515625,2.474822998046875,-3.6785888671875,1.487884521484375,1.0,1.0,4.0,1.0,1.0,100.0,event
13:15:34.584,0.31925055,0.6887135,-0.061644204,0.21273576,0.35522354,-0.25241026,-0.49849287,0.63538015,0.43096396,0.018393148,-0.2616237,0.48167738,0.61324227,0.2989442,-0.30108437,0.546615,0.55532485,-0.13335586,-0.6833972,0.072837286,778.0586,865.4945,806.6667,790.9524,757.50916,-0.253173828125,0.12652587890625,0.95709228515625,2.474822998046875,-3.6785888671875,1.487884521484375,1.0,1.0,4.0,1.0,1.0,100.0,event
13:15:34.611,0.31925055,0.6887135,-0.061644204,0.21273576,0.35522354,-0.25241026,-0.49849287,0.63538015,0.43096396,0.018393148,-0.2616237,0.48167738,0.61324227,0.2989442,-0.30108437,0.546615,0.55532485,-0.13335586,-0.6833972,0.072837286,778.46155,965.42126,806.6667,792.1612,699.89014,-0.24407958984375,0.1246337890625,0.94842529296875,2.459869384765625,-2.7813720703125,0.31402587890625,1.0,1.0,4.0,1.0,1.0,100.0,event
13:15:34.612,0.31925055,0.6887135,-0.061644204,0.21273576,0.35522354,-0.25241026,-0.49849287,0.63538015,0.43096396,0.018393148,-0.2616237,0.48167738,0.61324227,0.2989442,-0.30108437,0.546615,0.55532485,-0.13335586,-0.6833972,0.072837286,799.41394,838.0952,808.2784,805.8608,717.2161,-0.24407958984375,0.1246337890625,0.94842529296875,2.459869384765625,-2.7813720703125,0.31402587890625,1.0,1.0,4.0,1.0,1.0,100.0,event
13:15:34.614,0.31925055,0.6887135,-0.061644204,0.21273576,0.35522354,-0.25241026,-0.49849287,0.63538015,0.43096396,0.018393148,-0.2616237,0.48167738,0.61324227,0.2989442,-0.30108437,0.546615,0.55532485,-0.13335586,-0.6833972,0.072837286,800.6227,864.68866,810.696,813.1135,750.2564,-0.24407958984375,0.1246337890625,0.94842529296875,2.459869384765625,-2.7813720703125,0.31402587890625,1.0,1.0,4.0,1.0,1.0,100.0,event
13:15:34.614,0.31925055,0.6887135,-0.061644204,0.21273576,0.35522354,-0.25241026,-0.49849287,0.63538015,0.43096396,0.018393148,-0.2616237,0.48167738,0.61324227,0.2989442,-0.30108437,0.546615,0.55532485,-0.13335586,-0.6833972,0.072837286,802.6374,768.3883,809.4872,811.9048,798.60803,-0.24407958984375,0.1246337890625,0.94842529296875,2.459869384765625,-2.7813720703125,0.31402587890625,1.0,1.0,4.0,1.0,1.0,100.0,event
13:15:34.615,0.31925055,0.6887135,-0.061644204,0.21273576,0.35522354,-0.25241026,-0.49849287,0.63538015,0.43096396,0.018393148,-0.2616237,0.48167738,0.61324227,0.2989442,-0.30108437,0.546615,0.55532485,-0.13335586,-0.6833972,0.072837286,803.44324,894.90845,807.47253,796.5934,684.57874,-0.24407958984375,0.1246337890625,0.94842529296875,2.459869384765625,-2.7813720703125,0.31402587890625,1.0,1.0,4.0,1.0,1.0,100.0,event
13:15:34.616,0.31925055,0.6887135,-0.061644204,0.21273576,0.35522354,-0.25241026,-0.49849287,0.63538015,0.43096396,0.018393148,-0.2616237,0.48167738,0.61324227,0.2989442,-0.30108437,0.546615,0.55532485,-0.13335586,-0.6833972,0.072837286,806.26373,561.685,805.4579,792.5641,823.9927,-0.24407958984375,0.1246337890625,0.94842529296875,2.459869384765625,-2.7813720703125,0.31402587890625,1.0,1.0,4.0,1.0,1.0,100.0,event
13:15:34.617,0.31925055,0.6887135,-0.061644204,0.21273576,0.35522354,-0.25241026,-0.49849287,0.63538015,0.43096396,0.018393148,-0.2616237,0.48167738,0.61324227,0.2989442,-0.30108437,0.546615,0.55532485,-0.13335586,-0.6833972,0.072837286,808.68134,228.46153,804.2491,810.696,1004.90845,-0.24407958984375,0.1246337890625,0.94842529296875,2.459869384765625,-2.7813720703125,0.31402587890625,1.0,1.0,4.0,1.0,1.0,100.0,event
13:15:34.618,0.31925055,0.6887135,-0.061644204,0.21273576,0.35522354,-0.25241026,-0.49849287,0.63538015,0.43096396,0.018393148,-0.2616237,0.48167738,0.61324227,0.2989442,-0.30108437,0.546615,0.55532485,-0.13335586,-0.6833972,0.072837286,814.7253,482.30768,802.6374,807.0696,895.7143,-0.24407958984375,0.1246337890625,0.94842529296875,2.459869384765625,-2.7813720703125,0.31402587890625,1.0,1.0,4.0,1.0,1.0,100.0,event
13:15:34.618,0.31925055,0.6887135,-0.061644204,0.21273576,0.35522354,-0.25241026,-0.49849287,0.63538015,0.43096396,0.018393148,-0.2616237,0.48167738,0.61324227,0.2989442,-0.30108437,0.546615,0.55532485,-0.13335586,-0.6833972,0.072837286,821.5751,804.65204,805.05493,806.6667,682.5641,-0.24407958984375,0.1246337890625,0.94842529296875,2.459869384765625,-2.7813720703125,0.31402587890625,1.0,1.0,4.0,1.0,1.0,100.0,event
13:15:34.619,0.31925055,0.6887135,-0.061644204,0.21273576,0.35522354,-0.25241026,-0.49849287,0.63538015,0.43096396,0.018393148,-0.2616237,0.48167738,0.61324227,0.2989442,-0.30108437,0.546615,0.55532485,-0.13335586,-0.6833972,0.072837286,805.05493,591.9048,803.8461,818.7546,709.5604,-0.24407958984375,0.1246337890625,0.94842529296875,2.459869384765625,-2.7813720703125,0.31402587890625,1.0,1.0,4.0,1.0,1.0,100.0,event
13:15:34.620,0.31925055,0.6887135,-0.061644204,0.21273576,0.35522354,-0.25241026,-0.49849287,0.63538015,0.43096396,0.018393148,-0.2616237,0.48167738,0.61324227,0.2989442,-0.30108437,0.546615,0.55532485,-0.13335586,-0.6833972,0.072837286,778.86444,200.65935,801.4286,804.2491,894.10254,-0.24407958984375,0.1246337890625,0.94842529296875,2.459869384765625,-2.7813720703125,0.31402587890625,1.0,1.0,4.0,1.0,1.0,100.0,event
13:15:34.620,0.31925055,0.6887135,-0.061644204,0.21273576,0.35522354,-0.25241026,-0.49849287,0.63538015,0.43096396,0.018393148,-0.2616237,0.48167738,0.61324227,0.2989442,-0.30108437,0.546615,0.55532485,-0.13335586,-0.6833972,0.072837286,793.36993,680.9524,804.65204,793.7729,757.50916,-0.24407958984375,0.1246337890625,0.94842529296875,2.459869384765625,-2.7813720703125,0.31402587890625,1.0,1.0,4.0,1.0,1.0,100.0,event
13:15:34.642,0.31925055,0.6887135,-0.061644204,0.21273576,0.35522354,-0.25241026,-0.49849287,0.63538015,0.43096396,0.018393148,-0.2616237,0.48167738,0.61324227,0.2989442,-0.30108437,0.546615,0.55532485,-0.13335586,-0.6833972,0.072837286,819.9634,981.13556,807.47253,811.0989,693.0403,-0.245849609375,0.1240234375,0.95086669921875,1.9439697265625,-2.429962158203125,0.43365478515625,1.0,1.0,4.0,1.0,1.0,100.0,event
13:15:34.643,0.31925055,0.6887135,-0.061644204,0.21273576,0.35522354,-0.25241026,-0.49849287,0.63538015,0.43096396,0.018393148,-0.2616237,0.48167738,0.61324227,0.2989442,-0.30108437,0.546615,0.55532485,-0.13335586,-0.6833972,0.072837286,807.0696,719.2308,808.68134,799.41394,795.78754,-0.245849609375,0.1240234375,0.95086669921875,1.9439697265625,-2.429962158203125,0.43365478515625,1.0,1.0,4.0,1.0,1.0,100.0,event
13:15:34.644,0.31925055,0.6887135,-0.061644204,0.21273576,0.35522354,-0.25241026,-0.49849287,0.63538015,0.43096396,0.018393148,-0.2616237,0.48167738,0.61324227,0.2989442,-0.30108437,0.546615,0.55532485,-0.13335586,-0.6833972,0.072837286,769.19415,729.707,809.89014,773.22345,777.6557,-0.245849609375,0.1240234375,0.95086669921875,1.9439697265625,-2.429962158203125,0.43365478515625,1.0,1.0,4.0,1.0,1.0,100.0,event
13:15:34.644,0.31925055,0.6887135,-0.061644204,0.21273576,0.35522354,-0.25241026,-0.49849287,0.63538015,0.43096396,0.018393148,-0.2616237,0.48167738,0.61324227,0.2989442,-0.30108437,0.546615,0.55532485,-0.13335586,-0.6833972,0.072837286,769.19415,885.2381,810.293,773.6264,706.337,-0.245849609375,0.1240234375,0.95086669921875,1.9439697265625,-2.429962158203125,0.43365478515625,1.0,1.0,4.0,1.0,1.0,100.0,event
13:15:34.645,0.31925055,0.6887135,-0.061644204,0.21273576,0.35522354,-0.25241026,-0.49849287,0.63538015,0.43096396,0.018393148,-0.2616237,0.48167738,0.61324227,0.2989442,-0.30108437,0.546615,0.55532485,-0.13335586,-0.6833972,0.072837286,766.77655,831.2454,810.696,773.6264,705.9341,-0.245849609375,0.1240234375,0.95086669921875,1.9439697265625,-2.429962158203125,0.43365478515625,1.0,1.0,4.0,1.0,1.0,100.0,event
13:15:34.646,0.31925055,0.6887135,-0.061644204,0.21273576,0.35522354,-0.25241026,-0.49849287,0.63538015,0.43096396,0.018393148,-0.2616237,0.48167738,0.61324227,0.2989442,-0.30108437,0.546615,0.55532485,-0.13335586,-0.6833972,0.072837286,754.68866,545.56775,804.2491,767.1795,919.89014,-0.245849609375,0.1240234375,0.95086669921875,1.9439697265625,-2.429962158203125,0.43365478515625,1.0,1.0,4.0,1.0,1.0,100.0,event
13:15:34.646,0.31925055,0.6887135,-0.061644204,0.21273576,0.35522354,-0.25241026,-0.49849287,0.63538015,0.43096396,0.018393148,-0.2616237,0.48167738,0.61324227,0.2989442,-0.30108437,0.546615,0.55532485,-0.13335586,-0.6833972,0.072837286,764.35895,433.15018,804.2491,761.53845,925.9341,-0.245849609375,0.1240234375,0.95086669921875,1.9439697265625,-2.429962158203125,0.43365478515625,1.0,1.0,4.0,1.0,1.0,100.0,event
13:15:34.647,0.31925055,0.6887135,-0.061644204,0.21273576,0.35522354,-0.25241026,-0.49849287,0.63538015,0.43096396,0.018393148,-0.2616237,0.48167738,0.61324227,0.2989442,-0.30108437,0.546615,0.55532485,-0.13335586,-0.6833972,0.072837286,754.68866,636.63007,806.26373,754.2857,794.17584,-0.245849609375,0.1240234375,0.95086669921875,1.9439697265625,-2.429962158203125,0.43365478515625,1.0,1.0,4.0,1.0,1.0,100.0,event
13:15:34.648,0.31925055,0.6887135,-0.061644204,0.21273576,0.35522354,-0.25241026,-0.49849287,0.63538015,0.43096396,0.018393148,-0.2616237,0.48167738,0.61324227,0.2989442,-0.30108437,0.546615,0.55532485,-0.13335586,-0.6833972,0.072837286,733.3333,832.8571,807.47253,745.42126,759.92676,-0.245849609375,0.1240234375,0.95086669921875,1.9439697265625,-2.429962158203125,0.43365478515625,1.0,1.0,4.0,1.0,1.0,100.0,event
13:15:34.648,0.31925055,0.6887135,-0.061644204,0.21273576,0.35522354,-0.25241026,-0.49849287,0.63538015,0.43096396,0.018393148,-0.2616237,0.48167738,0.61324227,0.2989442,-0.30108437,0.546615,0.55532485,-0.13335586,-0.6833972,0.072837286,726.8865,253.0403,811.50183,745.0183,973.0769,-0.245849609375,0.1240234375,0.95086669921875,1.9439697265625,-2.429962158203125,0.43365478515625,1.0,1.0,4.0,1.0,1.0,100.0,event
13:15:34.649,0.31925055,0.6887135,-0.061644204,0.21273576,0.35522354,-0.25241026,-0.49849287,0.63538015,0.43096396,0.018393148,-0.2616237,0.48167738,0.61324227,0.2989442,-0.30108437,0.546615,0.55532485,-0.13335586,-0.6833972,0.072837286,754.68866,215.16484,809.4872,753.8828,1125.3846,-0.245849609375,0.1240234375,0.95086669921875,1.9439697265625,-2.429962158203125,0.43365478515625,1.0,1.0,4.0,1.0,1.0,100.0,event
13:15:34.650,0.31925055,0.6887135,-0.061644204,0.21273576,0.35522354,-0.25241026,-0.49849287,0.63538015,0.43096396,0.018393148,-0.2616237,0.48167738,0.61324227,0.2989442,-0.30108437,0.546615,0.55532485,-0.13335586,-0.6833972,0.072837286,768.3883,921.9048,805.4579,754.68866,825.2015,-0.245849609375,0.1240234375,0.95086669921875,1.9439697265625,-2.429962158203125,0.43365478515625,1.0,1.0,4.0,1.0,1.0,100.0,event
13:15:34.674,0.31925055,0.6887135,-0.061644204,0.21273576,0.35522354,-0.25241026,-0.49849287,0.63538015,0.43096396,0.018393148,-0.2616237,0.48167738,0.61324227,0.2989442,-0.30108437,0.546615,0.55532485,-0.13335586,-0.6833972,0.072837286,738.97437,829.6337,805.8608,751.06226,693.8461,-0.24664306640625,0.12237548828125,0.95257568359375,2.729034423828125,-2.325286865234375,-0.022430419921875,1.0,1.0,4.0,1.0,1.0,100.0,event
13:15:34.676,0.31925055,0.6887135,-0.098554485,0.21273576,0.35522354,-0.25241026,-0.4753126,0.63538015,0.43096396,0.018393148,-0.25596392,0.48167738,0.61324227,0.2989442,-0.31498396,0.546615,0.55532485,-0.13335586,-0.6779654,0.072837286,733.3333,560.07324,808.2784,752.674,765.16486,-0.24664306640625,0.12237548828125,0.95257568359375,2.729034423828125,-2.325286865234375,-0.022430419921875,1.0,1.0,4.0,1.0,1.0,100.0,event
13:15:34.679,0.31925055,0.6887135,-0.098554485,0.21273576,0.35522354,-0.25241026,-0.4753126,0.63538015,0.43096396,0.018393148,-0.25596392,0.48167738,0.61324227,0.2989442,-0.31498396,0.546615,0.55532485,-0.13335586,-0.6779654,0.072837286,759.12085,740.18317,808.2784,763.1502,692.6374,-0.24664306640625,0.12237548828125,0.95257568359375,2.729034423828125,-2.325286865234375,-0.022430419921875,1.0,1.0,4.0,1.0,1.0,100.0,event
13:15:34.680,0.31925055,0.6887135,-0.098554485,0.21273576,0.35522354,-0.25241026,-0.4753126,0.63538015,0.43096396,0.018393148,-0.25596392,0.48167738,0.61324227,0.2989442,-0.31498396,0.546615,0.55532485,-0.13335586,-0.6779654,0.072837286,777.25275,964.21246,808.68134,765.56775,696.6667,-0.24664306640625,0.12237548828125,0.95257568359375,2.729034423828125,-2.325286865234375,-0.022430419921875,1.0,1.0,4.0,1.0,1.0,100.0,event
13:15:34.681,0.31925055,0.6887135,-0.098554485,0.21273576,0.35522354,-0.25241026,-0.4753126,0.63538015,0.43096396,0.018393148,-0.25596392,0.48167738,0.61324227,0.2989442,-0.31498396,0.546615,0.55532485,-0.13335586,-0.6779654,0.072837286,778.46155,878.3883,811.9048,765.16486,797.8022,-0.24664306640625,0.12237548828125,0.95257568359375,2.729034423828125,-2.325286865234375,-0.022430419921875,1.0,1.0,4.0,1.0,1.0,100.0,event
13:15:34.681,0.31925055,0.6887135,-0.098554485,0.21273576,0.35522354,-0.25241026,-0.4753126,0.63538015,0.43096396,0.018393148,-0.25596392,0.48167738,0.61324227,0.2989442,-0.31498396,0.546615,0.55532485,-0.13335586,-0.6779654,0.072837286,765.56775,529.45056,808.2784,779.2674,883.22345,-0.24664306640625,0.12237548828125,0.95257568359375,2.729034423828125,-2.325286865234375,-0.022430419921875,1.0,1.0,4.0,1.0,1.0,100.0,event
13:15:34.682,0.31925055,0.6887135,-0.098554485,0.21273576,0.35522354,-0.25241026,-0.4753126,0.63538015,0.43096396,0.018393148,-0.25596392,0.48167738,0.61324227,0.2989442,-0.31498396,0.546615,0.55532485,-0.13335586,-0.6779654,0.072837286,753.0769,448.46155,802.6374,774.43225,835.2747,-0.24664306640625,0.12237548828125,0.95257568359375,2.729034423828125,-2.325286865234375,-0.022430419921875,1.0,1.0,4.0,1.0,1.0,100.0,event
13:15:34.682,0.31925055,0.6887135,-0.098554485,0.21273576,0.35522354,-0.25241026,-0.4753126,0.63538015,0.43096396,0.018393148,-0.25596392,0.48167738,0.61324227,0.2989442,-0.31498396,0.546615,0.55532485,-0.13335586,-0.6779654,0.072837286,760.32965,778.86444,803.0403,774.83514,738.1685,-0.24664306640625,0.12237548828125,0.95257568359375,2.729034423828125,-2.325286865234375,-0.022430419921875,1.0,1.0,4.0,1.0,1.0,100.0,event
13:15:34.683,0.31925055,0.6887135,-0.098554485,0.21273576,0.35522354,-0.25241026,-0.4753126,0.63538015,0.43096396,0.018393148,-0.25596392,0.48167738,0.61324227,0.2989442,-0.31498396,0.546615,0.55532485,-0.13335586,-0.6779654,0.072837286,783.69965,711.5751,806.26373,787.72894,790.9524,-0.24664306640625,0.12237548828125,0.95257568359375,2.729034423828125,-2.325286865234375,-0.022430419921875,1.0,1.0,4.0,1.0,1.0,100.0,event
13:15:34.684,0.31925055,0.6887135,-0.098554485,0.21273576,0.35522354,-0.25241026,-0.4753126,0.63538015,0.43096396,0.018393148,-0.25596392,0.48167738,0.61324227,0.2989442,-0.31498396,0.546615,0.55532485,-0.13335586,-0.6779654,0.072837286,788.5348,561.685,806.26373,787.72894,813.1135,-0.24664306640625,0.12237548828125,0.95257568359375,2.729034423828125,-2.325286865234375,-0.022430419921875,1.0,1.0,4.0,1.0,1.0,100.0,event
13:15:34.684,0.31925055,0.6887135,-0.098554485,0.21273576,0.35522354,-0.25241026,-0.4753126,0.63538015,0.43096396,0.018393148,-0.25596392,0.48167738,0.61324227,0.2989442,-0.31498396,0.546615,0.55532485,-0.13335586,-0.6779654,0.072837286,787.326,162.38095,807.8755,788.1319,994.0293,-0.24664306640625,0.12237548828125,0.95257568359375,2.729034423828125,-2.325286865234375,-0.022430419921875,1.0,1.0,4.0,1.0,1.0,100.0,event
13:15:34.685,0.31925055,0.6887135,-0.098554485,0.21273576,0.35522354,-0.25241026,-0.4753126,0.63538015,0.43096396,0.018393148,-0.25596392,0.48167738,0.61324227,0.2989442,-0.31498396,0.546615,0.55532485,-0.13335586,-0.6779654,0.072837286,780.07324,886.04395,808.68134,776.8498,619.707,-0.24664306640625,0.12237548828125,0.95257568359375,2.729034423828125,-2.325286865234375,-0.022430419921875,1.0,1.0,4.0,1.0,1.0,100.0,event
13:15:34.745,0.31925055,0.6887135,-0.098554485,0.21273576,0.35522354,-0.25241026,-0.4753126,0.63538015,0.43096396,0.018393148,-0.25596392,0.48167738,0.61324227,0.2989442,-0.31498396,0.546615,0.55532485,-0.13335586,-0.6779654,0.072837286,782.0879,591.50183,810.696,777.6557,761.9414,-0.2498779296875,0.12237548828125,0.94415283203125,1.966400146484375,-3.409423828125,0.515899658203125,1.0,1.0,4.0,1.0,1.0,100.0,event
13:15:34.746,0.31925055,0.6887135,-0.098554485,0.21273576,0.35522354,-0.25241026,-0.4753126,0.63538015,0.43096396,0.018393148,-0.25596392,0.48167738,0.61324227,0.2989442,-0.31498396,0.546615,0.55532485,-0.13335586,-0.6779654,0.072837286,788.5348,538.315,806.26373,791.75824,847.76556,-0.2498779296875,0.12237548828125,0.94415283203125,1.966400146484375,-3.409423828125,0.515899658203125,1.0,1.0,4.0,1.0,1.0,100.0,event
13:15:34.748,0.31925055,0.6887135,-0.098554485,0.21273576,0.35522354,-0.25241026,-0.4753126,0.63538015,0.43096396,0.018393148,-0.25596392,0.48167738,0.61324227,0.2989442,-0.31498396,0.546615,0.55532485,-0.13335586,-0.6779654,0.072837286,795.78754,874.7619,806.26373,799.011,772.4176,-0.2498779296875,0.12237548828125,0.94415283203125,1.966400146484375,-3.409423828125,0.515899658203125,1.0,1.0,4.0,1.0,1.0,100.0,event
13:15:34.749,0.31925055,0.6887135,-0.098554485,0.21273576,0.35522354,-0.25241026,-0.4753126,0.63538015,0.43096396,0.018393148,-0.25596392,0.48167738,0.61324227,0.2989442,-0.31498396,0.546615,0.55532485,-0.13335586,-0.6779654,0.072837286,794.57874,952.1245,810.696,792.96704,727.6923,-0.2498779296875,0.12237548828125,0.94415283203125,1.966400146484375,-3.409423828125,0.515899658203125,1.0,1.0,4.0,1.0,1.0,100.0,event
13:15:34.750,0.31925055,0.6887135,-0.098554485,0.21273576,0.35522354,-0.25241026,-0.4753126,0.63538015,0.43096396,0.018393148,-0.25596392,0.48167738,0.61324227,0.2989442,-0.31498396,0.546615,0.55532485,-0.13335586,-0.6779654,0.072837286,788.1319,480.69598,810.293,794.17584,848.1685,-0.2498779296875,0.12237548828125,0.94415283203125,1.966400146484375,-3.409423828125,0.515899658203125,1.0,1.0,4.0,1.0,1.0,100.0,event
13:15:34.751,0.31925055,0.6887135,-0.098554485,0.21273576,0.35522354,-0.25241026,-0.4753126,0.63538015,0.43096396,0.018393148,-0.25596392,0.48167738,0.61324227,0.2989442,-0.31498396,0.546615,0.55532485,-0.13335586,-0.6779654,0.072837286,789.34064,290.51282,805.8608,792.1612,875.9707,-0.2498779296875,0.12237548828125,0.94415283203125,1.966400146484375,-3.409423828125,0.515899658203125,1.0,1.0,4.0,1.0,1.0,100.0,event
13:15:34.752,0.31925055,0.6887135,-0.098554485,0.21273576,0.35522354,-0.25241026,-0.4753126,0.63538015,0.43096396,0.018393148,-0.25596392,0.48167738,0.61324227,0.2989442,-0.31498396,0.546615,0.55532485,-0.13335586,-0.6779654,0.072837286,801.4286,535.09155,807.0696,799.011,772.4176,-0.2498779296875,0.12237548828125,0.94415283203125,1.966400146484375,-3.409423828125,0.515899658203125,1.0,1.0,4.0,1.0,1.0,100.0,event
13:15:34.753,0.31925055,0.6887135,-0.098554485,0.21273576,0.35522354,-0.25241026,-0.4753126,0.63538015,0.43096396,0.018393148,-0.25596392,0.48167738,0.61324227,0.2989442,-0.31498396,0.546615,0.55532485,-0.13335586,-0.6779654,0.072837286,805.8608,713.9927,813.5165,812.71063,711.1722,-0.2498779296875,0.12237548828125,0.94415283203125,1.966400146484375,-3.409423828125,0.515899658203125,1.0,1.0,4.0,1.0,1.0,100.0,event
13:15:34.754,0.31925055,0.6887135,-0.098554485,0.21273576,0.35522354,-0.25241026,-0.4753126,0.63538015,0.43096396,0.018393148,-0.25596392,0.48167738,0.61324227,0.2989442,-0.31498396,0.546615,0.55532485,-0.13335586,-0.6779654,0.072837286,799.81683,308.24176,813.91943,811.9048,898.1319,-0.2498779296875,0.12237548828125,0.94415283203125,1.966400146484375,-3.409423828125,0.515899658203125,1.0,1.0,4.0,1.0,1.0,100.0,event
13:15:34.755,0.31925055,0.6887135,-0.098554485,0.21273576,0.35522354,-0.25241026,-0.4753126,0.63538015,0.43096396,0.018393148,-0.25596392,0.48167738,0.61324227,0.2989442,-0.31498396,0.546615,0.55532485,-0.13335586,-0.6779654,0.072837286,796.99634,246.5934,810.293,804.65204,880.40295,-0.2498779296875,0.12237548828125,0.94415283203125,1.966400146484375,-3.409423828125,0.515899658203125,1.0,1.0,4.0,1.0,1.0,100.0,event
13:15:34.758,0.31925055,0.6887135,-0.098554485,0.21273576,0.35522354,-0.25241026,-0.4753126,0.63538015,0.43096396,0.018393148,-0.25596392,0.48167738,0.61324227,0.2989442,-0.31498396,0.546615,0.55532485,-0.13335586,-0.6779654,0.072837286,795.78754,778.0586,809.4872,798.60803,645.09155,-0.2498779296875,0.12237548828125,0.94415283203125,1.966400146484375,-3.409423828125,0.515899658203125,1.0,1.0,4.0,1.0,1.0,100.0,event
13:15:34.759,0.31925055,0.6887135,-0.098554485,0.21273576,0.35522354,-0.25241026,-0.4753126,0.63538015,0.43096396,0.018393148,-0.25596392,0.48167738,0.61324227,0.2989442,-0.31498396,0.546615,0.55532485,-0.13335586,-0.6779654,0.072837286,818.7546,861.8681,811.9048,800.6227,730.10986,-0.2498779296875,0.12237548828125,0.94415283203125,1.966400146484375,-3.409423828125,0.515899658203125,1.0,1.0,4.0,1.0,1.0,100.0,event
13:15:34.785,0.31925055,0.6887135,-0.098554485,0.21273576,0.35522354,-0.25241026,-0.4753126,0.63538015,0.43096396,0.018393148,-0.25596392,0.48167738,0.61324227,0.2989442,-0.31498396,0.546615,0.55532485,-0.13335586,-0.6779654,0.072837286,830.0366,786.52014,811.50183,802.23444,855.42126,-0.2498779296875,0.12237548828125,0.94415283203125,1.966400146484375,-3.409423828125,0.515899658203125,1.0,1.0,4.0,1.0,1.0,100.0,event
13:15:34.786,0.31925055,0.6887135,-0.098554485,0.21273576,0.35522354,-0.25241026,-0.4753126,0.63538015,0.43096396,0.018393148,-0.25596392,0.48167738,0.61324227,0.2989442,-0.31498396,0.546615,0.55532485,-0.13335586,-0.6779654,0.072837286,806.6667,904.17584,808.68134,799.011,819.15753,-0.2498779296875,0.12237548828125,0.94415283203125,1.966400146484375,-3.409423828125,0.515899658203125,1.0,1.0,4.0,1.0,1.0,100.0,event
13:15:34.787,0.31925055,0.6887135,-0.098554485,0.21273576,0.35522354,-0.25241026,-0.4753126,0.63538015,0.43096396,0.018393148,-0.25596392,0.48167738,0.61324227,0.2989442,-0.31498396,0.546615,0.55532485,-0.13335586,-0.6779654,0.072837286,805.4579,924.7253,813.1135,795.38464,717.2161,-0.2498779296875,0.12237548828125,0.94415283203125,1.966400146484375,-3.409423828125,0.515899658203125,1.0,1.0,4.0,1.0,1.0,100.0,event
13:15:34.788,0.31925055,0.6887135,-0.14439145,0.21273576,0.35522354,-0.25241026,-0.4474632,0.63538015,0.43096396,0.018393148,-0.25071096,0.48167738,0.61324227,0.2989442,-0.32324785,0.546615,0.55532485,-0.13335586,-0.67020357,0.072837286,806.26373,691.02563,814.7253,797.3993,698.68134,-0.2498779296875,0.12237548828125,0.94415283203125,1.966400146484375,-3.409423828125,0.515899658203125,1.0,1.0,4.0,1.0,1.0,100.0,event
13:15:34.790,0.31925055,0.6887135,-0.14439145,0.21273576,0.35522354,-0.25241026,-0.4474632,0.63538015,0.43096396,0.018393148,-0.25071096,0.48167738,0.61324227,0.2989442,-0.32324785,0.546615,0.55532485,-0.13335586,-0.67020357,0.072837286,824.3956,505.67764,813.1135,796.5934,817.1429,-0.2498779296875,0.12237548828125,0.94415283203125,1.966400146484375,-3.409423828125,0.515899658203125,1.0,1.0,4.0,1.0,1.0,100.0,event
13:15:34.791,0.31925055,0.6887135,-0.14439145,0.21273576,0.35522354,-0.25241026,-0.4474632,0.63538015,0.43096396,0.018393148,-0.25071096,0.48167738,0.61324227,0.2989442,-0.32324785,0.546615,0.55532485,-0.13335586,-0.67020357,0.072837286,830.84247,594.3223,811.50183,794.57874,857.8388,-0.2498779296875,0.12237548828125,0.94415283203125,1.966400146484375,-3.409423828125,0.515899658203125,1.0,1.0,4.0,1.0,1.0,100.0,event
13:15:34.792,0.31925055,0.6887135,-0.14439145,0.21273576,0.35522354,-0.25241026,-0.4474632,0.63538015,0.43096396,0.018393148,-0.25071096,0.48167738,0.61324227,0.2989442,-0.32324785,0.546615,0.55532485,-0.13335586,-0.67020357,0.072837286,818.3516,456.52014,803.0403,787.72894,781.28204,-0.2498779296875,0.12237548828125,0.94415283203125,1.966400146484375,-3.409423828125,0.515899658203125,1.0,1.0,4.0,1.0,1.0,100.0,event
13:15:34.792,0.31925055,0.6887135,-0.14439145,0.21273576,0.35522354,-0.25241026,-0.4474632,0.63538015,0.43096396,0.018393148,-0.25071096,0.48167738,0.61324227,0.2989442,-0.32324785,0.546615,0.55532485,-0.13335586,-0.67020357,0.072837286,813.91943,614.0659,807.0696,791.3553,855.42126,-0.2498779296875,0.12237548828125,0.94415283203125,1.966400146484375,-3.409423828125,0.515899658203125,1.0,1.0,4.0,1.0,1.0,100.0,event
13:15:34.793,0.31925055,0.6887135,-0.14439145,0.21273576,0.35522354,-0.25241026,-0.4474632,0.63538015,0.43096396,0.018393148,-0.25071096,0.48167738,0.61324227,0.2989442,-0.32324785,0.546615,0.55532485,-0.13335586,-0.67020357,0.072837286,793.7729,442.82053,803.44324,782.49084,725.6777,-0.2498779296875,0.12237548828125,0.94415283203125,1.966400146484375,-3.409423828125,0.515899658203125,1.0,1.0,4.0,1.0,1.0,100.0,event
13:15:34.793,0.31925055,0.6887135,-0.14439145,0.21273576,0.35522354,-0.25241026,-0.4474632,0.63538015,0.43096396,0.018393148,-0.25071096,0.48167738,0.61324227,0.2989442,-0.32324785,0.546615,0.55532485,-0.13335586,-0.67020357,0.072837286,797.8022,786.1172,805.4579,789.7436,758.71796,-0.2498779296875,0.12237548828125,0.94415283203125,1.966400146484375,-3.409423828125,0.515899658203125,1.0,1.0,4.0,1.0,1.0,100.0,event
13:15:34.794,0.31925055,0.6887135,-0.14439145,0.21273576,0.35522354,-0.25241026,-0.4474632,0.63538015,0.43096396,0.018393148,-0.25071096,0.48167738,0.61324227,0.2989442,-0.32324785,0.546615,0.55532485,-0.13335586,-0.67020357,0.072837286,817.5458,981.53845,803.44324,795.38464,701.0989,-0.2498779296875,0.12237548828125,0.94415283203125,1.966400146484375,-3.409423828125,0.515899658203125,1.0,1.0,4.0,1.0,1.0,100.0,event
