TimeStamp,Delta_TP9,Delta_AF7,Delta_AF8,Delta_TP10,Theta_TP9,Theta_AF7,Theta_AF8,Theta_TP10,Alpha_TP9,Alpha_AF7,Alpha_AF8,Alpha_TP10,Beta_TP9,Beta_AF7,Beta_AF8,Beta_TP10,Gamma_TP9,Gamma_AF7,Gamma_AF8,Gamma_TP10,RAW_TP9,RAW_AF7,RAW_AF8,RAW_TP10,AUX_RIGHT,Accelerometer_X,Accelerometer_Y,Accelerometer_Z,Gyro_X,Gyro_Y,Gyro_Z,HeadBandOn,HSI_TP9,HSI_AF7,HSI_AF8,HSI_TP10,Battery,Elements
13:40:54.416,0.0,0.0,0.0,0.0,0.0,0.0,0.0,0.0,0.0,0.0,0.0,0.0,0.0,0.0,0.0,0.0,0.0,0.0,0.0,0.0,800.2198,791.75824,793.7729,790.54944,695.4579,-0.01708984375,0.0252685546875,0.98663330078125,1.727142333984375,-3.6785888671875,0.01495361328125,1.0,2.0,1.0,1.0,2.0,100.0,event
13:40:54.417,0.0,0.0,0.0,0.0,0.0,0.0,0.0,0.0,0.0,0.0,0.0,0.0,0.0,0.0,0.0,0.0,0.0,0.0,0.0,0.0,813.5165,775.64105,805.8608,799.41394,666.8498,-0.01708984375,0.0252685546875,0.98663330078125,1.727142333984375,-3.6785888671875,0.01495361328125,1.0,2.0,1.0,1.0,2.0,100.0,event
13:40:54.418,0.0,0.0,0.0,0.0,0.0,0.0,0.0,0.0,0.0,0.0,0.0,0.0,0.0,0.0,0.0,0.0,0.0,0.0,0.0,0.0,826.8132,767.5824,815.12823,816.7399,764.35895,-0.01708984375,0.0252685546875,0.98663330078125,1.727142333984375,-3.6785888671875,0.01495361328125,1.0,2.0,1.0,1.0,2.0,100.0,event
13:40:54.419,0.0,0.0,0.0,0.0,0.0,0.0,0.0,0.0,0.0,0.0,0.0,0.0,0.0,0.0,0.0,0.0,0.0,0.0,0.0,0.0,807.47253,771.6117,818.7546,806.26373,802.23444,-0.01708984375,0.0252685546875,0.98663330078125,1.727142333984375,-3.6785888671875,0.01495361328125,1.0,2.0,1.0,1.0,2.0,100.0,event
13:40:54.422,0.0,0.0,0.0,0.0,0.0,0.0,0.0,0.0,0.0,0.0,0.0,0.0,0.0,0.0,0.0,0.0,0.0,0.0,0.0,0.0,799.81683,767.5824,827.619,794.9817,748.24176,-0.01708984375,0.0252685546875,0.98663330078125,1.727142333984375,-3.6785888671875,0.01495361328125,1.0,2.0,1.0,1.0,2.0,100.0,event
13:40:54.423,0.0,0.0,0.0,0.0,0.0,0.0,0.0,0.0,0.0,0.0,0.0,0.0,0.0,0.0,0.0,0.0,0.0,0.0,0.0,0.0,824.7985,758.315,836.8865,796.99634,761.13556,-0.01708984375,0.0252685546875,0.98663330078125,1.727142333984375,-3.6785888671875,0.01495361328125,1.0,2.0,1.0,1.0,2.0,100.0,event
13:40:54.423,0.0,0.0,0.0,0.0,0.0,0.0,0.0,0.0,0.0,0.0,0.0,0.0,0.0,0.0,0.0,0.0,0.0,0.0,0.0,0.0,831.2454,755.89746,798.60803,809.89014,882.01465,-0.01708984375,0.0252685546875,0.98663330078125,1.727142333984375,-3.6785888671875,0.01495361328125,1.0,2.0,1.0,1.0,2.0,100.0,event
13:40:54.424,0.0,0.0,0.0,0.0,0.0,0.0,0.0,0.0,0.0,0.0,0.0,0.0,0.0,0.0,0.0,0.0,0.0,0.0,0.0,0.0,821.5751,754.2857,751.8681,826.4103,1052.8572,-0.01708984375,0.0252685546875,0.98663330078125,1.727142333984375,-3.6785888671875,0.01495361328125,1.0,2.0,1.0,1.0,2.0,100.0,event
13:40:54.425,0.0,0.0,0.0,0.0,0.0,0.0,0.0,0.0,0.0,0.0,0.0,0.0,0.0,0.0,0.0,0.0,0.0,0.0,0.0,0.0,807.8755,768.7912,764.35895,814.3223,826.0073,-0.01708984375,0.0252685546875,0.98663330078125,1.727142333984375,-3.6785888671875,0.01495361328125,1.0,2.0,1.0,1.0,2.0,100.0,event
13:40:54.425,0.0,0.0,0.0,0.0,0.0,0.0,0.0,0.0,0.0,0.0,0.0,0.0,0.0,0.0,0.0,0.0,0.0,0.0,0.0,0.0,791.75824,775.64105,821.1722,792.96704,651.9414,-0.01708984375,0.0252685546875,0.98663330078125,1.727142333984375,-3.6785888671875,0.01495361328125,1.0,2.0,1.0,1.0,2.0,100.0,event
13:40:54.426,0.0,0.0,0.0,0.0,0.0,0.0,0.0,0.0,0.0,0.0,0.0,0.0,0.0,0.0,0.0,0.0,0.0,0.0,0.0,0.0,782.49084,750.2564,826.0073,776.4469,749.0476,-0.01708984375,0.0252685546875,0.98663330078125,1.727142333984375,-3.6785888671875,0.01495361328125,1.0,2.0,1.0,1.0,2.0,100.0,event
13:40:54.426,0.0,0.0,0.0,0.0,0.0,0.0,0.0,0.0,0.0,0.0,0.0,0.0,0.0,0.0,0.0,0.0,0.0,0.0,0.0,0.0,796.1905,745.42126,815.12823,791.75824,758.71796,-0.01708984375,0.0252685546875,0.98663330078125,1.727142333984375,-3.6785888671875,0.01495361328125,1.0,2.0,1.0,1.0,2.0,100.0,event
13:40:54.489,0.0,0.0,0.0,0.0,0.0,0.0,0.0,0.0,0.0,0.0,0.0,0.0,0.0,0.0,0.0,0.0,0.0,0.0,0.0,0.0,819.9634,757.9121,830.4396,826.8132,707.5458,-0.01947021484375,0.02679443359375,0.9918212890625,2.549591064453125,-3.850555419921875,0.800018310546875,1.0,2.0,1.0,1.0,2.0,100.0,event
13:40:54.490,0.0,0.0,0.0,0.0,0.0,0.0,0.0,0.0,0.0,0.0,0.0,0.0,0.0,0.0,0.0,0.0,0.0,0.0,0.0,0.0,793.7729,750.65936,821.1722,807.8755,756.7033,-0.01947021484375,0.02679443359375,0.9918212890625,2.549591064453125,-3.850555419921875,0.800018310546875,1.0,2.0,1.0,1.0,2.0,100.0,event
13:40:54.491,0.0,0.0,0.0,0.0,0.0,0.0,0.0,0.0,0.0,0.0,0.0,0.0,0.0,0.0,0.0,0.0,0.0,0.0,0.0,0.0,773.22345,733.73627,796.99634,787.72894,770.0,-0.01947021484375,0.02679443359375,0.9918212890625,2.549591064453125,-3.850555419921875,0.800018310546875,1.0,2.0,1.0,1.0,2.0,100.0,event
13:40:54.492,0.0,0.0,0.0,0.0,0.0,0.0,0.0,0.0,0.0,0.0,0.0,0.0,0.0,0.0,0.0,0.0,0.0,0.0,0.0,0.0,795.78754,745.82416,779.2674,788.1319,684.9817,-0.01947021484375,0.02679443359375,0.9918212890625,2.549591064453125,-3.850555419921875,0.800018310546875,1.0,2.0,1.0,1.0,2.0,100.0,event
13:40:54.493,0.0,0.0,0.0,0.0,0.0,0.0,0.0,0.0,0.0,0.0,0.0,0.0,0.0,0.0,0.0,0.0,0.0,0.0,0.0,0.0,817.9487,751.4652,777.6557,806.6667,752.674,-0.01947021484375,0.02679443359375,0.9918212890625,2.549591064453125,-3.850555419921875,0.800018310546875,1.0,2.0,1.0,1.0,2.0,100.0,event
13:40:54.493,0.0,0.0,0.0,0.0,0.0,0.0,0.0,0.0,0.0,0.0,0.0,0.0,0.0,0.0,0.0,0.0,0.0,0.0,0.0,0.0,814.3223,744.61536,780.07324,833.663,888.86444,-0.01947021484375,0.02679443359375,0.9918212890625,2.549591064453125,-3.850555419921875,0.800018310546875,1.0,2.0,1.0,1.0,2.0,100.0,event
13:40:54.494,0.0,0.0,0.0,0.0,0.0,0.0,0.0,0.0,0.0,0.0,0.0,0.0,0.0,0.0,0.0,0.0,0.0,0.0,0.0,0.0,787.72894,752.27106,780.4762,816.7399,1022.6374,-0.01947021484375,0.02679443359375,0.9918212890625,2.549591064453125,-3.850555419921875,0.800018310546875,1.0,2.0,1.0,1.0,2.0,100.0,event
13:40:54.495,0.0,0.0,0.0,0.0,0.0,0.0,0.0,0.0,0.0,0.0,0.0,0.0,0.0,0.0,0.0,0.0,0.0,0.0,0.0,0.0,784.10254,770.80585,784.90845,792.5641,994.83514,-0.01947021484375,0.02679443359375,0.9918212890625,2.549591064453125,-3.850555419921875,0.800018310546875,1.0,2.0,1.0,1.0,2.0,100.0,event
13:40:54.495,0.0,0.0,0.0,0.0,0.0,0.0,0.0,0.0,0.0,0.0,0.0,0.0,0.0,0.0,0.0,0.0,0.0,0.0,0.0,0.0,797.8022,761.9414,817.9487,789.7436,740.18317,-0.01947021484375,0.02679443359375,0.9918212890625,2.549591064453125,-3.850555419921875,0.800018310546875,1.0,2.0,1.0,1.0,2.0,100.0,event
13:40:54.496,0.0,0.0,0.0,0.0,0.0,0.0,0.0,0.0,0.0,0.0,0.0,0.0,0.0,0.0,0.0,0.0,0.0,0.0,0.0,0.0,813.5165,745.82416,824.7985,803.44324,682.5641,-0.01947021484375,0.02679443359375,0.9918212890625,2.549591064453125,-3.850555419921875,0.800018310546875,1.0,2.0,1.0,1.0,2.0,100.0,event
13:40:54.496,0.0,0.0,0.0,0.0,0.0,0.0,0.0,0.0,0.0,0.0,0.0,0.0,0.0,0.0,0.0,0.0,0.0,0.0,0.0,0.0,824.7985,756.7033,814.7253,823.1868,774.0293,-0.01947021484375,0.02679443359375,0.9918212890625,2.549591064453125,-3.850555419921875,0.800018310546875,1.0,2.0,1.0,1.0,2.0,100.0,event
13:40:54.497,0.0,0.0,0.0,0.0,0.0,0.0,0.0,0.0,0.0,0.0,0.0,0.0,0.0,0.0,0.0,0.0,0.0,0.0,0.0,0.0,813.91943,768.7912,830.0366,817.5458,766.77655,-0.01947021484375,0.02679443359375,0.9918212890625,2.549591064453125,-3.850555419921875,0.800018310546875,1.0,2.0,1.0,1.0,2.0,100.0,event
13:40:54.518,0.0,0.0,0.0,0.0,0.0,0.0,0.0,0.0,0.0,0.0,0.0,0.0,0.0,0.0,0.0,0.0,0.0,0.0,0.0,0.0,793.36993,763.95605,821.978,792.96704,711.978,-0.0224609375,0.02130126953125,0.98602294921875,2.056121826171875,-3.372039794921875,0.13458251953125,1.0,2.0,1.0,1.0,2.0,100.0,event
13:40:54.519,0.0,0.0,0.0,0.0,0.0,0.0,0.0,0.0,0.0,0.0,0.0,0.0,0.0,0.0,0.0,0.0,0.0,0.0,0.0,0.0,789.7436,755.4945,776.4469,785.7143,769.19415,-0.0224609375,0.02130126953125,0.98602294921875,2.056121826171875,-3.372039794921875,0.13458251953125,1.0,2.0,1.0,1.0,2.0,100.0,event
13:40:54.520,0.0,0.0,0.0,0.0,0.0,0.0,0.0,0.0,0.0,0.0,0.0,0.0,0.0,0.0,0.0,0.0,0.0,0.0,0.0,0.0,811.50183,749.45056,768.3883,799.41394,845.7509,-0.0224609375,0.02130126953125,0.98602294921875,2.056121826171875,-3.372039794921875,0.13458251953125,1.0,2.0,1.0,1.0,2.0,100.0,event
13:40:54.521,0.0,0.0,0.0,0.0,0.0,0.0,0.0,0.0,0.0,0.0,0.0,0.0,0.0,0.0,0.0,0.0,0.0,0.0,0.0,0.0,819.9634,778.0586,790.9524,826.8132,783.69965,-0.0224609375,0.02130126953125,0.98602294921875,2.056121826171875,-3.372039794921875,0.13458251953125,1.0,2.0,1.0,1.0,2.0,100.0,event
13:40:54.521,0.0,0.0,0.0,0.0,0.0,0.0,0.0,0.0,0.0,0.0,0.0,0.0,0.0,0.0,0.0,0.0,0.0,0.0,0.0,0.0,820.3663,763.1502,797.3993,818.7546,833.2601,-0.0224609375,0.02130126953125,0.98602294921875,2.056121826171875,-3.372039794921875,0.13458251953125,1.0,2.0,1.0,1.0,2.0,100.0,event
13:40:54.522,0.0,0.0,0.0,0.0,0.0,0.0,0.0,0.0,0.0,0.0,0.0,0.0,0.0,0.0,0.0,0.0,0.0,0.0,0.0,0.0,819.9634,759.92676,801.4286,818.7546,821.978,-0.0224609375,0.02130126953125,0.98602294921875,2.056121826171875,-3.372039794921875,0.13458251953125,1.0,2.0,1.0,1.0,2.0,100.0,event
13:40:54.525,0.0,0.0,0.0,0.0,0.0,0.0,0.0,0.0,0.0,0.0,0.0,0.0,0.0,0.0,0.0,0.0,0.0,0.0,0.0,0.0,815.12823,761.13556,813.1135,805.4579,940.0366,-0.0224609375,0.02130126953125,0.98602294921875,2.056121826171875,-3.372039794921875,0.13458251953125,1.0,2.0,1.0,1.0,2.0,100.0,event
13:40:54.526,0.0,0.0,0.0,0.0,0.0,0.0,0.0,0.0,0.0,0.0,0.0,0.0,0.0,0.0,0.0,0.0,0.0,0.0,0.0,0.0,828.022,789.7436,801.02563,804.2491,774.83514,-0.0224609375,0.02130126953125,0.98602294921875,2.056121826171875,-3.372039794921875,0.13458251953125,1.0,2.0,1.0,1.0,2.0,100.0,event
13:40:54.527,0.0,0.0,0.0,0.0,0.0,0.0,0.0,0.0,0.0,0.0,0.0,0.0,0.0,0.0,0.0,0.0,0.0,0.0,0.0,0.0,826.4103,780.87915,814.3223,818.7546,645.89746,-0.0224609375,0.02130126953125,0.98602294921875,2.056121826171875,-3.372039794921875,0.13458251953125,1.0,2.0,1.0,1.0,2.0,100.0,event
13:40:54.527,0.0,0.0,0.0,0.0,0.0,0.0,0.0,0.0,0.0,0.0,0.0,0.0,0.0,0.0,0.0,0.0,0.0,0.0,0.0,0.0,797.3993,765.56775,811.50183,813.5165,773.22345,-0.0224609375,0.02130126953125,0.98602294921875,2.056121826171875,-3.372039794921875,0.13458251953125,1.0,2.0,1.0,1.0,2.0,100.0,event
13:40:54.528,0.0,0.0,0.0,0.0,0.0,0.0,0.0,0.0,0.0,0.0,0.0,0.0,0.0,0.0,0.0,0.0,0.0,0.0,0.0,0.0,806.26373,782.8938,769.19415,801.8315,828.4249,-0.0224609375,0.02130126953125,0.98602294921875,2.056121826171875,-3.372039794921875,0.13458251953125,1.0,2.0,1.0,1.0,2.0,100.0,event
13:40:54.528,0.0,0.0,0.0,0.0,0.0,0.0,0.0,0.0,0.0,0.0,0.0,0.0,0.0,0.0,0.0,0.0,0.0,0.0,0.0,0.0,813.1135,797.3993,766.3736,789.34064,701.50183,-0.0224609375,0.02130126953125,0.98602294921875,2.056121826171875,-3.372039794921875,0.13458251953125,1.0,2.0,1.0,1.0,2.0,100.0,event
13:40:54.588,0.0,0.0,0.0,0.0,0.0,0.0,0.0,0.0,0.0,0.0,0.0,0.0,0.0,0.0,0.0,0.0,0.0,0.0,0.0,0.0,813.91943,777.6557,800.6227,786.52014,670.4762,-0.0224609375,0.02130126953125,0.98602294921875,2.056121826171875,-3.372039794921875,0.13458251953125,1.0,2.0,1.0,1.0,2.0,100.0,event
13:40:54.589,0.0,0.0,0.0,0.0,0.0,0.0,0.0,0.0,0.0,0.0,0.0,0.0,0.0,0.0,0.0,0.0,0.0,0.0,0.0,0.0,822.7839,759.12085,814.7253,803.8461,782.49084,-0.0224609375,0.02130126953125,0.98602294921875,2.056121826171875,-3.372039794921875,0.13458251953125,1.0,2.0,1.0,1.0,2.0,100.0,event
13:40:54.591,0.0,0.0,0.0,0.0,0.0,0.0,0.0,0.0,0.0,0.0,0.0,0.0,0.0,0.0,0.0,0.0,0.0,0.0,0.0,0.0,823.1868,761.13556,821.1722,815.12823,813.5165,-0.0224609375,0.02130126953125,0.98602294921875,2.056121826171875,-3.372039794921875,0.13458251953125,1.0,2.0,1.0,1.0,2.0,100.0,event
13:40:54.592,0.0,0.0,0.0,0.0,0.0,0.0,0.0,0.0,0.0,0.0,0.0,0.0,0.0,0.0,0.0,0.0,0.0,0.0,0.0,0.0,792.5641,779.67035,793.7729,781.685,702.3077,-0.0224609375,0.02130126953125,0.98602294921875,2.056121826171875,-3.372039794921875,0.13458251953125,1.0,2.0,1.0,1.0,2.0,100.0,event
13:40:54.592,0.0,0.0,0.0,0.0,0.0,0.0,0.0,0.0,0.0,0.0,0.0,0.0,0.0,0.0,0.0,0.0,0.0,0.0,0.0,0.0,789.7436,763.5531,805.8608,791.75824,744.21246,-0.0224609375,0.02130126953125,0.98602294921875,2.056121826171875,-3.372039794921875,0.13458251953125,1.0,2.0,1.0,1.0,2.0,100.0,event
13:40:54.593,0.0,0.0,0.0,0.0,0.0,0.0,0.0,0.0,0.0,0.0,0.0,0.0,0.0,0.0,0.0,0.0,0.0,0.0,0.0,0.0,816.337,772.8205,796.5934,796.1905,924.7253,-0.0224609375,0.02130126953125,0.98602294921875,2.056121826171875,-3.372039794921875,0.13458251953125,1.0,2.0,1.0,1.0,2.0,100.0,event
13:40:54.593,0.0,0.0,0.0,0.0,0.0,0.0,0.0,0.0,0.0,0.0,0.0,0.0,0.0,0.0,0.0,0.0,0.0,0.0,0.0,0.0,819.9634,764.35895,803.44324,816.7399,971.06226,-0.0224609375,0.02130126953125,0.98602294921875,2.056121826171875,-3.372039794921875,0.13458251953125,1.0,2.0,1.0,1.0,2.0,100.0,event
13:40:54.594,0.0,0.0,0.0,0.0,0.0,0.0,0.0,0.0,0.0,0.0,0.0,0.0,0.0,0.0,0.0,0.0,0.0,0.0,0.0,0.0,815.12823,786.1172,819.15753,832.4542,807.47253,-0.0224609375,0.02130126953125,0.98602294921875,2.056121826171875,-3.372039794921875,0.13458251953125,1.0,2.0,1.0,1.0,2.0,100.0,event
13:40:54.595,0.0,0.0,0.0,0.0,0.0,0.0,0.0,0.0,0.0,0.0,0.0,0.0,0.0,0.0,0.0,0.0,0.0,0.0,0.0,0.0,796.1905,782.49084,800.6227,809.0842,713.5897,-0.0224609375,0.02130126953125,0.98602294921875,2.056121826171875,-3.372039794921875,0.13458251953125,1.0,2.0,1.0,1.0,2.0,100.0,event
13:40:54.595,0.0,0.0,0.0,0.0,0.0,0.0,0.0,0.0,0.0,0.0,0.0,0.0,0.0,0.0,0.0,0.0,0.0,0.0,0.0,0.0,793.7729,771.2088,791.3553,790.54944,801.4286,-0.0224609375,0.02130126953125,0.98602294921875,2.056121826171875,-3.372039794921875,0.13458251953125,1.0,2.0,1.0,1.0,2.0,100.0,event
13:40:54.596,0.0,0.0,0.0,0.0,0.0,0.0,0.0,0.0,0.0,0.0,0.0,0.0,0.0,0.0,0.0,0.0,0.0,0.0,0.0,0.0,813.1135,804.2491,819.9634,799.011,783.2967,-0.0224609375,0.02130126953125,0.98602294921875,2.056121826171875,-3.372039794921875,0.13458251953125,1.0,2.0,1.0,1.0,2.0,100.0,event
13:40:54.597,0.0,0.0,0.0,0.0,0.0,0.0,0.0,0.0,0.0,0.0,0.0,0.0,0.0,0.0,0.0,0.0,0.0,0.0,0.0,0.0,833.2601,792.5641,788.93774,816.337,638.24176,-0.0224609375,0.02130126953125,0.98602294921875,2.056121826171875,-3.372039794921875,0.13458251953125,1.0,2.0,1.0,1.0,2.0,100.0,event
13:40:54.637,0.0,0.0,0.0,0.0,0.0,0.0,0.0,0.0,0.0,0.0,0.0,0.0,0.0,0.0,0.0,0.0,0.0,0.0,0.0,0.0,828.8278,765.56775,747.03296,823.1868,743.8095,-0.017333984375,0.026123046875,0.986572265625,1.83929443359375,-3.596343994140625,-0.0897216796875,1.0,2.0,1.0,1.0,2.0,100.0,event
13:40:54.638,0.0,0.0,0.0,0.0,0.0,0.0,0.0,0.0,0.0,0.0,0.0,0.0,0.0,0.0,0.0,0.0,0.0,0.0,0.0,0.0,801.8315,770.0,782.0879,811.9048,834.4689,-0.017333984375,0.026123046875,0.986572265625,1.83929443359375,-3.596343994140625,-0.0897216796875,1.0,2.0,1.0,1.0,2.0,100.0,event
13:40:54.640,0.0,0.0,0.0,0.0,0.0,0.0,0.0,0.0,0.0,0.0,0.0,0.0,0.0,0.0,0.0,0.0,0.0,0.0,0.0,0.0,777.6557,787.72894,839.707,792.1612,736.9597,-0.017333984375,0.026123046875,0.986572265625,1.83929443359375,-3.596343994140625,-0.0897216796875,1.0,2.0,1.0,1.0,2.0,100.0,event
13:40:54.641,0.0,0.0,0.0,0.0,0.0,0.0,0.0,0.0,0.0,0.0,0.0,0.0,0.0,0.0,0.0,0.0,0.0,0.0,0.0,0.0,781.28204,794.9817,842.9304,778.0586,700.696,-0.017333984375,0.026123046875,0.986572265625,1.83929443359375,-3.596343994140625,-0.0897216796875,1.0,2.0,1.0,1.0,2.0,100.0,event
13:40:54.643,0.0,0.0,0.0,0.0,0.0,0.0,0.0,0.0,0.0,0.0,0.0,0.0,0.0,0.0,0.0,0.0,0.0,0.0,0.0,0.0,796.99634,790.9524,808.2784,793.36993,793.7729,-0.017333984375,0.026123046875,0.986572265625,1.83929443359375,-3.596343994140625,-0.0897216796875,1.0,2.0,1.0,1.0,2.0,100.0,event
13:40:54.644,0.0,0.0,0.0,0.0,0.0,0.0,0.0,0.0,0.0,0.0,0.0,0.0,0.0,0.0,0.0,0.0,0.0,0.0,0.0,0.0,799.011,801.4286,811.0989,819.15753,902.5641,-0.017333984375,0.026123046875,0.986572265625,1.83929443359375,-3.596343994140625,-0.0897216796875,1.0,2.0,1.0,1.0,2.0,100.0,event
13:40:54.645,0.0,0.0,0.0,0.0,0.0,0.0,0.0,0.0,0.0,0.0,0.0,0.0,0.0,0.0,0.0,0.0,0.0,0.0,0.0,0.0,803.44324,783.69965,821.5751,809.0842,802.6374,-0.017333984375,0.026123046875,0.986572265625,1.83929443359375,-3.596343994140625,-0.0897216796875,1.0,2.0,1.0,1.0,2.0,100.0,event
13:40:54.647,0.0,0.0,0.0,0.0,0.0,0.0,0.0,0.0,0.0,0.0,0.0,0.0,0.0,0.0,0.0,0.0,0.0,0.0,0.0,0.0,805.05493,777.6557,790.54944,802.23444,727.6923,-0.017333984375,0.026123046875,0.986572265625,1.83929443359375,-3.596343994140625,-0.0897216796875,1.0,2.0,1.0,1.0,2.0,100.0,event
13:40:54.651,0.0,0.0,0.0,0.0,0.0,0.0,0.0,0.0,0.0,0.0,0.0,0.0,0.0,0.0,0.0,0.0,0.0,0.0,0.0,0.0,801.8315,772.4176,767.98535,799.81683,755.4945,-0.017333984375,0.026123046875,0.986572265625,1.83929443359375,-3.596343994140625,-0.0897216796875,1.0,2.0,1.0,1.0,2.0,100.0,event
13:40:54.652,0.0,0.0,0.0,0.0,0.0,0.0,0.0,0.0,0.0,0.0,0.0,0.0,0.0,0.0,0.0,0.0,0.0,0.0,0.0,0.0,820.3663,750.2564,786.9231,806.6667,1002.0879,-0.017333984375,0.026123046875,0.986572265625,1.83929443359375,-3.596343994140625,-0.0897216796875,1.0,2.0,1.0,1.0,2.0,100.0,event
13:40:54.653,0.0,0.0,0.0,0.0,0.0,0.0,0.0,0.0,0.0,0.0,0.0,0.0,0.0,0.0,0.0,0.0,0.0,0.0,0.0,0.0,818.3516,809.0842,800.6227,827.2161,951.31866,-0.017333984375,0.026123046875,0.986572265625,1.83929443359375,-3.596343994140625,-0.0897216796875,1.0,2.0,1.0,1.0,2.0,100.0,event
13:40:54.655,0.0,0.0,0.0,0.0,0.0,0.0,0.0,0.0,0.0,0.0,0.0,0.0,0.0,0.0,0.0,0.0,0.0,0.0,0.0,0.0,788.5348,849.7802,779.67035,819.15753,744.61536,-0.017333984375,0.026123046875,0.986572265625,1.83929443359375,-3.596343994140625,-0.0897216796875,1.0,2.0,1.0,1.0,2.0,100.0,event
13:40:54.701,0.0,0.0,0.0,0.0,0.0,0.0,0.0,0.0,0.0,0.0,0.0,0.0,0.0,0.0,0.0,0.0,0.0,0.0,0.0,0.0,775.2381,826.8132,787.326,792.96704,775.64105,-0.02239990234375,0.02874755859375,0.99029541015625,1.95892333984375,-3.48419189453125,0.695343017578125,1.0,2.0,1.0,1.0,2.0,100.0,event
13:40:54.702,0.0,0.0,0.0,0.0,0.0,0.0,0.0,0.0,0.0,0.0,0.0,0.0,0.0,0.0,0.0,0.0,0.0,0.0,0.0,0.0,785.7143,823.9927,819.9634,786.52014,753.8828,-0.02239990234375,0.02874755859375,0.99029541015625,1.95892333984375,-3.48419189453125,0.695343017578125,1.0,2.0,1.0,1.0,2.0,100.0,event
13:40:54.702,0.0,0.0,0.0,0.0,0.0,0.0,0.0,0.0,0.0,0.0,0.0,0.0,0.0,0.0,0.0,0.0,0.0,0.0,0.0,0.0,817.5458,824.3956,831.6484,798.60803,698.2784,-0.02239990234375,0.02874755859375,0.99029541015625,1.95892333984375,-3.48419189453125,0.695343017578125,1.0,2.0,1.0,1.0,2.0,100.0,event
13:40:54.703,0.0,0.0,0.0,0.0,0.0,0.0,0.0,0.0,0.0,0.0,0.0,0.0,0.0,0.0,0.0,0.0,0.0,0.0,0.0,0.0,828.4249,809.89014,831.6484,830.84247,722.4542,-0.02239990234375,0.02874755859375,0.99029541015625,1.95892333984375,-3.48419189453125,0.695343017578125,1.0,2.0,1.0,1.0,2.0,100.0,event
13:40:54.704,0.0,0.0,0.0,0.0,0.0,0.0,0.0,0.0,0.0,0.0,0.0,0.0,0.0,0.0,0.0,0.0,0.0,0.0,0.0,0.0,792.5641,803.8461,781.28204,789.34064,909.41394,-0.02239990234375,0.02874755859375,0.99029541015625,1.95892333984375,-3.48419189453125,0.695343017578125,1.0,2.0,1.0,1.0,2.0,100.0,event
13:40:54.704,0.0,0.0,0.0,0.0,0.0,0.0,0.0,0.0,0.0,0.0,0.0,0.0,0.0,0.0,0.0,0.0,0.0,0.0,0.0,0.0,804.2491,785.7143,802.6374,819.15753,836.08057,-0.02239990234375,0.02874755859375,0.99029541015625,1.95892333984375,-3.48419189453125,0.695343017578125,1.0,2.0,1.0,1.0,2.0,100.0,event
13:40:54.705,0.0,0.0,0.0,0.0,0.0,0.0,0.0,0.0,0.0,0.0,0.0,0.0,0.0,0.0,0.0,0.0,0.0,0.0,0.0,0.0,799.41394,827.2161,795.38464,796.5934,844.1392,-0.02239990234375,0.02874755859375,0.99029541015625,1.95892333984375,-3.48419189453125,0.695343017578125,1.0,2.0,1.0,1.0,2.0,100.0,event
13:40:54.706,0.0,0.0,0.0,0.0,0.0,0.0,0.0,0.0,0.0,0.0,0.0,0.0,0.0,0.0,0.0,0.0,0.0,0.0,0.0,0.0,809.4872,821.1722,789.34064,808.68134,722.0513,-0.02239990234375,0.02874755859375,0.99029541015625,1.95892333984375,-3.48419189453125,0.695343017578125,1.0,2.0,1.0,1.0,2.0,100.0,event
13:40:54.706,0.0,0.0,0.0,0.0,0.0,0.0,0.0,0.0,0.0,0.0,0.0,0.0,0.0,0.0,0.0,0.0,0.0,0.0,0.0,0.0,811.0989,809.89014,790.54944,815.5311,921.9048,-0.02239990234375,0.02874755859375,0.99029541015625,1.95892333984375,-3.48419189453125,0.695343017578125,1.0,2.0,1.0,1.0,2.0,100.0,event
13:40:54.707,0.0,0.0,0.0,0.0,0.0,0.0,0.0,0.0,0.0,0.0,0.0,0.0,0.0,0.0,0.0,0.0,0.0,0.0,0.0,0.0,804.2491,823.5897,805.8608,806.6667,921.0989,-0.02239990234375,0.02874755859375,0.99029541015625,1.95892333984375,-3.48419189453125,0.695343017578125,1.0,2.0,1.0,1.0,2.0,100.0,event
13:40:54.707,0.0,0.0,0.0,0.0,0.0,0.0,0.0,0.0,0.0,0.0,0.0,0.0,0.0,0.0,0.0,0.0,0.0,0.0,0.0,0.0,786.52014,825.2015,813.1135,785.7143,715.6044,-0.02239990234375,0.02874755859375,0.99029541015625,1.95892333984375,-3.48419189453125,0.695343017578125,1.0,2.0,1.0,1.0,2.0,100.0,event
13:40:54.708,0.0,0.0,0.0,0.0,0.0,0.0,0.0,0.0,0.0,0.0,0.0,0.0,0.0,0.0,0.0,0.0,0.0,0.0,0.0,0.0,788.93774,788.5348,820.3663,780.87915,810.696,-0.02239990234375,0.02874755859375,0.99029541015625,1.95892333984375,-3.48419189453125,0.695343017578125,1.0,2.0,1.0,1.0,2.0,100.0,event
13:40:54.735,0.0,0.0,0.0,0.0,0.0,0.0,0.0,0.0,0.0,0.0,0.0,0.0,0.0,0.0,0.0,0.0,0.0,0.0,0.0,0.0,813.91943,771.2088,819.15753,805.05493,864.2857,-0.0228271484375,0.02337646484375,0.982666015625,1.861724853515625,-3.491668701171875,0.306549072265625,1.0,2.0,1.0,1.0,2.0,100.0,event
13:40:54.736,0.0,0.0,0.0,0.0,0.0,0.0,0.0,0.0,0.0,0.0,0.0,0.0,0.0,0.0,0.0,0.0,0.0,0.0,0.0,0.0,833.663,805.05493,803.0403,825.2015,782.49084,-0.0228271484375,0.02337646484375,0.982666015625,1.861724853515625,-3.491668701171875,0.306549072265625,1.0,2.0,1.0,1.0,2.0,100.0,event
13:40:54.736,0.0,0.0,0.0,0.0,0.0,0.0,0.0,0.0,0.0,0.0,0.0,0.0,0.0,0.0,0.0,0.0,0.0,0.0,0.0,0.0,818.3516,809.89014,793.36993,821.1722,747.03296,-0.0228271484375,0.02337646484375,0.982666015625,1.861724853515625,-3.491668701171875,0.306549072265625,1.0,2.0,1.0,1.0,2.0,100.0,event
13:40:54.737,0.0,0.0,0.0,0.0,0.0,0.0,0.0,0.0,0.0,0.0,0.0,0.0,0.0,0.0,0.0,0.0,0.0,0.0,0.0,0.0,792.96704,803.8461,777.25275,801.8315,728.0952,-0.0228271484375,0.02337646484375,0.982666015625,1.861724853515625,-3.491668701171875,0.306549072265625,1.0,2.0,1.0,1.0,2.0,100.0,event
13:40:54.737,0.0,0.0,0.0,0.0,0.0,0.0,0.0,0.0,0.0,0.0,0.0,0.0,0.0,0.0,0.0,0.0,0.0,0.0,0.0,0.0,784.5055,807.47253,788.93774,782.49084,758.315,-0.0228271484375,0.02337646484375,0.982666015625,1.861724853515625,-3.491668701171875,0.306549072265625,1.0,2.0,1.0,1.0,2.0,100.0,event
13:40:54.738,0.0,0.0,0.0,0.0,0.0,0.0,0.0,0.0,0.0,0.0,0.0,0.0,0.0,0.0,0.0,0.0,0.0,0.0,0.0,0.0,801.02563,778.0586,824.3956,790.54944,789.7436,-0.0228271484375,0.02337646484375,0.982666015625,1.861724853515625,-3.491668701171875,0.306549072265625,1.0,2.0,1.0,1.0,2.0,100.0,event
13:40:54.739,0.0,0.0,0.0,0.0,0.0,0.0,0.0,0.0,0.0,0.0,0.0,0.0,0.0,0.0,0.0,0.0,0.0,0.0,0.0,0.0,825.2015,773.6264,819.9634,818.3516,790.14655,-0.0228271484375,0.02337646484375,0.982666015625,1.861724853515625,-3.491668701171875,0.306549072265625,1.0,2.0,1.0,1.0,2.0,100.0,event
13:40:54.739,0.0,0.0,0.0,0.0,0.0,0.0,0.0,0.0,0.0,0.0,0.0,0.0,0.0,0.0,0.0,0.0,0.0,0.0,0.0,0.0,828.8278,782.49084,804.2491,828.4249,823.9927,-0.0228271484375,0.02337646484375,0.982666015625,1.861724853515625,-3.491668701171875,0.306549072265625,1.0,2.0,1.0,1.0,2.0,100.0,event
13:40:54.740,0.0,0.0,0.0,0.0,0.0,0.0,0.0,0.0,0.0,0.0,0.0,0.0,0.0,0.0,0.0,0.0,0.0,0.0,0.0,0.0,799.41394,772.4176,809.89014,796.5934,1006.1172,-0.0228271484375,0.02337646484375,0.982666015625,1.861724853515625,-3.491668701171875,0.306549072265625,1.0,2.0,1.0,1.0,2.0,100.0,event
13:40:54.740,0.0,0.0,0.0,0.0,0.0,0.0,0.0,0.0,0.0,0.0,0.0,0.0,0.0,0.0,0.0,0.0,0.0,0.0,0.0,0.0,786.1172,787.326,807.47253,776.4469,836.8865,-0.0228271484375,0.02337646484375,0.982666015625,1.861724853515625,-3.491668701171875,0.306549072265625,1.0,2.0,1.0,1.0,2.0,100.0,event
13:40:54.744,0.0,0.0,0.0,0.0,0.0,0.0,0.0,0.0,0.0,0.0,0.0,0.0,0.0,0.0,0.0,0.0,0.0,0.0,0.0,0.0,818.3516,801.4286,786.52014,793.7729,653.95605,-0.0228271484375,0.02337646484375,0.982666015625,1.861724853515625,-3.491668701171875,0.306549072265625,1.0,2.0,1.0,1.0,2.0,100.0,event
13:40:54.745,0.0,0.0,0.0,0.0,0.0,0.0,0.0,0.0,0.0,0.0,0.0,0.0,0.0,0.0,0.0,0.0,0.0,0.0,0.0,0.0,823.5897,795.38464,756.7033,815.12823,785.31134,-0.0228271484375,0.02337646484375,0.982666015625,1.861724853515625,-3.491668701171875,0.306549072265625,1.0,2.0,1.0,1.0,2.0,100.0,event
13:40:54.766,0.0,0.0,0.0,0.0,0.0,0.0,0.0,0.0,0.0,0.0,0.0,0.0,0.0,0.0,0.0,0.0,0.0,0.0,0.0,0.0,793.7729,776.4469,781.685,815.5311,814.7253,-0.02001953125,0.02734375,0.990966796875,2.13836669921875,-3.93280029296875,0.171966552734375,1.0,2.0,1.0,1.0,2.0,100.0,event
13:40:54.767,0.0,0.0,0.0,0.0,0.0,0.0,0.0,0.0,0.0,0.0,0.0,0.0,0.0,0.0,0.0,0.0,0.0,0.0,0.0,0.0,778.0586,778.46155,822.381,788.93774,765.56775,-0.02001953125,0.02734375,0.990966796875,2.13836669921875,-3.93280029296875,0.171966552734375,1.0,2.0,1.0,1.0,2.0,100.0,event
13:40:54.768,0.0,0.0,0.0,0.0,0.0,0.0,0.0,0.0,0.0,0.0,0.0,0.0,0.0,0.0,0.0,0.0,0.0,0.0,0.0,0.0,788.5348,805.05493,806.6667,780.07324,785.31134,-0.02001953125,0.02734375,0.990966796875,2.13836669921875,-3.93280029296875,0.171966552734375,1.0,2.0,1.0,1.0,2.0,100.0,event
13:40:54.769,0.0,0.0,0.0,0.0,0.0,0.0,0.0,0.0,0.0,0.0,0.0,0.0,0.0,0.0,0.0,0.0,0.0,0.0,0.0,0.0,800.2198,815.5311,796.1905,783.69965,861.4652,-0.02001953125,0.02734375,0.990966796875,2.13836669921875,-3.93280029296875,0.171966552734375,1.0,2.0,1.0,1.0,2.0,100.0,event
13:40:54.769,0.0,0.0,0.0,0.0,0.0,0.0,0.0,0.0,0.0,0.0,0.0,0.0,0.0,0.0,0.0,0.0,0.0,0.0,0.0,0.0,813.91943,805.4579,819.9634,792.5641,818.3516,-0.02001953125,0.02734375,0.990966796875,2.13836669921875,-3.93280029296875,0.171966552734375,1.0,2.0,1.0,1.0,2.0,100.0,event
13:40:54.770,0.0,0.0,0.0,0.0,0.0,0.0,0.0,0.0,0.0,0.0,0.0,0.0,0.0,0.0,0.0,0.0,0.0,0.0,0.0,0.0,817.9487,794.9817,818.7546,803.8461,804.2491,-0.02001953125,0.02734375,0.990966796875,2.13836669921875,-3.93280029296875,0.171966552734375,1.0,2.0,1.0,1.0,2.0,100.0,event
13:40:54.771,0.0,0.0,0.0,0.0,0.0,0.0,0.0,0.0,0.0,0.0,0.0,0.0,0.0,0.0,0.0,0.0,0.0,0.0,0.0,0.0,804.2491,803.0403,806.26373,788.5348,867.1062,-0.02001953125,0.02734375,0.990966796875,2.13836669921875,-3.93280029296875,0.171966552734375,1.0,2.0,1.0,1.0,2.0,100.0,event
13:40:54.771,0.0,0.0,0.0,0.0,0.0,0.0,0.0,0.0,0.0,0.0,0.0,0.0,0.0,0.0,0.0,0.0,0.0,0.0,0.0,0.0,784.90845,810.293,803.0403,784.5055,938.8278,-0.02001953125,0.02734375,0.990966796875,2.13836669921875,-3.93280029296875,0.171966552734375,1.0,2.0,1.0,1.0,2.0,100.0,event
13:40:54.772,0.0,0.0,0.0,0.0,0.0,0.0,0.0,0.0,0.0,0.0,0.0,0.0,0.0,0.0,0.0,0.0,0.0,0.0,0.0,0.0,785.7143,825.6044,786.52014,792.1612,879.19415,-0.02001953125,0.02734375,0.990966796875,2.13836669921875,-3.93280029296875,0.171966552734375,1.0,2.0,1.0,1.0,2.0,100.0,event
13:40:54.772,0.0,0.0,0.0,0.0,0.0,0.0,0.0,0.0,0.0,0.0,0.0,0.0,0.0,0.0,0.0,0.0,0.0,0.0,0.0,0.0,806.6667,828.4249,792.96704,800.2198,703.91943,-0.02001953125,0.02734375,0.990966796875,2.13836669921875,-3.93280029296875,0.171966552734375,1.0,2.0,1.0,1.0,2.0,100.0,event
13:40:54.773,0.0,0.0,0.0,0.0,0.0,0.0,0.0,0.0,0.0,0.0,0.0,0.0,0.0,0.0,0.0,0.0,0.0,0.0,0.0,0.0,815.9341,824.3956,808.2784,817.1429,725.2747,-0.02001953125,0.02734375,0.990966796875,2.13836669921875,-3.93280029296875,0.171966552734375,1.0,2.0,1.0,1.0,2.0,100.0,event
13:40:54.774,0.0,0.0,0.0,0.0,0.0,0.0,0.0,0.0,0.0,0.0,0.0,0.0,0.0,0.0,0.0,0.0,0.0,0.0,0.0,0.0,795.38464,819.15753,795.38464,801.8315,782.0879,-0.02001953125,0.02734375,0.990966796875,2.13836669921875,-3.93280029296875,0.171966552734375,1.0,2.0,1.0,1.0,2.0,100.0,event
13:40:54.800,0.0,0.0,0.0,0.0,0.0,0.0,0.0,0.0,0.0,0.0,0.0,0.0,0.0,0.0,0.0,0.0,0.0,0.0,0.0,0.0,787.326,828.8278,781.28204,776.8498,705.12823,-0.02001953125,0.02734375,0.990966796875,2.13836669921875,-3.93280029296875,0.171966552734375,1.0,2.0,1.0,1.0,2.0,100.0,event
13:40:54.801,0.0,0.0,0.0,0.0,0.0,0.0,0.0,0.0,0.0,0.0,0.0,0.0,0.0,0.0,0.0,0.0,0.0,0.0,0.0,0.0,799.011,839.304,782.0879,785.7143,630.989,-0.02001953125,0.02734375,0.990966796875,2.13836669921875,-3.93280029296875,0.171966552734375,1.0,2.0,1.0,1.0,2.0,100.0,event
13:40:54.802,0.0,0.0,0.0,0.0,0.0,0.0,0.0,0.0,0.0,0.0,0.0,0.0,0.0,0.0,0.0,0.0,0.0,0.0,0.0,0.0,822.381,830.84247,774.0293,810.293,708.3516,-0.02001953125,0.02734375,0.990966796875,2.13836669921875,-3.93280029296875,0.171966552734375,1.0,2.0,1.0,1.0,2.0,100.0,event
13:40:54.803,0.0,0.0,0.0,0.0,0.0,0.0,0.0,0.0,0.0,0.0,0.0,0.0,0.0,0.0,0.0,0.0,0.0,0.0,0.0,0.0,826.0073,830.84247,775.2381,823.1868,797.3993,-0.02001953125,0.02734375,0.990966796875,2.13836669921875,-3.93280029296875,0.171966552734375,1.0,2.0,1.0,1.0,2.0,100.0,event
13:40:54.803,0.0,0.0,0.0,0.0,0.0,0.0,0.0,0.0,0.0,0.0,0.0,0.0,0.0,0.0,0.0,0.0,0.0,0.0,0.0,0.0,797.8022,840.10986,804.2491,799.41394,801.8315,-0.02001953125,0.02734375,0.990966796875,2.13836669921875,-3.93280029296875,0.171966552734375,1.0,2.0,1.0,1.0,2.0,100.0,event
13:40:54.804,0.0,0.0,0.0,0.0,0.0,0.0,0.0,0.0,0.0,0.0,0.0,0.0,0.0,0.0,0.0,0.0,0.0,0.0,0.0,0.0,790.54944,817.9487,823.1868,776.8498,802.6374,-0.02001953125,0.02734375,0.990966796875,2.13836669921875,-3.93280029296875,0.171966552734375,1.0,2.0,1.0,1.0,2.0,100.0,event
13:40:54.805,0.0,0.0,0.0,0.0,0.0,0.0,0.0,0.0,0.0,0.0,0.0,0.0,0.0,0.0,0.0,0.0,0.0,0.0,0.0,0.0,805.8608,792.96704,817.5458,792.1612,792.1612,-0.02001953125,0.02734375,0.990966796875,2.13836669921875,-3.93280029296875,0.171966552734375,1.0,2.0,1.0,1.0,2.0,100.0,event
13:40:54.805,0.0,0.0,0.0,0.0,0.0,0.0,0.0,0.0,0.0,0.0,0.0,0.0,0.0,0.0,0.0,0.0,0.0,0.0,0.0,0.0,811.9048,795.78754,813.91943,819.5604,1083.0769,-0.02001953125,0.02734375,0.990966796875,2.13836669921875,-3.93280029296875,0.171966552734375,1.0,2.0,1.0,1.0,2.0,100.0,event
13:40:54.806,0.0,0.0,0.0,0.0,0.0,0.0,0.0,0.0,0.0,0.0,0.0,0.0,0.0,0.0,0.0,0.0,0.0,0.0,0.0,0.0,805.8608,842.52747,809.0842,819.5604,1085.8975,-0.02001953125,0.02734375,0.990966796875,2.13836669921875,-3.93280029296875,0.171966552734375,1.0,2.0,1.0,1.0,2.0,100.0,event
13:40:54.807,0.0,0.0,0.0,0.0,0.0,0.0,0.0,0.0,0.0,0.0,0.0,0.0,0.0,0.0,0.0,0.0,0.0,0.0,0.0,0.0,802.6374,848.1685,799.41394,810.696,751.06226,-0.02001953125,0.02734375,0.990966796875,2.13836669921875,-3.93280029296875,0.171966552734375,1.0,2.0,1.0,1.0,2.0,100.0,event
13:40:54.807,0.0,0.0,0.0,0.0,0.0,0.0,0.0,0.0,0.0,0.0,0.0,0.0,0.0,0.0,0.0,0.0,0.0,0.0,0.0,0.0,797.8022,833.2601,796.5934,804.65204,698.68134,-0.02001953125,0.02734375,0.990966796875,2.13836669921875,-3.93280029296875,0.171966552734375,1.0,2.0,1.0,1.0,2.0,100.0,event
13:40:54.808,0.0,0.0,0.0,0.0,0.0,0.0,0.0,0.0,0.0,0.0,0.0,0.0,0.0,0.0,0.0,0.0,0.0,0.0,0.0,0.0,800.6227,845.7509,803.44324,800.6227,712.7839,-0.02001953125,0.02734375,0.990966796875,2.13836669921875,-3.93280029296875,0.171966552734375,1.0,2.0,1.0,1.0,2.0,100.0,event
13:40:54.873,0.0,0.0,0.0,0.0,0.0,0.0,0.0,0.0,0.0,0.0,0.0,0.0,0.0,0.0,0.0,0.0,0.0,0.0,0.0,0.0,817.1429,842.1245,815.5311,822.381,658.7912,-0.0189208984375,0.022216796875,0.9852294921875,1.9140625,-3.641204833984375,0.246734619140625,1.0,2.0,1.0,1.0,2.0,100.0,event
13:40:54.874,0.0,0.0,0.0,0.0,0.0,0.0,0.0,0.0,0.0,0.0,0.0,0.0,0.0,0.0,0.0,0.0,0.0,0.0,0.0,0.0,830.0366,821.5751,805.4579,846.55676,701.0989,-0.0189208984375,0.022216796875,0.9852294921875,1.9140625,-3.641204833984375,0.246734619140625,1.0,2.0,1.0,1.0,2.0,100.0,event
13:40:54.875,0.0,0.0,0.0,0.0,0.0,0.0,0.0,0.0,0.0,0.0,0.0,0.0,0.0,0.0,0.0,0.0,0.0,0.0,0.0,0.0,817.5458,809.0842,784.10254,826.0073,798.60803,-0.0189208984375,0.022216796875,0.9852294921875,1.9140625,-3.641204833984375,0.246734619140625,1.0,2.0,1.0,1.0,2.0,100.0,event
13:40:54.876,0.0,0.0,0.0,0.0,0.0,0.0,0.0,0.0,0.0,0.0,0.0,0.0,0.0,0.0,0.0,0.0,0.0,0.0,0.0,0.0,792.96704,835.6777,799.81683,805.05493,741.79486,-0.0189208984375,0.022216796875,0.9852294921875,1.9140625,-3.641204833984375,0.246734619140625,1.0,2.0,1.0,1.0,2.0,100.0,event
13:40:54.876,0.0,0.0,0.0,0.0,0.0,0.0,0.0,0.0,0.0,0.0,0.0,0.0,0.0,0.0,0.0,0.0,0.0,0.0,0.0,0.0,798.60803,844.1392,826.4103,798.20514,693.44324,-0.0189208984375,0.022216796875,0.9852294921875,1.9140625,-3.641204833984375,0.246734619140625,1.0,2.0,1.0,1.0,2.0,100.0,event
13:40:54.877,0.0,0.0,0.0,0.0,0.0,0.0,0.0,0.0,0.0,0.0,0.0,0.0,0.0,0.0,0.0,0.0,0.0,0.0,0.0,0.0,799.81683,817.9487,813.91943,796.1905,775.2381,-0.0189208984375,0.022216796875,0.9852294921875,1.9140625,-3.641204833984375,0.246734619140625,1.0,2.0,1.0,1.0,2.0,100.0,event
13:40:54.878,0.0,0.0,0.0,0.0,0.0,0.0,0.0,0.0,0.0,0.0,0.0,0.0,0.0,0.0,0.0,0.0,0.0,0.0,0.0,0.0,807.47253,799.011,802.6374,816.337,1031.5018,-0.0189208984375,0.022216796875,0.9852294921875,1.9140625,-3.641204833984375,0.246734619140625,1.0,2.0,1.0,1.0,2.0,100.0,event
13:40:54.878,0.0,0.0,0.0,0.0,0.0,0.0,0.0,0.0,0.0,0.0,0.0,0.0,0.0,0.0,0.0,0.0,0.0,0.0,0.0,0.0,807.47253,825.6044,788.5348,816.337,1087.5092,-0.0189208984375,0.022216796875,0.9852294921875,1.9140625,-3.641204833984375,0.246734619140625,1.0,2.0,1.0,1.0,2.0,100.0,event
13:40:54.879,0.0,0.0,0.0,0.0,0.0,0.0,0.0,0.0,0.0,0.0,0.0,0.0,0.0,0.0,0.0,0.0,0.0,0.0,0.0,0.0,780.07324,842.9304,799.41394,807.8755,817.9487,-0.0189208984375,0.022216796875,0.9852294921875,1.9140625,-3.641204833984375,0.246734619140625,1.0,2.0,1.0,1.0,2.0,100.0,event
13:40:54.880,0.0,0.0,0.0,0.0,0.0,0.0,0.0,0.0,0.0,0.0,0.0,0.0,0.0,0.0,0.0,0.0,0.0,0.0,0.0,0.0,787.72894,825.6044,805.4579,806.6667,741.79486,-0.0189208984375,0.022216796875,0.9852294921875,1.9140625,-3.641204833984375,0.246734619140625,1.0,2.0,1.0,1.0,2.0,100.0,event
13:40:54.880,0.0,0.0,0.0,0.0,0.0,0.0,0.0,0.0,0.0,0.0,0.0,0.0,0.0,0.0,0.0,0.0,0.0,0.0,0.0,0.0,813.91943,791.3553,811.0989,814.3223,852.6007,-0.0189208984375,0.022216796875,0.9852294921875,1.9140625,-3.641204833984375,0.246734619140625,1.0,2.0,1.0,1.0,2.0,100.0,event
13:40:54.881,0.0,0.0,0.0,0.0,0.0,0.0,0.0,0.0,0.0,0.0,0.0,0.0,0.0,0.0,0.0,0.0,0.0,0.0,0.0,0.0,825.6044,800.2198,826.4103,833.2601,796.99634,-0.0189208984375,0.022216796875,0.9852294921875,1.9140625,-3.641204833984375,0.246734619140625,1.0,2.0,1.0,1.0,2.0,100.0,event
13:40:54.922,0.0,0.0,0.0,0.0,0.0,0.0,0.0,0.0,0.0,0.0,0.0,0.0,0.0,0.0,0.0,0.0,0.0,0.0,0.0,0.0,801.02563,840.9158,807.47253,818.7546,735.34796,-0.02020263671875,0.023193359375,0.9908447265625,2.474822998046875,-4.0673828125,0.43365478515625,1.0,2.0,1.0,1.0,2.0,100.0,event
13:40:54.924,0.0,0.0,0.0,0.0,0.0,0.0,0.0,0.0,0.0,0.0,0.0,0.0,0.0,0.0,0.0,0.0,0.0,0.0,0.0,0.0,778.0586,849.3773,801.02563,801.4286,797.3993,-0.02020263671875,0.023193359375,0.9908447265625,2.474822998046875,-4.0673828125,0.43365478515625,1.0,2.0,1.0,1.0,2.0,100.0,event
13:40:54.926,0.0,0.0,0.0,0.0,0.0,0.0,0.0,0.0,0.0,0.0,0.0,0.0,0.0,0.0,0.0,0.0,0.0,0.0,0.0,0.0,781.685,837.28937,779.67035,790.54944,753.47986,-0.02020263671875,0.023193359375,0.9908447265625,2.474822998046875,-4.0673828125,0.43365478515625,1.0,2.0,1.0,1.0,2.0,100.0,event
13:40:54.927,0.0,0.0,0.0,0.0,0.0,0.0,0.0,0.0,0.0,0.0,0.0,0.0,0.0,0.0,0.0,0.0,0.0,0.0,0.0,0.0,812.71063,844.5421,780.07324,790.14655,700.293,-0.02020263671875,0.023193359375,0.9908447265625,2.474822998046875,-4.0673828125,0.43365478515625,1.0,2.0,1.0,1.0,2.0,100.0,event
13:40:54.929,0.0,0.0,0.0,0.0,0.0,0.0,0.0,0.0,0.0,0.0,0.0,0.0,0.0,0.0,0.0,0.0,0.0,0.0,0.0,0.0,827.2161,832.0513,807.0696,810.293,693.0403,-0.02020263671875,0.023193359375,0.9908447265625,2.474822998046875,-4.0673828125,0.43365478515625,1.0,2.0,1.0,1.0,2.0,100.0,event
13:40:54.930,0.0,0.0,0.0,0.0,0.0,0.0,0.0,0.0,0.0,0.0,0.0,0.0,0.0,0.0,0.0,0.0,0.0,0.0,0.0,0.0,818.7546,810.293,804.2491,827.619,846.55676,-0.02020263671875,0.023193359375,0.9908447265625,2.474822998046875,-4.0673828125,0.43365478515625,1.0,2.0,1.0,1.0,2.0,100.0,event
13:40:54.932,0.0,0.0,0.0,0.0,0.0,0.0,0.0,0.0,0.0,0.0,0.0,0.0,0.0,0.0,0.0,0.0,0.0,0.0,0.0,0.0,813.1135,806.26373,810.293,828.8278,983.95605,-0.02020263671875,0.023193359375,0.9908447265625,2.474822998046875,-4.0673828125,0.43365478515625,1.0,2.0,1.0,1.0,2.0,100.0,event
13:40:54.933,0.0,0.0,0.0,0.0,0.0,0.0,0.0,0.0,0.0,0.0,0.0,0.0,0.0,0.0,0.0,0.0,0.0,0.0,0.0,0.0,804.65204,819.5604,816.337,800.6227,804.65204,-0.02020263671875,0.023193359375,0.9908447265625,2.474822998046875,-4.0673828125,0.43365478515625,1.0,2.0,1.0,1.0,2.0,100.0,event
13:40:54.935,0.0,0.0,0.0,0.0,0.0,0.0,0.0,0.0,0.0,0.0,0.0,0.0,0.0,0.0,0.0,0.0,0.0,0.0,0.0,0.0,813.1135,823.9927,809.0842,791.75824,691.02563,-0.02020263671875,0.023193359375,0.9908447265625,2.474822998046875,-4.0673828125,0.43365478515625,1.0,2.0,1.0,1.0,2.0,100.0,event
13:40:54.936,0.0,0.0,0.0,0.0,0.0,0.0,0.0,0.0,0.0,0.0,0.0,0.0,0.0,0.0,0.0,0.0,0.0,0.0,0.0,0.0,836.08057,811.9048,807.0696,821.5751,766.77655,-0.02020263671875,0.023193359375,0.9908447265625,2.474822998046875,-4.0673828125,0.43365478515625,1.0,2.0,1.0,1.0,2.0,100.0,event
13:40:54.937,0.0,0.0,0.0,0.0,0.0,0.0,0.0,0.0,0.0,0.0,0.0,0.0,0.0,0.0,0.0,0.0,0.0,0.0,0.0,0.0,825.2015,823.5897,808.2784,828.4249,928.7546,-0.02020263671875,0.023193359375,0.9908447265625,2.474822998046875,-4.0673828125,0.43365478515625,1.0,2.0,1.0,1.0,2.0,100.0,event
13:40:54.939,0.0,0.0,0.0,0.0,0.0,0.0,0.0,0.0,0.0,0.0,0.0,0.0,0.0,0.0,0.0,0.0,0.0,0.0,0.0,0.0,805.4579,829.6337,805.4579,805.05493,835.2747,-0.02020263671875,0.023193359375,0.9908447265625,2.474822998046875,-4.0673828125,0.43365478515625,1.0,2.0,1.0,1.0,2.0,100.0,event
13:40:54.983,0.0,0.0,0.0,0.0,0.0,0.0,0.0,0.0,0.0,0.0,0.0,0.0,0.0,0.0,0.0,0.0,0.0,0.0,0.0,0.0,793.7729,811.9048,790.14655,787.72894,659.59705,-0.01953125,0.0235595703125,0.9884033203125,2.19818115234375,-3.521575927734375,0.800018310546875,1.0,2.0,1.0,1.0,2.0,100.0,event
13:40:54.983,0.0,0.0,0.0,0.0,0.0,0.0,0.0,0.0,0.0,0.0,0.0,0.0,0.0,0.0,0.0,0.0,0.0,0.0,0.0,0.0,804.2491,810.696,782.0879,788.93774,751.06226,-0.01953125,0.0235595703125,0.9884033203125,2.19818115234375,-3.521575927734375,0.800018310546875,1.0,2.0,1.0,1.0,2.0,100.0,event
13:40:54.987,0.0,0.0,0.0,0.0,0.0,0.0,0.0,0.0,0.0,0.0,0.0,0.0,0.0,0.0,0.0,0.0,0.0,0.0,0.0,0.0,822.381,829.2308,789.7436,804.65204,840.9158,-0.01953125,0.0235595703125,0.9884033203125,2.19818115234375,-3.521575927734375,0.800018310546875,1.0,2.0,1.0,1.0,2.0,100.0,event
13:40:54.988,0.0,0.0,0.0,0.0,0.0,0.0,0.0,0.0,0.0,0.0,0.0,0.0,0.0,0.0,0.0,0.0,0.0,0.0,0.0,0.0,826.8132,834.0659,805.8608,821.5751,747.4359,-0.01953125,0.0235595703125,0.9884033203125,2.19818115234375,-3.521575927734375,0.800018310546875,1.0,2.0,1.0,1.0,2.0,100.0,event
13:40:54.988,0.0,0.0,0.0,0.0,0.0,0.0,0.0,0.0,0.0,0.0,0.0,0.0,0.0,0.0,0.0,0.0,0.0,0.0,0.0,0.0,811.9048,817.9487,791.3553,815.12823,742.6007,-0.01953125,0.0235595703125,0.9884033203125,2.19818115234375,-3.521575927734375,0.800018310546875,1.0,2.0,1.0,1.0,2.0,100.0,event
13:40:54.989,0.0,0.0,0.0,0.0,0.0,0.0,0.0,0.0,0.0,0.0,0.0,0.0,0.0,0.0,0.0,0.0,0.0,0.0,0.0,0.0,815.5311,819.15753,796.99634,800.2198,958.97437,-0.01953125,0.0235595703125,0.9884033203125,2.19818115234375,-3.521575927734375,0.800018310546875,1.0,2.0,1.0,1.0,2.0,100.0,event
13:40:54.989,0.0,0.0,0.0,0.0,0.0,0.0,0.0,0.0,0.0,0.0,0.0,0.0,0.0,0.0,0.0,0.0,0.0,0.0,0.0,0.0,809.0842,798.20514,757.9121,799.81683,899.34064,-0.01953125,0.0235595703125,0.9884033203125,2.19818115234375,-3.521575927734375,0.800018310546875,1.0,2.0,1.0,1.0,2.0,100.0,event
13:40:54.990,0.0,0.0,0.0,0.0,0.0,0.0,0.0,0.0,0.0,0.0,0.0,0.0,0.0,0.0,0.0,0.0,0.0,0.0,0.0,0.0,830.4396,828.8278,859.0476,831.2454,829.6337,-0.01953125,0.0235595703125,0.9884033203125,2.19818115234375,-3.521575927734375,0.800018310546875,1.0,2.0,1.0,1.0,2.0,100.0,event
13:40:54.991,0.0,0.0,0.0,0.0,0.0,0.0,0.0,0.0,0.0,0.0,0.0,0.0,0.0,0.0,0.0,0.0,0.0,0.0,0.0,0.0,833.2601,803.44324,846.9597,845.7509,826.0073,-0.01953125,0.0235595703125,0.9884033203125,2.19818115234375,-3.521575927734375,0.800018310546875,1.0,2.0,1.0,1.0,2.0,100.0,event
13:40:54.991,0.0,0.0,0.0,0.0,0.0,0.0,0.0,0.0,0.0,0.0,0.0,0.0,0.0,0.0,0.0,0.0,0.0,0.0,0.0,0.0,801.4286,805.4579,813.91943,815.9341,989.59705,-0.01953125,0.0235595703125,0.9884033203125,2.19818115234375,-3.521575927734375,0.800018310546875,1.0,2.0,1.0,1.0,2.0,100.0,event
13:40:54.992,0.0,0.0,0.0,0.0,0.0,0.0,0.0,0.0,0.0,0.0,0.0,0.0,0.0,0.0,0.0,0.0,0.0,0.0,0.0,0.0,784.10254,838.0952,792.96704,784.5055,960.18317,-0.01953125,0.0235595703125,0.9884033203125,2.19818115234375,-3.521575927734375,0.800018310546875,1.0,2.0,1.0,1.0,2.0,100.0,event
13:40:54.993,0.0,0.0,0.0,0.0,0.0,0.0,0.0,0.0,0.0,0.0,0.0,0.0,0.0,0.0,0.0,0.0,0.0,0.0,0.0,0.0,817.5458,845.34796,776.8498,785.31134,701.0989,-0.01953125,0.0235595703125,0.9884033203125,2.19818115234375,-3.521575927734375,0.800018310546875,1.0,2.0,1.0,1.0,2.0,100.0,event
13:40:55.017,0.0,0.0,0.0,0.0,0.0,0.0,0.0,0.0,0.0,0.0,0.0,0.0,0.0,0.0,0.0,0.0,0.0,0.0,0.0,0.0,836.08057,833.663,786.1172,809.0842,643.0769,-0.01953125,0.0235595703125,0.9884033203125,2.19818115234375,-3.521575927734375,0.800018310546875,1.0,2.0,1.0,1.0,2.0,100.0,event
13:40:55.018,0.0,0.0,0.0,0.0,0.0,0.0,0.0,0.0,0.0,0.0,0.0,0.0,0.0,0.0,0.0,0.0,0.0,0.0,0.0,0.0,823.1868,829.6337,806.26373,832.4542,776.04395,-0.01953125,0.0235595703125,0.9884033203125,2.19818115234375,-3.521575927734375,0.800018310546875,1.0,2.0,1.0,1.0,2.0,100.0,event
13:40:55.019,0.0,0.0,0.0,0.0,0.0,0.0,0.0,0.0,0.0,0.0,0.0,0.0,0.0,0.0,0.0,0.0,0.0,0.0,0.0,0.0,817.1429,826.4103,808.2784,820.7692,846.1539,-0.01953125,0.0235595703125,0.9884033203125,2.19818115234375,-3.521575927734375,0.800018310546875,1.0,2.0,1.0,1.0,2.0,100.0,event
13:40:55.019,0.0,0.0,0.0,0.0,0.0,0.0,0.0,0.0,0.0,0.0,0.0,0.0,0.0,0.0,0.0,0.0,0.0,0.0,0.0,0.0,802.6374,824.7985,792.96704,788.93774,776.04395,-0.01953125,0.0235595703125,0.9884033203125,2.19818115234375,-3.521575927734375,0.800018310546875,1.0,2.0,1.0,1.0,2.0,100.0,event
13:40:55.020,0.0,0.0,0.0,0.0,0.0,0.0,0.0,0.0,0.0,0.0,0.0,0.0,0.0,0.0,0.0,0.0,0.0,0.0,0.0,0.0,796.1905,818.7546,781.685,780.87915,743.00366,-0.01953125,0.0235595703125,0.9884033203125,2.19818115234375,-3.521575927734375,0.800018310546875,1.0,2.0,1.0,1.0,2.0,100.0,event
13:40:55.020,0.0,0.0,0.0,0.0,0.0,0.0,0.0,0.0,0.0,0.0,0.0,0.0,0.0,0.0,0.0,0.0,0.0,0.0,0.0,0.0,806.26373,810.293,797.3993,791.75824,973.8828,-0.01953125,0.0235595703125,0.9884033203125,2.19818115234375,-3.521575927734375,0.800018310546875,1.0,2.0,1.0,1.0,2.0,100.0,event
13:40:55.021,0.0,0.0,0.0,0.0,0.0,0.0,0.0,0.0,0.0,0.0,0.0,0.0,0.0,0.0,0.0,0.0,0.0,0.0,0.0,0.0,816.337,801.4286,817.1429,813.1135,928.3516,-0.01953125,0.0235595703125,0.9884033203125,2.19818115234375,-3.521575927734375,0.800018310546875,1.0,2.0,1.0,1.0,2.0,100.0,event
13:40:55.022,0.0,0.0,0.0,0.0,0.0,0.0,0.0,0.0,0.0,0.0,0.0,0.0,0.0,0.0,0.0,0.0,0.0,0.0,0.0,0.0,812.3077,838.9011,818.7546,825.2015,686.1905,-0.01953125,0.0235595703125,0.9884033203125,2.19818115234375,-3.521575927734375,0.800018310546875,1.0,2.0,1.0,1.0,2.0,100.0,event
13:40:55.024,0.0,0.0,0.0,0.0,0.0,0.0,0.0,0.0,0.0,0.0,0.0,0.0,0.0,0.0,0.0,0.0,0.0,0.0,0.0,0.0,809.89014,879.59705,812.3077,804.65204,738.5714,-0.01953125,0.0235595703125,0.9884033203125,2.19818115234375,-3.521575927734375,0.800018310546875,1.0,2.0,1.0,1.0,2.0,100.0,event
13:40:55.024,0.0,0.0,0.0,0.0,0.0,0.0,0.0,0.0,0.0,0.0,0.0,0.0,0.0,0.0,0.0,0.0,0.0,0.0,0.0,0.0,833.663,890.07324,780.07324,803.0403,877.1795,-0.01953125,0.0235595703125,0.9884033203125,2.19818115234375,-3.521575927734375,0.800018310546875,1.0,2.0,1.0,1.0,2.0,100.0,event
13:40:55.025,0.0,0.0,0.0,0.0,0.0,0.0,0.0,0.0,0.0,0.0,0.0,0.0,0.0,0.0,0.0,0.0,0.0,0.0,0.0,0.0,832.8571,929.5604,783.2967,819.5604,740.58606,-0.01953125,0.0235595703125,0.9884033203125,2.19818115234375,-3.521575927734375,0.800018310546875,1.0,2.0,1.0,1.0,2.0,100.0,event
13:40:55.025,0.0,0.0,0.0,0.0,0.0,0.0,0.0,0.0,0.0,0.0,0.0,0.0,0.0,0.0,0.0,0.0,0.0,0.0,0.0,0.0,821.5751,910.6227,801.8315,828.8278,725.6777,-0.01953125,0.0235595703125,0.9884033203125,2.19818115234375,-3.521575927734375,0.800018310546875,1.0,2.0,1.0,1.0,2.0,100.0,event
13:40:55.051,0.0,0.0,0.0,0.0,0.0,0.0,0.0,0.0,0.0,0.0,0.0,0.0,0.0,0.0,0.0,0.0,0.0,0.0,0.0,0.0,804.2491,873.5531,794.17584,822.7839,832.0513,-0.017822265625,0.0279541015625,0.98614501953125,2.07855224609375,-3.69354248046875,0.635528564453125,1.0,2.0,1.0,1.0,2.0,100.0,event
13:40:55.052,0.0,0.0,0.0,0.0,0.0,0.0,0.0,0.0,0.0,0.0,0.0,0.0,0.0,0.0,0.0,0.0,0.0,0.0,0.0,0.0,783.69965,867.9121,801.8315,799.81683,792.5641,-0.017822265625,0.0279541015625,0.98614501953125,2.07855224609375,-3.69354248046875,0.635528564453125,1.0,2.0,1.0,1.0,2.0,100.0,event
13:40:55.052,0.0,0.0,0.0,0.0,0.0,0.0,0.0,0.0,0.0,0.0,0.0,0.0,0.0,0.0,0.0,0.0,0.0,0.0,0.0,0.0,793.36993,855.82416,824.7985,794.9817,728.9011,-0.017822265625,0.0279541015625,0.98614501953125,2.07855224609375,-3.69354248046875,0.635528564453125,1.0,2.0,1.0,1.0,2.0,100.0,event
13:40:55.053,0.0,0.0,0.0,0.0,0.0,0.0,0.0,0.0,0.0,0.0,0.0,0.0,0.0,0.0,0.0,0.0,0.0,0.0,0.0,0.0,815.12823,882.01465,818.3516,808.68134,738.5714,-0.017822265625,0.0279541015625,0.98614501953125,2.07855224609375,-3.69354248046875,0.635528564453125,1.0,2.0,1.0,1.0,2.0,100.0,event
13:40:55.056,0.0,0.0,0.0,0.0,0.0,0.0,0.0,0.0,0.0,0.0,0.0,0.0,0.0,0.0,0.0,0.0,0.0,0.0,0.0,0.0,821.1722,882.01465,803.0403,820.7692,862.674,-0.017822265625,0.0279541015625,0.98614501953125,2.07855224609375,-3.69354248046875,0.635528564453125,1.0,2.0,1.0,1.0,2.0,100.0,event
13:40:55.057,0.0,0.0,0.0,0.0,0.0,0.0,0.0,0.0,0.0,0.0,0.0,0.0,0.0,0.0,0.0,0.0,0.0,0.0,0.0,0.0,817.1429,862.27106,798.20514,817.9487,889.67035,-0.017822265625,0.0279541015625,0.98614501953125,2.07855224609375,-3.69354248046875,0.635528564453125,1.0,2.0,1.0,1.0,2.0,100.0,event
13:40:55.058,0.0,0.0,0.0,0.0,0.0,0.0,0.0,0.0,0.0,0.0,0.0,0.0,0.0,0.0,0.0,0.0,0.0,0.0,0.0,0.0,807.0696,878.7912,793.36993,801.8315,820.3663,-0.017822265625,0.0279541015625,0.98614501953125,2.07855224609375,-3.69354248046875,0.635528564453125,1.0,2.0,1.0,1.0,2.0,100.0,event
13:40:55.058,0.0,0.0,0.0,0.0,0.0,0.0,0.0,0.0,0.0,0.0,0.0,0.0,0.0,0.0,0.0,0.0,0.0,0.0,0.0,0.0,801.02563,871.9414,781.685,793.36993,840.5128,-0.017822265625,0.0279541015625,0.98614501953125,2.07855224609375,-3.69354248046875,0.635528564453125,1.0,2.0,1.0,1.0,2.0,100.0,event
13:40:55.059,0.0,0.0,0.0,0.0,0.0,0.0,0.0,0.0,0.0,0.0,0.0,0.0,0.0,0.0,0.0,0.0,0.0,0.0,0.0,0.0,807.8755,838.9011,790.9524,816.7399,996.04395,-0.017822265625,0.0279541015625,0.98614501953125,2.07855224609375,-3.69354248046875,0.635528564453125,1.0,2.0,1.0,1.0,2.0,100.0,event
13:40:55.060,0.0,0.0,0.0,0.0,0.0,0.0,0.0,0.0,0.0,0.0,0.0,0.0,0.0,0.0,0.0,0.0,0.0,0.0,0.0,0.0,821.978,843.73627,816.7399,841.7216,1073.0037,-0.017822265625,0.0279541015625,0.98614501953125,2.07855224609375,-3.69354248046875,0.635528564453125,1.0,2.0,1.0,1.0,2.0,100.0,event
13:40:55.060,0.0,0.0,0.0,0.0,0.0,0.0,0.0,0.0,0.0,0.0,0.0,0.0,0.0,0.0,0.0,0.0,0.0,0.0,0.0,0.0,821.5751,853.8095,811.50183,835.2747,836.4835,-0.017822265625,0.0279541015625,0.98614501953125,2.07855224609375,-3.69354248046875,0.635528564453125,1.0,2.0,1.0,1.0,2.0,100.0,event
13:40:55.061,0.0,0.0,0.0,0.0,0.0,0.0,0.0,0.0,0.0,0.0,0.0,0.0,0.0,0.0,0.0,0.0,0.0,0.0,0.0,0.0,790.9524,836.4835,809.4872,806.6667,752.27106,-0.017822265625,0.0279541015625,0.98614501953125,2.07855224609375,-3.69354248046875,0.635528564453125,1.0,2.0,1.0,1.0,2.0,100.0,event
13:40:55.084,0.0,0.0,0.0,0.0,0.0,0.0,0.0,0.0,0.0,0.0,0.0,0.0,0.0,0.0,0.0,0.0,0.0,0.0,0.0,0.0,776.8498,831.6484,801.02563,782.8938,760.32965,-0.025390625,0.02294921875,0.98486328125,1.9140625,-3.222503662109375,0.814971923828125,1.0,2.0,1.0,1.0,2.0,100.0,event
13:40:55.085,0.0,0.0,0.0,0.0,0.0,0.0,0.0,0.0,0.0,0.0,0.0,0.0,0.0,0.0,0.0,0.0,0.0,0.0,0.0,0.0,801.8315,842.9304,768.7912,794.9817,715.2015,-0.025390625,0.02294921875,0.98486328125,1.9140625,-3.222503662109375,0.814971923828125,1.0,2.0,1.0,1.0,2.0,100.0,event
13:40:55.086,0.0,0.0,0.0,0.0,0.0,0.0,0.0,0.0,0.0,0.0,0.0,0.0,0.0,0.0,0.0,0.0,0.0,0.0,0.0,0.0,813.5165,846.1539,767.1795,816.337,684.17584,-0.025390625,0.02294921875,0.98486328125,1.9140625,-3.222503662109375,0.814971923828125,1.0,2.0,1.0,1.0,2.0,100.0,event
13:40:55.087,0.0,0.0,0.0,0.0,0.0,0.0,0.0,0.0,0.0,0.0,0.0,0.0,0.0,0.0,0.0,0.0,0.0,0.0,0.0,0.0,801.4286,831.6484,791.75824,819.9634,733.3333,-0.025390625,0.02294921875,0.98486328125,1.9140625,-3.222503662109375,0.814971923828125,1.0,2.0,1.0,1.0,2.0,100.0,event
13:40:55.087,0.0,0.0,0.0,0.0,0.0,0.0,0.0,0.0,0.0,0.0,0.0,0.0,0.0,0.0,0.0,0.0,0.0,0.0,0.0,0.0,798.60803,817.1429,783.69965,799.011,786.9231,-0.025390625,0.02294921875,0.98486328125,1.9140625,-3.222503662109375,0.814971923828125,1.0,2.0,1.0,1.0,2.0,100.0,event
13:40:55.088,0.0,0.0,0.0,0.0,0.0,0.0,0.0,0.0,0.0,0.0,0.0,0.0,0.0,0.0,0.0,0.0,0.0,0.0,0.0,0.0,793.36993,828.022,801.8315,782.0879,809.89014,-0.025390625,0.02294921875,0.98486328125,1.9140625,-3.222503662109375,0.814971923828125,1.0,2.0,1.0,1.0,2.0,100.0,event
13:40:55.088,0.0,0.0,0.0,0.0,0.0,0.0,0.0,0.0,0.0,0.0,0.0,0.0,0.0,0.0,0.0,0.0,0.0,0.0,0.0,0.0,790.14655,850.989,836.08057,790.14655,824.7985,-0.025390625,0.02294921875,0.98486328125,1.9140625,-3.222503662109375,0.814971923828125,1.0,2.0,1.0,1.0,2.0,100.0,event
13:40:55.089,0.0,0.0,0.0,0.0,0.0,0.0,0.0,0.0,0.0,0.0,0.0,0.0,0.0,0.0,0.0,0.0,0.0,0.0,0.0,0.0,811.50183,840.9158,825.2015,815.9341,845.7509,-0.025390625,0.02294921875,0.98486328125,1.9140625,-3.222503662109375,0.814971923828125,1.0,2.0,1.0,1.0,2.0,100.0,event
13:40:55.090,0.0,0.0,0.0,0.0,0.0,0.0,0.0,0.0,0.0,0.0,0.0,0.0,0.0,0.0,0.0,0.0,0.0,0.0,0.0,0.0,818.7546,847.76556,814.7253,825.2015,912.23444,-0.025390625,0.02294921875,0.98486328125,1.9140625,-3.222503662109375,0.814971923828125,1.0,2.0,1.0,1.0,2.0,100.0,event
13:40:55.090,0.0,0.0,0.0,0.0,0.0,0.0,0.0,0.0,0.0,0.0,0.0,0.0,0.0,0.0,0.0,0.0,0.0,0.0,0.0,0.0,820.3663,820.3663,812.3077,837.6923,1066.9597,-0.025390625,0.02294921875,0.98486328125,1.9140625,-3.222503662109375,0.814971923828125,1.0,2.0,1.0,1.0,2.0,100.0,event
13:40:55.091,0.0,0.0,0.0,0.0,0.0,0.0,0.0,0.0,0.0,0.0,0.0,0.0,0.0,0.0,0.0,0.0,0.0,0.0,0.0,0.0,824.3956,821.978,788.93774,811.50183,636.63007,-0.025390625,0.02294921875,0.98486328125,1.9140625,-3.222503662109375,0.814971923828125,1.0,2.0,1.0,1.0,2.0,100.0,event
13:40:55.092,0.0,0.0,0.0,0.0,0.0,0.0,0.0,0.0,0.0,0.0,0.0,0.0,0.0,0.0,0.0,0.0,0.0,0.0,0.0,0.0,812.71063,786.1172,780.07324,798.60803,724.4689,-0.025390625,0.02294921875,0.98486328125,1.9140625,-3.222503662109375,0.814971923828125,1.0,2.0,1.0,1.0,2.0,100.0,event
13:40:55.118,0.0,0.0,0.0,0.0,0.0,0.0,0.0,0.0,0.0,0.0,0.0,0.0,0.0,0.0,0.0,0.0,0.0,0.0,0.0,0.0,807.0696,836.4835,801.4286,807.0696,784.90845,-0.01953125,0.0281982421875,0.9884033203125,2.983245849609375,-3.835601806640625,-0.2392578125,1.0,2.0,1.0,1.0,2.0,100.0,event
13:40:55.119,0.0,0.0,0.0,0.0,0.0,0.0,0.0,0.0,0.0,0.0,0.0,0.0,0.0,0.0,0.0,0.0,0.0,0.0,0.0,0.0,827.2161,849.7802,800.2198,829.2308,722.0513,-0.01953125,0.0281982421875,0.9884033203125,2.983245849609375,-3.835601806640625,-0.2392578125,1.0,2.0,1.0,1.0,2.0,100.0,event
13:40:55.120,0.0,0.0,0.0,0.0,0.0,0.0,0.0,0.0,0.0,0.0,0.0,0.0,0.0,0.0,0.0,0.0,0.0,0.0,0.0,0.0,815.9341,835.6777,801.8315,809.4872,689.011,-0.01953125,0.0281982421875,0.9884033203125,2.983245849609375,-3.835601806640625,-0.2392578125,1.0,2.0,1.0,1.0,2.0,100.0,event
13:40:55.121,0.0,0.0,0.0,0.0,0.0,0.0,0.0,0.0,0.0,0.0,0.0,0.0,0.0,0.0,0.0,0.0,0.0,0.0,0.0,0.0,782.8938,850.18317,820.3663,790.54944,709.15753,-0.01953125,0.0281982421875,0.9884033203125,2.983245849609375,-3.835601806640625,-0.2392578125,1.0,2.0,1.0,1.0,2.0,100.0,event
13:40:55.121,0.0,0.0,0.0,0.0,0.0,0.0,0.0,0.0,0.0,0.0,0.0,0.0,0.0,0.0,0.0,0.0,0.0,0.0,0.0,0.0,791.3553,821.978,838.0952,790.14655,716.4103,-0.01953125,0.0281982421875,0.9884033203125,2.983245849609375,-3.835601806640625,-0.2392578125,1.0,2.0,1.0,1.0,2.0,100.0,event
13:40:55.122,0.0,0.0,0.0,0.0,0.0,0.0,0.0,0.0,0.0,0.0,0.0,0.0,0.0,0.0,0.0,0.0,0.0,0.0,0.0,0.0,838.0952,802.23444,776.8498,825.2015,789.34064,-0.01953125,0.0281982421875,0.9884033203125,2.983245849609375,-3.835601806640625,-0.2392578125,1.0,2.0,1.0,1.0,2.0,100.0,event
13:40:55.125,0.0,0.0,0.0,0.0,0.0,0.0,0.0,0.0,0.0,0.0,0.0,0.0,0.0,0.0,0.0,0.0,0.0,0.0,0.0,0.0,834.4689,831.2454,761.53845,838.49817,880.0,-0.01953125,0.0281982421875,0.9884033203125,2.983245849609375,-3.835601806640625,-0.2392578125,1.0,2.0,1.0,1.0,2.0,100.0,event
13:40:55.126,0.0,0.0,0.0,0.0,0.0,0.0,0.0,0.0,0.0,0.0,0.0,0.0,0.0,0.0,0.0,0.0,0.0,0.0,0.0,0.0,792.1612,842.52747,833.2601,807.8755,975.09155,-0.01953125,0.0281982421875,0.9884033203125,2.983245849609375,-3.835601806640625,-0.2392578125,1.0,2.0,1.0,1.0,2.0,100.0,event
13:40:55.127,0.0,0.0,0.0,0.0,0.0,0.0,0.0,0.0,0.0,0.0,0.0,0.0,0.0,0.0,0.0,0.0,0.0,0.0,0.0,0.0,797.3993,832.0513,776.4469,792.5641,677.326,-0.01953125,0.0281982421875,0.9884033203125,2.983245849609375,-3.835601806640625,-0.2392578125,1.0,2.0,1.0,1.0,2.0,100.0,event
13:40:55.127,0.0,0.0,0.0,0.0,0.0,0.0,0.0,0.0,0.0,0.0,0.0,0.0,0.0,0.0,0.0,0.0,0.0,0.0,0.0,0.0,788.1319,836.4835,821.978,791.75824,929.9634,-0.01953125,0.0281982421875,0.9884033203125,2.983245849609375,-3.835601806640625,-0.2392578125,1.0,2.0,1.0,1.0,2.0,100.0,event
13:40:55.128,0.0,0.0,0.0,0.0,0.0,0.0,0.0,0.0,0.0,0.0,0.0,0.0,0.0,0.0,0.0,0.0,0.0,0.0,0.0,0.0,811.9048,821.978,797.8022,807.0696,724.87177,-0.01953125,0.0281982421875,0.9884033203125,2.983245849609375,-3.835601806640625,-0.2392578125,1.0,2.0,1.0,1.0,2.0,100.0,event
13:40:55.128,0.0,0.0,0.0,0.0,0.0,0.0,0.0,0.0,0.0,0.0,0.0,0.0,0.0,0.0,0.0,0.0,0.0,0.0,0.0,0.0,825.2015,781.685,831.2454,825.2015,882.01465,-0.01953125,0.0281982421875,0.9884033203125,2.983245849609375,-3.835601806640625,-0.2392578125,1.0,2.0,1.0,1.0,2.0,100.0,event
13:40:55.219,0.0,0.0,0.0,0.0,0.0,0.0,0.0,0.0,0.0,0.0,0.0,0.0,0.0,0.0,0.0,0.0,0.0,0.0,0.0,0.0,831.2454,781.28204,822.381,832.4542,871.53845,-0.01483154296875,0.0291748046875,0.98870849609375,1.936492919921875,-3.90289306640625,0.2691650390625,1.0,2.0,1.0,1.0,2.0,100.0,event
13:40:55.220,0.0,0.0,0.0,0.0,0.0,0.0,0.0,0.0,0.0,0.0,0.0,0.0,0.0,0.0,0.0,0.0,0.0,0.0,0.0,0.0,813.5165,833.2601,801.4286,815.5311,723.2601,-0.01483154296875,0.0291748046875,0.98870849609375,1.936492919921875,-3.90289306640625,0.2691650390625,1.0,2.0,1.0,1.0,2.0,100.0,event
13:40:55.221,0.0,0.0,0.0,0.0,0.0,0.0,0.0,0.0,0.0,0.0,0.0,0.0,0.0,0.0,0.0,0.0,0.0,0.0,0.0,0.0,785.7143,831.2454,810.696,788.93774,657.1795,-0.01483154296875,0.0291748046875,0.98870849609375,1.936492919921875,-3.90289306640625,0.2691650390625,1.0,2.0,1.0,1.0,2.0,100.0,event
13:40:55.221,0.0,0.0,0.0,0.0,0.0,0.0,0.0,0.0,0.0,0.0,0.0,0.0,0.0,0.0,0.0,0.0,0.0,0.0,0.0,0.0,801.8315,823.9927,796.99634,798.20514,787.72894,-0.01483154296875,0.0291748046875,0.98870849609375,1.936492919921875,-3.90289306640625,0.2691650390625,1.0,2.0,1.0,1.0,2.0,100.0,event
13:40:55.222,0.0,0.0,0.0,0.0,0.0,0.0,0.0,0.0,0.0,0.0,0.0,0.0,0.0,0.0,0.0,0.0,0.0,0.0,0.0,0.0,828.8278,846.55676,767.5824,828.8278,791.3553,-0.01483154296875,0.0291748046875,0.98870849609375,1.936492919921875,-3.90289306640625,0.2691650390625,1.0,2.0,1.0,1.0,2.0,100.0,event
13:40:55.223,0.0,0.0,0.0,0.0,0.0,0.0,0.0,0.0,0.0,0.0,0.0,0.0,0.0,0.0,0.0,0.0,0.0,0.0,0.0,0.0,826.8132,843.73627,814.3223,828.8278,768.3883,-0.01483154296875,0.0291748046875,0.98870849609375,1.936492919921875,-3.90289306640625,0.2691650390625,1.0,2.0,1.0,1.0,2.0,100.0,event
13:40:55.223,0.0,0.0,0.0,0.0,0.0,0.0,0.0,0.0,0.0,0.0,0.0,0.0,0.0,0.0,0.0,0.0,0.0,0.0,0.0,0.0,804.2491,839.304,836.08057,811.50183,836.08057,-0.01483154296875,0.0291748046875,0.98870849609375,1.936492919921875,-3.90289306640625,0.2691650390625,1.0,2.0,1.0,1.0,2.0,100.0,event
13:40:55.224,0.0,0.0,0.0,0.0,0.0,0.0,0.0,0.0,0.0,0.0,0.0,0.0,0.0,0.0,0.0,0.0,0.0,0.0,0.0,0.0,819.5604,828.4249,812.3077,821.1722,989.59705,-0.01483154296875,0.0291748046875,0.98870849609375,1.936492919921875,-3.90289306640625,0.2691650390625,1.0,2.0,1.0,1.0,2.0,100.0,event
13:40:55.225,0.0,0.0,0.0,0.0,0.0,0.0,0.0,0.0,0.0,0.0,0.0,0.0,0.0,0.0,0.0,0.0,0.0,0.0,0.0,0.0,837.6923,835.6777,790.9524,852.1978,669.2674,-0.01483154296875,0.0291748046875,0.98870849609375,1.936492919921875,-3.90289306640625,0.2691650390625,1.0,2.0,1.0,1.0,2.0,100.0,event
13:40:55.225,0.0,0.0,0.0,0.0,0.0,0.0,0.0,0.0,0.0,0.0,0.0,0.0,0.0,0.0,0.0,0.0,0.0,0.0,0.0,0.0,841.7216,837.28937,812.71063,840.5128,810.293,-0.01483154296875,0.0291748046875,0.98870849609375,1.936492919921875,-3.90289306640625,0.2691650390625,1.0,2.0,1.0,1.0,2.0,100.0,event
13:40:55.226,0.0,0.0,0.0,0.0,0.0,0.0,0.0,0.0,0.0,0.0,0.0,0.0,0.0,0.0,0.0,0.0,0.0,0.0,0.0,0.0,798.60803,847.76556,778.46155,817.9487,801.02563,-0.01483154296875,0.0291748046875,0.98870849609375,1.936492919921875,-3.90289306640625,0.2691650390625,1.0,2.0,1.0,1.0,2.0,100.0,event
13:40:55.226,0.0,0.0,0.0,0.0,0.0,0.0,0.0,0.0,0.0,0.0,0.0,0.0,0.0,0.0,0.0,0.0,0.0,0.0,0.0,0.0,771.6117,866.30035,811.0989,773.6264,787.326,-0.01483154296875,0.0291748046875,0.98870849609375,1.936492919921875,-3.90289306640625,0.2691650390625,1.0,2.0,1.0,1.0,2.0,100.0,event
13:40:55.248,0.0,0.0,0.0,0.0,0.0,0.0,0.0,0.0,0.0,0.0,0.0,0.0,0.0,0.0,0.0,0.0,0.0,0.0,0.0,0.0,783.2967,840.10986,813.1135,775.64105,654.7619,-0.01483154296875,0.0291748046875,0.98870849609375,1.936492919921875,-3.90289306640625,0.2691650390625,1.0,2.0,1.0,1.0,2.0,100.0,event
13:40:55.249,0.0,0.0,0.0,0.0,0.0,0.0,0.0,0.0,0.0,0.0,0.0,0.0,0.0,0.0,0.0,0.0,0.0,0.0,0.0,0.0,787.72894,818.3516,799.81683,780.87915,658.7912,-0.01483154296875,0.0291748046875,0.98870849609375,1.936492919921875,-3.90289306640625,0.2691650390625,1.0,2.0,1.0,1.0,2.0,100.0,event
13:40:55.249,0.0,0.0,0.0,0.0,0.0,0.0,0.0,0.0,0.0,0.0,0.0,0.0,0.0,0.0,0.0,0.0,0.0,0.0,0.0,0.0,782.8938,819.15753,784.10254,793.36993,838.0952,-0.01483154296875,0.0291748046875,0.98870849609375,1.936492919921875,-3.90289306640625,0.2691650390625,1.0,2.0,1.0,1.0,2.0,100.0,event
13:40:55.250,0.0,0.0,0.0,0.0,0.0,0.0,0.0,0.0,0.0,0.0,0.0,0.0,0.0,0.0,0.0,0.0,0.0,0.0,0.0,0.0,755.09155,830.4396,788.5348,779.67035,873.5531,-0.01483154296875,0.0291748046875,0.98870849609375,1.936492919921875,-3.90289306640625,0.2691650390625,1.0,2.0,1.0,1.0,2.0,100.0,event
13:40:55.251,0.0,0.0,0.0,0.0,0.0,0.0,0.0,0.0,0.0,0.0,0.0,0.0,0.0,0.0,0.0,0.0,0.0,0.0,0.0,0.0,753.8828,841.7216,789.34064,758.71796,727.6923,-0.01483154296875,0.0291748046875,0.98870849609375,1.936492919921875,-3.90289306640625,0.2691650390625,1.0,2.0,1.0,1.0,2.0,100.0,event
13:40:55.251,0.0,0.0,0.0,0.0,0.0,0.0,0.0,0.0,0.0,0.0,0.0,0.0,0.0,0.0,0.0,0.0,0.0,0.0,0.0,0.0,767.1795,830.0366,784.90845,753.0769,690.2198,-0.01483154296875,0.0291748046875,0.98870849609375,1.936492919921875,-3.90289306640625,0.2691650390625,1.0,2.0,1.0,1.0,2.0,100.0,event
13:40:55.252,0.0,0.0,0.0,0.0,0.0,0.0,0.0,0.0,0.0,0.0,0.0,0.0,0.0,0.0,0.0,0.0,0.0,0.0,0.0,0.0,807.0696,814.3223,818.7546,794.9817,1164.8718,-0.01483154296875,0.0291748046875,0.98870849609375,1.936492919921875,-3.90289306640625,0.2691650390625,1.0,2.0,1.0,1.0,2.0,100.0,event
13:40:55.252,0.0,0.0,0.0,0.0,0.0,0.0,0.0,0.0,0.0,0.0,0.0,0.0,0.0,0.0,0.0,0.0,0.0,0.0,0.0,0.0,791.75824,800.6227,815.12823,770.40295,921.50183,-0.01483154296875,0.0291748046875,0.98870849609375,1.936492919921875,-3.90289306640625,0.2691650390625,1.0,2.0,1.0,1.0,2.0,100.0,event
13:40:55.255,0.0,0.0,0.0,0.0,0.0,0.0,0.0,0.0,0.0,0.0,0.0,0.0,0.0,0.0,0.0,0.0,0.0,0.0,0.0,0.0,787.326,833.2601,785.7143,786.52014,871.53845,-0.01483154296875,0.0291748046875,0.98870849609375,1.936492919921875,-3.90289306640625,0.2691650390625,1.0,2.0,1.0,1.0,2.0,100.0,event
13:40:55.256,0.0,0.0,0.0,0.0,0.0,0.0,0.0,0.0,0.0,0.0,0.0,0.0,0.0,0.0,0.0,0.0,0.0,0.0,0.0,0.0,769.19415,832.4542,755.4945,765.56775,735.7509,-0.01483154296875,0.0291748046875,0.98870849609375,1.936492919921875,-3.90289306640625,0.2691650390625,1.0,2.0,1.0,1.0,2.0,100.0,event
13:40:55.257,0.0,0.0,0.0,0.0,0.0,0.0,0.0,0.0,0.0,0.0,0.0,0.0,0.0,0.0,0.0,0.0,0.0,0.0,0.0,0.0,767.1795,840.5128,772.8205,755.4945,829.2308,-0.01483154296875,0.0291748046875,0.98870849609375,1.936492919921875,-3.90289306640625,0.2691650390625,1.0,2.0,1.0,1.0,2.0,100.0,event
13:40:55.257,0.0,0.0,0.0,0.0,0.0,0.0,0.0,0.0,0.0,0.0,0.0,0.0,0.0,0.0,0.0,0.0,0.0,0.0,0.0,0.0,765.56775,862.674,819.15753,759.92676,719.2308,-0.01483154296875,0.0291748046875,0.98870849609375,1.936492919921875,-3.90289306640625,0.2691650390625,1.0,2.0,1.0,1.0,2.0,100.0,event
13:40:55.282,0.0,0.0,0.0,0.0,0.0,0.0,0.0,0.0,0.0,0.0,0.0,0.0,0.0,0.0,0.0,0.0,0.0,0.0,0.0,0.0,788.93774,872.3443,838.49817,789.7436,686.99634,-0.0185546875,0.02239990234375,0.98602294921875,2.160797119140625,-3.529052734375,0.0299072265625,1.0,2.0,1.0,1.0,2.0,100.0,event
13:40:55.283,0.0,0.0,0.0,0.0,0.0,0.0,0.0,0.0,0.0,0.0,0.0,0.0,0.0,0.0,0.0,0.0,0.0,0.0,0.0,0.0,807.8755,840.5128,815.12823,809.0842,762.3443,-0.0185546875,0.02239990234375,0.98602294921875,2.160797119140625,-3.529052734375,0.0299072265625,1.0,2.0,1.0,1.0,2.0,100.0,event
13:40:55.284,0.0,0.0,0.0,0.0,0.0,0.0,0.0,0.0,0.0,0.0,0.0,0.0,0.0,0.0,0.0,0.0,0.0,0.0,0.0,0.0,801.02563,824.3956,793.7729,796.1905,815.9341,-0.0185546875,0.02239990234375,0.98602294921875,2.160797119140625,-3.529052734375,0.0299072265625,1.0,2.0,1.0,1.0,2.0,100.0,event
13:40:55.285,0.0,0.0,0.0,0.0,0.0,0.0,0.0,0.0,0.0,0.0,0.0,0.0,0.0,0.0,0.0,0.0,0.0,0.0,0.0,0.0,796.5934,844.94507,821.1722,790.9524,746.2271,-0.0185546875,0.02239990234375,0.98602294921875,2.160797119140625,-3.529052734375,0.0299072265625,1.0,2.0,1.0,1.0,2.0,100.0,event
13:40:55.285,0.0,0.0,0.0,0.0,0.0,0.0,0.0,0.0,0.0,0.0,0.0,0.0,0.0,0.0,0.0,0.0,0.0,0.0,0.0,0.0,804.65204,868.315,815.9341,796.99634,675.31134,-0.0185546875,0.02239990234375,0.98602294921875,2.160797119140625,-3.529052734375,0.0299072265625,1.0,2.0,1.0,1.0,2.0,100.0,event
13:40:55.286,0.0,0.0,0.0,0.0,0.0,0.0,0.0,0.0,0.0,0.0,0.0,0.0,0.0,0.0,0.0,0.0,0.0,0.0,0.0,0.0,810.293,869.12085,776.8498,810.293,846.55676,-0.0185546875,0.02239990234375,0.98602294921875,2.160797119140625,-3.529052734375,0.0299072265625,1.0,2.0,1.0,1.0,2.0,100.0,event
13:40:55.287,0.0,0.0,0.0,0.0,0.0,0.0,0.0,0.0,0.0,0.0,0.0,0.0,0.0,0.0,0.0,0.0,0.0,0.0,0.0,0.0,816.337,859.85345,797.8022,818.7546,1022.6374,-0.0185546875,0.02239990234375,0.98602294921875,2.160797119140625,-3.529052734375,0.0299072265625,1.0,2.0,1.0,1.0,2.0,100.0,event
13:40:55.288,0.0,0.0,0.0,0.0,0.0,0.0,0.0,0.0,0.0,0.0,0.0,0.0,0.0,0.0,0.0,0.0,0.0,0.0,0.0,0.0,811.50183,852.1978,808.2784,813.1135,964.61536,-0.0185546875,0.02239990234375,0.98602294921875,2.160797119140625,-3.529052734375,0.0299072265625,1.0,2.0,1.0,1.0,2.0,100.0,event
13:40:55.288,0.0,0.0,0.0,0.0,0.0,0.0,0.0,0.0,0.0,0.0,0.0,0.0,0.0,0.0,0.0,0.0,0.0,0.0,0.0,0.0,802.6374,865.09155,770.80585,800.6227,786.1172,-0.0185546875,0.02239990234375,0.98602294921875,2.160797119140625,-3.529052734375,0.0299072265625,1.0,2.0,1.0,1.0,2.0,100.0,event
13:40:55.289,0.0,0.0,0.0,0.0,0.0,0.0,0.0,0.0,0.0,0.0,0.0,0.0,0.0,0.0,0.0,0.0,0.0,0.0,0.0,0.0,816.7399,810.293,809.89014,823.1868,1004.10254,-0.0185546875,0.02239990234375,0.98602294921875,2.160797119140625,-3.529052734375,0.0299072265625,1.0,2.0,1.0,1.0,2.0,100.0,event
13:40:55.289,0.0,0.0,0.0,0.0,0.0,0.0,0.0,0.0,0.0,0.0,0.0,0.0,0.0,0.0,0.0,0.0,0.0,0.0,0.0,0.0,808.2784,855.82416,782.8938,803.44324,788.5348,-0.0185546875,0.02239990234375,0.98602294921875,2.160797119140625,-3.529052734375,0.0299072265625,1.0,2.0,1.0,1.0,2.0,100.0,event
13:40:55.290,0.0,0.0,0.0,0.0,0.0,0.0,0.0,0.0,0.0,0.0,0.0,0.0,0.0,0.0,0.0,0.0,0.0,0.0,0.0,0.0,823.5897,826.4103,817.5458,833.2601,799.41394,-0.0185546875,0.02239990234375,0.98602294921875,2.160797119140625,-3.529052734375,0.0299072265625,1.0,2.0,1.0,1.0,2.0,100.0,event
13:40:55.317,0.0,0.0,0.0,0.0,0.0,0.0,0.0,0.0,0.0,0.0,0.0,0.0,0.0,0.0,0.0,0.0,0.0,0.0,0.0,0.0,794.57874,848.97437,821.5751,808.68134,668.86444,-0.0189208984375,0.02618408203125,0.98797607421875,2.67669677734375,-3.81317138671875,-0.0299072265625,1.0,2.0,1.0,1.0,2.0,100.0,event
13:40:55.317,0.0,0.0,0.0,0.0,0.0,0.0,0.0,0.0,0.0,0.0,0.0,0.0,0.0,0.0,0.0,0.0,0.0,0.0,0.0,0.0,780.87915,842.9304,807.0696,799.81683,751.4652,-0.0189208984375,0.02618408203125,0.98797607421875,2.67669677734375,-3.81317138671875,-0.0299072265625,1.0,2.0,1.0,1.0,2.0,100.0,event
13:40:55.318,0.0,0.0,0.0,0.0,0.0,0.0,0.0,0.0,0.0,0.0,0.0,0.0,0.0,0.0,0.0,0.0,0.0,0.0,0.0,0.0,793.7729,832.4542,815.5311,800.2198,724.4689,-0.0189208984375,0.02618408203125,0.98797607421875,2.67669677734375,-3.81317138671875,-0.0299072265625,1.0,2.0,1.0,1.0,2.0,100.0,event
13:40:55.319,0.0,0.0,0.0,0.0,0.0,0.0,0.0,0.0,0.0,0.0,0.0,0.0,0.0,0.0,0.0,0.0,0.0,0.0,0.0,0.0,822.7839,837.28937,807.8755,823.1868,705.9341,-0.0189208984375,0.02618408203125,0.98797607421875,2.67669677734375,-3.81317138671875,-0.0299072265625,1.0,2.0,1.0,1.0,2.0,100.0,event
13:40:55.319,0.0,0.0,0.0,0.0,0.0,0.0,0.0,0.0,0.0,0.0,0.0,0.0,0.0,0.0,0.0,0.0,0.0,0.0,0.0,0.0,844.1392,837.6923,791.75824,861.8681,739.7802,-0.0189208984375,0.02618408203125,0.98797607421875,2.67669677734375,-3.81317138671875,-0.0299072265625,1.0,2.0,1.0,1.0,2.0,100.0,event
13:40:55.320,0.0,0.0,0.0,0.0,0.0,0.0,0.0,0.0,0.0,0.0,0.0,0.0,0.0,0.0,0.0,0.0,0.0,0.0,0.0,0.0,817.5458,823.9927,812.71063,844.1392,873.95605,-0.0189208984375,0.02618408203125,0.98797607421875,2.67669677734375,-3.81317138671875,-0.0299072265625,1.0,2.0,1.0,1.0,2.0,100.0,event
13:40:55.320,0.0,0.0,0.0,0.0,0.0,0.0,0.0,0.0,0.0,0.0,0.0,0.0,0.0,0.0,0.0,0.0,0.0,0.0,0.0,0.0,799.011,826.4103,817.9487,797.3993,858.6447,-0.0189208984375,0.02618408203125,0.98797607421875,2.67669677734375,-3.81317138671875,-0.0299072265625,1.0,2.0,1.0,1.0,2.0,100.0,event
13:40:55.321,0.0,0.0,0.0,0.0,0.0,0.0,0.0,0.0,0.0,0.0,0.0,0.0,0.0,0.0,0.0,0.0,0.0,0.0,0.0,0.0,801.8315,826.4103,804.2491,783.69965,728.0952,-0.0189208984375,0.02618408203125,0.98797607421875,2.67669677734375,-3.81317138671875,-0.0299072265625,1.0,2.0,1.0,1.0,2.0,100.0,event
13:40:55.321,0.0,0.0,0.0,0.0,0.0,0.0,0.0,0.0,0.0,0.0,0.0,0.0,0.0,0.0,0.0,0.0,0.0,0.0,0.0,0.0,813.1135,790.54944,807.47253,810.696,706.7399,-0.0189208984375,0.02618408203125,0.98797607421875,2.67669677734375,-3.81317138671875,-0.0299072265625,1.0,2.0,1.0,1.0,2.0,100.0,event
13:40:55.322,0.0,0.0,0.0,0.0,0.0,0.0,0.0,0.0,0.0,0.0,0.0,0.0,0.0,0.0,0.0,0.0,0.0,0.0,0.0,0.0,824.7985,732.9304,807.8755,842.52747,998.46155,-0.0189208984375,0.02618408203125,0.98797607421875,2.67669677734375,-3.81317138671875,-0.0299072265625,1.0,2.0,1.0,1.0,2.0,100.0,event
13:40:55.325,0.0,0.0,0.0,0.0,0.0,0.0,0.0,0.0,0.0,0.0,0.0,0.0,0.0,0.0,0.0,0.0,0.0,0.0,0.0,0.0,813.5165,784.10254,816.337,834.4689,1052.0513,-0.0189208984375,0.02618408203125,0.98797607421875,2.67669677734375,-3.81317138671875,-0.0299072265625,1.0,2.0,1.0,1.0,2.0,100.0,event
13:40:55.325,0.0,0.0,0.0,0.0,0.0,0.0,0.0,0.0,0.0,0.0,0.0,0.0,0.0,0.0,0.0,0.0,0.0,0.0,0.0,0.0,794.57874,839.304,809.89014,801.02563,738.5714,-0.0189208984375,0.02618408203125,0.98797607421875,2.67669677734375,-3.81317138671875,-0.0299072265625,1.0,2.0,1.0,1.0,2.0,100.0,event
13:40:55.385,0.0,0.0,0.0,0.0,0.0,0.0,0.0,0.0,0.0,0.0,0.0,0.0,0.0,0.0,0.0,0.0,0.0,0.0,0.0,0.0,802.23444,823.1868,787.326,794.17584,717.2161,-0.0203857421875,0.02923583984375,0.99163818359375,2.1234130859375,-3.626251220703125,0.59814453125,1.0,2.0,1.0,1.0,2.0,100.0,event
13:40:55.386,0.0,0.0,0.0,0.0,0.0,0.0,0.0,0.0,0.0,0.0,0.0,0.0,0.0,0.0,0.0,0.0,0.0,0.0,0.0,0.0,835.2747,800.2198,796.5934,815.5311,780.07324,-0.0203857421875,0.02923583984375,0.99163818359375,2.1234130859375,-3.626251220703125,0.59814453125,1.0,2.0,1.0,1.0,2.0,100.0,event
13:40:55.387,0.0,0.0,0.0,0.0,0.0,0.0,0.0,0.0,0.0,0.0,0.0,0.0,0.0,0.0,0.0,0.0,0.0,0.0,0.0,0.0,826.0073,787.72894,814.3223,834.0659,772.01465,-0.0203857421875,0.02923583984375,0.99163818359375,2.1234130859375,-3.626251220703125,0.59814453125,1.0,2.0,1.0,1.0,2.0,100.0,event
13:40:55.388,0.0,0.0,0.0,0.0,0.0,0.0,0.0,0.0,0.0,0.0,0.0,0.0,0.0,0.0,0.0,0.0,0.0,0.0,0.0,0.0,797.3993,805.4579,802.23444,816.337,711.5751,-0.0203857421875,0.02923583984375,0.99163818359375,2.1234130859375,-3.626251220703125,0.59814453125,1.0,2.0,1.0,1.0,2.0,100.0,event
13:40:55.388,0.0,0.0,0.0,0.0,0.0,0.0,0.0,0.0,0.0,0.0,0.0,0.0,0.0,0.0,0.0,0.0,0.0,0.0,0.0,0.0,779.2674,814.3223,764.35895,786.1172,704.7253,-0.0203857421875,0.02923583984375,0.99163818359375,2.1234130859375,-3.626251220703125,0.59814453125,1.0,2.0,1.0,1.0,2.0,100.0,event
13:40:55.389,0.0,0.0,0.0,0.0,0.0,0.0,0.0,0.0,0.0,0.0,0.0,0.0,0.0,0.0,0.0,0.0,0.0,0.0,0.0,0.0,784.10254,790.9524,770.80585,790.54944,800.6227,-0.0203857421875,0.02923583984375,0.99163818359375,2.1234130859375,-3.626251220703125,0.59814453125,1.0,2.0,1.0,1.0,2.0,100.0,event
13:40:55.390,0.0,0.0,0.0,0.0,0.0,0.0,0.0,0.0,0.0,0.0,0.0,0.0,0.0,0.0,0.0,0.0,0.0,0.0,0.0,0.0,803.8461,769.19415,808.2784,805.4579,852.6007,-0.0203857421875,0.02923583984375,0.99163818359375,2.1234130859375,-3.626251220703125,0.59814453125,1.0,2.0,1.0,1.0,2.0,100.0,event
13:40:55.390,0.0,0.0,0.0,0.0,0.0,0.0,0.0,0.0,0.0,0.0,0.0,0.0,0.0,0.0,0.0,0.0,0.0,0.0,0.0,0.0,815.5311,787.326,799.011,822.381,768.7912,-0.0203857421875,0.02923583984375,0.99163818359375,2.1234130859375,-3.626251220703125,0.59814453125,1.0,2.0,1.0,1.0,2.0,100.0,event
13:40:55.391,0.0,0.0,0.0,0.0,0.0,0.0,0.0,0.0,0.0,0.0,0.0,0.0,0.0,0.0,0.0,0.0,0.0,0.0,0.0,0.0,795.78754,786.52014,848.97437,811.9048,1010.9524,-0.0203857421875,0.02923583984375,0.99163818359375,2.1234130859375,-3.626251220703125,0.59814453125,1.0,2.0,1.0,1.0,2.0,100.0,event
13:40:55.391,0.0,0.0,0.0,0.0,0.0,0.0,0.0,0.0,0.0,0.0,0.0,0.0,0.0,0.0,0.0,0.0,0.0,0.0,0.0,0.0,809.4872,797.3993,809.4872,822.7839,809.4872,-0.0203857421875,0.02923583984375,0.99163818359375,2.1234130859375,-3.626251220703125,0.59814453125,1.0,2.0,1.0,1.0,2.0,100.0,event
13:40:55.392,0.0,0.0,0.0,0.0,0.0,0.0,0.0,0.0,0.0,0.0,0.0,0.0,0.0,0.0,0.0,0.0,0.0,0.0,0.0,0.0,802.6374,791.3553,826.8132,801.4286,809.0842,-0.0203857421875,0.02923583984375,0.99163818359375,2.1234130859375,-3.626251220703125,0.59814453125,1.0,2.0,1.0,1.0,2.0,100.0,event
13:40:55.393,0.0,0.0,0.0,0.0,0.0,0.0,0.0,0.0,0.0,0.0,0.0,0.0,0.0,0.0,0.0,0.0,0.0,0.0,0.0,0.0,816.7399,790.54944,791.75824,801.4286,621.31866,-0.0203857421875,0.02923583984375,0.99163818359375,2.1234130859375,-3.626251220703125,0.59814453125,1.0,2.0,1.0,1.0,2.0,100.0,event
13:40:55.418,0.0,0.0,0.0,0.0,0.0,0.0,0.0,0.0,0.0,0.0,0.0,0.0,0.0,0.0,0.0,0.0,0.0,0.0,0.0,0.0,825.2015,761.13556,801.4286,828.022,828.022,-0.0208740234375,0.02862548828125,0.9892578125,2.6019287109375,-4.239349365234375,0.95703125,1.0,2.0,1.0,1.0,2.0,100.0,event
13:40:55.419,0.0,0.0,0.0,0.0,0.0,0.0,0.0,0.0,0.0,0.0,0.0,0.0,0.0,0.0,0.0,0.0,0.0,0.0,0.0,0.0,812.71063,755.09155,817.9487,825.2015,893.2967,-0.0208740234375,0.02862548828125,0.9892578125,2.6019287109375,-4.239349365234375,0.95703125,1.0,2.0,1.0,1.0,2.0,100.0,event
13:40:55.420,0.0,0.0,0.0,0.0,0.0,0.0,0.0,0.0,0.0,0.0,0.0,0.0,0.0,0.0,0.0,0.0,0.0,0.0,0.0,0.0,788.5348,773.22345,804.2491,802.23444,697.47253,-0.0208740234375,0.02862548828125,0.9892578125,2.6019287109375,-4.239349365234375,0.95703125,1.0,2.0,1.0,1.0,2.0,100.0,event
13:40:55.420,0.0,0.0,0.0,0.0,0.0,0.0,0.0,0.0,0.0,0.0,0.0,0.0,0.0,0.0,0.0,0.0,0.0,0.0,0.0,0.0,790.9524,759.92676,777.25275,801.02563,684.17584,-0.0208740234375,0.02862548828125,0.9892578125,2.6019287109375,-4.239349365234375,0.95703125,1.0,2.0,1.0,1.0,2.0,100.0,event
13:40:55.421,0.0,0.0,0.0,0.0,0.0,0.0,0.0,0.0,0.0,0.0,0.0,0.0,0.0,0.0,0.0,0.0,0.0,0.0,0.0,0.0,810.293,748.6447,788.93774,800.6227,783.2967,-0.0208740234375,0.02862548828125,0.9892578125,2.6019287109375,-4.239349365234375,0.95703125,1.0,2.0,1.0,1.0,2.0,100.0,event
13:40:55.422,0.0,0.0,0.0,0.0,0.0,0.0,0.0,0.0,0.0,0.0,0.0,0.0,0.0,0.0,0.0,0.0,0.0,0.0,0.0,0.0,821.1722,744.21246,818.7546,820.3663,855.0183,-0.0208740234375,0.02862548828125,0.9892578125,2.6019287109375,-4.239349365234375,0.95703125,1.0,2.0,1.0,1.0,2.0,100.0,event
13:40:55.422,0.0,0.0,0.0,0.0,0.0,0.0,0.0,0.0,0.0,0.0,0.0,0.0,0.0,0.0,0.0,0.0,0.0,0.0,0.0,0.0,805.4579,747.8388,829.2308,823.9927,934.3956,-0.0208740234375,0.02862548828125,0.9892578125,2.6019287109375,-4.239349365234375,0.95703125,1.0,2.0,1.0,1.0,2.0,100.0,event
13:40:55.423,0.0,0.0,0.0,0.0,0.0,0.0,0.0,0.0,0.0,0.0,0.0,0.0,0.0,0.0,0.0,0.0,0.0,0.0,0.0,0.0,792.96704,753.47986,828.4249,799.011,800.2198,-0.0208740234375,0.02862548828125,0.9892578125,2.6019287109375,-4.239349365234375,0.95703125,1.0,2.0,1.0,1.0,2.0,100.0,event
13:40:55.424,0.0,0.0,0.0,0.0,0.0,0.0,0.0,0.0,0.0,0.0,0.0,0.0,0.0,0.0,0.0,0.0,0.0,0.0,0.0,0.0,793.7729,720.84247,813.5165,797.8022,825.6044,-0.0208740234375,0.02862548828125,0.9892578125,2.6019287109375,-4.239349365234375,0.95703125,1.0,2.0,1.0,1.0,2.0,100.0,event
13:40:55.424,0.0,0.0,0.0,0.0,0.0,0.0,0.0,0.0,0.0,0.0,0.0,0.0,0.0,0.0,0.0,0.0,0.0,0.0,0.0,0.0,803.0403,736.1539,788.1319,810.293,886.04395,-0.0208740234375,0.02862548828125,0.9892578125,2.6019287109375,-4.239349365234375,0.95703125,1.0,2.0,1.0,1.0,2.0,100.0,event
13:40:55.425,0.0,0.0,-0.6016654,0.0,0.0,0.0,-0.088610284,0.0,0.0,0.0,-0.11262871,0.0,0.0,0.0,1.3147306,0.0,0.0,0.0,1.2307351,0.0,819.5604,740.58606,793.36993,833.663,728.0952,-0.0208740234375,0.02862548828125,0.9892578125,2.6019287109375,-4.239349365234375,0.95703125,1.0,2.0,1.0,1.0,2.0,100.0,event
13:40:55.425,0.0,0.0,0.0,0.0,0.0,0.0,0.0,0.0,0.0,0.0,0.0,0.0,0.0,0.0,0.0,0.0,0.0,0.0,0.0,0.0,821.5751,760.7326,770.80585,827.619,736.55676,-0.0208740234375,0.02862548828125,0.9892578125,2.6019287109375,-4.239349365234375,0.95703125,1.0,2.0,1.0,1.0,2.0,100.0,event
13:40:55.452,0.0,0.0,-0.6016654,0.0,0.0,0.0,-0.088610284,0.0,0.0,0.0,-0.11262871,0.0,0.0,0.0,1.3147306,0.0,0.0,0.0,1.2307351,0.0,793.36993,764.35895,837.28937,816.337,765.16486,-0.0208740234375,0.02862548828125,0.9892578125,2.6019287109375,-4.239349365234375,0.95703125,1.0,2.0,1.0,1.0,2.0,100.0,event
13:40:55.453,0.0,0.0,-0.6016654,0.0,0.0,0.0,-0.088610284,0.0,0.0,0.0,-0.11262871,0.0,0.0,0.0,1.3147306,0.0,0.0,0.0,1.2307351,0.0,792.1612,782.0879,814.3223,804.65204,707.5458,-0.0208740234375,0.02862548828125,0.9892578125,2.6019287109375,-4.239349365234375,0.95703125,1.0,2.0,1.0,1.0,2.0,100.0,event
13:40:55.453,0.0,0.0,-0.6016654,0.0,0.0,0.0,-0.088610284,0.0,0.0,0.0,-0.11262871,0.0,0.0,0.0,1.3147306,0.0,0.0,0.0,1.2307351,0.0,810.696,790.9524,788.93774,799.81683,682.5641,-0.0208740234375,0.02862548828125,0.9892578125,2.6019287109375,-4.239349365234375,0.95703125,1.0,2.0,1.0,1.0,2.0,100.0,event
13:40:55.454,0.0,0.0,-0.6016654,0.0,0.0,0.0,-0.088610284,0.0,0.0,0.0,-0.11262871,0.0,0.0,0.0,1.3147306,0.0,0.0,0.0,1.2307351,0.0,815.5311,809.4872,807.47253,805.8608,803.44324,-0.0208740234375,0.02862548828125,0.9892578125,2.6019287109375,-4.239349365234375,0.95703125,1.0,2.0,1.0,1.0,2.0,100.0,event
13:40:55.455,0.0,0.0,-0.6016654,0.0,0.0,0.0,-0.088610284,0.0,0.0,0.0,-0.11262871,0.0,0.0,0.0,1.3147306,0.0,0.0,0.0,1.2307351,0.0,818.3516,774.0293,803.0403,829.6337,1035.5311,-0.0208740234375,0.02862548828125,0.9892578125,2.6019287109375,-4.239349365234375,0.95703125,1.0,2.0,1.0,1.0,2.0,100.0,event
13:40:55.455,0.0,0.0,-0.6016654,0.0,0.0,0.0,-0.088610284,0.0,0.0,0.0,-0.11262871,0.0,0.0,0.0,1.3147306,0.0,0.0,0.0,1.2307351,0.0,807.0696,746.2271,803.0403,816.337,986.3736,-0.0208740234375,0.02862548828125,0.9892578125,2.6019287109375,-4.239349365234375,0.95703125,1.0,2.0,1.0,1.0,2.0,100.0,event
13:40:55.456,0.0,0.0,-0.6016654,0.0,0.0,0.0,-0.088610284,0.0,0.0,0.0,-0.11262871,0.0,0.0,0.0,1.3147306,0.0,0.0,0.0,1.2307351,0.0,799.41394,748.6447,823.1868,793.7729,778.0586,-0.0208740234375,0.02862548828125,0.9892578125,2.6019287109375,-4.239349365234375,0.95703125,1.0,2.0,1.0,1.0,2.0,100.0,event
13:40:55.456,0.0,0.0,-0.6016654,0.0,0.0,0.0,-0.088610284,0.0,0.0,0.0,-0.11262871,0.0,0.0,0.0,1.3147306,0.0,0.0,0.0,1.2307351,0.0,820.3663,745.82416,824.3956,803.44324,808.68134,-0.0208740234375,0.02862548828125,0.9892578125,2.6019287109375,-4.239349365234375,0.95703125,1.0,2.0,1.0,1.0,2.0,100.0,event
13:40:55.457,0.0,0.0,-0.6016654,0.0,0.0,0.0,-0.088610284,0.0,0.0,0.0,-0.11262871,0.0,0.0,0.0,1.3147306,0.0,0.0,0.0,1.2307351,0.0,816.337,729.304,794.57874,811.50183,1002.8938,-0.0208740234375,0.02862548828125,0.9892578125,2.6019287109375,-4.239349365234375,0.95703125,1.0,2.0,1.0,1.0,2.0,100.0,event
13:40:55.458,0.0,0.0,-0.6016654,0.0,0.0,0.0,-0.088610284,0.0,0.0,0.0,-0.11262871,0.0,0.0,0.0,1.3147306,0.0,0.0,0.0,1.2307351,0.0,792.5641,761.9414,818.7546,801.02563,648.315,-0.0208740234375,0.02862548828125,0.9892578125,2.6019287109375,-4.239349365234375,0.95703125,1.0,2.0,1.0,1.0,2.0,100.0,event
13:40:55.458,0.0,0.0,-0.6016654,0.0,0.0,0.0,-0.088610284,0.0,0.0,0.0,-0.11262871,0.0,0.0,0.0,1.3147306,0.0,0.0,0.0,1.2307351,0.0,803.8461,760.32965,791.75824,813.91943,815.12823,-0.0208740234375,0.02862548828125,0.9892578125,2.6019287109375,-4.239349365234375,0.95703125,1.0,2.0,1.0,1.0,2.0,100.0,event
13:40:55.459,0.0,0.0,-0.6016654,0.0,0.0,0.0,-0.088610284,0.0,0.0,0.0,-0.11262871,0.0,0.0,0.0,1.3147306,0.0,0.0,0.0,1.2307351,0.0,777.25275,759.5238,819.15753,783.69965,749.0476,-0.0208740234375,0.02862548828125,0.9892578125,2.6019287109375,-4.239349365234375,0.95703125,1.0,2.0,1.0,1.0,2.0,100.0,event
13:40:55.527,0.0,0.0,-0.6016654,0.0,0.0,0.0,-0.088610284,0.0,0.0,0.0,-0.11262871,0.0,0.0,0.0,1.3147306,0.0,0.0,0.0,1.2307351,0.0,787.326,776.8498,791.3553,781.685,716.0073,-0.0216064453125,0.02490234375,0.98480224609375,2.04864501953125,-3.925323486328125,0.11962890625,1.0,2.0,1.0,1.0,2.0,100.0,event
13:40:55.528,0.0,0.0,-0.6016654,0.0,0.0,0.0,-0.088610284,0.0,0.0,0.0,-0.11262871,0.0,0.0,0.0,1.3147306,0.0,0.0,0.0,1.2307351,0.0,807.0696,749.85345,770.0,794.9817,693.8461,-0.0216064453125,0.02490234375,0.98480224609375,2.04864501953125,-3.925323486328125,0.11962890625,1.0,2.0,1.0,1.0,2.0,100.0,event
13:40:55.529,0.0,0.0,-0.6016654,0.0,0.0,0.0,-0.088610284,0.0,0.0,0.0,-0.11262871,0.0,0.0,0.0,1.3147306,0.0,0.0,0.0,1.2307351,0.0,814.3223,721.2454,778.0586,817.5458,756.30035,-0.0216064453125,0.02490234375,0.98480224609375,2.04864501953125,-3.925323486328125,0.11962890625,1.0,2.0,1.0,1.0,2.0,100.0,event
13:40:55.529,0.0,0.0,-0.6016654,0.0,0.0,0.0,-0.088610284,0.0,0.0,0.0,-0.11262871,0.0,0.0,0.0,1.3147306,0.0,0.0,0.0,1.2307351,0.0,805.4579,738.97437,824.3956,818.3516,794.57874,-0.0216064453125,0.02490234375,0.98480224609375,2.04864501953125,-3.925323486328125,0.11962890625,1.0,2.0,1.0,1.0,2.0,100.0,event
13:40:55.530,0.0,0.0,-0.6016654,0.0,0.0,0.0,-0.088610284,0.0,0.0,0.0,-0.11262871,0.0,0.0,0.0,1.3147306,0.0,0.0,0.0,1.2307351,0.0,782.8938,747.8388,831.6484,798.60803,803.0403,-0.0216064453125,0.02490234375,0.98480224609375,2.04864501953125,-3.925323486328125,0.11962890625,1.0,2.0,1.0,1.0,2.0,100.0,event
13:40:55.531,0.0,0.0,-0.6016654,0.0,0.0,0.0,-0.088610284,0.0,0.0,0.0,-0.11262871,0.0,0.0,0.0,1.3147306,0.0,0.0,0.0,1.2307351,0.0,791.3553,728.9011,808.2784,792.5641,863.0769,-0.0216064453125,0.02490234375,0.98480224609375,2.04864501953125,-3.925323486328125,0.11962890625,1.0,2.0,1.0,1.0,2.0,100.0,event
13:40:55.531,0.0,0.0,-0.6016654,0.0,0.0,0.0,-0.088610284,0.0,0.0,0.0,-0.11262871,0.0,0.0,0.0,1.3147306,0.0,0.0,0.0,1.2307351,0.0,810.293,740.989,800.2198,804.65204,859.0476,-0.0216064453125,0.02490234375,0.98480224609375,2.04864501953125,-3.925323486328125,0.11962890625,1.0,2.0,1.0,1.0,2.0,100.0,event
13:40:55.532,0.0,0.0,-0.6016654,0.0,0.0,0.0,-0.088610284,0.0,0.0,0.0,-0.11262871,0.0,0.0,0.0,1.3147306,0.0,0.0,0.0,1.2307351,0.0,813.91943,726.08057,791.75824,820.7692,1038.3517,-0.0216064453125,0.02490234375,0.98480224609375,2.04864501953125,-3.925323486328125,0.11962890625,1.0,2.0,1.0,1.0,2.0,100.0,event
13:40:55.533,0.0,0.0,-0.6016654,0.0,0.0,0.0,-0.088610284,0.0,0.0,0.0,-0.11262871,0.0,0.0,0.0,1.3147306,0.0,0.0,0.0,1.2307351,0.0,794.17584,730.10986,816.7399,791.75824,825.6044,-0.0216064453125,0.02490234375,0.98480224609375,2.04864501953125,-3.925323486328125,0.11962890625,1.0,2.0,1.0,1.0,2.0,100.0,event
13:40:55.533,0.0,0.0,-0.6016654,0.0,0.0,0.0,-0.088610284,0.0,0.0,0.0,-0.11262871,0.0,0.0,0.0,1.3147306,0.0,0.0,0.0,1.2307351,0.0,809.0842,717.619,796.99634,816.7399,1167.6923,-0.0216064453125,0.02490234375,0.98480224609375,2.04864501953125,-3.925323486328125,0.11962890625,1.0,2.0,1.0,1.0,2.0,100.0,event
13:40:55.534,0.0,0.0,-0.6016654,0.0,0.0,0.0,-0.088610284,0.0,0.0,0.0,-0.11262871,0.0,0.0,0.0,1.3147306,0.0,0.0,0.0,1.2307351,0.0,799.011,723.663,793.7729,776.8498,676.52014,-0.0216064453125,0.02490234375,0.98480224609375,2.04864501953125,-3.925323486328125,0.11962890625,1.0,2.0,1.0,1.0,2.0,100.0,event
13:40:55.535,0.0,0.0,-0.6016654,0.0,0.0,0.0,-0.088610284,0.0,0.0,0.0,-0.11262871,0.0,0.0,0.0,1.3147306,0.0,0.0,0.0,1.2307351,0.0,802.6374,724.4689,781.685,782.0879,778.46155,-0.0216064453125,0.02490234375,0.98480224609375,2.04864501953125,-3.925323486328125,0.11962890625,1.0,2.0,1.0,1.0,2.0,100.0,event
13:40:55.573,0.0,0.0,-0.6016654,0.0,0.0,0.0,-0.088610284,0.0,0.0,0.0,-0.11262871,0.0,0.0,0.0,1.3147306,0.0,0.0,0.0,1.2307351,0.0,814.7253,739.3773,803.44324,806.6667,779.67035,-0.01416015625,0.030517578125,0.9869384765625,1.921539306640625,-4.493560791015625,-0.0299072265625,1.0,2.0,1.0,1.0,2.0,100.0,event
13:40:55.575,0.0,0.0,-0.5683288,0.0,0.0,0.0,-0.04729914,0.0,0.0,0.0,-0.11201606,0.0,0.0,0.0,1.2981684,0.0,0.0,0.0,1.2320876,0.0,805.8608,734.1392,798.20514,802.23444,731.7216,-0.01416015625,0.030517578125,0.9869384765625,1.921539306640625,-4.493560791015625,-0.0299072265625,1.0,2.0,1.0,1.0,2.0,100.0,event
13:40:55.578,0.0,0.0,-0.5683288,0.0,0.0,0.0,-0.04729914,0.0,0.0,0.0,-0.11201606,0.0,0.0,0.0,1.2981684,0.0,0.0,0.0,1.2320876,0.0,786.9231,712.7839,784.5055,775.64105,732.1245,-0.01416015625,0.030517578125,0.9869384765625,1.921539306640625,-4.493560791015625,-0.0299072265625,1.0,2.0,1.0,1.0,2.0,100.0,event
13:40:55.579,0.0,0.0,-0.5683288,0.0,0.0,0.0,-0.04729914,0.0,0.0,0.0,-0.11201606,0.0,0.0,0.0,1.2981684,0.0,0.0,0.0,1.2320876,0.0,799.011,728.0952,794.17584,771.6117,711.978,-0.01416015625,0.030517578125,0.9869384765625,1.921539306640625,-4.493560791015625,-0.0299072265625,1.0,2.0,1.0,1.0,2.0,100.0,event
13:40:55.580,0.0,0.0,-0.5683288,0.0,0.0,0.0,-0.04729914,0.0,0.0,0.0,-0.11201606,0.0,0.0,0.0,1.2981684,0.0,0.0,0.0,1.2320876,0.0,805.8608,760.7326,800.2198,787.72894,705.5311,-0.01416015625,0.030517578125,0.9869384765625,1.921539306640625,-4.493560791015625,-0.0299072265625,1.0,2.0,1.0,1.0,2.0,100.0,event
13:40:55.580,0.0,0.0,-0.5683288,0.0,0.0,0.0,-0.04729914,0.0,0.0,0.0,-0.11201606,0.0,0.0,0.0,1.2981684,0.0,0.0,0.0,1.2320876,0.0,819.5604,743.00366,802.23444,805.05493,790.54944,-0.01416015625,0.030517578125,0.9869384765625,1.921539306640625,-4.493560791015625,-0.0299072265625,1.0,2.0,1.0,1.0,2.0,100.0,event
13:40:55.581,0.0,0.0,-0.5683288,0.0,0.0,0.0,-0.04729914,0.0,0.0,0.0,-0.11201606,0.0,0.0,0.0,1.2981684,0.0,0.0,0.0,1.2320876,0.0,826.4103,719.6337,816.337,811.0989,894.90845,-0.01416015625,0.030517578125,0.9869384765625,1.921539306640625,-4.493560791015625,-0.0299072265625,1.0,2.0,1.0,1.0,2.0,100.0,event
13:40:55.582,0.0,0.0,-0.5683288,0.0,0.0,0.0,-0.04729914,0.0,0.0,0.0,-0.11201606,0.0,0.0,0.0,1.2981684,0.0,0.0,0.0,1.2320876,0.0,808.68134,745.0183,790.9524,796.5934,906.99634,-0.01416015625,0.030517578125,0.9869384765625,1.921539306640625,-4.493560791015625,-0.0299072265625,1.0,2.0,1.0,1.0,2.0,100.0,event
13:40:55.583,0.0,0.0,-0.5683288,0.0,0.0,0.0,-0.04729914,0.0,0.0,0.0,-0.11201606,0.0,0.0,0.0,1.2981684,0.0,0.0,0.0,1.2320876,0.0,794.17584,776.04395,790.54944,775.64105,740.58606,-0.01416015625,0.030517578125,0.9869384765625,1.921539306640625,-4.493560791015625,-0.0299072265625,1.0,2.0,1.0,1.0,2.0,100.0,event
13:40:55.583,0.0,0.0,-0.5683288,0.0,0.0,0.0,-0.04729914,0.0,0.0,0.0,-0.11201606,0.0,0.0,0.0,1.2981684,0.0,0.0,0.0,1.2320876,0.0,798.60803,772.4176,834.4689,778.0586,657.98535,-0.01416015625,0.030517578125,0.9869384765625,1.921539306640625,-4.493560791015625,-0.0299072265625,1.0,2.0,1.0,1.0,2.0,100.0,event
13:40:55.584,0.0,0.0,-0.5683288,0.0,0.0,0.0,-0.04729914,0.0,0.0,0.0,-0.11201606,0.0,0.0,0.0,1.2981684,0.0,0.0,0.0,1.2320876,0.0,806.26373,755.4945,816.337,802.6374,820.7692,-0.01416015625,0.030517578125,0.9869384765625,1.921539306640625,-4.493560791015625,-0.0299072265625,1.0,2.0,1.0,1.0,2.0,100.0,event
13:40:55.585,0.0,0.0,-0.5683288,0.0,0.0,0.0,-0.04729914,0.0,0.0,0.0,-0.11201606,0.0,0.0,0.0,1.2981684,0.0,0.0,0.0,1.2320876,0.0,809.89014,751.4652,785.7143,821.5751,1052.4542,-0.01416015625,0.030517578125,0.9869384765625,1.921539306640625,-4.493560791015625,-0.0299072265625,1.0,2.0,1.0,1.0,2.0,100.0,event
13:40:55.642,0.0,0.0,-0.5683288,0.0,0.0,0.0,-0.04729914,0.0,0.0,0.0,-0.11201606,0.0,0.0,0.0,1.2981684,0.0,0.0,0.0,1.2320876,0.0,806.26373,767.1795,795.78754,809.89014,875.56775,-0.00994873046875,0.02703857421875,0.9874267578125,2.370147705078125,-4.14215087890625,0.37384033203125,1.0,2.0,1.0,1.0,2.0,100.0,event
13:40:55.644,0.0,0.0,-0.5683288,0.0,0.0,0.0,-0.04729914,0.0,0.0,0.0,-0.11201606,0.0,0.0,0.0,1.2981684,0.0,0.0,0.0,1.2320876,0.0,807.0696,740.989,803.0403,796.1905,651.9414,-0.00994873046875,0.02703857421875,0.9874267578125,2.370147705078125,-4.14215087890625,0.37384033203125,1.0,2.0,1.0,1.0,2.0,100.0,event
13:40:55.645,0.0,0.0,-0.5683288,0.0,0.0,0.0,-0.04729914,0.0,0.0,0.0,-0.11201606,0.0,0.0,0.0,1.2981684,0.0,0.0,0.0,1.2320876,0.0,820.7692,680.54944,790.14655,801.4286,713.9927,-0.00994873046875,0.02703857421875,0.9874267578125,2.370147705078125,-4.14215087890625,0.37384033203125,1.0,2.0,1.0,1.0,2.0,100.0,event
13:40:55.646,0.0,0.0,-0.5683288,0.0,0.0,0.0,-0.04729914,0.0,0.0,0.0,-0.11201606,0.0,0.0,0.0,1.2981684,0.0,0.0,0.0,1.2320876,0.0,839.304,699.0842,790.54944,821.5751,751.4652,-0.00994873046875,0.02703857421875,0.9874267578125,2.370147705078125,-4.14215087890625,0.37384033203125,1.0,2.0,1.0,1.0,2.0,100.0,event
13:40:55.648,0.0,0.0,-0.5683288,0.0,0.0,0.0,-0.04729914,0.0,0.0,0.0,-0.11201606,0.0,0.0,0.0,1.2981684,0.0,0.0,0.0,1.2320876,0.0,825.2015,750.65936,823.5897,823.9927,720.4396,-0.00994873046875,0.02703857421875,0.9874267578125,2.370147705078125,-4.14215087890625,0.37384033203125,1.0,2.0,1.0,1.0,2.0,100.0,event
13:40:55.649,0.0,0.0,-0.5683288,0.0,0.0,0.0,-0.04729914,0.0,0.0,0.0,-0.11201606,0.0,0.0,0.0,1.2981684,0.0,0.0,0.0,1.2320876,0.0,790.14655,739.7802,834.4689,778.86444,779.67035,-0.00994873046875,0.02703857421875,0.9874267578125,2.370147705078125,-4.14215087890625,0.37384033203125,1.0,2.0,1.0,1.0,2.0,100.0,event
13:40:55.650,0.0,0.0,-0.5683288,0.0,0.0,0.0,-0.04729914,0.0,0.0,0.0,-0.11201606,0.0,0.0,0.0,1.2981684,0.0,0.0,0.0,1.2320876,0.0,781.28204,731.7216,829.2308,759.92676,971.8681,-0.00994873046875,0.02703857421875,0.9874267578125,2.370147705078125,-4.14215087890625,0.37384033203125,1.0,2.0,1.0,1.0,2.0,100.0,event
13:40:55.651,0.0,0.0,-0.5683288,0.0,0.0,0.0,-0.04729914,0.0,0.0,0.0,-0.11201606,0.0,0.0,0.0,1.2981684,0.0,0.0,0.0,1.2320876,0.0,809.89014,755.09155,818.7546,785.31134,978.71796,-0.00994873046875,0.02703857421875,0.9874267578125,2.370147705078125,-4.14215087890625,0.37384033203125,1.0,2.0,1.0,1.0,2.0,100.0,event
13:40:55.652,0.0,0.0,-0.5683288,0.0,0.0,0.0,-0.04729914,0.0,0.0,0.0,-0.11201606,0.0,0.0,0.0,1.2981684,0.0,0.0,0.0,1.2320876,0.0,832.0513,730.5128,803.8461,808.68134,731.31866,-0.00994873046875,0.02703857421875,0.9874267578125,2.370147705078125,-4.14215087890625,0.37384033203125,1.0,2.0,1.0,1.0,2.0,100.0,event
13:40:55.653,0.0,0.0,-0.5683288,0.0,0.0,0.0,-0.04729914,0.0,0.0,0.0,-0.11201606,0.0,0.0,0.0,1.2981684,0.0,0.0,0.0,1.2320876,0.0,825.2015,695.8608,778.46155,823.1868,745.0183,-0.00994873046875,0.02703857421875,0.9874267578125,2.370147705078125,-4.14215087890625,0.37384033203125,1.0,2.0,1.0,1.0,2.0,100.0,event
13:40:55.653,0.0,0.0,-0.5683288,0.0,0.0,0.0,-0.04729914,0.0,0.0,0.0,-0.11201606,0.0,0.0,0.0,1.2981684,0.0,0.0,0.0,1.2320876,0.0,801.8315,730.5128,785.7143,803.44324,781.685,-0.00994873046875,0.02703857421875,0.9874267578125,2.370147705078125,-4.14215087890625,0.37384033203125,1.0,2.0,1.0,1.0,2.0,100.0,event
13:40:55.654,0.0,0.0,-0.5683288,0.0,0.0,0.0,-0.04729914,0.0,0.0,0.0,-0.11201606,0.0,0.0,0.0,1.2981684,0.0,0.0,0.0,1.2320876,0.0,790.14655,731.31866,825.6044,777.6557,644.68866,-0.00994873046875,0.02703857421875,0.9874267578125,2.370147705078125,-4.14215087890625,0.37384033203125,1.0,2.0,1.0,1.0,2.0,100.0,event
13:40:55.676,0.0,0.0,-0.5683288,0.0,0.0,0.0,-0.04729914,0.0,0.0,0.0,-0.11201606,0.0,0.0,0.0,1.2981684,0.0,0.0,0.0,1.2320876,0.0,811.0989,723.2601,800.6227,790.9524,633.4066,-0.01434326171875,0.02850341796875,0.9908447265625,1.9439697265625,-2.9010009765625,0.186920166015625,1.0,2.0,1.0,1.0,2.0,100.0,event
13:40:55.677,0.0,0.0,-0.5683288,0.0,0.0,0.0,-0.04729914,0.0,0.0,0.0,-0.11201606,0.0,0.0,0.0,1.2981684,0.0,0.0,0.0,1.2320876,0.0,837.6923,737.3626,789.34064,815.9341,725.2747,-0.01434326171875,0.02850341796875,0.9908447265625,1.9439697265625,-2.9010009765625,0.186920166015625,1.0,2.0,1.0,1.0,2.0,100.0,event
13:40:55.678,0.0,0.0,-0.5683288,0.0,0.0,0.0,-0.04729914,0.0,0.0,0.0,-0.11201606,0.0,0.0,0.0,1.2981684,0.0,0.0,0.0,1.2320876,0.0,836.8865,755.4945,815.9341,821.978,833.2601,-0.01434326171875,0.02850341796875,0.9908447265625,1.9439697265625,-2.9010009765625,0.186920166015625,1.0,2.0,1.0,1.0,2.0,100.0,event
13:40:55.679,0.0,0.0,-0.5174818,0.0,0.0,0.0,-0.0005699703,0.0,0.0,0.0,-0.053940408,0.0,0.0,0.0,1.2815225,0.0,0.0,0.0,1.2349536,0.0,807.47253,787.326,833.2601,807.47253,804.2491,-0.01434326171875,0.02850341796875,0.9908447265625,1.9439697265625,-2.9010009765625,0.186920166015625,1.0,2.0,1.0,1.0,2.0,100.0,event
13:40:55.683,0.0,0.0,-0.5174818,0.0,0.0,0.0,-0.0005699703,0.0,0.0,0.0,-0.053940408,0.0,0.0,0.0,1.2815225,0.0,0.0,0.0,1.2349536,0.0,792.1612,747.03296,826.4103,779.2674,719.6337,-0.01434326171875,0.02850341796875,0.9908447265625,1.9439697265625,-2.9010009765625,0.186920166015625,1.0,2.0,1.0,1.0,2.0,100.0,event
13:40:55.683,0.0,0.0,-0.5174818,0.0,0.0,0.0,-0.0005699703,0.0,0.0,0.0,-0.053940408,0.0,0.0,0.0,1.2815225,0.0,0.0,0.0,1.2349536,0.0,803.0403,711.1722,810.293,780.87915,795.38464,-0.01434326171875,0.02850341796875,0.9908447265625,1.9439697265625,-2.9010009765625,0.186920166015625,1.0,2.0,1.0,1.0,2.0,100.0,event
13:40:55.684,0.0,0.0,-0.5174818,0.0,0.0,0.0,-0.0005699703,0.0,0.0,0.0,-0.053940408,0.0,0.0,0.0,1.2815225,0.0,0.0,0.0,1.2349536,0.0,813.91943,750.65936,799.41394,794.17584,996.4469,-0.01434326171875,0.02850341796875,0.9908447265625,1.9439697265625,-2.9010009765625,0.186920166015625,1.0,2.0,1.0,1.0,2.0,100.0,event
13:40:55.685,0.0,0.0,-0.5174818,0.0,0.0,0.0,-0.0005699703,0.0,0.0,0.0,-0.053940408,0.0,0.0,0.0,1.2815225,0.0,0.0,0.0,1.2349536,0.0,807.47253,774.83514,791.75824,806.6667,856.63007,-0.01434326171875,0.02850341796875,0.9908447265625,1.9439697265625,-2.9010009765625,0.186920166015625,1.0,2.0,1.0,1.0,2.0,100.0,event
13:40:55.685,0.0,0.0,-0.5174818,0.0,0.0,0.0,-0.0005699703,0.0,0.0,0.0,-0.053940408,0.0,0.0,0.0,1.2815225,0.0,0.0,0.0,1.2349536,0.0,792.5641,751.06226,777.6557,794.17584,738.1685,-0.01434326171875,0.02850341796875,0.9908447265625,1.9439697265625,-2.9010009765625,0.186920166015625,1.0,2.0,1.0,1.0,2.0,100.0,event
13:40:55.686,0.0,0.0,-0.5174818,0.0,0.0,0.0,-0.0005699703,0.0,0.0,0.0,-0.053940408,0.0,0.0,0.0,1.2815225,0.0,0.0,0.0,1.2349536,0.0,799.011,749.0476,767.5824,789.7436,825.6044,-0.01434326171875,0.02850341796875,0.9908447265625,1.9439697265625,-2.9010009765625,0.186920166015625,1.0,2.0,1.0,1.0,2.0,100.0,event
13:40:55.687,0.0,0.0,-0.5174818,0.0,0.0,0.0,-0.0005699703,0.0,0.0,0.0,-0.053940408,0.0,0.0,0.0,1.2815225,0.0,0.0,0.0,1.2349536,0.0,801.8315,780.87915,791.3553,793.36993,822.7839,-0.01434326171875,0.02850341796875,0.9908447265625,1.9439697265625,-2.9010009765625,0.186920166015625,1.0,2.0,1.0,1.0,2.0,100.0,event
13:40:55.687,0.0,0.0,-0.5174818,0.0,0.0,0.0,-0.0005699703,0.0,0.0,0.0,-0.053940408,0.0,0.0,0.0,1.2815225,0.0,0.0,0.0,1.2349536,0.0,822.381,767.1795,836.4835,800.6227,707.1429,-0.01434326171875,0.02850341796875,0.9908447265625,1.9439697265625,-2.9010009765625,0.186920166015625,1.0,2.0,1.0,1.0,2.0,100.0,event
13:40:55.709,0.0,0.0,-0.5174818,0.0,0.0,0.0,-0.0005699703,0.0,0.0,0.0,-0.053940408,0.0,0.0,0.0,1.2815225,0.0,0.0,0.0,1.2349536,0.0,817.5458,728.0952,834.87177,806.6667,764.35895,-0.01434326171875,0.02850341796875,0.9908447265625,1.9439697265625,-2.9010009765625,0.186920166015625,1.0,2.0,1.0,1.0,2.0,100.0,event
13:40:55.709,0.0,0.0,-0.5174818,0.0,0.0,0.0,-0.0005699703,0.0,0.0,0.0,-0.053940408,0.0,0.0,0.0,1.2815225,0.0,0.0,0.0,1.2349536,0.0,849.7802,718.4249,835.6777,832.0513,675.7143,-0.01434326171875,0.02850341796875,0.9908447265625,1.9439697265625,-2.9010009765625,0.186920166015625,1.0,2.0,1.0,1.0,2.0,100.0,event
13:40:55.710,0.0,0.0,-0.5174818,0.0,0.0,0.0,-0.0005699703,0.0,0.0,0.0,-0.053940408,0.0,0.0,0.0,1.2815225,0.0,0.0,0.0,1.2349536,0.0,767.5824,762.74725,819.15753,760.7326,731.31866,-0.01434326171875,0.02850341796875,0.9908447265625,1.9439697265625,-2.9010009765625,0.186920166015625,1.0,2.0,1.0,1.0,2.0,100.0,event
13:40:55.711,0.0,0.0,-0.5174818,0.0,0.0,0.0,-0.0005699703,0.0,0.0,0.0,-0.053940408,0.0,0.0,0.0,1.2815225,0.0,0.0,0.0,1.2349536,0.0,777.25275,764.7619,767.1795,767.5824,691.02563,-0.01434326171875,0.02850341796875,0.9908447265625,1.9439697265625,-2.9010009765625,0.186920166015625,1.0,2.0,1.0,1.0,2.0,100.0,event
13:40:55.711,0.0,0.0,-0.5174818,0.0,0.0,0.0,-0.0005699703,0.0,0.0,0.0,-0.053940408,0.0,0.0,0.0,1.2815225,0.0,0.0,0.0,1.2349536,0.0,808.68134,753.0769,780.4762,796.1905,775.2381,-0.01434326171875,0.02850341796875,0.9908447265625,1.9439697265625,-2.9010009765625,0.186920166015625,1.0,2.0,1.0,1.0,2.0,100.0,event
13:40:55.712,0.0,0.0,-0.5174818,0.0,0.0,0.0,-0.0005699703,0.0,0.0,0.0,-0.053940408,0.0,0.0,0.0,1.2815225,0.0,0.0,0.0,1.2349536,0.0,811.9048,753.8828,804.65204,806.26373,1002.0879,-0.01434326171875,0.02850341796875,0.9908447265625,1.9439697265625,-2.9010009765625,0.186920166015625,1.0,2.0,1.0,1.0,2.0,100.0,event
13:40:55.712,0.0,0.0,-0.5174818,0.0,0.0,0.0,-0.0005699703,0.0,0.0,0.0,-0.053940408,0.0,0.0,0.0,1.2815225,0.0,0.0,0.0,1.2349536,0.0,805.4579,781.685,810.293,805.8608,1085.4945,-0.01434326171875,0.02850341796875,0.9908447265625,1.9439697265625,-2.9010009765625,0.186920166015625,1.0,2.0,1.0,1.0,2.0,100.0,event
13:40:55.713,0.0,0.0,-0.5174818,0.0,0.0,0.0,-0.0005699703,0.0,0.0,0.0,-0.053940408,0.0,0.0,0.0,1.2815225,0.0,0.0,0.0,1.2349536,0.0,786.9231,800.6227,832.8571,782.49084,805.05493,-0.01434326171875,0.02850341796875,0.9908447265625,1.9439697265625,-2.9010009765625,0.186920166015625,1.0,2.0,1.0,1.0,2.0,100.0,event
13:40:55.714,0.0,0.0,-0.5174818,0.0,0.0,0.0,-0.0005699703,0.0,0.0,0.0,-0.053940408,0.0,0.0,0.0,1.2815225,0.0,0.0,0.0,1.2349536,0.0,774.43225,788.1319,810.696,762.74725,670.87915,-0.01434326171875,0.02850341796875,0.9908447265625,1.9439697265625,-2.9010009765625,0.186920166015625,1.0,2.0,1.0,1.0,2.0,100.0,event
13:40:55.714,0.0,0.0,-0.5174818,0.0,0.0,0.0,-0.0005699703,0.0,0.0,0.0,-0.053940408,0.0,0.0,0.0,1.2815225,0.0,0.0,0.0,1.2349536,0.0,811.0989,779.2674,782.8938,804.2491,825.2015,-0.01434326171875,0.02850341796875,0.9908447265625,1.9439697265625,-2.9010009765625,0.186920166015625,1.0,2.0,1.0,1.0,2.0,100.0,event
13:40:55.715,0.0,0.0,-0.5174818,0.0,0.0,0.0,-0.0005699703,0.0,0.0,0.0,-0.053940408,0.0,0.0,0.0,1.2815225,0.0,0.0,0.0,1.2349536,0.0,826.4103,811.9048,826.8132,835.2747,806.6667,-0.01434326171875,0.02850341796875,0.9908447265625,1.9439697265625,-2.9010009765625,0.186920166015625,1.0,2.0,1.0,1.0,2.0,100.0,event
13:40:55.716,0.0,0.0,-0.5174818,0.0,0.0,0.0,-0.0005699703,0.0,0.0,0.0,-0.053940408,0.0,0.0,0.0,1.2815225,0.0,0.0,0.0,1.2349536,0.0,798.20514,801.4286,809.89014,805.4579,721.6484,-0.01434326171875,0.02850341796875,0.9908447265625,1.9439697265625,-2.9010009765625,0.186920166015625,1.0,2.0,1.0,1.0,2.0,100.0,event
13:40:55.756,0.0,0.0,-0.5174818,0.0,0.0,0.0,-0.0005699703,0.0,0.0,0.0,-0.053940408,0.0,0.0,0.0,1.2815225,0.0,0.0,0.0,1.2349536,0.0,765.16486,775.2381,796.1905,771.6117,756.7033,-0.01763916015625,0.02386474609375,0.9842529296875,2.115936279296875,-2.579498291015625,-0.396270751953125,1.0,2.0,1.0,1.0,2.0,100.0,event
13:40:55.757,0.0,0.0,-0.5174818,0.0,0.0,0.0,-0.0005699703,0.0,0.0,0.0,-0.053940408,0.0,0.0,0.0,1.2815225,0.0,0.0,0.0,1.2349536,0.0,749.45056,792.96704,813.91943,753.47986,790.14655,-0.01763916015625,0.02386474609375,0.9842529296875,2.115936279296875,-2.579498291015625,-0.396270751953125,1.0,2.0,1.0,1.0,2.0,100.0,event
13:40:55.758,0.0,0.0,-0.5174818,0.0,0.0,0.0,-0.0005699703,0.0,0.0,0.0,-0.053940408,0.0,0.0,0.0,1.2815225,0.0,0.0,0.0,1.2349536,0.0,779.2674,807.47253,812.71063,765.56775,720.4396,-0.01763916015625,0.02386474609375,0.9842529296875,2.115936279296875,-2.579498291015625,-0.396270751953125,1.0,2.0,1.0,1.0,2.0,100.0,event
13:40:55.759,0.0,0.0,-0.5174818,0.0,0.0,0.0,-0.0005699703,0.0,0.0,0.0,-0.053940408,0.0,0.0,0.0,1.2815225,0.0,0.0,0.0,1.2349536,0.0,815.9341,809.0842,819.5604,809.0842,677.326,-0.01763916015625,0.02386474609375,0.9842529296875,2.115936279296875,-2.579498291015625,-0.396270751953125,1.0,2.0,1.0,1.0,2.0,100.0,event
13:40:55.759,0.0,0.0,-0.5174818,0.0,0.0,0.0,-0.0005699703,0.0,0.0,0.0,-0.053940408,0.0,0.0,0.0,1.2815225,0.0,0.0,0.0,1.2349536,0.0,801.8315,814.7253,774.0293,814.3223,732.1245,-0.01763916015625,0.02386474609375,0.9842529296875,2.115936279296875,-2.579498291015625,-0.396270751953125,1.0,2.0,1.0,1.0,2.0,100.0,event
13:40:55.760,0.69656706,0.0,-0.46433842,0.8369159,0.96459514,0.0,0.03537898,1.0819365,0.88867086,0.0,0.030993028,1.0866231,0.9015369,0.0,1.2646701,0.89225924,0.8247305,0.0,1.2314525,0.7164064,784.10254,815.9341,735.7509,792.1612,880.80585,-0.01763916015625,0.02386474609375,0.9842529296875,2.115936279296875,-2.579498291015625,-0.396270751953125,1.0,2.0,1.0,1.0,2.0,100.0,event
13:40:55.765,0.69656706,0.0,-0.46433842,0.8369159,0.96459514,0.0,0.03537898,1.0819365,0.88867086,0.0,0.030993028,1.0866231,0.9015369,0.0,1.2646701,0.89225924,0.8247305,0.0,1.2314525,0.7164064,790.14655,824.7985,799.011,771.6117,877.5824,-0.01763916015625,0.02386474609375,0.9842529296875,2.115936279296875,-2.579498291015625,-0.396270751953125,1.0,2.0,1.0,1.0,2.0,100.0,event
13:40:55.765,0.69656706,0.0,-0.46433842,0.8369159,0.96459514,0.0,0.03537898,1.0819365,0.88867086,0.0,0.030993028,1.0866231,0.9015369,0.0,1.2646701,0.89225924,0.8247305,0.0,1.2314525,0.7164064,792.96704,833.663,831.2454,763.5531,786.52014,-0.01763916015625,0.02386474609375,0.9842529296875,2.115936279296875,-2.579498291015625,-0.396270751953125,1.0,2.0,1.0,1.0,2.0,100.0,event
13:40:55.766,0.69656706,0.0,-0.46433842,0.8369159,0.96459514,0.0,0.03537898,1.0819365,0.88867086,0.0,0.030993028,1.0866231,0.9015369,0.0,1.2646701,0.89225924,0.8247305,0.0,1.2314525,0.7164064,800.2198,829.6337,834.87177,790.14655,845.7509,-0.01763916015625,0.02386474609375,0.9842529296875,2.115936279296875,-2.579498291015625,-0.396270751953125,1.0,2.0,1.0,1.0,2.0,100.0,event
13:40:55.767,0.69656706,0.0,-0.46433842,0.8369159,0.96459514,0.0,0.03537898,1.0819365,0.88867086,0.0,0.030993028,1.0866231,0.9015369,0.0,1.2646701,0.89225924,0.8247305,0.0,1.2314525,0.7164064,789.7436,838.0952,832.8571,801.02563,1130.2197,-0.01763916015625,0.02386474609375,0.9842529296875,2.115936279296875,-2.579498291015625,-0.396270751953125,1.0,2.0,1.0,1.0,2.0,100.0,event
13:40:55.768,0.69656706,0.0,-0.46433842,0.8369159,0.96459514,0.0,0.03537898,1.0819365,0.88867086,0.0,0.030993028,1.0866231,0.9015369,0.0,1.2646701,0.89225924,0.8247305,0.0,1.2314525,0.7164064,770.0,869.12085,805.4579,776.4469,972.674,-0.01763916015625,0.02386474609375,0.9842529296875,2.115936279296875,-2.579498291015625,-0.396270751953125,1.0,2.0,1.0,1.0,2.0,100.0,event
13:40:55.769,0.69656706,0.0,-0.46433842,0.8369159,0.96459514,0.0,0.03537898,1.0819365,0.88867086,0.0,0.030993028,1.0866231,0.9015369,0.0,1.2646701,0.89225924,0.8247305,0.0,1.2314525,0.7164064,786.1172,868.315,808.68134,779.2674,693.0403,-0.01763916015625,0.02386474609375,0.9842529296875,2.115936279296875,-2.579498291015625,-0.396270751953125,1.0,2.0,1.0,1.0,2.0,100.0,event
13:40:55.826,0.69656706,0.0,-0.46433842,0.8369159,0.96459514,0.0,0.03537898,1.0819365,0.88867086,0.0,0.030993028,1.0866231,0.9015369,0.0,1.2646701,0.89225924,0.8247305,0.0,1.2314525,0.7164064,791.3553,842.9304,801.02563,772.01465,749.85345,-0.0142822265625,0.02655029296875,0.986572265625,2.265472412109375,-3.18511962890625,-0.231781005859375,1.0,2.0,1.0,1.0,2.0,100.0,event
13:40:55.827,0.69656706,0.0,-0.46433842,0.8369159,0.96459514,0.0,0.03537898,1.0819365,0.88867086,0.0,0.030993028,1.0866231,0.9015369,0.0,1.2646701,0.89225924,0.8247305,0.0,1.2314525,0.7164064,794.17584,859.45056,751.8681,781.28204,776.4469,-0.0142822265625,0.02655029296875,0.986572265625,2.265472412109375,-3.18511962890625,-0.231781005859375,1.0,2.0,1.0,1.0,2.0,100.0,event
13:40:55.827,0.69656706,0.0,-0.46433842,0.8369159,0.96459514,0.0,0.03537898,1.0819365,0.88867086,0.0,0.030993028,1.0866231,0.9015369,0.0,1.2646701,0.89225924,0.8247305,0.0,1.2314525,0.7164064,810.293,883.22345,755.09155,818.7546,749.45056,-0.0142822265625,0.02655029296875,0.986572265625,2.265472412109375,-3.18511962890625,-0.231781005859375,1.0,2.0,1.0,1.0,2.0,100.0,event
13:40:55.828,0.69656706,0.0,-0.46433842,0.8369159,0.96459514,0.0,0.03537898,1.0819365,0.88867086,0.0,0.030993028,1.0866231,0.9015369,0.0,1.2646701,0.89225924,0.8247305,0.0,1.2314525,0.7164064,796.99634,868.315,782.0879,813.91943,777.25275,-0.0142822265625,0.02655029296875,0.986572265625,2.265472412109375,-3.18511962890625,-0.231781005859375,1.0,2.0,1.0,1.0,2.0,100.0,event
13:40:55.829,0.69656706,0.0,-0.46433842,0.8369159,0.96459514,0.0,0.03537898,1.0819365,0.88867086,0.0,0.030993028,1.0866231,0.9015369,0.0,1.2646701,0.89225924,0.8247305,0.0,1.2314525,0.7164064,786.1172,846.9597,781.685,792.1612,797.8022,-0.0142822265625,0.02655029296875,0.986572265625,2.265472412109375,-3.18511962890625,-0.231781005859375,1.0,2.0,1.0,1.0,2.0,100.0,event
13:40:55.830,0.69656706,0.0,-0.46433842,0.8369159,0.96459514,0.0,0.03537898,1.0819365,0.88867086,0.0,0.030993028,1.0866231,0.9015369,0.0,1.2646701,0.89225924,0.8247305,0.0,1.2314525,0.7164064,796.1905,855.82416,792.5641,782.49084,834.4689,-0.0142822265625,0.02655029296875,0.986572265625,2.265472412109375,-3.18511962890625,-0.231781005859375,1.0,2.0,1.0,1.0,2.0,100.0,event
13:40:55.830,0.69656706,0.0,-0.46433842,0.8369159,0.96459514,0.0,0.03537898,1.0819365,0.88867086,0.0,0.030993028,1.0866231,0.9015369,0.0,1.2646701,0.89225924,0.8247305,0.0,1.2314525,0.7164064,811.50183,872.3443,811.50183,798.20514,883.22345,-0.0142822265625,0.02655029296875,0.986572265625,2.265472412109375,-3.18511962890625,-0.231781005859375,1.0,2.0,1.0,1.0,2.0,100.0,event
13:40:55.831,0.69656706,0.0,-0.46433842,0.8369159,0.96459514,0.0,0.03537898,1.0819365,0.88867086,0.0,0.030993028,1.0866231,0.9015369,0.0,1.2646701,0.89225924,0.8247305,0.0,1.2314525,0.7164064,814.3223,889.2674,827.619,816.7399,796.1905,-0.0142822265625,0.02655029296875,0.986572265625,2.265472412109375,-3.18511962890625,-0.231781005859375,1.0,2.0,1.0,1.0,2.0,100.0,event
13:40:55.832,0.69656706,0.0,-0.46433842,0.8369159,0.96459514,0.0,0.03537898,1.0819365,0.88867086,0.0,0.030993028,1.0866231,0.9015369,0.0,1.2646701,0.89225924,0.8247305,0.0,1.2314525,0.7164064,790.9524,865.09155,851.39197,804.2491,909.011,-0.0142822265625,0.02655029296875,0.986572265625,2.265472412109375,-3.18511962890625,-0.231781005859375,1.0,2.0,1.0,1.0,2.0,100.0,event
13:40:55.833,0.69656706,0.0,-0.46433842,0.8369159,0.96459514,0.0,0.03537898,1.0819365,0.88867086,0.0,0.030993028,1.0866231,0.9015369,0.0,1.2646701,0.89225924,0.8247305,0.0,1.2314525,0.7164064,774.83514,850.58606,833.2601,778.86444,969.85345,-0.0142822265625,0.02655029296875,0.986572265625,2.265472412109375,-3.18511962890625,-0.231781005859375,1.0,2.0,1.0,1.0,2.0,100.0,event
13:40:55.833,0.69656706,0.0,-0.46433842,0.8369159,0.96459514,0.0,0.03537898,1.0819365,0.88867086,0.0,0.030993028,1.0866231,0.9015369,0.0,1.2646701,0.89225924,0.8247305,0.0,1.2314525,0.7164064,790.14655,865.89746,806.26373,780.07324,823.1868,-0.0142822265625,0.02655029296875,0.986572265625,2.265472412109375,-3.18511962890625,-0.231781005859375,1.0,2.0,1.0,1.0,2.0,100.0,event
13:40:55.834,0.69656706,0.0,-0.46433842,0.8369159,0.96459514,0.0,0.03537898,1.0819365,0.88867086,0.0,0.030993028,1.0866231,0.9015369,0.0,1.2646701,0.89225924,0.8247305,0.0,1.2314525,0.7164064,815.5311,842.52747,821.978,794.57874,829.2308,-0.0142822265625,0.02655029296875,0.986572265625,2.265472412109375,-3.18511962890625,-0.231781005859375,1.0,2.0,1.0,1.0,2.0,100.0,event
13:40:55.859,0.69656706,0.0,-0.46433842,0.8369159,0.96459514,0.0,0.03537898,1.0819365,0.88867086,0.0,0.030993028,1.0866231,0.9015369,0.0,1.2646701,0.89225924,0.8247305,0.0,1.2314525,0.7164064,820.7692,821.1722,820.3663,811.0989,960.989,-0.01885986328125,0.029541015625,0.99517822265625,2.7215576171875,-3.050537109375,0.83740234375,1.0,2.0,1.0,1.0,2.0,100.0,event
13:40:55.860,0.69656706,0.0,-0.46433842,0.8369159,0.96459514,0.0,0.03537898,1.0819365,0.88867086,0.0,0.030993028,1.0866231,0.9015369,0.0,1.2646701,0.89225924,0.8247305,0.0,1.2314525,0.7164064,800.6227,838.0952,782.49084,809.0842,821.1722,-0.01885986328125,0.029541015625,0.99517822265625,2.7215576171875,-3.050537109375,0.83740234375,1.0,2.0,1.0,1.0,2.0,100.0,event
13:40:55.861,0.69656706,0.0,-0.46433842,0.8369159,0.96459514,0.0,0.03537898,1.0819365,0.88867086,0.0,0.030993028,1.0866231,0.9015369,0.0,1.2646701,0.89225924,0.8247305,0.0,1.2314525,0.7164064,796.99634,849.3773,765.56775,789.34064,684.17584,-0.01885986328125,0.029541015625,0.99517822265625,2.7215576171875,-3.050537109375,0.83740234375,1.0,2.0,1.0,1.0,2.0,100.0,event
13:40:55.862,0.69656706,0.0,-0.46433842,0.8369159,0.96459514,0.0,0.03537898,1.0819365,0.88867086,0.0,0.030993028,1.0866231,0.9015369,0.0,1.2646701,0.89225924,0.8247305,0.0,1.2314525,0.7164064,804.2491,841.7216,799.011,787.326,707.9487,-0.01885986328125,0.029541015625,0.99517822265625,2.7215576171875,-3.050537109375,0.83740234375,1.0,2.0,1.0,1.0,2.0,100.0,event
13:40:55.863,0.69656706,0.0,-0.46433842,0.8369159,0.96459514,0.0,0.03537898,1.0819365,0.88867086,0.0,0.030993028,1.0866231,0.9015369,0.0,1.2646701,0.89225924,0.8247305,0.0,1.2314525,0.7164064,811.50183,820.7692,807.8755,807.8755,798.60803,-0.01885986328125,0.029541015625,0.99517822265625,2.7215576171875,-3.050537109375,0.83740234375,1.0,2.0,1.0,1.0,2.0,100.0,event
13:40:55.864,0.69656706,0.0,-0.46433842,0.8369159,0.96459514,0.0,0.03537898,1.0819365,0.88867086,0.0,0.030993028,1.0866231,0.9015369,0.0,1.2646701,0.89225924,0.8247305,0.0,1.2314525,0.7164064,831.6484,803.0403,801.02563,832.8571,846.55676,-0.01885986328125,0.029541015625,0.99517822265625,2.7215576171875,-3.050537109375,0.83740234375,1.0,2.0,1.0,1.0,2.0,100.0,event
13:40:55.864,0.69656706,0.0,-0.46433842,0.8369159,0.96459514,0.0,0.03537898,1.0819365,0.88867086,0.0,0.030993028,1.0866231,0.9015369,0.0,1.2646701,0.89225924,0.8247305,0.0,1.2314525,0.7164064,828.4249,808.2784,790.9524,817.5458,788.1319,-0.01885986328125,0.029541015625,0.99517822265625,2.7215576171875,-3.050537109375,0.83740234375,1.0,2.0,1.0,1.0,2.0,100.0,event
13:40:55.865,0.6936733,0.0,-0.4169879,0.88837624,0.98169476,0.0,0.05409453,1.1058674,0.88867086,0.0,0.086412184,1.0867869,0.8973381,0.0,1.2502447,0.87579393,0.8160328,0.0,1.2224637,0.7075219,794.17584,820.3663,817.9487,781.685,835.6777,-0.01885986328125,0.029541015625,0.99517822265625,2.7215576171875,-3.050537109375,0.83740234375,1.0,1.0,1.0,1.0,1.0,100.0,event
13:40:55.869,0.6936733,0.0,-0.4169879,0.88837624,0.98169476,0.0,0.05409453,1.1058674,0.88867086,0.0,0.086412184,1.0867869,0.8973381,0.0,1.2502447,0.87579393,0.8160328,0.0,1.2224637,0.7075219,782.49084,811.0989,835.6777,775.2381,1000.07324,-0.01885986328125,0.029541015625,0.99517822265625,2.7215576171875,-3.050537109375,0.83740234375,1.0,1.0,1.0,1.0,1.0,100.0,event
13:40:55.869,0.6936733,0.0,-0.4169879,0.88837624,0.98169476,0.0,0.05409453,1.1058674,0.88867086,0.0,0.086412184,1.0867869,0.8973381,0.0,1.2502447,0.87579393,0.8160328,0.0,1.2224637,0.7075219,805.05493,834.87177,823.1868,780.4762,799.011,-0.01885986328125,0.029541015625,0.99517822265625,2.7215576171875,-3.050537109375,0.83740234375,1.0,1.0,1.0,1.0,1.0,100.0,event
13:40:55.870,0.6936733,0.0,-0.4169879,0.88837624,0.98169476,0.0,0.05409453,1.1058674,0.88867086,0.0,0.086412184,1.0867869,0.8973381,0.0,1.2502447,0.87579393,0.8160328,0.0,1.2224637,0.7075219,824.7985,846.55676,802.23444,807.47253,702.71063,-0.01885986328125,0.029541015625,0.99517822265625,2.7215576171875,-3.050537109375,0.83740234375,1.0,1.0,1.0,1.0,1.0,100.0,event
13:40:55.871,0.6936733,0.0,-0.4169879,0.88837624,0.98169476,0.0,0.05409453,1.1058674,0.88867086,0.0,0.086412184,1.0867869,0.8973381,0.0,1.2502447,0.87579393,0.8160328,0.0,1.2224637,0.7075219,816.337,820.3663,789.34064,817.1429,757.50916,-0.01885986328125,0.029541015625,0.99517822265625,2.7215576171875,-3.050537109375,0.83740234375,1.0,1.0,1.0,1.0,1.0,100.0,event
13:40:55.908,0.6936733,0.0,-0.4169879,0.88837624,0.98169476,0.0,0.05409453,1.1058674,0.88867086,0.0,0.086412184,1.0867869,0.8973381,0.0,1.2502447,0.87579393,0.8160328,0.0,1.2224637,0.7075219,789.34064,830.4396,778.86444,790.54944,715.2015,-0.0299072265625,0.02838134765625,0.98193359375,1.891632080078125,-2.76641845703125,0.3289794921875,1.0,1.0,1.0,1.0,1.0,100.0,event
13:40:55.909,0.6936733,0.0,-0.4169879,0.88837624,0.98169476,0.0,0.05409453,1.1058674,0.88867086,0.0,0.086412184,1.0867869,0.8973381,0.0,1.2502447,0.87579393,0.8160328,0.0,1.2224637,0.7075219,786.1172,828.4249,792.5641,779.2674,759.12085,-0.0299072265625,0.02838134765625,0.98193359375,1.891632080078125,-2.76641845703125,0.3289794921875,1.0,1.0,1.0,1.0,1.0,100.0,event
13:40:55.909,0.6936733,0.0,-0.4169879,0.88837624,0.98169476,0.0,0.05409453,1.1058674,0.88867086,0.0,0.086412184,1.0867869,0.8973381,0.0,1.2502447,0.87579393,0.8160328,0.0,1.2224637,0.7075219,810.293,790.14655,831.2454,796.1905,732.9304,-0.0299072265625,0.02838134765625,0.98193359375,1.891632080078125,-2.76641845703125,0.3289794921875,1.0,1.0,1.0,1.0,1.0,100.0,event
13:40:55.910,0.6936733,0.0,-0.4169879,0.88837624,0.98169476,0.0,0.05409453,1.1058674,0.88867086,0.0,0.086412184,1.0867869,0.8973381,0.0,1.2502447,0.87579393,0.8160328,0.0,1.2224637,0.7075219,829.6337,789.34064,817.1429,817.1429,805.05493,-0.0299072265625,0.02838134765625,0.98193359375,1.891632080078125,-2.76641845703125,0.3289794921875,1.0,1.0,1.0,1.0,1.0,100.0,event
13:40:55.911,0.6936733,0.0,-0.4169879,0.88837624,0.98169476,0.0,0.05409453,1.1058674,0.88867086,0.0,0.086412184,1.0867869,0.8973381,0.0,1.2502447,0.87579393,0.8160328,0.0,1.2224637,0.7075219,797.8022,859.85345,805.8608,782.0879,791.75824,-0.0299072265625,0.02838134765625,0.98193359375,1.891632080078125,-2.76641845703125,0.3289794921875,1.0,1.0,1.0,1.0,1.0,100.0,event
13:40:55.911,0.6936733,0.0,-0.4169879,0.88837624,0.98169476,0.0,0.05409453,1.1058674,0.88867086,0.0,0.086412184,1.0867869,0.8973381,0.0,1.2502447,0.87579393,0.8160328,0.0,1.2224637,0.7075219,822.7839,845.34796,784.90845,801.8315,871.13556,-0.0299072265625,0.02838134765625,0.98193359375,1.891632080078125,-2.76641845703125,0.3289794921875,1.0,1.0,1.0,1.0,1.0,100.0,event
13:40:55.912,0.6936733,0.0,-0.4169879,0.88837624,0.98169476,0.0,0.05409453,1.1058674,0.88867086,0.0,0.086412184,1.0867869,0.8973381,0.0,1.2502447,0.87579393,0.8160328,0.0,1.2224637,0.7075219,809.0842,833.2601,795.38464,782.49084,739.7802,-0.0299072265625,0.02838134765625,0.98193359375,1.891632080078125,-2.76641845703125,0.3289794921875,1.0,1.0,1.0,1.0,1.0,100.0,event
13:40:55.912,0.6936733,0.0,-0.4169879,0.88837624,0.98169476,0.0,0.05409453,1.1058674,0.88867086,0.0,0.086412184,1.0867869,0.8973381,0.0,1.2502447,0.87579393,0.8160328,0.0,1.2224637,0.7075219,820.7692,828.8278,775.64105,781.685,874.35895,-0.0299072265625,0.02838134765625,0.98193359375,1.891632080078125,-2.76641845703125,0.3289794921875,1.0,1.0,1.0,1.0,1.0,100.0,event
13:40:55.913,0.6936733,0.0,-0.4169879,0.88837624,0.98169476,0.0,0.05409453,1.1058674,0.88867086,0.0,0.086412184,1.0867869,0.8973381,0.0,1.2502447,0.87579393,0.8160328,0.0,1.2224637,0.7075219,828.4249,838.9011,802.23444,798.20514,977.50916,-0.0299072265625,0.02838134765625,0.98193359375,1.891632080078125,-2.76641845703125,0.3289794921875,1.0,1.0,1.0,1.0,1.0,100.0,event
13:40:55.913,0.6936733,0.0,-0.4169879,0.88837624,0.98169476,0.0,0.05409453,1.1058674,0.88867086,0.0,0.086412184,1.0867869,0.8973381,0.0,1.2502447,0.87579393,0.8160328,0.0,1.2224637,0.7075219,824.7985,845.34796,828.8278,807.0696,804.65204,-0.0299072265625,0.02838134765625,0.98193359375,1.891632080078125,-2.76641845703125,0.3289794921875,1.0,1.0,1.0,1.0,1.0,100.0,event
13:40:55.914,0.6936733,0.0,-0.4169879,0.88837624,0.98169476,0.0,0.05409453,1.1058674,0.88867086,0.0,0.086412184,1.0867869,0.8973381,0.0,1.2502447,0.87579393,0.8160328,0.0,1.2224637,0.7075219,807.47253,836.8865,826.8132,804.2491,728.9011,-0.0299072265625,0.02838134765625,0.98193359375,1.891632080078125,-2.76641845703125,0.3289794921875,1.0,1.0,1.0,1.0,1.0,100.0,event
13:40:55.915,0.6936733,0.0,-0.4169879,0.88837624,0.98169476,0.0,0.05409453,1.1058674,0.88867086,0.0,0.086412184,1.0867869,0.8973381,0.0,1.2502447,0.87579393,0.8160328,0.0,1.2224637,0.7075219,813.1135,821.1722,801.4286,793.36993,753.0769,-0.0299072265625,0.02838134765625,0.98193359375,1.891632080078125,-2.76641845703125,0.3289794921875,1.0,1.0,1.0,1.0,1.0,100.0,event
13:40:55.954,0.6936733,0.0,-0.4169879,0.88837624,0.98169476,0.0,0.05409453,1.1058674,0.88867086,0.0,0.086412184,1.0867869,0.8973381,0.0,1.2502447,0.87579393,0.8160328,0.0,1.2224637,0.7075219,823.5897,821.5751,796.1905,793.7729,713.1868,-0.0299072265625,0.02838134765625,0.98193359375,1.891632080078125,-2.76641845703125,0.3289794921875,1.0,1.0,1.0,1.0,1.0,100.0,event
13:40:55.955,0.6936733,0.0,-0.4169879,0.88837624,0.98169476,0.0,0.05409453,1.1058674,0.88867086,0.0,0.086412184,1.0867869,0.8973381,0.0,1.2502447,0.87579393,0.8160328,0.0,1.2224637,0.7075219,838.49817,820.3663,820.3663,822.381,668.0586,-0.0299072265625,0.02838134765625,0.98193359375,1.891632080078125,-2.76641845703125,0.3289794921875,1.0,1.0,1.0,1.0,1.0,100.0,event
13:40:55.956,0.6936733,0.0,-0.4169879,0.88837624,0.98169476,0.0,0.05409453,1.1058674,0.88867086,0.0,0.086412184,1.0867869,0.8973381,0.0,1.2502447,0.87579393,0.8160328,0.0,1.2224637,0.7075219,839.304,803.8461,817.1429,834.87177,727.28937,-0.0299072265625,0.02838134765625,0.98193359375,1.891632080078125,-2.76641845703125,0.3289794921875,1.0,1.0,1.0,1.0,1.0,100.0,event
13:40:55.956,0.6936733,0.0,-0.4169879,0.88837624,0.98169476,0.0,0.05409453,1.1058674,0.88867086,0.0,0.086412184,1.0867869,0.8973381,0.0,1.2502447,0.87579393,0.8160328,0.0,1.2224637,0.7075219,817.9487,833.2601,797.3993,813.5165,732.52747,-0.0299072265625,0.02838134765625,0.98193359375,1.891632080078125,-2.76641845703125,0.3289794921875,1.0,1.0,1.0,1.0,1.0,100.0,event
13:40:55.957,0.6936733,0.0,-0.4169879,0.88837624,0.98169476,0.0,0.05409453,1.1058674,0.88867086,0.0,0.086412184,1.0867869,0.8973381,0.0,1.2502447,0.87579393,0.8160328,0.0,1.2224637,0.7075219,821.978,811.9048,787.72894,790.9524,796.99634,-0.0299072265625,0.02838134765625,0.98193359375,1.891632080078125,-2.76641845703125,0.3289794921875,1.0,1.0,1.0,1.0,1.0,100.0,event
13:40:55.957,0.6936733,0.0,-0.4169879,0.88837624,0.98169476,0.0,0.05409453,1.1058674,0.88867086,0.0,0.086412184,1.0867869,0.8973381,0.0,1.2502447,0.87579393,0.8160328,0.0,1.2224637,0.7075219,816.7399,838.49817,798.20514,796.99634,735.7509,-0.0299072265625,0.02838134765625,0.98193359375,1.891632080078125,-2.76641845703125,0.3289794921875,1.0,1.0,1.0,1.0,1.0,100.0,event
13:40:55.958,0.6936733,0.0,-0.4169879,0.88837624,0.98169476,0.0,0.05409453,1.1058674,0.88867086,0.0,0.086412184,1.0867869,0.8973381,0.0,1.2502447,0.87579393,0.8160328,0.0,1.2224637,0.7075219,833.663,827.2161,787.72894,810.696,875.56775,-0.0299072265625,0.02838134765625,0.98193359375,1.891632080078125,-2.76641845703125,0.3289794921875,1.0,1.0,1.0,1.0,1.0,100.0,event
13:40:55.959,0.6936733,0.0,-0.4169879,0.88837624,0.98169476,0.0,0.05409453,1.1058674,0.88867086,0.0,0.086412184,1.0867869,0.8973381,0.0,1.2502447,0.87579393,0.8160328,0.0,1.2224637,0.7075219,839.304,792.1612,810.293,840.10986,1099.1941,-0.0299072265625,0.02838134765625,0.98193359375,1.891632080078125,-2.76641845703125,0.3289794921875,1.0,1.0,1.0,1.0,1.0,100.0,event
13:40:55.959,0.6936733,0.0,-0.4169879,0.88837624,0.98169476,0.0,0.05409453,1.1058674,0.88867086,0.0,0.086412184,1.0867869,0.8973381,0.0,1.2502447,0.87579393,0.8160328,0.0,1.2224637,0.7075219,813.1135,791.75824,818.3516,811.0989,977.1062,-0.0299072265625,0.02838134765625,0.98193359375,1.891632080078125,-2.76641845703125,0.3289794921875,1.0,1.0,1.0,1.0,1.0,100.0,event
13:40:55.960,0.68909466,0.0,-0.3862032,0.91915506,0.9637425,0.0,0.062736906,1.0864968,0.88867086,0.0,0.14553408,1.0867869,0.88280183,0.0,1.244079,0.86008716,0.7962601,0.0,1.21606,0.6891707,799.41394,826.0073,792.96704,772.8205,678.93774,-0.0299072265625,0.02838134765625,0.98193359375,1.891632080078125,-2.76641845703125,0.3289794921875,1.0,1.0,1.0,1.0,1.0,100.0,event
13:40:55.964,0.68909466,0.0,-0.3862032,0.91915506,0.9637425,0.0,0.062736906,1.0864968,0.88867086,0.0,0.14553408,1.0867869,0.88280183,0.0,1.244079,0.86008716,0.7962601,0.0,1.21606,0.6891707,801.02563,810.696,803.0403,770.40295,713.1868,-0.0299072265625,0.02838134765625,0.98193359375,1.891632080078125,-2.76641845703125,0.3289794921875,1.0,1.0,1.0,1.0,1.0,100.0,event
13:40:55.965,0.68909466,0.0,-0.3862032,0.91915506,0.9637425,0.0,0.062736906,1.0864968,0.88867086,0.0,0.14553408,1.0867869,0.88280183,0.0,1.244079,0.86008716,0.7962601,0.0,1.21606,0.6891707,815.12823,824.3956,819.15753,788.5348,785.31134,-0.0299072265625,0.02838134765625,0.98193359375,1.891632080078125,-2.76641845703125,0.3289794921875,1.0,1.0,1.0,1.0,1.0,100.0,event
13:40:55.987,0.68909466,0.0,-0.3862032,0.91915506,0.9637425,0.0,0.062736906,1.0864968,0.88867086,0.0,0.14553408,1.0867869,0.88280183,0.0,1.244079,0.86008716,0.7962601,0.0,1.21606,0.6891707,842.1245,844.1392,800.6227,818.7546,736.55676,-0.0224609375,0.03045654296875,0.98895263671875,2.07855224609375,-3.15521240234375,-0.456085205078125,1.0,1.0,1.0,1.0,1.0,100.0,event
13:40:55.988,0.68909466,0.0,-0.3862032,0.91915506,0.9637425,0.0,0.062736906,1.0864968,0.88867086,0.0,0.14553408,1.0867869,0.88280183,0.0,1.244079,0.86008716,0.7962601,0.0,1.21606,0.6891707,813.91943,827.619,805.8608,810.696,715.6044,-0.0224609375,0.03045654296875,0.98895263671875,2.07855224609375,-3.15521240234375,-0.456085205078125,1.0,1.0,1.0,1.0,1.0,100.0,event
13:40:55.989,0.68909466,0.0,-0.3862032,0.91915506,0.9637425,0.0,0.062736906,1.0864968,0.88867086,0.0,0.14553408,1.0867869,0.88280183,0.0,1.244079,0.86008716,0.7962601,0.0,1.21606,0.6891707,797.3993,797.8022,793.7729,790.9524,749.85345,-0.0224609375,0.03045654296875,0.98895263671875,2.07855224609375,-3.15521240234375,-0.456085205078125,1.0,1.0,1.0,1.0,1.0,100.0,event
13:40:55.989,0.68909466,0.0,-0.3862032,0.91915506,0.9637425,0.0,0.062736906,1.0864968,0.88867086,0.0,0.14553408,1.0867869,0.88280183,0.0,1.244079,0.86008716,0.7962601,0.0,1.21606,0.6891707,835.6777,785.7143,787.326,811.9048,712.381,-0.0224609375,0.03045654296875,0.98895263671875,2.07855224609375,-3.15521240234375,-0.456085205078125,1.0,1.0,1.0,1.0,1.0,100.0,event
13:40:55.990,0.68909466,0.0,-0.3862032,0.91915506,0.9637425,0.0,0.062736906,1.0864968,0.88867086,0.0,0.14553408,1.0867869,0.88280183,0.0,1.244079,0.86008716,0.7962601,0.0,1.21606,0.6891707,836.08057,833.2601,815.9341,847.76556,836.4835,-0.0224609375,0.03045654296875,0.98895263671875,2.07855224609375,-3.15521240234375,-0.456085205078125,1.0,1.0,1.0,1.0,1.0,100.0,event
13:40:55.990,0.68909466,0.0,-0.3862032,0.91915506,0.9637425,0.0,0.062736906,1.0864968,0.88867086,0.0,0.14553408,1.0867869,0.88280183,0.0,1.244079,0.86008716,0.7962601,0.0,1.21606,0.6891707,842.52747,813.1135,823.1868,831.2454,716.0073,-0.0224609375,0.03045654296875,0.98895263671875,2.07855224609375,-3.15521240234375,-0.456085205078125,1.0,1.0,1.0,1.0,1.0,100.0,event
13:40:55.991,0.68909466,0.0,-0.3862032,0.91915506,0.9637425,0.0,0.062736906,1.0864968,0.88867086,0.0,0.14553408,1.0867869,0.88280183,0.0,1.244079,0.86008716,0.7962601,0.0,1.21606,0.6891707,819.15753,793.36993,796.99634,833.2601,1081.8682,-0.0224609375,0.03045654296875,0.98895263671875,2.07855224609375,-3.15521240234375,-0.456085205078125,1.0,1.0,1.0,1.0,1.0,100.0,event
13:40:55.992,0.68909466,0.0,-0.3862032,0.91915506,0.9637425,0.0,0.062736906,1.0864968,0.88867086,0.0,0.14553408,1.0867869,0.88280183,0.0,1.244079,0.86008716,0.7962601,0.0,1.21606,0.6891707,801.02563,799.81683,817.9487,803.0403,1114.1025,-0.0224609375,0.03045654296875,0.98895263671875,2.07855224609375,-3.15521240234375,-0.456085205078125,1.0,1.0,1.0,1.0,1.0,100.0,event
13:40:55.992,0.68909466,0.0,-0.3862032,0.91915506,0.9637425,0.0,0.062736906,1.0864968,0.88867086,0.0,0.14553408,1.0867869,0.88280183,0.0,1.244079,0.86008716,0.7962601,0.0,1.21606,0.6891707,822.7839,835.6777,807.47253,814.3223,760.7326,-0.0224609375,0.03045654296875,0.98895263671875,2.07855224609375,-3.15521240234375,-0.456085205078125,1.0,1.0,1.0,1.0,1.0,100.0,event
13:40:55.993,0.68909466,0.0,-0.3862032,0.91915506,0.9637425,0.0,0.062736906,1.0864968,0.88867086,0.0,0.14553408,1.0867869,0.88280183,0.0,1.244079,0.86008716,0.7962601,0.0,1.21606,0.6891707,840.5128,828.4249,807.8755,829.2308,663.6264,-0.0224609375,0.03045654296875,0.98895263671875,2.07855224609375,-3.15521240234375,-0.456085205078125,1.0,1.0,1.0,1.0,1.0,100.0,event
13:40:55.993,0.68909466,0.0,-0.3862032,0.91915506,0.9637425,0.0,0.062736906,1.0864968,0.88867086,0.0,0.14553408,1.0867869,0.88280183,0.0,1.244079,0.86008716,0.7962601,0.0,1.21606,0.6891707,841.31866,837.6923,844.94507,835.6777,864.2857,-0.0224609375,0.03045654296875,0.98895263671875,2.07855224609375,-3.15521240234375,-0.456085205078125,1.0,1.0,1.0,1.0,1.0,100.0,event
