TimeStamp,Delta_TP9,Delta_AF7,Delta_AF8,Delta_TP10,Theta_TP9,Theta_AF7,Theta_AF8,Theta_TP10,Alpha_TP9,Alpha_AF7,Alpha_AF8,Alpha_TP10,Beta_TP9,Beta_AF7,Beta_AF8,Beta_TP10,Gamma_TP9,Gamma_AF7,Gamma_AF8,Gamma_TP10,RAW_TP9,RAW_AF7,RAW_AF8,RAW_TP10,AUX_RIGHT,Accelerometer_X,Accelerometer_Y,Accelerometer_Z,Gyro_X,Gyro_Y,Gyro_Z,HeadBandOn,HSI_TP9,HSI_AF7,HSI_AF8,HSI_TP10,Battery,Elements
13:45:01.683,0.0,0.0,0.0,0.0,0.0,0.0,0.0,0.0,0.0,0.0,0.0,0.0,0.0,0.0,0.0,0.0,0.0,0.0,0.0,0.0,810.293,794.17584,785.7143,799.41394,748.6447,-0.01837158203125,0.017333984375,0.9879150390625,1.92901611328125,-3.27484130859375,0.19439697265625,0.0,4.0,4.0,4.0,4.0,85.0,event
13:45:01.685,0.0,0.0,0.0,0.0,0.0,0.0,0.0,0.0,0.0,0.0,0.0,0.0,0.0,0.0,0.0,0.0,0.0,0.0,0.0,0.0,788.5348,806.6667,775.2381,794.9817,772.01465,-0.01837158203125,0.017333984375,0.9879150390625,1.92901611328125,-3.27484130859375,0.19439697265625,0.0,4.0,4.0,4.0,4.0,85.0,event
13:45:01.686,0.0,0.0,0.0,0.0,0.0,0.0,0.0,0.0,0.0,0.0,0.0,0.0,0.0,0.0,0.0,0.0,0.0,0.0,0.0,0.0,811.9048,831.6484,759.5238,812.71063,711.5751,-0.01837158203125,0.017333984375,0.9879150390625,1.92901611328125,-3.27484130859375,0.19439697265625,0.0,4.0,4.0,4.0,4.0,85.0,event
13:45:01.687,0.0,0.0,0.0,0.0,0.0,0.0,0.0,0.0,0.0,0.0,0.0,0.0,0.0,0.0,0.0,0.0,0.0,0.0,0.0,0.0,867.1062,811.9048,755.09155,844.5421,689.81683,-0.01837158203125,0.017333984375,0.9879150390625,1.92901611328125,-3.27484130859375,0.19439697265625,0.0,4.0,4.0,4.0,4.0,85.0,event
13:45:01.688,0.0,0.0,0.0,0.0,0.0,0.0,0.0,0.0,0.0,0.0,0.0,0.0,0.0,0.0,0.0,0.0,0.0,0.0,0.0,0.0,858.24176,795.78754,831.2454,835.2747,792.96704,-0.01837158203125,0.017333984375,0.9879150390625,1.92901611328125,-3.27484130859375,0.19439697265625,0.0,4.0,4.0,4.0,4.0,85.0,event
13:45:01.689,0.0,0.0,0.0,0.0,0.0,0.0,0.0,0.0,0.0,0.0,0.0,0.0,0.0,0.0,0.0,0.0,0.0,0.0,0.0,0.0,820.7692,750.2564,850.989,819.15753,842.52747,-0.01837158203125,0.017333984375,0.9879150390625,1.92901611328125,-3.27484130859375,0.19439697265625,0.0,4.0,4.0,4.0,4.0,85.0,event
13:45:01.690,0.0,0.0,0.0,0.0,0.0,0.0,0.0,0.0,0.0,0.0,0.0,0.0,0.0,0.0,0.0,0.0,0.0,0.0,0.0,0.0,801.02563,765.16486,767.98535,799.81683,854.21246,-0.01837158203125,0.017333984375,0.9879150390625,1.92901611328125,-3.27484130859375,0.19439697265625,0.0,4.0,4.0,4.0,4.0,85.0,event
13:45:01.691,0.0,0.0,0.0,0.0,0.0,0.0,0.0,0.0,0.0,0.0,0.0,0.0,0.0,0.0,0.0,0.0,0.0,0.0,0.0,0.0,772.01465,810.293,799.011,759.92676,890.4762,-0.01837158203125,0.017333984375,0.9879150390625,1.92901611328125,-3.27484130859375,0.19439697265625,0.0,4.0,4.0,4.0,4.0,85.0,event
13:45:01.691,0.0,0.0,0.0,0.0,0.0,0.0,0.0,0.0,0.0,0.0,0.0,0.0,0.0,0.0,0.0,0.0,0.0,0.0,0.0,0.0,776.8498,823.5897,776.8498,767.1795,774.0293,-0.01837158203125,0.017333984375,0.9879150390625,1.92901611328125,-3.27484130859375,0.19439697265625,0.0,4.0,4.0,4.0,4.0,85.0,event
13:45:01.692,0.0,0.0,0.0,0.0,0.0,0.0,0.0,0.0,0.0,0.0,0.0,0.0,0.0,0.0,0.0,0.0,0.0,0.0,0.0,0.0,821.5751,811.0989,776.04395,805.4579,971.06226,-0.01837158203125,0.017333984375,0.9879150390625,1.92901611328125,-3.27484130859375,0.19439697265625,0.0,4.0,4.0,4.0,4.0,85.0,event
13:45:01.692,0.0,0.0,0.0,0.0,0.0,0.0,0.0,0.0,0.0,0.0,0.0,0.0,0.0,0.0,0.0,0.0,0.0,0.0,0.0,0.0,867.1062,825.6044,791.3553,861.06226,716.8132,-0.01837158203125,0.017333984375,0.9879150390625,1.92901611328125,-3.27484130859375,0.19439697265625,0.0,4.0,4.0,4.0,4.0,85.0,event
13:45:01.693,0.0,0.0,0.0,0.0,0.0,0.0,0.0,0.0,0.0,0.0,0.0,0.0,0.0,0.0,0.0,0.0,0.0,0.0,0.0,0.0,848.97437,809.4872,835.2747,855.42126,678.93774,-0.01837158203125,0.017333984375,0.9879150390625,1.92901611328125,-3.27484130859375,0.19439697265625,0.0,4.0,4.0,4.0,4.0,85.0,event
13:45:01.694,0.0,0.0,0.0,0.0,0.0,0.0,0.0,0.0,0.0,0.0,0.0,0.0,0.0,0.0,0.0,0.0,0.0,0.0,0.0,0.0,815.5311,771.6117,849.3773,807.8755,787.326,-0.0115966796875,0.02423095703125,0.99151611328125,2.340240478515625,-3.4991455078125,0.40374755859375,0.0,4.0,4.0,4.0,4.0,85.0,event
13:45:01.694,0.0,0.0,0.0,0.0,0.0,0.0,0.0,0.0,0.0,0.0,0.0,0.0,0.0,0.0,0.0,0.0,0.0,0.0,0.0,0.0,793.7729,775.2381,811.50183,783.69965,696.6667,-0.0115966796875,0.02423095703125,0.99151611328125,2.340240478515625,-3.4991455078125,0.40374755859375,0.0,4.0,4.0,4.0,4.0,85.0,event
13:45:01.695,0.0,0.0,0.0,0.0,0.0,0.0,0.0,0.0,0.0,0.0,0.0,0.0,0.0,0.0,0.0,0.0,0.0,0.0,0.0,0.0,808.2784,797.3993,800.2198,801.02563,613.663,-0.0115966796875,0.02423095703125,0.99151611328125,2.340240478515625,-3.4991455078125,0.40374755859375,0.0,4.0,4.0,4.0,4.0,85.0,event
13:45:01.695,0.0,0.0,0.0,0.0,0.0,0.0,0.0,0.0,0.0,0.0,0.0,0.0,0.0,0.0,0.0,0.0,0.0,0.0,0.0,0.0,849.3773,847.3626,795.78754,842.52747,726.8865,-0.0115966796875,0.02423095703125,0.99151611328125,2.340240478515625,-3.4991455078125,0.40374755859375,0.0,4.0,4.0,4.0,4.0,85.0,event
13:45:01.696,0.0,0.0,0.0,0.0,0.0,0.0,0.0,0.0,0.0,0.0,0.0,0.0,0.0,0.0,0.0,0.0,0.0,0.0,0.0,0.0,840.10986,882.01465,786.52014,851.39197,816.337,-0.0115966796875,0.02423095703125,0.99151611328125,2.340240478515625,-3.4991455078125,0.40374755859375,0.0,4.0,4.0,4.0,4.0,85.0,event
13:45:01.697,0.0,0.0,0.0,0.0,0.0,0.0,0.0,0.0,0.0,0.0,0.0,0.0,0.0,0.0,0.0,0.0,0.0,0.0,0.0,0.0,813.1135,829.2308,810.696,818.3516,861.06226,-0.0115966796875,0.02423095703125,0.99151611328125,2.340240478515625,-3.4991455078125,0.40374755859375,0.0,4.0,4.0,4.0,4.0,85.0,event
13:45:01.697,0.0,0.0,0.0,0.0,0.0,0.0,0.0,0.0,0.0,0.0,0.0,0.0,0.0,0.0,0.0,0.0,0.0,0.0,0.0,0.0,797.3993,792.5641,810.696,788.5348,859.0476,-0.0115966796875,0.02423095703125,0.99151611328125,2.340240478515625,-3.4991455078125,0.40374755859375,0.0,4.0,4.0,4.0,4.0,85.0,event
13:45:01.698,0.0,0.0,0.0,0.0,0.0,0.0,0.0,0.0,0.0,0.0,0.0,0.0,0.0,0.0,0.0,0.0,0.0,0.0,0.0,0.0,850.58606,767.5824,793.36993,842.1245,1009.34064,-0.0115966796875,0.02423095703125,0.99151611328125,2.340240478515625,-3.4991455078125,0.40374755859375,0.0,4.0,4.0,4.0,4.0,85.0,event
13:45:01.698,0.0,0.0,0.0,0.0,0.0,0.0,0.0,0.0,0.0,0.0,0.0,0.0,0.0,0.0,0.0,0.0,0.0,0.0,0.0,0.0,811.50183,745.42126,768.3883,797.8022,868.315,-0.0115966796875,0.02423095703125,0.99151611328125,2.340240478515625,-3.4991455078125,0.40374755859375,0.0,4.0,4.0,4.0,4.0,85.0,event
13:45:01.699,0.0,0.0,0.0,0.0,0.0,0.0,0.0,0.0,0.0,0.0,0.0,0.0,0.0,0.0,0.0,0.0,0.0,0.0,0.0,0.0,873.95605,853.00366,854.61536,870.7326,834.0659,-0.0115966796875,0.02423095703125,0.99151611328125,2.340240478515625,-3.4991455078125,0.40374755859375,0.0,4.0,4.0,4.0,4.0,85.0,event
13:45:01.702,0.0,0.0,0.0,0.0,0.0,0.0,0.0,0.0,0.0,0.0,0.0,0.0,0.0,0.0,0.0,0.0,0.0,0.0,0.0,0.0,842.1245,830.84247,803.8461,840.5128,680.54944,-0.0115966796875,0.02423095703125,0.99151611328125,2.340240478515625,-3.4991455078125,0.40374755859375,0.0,4.0,4.0,4.0,4.0,85.0,event
13:45:01.702,0.0,0.0,0.0,0.0,0.0,0.0,0.0,0.0,0.0,0.0,0.0,0.0,0.0,0.0,0.0,0.0,0.0,0.0,0.0,0.0,822.7839,840.5128,825.6044,822.381,739.7802,-0.0115966796875,0.02423095703125,0.99151611328125,2.340240478515625,-3.4991455078125,0.40374755859375,0.0,4.0,4.0,4.0,4.0,85.0,event
13:45:01.734,0.0,0.0,0.0,0.0,0.0,0.0,0.0,0.0,0.0,0.0,0.0,0.0,0.0,0.0,0.0,0.0,0.0,0.0,0.0,0.0,789.34064,761.53845,854.21246,785.31134,708.3516,-0.01361083984375,0.01580810546875,0.9853515625,1.742095947265625,-3.6785888671875,0.35888671875,0.0,4.0,4.0,4.0,4.0,85.0,event
13:45:01.735,0.0,0.0,0.0,0.0,0.0,0.0,0.0,0.0,0.0,0.0,0.0,0.0,0.0,0.0,0.0,0.0,0.0,0.0,0.0,0.0,762.3443,730.9158,794.17584,762.3443,738.5714,-0.01361083984375,0.01580810546875,0.9853515625,1.742095947265625,-3.6785888671875,0.35888671875,0.0,4.0,4.0,4.0,4.0,85.0,event
13:45:01.736,0.0,0.0,0.0,0.0,0.0,0.0,0.0,0.0,0.0,0.0,0.0,0.0,0.0,0.0,0.0,0.0,0.0,0.0,0.0,0.0,789.7436,794.9817,793.36993,789.7436,747.8388,-0.01361083984375,0.01580810546875,0.9853515625,1.742095947265625,-3.6785888671875,0.35888671875,0.0,4.0,4.0,4.0,4.0,85.0,event
13:45:01.736,0.0,0.0,0.0,0.0,0.0,0.0,0.0,0.0,0.0,0.0,0.0,0.0,0.0,0.0,0.0,0.0,0.0,0.0,0.0,0.0,834.4689,844.1392,784.90845,836.8865,754.2857,-0.01361083984375,0.01580810546875,0.9853515625,1.742095947265625,-3.6785888671875,0.35888671875,0.0,4.0,4.0,4.0,4.0,85.0,event
13:45:01.737,0.0,0.0,0.0,0.0,0.0,0.0,0.0,0.0,0.0,0.0,0.0,0.0,0.0,0.0,0.0,0.0,0.0,0.0,0.0,0.0,821.1722,886.8498,754.68866,821.1722,741.79486,-0.01361083984375,0.01580810546875,0.9853515625,1.742095947265625,-3.6785888671875,0.35888671875,0.0,4.0,4.0,4.0,4.0,85.0,event
13:45:01.738,0.0,0.0,0.0,0.0,0.0,0.0,0.0,0.0,0.0,0.0,0.0,0.0,0.0,0.0,0.0,0.0,0.0,0.0,0.0,0.0,769.19415,772.01465,754.68866,763.1502,761.9414,-0.01361083984375,0.01580810546875,0.9853515625,1.742095947265625,-3.6785888671875,0.35888671875,0.0,4.0,4.0,4.0,4.0,85.0,event
13:45:01.738,0.0,0.0,0.0,0.0,0.0,0.0,0.0,0.0,0.0,0.0,0.0,0.0,0.0,0.0,0.0,0.0,0.0,0.0,0.0,0.0,826.0073,693.8461,842.52747,817.5458,763.1502,-0.01361083984375,0.01580810546875,0.9853515625,1.742095947265625,-3.6785888671875,0.35888671875,0.0,4.0,4.0,4.0,4.0,85.0,event
13:45:01.739,0.0,0.0,0.0,0.0,0.0,0.0,0.0,0.0,0.0,0.0,0.0,0.0,0.0,0.0,0.0,0.0,0.0,0.0,0.0,0.0,751.4652,820.3663,824.3956,767.1795,1056.8865,-0.01361083984375,0.01580810546875,0.9853515625,1.742095947265625,-3.6785888671875,0.35888671875,0.0,4.0,4.0,4.0,4.0,85.0,event
13:45:01.739,0.0,0.0,0.0,0.0,0.0,0.0,0.0,0.0,0.0,0.0,0.0,0.0,0.0,0.0,0.0,0.0,0.0,0.0,0.0,0.0,833.663,760.7326,862.27106,827.2161,969.45056,-0.01361083984375,0.01580810546875,0.9853515625,1.742095947265625,-3.6785888671875,0.35888671875,0.0,4.0,4.0,4.0,4.0,85.0,event
13:45:01.740,0.0,0.0,0.0,0.0,0.0,0.0,0.0,0.0,0.0,0.0,0.0,0.0,0.0,0.0,0.0,0.0,0.0,0.0,0.0,0.0,746.63007,826.8132,810.293,751.4652,679.34064,-0.01361083984375,0.01580810546875,0.9853515625,1.742095947265625,-3.6785888671875,0.35888671875,0.0,4.0,4.0,4.0,4.0,85.0,event
13:45:01.741,0.0,0.0,0.0,0.0,0.0,0.0,0.0,0.0,0.0,0.0,0.0,0.0,0.0,0.0,0.0,0.0,0.0,0.0,0.0,0.0,809.0842,819.9634,744.21246,801.02563,545.16486,-0.01361083984375,0.01580810546875,0.9853515625,1.742095947265625,-3.6785888671875,0.35888671875,0.0,4.0,4.0,4.0,4.0,85.0,event
13:45:01.741,0.0,0.0,0.0,0.0,0.0,0.0,0.0,0.0,0.0,0.0,0.0,0.0,0.0,0.0,0.0,0.0,0.0,0.0,0.0,0.0,855.42126,823.5897,749.0476,854.21246,669.2674,-0.01361083984375,0.01580810546875,0.9853515625,1.742095947265625,-3.6785888671875,0.35888671875,0.0,4.0,4.0,4.0,4.0,85.0,event
13:45:01.788,0.0,0.0,0.0,0.0,0.0,0.0,0.0,0.0,0.0,0.0,0.0,0.0,0.0,0.0,0.0,0.0,0.0,0.0,0.0,0.0,830.0366,809.0842,861.8681,838.9011,770.0,-0.01361083984375,0.01580810546875,0.9853515625,1.742095947265625,-3.6785888671875,0.35888671875,0.0,4.0,4.0,4.0,4.0,85.0,event
13:45:01.790,0.0,0.0,0.0,0.0,0.0,0.0,0.0,0.0,0.0,0.0,0.0,0.0,0.0,0.0,0.0,0.0,0.0,0.0,0.0,0.0,778.86444,790.9524,893.2967,795.78754,728.49817,-0.01361083984375,0.01580810546875,0.9853515625,1.742095947265625,-3.6785888671875,0.35888671875,0.0,4.0,4.0,4.0,4.0,85.0,event
13:45:01.791,0.0,0.0,0.0,0.0,0.0,0.0,0.0,0.0,0.0,0.0,0.0,0.0,0.0,0.0,0.0,0.0,0.0,0.0,0.0,0.0,794.17584,780.07324,814.7253,797.8022,730.10986,-0.01361083984375,0.01580810546875,0.9853515625,1.742095947265625,-3.6785888671875,0.35888671875,0.0,4.0,4.0,4.0,4.0,85.0,event
13:45:01.792,0.0,0.0,0.0,0.0,0.0,0.0,0.0,0.0,0.0,0.0,0.0,0.0,0.0,0.0,0.0,0.0,0.0,0.0,0.0,0.0,857.03296,824.7985,788.1319,840.10986,786.52014,-0.01361083984375,0.01580810546875,0.9853515625,1.742095947265625,-3.6785888671875,0.35888671875,0.0,4.0,4.0,4.0,4.0,85.0,event
13:45:01.794,0.0,0.0,0.0,0.0,0.0,0.0,0.0,0.0,0.0,0.0,0.0,0.0,0.0,0.0,0.0,0.0,0.0,0.0,0.0,0.0,824.7985,823.5897,774.83514,819.5604,792.96704,-0.01361083984375,0.01580810546875,0.9853515625,1.742095947265625,-3.6785888671875,0.35888671875,0.0,4.0,4.0,4.0,4.0,85.0,event
13:45:01.795,0.0,0.0,0.0,0.0,0.0,0.0,0.0,0.0,0.0,0.0,0.0,0.0,0.0,0.0,0.0,0.0,0.0,0.0,0.0,0.0,795.38464,782.8938,750.65936,809.4872,830.84247,-0.01361083984375,0.01580810546875,0.9853515625,1.742095947265625,-3.6785888671875,0.35888671875,0.0,4.0,4.0,4.0,4.0,85.0,event
13:45:01.796,0.0,0.0,0.0,0.0,0.0,0.0,0.0,0.0,0.0,0.0,0.0,0.0,0.0,0.0,0.0,0.0,0.0,0.0,0.0,0.0,802.6374,792.96704,803.44324,821.978,949.707,-0.01361083984375,0.01580810546875,0.9853515625,1.742095947265625,-3.6785888671875,0.35888671875,0.0,4.0,4.0,4.0,4.0,85.0,event
13:45:01.797,0.0,0.0,0.0,0.0,0.0,0.0,0.0,0.0,0.0,0.0,0.0,0.0,0.0,0.0,0.0,0.0,0.0,0.0,0.0,0.0,786.1172,811.0989,847.76556,784.5055,914.2491,-0.01361083984375,0.01580810546875,0.9853515625,1.742095947265625,-3.6785888671875,0.35888671875,0.0,4.0,4.0,4.0,4.0,85.0,event
13:45:01.797,0.0,0.0,0.0,0.0,0.0,0.0,0.0,0.0,0.0,0.0,0.0,0.0,0.0,0.0,0.0,0.0,0.0,0.0,0.0,0.0,775.2381,782.49084,850.18317,794.57874,1079.8535,-0.01361083984375,0.01580810546875,0.9853515625,1.742095947265625,-3.6785888671875,0.35888671875,0.0,4.0,4.0,4.0,4.0,85.0,event
13:45:01.798,0.0,0.0,0.0,0.0,0.0,0.0,0.0,0.0,0.0,0.0,0.0,0.0,0.0,0.0,0.0,0.0,0.0,0.0,0.0,0.0,818.3516,805.4579,840.10986,821.1722,719.6337,-0.01361083984375,0.01580810546875,0.9853515625,1.742095947265625,-3.6785888671875,0.35888671875,0.0,4.0,4.0,4.0,4.0,85.0,event
13:45:01.799,0.0,0.0,0.0,0.0,0.0,0.0,0.0,0.0,0.0,0.0,0.0,0.0,0.0,0.0,0.0,0.0,0.0,0.0,0.0,0.0,843.3333,783.2967,832.8571,855.42126,799.011,-0.01361083984375,0.01580810546875,0.9853515625,1.742095947265625,-3.6785888671875,0.35888671875,0.0,4.0,4.0,4.0,4.0,85.0,event
13:45:01.799,0.0,0.0,0.0,0.0,0.0,0.0,0.0,0.0,0.0,0.0,0.0,0.0,0.0,0.0,0.0,0.0,0.0,0.0,0.0,0.0,859.0476,847.3626,821.978,850.989,823.5897,-0.01361083984375,0.01580810546875,0.9853515625,1.742095947265625,-3.6785888671875,0.35888671875,0.0,4.0,4.0,4.0,4.0,85.0,event
13:45:01.835,0.0,0.0,0.0,0.0,0.0,0.0,0.0,0.0,0.0,0.0,0.0,0.0,0.0,0.0,0.0,0.0,0.0,0.0,0.0,0.0,821.5751,858.24176,797.8022,817.9487,722.4542,-0.01055908203125,0.01617431640625,0.985107421875,2.1533203125,-3.72344970703125,-0.13458251953125,0.0,4.0,4.0,4.0,4.0,85.0,event
13:45:01.835,0.0,0.0,0.0,0.0,0.0,0.0,0.0,0.0,0.0,0.0,0.0,0.0,0.0,0.0,0.0,0.0,0.0,0.0,0.0,0.0,781.685,793.36993,734.5421,781.28204,654.7619,-0.01055908203125,0.01617431640625,0.985107421875,2.1533203125,-3.72344970703125,-0.13458251953125,0.0,4.0,4.0,4.0,4.0,85.0,event
13:45:01.836,0.0,0.0,0.0,0.0,0.0,0.0,0.0,0.0,0.0,0.0,0.0,0.0,0.0,0.0,0.0,0.0,0.0,0.0,0.0,0.0,792.1612,750.2564,727.28937,788.93774,753.0769,-0.01055908203125,0.01617431640625,0.985107421875,2.1533203125,-3.72344970703125,-0.13458251953125,0.0,4.0,4.0,4.0,4.0,85.0,event
13:45:01.837,0.0,0.0,0.0,0.0,0.0,0.0,0.0,0.0,0.0,0.0,0.0,0.0,0.0,0.0,0.0,0.0,0.0,0.0,0.0,0.0,814.7253,798.60803,796.99634,817.9487,810.696,-0.01055908203125,0.01617431640625,0.985107421875,2.1533203125,-3.72344970703125,-0.13458251953125,0.0,4.0,4.0,4.0,4.0,85.0,event
13:45:01.837,0.0,0.0,0.0,0.0,0.0,0.0,0.0,0.0,0.0,0.0,0.0,0.0,0.0,0.0,0.0,0.0,0.0,0.0,0.0,0.0,826.0073,847.76556,820.7692,828.022,741.79486,-0.01055908203125,0.01617431640625,0.985107421875,2.1533203125,-3.72344970703125,-0.13458251953125,0.0,4.0,4.0,4.0,4.0,85.0,event
13:45:01.838,0.0,0.0,0.0,0.0,0.0,0.0,0.0,0.0,0.0,0.0,0.0,0.0,0.0,0.0,0.0,0.0,0.0,0.0,0.0,0.0,796.5934,833.2601,805.8608,792.1612,720.0366,-0.01055908203125,0.01617431640625,0.985107421875,2.1533203125,-3.72344970703125,-0.13458251953125,0.0,4.0,4.0,4.0,4.0,85.0,event
13:45:01.839,0.0,0.0,0.0,0.0,0.0,0.0,0.0,0.0,0.0,0.0,0.0,0.0,0.0,0.0,0.0,0.0,0.0,0.0,0.0,0.0,820.3663,786.52014,830.4396,808.68134,1123.37,-0.01055908203125,0.01617431640625,0.985107421875,2.1533203125,-3.72344970703125,-0.13458251953125,0.0,4.0,4.0,4.0,4.0,85.0,event
13:45:01.839,0.0,0.0,0.0,0.0,0.0,0.0,0.0,0.0,0.0,0.0,0.0,0.0,0.0,0.0,0.0,0.0,0.0,0.0,0.0,0.0,785.7143,804.2491,807.0696,772.4176,991.2088,-0.01055908203125,0.01617431640625,0.985107421875,2.1533203125,-3.72344970703125,-0.13458251953125,0.0,4.0,4.0,4.0,4.0,85.0,event
13:45:01.840,0.0,0.0,0.0,0.0,0.0,0.0,0.0,0.0,0.0,0.0,0.0,0.0,0.0,0.0,0.0,0.0,0.0,0.0,0.0,0.0,805.05493,819.15753,771.2088,802.6374,820.3663,-0.01055908203125,0.01617431640625,0.985107421875,2.1533203125,-3.72344970703125,-0.13458251953125,0.0,4.0,4.0,4.0,4.0,85.0,event
13:45:01.840,0.0,0.0,0.0,0.0,0.0,0.0,0.0,0.0,0.0,0.0,0.0,0.0,0.0,0.0,0.0,0.0,0.0,0.0,0.0,0.0,836.08057,810.293,814.3223,827.619,852.6007,-0.01055908203125,0.01617431640625,0.985107421875,2.1533203125,-3.72344970703125,-0.13458251953125,0.0,4.0,4.0,4.0,4.0,85.0,event
13:45:01.841,0.0,0.0,0.0,0.0,0.0,0.0,0.0,0.0,0.0,0.0,0.0,0.0,0.0,0.0,0.0,0.0,0.0,0.0,0.0,0.0,755.09155,772.4176,799.81683,761.13556,857.8388,-0.01055908203125,0.01617431640625,0.985107421875,2.1533203125,-3.72344970703125,-0.13458251953125,0.0,4.0,4.0,4.0,4.0,85.0,event
13:45:01.842,0.0,0.0,0.0,0.0,0.0,0.0,0.0,0.0,0.0,0.0,0.0,0.0,0.0,0.0,0.0,0.0,0.0,0.0,0.0,0.0,767.1795,760.7326,819.15753,754.68866,730.10986,-0.01055908203125,0.01617431640625,0.985107421875,2.1533203125,-3.72344970703125,-0.13458251953125,0.0,4.0,4.0,4.0,4.0,85.0,event
13:45:01.889,0.0,0.0,0.0,0.0,0.0,0.0,0.0,0.0,0.0,0.0,0.0,0.0,0.0,0.0,0.0,0.0,0.0,0.0,0.0,0.0,801.8315,809.89014,803.0403,783.69965,649.5238,-0.00775146484375,0.02117919921875,0.9864501953125,2.355194091796875,-3.701019287109375,0.770111083984375,0.0,4.0,4.0,4.0,4.0,85.0,event
13:45:01.891,0.0,0.0,0.0,0.0,0.0,0.0,0.0,0.0,0.0,0.0,0.0,0.0,0.0,0.0,0.0,0.0,0.0,0.0,0.0,0.0,811.50183,820.3663,791.75824,800.6227,718.022,-0.00775146484375,0.02117919921875,0.9864501953125,2.355194091796875,-3.701019287109375,0.770111083984375,0.0,4.0,4.0,4.0,4.0,85.0,event
13:45:01.892,0.0,0.0,0.0,0.0,0.0,0.0,0.0,0.0,0.0,0.0,0.0,0.0,0.0,0.0,0.0,0.0,0.0,0.0,0.0,0.0,795.78754,829.6337,782.0879,796.5934,811.9048,-0.00775146484375,0.02117919921875,0.9864501953125,2.355194091796875,-3.701019287109375,0.770111083984375,0.0,4.0,4.0,4.0,4.0,85.0,event
13:45:01.893,0.0,0.0,0.0,0.0,0.0,0.0,0.0,0.0,0.0,0.0,0.0,0.0,0.0,0.0,0.0,0.0,0.0,0.0,0.0,0.0,779.2674,832.0513,773.22345,788.1319,759.5238,-0.00775146484375,0.02117919921875,0.9864501953125,2.355194091796875,-3.701019287109375,0.770111083984375,0.0,4.0,4.0,4.0,4.0,85.0,event
13:45:01.894,0.0,0.0,0.0,0.0,0.0,0.0,0.0,0.0,0.0,0.0,0.0,0.0,0.0,0.0,0.0,0.0,0.0,0.0,0.0,0.0,806.26373,789.34064,773.6264,798.60803,676.1172,-0.00775146484375,0.02117919921875,0.9864501953125,2.355194091796875,-3.701019287109375,0.770111083984375,0.0,4.0,4.0,4.0,4.0,85.0,event
13:45:01.895,0.0,0.0,0.0,0.0,0.0,0.0,0.0,0.0,0.0,0.0,0.0,0.0,0.0,0.0,0.0,0.0,0.0,0.0,0.0,0.0,848.5714,795.78754,772.4176,832.0513,828.4249,-0.00775146484375,0.02117919921875,0.9864501953125,2.355194091796875,-3.701019287109375,0.770111083984375,0.0,4.0,4.0,4.0,4.0,85.0,event
13:45:01.896,0.0,0.0,0.0,0.0,0.0,0.0,0.0,0.0,0.0,0.0,0.0,0.0,0.0,0.0,0.0,0.0,0.0,0.0,0.0,0.0,860.65936,842.52747,796.1905,860.2564,989.19415,-0.00775146484375,0.02117919921875,0.9864501953125,2.355194091796875,-3.701019287109375,0.770111083984375,0.0,4.0,4.0,4.0,4.0,85.0,event
13:45:01.898,0.0,0.0,0.0,0.0,0.0,0.0,0.0,0.0,0.0,0.0,0.0,0.0,0.0,0.0,0.0,0.0,0.0,0.0,0.0,0.0,818.3516,844.94507,838.0952,830.4396,869.92676,-0.00775146484375,0.02117919921875,0.9864501953125,2.355194091796875,-3.701019287109375,0.770111083984375,0.0,4.0,4.0,4.0,4.0,85.0,event
13:45:01.899,0.0,0.0,0.0,0.0,0.0,0.0,0.0,0.0,0.0,0.0,0.0,0.0,0.0,0.0,0.0,0.0,0.0,0.0,0.0,0.0,766.77655,821.1722,823.5897,782.49084,736.55676,-0.00775146484375,0.02117919921875,0.9864501953125,2.355194091796875,-3.701019287109375,0.770111083984375,0.0,4.0,4.0,4.0,4.0,85.0,event
13:45:01.901,0.0,0.0,0.0,0.0,0.0,0.0,0.0,0.0,0.0,0.0,0.0,0.0,0.0,0.0,0.0,0.0,0.0,0.0,0.0,0.0,763.1502,800.2198,808.2784,772.01465,860.65936,-0.00775146484375,0.02117919921875,0.9864501953125,2.355194091796875,-3.701019287109375,0.770111083984375,0.0,4.0,4.0,4.0,4.0,85.0,event
13:45:01.902,0.0,0.0,0.0,0.0,0.0,0.0,0.0,0.0,0.0,0.0,0.0,0.0,0.0,0.0,0.0,0.0,0.0,0.0,0.0,0.0,801.02563,839.304,790.54944,802.23444,934.3956,-0.00775146484375,0.02117919921875,0.9864501953125,2.355194091796875,-3.701019287109375,0.770111083984375,0.0,4.0,4.0,4.0,4.0,85.0,event
13:45:01.903,0.0,0.0,0.0,0.0,0.0,0.0,0.0,0.0,0.0,0.0,0.0,0.0,0.0,0.0,0.0,0.0,0.0,0.0,0.0,0.0,840.10986,838.9011,784.5055,842.52747,772.4176,-0.00775146484375,0.02117919921875,0.9864501953125,2.355194091796875,-3.701019287109375,0.770111083984375,0.0,4.0,4.0,4.0,4.0,85.0,event
13:45:01.935,0.0,0.0,0.0,0.0,0.0,0.0,0.0,0.0,0.0,0.0,0.0,0.0,0.0,0.0,0.0,0.0,0.0,0.0,0.0,0.0,839.707,784.90845,801.8315,846.55676,697.0696,-0.01544189453125,0.01812744140625,0.99188232421875,2.205657958984375,-3.192596435546875,0.8074951171875,0.0,4.0,4.0,4.0,4.0,85.0,event
13:45:01.936,0.0,0.0,0.0,0.0,0.0,0.0,0.0,0.0,0.0,0.0,0.0,0.0,0.0,0.0,0.0,0.0,0.0,0.0,0.0,0.0,801.8315,814.7253,802.23444,815.5311,815.5311,-0.01544189453125,0.01812744140625,0.99188232421875,2.205657958984375,-3.192596435546875,0.8074951171875,0.0,4.0,4.0,4.0,4.0,85.0,event
13:45:01.939,0.0,0.0,0.0,0.0,0.0,0.0,0.0,0.0,0.0,0.0,0.0,0.0,0.0,0.0,0.0,0.0,0.0,0.0,0.0,0.0,771.2088,826.0073,806.26373,778.86444,858.6447,-0.01544189453125,0.01812744140625,0.99188232421875,2.205657958984375,-3.192596435546875,0.8074951171875,0.0,4.0,4.0,4.0,4.0,85.0,event
13:45:01.940,0.0,0.0,0.0,0.0,0.0,0.0,0.0,0.0,0.0,0.0,0.0,0.0,0.0,0.0,0.0,0.0,0.0,0.0,0.0,0.0,788.93774,811.50183,799.81683,772.4176,699.4872,-0.01544189453125,0.01812744140625,0.99188232421875,2.205657958984375,-3.192596435546875,0.8074951171875,0.0,4.0,4.0,4.0,4.0,85.0,event
13:45:01.940,0.0,0.0,0.0,0.0,0.0,0.0,0.0,0.0,0.0,0.0,0.0,0.0,0.0,0.0,0.0,0.0,0.0,0.0,0.0,0.0,823.5897,818.3516,812.71063,816.337,690.2198,-0.01544189453125,0.01812744140625,0.99188232421875,2.205657958984375,-3.192596435546875,0.8074951171875,0.0,4.0,4.0,4.0,4.0,85.0,event
13:45:01.941,0.0,0.0,0.0,0.0,0.0,0.0,0.0,0.0,0.0,0.0,0.0,0.0,0.0,0.0,0.0,0.0,0.0,0.0,0.0,0.0,818.3516,797.3993,828.022,830.84247,878.3883,-0.01544189453125,0.01812744140625,0.99188232421875,2.205657958984375,-3.192596435546875,0.8074951171875,0.0,4.0,4.0,4.0,4.0,85.0,event
13:45:01.941,0.0,0.0,0.0,0.0,0.0,0.0,0.0,0.0,0.0,0.0,0.0,0.0,0.0,0.0,0.0,0.0,0.0,0.0,0.0,0.0,790.54944,792.1612,807.8755,808.2784,964.21246,-0.01544189453125,0.01812744140625,0.99188232421875,2.205657958984375,-3.192596435546875,0.8074951171875,0.0,4.0,4.0,4.0,4.0,85.0,event
13:45:01.942,0.0,0.0,0.0,0.0,0.0,0.0,0.0,0.0,0.0,0.0,0.0,0.0,0.0,0.0,0.0,0.0,0.0,0.0,0.0,0.0,821.1722,848.5714,776.04395,833.663,805.4579,-0.01544189453125,0.01812744140625,0.99188232421875,2.205657958984375,-3.192596435546875,0.8074951171875,0.0,4.0,4.0,4.0,4.0,85.0,event
13:45:01.943,0.0,0.0,0.0,0.0,0.0,0.0,0.0,0.0,0.0,0.0,0.0,0.0,0.0,0.0,0.0,0.0,0.0,0.0,0.0,0.0,824.3956,807.0696,803.8461,811.50183,894.10254,-0.01544189453125,0.01812744140625,0.99188232421875,2.205657958984375,-3.192596435546875,0.8074951171875,0.0,4.0,4.0,4.0,4.0,85.0,event
13:45:01.943,0.0,0.0,0.0,0.0,0.0,0.0,0.0,0.0,0.0,0.0,0.0,0.0,0.0,0.0,0.0,0.0,0.0,0.0,0.0,0.0,867.9121,872.3443,763.1502,863.0769,701.0989,-0.01544189453125,0.01812744140625,0.99188232421875,2.205657958984375,-3.192596435546875,0.8074951171875,0.0,4.0,4.0,4.0,4.0,85.0,event
13:45:01.944,0.0,0.0,0.0,0.0,0.0,0.0,0.0,0.0,0.0,0.0,0.0,0.0,0.0,0.0,0.0,0.0,0.0,0.0,0.0,0.0,775.2381,806.6667,821.978,764.35895,919.89014,-0.01544189453125,0.01812744140625,0.99188232421875,2.205657958984375,-3.192596435546875,0.8074951171875,0.0,4.0,4.0,4.0,4.0,85.0,event
13:45:01.945,0.0,0.0,0.0,0.0,0.0,0.0,0.0,0.0,0.0,0.0,0.0,0.0,0.0,0.0,0.0,0.0,0.0,0.0,0.0,0.0,763.1502,823.9927,795.78754,761.9414,722.8571,-0.01544189453125,0.01812744140625,0.99188232421875,2.205657958984375,-3.192596435546875,0.8074951171875,0.0,4.0,4.0,4.0,4.0,85.0,event
13:45:01.987,0.0,0.0,0.0,0.0,0.0,0.0,0.0,0.0,0.0,0.0,0.0,0.0,0.0,0.0,0.0,0.0,0.0,0.0,0.0,0.0,794.57874,810.696,804.2491,788.5348,775.2381,-0.0115966796875,0.02117919921875,0.989013671875,2.370147705078125,-3.401947021484375,-0.246734619140625,0.0,4.0,4.0,4.0,4.0,85.0,event
13:45:01.989,0.0,0.0,0.0,0.0,0.0,0.0,0.0,0.0,0.0,0.0,0.0,0.0,0.0,0.0,0.0,0.0,0.0,0.0,0.0,0.0,823.9927,819.15753,836.8865,822.381,837.28937,-0.0115966796875,0.02117919921875,0.989013671875,2.370147705078125,-3.401947021484375,-0.246734619140625,0.0,4.0,4.0,4.0,4.0,85.0,event
13:45:01.990,0.0,0.0,0.0,0.0,0.0,0.0,0.0,0.0,0.0,0.0,0.0,0.0,0.0,0.0,0.0,0.0,0.0,0.0,0.0,0.0,803.44324,807.8755,816.7399,809.4872,780.87915,-0.0115966796875,0.02117919921875,0.989013671875,2.370147705078125,-3.401947021484375,-0.246734619140625,0.0,4.0,4.0,4.0,4.0,85.0,event
13:45:01.991,0.0,0.0,0.0,0.0,0.0,0.0,0.0,0.0,0.0,0.0,0.0,0.0,0.0,0.0,0.0,0.0,0.0,0.0,0.0,0.0,800.6227,806.6667,786.1172,800.6227,773.6264,-0.0115966796875,0.02117919921875,0.989013671875,2.370147705078125,-3.401947021484375,-0.246734619140625,0.0,4.0,4.0,4.0,4.0,85.0,event
13:45:01.992,0.0,0.0,0.0,0.0,0.0,0.0,0.0,0.0,0.0,0.0,0.0,0.0,0.0,0.0,0.0,0.0,0.0,0.0,0.0,0.0,818.7546,809.4872,823.9927,817.1429,811.0989,-0.0115966796875,0.02117919921875,0.989013671875,2.370147705078125,-3.401947021484375,-0.246734619140625,0.0,4.0,4.0,4.0,4.0,85.0,event
13:45:01.994,0.0,0.0,0.0,0.0,0.0,0.0,0.0,0.0,0.0,0.0,0.0,0.0,0.0,0.0,0.0,0.0,0.0,0.0,0.0,0.0,821.5751,813.5165,850.18317,813.5165,889.2674,-0.0115966796875,0.02117919921875,0.989013671875,2.370147705078125,-3.401947021484375,-0.246734619140625,0.0,4.0,4.0,4.0,4.0,85.0,event
13:45:01.995,0.0,0.0,0.0,0.0,0.0,0.0,0.0,0.0,0.0,0.0,0.0,0.0,0.0,0.0,0.0,0.0,0.0,0.0,0.0,0.0,823.5897,832.8571,824.7985,810.696,838.49817,-0.0115966796875,0.02117919921875,0.989013671875,2.370147705078125,-3.401947021484375,-0.246734619140625,0.0,4.0,4.0,4.0,4.0,85.0,event
13:45:01.996,0.0,0.0,0.0,0.0,0.0,0.0,0.0,0.0,0.0,0.0,0.0,0.0,0.0,0.0,0.0,0.0,0.0,0.0,0.0,0.0,834.87177,848.1685,796.1905,824.3956,730.10986,-0.0115966796875,0.02117919921875,0.989013671875,2.370147705078125,-3.401947021484375,-0.246734619140625,0.0,4.0,4.0,4.0,4.0,85.0,event
13:45:01.996,0.0,0.0,0.0,0.0,0.0,0.0,0.0,0.0,0.0,0.0,0.0,0.0,0.0,0.0,0.0,0.0,0.0,0.0,0.0,0.0,834.0659,848.5714,763.5531,837.28937,836.4835,-0.0115966796875,0.02117919921875,0.989013671875,2.370147705078125,-3.401947021484375,-0.246734619140625,0.0,4.0,4.0,4.0,4.0,85.0,event
13:45:01.997,0.0,0.0,0.0,0.0,0.0,0.0,0.0,0.0,0.0,0.0,0.0,0.0,0.0,0.0,0.0,0.0,0.0,0.0,0.0,0.0,785.7143,827.619,796.99634,780.87915,829.2308,-0.0115966796875,0.02117919921875,0.989013671875,2.370147705078125,-3.401947021484375,-0.246734619140625,0.0,4.0,4.0,4.0,4.0,85.0,event
13:45:01.997,0.0,0.0,0.0,0.0,0.0,0.0,0.0,0.0,0.0,0.0,0.0,0.0,0.0,0.0,0.0,0.0,0.0,0.0,0.0,0.0,808.2784,845.34796,740.989,821.1722,1017.3993,-0.0115966796875,0.02117919921875,0.989013671875,2.370147705078125,-3.401947021484375,-0.246734619140625,0.0,4.0,4.0,4.0,4.0,85.0,event
13:45:01.998,0.0,0.0,0.0,0.0,0.0,0.0,0.0,0.0,0.0,0.0,0.0,0.0,0.0,0.0,0.0,0.0,0.0,0.0,0.0,0.0,791.3553,781.28204,839.707,771.6117,650.32965,-0.0115966796875,0.02117919921875,0.989013671875,2.370147705078125,-3.401947021484375,-0.246734619140625,0.0,4.0,4.0,4.0,4.0,85.0,event
13:45:02.019,0.0,0.0,0.0,0.0,0.0,0.0,0.0,0.0,0.0,0.0,0.0,0.0,0.0,0.0,0.0,0.0,0.0,0.0,0.0,0.0,813.91943,766.77655,841.31866,796.5934,711.978,-0.0115966796875,0.02117919921875,0.989013671875,2.370147705078125,-3.401947021484375,-0.246734619140625,0.0,4.0,4.0,4.0,4.0,85.0,event
13:45:02.020,0.0,0.0,0.0,0.0,0.0,0.0,0.0,0.0,0.0,0.0,0.0,0.0,0.0,0.0,0.0,0.0,0.0,0.0,0.0,0.0,821.5751,827.2161,831.2454,815.5311,784.90845,-0.0115966796875,0.02117919921875,0.989013671875,2.370147705078125,-3.401947021484375,-0.246734619140625,0.0,4.0,4.0,4.0,4.0,85.0,event
13:45:02.021,0.0,0.0,0.0,0.0,0.0,0.0,0.0,0.0,0.0,0.0,0.0,0.0,0.0,0.0,0.0,0.0,0.0,0.0,0.0,0.0,813.91943,828.022,809.4872,811.9048,745.82416,-0.0115966796875,0.02117919921875,0.989013671875,2.370147705078125,-3.401947021484375,-0.246734619140625,0.0,4.0,4.0,4.0,4.0,85.0,event
13:45:02.021,0.0,0.0,0.0,0.0,0.0,0.0,0.0,0.0,0.0,0.0,0.0,0.0,0.0,0.0,0.0,0.0,0.0,0.0,0.0,0.0,794.17584,789.7436,801.4286,792.96704,720.4396,-0.0115966796875,0.02117919921875,0.989013671875,2.370147705078125,-3.401947021484375,-0.246734619140625,0.0,4.0,4.0,4.0,4.0,85.0,event
13:45:02.025,0.0,0.0,0.0,0.0,0.0,0.0,0.0,0.0,0.0,0.0,0.0,0.0,0.0,0.0,0.0,0.0,0.0,0.0,0.0,0.0,792.1612,836.4835,790.9524,785.7143,860.2564,-0.0115966796875,0.02117919921875,0.989013671875,2.370147705078125,-3.401947021484375,-0.246734619140625,0.0,4.0,4.0,4.0,4.0,85.0,event
13:45:02.025,0.0,0.0,0.0,0.0,0.0,0.0,0.0,0.0,0.0,0.0,0.0,0.0,0.0,0.0,0.0,0.0,0.0,0.0,0.0,0.0,818.3516,839.707,730.9158,798.60803,921.50183,-0.0115966796875,0.02117919921875,0.989013671875,2.370147705078125,-3.401947021484375,-0.246734619140625,0.0,4.0,4.0,4.0,4.0,85.0,event
13:45:02.026,0.0,0.0,0.0,0.0,0.0,0.0,0.0,0.0,0.0,0.0,0.0,0.0,0.0,0.0,0.0,0.0,0.0,0.0,0.0,0.0,838.0952,801.02563,740.58606,829.6337,812.3077,-0.0115966796875,0.02117919921875,0.989013671875,2.370147705078125,-3.401947021484375,-0.246734619140625,0.0,4.0,4.0,4.0,4.0,85.0,event
13:45:02.027,0.0,0.0,0.0,0.0,0.0,0.0,0.0,0.0,0.0,0.0,0.0,0.0,0.0,0.0,0.0,0.0,0.0,0.0,0.0,0.0,825.2015,796.5934,837.28937,827.619,712.381,-0.0115966796875,0.02117919921875,0.989013671875,2.370147705078125,-3.401947021484375,-0.246734619140625,0.0,4.0,4.0,4.0,4.0,85.0,event
13:45:02.027,0.0,0.0,0.0,0.0,0.0,0.0,0.0,0.0,0.0,0.0,0.0,0.0,0.0,0.0,0.0,0.0,0.0,0.0,0.0,0.0,794.9817,769.19415,852.6007,792.96704,919.89014,-0.0115966796875,0.02117919921875,0.989013671875,2.370147705078125,-3.401947021484375,-0.246734619140625,0.0,4.0,4.0,4.0,4.0,85.0,event
13:45:02.028,0.0,0.0,0.0,0.0,0.0,0.0,0.0,0.0,0.0,0.0,0.0,0.0,0.0,0.0,0.0,0.0,0.0,0.0,0.0,0.0,808.2784,871.53845,825.2015,796.99634,736.55676,-0.0115966796875,0.02117919921875,0.989013671875,2.370147705078125,-3.401947021484375,-0.246734619140625,0.0,4.0,4.0,4.0,4.0,85.0,event
13:45:02.028,0.0,0.0,0.0,0.0,0.0,0.0,0.0,0.0,0.0,0.0,0.0,0.0,0.0,0.0,0.0,0.0,0.0,0.0,0.0,0.0,790.9524,790.54944,837.28937,786.52014,1044.3956,-0.0115966796875,0.02117919921875,0.989013671875,2.370147705078125,-3.401947021484375,-0.246734619140625,0.0,4.0,4.0,4.0,4.0,85.0,event
13:45:02.029,0.0,0.0,0.0,0.0,0.0,0.0,0.0,0.0,0.0,0.0,0.0,0.0,0.0,0.0,0.0,0.0,0.0,0.0,0.0,0.0,820.7692,867.50916,805.8608,812.71063,754.2857,-0.0115966796875,0.02117919921875,0.989013671875,2.370147705078125,-3.401947021484375,-0.246734619140625,0.0,4.0,4.0,4.0,4.0,85.0,event
13:45:02.071,0.0,0.0,0.0,0.0,0.0,0.0,0.0,0.0,0.0,0.0,0.0,0.0,0.0,0.0,0.0,0.0,0.0,0.0,0.0,0.0,811.9048,837.6923,791.75824,817.9487,843.73627,-0.01434326171875,0.01910400390625,0.98974609375,2.093505859375,-3.282318115234375,0.3887939453125,0.0,4.0,4.0,4.0,4.0,85.0,event
13:45:02.072,0.0,0.0,0.0,0.0,0.0,0.0,0.0,0.0,0.0,0.0,0.0,0.0,0.0,0.0,0.0,0.0,0.0,0.0,0.0,0.0,792.96704,822.381,782.49084,795.38464,767.98535,-0.01434326171875,0.01910400390625,0.98974609375,2.093505859375,-3.282318115234375,0.3887939453125,0.0,4.0,4.0,4.0,4.0,85.0,event
13:45:02.073,0.0,0.0,0.0,0.0,0.0,0.0,0.0,0.0,0.0,0.0,0.0,0.0,0.0,0.0,0.0,0.0,0.0,0.0,0.0,0.0,807.0696,800.6227,767.5824,802.6374,698.2784,-0.01434326171875,0.01910400390625,0.98974609375,2.093505859375,-3.282318115234375,0.3887939453125,0.0,4.0,4.0,4.0,4.0,85.0,event
13:45:02.074,0.0,0.0,0.0,0.0,0.0,0.0,0.0,0.0,0.0,0.0,0.0,0.0,0.0,0.0,0.0,0.0,0.0,0.0,0.0,0.0,840.10986,777.25275,780.4762,829.6337,736.55676,-0.01434326171875,0.01910400390625,0.98974609375,2.093505859375,-3.282318115234375,0.3887939453125,0.0,4.0,4.0,4.0,4.0,85.0,event
13:45:02.076,0.0,0.0,0.0,0.0,0.0,0.0,0.0,0.0,0.0,0.0,0.0,0.0,0.0,0.0,0.0,0.0,0.0,0.0,0.0,0.0,840.9158,834.0659,835.2747,837.6923,805.05493,-0.01434326171875,0.01910400390625,0.98974609375,2.093505859375,-3.282318115234375,0.3887939453125,0.0,4.0,4.0,4.0,4.0,85.0,event
13:45:02.077,0.0,0.0,0.0,0.0,0.0,0.0,0.0,0.0,0.0,0.0,0.0,0.0,0.0,0.0,0.0,0.0,0.0,0.0,0.0,0.0,810.696,896.1172,809.4872,812.71063,899.7436,-0.01434326171875,0.01910400390625,0.98974609375,2.093505859375,-3.282318115234375,0.3887939453125,0.0,4.0,4.0,4.0,4.0,85.0,event
13:45:02.078,0.0,0.0,0.0,0.0,0.0,0.0,0.0,0.0,0.0,0.0,0.0,0.0,0.0,0.0,0.0,0.0,0.0,0.0,0.0,0.0,776.8498,858.6447,792.1612,777.6557,894.5055,-0.01434326171875,0.01910400390625,0.98974609375,2.093505859375,-3.282318115234375,0.3887939453125,0.0,4.0,4.0,4.0,4.0,85.0,event
13:45:02.080,0.0,0.0,0.0,0.0,0.0,0.0,0.0,0.0,0.0,0.0,0.0,0.0,0.0,0.0,0.0,0.0,0.0,0.0,0.0,0.0,813.5165,821.1722,809.4872,804.2491,834.4689,-0.01434326171875,0.01910400390625,0.98974609375,2.093505859375,-3.282318115234375,0.3887939453125,0.0,4.0,4.0,4.0,4.0,85.0,event
13:45:02.081,0.0,0.0,0.0,0.0,0.0,0.0,0.0,0.0,0.0,0.0,0.0,0.0,0.0,0.0,0.0,0.0,0.0,0.0,0.0,0.0,814.7253,814.7253,780.07324,807.0696,1028.6813,-0.01434326171875,0.01910400390625,0.98974609375,2.093505859375,-3.282318115234375,0.3887939453125,0.0,4.0,4.0,4.0,4.0,85.0,event
13:45:02.082,0.0,0.0,0.0,0.0,0.0,0.0,0.0,0.0,0.0,0.0,0.0,0.0,0.0,0.0,0.0,0.0,0.0,0.0,0.0,0.0,773.6264,830.4396,776.04395,770.40295,929.9634,-0.01434326171875,0.01910400390625,0.98974609375,2.093505859375,-3.282318115234375,0.3887939453125,0.0,4.0,4.0,4.0,4.0,85.0,event
13:45:02.083,0.0,0.0,0.0,0.0,0.0,0.0,0.0,0.0,0.0,0.0,0.0,0.0,0.0,0.0,0.0,0.0,0.0,0.0,0.0,0.0,789.7436,828.4249,769.59705,793.7729,691.02563,-0.01434326171875,0.01910400390625,0.98974609375,2.093505859375,-3.282318115234375,0.3887939453125,0.0,4.0,4.0,4.0,4.0,85.0,event
13:45:02.084,0.0,0.0,0.0,0.0,0.0,0.0,0.0,0.0,0.0,0.0,0.0,0.0,0.0,0.0,0.0,0.0,0.0,0.0,0.0,0.0,795.78754,769.19415,801.8315,809.0842,713.5897,-0.01434326171875,0.01910400390625,0.98974609375,2.093505859375,-3.282318115234375,0.3887939453125,0.0,4.0,4.0,4.0,4.0,85.0,event
13:45:02.118,0.0,0.0,0.0,0.0,0.0,0.0,0.0,0.0,0.0,0.0,0.0,0.0,0.0,0.0,0.0,0.0,0.0,0.0,0.0,0.0,784.10254,767.98535,843.3333,788.93774,734.5421,-0.01397705078125,0.0189208984375,0.9833984375,2.1234130859375,-4.127197265625,0.635528564453125,0.0,4.0,4.0,4.0,4.0,85.0,event
13:45:02.119,0.0,0.0,0.0,0.0,0.0,0.0,0.0,0.0,0.0,0.0,0.0,0.0,0.0,0.0,0.0,0.0,0.0,0.0,0.0,0.0,806.6667,828.8278,840.9158,802.23444,677.326,-0.01397705078125,0.0189208984375,0.9833984375,2.1234130859375,-4.127197265625,0.635528564453125,0.0,4.0,4.0,4.0,4.0,85.0,event
13:45:02.120,0.0,0.0,0.0,0.0,0.0,0.0,0.0,0.0,0.0,0.0,0.0,0.0,0.0,0.0,0.0,0.0,0.0,0.0,0.0,0.0,832.4542,838.0952,850.58606,833.2601,689.41394,-0.01397705078125,0.0189208984375,0.9833984375,2.1234130859375,-4.127197265625,0.635528564453125,0.0,4.0,4.0,4.0,4.0,85.0,event
13:45:02.121,0.0,0.0,0.0,0.0,0.0,0.0,0.0,0.0,0.0,0.0,0.0,0.0,0.0,0.0,0.0,0.0,0.0,0.0,0.0,0.0,810.293,822.381,815.9341,816.337,808.68134,-0.01397705078125,0.0189208984375,0.9833984375,2.1234130859375,-4.127197265625,0.635528564453125,0.0,4.0,4.0,4.0,4.0,85.0,event
13:45:02.121,0.0,0.0,0.0,0.0,0.0,0.0,0.0,0.0,0.0,0.0,0.0,0.0,0.0,0.0,0.0,0.0,0.0,0.0,0.0,0.0,808.2784,823.1868,790.54944,808.2784,825.6044,-0.01397705078125,0.0189208984375,0.9833984375,2.1234130859375,-4.127197265625,0.635528564453125,0.0,4.0,4.0,4.0,4.0,85.0,event
13:45:02.122,0.0,0.0,0.0,0.0,0.0,0.0,0.0,0.0,0.0,0.0,0.0,0.0,0.0,0.0,0.0,0.0,0.0,0.0,0.0,0.0,819.9634,814.3223,771.2088,803.44324,767.98535,-0.01397705078125,0.0189208984375,0.9833984375,2.1234130859375,-4.127197265625,0.635528564453125,0.0,4.0,4.0,4.0,4.0,85.0,event
13:45:02.125,0.0,0.0,0.0,0.0,0.0,0.0,0.0,0.0,0.0,0.0,0.0,0.0,0.0,0.0,0.0,0.0,0.0,0.0,0.0,0.0,798.20514,778.86444,716.4103,780.4762,808.2784,-0.01397705078125,0.0189208984375,0.9833984375,2.1234130859375,-4.127197265625,0.635528564453125,0.0,4.0,4.0,4.0,4.0,85.0,event
13:45:02.126,0.0,0.0,0.0,0.0,0.0,0.0,0.0,0.0,0.0,0.0,0.0,0.0,0.0,0.0,0.0,0.0,0.0,0.0,0.0,0.0,788.93774,730.10986,748.6447,782.49084,1042.381,-0.01397705078125,0.0189208984375,0.9833984375,2.1234130859375,-4.127197265625,0.635528564453125,0.0,4.0,4.0,4.0,4.0,85.0,event
13:45:02.127,0.0,0.0,0.0,0.0,0.0,0.0,0.0,0.0,0.0,0.0,0.0,0.0,0.0,0.0,0.0,0.0,0.0,0.0,0.0,0.0,804.2491,762.3443,856.2271,805.05493,1035.1282,-0.01397705078125,0.0189208984375,0.9833984375,2.1234130859375,-4.127197265625,0.635528564453125,0.0,4.0,4.0,4.0,4.0,85.0,event
13:45:02.127,0.0,0.0,0.0,0.0,0.0,0.0,0.0,0.0,0.0,0.0,0.0,0.0,0.0,0.0,0.0,0.0,0.0,0.0,0.0,0.0,819.5604,827.619,857.03296,816.7399,713.9927,-0.01397705078125,0.0189208984375,0.9833984375,2.1234130859375,-4.127197265625,0.635528564453125,0.0,4.0,4.0,4.0,4.0,85.0,event
13:45:02.128,0.0,0.0,0.0,0.0,0.0,0.0,0.0,0.0,0.0,0.0,0.0,0.0,0.0,0.0,0.0,0.0,0.0,0.0,0.0,0.0,822.381,859.0476,798.20514,817.5458,714.3956,-0.01397705078125,0.0189208984375,0.9833984375,2.1234130859375,-4.127197265625,0.635528564453125,0.0,4.0,4.0,4.0,4.0,85.0,event
13:45:02.129,0.0,0.0,0.0,0.0,0.0,0.0,0.0,0.0,0.0,0.0,0.0,0.0,0.0,0.0,0.0,0.0,0.0,0.0,0.0,0.0,806.26373,842.1245,785.7143,800.2198,797.8022,-0.01397705078125,0.0189208984375,0.9833984375,2.1234130859375,-4.127197265625,0.635528564453125,0.0,4.0,4.0,4.0,4.0,85.0,event
13:45:02.174,0.0,0.0,0.0,0.0,0.0,0.0,0.0,0.0,0.0,0.0,0.0,0.0,0.0,0.0,0.0,0.0,0.0,0.0,0.0,0.0,797.3993,815.12823,786.9231,785.31134,679.34064,-0.011474609375,0.02337646484375,0.9906005859375,2.37762451171875,-4.269256591796875,0.814971923828125,0.0,4.0,4.0,4.0,4.0,85.0,event
13:45:02.175,0.0,0.0,0.0,0.0,0.0,0.0,0.0,0.0,0.0,0.0,0.0,0.0,0.0,0.0,0.0,0.0,0.0,0.0,0.0,0.0,817.5458,807.0696,793.36993,805.8608,628.5714,-0.011474609375,0.02337646484375,0.9906005859375,2.37762451171875,-4.269256591796875,0.814971923828125,0.0,4.0,4.0,4.0,4.0,85.0,event
13:45:02.176,0.0,0.0,0.0,0.0,0.0,0.0,0.0,0.0,0.0,0.0,0.0,0.0,0.0,0.0,0.0,0.0,0.0,0.0,0.0,0.0,832.8571,782.0879,788.1319,831.2454,725.6777,-0.011474609375,0.02337646484375,0.9906005859375,2.37762451171875,-4.269256591796875,0.814971923828125,0.0,4.0,4.0,4.0,4.0,85.0,event
13:45:02.177,0.0,0.0,0.0,0.0,0.0,0.0,0.0,0.0,0.0,0.0,0.0,0.0,0.0,0.0,0.0,0.0,0.0,0.0,0.0,0.0,822.7839,806.6667,786.1172,811.50183,730.5128,-0.011474609375,0.02337646484375,0.9906005859375,2.37762451171875,-4.269256591796875,0.814971923828125,0.0,4.0,4.0,4.0,4.0,85.0,event
13:45:02.179,0.0,0.0,0.0,0.0,0.0,0.0,0.0,0.0,0.0,0.0,0.0,0.0,0.0,0.0,0.0,0.0,0.0,0.0,0.0,0.0,792.5641,816.337,834.0659,768.7912,633.00366,-0.011474609375,0.02337646484375,0.9906005859375,2.37762451171875,-4.269256591796875,0.814971923828125,0.0,4.0,4.0,4.0,4.0,85.0,event
13:45:02.180,0.0,0.0,0.0,0.0,0.0,0.0,0.0,0.0,0.0,0.0,0.0,0.0,0.0,0.0,0.0,0.0,0.0,0.0,0.0,0.0,777.6557,788.93774,842.52747,759.92676,680.14655,-0.011474609375,0.02337646484375,0.9906005859375,2.37762451171875,-4.269256591796875,0.814971923828125,0.0,4.0,4.0,4.0,4.0,85.0,event
13:45:02.181,0.0,0.0,0.0,0.0,0.0,0.0,0.0,0.0,0.0,0.0,0.0,0.0,0.0,0.0,0.0,0.0,0.0,0.0,0.0,0.0,784.90845,779.2674,789.7436,782.0879,881.2088,-0.011474609375,0.02337646484375,0.9906005859375,2.37762451171875,-4.269256591796875,0.814971923828125,0.0,4.0,4.0,4.0,4.0,85.0,event
13:45:02.182,0.0,0.0,0.0,0.0,0.0,0.0,0.0,0.0,0.0,0.0,0.0,0.0,0.0,0.0,0.0,0.0,0.0,0.0,0.0,0.0,791.3553,798.60803,794.17584,805.8608,981.9414,-0.011474609375,0.02337646484375,0.9906005859375,2.37762451171875,-4.269256591796875,0.814971923828125,0.0,4.0,4.0,4.0,4.0,85.0,event
13:45:02.184,0.0,0.0,0.0,0.0,0.0,0.0,0.0,0.0,0.0,0.0,0.0,0.0,0.0,0.0,0.0,0.0,0.0,0.0,0.0,0.0,793.36993,791.75824,815.5311,786.52014,779.2674,-0.011474609375,0.02337646484375,0.9906005859375,2.37762451171875,-4.269256591796875,0.814971923828125,0.0,4.0,4.0,4.0,4.0,85.0,event
13:45:02.185,0.0,0.0,0.0,0.0,0.0,0.0,0.0,0.0,0.0,0.0,0.0,0.0,0.0,0.0,0.0,0.0,0.0,0.0,0.0,0.0,807.8755,751.8681,807.8755,779.67035,720.0366,-0.011474609375,0.02337646484375,0.9906005859375,2.37762451171875,-4.269256591796875,0.814971923828125,0.0,4.0,4.0,4.0,4.0,85.0,event
13:45:02.186,0.0,0.0,0.0,0.0,0.0,0.0,0.0,0.0,0.0,0.0,0.0,0.0,0.0,0.0,0.0,0.0,0.0,0.0,0.0,0.0,839.707,828.8278,789.34064,820.3663,815.12823,-0.011474609375,0.02337646484375,0.9906005859375,2.37762451171875,-4.269256591796875,0.814971923828125,0.0,4.0,4.0,4.0,4.0,85.0,event
13:45:02.187,0.0,0.0,0.0,0.0,0.0,0.0,0.0,0.0,0.0,0.0,0.0,0.0,0.0,0.0,0.0,0.0,0.0,0.0,0.0,0.0,848.97437,888.86444,812.3077,836.4835,815.12823,-0.011474609375,0.02337646484375,0.9906005859375,2.37762451171875,-4.269256591796875,0.814971923828125,0.0,4.0,4.0,4.0,4.0,85.0,event
13:45:02.219,0.0,0.0,0.0,0.0,0.0,0.0,0.0,0.0,0.0,0.0,0.0,0.0,0.0,0.0,0.0,0.0,0.0,0.0,0.0,0.0,804.2491,857.03296,844.1392,807.0696,765.9707,-0.01153564453125,0.0185546875,0.98675537109375,2.130889892578125,-3.6785888671875,0.142059326171875,0.0,4.0,4.0,4.0,4.0,85.0,event
13:45:02.220,0.0,0.0,0.0,0.0,0.0,0.0,0.0,0.0,0.0,0.0,0.0,0.0,0.0,0.0,0.0,0.0,0.0,0.0,0.0,0.0,782.0879,830.4396,827.619,790.54944,747.4359,-0.01153564453125,0.0185546875,0.98675537109375,2.130889892578125,-3.6785888671875,0.142059326171875,0.0,4.0,4.0,4.0,4.0,85.0,event
13:45:02.221,0.0,0.0,0.0,0.0,0.0,0.0,0.0,0.0,0.0,0.0,0.0,0.0,0.0,0.0,0.0,0.0,0.0,0.0,0.0,0.0,781.28204,799.41394,805.05493,773.6264,811.50183,-0.01153564453125,0.0185546875,0.98675537109375,2.130889892578125,-3.6785888671875,0.142059326171875,0.0,4.0,4.0,4.0,4.0,85.0,event
13:45:02.222,0.0,0.0,0.0,0.0,0.0,0.0,0.0,0.0,0.0,0.0,0.0,0.0,0.0,0.0,0.0,0.0,0.0,0.0,0.0,0.0,776.8498,753.8828,804.65204,768.3883,805.05493,-0.01153564453125,0.0185546875,0.98675537109375,2.130889892578125,-3.6785888671875,0.142059326171875,0.0,4.0,4.0,4.0,4.0,85.0,event
13:45:02.223,0.0,0.0,0.0,0.0,0.0,0.0,0.0,0.0,0.0,0.0,0.0,0.0,0.0,0.0,0.0,0.0,0.0,0.0,0.0,0.0,807.47253,747.4359,824.7985,810.293,812.71063,-0.01153564453125,0.0185546875,0.98675537109375,2.130889892578125,-3.6785888671875,0.142059326171875,0.0,4.0,4.0,4.0,4.0,85.0,event
13:45:02.224,0.0,0.0,0.0,0.0,0.0,0.0,0.0,0.0,0.0,0.0,0.0,0.0,0.0,0.0,0.0,0.0,0.0,0.0,0.0,0.0,833.663,794.17584,784.5055,833.663,888.86444,-0.01153564453125,0.0185546875,0.98675537109375,2.130889892578125,-3.6785888671875,0.142059326171875,0.0,4.0,4.0,4.0,4.0,85.0,event
13:45:02.224,0.0,0.0,0.0,0.0,0.0,0.0,0.0,0.0,0.0,0.0,0.0,0.0,0.0,0.0,0.0,0.0,0.0,0.0,0.0,0.0,818.7546,846.1539,740.18317,818.3516,1068.5714,-0.01153564453125,0.0185546875,0.98675537109375,2.130889892578125,-3.6785888671875,0.142059326171875,0.0,4.0,4.0,4.0,4.0,85.0,event
13:45:02.225,0.0,0.0,0.0,0.0,0.0,0.0,0.0,0.0,0.0,0.0,0.0,0.0,0.0,0.0,0.0,0.0,0.0,0.0,0.0,0.0,807.47253,870.7326,805.8608,794.57874,998.0586,-0.01153564453125,0.0185546875,0.98675537109375,2.130889892578125,-3.6785888671875,0.142059326171875,0.0,4.0,4.0,4.0,4.0,85.0,event
13:45:02.228,0.0,0.0,0.0,0.0,0.0,0.0,0.0,0.0,0.0,0.0,0.0,0.0,0.0,0.0,0.0,0.0,0.0,0.0,0.0,0.0,780.87915,822.7839,849.3773,757.50916,683.7729,-0.01153564453125,0.0185546875,0.98675537109375,2.130889892578125,-3.6785888671875,0.142059326171875,0.0,4.0,4.0,4.0,4.0,85.0,event
13:45:02.229,0.0,0.0,0.0,0.0,0.0,0.0,0.0,0.0,0.0,0.0,0.0,0.0,0.0,0.0,0.0,0.0,0.0,0.0,0.0,0.0,786.52014,782.49084,835.6777,777.25275,703.1135,-0.01153564453125,0.0185546875,0.98675537109375,2.130889892578125,-3.6785888671875,0.142059326171875,0.0,4.0,4.0,4.0,4.0,85.0,event
13:45:02.230,0.0,0.0,0.0,0.0,0.0,0.0,0.0,0.0,0.0,0.0,0.0,0.0,0.0,0.0,0.0,0.0,0.0,0.0,0.0,0.0,817.5458,775.2381,835.2747,808.68134,778.0586,-0.01153564453125,0.0185546875,0.98675537109375,2.130889892578125,-3.6785888671875,0.142059326171875,0.0,4.0,4.0,4.0,4.0,85.0,event
13:45:02.230,0.0,0.0,0.0,0.0,0.0,0.0,0.0,0.0,0.0,0.0,0.0,0.0,0.0,0.0,0.0,0.0,0.0,0.0,0.0,0.0,825.2015,722.4542,833.2601,810.293,757.9121,-0.01153564453125,0.0185546875,0.98675537109375,2.130889892578125,-3.6785888671875,0.142059326171875,0.0,4.0,4.0,4.0,4.0,85.0,event
13:45:02.270,0.0,0.0,0.0,0.0,0.0,0.0,0.0,0.0,0.0,0.0,0.0,0.0,0.0,0.0,0.0,0.0,0.0,0.0,0.0,0.0,812.3077,759.12085,796.1905,804.2491,734.94507,-0.01153564453125,0.0185546875,0.98675537109375,2.130889892578125,-3.6785888671875,0.142059326171875,0.0,4.0,4.0,4.0,4.0,85.0,event
13:45:02.271,0.0,0.0,0.0,0.0,0.0,0.0,0.0,0.0,0.0,0.0,0.0,0.0,0.0,0.0,0.0,0.0,0.0,0.0,0.0,0.0,806.6667,863.8828,800.6227,790.14655,763.95605,-0.01153564453125,0.0185546875,0.98675537109375,2.130889892578125,-3.6785888671875,0.142059326171875,0.0,4.0,4.0,4.0,4.0,85.0,event
13:45:02.271,0.0,0.0,0.0,0.0,0.0,0.0,0.0,0.0,0.0,0.0,0.0,0.0,0.0,0.0,0.0,0.0,0.0,0.0,0.0,0.0,832.4542,881.6117,810.293,813.5165,822.7839,-0.01153564453125,0.0185546875,0.98675537109375,2.130889892578125,-3.6785888671875,0.142059326171875,0.0,4.0,4.0,4.0,4.0,85.0,event
13:45:02.272,0.0,0.0,0.0,0.0,0.0,0.0,0.0,0.0,0.0,0.0,0.0,0.0,0.0,0.0,0.0,0.0,0.0,0.0,0.0,0.0,853.4066,871.13556,798.60803,836.4835,815.9341,-0.01153564453125,0.0185546875,0.98675537109375,2.130889892578125,-3.6785888671875,0.142059326171875,0.0,4.0,4.0,4.0,4.0,85.0,event
13:45:02.273,0.0,0.0,0.0,0.0,0.0,0.0,0.0,0.0,0.0,0.0,0.0,0.0,0.0,0.0,0.0,0.0,0.0,0.0,0.0,0.0,814.7253,819.15753,796.1905,805.4579,801.02563,-0.01153564453125,0.0185546875,0.98675537109375,2.130889892578125,-3.6785888671875,0.142059326171875,0.0,4.0,4.0,4.0,4.0,85.0,event
13:45:02.273,0.0,0.0,0.0,0.0,0.0,0.0,0.0,0.0,0.0,0.0,0.0,0.0,0.0,0.0,0.0,0.0,0.0,0.0,0.0,0.0,782.49084,772.01465,805.05493,782.0879,849.3773,-0.01153564453125,0.0185546875,0.98675537109375,2.130889892578125,-3.6785888671875,0.142059326171875,0.0,4.0,4.0,4.0,4.0,85.0,event
13:45:02.274,0.0,0.0,0.0,0.0,0.0,0.0,0.0,0.0,0.0,0.0,0.0,0.0,0.0,0.0,0.0,0.0,0.0,0.0,0.0,0.0,814.7253,761.9414,836.08057,803.8461,1139.4872,-0.01153564453125,0.0185546875,0.98675537109375,2.130889892578125,-3.6785888671875,0.142059326171875,0.0,4.0,4.0,4.0,4.0,85.0,event
13:45:02.275,0.0,0.0,0.0,0.0,0.0,0.0,0.0,0.0,0.0,0.0,0.0,0.0,0.0,0.0,0.0,0.0,0.0,0.0,0.0,0.0,818.3516,799.011,797.8022,815.5311,1066.5568,-0.01153564453125,0.0185546875,0.98675537109375,2.130889892578125,-3.6785888671875,0.142059326171875,0.0,4.0,4.0,4.0,4.0,85.0,event
13:45:02.276,0.0,0.0,0.0,0.0,0.0,0.0,0.0,0.0,0.0,0.0,0.0,0.0,0.0,0.0,0.0,0.0,0.0,0.0,0.0,0.0,797.3993,818.3516,783.2967,807.8755,736.1539,-0.01153564453125,0.0185546875,0.98675537109375,2.130889892578125,-3.6785888671875,0.142059326171875,0.0,4.0,4.0,4.0,4.0,85.0,event
13:45:02.277,0.0,0.0,0.0,0.0,0.0,0.0,0.0,0.0,0.0,0.0,0.0,0.0,0.0,0.0,0.0,0.0,0.0,0.0,0.0,0.0,800.2198,763.5531,800.6227,807.47253,785.31134,-0.01153564453125,0.0185546875,0.98675537109375,2.130889892578125,-3.6785888671875,0.142059326171875,0.0,4.0,4.0,4.0,4.0,85.0,event
13:45:02.277,0.0,0.0,0.0,0.0,0.0,0.0,0.0,0.0,0.0,0.0,0.0,0.0,0.0,0.0,0.0,0.0,0.0,0.0,0.0,0.0,783.2967,772.01465,770.80585,778.46155,738.5714,-0.01153564453125,0.0185546875,0.98675537109375,2.130889892578125,-3.6785888671875,0.142059326171875,0.0,4.0,4.0,4.0,4.0,85.0,event
13:45:02.278,0.0,0.0,0.0,0.0,0.0,0.0,0.0,0.0,0.0,0.0,0.0,0.0,0.0,0.0,0.0,0.0,0.0,0.0,0.0,0.0,806.6667,837.28937,804.2491,789.7436,633.00366,-0.01153564453125,0.0185546875,0.98675537109375,2.130889892578125,-3.6785888671875,0.142059326171875,0.0,4.0,4.0,4.0,4.0,85.0,event
13:45:02.319,0.0,0.0,0.0,0.0,0.0,0.0,0.0,0.0,0.0,0.0,0.0,0.0,0.0,0.0,0.0,0.0,0.0,0.0,0.0,0.0,848.97437,830.4396,857.03296,835.2747,705.5311,-0.00909423828125,0.01763916015625,0.98834228515625,1.951446533203125,-3.63372802734375,0.261688232421875,0.0,4.0,4.0,4.0,4.0,85.0,event
13:45:02.320,0.0,0.0,0.0,0.0,0.0,0.0,0.0,0.0,0.0,0.0,0.0,0.0,0.0,0.0,0.0,0.0,0.0,0.0,0.0,0.0,813.5165,801.02563,838.0952,807.8755,816.337,-0.00909423828125,0.01763916015625,0.98834228515625,1.951446533203125,-3.63372802734375,0.261688232421875,0.0,4.0,4.0,4.0,4.0,85.0,event
13:45:02.322,0.0,0.0,0.0,0.0,0.0,0.0,0.0,0.0,0.0,0.0,0.0,0.0,0.0,0.0,0.0,0.0,0.0,0.0,0.0,0.0,770.80585,783.2967,826.8132,772.01465,771.6117,-0.00909423828125,0.01763916015625,0.98834228515625,1.951446533203125,-3.63372802734375,0.261688232421875,0.0,4.0,4.0,4.0,4.0,85.0,event
13:45:02.323,0.0,0.0,0.0,0.0,0.0,0.0,0.0,0.0,0.0,0.0,0.0,0.0,0.0,0.0,0.0,0.0,0.0,0.0,0.0,0.0,767.5824,808.68134,815.5311,769.59705,660.40295,-0.00909423828125,0.01763916015625,0.98834228515625,1.951446533203125,-3.63372802734375,0.261688232421875,0.0,4.0,4.0,4.0,4.0,85.0,event
13:45:02.324,0.0,0.0,0.0,0.0,0.0,0.0,0.0,0.0,0.0,0.0,0.0,0.0,0.0,0.0,0.0,0.0,0.0,0.0,0.0,0.0,783.69965,828.8278,802.23444,772.8205,678.5348,-0.00909423828125,0.01763916015625,0.98834228515625,1.951446533203125,-3.63372802734375,0.261688232421875,0.0,4.0,4.0,4.0,4.0,85.0,event
13:45:02.325,0.0,0.0,0.0,0.0,0.0,0.0,0.0,0.0,0.0,0.0,0.0,0.0,0.0,0.0,0.0,0.0,0.0,0.0,0.0,0.0,791.75824,806.6667,787.326,786.1172,879.19415,-0.00909423828125,0.01763916015625,0.98834228515625,1.951446533203125,-3.63372802734375,0.261688232421875,0.0,4.0,4.0,4.0,4.0,85.0,event
13:45:02.326,0.0,0.0,0.0,0.0,0.0,0.0,0.0,0.0,0.0,0.0,0.0,0.0,0.0,0.0,0.0,0.0,0.0,0.0,0.0,0.0,794.57874,799.81683,777.6557,805.8608,948.9011,-0.00909423828125,0.01763916015625,0.98834228515625,1.951446533203125,-3.63372802734375,0.261688232421875,0.0,4.0,4.0,4.0,4.0,85.0,event
13:45:02.326,0.0,0.0,0.0,0.0,0.0,0.0,0.0,0.0,0.0,0.0,0.0,0.0,0.0,0.0,0.0,0.0,0.0,0.0,0.0,0.0,799.41394,799.81683,784.10254,805.05493,908.60803,-0.00909423828125,0.01763916015625,0.98834228515625,1.951446533203125,-3.63372802734375,0.261688232421875,0.0,4.0,4.0,4.0,4.0,85.0,event
13:45:02.327,0.0,0.0,0.0,0.0,0.0,0.0,0.0,0.0,0.0,0.0,0.0,0.0,0.0,0.0,0.0,0.0,0.0,0.0,0.0,0.0,807.8755,808.2784,786.1172,807.47253,845.34796,-0.00909423828125,0.01763916015625,0.98834228515625,1.951446533203125,-3.63372802734375,0.261688232421875,0.0,4.0,4.0,4.0,4.0,85.0,event
13:45:02.327,0.0,0.0,0.0,0.0,0.0,0.0,0.0,0.0,0.0,0.0,0.0,0.0,0.0,0.0,0.0,0.0,0.0,0.0,0.0,0.0,817.9487,809.89014,815.5311,820.7692,962.6007,-0.00909423828125,0.01763916015625,0.98834228515625,1.951446533203125,-3.63372802734375,0.261688232421875,0.0,4.0,4.0,4.0,4.0,85.0,event
13:45:02.330,0.0,0.0,0.0,0.0,0.0,0.0,0.0,0.0,0.0,0.0,0.0,0.0,0.0,0.0,0.0,0.0,0.0,0.0,0.0,0.0,845.34796,856.63007,824.3956,838.9011,1054.4689,-0.00909423828125,0.01763916015625,0.98834228515625,1.951446533203125,-3.63372802734375,0.261688232421875,0.0,4.0,4.0,4.0,4.0,85.0,event
13:45:02.331,0.0,0.0,0.0,0.0,0.0,0.0,0.0,0.0,0.0,0.0,0.0,0.0,0.0,0.0,0.0,0.0,0.0,0.0,0.0,0.0,850.989,867.1062,799.011,841.31866,770.40295,-0.00909423828125,0.01763916015625,0.98834228515625,1.951446533203125,-3.63372802734375,0.261688232421875,0.0,4.0,4.0,4.0,4.0,85.0,event
13:45:02.374,0.0,0.0,0.0,0.0,0.0,0.0,0.0,0.0,0.0,0.0,0.0,0.0,0.0,0.0,0.0,0.0,0.0,0.0,0.0,0.0,823.9927,828.022,813.5165,831.2454,724.0659,-0.00927734375,0.0205078125,0.98876953125,1.951446533203125,-3.6187744140625,0.67291259765625,0.0,4.0,4.0,4.0,4.0,85.0,event
13:45:02.375,0.0,0.0,0.0,0.0,0.0,0.0,0.0,0.0,0.0,0.0,0.0,0.0,0.0,0.0,0.0,0.0,0.0,0.0,0.0,0.0,788.93774,803.44324,819.15753,801.4286,754.2857,-0.00927734375,0.0205078125,0.98876953125,1.951446533203125,-3.6187744140625,0.67291259765625,0.0,4.0,4.0,4.0,4.0,85.0,event
13:45:02.376,0.0,0.0,0.0,0.0,0.0,0.0,0.0,0.0,0.0,0.0,0.0,0.0,0.0,0.0,0.0,0.0,0.0,0.0,0.0,0.0,761.13556,778.86444,824.7985,763.1502,651.9414,-0.00927734375,0.0205078125,0.98876953125,1.951446533203125,-3.6187744140625,0.67291259765625,0.0,4.0,4.0,4.0,4.0,85.0,event
13:45:02.377,0.0,0.0,0.0,0.0,0.0,0.0,0.0,0.0,0.0,0.0,0.0,0.0,0.0,0.0,0.0,0.0,0.0,0.0,0.0,0.0,770.40295,765.16486,826.8132,774.0293,653.5531,-0.00927734375,0.0205078125,0.98876953125,1.951446533203125,-3.6187744140625,0.67291259765625,0.0,4.0,4.0,4.0,4.0,85.0,event
13:45:02.379,0.0,0.0,0.0,0.0,0.0,0.0,0.0,0.0,0.0,0.0,0.0,0.0,0.0,0.0,0.0,0.0,0.0,0.0,0.0,0.0,788.1319,767.1795,777.6557,801.8315,778.86444,-0.00927734375,0.0205078125,0.98876953125,1.951446533203125,-3.6187744140625,0.67291259765625,0.0,4.0,4.0,4.0,4.0,85.0,event
13:45:02.380,0.0,0.0,0.0,0.0,0.0,0.0,0.0,0.0,0.0,0.0,0.0,0.0,0.0,0.0,0.0,0.0,0.0,0.0,0.0,0.0,785.7143,784.90845,763.5531,796.5934,872.74725,-0.00927734375,0.0205078125,0.98876953125,1.951446533203125,-3.6187744140625,0.67291259765625,0.0,4.0,4.0,4.0,4.0,85.0,event
13:45:02.381,0.0,0.0,0.0,0.0,0.0,0.0,0.0,0.0,0.0,0.0,0.0,0.0,0.0,0.0,0.0,0.0,0.0,0.0,0.0,0.0,784.10254,791.3553,812.3077,792.96704,843.73627,-0.00927734375,0.0205078125,0.98876953125,1.951446533203125,-3.6187744140625,0.67291259765625,0.0,4.0,4.0,4.0,4.0,85.0,event
13:45:02.382,0.0,0.0,0.0,0.0,0.0,0.0,0.0,0.0,0.0,0.0,0.0,0.0,0.0,0.0,0.0,0.0,0.0,0.0,0.0,0.0,786.1172,793.7729,819.15753,788.5348,735.34796,-0.00927734375,0.0205078125,0.98876953125,1.951446533203125,-3.6187744140625,0.67291259765625,0.0,4.0,4.0,4.0,4.0,85.0,event
13:45:02.383,0.0,0.0,0.0,0.0,0.0,0.0,0.0,0.0,0.0,0.0,0.0,0.0,0.0,0.0,0.0,0.0,0.0,0.0,0.0,0.0,794.9817,767.98535,786.1172,796.99634,788.5348,-0.00927734375,0.0205078125,0.98876953125,1.951446533203125,-3.6187744140625,0.67291259765625,0.0,4.0,4.0,4.0,4.0,85.0,event
13:45:02.385,0.0,0.0,0.0,0.0,0.0,0.0,0.0,0.0,0.0,0.0,0.0,0.0,0.0,0.0,0.0,0.0,0.0,0.0,0.0,0.0,825.2015,796.1905,805.4579,834.0659,982.74725,-0.00927734375,0.0205078125,0.98876953125,1.951446533203125,-3.6187744140625,0.67291259765625,0.0,4.0,4.0,4.0,4.0,85.0,event
13:45:02.386,0.0,0.0,0.0,0.0,0.0,0.0,0.0,0.0,0.0,0.0,0.0,0.0,0.0,0.0,0.0,0.0,0.0,0.0,0.0,0.0,821.5751,803.8461,817.1429,826.8132,892.49084,-0.00927734375,0.0205078125,0.98876953125,1.951446533203125,-3.6187744140625,0.67291259765625,0.0,4.0,4.0,4.0,4.0,85.0,event
13:45:02.387,0.0,0.0,0.0,0.0,0.0,0.0,0.0,0.0,0.0,0.0,0.0,0.0,0.0,0.0,0.0,0.0,0.0,0.0,0.0,0.0,798.20514,770.0,797.8022,809.4872,724.0659,-0.00927734375,0.0205078125,0.98876953125,1.951446533203125,-3.6187744140625,0.67291259765625,0.0,4.0,4.0,4.0,4.0,85.0,event
13:45:02.418,0.0,0.0,0.0,0.0,0.0,0.0,0.0,0.0,0.0,0.0,0.0,0.0,0.0,0.0,0.0,0.0,0.0,0.0,0.0,0.0,779.67035,799.81683,799.41394,786.9231,753.8828,-0.01214599609375,0.0203857421875,0.98504638671875,1.973876953125,-3.1402587890625,-0.059814453125,0.0,4.0,4.0,4.0,4.0,85.0,event
13:45:02.419,0.0,0.0,0.0,0.0,0.0,0.0,0.0,0.0,0.0,0.0,0.0,0.0,0.0,0.0,0.0,0.0,0.0,0.0,0.0,0.0,766.77655,815.12823,792.1612,767.1795,778.86444,-0.01214599609375,0.0203857421875,0.98504638671875,1.973876953125,-3.1402587890625,-0.059814453125,0.0,4.0,4.0,4.0,4.0,85.0,event
13:45:02.420,0.0,0.0,0.0,0.0,0.0,0.0,0.0,0.0,0.0,0.0,0.0,0.0,0.0,0.0,0.0,0.0,0.0,0.0,0.0,0.0,792.5641,814.7253,802.23444,792.1612,701.50183,-0.01214599609375,0.0203857421875,0.98504638671875,1.973876953125,-3.1402587890625,-0.059814453125,0.0,4.0,4.0,4.0,4.0,85.0,event
13:45:02.421,0.0,0.0,0.0,0.0,0.0,0.0,0.0,0.0,0.0,0.0,0.0,0.0,0.0,0.0,0.0,0.0,0.0,0.0,0.0,0.0,791.75824,786.1172,789.7436,800.2198,773.6264,-0.01214599609375,0.0203857421875,0.98504638671875,1.973876953125,-3.1402587890625,-0.059814453125,0.0,4.0,4.0,4.0,4.0,85.0,event
13:45:02.421,0.0,0.0,0.0,0.0,0.0,0.0,0.0,0.0,0.0,0.0,0.0,0.0,0.0,0.0,0.0,0.0,0.0,0.0,0.0,0.0,807.0696,773.22345,842.9304,812.3077,750.2564,-0.01214599609375,0.0203857421875,0.98504638671875,1.973876953125,-3.1402587890625,-0.059814453125,0.0,4.0,4.0,4.0,4.0,85.0,event
13:45:02.422,0.0,0.0,0.0,0.0,0.0,0.0,0.0,0.0,0.0,0.0,0.0,0.0,0.0,0.0,0.0,0.0,0.0,0.0,0.0,0.0,785.7143,796.5934,768.3883,789.34064,829.6337,-0.01214599609375,0.0203857421875,0.98504638671875,1.973876953125,-3.1402587890625,-0.059814453125,0.0,4.0,4.0,4.0,4.0,85.0,event
13:45:02.423,0.0,0.0,0.0,0.0,0.0,0.0,0.0,0.0,0.0,0.0,0.0,0.0,0.0,0.0,0.0,0.0,0.0,0.0,0.0,0.0,795.78754,778.0586,833.2601,796.99634,870.32965,-0.01214599609375,0.0203857421875,0.98504638671875,1.973876953125,-3.1402587890625,-0.059814453125,0.0,4.0,4.0,4.0,4.0,85.0,event
13:45:02.423,0.0,0.0,0.0,0.0,0.0,0.0,0.0,0.0,0.0,0.0,0.0,0.0,0.0,0.0,0.0,0.0,0.0,0.0,0.0,0.0,823.9927,822.381,839.304,823.5897,770.0,-0.01214599609375,0.0203857421875,0.98504638671875,1.973876953125,-3.1402587890625,-0.059814453125,0.0,4.0,4.0,4.0,4.0,85.0,event
13:45:02.424,0.0,0.0,0.0,0.0,0.0,0.0,0.0,0.0,0.0,0.0,0.0,0.0,0.0,0.0,0.0,0.0,0.0,0.0,0.0,0.0,832.0513,844.1392,810.293,849.7802,918.68134,-0.01214599609375,0.0203857421875,0.98504638671875,1.973876953125,-3.1402587890625,-0.059814453125,0.0,4.0,4.0,4.0,4.0,85.0,event
13:45:02.425,0.0,0.0,0.0,0.0,0.0,0.0,0.0,0.0,0.0,0.0,0.0,0.0,0.0,0.0,0.0,0.0,0.0,0.0,0.0,0.0,804.65204,845.7509,770.80585,832.0513,960.58606,-0.01214599609375,0.0203857421875,0.98504638671875,1.973876953125,-3.1402587890625,-0.059814453125,0.0,4.0,4.0,4.0,4.0,85.0,event
13:45:02.425,0.0,0.0,0.0,0.0,0.0,0.0,0.0,0.0,0.0,0.0,0.0,0.0,0.0,0.0,0.0,0.0,0.0,0.0,0.0,0.0,800.6227,826.4103,787.72894,805.05493,679.34064,-0.01214599609375,0.0203857421875,0.98504638671875,1.973876953125,-3.1402587890625,-0.059814453125,0.0,4.0,4.0,4.0,4.0,85.0,event
13:45:02.426,0.0,0.0,0.0,0.0,0.0,0.0,0.0,0.0,0.0,0.0,0.0,0.0,0.0,0.0,0.0,0.0,0.0,0.0,0.0,0.0,807.47253,803.44324,815.12823,804.65204,702.71063,-0.01214599609375,0.0203857421875,0.98504638671875,1.973876953125,-3.1402587890625,-0.059814453125,0.0,4.0,4.0,4.0,4.0,85.0,event
13:45:02.474,0.0,0.0,0.0,0.0,0.0,0.0,0.0,0.0,0.0,0.0,0.0,0.0,0.0,0.0,0.0,0.0,0.0,0.0,0.0,0.0,811.9048,815.5311,793.7729,817.5458,840.10986,-0.01214599609375,0.0203857421875,0.98504638671875,1.973876953125,-3.1402587890625,-0.059814453125,0.0,4.0,4.0,4.0,4.0,85.0,event
13:45:02.476,0.0,0.0,0.0,0.0,0.0,0.0,0.0,0.0,0.0,0.0,0.0,0.0,0.0,0.0,0.0,0.0,0.0,0.0,0.0,0.0,792.5641,762.74725,776.4469,800.2198,786.1172,-0.01214599609375,0.0203857421875,0.98504638671875,1.973876953125,-3.1402587890625,-0.059814453125,0.0,4.0,4.0,4.0,4.0,85.0,event
13:45:02.477,0.0,0.0,0.0,0.0,0.0,0.0,0.0,0.0,0.0,0.0,0.0,0.0,0.0,0.0,0.0,0.0,0.0,0.0,0.0,0.0,816.7399,749.85345,816.337,808.2784,719.6337,-0.01214599609375,0.0203857421875,0.98504638671875,1.973876953125,-3.1402587890625,-0.059814453125,0.0,4.0,4.0,4.0,4.0,85.0,event
13:45:02.478,0.0,0.0,0.0,0.0,0.0,0.0,0.0,0.0,0.0,0.0,0.0,0.0,0.0,0.0,0.0,0.0,0.0,0.0,0.0,0.0,826.0073,819.9634,841.31866,809.0842,711.1722,-0.01214599609375,0.0203857421875,0.98504638671875,1.973876953125,-3.1402587890625,-0.059814453125,0.0,4.0,4.0,4.0,4.0,85.0,event
13:45:02.479,0.0,0.0,0.0,0.0,0.0,0.0,0.0,0.0,0.0,0.0,0.0,0.0,0.0,0.0,0.0,0.0,0.0,0.0,0.0,0.0,804.65204,853.4066,816.7399,795.78754,755.89746,-0.01214599609375,0.0203857421875,0.98504638671875,1.973876953125,-3.1402587890625,-0.059814453125,0.0,4.0,4.0,4.0,4.0,85.0,event
13:45:02.480,0.0,0.0,0.0,0.0,0.0,0.0,0.0,0.0,0.0,0.0,0.0,0.0,0.0,0.0,0.0,0.0,0.0,0.0,0.0,0.0,819.5604,849.3773,809.89014,803.8461,852.6007,-0.01214599609375,0.0203857421875,0.98504638671875,1.973876953125,-3.1402587890625,-0.059814453125,0.0,4.0,4.0,4.0,4.0,85.0,event
13:45:02.481,0.0,0.0,0.0,0.0,0.0,0.0,0.0,0.0,0.0,0.0,0.0,0.0,0.0,0.0,0.0,0.0,0.0,0.0,0.0,0.0,832.4542,848.97437,794.17584,827.619,842.9304,-0.01214599609375,0.0203857421875,0.98504638671875,1.973876953125,-3.1402587890625,-0.059814453125,0.0,4.0,4.0,4.0,4.0,85.0,event
13:45:02.483,0.0,0.0,0.0,0.0,0.0,0.0,0.0,0.0,0.0,0.0,0.0,0.0,0.0,0.0,0.0,0.0,0.0,0.0,0.0,0.0,807.0696,867.9121,767.5824,818.7546,799.41394,-0.01214599609375,0.0203857421875,0.98504638671875,1.973876953125,-3.1402587890625,-0.059814453125,0.0,4.0,4.0,4.0,4.0,85.0,event
13:45:02.484,0.0,0.0,0.0,0.0,0.0,0.0,0.0,0.0,0.0,0.0,0.0,0.0,0.0,0.0,0.0,0.0,0.0,0.0,0.0,0.0,786.9231,830.84247,772.01465,788.93774,966.2271,-0.01214599609375,0.0203857421875,0.98504638671875,1.973876953125,-3.1402587890625,-0.059814453125,0.0,4.0,4.0,4.0,4.0,85.0,event
13:45:02.485,0.0,0.0,0.0,0.0,0.0,0.0,0.0,0.0,0.0,0.0,0.0,0.0,0.0,0.0,0.0,0.0,0.0,0.0,0.0,0.0,779.67035,799.011,786.1172,763.95605,832.8571,-0.01214599609375,0.0203857421875,0.98504638671875,1.973876953125,-3.1402587890625,-0.059814453125,0.0,4.0,4.0,4.0,4.0,85.0,event
13:45:02.487,0.0,0.0,0.0,0.0,0.0,0.0,0.0,0.0,0.0,0.0,0.0,0.0,0.0,0.0,0.0,0.0,0.0,0.0,0.0,0.0,791.3553,846.55676,820.3663,771.6117,665.2381,-0.01214599609375,0.0203857421875,0.98504638671875,1.973876953125,-3.1402587890625,-0.059814453125,0.0,4.0,4.0,4.0,4.0,85.0,event
13:45:02.487,0.0,0.0,0.0,0.0,0.0,0.0,0.0,0.0,0.0,0.0,0.0,0.0,0.0,0.0,0.0,0.0,0.0,0.0,0.0,0.0,802.23444,878.3883,806.6667,798.20514,757.1062,-0.01214599609375,0.0203857421875,0.98504638671875,1.973876953125,-3.1402587890625,-0.059814453125,0.0,4.0,4.0,4.0,4.0,85.0,event
13:45:02.519,0.0,0.0,0.0,0.0,0.0,0.0,0.0,0.0,0.0,0.0,0.0,0.0,0.0,0.0,0.0,0.0,0.0,0.0,0.0,0.0,778.86444,835.6777,787.72894,778.0586,781.28204,-0.0101318359375,0.022705078125,0.99346923828125,1.83929443359375,-3.54400634765625,0.40374755859375,0.0,4.0,4.0,4.0,4.0,85.0,event
13:45:02.520,0.0,0.0,0.0,0.0,0.0,0.0,0.0,0.0,0.0,0.0,0.0,0.0,0.0,0.0,0.0,0.0,0.0,0.0,0.0,0.0,758.315,814.3223,778.86444,754.68866,684.9817,-0.0101318359375,0.022705078125,0.99346923828125,1.83929443359375,-3.54400634765625,0.40374755859375,0.0,4.0,4.0,4.0,4.0,85.0,event
13:45:02.521,0.0,0.0,0.0,0.0,0.0,0.0,0.0,0.0,0.0,0.0,0.0,0.0,0.0,0.0,0.0,0.0,0.0,0.0,0.0,0.0,754.2857,825.2015,761.9414,751.4652,629.7802,-0.0101318359375,0.022705078125,0.99346923828125,1.83929443359375,-3.54400634765625,0.40374755859375,0.0,4.0,4.0,4.0,4.0,85.0,event
13:45:02.521,0.0,0.0,0.0,0.0,0.0,0.0,0.0,0.0,0.0,0.0,0.0,0.0,0.0,0.0,0.0,0.0,0.0,0.0,0.0,0.0,798.20514,794.9817,806.26373,776.4469,723.663,-0.0101318359375,0.022705078125,0.99346923828125,1.83929443359375,-3.54400634765625,0.40374755859375,0.0,4.0,4.0,4.0,4.0,85.0,event
13:45:02.522,0.0,0.0,0.0,0.0,0.0,0.0,0.0,0.0,0.0,0.0,0.0,0.0,0.0,0.0,0.0,0.0,0.0,0.0,0.0,0.0,818.7546,785.7143,839.707,794.57874,764.35895,-0.0101318359375,0.022705078125,0.99346923828125,1.83929443359375,-3.54400634765625,0.40374755859375,0.0,4.0,4.0,4.0,4.0,85.0,event
13:45:02.523,0.0,0.0,0.0,0.0,0.0,0.0,0.0,0.0,0.0,0.0,0.0,0.0,0.0,0.0,0.0,0.0,0.0,0.0,0.0,0.0,759.92676,821.1722,797.3993,757.50916,765.9707,-0.0101318359375,0.022705078125,0.99346923828125,1.83929443359375,-3.54400634765625,0.40374755859375,0.0,4.0,4.0,4.0,4.0,85.0,event
13:45:02.523,0.0,0.0,0.0,0.0,0.0,0.0,0.0,0.0,0.0,0.0,0.0,0.0,0.0,0.0,0.0,0.0,0.0,0.0,0.0,0.0,729.707,845.7509,764.7619,725.6777,736.55676,-0.0101318359375,0.022705078125,0.99346923828125,1.83929443359375,-3.54400634765625,0.40374755859375,0.0,4.0,4.0,4.0,4.0,85.0,event
13:45:02.524,0.0,0.0,0.0,0.0,0.0,0.0,0.0,0.0,0.0,0.0,0.0,0.0,0.0,0.0,0.0,0.0,0.0,0.0,0.0,0.0,746.2271,819.5604,755.4945,736.55676,931.978,-0.0101318359375,0.022705078125,0.99346923828125,1.83929443359375,-3.54400634765625,0.40374755859375,0.0,4.0,4.0,4.0,4.0,85.0,event
13:45:02.524,0.0,0.0,0.0,0.0,0.0,0.0,0.0,0.0,0.0,0.0,0.0,0.0,0.0,0.0,0.0,0.0,0.0,0.0,0.0,0.0,769.19415,799.011,765.16486,768.3883,1070.1831,-0.0101318359375,0.022705078125,0.99346923828125,1.83929443359375,-3.54400634765625,0.40374755859375,0.0,4.0,4.0,4.0,4.0,85.0,event
13:45:02.525,0.0,0.0,0.0,0.0,0.0,0.0,0.0,0.0,0.0,0.0,0.0,0.0,0.0,0.0,0.0,0.0,0.0,0.0,0.0,0.0,820.3663,795.78754,838.49817,821.978,833.2601,-0.0101318359375,0.022705078125,0.99346923828125,1.83929443359375,-3.54400634765625,0.40374755859375,0.0,4.0,4.0,4.0,4.0,85.0,event
13:45:02.526,0.0,0.0,0.0,0.0,0.0,0.0,0.0,0.0,0.0,0.0,0.0,0.0,0.0,0.0,0.0,0.0,0.0,0.0,0.0,0.0,822.7839,781.685,859.0476,826.8132,795.78754,-0.0101318359375,0.022705078125,0.99346923828125,1.83929443359375,-3.54400634765625,0.40374755859375,0.0,4.0,4.0,4.0,4.0,85.0,event
13:45:02.526,0.0,0.0,0.0,0.0,0.0,0.0,0.0,0.0,0.0,0.0,0.0,0.0,0.0,0.0,0.0,0.0,0.0,0.0,0.0,0.0,771.2088,822.7839,798.60803,773.6264,840.5128,-0.0101318359375,0.022705078125,0.99346923828125,1.83929443359375,-3.54400634765625,0.40374755859375,0.0,4.0,4.0,4.0,4.0,85.0,event
13:45:02.527,0.0,0.0,0.0,0.0,0.0,0.0,0.0,0.0,0.0,0.0,0.0,0.0,0.0,0.0,0.0,0.0,0.0,0.0,0.0,0.0,772.8205,857.4359,757.9121,762.3443,775.64105,-0.0108642578125,0.01611328125,0.98345947265625,1.8243408203125,-3.641204833984375,-0.157012939453125,0.0,4.0,4.0,4.0,4.0,85.0,event
13:45:02.528,0.0,0.0,0.0,0.0,0.0,0.0,0.0,0.0,0.0,0.0,0.0,0.0,0.0,0.0,0.0,0.0,0.0,0.0,0.0,0.0,796.5934,843.3333,771.2088,787.326,710.7692,-0.0108642578125,0.01611328125,0.98345947265625,1.8243408203125,-3.641204833984375,-0.157012939453125,0.0,4.0,4.0,4.0,4.0,85.0,event
13:45:02.532,0.0,0.0,0.0,0.0,0.0,0.0,0.0,0.0,0.0,0.0,0.0,0.0,0.0,0.0,0.0,0.0,0.0,0.0,0.0,0.0,821.1722,823.9927,778.0586,815.5311,796.5934,-0.0108642578125,0.01611328125,0.98345947265625,1.8243408203125,-3.641204833984375,-0.157012939453125,0.0,4.0,4.0,4.0,4.0,85.0,event
13:45:02.532,0.0,0.0,0.0,0.0,0.0,0.0,0.0,0.0,0.0,0.0,0.0,0.0,0.0,0.0,0.0,0.0,0.0,0.0,0.0,0.0,826.4103,807.0696,803.44324,815.5311,825.6044,-0.0108642578125,0.01611328125,0.98345947265625,1.8243408203125,-3.641204833984375,-0.157012939453125,0.0,4.0,4.0,4.0,4.0,85.0,event
13:45:02.533,0.0,0.0,0.0,0.0,0.0,0.0,0.0,0.0,0.0,0.0,0.0,0.0,0.0,0.0,0.0,0.0,0.0,0.0,0.0,0.0,799.011,767.1795,838.9011,790.54944,724.0659,-0.0108642578125,0.01611328125,0.98345947265625,1.8243408203125,-3.641204833984375,-0.157012939453125,0.0,4.0,4.0,4.0,4.0,85.0,event
13:45:02.533,0.0,0.0,0.0,0.0,0.0,0.0,0.0,0.0,0.0,0.0,0.0,0.0,0.0,0.0,0.0,0.0,0.0,0.0,0.0,0.0,812.3077,809.0842,859.0476,807.8755,717.619,-0.0108642578125,0.01611328125,0.98345947265625,1.8243408203125,-3.641204833984375,-0.157012939453125,0.0,4.0,4.0,4.0,4.0,85.0,event
13:45:02.534,0.0,0.0,0.0,0.0,0.0,0.0,0.0,0.0,0.0,0.0,0.0,0.0,0.0,0.0,0.0,0.0,0.0,0.0,0.0,0.0,772.4176,713.1868,782.0879,767.1795,823.1868,-0.0108642578125,0.01611328125,0.98345947265625,1.8243408203125,-3.641204833984375,-0.157012939453125,0.0,4.0,4.0,4.0,4.0,85.0,event
13:45:02.535,0.0,0.0,0.0,0.0,0.0,0.0,0.0,0.0,0.0,0.0,0.0,0.0,0.0,0.0,0.0,0.0,0.0,0.0,0.0,0.0,777.25275,786.1172,801.8315,791.75824,958.5714,-0.0108642578125,0.01611328125,0.98345947265625,1.8243408203125,-3.641204833984375,-0.157012939453125,0.0,4.0,4.0,4.0,4.0,85.0,event
13:45:02.536,0.0,0.0,0.0,0.0,0.0,0.0,0.0,0.0,0.0,0.0,0.0,0.0,0.0,0.0,0.0,0.0,0.0,0.0,0.0,0.0,799.81683,846.1539,805.4579,818.3516,940.0366,-0.0108642578125,0.01611328125,0.98345947265625,1.8243408203125,-3.641204833984375,-0.157012939453125,0.0,4.0,4.0,4.0,4.0,85.0,event
13:45:02.537,0.0,0.0,0.0,0.0,0.0,0.0,0.0,0.0,0.0,0.0,0.0,0.0,0.0,0.0,0.0,0.0,0.0,0.0,0.0,0.0,801.8315,826.8132,792.1612,812.71063,745.0183,-0.0108642578125,0.01611328125,0.98345947265625,1.8243408203125,-3.641204833984375,-0.157012939453125,0.0,4.0,4.0,4.0,4.0,85.0,event
13:45:02.538,0.0,0.0,0.0,0.0,0.0,0.0,0.0,0.0,0.0,0.0,0.0,0.0,0.0,0.0,0.0,0.0,0.0,0.0,0.0,0.0,805.4579,790.14655,812.3077,801.4286,772.01465,-0.0108642578125,0.01611328125,0.98345947265625,1.8243408203125,-3.641204833984375,-0.157012939453125,0.0,4.0,4.0,4.0,4.0,85.0,event
13:45:02.539,0.0,0.0,0.0,0.0,0.0,0.0,0.0,0.0,0.0,0.0,0.0,0.0,0.0,0.0,0.0,0.0,0.0,0.0,0.0,0.0,813.1135,756.7033,803.44324,804.65204,829.2308,-0.0108642578125,0.01611328125,0.98345947265625,1.8243408203125,-3.641204833984375,-0.157012939453125,0.0,4.0,4.0,4.0,4.0,85.0,event
13:45:02.603,0.0,0.0,0.0,0.0,0.0,0.0,0.0,0.0,0.0,0.0,0.0,0.0,0.0,0.0,0.0,0.0,0.0,0.0,0.0,0.0,834.0659,771.6117,793.7729,839.707,745.0183,-0.0086669921875,0.0203857421875,0.986572265625,2.041168212890625,-3.790740966796875,0.418701171875,0.0,4.0,4.0,4.0,4.0,85.0,event
13:45:02.604,0.0,0.0,0.0,0.0,0.0,0.0,0.0,0.0,0.0,0.0,0.0,0.0,0.0,0.0,0.0,0.0,0.0,0.0,0.0,0.0,829.2308,785.31134,805.8608,834.0659,761.9414,-0.0086669921875,0.0203857421875,0.986572265625,2.041168212890625,-3.790740966796875,0.418701171875,0.0,4.0,4.0,4.0,4.0,85.0,event
13:45:02.604,0.0,0.0,0.0,0.0,0.0,0.0,0.0,0.0,0.0,0.0,0.0,0.0,0.0,0.0,0.0,0.0,0.0,0.0,0.0,0.0,800.2198,796.5934,811.50183,790.14655,773.6264,-0.0086669921875,0.0203857421875,0.986572265625,2.041168212890625,-3.790740966796875,0.418701171875,0.0,4.0,4.0,4.0,4.0,85.0,event
13:45:02.605,0.0,0.0,0.0,0.0,0.0,0.0,0.0,0.0,0.0,0.0,0.0,0.0,0.0,0.0,0.0,0.0,0.0,0.0,0.0,0.0,790.14655,808.68134,797.8022,771.2088,744.21246,-0.0086669921875,0.0203857421875,0.986572265625,2.041168212890625,-3.790740966796875,0.418701171875,0.0,4.0,4.0,4.0,4.0,85.0,event
13:45:02.606,0.0,0.0,0.0,0.0,0.0,0.0,0.0,0.0,0.0,0.0,0.0,0.0,0.0,0.0,0.0,0.0,0.0,0.0,0.0,0.0,792.5641,831.2454,786.9231,777.6557,792.96704,-0.0086669921875,0.0203857421875,0.986572265625,2.041168212890625,-3.790740966796875,0.418701171875,0.0,4.0,4.0,4.0,4.0,85.0,event
13:45:02.606,0.0,0.0,0.0,0.0,0.0,0.0,0.0,0.0,0.0,0.0,0.0,0.0,0.0,0.0,0.0,0.0,0.0,0.0,0.0,0.0,801.4286,824.3956,772.01465,777.25275,714.7985,-0.0086669921875,0.0203857421875,0.986572265625,2.041168212890625,-3.790740966796875,0.418701171875,0.0,4.0,4.0,4.0,4.0,85.0,event
13:45:02.607,0.0,0.0,0.0,0.0,0.0,0.0,0.0,0.0,0.0,0.0,0.0,0.0,0.0,0.0,0.0,0.0,0.0,0.0,0.0,0.0,799.81683,794.9817,800.6227,801.4286,1009.7436,-0.0086669921875,0.0203857421875,0.986572265625,2.041168212890625,-3.790740966796875,0.418701171875,0.0,4.0,4.0,4.0,4.0,85.0,event
13:45:02.607,0.0,0.0,0.0,0.0,0.0,0.0,0.0,0.0,0.0,0.0,0.0,0.0,0.0,0.0,0.0,0.0,0.0,0.0,0.0,0.0,821.5751,800.6227,818.3516,819.9634,1020.2198,-0.0086669921875,0.0203857421875,0.986572265625,2.041168212890625,-3.790740966796875,0.418701171875,0.0,4.0,4.0,4.0,4.0,85.0,event
13:45:02.608,0.0,0.0,0.0,0.0,0.0,0.0,0.0,0.0,0.0,0.0,0.0,0.0,0.0,0.0,0.0,0.0,0.0,0.0,0.0,0.0,821.978,830.0366,823.1868,808.68134,717.619,-0.0086669921875,0.0203857421875,0.986572265625,2.041168212890625,-3.790740966796875,0.418701171875,0.0,4.0,4.0,4.0,4.0,85.0,event
13:45:02.609,0.0,0.0,0.0,0.0,0.0,0.0,0.0,0.0,0.0,0.0,0.0,0.0,0.0,0.0,0.0,0.0,0.0,0.0,0.0,0.0,813.5165,779.67035,793.7729,800.2198,677.72894,-0.0086669921875,0.0203857421875,0.986572265625,2.041168212890625,-3.790740966796875,0.418701171875,0.0,4.0,4.0,4.0,4.0,85.0,event
13:45:02.609,0.0,0.0,0.0,0.0,0.0,0.0,0.0,0.0,0.0,0.0,0.0,0.0,0.0,0.0,0.0,0.0,0.0,0.0,0.0,0.0,819.5604,761.53845,782.8938,806.26373,806.26373,-0.0086669921875,0.0203857421875,0.986572265625,2.041168212890625,-3.790740966796875,0.418701171875,0.0,4.0,4.0,4.0,4.0,85.0,event
13:45:02.610,0.0,0.0,0.0,0.0,0.0,0.0,0.0,0.0,0.0,0.0,0.0,0.0,0.0,0.0,0.0,0.0,0.0,0.0,0.0,0.0,822.7839,787.326,769.59705,823.9927,895.31134,-0.0086669921875,0.0203857421875,0.986572265625,2.041168212890625,-3.790740966796875,0.418701171875,0.0,4.0,4.0,4.0,4.0,85.0,event
13:45:02.656,0.0,0.0,0.0,0.0,0.0,0.0,0.0,0.0,0.0,0.0,0.0,0.0,0.0,0.0,0.0,0.0,0.0,0.0,0.0,0.0,809.0842,805.8608,776.8498,812.3077,818.3516,-0.01446533203125,0.019287109375,0.98858642578125,1.966400146484375,-3.521575927734375,0.396270751953125,0.0,4.0,4.0,4.0,4.0,85.0,event
13:45:02.657,0.0,0.0,0.0,0.0,0.0,0.0,0.0,0.0,0.0,0.0,0.0,0.0,0.0,0.0,0.0,0.0,0.0,0.0,0.0,0.0,793.36993,838.0952,824.7985,787.326,775.64105,-0.01446533203125,0.019287109375,0.98858642578125,1.966400146484375,-3.521575927734375,0.396270751953125,0.0,4.0,4.0,4.0,4.0,85.0,event
13:45:02.659,0.0,0.0,0.0,0.0,0.0,0.0,0.0,0.0,0.0,0.0,0.0,0.0,0.0,0.0,0.0,0.0,0.0,0.0,0.0,0.0,791.3553,838.0952,826.8132,777.25275,836.8865,-0.01446533203125,0.019287109375,0.98858642578125,1.966400146484375,-3.521575927734375,0.396270751953125,0.0,4.0,4.0,4.0,4.0,85.0,event
13:45:02.660,0.0,0.0,0.0,0.0,0.0,0.0,0.0,0.0,0.0,0.0,0.0,0.0,0.0,0.0,0.0,0.0,0.0,0.0,0.0,0.0,818.7546,831.6484,799.81683,807.8755,742.6007,-0.01446533203125,0.019287109375,0.98858642578125,1.966400146484375,-3.521575927734375,0.396270751953125,0.0,4.0,4.0,4.0,4.0,85.0,event
13:45:02.664,0.0,0.0,0.0,0.0,0.0,0.0,0.0,0.0,0.0,0.0,0.0,0.0,0.0,0.0,0.0,0.0,0.0,0.0,0.0,0.0,836.08057,823.1868,814.7253,844.94507,713.1868,-0.01446533203125,0.019287109375,0.98858642578125,1.966400146484375,-3.521575927734375,0.396270751953125,0.0,4.0,4.0,4.0,4.0,85.0,event
13:45:02.665,0.0,0.0,0.0,0.0,0.0,0.0,0.0,0.0,0.0,0.0,0.0,0.0,0.0,0.0,0.0,0.0,0.0,0.0,0.0,0.0,813.1135,795.78754,804.65204,814.3223,846.9597,-0.01446533203125,0.019287109375,0.98858642578125,1.966400146484375,-3.521575927734375,0.396270751953125,0.0,4.0,4.0,4.0,4.0,85.0,event
13:45:02.667,0.0,0.0,0.0,0.0,0.0,0.0,0.0,0.0,0.0,0.0,0.0,0.0,0.0,0.0,0.0,0.0,0.0,0.0,0.0,0.0,775.2381,762.3443,804.65204,776.04395,953.3333,-0.01446533203125,0.019287109375,0.98858642578125,1.966400146484375,-3.521575927734375,0.396270751953125,0.0,4.0,4.0,4.0,4.0,85.0,event
13:45:02.668,0.0,0.0,0.0,0.0,0.0,0.0,0.0,0.0,0.0,0.0,0.0,0.0,0.0,0.0,0.0,0.0,0.0,0.0,0.0,0.0,812.71063,807.47253,809.89014,814.3223,782.49084,-0.01446533203125,0.019287109375,0.98858642578125,1.966400146484375,-3.521575927734375,0.396270751953125,0.0,4.0,4.0,4.0,4.0,85.0,event
13:45:02.668,0.0,0.0,0.0,0.0,0.0,0.0,0.0,0.0,0.0,0.0,0.0,0.0,0.0,0.0,0.0,0.0,0.0,0.0,0.0,0.0,840.5128,845.34796,801.8315,833.663,643.8828,-0.01446533203125,0.019287109375,0.98858642578125,1.966400146484375,-3.521575927734375,0.396270751953125,0.0,4.0,4.0,4.0,4.0,85.0,event
13:45:02.669,0.0,0.0,0.0,0.0,0.0,0.0,0.0,0.0,0.0,0.0,0.0,0.0,0.0,0.0,0.0,0.0,0.0,0.0,0.0,0.0,801.4286,819.15753,808.2784,812.3077,828.022,-0.01446533203125,0.019287109375,0.98858642578125,1.966400146484375,-3.521575927734375,0.396270751953125,0.0,4.0,4.0,4.0,4.0,85.0,event
13:45:02.670,0.0,0.0,0.0,0.0,0.0,0.0,0.0,0.0,0.0,0.0,0.0,0.0,0.0,0.0,0.0,0.0,0.0,0.0,0.0,0.0,797.8022,813.91943,812.71063,812.3077,915.05493,-0.01446533203125,0.019287109375,0.98858642578125,1.966400146484375,-3.521575927734375,0.396270751953125,0.0,4.0,4.0,4.0,4.0,85.0,event
13:45:02.670,0.0,0.0,0.0,0.0,0.0,0.0,0.0,0.0,0.0,0.0,0.0,0.0,0.0,0.0,0.0,0.0,0.0,0.0,0.0,0.0,794.57874,798.60803,830.4396,800.6227,796.1905,-0.01446533203125,0.019287109375,0.98858642578125,1.966400146484375,-3.521575927734375,0.396270751953125,0.0,4.0,4.0,4.0,4.0,85.0,event
13:45:02.703,0.0,0.0,0.0,0.0,0.0,0.0,0.0,0.0,0.0,0.0,0.0,0.0,0.0,0.0,0.0,0.0,0.0,0.0,0.0,0.0,778.86444,773.22345,818.3516,775.2381,771.6117,-0.01446533203125,0.019287109375,0.98858642578125,1.966400146484375,-3.521575927734375,0.396270751953125,0.0,4.0,4.0,4.0,4.0,85.0,event
13:45:02.704,0.0,0.0,0.0,0.0,0.0,0.0,0.0,0.0,0.0,0.0,0.0,0.0,0.0,0.0,0.0,0.0,0.0,0.0,0.0,0.0,811.9048,799.81683,826.4103,804.65204,763.5531,-0.01446533203125,0.019287109375,0.98858642578125,1.966400146484375,-3.521575927734375,0.396270751953125,0.0,4.0,4.0,4.0,4.0,85.0,event
13:45:02.705,0.0,0.0,0.0,0.0,0.0,0.0,0.0,0.0,0.0,0.0,0.0,0.0,0.0,0.0,0.0,0.0,0.0,0.0,0.0,0.0,848.5714,790.9524,803.44324,855.42126,850.18317,-0.01446533203125,0.019287109375,0.98858642578125,1.966400146484375,-3.521575927734375,0.396270751953125,0.0,4.0,4.0,4.0,4.0,85.0,event
13:45:02.705,0.0,0.0,0.0,0.0,0.0,0.0,0.0,0.0,0.0,0.0,0.0,0.0,0.0,0.0,0.0,0.0,0.0,0.0,0.0,0.0,835.2747,797.3993,796.99634,838.49817,848.5714,-0.01446533203125,0.019287109375,0.98858642578125,1.966400146484375,-3.521575927734375,0.396270751953125,0.0,4.0,4.0,4.0,4.0,85.0,event
13:45:02.706,0.0,0.0,0.0,0.0,0.0,0.0,0.0,0.0,0.0,0.0,0.0,0.0,0.0,0.0,0.0,0.0,0.0,0.0,0.0,0.0,788.1319,832.0513,837.6923,783.69965,678.93774,-0.01446533203125,0.019287109375,0.98858642578125,1.966400146484375,-3.521575927734375,0.396270751953125,0.0,4.0,4.0,4.0,4.0,85.0,event
13:45:02.707,0.0,0.0,0.0,0.0,0.0,0.0,0.0,0.0,0.0,0.0,0.0,0.0,0.0,0.0,0.0,0.0,0.0,0.0,0.0,0.0,801.8315,847.76556,777.6557,800.6227,922.71063,-0.01446533203125,0.019287109375,0.98858642578125,1.966400146484375,-3.521575927734375,0.396270751953125,0.0,4.0,4.0,4.0,4.0,85.0,event
13:45:02.707,0.0,0.0,0.0,0.0,0.0,0.0,0.0,0.0,0.0,0.0,0.0,0.0,0.0,0.0,0.0,0.0,0.0,0.0,0.0,0.0,769.59705,828.022,790.9524,768.3883,882.8205,-0.01446533203125,0.019287109375,0.98858642578125,1.966400146484375,-3.521575927734375,0.396270751953125,0.0,4.0,4.0,4.0,4.0,85.0,event
13:45:02.708,0.0,0.0,0.0,0.0,0.0,0.0,0.0,0.0,0.0,0.0,0.0,0.0,0.0,0.0,0.0,0.0,0.0,0.0,0.0,0.0,812.3077,806.26373,826.4103,827.619,747.03296,-0.01446533203125,0.019287109375,0.98858642578125,1.966400146484375,-3.521575927734375,0.396270751953125,0.0,4.0,4.0,4.0,4.0,85.0,event
13:45:02.709,0.0,0.0,0.0,0.0,0.0,0.0,0.0,0.0,0.0,0.0,0.0,0.0,0.0,0.0,0.0,0.0,0.0,0.0,0.0,0.0,813.91943,778.0586,845.34796,836.08057,751.4652,-0.01446533203125,0.019287109375,0.98858642578125,1.966400146484375,-3.521575927734375,0.396270751953125,0.0,4.0,4.0,4.0,4.0,85.0,event
13:45:02.709,0.0,0.0,0.0,0.0,0.0,0.0,0.0,0.0,0.0,0.0,0.0,0.0,0.0,0.0,0.0,0.0,0.0,0.0,0.0,0.0,811.50183,824.3956,814.3223,809.4872,814.7253,-0.01446533203125,0.019287109375,0.98858642578125,1.966400146484375,-3.521575927734375,0.396270751953125,0.0,4.0,4.0,4.0,4.0,85.0,event
13:45:02.710,0.0,0.0,0.0,0.0,0.0,0.0,0.0,0.0,0.0,0.0,0.0,0.0,0.0,0.0,0.0,0.0,0.0,0.0,0.0,0.0,783.69965,806.26373,782.0879,775.64105,705.12823,-0.01446533203125,0.019287109375,0.98858642578125,1.966400146484375,-3.521575927734375,0.396270751953125,0.0,4.0,4.0,4.0,4.0,85.0,event
13:45:02.711,0.0,0.0,0.0,0.0,0.0,0.0,0.0,0.0,0.0,0.0,0.0,0.0,0.0,0.0,0.0,0.0,0.0,0.0,0.0,0.0,819.5604,818.3516,794.9817,815.9341,567.72894,-0.01446533203125,0.019287109375,0.98858642578125,1.966400146484375,-3.521575927734375,0.396270751953125,0.0,4.0,4.0,4.0,4.0,85.0,event
13:45:02.755,0.0,0.0,0.0,0.0,0.0,0.0,0.0,0.0,0.0,0.0,0.0,0.0,0.0,0.0,0.0,0.0,0.0,0.0,0.0,0.0,853.8095,846.1539,812.3077,855.0183,681.3553,-0.0167236328125,0.019775390625,0.98486328125,1.801910400390625,-3.60382080078125,0.11962890625,0.0,4.0,4.0,4.0,4.0,85.0,event
13:45:02.757,0.0,0.0,0.0,0.0,0.0,0.0,0.0,0.0,0.0,0.0,0.0,0.0,0.0,0.0,0.0,0.0,0.0,0.0,0.0,0.0,800.6227,817.9487,826.4103,817.5458,897.326,-0.0167236328125,0.019775390625,0.98486328125,1.801910400390625,-3.60382080078125,0.11962890625,0.0,4.0,4.0,4.0,4.0,85.0,event
13:45:02.758,0.0,0.0,0.0,0.0,0.0,0.0,0.0,0.0,0.0,0.0,0.0,0.0,0.0,0.0,0.0,0.0,0.0,0.0,0.0,0.0,773.22345,815.12823,829.6337,784.10254,847.3626,-0.0167236328125,0.019775390625,0.98486328125,1.801910400390625,-3.60382080078125,0.11962890625,0.0,4.0,4.0,4.0,4.0,85.0,event
13:45:02.759,0.0,0.0,0.0,0.0,0.0,0.0,0.0,0.0,0.0,0.0,0.0,0.0,0.0,0.0,0.0,0.0,0.0,0.0,0.0,0.0,783.69965,806.6667,799.81683,785.31134,656.3736,-0.0167236328125,0.019775390625,0.98486328125,1.801910400390625,-3.60382080078125,0.11962890625,0.0,4.0,4.0,4.0,4.0,85.0,event
13:45:02.760,0.0,0.0,0.0,0.0,0.0,0.0,0.0,0.0,0.0,0.0,0.0,0.0,0.0,0.0,0.0,0.0,0.0,0.0,0.0,0.0,806.26373,800.6227,805.4579,801.8315,720.0366,-0.0167236328125,0.019775390625,0.98486328125,1.801910400390625,-3.60382080078125,0.11962890625,0.0,4.0,4.0,4.0,4.0,85.0,event
13:45:02.762,0.0,0.0,0.0,0.0,0.0,0.0,0.0,0.0,0.0,0.0,0.0,0.0,0.0,0.0,0.0,0.0,0.0,0.0,0.0,0.0,825.6044,811.50183,819.9634,830.0366,933.1868,-0.0167236328125,0.019775390625,0.98486328125,1.801910400390625,-3.60382080078125,0.11962890625,0.0,4.0,4.0,4.0,4.0,85.0,event
13:45:02.766,0.0,0.0,0.0,0.0,0.0,0.0,0.0,0.0,0.0,0.0,0.0,0.0,0.0,0.0,0.0,0.0,0.0,0.0,0.0,0.0,816.337,832.0513,806.26373,834.0659,963.8095,-0.0167236328125,0.019775390625,0.98486328125,1.801910400390625,-3.60382080078125,0.11962890625,0.0,4.0,4.0,4.0,4.0,85.0,event
13:45:02.767,0.0,0.0,0.0,0.0,0.0,0.0,0.0,0.0,0.0,0.0,0.0,0.0,0.0,0.0,0.0,0.0,0.0,0.0,0.0,0.0,805.05493,820.3663,805.05493,807.0696,853.00366,-0.0167236328125,0.019775390625,0.98486328125,1.801910400390625,-3.60382080078125,0.11962890625,0.0,4.0,4.0,4.0,4.0,85.0,event
13:45:02.769,0.0,0.0,0.0,0.0,0.0,0.0,0.0,0.0,0.0,0.0,0.0,0.0,0.0,0.0,0.0,0.0,0.0,0.0,0.0,0.0,805.05493,776.4469,825.6044,792.1612,809.0842,-0.0167236328125,0.019775390625,0.98486328125,1.801910400390625,-3.60382080078125,0.11962890625,0.0,4.0,4.0,4.0,4.0,85.0,event
13:45:02.770,0.0,0.0,0.0,0.0,0.0,0.0,0.0,0.0,0.0,0.0,0.0,0.0,0.0,0.0,0.0,0.0,0.0,0.0,0.0,0.0,813.5165,757.1062,826.8132,801.8315,1018.20514,-0.0167236328125,0.019775390625,0.98486328125,1.801910400390625,-3.60382080078125,0.11962890625,0.0,4.0,4.0,4.0,4.0,85.0,event
13:45:02.771,0.0,0.0,0.0,0.0,0.0,0.0,0.0,0.0,0.0,0.0,0.0,0.0,0.0,0.0,0.0,0.0,0.0,0.0,0.0,0.0,813.91943,826.4103,826.4103,809.4872,951.7216,-0.0167236328125,0.019775390625,0.98486328125,1.801910400390625,-3.60382080078125,0.11962890625,0.0,4.0,4.0,4.0,4.0,85.0,event
13:45:02.772,0.0,0.0,0.0,0.0,0.0,0.0,0.0,0.0,0.0,0.0,0.0,0.0,0.0,0.0,0.0,0.0,0.0,0.0,0.0,0.0,805.4579,863.8828,791.75824,808.68134,705.5311,-0.0167236328125,0.019775390625,0.98486328125,1.801910400390625,-3.60382080078125,0.11962890625,0.0,4.0,4.0,4.0,4.0,85.0,event
13:45:02.802,0.0,0.0,0.0,0.0,0.0,0.0,0.0,0.0,0.0,0.0,0.0,0.0,0.0,0.0,0.0,0.0,0.0,0.0,0.0,0.0,798.20514,815.12823,743.8095,800.6227,729.707,-0.00860595703125,0.01995849609375,0.987548828125,2.093505859375,-4.000091552734375,-0.0,0.0,4.0,4.0,4.0,4.0,85.0,event
13:45:02.803,0.0,0.0,0.0,0.0,0.0,0.0,0.0,0.0,0.0,0.0,0.0,0.0,0.0,0.0,0.0,0.0,0.0,0.0,0.0,0.0,799.011,795.78754,774.0293,790.14655,710.3663,-0.00860595703125,0.01995849609375,0.987548828125,2.093505859375,-4.000091552734375,-0.0,0.0,4.0,4.0,4.0,4.0,85.0,event
13:45:02.804,0.0,0.0,0.0,0.0,0.0,0.0,0.0,0.0,0.0,0.0,0.0,0.0,0.0,0.0,0.0,0.0,0.0,0.0,0.0,0.0,795.78754,784.5055,826.4103,788.93774,612.8571,-0.00860595703125,0.01995849609375,0.987548828125,2.093505859375,-4.000091552734375,-0.0,0.0,4.0,4.0,4.0,4.0,85.0,event
13:45:02.804,0.0,0.0,0.0,0.0,0.0,0.0,0.0,0.0,0.0,0.0,0.0,0.0,0.0,0.0,0.0,0.0,0.0,0.0,0.0,0.0,822.7839,804.65204,852.6007,824.7985,645.89746,-0.00860595703125,0.01995849609375,0.987548828125,2.093505859375,-4.000091552734375,-0.0,0.0,4.0,4.0,4.0,4.0,85.0,event
13:45:02.805,0.0,0.0,0.0,0.0,0.0,0.0,0.0,0.0,0.0,0.0,0.0,0.0,0.0,0.0,0.0,0.0,0.0,0.0,0.0,0.0,830.84247,798.60803,855.42126,838.0952,802.6374,-0.00860595703125,0.01995849609375,0.987548828125,2.093505859375,-4.000091552734375,-0.0,0.0,4.0,4.0,4.0,4.0,85.0,event
13:45:02.806,0.0,0.0,0.0,0.0,0.0,0.0,0.0,0.0,0.0,0.0,0.0,0.0,0.0,0.0,0.0,0.0,0.0,0.0,0.0,0.0,783.69965,813.1135,764.7619,785.31134,904.57874,-0.00860595703125,0.01995849609375,0.987548828125,2.093505859375,-4.000091552734375,-0.0,0.0,4.0,4.0,4.0,4.0,85.0,event
13:45:02.806,0.0,0.0,0.0,0.0,0.0,0.0,0.0,0.0,0.0,0.0,0.0,0.0,0.0,0.0,0.0,0.0,0.0,0.0,0.0,0.0,803.44324,778.46155,805.05493,812.71063,954.5421,-0.00860595703125,0.01995849609375,0.987548828125,2.093505859375,-4.000091552734375,-0.0,0.0,4.0,4.0,4.0,4.0,85.0,event
13:45:02.807,0.0,0.0,0.0,0.0,0.0,0.0,0.0,0.0,0.0,0.0,0.0,0.0,0.0,0.0,0.0,0.0,0.0,0.0,0.0,0.0,780.87915,829.6337,795.38464,776.04395,743.4066,-0.00860595703125,0.01995849609375,0.987548828125,2.093505859375,-4.000091552734375,-0.0,0.0,4.0,4.0,4.0,4.0,85.0,event
13:45:02.807,0.0,0.0,0.0,0.0,0.0,0.0,0.0,0.0,0.0,0.0,0.0,0.0,0.0,0.0,0.0,0.0,0.0,0.0,0.0,0.0,815.12823,808.2784,811.0989,816.7399,965.42126,-0.00860595703125,0.01995849609375,0.987548828125,2.093505859375,-4.000091552734375,-0.0,0.0,4.0,4.0,4.0,4.0,85.0,event
13:45:02.808,0.0,0.0,0.0,0.0,0.0,0.0,0.0,0.0,0.0,0.0,0.0,0.0,0.0,0.0,0.0,0.0,0.0,0.0,0.0,0.0,815.9341,807.0696,806.6667,828.8278,1107.6556,-0.00860595703125,0.01995849609375,0.987548828125,2.093505859375,-4.000091552734375,-0.0,0.0,4.0,4.0,4.0,4.0,85.0,event
13:45:02.809,0.0,0.0,0.0,0.0,0.0,0.0,0.0,0.0,0.0,0.0,0.0,0.0,0.0,0.0,0.0,0.0,0.0,0.0,0.0,0.0,793.36993,842.9304,819.15753,799.41394,760.32965,-0.00860595703125,0.01995849609375,0.987548828125,2.093505859375,-4.000091552734375,-0.0,0.0,4.0,4.0,4.0,4.0,85.0,event
13:45:02.809,0.0,0.0,0.0,0.0,0.0,0.0,0.0,0.0,0.0,0.0,0.0,0.0,0.0,0.0,0.0,0.0,0.0,0.0,0.0,0.0,792.1612,828.022,813.1135,783.69965,674.90845,-0.00860595703125,0.01995849609375,0.987548828125,2.093505859375,-4.000091552734375,-0.0,0.0,4.0,4.0,4.0,4.0,85.0,event
13:45:02.810,0.0,0.0,0.0,0.0,0.0,0.0,0.0,0.0,0.0,0.0,0.0,0.0,0.0,0.0,0.0,0.0,0.0,0.0,0.0,0.0,811.9048,764.7619,805.05493,807.47253,752.674,-0.011474609375,0.02130126953125,0.9884033203125,1.592559814453125,-3.78326416015625,0.34393310546875,0.0,4.0,4.0,4.0,4.0,85.0,event
13:45:02.811,0.0,0.0,0.0,0.0,0.0,0.0,0.0,0.0,0.0,0.0,0.0,0.0,0.0,0.0,0.0,0.0,0.0,0.0,0.0,0.0,849.7802,778.0586,797.8022,850.58606,742.6007,-0.011474609375,0.02130126953125,0.9884033203125,1.592559814453125,-3.78326416015625,0.34393310546875,0.0,4.0,4.0,4.0,4.0,85.0,event
13:45:02.812,0.0,0.0,0.0,0.0,0.0,0.0,0.0,0.0,0.0,0.0,0.0,0.0,0.0,0.0,0.0,0.0,0.0,0.0,0.0,0.0,816.7399,855.42126,759.12085,821.1722,699.89014,-0.011474609375,0.02130126953125,0.9884033203125,1.592559814453125,-3.78326416015625,0.34393310546875,0.0,4.0,4.0,4.0,4.0,85.0,event
13:45:02.812,0.0,0.0,0.0,0.0,0.0,0.0,0.0,0.0,0.0,0.0,0.0,0.0,0.0,0.0,0.0,0.0,0.0,0.0,0.0,0.0,763.95605,872.74725,788.5348,765.56775,717.2161,-0.011474609375,0.02130126953125,0.9884033203125,1.592559814453125,-3.78326416015625,0.34393310546875,0.0,4.0,4.0,4.0,4.0,85.0,event
13:45:02.813,0.0,0.0,0.0,0.0,0.0,0.0,0.0,0.0,0.0,0.0,0.0,0.0,0.0,0.0,0.0,0.0,0.0,0.0,0.0,0.0,767.1795,845.7509,841.7216,767.98535,759.92676,-0.011474609375,0.02130126953125,0.9884033203125,1.592559814453125,-3.78326416015625,0.34393310546875,0.0,4.0,4.0,4.0,4.0,85.0,event
13:45:02.814,0.0,0.0,0.0,0.0,0.0,0.0,0.0,0.0,0.0,0.0,0.0,0.0,0.0,0.0,0.0,0.0,0.0,0.0,0.0,0.0,790.54944,834.0659,822.7839,788.93774,780.87915,-0.011474609375,0.02130126953125,0.9884033203125,1.592559814453125,-3.78326416015625,0.34393310546875,0.0,4.0,4.0,4.0,4.0,85.0,event
13:45:02.814,0.0,0.0,0.0,0.0,0.0,0.0,0.0,0.0,0.0,0.0,0.0,0.0,0.0,0.0,0.0,0.0,0.0,0.0,0.0,0.0,778.86444,815.9341,834.4689,772.8205,770.80585,-0.011474609375,0.02130126953125,0.9884033203125,1.592559814453125,-3.78326416015625,0.34393310546875,0.0,4.0,4.0,4.0,4.0,85.0,event
13:45:02.815,0.0,0.0,0.0,0.0,0.0,0.0,0.0,0.0,0.0,0.0,0.0,0.0,0.0,0.0,0.0,0.0,0.0,0.0,0.0,0.0,800.6227,836.4835,805.8608,807.8755,886.04395,-0.011474609375,0.02130126953125,0.9884033203125,1.592559814453125,-3.78326416015625,0.34393310546875,0.0,4.0,4.0,4.0,4.0,85.0,event
13:45:02.818,0.0,0.0,0.0,0.0,0.0,0.0,0.0,0.0,0.0,0.0,0.0,0.0,0.0,0.0,0.0,0.0,0.0,0.0,0.0,0.0,786.9231,813.5165,791.3553,799.41394,984.35895,-0.011474609375,0.02130126953125,0.9884033203125,1.592559814453125,-3.78326416015625,0.34393310546875,0.0,4.0,4.0,4.0,4.0,85.0,event
13:45:02.819,0.0,0.0,0.0,0.0,0.0,0.0,0.0,0.0,0.0,0.0,0.0,0.0,0.0,0.0,0.0,0.0,0.0,0.0,0.0,0.0,812.71063,803.8461,794.17584,819.5604,828.8278,-0.011474609375,0.02130126953125,0.9884033203125,1.592559814453125,-3.78326416015625,0.34393310546875,0.0,4.0,4.0,4.0,4.0,85.0,event
13:45:02.820,0.0,0.0,0.0,0.0,0.0,0.0,0.0,0.0,0.0,0.0,0.0,0.0,0.0,0.0,0.0,0.0,0.0,0.0,0.0,0.0,845.34796,774.83514,796.1905,838.9011,700.293,-0.011474609375,0.02130126953125,0.9884033203125,1.592559814453125,-3.78326416015625,0.34393310546875,0.0,4.0,4.0,4.0,4.0,85.0,event
13:45:02.820,0.0,0.0,0.0,0.0,0.0,0.0,0.0,0.0,0.0,0.0,0.0,0.0,0.0,0.0,0.0,0.0,0.0,0.0,0.0,0.0,838.9011,797.8022,787.72894,829.2308,809.4872,-0.011474609375,0.02130126953125,0.9884033203125,1.592559814453125,-3.78326416015625,0.34393310546875,0.0,4.0,4.0,4.0,4.0,85.0,event
13:45:02.855,0.0,0.0,0.0,0.0,0.0,0.0,0.0,0.0,0.0,0.0,0.0,0.0,0.0,0.0,0.0,0.0,0.0,0.0,0.0,0.0,811.0989,829.6337,784.90845,811.0989,857.8388,-0.00640869140625,0.01812744140625,0.98602294921875,2.444915771484375,-3.790740966796875,0.37384033203125,0.0,4.0,4.0,4.0,4.0,85.0,event
13:45:02.856,0.0,0.0,0.0,0.0,0.0,0.0,0.0,0.0,0.0,0.0,0.0,0.0,0.0,0.0,0.0,0.0,0.0,0.0,0.0,0.0,785.7143,845.7509,797.8022,794.57874,732.1245,-0.00640869140625,0.01812744140625,0.98602294921875,2.444915771484375,-3.790740966796875,0.37384033203125,0.0,4.0,4.0,4.0,4.0,85.0,event
13:45:02.859,0.0,0.0,0.0,0.0,0.0,0.0,0.0,0.0,0.0,0.0,0.0,0.0,0.0,0.0,0.0,0.0,0.0,0.0,0.0,0.0,782.8938,858.6447,819.5604,786.1172,689.011,-0.00640869140625,0.01812744140625,0.98602294921875,2.444915771484375,-3.790740966796875,0.37384033203125,0.0,4.0,4.0,4.0,4.0,85.0,event
13:45:02.860,0.0,0.0,0.0,0.0,0.0,0.0,0.0,0.0,0.0,0.0,0.0,0.0,0.0,0.0,0.0,0.0,0.0,0.0,0.0,0.0,801.4286,824.7985,826.0073,799.011,818.3516,-0.00640869140625,0.01812744140625,0.98602294921875,2.444915771484375,-3.790740966796875,0.37384033203125,0.0,4.0,4.0,4.0,4.0,85.0,event
13:45:02.861,0.0,0.0,0.0,0.0,0.0,0.0,0.0,0.0,0.0,0.0,0.0,0.0,0.0,0.0,0.0,0.0,0.0,0.0,0.0,0.0,822.381,809.0842,791.75824,823.9927,765.56775,-0.00640869140625,0.01812744140625,0.98602294921875,2.444915771484375,-3.790740966796875,0.37384033203125,0.0,4.0,4.0,4.0,4.0,85.0,event
13:45:02.861,0.0,0.0,0.0,0.0,0.0,0.0,0.0,0.0,0.0,0.0,0.0,0.0,0.0,0.0,0.0,0.0,0.0,0.0,0.0,0.0,823.9927,805.4579,800.6227,827.2161,788.93774,-0.00640869140625,0.01812744140625,0.98602294921875,2.444915771484375,-3.790740966796875,0.37384033203125,0.0,4.0,4.0,4.0,4.0,85.0,event
13:45:02.862,0.0,0.0,0.0,0.0,0.0,0.0,0.0,0.0,0.0,0.0,0.0,0.0,0.0,0.0,0.0,0.0,0.0,0.0,0.0,0.0,796.99634,793.7729,813.91943,794.17584,881.2088,-0.00640869140625,0.01812744140625,0.98602294921875,2.444915771484375,-3.790740966796875,0.37384033203125,0.0,4.0,4.0,4.0,4.0,85.0,event
13:45:02.863,0.0,0.0,0.0,0.0,0.0,0.0,0.0,0.0,0.0,0.0,0.0,0.0,0.0,0.0,0.0,0.0,0.0,0.0,0.0,0.0,775.2381,785.7143,826.8132,776.4469,984.7619,-0.00640869140625,0.01812744140625,0.98602294921875,2.444915771484375,-3.790740966796875,0.37384033203125,0.0,4.0,4.0,4.0,4.0,85.0,event
13:45:02.864,0.0,0.0,0.0,0.0,0.0,0.0,0.0,0.0,0.0,0.0,0.0,0.0,0.0,0.0,0.0,0.0,0.0,0.0,0.0,0.0,794.17584,815.5311,795.38464,797.3993,977.1062,-0.00640869140625,0.01812744140625,0.98602294921875,2.444915771484375,-3.790740966796875,0.37384033203125,0.0,4.0,4.0,4.0,4.0,85.0,event
13:45:02.865,0.0,0.0,0.0,0.0,0.0,0.0,0.0,0.0,0.0,0.0,0.0,0.0,0.0,0.0,0.0,0.0,0.0,0.0,0.0,0.0,821.978,830.4396,799.011,813.91943,766.77655,-0.00640869140625,0.01812744140625,0.98602294921875,2.444915771484375,-3.790740966796875,0.37384033203125,0.0,4.0,4.0,4.0,4.0,85.0,event
13:45:02.865,0.0,0.0,0.0,0.0,0.0,0.0,0.0,0.0,0.0,0.0,0.0,0.0,0.0,0.0,0.0,0.0,0.0,0.0,0.0,0.0,822.381,804.2491,846.1539,815.5311,707.9487,-0.00640869140625,0.01812744140625,0.98602294921875,2.444915771484375,-3.790740966796875,0.37384033203125,0.0,4.0,4.0,4.0,4.0,85.0,event
13:45:02.866,0.0,0.0,0.0,0.0,0.0,0.0,0.0,0.0,0.0,0.0,0.0,0.0,0.0,0.0,0.0,0.0,0.0,0.0,0.0,0.0,794.57874,791.3553,846.55676,803.44324,792.96704,-0.00640869140625,0.01812744140625,0.98602294921875,2.444915771484375,-3.790740966796875,0.37384033203125,0.0,4.0,4.0,4.0,4.0,85.0,event
13:45:02.935,0.0,0.0,0.0,0.0,0.0,0.0,0.0,0.0,0.0,0.0,0.0,0.0,0.0,0.0,0.0,0.0,0.0,0.0,0.0,0.0,770.80585,818.3516,791.3553,778.46155,789.34064,-0.00640869140625,0.01812744140625,0.98602294921875,2.444915771484375,-3.790740966796875,0.37384033203125,0.0,4.0,4.0,4.0,4.0,85.0,event
13:45:02.936,0.0,0.0,0.0,0.0,0.0,0.0,0.0,0.0,0.0,0.0,0.0,0.0,0.0,0.0,0.0,0.0,0.0,0.0,0.0,0.0,798.60803,842.52747,774.83514,797.8022,681.75824,-0.00640869140625,0.01812744140625,0.98602294921875,2.444915771484375,-3.790740966796875,0.37384033203125,0.0,4.0,4.0,4.0,4.0,85.0,event
13:45:02.936,0.0,0.0,0.0,0.0,0.0,0.0,0.0,0.0,0.0,0.0,0.0,0.0,0.0,0.0,0.0,0.0,0.0,0.0,0.0,0.0,815.12823,841.7216,794.57874,817.9487,720.4396,-0.00640869140625,0.01812744140625,0.98602294921875,2.444915771484375,-3.790740966796875,0.37384033203125,0.0,4.0,4.0,4.0,4.0,85.0,event
13:45:02.937,0.0,0.0,0.0,0.0,0.0,0.0,0.0,0.0,0.0,0.0,0.0,0.0,0.0,0.0,0.0,0.0,0.0,0.0,0.0,0.0,793.36993,807.47253,807.47253,804.2491,822.381,-0.00640869140625,0.01812744140625,0.98602294921875,2.444915771484375,-3.790740966796875,0.37384033203125,0.0,4.0,4.0,4.0,4.0,85.0,event
13:45:02.938,0.0,0.0,0.0,0.0,0.0,0.0,0.0,0.0,0.0,0.0,0.0,0.0,0.0,0.0,0.0,0.0,0.0,0.0,0.0,0.0,796.1905,796.1905,819.5604,797.3993,750.2564,-0.00640869140625,0.01812744140625,0.98602294921875,2.444915771484375,-3.790740966796875,0.37384033203125,0.0,4.0,4.0,4.0,4.0,85.0,event
13:45:02.938,0.0,0.0,0.0,0.0,0.0,0.0,0.0,0.0,0.0,0.0,0.0,0.0,0.0,0.0,0.0,0.0,0.0,0.0,0.0,0.0,794.17584,811.9048,804.2491,789.7436,789.34064,-0.00640869140625,0.01812744140625,0.98602294921875,2.444915771484375,-3.790740966796875,0.37384033203125,0.0,4.0,4.0,4.0,4.0,85.0,event
13:45:02.939,0.0,0.0,0.0,0.0,0.0,0.0,0.0,0.0,0.0,0.0,0.0,0.0,0.0,0.0,0.0,0.0,0.0,0.0,0.0,0.0,814.3223,802.6374,821.1722,806.6667,1046.8132,-0.00640869140625,0.01812744140625,0.98602294921875,2.444915771484375,-3.790740966796875,0.37384033203125,0.0,4.0,4.0,4.0,4.0,85.0,event
13:45:02.939,0.0,0.0,0.0,0.0,0.0,0.0,0.0,0.0,0.0,0.0,0.0,0.0,0.0,0.0,0.0,0.0,0.0,0.0,0.0,0.0,792.5641,811.50183,798.60803,790.14655,904.57874,-0.00640869140625,0.01812744140625,0.98602294921875,2.444915771484375,-3.790740966796875,0.37384033203125,0.0,4.0,4.0,4.0,4.0,85.0,event
13:45:02.940,0.0,0.0,0.0,0.0,0.0,0.0,0.0,0.0,0.0,0.0,0.0,0.0,0.0,0.0,0.0,0.0,0.0,0.0,0.0,0.0,821.1722,826.4103,842.9304,808.2784,933.1868,-0.00640869140625,0.01812744140625,0.98602294921875,2.444915771484375,-3.790740966796875,0.37384033203125,0.0,4.0,4.0,4.0,4.0,85.0,event
13:45:02.941,0.0,0.0,0.0,0.0,0.0,0.0,0.0,0.0,0.0,0.0,0.0,0.0,0.0,0.0,0.0,0.0,0.0,0.0,0.0,0.0,799.81683,806.6667,814.3223,796.1905,757.9121,-0.00640869140625,0.01812744140625,0.98602294921875,2.444915771484375,-3.790740966796875,0.37384033203125,0.0,4.0,4.0,4.0,4.0,85.0,event
13:45:02.944,0.0,0.0,0.0,0.0,0.0,0.0,0.0,0.0,0.0,0.0,0.0,0.0,0.0,0.0,0.0,0.0,0.0,0.0,0.0,0.0,782.0879,814.7253,758.315,786.9231,790.14655,-0.00640869140625,0.01812744140625,0.98602294921875,2.444915771484375,-3.790740966796875,0.37384033203125,0.0,4.0,4.0,4.0,4.0,85.0,event
13:45:02.944,0.0,0.0,0.0,0.0,0.0,0.0,0.0,0.0,0.0,0.0,0.0,0.0,0.0,0.0,0.0,0.0,0.0,0.0,0.0,0.0,788.1319,859.85345,760.32965,787.72894,758.71796,-0.00640869140625,0.01812744140625,0.98602294921875,2.444915771484375,-3.790740966796875,0.37384033203125,0.0,4.0,4.0,4.0,4.0,85.0,event
13:45:02.987,0.0,0.0,0.0,0.0,0.0,0.0,0.0,0.0,0.0,0.0,0.0,0.0,0.0,0.0,0.0,0.0,0.0,0.0,0.0,0.0,801.4286,820.7692,776.04395,792.1612,692.6374,-0.01025390625,0.0189208984375,0.989501953125,1.966400146484375,-3.70849609375,0.770111083984375,0.0,4.0,4.0,4.0,4.0,85.0,event
13:45:02.988,0.0,0.0,0.0,0.0,0.0,0.0,0.0,0.0,0.0,0.0,0.0,0.0,0.0,0.0,0.0,0.0,0.0,0.0,0.0,0.0,811.9048,754.2857,788.5348,794.9817,722.8571,-0.01025390625,0.0189208984375,0.989501953125,1.966400146484375,-3.70849609375,0.770111083984375,0.0,4.0,4.0,4.0,4.0,85.0,event
13:45:02.988,0.0,0.0,0.0,0.0,0.0,0.0,0.0,0.0,0.0,0.0,0.0,0.0,0.0,0.0,0.0,0.0,0.0,0.0,0.0,0.0,826.8132,766.3736,841.7216,817.1429,723.2601,-0.01025390625,0.0189208984375,0.989501953125,1.966400146484375,-3.70849609375,0.770111083984375,0.0,4.0,4.0,4.0,4.0,85.0,event
13:45:02.989,0.0,0.0,0.0,0.0,0.0,0.0,0.0,0.0,0.0,0.0,0.0,0.0,0.0,0.0,0.0,0.0,0.0,0.0,0.0,0.0,840.10986,799.41394,826.4103,836.08057,737.76556,-0.01025390625,0.0189208984375,0.989501953125,1.966400146484375,-3.70849609375,0.770111083984375,0.0,4.0,4.0,4.0,4.0,85.0,event
13:45:02.989,0.0,0.0,0.0,0.0,0.0,0.0,0.0,0.0,0.0,0.0,0.0,0.0,0.0,0.0,0.0,0.0,0.0,0.0,0.0,0.0,826.8132,793.36993,773.6264,815.5311,747.03296,-0.01025390625,0.0189208984375,0.989501953125,1.966400146484375,-3.70849609375,0.770111083984375,0.0,4.0,4.0,4.0,4.0,85.0,event
13:45:02.990,0.0,0.0,0.0,0.0,0.0,0.0,0.0,0.0,0.0,0.0,0.0,0.0,0.0,0.0,0.0,0.0,0.0,0.0,0.0,0.0,778.0586,792.1612,772.01465,753.8828,752.27106,-0.01025390625,0.0189208984375,0.989501953125,1.966400146484375,-3.70849609375,0.770111083984375,0.0,4.0,4.0,4.0,4.0,85.0,event
13:45:02.991,0.0,0.0,0.0,0.0,0.0,0.0,0.0,0.0,0.0,0.0,0.0,0.0,0.0,0.0,0.0,0.0,0.0,0.0,0.0,0.0,766.3736,782.49084,796.5934,776.4469,1078.2417,-0.01025390625,0.0189208984375,0.989501953125,1.966400146484375,-3.70849609375,0.770111083984375,0.0,4.0,4.0,4.0,4.0,85.0,event
13:45:02.991,0.0,0.0,0.0,0.0,0.0,0.0,0.0,0.0,0.0,0.0,0.0,0.0,0.0,0.0,0.0,0.0,0.0,0.0,0.0,0.0,749.85345,782.8938,792.1612,738.1685,990.80585,-0.01025390625,0.0189208984375,0.989501953125,1.966400146484375,-3.70849609375,0.770111083984375,0.0,4.0,4.0,4.0,4.0,85.0,event
13:45:02.992,0.0,0.0,0.0,0.0,0.0,0.0,0.0,0.0,0.0,0.0,0.0,0.0,0.0,0.0,0.0,0.0,0.0,0.0,0.0,0.0,796.99634,786.52014,815.12823,799.81683,760.7326,-0.01025390625,0.0189208984375,0.989501953125,1.966400146484375,-3.70849609375,0.770111083984375,0.0,4.0,4.0,4.0,4.0,85.0,event
13:45:02.993,0.0,0.0,0.0,0.0,0.0,0.0,0.0,0.0,0.0,0.0,0.0,0.0,0.0,0.0,0.0,0.0,0.0,0.0,0.0,0.0,814.7253,786.52014,844.5421,806.6667,642.27106,-0.01025390625,0.0189208984375,0.989501953125,1.966400146484375,-3.70849609375,0.770111083984375,0.0,4.0,4.0,4.0,4.0,85.0,event
13:45:02.993,0.0,0.0,0.0,0.0,0.0,0.0,0.0,0.0,0.0,0.0,0.0,0.0,0.0,0.0,0.0,0.0,0.0,0.0,0.0,0.0,824.3956,790.9524,833.663,803.8461,792.96704,-0.01025390625,0.0189208984375,0.989501953125,1.966400146484375,-3.70849609375,0.770111083984375,0.0,4.0,4.0,4.0,4.0,85.0,event
13:45:02.994,0.0,0.0,0.0,0.0,0.0,0.0,0.0,0.0,0.0,0.0,0.0,0.0,0.0,0.0,0.0,0.0,0.0,0.0,0.0,0.0,809.89014,785.7143,793.7729,793.7729,793.7729,-0.01025390625,0.0189208984375,0.989501953125,1.966400146484375,-3.70849609375,0.770111083984375,0.0,4.0,4.0,4.0,4.0,85.0,event
13:45:03.036,0.0,0.0,0.0,0.0,0.0,0.0,0.0,0.0,0.0,0.0,0.0,0.0,0.0,0.0,0.0,0.0,0.0,0.0,0.0,0.0,811.50183,817.1429,779.2674,811.9048,698.68134,-0.00946044921875,0.02239990234375,0.98876953125,2.0635986328125,-3.24493408203125,-0.1495361328125,0.0,4.0,4.0,4.0,4.0,85.0,event
13:45:03.037,0.0,0.0,0.0,0.0,0.0,0.0,0.0,0.0,0.0,0.0,0.0,0.0,0.0,0.0,0.0,0.0,0.0,0.0,0.0,0.0,826.0073,813.1135,794.57874,825.6044,766.3736,-0.00946044921875,0.02239990234375,0.98876953125,2.0635986328125,-3.24493408203125,-0.1495361328125,0.0,4.0,4.0,4.0,4.0,85.0,event
13:45:03.038,0.0,0.0,0.0,0.0,0.0,0.0,0.0,0.0,0.0,0.0,0.0,0.0,0.0,0.0,0.0,0.0,0.0,0.0,0.0,0.0,820.3663,789.7436,807.0696,811.0989,782.0879,-0.00946044921875,0.02239990234375,0.98876953125,2.0635986328125,-3.24493408203125,-0.1495361328125,0.0,4.0,4.0,4.0,4.0,85.0,event
13:45:03.039,0.0,0.0,0.0,0.0,0.0,0.0,0.0,0.0,0.0,0.0,0.0,0.0,0.0,0.0,0.0,0.0,0.0,0.0,0.0,0.0,799.41394,813.5165,765.9707,779.2674,712.7839,-0.00946044921875,0.02239990234375,0.98876953125,2.0635986328125,-3.24493408203125,-0.1495361328125,0.0,4.0,4.0,4.0,4.0,85.0,event
13:45:03.039,0.0,0.0,0.0,0.0,0.0,0.0,0.0,0.0,0.0,0.0,0.0,0.0,0.0,0.0,0.0,0.0,0.0,0.0,0.0,0.0,784.90845,808.2784,760.32965,774.43225,679.34064,-0.00946044921875,0.02239990234375,0.98876953125,2.0635986328125,-3.24493408203125,-0.1495361328125,0.0,4.0,4.0,4.0,4.0,85.0,event
13:45:03.040,0.0,0.0,0.0,0.0,0.0,0.0,0.0,0.0,0.0,0.0,0.0,0.0,0.0,0.0,0.0,0.0,0.0,0.0,0.0,0.0,831.6484,818.7546,832.8571,825.2015,838.49817,-0.00946044921875,0.02239990234375,0.98876953125,2.0635986328125,-3.24493408203125,-0.1495361328125,0.0,4.0,4.0,4.0,4.0,85.0,event
13:45:03.041,0.0,0.0,0.0,0.0,0.0,0.0,0.0,0.0,0.0,0.0,0.0,0.0,0.0,0.0,0.0,0.0,0.0,0.0,0.0,0.0,769.19415,799.81683,794.17584,763.1502,857.8388,-0.00946044921875,0.02239990234375,0.98876953125,2.0635986328125,-3.24493408203125,-0.1495361328125,0.0,4.0,4.0,4.0,4.0,85.0,event
13:45:03.041,0.0,0.0,0.0,0.0,0.0,0.0,0.0,0.0,0.0,0.0,0.0,0.0,0.0,0.0,0.0,0.0,0.0,0.0,0.0,0.0,812.71063,823.9927,826.8132,801.8315,1012.96704,-0.00946044921875,0.02239990234375,0.98876953125,2.0635986328125,-3.24493408203125,-0.1495361328125,0.0,4.0,4.0,4.0,4.0,85.0,event
13:45:03.042,0.0,0.0,0.0,0.0,0.0,0.0,0.0,0.0,0.0,0.0,0.0,0.0,0.0,0.0,0.0,0.0,0.0,0.0,0.0,0.0,802.23444,779.67035,779.2674,785.7143,667.6557,-0.00946044921875,0.02239990234375,0.98876953125,2.0635986328125,-3.24493408203125,-0.1495361328125,0.0,4.0,4.0,4.0,4.0,85.0,event
13:45:03.043,0.0,0.0,0.0,0.0,0.0,0.0,0.0,0.0,0.0,0.0,0.0,0.0,0.0,0.0,0.0,0.0,0.0,0.0,0.0,0.0,819.5604,779.2674,781.685,805.4579,797.8022,-0.00946044921875,0.02239990234375,0.98876953125,2.0635986328125,-3.24493408203125,-0.1495361328125,0.0,4.0,4.0,4.0,4.0,85.0,event
13:45:03.043,0.0,0.0,0.0,0.0,0.0,0.0,0.0,0.0,0.0,0.0,0.0,0.0,0.0,0.0,0.0,0.0,0.0,0.0,0.0,0.0,809.0842,821.978,811.9048,808.2784,960.58606,-0.00946044921875,0.02239990234375,0.98876953125,2.0635986328125,-3.24493408203125,-0.1495361328125,0.0,4.0,4.0,4.0,4.0,85.0,event
13:45:03.044,0.0,0.0,0.0,0.0,0.0,0.0,0.0,0.0,0.0,0.0,0.0,0.0,0.0,0.0,0.0,0.0,0.0,0.0,0.0,0.0,807.8755,846.9597,786.1172,804.65204,817.5458,-0.00946044921875,0.02239990234375,0.98876953125,2.0635986328125,-3.24493408203125,-0.1495361328125,0.0,4.0,4.0,4.0,4.0,85.0,event
13:45:03.088,0.0,0.0,0.0,0.0,0.0,0.0,0.0,0.0,0.0,0.0,0.0,0.0,0.0,0.0,0.0,0.0,0.0,0.0,0.0,0.0,845.7509,867.1062,787.72894,842.52747,705.5311,-0.0123291015625,0.01947021484375,0.98773193359375,1.936492919921875,-3.626251220703125,0.560760498046875,0.0,4.0,4.0,4.0,4.0,85.0,event
13:45:03.089,0.0,0.0,0.0,0.0,0.0,0.0,0.0,0.0,0.0,0.0,0.0,0.0,0.0,0.0,0.0,0.0,0.0,0.0,0.0,0.0,832.8571,841.31866,826.4103,828.8278,715.2015,-0.0123291015625,0.01947021484375,0.98773193359375,1.936492919921875,-3.626251220703125,0.560760498046875,0.0,4.0,4.0,4.0,4.0,85.0,event
13:45:03.090,0.0,0.0,0.0,0.0,0.0,0.0,0.0,0.0,0.0,0.0,0.0,0.0,0.0,0.0,0.0,0.0,0.0,0.0,0.0,0.0,761.13556,810.696,828.4249,755.4945,724.4689,-0.0123291015625,0.01947021484375,0.98773193359375,1.936492919921875,-3.626251220703125,0.560760498046875,0.0,4.0,4.0,4.0,4.0,85.0,event
13:45:03.092,0.0,0.0,0.0,0.0,0.0,0.0,0.0,0.0,0.0,0.0,0.0,0.0,0.0,0.0,0.0,0.0,0.0,0.0,0.0,0.0,753.47986,814.7253,811.50183,756.30035,692.6374,-0.0123291015625,0.01947021484375,0.98773193359375,1.936492919921875,-3.626251220703125,0.560760498046875,0.0,4.0,4.0,4.0,4.0,85.0,event
13:45:03.093,0.0,0.0,0.0,0.0,0.0,0.0,0.0,0.0,0.0,0.0,0.0,0.0,0.0,0.0,0.0,0.0,0.0,0.0,0.0,0.0,775.64105,769.59705,801.8315,792.5641,754.68866,-0.0123291015625,0.01947021484375,0.98773193359375,1.936492919921875,-3.626251220703125,0.560760498046875,0.0,4.0,4.0,4.0,4.0,85.0,event
13:45:03.094,0.0,0.0,0.0,0.0,0.0,0.0,0.0,0.0,0.0,0.0,0.0,0.0,0.0,0.0,0.0,0.0,0.0,0.0,0.0,0.0,785.31134,766.77655,796.5934,793.36993,960.989,-0.0123291015625,0.01947021484375,0.98773193359375,1.936492919921875,-3.626251220703125,0.560760498046875,0.0,4.0,4.0,4.0,4.0,85.0,event
13:45:03.095,0.0,0.0,0.0,0.0,0.0,0.0,0.0,0.0,0.0,0.0,0.0,0.0,0.0,0.0,0.0,0.0,0.0,0.0,0.0,0.0,810.293,826.4103,763.1502,792.1612,949.707,-0.0123291015625,0.01947021484375,0.98773193359375,1.936492919921875,-3.626251220703125,0.560760498046875,0.0,4.0,4.0,4.0,4.0,85.0,event
13:45:03.096,0.0,0.0,0.0,0.0,0.0,0.0,0.0,0.0,0.0,0.0,0.0,0.0,0.0,0.0,0.0,0.0,0.0,0.0,0.0,0.0,842.9304,850.989,766.3736,822.381,780.07324,-0.0123291015625,0.01947021484375,0.98773193359375,1.936492919921875,-3.626251220703125,0.560760498046875,0.0,4.0,4.0,4.0,4.0,85.0,event
13:45:03.097,0.0,0.0,0.0,0.0,0.0,0.0,0.0,0.0,0.0,0.0,0.0,0.0,0.0,0.0,0.0,0.0,0.0,0.0,0.0,0.0,861.4652,834.4689,825.6044,860.2564,724.0659,-0.0123291015625,0.01947021484375,0.98773193359375,1.936492919921875,-3.626251220703125,0.560760498046875,0.0,4.0,4.0,4.0,4.0,85.0,event
13:45:03.099,0.0,0.0,0.0,0.0,0.0,0.0,0.0,0.0,0.0,0.0,0.0,0.0,0.0,0.0,0.0,0.0,0.0,0.0,0.0,0.0,828.022,813.5165,845.7509,840.9158,933.9927,-0.0123291015625,0.01947021484375,0.98773193359375,1.936492919921875,-3.626251220703125,0.560760498046875,0.0,4.0,4.0,4.0,4.0,85.0,event
13:45:03.100,0.0,0.0,0.0,0.0,0.0,0.0,0.0,0.0,0.0,0.0,0.0,0.0,0.0,0.0,0.0,0.0,0.0,0.0,0.0,0.0,767.1795,834.0659,792.5641,764.7619,905.78754,-0.0123291015625,0.01947021484375,0.98773193359375,1.936492919921875,-3.626251220703125,0.560760498046875,0.0,4.0,4.0,4.0,4.0,85.0,event
13:45:03.100,0.0,0.0,0.0,0.0,0.0,0.0,0.0,0.0,0.0,0.0,0.0,0.0,0.0,0.0,0.0,0.0,0.0,0.0,0.0,0.0,754.68866,824.3956,749.45056,739.3773,620.5128,-0.0123291015625,0.01947021484375,0.98773193359375,1.936492919921875,-3.626251220703125,0.560760498046875,0.0,4.0,4.0,4.0,4.0,85.0,event
13:45:03.135,0.0,0.0,0.0,0.0,0.0,0.0,0.0,0.0,0.0,0.0,0.0,0.0,0.0,0.0,0.0,0.0,0.0,0.0,0.0,0.0,794.9817,813.5165,783.69965,781.685,747.8388,-0.01275634765625,0.015625,0.986572265625,2.115936279296875,-3.4991455078125,0.0897216796875,0.0,4.0,4.0,4.0,4.0,85.0,event
13:45:03.136,0.0,0.0,0.0,0.0,0.0,0.0,0.0,0.0,0.0,0.0,0.0,0.0,0.0,0.0,0.0,0.0,0.0,0.0,0.0,0.0,823.9927,791.3553,808.2784,818.7546,871.53845,-0.01275634765625,0.015625,0.986572265625,2.115936279296875,-3.4991455078125,0.0897216796875,0.0,4.0,4.0,4.0,4.0,85.0,event
13:45:03.136,0.0,0.0,0.0,0.0,0.0,0.0,0.0,0.0,0.0,0.0,0.0,0.0,0.0,0.0,0.0,0.0,0.0,0.0,0.0,0.0,813.91943,769.59705,777.6557,821.1722,832.0513,-0.01275634765625,0.015625,0.986572265625,2.115936279296875,-3.4991455078125,0.0897216796875,0.0,4.0,4.0,4.0,4.0,85.0,event
13:45:03.137,0.0,0.0,0.0,0.0,0.0,0.0,0.0,0.0,0.0,0.0,0.0,0.0,0.0,0.0,0.0,0.0,0.0,0.0,0.0,0.0,816.337,826.4103,770.80585,815.12823,727.28937,-0.01275634765625,0.015625,0.986572265625,2.115936279296875,-3.4991455078125,0.0897216796875,0.0,4.0,4.0,4.0,4.0,85.0,event
13:45:03.137,0.0,0.0,0.0,0.0,0.0,0.0,0.0,0.0,0.0,0.0,0.0,0.0,0.0,0.0,0.0,0.0,0.0,0.0,0.0,0.0,809.89014,828.022,810.696,801.02563,685.38464,-0.01275634765625,0.015625,0.986572265625,2.115936279296875,-3.4991455078125,0.0897216796875,0.0,4.0,4.0,4.0,4.0,85.0,event
13:45:03.137,0.0,0.0,0.0,0.0,0.0,0.0,0.0,0.0,0.0,0.0,0.0,0.0,0.0,0.0,0.0,0.0,0.0,0.0,0.0,0.0,798.20514,798.60803,854.21246,784.90845,803.0403,-0.01275634765625,0.015625,0.986572265625,2.115936279296875,-3.4991455078125,0.0897216796875,0.0,4.0,4.0,4.0,4.0,85.0,event
13:45:03.138,0.0,0.0,0.0,0.0,0.0,0.0,0.0,0.0,0.0,0.0,0.0,0.0,0.0,0.0,0.0,0.0,0.0,0.0,0.0,0.0,796.99634,791.75824,845.34796,787.72894,882.01465,-0.01275634765625,0.015625,0.986572265625,2.115936279296875,-3.4991455078125,0.0897216796875,0.0,4.0,4.0,4.0,4.0,85.0,event
13:45:03.138,0.0,0.0,0.0,0.0,0.0,0.0,0.0,0.0,0.0,0.0,0.0,0.0,0.0,0.0,0.0,0.0,0.0,0.0,0.0,0.0,803.44324,782.0879,793.36993,803.44324,789.7436,-0.01275634765625,0.015625,0.986572265625,2.115936279296875,-3.4991455078125,0.0897216796875,0.0,4.0,4.0,4.0,4.0,85.0,event
13:45:03.138,0.0,0.0,0.0,0.0,0.0,0.0,0.0,0.0,0.0,0.0,0.0,0.0,0.0,0.0,0.0,0.0,0.0,0.0,0.0,0.0,799.41394,794.57874,767.98535,795.78754,806.6667,-0.01275634765625,0.015625,0.986572265625,2.115936279296875,-3.4991455078125,0.0897216796875,0.0,4.0,4.0,4.0,4.0,85.0,event
13:45:03.139,0.0,0.0,0.0,0.0,0.0,0.0,0.0,0.0,0.0,0.0,0.0,0.0,0.0,0.0,0.0,0.0,0.0,0.0,0.0,0.0,783.2967,786.9231,830.4396,776.4469,800.2198,-0.01275634765625,0.015625,0.986572265625,2.115936279296875,-3.4991455078125,0.0897216796875,0.0,4.0,4.0,4.0,4.0,85.0,event
13:45:03.139,0.0,0.0,0.0,0.0,0.0,0.0,0.0,0.0,0.0,0.0,0.0,0.0,0.0,0.0,0.0,0.0,0.0,0.0,0.0,0.0,763.5531,784.10254,774.0293,760.7326,989.19415,-0.01275634765625,0.015625,0.986572265625,2.115936279296875,-3.4991455078125,0.0897216796875,0.0,4.0,4.0,4.0,4.0,85.0,event
13:45:03.140,0.0,0.0,0.0,0.0,0.0,0.0,0.0,0.0,0.0,0.0,0.0,0.0,0.0,0.0,0.0,0.0,0.0,0.0,0.0,0.0,814.7253,766.3736,838.9011,808.2784,712.7839,-0.01275634765625,0.015625,0.986572265625,2.115936279296875,-3.4991455078125,0.0897216796875,0.0,4.0,4.0,4.0,4.0,85.0,event
13:45:03.142,0.0,0.0,0.0,0.0,0.0,0.0,0.0,0.0,0.0,0.0,0.0,0.0,0.0,0.0,0.0,0.0,0.0,0.0,0.0,0.0,818.3516,768.3883,794.57874,825.6044,811.9048,-0.01275634765625,0.015625,0.986572265625,2.115936279296875,-3.4991455078125,0.0897216796875,0.0,4.0,4.0,4.0,4.0,85.0,event
13:45:03.143,0.0,0.0,0.0,0.0,0.0,0.0,0.0,0.0,0.0,0.0,0.0,0.0,0.0,0.0,0.0,0.0,0.0,0.0,0.0,0.0,817.1429,793.36993,782.49084,832.0513,770.0,-0.01275634765625,0.015625,0.986572265625,2.115936279296875,-3.4991455078125,0.0897216796875,0.0,4.0,4.0,4.0,4.0,85.0,event
13:45:03.146,0.0,0.0,0.0,0.0,0.0,0.0,0.0,0.0,0.0,0.0,0.0,0.0,0.0,0.0,0.0,0.0,0.0,0.0,0.0,0.0,780.07324,778.0586,783.2967,786.9231,712.381,-0.01275634765625,0.015625,0.986572265625,2.115936279296875,-3.4991455078125,0.0897216796875,0.0,4.0,4.0,4.0,4.0,85.0,event
13:45:03.147,0.0,0.0,0.0,0.0,0.0,0.0,0.0,0.0,0.0,0.0,0.0,0.0,0.0,0.0,0.0,0.0,0.0,0.0,0.0,0.0,764.35895,749.0476,790.9524,763.1502,734.1392,-0.01275634765625,0.015625,0.986572265625,2.115936279296875,-3.4991455078125,0.0897216796875,0.0,4.0,4.0,4.0,4.0,85.0,event
13:45:03.148,0.0,0.0,0.0,0.0,0.0,0.0,0.0,0.0,0.0,0.0,0.0,0.0,0.0,0.0,0.0,0.0,0.0,0.0,0.0,0.0,764.35895,734.94507,796.1905,772.4176,849.7802,-0.01275634765625,0.015625,0.986572265625,2.115936279296875,-3.4991455078125,0.0897216796875,0.0,4.0,4.0,4.0,4.0,85.0,event
13:45:03.148,0.0,0.0,0.0,0.0,0.0,0.0,0.0,0.0,0.0,0.0,0.0,0.0,0.0,0.0,0.0,0.0,0.0,0.0,0.0,0.0,770.80585,749.0476,812.71063,788.5348,902.96704,-0.01275634765625,0.015625,0.986572265625,2.115936279296875,-3.4991455078125,0.0897216796875,0.0,4.0,4.0,4.0,4.0,85.0,event
13:45:03.148,0.0,0.0,0.0,0.0,0.0,0.0,0.0,0.0,0.0,0.0,0.0,0.0,0.0,0.0,0.0,0.0,0.0,0.0,0.0,0.0,773.6264,773.6264,830.4396,796.1905,892.0879,-0.01275634765625,0.015625,0.986572265625,2.115936279296875,-3.4991455078125,0.0897216796875,0.0,4.0,4.0,4.0,4.0,85.0,event
13:45:03.149,0.0,0.0,0.0,0.0,0.0,0.0,0.0,0.0,0.0,0.0,0.0,0.0,0.0,0.0,0.0,0.0,0.0,0.0,0.0,0.0,784.5055,817.9487,826.4103,804.2491,826.8132,-0.01275634765625,0.015625,0.986572265625,2.115936279296875,-3.4991455078125,0.0897216796875,0.0,4.0,4.0,4.0,4.0,85.0,event
13:45:03.149,0.0,0.0,0.0,0.0,0.0,0.0,0.0,0.0,0.0,0.0,0.0,0.0,0.0,0.0,0.0,0.0,0.0,0.0,0.0,0.0,807.47253,765.9707,800.2198,811.9048,997.25275,-0.01275634765625,0.015625,0.986572265625,2.115936279296875,-3.4991455078125,0.0897216796875,0.0,4.0,4.0,4.0,4.0,85.0,event
13:45:03.150,0.0,0.0,0.0,0.0,0.0,0.0,0.0,0.0,0.0,0.0,0.0,0.0,0.0,0.0,0.0,0.0,0.0,0.0,0.0,0.0,829.2308,792.1612,792.96704,844.94507,707.1429,-0.01275634765625,0.015625,0.986572265625,2.115936279296875,-3.4991455078125,0.0897216796875,0.0,4.0,4.0,4.0,4.0,85.0,event
13:45:03.150,0.0,0.0,0.0,0.0,0.0,0.0,0.0,0.0,0.0,0.0,0.0,0.0,0.0,0.0,0.0,0.0,0.0,0.0,0.0,0.0,825.6044,740.989,809.89014,835.6777,995.2381,-0.01275634765625,0.015625,0.986572265625,2.115936279296875,-3.4991455078125,0.0897216796875,0.0,4.0,4.0,4.0,4.0,85.0,event
13:45:03.151,0.0,0.0,0.0,0.0,0.0,0.0,0.0,0.0,0.0,0.0,0.0,0.0,0.0,0.0,0.0,0.0,0.0,0.0,0.0,0.0,799.41394,779.67035,748.24176,812.3077,720.4396,-0.01275634765625,0.015625,0.986572265625,2.115936279296875,-3.4991455078125,0.0897216796875,0.0,4.0,4.0,4.0,4.0,85.0,event
13:45:03.186,0.0,0.0,0.0,0.0,0.0,0.0,0.0,0.0,0.0,0.0,0.0,0.0,0.0,0.0,0.0,0.0,0.0,0.0,0.0,0.0,786.1172,774.43225,794.17584,793.36993,759.92676,-0.00946044921875,0.02197265625,0.98736572265625,2.31781005859375,-3.42437744140625,-0.0299072265625,0.0,4.0,4.0,4.0,4.0,85.0,event
13:45:03.187,0.0,0.0,0.0,0.0,0.0,0.0,0.0,0.0,0.0,0.0,0.0,0.0,0.0,0.0,0.0,0.0,0.0,0.0,0.0,0.0,787.326,778.86444,835.2747,791.75824,761.9414,-0.00946044921875,0.02197265625,0.98736572265625,2.31781005859375,-3.42437744140625,-0.0299072265625,0.0,4.0,4.0,4.0,4.0,85.0,event
13:45:03.187,0.0,0.0,0.0,0.0,0.0,0.0,0.0,0.0,0.0,0.0,0.0,0.0,0.0,0.0,0.0,0.0,0.0,0.0,0.0,0.0,793.36993,758.315,807.8755,786.9231,707.1429,-0.00946044921875,0.02197265625,0.98736572265625,2.31781005859375,-3.42437744140625,-0.0299072265625,0.0,4.0,4.0,4.0,4.0,85.0,event
13:45:03.188,0.0,0.0,0.0,0.0,0.0,0.0,0.0,0.0,0.0,0.0,0.0,0.0,0.0,0.0,0.0,0.0,0.0,0.0,0.0,0.0,805.4579,780.4762,788.1319,807.0696,723.2601,-0.00946044921875,0.02197265625,0.98736572265625,2.31781005859375,-3.42437744140625,-0.0299072265625,0.0,4.0,4.0,4.0,4.0,85.0,event
13:45:03.188,0.0,0.0,0.0,0.0,0.0,0.0,0.0,0.0,0.0,0.0,0.0,0.0,0.0,0.0,0.0,0.0,0.0,0.0,0.0,0.0,791.3553,789.7436,821.978,813.5165,788.1319,-0.00946044921875,0.02197265625,0.98736572265625,2.31781005859375,-3.42437744140625,-0.0299072265625,0.0,4.0,4.0,4.0,4.0,85.0,event
13:45:03.189,0.0,0.0,0.0,0.0,0.0,0.0,0.0,0.0,0.0,0.0,0.0,0.0,0.0,0.0,0.0,0.0,0.0,0.0,0.0,0.0,759.92676,777.25275,830.84247,778.46155,820.7692,-0.00946044921875,0.02197265625,0.98736572265625,2.31781005859375,-3.42437744140625,-0.0299072265625,0.0,4.0,4.0,4.0,4.0,85.0,event
13:45:03.189,0.0,0.0,0.0,0.0,0.0,0.0,0.0,0.0,0.0,0.0,0.0,0.0,0.0,0.0,0.0,0.0,0.0,0.0,0.0,0.0,768.7912,783.2967,811.0989,774.0293,782.8938,-0.00946044921875,0.02197265625,0.98736572265625,2.31781005859375,-3.42437744140625,-0.0299072265625,0.0,4.0,4.0,4.0,4.0,85.0,event
13:45:03.189,0.0,0.0,0.0,0.0,0.0,0.0,0.0,0.0,0.0,0.0,0.0,0.0,0.0,0.0,0.0,0.0,0.0,0.0,0.0,0.0,800.6227,767.98535,799.41394,804.2491,891.685,-0.00946044921875,0.02197265625,0.98736572265625,2.31781005859375,-3.42437744140625,-0.0299072265625,0.0,4.0,4.0,4.0,4.0,85.0,event
13:45:03.190,0.0,0.0,0.0,0.0,0.0,0.0,0.0,0.0,0.0,0.0,0.0,0.0,0.0,0.0,0.0,0.0,0.0,0.0,0.0,0.0,816.337,792.1612,786.1172,841.31866,1188.6447,-0.00946044921875,0.02197265625,0.98736572265625,2.31781005859375,-3.42437744140625,-0.0299072265625,0.0,4.0,4.0,4.0,4.0,85.0,event
13:45:03.191,0.0,0.0,0.0,0.0,0.0,0.0,0.0,0.0,0.0,0.0,0.0,0.0,0.0,0.0,0.0,0.0,0.0,0.0,0.0,0.0,809.4872,804.2491,855.82416,813.5165,675.31134,-0.00946044921875,0.02197265625,0.98736572265625,2.31781005859375,-3.42437744140625,-0.0299072265625,0.0,4.0,4.0,4.0,4.0,85.0,event
13:45:03.191,0.0,0.0,0.0,0.0,0.0,0.0,0.0,0.0,0.0,0.0,0.0,0.0,0.0,0.0,0.0,0.0,0.0,0.0,0.0,0.0,788.5348,812.71063,826.0073,796.99634,676.9231,-0.00946044921875,0.02197265625,0.98736572265625,2.31781005859375,-3.42437744140625,-0.0299072265625,0.0,4.0,4.0,4.0,4.0,85.0,event
13:45:03.191,0.0,0.0,0.0,0.0,0.0,0.0,0.0,0.0,0.0,0.0,0.0,0.0,0.0,0.0,0.0,0.0,0.0,0.0,0.0,0.0,830.84247,833.663,815.12823,852.1978,979.92676,-0.00946044921875,0.02197265625,0.98736572265625,2.31781005859375,-3.42437744140625,-0.0299072265625,0.0,4.0,4.0,4.0,4.0,85.0,event
13:45:03.220,0.0,0.0,0.0,0.0,0.0,0.0,0.0,0.0,0.0,0.0,0.0,0.0,0.0,0.0,0.0,0.0,0.0,0.0,0.0,0.0,779.2674,823.9927,794.17584,786.9231,689.011,-0.01220703125,0.01715087890625,0.98565673828125,1.77947998046875,-3.910369873046875,0.471038818359375,0.0,4.0,4.0,4.0,4.0,85.0,event
13:45:03.220,0.0,0.0,0.0,0.0,0.0,0.0,0.0,0.0,0.0,0.0,0.0,0.0,0.0,0.0,0.0,0.0,0.0,0.0,0.0,0.0,780.4762,777.6557,793.7729,788.5348,671.685,-0.01220703125,0.01715087890625,0.98565673828125,1.77947998046875,-3.910369873046875,0.471038818359375,0.0,4.0,4.0,4.0,4.0,85.0,event
13:45:03.221,0.0,0.0,0.0,0.0,0.0,0.0,0.0,0.0,0.0,0.0,0.0,0.0,0.0,0.0,0.0,0.0,0.0,0.0,0.0,0.0,816.7399,784.10254,819.5604,832.8571,704.7253,-0.01220703125,0.01715087890625,0.98565673828125,1.77947998046875,-3.910369873046875,0.471038818359375,0.0,4.0,4.0,4.0,4.0,85.0,event
13:45:03.222,0.0,0.0,0.0,0.0,0.0,0.0,0.0,0.0,0.0,0.0,0.0,0.0,0.0,0.0,0.0,0.0,0.0,0.0,0.0,0.0,816.337,817.1429,816.337,824.7985,773.6264,-0.01220703125,0.01715087890625,0.98565673828125,1.77947998046875,-3.910369873046875,0.471038818359375,0.0,4.0,4.0,4.0,4.0,85.0,event
13:45:03.225,0.0,0.0,0.0,0.0,0.0,0.0,0.0,0.0,0.0,0.0,0.0,0.0,0.0,0.0,0.0,0.0,0.0,0.0,0.0,0.0,798.60803,821.5751,780.87915,798.60803,735.34796,-0.01220703125,0.01715087890625,0.98565673828125,1.77947998046875,-3.910369873046875,0.471038818359375,0.0,4.0,4.0,4.0,4.0,85.0,event
13:45:03.225,0.0,0.0,0.0,0.0,0.0,0.0,0.0,0.0,0.0,0.0,0.0,0.0,0.0,0.0,0.0,0.0,0.0,0.0,0.0,0.0,805.8608,822.7839,793.7729,800.6227,765.16486,-0.01220703125,0.01715087890625,0.98565673828125,1.77947998046875,-3.910369873046875,0.471038818359375,0.0,4.0,4.0,4.0,4.0,85.0,event
13:45:03.226,0.0,0.0,0.0,0.0,0.0,0.0,0.0,0.0,0.0,0.0,0.0,0.0,0.0,0.0,0.0,0.0,0.0,0.0,0.0,0.0,819.15753,809.0842,832.0513,809.4872,822.7839,-0.01220703125,0.01715087890625,0.98565673828125,1.77947998046875,-3.910369873046875,0.471038818359375,0.0,4.0,4.0,4.0,4.0,85.0,event
13:45:03.227,0.0,0.0,0.0,0.0,0.0,0.0,0.0,0.0,0.0,0.0,0.0,0.0,0.0,0.0,0.0,0.0,0.0,0.0,0.0,0.0,808.68134,817.1429,842.52747,818.3516,994.43225,-0.01220703125,0.01715087890625,0.98565673828125,1.77947998046875,-3.910369873046875,0.471038818359375,0.0,4.0,4.0,4.0,4.0,85.0,event
13:45:03.228,0.0,0.0,0.0,0.0,0.0,0.0,0.0,0.0,0.0,0.0,0.0,0.0,0.0,0.0,0.0,0.0,0.0,0.0,0.0,0.0,771.6117,813.1135,784.90845,782.49084,978.71796,-0.01220703125,0.01715087890625,0.98565673828125,1.77947998046875,-3.910369873046875,0.471038818359375,0.0,4.0,4.0,4.0,4.0,85.0,event
13:45:03.229,0.0,0.0,0.0,0.0,0.0,0.0,0.0,0.0,0.0,0.0,0.0,0.0,0.0,0.0,0.0,0.0,0.0,0.0,0.0,0.0,762.3443,804.2491,778.86444,757.50916,716.0073,-0.01220703125,0.01715087890625,0.98565673828125,1.77947998046875,-3.910369873046875,0.471038818359375,0.0,4.0,4.0,4.0,4.0,85.0,event
13:45:03.230,0.0,0.0,0.0,0.0,0.0,0.0,0.0,0.0,0.0,0.0,0.0,0.0,0.0,0.0,0.0,0.0,0.0,0.0,0.0,0.0,798.20514,764.35895,803.8461,803.44324,851.79486,-0.01220703125,0.01715087890625,0.98565673828125,1.77947998046875,-3.910369873046875,0.471038818359375,0.0,4.0,4.0,4.0,4.0,85.0,event
13:45:03.230,0.0,0.0,0.0,0.0,0.0,0.0,0.0,0.0,0.0,0.0,0.0,0.0,0.0,0.0,0.0,0.0,0.0,0.0,0.0,0.0,783.2967,776.8498,821.978,781.28204,768.3883,-0.01220703125,0.01715087890625,0.98565673828125,1.77947998046875,-3.910369873046875,0.471038818359375,0.0,4.0,4.0,4.0,4.0,85.0,event
13:45:03.304,0.0,0.0,0.0,0.0,0.0,0.0,0.0,0.0,0.0,0.0,0.0,0.0,0.0,0.0,0.0,0.0,0.0,0.0,0.0,0.0,827.619,805.05493,788.93774,823.5897,849.7802,-0.0076904296875,0.01641845703125,0.98681640625,1.86920166015625,-3.790740966796875,-0.306549072265625,0.0,4.0,4.0,4.0,4.0,85.0,event
13:45:03.305,0.0,0.0,0.0,0.0,0.0,0.0,0.0,0.0,0.0,0.0,0.0,0.0,0.0,0.0,0.0,0.0,0.0,0.0,0.0,0.0,834.4689,822.7839,816.337,826.8132,756.7033,-0.0076904296875,0.01641845703125,0.98681640625,1.86920166015625,-3.790740966796875,-0.306549072265625,0.0,4.0,4.0,4.0,4.0,85.0,event
13:45:03.306,0.0,0.0,0.0,0.0,0.0,0.0,0.0,0.0,0.0,0.0,0.0,0.0,0.0,0.0,0.0,0.0,0.0,0.0,0.0,0.0,794.9817,810.293,847.76556,790.9524,748.6447,-0.0076904296875,0.01641845703125,0.98681640625,1.86920166015625,-3.790740966796875,-0.306549072265625,0.0,4.0,4.0,4.0,4.0,85.0,event
13:45:03.306,0.0,0.0,0.0,0.0,0.0,0.0,0.0,0.0,0.0,0.0,0.0,0.0,0.0,0.0,0.0,0.0,0.0,0.0,0.0,0.0,789.34064,793.7729,826.4103,786.1172,794.17584,-0.0076904296875,0.01641845703125,0.98681640625,1.86920166015625,-3.790740966796875,-0.306549072265625,0.0,4.0,4.0,4.0,4.0,85.0,event
13:45:03.307,0.0,0.0,0.0,0.0,0.0,0.0,0.0,0.0,0.0,0.0,0.0,0.0,0.0,0.0,0.0,0.0,0.0,0.0,0.0,0.0,815.9341,761.13556,800.6227,818.7546,770.40295,-0.0076904296875,0.01641845703125,0.98681640625,1.86920166015625,-3.790740966796875,-0.306549072265625,0.0,4.0,4.0,4.0,4.0,85.0,event
13:45:03.308,0.0,0.0,0.0,0.0,0.0,0.0,0.0,0.0,0.0,0.0,0.0,0.0,0.0,0.0,0.0,0.0,0.0,0.0,0.0,0.0,832.4542,776.4469,799.011,840.5128,818.3516,-0.0076904296875,0.01641845703125,0.98681640625,1.86920166015625,-3.790740966796875,-0.306549072265625,0.0,4.0,4.0,4.0,4.0,85.0,event
13:45:03.308,0.0,0.0,0.0,0.0,0.0,0.0,0.0,0.0,0.0,0.0,0.0,0.0,0.0,0.0,0.0,0.0,0.0,0.0,0.0,0.0,801.4286,826.8132,776.04395,815.5311,900.14655,-0.0076904296875,0.01641845703125,0.98681640625,1.86920166015625,-3.790740966796875,-0.306549072265625,0.0,4.0,4.0,4.0,4.0,85.0,event
13:45:03.309,0.0,0.0,0.0,0.0,0.0,0.0,0.0,0.0,0.0,0.0,0.0,0.0,0.0,0.0,0.0,0.0,0.0,0.0,0.0,0.0,761.9414,836.8865,784.5055,772.01465,969.0476,-0.0076904296875,0.01641845703125,0.98681640625,1.86920166015625,-3.790740966796875,-0.306549072265625,0.0,4.0,4.0,4.0,4.0,85.0,event
13:45:03.310,0.0,0.0,0.0,0.0,0.0,0.0,0.0,0.0,0.0,0.0,0.0,0.0,0.0,0.0,0.0,0.0,0.0,0.0,0.0,0.0,776.04395,836.4835,796.99634,768.3883,806.26373,-0.0076904296875,0.01641845703125,0.98681640625,1.86920166015625,-3.790740966796875,-0.306549072265625,0.0,4.0,4.0,4.0,4.0,85.0,event
13:45:03.310,0.0,0.0,0.0,0.0,0.0,0.0,0.0,0.0,0.0,0.0,0.0,0.0,0.0,0.0,0.0,0.0,0.0,0.0,0.0,0.0,797.3993,834.0659,795.38464,799.81683,682.1612,-0.0076904296875,0.01641845703125,0.98681640625,1.86920166015625,-3.790740966796875,-0.306549072265625,0.0,4.0,4.0,4.0,4.0,85.0,event
13:45:03.311,0.0,0.0,0.0,0.0,0.0,0.0,0.0,0.0,0.0,0.0,0.0,0.0,0.0,0.0,0.0,0.0,0.0,0.0,0.0,0.0,817.5458,788.1319,819.5604,813.1135,826.8132,-0.0076904296875,0.01641845703125,0.98681640625,1.86920166015625,-3.790740966796875,-0.306549072265625,0.0,4.0,4.0,4.0,4.0,85.0,event
13:45:03.311,0.0,0.0,0.0,0.0,0.0,0.0,0.0,0.0,0.0,0.0,0.0,0.0,0.0,0.0,0.0,0.0,0.0,0.0,0.0,0.0,807.0696,803.0403,809.4872,817.9487,796.99634,-0.0076904296875,0.01641845703125,0.98681640625,1.86920166015625,-3.790740966796875,-0.306549072265625,0.0,4.0,4.0,4.0,4.0,85.0,event
13:45:03.358,0.0,0.0,0.0,0.0,0.0,0.0,0.0,0.0,0.0,0.0,0.0,0.0,0.0,0.0,0.0,0.0,0.0,0.0,0.0,0.0,806.26373,776.8498,824.3956,797.3993,790.9524,-0.00146484375,0.0177001953125,0.98699951171875,2.10845947265625,-4.0374755859375,0.441131591796875,0.0,4.0,4.0,4.0,4.0,85.0,event
13:45:03.359,0.0,0.0,0.0,0.0,0.0,0.0,0.0,0.0,0.0,0.0,0.0,0.0,0.0,0.0,0.0,0.0,0.0,0.0,0.0,0.0,814.3223,769.19415,830.0366,805.4579,795.38464,-0.00146484375,0.0177001953125,0.98699951171875,2.10845947265625,-4.0374755859375,0.441131591796875,0.0,4.0,4.0,4.0,4.0,85.0,event
13:45:03.360,0.0,0.0,0.0,0.0,0.0,0.0,0.0,0.0,0.0,0.0,0.0,0.0,0.0,0.0,0.0,0.0,0.0,0.0,0.0,0.0,842.1245,834.87177,807.47253,838.0952,895.7143,-0.00146484375,0.0177001953125,0.98699951171875,2.10845947265625,-4.0374755859375,0.441131591796875,0.0,4.0,4.0,4.0,4.0,85.0,event
13:45:03.361,0.0,0.0,0.0,0.0,0.0,0.0,0.0,0.0,0.0,0.0,0.0,0.0,0.0,0.0,0.0,0.0,0.0,0.0,0.0,0.0,830.0366,883.22345,772.8205,835.2747,869.5238,-0.00146484375,0.0177001953125,0.98699951171875,2.10845947265625,-4.0374755859375,0.441131591796875,0.0,4.0,4.0,4.0,4.0,85.0,event
13:45:03.363,0.0,0.0,0.0,0.0,0.0,0.0,0.0,0.0,0.0,0.0,0.0,0.0,0.0,0.0,0.0,0.0,0.0,0.0,0.0,0.0,818.3516,869.92676,828.8278,817.5458,738.5714,-0.00146484375,0.0177001953125,0.98699951171875,2.10845947265625,-4.0374755859375,0.441131591796875,0.0,4.0,4.0,4.0,4.0,85.0,event
13:45:03.364,0.0,0.0,0.0,0.0,0.0,0.0,0.0,0.0,0.0,0.0,0.0,0.0,0.0,0.0,0.0,0.0,0.0,0.0,0.0,0.0,810.293,834.4689,855.82416,795.38464,751.4652,-0.00146484375,0.0177001953125,0.98699951171875,2.10845947265625,-4.0374755859375,0.441131591796875,0.0,4.0,4.0,4.0,4.0,85.0,event
13:45:03.368,0.0,0.0,0.0,0.0,0.0,0.0,0.0,0.0,0.0,0.0,0.0,0.0,0.0,0.0,0.0,0.0,0.0,0.0,0.0,0.0,813.91943,817.5458,747.4359,797.8022,951.7216,-0.00146484375,0.0177001953125,0.98699951171875,2.10845947265625,-4.0374755859375,0.441131591796875,0.0,4.0,4.0,4.0,4.0,85.0,event
13:45:03.369,0.0,0.0,0.0,0.0,0.0,0.0,0.0,0.0,0.0,0.0,0.0,0.0,0.0,0.0,0.0,0.0,0.0,0.0,0.0,0.0,832.4542,829.6337,743.00366,820.3663,1018.20514,-0.00146484375,0.0177001953125,0.98699951171875,2.10845947265625,-4.0374755859375,0.441131591796875,0.0,4.0,4.0,4.0,4.0,85.0,event
13:45:03.370,0.0,0.0,0.0,0.0,0.0,0.0,0.0,0.0,0.0,0.0,0.0,0.0,0.0,0.0,0.0,0.0,0.0,0.0,0.0,0.0,834.0659,788.93774,855.82416,826.8132,764.7619,-0.00146484375,0.0177001953125,0.98699951171875,2.10845947265625,-4.0374755859375,0.441131591796875,0.0,4.0,4.0,4.0,4.0,85.0,event
