TimeStamp,Delta_TP9,Delta_AF7,Delta_AF8,Delta_TP10,Theta_TP9,Theta_AF7,Theta_AF8,Theta_TP10,Alpha_TP9,Alpha_AF7,Alpha_AF8,Alpha_TP10,Beta_TP9,Beta_AF7,Beta_AF8,Beta_TP10,Gamma_TP9,Gamma_AF7,Gamma_AF8,Gamma_TP10,RAW_TP9,RAW_AF7,RAW_AF8,RAW_TP10,AUX_RIGHT,Accelerometer_X,Accelerometer_Y,Accelerometer_Z,Gyro_X,Gyro_Y,Gyro_Z,HeadBandOn,HSI_TP9,HSI_AF7,HSI_AF8,HSI_TP10,Battery,Elements
12:12:40.179,0.62310857,0.55925417,0.31300935,0.6651972,0.54120356,0.1447798,-0.2096407,0.9142732,0.67367864,0.21627307,0.007860282,1.0906339,0.9807004,0.5757404,0.49447295,1.0640422,1.1596147,0.49901173,0.35837433,0.90708053,701.0989,808.68134,805.4579,720.84247,783.69965,0.0074462890625,0.14678955078125,0.98773193359375,-0.6878662109375,2.893524169921875,-2.27294921875,1.0,1.0,1.0,1.0,1.0,90.0,event
12:12:40.180,0.62310857,0.5875754,0.32474917,0.6651972,0.54120356,0.16988496,-0.18580896,0.9142732,0.67367864,0.21303113,-0.057886384,1.0906339,0.9807004,0.5779933,0.48434833,1.0640422,1.1596147,0.49491307,0.36818895,0.90708053,705.5311,808.68134,820.3663,721.2454,727.28937,0.0074462890625,0.14678955078125,0.98773193359375,-0.6878662109375,2.893524169921875,-2.27294921875,1.0,1.0,1.0,1.0,1.0,90.0,event
12:12:40.184,0.62310857,0.5875754,0.32474917,0.6651972,0.54120356,0.16988496,-0.18580896,0.9142732,0.67367864,0.21303113,-0.057886384,1.0906339,0.9807004,0.5779933,0.48434833,1.0640422,1.1596147,0.49491307,0.36818895,0.90708053,700.293,807.8755,815.9341,733.3333,716.4103,0.0074462890625,0.14678955078125,0.98773193359375,-0.6878662109375,2.893524169921875,-2.27294921875,1.0,1.0,1.0,1.0,1.0,90.0,event
12:12:40.184,0.62310857,0.5875754,0.32474917,0.6651972,0.54120356,0.16988496,-0.18580896,0.9142732,0.67367864,0.21303113,-0.057886384,1.0906339,0.9807004,0.5779933,0.48434833,1.0640422,1.1596147,0.49491307,0.36818895,0.90708053,714.3956,808.2784,804.65204,749.0476,774.43225,0.0074462890625,0.14678955078125,0.98773193359375,-0.6878662109375,2.893524169921875,-2.27294921875,1.0,1.0,1.0,1.0,1.0,90.0,event
12:12:40.185,0.62310857,0.5875754,0.32474917,0.6651972,0.54120356,0.16988496,-0.18580896,0.9142732,0.67367864,0.21303113,-0.057886384,1.0906339,0.9807004,0.5779933,0.48434833,1.0640422,1.1596147,0.49491307,0.36818895,0.90708053,753.0769,803.44324,788.93774,761.53845,761.9414,0.0074462890625,0.14678955078125,0.98773193359375,-0.6878662109375,2.893524169921875,-2.27294921875,1.0,1.0,1.0,1.0,1.0,90.0,event
12:12:40.185,0.62310857,0.5875754,0.32474917,0.6651972,0.54120356,0.16988496,-0.18580896,0.9142732,0.67367864,0.21303113,-0.057886384,1.0906339,0.9807004,0.5779933,0.48434833,1.0640422,1.1596147,0.49491307,0.36818895,0.90708053,777.25275,789.7436,803.0403,772.4176,796.5934,0.0074462890625,0.14678955078125,0.98773193359375,-0.6878662109375,2.893524169921875,-2.27294921875,1.0,1.0,1.0,1.0,1.0,90.0,event
12:12:40.186,0.62310857,0.5875754,0.32474917,0.6651972,0.54120356,0.16988496,-0.18580896,0.9142732,0.67367864,0.21303113,-0.057886384,1.0906339,0.9807004,0.5779933,0.48434833,1.0640422,1.1596147,0.49491307,0.36818895,0.90708053,778.46155,795.38464,818.3516,788.5348,803.8461,0.0074462890625,0.14678955078125,0.98773193359375,-0.6878662109375,2.893524169921875,-2.27294921875,1.0,1.0,1.0,1.0,1.0,90.0,event
12:12:40.186,0.62310857,0.5875754,0.32474917,0.6651972,0.54120356,0.16988496,-0.18580896,0.9142732,0.67367864,0.21303113,-0.057886384,1.0906339,0.9807004,0.5779933,0.48434833,1.0640422,1.1596147,0.49491307,0.36818895,0.90708053,771.2088,798.20514,805.4579,810.293,900.14655,0.0074462890625,0.14678955078125,0.98773193359375,-0.6878662109375,2.893524169921875,-2.27294921875,1.0,1.0,1.0,1.0,1.0,90.0,event
12:12:40.187,0.62310857,0.5875754,0.32474917,0.6651972,0.54120356,0.16988496,-0.18580896,0.9142732,0.67367864,0.21303113,-0.057886384,1.0906339,0.9807004,0.5779933,0.48434833,1.0640422,1.1596147,0.49491307,0.36818895,0.90708053,787.72894,790.9524,790.14655,787.326,754.68866,0.0074462890625,0.14678955078125,0.98773193359375,-0.6878662109375,2.893524169921875,-2.27294921875,1.0,1.0,1.0,1.0,1.0,90.0,event
12:12:40.187,0.62310857,0.5875754,0.32474917,0.6651972,0.54120356,0.16988496,-0.18580896,0.9142732,0.67367864,0.21303113,-0.057886384,1.0906339,0.9807004,0.5779933,0.48434833,1.0640422,1.1596147,0.49491307,0.36818895,0.90708053,771.6117,791.75824,792.96704,807.47253,988.3883,0.0074462890625,0.14678955078125,0.98773193359375,-0.6878662109375,2.893524169921875,-2.27294921875,1.0,1.0,1.0,1.0,1.0,90.0,event
12:12:40.188,0.62310857,0.5875754,0.32474917,0.6651972,0.54120356,0.16988496,-0.18580896,0.9142732,0.67367864,0.21303113,-0.057886384,1.0906339,0.9807004,0.5779933,0.48434833,1.0640422,1.1596147,0.49491307,0.36818895,0.90708053,805.8608,794.9817,796.5934,806.26373,682.5641,0.0074462890625,0.14678955078125,0.98773193359375,-0.6878662109375,2.893524169921875,-2.27294921875,1.0,1.0,1.0,1.0,1.0,90.0,event
12:12:40.188,0.62310857,0.5875754,0.32474917,0.6651972,0.54120356,0.16988496,-0.18580896,0.9142732,0.67367864,0.21303113,-0.057886384,1.0906339,0.9807004,0.5779933,0.48434833,1.0640422,1.1596147,0.49491307,0.36818895,0.90708053,812.3077,798.60803,791.3553,804.2491,771.2088,0.0074462890625,0.14678955078125,0.98773193359375,-0.6878662109375,2.893524169921875,-2.27294921875,1.0,1.0,1.0,1.0,1.0,90.0,event
12:12:40.217,0.62310857,0.5875754,0.32474917,0.6651972,0.54120356,0.16988496,-0.18580896,0.9142732,0.67367864,0.21303113,-0.057886384,1.0906339,0.9807004,0.5779933,0.48434833,1.0640422,1.1596147,0.49491307,0.36818895,0.90708053,815.12823,798.60803,787.72894,816.7399,761.13556,-0.0126953125,0.14019775390625,0.9835205078125,0.814971923828125,2.51220703125,-3.790740966796875,1.0,1.0,1.0,1.0,1.0,90.0,event
12:12:40.218,0.62310857,0.5875754,0.32474917,0.6651972,0.54120356,0.16988496,-0.18580896,0.9142732,0.67367864,0.21303113,-0.057886384,1.0906339,0.9807004,0.5779933,0.48434833,1.0640422,1.1596147,0.49491307,0.36818895,0.90708053,831.6484,799.81683,797.3993,865.4945,791.75824,-0.0126953125,0.14019775390625,0.9835205078125,0.814971923828125,2.51220703125,-3.790740966796875,1.0,1.0,1.0,1.0,1.0,90.0,event
12:12:40.219,0.62310857,0.5875754,0.32474917,0.6651972,0.54120356,0.16988496,-0.18580896,0.9142732,0.67367864,0.21303113,-0.057886384,1.0906339,0.9807004,0.5779933,0.48434833,1.0640422,1.1596147,0.49491307,0.36818895,0.90708053,832.8571,794.9817,795.38464,848.97437,809.89014,-0.0126953125,0.14019775390625,0.9835205078125,0.814971923828125,2.51220703125,-3.790740966796875,1.0,1.0,1.0,1.0,1.0,90.0,event
12:12:40.219,0.62310857,0.5875754,0.32474917,0.6651972,0.54120356,0.16988496,-0.18580896,0.9142732,0.67367864,0.21303113,-0.057886384,1.0906339,0.9807004,0.5779933,0.48434833,1.0640422,1.1596147,0.49491307,0.36818895,0.90708053,820.7692,793.36993,798.20514,836.8865,867.1062,-0.0126953125,0.14019775390625,0.9835205078125,0.814971923828125,2.51220703125,-3.790740966796875,1.0,1.0,1.0,1.0,1.0,90.0,event
12:12:40.220,0.62310857,0.5875754,0.32474917,0.6651972,0.54120356,0.16988496,-0.18580896,0.9142732,0.67367864,0.21303113,-0.057886384,1.0906339,0.9807004,0.5779933,0.48434833,1.0640422,1.1596147,0.49491307,0.36818895,0.90708053,838.9011,794.9817,791.75824,872.3443,835.6777,-0.0126953125,0.14019775390625,0.9835205078125,0.814971923828125,2.51220703125,-3.790740966796875,1.0,1.0,1.0,1.0,1.0,90.0,event
12:12:40.220,0.62310857,0.5875754,0.32474917,0.6651972,0.54120356,0.16988496,-0.18580896,0.9142732,0.67367864,0.21303113,-0.057886384,1.0906339,0.9807004,0.5779933,0.48434833,1.0640422,1.1596147,0.49491307,0.36818895,0.90708053,846.9597,794.9817,788.93774,889.2674,796.5934,-0.0126953125,0.14019775390625,0.9835205078125,0.814971923828125,2.51220703125,-3.790740966796875,1.0,1.0,1.0,1.0,1.0,90.0,event
12:12:40.221,0.62310857,0.5875754,0.32474917,0.6651972,0.54120356,0.16988496,-0.18580896,0.9142732,0.67367864,0.21303113,-0.057886384,1.0906339,0.9807004,0.5779933,0.48434833,1.0640422,1.1596147,0.49491307,0.36818895,0.90708053,854.61536,797.3993,801.4286,874.35895,800.2198,-0.0126953125,0.14019775390625,0.9835205078125,0.814971923828125,2.51220703125,-3.790740966796875,1.0,1.0,1.0,1.0,1.0,90.0,event
12:12:40.221,0.62310857,0.5875754,0.32474917,0.6651972,0.54120356,0.16988496,-0.18580896,0.9142732,0.67367864,0.21303113,-0.057886384,1.0906339,0.9807004,0.5779933,0.48434833,1.0640422,1.1596147,0.49491307,0.36818895,0.90708053,852.6007,785.31134,794.17584,855.0183,948.0952,-0.0126953125,0.14019775390625,0.9835205078125,0.814971923828125,2.51220703125,-3.790740966796875,1.0,1.0,1.0,1.0,1.0,90.0,event
12:12:40.222,0.62310857,0.5875754,0.32474917,0.6651972,0.54120356,0.16988496,-0.18580896,0.9142732,0.67367864,0.21303113,-0.057886384,1.0906339,0.9807004,0.5779933,0.48434833,1.0640422,1.1596147,0.49491307,0.36818895,0.90708053,858.24176,807.8755,804.2491,880.80585,720.0366,-0.0126953125,0.14019775390625,0.9835205078125,0.814971923828125,2.51220703125,-3.790740966796875,1.0,1.0,1.0,1.0,1.0,90.0,event
12:12:40.222,0.62310857,0.5875754,0.32474917,0.6651972,0.54120356,0.16988496,-0.18580896,0.9142732,0.67367864,0.21303113,-0.057886384,1.0906339,0.9807004,0.5779933,0.48434833,1.0640422,1.1596147,0.49491307,0.36818895,0.90708053,861.06226,783.2967,793.36993,861.4652,989.59705,-0.0126953125,0.14019775390625,0.9835205078125,0.814971923828125,2.51220703125,-3.790740966796875,1.0,1.0,1.0,1.0,1.0,90.0,event
12:12:40.223,0.62310857,0.5875754,0.32474917,0.6651972,0.54120356,0.16988496,-0.18580896,0.9142732,0.67367864,0.21303113,-0.057886384,1.0906339,0.9807004,0.5779933,0.48434833,1.0640422,1.1596147,0.49491307,0.36818895,0.90708053,842.9304,815.12823,797.3993,864.68866,733.73627,-0.0126953125,0.14019775390625,0.9835205078125,0.814971923828125,2.51220703125,-3.790740966796875,1.0,1.0,1.0,1.0,1.0,90.0,event
12:12:40.225,0.62310857,0.5875754,0.32474917,0.6651972,0.54120356,0.16988496,-0.18580896,0.9142732,0.67367864,0.21303113,-0.057886384,1.0906339,0.9807004,0.5779933,0.48434833,1.0640422,1.1596147,0.49491307,0.36818895,0.90708053,875.9707,799.81683,792.5641,861.4652,766.3736,-0.0126953125,0.14019775390625,0.9835205078125,0.814971923828125,2.51220703125,-3.790740966796875,1.0,1.0,1.0,1.0,1.0,90.0,event
12:12:40.286,0.62310857,0.5875754,0.32474917,0.6651972,0.54120356,0.16988496,-0.18580896,0.9142732,0.67367864,0.21303113,-0.057886384,1.0906339,0.9807004,0.5779933,0.48434833,1.0640422,1.1596147,0.49491307,0.36818895,0.90708053,870.32965,778.0586,803.44324,870.7326,751.4652,-0.0126953125,0.14019775390625,0.9835205078125,0.814971923828125,2.51220703125,-3.790740966796875,1.0,1.0,1.0,1.0,1.0,90.0,event
12:12:40.287,0.62310857,0.5875754,0.32474917,0.6651972,0.54120356,0.16988496,-0.18580896,0.9142732,0.67367864,0.21303113,-0.057886384,1.0906339,0.9807004,0.5779933,0.48434833,1.0640422,1.1596147,0.49491307,0.36818895,0.90708053,844.94507,792.96704,796.1905,874.35895,722.4542,-0.0126953125,0.14019775390625,0.9835205078125,0.814971923828125,2.51220703125,-3.790740966796875,1.0,1.0,1.0,1.0,1.0,90.0,event
12:12:40.288,0.62310857,0.5875754,0.32474917,0.6651972,0.54120356,0.16988496,-0.18580896,0.9142732,0.67367864,0.21303113,-0.057886384,1.0906339,0.9807004,0.5779933,0.48434833,1.0640422,1.1596147,0.49491307,0.36818895,0.90708053,848.97437,809.89014,788.5348,880.80585,760.32965,-0.0126953125,0.14019775390625,0.9835205078125,0.814971923828125,2.51220703125,-3.790740966796875,1.0,1.0,1.0,1.0,1.0,90.0,event
12:12:40.288,0.62310857,0.6150575,0.33272833,0.6651972,0.54120356,0.19241478,-0.16674888,0.9142732,0.67367864,0.2121444,-0.110784546,1.0906339,0.9807004,0.5826969,0.47628516,1.0640422,1.1596147,0.48780853,0.3526922,0.90708053,863.8828,805.05493,802.23444,882.8205,839.304,-0.0126953125,0.14019775390625,0.9835205078125,0.814971923828125,2.51220703125,-3.790740966796875,1.0,1.0,1.0,1.0,1.0,90.0,event
12:12:40.291,,,,,,,,,,,,,,,,,,,,,,,,,,,,,,,,,,,,,,blink
12:12:40.293,0.62310857,0.6150575,0.33272833,0.6651972,0.54120356,0.19241478,-0.16674888,0.9142732,0.67367864,0.2121444,-0.110784546,1.0906339,0.9807004,0.5826969,0.47628516,1.0640422,1.1596147,0.48780853,0.3526922,0.90708053,853.00366,800.2198,803.0403,881.6117,890.4762,-0.0126953125,0.14019775390625,0.9835205078125,0.814971923828125,2.51220703125,-3.790740966796875,1.0,1.0,1.0,1.0,1.0,90.0,event
12:12:40.293,0.62310857,0.6150575,0.33272833,0.6651972,0.54120356,0.19241478,-0.16674888,0.9142732,0.67367864,0.2121444,-0.110784546,1.0906339,0.9807004,0.5826969,0.47628516,1.0640422,1.1596147,0.48780853,0.3526922,0.90708053,817.1429,789.34064,794.57874,866.30035,926.337,-0.0126953125,0.14019775390625,0.9835205078125,0.814971923828125,2.51220703125,-3.790740966796875,1.0,1.0,1.0,1.0,1.0,90.0,event
12:12:40.294,0.62310857,0.6150575,0.33272833,0.6651972,0.54120356,0.19241478,-0.16674888,0.9142732,0.67367864,0.2121444,-0.110784546,1.0906339,0.9807004,0.5826969,0.47628516,1.0640422,1.1596147,0.48780853,0.3526922,0.90708053,828.4249,781.28204,803.0403,848.97437,1006.1172,-0.0126953125,0.14019775390625,0.9835205078125,0.814971923828125,2.51220703125,-3.790740966796875,1.0,1.0,1.0,1.0,1.0,90.0,event
12:12:40.295,0.62310857,0.6150575,0.33272833,0.6651972,0.54120356,0.19241478,-0.16674888,0.9142732,0.67367864,0.2121444,-0.110784546,1.0906339,0.9807004,0.5826969,0.47628516,1.0640422,1.1596147,0.48780853,0.3526922,0.90708053,854.21246,786.1172,815.9341,849.3773,1211.6117,-0.0126953125,0.14019775390625,0.9835205078125,0.814971923828125,2.51220703125,-3.790740966796875,1.0,1.0,1.0,1.0,1.0,90.0,event
12:12:40.295,0.62310857,0.6150575,0.33272833,0.6651972,0.54120356,0.19241478,-0.16674888,0.9142732,0.67367864,0.2121444,-0.110784546,1.0906339,0.9807004,0.5826969,0.47628516,1.0640422,1.1596147,0.48780853,0.3526922,0.90708053,844.94507,796.5934,807.0696,838.9011,1015.78754,-0.0126953125,0.14019775390625,0.9835205078125,0.814971923828125,2.51220703125,-3.790740966796875,1.0,1.0,1.0,1.0,1.0,90.0,event
12:12:40.296,0.62310857,0.6150575,0.33272833,0.6651972,0.54120356,0.19241478,-0.16674888,0.9142732,0.67367864,0.2121444,-0.110784546,1.0906339,0.9807004,0.5826969,0.47628516,1.0640422,1.1596147,0.48780853,0.3526922,0.90708053,842.9304,805.4579,792.1612,841.7216,781.685,-0.0126953125,0.14019775390625,0.9835205078125,0.814971923828125,2.51220703125,-3.790740966796875,1.0,1.0,1.0,1.0,1.0,90.0,event
12:12:40.296,0.62310857,0.6150575,0.33272833,0.6651972,0.54120356,0.19241478,-0.16674888,0.9142732,0.67367864,0.2121444,-0.110784546,1.0906339,0.9807004,0.5826969,0.47628516,1.0640422,1.1596147,0.48780853,0.3526922,0.90708053,866.30035,804.65204,793.7729,857.4359,774.43225,-0.0126953125,0.14019775390625,0.9835205078125,0.814971923828125,2.51220703125,-3.790740966796875,1.0,1.0,1.0,1.0,1.0,90.0,event
12:12:40.297,0.62310857,0.6150575,0.33272833,0.6651972,0.54120356,0.19241478,-0.16674888,0.9142732,0.67367864,0.2121444,-0.110784546,1.0906339,0.9807004,0.5826969,0.47628516,1.0640422,1.1596147,0.48780853,0.3526922,0.90708053,862.674,805.05493,786.1172,867.50916,726.8865,-0.0126953125,0.14019775390625,0.9835205078125,0.814971923828125,2.51220703125,-3.790740966796875,1.0,1.0,1.0,1.0,1.0,90.0,event
12:12:40.323,0.62310857,0.6150575,0.33272833,0.6651972,0.54120356,0.19241478,-0.16674888,0.9142732,0.67367864,0.2121444,-0.110784546,1.0906339,0.9807004,0.5826969,0.47628516,1.0640422,1.1596147,0.48780853,0.3526922,0.90708053,823.9927,803.8461,792.5641,875.9707,704.7253,0.01324462890625,0.147216796875,0.983642578125,-1.921539306640625,1.80938720703125,-4.88983154296875,1.0,1.0,1.0,1.0,1.0,90.0,event
12:12:40.324,0.62310857,0.6150575,0.33272833,0.6651972,0.54120356,0.19241478,-0.16674888,0.9142732,0.67367864,0.2121444,-0.110784546,1.0906339,0.9807004,0.5826969,0.47628516,1.0640422,1.1596147,0.48780853,0.3526922,0.90708053,806.26373,799.81683,806.6667,865.09155,764.7619,0.01324462890625,0.147216796875,0.983642578125,-1.921539306640625,1.80938720703125,-4.88983154296875,1.0,1.0,1.0,1.0,1.0,90.0,event
12:12:40.324,0.62310857,0.6150575,0.33272833,0.6651972,0.54120356,0.19241478,-0.16674888,0.9142732,0.67367864,0.2121444,-0.110784546,1.0906339,0.9807004,0.5826969,0.47628516,1.0640422,1.1596147,0.48780853,0.3526922,0.90708053,832.0513,790.14655,797.3993,866.7033,832.0513,0.01324462890625,0.147216796875,0.983642578125,-1.921539306640625,1.80938720703125,-4.88983154296875,1.0,1.0,1.0,1.0,1.0,90.0,event
12:12:40.325,0.62310857,0.6150575,0.33272833,0.6651972,0.54120356,0.19241478,-0.16674888,0.9142732,0.67367864,0.2121444,-0.110784546,1.0906339,0.9807004,0.5826969,0.47628516,1.0640422,1.1596147,0.48780853,0.3526922,0.90708053,852.6007,790.14655,795.38464,873.5531,801.8315,0.01324462890625,0.147216796875,0.983642578125,-1.921539306640625,1.80938720703125,-4.88983154296875,1.0,1.0,1.0,1.0,1.0,90.0,event
12:12:40.325,0.62310857,0.6150575,0.33272833,0.6651972,0.54120356,0.19241478,-0.16674888,0.9142732,0.67367864,0.2121444,-0.110784546,1.0906339,0.9807004,0.5826969,0.47628516,1.0640422,1.1596147,0.48780853,0.3526922,0.90708053,835.2747,792.1612,804.65204,857.03296,759.12085,0.01324462890625,0.147216796875,0.983642578125,-1.921539306640625,1.80938720703125,-4.88983154296875,1.0,1.0,1.0,1.0,1.0,90.0,event
12:12:40.326,0.62310857,0.6150575,0.33272833,0.6651972,0.54120356,0.19241478,-0.16674888,0.9142732,0.67367864,0.2121444,-0.110784546,1.0906339,0.9807004,0.5826969,0.47628516,1.0640422,1.1596147,0.48780853,0.3526922,0.90708053,839.304,807.8755,799.41394,847.76556,1072.6007,0.01324462890625,0.147216796875,0.983642578125,-1.921539306640625,1.80938720703125,-4.88983154296875,1.0,1.0,1.0,1.0,1.0,90.0,event
12:12:40.326,0.62310857,0.6150575,0.33272833,0.6651972,0.54120356,0.19241478,-0.16674888,0.9142732,0.67367864,0.2121444,-0.110784546,1.0906339,0.9807004,0.5826969,0.47628516,1.0640422,1.1596147,0.48780853,0.3526922,0.90708053,833.2601,792.96704,806.26373,839.304,832.4542,0.01324462890625,0.147216796875,0.983642578125,-1.921539306640625,1.80938720703125,-4.88983154296875,1.0,1.0,1.0,1.0,1.0,90.0,event
12:12:40.327,0.62310857,0.6150575,0.33272833,0.6651972,0.54120356,0.19241478,-0.16674888,0.9142732,0.67367864,0.2121444,-0.110784546,1.0906339,0.9807004,0.5826969,0.47628516,1.0640422,1.1596147,0.48780853,0.3526922,0.90708053,828.022,808.68134,803.8461,855.42126,1062.9304,0.01324462890625,0.147216796875,0.983642578125,-1.921539306640625,1.80938720703125,-4.88983154296875,1.0,1.0,1.0,1.0,1.0,90.0,event
12:12:40.328,0.62310857,0.6150575,0.33272833,0.6651972,0.54120356,0.19241478,-0.16674888,0.9142732,0.67367864,0.2121444,-0.110784546,1.0906339,0.9807004,0.5826969,0.47628516,1.0640422,1.1596147,0.48780853,0.3526922,0.90708053,819.9634,798.60803,811.0989,857.4359,769.19415,0.01324462890625,0.147216796875,0.983642578125,-1.921539306640625,1.80938720703125,-4.88983154296875,1.0,1.0,1.0,1.0,1.0,90.0,event
12:12:40.328,0.62310857,0.6150575,0.33272833,0.6651972,0.54120356,0.19241478,-0.16674888,0.9142732,0.67367864,0.2121444,-0.110784546,1.0906339,0.9807004,0.5826969,0.47628516,1.0640422,1.1596147,0.48780853,0.3526922,0.90708053,827.2161,799.41394,798.20514,869.12085,740.18317,0.01324462890625,0.147216796875,0.983642578125,-1.921539306640625,1.80938720703125,-4.88983154296875,1.0,1.0,1.0,1.0,1.0,90.0,event
12:12:40.329,0.62310857,0.6150575,0.33272833,0.6651972,0.54120356,0.19241478,-0.16674888,0.9142732,0.67367864,0.2121444,-0.110784546,1.0906339,0.9807004,0.5826969,0.47628516,1.0640422,1.1596147,0.48780853,0.3526922,0.90708053,827.619,805.8608,794.57874,845.7509,903.36993,0.01324462890625,0.147216796875,0.983642578125,-1.921539306640625,1.80938720703125,-4.88983154296875,1.0,1.0,1.0,1.0,1.0,90.0,event
12:12:40.329,0.62310857,0.6150575,0.33272833,0.6651972,0.54120356,0.19241478,-0.16674888,0.9142732,0.67367864,0.2121444,-0.110784546,1.0906339,0.9807004,0.5826969,0.47628516,1.0640422,1.1596147,0.48780853,0.3526922,0.90708053,813.5165,799.81683,803.0403,845.7509,843.73627,0.01324462890625,0.147216796875,0.983642578125,-1.921539306640625,1.80938720703125,-4.88983154296875,1.0,1.0,1.0,1.0,1.0,90.0,event
12:12:40.355,0.62310857,0.6150575,0.33272833,0.6651972,0.54120356,0.19241478,-0.16674888,0.9142732,0.67367864,0.2121444,-0.110784546,1.0906339,0.9807004,0.5826969,0.47628516,1.0640422,1.1596147,0.48780853,0.3526922,0.90708053,830.4396,789.34064,798.60803,856.2271,726.8865,-0.01141357421875,0.13201904296875,0.98760986328125,-1.861724853515625,1.9140625,-4.523468017578125,1.0,1.0,1.0,1.0,1.0,90.0,event
12:12:40.356,0.62310857,0.6150575,0.33272833,0.6651972,0.54120356,0.19241478,-0.16674888,0.9142732,0.67367864,0.2121444,-0.110784546,1.0906339,0.9807004,0.5826969,0.47628516,1.0640422,1.1596147,0.48780853,0.3526922,0.90708053,837.28937,791.75824,802.23444,847.76556,790.9524,-0.01141357421875,0.13201904296875,0.98760986328125,-1.861724853515625,1.9140625,-4.523468017578125,1.0,1.0,1.0,1.0,1.0,90.0,event
12:12:40.357,0.62310857,0.6150575,0.33272833,0.6651972,0.54120356,0.19241478,-0.16674888,0.9142732,0.67367864,0.2121444,-0.110784546,1.0906339,0.9807004,0.5826969,0.47628516,1.0640422,1.1596147,0.48780853,0.3526922,0.90708053,803.8461,779.67035,802.23444,869.12085,735.7509,-0.01141357421875,0.13201904296875,0.98760986328125,-1.861724853515625,1.9140625,-4.523468017578125,1.0,1.0,1.0,1.0,1.0,90.0,event
12:12:40.357,0.62310857,0.6150575,0.33272833,0.6651972,0.54120356,0.19241478,-0.16674888,0.9142732,0.67367864,0.2121444,-0.110784546,1.0906339,0.9807004,0.5826969,0.47628516,1.0640422,1.1596147,0.48780853,0.3526922,0.90708053,800.2198,782.8938,804.65204,855.0183,793.36993,-0.01141357421875,0.13201904296875,0.98760986328125,-1.861724853515625,1.9140625,-4.523468017578125,1.0,1.0,1.0,1.0,1.0,90.0,event
12:12:40.358,0.62310857,0.6150575,0.33272833,0.6651972,0.54120356,0.19241478,-0.16674888,0.9142732,0.67367864,0.2121444,-0.110784546,1.0906339,0.9807004,0.5826969,0.47628516,1.0640422,1.1596147,0.48780853,0.3526922,0.90708053,828.022,805.4579,800.6227,864.2857,727.6923,-0.01141357421875,0.13201904296875,0.98760986328125,-1.861724853515625,1.9140625,-4.523468017578125,1.0,1.0,1.0,1.0,1.0,90.0,event
12:12:40.358,0.62310857,0.62297326,0.32925823,0.6651972,0.54120356,0.19922921,-0.12610696,0.9142732,0.67367864,0.22144803,-0.06422414,1.0906339,0.9807004,0.57600826,0.47568598,1.0640422,1.1596147,0.47290114,0.32992175,0.90708053,832.0513,810.293,799.81683,850.18317,949.304,-0.01141357421875,0.13201904296875,0.98760986328125,-1.861724853515625,1.9140625,-4.523468017578125,1.0,1.0,1.0,1.0,1.0,90.0,event
12:12:40.362,0.62310857,0.62297326,0.32925823,0.6651972,0.54120356,0.19922921,-0.12610696,0.9142732,0.67367864,0.22144803,-0.06422414,1.0906339,0.9807004,0.57600826,0.47568598,1.0640422,1.1596147,0.47290114,0.32992175,0.90708053,840.10986,805.4579,805.05493,838.9011,1048.022,-0.01141357421875,0.13201904296875,0.98760986328125,-1.861724853515625,1.9140625,-4.523468017578125,1.0,1.0,1.0,1.0,1.0,90.0,event
12:12:40.363,0.62310857,0.62297326,0.32925823,0.6651972,0.54120356,0.19922921,-0.12610696,0.9142732,0.67367864,0.22144803,-0.06422414,1.0906339,0.9807004,0.57600826,0.47568598,1.0640422,1.1596147,0.47290114,0.32992175,0.90708053,842.1245,807.8755,806.6667,823.5897,830.84247,-0.01141357421875,0.13201904296875,0.98760986328125,-1.861724853515625,1.9140625,-4.523468017578125,1.0,1.0,1.0,1.0,1.0,90.0,event
12:12:40.364,0.62310857,0.62297326,0.32925823,0.6651972,0.54120356,0.19922921,-0.12610696,0.9142732,0.67367864,0.22144803,-0.06422414,1.0906339,0.9807004,0.57600826,0.47568598,1.0640422,1.1596147,0.47290114,0.32992175,0.90708053,805.4579,795.78754,799.81683,821.978,700.696,-0.01141357421875,0.13201904296875,0.98760986328125,-1.861724853515625,1.9140625,-4.523468017578125,1.0,1.0,1.0,1.0,1.0,90.0,event
12:12:40.364,0.62310857,0.62297326,0.32925823,0.6651972,0.54120356,0.19922921,-0.12610696,0.9142732,0.67367864,0.22144803,-0.06422414,1.0906339,0.9807004,0.57600826,0.47568598,1.0640422,1.1596147,0.47290114,0.32992175,0.90708053,805.8608,798.20514,798.20514,844.94507,859.85345,-0.01141357421875,0.13201904296875,0.98760986328125,-1.861724853515625,1.9140625,-4.523468017578125,1.0,1.0,1.0,1.0,1.0,90.0,event
12:12:40.365,0.62310857,0.62297326,0.32925823,0.6651972,0.54120356,0.19922921,-0.12610696,0.9142732,0.67367864,0.22144803,-0.06422414,1.0906339,0.9807004,0.57600826,0.47568598,1.0640422,1.1596147,0.47290114,0.32992175,0.90708053,840.5128,799.81683,794.57874,853.00366,894.10254,-0.01141357421875,0.13201904296875,0.98760986328125,-1.861724853515625,1.9140625,-4.523468017578125,1.0,1.0,1.0,1.0,1.0,90.0,event
12:12:40.365,0.62310857,0.62297326,0.32925823,0.6651972,0.54120356,0.19922921,-0.12610696,0.9142732,0.67367864,0.22144803,-0.06422414,1.0906339,0.9807004,0.57600826,0.47568598,1.0640422,1.1596147,0.47290114,0.32992175,0.90708053,833.663,806.6667,794.57874,855.0183,1016.5934,-0.01141357421875,0.13201904296875,0.98760986328125,-1.861724853515625,1.9140625,-4.523468017578125,1.0,1.0,1.0,1.0,1.0,90.0,event
12:12:40.419,0.62310857,0.62297326,0.32925823,0.6651972,0.54120356,0.19922921,-0.12610696,0.9142732,0.67367864,0.22144803,-0.06422414,1.0906339,0.9807004,0.57600826,0.47568598,1.0640422,1.1596147,0.47290114,0.32992175,0.90708053,833.663,801.8315,816.7399,833.2601,752.674,-0.0213623046875,0.12548828125,0.97869873046875,1.487884521484375,3.0804443359375,-9.981536865234377,1.0,1.0,1.0,1.0,1.0,90.0,event
12:12:40.420,0.62310857,0.62297326,0.32925823,0.6651972,0.54120356,0.19922921,-0.12610696,0.9142732,0.67367864,0.22144803,-0.06422414,1.0906339,0.9807004,0.57600826,0.47568598,1.0640422,1.1596147,0.47290114,0.32992175,0.90708053,812.3077,809.4872,819.5604,826.8132,752.674,-0.0213623046875,0.12548828125,0.97869873046875,1.487884521484375,3.0804443359375,-9.981536865234377,1.0,1.0,1.0,1.0,1.0,90.0,event
12:12:40.421,0.62310857,0.62297326,0.32925823,0.6651972,0.54120356,0.19922921,-0.12610696,0.9142732,0.67367864,0.22144803,-0.06422414,1.0906339,0.9807004,0.57600826,0.47568598,1.0640422,1.1596147,0.47290114,0.32992175,0.90708053,801.02563,803.0403,812.71063,839.707,795.38464,-0.0213623046875,0.12548828125,0.97869873046875,1.487884521484375,3.0804443359375,-9.981536865234377,1.0,1.0,1.0,1.0,1.0,90.0,event
12:12:40.422,0.62310857,0.62297326,0.32925823,0.6651972,0.54120356,0.19922921,-0.12610696,0.9142732,0.67367864,0.22144803,-0.06422414,1.0906339,0.9807004,0.57600826,0.47568598,1.0640422,1.1596147,0.47290114,0.32992175,0.90708053,818.3516,789.34064,807.47253,843.3333,755.09155,-0.0213623046875,0.12548828125,0.97869873046875,1.487884521484375,3.0804443359375,-9.981536865234377,1.0,1.0,1.0,1.0,1.0,90.0,event
12:12:40.422,0.62310857,0.62297326,0.32925823,0.6651972,0.54120356,0.19922921,-0.12610696,0.9142732,0.67367864,0.22144803,-0.06422414,1.0906339,0.9807004,0.57600826,0.47568598,1.0640422,1.1596147,0.47290114,0.32992175,0.90708053,817.5458,798.60803,811.50183,843.3333,708.3516,-0.0213623046875,0.12548828125,0.97869873046875,1.487884521484375,3.0804443359375,-9.981536865234377,1.0,1.0,1.0,1.0,1.0,90.0,event
12:12:40.423,0.62310857,0.62297326,0.32925823,0.6651972,0.54120356,0.19922921,-0.12610696,0.9142732,0.67367864,0.22144803,-0.06422414,1.0906339,0.9807004,0.57600826,0.47568598,1.0640422,1.1596147,0.47290114,0.32992175,0.90708053,814.7253,792.5641,810.696,831.6484,884.43225,-0.0213623046875,0.12548828125,0.97869873046875,1.487884521484375,3.0804443359375,-9.981536865234377,1.0,1.0,1.0,1.0,1.0,90.0,event
12:12:40.423,0.62310857,0.62297326,0.32925823,0.6651972,0.54120356,0.19922921,-0.12610696,0.9142732,0.67367864,0.22144803,-0.06422414,1.0906339,0.9807004,0.57600826,0.47568598,1.0640422,1.1596147,0.47290114,0.32992175,0.90708053,832.4542,804.2491,805.8608,815.5311,888.0586,-0.0213623046875,0.12548828125,0.97869873046875,1.487884521484375,3.0804443359375,-9.981536865234377,1.0,1.0,1.0,1.0,1.0,90.0,event
12:12:40.424,0.62310857,0.62297326,0.32925823,0.6651972,0.54120356,0.19922921,-0.12610696,0.9142732,0.67367864,0.22144803,-0.06422414,1.0906339,0.9807004,0.57600826,0.47568598,1.0640422,1.1596147,0.47290114,0.32992175,0.90708053,814.7253,809.0842,792.5641,807.0696,796.5934,-0.0213623046875,0.12548828125,0.97869873046875,1.487884521484375,3.0804443359375,-9.981536865234377,1.0,1.0,1.0,1.0,1.0,90.0,event
12:12:40.424,0.62310857,0.62297326,0.32925823,0.6651972,0.54120356,0.19922921,-0.12610696,0.9142732,0.67367864,0.22144803,-0.06422414,1.0906339,0.9807004,0.57600826,0.47568598,1.0640422,1.1596147,0.47290114,0.32992175,0.90708053,797.3993,794.9817,791.75824,806.26373,732.52747,-0.0213623046875,0.12548828125,0.97869873046875,1.487884521484375,3.0804443359375,-9.981536865234377,1.0,1.0,1.0,1.0,1.0,90.0,event
12:12:40.425,0.62310857,0.62297326,0.32925823,0.6651972,0.54120356,0.19922921,-0.12610696,0.9142732,0.67367864,0.22144803,-0.06422414,1.0906339,0.9807004,0.57600826,0.47568598,1.0640422,1.1596147,0.47290114,0.32992175,0.90708053,792.5641,787.326,796.99634,817.5458,888.86444,-0.0213623046875,0.12548828125,0.97869873046875,1.487884521484375,3.0804443359375,-9.981536865234377,1.0,1.0,1.0,1.0,1.0,90.0,event
12:12:40.426,0.62310857,0.62297326,0.32925823,0.6651972,0.54120356,0.19922921,-0.12610696,0.9142732,0.67367864,0.22144803,-0.06422414,1.0906339,0.9807004,0.57600826,0.47568598,1.0640422,1.1596147,0.47290114,0.32992175,0.90708053,781.685,804.65204,801.02563,826.8132,823.1868,-0.0213623046875,0.12548828125,0.97869873046875,1.487884521484375,3.0804443359375,-9.981536865234377,1.0,1.0,1.0,1.0,1.0,90.0,event
12:12:40.426,0.62310857,0.62297326,0.32925823,0.6651972,0.54120356,0.19922921,-0.12610696,0.9142732,0.67367864,0.22144803,-0.06422414,1.0906339,0.9807004,0.57600826,0.47568598,1.0640422,1.1596147,0.47290114,0.32992175,0.90708053,794.17584,817.5458,811.0989,839.304,618.49817,-0.0213623046875,0.12548828125,0.97869873046875,1.487884521484375,3.0804443359375,-9.981536865234377,1.0,1.0,1.0,1.0,1.0,90.0,event
12:12:40.453,0.62310857,0.62297326,0.32925823,0.6651972,0.54120356,0.19922921,-0.12610696,0.9142732,0.67367864,0.22144803,-0.06422414,1.0906339,0.9807004,0.57600826,0.47568598,1.0640422,1.1596147,0.47290114,0.32992175,0.90708053,798.20514,817.9487,817.1429,834.0659,655.16486,-0.0111083984375,0.1397705078125,0.9827880859375,-1.09161376953125,2.534637451171875,-4.762725830078125,1.0,1.0,1.0,1.0,1.0,90.0,event
12:12:40.454,0.62310857,0.62297326,0.32925823,0.6651972,0.54120356,0.19922921,-0.12610696,0.9142732,0.67367864,0.22144803,-0.06422414,1.0906339,0.9807004,0.57600826,0.47568598,1.0640422,1.1596147,0.47290114,0.32992175,0.90708053,811.0989,792.5641,802.6374,817.9487,803.8461,-0.0111083984375,0.1397705078125,0.9827880859375,-1.09161376953125,2.534637451171875,-4.762725830078125,1.0,1.0,1.0,1.0,1.0,90.0,event
12:12:40.454,0.62310857,0.62297326,0.32925823,0.6651972,0.54120356,0.19922921,-0.12610696,0.9142732,0.67367864,0.22144803,-0.06422414,1.0906339,0.9807004,0.57600826,0.47568598,1.0640422,1.1596147,0.47290114,0.32992175,0.90708053,796.5934,805.05493,806.26373,826.0073,755.09155,-0.0111083984375,0.1397705078125,0.9827880859375,-1.09161376953125,2.534637451171875,-4.762725830078125,1.0,1.0,1.0,1.0,1.0,90.0,event
12:12:40.455,0.62310857,0.62297326,0.32925823,0.6651972,0.54120356,0.19922921,-0.12610696,0.9142732,0.67367864,0.22144803,-0.06422414,1.0906339,0.9807004,0.57600826,0.47568598,1.0640422,1.1596147,0.47290114,0.32992175,0.90708053,830.0366,792.1612,809.89014,820.7692,679.34064,-0.0111083984375,0.1397705078125,0.9827880859375,-1.09161376953125,2.534637451171875,-4.762725830078125,1.0,1.0,1.0,1.0,1.0,90.0,event
12:12:40.455,0.62310857,0.62297326,0.32925823,0.6651972,0.54120356,0.19922921,-0.12610696,0.9142732,0.67367864,0.22144803,-0.06422414,1.0906339,0.9807004,0.57600826,0.47568598,1.0640422,1.1596147,0.47290114,0.32992175,0.90708053,808.2784,796.99634,809.0842,827.619,744.61536,-0.0111083984375,0.1397705078125,0.9827880859375,-1.09161376953125,2.534637451171875,-4.762725830078125,1.0,1.0,1.0,1.0,1.0,90.0,event
12:12:40.456,0.62310857,0.62297326,0.32925823,0.6651972,0.54120356,0.19922921,-0.12610696,0.9142732,0.67367864,0.22144803,-0.06422414,1.0906339,0.9807004,0.57600826,0.47568598,1.0640422,1.1596147,0.47290114,0.32992175,0.90708053,792.96704,799.41394,815.9341,804.2491,949.707,-0.0111083984375,0.1397705078125,0.9827880859375,-1.09161376953125,2.534637451171875,-4.762725830078125,1.0,1.0,1.0,1.0,1.0,90.0,event
12:12:40.456,0.62310857,0.62297326,0.32925823,0.6651972,0.54120356,0.19922921,-0.12610696,0.9142732,0.67367864,0.22144803,-0.06422414,1.0906339,0.9807004,0.57600826,0.47568598,1.0640422,1.1596147,0.47290114,0.32992175,0.90708053,791.3553,801.8315,813.5165,811.9048,873.5531,-0.0111083984375,0.1397705078125,0.9827880859375,-1.09161376953125,2.534637451171875,-4.762725830078125,1.0,1.0,1.0,1.0,1.0,90.0,event
12:12:40.457,0.62310857,0.6445909,0.35271928,0.6651972,0.54120356,0.23026547,-0.034312423,0.9142732,0.67367864,0.22312486,0.062098324,1.0906339,0.9807004,0.5663153,0.48811826,1.0640422,1.1596147,0.4576322,0.30711678,0.90708053,793.36993,799.81683,797.3993,816.337,698.68134,-0.0111083984375,0.1397705078125,0.9827880859375,-1.09161376953125,2.534637451171875,-4.762725830078125,1.0,1.0,1.0,1.0,1.0,90.0,event
12:12:40.460,0.62310857,0.6445909,0.35271928,0.6651972,0.54120356,0.23026547,-0.034312423,0.9142732,0.67367864,0.22312486,0.062098324,1.0906339,0.9807004,0.5663153,0.48811826,1.0640422,1.1596147,0.4576322,0.30711678,0.90708053,782.0879,800.6227,793.7729,803.44324,827.2161,-0.0111083984375,0.1397705078125,0.9827880859375,-1.09161376953125,2.534637451171875,-4.762725830078125,1.0,1.0,1.0,1.0,1.0,90.0,event
12:12:40.461,0.62310857,0.6445909,0.35271928,0.6651972,0.54120356,0.23026547,-0.034312423,0.9142732,0.67367864,0.22312486,0.062098324,1.0906339,0.9807004,0.5663153,0.48811826,1.0640422,1.1596147,0.4576322,0.30711678,0.90708053,747.8388,812.71063,808.68134,819.5604,1012.1612,-0.0111083984375,0.1397705078125,0.9827880859375,-1.09161376953125,2.534637451171875,-4.762725830078125,1.0,1.0,1.0,1.0,1.0,90.0,event
12:12:40.462,0.62310857,0.6445909,0.35271928,0.6651972,0.54120356,0.23026547,-0.034312423,0.9142732,0.67367864,0.22312486,0.062098324,1.0906339,0.9807004,0.5663153,0.48811826,1.0640422,1.1596147,0.4576322,0.30711678,0.90708053,767.5824,809.4872,813.91943,807.8755,820.3663,-0.0111083984375,0.1397705078125,0.9827880859375,-1.09161376953125,2.534637451171875,-4.762725830078125,1.0,1.0,1.0,1.0,1.0,90.0,event
12:12:40.463,0.62310857,0.6445909,0.35271928,0.6651972,0.54120356,0.23026547,-0.034312423,0.9142732,0.67367864,0.22312486,0.062098324,1.0906339,0.9807004,0.5663153,0.48811826,1.0640422,1.1596147,0.4576322,0.30711678,0.90708053,770.0,798.60803,811.9048,784.5055,718.022,-0.0111083984375,0.1397705078125,0.9827880859375,-1.09161376953125,2.534637451171875,-4.762725830078125,1.0,1.0,1.0,1.0,1.0,90.0,event
12:12:40.516,0.62310857,0.6445909,0.35271928,0.6651972,0.54120356,0.23026547,-0.034312423,0.9142732,0.67367864,0.22312486,0.062098324,1.0906339,0.9807004,0.5663153,0.48811826,1.0640422,1.1596147,0.4576322,0.30711678,0.90708053,752.27106,806.26373,821.1722,794.17584,728.49817,-0.0111083984375,0.1397705078125,0.9827880859375,-1.09161376953125,2.534637451171875,-4.762725830078125,1.0,1.0,1.0,1.0,1.0,90.0,event
12:12:40.517,0.62310857,0.6445909,0.35271928,0.6651972,0.54120356,0.23026547,-0.034312423,0.9142732,0.67367864,0.22312486,0.062098324,1.0906339,0.9807004,0.5663153,0.48811826,1.0640422,1.1596147,0.4576322,0.30711678,0.90708053,754.68866,810.293,817.9487,794.9817,697.8755,-0.0111083984375,0.1397705078125,0.9827880859375,-1.09161376953125,2.534637451171875,-4.762725830078125,1.0,1.0,1.0,1.0,1.0,90.0,event
12:12:40.518,0.62310857,0.6445909,0.35271928,0.6651972,0.54120356,0.23026547,-0.034312423,0.9142732,0.67367864,0.22312486,0.062098324,1.0906339,0.9807004,0.5663153,0.48811826,1.0640422,1.1596147,0.4576322,0.30711678,0.90708053,761.13556,801.4286,811.0989,759.92676,688.60803,-0.0111083984375,0.1397705078125,0.9827880859375,-1.09161376953125,2.534637451171875,-4.762725830078125,1.0,1.0,1.0,1.0,1.0,90.0,event
12:12:40.518,0.62310857,0.6445909,0.35271928,0.6651972,0.54120356,0.23026547,-0.034312423,0.9142732,0.67367864,0.22312486,0.062098324,1.0906339,0.9807004,0.5663153,0.48811826,1.0640422,1.1596147,0.4576322,0.30711678,0.90708053,768.3883,802.23444,812.71063,767.5824,680.9524,-0.0111083984375,0.1397705078125,0.9827880859375,-1.09161376953125,2.534637451171875,-4.762725830078125,1.0,1.0,1.0,1.0,1.0,90.0,event
12:12:40.519,0.62310857,0.6445909,0.35271928,0.6651972,0.54120356,0.23026547,-0.034312423,0.9142732,0.67367864,0.22312486,0.062098324,1.0906339,0.9807004,0.5663153,0.48811826,1.0640422,1.1596147,0.4576322,0.30711678,0.90708053,733.3333,804.2491,819.15753,779.67035,726.8865,-0.0111083984375,0.1397705078125,0.9827880859375,-1.09161376953125,2.534637451171875,-4.762725830078125,1.0,1.0,1.0,1.0,1.0,90.0,event
12:12:40.519,0.62310857,0.6445909,0.35271928,0.6651972,0.54120356,0.23026547,-0.034312423,0.9142732,0.67367864,0.22312486,0.062098324,1.0906339,0.9807004,0.5663153,0.48811826,1.0640422,1.1596147,0.4576322,0.30711678,0.90708053,716.4103,804.65204,816.337,757.1062,853.8095,-0.0111083984375,0.1397705078125,0.9827880859375,-1.09161376953125,2.534637451171875,-4.762725830078125,1.0,1.0,1.0,1.0,1.0,90.0,event
12:12:40.520,0.62310857,0.6445909,0.35271928,0.6651972,0.54120356,0.23026547,-0.034312423,0.9142732,0.67367864,0.22312486,0.062098324,1.0906339,0.9807004,0.5663153,0.48811826,1.0640422,1.1596147,0.4576322,0.30711678,0.90708053,734.5421,811.50183,823.5897,753.8828,944.87177,-0.0111083984375,0.1397705078125,0.9827880859375,-1.09161376953125,2.534637451171875,-4.762725830078125,1.0,1.0,1.0,1.0,1.0,90.0,event
12:12:40.521,0.62310857,0.6445909,0.35271928,0.6651972,0.54120356,0.23026547,-0.034312423,0.9142732,0.67367864,0.22312486,0.062098324,1.0906339,0.9807004,0.5663153,0.48811826,1.0640422,1.1596147,0.4576322,0.30711678,0.90708053,725.2747,813.91943,815.5311,735.34796,837.6923,-0.0111083984375,0.1397705078125,0.9827880859375,-1.09161376953125,2.534637451171875,-4.762725830078125,1.0,1.0,1.0,1.0,1.0,90.0,event
12:12:40.522,0.62310857,0.6445909,0.35271928,0.6651972,0.54120356,0.23026547,-0.034312423,0.9142732,0.67367864,0.22312486,0.062098324,1.0906339,0.9807004,0.5663153,0.48811826,1.0640422,1.1596147,0.4576322,0.30711678,0.90708053,700.293,810.293,819.15753,715.6044,930.3663,-0.0111083984375,0.1397705078125,0.9827880859375,-1.09161376953125,2.534637451171875,-4.762725830078125,1.0,1.0,1.0,1.0,1.0,90.0,event
12:12:40.522,0.62310857,0.6445909,0.35271928,0.6651972,0.54120356,0.23026547,-0.034312423,0.9142732,0.67367864,0.22312486,0.062098324,1.0906339,0.9807004,0.5663153,0.48811826,1.0640422,1.1596147,0.4576322,0.30711678,0.90708053,659.59705,801.02563,840.5128,695.05493,1023.0403,-0.0111083984375,0.1397705078125,0.9827880859375,-1.09161376953125,2.534637451171875,-4.762725830078125,1.0,1.0,1.0,1.0,1.0,90.0,event
12:12:40.523,0.62310857,0.6445909,0.35271928,0.6651972,0.54120356,0.23026547,-0.034312423,0.9142732,0.67367864,0.22312486,0.062098324,1.0906339,0.9807004,0.5663153,0.48811826,1.0640422,1.1596147,0.4576322,0.30711678,0.90708053,662.01465,792.1612,832.4542,700.293,733.73627,-0.0111083984375,0.1397705078125,0.9827880859375,-1.09161376953125,2.534637451171875,-4.762725830078125,1.0,1.0,1.0,1.0,1.0,90.0,event
12:12:40.523,0.62310857,0.6445909,0.35271928,0.6651972,0.54120356,0.23026547,-0.034312423,0.9142732,0.67367864,0.22312486,0.062098324,1.0906339,0.9807004,0.5663153,0.48811826,1.0640422,1.1596147,0.4576322,0.30711678,0.90708053,673.69965,785.31134,830.84247,699.0842,720.4396,-0.0111083984375,0.1397705078125,0.9827880859375,-1.09161376953125,2.534637451171875,-4.762725830078125,1.0,1.0,1.0,1.0,1.0,90.0,event
12:12:40.547,0.62310857,0.6445909,0.35271928,0.6651972,0.54120356,0.23026547,-0.034312423,0.9142732,0.67367864,0.22312486,0.062098324,1.0906339,0.9807004,0.5663153,0.48811826,1.0640422,1.1596147,0.4576322,0.30711678,0.90708053,651.9414,803.0403,830.84247,672.49084,798.20514,-0.05609130859375,0.12701416015625,0.96697998046875,0.336456298828125,1.15142822265625,-3.22998046875,1.0,1.0,1.0,1.0,1.0,90.0,event
12:12:40.548,0.62310857,0.6445909,0.35271928,0.6651972,0.54120356,0.23026547,-0.034312423,0.9142732,0.67367864,0.22312486,0.062098324,1.0906339,0.9807004,0.5663153,0.48811826,1.0640422,1.1596147,0.4576322,0.30711678,0.90708053,662.01465,820.3663,817.9487,681.3553,721.6484,-0.05609130859375,0.12701416015625,0.96697998046875,0.336456298828125,1.15142822265625,-3.22998046875,1.0,1.0,1.0,1.0,1.0,90.0,event
12:12:40.549,0.62310857,0.6445909,0.35271928,0.6651972,0.54120356,0.23026547,-0.034312423,0.9142732,0.67367864,0.22312486,0.062098324,1.0906339,0.9807004,0.5663153,0.48811826,1.0640422,1.1596147,0.4576322,0.30711678,0.90708053,680.14655,807.0696,832.8571,700.293,641.06226,-0.05609130859375,0.12701416015625,0.96697998046875,0.336456298828125,1.15142822265625,-3.22998046875,1.0,1.0,1.0,1.0,1.0,90.0,event
12:12:40.549,0.62310857,0.6445909,0.35271928,0.6651972,0.54120356,0.23026547,-0.034312423,0.9142732,0.67367864,0.22312486,0.062098324,1.0906339,0.9807004,0.5663153,0.48811826,1.0640422,1.1596147,0.4576322,0.30711678,0.90708053,685.38464,815.12823,842.52747,719.2308,717.2161,-0.05609130859375,0.12701416015625,0.96697998046875,0.336456298828125,1.15142822265625,-3.22998046875,1.0,1.0,1.0,1.0,1.0,90.0,event
12:12:40.549,0.62310857,0.6445909,0.35271928,0.6651972,0.54120356,0.23026547,-0.034312423,0.9142732,0.67367864,0.22312486,0.062098324,1.0906339,0.9807004,0.5663153,0.48811826,1.0640422,1.1596147,0.4576322,0.30711678,0.90708053,645.4945,816.7399,840.10986,704.3223,827.2161,-0.05609130859375,0.12701416015625,0.96697998046875,0.336456298828125,1.15142822265625,-3.22998046875,1.0,1.0,1.0,1.0,1.0,90.0,event
12:12:40.550,0.62310857,0.6445909,0.35271928,0.6651972,0.54120356,0.23026547,-0.034312423,0.9142732,0.67367864,0.22312486,0.062098324,1.0906339,0.9807004,0.5663153,0.48811826,1.0640422,1.1596147,0.4576322,0.30711678,0.90708053,608.8278,801.4286,834.0659,665.64105,812.71063,-0.05609130859375,0.12701416015625,0.96697998046875,0.336456298828125,1.15142822265625,-3.22998046875,1.0,1.0,1.0,1.0,1.0,90.0,event
12:12:40.550,0.62310857,0.6445909,0.35271928,0.6651972,0.54120356,0.23026547,-0.034312423,0.9142732,0.67367864,0.22312486,0.062098324,1.0906339,0.9807004,0.5663153,0.48811826,1.0640422,1.1596147,0.4576322,0.30711678,0.90708053,628.1685,811.0989,817.1429,663.6264,767.98535,-0.05609130859375,0.12701416015625,0.96697998046875,0.336456298828125,1.15142822265625,-3.22998046875,1.0,1.0,1.0,1.0,1.0,90.0,event
12:12:40.551,0.62310857,0.6445909,0.35271928,0.6651972,0.54120356,0.23026547,-0.034312423,0.9142732,0.67367864,0.22312486,0.062098324,1.0906339,0.9807004,0.5663153,0.48811826,1.0640422,1.1596147,0.4576322,0.30711678,0.90708053,657.5824,811.50183,815.5311,651.13556,845.34796,-0.05609130859375,0.12701416015625,0.96697998046875,0.336456298828125,1.15142822265625,-3.22998046875,1.0,1.0,1.0,1.0,1.0,90.0,event
12:12:40.551,0.62310857,0.6445909,0.35271928,0.6651972,0.54120356,0.23026547,-0.034312423,0.9142732,0.67367864,0.22312486,0.062098324,1.0906339,0.9807004,0.5663153,0.48811826,1.0640422,1.1596147,0.4576322,0.30711678,0.90708053,664.83514,802.6374,821.1722,654.7619,915.05493,-0.05609130859375,0.12701416015625,0.96697998046875,0.336456298828125,1.15142822265625,-3.22998046875,1.0,1.0,1.0,1.0,1.0,90.0,event
12:12:40.551,0.62310857,0.67846525,0.40139818,0.6651972,0.54120356,0.28298548,0.08990564,0.9142732,0.67367864,0.23847301,0.15793529,1.0906339,0.9807004,0.55475104,0.50775933,1.0640422,1.1596147,0.44460464,0.29303586,0.90708053,676.1172,806.6667,819.5604,705.12823,796.99634,-0.05609130859375,0.12701416015625,0.96697998046875,0.336456298828125,1.15142822265625,-3.22998046875,1.0,1.0,1.0,1.0,1.0,90.0,event
12:12:40.554,0.62310857,0.67846525,0.40139818,0.6651972,0.54120356,0.28298548,0.08990564,0.9142732,0.67367864,0.23847301,0.15793529,1.0906339,0.9807004,0.55475104,0.50775933,1.0640422,1.1596147,0.44460464,0.29303586,0.90708053,696.26373,801.4286,822.7839,728.49817,716.8132,-0.05609130859375,0.12701416015625,0.96697998046875,0.336456298828125,1.15142822265625,-3.22998046875,1.0,1.0,1.0,1.0,1.0,90.0,event
12:12:40.555,0.62310857,0.67846525,0.40139818,0.6651972,0.54120356,0.28298548,0.08990564,0.9142732,0.67367864,0.23847301,0.15793529,1.0906339,0.9807004,0.55475104,0.50775933,1.0640422,1.1596147,0.44460464,0.29303586,0.90708053,700.293,793.7729,830.0366,732.9304,926.337,-0.05609130859375,0.12701416015625,0.96697998046875,0.336456298828125,1.15142822265625,-3.22998046875,1.0,1.0,1.0,1.0,1.0,90.0,event
12:12:40.584,0.62310857,0.67846525,0.40139818,0.6651972,0.54120356,0.28298548,0.08990564,0.9142732,0.67367864,0.23847301,0.15793529,1.0906339,0.9807004,0.55475104,0.50775933,1.0640422,1.1596147,0.44460464,0.29303586,0.90708053,697.47253,801.4286,816.7399,724.0659,1195.4945,-0.0372314453125,0.12493896484375,0.99847412109375,-0.7476806640625,-2.49725341796875,1.831817626953125,1.0,1.0,1.0,1.0,1.0,90.0,event
12:12:40.585,0.62310857,0.67846525,0.40139818,0.6651972,0.54120356,0.28298548,0.08990564,0.9142732,0.67367864,0.23847301,0.15793529,1.0906339,0.9807004,0.55475104,0.50775933,1.0640422,1.1596147,0.44460464,0.29303586,0.90708053,730.9158,813.91943,811.50183,737.3626,998.46155,-0.0372314453125,0.12493896484375,0.99847412109375,-0.7476806640625,-2.49725341796875,1.831817626953125,1.0,1.0,1.0,1.0,1.0,90.0,event
12:12:40.586,0.62310857,0.67846525,0.40139818,0.6651972,0.54120356,0.28298548,0.08990564,0.9142732,0.67367864,0.23847301,0.15793529,1.0906339,0.9807004,0.55475104,0.50775933,1.0640422,1.1596147,0.44460464,0.29303586,0.90708053,752.674,812.71063,818.7546,753.47986,821.978,-0.0372314453125,0.12493896484375,0.99847412109375,-0.7476806640625,-2.49725341796875,1.831817626953125,1.0,1.0,1.0,1.0,1.0,90.0,event
12:12:40.586,0.62310857,0.67846525,0.40139818,0.6651972,0.54120356,0.28298548,0.08990564,0.9142732,0.67367864,0.23847301,0.15793529,1.0906339,0.9807004,0.55475104,0.50775933,1.0640422,1.1596147,0.44460464,0.29303586,0.90708053,729.304,804.65204,807.8755,760.7326,837.6923,-0.0372314453125,0.12493896484375,0.99847412109375,-0.7476806640625,-2.49725341796875,1.831817626953125,1.0,1.0,1.0,1.0,1.0,90.0,event
12:12:40.587,0.62310857,0.67846525,0.40139818,0.6651972,0.54120356,0.28298548,0.08990564,0.9142732,0.67367864,0.23847301,0.15793529,1.0906339,0.9807004,0.55475104,0.50775933,1.0640422,1.1596147,0.44460464,0.29303586,0.90708053,733.73627,789.7436,795.78754,787.72894,863.8828,-0.0372314453125,0.12493896484375,0.99847412109375,-0.7476806640625,-2.49725341796875,1.831817626953125,1.0,1.0,1.0,1.0,1.0,90.0,event
12:12:40.587,0.62310857,0.67846525,0.40139818,0.6651972,0.54120356,0.28298548,0.08990564,0.9142732,0.67367864,0.23847301,0.15793529,1.0906339,0.9807004,0.55475104,0.50775933,1.0640422,1.1596147,0.44460464,0.29303586,0.90708053,774.43225,796.5934,794.57874,796.1905,874.7619,-0.0372314453125,0.12493896484375,0.99847412109375,-0.7476806640625,-2.49725341796875,1.831817626953125,1.0,1.0,1.0,1.0,1.0,90.0,event
12:12:40.588,0.62310857,0.67846525,0.40139818,0.6651972,0.54120356,0.28298548,0.08990564,0.9142732,0.67367864,0.23847301,0.15793529,1.0906339,0.9807004,0.55475104,0.50775933,1.0640422,1.1596147,0.44460464,0.29303586,0.90708053,778.0586,796.5934,807.47253,786.52014,836.4835,-0.0372314453125,0.12493896484375,0.99847412109375,-0.7476806640625,-2.49725341796875,1.831817626953125,1.0,1.0,1.0,1.0,1.0,90.0,event
12:12:40.588,0.62310857,0.67846525,0.40139818,0.6651972,0.54120356,0.28298548,0.08990564,0.9142732,0.67367864,0.23847301,0.15793529,1.0906339,0.9807004,0.55475104,0.50775933,1.0640422,1.1596147,0.44460464,0.29303586,0.90708053,784.10254,786.52014,817.9487,792.96704,1008.5348,-0.0372314453125,0.12493896484375,0.99847412109375,-0.7476806640625,-2.49725341796875,1.831817626953125,1.0,1.0,1.0,1.0,1.0,90.0,event
12:12:40.589,0.62310857,0.67846525,0.40139818,0.6651972,0.54120356,0.28298548,0.08990564,0.9142732,0.67367864,0.23847301,0.15793529,1.0906339,0.9807004,0.55475104,0.50775933,1.0640422,1.1596147,0.44460464,0.29303586,0.90708053,798.60803,805.05493,808.68134,831.2454,992.4176,-0.0372314453125,0.12493896484375,0.99847412109375,-0.7476806640625,-2.49725341796875,1.831817626953125,1.0,1.0,1.0,1.0,1.0,90.0,event
12:12:40.589,0.62310857,0.67846525,0.40139818,0.6651972,0.54120356,0.28298548,0.08990564,0.9142732,0.67367864,0.23847301,0.15793529,1.0906339,0.9807004,0.55475104,0.50775933,1.0640422,1.1596147,0.44460464,0.29303586,0.90708053,789.7436,802.23444,804.2491,821.978,795.38464,-0.0372314453125,0.12493896484375,0.99847412109375,-0.7476806640625,-2.49725341796875,1.831817626953125,1.0,1.0,1.0,1.0,1.0,90.0,event
12:12:40.590,0.62310857,0.67846525,0.40139818,0.6651972,0.54120356,0.28298548,0.08990564,0.9142732,0.67367864,0.23847301,0.15793529,1.0906339,0.9807004,0.55475104,0.50775933,1.0640422,1.1596147,0.44460464,0.29303586,0.90708053,798.20514,810.696,788.1319,844.5421,850.18317,-0.0372314453125,0.12493896484375,0.99847412109375,-0.7476806640625,-2.49725341796875,1.831817626953125,1.0,1.0,1.0,1.0,1.0,90.0,event
12:12:40.590,0.62310857,0.67846525,0.40139818,0.6651972,0.54120356,0.28298548,0.08990564,0.9142732,0.67367864,0.23847301,0.15793529,1.0906339,0.9807004,0.55475104,0.50775933,1.0640422,1.1596147,0.44460464,0.29303586,0.90708053,803.8461,802.6374,791.75824,819.5604,791.75824,-0.0372314453125,0.12493896484375,0.99847412109375,-0.7476806640625,-2.49725341796875,1.831817626953125,1.0,1.0,1.0,1.0,1.0,90.0,event
12:12:40.655,0.62310857,0.67846525,0.40139818,0.6651972,0.54120356,0.28298548,0.08990564,0.9142732,0.67367864,0.23847301,0.15793529,1.0906339,0.9807004,0.55475104,0.50775933,1.0640422,1.1596147,0.44460464,0.29303586,0.90708053,807.47253,805.05493,803.44324,863.8828,805.8608,-0.06793212890625,0.1058349609375,0.97576904296875,-5.899200439453125,-9.458160400390623,14.362945556640623,1.0,1.0,1.0,1.0,1.0,90.0,event
12:12:40.657,0.62310857,0.67846525,0.40139818,0.6651972,0.54120356,0.28298548,0.08990564,0.9142732,0.67367864,0.23847301,0.15793529,1.0906339,0.9807004,0.55475104,0.50775933,1.0640422,1.1596147,0.44460464,0.29303586,0.90708053,834.4689,800.2198,809.4872,871.13556,713.1868,-0.06793212890625,0.1058349609375,0.97576904296875,-5.899200439453125,-9.458160400390623,14.362945556640623,1.0,1.0,1.0,1.0,1.0,90.0,event
12:12:40.658,0.62310857,0.67846525,0.40139818,0.6651972,0.54120356,0.28298548,0.08990564,0.9142732,0.67367864,0.23847301,0.15793529,1.0906339,0.9807004,0.55475104,0.50775933,1.0640422,1.1596147,0.44460464,0.29303586,0.90708053,829.6337,800.6227,801.4286,852.6007,744.61536,-0.06793212890625,0.1058349609375,0.97576904296875,-5.899200439453125,-9.458160400390623,14.362945556640623,1.0,1.0,1.0,1.0,1.0,90.0,event
12:12:40.659,0.62310857,0.67846525,0.40139818,0.6651972,0.54120356,0.28298548,0.08990564,0.9142732,0.67367864,0.23847301,0.15793529,1.0906339,0.9807004,0.55475104,0.50775933,1.0640422,1.1596147,0.44460464,0.29303586,0.90708053,840.10986,794.17584,798.20514,852.6007,834.87177,-0.06793212890625,0.1058349609375,0.97576904296875,-5.899200439453125,-9.458160400390623,14.362945556640623,1.0,1.0,1.0,1.0,1.0,90.0,event
12:12:40.660,0.62310857,0.67846525,0.40139818,0.6651972,0.54120356,0.28298548,0.08990564,0.9142732,0.67367864,0.23847301,0.15793529,1.0906339,0.9807004,0.55475104,0.50775933,1.0640422,1.1596147,0.44460464,0.29303586,0.90708053,863.0769,794.9817,790.54944,865.4945,799.41394,-0.06793212890625,0.1058349609375,0.97576904296875,-5.899200439453125,-9.458160400390623,14.362945556640623,1.0,1.0,1.0,1.0,1.0,90.0,event
12:12:40.661,0.62310857,0.67846525,0.40139818,0.6651972,0.54120356,0.28298548,0.08990564,0.9142732,0.67367864,0.23847301,0.15793529,1.0906339,0.9807004,0.55475104,0.50775933,1.0640422,1.1596147,0.44460464,0.29303586,0.90708053,869.92676,808.2784,789.34064,875.16486,786.9231,-0.06793212890625,0.1058349609375,0.97576904296875,-5.899200439453125,-9.458160400390623,14.362945556640623,1.0,1.0,1.0,1.0,1.0,90.0,event
12:12:40.661,0.62310857,0.67846525,0.40139818,0.6651972,0.54120356,0.28298548,0.08990564,0.9142732,0.67367864,0.23847301,0.15793529,1.0906339,0.9807004,0.55475104,0.50775933,1.0640422,1.1596147,0.44460464,0.29303586,0.90708053,868.71796,801.4286,804.2491,892.8938,940.84247,-0.06793212890625,0.1058349609375,0.97576904296875,-5.899200439453125,-9.458160400390623,14.362945556640623,1.0,1.0,1.0,1.0,1.0,90.0,event
12:12:40.662,0.62310857,0.67846525,0.40139818,0.6651972,0.54120356,0.28298548,0.08990564,0.9142732,0.67367864,0.23847301,0.15793529,1.0906339,0.9807004,0.55475104,0.50775933,1.0640422,1.1596147,0.44460464,0.29303586,0.90708053,864.2857,807.47253,799.011,882.8205,1064.9451,-0.06793212890625,0.1058349609375,0.97576904296875,-5.899200439453125,-9.458160400390623,14.362945556640623,1.0,1.0,1.0,1.0,1.0,90.0,event
12:12:40.663,0.62310857,0.67846525,0.40139818,0.6651972,0.54120356,0.28298548,0.08990564,0.9142732,0.67367864,0.23847301,0.15793529,1.0906339,0.9807004,0.55475104,0.50775933,1.0640422,1.1596147,0.44460464,0.29303586,0.90708053,873.5531,800.2198,796.1905,859.0476,779.67035,-0.06793212890625,0.1058349609375,0.97576904296875,-5.899200439453125,-9.458160400390623,14.362945556640623,1.0,1.0,1.0,1.0,1.0,90.0,event
12:12:40.663,0.62310857,0.67846525,0.40139818,0.6651972,0.54120356,0.28298548,0.08990564,0.9142732,0.67367864,0.23847301,0.15793529,1.0906339,0.9807004,0.55475104,0.50775933,1.0640422,1.1596147,0.44460464,0.29303586,0.90708053,852.1978,813.5165,790.14655,861.8681,917.47253,-0.06793212890625,0.1058349609375,0.97576904296875,-5.899200439453125,-9.458160400390623,14.362945556640623,1.0,1.0,1.0,1.0,1.0,90.0,event
12:12:40.664,0.62310857,0.67846525,0.40139818,0.6651972,0.54120356,0.28298548,0.08990564,0.9142732,0.67367864,0.23847301,0.15793529,1.0906339,0.9807004,0.55475104,0.50775933,1.0640422,1.1596147,0.44460464,0.29303586,0.90708053,877.1795,799.81683,797.8022,888.0586,809.89014,-0.06793212890625,0.1058349609375,0.97576904296875,-5.899200439453125,-9.458160400390623,14.362945556640623,1.0,1.0,1.0,1.0,1.0,90.0,event
12:12:40.665,0.62310857,0.7183244,0.47099608,0.6651972,0.54120356,0.33464316,0.2043057,0.9142732,0.67367864,0.24444062,0.1945187,1.0906339,0.9807004,0.54339385,0.5261365,1.0640422,1.1596147,0.4379255,0.28764114,0.90708053,850.58606,796.1905,804.2491,904.9817,768.3883,-0.06793212890625,0.1058349609375,0.97576904296875,-5.899200439453125,-9.458160400390623,14.362945556640623,1.0,1.0,1.0,1.0,1.0,90.0,event
12:12:40.693,0.62310857,0.7183244,0.47099608,0.6651972,0.54120356,0.33464316,0.2043057,0.9142732,0.67367864,0.24444062,0.1945187,1.0906339,0.9807004,0.54339385,0.5261365,1.0640422,1.1596147,0.4379255,0.28764114,0.90708053,843.3333,792.1612,805.05493,869.92676,665.64105,-0.06793212890625,0.1058349609375,0.97576904296875,-5.899200439453125,-9.458160400390623,14.362945556640623,1.0,1.0,1.0,1.0,1.0,90.0,event
12:12:40.693,0.62310857,0.7183244,0.47099608,0.6651972,0.54120356,0.33464316,0.2043057,0.9142732,0.67367864,0.24444062,0.1945187,1.0906339,0.9807004,0.54339385,0.5261365,1.0640422,1.1596147,0.4379255,0.28764114,0.90708053,834.87177,800.6227,792.1612,865.09155,671.28204,-0.06793212890625,0.1058349609375,0.97576904296875,-5.899200439453125,-9.458160400390623,14.362945556640623,1.0,1.0,1.0,1.0,1.0,90.0,event
12:12:40.694,0.62310857,0.7183244,0.47099608,0.6651972,0.54120356,0.33464316,0.2043057,0.9142732,0.67367864,0.24444062,0.1945187,1.0906339,0.9807004,0.54339385,0.5261365,1.0640422,1.1596147,0.4379255,0.28764114,0.90708053,833.2601,809.89014,788.5348,878.3883,855.42126,-0.06793212890625,0.1058349609375,0.97576904296875,-5.899200439453125,-9.458160400390623,14.362945556640623,1.0,1.0,1.0,1.0,1.0,90.0,event
12:12:40.694,0.62310857,0.7183244,0.47099608,0.6651972,0.54120356,0.33464316,0.2043057,0.9142732,0.67367864,0.24444062,0.1945187,1.0906339,0.9807004,0.54339385,0.5261365,1.0640422,1.1596147,0.4379255,0.28764114,0.90708053,813.91943,810.696,798.60803,864.68866,900.9524,-0.06793212890625,0.1058349609375,0.97576904296875,-5.899200439453125,-9.458160400390623,14.362945556640623,1.0,1.0,1.0,1.0,1.0,90.0,event
12:12:40.695,0.62310857,0.7183244,0.47099608,0.6651972,0.54120356,0.33464316,0.2043057,0.9142732,0.67367864,0.24444062,0.1945187,1.0906339,0.9807004,0.54339385,0.5261365,1.0640422,1.1596147,0.4379255,0.28764114,0.90708053,815.9341,807.0696,799.41394,858.6447,815.5311,-0.06793212890625,0.1058349609375,0.97576904296875,-5.899200439453125,-9.458160400390623,14.362945556640623,1.0,1.0,1.0,1.0,1.0,90.0,event
12:12:40.695,0.62310857,0.7183244,0.47099608,0.6651972,0.54120356,0.33464316,0.2043057,0.9142732,0.67367864,0.24444062,0.1945187,1.0906339,0.9807004,0.54339385,0.5261365,1.0640422,1.1596147,0.4379255,0.28764114,0.90708053,824.7985,795.78754,796.99634,867.9121,834.87177,-0.06793212890625,0.1058349609375,0.97576904296875,-5.899200439453125,-9.458160400390623,14.362945556640623,1.0,1.0,1.0,1.0,1.0,90.0,event
12:12:40.696,0.62310857,0.7183244,0.47099608,0.6651972,0.54120356,0.33464316,0.2043057,0.9142732,0.67367864,0.24444062,0.1945187,1.0906339,0.9807004,0.54339385,0.5261365,1.0640422,1.1596147,0.4379255,0.28764114,0.90708053,842.1245,790.54944,788.93774,858.24176,819.5604,-0.06793212890625,0.1058349609375,0.97576904296875,-5.899200439453125,-9.458160400390623,14.362945556640623,1.0,1.0,1.0,1.0,1.0,90.0,event
12:12:40.696,0.62310857,0.7183244,0.47099608,0.6651972,0.54120356,0.33464316,0.2043057,0.9142732,0.67367864,0.24444062,0.1945187,1.0906339,0.9807004,0.54339385,0.5261365,1.0640422,1.1596147,0.4379255,0.28764114,0.90708053,819.15753,781.28204,789.7436,860.65936,894.5055,-0.06793212890625,0.1058349609375,0.97576904296875,-5.899200439453125,-9.458160400390623,14.362945556640623,1.0,1.0,1.0,1.0,1.0,90.0,event
12:12:40.697,0.62310857,0.7183244,0.47099608,0.6651972,0.54120356,0.33464316,0.2043057,0.9142732,0.67367864,0.24444062,0.1945187,1.0906339,0.9807004,0.54339385,0.5261365,1.0640422,1.1596147,0.4379255,0.28764114,0.90708053,867.1062,799.81683,796.99634,862.674,737.76556,-0.06793212890625,0.1058349609375,0.97576904296875,-5.899200439453125,-9.458160400390623,14.362945556640623,1.0,1.0,1.0,1.0,1.0,90.0,event
12:12:40.697,0.62310857,0.7183244,0.47099608,0.6651972,0.54120356,0.33464316,0.2043057,0.9142732,0.67367864,0.24444062,0.1945187,1.0906339,0.9807004,0.54339385,0.5261365,1.0640422,1.1596147,0.4379255,0.28764114,0.90708053,855.42126,803.0403,791.75824,890.4762,734.1392,-0.06793212890625,0.1058349609375,0.97576904296875,-5.899200439453125,-9.458160400390623,14.362945556640623,1.0,1.0,1.0,1.0,1.0,90.0,event
12:12:40.698,0.62310857,0.7183244,0.47099608,0.6651972,0.54120356,0.33464316,0.2043057,0.9142732,0.67367864,0.24444062,0.1945187,1.0906339,0.9807004,0.54339385,0.5261365,1.0640422,1.1596147,0.4379255,0.28764114,0.90708053,850.58606,818.7546,792.5641,875.16486,1012.96704,-0.06793212890625,0.1058349609375,0.97576904296875,-5.899200439453125,-9.458160400390623,14.362945556640623,1.0,1.0,1.0,1.0,1.0,90.0,event
12:12:40.698,0.62310857,0.7183244,0.47099608,0.6651972,0.54120356,0.33464316,0.2043057,0.9142732,0.67367864,0.24444062,0.1945187,1.0906339,0.9807004,0.54339385,0.5261365,1.0640422,1.1596147,0.4379255,0.28764114,0.90708053,848.1685,819.15753,793.7729,838.49817,1067.3627,-0.06793212890625,0.1058349609375,0.97576904296875,-5.899200439453125,-9.458160400390623,14.362945556640623,1.0,1.0,1.0,1.0,1.0,90.0,event
12:12:40.720,0.62310857,0.7183244,0.47099608,0.6651972,0.54120356,0.33464316,0.2043057,0.9142732,0.67367864,0.24444062,0.1945187,1.0906339,0.9807004,0.54339385,0.5261365,1.0640422,1.1596147,0.4379255,0.28764114,0.90708053,833.663,807.8755,793.7729,834.4689,744.21246,-0.0806884765625,0.08551025390625,0.966552734375,-1.2860107421875,-22.288360595703125,5.5328369140625,1.0,1.0,1.0,1.0,1.0,90.0,event
12:12:40.721,0.62310857,0.7183244,0.47099608,0.6651972,0.54120356,0.33464316,0.2043057,0.9142732,0.67367864,0.24444062,0.1945187,1.0906339,0.9807004,0.54339385,0.5261365,1.0640422,1.1596147,0.4379255,0.28764114,0.90708053,835.2747,803.44324,799.81683,841.7216,813.5165,-0.0806884765625,0.08551025390625,0.966552734375,-1.2860107421875,-22.288360595703125,5.5328369140625,1.0,1.0,1.0,1.0,1.0,90.0,event
12:12:40.722,0.62310857,0.7183244,0.47099608,0.6651972,0.54120356,0.33464316,0.2043057,0.9142732,0.67367864,0.24444062,0.1945187,1.0906339,0.9807004,0.54339385,0.5261365,1.0640422,1.1596147,0.4379255,0.28764114,0.90708053,830.0366,797.8022,794.17584,856.2271,840.5128,-0.0806884765625,0.08551025390625,0.966552734375,-1.2860107421875,-22.288360595703125,5.5328369140625,1.0,1.0,1.0,1.0,1.0,90.0,event
12:12:40.723,0.62310857,0.7183244,0.47099608,0.6651972,0.54120356,0.33464316,0.2043057,0.9142732,0.67367864,0.24444062,0.1945187,1.0906339,0.9807004,0.54339385,0.5261365,1.0640422,1.1596147,0.4379255,0.28764114,0.90708053,832.0513,806.26373,770.80585,847.3626,764.35895,-0.0806884765625,0.08551025390625,0.966552734375,-1.2860107421875,-22.288360595703125,5.5328369140625,1.0,1.0,1.0,1.0,1.0,90.0,event
12:12:40.724,0.62310857,0.7183244,0.47099608,0.6651972,0.54120356,0.33464316,0.2043057,0.9142732,0.67367864,0.24444062,0.1945187,1.0906339,0.9807004,0.54339385,0.5261365,1.0640422,1.1596147,0.4379255,0.28764114,0.90708053,832.0513,817.1429,773.22345,829.2308,750.65936,-0.0806884765625,0.08551025390625,0.966552734375,-1.2860107421875,-22.288360595703125,5.5328369140625,1.0,1.0,1.0,1.0,1.0,90.0,event
12:12:40.724,0.62310857,0.7183244,0.47099608,0.6651972,0.54120356,0.33464316,0.2043057,0.9142732,0.67367864,0.24444062,0.1945187,1.0906339,0.9807004,0.54339385,0.5261365,1.0640422,1.1596147,0.4379255,0.28764114,0.90708053,832.0513,808.68134,794.17584,832.4542,878.7912,-0.0806884765625,0.08551025390625,0.966552734375,-1.2860107421875,-22.288360595703125,5.5328369140625,1.0,1.0,1.0,1.0,1.0,90.0,event
12:12:40.725,0.62310857,0.7183244,0.47099608,0.6651972,0.54120356,0.33464316,0.2043057,0.9142732,0.67367864,0.24444062,0.1945187,1.0906339,0.9807004,0.54339385,0.5261365,1.0640422,1.1596147,0.4379255,0.28764114,0.90708053,832.4542,809.4872,812.3077,864.68866,1026.6666,-0.0806884765625,0.08551025390625,0.966552734375,-1.2860107421875,-22.288360595703125,5.5328369140625,1.0,1.0,1.0,1.0,1.0,90.0,event
12:12:40.726,0.62310857,0.7183244,0.47099608,0.6651972,0.54120356,0.33464316,0.2043057,0.9142732,0.67367864,0.24444062,0.1945187,1.0906339,0.9807004,0.54339385,0.5261365,1.0640422,1.1596147,0.4379255,0.28764114,0.90708053,834.4689,809.4872,820.3663,867.50916,909.81683,-0.0806884765625,0.08551025390625,0.966552734375,-1.2860107421875,-22.288360595703125,5.5328369140625,1.0,1.0,1.0,1.0,1.0,90.0,event
12:12:40.727,0.62310857,0.7183244,0.47099608,0.6651972,0.54120356,0.33464316,0.2043057,0.9142732,0.67367864,0.24444062,0.1945187,1.0906339,0.9807004,0.54339385,0.5261365,1.0640422,1.1596147,0.4379255,0.28764114,0.90708053,832.4542,799.41394,796.5934,840.5128,716.4103,-0.0806884765625,0.08551025390625,0.966552734375,-1.2860107421875,-22.288360595703125,5.5328369140625,1.0,1.0,1.0,1.0,1.0,90.0,event
12:12:40.728,0.62310857,0.7183244,0.47099608,0.6651972,0.54120356,0.33464316,0.2043057,0.9142732,0.67367864,0.24444062,0.1945187,1.0906339,0.9807004,0.54339385,0.5261365,1.0640422,1.1596147,0.4379255,0.28764114,0.90708053,828.022,807.8755,787.326,825.2015,783.69965,-0.0806884765625,0.08551025390625,0.966552734375,-1.2860107421875,-22.288360595703125,5.5328369140625,1.0,1.0,1.0,1.0,1.0,90.0,event
12:12:40.728,0.62310857,0.7183244,0.47099608,0.6651972,0.54120356,0.33464316,0.2043057,0.9142732,0.67367864,0.24444062,0.1945187,1.0906339,0.9807004,0.54339385,0.5261365,1.0640422,1.1596147,0.4379255,0.28764114,0.90708053,828.022,812.71063,792.96704,821.978,1020.6227,-0.0806884765625,0.08551025390625,0.966552734375,-1.2860107421875,-22.288360595703125,5.5328369140625,1.0,1.0,1.0,1.0,1.0,90.0,event
12:12:40.729,0.62310857,0.7183244,0.47099608,0.6651972,0.54120356,0.33464316,0.2043057,0.9142732,0.67367864,0.24444062,0.1945187,1.0906339,0.9807004,0.54339385,0.5261365,1.0640422,1.1596147,0.4379255,0.28764114,0.90708053,809.4872,805.8608,788.1319,821.5751,898.5348,-0.0806884765625,0.08551025390625,0.966552734375,-1.2860107421875,-22.288360595703125,5.5328369140625,1.0,1.0,1.0,1.0,1.0,90.0,event
12:12:40.783,0.62310857,0.7183244,0.47099608,0.6651972,0.54120356,0.33464316,0.2043057,0.9142732,0.67367864,0.24444062,0.1945187,1.0906339,0.9807004,0.54339385,0.5261365,1.0640422,1.1596147,0.4379255,0.28764114,0.90708053,819.15753,807.0696,795.38464,834.87177,793.36993,0.00054931640625,0.0986328125,0.9693603515625,2.88604736328125,-21.34628295898437,1.4056396484375,1.0,1.0,1.0,1.0,1.0,90.0,event
12:12:40.784,0.62310857,0.7480205,0.5583744,0.6651972,0.54120356,0.36703745,0.2998165,0.9142732,0.67367864,0.23448512,0.22993898,1.0906339,0.9807004,0.5364459,0.5415634,1.0640422,1.1596147,0.44143686,0.2807045,0.90708053,832.4542,815.9341,796.5934,826.0073,826.8132,0.00054931640625,0.0986328125,0.9693603515625,2.88604736328125,-21.34628295898437,1.4056396484375,1.0,1.0,1.0,1.0,1.0,90.0,event
12:12:40.787,,,,,,,,,,,,,,,,,,,,,,,,,,,,,,,,,,,,,,blink
12:12:40.788,0.62310857,0.7480205,0.5583744,0.6651972,0.54120356,0.36703745,0.2998165,0.9142732,0.67367864,0.23448512,0.22993898,1.0906339,0.9807004,0.5364459,0.5415634,1.0640422,1.1596147,0.44143686,0.2807045,0.90708053,811.50183,821.1722,792.1612,820.3663,786.1172,0.00054931640625,0.0986328125,0.9693603515625,2.88604736328125,-21.34628295898437,1.4056396484375,1.0,1.0,1.0,1.0,1.0,90.0,event
12:12:40.789,0.62310857,0.7480205,0.5583744,0.6651972,0.54120356,0.36703745,0.2998165,0.9142732,0.67367864,0.23448512,0.22993898,1.0906339,0.9807004,0.5364459,0.5415634,1.0640422,1.1596147,0.44143686,0.2807045,0.90708053,797.3993,809.4872,809.0842,826.0073,709.15753,0.00054931640625,0.0986328125,0.9693603515625,2.88604736328125,-21.34628295898437,1.4056396484375,1.0,1.0,1.0,1.0,1.0,90.0,event
12:12:40.789,0.62310857,0.7480205,0.5583744,0.6651972,0.54120356,0.36703745,0.2998165,0.9142732,0.67367864,0.23448512,0.22993898,1.0906339,0.9807004,0.5364459,0.5415634,1.0640422,1.1596147,0.44143686,0.2807045,0.90708053,792.5641,800.6227,819.15753,819.15753,697.8755,0.00054931640625,0.0986328125,0.9693603515625,2.88604736328125,-21.34628295898437,1.4056396484375,1.0,1.0,1.0,1.0,1.0,90.0,event
12:12:40.790,0.62310857,0.7480205,0.5583744,0.6651972,0.54120356,0.36703745,0.2998165,0.9142732,0.67367864,0.23448512,0.22993898,1.0906339,0.9807004,0.5364459,0.5415634,1.0640422,1.1596147,0.44143686,0.2807045,0.90708053,836.8865,811.0989,781.685,815.12823,860.65936,0.00054931640625,0.0986328125,0.9693603515625,2.88604736328125,-21.34628295898437,1.4056396484375,1.0,1.0,1.0,1.0,1.0,90.0,event
12:12:40.790,0.62310857,0.7480205,0.5583744,0.6651972,0.54120356,0.36703745,0.2998165,0.9142732,0.67367864,0.23448512,0.22993898,1.0906339,0.9807004,0.5364459,0.5415634,1.0640422,1.1596147,0.44143686,0.2807045,0.90708053,805.4579,813.91943,806.26373,817.9487,849.7802,0.00054931640625,0.0986328125,0.9693603515625,2.88604736328125,-21.34628295898437,1.4056396484375,1.0,1.0,1.0,1.0,1.0,90.0,event
12:12:40.791,0.62310857,0.7480205,0.5583744,0.6651972,0.54120356,0.36703745,0.2998165,0.9142732,0.67367864,0.23448512,0.22993898,1.0906339,0.9807004,0.5364459,0.5415634,1.0640422,1.1596147,0.44143686,0.2807045,0.90708053,837.6923,795.78754,791.3553,823.5897,721.6484,0.00054931640625,0.0986328125,0.9693603515625,2.88604736328125,-21.34628295898437,1.4056396484375,1.0,1.0,1.0,1.0,1.0,90.0,event
12:12:40.792,0.62310857,0.7480205,0.5583744,0.6651972,0.54120356,0.36703745,0.2998165,0.9142732,0.67367864,0.23448512,0.22993898,1.0906339,0.9807004,0.5364459,0.5415634,1.0640422,1.1596147,0.44143686,0.2807045,0.90708053,828.4249,803.8461,799.41394,801.4286,703.5165,0.00054931640625,0.0986328125,0.9693603515625,2.88604736328125,-21.34628295898437,1.4056396484375,1.0,1.0,1.0,1.0,1.0,90.0,event
12:12:40.792,0.62310857,0.7480205,0.5583744,0.6651972,0.54120356,0.36703745,0.2998165,0.9142732,0.67367864,0.23448512,0.22993898,1.0906339,0.9807004,0.5364459,0.5415634,1.0640422,1.1596147,0.44143686,0.2807045,0.90708053,832.0513,800.6227,792.5641,795.38464,971.06226,0.00054931640625,0.0986328125,0.9693603515625,2.88604736328125,-21.34628295898437,1.4056396484375,1.0,1.0,1.0,1.0,1.0,90.0,event
12:12:40.793,0.62310857,0.7480205,0.5583744,0.6651972,0.54120356,0.36703745,0.2998165,0.9142732,0.67367864,0.23448512,0.22993898,1.0906339,0.9807004,0.5364459,0.5415634,1.0640422,1.1596147,0.44143686,0.2807045,0.90708053,802.6374,804.65204,801.8315,817.9487,992.4176,0.00054931640625,0.0986328125,0.9693603515625,2.88604736328125,-21.34628295898437,1.4056396484375,1.0,1.0,1.0,1.0,1.0,90.0,event
12:12:40.793,0.62310857,0.7480205,0.5583744,0.6651972,0.54120356,0.36703745,0.2998165,0.9142732,0.67367864,0.23448512,0.22993898,1.0906339,0.9807004,0.5364459,0.5415634,1.0640422,1.1596147,0.44143686,0.2807045,0.90708053,791.75824,817.1429,805.05493,817.5458,641.06226,0.00054931640625,0.0986328125,0.9693603515625,2.88604736328125,-21.34628295898437,1.4056396484375,1.0,1.0,1.0,1.0,1.0,90.0,event
12:12:40.819,0.62310857,0.7480205,0.5583744,0.6651972,0.54120356,0.36703745,0.2998165,0.9142732,0.67367864,0.23448512,0.22993898,1.0906339,0.9807004,0.5364459,0.5415634,1.0640422,1.1596147,0.44143686,0.2807045,0.90708053,804.65204,811.50183,803.0403,812.71063,657.1795,0.01177978515625,0.10418701171875,0.97509765625,4.493560791015625,-7.409515380859375,0.9271240234375,1.0,1.0,1.0,1.0,1.0,90.0,event
12:12:40.820,0.62310857,0.7480205,0.5583744,0.6651972,0.54120356,0.36703745,0.2998165,0.9142732,0.67367864,0.23448512,0.22993898,1.0906339,0.9807004,0.5364459,0.5415634,1.0640422,1.1596147,0.44143686,0.2807045,0.90708053,801.4286,806.26373,799.81683,819.9634,752.674,0.01177978515625,0.10418701171875,0.97509765625,4.493560791015625,-7.409515380859375,0.9271240234375,1.0,1.0,1.0,1.0,1.0,90.0,event
12:12:40.821,0.62310857,0.7480205,0.5583744,0.6651972,0.54120356,0.36703745,0.2998165,0.9142732,0.67367864,0.23448512,0.22993898,1.0906339,0.9807004,0.5364459,0.5415634,1.0640422,1.1596147,0.44143686,0.2807045,0.90708053,806.26373,796.1905,797.8022,834.4689,762.74725,0.01177978515625,0.10418701171875,0.97509765625,4.493560791015625,-7.409515380859375,0.9271240234375,1.0,1.0,1.0,1.0,1.0,90.0,event
12:12:40.821,0.62310857,0.7480205,0.5583744,0.6651972,0.54120356,0.36703745,0.2998165,0.9142732,0.67367864,0.23448512,0.22993898,1.0906339,0.9807004,0.5364459,0.5415634,1.0640422,1.1596147,0.44143686,0.2807045,0.90708053,814.7253,794.57874,792.5641,824.3956,723.663,0.01177978515625,0.10418701171875,0.97509765625,4.493560791015625,-7.409515380859375,0.9271240234375,1.0,1.0,1.0,1.0,1.0,90.0,event
12:12:40.822,0.62310857,0.7480205,0.5583744,0.6651972,0.54120356,0.36703745,0.2998165,0.9142732,0.67367864,0.23448512,0.22993898,1.0906339,0.9807004,0.5364459,0.5415634,1.0640422,1.1596147,0.44143686,0.2807045,0.90708053,821.1722,804.65204,798.20514,811.0989,883.6264,0.01177978515625,0.10418701171875,0.97509765625,4.493560791015625,-7.409515380859375,0.9271240234375,1.0,1.0,1.0,1.0,1.0,90.0,event
12:12:40.822,0.62310857,0.7480205,0.5583744,0.6651972,0.54120356,0.36703745,0.2998165,0.9142732,0.67367864,0.23448512,0.22993898,1.0906339,0.9807004,0.5364459,0.5415634,1.0640422,1.1596147,0.44143686,0.2807045,0.90708053,799.81683,800.6227,801.02563,805.4579,762.74725,0.01177978515625,0.10418701171875,0.97509765625,4.493560791015625,-7.409515380859375,0.9271240234375,1.0,1.0,1.0,1.0,1.0,90.0,event
12:12:40.823,0.62310857,0.7480205,0.5583744,0.6651972,0.54120356,0.36703745,0.2998165,0.9142732,0.67367864,0.23448512,0.22993898,1.0906339,0.9807004,0.5364459,0.5415634,1.0640422,1.1596147,0.44143686,0.2807045,0.90708053,834.0659,810.293,793.7729,818.7546,812.3077,0.01177978515625,0.10418701171875,0.97509765625,4.493560791015625,-7.409515380859375,0.9271240234375,1.0,1.0,1.0,1.0,1.0,90.0,event
12:12:40.823,0.62310857,0.7480205,0.5583744,0.6651972,0.54120356,0.36703745,0.2998165,0.9142732,0.67367864,0.23448512,0.22993898,1.0906339,0.9807004,0.5364459,0.5415634,1.0640422,1.1596147,0.44143686,0.2807045,0.90708053,796.99634,803.0403,803.0403,821.1722,653.1502,0.01177978515625,0.10418701171875,0.97509765625,4.493560791015625,-7.409515380859375,0.9271240234375,1.0,1.0,1.0,1.0,1.0,90.0,event
12:12:40.824,0.62310857,0.7480205,0.5583744,0.6651972,0.54120356,0.36703745,0.2998165,0.9142732,0.67367864,0.23448512,0.22993898,1.0906339,0.9807004,0.5364459,0.5415634,1.0640422,1.1596147,0.44143686,0.2807045,0.90708053,785.31134,802.23444,798.60803,823.1868,788.93774,0.01177978515625,0.10418701171875,0.97509765625,4.493560791015625,-7.409515380859375,0.9271240234375,1.0,1.0,1.0,1.0,1.0,90.0,event
12:12:40.824,0.62310857,0.7480205,0.5583744,0.6651972,0.54120356,0.36703745,0.2998165,0.9142732,0.67367864,0.23448512,0.22993898,1.0906339,0.9807004,0.5364459,0.5415634,1.0640422,1.1596147,0.44143686,0.2807045,0.90708053,805.4579,804.2491,800.6227,800.6227,1014.17584,0.01177978515625,0.10418701171875,0.97509765625,4.493560791015625,-7.409515380859375,0.9271240234375,1.0,1.0,1.0,1.0,1.0,90.0,event
12:12:40.825,0.62310857,0.7480205,0.5583744,0.6651972,0.54120356,0.36703745,0.2998165,0.9142732,0.67367864,0.23448512,0.22993898,1.0906339,0.9807004,0.5364459,0.5415634,1.0640422,1.1596147,0.44143686,0.2807045,0.90708053,817.1429,801.02563,812.71063,793.7729,816.337,0.01177978515625,0.10418701171875,0.97509765625,4.493560791015625,-7.409515380859375,0.9271240234375,1.0,1.0,1.0,1.0,1.0,90.0,event
12:12:40.825,0.62310857,0.7480205,0.5583744,0.6651972,0.54120356,0.36703745,0.2998165,0.9142732,0.67367864,0.23448512,0.22993898,1.0906339,0.9807004,0.5364459,0.5415634,1.0640422,1.1596147,0.44143686,0.2807045,0.90708053,796.99634,802.23444,796.99634,797.3993,695.8608,0.01177978515625,0.10418701171875,0.97509765625,4.493560791015625,-7.409515380859375,0.9271240234375,1.0,1.0,1.0,1.0,1.0,90.0,event
12:12:40.889,0.62310857,0.7480205,0.5583744,0.6651972,0.54120356,0.36703745,0.2998165,0.9142732,0.67367864,0.23448512,0.22993898,1.0906339,0.9807004,0.5364459,0.5415634,1.0640422,1.1596147,0.44143686,0.2807045,0.90708053,799.41394,803.8461,787.72894,806.26373,814.7253,0.0040283203125,0.11151123046875,0.9754638671875,5.45806884765625,-6.153411865234375,-2.863616943359375,1.0,1.0,1.0,1.0,1.0,90.0,event
12:12:40.890,0.62310857,0.7480205,0.5583744,0.6651972,0.54120356,0.36703745,0.2998165,0.9142732,0.67367864,0.23448512,0.22993898,1.0906339,0.9807004,0.5364459,0.5415634,1.0640422,1.1596147,0.44143686,0.2807045,0.90708053,819.9634,801.4286,807.0696,794.9817,717.2161,0.0040283203125,0.11151123046875,0.9754638671875,5.45806884765625,-6.153411865234375,-2.863616943359375,1.0,1.0,1.0,1.0,1.0,90.0,event
12:12:40.890,0.62310857,0.7480205,0.5583744,0.6651972,0.54120356,0.36703745,0.2998165,0.9142732,0.67367864,0.23448512,0.22993898,1.0906339,0.9807004,0.5364459,0.5415634,1.0640422,1.1596147,0.44143686,0.2807045,0.90708053,824.7985,801.8315,800.6227,799.41394,803.0403,0.0040283203125,0.11151123046875,0.9754638671875,5.45806884765625,-6.153411865234375,-2.863616943359375,1.0,1.0,1.0,1.0,1.0,90.0,event
12:12:40.891,0.62310857,0.7588094,0.6706666,0.6651972,0.54120356,0.3798177,0.38853413,0.9142732,0.67367864,0.2328038,0.2466378,1.0906339,0.9807004,0.5363185,0.5558844,1.0640422,1.1596147,0.45432565,0.26880905,0.90708053,795.38464,799.41394,798.20514,820.7692,697.47253,0.0040283203125,0.11151123046875,0.9754638671875,5.45806884765625,-6.153411865234375,-2.863616943359375,1.0,1.0,1.0,1.0,1.0,90.0,event
12:12:40.895,0.62310857,0.7588094,0.6706666,0.6651972,0.54120356,0.3798177,0.38853413,0.9142732,0.67367864,0.2328038,0.2466378,1.0906339,0.9807004,0.5363185,0.5558844,1.0640422,1.1596147,0.45432565,0.26880905,0.90708053,800.6227,798.20514,793.36993,832.8571,733.73627,0.0040283203125,0.11151123046875,0.9754638671875,5.45806884765625,-6.153411865234375,-2.863616943359375,1.0,1.0,1.0,1.0,1.0,90.0,event
12:12:40.896,0.62310857,0.7588094,0.6706666,0.6651972,0.54120356,0.3798177,0.38853413,0.9142732,0.67367864,0.2328038,0.2466378,1.0906339,0.9807004,0.5363185,0.5558844,1.0640422,1.1596147,0.45432565,0.26880905,0.90708053,799.41394,805.05493,805.05493,829.6337,844.5421,0.0040283203125,0.11151123046875,0.9754638671875,5.45806884765625,-6.153411865234375,-2.863616943359375,1.0,1.0,1.0,1.0,1.0,90.0,event
12:12:40.897,0.62310857,0.7588094,0.6706666,0.6651972,0.54120356,0.3798177,0.38853413,0.9142732,0.67367864,0.2328038,0.2466378,1.0906339,0.9807004,0.5363185,0.5558844,1.0640422,1.1596147,0.45432565,0.26880905,0.90708053,793.36993,795.78754,806.6667,834.0659,868.315,0.0040283203125,0.11151123046875,0.9754638671875,5.45806884765625,-6.153411865234375,-2.863616943359375,1.0,1.0,1.0,1.0,1.0,90.0,event
12:12:40.897,0.62310857,0.7588094,0.6706666,0.6651972,0.54120356,0.3798177,0.38853413,0.9142732,0.67367864,0.2328038,0.2466378,1.0906339,0.9807004,0.5363185,0.5558844,1.0640422,1.1596147,0.45432565,0.26880905,0.90708053,807.47253,799.81683,807.47253,828.8278,778.0586,0.0040283203125,0.11151123046875,0.9754638671875,5.45806884765625,-6.153411865234375,-2.863616943359375,1.0,1.0,1.0,1.0,1.0,90.0,event
12:12:40.898,0.62310857,0.7588094,0.6706666,0.6651972,0.54120356,0.3798177,0.38853413,0.9142732,0.67367864,0.2328038,0.2466378,1.0906339,0.9807004,0.5363185,0.5558844,1.0640422,1.1596147,0.45432565,0.26880905,0.90708053,791.75824,815.9341,816.337,784.90845,886.04395,0.0040283203125,0.11151123046875,0.9754638671875,5.45806884765625,-6.153411865234375,-2.863616943359375,1.0,1.0,1.0,1.0,1.0,90.0,event
12:12:40.899,0.62310857,0.7588094,0.6706666,0.6651972,0.54120356,0.3798177,0.38853413,0.9142732,0.67367864,0.2328038,0.2466378,1.0906339,0.9807004,0.5363185,0.5558844,1.0640422,1.1596147,0.45432565,0.26880905,0.90708053,788.93774,816.7399,808.2784,767.98535,892.49084,0.0040283203125,0.11151123046875,0.9754638671875,5.45806884765625,-6.153411865234375,-2.863616943359375,1.0,1.0,1.0,1.0,1.0,90.0,event
12:12:40.900,0.62310857,0.7588094,0.6706666,0.6651972,0.54120356,0.3798177,0.38853413,0.9142732,0.67367864,0.2328038,0.2466378,1.0906339,0.9807004,0.5363185,0.5558844,1.0640422,1.1596147,0.45432565,0.26880905,0.90708053,799.41394,805.05493,792.1612,796.99634,701.9048,0.0040283203125,0.11151123046875,0.9754638671875,5.45806884765625,-6.153411865234375,-2.863616943359375,1.0,1.0,1.0,1.0,1.0,90.0,event
12:12:40.900,0.62310857,0.7588094,0.6706666,0.6651972,0.54120356,0.3798177,0.38853413,0.9142732,0.67367864,0.2328038,0.2466378,1.0906339,0.9807004,0.5363185,0.5558844,1.0640422,1.1596147,0.45432565,0.26880905,0.90708053,792.1612,802.6374,792.96704,816.7399,753.0769,0.0040283203125,0.11151123046875,0.9754638671875,5.45806884765625,-6.153411865234375,-2.863616943359375,1.0,1.0,1.0,1.0,1.0,90.0,event
12:12:40.926,0.62310857,0.7588094,0.6706666,0.6651972,0.54120356,0.3798177,0.38853413,0.9142732,0.67367864,0.2328038,0.2466378,1.0906339,0.9807004,0.5363185,0.5558844,1.0640422,1.1596147,0.45432565,0.26880905,0.90708053,795.78754,794.17584,803.0403,807.47253,844.94507,0.0040283203125,0.11151123046875,0.9754638671875,5.45806884765625,-6.153411865234375,-2.863616943359375,1.0,1.0,1.0,1.0,1.0,90.0,event
12:12:40.927,0.62310857,0.7588094,0.6706666,0.6651972,0.54120356,0.3798177,0.38853413,0.9142732,0.67367864,0.2328038,0.2466378,1.0906339,0.9807004,0.5363185,0.5558844,1.0640422,1.1596147,0.45432565,0.26880905,0.90708053,797.3993,789.34064,798.20514,805.8608,765.56775,0.0040283203125,0.11151123046875,0.9754638671875,5.45806884765625,-6.153411865234375,-2.863616943359375,1.0,1.0,1.0,1.0,1.0,90.0,event
12:12:40.928,0.62310857,0.7588094,0.6706666,0.6651972,0.54120356,0.3798177,0.38853413,0.9142732,0.67367864,0.2328038,0.2466378,1.0906339,0.9807004,0.5363185,0.5558844,1.0640422,1.1596147,0.45432565,0.26880905,0.90708053,799.41394,806.6667,796.1905,780.4762,869.5238,0.0040283203125,0.11151123046875,0.9754638671875,5.45806884765625,-6.153411865234375,-2.863616943359375,1.0,1.0,1.0,1.0,1.0,90.0,event
12:12:40.928,0.62310857,0.7588094,0.6706666,0.6651972,0.54120356,0.3798177,0.38853413,0.9142732,0.67367864,0.2328038,0.2466378,1.0906339,0.9807004,0.5363185,0.5558844,1.0640422,1.1596147,0.45432565,0.26880905,0.90708053,786.9231,809.89014,786.52014,794.9817,765.56775,0.0040283203125,0.11151123046875,0.9754638671875,5.45806884765625,-6.153411865234375,-2.863616943359375,1.0,1.0,1.0,1.0,1.0,90.0,event
12:12:40.929,0.62310857,0.7588094,0.6706666,0.6651972,0.54120356,0.3798177,0.38853413,0.9142732,0.67367864,0.2328038,0.2466378,1.0906339,0.9807004,0.5363185,0.5558844,1.0640422,1.1596147,0.45432565,0.26880905,0.90708053,839.707,805.05493,799.81683,802.6374,869.92676,0.0040283203125,0.11151123046875,0.9754638671875,5.45806884765625,-6.153411865234375,-2.863616943359375,1.0,1.0,1.0,1.0,1.0,90.0,event
12:12:40.931,0.62310857,0.7588094,0.6706666,0.6651972,0.54120356,0.3798177,0.38853413,0.9142732,0.67367864,0.2328038,0.2466378,1.0906339,0.9807004,0.5363185,0.5558844,1.0640422,1.1596147,0.45432565,0.26880905,0.90708053,824.7985,819.15753,792.1612,825.6044,866.30035,0.0040283203125,0.11151123046875,0.9754638671875,5.45806884765625,-6.153411865234375,-2.863616943359375,1.0,1.0,1.0,1.0,1.0,90.0,event
12:12:40.932,0.62310857,0.7588094,0.6706666,0.6651972,0.54120356,0.3798177,0.38853413,0.9142732,0.67367864,0.2328038,0.2466378,1.0906339,0.9807004,0.5363185,0.5558844,1.0640422,1.1596147,0.45432565,0.26880905,0.90708053,790.9524,810.293,804.65204,821.978,841.7216,0.0040283203125,0.11151123046875,0.9754638671875,5.45806884765625,-6.153411865234375,-2.863616943359375,1.0,1.0,1.0,1.0,1.0,90.0,event
12:12:40.933,0.62310857,0.7588094,0.6706666,0.6651972,0.54120356,0.3798177,0.38853413,0.9142732,0.67367864,0.2328038,0.2466378,1.0906339,0.9807004,0.5363185,0.5558844,1.0640422,1.1596147,0.45432565,0.26880905,0.90708053,801.8315,797.3993,813.91943,808.2784,819.15753,0.0040283203125,0.11151123046875,0.9754638671875,5.45806884765625,-6.153411865234375,-2.863616943359375,1.0,1.0,1.0,1.0,1.0,90.0,event
12:12:40.934,0.62310857,0.7588094,0.6706666,0.6651972,0.54120356,0.3798177,0.38853413,0.9142732,0.67367864,0.2328038,0.2466378,1.0906339,0.9807004,0.5363185,0.5558844,1.0640422,1.1596147,0.45432565,0.26880905,0.90708053,801.02563,795.78754,811.0989,780.4762,927.9487,0.0040283203125,0.11151123046875,0.9754638671875,5.45806884765625,-6.153411865234375,-2.863616943359375,1.0,1.0,1.0,1.0,1.0,90.0,event
12:12:40.935,0.62310857,0.7588094,0.6706666,0.6651972,0.54120356,0.3798177,0.38853413,0.9142732,0.67367864,0.2328038,0.2466378,1.0906339,0.9807004,0.5363185,0.5558844,1.0640422,1.1596147,0.45432565,0.26880905,0.90708053,790.9524,797.3993,812.71063,788.93774,835.6777,0.0040283203125,0.11151123046875,0.9754638671875,5.45806884765625,-6.153411865234375,-2.863616943359375,1.0,1.0,1.0,1.0,1.0,90.0,event
12:12:40.936,0.62310857,0.7588094,0.6706666,0.6651972,0.54120356,0.3798177,0.38853413,0.9142732,0.67367864,0.2328038,0.2466378,1.0906339,0.9807004,0.5363185,0.5558844,1.0640422,1.1596147,0.45432565,0.26880905,0.90708053,817.5458,805.8608,803.8461,807.8755,697.47253,0.0040283203125,0.11151123046875,0.9754638671875,5.45806884765625,-6.153411865234375,-2.863616943359375,1.0,1.0,1.0,1.0,1.0,90.0,event
12:12:40.937,0.62310857,0.7588094,0.6706666,0.6651972,0.54120356,0.3798177,0.38853413,0.9142732,0.67367864,0.2328038,0.2466378,1.0906339,0.9807004,0.5363185,0.5558844,1.0640422,1.1596147,0.45432565,0.26880905,0.90708053,820.3663,809.0842,798.20514,808.2784,764.7619,0.0040283203125,0.11151123046875,0.9754638671875,5.45806884765625,-6.153411865234375,-2.863616943359375,1.0,1.0,1.0,1.0,1.0,90.0,event
12:12:40.964,0.62310857,0.7588094,0.6706666,0.6651972,0.54120356,0.3798177,0.38853413,0.9142732,0.67367864,0.2328038,0.2466378,1.0906339,0.9807004,0.5363185,0.5558844,1.0640422,1.1596147,0.45432565,0.26880905,0.90708053,784.90845,796.99634,795.38464,808.2784,773.6264,0.0225830078125,0.12091064453125,0.98260498046875,6.153411865234375,-5.15899658203125,-2.190704345703125,1.0,1.0,1.0,1.0,1.0,90.0,event
12:12:40.965,0.62310857,0.7588094,0.6706666,0.6651972,0.54120356,0.3798177,0.38853413,0.9142732,0.67367864,0.2328038,0.2466378,1.0906339,0.9807004,0.5363185,0.5558844,1.0640422,1.1596147,0.45432565,0.26880905,0.90708053,786.9231,826.0073,805.4579,842.1245,759.5238,0.0225830078125,0.12091064453125,0.98260498046875,6.153411865234375,-5.15899658203125,-2.190704345703125,1.0,1.0,1.0,1.0,1.0,90.0,event
12:12:40.965,0.62310857,0.7588094,0.6706666,0.6651972,0.54120356,0.3798177,0.38853413,0.9142732,0.67367864,0.2328038,0.2466378,1.0906339,0.9807004,0.5363185,0.5558844,1.0640422,1.1596147,0.45432565,0.26880905,0.90708053,771.6117,795.38464,796.5934,817.5458,732.9304,0.0225830078125,0.12091064453125,0.98260498046875,6.153411865234375,-5.15899658203125,-2.190704345703125,1.0,1.0,1.0,1.0,1.0,90.0,event
12:12:40.966,0.62310857,0.7588094,0.6706666,0.6651972,0.54120356,0.3798177,0.38853413,0.9142732,0.67367864,0.2328038,0.2466378,1.0906339,0.9807004,0.5363185,0.5558844,1.0640422,1.1596147,0.45432565,0.26880905,0.90708053,789.34064,826.4103,803.8461,832.0513,802.23444,0.0225830078125,0.12091064453125,0.98260498046875,6.153411865234375,-5.15899658203125,-2.190704345703125,1.0,1.0,1.0,1.0,1.0,90.0,event
12:12:40.966,0.62310857,0.7588094,0.6706666,0.6651972,0.54120356,0.3798177,0.38853413,0.9142732,0.67367864,0.2328038,0.2466378,1.0906339,0.9807004,0.5363185,0.5558844,1.0640422,1.1596147,0.45432565,0.26880905,0.90708053,808.2784,794.57874,807.0696,792.5641,802.6374,0.0225830078125,0.12091064453125,0.98260498046875,6.153411865234375,-5.15899658203125,-2.190704345703125,1.0,1.0,1.0,1.0,1.0,90.0,event
12:12:40.967,0.62310857,0.75509864,0.7070706,0.6651972,0.54120356,0.38361552,0.42711306,0.9142732,0.67367864,0.21730934,0.2466378,1.0906339,0.9807004,0.5376462,0.5796287,1.0640422,1.1596147,0.47261935,0.25183952,0.90708053,809.89014,782.0879,808.2784,785.31134,845.7509,0.0225830078125,0.12091064453125,0.98260498046875,6.153411865234375,-5.15899658203125,-2.190704345703125,1.0,1.0,1.0,1.0,1.0,90.0,event
12:12:40.970,0.62310857,0.75509864,0.7070706,0.6651972,0.54120356,0.38361552,0.42711306,0.9142732,0.67367864,0.21730934,0.2466378,1.0906339,0.9807004,0.5376462,0.5796287,1.0640422,1.1596147,0.47261935,0.25183952,0.90708053,773.22345,807.0696,801.8315,785.31134,789.34064,0.0225830078125,0.12091064453125,0.98260498046875,6.153411865234375,-5.15899658203125,-2.190704345703125,1.0,1.0,1.0,1.0,1.0,90.0,event
12:12:40.971,0.62310857,0.75509864,0.7070706,0.6651972,0.54120356,0.38361552,0.42711306,0.9142732,0.67367864,0.21730934,0.2466378,1.0906339,0.9807004,0.5376462,0.5796287,1.0640422,1.1596147,0.47261935,0.25183952,0.90708053,791.3553,819.9634,788.5348,799.81683,998.0586,0.0225830078125,0.12091064453125,0.98260498046875,6.153411865234375,-5.15899658203125,-2.190704345703125,1.0,1.0,1.0,1.0,1.0,90.0,event
12:12:40.971,0.62310857,0.75509864,0.7070706,0.6651972,0.54120356,0.38361552,0.42711306,0.9142732,0.67367864,0.21730934,0.2466378,1.0906339,0.9807004,0.5376462,0.5796287,1.0640422,1.1596147,0.47261935,0.25183952,0.90708053,812.71063,814.7253,797.3993,809.89014,1191.8682,0.0225830078125,0.12091064453125,0.98260498046875,6.153411865234375,-5.15899658203125,-2.190704345703125,1.0,1.0,1.0,1.0,1.0,90.0,event
12:12:40.972,0.62310857,0.75509864,0.7070706,0.6651972,0.54120356,0.38361552,0.42711306,0.9142732,0.67367864,0.21730934,0.2466378,1.0906339,0.9807004,0.5376462,0.5796287,1.0640422,1.1596147,0.47261935,0.25183952,0.90708053,803.8461,806.26373,805.05493,813.5165,768.3883,0.0225830078125,0.12091064453125,0.98260498046875,6.153411865234375,-5.15899658203125,-2.190704345703125,1.0,1.0,1.0,1.0,1.0,90.0,event
12:12:40.972,0.62310857,0.75509864,0.7070706,0.6651972,0.54120356,0.38361552,0.42711306,0.9142732,0.67367864,0.21730934,0.2466378,1.0906339,0.9807004,0.5376462,0.5796287,1.0640422,1.1596147,0.47261935,0.25183952,0.90708053,820.3663,808.68134,805.8608,820.7692,656.3736,0.0225830078125,0.12091064453125,0.98260498046875,6.153411865234375,-5.15899658203125,-2.190704345703125,1.0,1.0,1.0,1.0,1.0,90.0,event
12:12:40.973,0.62310857,0.75509864,0.7070706,0.6651972,0.54120356,0.38361552,0.42711306,0.9142732,0.67367864,0.21730934,0.2466378,1.0906339,0.9807004,0.5376462,0.5796287,1.0640422,1.1596147,0.47261935,0.25183952,0.90708053,805.8608,815.5311,815.12823,819.9634,767.5824,0.0225830078125,0.12091064453125,0.98260498046875,6.153411865234375,-5.15899658203125,-2.190704345703125,1.0,1.0,1.0,1.0,1.0,90.0,event
12:12:40.999,0.62310857,0.75509864,0.7070706,0.6651972,0.54120356,0.38361552,0.42711306,0.9142732,0.67367864,0.21730934,0.2466378,1.0906339,0.9807004,0.5376462,0.5796287,1.0640422,1.1596147,0.47261935,0.25183952,0.90708053,783.69965,804.2491,801.4286,815.5311,726.4835,0.03228759765625,0.12548828125,0.9847412109375,7.28240966796875,-10.706787109375,0.710296630859375,1.0,1.0,1.0,1.0,1.0,90.0,event
12:12:41.000,0.62310857,0.75509864,0.7070706,0.6651972,0.54120356,0.38361552,0.42711306,0.9142732,0.67367864,0.21730934,0.2466378,1.0906339,0.9807004,0.5376462,0.5796287,1.0640422,1.1596147,0.47261935,0.25183952,0.90708053,793.36993,809.4872,798.60803,811.50183,662.4176,0.03228759765625,0.12548828125,0.9847412109375,7.28240966796875,-10.706787109375,0.710296630859375,1.0,1.0,1.0,1.0,1.0,90.0,event
12:12:41.001,0.62310857,0.75509864,0.7070706,0.6651972,0.54120356,0.38361552,0.42711306,0.9142732,0.67367864,0.21730934,0.2466378,1.0906339,0.9807004,0.5376462,0.5796287,1.0640422,1.1596147,0.47261935,0.25183952,0.90708053,780.07324,817.5458,807.47253,815.12823,705.5311,0.03228759765625,0.12548828125,0.9847412109375,7.28240966796875,-10.706787109375,0.710296630859375,1.0,1.0,1.0,1.0,1.0,90.0,event
12:12:41.001,0.62310857,0.75509864,0.7070706,0.6651972,0.54120356,0.38361552,0.42711306,0.9142732,0.67367864,0.21730934,0.2466378,1.0906339,0.9807004,0.5376462,0.5796287,1.0640422,1.1596147,0.47261935,0.25183952,0.90708053,778.86444,803.8461,790.14655,796.5934,725.6777,0.03228759765625,0.12548828125,0.9847412109375,7.28240966796875,-10.706787109375,0.710296630859375,1.0,1.0,1.0,1.0,1.0,90.0,event
12:12:41.002,0.62310857,0.75509864,0.7070706,0.6651972,0.54120356,0.38361552,0.42711306,0.9142732,0.67367864,0.21730934,0.2466378,1.0906339,0.9807004,0.5376462,0.5796287,1.0640422,1.1596147,0.47261935,0.25183952,0.90708053,808.68134,796.5934,789.34064,790.54944,679.7436,0.03228759765625,0.12548828125,0.9847412109375,7.28240966796875,-10.706787109375,0.710296630859375,1.0,1.0,1.0,1.0,1.0,90.0,event
12:12:41.002,0.62310857,0.75509864,0.7070706,0.6651972,0.54120356,0.38361552,0.42711306,0.9142732,0.67367864,0.21730934,0.2466378,1.0906339,0.9807004,0.5376462,0.5796287,1.0640422,1.1596147,0.47261935,0.25183952,0.90708053,805.05493,788.93774,799.81683,811.50183,747.03296,0.03228759765625,0.12548828125,0.9847412109375,7.28240966796875,-10.706787109375,0.710296630859375,1.0,1.0,1.0,1.0,1.0,90.0,event
12:12:41.003,0.62310857,0.75509864,0.7070706,0.6651972,0.54120356,0.38361552,0.42711306,0.9142732,0.67367864,0.21730934,0.2466378,1.0906339,0.9807004,0.5376462,0.5796287,1.0640422,1.1596147,0.47261935,0.25183952,0.90708053,805.8608,789.7436,806.6667,810.696,886.04395,0.03228759765625,0.12548828125,0.9847412109375,7.28240966796875,-10.706787109375,0.710296630859375,1.0,1.0,1.0,1.0,1.0,90.0,event
12:12:41.003,0.62310857,0.75509864,0.7070706,0.6651972,0.54120356,0.38361552,0.42711306,0.9142732,0.67367864,0.21730934,0.2466378,1.0906339,0.9807004,0.5376462,0.5796287,1.0640422,1.1596147,0.47261935,0.25183952,0.90708053,821.978,815.9341,814.3223,806.26373,961.79486,0.03228759765625,0.12548828125,0.9847412109375,7.28240966796875,-10.706787109375,0.710296630859375,1.0,1.0,1.0,1.0,1.0,90.0,event
12:12:41.004,0.62310857,0.75509864,0.7070706,0.6651972,0.54120356,0.38361552,0.42711306,0.9142732,0.67367864,0.21730934,0.2466378,1.0906339,0.9807004,0.5376462,0.5796287,1.0640422,1.1596147,0.47261935,0.25183952,0.90708053,809.89014,829.2308,806.26373,823.9927,856.2271,0.03228759765625,0.12548828125,0.9847412109375,7.28240966796875,-10.706787109375,0.710296630859375,1.0,1.0,1.0,1.0,1.0,90.0,event
12:12:41.004,0.62310857,0.75509864,0.7070706,0.6651972,0.54120356,0.38361552,0.42711306,0.9142732,0.67367864,0.21730934,0.2466378,1.0906339,0.9807004,0.5376462,0.5796287,1.0640422,1.1596147,0.47261935,0.25183952,0.90708053,801.8315,813.1135,794.57874,806.26373,755.4945,0.03228759765625,0.12548828125,0.9847412109375,7.28240966796875,-10.706787109375,0.710296630859375,1.0,1.0,1.0,1.0,1.0,90.0,event
12:12:41.005,0.62310857,0.75509864,0.7070706,0.6651972,0.54120356,0.38361552,0.42711306,0.9142732,0.67367864,0.21730934,0.2466378,1.0906339,0.9807004,0.5376462,0.5796287,1.0640422,1.1596147,0.47261935,0.25183952,0.90708053,781.28204,795.38464,785.31134,792.1612,786.52014,0.03228759765625,0.12548828125,0.9847412109375,7.28240966796875,-10.706787109375,0.710296630859375,1.0,1.0,1.0,1.0,1.0,90.0,event
12:12:41.006,0.62310857,0.75509864,0.7070706,0.6651972,0.54120356,0.38361552,0.42711306,0.9142732,0.67367864,0.21730934,0.2466378,1.0906339,0.9807004,0.5376462,0.5796287,1.0640422,1.1596147,0.47261935,0.25183952,0.90708053,787.72894,807.8755,794.17584,816.337,824.3956,0.03228759765625,0.12548828125,0.9847412109375,7.28240966796875,-10.706787109375,0.710296630859375,1.0,1.0,1.0,1.0,1.0,90.0,event
12:12:41.064,0.62310857,0.75509864,0.7070706,0.6651972,0.54120356,0.38361552,0.42711306,0.9142732,0.67367864,0.21730934,0.2466378,1.0906339,0.9807004,0.5376462,0.5796287,1.0640422,1.1596147,0.47261935,0.25183952,0.90708053,790.54944,813.1135,804.65204,805.4579,677.326,0.032470703125,0.127197265625,0.968017578125,5.5029296875,-7.245025634765625,2.818756103515625,1.0,1.0,1.0,1.0,1.0,90.0,event
12:12:41.065,0.62310857,0.75509864,0.7070706,0.6651972,0.54120356,0.38361552,0.42711306,0.9142732,0.67367864,0.21730934,0.2466378,1.0906339,0.9807004,0.5376462,0.5796287,1.0640422,1.1596147,0.47261935,0.25183952,0.90708053,784.90845,805.4579,812.71063,792.96704,648.315,0.032470703125,0.127197265625,0.968017578125,5.5029296875,-7.245025634765625,2.818756103515625,1.0,1.0,1.0,1.0,1.0,90.0,event
12:12:41.065,0.62310857,0.75509864,0.7070706,0.6651972,0.54120356,0.38361552,0.42711306,0.9142732,0.67367864,0.21730934,0.2466378,1.0906339,0.9807004,0.5376462,0.5796287,1.0640422,1.1596147,0.47261935,0.25183952,0.90708053,785.7143,804.65204,824.3956,791.3553,704.7253,0.032470703125,0.127197265625,0.968017578125,5.5029296875,-7.245025634765625,2.818756103515625,1.0,1.0,1.0,1.0,1.0,90.0,event
12:12:41.066,0.62310857,0.75509864,0.7070706,0.6651972,0.54120356,0.38361552,0.42711306,0.9142732,0.67367864,0.21730934,0.2466378,1.0906339,0.9807004,0.5376462,0.5796287,1.0640422,1.1596147,0.47261935,0.25183952,0.90708053,797.3993,799.41394,811.0989,795.78754,743.8095,0.032470703125,0.127197265625,0.968017578125,5.5029296875,-7.245025634765625,2.818756103515625,1.0,1.0,1.0,1.0,1.0,90.0,event
12:12:41.066,0.62310857,0.75509864,0.7070706,0.6651972,0.54120356,0.38361552,0.42711306,0.9142732,0.67367864,0.21730934,0.2466378,1.0906339,0.9807004,0.5376462,0.5796287,1.0640422,1.1596147,0.47261935,0.25183952,0.90708053,821.5751,801.02563,805.05493,812.71063,755.89746,0.032470703125,0.127197265625,0.968017578125,5.5029296875,-7.245025634765625,2.818756103515625,1.0,1.0,1.0,1.0,1.0,90.0,event
12:12:41.066,0.62310857,0.75509864,0.7070706,0.6651972,0.54120356,0.38361552,0.42711306,0.9142732,0.67367864,0.21730934,0.2466378,1.0906339,0.9807004,0.5376462,0.5796287,1.0640422,1.1596147,0.47261935,0.25183952,0.90708053,820.7692,796.5934,799.011,821.5751,849.7802,0.032470703125,0.127197265625,0.968017578125,5.5029296875,-7.245025634765625,2.818756103515625,1.0,1.0,1.0,1.0,1.0,90.0,event
12:12:41.067,0.62310857,0.75509864,0.7070706,0.6651972,0.54120356,0.38361552,0.42711306,0.9142732,0.67367864,0.21730934,0.2466378,1.0906339,0.9807004,0.5376462,0.5796287,1.0640422,1.1596147,0.47261935,0.25183952,0.90708053,799.41394,799.011,790.14655,826.0073,1112.0879,0.032470703125,0.127197265625,0.968017578125,5.5029296875,-7.245025634765625,2.818756103515625,1.0,1.0,1.0,1.0,1.0,90.0,event
12:12:41.067,0.62310857,0.7437116,0.7401472,0.6651972,0.54120356,0.3829011,0.46539202,0.9142732,0.67367864,0.19971356,0.24461865,1.0906339,0.9807004,0.5310023,0.6079428,1.0640422,1.1596147,0.49096578,0.23886293,0.90708053,803.44324,801.02563,796.1905,825.2015,1023.0403,0.032470703125,0.127197265625,0.968017578125,5.5029296875,-7.245025634765625,2.818756103515625,1.0,1.0,1.0,1.0,1.0,90.0,event
12:12:41.070,0.62310857,0.7437116,0.7401472,0.6651972,0.54120356,0.3829011,0.46539202,0.9142732,0.67367864,0.19971356,0.24461865,1.0906339,0.9807004,0.5310023,0.6079428,1.0640422,1.1596147,0.49096578,0.23886293,0.90708053,817.5458,801.8315,801.4286,824.3956,707.9487,0.032470703125,0.127197265625,0.968017578125,5.5029296875,-7.245025634765625,2.818756103515625,1.0,1.0,1.0,1.0,1.0,90.0,event
12:12:41.070,0.62310857,0.7437116,0.7401472,0.6651972,0.54120356,0.3829011,0.46539202,0.9142732,0.67367864,0.19971356,0.24461865,1.0906339,0.9807004,0.5310023,0.6079428,1.0640422,1.1596147,0.49096578,0.23886293,0.90708053,821.5751,807.47253,810.293,837.6923,737.76556,0.032470703125,0.127197265625,0.968017578125,5.5029296875,-7.245025634765625,2.818756103515625,1.0,1.0,1.0,1.0,1.0,90.0,event
12:12:41.071,0.62310857,0.7437116,0.7401472,0.6651972,0.54120356,0.3829011,0.46539202,0.9142732,0.67367864,0.19971356,0.24461865,1.0906339,0.9807004,0.5310023,0.6079428,1.0640422,1.1596147,0.49096578,0.23886293,0.90708053,829.2308,820.3663,813.1135,844.94507,767.1795,0.032470703125,0.127197265625,0.968017578125,5.5029296875,-7.245025634765625,2.818756103515625,1.0,1.0,1.0,1.0,1.0,90.0,event
12:12:41.071,0.62310857,0.7437116,0.7401472,0.6651972,0.54120356,0.3829011,0.46539202,0.9142732,0.67367864,0.19971356,0.24461865,1.0906339,0.9807004,0.5310023,0.6079428,1.0640422,1.1596147,0.49096578,0.23886293,0.90708053,826.0073,803.0403,824.7985,857.4359,792.1612,0.032470703125,0.127197265625,0.968017578125,5.5029296875,-7.245025634765625,2.818756103515625,1.0,1.0,1.0,1.0,1.0,90.0,event
12:12:41.098,0.62310857,0.7437116,0.7401472,0.6651972,0.54120356,0.3829011,0.46539202,0.9142732,0.67367864,0.19971356,0.24461865,1.0906339,0.9807004,0.5310023,0.6079428,1.0640422,1.1596147,0.49096578,0.23886293,0.90708053,810.293,826.4103,812.3077,805.4579,739.7802,0.02838134765625,0.13470458984375,0.98992919921875,4.837493896484375,-3.790740966796875,1.637420654296875,1.0,1.0,1.0,1.0,1.0,90.0,event
12:12:41.099,0.62310857,0.7437116,0.7401472,0.6651972,0.54120356,0.3829011,0.46539202,0.9142732,0.67367864,0.19971356,0.24461865,1.0906339,0.9807004,0.5310023,0.6079428,1.0640422,1.1596147,0.49096578,0.23886293,0.90708053,767.1795,806.26373,817.1429,770.80585,805.4579,0.02838134765625,0.13470458984375,0.98992919921875,4.837493896484375,-3.790740966796875,1.637420654296875,1.0,1.0,1.0,1.0,1.0,90.0,event
12:12:41.100,0.62310857,0.7437116,0.7401472,0.6651972,0.54120356,0.3829011,0.46539202,0.9142732,0.67367864,0.19971356,0.24461865,1.0906339,0.9807004,0.5310023,0.6079428,1.0640422,1.1596147,0.49096578,0.23886293,0.90708053,750.65936,794.17584,794.57874,787.326,886.4469,0.02838134765625,0.13470458984375,0.98992919921875,4.837493896484375,-3.790740966796875,1.637420654296875,1.0,1.0,1.0,1.0,1.0,90.0,event
12:12:41.100,0.62310857,0.7437116,0.7401472,0.6651972,0.54120356,0.3829011,0.46539202,0.9142732,0.67367864,0.19971356,0.24461865,1.0906339,0.9807004,0.5310023,0.6079428,1.0640422,1.1596147,0.49096578,0.23886293,0.90708053,755.4945,798.20514,781.685,801.02563,826.8132,0.02838134765625,0.13470458984375,0.98992919921875,4.837493896484375,-3.790740966796875,1.637420654296875,1.0,1.0,1.0,1.0,1.0,90.0,event
12:12:41.101,0.62310857,0.7437116,0.7401472,0.6651972,0.54120356,0.3829011,0.46539202,0.9142732,0.67367864,0.19971356,0.24461865,1.0906339,0.9807004,0.5310023,0.6079428,1.0640422,1.1596147,0.49096578,0.23886293,0.90708053,767.5824,797.8022,797.3993,780.87915,753.0769,0.02838134765625,0.13470458984375,0.98992919921875,4.837493896484375,-3.790740966796875,1.637420654296875,1.0,1.0,1.0,1.0,1.0,90.0,event
12:12:41.101,0.62310857,0.7437116,0.7401472,0.6651972,0.54120356,0.3829011,0.46539202,0.9142732,0.67367864,0.19971356,0.24461865,1.0906339,0.9807004,0.5310023,0.6079428,1.0640422,1.1596147,0.49096578,0.23886293,0.90708053,786.1172,797.8022,807.8755,766.77655,890.07324,0.02838134765625,0.13470458984375,0.98992919921875,4.837493896484375,-3.790740966796875,1.637420654296875,1.0,1.0,1.0,1.0,1.0,90.0,event
12:12:41.102,0.62310857,0.7437116,0.7401472,0.6651972,0.54120356,0.3829011,0.46539202,0.9142732,0.67367864,0.19971356,0.24461865,1.0906339,0.9807004,0.5310023,0.6079428,1.0640422,1.1596147,0.49096578,0.23886293,0.90708053,795.78754,806.6667,806.26373,743.8095,973.47986,0.02838134765625,0.13470458984375,0.98992919921875,4.837493896484375,-3.790740966796875,1.637420654296875,1.0,1.0,1.0,1.0,1.0,90.0,event
12:12:41.102,0.62310857,0.7437116,0.7401472,0.6651972,0.54120356,0.3829011,0.46539202,0.9142732,0.67367864,0.19971356,0.24461865,1.0906339,0.9807004,0.5310023,0.6079428,1.0640422,1.1596147,0.49096578,0.23886293,0.90708053,770.0,801.8315,811.9048,742.6007,713.9927,0.02838134765625,0.13470458984375,0.98992919921875,4.837493896484375,-3.790740966796875,1.637420654296875,1.0,1.0,1.0,1.0,1.0,90.0,event
12:12:41.103,0.62310857,0.7437116,0.7401472,0.6651972,0.54120356,0.3829011,0.46539202,0.9142732,0.67367864,0.19971356,0.24461865,1.0906339,0.9807004,0.5310023,0.6079428,1.0640422,1.1596147,0.49096578,0.23886293,0.90708053,739.3773,806.6667,808.2784,789.34064,888.46155,0.02838134765625,0.13470458984375,0.98992919921875,4.837493896484375,-3.790740966796875,1.637420654296875,1.0,1.0,1.0,1.0,1.0,90.0,event
12:12:41.103,0.62310857,0.7437116,0.7401472,0.6651972,0.54120356,0.3829011,0.46539202,0.9142732,0.67367864,0.19971356,0.24461865,1.0906339,0.9807004,0.5310023,0.6079428,1.0640422,1.1596147,0.49096578,0.23886293,0.90708053,736.55676,803.44324,815.12823,760.32965,669.67035,0.02838134765625,0.13470458984375,0.98992919921875,4.837493896484375,-3.790740966796875,1.637420654296875,1.0,1.0,1.0,1.0,1.0,90.0,event
12:12:41.104,0.62310857,0.7437116,0.7401472,0.6651972,0.54120356,0.3829011,0.46539202,0.9142732,0.67367864,0.19971356,0.24461865,1.0906339,0.9807004,0.5310023,0.6079428,1.0640422,1.1596147,0.49096578,0.23886293,0.90708053,723.663,792.5641,799.41394,783.2967,903.7729,0.02838134765625,0.13470458984375,0.98992919921875,4.837493896484375,-3.790740966796875,1.637420654296875,1.0,1.0,1.0,1.0,1.0,90.0,event
12:12:41.104,0.62310857,0.7437116,0.7401472,0.6651972,0.54120356,0.3829011,0.46539202,0.9142732,0.67367864,0.19971356,0.24461865,1.0906339,0.9807004,0.5310023,0.6079428,1.0640422,1.1596147,0.49096578,0.23886293,0.90708053,734.5421,790.14655,802.23444,769.59705,708.3516,0.02838134765625,0.13470458984375,0.98992919921875,4.837493896484375,-3.790740966796875,1.637420654296875,1.0,1.0,1.0,1.0,1.0,90.0,event
12:12:41.175,0.62310857,0.7437116,0.7401472,0.6651972,0.54120356,0.3829011,0.46539202,0.9142732,0.67367864,0.19971356,0.24461865,1.0906339,0.9807004,0.5310023,0.6079428,1.0640422,1.1596147,0.49096578,0.23886293,0.90708053,753.47986,810.696,808.2784,783.69965,695.8608,0.02838134765625,0.13470458984375,0.98992919921875,4.837493896484375,-3.790740966796875,1.637420654296875,1.0,1.0,1.0,1.0,1.0,90.0,event
12:12:41.177,0.62310857,0.7437116,0.7401472,0.6651972,0.54120356,0.3829011,0.46539202,0.9142732,0.67367864,0.19971356,0.24461865,1.0906339,0.9807004,0.5310023,0.6079428,1.0640422,1.1596147,0.49096578,0.23886293,0.90708053,757.50916,806.26373,807.47253,801.02563,724.0659,0.02838134765625,0.13470458984375,0.98992919921875,4.837493896484375,-3.790740966796875,1.637420654296875,1.0,1.0,1.0,1.0,1.0,90.0,event
12:12:41.177,0.62310857,0.7437116,0.7401472,0.6651972,0.54120356,0.3829011,0.46539202,0.9142732,0.67367864,0.19971356,0.24461865,1.0906339,0.9807004,0.5310023,0.6079428,1.0640422,1.1596147,0.49096578,0.23886293,0.90708053,778.86444,796.5934,806.6667,794.57874,736.1539,0.02838134765625,0.13470458984375,0.98992919921875,4.837493896484375,-3.790740966796875,1.637420654296875,1.0,1.0,1.0,1.0,1.0,90.0,event
12:12:41.178,0.62310857,0.7437116,0.7401472,0.6651972,0.54120356,0.3829011,0.46539202,0.9142732,0.67367864,0.19971356,0.24461865,1.0906339,0.9807004,0.5310023,0.6079428,1.0640422,1.1596147,0.49096578,0.23886293,0.90708053,776.4469,812.3077,805.8608,781.28204,832.8571,0.02838134765625,0.13470458984375,0.98992919921875,4.837493896484375,-3.790740966796875,1.637420654296875,1.0,1.0,1.0,1.0,1.0,90.0,event
12:12:41.179,0.62310857,0.7437116,0.7401472,0.6651972,0.54120356,0.3829011,0.46539202,0.9142732,0.67367864,0.19971356,0.24461865,1.0906339,0.9807004,0.5310023,0.6079428,1.0640422,1.1596147,0.49096578,0.23886293,0.90708053,762.74725,816.337,806.6667,786.52014,788.93774,0.02838134765625,0.13470458984375,0.98992919921875,4.837493896484375,-3.790740966796875,1.637420654296875,1.0,1.0,1.0,1.0,1.0,90.0,event
12:12:41.180,0.62310857,0.7437116,0.7401472,0.6651972,0.54120356,0.3829011,0.46539202,0.9142732,0.67367864,0.19971356,0.24461865,1.0906339,0.9807004,0.5310023,0.6079428,1.0640422,1.1596147,0.49096578,0.23886293,0.90708053,813.91943,813.91943,792.5641,819.5604,1135.0549,0.02838134765625,0.13470458984375,0.98992919921875,4.837493896484375,-3.790740966796875,1.637420654296875,1.0,1.0,1.0,1.0,1.0,90.0,event
12:12:41.180,0.62310857,0.7437116,0.7401472,0.6651972,0.54120356,0.3829011,0.46539202,0.9142732,0.67367864,0.19971356,0.24461865,1.0906339,0.9807004,0.5310023,0.6079428,1.0640422,1.1596147,0.49096578,0.23886293,0.90708053,784.10254,814.3223,801.02563,794.9817,986.77655,0.02838134765625,0.13470458984375,0.98992919921875,4.837493896484375,-3.790740966796875,1.637420654296875,1.0,1.0,1.0,1.0,1.0,90.0,event
12:12:41.181,0.62310857,0.7437116,0.7401472,0.6651972,0.54120356,0.3829011,0.46539202,0.9142732,0.67367864,0.19971356,0.24461865,1.0906339,0.9807004,0.5310023,0.6079428,1.0640422,1.1596147,0.49096578,0.23886293,0.90708053,783.69965,805.4579,797.8022,830.0366,744.21246,0.02838134765625,0.13470458984375,0.98992919921875,4.837493896484375,-3.790740966796875,1.637420654296875,1.0,1.0,1.0,1.0,1.0,90.0,event
12:12:41.182,0.62310857,0.7437116,0.7401472,0.6651972,0.54120356,0.3829011,0.46539202,0.9142732,0.67367864,0.19971356,0.24461865,1.0906339,0.9807004,0.5310023,0.6079428,1.0640422,1.1596147,0.49096578,0.23886293,0.90708053,763.95605,805.8608,808.2784,793.36993,666.8498,0.02838134765625,0.13470458984375,0.98992919921875,4.837493896484375,-3.790740966796875,1.637420654296875,1.0,1.0,1.0,1.0,1.0,90.0,event
12:12:41.183,0.62310857,0.71130306,0.84058803,0.6651972,0.54120356,0.36460987,0.5088437,0.9142732,0.67367864,0.18848503,0.2630746,1.0906339,0.9807004,0.51212794,0.6127329,1.0640422,1.1596147,0.50356543,0.28581095,0.90708053,777.25275,807.8755,814.7253,782.49084,755.4945,0.02838134765625,0.13470458984375,0.98992919921875,4.837493896484375,-3.790740966796875,1.637420654296875,1.0,1.0,1.0,1.0,1.0,90.0,event
12:12:41.188,0.62310857,0.71130306,0.84058803,0.6651972,0.54120356,0.36460987,0.5088437,0.9142732,0.67367864,0.18848503,0.2630746,1.0906339,0.9807004,0.51212794,0.6127329,1.0640422,1.1596147,0.50356543,0.28581095,0.90708053,783.2967,798.20514,804.2491,788.1319,711.5751,0.02838134765625,0.13470458984375,0.98992919921875,4.837493896484375,-3.790740966796875,1.637420654296875,1.0,1.0,1.0,1.0,1.0,90.0,event
12:12:41.188,0.62310857,0.71130306,0.84058803,0.6651972,0.54120356,0.36460987,0.5088437,0.9142732,0.67367864,0.18848503,0.2630746,1.0906339,0.9807004,0.51212794,0.6127329,1.0640422,1.1596147,0.50356543,0.28581095,0.90708053,799.41394,801.02563,796.1905,793.7729,672.0879,0.02838134765625,0.13470458984375,0.98992919921875,4.837493896484375,-3.790740966796875,1.637420654296875,1.0,1.0,1.0,1.0,1.0,90.0,event
12:12:41.219,0.62310857,0.71130306,0.84058803,0.6651972,0.54120356,0.36460987,0.5088437,0.9142732,0.67367864,0.18848503,0.2630746,1.0906339,0.9807004,0.51212794,0.6127329,1.0640422,1.1596147,0.50356543,0.28581095,0.90708053,811.50183,818.7546,796.5934,817.1429,696.6667,0.0418701171875,0.150390625,0.98712158203125,2.87109375,-3.6187744140625,-2.01873779296875,1.0,1.0,1.0,1.0,1.0,90.0,event
12:12:41.220,0.62310857,0.71130306,0.84058803,0.6651972,0.54120356,0.36460987,0.5088437,0.9142732,0.67367864,0.18848503,0.2630746,1.0906339,0.9807004,0.51212794,0.6127329,1.0640422,1.1596147,0.50356543,0.28581095,0.90708053,802.23444,809.89014,803.44324,819.5604,753.0769,0.0418701171875,0.150390625,0.98712158203125,2.87109375,-3.6187744140625,-2.01873779296875,1.0,1.0,1.0,1.0,1.0,90.0,event
12:12:41.221,0.62310857,0.71130306,0.84058803,0.6651972,0.54120356,0.36460987,0.5088437,0.9142732,0.67367864,0.18848503,0.2630746,1.0906339,0.9807004,0.51212794,0.6127329,1.0640422,1.1596147,0.50356543,0.28581095,0.90708053,794.9817,804.65204,803.8461,813.91943,699.89014,0.0418701171875,0.150390625,0.98712158203125,2.87109375,-3.6187744140625,-2.01873779296875,1.0,1.0,1.0,1.0,1.0,90.0,event
12:12:41.221,0.62310857,0.71130306,0.84058803,0.6651972,0.54120356,0.36460987,0.5088437,0.9142732,0.67367864,0.18848503,0.2630746,1.0906339,0.9807004,0.51212794,0.6127329,1.0640422,1.1596147,0.50356543,0.28581095,0.90708053,811.50183,814.7253,797.8022,819.15753,667.6557,0.0418701171875,0.150390625,0.98712158203125,2.87109375,-3.6187744140625,-2.01873779296875,1.0,1.0,1.0,1.0,1.0,90.0,event
12:12:41.222,0.62310857,0.71130306,0.84058803,0.6651972,0.54120356,0.36460987,0.5088437,0.9142732,0.67367864,0.18848503,0.2630746,1.0906339,0.9807004,0.51212794,0.6127329,1.0640422,1.1596147,0.50356543,0.28581095,0.90708053,813.1135,817.1429,809.4872,807.47253,747.03296,0.0418701171875,0.150390625,0.98712158203125,2.87109375,-3.6187744140625,-2.01873779296875,1.0,1.0,1.0,1.0,1.0,90.0,event
12:12:41.223,0.62310857,0.71130306,0.84058803,0.6651972,0.54120356,0.36460987,0.5088437,0.9142732,0.67367864,0.18848503,0.2630746,1.0906339,0.9807004,0.51212794,0.6127329,1.0640422,1.1596147,0.50356543,0.28581095,0.90708053,804.65204,801.8315,811.9048,789.7436,886.8498,0.0418701171875,0.150390625,0.98712158203125,2.87109375,-3.6187744140625,-2.01873779296875,1.0,1.0,1.0,1.0,1.0,90.0,event
12:12:41.225,0.62310857,0.71130306,0.84058803,0.6651972,0.54120356,0.36460987,0.5088437,0.9142732,0.67367864,0.18848503,0.2630746,1.0906339,0.9807004,0.51212794,0.6127329,1.0640422,1.1596147,0.50356543,0.28581095,0.90708053,775.64105,796.99634,800.6227,793.36993,886.8498,0.0418701171875,0.150390625,0.98712158203125,2.87109375,-3.6187744140625,-2.01873779296875,1.0,1.0,1.0,1.0,1.0,90.0,event
12:12:41.226,0.62310857,0.71130306,0.84058803,0.6651972,0.54120356,0.36460987,0.5088437,0.9142732,0.67367864,0.18848503,0.2630746,1.0906339,0.9807004,0.51212794,0.6127329,1.0640422,1.1596147,0.50356543,0.28581095,0.90708053,759.5238,815.9341,791.3553,803.44324,826.4103,0.0418701171875,0.150390625,0.98712158203125,2.87109375,-3.6187744140625,-2.01873779296875,1.0,1.0,1.0,1.0,1.0,90.0,event
12:12:41.227,0.62310857,0.71130306,0.84058803,0.6651972,0.54120356,0.36460987,0.5088437,0.9142732,0.67367864,0.18848503,0.2630746,1.0906339,0.9807004,0.51212794,0.6127329,1.0640422,1.1596147,0.50356543,0.28581095,0.90708053,772.4176,809.4872,794.17584,803.0403,880.40295,0.0418701171875,0.150390625,0.98712158203125,2.87109375,-3.6187744140625,-2.01873779296875,1.0,1.0,1.0,1.0,1.0,90.0,event
12:12:41.228,0.62310857,0.71130306,0.84058803,0.6651972,0.54120356,0.36460987,0.5088437,0.9142732,0.67367864,0.18848503,0.2630746,1.0906339,0.9807004,0.51212794,0.6127329,1.0640422,1.1596147,0.50356543,0.28581095,0.90708053,768.3883,789.7436,798.60803,805.4579,1033.1135,0.0418701171875,0.150390625,0.98712158203125,2.87109375,-3.6187744140625,-2.01873779296875,1.0,1.0,1.0,1.0,1.0,90.0,event
12:12:41.229,0.62310857,0.71130306,0.84058803,0.6651972,0.54120356,0.36460987,0.5088437,0.9142732,0.67367864,0.18848503,0.2630746,1.0906339,0.9807004,0.51212794,0.6127329,1.0640422,1.1596147,0.50356543,0.28581095,0.90708053,774.0293,791.75824,808.68134,786.9231,844.1392,0.0418701171875,0.150390625,0.98712158203125,2.87109375,-3.6187744140625,-2.01873779296875,1.0,1.0,1.0,1.0,1.0,90.0,event
12:12:41.230,0.62310857,0.71130306,0.84058803,0.6651972,0.54120356,0.36460987,0.5088437,0.9142732,0.67367864,0.18848503,0.2630746,1.0906339,0.9807004,0.51212794,0.6127329,1.0640422,1.1596147,0.50356543,0.28581095,0.90708053,792.5641,800.6227,805.8608,788.5348,633.00366,0.0418701171875,0.150390625,0.98712158203125,2.87109375,-3.6187744140625,-2.01873779296875,1.0,1.0,1.0,1.0,1.0,90.0,event
12:12:41.257,0.62310857,0.71130306,0.84058803,0.6651972,0.54120356,0.36460987,0.5088437,0.9142732,0.67367864,0.18848503,0.2630746,1.0906339,0.9807004,0.51212794,0.6127329,1.0640422,1.1596147,0.50356543,0.28581095,0.90708053,795.78754,795.38464,794.17584,815.12823,688.20514,0.024169921875,0.1409912109375,0.969970703125,2.295379638671875,-2.16827392578125,-3.7384033203125,1.0,1.0,1.0,1.0,1.0,90.0,event
12:12:41.258,0.62310857,0.71130306,0.84058803,0.6651972,0.54120356,0.36460987,0.5088437,0.9142732,0.67367864,0.18848503,0.2630746,1.0906339,0.9807004,0.51212794,0.6127329,1.0640422,1.1596147,0.50356543,0.28581095,0.90708053,790.14655,789.34064,798.20514,808.2784,798.60803,0.024169921875,0.1409912109375,0.969970703125,2.295379638671875,-2.16827392578125,-3.7384033203125,1.0,1.0,1.0,1.0,1.0,90.0,event
12:12:41.259,0.62310857,0.71130306,0.84058803,0.6651972,0.54120356,0.36460987,0.5088437,0.9142732,0.67367864,0.18848503,0.2630746,1.0906339,0.9807004,0.51212794,0.6127329,1.0640422,1.1596147,0.50356543,0.28581095,0.90708053,776.8498,796.1905,801.4286,791.75824,785.7143,0.024169921875,0.1409912109375,0.969970703125,2.295379638671875,-2.16827392578125,-3.7384033203125,1.0,1.0,1.0,1.0,1.0,90.0,event
12:12:41.260,0.62310857,0.71130306,0.84058803,0.6651972,0.54120356,0.36460987,0.5088437,0.9142732,0.67367864,0.18848503,0.2630746,1.0906339,0.9807004,0.51212794,0.6127329,1.0640422,1.1596147,0.50356543,0.28581095,0.90708053,792.96704,810.293,795.38464,795.38464,732.52747,0.024169921875,0.1409912109375,0.969970703125,2.295379638671875,-2.16827392578125,-3.7384033203125,1.0,1.0,1.0,1.0,1.0,90.0,event
12:12:41.260,0.62310857,0.71130306,0.84058803,0.6651972,0.54120356,0.36460987,0.5088437,0.9142732,0.67367864,0.18848503,0.2630746,1.0906339,0.9807004,0.51212794,0.6127329,1.0640422,1.1596147,0.50356543,0.28581095,0.90708053,799.81683,812.71063,790.9524,800.2198,789.34064,0.024169921875,0.1409912109375,0.969970703125,2.295379638671875,-2.16827392578125,-3.7384033203125,1.0,1.0,1.0,1.0,1.0,90.0,event
12:12:41.261,0.62310857,0.71130306,0.84058803,0.6651972,0.54120356,0.36460987,0.5088437,0.9142732,0.67367864,0.18848503,0.2630746,1.0906339,0.9807004,0.51212794,0.6127329,1.0640422,1.1596147,0.50356543,0.28581095,0.90708053,803.0403,809.4872,796.1905,809.0842,913.0403,0.024169921875,0.1409912109375,0.969970703125,2.295379638671875,-2.16827392578125,-3.7384033203125,1.0,1.0,1.0,1.0,1.0,90.0,event
12:12:41.261,0.62310857,0.71130306,0.84058803,0.6651972,0.54120356,0.36460987,0.5088437,0.9142732,0.67367864,0.18848503,0.2630746,1.0906339,0.9807004,0.51212794,0.6127329,1.0640422,1.1596147,0.50356543,0.28581095,0.90708053,813.5165,809.89014,791.75824,811.9048,845.34796,0.024169921875,0.1409912109375,0.969970703125,2.295379638671875,-2.16827392578125,-3.7384033203125,1.0,1.0,1.0,1.0,1.0,90.0,event
12:12:41.262,0.62310857,0.71130306,0.84058803,0.6651972,0.54120356,0.36460987,0.5088437,0.9142732,0.67367864,0.18848503,0.2630746,1.0906339,0.9807004,0.51212794,0.6127329,1.0640422,1.1596147,0.50356543,0.28581095,0.90708053,785.7143,805.05493,796.99634,809.4872,804.2491,0.024169921875,0.1409912109375,0.969970703125,2.295379638671875,-2.16827392578125,-3.7384033203125,1.0,1.0,1.0,1.0,1.0,90.0,event
12:12:41.262,0.62310857,0.71130306,0.84058803,0.6651972,0.54120356,0.36460987,0.5088437,0.9142732,0.67367864,0.18848503,0.2630746,1.0906339,0.9807004,0.51212794,0.6127329,1.0640422,1.1596147,0.50356543,0.28581095,0.90708053,773.6264,800.6227,802.23444,818.7546,933.1868,0.024169921875,0.1409912109375,0.969970703125,2.295379638671875,-2.16827392578125,-3.7384033203125,1.0,1.0,1.0,1.0,1.0,90.0,event
12:12:41.263,0.62310857,0.71130306,0.84058803,0.6651972,0.54120356,0.36460987,0.5088437,0.9142732,0.67367864,0.18848503,0.2630746,1.0906339,0.9807004,0.51212794,0.6127329,1.0640422,1.1596147,0.50356543,0.28581095,0.90708053,805.05493,805.05493,813.5165,822.7839,1047.619,0.024169921875,0.1409912109375,0.969970703125,2.295379638671875,-2.16827392578125,-3.7384033203125,1.0,1.0,1.0,1.0,1.0,90.0,event
12:12:41.263,0.62310857,0.71130306,0.84058803,0.6651972,0.54120356,0.36460987,0.5088437,0.9142732,0.67367864,0.18848503,0.2630746,1.0906339,0.9807004,0.51212794,0.6127329,1.0640422,1.1596147,0.50356543,0.28581095,0.90708053,833.2601,805.4579,806.6667,824.7985,774.83514,0.024169921875,0.1409912109375,0.969970703125,2.295379638671875,-2.16827392578125,-3.7384033203125,1.0,1.0,1.0,1.0,1.0,90.0,event
12:12:41.264,0.62310857,0.62864965,0.8538985,0.6651972,0.54120356,0.30449003,0.4986561,0.9142732,0.67367864,0.17824523,0.23552577,1.0906339,0.9807004,0.4861313,0.6081729,1.0640422,1.1596147,0.50678253,0.34277046,0.90708053,784.90845,797.3993,792.96704,822.7839,738.1685,0.024169921875,0.1409912109375,0.969970703125,2.295379638671875,-2.16827392578125,-3.7384033203125,1.0,1.0,1.0,1.0,1.0,90.0,event
12:12:41.293,0.62310857,0.62864965,0.8538985,0.6651972,0.54120356,0.30449003,0.4986561,0.9142732,0.67367864,0.17824523,0.23552577,1.0906339,0.9807004,0.4861313,0.6081729,1.0640422,1.1596147,0.50678253,0.34277046,0.90708053,782.0879,797.8022,799.011,826.0073,850.989,0.01220703125,0.13287353515625,0.97900390625,5.8917236328125,3.297271728515625,-6.243133544921875,1.0,1.0,1.0,1.0,1.0,90.0,event
12:12:41.294,0.62310857,0.62864965,0.8538985,0.6651972,0.54120356,0.30449003,0.4986561,0.9142732,0.67367864,0.17824523,0.23552577,1.0906339,0.9807004,0.4861313,0.6081729,1.0640422,1.1596147,0.50678253,0.34277046,0.90708053,804.65204,798.20514,817.5458,821.1722,797.8022,0.01220703125,0.13287353515625,0.97900390625,5.8917236328125,3.297271728515625,-6.243133544921875,1.0,1.0,1.0,1.0,1.0,90.0,event
12:12:41.295,0.62310857,0.62864965,0.8538985,0.6651972,0.54120356,0.30449003,0.4986561,0.9142732,0.67367864,0.17824523,0.23552577,1.0906339,0.9807004,0.4861313,0.6081729,1.0640422,1.1596147,0.50678253,0.34277046,0.90708053,800.6227,807.0696,809.4872,807.8755,674.90845,0.01220703125,0.13287353515625,0.97900390625,5.8917236328125,3.297271728515625,-6.243133544921875,1.0,1.0,1.0,1.0,1.0,90.0,event
12:12:41.295,0.62310857,0.62864965,0.8538985,0.6651972,0.54120356,0.30449003,0.4986561,0.9142732,0.67367864,0.17824523,0.23552577,1.0906339,0.9807004,0.4861313,0.6081729,1.0640422,1.1596147,0.50678253,0.34277046,0.90708053,794.9817,815.9341,785.31134,813.91943,717.619,0.01220703125,0.13287353515625,0.97900390625,5.8917236328125,3.297271728515625,-6.243133544921875,1.0,1.0,1.0,1.0,1.0,90.0,event
12:12:41.296,0.62310857,0.62864965,0.8538985,0.6651972,0.54120356,0.30449003,0.4986561,0.9142732,0.67367864,0.17824523,0.23552577,1.0906339,0.9807004,0.4861313,0.6081729,1.0640422,1.1596147,0.50678253,0.34277046,0.90708053,782.49084,790.54944,809.4872,817.9487,746.63007,0.01220703125,0.13287353515625,0.97900390625,5.8917236328125,3.297271728515625,-6.243133544921875,1.0,1.0,1.0,1.0,1.0,90.0,event
12:12:41.296,0.62310857,0.62864965,0.8538985,0.6651972,0.54120356,0.30449003,0.4986561,0.9142732,0.67367864,0.17824523,0.23552577,1.0906339,0.9807004,0.4861313,0.6081729,1.0640422,1.1596147,0.50678253,0.34277046,0.90708053,807.47253,799.011,798.20514,825.2015,790.54944,0.01220703125,0.13287353515625,0.97900390625,5.8917236328125,3.297271728515625,-6.243133544921875,1.0,1.0,1.0,1.0,1.0,90.0,event
12:12:41.297,0.62310857,0.62864965,0.8538985,0.6651972,0.54120356,0.30449003,0.4986561,0.9142732,0.67367864,0.17824523,0.23552577,1.0906339,0.9807004,0.4861313,0.6081729,1.0640422,1.1596147,0.50678253,0.34277046,0.90708053,782.0879,813.5165,800.6227,810.696,748.6447,0.01220703125,0.13287353515625,0.97900390625,5.8917236328125,3.297271728515625,-6.243133544921875,1.0,1.0,1.0,1.0,1.0,90.0,event
12:12:41.297,0.62310857,0.62864965,0.8538985,0.6651972,0.54120356,0.30449003,0.4986561,0.9142732,0.67367864,0.17824523,0.23552577,1.0906339,0.9807004,0.4861313,0.6081729,1.0640422,1.1596147,0.50678253,0.34277046,0.90708053,811.50183,815.5311,796.5934,817.9487,865.09155,0.01220703125,0.13287353515625,0.97900390625,5.8917236328125,3.297271728515625,-6.243133544921875,1.0,1.0,1.0,1.0,1.0,90.0,event
