TimeStamp,Delta_TP9,Delta_AF7,Delta_AF8,Delta_TP10,Theta_TP9,Theta_AF7,Theta_AF8,Theta_TP10,Alpha_TP9,Alpha_AF7,Alpha_AF8,Alpha_TP10,Beta_TP9,Beta_AF7,Beta_AF8,Beta_TP10,Gamma_TP9,Gamma_AF7,Gamma_AF8,Gamma_TP10,RAW_TP9,RAW_AF7,RAW_AF8,RAW_TP10,AUX_RIGHT,Accelerometer_X,Accelerometer_Y,Accelerometer_Z,Gyro_X,Gyro_Y,Gyro_Z,HeadBandOn,HSI_TP9,HSI_AF7,HSI_AF8,HSI_TP10,Battery,Elements
12:18:05.340,1.5261282,-0.23433489,-0.31308934,1.3610457,1.139943,-0.35461745,-0.45214164,0.90541244,1.2415922,-0.08131026,-0.21554865,0.6843914,0.88221353,-0.19679743,-0.19507806,0.66947544,0.4001949,-0.43589348,-0.2587407,0.4608919,780.87915,801.02563,806.26373,784.10254,597.1429,-0.14599609375,-0.01190185546875,0.98974609375,1.60003662109375,-2.415008544921875,0.13458251953125,1.0,1.0,1.0,1.0,1.0,100.0,event
12:18:05.342,1.5261282,-0.23433489,-0.31308934,1.3610457,1.139943,-0.35461745,-0.45214164,0.90541244,1.2415922,-0.08131026,-0.21554865,0.6843914,0.88221353,-0.19679743,-0.19507806,0.66947544,0.4001949,-0.43589348,-0.2587407,0.4608919,778.46155,799.41394,809.4872,794.17584,670.4762,-0.14599609375,-0.01190185546875,0.98974609375,1.60003662109375,-2.415008544921875,0.13458251953125,1.0,1.0,1.0,1.0,1.0,100.0,event
12:18:05.343,1.5261282,-0.23433489,-0.31308934,1.3610457,1.139943,-0.35461745,-0.45214164,0.90541244,1.2415922,-0.08131026,-0.21554865,0.6843914,0.88221353,-0.19679743,-0.19507806,0.66947544,0.4001949,-0.43589348,-0.2587407,0.4608919,795.78754,795.78754,803.44324,822.381,734.1392,-0.14599609375,-0.01190185546875,0.98974609375,1.60003662109375,-2.415008544921875,0.13458251953125,1.0,1.0,1.0,1.0,1.0,100.0,event
12:18:05.343,1.5261282,-0.23433489,-0.31308934,1.3610457,1.139943,-0.35461745,-0.45214164,0.90541244,1.2415922,-0.08131026,-0.21554865,0.6843914,0.88221353,-0.19679743,-0.19507806,0.66947544,0.4001949,-0.43589348,-0.2587407,0.4608919,803.44324,797.8022,803.8461,833.2601,730.5128,-0.14599609375,-0.01190185546875,0.98974609375,1.60003662109375,-2.415008544921875,0.13458251953125,1.0,1.0,1.0,1.0,1.0,100.0,event
12:18:05.344,1.5261282,-0.23433489,-0.31308934,1.3610457,1.139943,-0.35461745,-0.45214164,0.90541244,1.2415922,-0.08131026,-0.21554865,0.6843914,0.88221353,-0.19679743,-0.19507806,0.66947544,0.4001949,-0.43589348,-0.2587407,0.4608919,803.44324,800.6227,807.8755,803.0403,698.2784,-0.14599609375,-0.01190185546875,0.98974609375,1.60003662109375,-2.415008544921875,0.13458251953125,1.0,1.0,1.0,1.0,1.0,100.0,event
12:18:05.345,1.5261282,-0.23433489,-0.31308934,1.3610457,1.139943,-0.35461745,-0.45214164,0.90541244,1.2415922,-0.08131026,-0.21554865,0.6843914,0.88221353,-0.19679743,-0.19507806,0.66947544,0.4001949,-0.43589348,-0.2587407,0.4608919,792.96704,801.4286,803.44324,785.7143,803.0403,-0.14599609375,-0.01190185546875,0.98974609375,1.60003662109375,-2.415008544921875,0.13458251953125,1.0,1.0,1.0,1.0,1.0,100.0,event
12:18:05.346,1.5261282,-0.23433489,-0.31308934,1.3610457,1.139943,-0.35461745,-0.45214164,0.90541244,1.2415922,-0.08131026,-0.21554865,0.6843914,0.88221353,-0.19679743,-0.19507806,0.66947544,0.4001949,-0.43589348,-0.2587407,0.4608919,794.57874,801.4286,801.8315,785.7143,985.9707,-0.14599609375,-0.01190185546875,0.98974609375,1.60003662109375,-2.415008544921875,0.13458251953125,1.0,1.0,1.0,1.0,1.0,100.0,event
12:18:05.346,1.5261282,-0.23433489,-0.31308934,1.3610457,1.139943,-0.35461745,-0.45214164,0.90541244,1.2415922,-0.08131026,-0.21554865,0.6843914,0.88221353,-0.19679743,-0.19507806,0.66947544,0.4001949,-0.43589348,-0.2587407,0.4608919,809.4872,807.0696,805.05493,797.8022,806.26373,-0.14599609375,-0.01190185546875,0.98974609375,1.60003662109375,-2.415008544921875,0.13458251953125,1.0,1.0,1.0,1.0,1.0,100.0,event
12:18:05.347,1.5261282,-0.23433489,-0.31308934,1.3610457,1.139943,-0.35461745,-0.45214164,0.90541244,1.2415922,-0.08131026,-0.21554865,0.6843914,0.88221353,-0.19679743,-0.19507806,0.66947544,0.4001949,-0.43589348,-0.2587407,0.4608919,824.3956,807.47253,805.4579,823.1868,641.06226,-0.14599609375,-0.01190185546875,0.98974609375,1.60003662109375,-2.415008544921875,0.13458251953125,1.0,1.0,1.0,1.0,1.0,100.0,event
12:18:05.348,1.5261282,-0.23433489,-0.31308934,1.3610457,1.139943,-0.35461745,-0.45214164,0.90541244,1.2415922,-0.08131026,-0.21554865,0.6843914,0.88221353,-0.19679743,-0.19507806,0.66947544,0.4001949,-0.43589348,-0.2587407,0.4608919,803.8461,803.0403,803.44324,789.7436,768.3883,-0.14599609375,-0.01190185546875,0.98974609375,1.60003662109375,-2.415008544921875,0.13458251953125,1.0,1.0,1.0,1.0,1.0,100.0,event
12:18:05.349,1.5261282,-0.23433489,-0.31308934,1.3610457,1.139943,-0.35461745,-0.45214164,0.90541244,1.2415922,-0.08131026,-0.21554865,0.6843914,0.88221353,-0.19679743,-0.19507806,0.66947544,0.4001949,-0.43589348,-0.2587407,0.4608919,768.7912,802.6374,803.44324,758.315,782.49084,-0.14599609375,-0.01190185546875,0.98974609375,1.60003662109375,-2.415008544921875,0.13458251953125,1.0,1.0,1.0,1.0,1.0,100.0,event
12:18:05.349,1.5261282,-0.23433489,-0.31308934,1.3610457,1.139943,-0.35461745,-0.45214164,0.90541244,1.2415922,-0.08131026,-0.21554865,0.6843914,0.88221353,-0.19679743,-0.19507806,0.66947544,0.4001949,-0.43589348,-0.2587407,0.4608919,783.69965,805.4579,804.65204,767.98535,672.49084,-0.14599609375,-0.01190185546875,0.98974609375,1.60003662109375,-2.415008544921875,0.13458251953125,1.0,1.0,1.0,1.0,1.0,100.0,event
12:18:05.379,1.5261282,-0.23433489,-0.31308934,1.3610457,1.139943,-0.35461745,-0.45214164,0.90541244,1.2415922,-0.08131026,-0.21554865,0.6843914,0.88221353,-0.19679743,-0.19507806,0.66947544,0.4001949,-0.43589348,-0.2587407,0.4608919,788.5348,801.8315,798.60803,781.28204,722.4542,-0.169677734375,-0.021728515625,0.96826171875,2.76641845703125,-2.594451904296875,-0.94207763671875,1.0,1.0,1.0,1.0,1.0,100.0,event
12:18:05.380,1.5261282,-0.23433489,-0.31308934,1.3610457,1.139943,-0.35461745,-0.45214164,0.90541244,1.2415922,-0.08131026,-0.21554865,0.6843914,0.88221353,-0.19679743,-0.19507806,0.66947544,0.4001949,-0.43589348,-0.2587407,0.4608919,783.2967,799.011,800.6227,801.8315,817.1429,-0.169677734375,-0.021728515625,0.96826171875,2.76641845703125,-2.594451904296875,-0.94207763671875,1.0,1.0,1.0,1.0,1.0,100.0,event
12:18:05.381,1.5261282,-0.23433489,-0.31308934,1.3610457,1.139943,-0.35461745,-0.45214164,0.90541244,1.2415922,-0.08131026,-0.21554865,0.6843914,0.88221353,-0.19679743,-0.19507806,0.66947544,0.4001949,-0.43589348,-0.2587407,0.4608919,782.8938,804.65204,805.05493,809.89014,863.8828,-0.169677734375,-0.021728515625,0.96826171875,2.76641845703125,-2.594451904296875,-0.94207763671875,1.0,1.0,1.0,1.0,1.0,100.0,event
12:18:05.382,1.5261282,-0.23433489,-0.31308934,1.3610457,1.139943,-0.35461745,-0.45214164,0.90541244,1.2415922,-0.08131026,-0.21554865,0.6843914,0.88221353,-0.19679743,-0.19507806,0.66947544,0.4001949,-0.43589348,-0.2587407,0.4608919,734.5421,799.81683,797.3993,743.00366,654.7619,-0.169677734375,-0.021728515625,0.96826171875,2.76641845703125,-2.594451904296875,-0.94207763671875,1.0,1.0,1.0,1.0,1.0,100.0,event
12:18:05.382,1.5261282,-0.23433489,-0.31308934,1.3610457,1.139943,-0.35461745,-0.45214164,0.90541244,1.2415922,-0.08131026,-0.21554865,0.6843914,0.88221353,-0.19679743,-0.19507806,0.66947544,0.4001949,-0.43589348,-0.2587407,0.4608919,755.4945,805.4579,800.6227,769.19415,758.315,-0.169677734375,-0.021728515625,0.96826171875,2.76641845703125,-2.594451904296875,-0.94207763671875,1.0,1.0,1.0,1.0,1.0,100.0,event
12:18:05.383,1.5261282,-0.23433489,-0.31308934,1.3610457,1.139943,-0.35461745,-0.45214164,0.90541244,1.2415922,-0.08131026,-0.21554865,0.6843914,0.88221353,-0.19679743,-0.19507806,0.66947544,0.4001949,-0.43589348,-0.2587407,0.4608919,755.09155,801.4286,805.4579,770.0,807.8755,-0.169677734375,-0.021728515625,0.96826171875,2.76641845703125,-2.594451904296875,-0.94207763671875,1.0,1.0,1.0,1.0,1.0,100.0,event
12:18:05.383,1.5261282,-0.23433489,-0.31308934,1.3610457,1.139943,-0.35461745,-0.45214164,0.90541244,1.2415922,-0.08131026,-0.21554865,0.6843914,0.88221353,-0.19679743,-0.19507806,0.66947544,0.4001949,-0.43589348,-0.2587407,0.4608919,788.5348,810.696,805.4579,791.3553,969.85345,-0.169677734375,-0.021728515625,0.96826171875,2.76641845703125,-2.594451904296875,-0.94207763671875,1.0,1.0,1.0,1.0,1.0,100.0,event
12:18:05.384,1.5261282,-0.23433489,-0.31308934,1.3610457,1.139943,-0.35461745,-0.45214164,0.90541244,1.2415922,-0.08131026,-0.21554865,0.6843914,0.88221353,-0.19679743,-0.19507806,0.66947544,0.4001949,-0.43589348,-0.2587407,0.4608919,774.43225,809.0842,800.2198,773.6264,826.4103,-0.169677734375,-0.021728515625,0.96826171875,2.76641845703125,-2.594451904296875,-0.94207763671875,1.0,1.0,1.0,1.0,1.0,100.0,event
12:18:05.385,1.5261282,-0.23433489,-0.31308934,1.3610457,1.139943,-0.35461745,-0.45214164,0.90541244,1.2415922,-0.08131026,-0.21554865,0.6843914,0.88221353,-0.19679743,-0.19507806,0.66947544,0.4001949,-0.43589348,-0.2587407,0.4608919,730.10986,806.6667,805.05493,733.73627,747.4359,-0.169677734375,-0.021728515625,0.96826171875,2.76641845703125,-2.594451904296875,-0.94207763671875,1.0,1.0,1.0,1.0,1.0,100.0,event
12:18:05.385,1.5261282,-0.23433489,-0.31308934,1.3610457,1.139943,-0.35461745,-0.45214164,0.90541244,1.2415922,-0.08131026,-0.21554865,0.6843914,0.88221353,-0.19679743,-0.19507806,0.66947544,0.4001949,-0.43589348,-0.2587407,0.4608919,713.1868,809.4872,804.2491,715.6044,809.4872,-0.169677734375,-0.021728515625,0.96826171875,2.76641845703125,-2.594451904296875,-0.94207763671875,1.0,1.0,1.0,1.0,1.0,100.0,event
12:18:05.386,1.5261282,-0.23433489,-0.31308934,1.3610457,1.139943,-0.35461745,-0.45214164,0.90541244,1.2415922,-0.08131026,-0.21554865,0.6843914,0.88221353,-0.19679743,-0.19507806,0.66947544,0.4001949,-0.43589348,-0.2587407,0.4608919,739.3773,807.8755,801.02563,719.2308,784.5055,-0.169677734375,-0.021728515625,0.96826171875,2.76641845703125,-2.594451904296875,-0.94207763671875,1.0,1.0,1.0,1.0,1.0,100.0,event
12:18:05.386,1.5261282,-0.25318938,-0.30871722,1.3610457,1.139943,-0.35529247,-0.4587094,0.90541244,1.2415922,-0.08131026,-0.21526109,0.6843914,0.88221353,-0.18506284,-0.19540684,0.66947544,0.4001949,-0.42852485,-0.24199644,0.4608919,742.1978,807.47253,804.2491,736.1539,730.10986,-0.169677734375,-0.021728515625,0.96826171875,2.76641845703125,-2.594451904296875,-0.94207763671875,1.0,1.0,1.0,1.0,1.0,100.0,event
12:18:05.391,1.5261282,-0.25318938,-0.30871722,1.3610457,1.139943,-0.35529247,-0.4587094,0.90541244,1.2415922,-0.08131026,-0.21526109,0.6843914,0.88221353,-0.18506284,-0.19540684,0.66947544,0.4001949,-0.42852485,-0.24199644,0.4608919,748.24176,810.293,803.44324,721.2454,733.73627,-0.169677734375,-0.021728515625,0.96826171875,2.76641845703125,-2.594451904296875,-0.94207763671875,1.0,1.0,1.0,1.0,1.0,100.0,event
12:18:05.391,1.5261282,-0.25318938,-0.30871722,1.3610457,1.139943,-0.35529247,-0.4587094,0.90541244,1.2415922,-0.08131026,-0.21526109,0.6843914,0.88221353,-0.18506284,-0.19540684,0.66947544,0.4001949,-0.42852485,-0.24199644,0.4608919,746.2271,805.4579,802.6374,685.38464,800.2198,-0.169677734375,-0.021728515625,0.96826171875,2.76641845703125,-2.594451904296875,-0.94207763671875,1.0,1.0,1.0,1.0,1.0,100.0,event
12:18:05.392,1.5261282,-0.25318938,-0.30871722,1.3610457,1.139943,-0.35529247,-0.4587094,0.90541244,1.2415922,-0.08131026,-0.21526109,0.6843914,0.88221353,-0.18506284,-0.19540684,0.66947544,0.4001949,-0.42852485,-0.24199644,0.4608919,712.381,805.05493,796.1905,719.2308,750.65936,-0.169677734375,-0.021728515625,0.96826171875,2.76641845703125,-2.594451904296875,-0.94207763671875,1.0,1.0,1.0,1.0,1.0,100.0,event
12:18:05.392,1.5261282,-0.25318938,-0.30871722,1.3610457,1.139943,-0.35529247,-0.4587094,0.90541244,1.2415922,-0.08131026,-0.21526109,0.6843914,0.88221353,-0.18506284,-0.19540684,0.66947544,0.4001949,-0.42852485,-0.24199644,0.4608919,704.3223,800.6227,801.4286,685.38464,805.05493,-0.169677734375,-0.021728515625,0.96826171875,2.76641845703125,-2.594451904296875,-0.94207763671875,1.0,1.0,1.0,1.0,1.0,100.0,event
12:18:05.393,1.5261282,-0.25318938,-0.30871722,1.3610457,1.139943,-0.35529247,-0.4587094,0.90541244,1.2415922,-0.08131026,-0.21526109,0.6843914,0.88221353,-0.18506284,-0.19540684,0.66947544,0.4001949,-0.42852485,-0.24199644,0.4608919,748.6447,805.05493,799.41394,736.1539,796.5934,-0.169677734375,-0.021728515625,0.96826171875,2.76641845703125,-2.594451904296875,-0.94207763671875,1.0,1.0,1.0,1.0,1.0,100.0,event
12:18:05.393,1.5261282,-0.25318938,-0.30871722,1.3610457,1.139943,-0.35529247,-0.4587094,0.90541244,1.2415922,-0.08131026,-0.21526109,0.6843914,0.88221353,-0.18506284,-0.19540684,0.66947544,0.4001949,-0.42852485,-0.24199644,0.4608919,748.6447,805.8608,807.0696,724.0659,929.5604,-0.169677734375,-0.021728515625,0.96826171875,2.76641845703125,-2.594451904296875,-0.94207763671875,1.0,1.0,1.0,1.0,1.0,100.0,event
12:18:05.394,1.5261282,-0.25318938,-0.30871722,1.3610457,1.139943,-0.35529247,-0.4587094,0.90541244,1.2415922,-0.08131026,-0.21526109,0.6843914,0.88221353,-0.18506284,-0.19540684,0.66947544,0.4001949,-0.42852485,-0.24199644,0.4608919,723.2601,808.68134,803.44324,717.2161,885.64105,-0.169677734375,-0.021728515625,0.96826171875,2.76641845703125,-2.594451904296875,-0.94207763671875,1.0,1.0,1.0,1.0,1.0,100.0,event
12:18:05.394,1.5261282,-0.25318938,-0.30871722,1.3610457,1.139943,-0.35529247,-0.4587094,0.90541244,1.2415922,-0.08131026,-0.21526109,0.6843914,0.88221353,-0.18506284,-0.19540684,0.66947544,0.4001949,-0.42852485,-0.24199644,0.4608919,729.707,803.0403,801.8315,716.4103,693.44324,-0.169677734375,-0.021728515625,0.96826171875,2.76641845703125,-2.594451904296875,-0.94207763671875,1.0,1.0,1.0,1.0,1.0,100.0,event
12:18:05.395,1.5261282,-0.25318938,-0.30871722,1.3610457,1.139943,-0.35529247,-0.4587094,0.90541244,1.2415922,-0.08131026,-0.21526109,0.6843914,0.88221353,-0.18506284,-0.19540684,0.66947544,0.4001949,-0.42852485,-0.24199644,0.4608919,728.49817,805.05493,806.6667,703.91943,745.42126,-0.169677734375,-0.021728515625,0.96826171875,2.76641845703125,-2.594451904296875,-0.94207763671875,1.0,1.0,1.0,1.0,1.0,100.0,event
12:18:05.395,1.5261282,-0.25318938,-0.30871722,1.3610457,1.139943,-0.35529247,-0.4587094,0.90541244,1.2415922,-0.08131026,-0.21526109,0.6843914,0.88221353,-0.18506284,-0.19540684,0.66947544,0.4001949,-0.42852485,-0.24199644,0.4608919,739.3773,811.50183,805.05493,739.3773,982.74725,-0.169677734375,-0.021728515625,0.96826171875,2.76641845703125,-2.594451904296875,-0.94207763671875,1.0,1.0,1.0,1.0,1.0,100.0,event
12:18:05.396,1.5261282,-0.25318938,-0.30871722,1.3610457,1.139943,-0.35529247,-0.4587094,0.90541244,1.2415922,-0.08131026,-0.21526109,0.6843914,0.88221353,-0.18506284,-0.19540684,0.66947544,0.4001949,-0.42852485,-0.24199644,0.4608919,783.69965,813.91943,807.8755,759.12085,839.707,-0.169677734375,-0.021728515625,0.96826171875,2.76641845703125,-2.594451904296875,-0.94207763671875,1.0,1.0,1.0,1.0,1.0,100.0,event
12:18:05.396,1.5261282,-0.25318938,-0.30871722,1.3610457,1.139943,-0.35529247,-0.4587094,0.90541244,1.2415922,-0.08131026,-0.21526109,0.6843914,0.88221353,-0.18506284,-0.19540684,0.66947544,0.4001949,-0.42852485,-0.24199644,0.4608919,776.04395,813.5165,808.2784,734.1392,666.8498,-0.169677734375,-0.021728515625,0.96826171875,2.76641845703125,-2.594451904296875,-0.94207763671875,1.0,1.0,1.0,1.0,1.0,100.0,event
12:18:05.418,1.5261282,-0.25318938,-0.30871722,1.3610457,1.139943,-0.35529247,-0.4587094,0.90541244,1.2415922,-0.08131026,-0.21526109,0.6843914,0.88221353,-0.18506284,-0.19540684,0.66947544,0.4001949,-0.42852485,-0.24199644,0.4608919,753.8828,813.1135,805.05493,734.1392,694.2491,-0.16619873046875,-0.0076904296875,0.98748779296875,2.40753173828125,-1.9439697265625,0.276641845703125,1.0,1.0,1.0,1.0,1.0,100.0,event
12:18:05.419,1.5261282,-0.25318938,-0.30871722,1.3610457,1.139943,-0.35529247,-0.4587094,0.90541244,1.2415922,-0.08131026,-0.21526109,0.6843914,0.88221353,-0.18506284,-0.19540684,0.66947544,0.4001949,-0.42852485,-0.24199644,0.4608919,787.72894,817.1429,805.8608,746.2271,697.0696,-0.16619873046875,-0.0076904296875,0.98748779296875,2.40753173828125,-1.9439697265625,0.276641845703125,1.0,1.0,1.0,1.0,1.0,100.0,event
12:18:05.419,1.5261282,-0.25318938,-0.30871722,1.3610457,1.139943,-0.35529247,-0.4587094,0.90541244,1.2415922,-0.08131026,-0.21526109,0.6843914,0.88221353,-0.18506284,-0.19540684,0.66947544,0.4001949,-0.42852485,-0.24199644,0.4608919,811.0989,817.1429,803.44324,786.1172,693.44324,-0.16619873046875,-0.0076904296875,0.98748779296875,2.40753173828125,-1.9439697265625,0.276641845703125,1.0,1.0,1.0,1.0,1.0,100.0,event
12:18:05.420,1.5261282,-0.25318938,-0.30871722,1.3610457,1.139943,-0.35529247,-0.4587094,0.90541244,1.2415922,-0.08131026,-0.21526109,0.6843914,0.88221353,-0.18506284,-0.19540684,0.66947544,0.4001949,-0.42852485,-0.24199644,0.4608919,785.31134,807.0696,795.78754,794.17584,728.9011,-0.16619873046875,-0.0076904296875,0.98748779296875,2.40753173828125,-1.9439697265625,0.276641845703125,1.0,1.0,1.0,1.0,1.0,100.0,event
12:18:05.420,1.5261282,-0.25318938,-0.30871722,1.3610457,1.139943,-0.35529247,-0.4587094,0.90541244,1.2415922,-0.08131026,-0.21526109,0.6843914,0.88221353,-0.18506284,-0.19540684,0.66947544,0.4001949,-0.42852485,-0.24199644,0.4608919,777.6557,806.26373,799.41394,764.35895,793.36993,-0.16619873046875,-0.0076904296875,0.98748779296875,2.40753173828125,-1.9439697265625,0.276641845703125,1.0,1.0,1.0,1.0,1.0,100.0,event
12:18:05.421,1.5261282,-0.25318938,-0.30871722,1.3610457,1.139943,-0.35529247,-0.4587094,0.90541244,1.2415922,-0.08131026,-0.21526109,0.6843914,0.88221353,-0.18506284,-0.19540684,0.66947544,0.4001949,-0.42852485,-0.24199644,0.4608919,791.3553,808.68134,800.6227,757.1062,801.8315,-0.16619873046875,-0.0076904296875,0.98748779296875,2.40753173828125,-1.9439697265625,0.276641845703125,1.0,1.0,1.0,1.0,1.0,100.0,event
12:18:05.421,1.5261282,-0.25318938,-0.30871722,1.3610457,1.139943,-0.35529247,-0.4587094,0.90541244,1.2415922,-0.08131026,-0.21526109,0.6843914,0.88221353,-0.18506284,-0.19540684,0.66947544,0.4001949,-0.42852485,-0.24199644,0.4608919,813.1135,805.8608,795.78754,755.89746,835.6777,-0.16619873046875,-0.0076904296875,0.98748779296875,2.40753173828125,-1.9439697265625,0.276641845703125,1.0,1.0,1.0,1.0,1.0,100.0,event
12:18:05.422,1.5261282,-0.25318938,-0.30871722,1.3610457,1.139943,-0.35529247,-0.4587094,0.90541244,1.2415922,-0.08131026,-0.21526109,0.6843914,0.88221353,-0.18506284,-0.19540684,0.66947544,0.4001949,-0.42852485,-0.24199644,0.4608919,840.10986,810.696,798.20514,777.25275,865.4945,-0.16619873046875,-0.0076904296875,0.98748779296875,2.40753173828125,-1.9439697265625,0.276641845703125,1.0,1.0,1.0,1.0,1.0,100.0,event
12:18:05.422,1.5261282,-0.25318938,-0.30871722,1.3610457,1.139943,-0.35529247,-0.4587094,0.90541244,1.2415922,-0.08131026,-0.21526109,0.6843914,0.88221353,-0.18506284,-0.19540684,0.66947544,0.4001949,-0.42852485,-0.24199644,0.4608919,834.87177,810.293,801.8315,788.1319,971.8681,-0.16619873046875,-0.0076904296875,0.98748779296875,2.40753173828125,-1.9439697265625,0.276641845703125,1.0,1.0,1.0,1.0,1.0,100.0,event
12:18:05.423,1.5261282,-0.25318938,-0.30871722,1.3610457,1.139943,-0.35529247,-0.4587094,0.90541244,1.2415922,-0.08131026,-0.21526109,0.6843914,0.88221353,-0.18506284,-0.19540684,0.66947544,0.4001949,-0.42852485,-0.24199644,0.4608919,830.4396,807.8755,800.6227,772.01465,798.60803,-0.16619873046875,-0.0076904296875,0.98748779296875,2.40753173828125,-1.9439697265625,0.276641845703125,1.0,1.0,1.0,1.0,1.0,100.0,event
12:18:05.423,1.5261282,-0.25318938,-0.30871722,1.3610457,1.139943,-0.35529247,-0.4587094,0.90541244,1.2415922,-0.08131026,-0.21526109,0.6843914,0.88221353,-0.18506284,-0.19540684,0.66947544,0.4001949,-0.42852485,-0.24199644,0.4608919,818.7546,808.2784,799.81683,766.77655,965.42126,-0.16619873046875,-0.0076904296875,0.98748779296875,2.40753173828125,-1.9439697265625,0.276641845703125,1.0,1.0,1.0,1.0,1.0,100.0,event
12:18:05.424,1.5261282,-0.25318938,-0.30871722,1.3610457,1.139943,-0.35529247,-0.4587094,0.90541244,1.2415922,-0.08131026,-0.21526109,0.6843914,0.88221353,-0.18506284,-0.19540684,0.66947544,0.4001949,-0.42852485,-0.24199644,0.4608919,834.87177,805.8608,804.65204,778.86444,860.2564,-0.16619873046875,-0.0076904296875,0.98748779296875,2.40753173828125,-1.9439697265625,0.276641845703125,1.0,1.0,1.0,1.0,1.0,100.0,event
12:18:05.445,1.5261282,-0.25318938,-0.30871722,1.3610457,1.139943,-0.35529247,-0.4587094,0.90541244,1.2415922,-0.08131026,-0.21526109,0.6843914,0.88221353,-0.18506284,-0.19540684,0.66947544,0.4001949,-0.42852485,-0.24199644,0.4608919,846.9597,805.8608,805.05493,787.72894,887.25275,-0.17901611328125,-0.0147705078125,0.957275390625,1.54022216796875,-3.12530517578125,1.188812255859375,1.0,1.0,1.0,1.0,1.0,100.0,event
12:18:05.446,1.5261282,-0.2727435,-0.29783934,1.3610457,1.139943,-0.3601374,-0.4741822,0.90541244,1.2415922,-0.08131026,-0.20232227,0.6843914,0.88221353,-0.17636731,-0.1969578,0.66947544,0.4001949,-0.41988707,-0.23094666,0.4608919,851.39197,803.44324,806.6667,811.50183,795.38464,-0.17901611328125,-0.0147705078125,0.957275390625,1.54022216796875,-3.12530517578125,1.188812255859375,1.0,1.0,1.0,1.0,1.0,100.0,event
12:18:05.450,1.5261282,-0.2727435,-0.29783934,1.3610457,1.139943,-0.3601374,-0.4741822,0.90541244,1.2415922,-0.08131026,-0.20232227,0.6843914,0.88221353,-0.17636731,-0.1969578,0.66947544,0.4001949,-0.41988707,-0.23094666,0.4608919,837.28937,801.8315,804.2491,792.1612,709.9634,-0.17901611328125,-0.0147705078125,0.957275390625,1.54022216796875,-3.12530517578125,1.188812255859375,1.0,1.0,1.0,1.0,1.0,100.0,event
12:18:05.451,1.5261282,-0.2727435,-0.29783934,1.3610457,1.139943,-0.3601374,-0.4741822,0.90541244,1.2415922,-0.08131026,-0.20232227,0.6843914,0.88221353,-0.17636731,-0.1969578,0.66947544,0.4001949,-0.41988707,-0.23094666,0.4608919,838.0952,805.8608,796.5934,767.98535,760.32965,-0.17901611328125,-0.0147705078125,0.957275390625,1.54022216796875,-3.12530517578125,1.188812255859375,1.0,1.0,1.0,1.0,1.0,100.0,event
12:18:05.452,1.5261282,-0.2727435,-0.29783934,1.3610457,1.139943,-0.3601374,-0.4741822,0.90541244,1.2415922,-0.08131026,-0.20232227,0.6843914,0.88221353,-0.17636731,-0.1969578,0.66947544,0.4001949,-0.41988707,-0.23094666,0.4608919,849.3773,805.8608,797.8022,773.6264,832.8571,-0.17901611328125,-0.0147705078125,0.957275390625,1.54022216796875,-3.12530517578125,1.188812255859375,1.0,1.0,1.0,1.0,1.0,100.0,event
12:18:05.453,1.5261282,-0.2727435,-0.29783934,1.3610457,1.139943,-0.3601374,-0.4741822,0.90541244,1.2415922,-0.08131026,-0.20232227,0.6843914,0.88221353,-0.17636731,-0.1969578,0.66947544,0.4001949,-0.41988707,-0.23094666,0.4608919,862.27106,799.41394,802.6374,805.8608,881.2088,-0.17901611328125,-0.0147705078125,0.957275390625,1.54022216796875,-3.12530517578125,1.188812255859375,1.0,1.0,1.0,1.0,1.0,100.0,event
12:18:05.454,1.5261282,-0.2727435,-0.29783934,1.3610457,1.139943,-0.3601374,-0.4741822,0.90541244,1.2415922,-0.08131026,-0.20232227,0.6843914,0.88221353,-0.17636731,-0.1969578,0.66947544,0.4001949,-0.41988707,-0.23094666,0.4608919,877.5824,806.26373,805.4579,809.89014,1019.011,-0.17901611328125,-0.0147705078125,0.957275390625,1.54022216796875,-3.12530517578125,1.188812255859375,1.0,1.0,1.0,1.0,1.0,100.0,event
12:18:05.454,1.5261282,-0.2727435,-0.29783934,1.3610457,1.139943,-0.3601374,-0.4741822,0.90541244,1.2415922,-0.08131026,-0.20232227,0.6843914,0.88221353,-0.17636731,-0.1969578,0.66947544,0.4001949,-0.41988707,-0.23094666,0.4608919,888.0586,802.6374,804.2491,830.0366,946.08057,-0.17901611328125,-0.0147705078125,0.957275390625,1.54022216796875,-3.12530517578125,1.188812255859375,1.0,1.0,1.0,1.0,1.0,100.0,event
12:18:05.455,1.5261282,-0.2727435,-0.29783934,1.3610457,1.139943,-0.3601374,-0.4741822,0.90541244,1.2415922,-0.08131026,-0.20232227,0.6843914,0.88221353,-0.17636731,-0.1969578,0.66947544,0.4001949,-0.41988707,-0.23094666,0.4608919,854.61536,803.8461,807.8755,787.72894,1129.8169,-0.17901611328125,-0.0147705078125,0.957275390625,1.54022216796875,-3.12530517578125,1.188812255859375,1.0,1.0,1.0,1.0,1.0,100.0,event
12:18:05.456,1.5261282,-0.2727435,-0.29783934,1.3610457,1.139943,-0.3601374,-0.4741822,0.90541244,1.2415922,-0.08131026,-0.20232227,0.6843914,0.88221353,-0.17636731,-0.1969578,0.66947544,0.4001949,-0.41988707,-0.23094666,0.4608919,861.4652,803.44324,809.4872,796.1905,1021.8315,-0.17901611328125,-0.0147705078125,0.957275390625,1.54022216796875,-3.12530517578125,1.188812255859375,1.0,1.0,1.0,1.0,1.0,100.0,event
12:18:05.457,1.5261282,-0.2727435,-0.29783934,1.3610457,1.139943,-0.3601374,-0.4741822,0.90541244,1.2415922,-0.08131026,-0.20232227,0.6843914,0.88221353,-0.17636731,-0.1969578,0.66947544,0.4001949,-0.41988707,-0.23094666,0.4608919,880.80585,803.8461,803.8461,832.0513,907.8022,-0.17901611328125,-0.0147705078125,0.957275390625,1.54022216796875,-3.12530517578125,1.188812255859375,1.0,1.0,1.0,1.0,1.0,100.0,event
12:18:05.457,1.5261282,-0.2727435,-0.29783934,1.3610457,1.139943,-0.3601374,-0.4741822,0.90541244,1.2415922,-0.08131026,-0.20232227,0.6843914,0.88221353,-0.17636731,-0.1969578,0.66947544,0.4001949,-0.41988707,-0.23094666,0.4608919,874.7619,805.4579,803.44324,809.89014,804.2491,-0.17901611328125,-0.0147705078125,0.957275390625,1.54022216796875,-3.12530517578125,1.188812255859375,1.0,1.0,1.0,1.0,1.0,100.0,event
12:18:05.529,1.5261282,-0.2727435,-0.29783934,1.3610457,1.139943,-0.3601374,-0.4741822,0.90541244,1.2415922,-0.08131026,-0.20232227,0.6843914,0.88221353,-0.17636731,-0.1969578,0.66947544,0.4001949,-0.41988707,-0.23094666,0.4608919,869.5238,800.2198,805.05493,830.84247,963.4066,-0.1693115234375,-0.0135498046875,0.98211669921875,1.77947998046875,-4.433746337890625,0.40374755859375,1.0,1.0,1.0,1.0,1.0,100.0,event
12:18:05.530,1.5261282,-0.2727435,-0.29783934,1.3610457,1.139943,-0.3601374,-0.4741822,0.90541244,1.2415922,-0.08131026,-0.20232227,0.6843914,0.88221353,-0.17636731,-0.1969578,0.66947544,0.4001949,-0.41988707,-0.23094666,0.4608919,857.8388,798.20514,802.23444,803.0403,741.79486,-0.1693115234375,-0.0135498046875,0.98211669921875,1.77947998046875,-4.433746337890625,0.40374755859375,1.0,1.0,1.0,1.0,1.0,100.0,event
12:18:05.530,1.5261282,-0.2727435,-0.29783934,1.3610457,1.139943,-0.3601374,-0.4741822,0.90541244,1.2415922,-0.08131026,-0.20232227,0.6843914,0.88221353,-0.17636731,-0.1969578,0.66947544,0.4001949,-0.41988707,-0.23094666,0.4608919,853.4066,796.5934,801.02563,792.96704,734.94507,-0.1693115234375,-0.0135498046875,0.98211669921875,1.77947998046875,-4.433746337890625,0.40374755859375,1.0,1.0,1.0,1.0,1.0,100.0,event
12:18:05.531,1.5261282,-0.2727435,-0.29783934,1.3610457,1.139943,-0.3601374,-0.4741822,0.90541244,1.2415922,-0.08131026,-0.20232227,0.6843914,0.88221353,-0.17636731,-0.1969578,0.66947544,0.4001949,-0.41988707,-0.23094666,0.4608919,855.42126,797.8022,801.4286,800.2198,808.68134,-0.1693115234375,-0.0135498046875,0.98211669921875,1.77947998046875,-4.433746337890625,0.40374755859375,1.0,1.0,1.0,1.0,1.0,100.0,event
12:18:05.532,1.5261282,-0.2727435,-0.29783934,1.3610457,1.139943,-0.3601374,-0.4741822,0.90541244,1.2415922,-0.08131026,-0.20232227,0.6843914,0.88221353,-0.17636731,-0.1969578,0.66947544,0.4001949,-0.41988707,-0.23094666,0.4608919,870.7326,799.81683,799.81683,831.6484,836.08057,-0.1693115234375,-0.0135498046875,0.98211669921875,1.77947998046875,-4.433746337890625,0.40374755859375,1.0,1.0,1.0,1.0,1.0,100.0,event
12:18:05.532,1.5261282,-0.2727435,-0.29783934,1.3610457,1.139943,-0.3601374,-0.4741822,0.90541244,1.2415922,-0.08131026,-0.20232227,0.6843914,0.88221353,-0.17636731,-0.1969578,0.66947544,0.4001949,-0.41988707,-0.23094666,0.4608919,860.65936,799.41394,800.2198,835.6777,948.9011,-0.1693115234375,-0.0135498046875,0.98211669921875,1.77947998046875,-4.433746337890625,0.40374755859375,1.0,1.0,1.0,1.0,1.0,100.0,event
12:18:05.533,1.5261282,-0.2727435,-0.29783934,1.3610457,1.139943,-0.3601374,-0.4741822,0.90541244,1.2415922,-0.08131026,-0.20232227,0.6843914,0.88221353,-0.17636731,-0.1969578,0.66947544,0.4001949,-0.41988707,-0.23094666,0.4608919,841.7216,799.81683,799.81683,815.5311,952.9304,-0.1693115234375,-0.0135498046875,0.98211669921875,1.77947998046875,-4.433746337890625,0.40374755859375,1.0,1.0,1.0,1.0,1.0,100.0,event
12:18:05.534,1.5261282,-0.2727435,-0.29783934,1.3610457,1.139943,-0.3601374,-0.4741822,0.90541244,1.2415922,-0.08131026,-0.20232227,0.6843914,0.88221353,-0.17636731,-0.1969578,0.66947544,0.4001949,-0.41988707,-0.23094666,0.4608919,847.3626,798.20514,794.17584,803.0403,1010.14655,-0.1693115234375,-0.0135498046875,0.98211669921875,1.77947998046875,-4.433746337890625,0.40374755859375,1.0,1.0,1.0,1.0,1.0,100.0,event
12:18:05.534,1.5261282,-0.2727435,-0.29783934,1.3610457,1.139943,-0.3601374,-0.4741822,0.90541244,1.2415922,-0.08131026,-0.20232227,0.6843914,0.88221353,-0.17636731,-0.1969578,0.66947544,0.4001949,-0.41988707,-0.23094666,0.4608919,860.65936,800.2198,801.8315,810.293,975.4945,-0.1693115234375,-0.0135498046875,0.98211669921875,1.77947998046875,-4.433746337890625,0.40374755859375,1.0,1.0,1.0,1.0,1.0,100.0,event
12:18:05.535,1.5261282,-0.2727435,-0.29783934,1.3610457,1.139943,-0.3601374,-0.4741822,0.90541244,1.2415922,-0.08131026,-0.20232227,0.6843914,0.88221353,-0.17636731,-0.1969578,0.66947544,0.4001949,-0.41988707,-0.23094666,0.4608919,879.19415,799.41394,807.0696,831.6484,722.8571,-0.1693115234375,-0.0135498046875,0.98211669921875,1.77947998046875,-4.433746337890625,0.40374755859375,1.0,1.0,1.0,1.0,1.0,100.0,event
12:18:05.536,1.5261282,-0.2727435,-0.29783934,1.3610457,1.139943,-0.3601374,-0.4741822,0.90541244,1.2415922,-0.08131026,-0.20232227,0.6843914,0.88221353,-0.17636731,-0.1969578,0.66947544,0.4001949,-0.41988707,-0.23094666,0.4608919,867.9121,797.8022,801.8315,826.0073,707.1429,-0.1693115234375,-0.0135498046875,0.98211669921875,1.77947998046875,-4.433746337890625,0.40374755859375,1.0,1.0,1.0,1.0,1.0,100.0,event
12:18:05.536,1.5261282,-0.2727435,-0.29783934,1.3610457,1.139943,-0.3601374,-0.4741822,0.90541244,1.2415922,-0.08131026,-0.20232227,0.6843914,0.88221353,-0.17636731,-0.1969578,0.66947544,0.4001949,-0.41988707,-0.23094666,0.4608919,855.0183,804.65204,803.8461,807.47253,735.34796,-0.1693115234375,-0.0135498046875,0.98211669921875,1.77947998046875,-4.433746337890625,0.40374755859375,1.0,1.0,1.0,1.0,1.0,100.0,event
12:18:05.562,1.5261282,-0.2727435,-0.29783934,1.3610457,1.139943,-0.3601374,-0.4741822,0.90541244,1.2415922,-0.08131026,-0.20232227,0.6843914,0.88221353,-0.17636731,-0.1969578,0.66947544,0.4001949,-0.41988707,-0.23094666,0.4608919,851.39197,806.26373,802.6374,803.44324,728.9011,-0.1715087890625,-0.01116943359375,0.97052001953125,1.435546875,-3.22998046875,0.605621337890625,1.0,1.0,1.0,1.0,1.0,100.0,event
12:18:05.563,1.5261282,-0.2727435,-0.29783934,1.3610457,1.139943,-0.3601374,-0.4741822,0.90541244,1.2415922,-0.08131026,-0.20232227,0.6843914,0.88221353,-0.17636731,-0.1969578,0.66947544,0.4001949,-0.41988707,-0.23094666,0.4608919,853.4066,804.65204,801.4286,809.89014,686.99634,-0.1715087890625,-0.01116943359375,0.97052001953125,1.435546875,-3.22998046875,0.605621337890625,1.0,1.0,1.0,1.0,1.0,100.0,event
12:18:05.563,1.5261282,-0.2727435,-0.29783934,1.3610457,1.139943,-0.3601374,-0.4741822,0.90541244,1.2415922,-0.08131026,-0.20232227,0.6843914,0.88221353,-0.17636731,-0.1969578,0.66947544,0.4001949,-0.41988707,-0.23094666,0.4608919,871.13556,802.6374,802.23444,835.6777,767.98535,-0.1715087890625,-0.01116943359375,0.97052001953125,1.435546875,-3.22998046875,0.605621337890625,1.0,1.0,1.0,1.0,1.0,100.0,event
12:18:05.564,1.5261282,-0.29564375,-0.2905002,1.3610457,1.139943,-0.3683291,-0.49022585,0.90541244,1.2415922,-0.08131026,-0.1626107,0.6843914,0.88221353,-0.17326273,-0.20006016,0.66947544,0.4001949,-0.41586637,-0.22516443,0.4608919,864.68866,799.41394,799.41394,835.6777,880.0,-0.1715087890625,-0.01116943359375,0.97052001953125,1.435546875,-3.22998046875,0.605621337890625,1.0,1.0,1.0,1.0,1.0,100.0,event
12:18:05.567,,,,,,,,,,,,,,,,,,,,,,,,,,,,,,,,,,,,,,blink
12:18:05.568,1.5261282,-0.29564375,-0.2905002,1.3610457,1.139943,-0.3683291,-0.49022585,0.90541244,1.2415922,-0.08131026,-0.1626107,0.6843914,0.88221353,-0.17326273,-0.20006016,0.66947544,0.4001949,-0.41586637,-0.22516443,0.4608919,845.34796,799.41394,801.8315,809.89014,746.63007,-0.1715087890625,-0.01116943359375,0.97052001953125,1.435546875,-3.22998046875,0.605621337890625,1.0,1.0,1.0,1.0,1.0,100.0,event
12:18:05.569,1.5261282,-0.29564375,-0.2905002,1.3610457,1.139943,-0.3683291,-0.49022585,0.90541244,1.2415922,-0.08131026,-0.1626107,0.6843914,0.88221353,-0.17326273,-0.20006016,0.66947544,0.4001949,-0.41586637,-0.22516443,0.4608919,836.4835,799.81683,800.6227,788.5348,716.8132,-0.1715087890625,-0.01116943359375,0.97052001953125,1.435546875,-3.22998046875,0.605621337890625,1.0,1.0,1.0,1.0,1.0,100.0,event
12:18:05.570,1.5261282,-0.29564375,-0.2905002,1.3610457,1.139943,-0.3683291,-0.49022585,0.90541244,1.2415922,-0.08131026,-0.1626107,0.6843914,0.88221353,-0.17326273,-0.20006016,0.66947544,0.4001949,-0.41586637,-0.22516443,0.4608919,853.8095,802.6374,798.20514,829.2308,982.74725,-0.1715087890625,-0.01116943359375,0.97052001953125,1.435546875,-3.22998046875,0.605621337890625,1.0,1.0,1.0,1.0,1.0,100.0,event
12:18:05.570,1.5261282,-0.29564375,-0.2905002,1.3610457,1.139943,-0.3683291,-0.49022585,0.90541244,1.2415922,-0.08131026,-0.1626107,0.6843914,0.88221353,-0.17326273,-0.20006016,0.66947544,0.4001949,-0.41586637,-0.22516443,0.4608919,844.5421,803.8461,796.5934,800.2198,853.8095,-0.1715087890625,-0.01116943359375,0.97052001953125,1.435546875,-3.22998046875,0.605621337890625,1.0,1.0,1.0,1.0,1.0,100.0,event
12:18:05.571,1.5261282,-0.29564375,-0.2905002,1.3610457,1.139943,-0.3683291,-0.49022585,0.90541244,1.2415922,-0.08131026,-0.1626107,0.6843914,0.88221353,-0.17326273,-0.20006016,0.66947544,0.4001949,-0.41586637,-0.22516443,0.4608919,859.85345,801.4286,801.4286,820.3663,839.707,-0.1715087890625,-0.01116943359375,0.97052001953125,1.435546875,-3.22998046875,0.605621337890625,1.0,1.0,1.0,1.0,1.0,100.0,event
12:18:05.571,1.5261282,-0.29564375,-0.2905002,1.3610457,1.139943,-0.3683291,-0.49022585,0.90541244,1.2415922,-0.08131026,-0.1626107,0.6843914,0.88221353,-0.17326273,-0.20006016,0.66947544,0.4001949,-0.41586637,-0.22516443,0.4608919,853.00366,801.8315,799.41394,792.1612,743.8095,-0.1715087890625,-0.01116943359375,0.97052001953125,1.435546875,-3.22998046875,0.605621337890625,1.0,1.0,1.0,1.0,1.0,100.0,event
12:18:05.572,1.5261282,-0.29564375,-0.2905002,1.3610457,1.139943,-0.3683291,-0.49022585,0.90541244,1.2415922,-0.08131026,-0.1626107,0.6843914,0.88221353,-0.17326273,-0.20006016,0.66947544,0.4001949,-0.41586637,-0.22516443,0.4608919,832.8571,797.8022,800.2198,779.2674,784.5055,-0.1715087890625,-0.01116943359375,0.97052001953125,1.435546875,-3.22998046875,0.605621337890625,1.0,1.0,1.0,1.0,1.0,100.0,event
12:18:05.572,1.5261282,-0.29564375,-0.2905002,1.3610457,1.139943,-0.3683291,-0.49022585,0.90541244,1.2415922,-0.08131026,-0.1626107,0.6843914,0.88221353,-0.17326273,-0.20006016,0.66947544,0.4001949,-0.41586637,-0.22516443,0.4608919,822.7839,800.2198,802.23444,788.5348,730.5128,-0.1715087890625,-0.01116943359375,0.97052001953125,1.435546875,-3.22998046875,0.605621337890625,1.0,1.0,1.0,1.0,1.0,100.0,event
12:18:05.629,1.5261282,-0.29564375,-0.2905002,1.3610457,1.139943,-0.3683291,-0.49022585,0.90541244,1.2415922,-0.08131026,-0.1626107,0.6843914,0.88221353,-0.17326273,-0.20006016,0.66947544,0.4001949,-0.41586637,-0.22516443,0.4608919,842.52747,802.6374,803.44324,808.2784,664.0293,-0.1715087890625,-0.01116943359375,0.97052001953125,1.435546875,-3.22998046875,0.605621337890625,1.0,1.0,1.0,1.0,1.0,100.0,event
12:18:05.631,1.5261282,-0.29564375,-0.2905002,1.3610457,1.139943,-0.3683291,-0.49022585,0.90541244,1.2415922,-0.08131026,-0.1626107,0.6843914,0.88221353,-0.17326273,-0.20006016,0.66947544,0.4001949,-0.41586637,-0.22516443,0.4608919,853.00366,798.60803,807.0696,815.9341,691.8315,-0.1715087890625,-0.01116943359375,0.97052001953125,1.435546875,-3.22998046875,0.605621337890625,1.0,1.0,1.0,1.0,1.0,100.0,event
12:18:05.632,1.5261282,-0.29564375,-0.2905002,1.3610457,1.139943,-0.3683291,-0.49022585,0.90541244,1.2415922,-0.08131026,-0.1626107,0.6843914,0.88221353,-0.17326273,-0.20006016,0.66947544,0.4001949,-0.41586637,-0.22516443,0.4608919,826.4103,800.6227,808.68134,794.9817,753.47986,-0.1715087890625,-0.01116943359375,0.97052001953125,1.435546875,-3.22998046875,0.605621337890625,1.0,1.0,1.0,1.0,1.0,100.0,event
12:18:05.633,1.5261282,-0.29564375,-0.2905002,1.3610457,1.139943,-0.3683291,-0.49022585,0.90541244,1.2415922,-0.08131026,-0.1626107,0.6843914,0.88221353,-0.17326273,-0.20006016,0.66947544,0.4001949,-0.41586637,-0.22516443,0.4608919,806.6667,804.65204,804.65204,780.07324,803.0403,-0.1715087890625,-0.01116943359375,0.97052001953125,1.435546875,-3.22998046875,0.605621337890625,1.0,1.0,1.0,1.0,1.0,100.0,event
12:18:05.633,1.5261282,-0.29564375,-0.2905002,1.3610457,1.139943,-0.3683291,-0.49022585,0.90541244,1.2415922,-0.08131026,-0.1626107,0.6843914,0.88221353,-0.17326273,-0.20006016,0.66947544,0.4001949,-0.41586637,-0.22516443,0.4608919,817.9487,803.44324,801.02563,798.60803,737.76556,-0.1715087890625,-0.01116943359375,0.97052001953125,1.435546875,-3.22998046875,0.605621337890625,1.0,1.0,1.0,1.0,1.0,100.0,event
12:18:05.634,1.5261282,-0.29564375,-0.2905002,1.3610457,1.139943,-0.3683291,-0.49022585,0.90541244,1.2415922,-0.08131026,-0.1626107,0.6843914,0.88221353,-0.17326273,-0.20006016,0.66947544,0.4001949,-0.41586637,-0.22516443,0.4608919,847.3626,805.05493,805.4579,827.619,1006.52014,-0.1715087890625,-0.01116943359375,0.97052001953125,1.435546875,-3.22998046875,0.605621337890625,1.0,1.0,1.0,1.0,1.0,100.0,event
12:18:05.634,1.5261282,-0.29564375,-0.2905002,1.3610457,1.139943,-0.3683291,-0.49022585,0.90541244,1.2415922,-0.08131026,-0.1626107,0.6843914,0.88221353,-0.17326273,-0.20006016,0.66947544,0.4001949,-0.41586637,-0.22516443,0.4608919,835.2747,803.44324,802.23444,817.1429,740.58606,-0.1715087890625,-0.01116943359375,0.97052001953125,1.435546875,-3.22998046875,0.605621337890625,1.0,1.0,1.0,1.0,1.0,100.0,event
12:18:05.635,1.5261282,-0.29564375,-0.2905002,1.3610457,1.139943,-0.3683291,-0.49022585,0.90541244,1.2415922,-0.08131026,-0.1626107,0.6843914,0.88221353,-0.17326273,-0.20006016,0.66947544,0.4001949,-0.41586637,-0.22516443,0.4608919,827.2161,801.4286,806.6667,811.50183,1016.1905,-0.1715087890625,-0.01116943359375,0.97052001953125,1.435546875,-3.22998046875,0.605621337890625,1.0,1.0,1.0,1.0,1.0,100.0,event
12:18:05.636,1.5261282,-0.29564375,-0.2905002,1.3610457,1.139943,-0.3683291,-0.49022585,0.90541244,1.2415922,-0.08131026,-0.1626107,0.6843914,0.88221353,-0.17326273,-0.20006016,0.66947544,0.4001949,-0.41586637,-0.22516443,0.4608919,812.71063,799.81683,803.44324,786.52014,722.0513,-0.1715087890625,-0.01116943359375,0.97052001953125,1.435546875,-3.22998046875,0.605621337890625,1.0,1.0,1.0,1.0,1.0,100.0,event
12:18:05.637,1.5261282,-0.29564375,-0.2905002,1.3610457,1.139943,-0.3683291,-0.49022585,0.90541244,1.2415922,-0.08131026,-0.1626107,0.6843914,0.88221353,-0.17326273,-0.20006016,0.66947544,0.4001949,-0.41586637,-0.22516443,0.4608919,815.12823,802.23444,798.20514,785.31134,660.80585,-0.1715087890625,-0.01116943359375,0.97052001953125,1.435546875,-3.22998046875,0.605621337890625,1.0,1.0,1.0,1.0,1.0,100.0,event
12:18:05.639,1.5261282,-0.29564375,-0.2905002,1.3610457,1.139943,-0.3683291,-0.49022585,0.90541244,1.2415922,-0.08131026,-0.1626107,0.6843914,0.88221353,-0.17326273,-0.20006016,0.66947544,0.4001949,-0.41586637,-0.22516443,0.4608919,817.9487,799.011,800.2198,809.0842,724.87177,-0.1715087890625,-0.01116943359375,0.97052001953125,1.435546875,-3.22998046875,0.605621337890625,1.0,1.0,1.0,1.0,1.0,100.0,event
12:18:05.640,1.5261282,-0.29564375,-0.2905002,1.3610457,1.139943,-0.3683291,-0.49022585,0.90541244,1.2415922,-0.08131026,-0.1626107,0.6843914,0.88221353,-0.17326273,-0.20006016,0.66947544,0.4001949,-0.41586637,-0.22516443,0.4608919,846.1539,797.3993,805.05493,830.4396,743.8095,-0.1715087890625,-0.01116943359375,0.97052001953125,1.435546875,-3.22998046875,0.605621337890625,1.0,1.0,1.0,1.0,1.0,100.0,event
12:18:05.666,1.5261282,-0.29564375,-0.2905002,1.3610457,1.139943,-0.3683291,-0.49022585,0.90541244,1.2415922,-0.08131026,-0.1626107,0.6843914,0.88221353,-0.17326273,-0.20006016,0.66947544,0.4001949,-0.41586637,-0.22516443,0.4608919,838.49817,800.2198,805.4579,816.337,708.7546,-0.1746826171875,-0.0157470703125,0.9715576171875,1.891632080078125,-3.207550048828125,-0.351409912109375,1.0,1.0,1.0,1.0,1.0,100.0,event
12:18:05.667,1.5261282,-0.29564375,-0.2905002,1.3610457,1.139943,-0.3683291,-0.49022585,0.90541244,1.2415922,-0.08131026,-0.1626107,0.6843914,0.88221353,-0.17326273,-0.20006016,0.66947544,0.4001949,-0.41586637,-0.22516443,0.4608919,809.89014,801.02563,803.0403,786.9231,805.8608,-0.1746826171875,-0.0157470703125,0.9715576171875,1.891632080078125,-3.207550048828125,-0.351409912109375,1.0,1.0,1.0,1.0,1.0,100.0,event
12:18:05.667,1.5261282,-0.29564375,-0.2905002,1.3610457,1.139943,-0.3683291,-0.49022585,0.90541244,1.2415922,-0.08131026,-0.1626107,0.6843914,0.88221353,-0.17326273,-0.20006016,0.66947544,0.4001949,-0.41586637,-0.22516443,0.4608919,808.68134,801.4286,802.6374,788.5348,755.4945,-0.1746826171875,-0.0157470703125,0.9715576171875,1.891632080078125,-3.207550048828125,-0.351409912109375,1.0,1.0,1.0,1.0,1.0,100.0,event
12:18:05.668,1.5261282,-0.29564375,-0.2905002,1.3610457,1.139943,-0.3683291,-0.49022585,0.90541244,1.2415922,-0.08131026,-0.1626107,0.6843914,0.88221353,-0.17326273,-0.20006016,0.66947544,0.4001949,-0.41586637,-0.22516443,0.4608919,838.49817,805.8608,805.05493,828.4249,655.9707,-0.1746826171875,-0.0157470703125,0.9715576171875,1.891632080078125,-3.207550048828125,-0.351409912109375,1.0,1.0,1.0,1.0,1.0,100.0,event
12:18:05.668,1.5261282,-0.29564375,-0.2905002,1.3610457,1.139943,-0.3683291,-0.49022585,0.90541244,1.2415922,-0.08131026,-0.1626107,0.6843914,0.88221353,-0.17326273,-0.20006016,0.66947544,0.4001949,-0.41586637,-0.22516443,0.4608919,826.8132,806.26373,806.26373,806.26373,684.9817,-0.1746826171875,-0.0157470703125,0.9715576171875,1.891632080078125,-3.207550048828125,-0.351409912109375,1.0,1.0,1.0,1.0,1.0,100.0,event
12:18:05.669,1.5261282,-0.31416187,-0.29848433,1.3610457,1.139943,-0.3755269,-0.50477475,0.90541244,1.2415922,-0.08131026,-0.13420948,0.6843914,0.88221353,-0.1723872,-0.20140831,0.66947544,0.4001949,-0.41986585,-0.22561476,0.4608919,827.619,804.65204,802.23444,821.978,892.8938,-0.1746826171875,-0.0157470703125,0.9715576171875,1.891632080078125,-3.207550048828125,-0.351409912109375,1.0,1.0,1.0,1.0,1.0,100.0,event
12:18:05.673,1.5261282,-0.31416187,-0.29848433,1.3610457,1.139943,-0.3755269,-0.50477475,0.90541244,1.2415922,-0.08131026,-0.13420948,0.6843914,0.88221353,-0.1723872,-0.20140831,0.66947544,0.4001949,-0.41986585,-0.22561476,0.4608919,806.6667,804.65204,805.4579,794.57874,1018.60803,-0.1746826171875,-0.0157470703125,0.9715576171875,1.891632080078125,-3.207550048828125,-0.351409912109375,1.0,1.0,1.0,1.0,1.0,100.0,event
12:18:05.674,1.5261282,-0.31416187,-0.29848433,1.3610457,1.139943,-0.3755269,-0.50477475,0.90541244,1.2415922,-0.08131026,-0.13420948,0.6843914,0.88221353,-0.1723872,-0.20140831,0.66947544,0.4001949,-0.41986585,-0.22561476,0.4608919,802.6374,803.8461,805.05493,783.2967,886.4469,-0.1746826171875,-0.0157470703125,0.9715576171875,1.891632080078125,-3.207550048828125,-0.351409912109375,1.0,1.0,1.0,1.0,1.0,100.0,event
12:18:05.674,1.5261282,-0.31416187,-0.29848433,1.3610457,1.139943,-0.3755269,-0.50477475,0.90541244,1.2415922,-0.08131026,-0.13420948,0.6843914,0.88221353,-0.1723872,-0.20140831,0.66947544,0.4001949,-0.41986585,-0.22561476,0.4608919,818.7546,802.23444,803.44324,782.49084,763.5531,-0.1746826171875,-0.0157470703125,0.9715576171875,1.891632080078125,-3.207550048828125,-0.351409912109375,1.0,1.0,1.0,1.0,1.0,100.0,event
12:18:05.675,1.5261282,-0.31416187,-0.29848433,1.3610457,1.139943,-0.3755269,-0.50477475,0.90541244,1.2415922,-0.08131026,-0.13420948,0.6843914,0.88221353,-0.1723872,-0.20140831,0.66947544,0.4001949,-0.41986585,-0.22561476,0.4608919,832.4542,805.05493,803.8461,801.4286,887.25275,-0.1746826171875,-0.0157470703125,0.9715576171875,1.891632080078125,-3.207550048828125,-0.351409912109375,1.0,1.0,1.0,1.0,1.0,100.0,event
12:18:05.675,1.5261282,-0.31416187,-0.29848433,1.3610457,1.139943,-0.3755269,-0.50477475,0.90541244,1.2415922,-0.08131026,-0.13420948,0.6843914,0.88221353,-0.1723872,-0.20140831,0.66947544,0.4001949,-0.41986585,-0.22561476,0.4608919,808.68134,806.26373,798.20514,803.8461,1020.6227,-0.1746826171875,-0.0157470703125,0.9715576171875,1.891632080078125,-3.207550048828125,-0.351409912109375,1.0,1.0,1.0,1.0,1.0,100.0,event
12:18:05.676,1.5261282,-0.31416187,-0.29848433,1.3610457,1.139943,-0.3755269,-0.50477475,0.90541244,1.2415922,-0.08131026,-0.13420948,0.6843914,0.88221353,-0.1723872,-0.20140831,0.66947544,0.4001949,-0.41986585,-0.22561476,0.4608919,786.52014,799.41394,799.81683,788.93774,821.978,-0.1746826171875,-0.0157470703125,0.9715576171875,1.891632080078125,-3.207550048828125,-0.351409912109375,1.0,1.0,1.0,1.0,1.0,100.0,event
12:18:05.699,1.5261282,-0.31416187,-0.29848433,1.3610457,1.139943,-0.3755269,-0.50477475,0.90541244,1.2415922,-0.08131026,-0.13420948,0.6843914,0.88221353,-0.1723872,-0.20140831,0.66947544,0.4001949,-0.41986585,-0.22561476,0.4608919,798.60803,798.20514,805.05493,784.90845,717.619,-0.17529296875,-0.013671875,0.9720458984375,2.0037841796875,-3.701019287109375,-0.28411865234375,1.0,1.0,1.0,1.0,1.0,100.0,event
12:18:05.700,1.5261282,-0.31416187,-0.29848433,1.3610457,1.139943,-0.3755269,-0.50477475,0.90541244,1.2415922,-0.08131026,-0.13420948,0.6843914,0.88221353,-0.1723872,-0.20140831,0.66947544,0.4001949,-0.41986585,-0.22561476,0.4608919,810.293,802.6374,805.8608,798.20514,756.7033,-0.17529296875,-0.013671875,0.9720458984375,2.0037841796875,-3.701019287109375,-0.28411865234375,1.0,1.0,1.0,1.0,1.0,100.0,event
12:18:05.701,1.5261282,-0.31416187,-0.29848433,1.3610457,1.139943,-0.3755269,-0.50477475,0.90541244,1.2415922,-0.08131026,-0.13420948,0.6843914,0.88221353,-0.1723872,-0.20140831,0.66947544,0.4001949,-0.41986585,-0.22561476,0.4608919,826.4103,805.8608,807.0696,817.5458,747.8388,-0.17529296875,-0.013671875,0.9720458984375,2.0037841796875,-3.701019287109375,-0.28411865234375,1.0,1.0,1.0,1.0,1.0,100.0,event
12:18:05.702,1.5261282,-0.31416187,-0.29848433,1.3610457,1.139943,-0.3755269,-0.50477475,0.90541244,1.2415922,-0.08131026,-0.13420948,0.6843914,0.88221353,-0.1723872,-0.20140831,0.66947544,0.4001949,-0.41986585,-0.22561476,0.4608919,826.8132,801.4286,807.0696,809.4872,722.4542,-0.17529296875,-0.013671875,0.9720458984375,2.0037841796875,-3.701019287109375,-0.28411865234375,1.0,1.0,1.0,1.0,1.0,100.0,event
12:18:05.702,1.5261282,-0.31416187,-0.29848433,1.3610457,1.139943,-0.3755269,-0.50477475,0.90541244,1.2415922,-0.08131026,-0.13420948,0.6843914,0.88221353,-0.1723872,-0.20140831,0.66947544,0.4001949,-0.41986585,-0.22561476,0.4608919,805.4579,801.4286,803.8461,780.87915,797.8022,-0.17529296875,-0.013671875,0.9720458984375,2.0037841796875,-3.701019287109375,-0.28411865234375,1.0,1.0,1.0,1.0,1.0,100.0,event
12:18:05.703,1.5261282,-0.31416187,-0.29848433,1.3610457,1.139943,-0.3755269,-0.50477475,0.90541244,1.2415922,-0.08131026,-0.13420948,0.6843914,0.88221353,-0.1723872,-0.20140831,0.66947544,0.4001949,-0.41986585,-0.22561476,0.4608919,788.93774,803.44324,804.2491,774.0293,854.21246,-0.17529296875,-0.013671875,0.9720458984375,2.0037841796875,-3.701019287109375,-0.28411865234375,1.0,1.0,1.0,1.0,1.0,100.0,event
12:18:05.704,1.5261282,-0.31416187,-0.29848433,1.3610457,1.139943,-0.3755269,-0.50477475,0.90541244,1.2415922,-0.08131026,-0.13420948,0.6843914,0.88221353,-0.1723872,-0.20140831,0.66947544,0.4001949,-0.41986585,-0.22561476,0.4608919,794.9817,806.26373,805.4579,786.52014,870.32965,-0.17529296875,-0.013671875,0.9720458984375,2.0037841796875,-3.701019287109375,-0.28411865234375,1.0,1.0,1.0,1.0,1.0,100.0,event
12:18:05.705,1.5261282,-0.31416187,-0.29848433,1.3610457,1.139943,-0.3755269,-0.50477475,0.90541244,1.2415922,-0.08131026,-0.13420948,0.6843914,0.88221353,-0.1723872,-0.20140831,0.66947544,0.4001949,-0.41986585,-0.22561476,0.4608919,818.3516,805.8608,804.2491,807.0696,798.60803,-0.17529296875,-0.013671875,0.9720458984375,2.0037841796875,-3.701019287109375,-0.28411865234375,1.0,1.0,1.0,1.0,1.0,100.0,event
12:18:05.706,1.5261282,-0.31416187,-0.29848433,1.3610457,1.139943,-0.3755269,-0.50477475,0.90541244,1.2415922,-0.08131026,-0.13420948,0.6843914,0.88221353,-0.1723872,-0.20140831,0.66947544,0.4001949,-0.41986585,-0.22561476,0.4608919,822.381,800.6227,807.8755,813.1135,711.5751,-0.17529296875,-0.013671875,0.9720458984375,2.0037841796875,-3.701019287109375,-0.28411865234375,1.0,1.0,1.0,1.0,1.0,100.0,event
12:18:05.706,1.5261282,-0.31416187,-0.29848433,1.3610457,1.139943,-0.3755269,-0.50477475,0.90541244,1.2415922,-0.08131026,-0.13420948,0.6843914,0.88221353,-0.1723872,-0.20140831,0.66947544,0.4001949,-0.41986585,-0.22561476,0.4608919,794.17584,801.4286,802.6374,791.75824,1000.4762,-0.17529296875,-0.013671875,0.9720458984375,2.0037841796875,-3.701019287109375,-0.28411865234375,1.0,1.0,1.0,1.0,1.0,100.0,event
12:18:05.707,1.5261282,-0.31416187,-0.29848433,1.3610457,1.139943,-0.3755269,-0.50477475,0.90541244,1.2415922,-0.08131026,-0.13420948,0.6843914,0.88221353,-0.1723872,-0.20140831,0.66947544,0.4001949,-0.41986585,-0.22561476,0.4608919,774.43225,800.2198,797.3993,778.86444,1005.7143,-0.17529296875,-0.013671875,0.9720458984375,2.0037841796875,-3.701019287109375,-0.28411865234375,1.0,1.0,1.0,1.0,1.0,100.0,event
12:18:05.708,1.5261282,-0.31416187,-0.29848433,1.3610457,1.139943,-0.3755269,-0.50477475,0.90541244,1.2415922,-0.08131026,-0.13420948,0.6843914,0.88221353,-0.1723872,-0.20140831,0.66947544,0.4001949,-0.41986585,-0.22561476,0.4608919,794.17584,800.2198,800.6227,786.1172,663.22345,-0.17529296875,-0.013671875,0.9720458984375,2.0037841796875,-3.701019287109375,-0.28411865234375,1.0,1.0,1.0,1.0,1.0,100.0,event
12:18:05.762,1.5261282,-0.31416187,-0.29848433,1.3610457,1.139943,-0.3755269,-0.50477475,0.90541244,1.2415922,-0.08131026,-0.13420948,0.6843914,0.88221353,-0.1723872,-0.20140831,0.66947544,0.4001949,-0.41986585,-0.22561476,0.4608919,825.2015,803.0403,803.44324,816.337,701.50183,-0.17364501953125,-0.02154541015625,0.9678955078125,1.65985107421875,-4.0673828125,0.22430419921875,1.0,1.0,1.0,1.0,1.0,100.0,event
12:18:05.763,1.5261282,-0.31416187,-0.29848433,1.3610457,1.139943,-0.3755269,-0.50477475,0.90541244,1.2415922,-0.08131026,-0.13420948,0.6843914,0.88221353,-0.1723872,-0.20140831,0.66947544,0.4001949,-0.41986585,-0.22561476,0.4608919,813.1135,805.05493,801.8315,825.6044,746.63007,-0.17364501953125,-0.02154541015625,0.9678955078125,1.65985107421875,-4.0673828125,0.22430419921875,1.0,1.0,1.0,1.0,1.0,100.0,event
12:18:05.763,1.5261282,-0.31416187,-0.29848433,1.3610457,1.139943,-0.3755269,-0.50477475,0.90541244,1.2415922,-0.08131026,-0.13420948,0.6843914,0.88221353,-0.1723872,-0.20140831,0.66947544,0.4001949,-0.41986585,-0.22561476,0.4608919,790.14655,805.8608,804.2491,806.6667,711.978,-0.17364501953125,-0.02154541015625,0.9678955078125,1.65985107421875,-4.0673828125,0.22430419921875,1.0,1.0,1.0,1.0,1.0,100.0,event
12:18:05.764,1.5261282,-0.31416187,-0.29848433,1.3610457,1.139943,-0.3755269,-0.50477475,0.90541244,1.2415922,-0.08131026,-0.13420948,0.6843914,0.88221353,-0.1723872,-0.20140831,0.66947544,0.4001949,-0.41986585,-0.22561476,0.4608919,780.4762,805.8608,804.2491,784.90845,642.27106,-0.17364501953125,-0.02154541015625,0.9678955078125,1.65985107421875,-4.0673828125,0.22430419921875,1.0,1.0,1.0,1.0,1.0,100.0,event
12:18:05.765,1.5261282,-0.31416187,-0.29848433,1.3610457,1.139943,-0.3755269,-0.50477475,0.90541244,1.2415922,-0.08131026,-0.13420948,0.6843914,0.88221353,-0.1723872,-0.20140831,0.66947544,0.4001949,-0.41986585,-0.22561476,0.4608919,785.7143,804.65204,800.2198,786.9231,741.39197,-0.17364501953125,-0.02154541015625,0.9678955078125,1.65985107421875,-4.0673828125,0.22430419921875,1.0,1.0,1.0,1.0,1.0,100.0,event
12:18:05.765,1.5261282,-0.31416187,-0.29848433,1.3610457,1.139943,-0.3755269,-0.50477475,0.90541244,1.2415922,-0.08131026,-0.13420948,0.6843914,0.88221353,-0.1723872,-0.20140831,0.66947544,0.4001949,-0.41986585,-0.22561476,0.4608919,807.8755,801.8315,802.23444,816.7399,927.9487,-0.17364501953125,-0.02154541015625,0.9678955078125,1.65985107421875,-4.0673828125,0.22430419921875,1.0,1.0,1.0,1.0,1.0,100.0,event
12:18:05.765,1.5261282,-0.31416187,-0.29848433,1.3610457,1.139943,-0.3755269,-0.50477475,0.90541244,1.2415922,-0.08131026,-0.13420948,0.6843914,0.88221353,-0.1723872,-0.20140831,0.66947544,0.4001949,-0.41986585,-0.22561476,0.4608919,811.0989,801.4286,803.0403,814.7253,848.1685,-0.17364501953125,-0.02154541015625,0.9678955078125,1.65985107421875,-4.0673828125,0.22430419921875,1.0,1.0,1.0,1.0,1.0,100.0,event
12:18:05.766,1.5261282,-0.31445608,-0.32047012,1.3610457,1.139943,-0.3789305,-0.52486765,0.90541244,1.2415922,-0.08131026,-0.12580651,0.6843914,0.88221353,-0.17085113,-0.19694145,0.66947544,0.4001949,-0.4295917,-0.2324882,0.4608919,792.1612,801.8315,804.2491,786.9231,666.04395,-0.17364501953125,-0.02154541015625,0.9678955078125,1.65985107421875,-4.0673828125,0.22430419921875,1.0,1.0,1.0,1.0,1.0,100.0,event
12:18:05.771,1.5261282,-0.31445608,-0.32047012,1.3610457,1.139943,-0.3789305,-0.52486765,0.90541244,1.2415922,-0.08131026,-0.12580651,0.6843914,0.88221353,-0.17085113,-0.19694145,0.66947544,0.4001949,-0.4295917,-0.2324882,0.4608919,775.64105,797.3993,804.65204,774.43225,731.7216,-0.17364501953125,-0.02154541015625,0.9678955078125,1.65985107421875,-4.0673828125,0.22430419921875,1.0,1.0,1.0,1.0,1.0,100.0,event
12:18:05.772,1.5261282,-0.31445608,-0.32047012,1.3610457,1.139943,-0.3789305,-0.52486765,0.90541244,1.2415922,-0.08131026,-0.12580651,0.6843914,0.88221353,-0.17085113,-0.19694145,0.66947544,0.4001949,-0.4295917,-0.2324882,0.4608919,779.67035,801.8315,806.6667,787.72894,949.304,-0.17364501953125,-0.02154541015625,0.9678955078125,1.65985107421875,-4.0673828125,0.22430419921875,1.0,1.0,1.0,1.0,1.0,100.0,event
12:18:05.773,1.5261282,-0.31445608,-0.32047012,1.3610457,1.139943,-0.3789305,-0.52486765,0.90541244,1.2415922,-0.08131026,-0.12580651,0.6843914,0.88221353,-0.17085113,-0.19694145,0.66947544,0.4001949,-0.4295917,-0.2324882,0.4608919,807.8755,808.68134,805.4579,810.293,824.7985,-0.17364501953125,-0.02154541015625,0.9678955078125,1.65985107421875,-4.0673828125,0.22430419921875,1.0,1.0,1.0,1.0,1.0,100.0,event
12:18:05.774,1.5261282,-0.31445608,-0.32047012,1.3610457,1.139943,-0.3789305,-0.52486765,0.90541244,1.2415922,-0.08131026,-0.12580651,0.6843914,0.88221353,-0.17085113,-0.19694145,0.66947544,0.4001949,-0.4295917,-0.2324882,0.4608919,818.7546,805.8608,804.2491,819.5604,722.4542,-0.17364501953125,-0.02154541015625,0.9678955078125,1.65985107421875,-4.0673828125,0.22430419921875,1.0,1.0,1.0,1.0,1.0,100.0,event
12:18:05.801,1.5261282,-0.31445608,-0.32047012,1.3610457,1.139943,-0.3789305,-0.52486765,0.90541244,1.2415922,-0.08131026,-0.12580651,0.6843914,0.88221353,-0.17085113,-0.19694145,0.66947544,0.4001949,-0.4295917,-0.2324882,0.4608919,795.38464,805.8608,803.0403,797.8022,872.3443,-0.1673583984375,-0.01666259765625,0.97216796875,2.3028564453125,-3.985137939453125,-0.351409912109375,1.0,1.0,1.0,1.0,1.0,100.0,event
12:18:05.803,1.5261282,-0.31445608,-0.32047012,1.3610457,1.139943,-0.3789305,-0.52486765,0.90541244,1.2415922,-0.08131026,-0.12580651,0.6843914,0.88221353,-0.17085113,-0.19694145,0.66947544,0.4001949,-0.4295917,-0.2324882,0.4608919,776.8498,805.8608,800.6227,782.8938,905.78754,-0.1673583984375,-0.01666259765625,0.97216796875,2.3028564453125,-3.985137939453125,-0.351409912109375,1.0,1.0,1.0,1.0,1.0,100.0,event
12:18:05.804,1.5261282,-0.31445608,-0.32047012,1.3610457,1.139943,-0.3789305,-0.52486765,0.90541244,1.2415922,-0.08131026,-0.12580651,0.6843914,0.88221353,-0.17085113,-0.19694145,0.66947544,0.4001949,-0.4295917,-0.2324882,0.4608919,782.8938,801.02563,799.41394,781.28204,767.5824,-0.1673583984375,-0.01666259765625,0.97216796875,2.3028564453125,-3.985137939453125,-0.351409912109375,1.0,1.0,1.0,1.0,1.0,100.0,event
12:18:05.805,1.5261282,-0.31445608,-0.32047012,1.3610457,1.139943,-0.3789305,-0.52486765,0.90541244,1.2415922,-0.08131026,-0.12580651,0.6843914,0.88221353,-0.17085113,-0.19694145,0.66947544,0.4001949,-0.4295917,-0.2324882,0.4608919,793.36993,802.23444,795.38464,789.34064,738.1685,-0.1673583984375,-0.01666259765625,0.97216796875,2.3028564453125,-3.985137939453125,-0.351409912109375,1.0,1.0,1.0,1.0,1.0,100.0,event
12:18:05.806,1.5261282,-0.31445608,-0.32047012,1.3610457,1.139943,-0.3789305,-0.52486765,0.90541244,1.2415922,-0.08131026,-0.12580651,0.6843914,0.88221353,-0.17085113,-0.19694145,0.66947544,0.4001949,-0.4295917,-0.2324882,0.4608919,803.0403,805.8608,796.99634,810.293,838.49817,-0.1673583984375,-0.01666259765625,0.97216796875,2.3028564453125,-3.985137939453125,-0.351409912109375,1.0,1.0,1.0,1.0,1.0,100.0,event
12:18:05.808,1.5261282,-0.31445608,-0.32047012,1.3610457,1.139943,-0.3789305,-0.52486765,0.90541244,1.2415922,-0.08131026,-0.12580651,0.6843914,0.88221353,-0.17085113,-0.19694145,0.66947544,0.4001949,-0.4295917,-0.2324882,0.4608919,801.4286,806.26373,804.65204,809.89014,817.5458,-0.1673583984375,-0.01666259765625,0.97216796875,2.3028564453125,-3.985137939453125,-0.351409912109375,1.0,1.0,1.0,1.0,1.0,100.0,event
12:18:05.809,1.5261282,-0.31445608,-0.32047012,1.3610457,1.139943,-0.3789305,-0.52486765,0.90541244,1.2415922,-0.08131026,-0.12580651,0.6843914,0.88221353,-0.17085113,-0.19694145,0.66947544,0.4001949,-0.4295917,-0.2324882,0.4608919,788.1319,803.8461,811.0989,792.5641,751.06226,-0.1673583984375,-0.01666259765625,0.97216796875,2.3028564453125,-3.985137939453125,-0.351409912109375,1.0,1.0,1.0,1.0,1.0,100.0,event
12:18:05.810,1.5261282,-0.31445608,-0.32047012,1.3610457,1.139943,-0.3789305,-0.52486765,0.90541244,1.2415922,-0.08131026,-0.12580651,0.6843914,0.88221353,-0.17085113,-0.19694145,0.66947544,0.4001949,-0.4295917,-0.2324882,0.4608919,788.1319,807.0696,809.89014,790.54944,703.91943,-0.1673583984375,-0.01666259765625,0.97216796875,2.3028564453125,-3.985137939453125,-0.351409912109375,1.0,1.0,1.0,1.0,1.0,100.0,event
12:18:05.810,1.5261282,-0.31445608,-0.32047012,1.3610457,1.139943,-0.3789305,-0.52486765,0.90541244,1.2415922,-0.08131026,-0.12580651,0.6843914,0.88221353,-0.17085113,-0.19694145,0.66947544,0.4001949,-0.4295917,-0.2324882,0.4608919,811.50183,811.50183,805.4579,811.9048,875.16486,-0.1673583984375,-0.01666259765625,0.97216796875,2.3028564453125,-3.985137939453125,-0.351409912109375,1.0,1.0,1.0,1.0,1.0,100.0,event
12:18:05.811,1.5261282,-0.31445608,-0.32047012,1.3610457,1.139943,-0.3789305,-0.52486765,0.90541244,1.2415922,-0.08131026,-0.12580651,0.6843914,0.88221353,-0.17085113,-0.19694145,0.66947544,0.4001949,-0.4295917,-0.2324882,0.4608919,824.7985,806.26373,805.4579,824.3956,979.5238,-0.1673583984375,-0.01666259765625,0.97216796875,2.3028564453125,-3.985137939453125,-0.351409912109375,1.0,1.0,1.0,1.0,1.0,100.0,event
12:18:05.812,1.5261282,-0.31445608,-0.32047012,1.3610457,1.139943,-0.3789305,-0.52486765,0.90541244,1.2415922,-0.08131026,-0.12580651,0.6843914,0.88221353,-0.17085113,-0.19694145,0.66947544,0.4001949,-0.4295917,-0.2324882,0.4608919,804.2491,804.65204,808.2784,812.71063,780.07324,-0.1673583984375,-0.01666259765625,0.97216796875,2.3028564453125,-3.985137939453125,-0.351409912109375,1.0,1.0,1.0,1.0,1.0,100.0,event
12:18:05.812,1.5261282,-0.31445608,-0.32047012,1.3610457,1.139943,-0.3789305,-0.52486765,0.90541244,1.2415922,-0.08131026,-0.12580651,0.6843914,0.88221353,-0.17085113,-0.19694145,0.66947544,0.4001949,-0.4295917,-0.2324882,0.4608919,771.2088,807.8755,807.47253,794.17584,779.2674,-0.1673583984375,-0.01666259765625,0.97216796875,2.3028564453125,-3.985137939453125,-0.351409912109375,1.0,1.0,1.0,1.0,1.0,100.0,event
12:18:05.833,1.5261282,-0.31445608,-0.32047012,1.3610457,1.139943,-0.3789305,-0.52486765,0.90541244,1.2415922,-0.08131026,-0.12580651,0.6843914,0.88221353,-0.17085113,-0.19694145,0.66947544,0.4001949,-0.4295917,-0.2324882,0.4608919,758.71796,804.2491,805.05493,797.8022,807.0696,-0.1673583984375,-0.01666259765625,0.97216796875,2.3028564453125,-3.985137939453125,-0.351409912109375,1.0,1.0,1.0,1.0,1.0,100.0,event
12:18:05.834,1.5261282,-0.31445608,-0.32047012,1.3610457,1.139943,-0.3789305,-0.52486765,0.90541244,1.2415922,-0.08131026,-0.12580651,0.6843914,0.88221353,-0.17085113,-0.19694145,0.66947544,0.4001949,-0.4295917,-0.2324882,0.4608919,788.5348,799.81683,807.0696,814.3223,758.315,-0.1673583984375,-0.01666259765625,0.97216796875,2.3028564453125,-3.985137939453125,-0.351409912109375,1.0,1.0,1.0,1.0,1.0,100.0,event
12:18:05.835,1.5261282,-0.31445608,-0.32047012,1.3610457,1.139943,-0.3789305,-0.52486765,0.90541244,1.2415922,-0.08131026,-0.12580651,0.6843914,0.88221353,-0.17085113,-0.19694145,0.66947544,0.4001949,-0.4295917,-0.2324882,0.4608919,811.50183,806.26373,808.68134,830.4396,702.3077,-0.1673583984375,-0.01666259765625,0.97216796875,2.3028564453125,-3.985137939453125,-0.351409912109375,1.0,1.0,1.0,1.0,1.0,100.0,event
12:18:05.835,1.5261282,-0.31445608,-0.32047012,1.3610457,1.139943,-0.3789305,-0.52486765,0.90541244,1.2415922,-0.08131026,-0.12580651,0.6843914,0.88221353,-0.17085113,-0.19694145,0.66947544,0.4001949,-0.4295917,-0.2324882,0.4608919,796.99634,807.0696,806.26373,825.2015,769.59705,-0.1673583984375,-0.01666259765625,0.97216796875,2.3028564453125,-3.985137939453125,-0.351409912109375,1.0,1.0,1.0,1.0,1.0,100.0,event
12:18:05.836,1.5261282,-0.31445608,-0.32047012,1.3610457,1.139943,-0.3789305,-0.52486765,0.90541244,1.2415922,-0.08131026,-0.12580651,0.6843914,0.88221353,-0.17085113,-0.19694145,0.66947544,0.4001949,-0.4295917,-0.2324882,0.4608919,784.5055,805.8608,803.44324,797.8022,821.1722,-0.1673583984375,-0.01666259765625,0.97216796875,2.3028564453125,-3.985137939453125,-0.351409912109375,1.0,1.0,1.0,1.0,1.0,100.0,event
12:18:05.836,1.5261282,-0.31445608,-0.32047012,1.3610457,1.139943,-0.3789305,-0.52486765,0.90541244,1.2415922,-0.08131026,-0.12580651,0.6843914,0.88221353,-0.17085113,-0.19694145,0.66947544,0.4001949,-0.4295917,-0.2324882,0.4608919,792.5641,809.89014,803.8461,793.7729,865.09155,-0.1673583984375,-0.01666259765625,0.97216796875,2.3028564453125,-3.985137939453125,-0.351409912109375,1.0,1.0,1.0,1.0,1.0,100.0,event
12:18:05.837,1.5261282,-0.31445608,-0.32047012,1.3610457,1.139943,-0.3789305,-0.52486765,0.90541244,1.2415922,-0.08131026,-0.12580651,0.6843914,0.88221353,-0.17085113,-0.19694145,0.66947544,0.4001949,-0.4295917,-0.2324882,0.4608919,803.44324,811.50183,811.50183,823.5897,877.98535,-0.1673583984375,-0.01666259765625,0.97216796875,2.3028564453125,-3.985137939453125,-0.351409912109375,1.0,1.0,1.0,1.0,1.0,100.0,event
12:18:05.837,1.5261282,-0.31445608,-0.32047012,1.3610457,1.139943,-0.3789305,-0.52486765,0.90541244,1.2415922,-0.08131026,-0.12580651,0.6843914,0.88221353,-0.17085113,-0.19694145,0.66947544,0.4001949,-0.4295917,-0.2324882,0.4608919,807.0696,814.7253,807.47253,803.8461,899.7436,-0.1673583984375,-0.01666259765625,0.97216796875,2.3028564453125,-3.985137939453125,-0.351409912109375,1.0,1.0,1.0,1.0,1.0,100.0,event
12:18:05.838,1.5261282,-0.31445608,-0.32047012,1.3610457,1.139943,-0.3789305,-0.52486765,0.90541244,1.2415922,-0.08131026,-0.12580651,0.6843914,0.88221353,-0.17085113,-0.19694145,0.66947544,0.4001949,-0.4295917,-0.2324882,0.4608919,802.23444,806.6667,809.89014,830.84247,1027.8755,-0.1673583984375,-0.01666259765625,0.97216796875,2.3028564453125,-3.985137939453125,-0.351409912109375,1.0,1.0,1.0,1.0,1.0,100.0,event
12:18:05.838,1.5261282,-0.30056462,-0.34916326,1.3610457,1.139943,-0.3812806,-0.55268854,0.90541244,1.2415922,-0.08131026,-0.12580651,0.6843914,0.88221353,-0.16892982,-0.18618354,0.66947544,0.4001949,-0.43962815,-0.24414152,0.4608919,792.5641,807.0696,806.26373,792.1612,838.49817,-0.1673583984375,-0.01666259765625,0.97216796875,2.3028564453125,-3.985137939453125,-0.351409912109375,1.0,1.0,1.0,1.0,1.0,100.0,event
12:18:05.842,1.5261282,-0.30056462,-0.34916326,1.3610457,1.139943,-0.3812806,-0.55268854,0.90541244,1.2415922,-0.08131026,-0.12580651,0.6843914,0.88221353,-0.16892982,-0.18618354,0.66947544,0.4001949,-0.43962815,-0.24414152,0.4608919,780.07324,804.2491,804.2491,775.2381,656.3736,-0.1673583984375,-0.01666259765625,0.97216796875,2.3028564453125,-3.985137939453125,-0.351409912109375,1.0,1.0,1.0,1.0,1.0,100.0,event
12:18:05.842,1.5261282,-0.30056462,-0.34916326,1.3610457,1.139943,-0.3812806,-0.55268854,0.90541244,1.2415922,-0.08131026,-0.12580651,0.6843914,0.88221353,-0.16892982,-0.18618354,0.66947544,0.4001949,-0.43962815,-0.24414152,0.4608919,795.78754,805.4579,801.4286,801.02563,784.10254,-0.1673583984375,-0.01666259765625,0.97216796875,2.3028564453125,-3.985137939453125,-0.351409912109375,1.0,1.0,1.0,1.0,1.0,100.0,event
12:18:05.897,1.5261282,-0.30056462,-0.34916326,1.3610457,1.139943,-0.3812806,-0.55268854,0.90541244,1.2415922,-0.08131026,-0.12580651,0.6843914,0.88221353,-0.16892982,-0.18618354,0.66947544,0.4001949,-0.43962815,-0.24414152,0.4608919,803.8461,808.2784,804.2491,819.5604,780.4762,-0.1715087890625,-0.0137939453125,0.97564697265625,1.562652587890625,-3.2598876953125,0.575714111328125,1.0,1.0,1.0,1.0,1.0,100.0,event
12:18:05.898,1.5261282,-0.30056462,-0.34916326,1.3610457,1.139943,-0.3812806,-0.55268854,0.90541244,1.2415922,-0.08131026,-0.12580651,0.6843914,0.88221353,-0.16892982,-0.18618354,0.66947544,0.4001949,-0.43962815,-0.24414152,0.4608919,794.57874,805.8608,808.2784,816.7399,724.0659,-0.1715087890625,-0.0137939453125,0.97564697265625,1.562652587890625,-3.2598876953125,0.575714111328125,1.0,1.0,1.0,1.0,1.0,100.0,event
12:18:05.898,1.5261282,-0.30056462,-0.34916326,1.3610457,1.139943,-0.3812806,-0.55268854,0.90541244,1.2415922,-0.08131026,-0.12580651,0.6843914,0.88221353,-0.16892982,-0.18618354,0.66947544,0.4001949,-0.43962815,-0.24414152,0.4608919,781.685,801.02563,807.0696,794.17584,717.619,-0.1715087890625,-0.0137939453125,0.97564697265625,1.562652587890625,-3.2598876953125,0.575714111328125,1.0,1.0,1.0,1.0,1.0,100.0,event
12:18:05.899,1.5261282,-0.30056462,-0.34916326,1.3610457,1.139943,-0.3812806,-0.55268854,0.90541244,1.2415922,-0.08131026,-0.12580651,0.6843914,0.88221353,-0.16892982,-0.18618354,0.66947544,0.4001949,-0.43962815,-0.24414152,0.4608919,772.8205,800.6227,805.4579,780.07324,749.45056,-0.1715087890625,-0.0137939453125,0.97564697265625,1.562652587890625,-3.2598876953125,0.575714111328125,1.0,1.0,1.0,1.0,1.0,100.0,event
12:18:05.899,1.5261282,-0.30056462,-0.34916326,1.3610457,1.139943,-0.3812806,-0.55268854,0.90541244,1.2415922,-0.08131026,-0.12580651,0.6843914,0.88221353,-0.16892982,-0.18618354,0.66947544,0.4001949,-0.43962815,-0.24414152,0.4608919,787.72894,804.65204,806.6667,798.20514,698.68134,-0.1715087890625,-0.0137939453125,0.97564697265625,1.562652587890625,-3.2598876953125,0.575714111328125,1.0,1.0,1.0,1.0,1.0,100.0,event
12:18:05.900,1.5261282,-0.30056462,-0.34916326,1.3610457,1.139943,-0.3812806,-0.55268854,0.90541244,1.2415922,-0.08131026,-0.12580651,0.6843914,0.88221353,-0.16892982,-0.18618354,0.66947544,0.4001949,-0.43962815,-0.24414152,0.4608919,796.1905,800.2198,809.4872,816.7399,765.9707,-0.1715087890625,-0.0137939453125,0.97564697265625,1.562652587890625,-3.2598876953125,0.575714111328125,1.0,1.0,1.0,1.0,1.0,100.0,event
12:18:05.901,1.5261282,-0.30056462,-0.34916326,1.3610457,1.139943,-0.3812806,-0.55268854,0.90541244,1.2415922,-0.08131026,-0.12580651,0.6843914,0.88221353,-0.16892982,-0.18618354,0.66947544,0.4001949,-0.43962815,-0.24414152,0.4608919,798.20514,796.99634,807.8755,815.9341,803.0403,-0.1715087890625,-0.0137939453125,0.97564697265625,1.562652587890625,-3.2598876953125,0.575714111328125,1.0,1.0,1.0,1.0,1.0,100.0,event
12:18:05.901,1.5261282,-0.30056462,-0.34916326,1.3610457,1.139943,-0.3812806,-0.55268854,0.90541244,1.2415922,-0.08131026,-0.12580651,0.6843914,0.88221353,-0.16892982,-0.18618354,0.66947544,0.4001949,-0.43962815,-0.24414152,0.4608919,790.9524,799.011,808.2784,793.36993,1025.8608,-0.1715087890625,-0.0137939453125,0.97564697265625,1.562652587890625,-3.2598876953125,0.575714111328125,1.0,1.0,1.0,1.0,1.0,100.0,event
12:18:05.902,1.5261282,-0.30056462,-0.34916326,1.3610457,1.139943,-0.3812806,-0.55268854,0.90541244,1.2415922,-0.08131026,-0.12580651,0.6843914,0.88221353,-0.16892982,-0.18618354,0.66947544,0.4001949,-0.43962815,-0.24414152,0.4608919,774.0293,801.02563,811.0989,772.8205,1133.8462,-0.1715087890625,-0.0137939453125,0.97564697265625,1.562652587890625,-3.2598876953125,0.575714111328125,1.0,1.0,1.0,1.0,1.0,100.0,event
12:18:05.902,1.5261282,-0.30056462,-0.34916326,1.3610457,1.139943,-0.3812806,-0.55268854,0.90541244,1.2415922,-0.08131026,-0.12580651,0.6843914,0.88221353,-0.16892982,-0.18618354,0.66947544,0.4001949,-0.43962815,-0.24414152,0.4608919,781.28204,804.65204,811.50183,784.10254,782.8938,-0.1715087890625,-0.0137939453125,0.97564697265625,1.562652587890625,-3.2598876953125,0.575714111328125,1.0,1.0,1.0,1.0,1.0,100.0,event
12:18:05.903,1.5261282,-0.30056462,-0.34916326,1.3610457,1.139943,-0.3812806,-0.55268854,0.90541244,1.2415922,-0.08131026,-0.12580651,0.6843914,0.88221353,-0.16892982,-0.18618354,0.66947544,0.4001949,-0.43962815,-0.24414152,0.4608919,805.8608,802.6374,801.02563,801.4286,751.8681,-0.1715087890625,-0.0137939453125,0.97564697265625,1.562652587890625,-3.2598876953125,0.575714111328125,1.0,1.0,1.0,1.0,1.0,100.0,event
12:18:05.903,1.5261282,-0.30056462,-0.34916326,1.3610457,1.139943,-0.3812806,-0.55268854,0.90541244,1.2415922,-0.08131026,-0.12580651,0.6843914,0.88221353,-0.16892982,-0.18618354,0.66947544,0.4001949,-0.43962815,-0.24414152,0.4608919,803.8461,793.36993,802.6374,807.8755,825.2015,-0.1715087890625,-0.0137939453125,0.97564697265625,1.562652587890625,-3.2598876953125,0.575714111328125,1.0,1.0,1.0,1.0,1.0,100.0,event
12:18:05.929,1.5261282,-0.30056462,-0.34916326,1.3610457,1.139943,-0.3812806,-0.55268854,0.90541244,1.2415922,-0.08131026,-0.12580651,0.6843914,0.88221353,-0.16892982,-0.18618354,0.66947544,0.4001949,-0.43962815,-0.24414152,0.4608919,790.9524,794.9817,807.8755,797.8022,757.9121,-0.16827392578125,-0.0113525390625,0.9647216796875,2.4822998046875,-4.329071044921875,0.0299072265625,1.0,1.0,1.0,1.0,1.0,100.0,event
12:18:05.930,1.5261282,-0.30056462,-0.34916326,1.3610457,1.139943,-0.3812806,-0.55268854,0.90541244,1.2415922,-0.08131026,-0.12580651,0.6843914,0.88221353,-0.16892982,-0.18618354,0.66947544,0.4001949,-0.43962815,-0.24414152,0.4608919,785.7143,799.41394,800.2198,778.86444,664.0293,-0.16827392578125,-0.0113525390625,0.9647216796875,2.4822998046875,-4.329071044921875,0.0299072265625,1.0,1.0,1.0,1.0,1.0,100.0,event
12:18:05.931,1.5261282,-0.30056462,-0.34916326,1.3610457,1.139943,-0.3812806,-0.55268854,0.90541244,1.2415922,-0.08131026,-0.12580651,0.6843914,0.88221353,-0.16892982,-0.18618354,0.66947544,0.4001949,-0.43962815,-0.24414152,0.4608919,795.38464,799.41394,799.81683,809.89014,869.92676,-0.16827392578125,-0.0113525390625,0.9647216796875,2.4822998046875,-4.329071044921875,0.0299072265625,1.0,1.0,1.0,1.0,1.0,100.0,event
12:18:05.931,1.5261282,-0.30056462,-0.34916326,1.3610457,1.139943,-0.3812806,-0.55268854,0.90541244,1.2415922,-0.08131026,-0.12580651,0.6843914,0.88221353,-0.16892982,-0.18618354,0.66947544,0.4001949,-0.43962815,-0.24414152,0.4608919,786.9231,798.60803,801.4286,782.8938,748.6447,-0.16827392578125,-0.0113525390625,0.9647216796875,2.4822998046875,-4.329071044921875,0.0299072265625,1.0,1.0,1.0,1.0,1.0,100.0,event
12:18:05.932,1.5261282,-0.30056462,-0.34916326,1.3610457,1.139943,-0.3812806,-0.55268854,0.90541244,1.2415922,-0.08131026,-0.12580651,0.6843914,0.88221353,-0.16892982,-0.18618354,0.66947544,0.4001949,-0.43962815,-0.24414152,0.4608919,795.78754,796.99634,801.8315,819.9634,764.35895,-0.16827392578125,-0.0113525390625,0.9647216796875,2.4822998046875,-4.329071044921875,0.0299072265625,1.0,1.0,1.0,1.0,1.0,100.0,event
12:18:05.932,1.5261282,-0.30056462,-0.34916326,1.3610457,1.139943,-0.3812806,-0.55268854,0.90541244,1.2415922,-0.08131026,-0.12580651,0.6843914,0.88221353,-0.16892982,-0.18618354,0.66947544,0.4001949,-0.43962815,-0.24414152,0.4608919,786.52014,800.2198,806.26373,798.60803,779.2674,-0.16827392578125,-0.0113525390625,0.9647216796875,2.4822998046875,-4.329071044921875,0.0299072265625,1.0,1.0,1.0,1.0,1.0,100.0,event
12:18:05.933,1.5261282,-0.30056462,-0.34916326,1.3610457,1.139943,-0.3812806,-0.55268854,0.90541244,1.2415922,-0.08131026,-0.12580651,0.6843914,0.88221353,-0.16892982,-0.18618354,0.66947544,0.4001949,-0.43962815,-0.24414152,0.4608919,763.95605,799.011,805.8608,781.685,884.43225,-0.16827392578125,-0.0113525390625,0.9647216796875,2.4822998046875,-4.329071044921875,0.0299072265625,1.0,1.0,1.0,1.0,1.0,100.0,event
12:18:05.933,1.5261282,-0.30056462,-0.34916326,1.3610457,1.139943,-0.3812806,-0.55268854,0.90541244,1.2415922,-0.08131026,-0.12580651,0.6843914,0.88221353,-0.16892982,-0.18618354,0.66947544,0.4001949,-0.43962815,-0.24414152,0.4608919,756.30035,796.1905,800.6227,786.52014,930.3663,-0.16827392578125,-0.0113525390625,0.9647216796875,2.4822998046875,-4.329071044921875,0.0299072265625,1.0,1.0,1.0,1.0,1.0,100.0,event
12:18:05.934,1.5261282,-0.30056462,-0.34916326,1.3610457,1.139943,-0.3812806,-0.55268854,0.90541244,1.2415922,-0.08131026,-0.12580651,0.6843914,0.88221353,-0.16892982,-0.18618354,0.66947544,0.4001949,-0.43962815,-0.24414152,0.4608919,790.9524,803.0403,798.20514,801.4286,733.73627,-0.16827392578125,-0.0113525390625,0.9647216796875,2.4822998046875,-4.329071044921875,0.0299072265625,1.0,1.0,1.0,1.0,1.0,100.0,event
12:18:05.935,1.5261282,-0.30056462,-0.34916326,1.3610457,1.139943,-0.3812806,-0.55268854,0.90541244,1.2415922,-0.08131026,-0.12580651,0.6843914,0.88221353,-0.16892982,-0.18618354,0.66947544,0.4001949,-0.43962815,-0.24414152,0.4608919,805.4579,802.23444,803.0403,810.696,645.09155,-0.16827392578125,-0.0113525390625,0.9647216796875,2.4822998046875,-4.329071044921875,0.0299072265625,1.0,1.0,1.0,1.0,1.0,100.0,event
12:18:05.936,1.5261282,-0.30056462,-0.34916326,1.3610457,1.139943,-0.3812806,-0.55268854,0.90541244,1.2415922,-0.08131026,-0.12580651,0.6843914,0.88221353,-0.16892982,-0.18618354,0.66947544,0.4001949,-0.43962815,-0.24414152,0.4608919,782.8938,802.23444,804.2491,797.3993,809.4872,-0.16827392578125,-0.0113525390625,0.9647216796875,2.4822998046875,-4.329071044921875,0.0299072265625,1.0,1.0,1.0,1.0,1.0,100.0,event
12:18:05.937,1.5261282,-0.27490744,-0.3683891,1.3610457,1.139943,-0.3868742,-0.577519,0.90541244,1.2415922,-0.092978574,-0.12580651,0.6843914,0.88221353,-0.16934848,-0.17331399,0.66947544,0.4001949,-0.4465428,-0.2591124,0.4608919,768.7912,802.23444,801.4286,772.01465,842.52747,-0.16827392578125,-0.0113525390625,0.9647216796875,2.4822998046875,-4.329071044921875,0.0299072265625,1.0,1.0,1.0,1.0,1.0,100.0,event
12:18:05.996,1.5261282,-0.27490744,-0.3683891,1.3610457,1.139943,-0.3868742,-0.577519,0.90541244,1.2415922,-0.092978574,-0.12580651,0.6843914,0.88221353,-0.16934848,-0.17331399,0.66947544,0.4001949,-0.4465428,-0.2591124,0.4608919,776.4469,797.8022,798.60803,771.2088,736.55676,-0.16766357421875,-0.01202392578125,0.97869873046875,1.734619140625,-3.78326416015625,-0.800018310546875,1.0,1.0,1.0,1.0,1.0,100.0,event
12:18:05.997,1.5261282,-0.27490744,-0.3683891,1.3610457,1.139943,-0.3868742,-0.577519,0.90541244,1.2415922,-0.092978574,-0.12580651,0.6843914,0.88221353,-0.16934848,-0.17331399,0.66947544,0.4001949,-0.4465428,-0.2591124,0.4608919,809.89014,804.65204,801.4286,829.2308,849.3773,-0.16766357421875,-0.01202392578125,0.97869873046875,1.734619140625,-3.78326416015625,-0.800018310546875,1.0,1.0,1.0,1.0,1.0,100.0,event
12:18:05.997,1.5261282,-0.27490744,-0.3683891,1.3610457,1.139943,-0.3868742,-0.577519,0.90541244,1.2415922,-0.092978574,-0.12580651,0.6843914,0.88221353,-0.16934848,-0.17331399,0.66947544,0.4001949,-0.4465428,-0.2591124,0.4608919,798.20514,801.8315,800.6227,803.44324,766.3736,-0.16766357421875,-0.01202392578125,0.97869873046875,1.734619140625,-3.78326416015625,-0.800018310546875,1.0,1.0,1.0,1.0,1.0,100.0,event
12:18:05.998,1.5261282,-0.27490744,-0.3683891,1.3610457,1.139943,-0.3868742,-0.577519,0.90541244,1.2415922,-0.092978574,-0.12580651,0.6843914,0.88221353,-0.16934848,-0.17331399,0.66947544,0.4001949,-0.4465428,-0.2591124,0.4608919,803.44324,802.23444,805.8608,813.1135,840.5128,-0.16766357421875,-0.01202392578125,0.97869873046875,1.734619140625,-3.78326416015625,-0.800018310546875,1.0,1.0,1.0,1.0,1.0,100.0,event
12:18:05.999,1.5261282,-0.27490744,-0.3683891,1.3610457,1.139943,-0.3868742,-0.577519,0.90541244,1.2415922,-0.092978574,-0.12580651,0.6843914,0.88221353,-0.16934848,-0.17331399,0.66947544,0.4001949,-0.4465428,-0.2591124,0.4608919,785.31134,804.2491,808.68134,795.78754,759.12085,-0.16766357421875,-0.01202392578125,0.97869873046875,1.734619140625,-3.78326416015625,-0.800018310546875,1.0,1.0,1.0,1.0,1.0,100.0,event
12:18:05.999,1.5261282,-0.27490744,-0.3683891,1.3610457,1.139943,-0.3868742,-0.577519,0.90541244,1.2415922,-0.092978574,-0.12580651,0.6843914,0.88221353,-0.16934848,-0.17331399,0.66947544,0.4001949,-0.4465428,-0.2591124,0.4608919,785.31134,803.44324,802.23444,793.7729,732.9304,-0.16766357421875,-0.01202392578125,0.97869873046875,1.734619140625,-3.78326416015625,-0.800018310546875,1.0,1.0,1.0,1.0,1.0,100.0,event
12:18:06.000,1.5261282,-0.27490744,-0.3683891,1.3610457,1.139943,-0.3868742,-0.577519,0.90541244,1.2415922,-0.092978574,-0.12580651,0.6843914,0.88221353,-0.16934848,-0.17331399,0.66947544,0.4001949,-0.4465428,-0.2591124,0.4608919,796.5934,803.0403,800.6227,799.011,1000.07324,-0.16766357421875,-0.01202392578125,0.97869873046875,1.734619140625,-3.78326416015625,-0.800018310546875,1.0,1.0,1.0,1.0,1.0,100.0,event
12:18:06.000,1.5261282,-0.27490744,-0.3683891,1.3610457,1.139943,-0.3868742,-0.577519,0.90541244,1.2415922,-0.092978574,-0.12580651,0.6843914,0.88221353,-0.16934848,-0.17331399,0.66947544,0.4001949,-0.4465428,-0.2591124,0.4608919,805.4579,806.26373,803.8461,815.12823,1048.4249,-0.16766357421875,-0.01202392578125,0.97869873046875,1.734619140625,-3.78326416015625,-0.800018310546875,1.0,1.0,1.0,1.0,1.0,100.0,event
12:18:06.001,1.5261282,-0.27490744,-0.3683891,1.3610457,1.139943,-0.3868742,-0.577519,0.90541244,1.2415922,-0.092978574,-0.12580651,0.6843914,0.88221353,-0.16934848,-0.17331399,0.66947544,0.4001949,-0.4465428,-0.2591124,0.4608919,808.68134,807.8755,807.8755,800.6227,727.28937,-0.16766357421875,-0.01202392578125,0.97869873046875,1.734619140625,-3.78326416015625,-0.800018310546875,1.0,1.0,1.0,1.0,1.0,100.0,event
12:18:06.002,1.5261282,-0.27490744,-0.3683891,1.3610457,1.139943,-0.3868742,-0.577519,0.90541244,1.2415922,-0.092978574,-0.12580651,0.6843914,0.88221353,-0.16934848,-0.17331399,0.66947544,0.4001949,-0.4465428,-0.2591124,0.4608919,786.9231,805.8608,811.0989,774.43225,712.7839,-0.16766357421875,-0.01202392578125,0.97869873046875,1.734619140625,-3.78326416015625,-0.800018310546875,1.0,1.0,1.0,1.0,1.0,100.0,event
12:18:06.002,1.5261282,-0.27490744,-0.3683891,1.3610457,1.139943,-0.3868742,-0.577519,0.90541244,1.2415922,-0.092978574,-0.12580651,0.6843914,0.88221353,-0.16934848,-0.17331399,0.66947544,0.4001949,-0.4465428,-0.2591124,0.4608919,781.28204,803.44324,803.0403,777.6557,751.06226,-0.16766357421875,-0.01202392578125,0.97869873046875,1.734619140625,-3.78326416015625,-0.800018310546875,1.0,1.0,1.0,1.0,1.0,100.0,event
12:18:06.003,1.5261282,-0.27490744,-0.3683891,1.3610457,1.139943,-0.3868742,-0.577519,0.90541244,1.2415922,-0.092978574,-0.12580651,0.6843914,0.88221353,-0.16934848,-0.17331399,0.66947544,0.4001949,-0.4465428,-0.2591124,0.4608919,806.6667,799.011,793.36993,798.20514,705.5311,-0.16766357421875,-0.01202392578125,0.97869873046875,1.734619140625,-3.78326416015625,-0.800018310546875,1.0,1.0,1.0,1.0,1.0,100.0,event
12:18:06.030,1.5261282,-0.27490744,-0.3683891,1.3610457,1.139943,-0.3868742,-0.577519,0.90541244,1.2415922,-0.092978574,-0.12580651,0.6843914,0.88221353,-0.16934848,-0.17331399,0.66947544,0.4001949,-0.4465428,-0.2591124,0.4608919,819.5604,797.3993,796.1905,815.5311,740.989,-0.16986083984375,-0.01959228515625,0.97113037109375,1.876678466796875,-3.3795166015625,-1.80938720703125,1.0,1.0,1.0,1.0,1.0,100.0,event
12:18:06.031,1.5261282,-0.27490744,-0.3683891,1.3610457,1.139943,-0.3868742,-0.577519,0.90541244,1.2415922,-0.092978574,-0.12580651,0.6843914,0.88221353,-0.16934848,-0.17331399,0.66947544,0.4001949,-0.4465428,-0.2591124,0.4608919,804.65204,801.8315,802.6374,809.89014,889.67035,-0.16986083984375,-0.01959228515625,0.97113037109375,1.876678466796875,-3.3795166015625,-1.80938720703125,1.0,1.0,1.0,1.0,1.0,100.0,event
12:18:06.032,1.5261282,-0.27490744,-0.3683891,1.3610457,1.139943,-0.3868742,-0.577519,0.90541244,1.2415922,-0.092978574,-0.12580651,0.6843914,0.88221353,-0.16934848,-0.17331399,0.66947544,0.4001949,-0.4465428,-0.2591124,0.4608919,791.3553,805.4579,807.47253,782.8938,887.25275,-0.16986083984375,-0.01959228515625,0.97113037109375,1.876678466796875,-3.3795166015625,-1.80938720703125,1.0,1.0,1.0,1.0,1.0,100.0,event
12:18:06.032,1.5261282,-0.27490744,-0.3683891,1.3610457,1.139943,-0.3868742,-0.577519,0.90541244,1.2415922,-0.092978574,-0.12580651,0.6843914,0.88221353,-0.16934848,-0.17331399,0.66947544,0.4001949,-0.4465428,-0.2591124,0.4608919,794.17584,805.8608,806.26373,778.46155,723.2601,-0.16986083984375,-0.01959228515625,0.97113037109375,1.876678466796875,-3.3795166015625,-1.80938720703125,1.0,1.0,1.0,1.0,1.0,100.0,event
12:18:06.033,1.5261282,-0.27490744,-0.3683891,1.3610457,1.139943,-0.3868742,-0.577519,0.90541244,1.2415922,-0.092978574,-0.12580651,0.6843914,0.88221353,-0.16934848,-0.17331399,0.66947544,0.4001949,-0.4465428,-0.2591124,0.4608919,801.8315,803.8461,803.44324,788.5348,706.7399,-0.16986083984375,-0.01959228515625,0.97113037109375,1.876678466796875,-3.3795166015625,-1.80938720703125,1.0,1.0,1.0,1.0,1.0,100.0,event
12:18:06.033,1.5261282,-0.27490744,-0.3683891,1.3610457,1.139943,-0.3868742,-0.577519,0.90541244,1.2415922,-0.092978574,-0.12580651,0.6843914,0.88221353,-0.16934848,-0.17331399,0.66947544,0.4001949,-0.4465428,-0.2591124,0.4608919,814.7253,801.02563,800.6227,801.8315,886.4469,-0.16986083984375,-0.01959228515625,0.97113037109375,1.876678466796875,-3.3795166015625,-1.80938720703125,1.0,1.0,1.0,1.0,1.0,100.0,event
12:18:06.034,1.5261282,-0.27490744,-0.3683891,1.3610457,1.139943,-0.3868742,-0.577519,0.90541244,1.2415922,-0.092978574,-0.12580651,0.6843914,0.88221353,-0.16934848,-0.17331399,0.66947544,0.4001949,-0.4465428,-0.2591124,0.4608919,815.5311,804.65204,801.4286,811.0989,1040.7693,-0.16986083984375,-0.01959228515625,0.97113037109375,1.876678466796875,-3.3795166015625,-1.80938720703125,1.0,1.0,1.0,1.0,1.0,100.0,event
12:18:06.034,1.5261282,-0.27490744,-0.3683891,1.3610457,1.139943,-0.3868742,-0.577519,0.90541244,1.2415922,-0.092978574,-0.12580651,0.6843914,0.88221353,-0.16934848,-0.17331399,0.66947544,0.4001949,-0.4465428,-0.2591124,0.4608919,792.5641,804.65204,799.011,783.2967,861.06226,-0.16986083984375,-0.01959228515625,0.97113037109375,1.876678466796875,-3.3795166015625,-1.80938720703125,1.0,1.0,1.0,1.0,1.0,100.0,event
12:18:06.035,1.5261282,-0.27490744,-0.3683891,1.3610457,1.139943,-0.3868742,-0.577519,0.90541244,1.2415922,-0.092978574,-0.12580651,0.6843914,0.88221353,-0.16934848,-0.17331399,0.66947544,0.4001949,-0.4465428,-0.2591124,0.4608919,782.0879,800.6227,801.02563,773.22345,615.2747,-0.16986083984375,-0.01959228515625,0.97113037109375,1.876678466796875,-3.3795166015625,-1.80938720703125,1.0,1.0,1.0,1.0,1.0,100.0,event
12:18:06.035,1.5261282,-0.27490744,-0.3683891,1.3610457,1.139943,-0.3868742,-0.577519,0.90541244,1.2415922,-0.092978574,-0.12580651,0.6843914,0.88221353,-0.16934848,-0.17331399,0.66947544,0.4001949,-0.4465428,-0.2591124,0.4608919,800.2198,798.20514,801.02563,794.57874,747.03296,-0.16986083984375,-0.01959228515625,0.97113037109375,1.876678466796875,-3.3795166015625,-1.80938720703125,1.0,1.0,1.0,1.0,1.0,100.0,event
12:18:06.036,1.5261282,-0.27490744,-0.3683891,1.3610457,1.139943,-0.3868742,-0.577519,0.90541244,1.2415922,-0.092978574,-0.12580651,0.6843914,0.88221353,-0.16934848,-0.17331399,0.66947544,0.4001949,-0.4465428,-0.2591124,0.4608919,807.0696,800.6227,800.2198,809.89014,954.94507,-0.16986083984375,-0.01959228515625,0.97113037109375,1.876678466796875,-3.3795166015625,-1.80938720703125,1.0,1.0,1.0,1.0,1.0,100.0,event
12:18:06.037,1.5261282,-0.27490744,-0.3683891,1.3610457,1.139943,-0.3868742,-0.577519,0.90541244,1.2415922,-0.092978574,-0.12580651,0.6843914,0.88221353,-0.16934848,-0.17331399,0.66947544,0.4001949,-0.4465428,-0.2591124,0.4608919,809.89014,804.2491,803.8461,813.91943,794.17584,-0.16986083984375,-0.01959228515625,0.97113037109375,1.876678466796875,-3.3795166015625,-1.80938720703125,1.0,1.0,1.0,1.0,1.0,100.0,event
12:18:06.127,1.5261282,-0.27490744,-0.3683891,1.3610457,1.139943,-0.3868742,-0.577519,0.90541244,1.2415922,-0.092978574,-0.12580651,0.6843914,0.88221353,-0.16934848,-0.17331399,0.66947544,0.4001949,-0.4465428,-0.2591124,0.4608919,805.4579,802.23444,799.41394,790.54944,766.77655,-0.16986083984375,-0.01959228515625,0.97113037109375,1.876678466796875,-3.3795166015625,-1.80938720703125,1.0,1.0,1.0,1.0,1.0,100.0,event
12:18:06.128,1.5849804,-0.2570437,-0.37142417,1.3610457,1.1099123,-0.39416334,-0.5886141,0.90541244,1.2105045,-0.12487706,-0.12580651,0.6843914,0.87257713,-0.17256129,-0.16335385,0.66947544,0.38069072,-0.45289934,-0.27732924,0.4608919,784.90845,805.8608,802.6374,768.3883,809.89014,-0.16986083984375,-0.01959228515625,0.97113037109375,1.876678466796875,-3.3795166015625,-1.80938720703125,1.0,1.0,1.0,1.0,1.0,100.0,event
12:18:06.133,1.5849804,-0.2570437,-0.37142417,1.3610457,1.1099123,-0.39416334,-0.5886141,0.90541244,1.2105045,-0.12487706,-0.12580651,0.6843914,0.87257713,-0.17256129,-0.16335385,0.66947544,0.38069072,-0.45289934,-0.27732924,0.4608919,783.69965,808.2784,803.44324,786.52014,775.2381,-0.16986083984375,-0.01959228515625,0.97113037109375,1.876678466796875,-3.3795166015625,-1.80938720703125,1.0,1.0,1.0,1.0,1.0,100.0,event
12:18:06.134,1.5849804,-0.2570437,-0.37142417,1.3610457,1.1099123,-0.39416334,-0.5886141,0.90541244,1.2105045,-0.12487706,-0.12580651,0.6843914,0.87257713,-0.17256129,-0.16335385,0.66947544,0.38069072,-0.45289934,-0.27732924,0.4608919,794.17584,804.2491,803.8461,806.6667,730.10986,-0.16986083984375,-0.01959228515625,0.97113037109375,1.876678466796875,-3.3795166015625,-1.80938720703125,1.0,1.0,1.0,1.0,1.0,100.0,event
12:18:06.135,1.5849804,-0.2570437,-0.37142417,1.3610457,1.1099123,-0.39416334,-0.5886141,0.90541244,1.2105045,-0.12487706,-0.12580651,0.6843914,0.87257713,-0.17256129,-0.16335385,0.66947544,0.38069072,-0.45289934,-0.27732924,0.4608919,785.7143,801.8315,802.6374,821.1722,746.63007,-0.16986083984375,-0.01959228515625,0.97113037109375,1.876678466796875,-3.3795166015625,-1.80938720703125,1.0,1.0,1.0,1.0,1.0,100.0,event
12:18:06.135,1.5849804,-0.2570437,-0.37142417,1.3610457,1.1099123,-0.39416334,-0.5886141,0.90541244,1.2105045,-0.12487706,-0.12580651,0.6843914,0.87257713,-0.17256129,-0.16335385,0.66947544,0.38069072,-0.45289934,-0.27732924,0.4608919,789.34064,803.0403,795.78754,808.2784,1042.7839,-0.16986083984375,-0.01959228515625,0.97113037109375,1.876678466796875,-3.3795166015625,-1.80938720703125,1.0,1.0,1.0,1.0,1.0,100.0,event
12:18:06.136,1.5849804,-0.2570437,-0.37142417,1.3610457,1.1099123,-0.39416334,-0.5886141,0.90541244,1.2105045,-0.12487706,-0.12580651,0.6843914,0.87257713,-0.17256129,-0.16335385,0.66947544,0.38069072,-0.45289934,-0.27732924,0.4608919,784.5055,803.44324,805.05493,779.2674,1124.9817,-0.16986083984375,-0.01959228515625,0.97113037109375,1.876678466796875,-3.3795166015625,-1.80938720703125,1.0,1.0,1.0,1.0,1.0,100.0,event
12:18:06.137,1.5849804,-0.2570437,-0.37142417,1.3610457,1.1099123,-0.39416334,-0.5886141,0.90541244,1.2105045,-0.12487706,-0.12580651,0.6843914,0.87257713,-0.17256129,-0.16335385,0.66947544,0.38069072,-0.45289934,-0.27732924,0.4608919,814.3223,801.8315,805.05493,813.91943,608.8278,-0.16986083984375,-0.01959228515625,0.97113037109375,1.876678466796875,-3.3795166015625,-1.80938720703125,1.0,1.0,1.0,1.0,1.0,100.0,event
12:18:06.137,1.5849804,-0.2570437,-0.37142417,1.3610457,1.1099123,-0.39416334,-0.5886141,0.90541244,1.2105045,-0.12487706,-0.12580651,0.6843914,0.87257713,-0.17256129,-0.16335385,0.66947544,0.38069072,-0.45289934,-0.27732924,0.4608919,791.75824,804.2491,810.293,789.7436,769.19415,-0.16986083984375,-0.01959228515625,0.97113037109375,1.876678466796875,-3.3795166015625,-1.80938720703125,1.0,1.0,1.0,1.0,1.0,100.0,event
12:18:06.138,1.5849804,-0.2570437,-0.37142417,1.3610457,1.1099123,-0.39416334,-0.5886141,0.90541244,1.2105045,-0.12487706,-0.12580651,0.6843914,0.87257713,-0.17256129,-0.16335385,0.66947544,0.38069072,-0.45289934,-0.27732924,0.4608919,813.5165,799.81683,808.68134,818.7546,808.68134,-0.16986083984375,-0.01959228515625,0.97113037109375,1.876678466796875,-3.3795166015625,-1.80938720703125,1.0,1.0,1.0,1.0,1.0,100.0,event
12:18:06.139,1.5849804,-0.2570437,-0.37142417,1.3610457,1.1099123,-0.39416334,-0.5886141,0.90541244,1.2105045,-0.12487706,-0.12580651,0.6843914,0.87257713,-0.17256129,-0.16335385,0.66947544,0.38069072,-0.45289934,-0.27732924,0.4608919,805.8608,803.44324,805.8608,794.57874,826.0073,-0.16986083984375,-0.01959228515625,0.97113037109375,1.876678466796875,-3.3795166015625,-1.80938720703125,1.0,1.0,1.0,1.0,1.0,100.0,event
12:18:06.140,1.5849804,-0.2570437,-0.37142417,1.3610457,1.1099123,-0.39416334,-0.5886141,0.90541244,1.2105045,-0.12487706,-0.12580651,0.6843914,0.87257713,-0.17256129,-0.16335385,0.66947544,0.38069072,-0.45289934,-0.27732924,0.4608919,792.96704,802.23444,802.6374,767.1795,612.0513,-0.16986083984375,-0.01959228515625,0.97113037109375,1.876678466796875,-3.3795166015625,-1.80938720703125,1.0,1.0,1.0,1.0,1.0,100.0,event
12:18:06.164,1.5849804,-0.2570437,-0.37142417,1.3610457,1.1099123,-0.39416334,-0.5886141,0.90541244,1.2105045,-0.12487706,-0.12580651,0.6843914,0.87257713,-0.17256129,-0.16335385,0.66947544,0.38069072,-0.45289934,-0.27732924,0.4608919,792.5641,800.6227,806.6667,777.6557,653.1502,-0.1661376953125,-0.0184326171875,0.97381591796875,1.801910400390625,-3.48419189453125,0.037384033203125,1.0,1.0,1.0,1.0,1.0,100.0,event
12:18:06.165,1.5849804,-0.2570437,-0.37142417,1.3610457,1.1099123,-0.39416334,-0.5886141,0.90541244,1.2105045,-0.12487706,-0.12580651,0.6843914,0.87257713,-0.17256129,-0.16335385,0.66947544,0.38069072,-0.45289934,-0.27732924,0.4608919,811.9048,801.4286,803.0403,793.7729,753.8828,-0.1661376953125,-0.0184326171875,0.97381591796875,1.801910400390625,-3.48419189453125,0.037384033203125,1.0,1.0,1.0,1.0,1.0,100.0,event
12:18:06.165,1.5849804,-0.2570437,-0.37142417,1.3610457,1.1099123,-0.39416334,-0.5886141,0.90541244,1.2105045,-0.12487706,-0.12580651,0.6843914,0.87257713,-0.17256129,-0.16335385,0.66947544,0.38069072,-0.45289934,-0.27732924,0.4608919,809.0842,802.23444,801.8315,803.44324,698.68134,-0.1661376953125,-0.0184326171875,0.97381591796875,1.801910400390625,-3.48419189453125,0.037384033203125,1.0,1.0,1.0,1.0,1.0,100.0,event
12:18:06.166,1.5849804,-0.2570437,-0.37142417,1.3610457,1.1099123,-0.39416334,-0.5886141,0.90541244,1.2105045,-0.12487706,-0.12580651,0.6843914,0.87257713,-0.17256129,-0.16335385,0.66947544,0.38069072,-0.45289934,-0.27732924,0.4608919,792.96704,803.0403,801.8315,798.20514,681.3553,-0.1661376953125,-0.0184326171875,0.97381591796875,1.801910400390625,-3.48419189453125,0.037384033203125,1.0,1.0,1.0,1.0,1.0,100.0,event
12:18:06.167,1.5849804,-0.2570437,-0.37142417,1.3610457,1.1099123,-0.39416334,-0.5886141,0.90541244,1.2105045,-0.12487706,-0.12580651,0.6843914,0.87257713,-0.17256129,-0.16335385,0.66947544,0.38069072,-0.45289934,-0.27732924,0.4608919,783.2967,801.4286,801.02563,784.5055,782.49084,-0.1661376953125,-0.0184326171875,0.97381591796875,1.801910400390625,-3.48419189453125,0.037384033203125,1.0,1.0,1.0,1.0,1.0,100.0,event
12:18:06.167,1.5849804,-0.2570437,-0.37142417,1.3610457,1.1099123,-0.39416334,-0.5886141,0.90541244,1.2105045,-0.12487706,-0.12580651,0.6843914,0.87257713,-0.17256129,-0.16335385,0.66947544,0.38069072,-0.45289934,-0.27732924,0.4608919,791.3553,800.6227,805.05493,795.38464,872.3443,-0.1661376953125,-0.0184326171875,0.97381591796875,1.801910400390625,-3.48419189453125,0.037384033203125,1.0,1.0,1.0,1.0,1.0,100.0,event
12:18:06.168,1.5849804,-0.2570437,-0.37142417,1.3610457,1.1099123,-0.39416334,-0.5886141,0.90541244,1.2105045,-0.12487706,-0.12580651,0.6843914,0.87257713,-0.17256129,-0.16335385,0.66947544,0.38069072,-0.45289934,-0.27732924,0.4608919,787.72894,799.81683,805.8608,792.96704,907.3993,-0.1661376953125,-0.0184326171875,0.97381591796875,1.801910400390625,-3.48419189453125,0.037384033203125,1.0,1.0,1.0,1.0,1.0,100.0,event
12:18:06.169,1.5849804,-0.2570437,-0.37142417,1.3610457,1.1099123,-0.39416334,-0.5886141,0.90541244,1.2105045,-0.12487706,-0.12580651,0.6843914,0.87257713,-0.17256129,-0.16335385,0.66947544,0.38069072,-0.45289934,-0.27732924,0.4608919,791.75824,801.02563,807.0696,803.0403,1006.52014,-0.1661376953125,-0.0184326171875,0.97381591796875,1.801910400390625,-3.48419189453125,0.037384033203125,1.0,1.0,1.0,1.0,1.0,100.0,event
12:18:06.169,1.5849804,-0.2570437,-0.37142417,1.3610457,1.1099123,-0.39416334,-0.5886141,0.90541244,1.2105045,-0.12487706,-0.12580651,0.6843914,0.87257713,-0.17256129,-0.16335385,0.66947544,0.38069072,-0.45289934,-0.27732924,0.4608919,789.34064,801.4286,803.44324,794.57874,967.4359,-0.1661376953125,-0.0184326171875,0.97381591796875,1.801910400390625,-3.48419189453125,0.037384033203125,1.0,1.0,1.0,1.0,1.0,100.0,event
12:18:06.170,1.5849804,-0.2570437,-0.37142417,1.3610457,1.1099123,-0.39416334,-0.5886141,0.90541244,1.2105045,-0.12487706,-0.12580651,0.6843914,0.87257713,-0.17256129,-0.16335385,0.66947544,0.38069072,-0.45289934,-0.27732924,0.4608919,768.7912,796.1905,808.68134,784.5055,1110.0732,-0.1661376953125,-0.0184326171875,0.97381591796875,1.801910400390625,-3.48419189453125,0.037384033203125,1.0,1.0,1.0,1.0,1.0,100.0,event
12:18:06.171,1.5849804,-0.2570437,-0.37142417,1.3610457,1.1099123,-0.39416334,-0.5886141,0.90541244,1.2105045,-0.12487706,-0.12580651,0.6843914,0.87257713,-0.17256129,-0.16335385,0.66947544,0.38069072,-0.45289934,-0.27732924,0.4608919,782.0879,795.38464,804.65204,791.3553,882.01465,-0.1661376953125,-0.0184326171875,0.97381591796875,1.801910400390625,-3.48419189453125,0.037384033203125,1.0,1.0,1.0,1.0,1.0,100.0,event
12:18:06.171,1.5849804,-0.2570437,-0.37142417,1.3610457,1.1099123,-0.39416334,-0.5886141,0.90541244,1.2105045,-0.12487706,-0.12580651,0.6843914,0.87257713,-0.17256129,-0.16335385,0.66947544,0.38069072,-0.45289934,-0.27732924,0.4608919,804.65204,799.41394,800.6227,812.3077,651.53845,-0.1661376953125,-0.0184326171875,0.97381591796875,1.801910400390625,-3.48419189453125,0.037384033203125,1.0,1.0,1.0,1.0,1.0,100.0,event
12:18:06.174,1.5849804,-0.2570437,-0.37142417,1.3610457,1.1099123,-0.39416334,-0.5886141,0.90541244,1.2105045,-0.12487706,-0.12580651,0.6843914,0.87257713,-0.17256129,-0.16335385,0.66947544,0.38069072,-0.45289934,-0.27732924,0.4608919,797.3993,799.011,800.2198,821.1722,763.1502,-0.1754150390625,-0.0211181640625,0.96917724609375,2.130889892578125,-3.90289306640625,-0.22430419921875,1.0,1.0,1.0,1.0,1.0,100.0,event
12:18:06.175,1.5849804,-0.2570437,-0.37142417,1.3610457,1.1099123,-0.39416334,-0.5886141,0.90541244,1.2105045,-0.12487706,-0.12580651,0.6843914,0.87257713,-0.17256129,-0.16335385,0.66947544,0.38069072,-0.45289934,-0.27732924,0.4608919,803.8461,796.99634,802.23444,817.9487,728.0952,-0.1754150390625,-0.0211181640625,0.96917724609375,2.130889892578125,-3.90289306640625,-0.22430419921875,1.0,1.0,1.0,1.0,1.0,100.0,event
12:18:06.176,1.5849804,-0.2570437,-0.37142417,1.3610457,1.1099123,-0.39416334,-0.5886141,0.90541244,1.2105045,-0.12487706,-0.12580651,0.6843914,0.87257713,-0.17256129,-0.16335385,0.66947544,0.38069072,-0.45289934,-0.27732924,0.4608919,812.71063,802.23444,806.26373,809.89014,694.65204,-0.1754150390625,-0.0211181640625,0.96917724609375,2.130889892578125,-3.90289306640625,-0.22430419921875,1.0,1.0,1.0,1.0,1.0,100.0,event
12:18:06.177,1.5849804,-0.25034317,-0.3638946,1.3610457,1.1099123,-0.3927815,-0.58989495,0.90541244,1.2105045,-0.19632593,-0.12967992,0.6843914,0.87257713,-0.17675406,-0.1605952,0.66947544,0.38069072,-0.4639846,-0.2968412,0.4608919,812.3077,803.44324,809.0842,808.68134,745.0183,-0.1754150390625,-0.0211181640625,0.96917724609375,2.130889892578125,-3.90289306640625,-0.22430419921875,1.0,1.0,1.0,1.0,1.0,100.0,event
12:18:06.181,1.5849804,-0.25034317,-0.3638946,1.3610457,1.1099123,-0.3927815,-0.58989495,0.90541244,1.2105045,-0.19632593,-0.12967992,0.6843914,0.87257713,-0.17675406,-0.1605952,0.66947544,0.38069072,-0.4639846,-0.2968412,0.4608919,814.3223,801.4286,806.6667,814.3223,803.8461,-0.1754150390625,-0.0211181640625,0.96917724609375,2.130889892578125,-3.90289306640625,-0.22430419921875,1.0,1.0,1.0,1.0,1.0,100.0,event
12:18:06.182,1.5849804,-0.25034317,-0.3638946,1.3610457,1.1099123,-0.3927815,-0.58989495,0.90541244,1.2105045,-0.19632593,-0.12967992,0.6843914,0.87257713,-0.17675406,-0.1605952,0.66947544,0.38069072,-0.4639846,-0.2968412,0.4608919,827.2161,803.44324,805.05493,845.34796,863.47986,-0.1754150390625,-0.0211181640625,0.96917724609375,2.130889892578125,-3.90289306640625,-0.22430419921875,1.0,1.0,1.0,1.0,1.0,100.0,event
12:18:06.183,1.5849804,-0.25034317,-0.3638946,1.3610457,1.1099123,-0.3927815,-0.58989495,0.90541244,1.2105045,-0.19632593,-0.12967992,0.6843914,0.87257713,-0.17675406,-0.1605952,0.66947544,0.38069072,-0.4639846,-0.2968412,0.4608919,794.17584,799.81683,804.2491,795.78754,787.72894,-0.1754150390625,-0.0211181640625,0.96917724609375,2.130889892578125,-3.90289306640625,-0.22430419921875,1.0,1.0,1.0,1.0,1.0,100.0,event
12:18:06.183,1.5849804,-0.25034317,-0.3638946,1.3610457,1.1099123,-0.3927815,-0.58989495,0.90541244,1.2105045,-0.19632593,-0.12967992,0.6843914,0.87257713,-0.17675406,-0.1605952,0.66947544,0.38069072,-0.4639846,-0.2968412,0.4608919,817.1429,805.05493,805.8608,836.8865,870.7326,-0.1754150390625,-0.0211181640625,0.96917724609375,2.130889892578125,-3.90289306640625,-0.22430419921875,1.0,1.0,1.0,1.0,1.0,100.0,event
12:18:06.184,1.5849804,-0.25034317,-0.3638946,1.3610457,1.1099123,-0.3927815,-0.58989495,0.90541244,1.2105045,-0.19632593,-0.12967992,0.6843914,0.87257713,-0.17675406,-0.1605952,0.66947544,0.38069072,-0.4639846,-0.2968412,0.4608919,786.52014,798.20514,803.0403,799.011,917.0696,-0.1754150390625,-0.0211181640625,0.96917724609375,2.130889892578125,-3.90289306640625,-0.22430419921875,1.0,1.0,1.0,1.0,1.0,100.0,event
12:18:06.185,1.5849804,-0.25034317,-0.3638946,1.3610457,1.1099123,-0.3927815,-0.58989495,0.90541244,1.2105045,-0.19632593,-0.12967992,0.6843914,0.87257713,-0.17675406,-0.1605952,0.66947544,0.38069072,-0.4639846,-0.2968412,0.4608919,796.99634,799.81683,804.65204,819.15753,959.7802,-0.1754150390625,-0.0211181640625,0.96917724609375,2.130889892578125,-3.90289306640625,-0.22430419921875,1.0,1.0,1.0,1.0,1.0,100.0,event
12:18:06.185,1.5849804,-0.25034317,-0.3638946,1.3610457,1.1099123,-0.3927815,-0.58989495,0.90541244,1.2105045,-0.19632593,-0.12967992,0.6843914,0.87257713,-0.17675406,-0.1605952,0.66947544,0.38069072,-0.4639846,-0.2968412,0.4608919,821.5751,801.8315,803.0403,824.7985,803.8461,-0.1754150390625,-0.0211181640625,0.96917724609375,2.130889892578125,-3.90289306640625,-0.22430419921875,1.0,1.0,1.0,1.0,1.0,100.0,event
12:18:06.186,1.5849804,-0.25034317,-0.3638946,1.3610457,1.1099123,-0.3927815,-0.58989495,0.90541244,1.2105045,-0.19632593,-0.12967992,0.6843914,0.87257713,-0.17675406,-0.1605952,0.66947544,0.38069072,-0.4639846,-0.2968412,0.4608919,820.3663,803.44324,799.81683,816.7399,807.0696,-0.1754150390625,-0.0211181640625,0.96917724609375,2.130889892578125,-3.90289306640625,-0.22430419921875,1.0,1.0,1.0,1.0,1.0,100.0,event
12:18:06.210,1.5849804,-0.25034317,-0.3638946,1.3610457,1.1099123,-0.3927815,-0.58989495,0.90541244,1.2105045,-0.19632593,-0.12967992,0.6843914,0.87257713,-0.17675406,-0.1605952,0.66947544,0.38069072,-0.4639846,-0.2968412,0.4608919,794.9817,801.4286,799.011,794.9817,787.72894,-0.16961669921875,-0.01995849609375,0.9732666015625,1.9140625,-3.51409912109375,-0.052337646484375,1.0,1.0,1.0,1.0,1.0,100.0,event
12:18:06.211,1.5849804,-0.25034317,-0.3638946,1.3610457,1.1099123,-0.3927815,-0.58989495,0.90541244,1.2105045,-0.19632593,-0.12967992,0.6843914,0.87257713,-0.17675406,-0.1605952,0.66947544,0.38069072,-0.4639846,-0.2968412,0.4608919,789.7436,800.6227,799.81683,775.2381,735.7509,-0.16961669921875,-0.01995849609375,0.9732666015625,1.9140625,-3.51409912109375,-0.052337646484375,1.0,1.0,1.0,1.0,1.0,100.0,event
12:18:06.212,1.5849804,-0.25034317,-0.3638946,1.3610457,1.1099123,-0.3927815,-0.58989495,0.90541244,1.2105045,-0.19632593,-0.12967992,0.6843914,0.87257713,-0.17675406,-0.1605952,0.66947544,0.38069072,-0.4639846,-0.2968412,0.4608919,802.6374,801.4286,802.23444,792.96704,657.98535,-0.16961669921875,-0.01995849609375,0.9732666015625,1.9140625,-3.51409912109375,-0.052337646484375,1.0,1.0,1.0,1.0,1.0,100.0,event
12:18:06.212,1.5849804,-0.25034317,-0.3638946,1.3610457,1.1099123,-0.3927815,-0.58989495,0.90541244,1.2105045,-0.19632593,-0.12967992,0.6843914,0.87257713,-0.17675406,-0.1605952,0.66947544,0.38069072,-0.4639846,-0.2968412,0.4608919,823.5897,797.8022,800.2198,814.3223,695.4579,-0.16961669921875,-0.01995849609375,0.9732666015625,1.9140625,-3.51409912109375,-0.052337646484375,1.0,1.0,1.0,1.0,1.0,100.0,event
12:18:06.213,1.5849804,-0.25034317,-0.3638946,1.3610457,1.1099123,-0.3927815,-0.58989495,0.90541244,1.2105045,-0.19632593,-0.12967992,0.6843914,0.87257713,-0.17675406,-0.1605952,0.66947544,0.38069072,-0.4639846,-0.2968412,0.4608919,817.1429,797.8022,801.4286,811.0989,760.7326,-0.16961669921875,-0.01995849609375,0.9732666015625,1.9140625,-3.51409912109375,-0.052337646484375,1.0,1.0,1.0,1.0,1.0,100.0,event
12:18:06.214,1.5849804,-0.25034317,-0.3638946,1.3610457,1.1099123,-0.3927815,-0.58989495,0.90541244,1.2105045,-0.19632593,-0.12967992,0.6843914,0.87257713,-0.17675406,-0.1605952,0.66947544,0.38069072,-0.4639846,-0.2968412,0.4608919,796.99634,799.011,803.0403,786.52014,814.3223,-0.16961669921875,-0.01995849609375,0.9732666015625,1.9140625,-3.51409912109375,-0.052337646484375,1.0,1.0,1.0,1.0,1.0,100.0,event
12:18:06.214,1.5849804,-0.25034317,-0.3638946,1.3610457,1.1099123,-0.3927815,-0.58989495,0.90541244,1.2105045,-0.19632593,-0.12967992,0.6843914,0.87257713,-0.17675406,-0.1605952,0.66947544,0.38069072,-0.4639846,-0.2968412,0.4608919,794.57874,801.02563,803.0403,794.9817,829.2308,-0.16961669921875,-0.01995849609375,0.9732666015625,1.9140625,-3.51409912109375,-0.052337646484375,1.0,1.0,1.0,1.0,1.0,100.0,event
12:18:06.215,1.5849804,-0.25034317,-0.3638946,1.3610457,1.1099123,-0.3927815,-0.58989495,0.90541244,1.2105045,-0.19632593,-0.12967992,0.6843914,0.87257713,-0.17675406,-0.1605952,0.66947544,0.38069072,-0.4639846,-0.2968412,0.4608919,810.293,797.3993,802.23444,801.02563,889.2674,-0.16961669921875,-0.01995849609375,0.9732666015625,1.9140625,-3.51409912109375,-0.052337646484375,1.0,1.0,1.0,1.0,1.0,100.0,event
12:18:06.215,1.5849804,-0.25034317,-0.3638946,1.3610457,1.1099123,-0.3927815,-0.58989495,0.90541244,1.2105045,-0.19632593,-0.12967992,0.6843914,0.87257713,-0.17675406,-0.1605952,0.66947544,0.38069072,-0.4639846,-0.2968412,0.4608919,811.9048,803.8461,801.02563,826.4103,1043.5897,-0.16961669921875,-0.01995849609375,0.9732666015625,1.9140625,-3.51409912109375,-0.052337646484375,1.0,1.0,1.0,1.0,1.0,100.0,event
12:18:06.216,1.5849804,-0.25034317,-0.3638946,1.3610457,1.1099123,-0.3927815,-0.58989495,0.90541244,1.2105045,-0.19632593,-0.12967992,0.6843914,0.87257713,-0.17675406,-0.1605952,0.66947544,0.38069072,-0.4639846,-0.2968412,0.4608919,805.05493,805.8608,804.65204,819.5604,841.31866,-0.16961669921875,-0.01995849609375,0.9732666015625,1.9140625,-3.51409912109375,-0.052337646484375,1.0,1.0,1.0,1.0,1.0,100.0,event
12:18:06.216,1.5849804,-0.25034317,-0.3638946,1.3610457,1.1099123,-0.3927815,-0.58989495,0.90541244,1.2105045,-0.19632593,-0.12967992,0.6843914,0.87257713,-0.17675406,-0.1605952,0.66947544,0.38069072,-0.4639846,-0.2968412,0.4608919,793.36993,804.2491,806.26373,784.5055,628.97437,-0.16961669921875,-0.01995849609375,0.9732666015625,1.9140625,-3.51409912109375,-0.052337646484375,1.0,1.0,1.0,1.0,1.0,100.0,event
12:18:06.217,1.5849804,-0.25034317,-0.3638946,1.3610457,1.1099123,-0.3927815,-0.58989495,0.90541244,1.2105045,-0.19632593,-0.12967992,0.6843914,0.87257713,-0.17675406,-0.1605952,0.66947544,0.38069072,-0.4639846,-0.2968412,0.4608919,782.0879,804.2491,806.6667,785.7143,681.75824,-0.16961669921875,-0.01995849609375,0.9732666015625,1.9140625,-3.51409912109375,-0.052337646484375,1.0,1.0,1.0,1.0,1.0,100.0,event
12:18:06.285,1.5849804,-0.25034317,-0.3638946,1.3610457,1.1099123,-0.3927815,-0.58989495,0.90541244,1.2105045,-0.19632593,-0.12967992,0.6843914,0.87257713,-0.17675406,-0.1605952,0.66947544,0.38069072,-0.4639846,-0.2968412,0.4608919,797.8022,801.8315,801.8315,803.0403,702.71063,-0.16595458984375,-0.01727294921875,0.97509765625,2.3626708984375,-3.5888671875,-0.04486083984375,1.0,1.0,1.0,1.0,1.0,100.0,event
12:18:06.286,1.5849804,-0.25034317,-0.3638946,1.3610457,1.1099123,-0.3927815,-0.58989495,0.90541244,1.2105045,-0.19632593,-0.12967992,0.6843914,0.87257713,-0.17675406,-0.1605952,0.66947544,0.38069072,-0.4639846,-0.2968412,0.4608919,821.5751,797.3993,801.8315,818.7546,742.1978,-0.16595458984375,-0.01727294921875,0.97509765625,2.3626708984375,-3.5888671875,-0.04486083984375,1.0,1.0,1.0,1.0,1.0,100.0,event
12:18:06.287,1.5849804,-0.25034317,-0.3638946,1.3610457,1.1099123,-0.3927815,-0.58989495,0.90541244,1.2105045,-0.19632593,-0.12967992,0.6843914,0.87257713,-0.17675406,-0.1605952,0.66947544,0.38069072,-0.4639846,-0.2968412,0.4608919,828.022,802.6374,806.6667,823.9927,786.1172,-0.16595458984375,-0.01727294921875,0.97509765625,2.3626708984375,-3.5888671875,-0.04486083984375,1.0,1.0,1.0,1.0,1.0,100.0,event
12:18:06.287,1.5849804,-0.25034317,-0.3638946,1.3610457,1.1099123,-0.3927815,-0.58989495,0.90541244,1.2105045,-0.19632593,-0.12967992,0.6843914,0.87257713,-0.17675406,-0.1605952,0.66947544,0.38069072,-0.4639846,-0.2968412,0.4608919,807.8755,806.6667,806.6667,802.23444,855.0183,-0.16595458984375,-0.01727294921875,0.97509765625,2.3626708984375,-3.5888671875,-0.04486083984375,1.0,1.0,1.0,1.0,1.0,100.0,event
12:18:06.288,1.5849804,-0.25034317,-0.3638946,1.3610457,1.1099123,-0.3927815,-0.58989495,0.90541244,1.2105045,-0.19632593,-0.12967992,0.6843914,0.87257713,-0.17675406,-0.1605952,0.66947544,0.38069072,-0.4639846,-0.2968412,0.4608919,796.5934,801.02563,806.6667,780.87915,864.2857,-0.16595458984375,-0.01727294921875,0.97509765625,2.3626708984375,-3.5888671875,-0.04486083984375,1.0,1.0,1.0,1.0,1.0,100.0,event
12:18:06.289,1.5849804,-0.24424249,-0.3521769,1.3610457,1.1099123,-0.37495765,-0.5932041,0.90541244,1.2105045,-0.26372463,-0.14859933,0.6843914,0.87257713,-0.18093432,-0.16793022,0.66947544,0.38069072,-0.483341,-0.3135955,0.4608919,811.9048,805.05493,803.0403,784.5055,888.46155,-0.16595458984375,-0.01727294921875,0.97509765625,2.3626708984375,-3.5888671875,-0.04486083984375,1.0,1.0,1.0,1.0,1.0,100.0,event
12:18:06.293,1.5849804,-0.24424249,-0.3521769,1.3610457,1.1099123,-0.37495765,-0.5932041,0.90541244,1.2105045,-0.26372463,-0.14859933,0.6843914,0.87257713,-0.18093432,-0.16793022,0.66947544,0.38069072,-0.483341,-0.3135955,0.4608919,826.8132,803.8461,804.2491,804.65204,855.82416,-0.16595458984375,-0.01727294921875,0.97509765625,2.3626708984375,-3.5888671875,-0.04486083984375,1.0,1.0,1.0,1.0,1.0,100.0,event
12:18:06.294,1.5849804,-0.24424249,-0.3521769,1.3610457,1.1099123,-0.37495765,-0.5932041,0.90541244,1.2105045,-0.26372463,-0.14859933,0.6843914,0.87257713,-0.18093432,-0.16793022,0.66947544,0.38069072,-0.483341,-0.3135955,0.4608919,819.9634,794.57874,807.47253,826.4103,941.6484,-0.16595458984375,-0.01727294921875,0.97509765625,2.3626708984375,-3.5888671875,-0.04486083984375,1.0,1.0,1.0,1.0,1.0,100.0,event
12:18:06.295,1.5849804,-0.24424249,-0.3521769,1.3610457,1.1099123,-0.37495765,-0.5932041,0.90541244,1.2105045,-0.26372463,-0.14859933,0.6843914,0.87257713,-0.18093432,-0.16793022,0.66947544,0.38069072,-0.483341,-0.3135955,0.4608919,801.02563,801.8315,809.0842,813.91943,1010.14655,-0.16595458984375,-0.01727294921875,0.97509765625,2.3626708984375,-3.5888671875,-0.04486083984375,1.0,1.0,1.0,1.0,1.0,100.0,event
12:18:06.295,1.5849804,-0.24424249,-0.3521769,1.3610457,1.1099123,-0.37495765,-0.5932041,0.90541244,1.2105045,-0.26372463,-0.14859933,0.6843914,0.87257713,-0.18093432,-0.16793022,0.66947544,0.38069072,-0.483341,-0.3135955,0.4608919,794.17584,813.5165,807.47253,792.5641,749.85345,-0.16595458984375,-0.01727294921875,0.97509765625,2.3626708984375,-3.5888671875,-0.04486083984375,1.0,1.0,1.0,1.0,1.0,100.0,event
12:18:06.296,1.5849804,-0.24424249,-0.3521769,1.3610457,1.1099123,-0.37495765,-0.5932041,0.90541244,1.2105045,-0.26372463,-0.14859933,0.6843914,0.87257713,-0.18093432,-0.16793022,0.66947544,0.38069072,-0.483341,-0.3135955,0.4608919,802.6374,808.68134,803.0403,803.44324,786.52014,-0.16595458984375,-0.01727294921875,0.97509765625,2.3626708984375,-3.5888671875,-0.04486083984375,1.0,1.0,1.0,1.0,1.0,100.0,event
12:18:06.297,1.5849804,-0.24424249,-0.3521769,1.3610457,1.1099123,-0.37495765,-0.5932041,0.90541244,1.2105045,-0.26372463,-0.14859933,0.6843914,0.87257713,-0.18093432,-0.16793022,0.66947544,0.38069072,-0.483341,-0.3135955,0.4608919,820.7692,806.26373,802.6374,822.7839,860.2564,-0.16595458984375,-0.01727294921875,0.97509765625,2.3626708984375,-3.5888671875,-0.04486083984375,1.0,1.0,1.0,1.0,1.0,100.0,event
12:18:06.326,1.5849804,-0.24424249,-0.3521769,1.3610457,1.1099123,-0.37495765,-0.5932041,0.90541244,1.2105045,-0.26372463,-0.14859933,0.6843914,0.87257713,-0.18093432,-0.16793022,0.66947544,0.38069072,-0.483341,-0.3135955,0.4608919,837.28937,809.0842,805.05493,829.2308,717.2161,-0.16595458984375,-0.01727294921875,0.97509765625,2.3626708984375,-3.5888671875,-0.04486083984375,1.0,1.0,1.0,1.0,1.0,100.0,event
12:18:06.327,1.5849804,-0.24424249,-0.3521769,1.3610457,1.1099123,-0.37495765,-0.5932041,0.90541244,1.2105045,-0.26372463,-0.14859933,0.6843914,0.87257713,-0.18093432,-0.16793022,0.66947544,0.38069072,-0.483341,-0.3135955,0.4608919,817.1429,808.68134,802.23444,807.0696,632.1978,-0.16595458984375,-0.01727294921875,0.97509765625,2.3626708984375,-3.5888671875,-0.04486083984375,1.0,1.0,1.0,1.0,1.0,100.0,event
12:18:06.328,1.5849804,-0.24424249,-0.3521769,1.3610457,1.1099123,-0.37495765,-0.5932041,0.90541244,1.2105045,-0.26372463,-0.14859933,0.6843914,0.87257713,-0.18093432,-0.16793022,0.66947544,0.38069072,-0.483341,-0.3135955,0.4608919,793.7729,804.2491,802.6374,785.31134,757.50916,-0.16595458984375,-0.01727294921875,0.97509765625,2.3626708984375,-3.5888671875,-0.04486083984375,1.0,1.0,1.0,1.0,1.0,100.0,event
12:18:06.329,1.5849804,-0.24424249,-0.3521769,1.3610457,1.1099123,-0.37495765,-0.5932041,0.90541244,1.2105045,-0.26372463,-0.14859933,0.6843914,0.87257713,-0.18093432,-0.16793022,0.66947544,0.38069072,-0.483341,-0.3135955,0.4608919,805.4579,800.6227,813.1135,790.54944,813.5165,-0.16595458984375,-0.01727294921875,0.97509765625,2.3626708984375,-3.5888671875,-0.04486083984375,1.0,1.0,1.0,1.0,1.0,100.0,event
12:18:06.330,1.5849804,-0.24424249,-0.3521769,1.3610457,1.1099123,-0.37495765,-0.5932041,0.90541244,1.2105045,-0.26372463,-0.14859933,0.6843914,0.87257713,-0.18093432,-0.16793022,0.66947544,0.38069072,-0.483341,-0.3135955,0.4608919,812.3077,801.8315,813.91943,813.91943,737.76556,-0.16595458984375,-0.01727294921875,0.97509765625,2.3626708984375,-3.5888671875,-0.04486083984375,1.0,1.0,1.0,1.0,1.0,100.0,event
12:18:06.330,1.5849804,-0.24424249,-0.3521769,1.3610457,1.1099123,-0.37495765,-0.5932041,0.90541244,1.2105045,-0.26372463,-0.14859933,0.6843914,0.87257713,-0.18093432,-0.16793022,0.66947544,0.38069072,-0.483341,-0.3135955,0.4608919,811.9048,807.47253,809.4872,827.2161,696.6667,-0.16595458984375,-0.01727294921875,0.97509765625,2.3626708984375,-3.5888671875,-0.04486083984375,1.0,1.0,1.0,1.0,1.0,100.0,event
12:18:06.331,1.5849804,-0.24424249,-0.3521769,1.3610457,1.1099123,-0.37495765,-0.5932041,0.90541244,1.2105045,-0.26372463,-0.14859933,0.6843914,0.87257713,-0.18093432,-0.16793022,0.66947544,0.38069072,-0.483341,-0.3135955,0.4608919,800.6227,805.8608,808.2784,810.293,865.89746,-0.16595458984375,-0.01727294921875,0.97509765625,2.3626708984375,-3.5888671875,-0.04486083984375,1.0,1.0,1.0,1.0,1.0,100.0,event
12:18:06.332,1.5849804,-0.24424249,-0.3521769,1.3610457,1.1099123,-0.37495765,-0.5932041,0.90541244,1.2105045,-0.26372463,-0.14859933,0.6843914,0.87257713,-0.18093432,-0.16793022,0.66947544,0.38069072,-0.483341,-0.3135955,0.4608919,780.87915,801.02563,806.6667,791.3553,928.7546,-0.16595458984375,-0.01727294921875,0.97509765625,2.3626708984375,-3.5888671875,-0.04486083984375,1.0,1.0,1.0,1.0,1.0,100.0,event
12:18:06.332,1.5849804,-0.24424249,-0.3521769,1.3610457,1.1099123,-0.37495765,-0.5932041,0.90541244,1.2105045,-0.26372463,-0.14859933,0.6843914,0.87257713,-0.18093432,-0.16793022,0.66947544,0.38069072,-0.483341,-0.3135955,0.4608919,791.75824,805.4579,809.4872,787.326,714.3956,-0.16595458984375,-0.01727294921875,0.97509765625,2.3626708984375,-3.5888671875,-0.04486083984375,1.0,1.0,1.0,1.0,1.0,100.0,event
12:18:06.333,1.5849804,-0.24424249,-0.3521769,1.3610457,1.1099123,-0.37495765,-0.5932041,0.90541244,1.2105045,-0.26372463,-0.14859933,0.6843914,0.87257713,-0.18093432,-0.16793022,0.66947544,0.38069072,-0.483341,-0.3135955,0.4608919,811.0989,808.68134,812.71063,804.2491,648.71796,-0.16595458984375,-0.01727294921875,0.97509765625,2.3626708984375,-3.5888671875,-0.04486083984375,1.0,1.0,1.0,1.0,1.0,100.0,event
12:18:06.333,1.5849804,-0.24424249,-0.3521769,1.3610457,1.1099123,-0.37495765,-0.5932041,0.90541244,1.2105045,-0.26372463,-0.14859933,0.6843914,0.87257713,-0.18093432,-0.16793022,0.66947544,0.38069072,-0.483341,-0.3135955,0.4608919,806.6667,805.4579,807.8755,821.978,796.1905,-0.16595458984375,-0.01727294921875,0.97509765625,2.3626708984375,-3.5888671875,-0.04486083984375,1.0,1.0,1.0,1.0,1.0,100.0,event
12:18:06.334,1.5849804,-0.24424249,-0.3521769,1.3610457,1.1099123,-0.37495765,-0.5932041,0.90541244,1.2105045,-0.26372463,-0.14859933,0.6843914,0.87257713,-0.18093432,-0.16793022,0.66947544,0.38069072,-0.483341,-0.3135955,0.4608919,788.1319,799.81683,804.65204,813.91943,1076.63,-0.16595458984375,-0.01727294921875,0.97509765625,2.3626708984375,-3.5888671875,-0.04486083984375,1.0,1.0,1.0,1.0,1.0,100.0,event
12:18:06.361,1.5849804,-0.24424249,-0.3521769,1.3610457,1.1099123,-0.37495765,-0.5932041,0.90541244,1.2105045,-0.26372463,-0.14859933,0.6843914,0.87257713,-0.18093432,-0.16793022,0.66947544,0.38069072,-0.483341,-0.3135955,0.4608919,777.25275,799.41394,809.0842,780.07324,857.8388,-0.16925048828125,-0.01519775390625,0.97113037109375,2.385101318359375,-4.000091552734375,0.157012939453125,1.0,1.0,1.0,1.0,1.0,100.0,event
12:18:06.362,1.5849804,-0.24424249,-0.3521769,1.3610457,1.1099123,-0.37495765,-0.5932041,0.90541244,1.2105045,-0.26372463,-0.14859933,0.6843914,0.87257713,-0.18093432,-0.16793022,0.66947544,0.38069072,-0.483341,-0.3135955,0.4608919,777.25275,801.4286,803.44324,771.6117,649.12085,-0.16925048828125,-0.01519775390625,0.97113037109375,2.385101318359375,-4.000091552734375,0.157012939453125,1.0,1.0,1.0,1.0,1.0,100.0,event
12:18:06.362,1.5849804,-0.24424249,-0.3521769,1.3610457,1.1099123,-0.37495765,-0.5932041,0.90541244,1.2105045,-0.26372463,-0.14859933,0.6843914,0.87257713,-0.18093432,-0.16793022,0.66947544,0.38069072,-0.483341,-0.3135955,0.4608919,788.5348,800.6227,799.81683,790.54944,780.07324,-0.16925048828125,-0.01519775390625,0.97113037109375,2.385101318359375,-4.000091552734375,0.157012939453125,1.0,1.0,1.0,1.0,1.0,100.0,event
12:18:06.363,1.5849804,-0.24424249,-0.3521769,1.3610457,1.1099123,-0.37495765,-0.5932041,0.90541244,1.2105045,-0.26372463,-0.14859933,0.6843914,0.87257713,-0.18093432,-0.16793022,0.66947544,0.38069072,-0.483341,-0.3135955,0.4608919,803.44324,799.81683,803.8461,806.6667,779.2674,-0.16925048828125,-0.01519775390625,0.97113037109375,2.385101318359375,-4.000091552734375,0.157012939453125,1.0,1.0,1.0,1.0,1.0,100.0,event
12:18:06.364,1.5849804,-0.24424249,-0.3521769,1.3610457,1.1099123,-0.37495765,-0.5932041,0.90541244,1.2105045,-0.26372463,-0.14859933,0.6843914,0.87257713,-0.18093432,-0.16793022,0.66947544,0.38069072,-0.483341,-0.3135955,0.4608919,808.2784,799.011,801.8315,812.71063,744.61536,-0.16925048828125,-0.01519775390625,0.97113037109375,2.385101318359375,-4.000091552734375,0.157012939453125,1.0,1.0,1.0,1.0,1.0,100.0,event
12:18:06.365,1.5849804,-0.24424249,-0.3521769,1.3610457,1.1099123,-0.37495765,-0.5932041,0.90541244,1.2105045,-0.26372463,-0.14859933,0.6843914,0.87257713,-0.18093432,-0.16793022,0.66947544,0.38069072,-0.483341,-0.3135955,0.4608919,796.1905,802.6374,800.2198,792.96704,790.14655,-0.16925048828125,-0.01519775390625,0.97113037109375,2.385101318359375,-4.000091552734375,0.157012939453125,1.0,1.0,1.0,1.0,1.0,100.0,event
12:18:06.366,1.5849804,-0.24424249,-0.3521769,1.3610457,1.1099123,-0.37495765,-0.5932041,0.90541244,1.2105045,-0.26372463,-0.14859933,0.6843914,0.87257713,-0.18093432,-0.16793022,0.66947544,0.38069072,-0.483341,-0.3135955,0.4608919,778.46155,798.20514,801.4286,783.2967,1027.0696,-0.16925048828125,-0.01519775390625,0.97113037109375,2.385101318359375,-4.000091552734375,0.157012939453125,1.0,1.0,1.0,1.0,1.0,100.0,event
12:18:06.366,1.5849804,-0.23282737,-0.3426993,1.3610457,1.1099123,-0.34995615,-0.6036557,0.90541244,1.2105045,-0.3117829,-0.16088033,0.6843914,0.87257713,-0.18619132,-0.18473552,0.66947544,0.38069072,-0.51042306,-0.3259357,0.4608919,785.7143,794.17584,801.8315,798.20514,1095.9707,-0.16925048828125,-0.01519775390625,0.97113037109375,2.385101318359375,-4.000091552734375,0.157012939453125,1.0,1.0,1.0,1.0,1.0,100.0,event
12:18:06.370,1.5849804,-0.23282737,-0.3426993,1.3610457,1.1099123,-0.34995615,-0.6036557,0.90541244,1.2105045,-0.3117829,-0.16088033,0.6843914,0.87257713,-0.18619132,-0.18473552,0.66947544,0.38069072,-0.51042306,-0.3259357,0.4608919,810.293,800.2198,799.41394,805.8608,867.50916,-0.16925048828125,-0.01519775390625,0.97113037109375,2.385101318359375,-4.000091552734375,0.157012939453125,1.0,1.0,1.0,1.0,1.0,100.0,event
12:18:06.371,1.5849804,-0.23282737,-0.3426993,1.3610457,1.1099123,-0.34995615,-0.6036557,0.90541244,1.2105045,-0.3117829,-0.16088033,0.6843914,0.87257713,-0.18619132,-0.18473552,0.66947544,0.38069072,-0.51042306,-0.3259357,0.4608919,805.4579,800.6227,798.60803,808.68134,741.39197,-0.16925048828125,-0.01519775390625,0.97113037109375,2.385101318359375,-4.000091552734375,0.157012939453125,1.0,1.0,1.0,1.0,1.0,100.0,event
12:18:06.372,1.5849804,-0.23282737,-0.3426993,1.3610457,1.1099123,-0.34995615,-0.6036557,0.90541244,1.2105045,-0.3117829,-0.16088033,0.6843914,0.87257713,-0.18619132,-0.18473552,0.66947544,0.38069072,-0.51042306,-0.3259357,0.4608919,788.93774,803.44324,804.2491,800.2198,780.07324,-0.16925048828125,-0.01519775390625,0.97113037109375,2.385101318359375,-4.000091552734375,0.157012939453125,1.0,1.0,1.0,1.0,1.0,100.0,event
12:18:06.373,1.5849804,-0.23282737,-0.3426993,1.3610457,1.1099123,-0.34995615,-0.6036557,0.90541244,1.2105045,-0.3117829,-0.16088033,0.6843914,0.87257713,-0.18619132,-0.18473552,0.66947544,0.38069072,-0.51042306,-0.3259357,0.4608919,785.7143,806.26373,803.8461,795.38464,773.22345,-0.16925048828125,-0.01519775390625,0.97113037109375,2.385101318359375,-4.000091552734375,0.157012939453125,1.0,1.0,1.0,1.0,1.0,100.0,event
12:18:06.394,1.5849804,-0.23282737,-0.3426993,1.3610457,1.1099123,-0.34995615,-0.6036557,0.90541244,1.2105045,-0.3117829,-0.16088033,0.6843914,0.87257713,-0.18619132,-0.18473552,0.66947544,0.38069072,-0.51042306,-0.3259357,0.4608919,796.99634,803.0403,803.44324,803.44324,692.23444,-0.1636962890625,-0.01007080078125,0.9766845703125,2.220611572265625,-3.33465576171875,-0.530853271484375,1.0,1.0,1.0,1.0,1.0,100.0,event
