TimeStamp,Delta_TP9,Delta_AF7,Delta_AF8,Delta_TP10,Theta_TP9,Theta_AF7,Theta_AF8,Theta_TP10,Alpha_TP9,Alpha_AF7,Alpha_AF8,Alpha_TP10,Beta_TP9,Beta_AF7,Beta_AF8,Beta_TP10,Gamma_TP9,Gamma_AF7,Gamma_AF8,Gamma_TP10,RAW_TP9,RAW_AF7,RAW_AF8,RAW_TP10,AUX_RIGHT,Accelerometer_X,Accelerometer_Y,Accelerometer_Z,Gyro_X,Gyro_Y,Gyro_Z,HeadBandOn,HSI_TP9,HSI_AF7,HSI_AF8,HSI_TP10,Battery,Elements
11:48:24.557,0.36643657,0.76875716,0.0,0.64727104,0.75155216,0.7839236,0.0,0.5678944,0.8062958,0.5558771,0.0,0.6135556,0.5722181,0.56998676,0.0,0.51877517,0.44008476,-0.010259383,0.0,0.18808407,871.9414,857.8388,988.7912,833.2601,724.4689,0.01177978515625,-0.01220703125,0.9923095703125,1.256103515625,-1.906585693359375,-0.31402587890625,1.0,2.0,1.0,4.0,2.0,80.0,event
11:48:24.558,0.36643657,0.76875716,0.0,0.64727104,0.75155216,0.7839236,0.0,0.5678944,0.8062958,0.5558771,0.0,0.6135556,0.5722181,0.56998676,0.0,0.51877517,0.44008476,-0.010259383,0.0,0.18808407,740.989,844.94507,677.72894,816.337,766.3736,0.01177978515625,-0.01220703125,0.9923095703125,1.256103515625,-1.906585693359375,-0.31402587890625,1.0,2.0,1.0,4.0,2.0,80.0,event
11:48:24.560,0.36643657,0.76875716,0.0,0.64727104,0.75155216,0.7839236,0.0,0.5678944,0.8062958,0.5558771,0.0,0.6135556,0.5722181,0.56998676,0.0,0.51877517,0.44008476,-0.010259383,0.0,0.18808407,716.0073,850.58606,791.3553,828.8278,726.4835,0.01177978515625,-0.01220703125,0.9923095703125,1.256103515625,-1.906585693359375,-0.31402587890625,1.0,2.0,1.0,4.0,2.0,80.0,event
11:48:24.561,0.36643657,0.76875716,0.0,0.64727104,0.75155216,0.7839236,0.0,0.5678944,0.8062958,0.5558771,0.0,0.6135556,0.5722181,0.56998676,0.0,0.51877517,0.44008476,-0.010259383,0.0,0.18808407,819.15753,850.58606,1081.8682,843.73627,729.707,0.01177978515625,-0.01220703125,0.9923095703125,1.256103515625,-1.906585693359375,-0.31402587890625,1.0,2.0,1.0,4.0,2.0,80.0,event
11:48:24.563,0.36643657,0.76875716,0.0,0.64727104,0.75155216,0.7839236,0.0,0.5678944,0.8062958,0.5558771,0.0,0.6135556,0.5722181,0.56998676,0.0,0.51877517,0.44008476,-0.010259383,0.0,0.18808407,937.2161,836.4835,1013.7729,850.18317,792.5641,0.01177978515625,-0.01220703125,0.9923095703125,1.256103515625,-1.906585693359375,-0.31402587890625,1.0,2.0,1.0,4.0,2.0,80.0,event
11:48:24.564,0.36643657,0.76875716,0.0,0.64727104,0.75155216,0.7839236,0.0,0.5678944,0.8062958,0.5558771,0.0,0.6135556,0.5722181,0.56998676,0.0,0.51877517,0.44008476,-0.010259383,0.0,0.18808407,883.6264,823.1868,631.79486,844.1392,981.53845,0.01177978515625,-0.01220703125,0.9923095703125,1.256103515625,-1.906585693359375,-0.31402587890625,1.0,2.0,1.0,4.0,2.0,80.0,event
11:48:24.565,0.36643657,0.76875716,0.0,0.64727104,0.75155216,0.7839236,0.0,0.5678944,0.8062958,0.5558771,0.0,0.6135556,0.5722181,0.56998676,0.0,0.51877517,0.44008476,-0.010259383,0.0,0.18808407,702.3077,825.6044,744.61536,817.5458,728.0952,0.01177978515625,-0.01220703125,0.9923095703125,1.256103515625,-1.906585693359375,-0.31402587890625,1.0,2.0,1.0,4.0,2.0,80.0,event
11:48:24.565,0.36643657,0.76875716,0.0,0.64727104,0.75155216,0.7839236,0.0,0.5678944,0.8062958,0.5558771,0.0,0.6135556,0.5722181,0.56998676,0.0,0.51877517,0.44008476,-0.010259383,0.0,0.18808407,734.1392,821.1722,544.35895,822.381,940.0366,0.01177978515625,-0.01220703125,0.9923095703125,1.256103515625,-1.906585693359375,-0.31402587890625,1.0,2.0,1.0,4.0,2.0,80.0,event
11:48:24.566,0.36643657,0.76875716,0.0,0.64727104,0.75155216,0.7839236,0.0,0.5678944,0.8062958,0.5558771,0.0,0.6135556,0.5722181,0.56998676,0.0,0.51877517,0.44008476,-0.010259383,0.0,0.18808407,801.02563,815.12823,767.98535,840.9158,815.5311,0.01177978515625,-0.01220703125,0.9923095703125,1.256103515625,-1.906585693359375,-0.31402587890625,1.0,2.0,1.0,4.0,2.0,80.0,event
11:48:24.567,0.36643657,0.76875716,0.0,0.64727104,0.75155216,0.7839236,0.0,0.5678944,0.8062958,0.5558771,0.0,0.6135556,0.5722181,0.56998676,0.0,0.51877517,0.44008476,-0.010259383,0.0,0.18808407,910.2198,790.9524,354.1758,850.989,1077.8389,0.01177978515625,-0.01220703125,0.9923095703125,1.256103515625,-1.906585693359375,-0.31402587890625,1.0,2.0,1.0,4.0,2.0,80.0,event
11:48:24.568,0.36643657,0.76875716,0.0,0.64727104,0.75155216,0.7839236,0.0,0.5678944,0.8062958,0.5558771,0.0,0.6135556,0.5722181,0.56998676,0.0,0.51877517,0.44008476,-0.010259383,0.0,0.18808407,887.25275,813.91943,535.89746,834.4689,960.18317,0.01177978515625,-0.01220703125,0.9923095703125,1.256103515625,-1.906585693359375,-0.31402587890625,1.0,2.0,1.0,4.0,2.0,80.0,event
11:48:24.568,0.36643657,0.76875716,0.0,0.64727104,0.75155216,0.7839236,0.0,0.5678944,0.8062958,0.5558771,0.0,0.6135556,0.5722181,0.56998676,0.0,0.51877517,0.44008476,-0.010259383,0.0,0.18808407,760.7326,818.3516,946.08057,811.9048,745.0183,0.01177978515625,-0.01220703125,0.9923095703125,1.256103515625,-1.906585693359375,-0.31402587890625,1.0,2.0,1.0,4.0,2.0,80.0,event
11:48:24.573,0.36643657,0.76875716,0.0,0.64727104,0.75155216,0.7839236,0.0,0.5678944,0.8062958,0.5558771,0.0,0.6135556,0.5722181,0.56998676,0.0,0.51877517,0.44008476,-0.010259383,0.0,0.18808407,691.4286,788.1319,792.96704,808.68134,733.73627,0.02783203125,-0.01458740234375,0.98095703125,2.026214599609375,-3.910369873046875,0.01495361328125,1.0,2.0,1.0,4.0,2.0,80.0,event
11:48:24.573,0.36643657,0.76875716,0.0,0.64727104,0.75155216,0.7839236,0.0,0.5678944,0.8062958,0.5558771,0.0,0.6135556,0.5722181,0.56998676,0.0,0.51877517,0.44008476,-0.010259383,0.0,0.18808407,770.0,786.1172,850.989,818.7546,731.31866,0.02783203125,-0.01458740234375,0.98095703125,2.026214599609375,-3.910369873046875,0.01495361328125,1.0,2.0,1.0,4.0,2.0,80.0,event
11:48:24.574,0.36643657,0.76875716,0.0,0.64727104,0.75155216,0.7839236,0.0,0.5678944,0.8062958,0.5558771,0.0,0.6135556,0.5722181,0.56998676,0.0,0.51877517,0.44008476,-0.010259383,0.0,0.18808407,906.5934,782.8938,1065.751,828.022,718.022,0.02783203125,-0.01458740234375,0.98095703125,2.026214599609375,-3.910369873046875,0.01495361328125,1.0,2.0,1.0,4.0,2.0,80.0,event
11:48:24.575,0.36643657,0.76875716,0.0,0.64727104,0.75155216,0.7839236,0.0,0.5678944,0.8062958,0.5558771,0.0,0.6135556,0.5722181,0.56998676,0.0,0.51877517,0.44008476,-0.010259383,0.0,0.18808407,895.31134,760.32965,1004.90845,815.12823,673.2967,0.02783203125,-0.01458740234375,0.98095703125,2.026214599609375,-3.910369873046875,0.01495361328125,1.0,2.0,1.0,4.0,2.0,80.0,event
11:48:24.576,0.36643657,0.76875716,0.0,0.64727104,0.75155216,0.7839236,0.0,0.5678944,0.8062958,0.5558771,0.0,0.6135556,0.5722181,0.56998676,0.0,0.51877517,0.44008476,-0.010259383,0.0,0.18808407,749.85345,738.1685,736.9597,799.81683,734.94507,0.02783203125,-0.01458740234375,0.98095703125,2.026214599609375,-3.910369873046875,0.01495361328125,1.0,2.0,1.0,4.0,2.0,80.0,event
11:48:24.577,0.36643657,0.76875716,0.0,0.64727104,0.75155216,0.7839236,0.0,0.5678944,0.8062958,0.5558771,0.0,0.6135556,0.5722181,0.56998676,0.0,0.51877517,0.44008476,-0.010259383,0.0,0.18808407,680.9524,740.989,565.31134,796.1905,828.022,0.02783203125,-0.01458740234375,0.98095703125,2.026214599609375,-3.910369873046875,0.01495361328125,1.0,2.0,1.0,4.0,2.0,80.0,event
11:48:24.578,0.36643657,0.76875716,0.0,0.64727104,0.75155216,0.7839236,0.0,0.5678944,0.8062958,0.5558771,0.0,0.6135556,0.5722181,0.56998676,0.0,0.51877517,0.44008476,-0.010259383,0.0,0.18808407,756.30035,754.68866,696.26373,794.57874,836.4835,0.02783203125,-0.01458740234375,0.98095703125,2.026214599609375,-3.910369873046875,0.01495361328125,1.0,2.0,1.0,4.0,2.0,80.0,event
11:48:24.579,0.36643657,0.76875716,0.0,0.64727104,0.75155216,0.7839236,0.0,0.5678944,0.8062958,0.5558771,0.0,0.6135556,0.5722181,0.56998676,0.0,0.51877517,0.44008476,-0.010259383,0.0,0.18808407,887.6557,746.2271,940.0366,808.2784,838.0952,0.02783203125,-0.01458740234375,0.98095703125,2.026214599609375,-3.910369873046875,0.01495361328125,1.0,2.0,1.0,4.0,2.0,80.0,event
11:48:24.579,0.36643657,0.76875716,0.0,0.64727104,0.75155216,0.7839236,0.0,0.5678944,0.8062958,0.5558771,0.0,0.6135556,0.5722181,0.56998676,0.0,0.51877517,0.44008476,-0.010259383,0.0,0.18808407,900.54944,716.0073,770.0,807.8755,853.4066,0.02783203125,-0.01458740234375,0.98095703125,2.026214599609375,-3.910369873046875,0.01495361328125,1.0,2.0,1.0,4.0,2.0,80.0,event
11:48:24.580,0.36643657,0.76875716,0.0,0.64727104,0.75155216,0.7839236,0.0,0.5678944,0.8062958,0.5558771,0.0,0.6135556,0.5722181,0.56998676,0.0,0.51877517,0.44008476,-0.010259383,0.0,0.18808407,776.4469,719.6337,711.1722,789.7436,789.34064,0.02783203125,-0.01458740234375,0.98095703125,2.026214599609375,-3.910369873046875,0.01495361328125,1.0,2.0,1.0,4.0,2.0,80.0,event
11:48:24.581,0.36643657,0.76875716,0.0,0.64727104,0.75155216,0.7839236,0.0,0.5678944,0.8062958,0.5558771,0.0,0.6135556,0.5722181,0.56998676,0.0,0.51877517,0.44008476,-0.010259383,0.0,0.18808407,674.5055,719.2308,827.619,780.4762,667.6557,0.02783203125,-0.01458740234375,0.98095703125,2.026214599609375,-3.910369873046875,0.01495361328125,1.0,2.0,1.0,4.0,2.0,80.0,event
11:48:24.581,0.36643657,0.76875716,0.0,0.64727104,0.75155216,0.7839236,0.0,0.5678944,0.8062958,0.5558771,0.0,0.6135556,0.5722181,0.56998676,0.0,0.51877517,0.44008476,-0.010259383,0.0,0.18808407,722.0513,699.4872,790.14655,778.46155,668.46155,0.02783203125,-0.01458740234375,0.98095703125,2.026214599609375,-3.910369873046875,0.01495361328125,1.0,2.0,1.0,4.0,2.0,80.0,event
11:48:24.621,0.36643657,0.76875716,0.0,0.64727104,0.75155216,0.7839236,0.0,0.5678944,0.8062958,0.5558771,0.0,0.6135556,0.5722181,0.56998676,0.0,0.51877517,0.44008476,-0.010259383,0.0,0.18808407,838.0952,657.5824,500.8425,782.49084,927.5458,0.0260009765625,-0.01617431640625,0.99285888671875,1.487884521484375,-2.6019287109375,-0.11962890625,1.0,2.0,1.0,4.0,2.0,80.0,event
11:48:24.622,0.36643657,0.76875716,0.0,0.64727104,0.75155216,0.7839236,0.0,0.5678944,0.8062958,0.5558771,0.0,0.6135556,0.5722181,0.56998676,0.0,0.51877517,0.44008476,-0.010259383,0.0,0.18808407,846.1539,628.5714,219.19414,770.40295,1109.6703,0.0260009765625,-0.01617431640625,0.99285888671875,1.487884521484375,-2.6019287109375,-0.11962890625,1.0,2.0,1.0,4.0,2.0,80.0,event
11:48:24.624,0.36643657,0.76875716,0.0,0.64727104,0.75155216,0.7839236,0.0,0.5678944,0.8062958,0.5558771,0.0,0.6135556,0.5722181,0.56998676,0.0,0.51877517,0.44008476,-0.010259383,0.0,0.18808407,735.34796,637.4359,736.1539,743.4066,803.8461,0.0260009765625,-0.01617431640625,0.99285888671875,1.487884521484375,-2.6019287109375,-0.11962890625,1.0,2.0,1.0,4.0,2.0,80.0,event
11:48:24.628,0.36643657,0.76875716,0.0,0.64727104,0.75155216,0.7839236,0.0,0.5678944,0.8062958,0.5558771,0.0,0.6135556,0.5722181,0.56998676,0.0,0.51877517,0.44008476,-0.010259383,0.0,0.18808407,628.97437,591.9048,911.02563,732.9304,708.3516,0.0260009765625,-0.01617431640625,0.99285888671875,1.487884521484375,-2.6019287109375,-0.11962890625,1.0,2.0,1.0,4.0,2.0,80.0,event
11:48:24.629,0.36643657,0.76875716,0.0,0.64727104,0.75155216,0.7839236,0.0,0.5678944,0.8062958,0.5558771,0.0,0.6135556,0.5722181,0.56998676,0.0,0.51877517,0.44008476,-0.010259383,0.0,0.18808407,630.18317,553.22345,780.4762,729.304,774.83514,0.0260009765625,-0.01617431640625,0.99285888671875,1.487884521484375,-2.6019287109375,-0.11962890625,1.0,2.0,1.0,4.0,2.0,80.0,event
11:48:24.629,0.36643657,0.76875716,0.0,0.64727104,0.75155216,0.7839236,0.0,0.5678944,0.8062958,0.5558771,0.0,0.6135556,0.5722181,0.56998676,0.0,0.51877517,0.44008476,-0.010259383,0.0,0.18808407,716.8132,545.9707,775.2381,705.12823,753.8828,0.0260009765625,-0.01617431640625,0.99285888671875,1.487884521484375,-2.6019287109375,-0.11962890625,1.0,2.0,1.0,4.0,2.0,80.0,event
11:48:24.630,0.36643657,0.76875716,0.0,0.64727104,0.75155216,0.7839236,0.0,0.5678944,0.8062958,0.5558771,0.0,0.6135556,0.5722181,0.56998676,0.0,0.51877517,0.44008476,-0.010259383,0.0,0.18808407,621.7216,576.1905,816.337,620.5128,752.674,0.0260009765625,-0.01617431640625,0.99285888671875,1.487884521484375,-2.6019287109375,-0.11962890625,1.0,2.0,1.0,4.0,2.0,80.0,event
11:48:24.630,0.36643657,0.76875716,0.0,0.64727104,0.75155216,0.7839236,0.0,0.5678944,0.8062958,0.5558771,0.0,0.6135556,0.5722181,0.56998676,0.0,0.51877517,0.44008476,-0.010259383,0.0,0.18808407,745.0183,552.8205,776.4469,664.0293,747.8388,0.0260009765625,-0.01617431640625,0.99285888671875,1.487884521484375,-2.6019287109375,-0.11962890625,1.0,2.0,1.0,4.0,2.0,80.0,event
11:48:24.631,0.36643657,0.76875716,0.0,0.64727104,0.75155216,0.7839236,0.0,0.5678944,0.8062958,0.5558771,0.0,0.6135556,0.5722181,0.56998676,0.0,0.51877517,0.44008476,-0.010259383,0.0,0.18808407,466.1905,586.6667,314.2857,586.26373,985.16486,0.0260009765625,-0.01617431640625,0.99285888671875,1.487884521484375,-2.6019287109375,-0.11962890625,1.0,2.0,1.0,4.0,2.0,80.0,event
11:48:24.631,0.36643657,0.76875716,0.0,0.64727104,0.75155216,0.7839236,0.0,0.5678944,0.8062958,0.5558771,0.0,0.6135556,0.5722181,0.56998676,0.0,0.51877517,0.44008476,-0.010259383,0.0,0.18808407,451.28204,635.82416,485.93405,552.4176,907.8022,0.0260009765625,-0.01617431640625,0.99285888671875,1.487884521484375,-2.6019287109375,-0.11962890625,1.0,2.0,1.0,4.0,2.0,80.0,event
11:48:24.631,0.36643657,0.76875716,0.0,0.64727104,0.75155216,0.7839236,0.0,0.5678944,0.8062958,0.5558771,0.0,0.6135556,0.5722181,0.56998676,0.0,0.51877517,0.44008476,-0.010259383,0.0,0.18808407,569.34064,664.43225,1108.0586,540.7326,680.54944,0.0260009765625,-0.01617431640625,0.99285888671875,1.487884521484375,-2.6019287109375,-0.11962890625,1.0,2.0,1.0,4.0,2.0,80.0,event
11:48:24.632,0.36643657,0.76875716,0.0,0.64727104,0.75155216,0.7839236,0.0,0.5678944,0.8062958,0.5558771,0.0,0.6135556,0.5722181,0.56998676,0.0,0.51877517,0.44008476,-0.010259383,0.0,0.18808407,647.50916,674.5055,1018.20514,541.53845,749.85345,0.0260009765625,-0.01617431640625,0.99285888671875,1.487884521484375,-2.6019287109375,-0.11962890625,1.0,2.0,1.0,4.0,2.0,80.0,event
11:48:24.666,0.36643657,0.76875716,0.0,0.64727104,0.75155216,0.7839236,0.0,0.5678944,0.8062958,0.5558771,0.0,0.6135556,0.5722181,0.56998676,0.0,0.51877517,0.44008476,-0.010259383,0.0,0.18808407,549.59705,718.8278,826.4103,519.3773,792.96704,0.0260009765625,-0.01617431640625,0.99285888671875,1.487884521484375,-2.6019287109375,-0.11962890625,1.0,2.0,1.0,4.0,2.0,80.0,event
11:48:24.667,0.36643657,0.76875716,0.0,0.64727104,0.75155216,0.7839236,0.0,0.5678944,0.8062958,0.5558771,0.0,0.6135556,0.5722181,0.56998676,0.0,0.51877517,0.44008476,-0.010259383,0.0,0.18808407,403.33334,738.5714,856.2271,499.23077,715.6044,0.0260009765625,-0.01617431640625,0.99285888671875,1.487884521484375,-2.6019287109375,-0.11962890625,1.0,2.0,1.0,4.0,2.0,80.0,event
11:48:24.671,0.36643657,0.76875716,0.0,0.64727104,0.75155216,0.7839236,0.0,0.5678944,0.8062958,0.5558771,0.0,0.6135556,0.5722181,0.56998676,0.0,0.51877517,0.44008476,-0.010259383,0.0,0.18808407,398.9011,737.76556,787.72894,505.27472,720.84247,0.0260009765625,-0.01617431640625,0.99285888671875,1.487884521484375,-2.6019287109375,-0.11962890625,1.0,2.0,1.0,4.0,2.0,80.0,event
11:48:24.671,0.36643657,0.76875716,0.0,0.64727104,0.75155216,0.7839236,0.0,0.5678944,0.8062958,0.5558771,0.0,0.6135556,0.5722181,0.56998676,0.0,0.51877517,0.44008476,-0.010259383,0.0,0.18808407,539.12085,751.06226,705.9341,535.09155,790.9524,0.0260009765625,-0.01617431640625,0.99285888671875,1.487884521484375,-2.6019287109375,-0.11962890625,1.0,2.0,1.0,4.0,2.0,80.0,event
11:48:24.672,0.36643657,0.76875716,0.0,0.64727104,0.75155216,0.7839236,0.0,0.5678944,0.8062958,0.5558771,0.0,0.6135556,0.5722181,0.56998676,0.0,0.51877517,0.44008476,-0.010259383,0.0,0.18808407,661.2088,777.6557,780.4762,555.64105,805.05493,0.0260009765625,-0.01617431640625,0.99285888671875,1.487884521484375,-2.6019287109375,-0.11962890625,1.0,2.0,1.0,4.0,2.0,80.0,event
11:48:24.672,0.36643657,0.76875716,0.0,0.64727104,0.75155216,0.7839236,0.0,0.5678944,0.8062958,0.5558771,0.0,0.6135556,0.5722181,0.56998676,0.0,0.51877517,0.44008476,-0.010259383,0.0,0.18808407,585.05493,788.5348,737.3626,551.2088,786.52014,0.0260009765625,-0.01617431640625,0.99285888671875,1.487884521484375,-2.6019287109375,-0.11962890625,1.0,2.0,1.0,4.0,2.0,80.0,event
11:48:24.673,0.36643657,0.76875716,0.0,0.64727104,0.75155216,0.7839236,0.0,0.5678944,0.8062958,0.5558771,0.0,0.6135556,0.5722181,0.56998676,0.0,0.51877517,0.44008476,-0.010259383,0.0,0.18808407,462.16116,790.9524,628.1685,549.59705,790.14655,0.0260009765625,-0.01617431640625,0.99285888671875,1.487884521484375,-2.6019287109375,-0.11962890625,1.0,2.0,1.0,4.0,2.0,80.0,event
11:48:24.674,0.36643657,0.76875716,0.0,0.64727104,0.75155216,0.7839236,0.0,0.5678944,0.8062958,0.5558771,0.0,0.6135556,0.5722181,0.56998676,0.0,0.51877517,0.44008476,-0.010259383,0.0,0.18808407,585.05493,781.685,397.69232,611.2454,936.8132,0.0260009765625,-0.01617431640625,0.99285888671875,1.487884521484375,-2.6019287109375,-0.11962890625,1.0,2.0,1.0,4.0,2.0,80.0,event
11:48:24.674,0.36643657,0.76875716,0.0,0.64727104,0.75155216,0.7839236,0.0,0.5678944,0.8062958,0.5558771,0.0,0.6135556,0.5722181,0.56998676,0.0,0.51877517,0.44008476,-0.010259383,0.0,0.18808407,462.96704,780.4762,487.14285,572.5641,861.8681,0.0260009765625,-0.01617431640625,0.99285888671875,1.487884521484375,-2.6019287109375,-0.11962890625,1.0,2.0,1.0,4.0,2.0,80.0,event
11:48:24.675,0.36643657,0.76875716,0.0,0.64727104,0.75155216,0.7839236,0.0,0.5678944,0.8062958,0.5558771,0.0,0.6135556,0.5722181,0.56998676,0.0,0.51877517,0.44008476,-0.010259383,0.0,0.18808407,730.10986,808.68134,966.63007,637.8388,767.1795,0.0260009765625,-0.01617431640625,0.99285888671875,1.487884521484375,-2.6019287109375,-0.11962890625,1.0,2.0,1.0,4.0,2.0,80.0,event
11:48:24.676,0.36643657,0.76875716,0.0,0.64727104,0.75155216,0.7839236,0.0,0.5678944,0.8062958,0.5558771,0.0,0.6135556,0.5722181,0.56998676,0.0,0.51877517,0.44008476,-0.010259383,0.0,0.18808407,704.7253,803.8461,1047.2161,651.53845,670.87915,0.0260009765625,-0.01617431640625,0.99285888671875,1.487884521484375,-2.6019287109375,-0.11962890625,1.0,2.0,1.0,4.0,2.0,80.0,event
11:48:24.676,0.36643657,0.76875716,0.0,0.64727104,0.75155216,0.7839236,0.0,0.5678944,0.8062958,0.5558771,0.0,0.6135556,0.5722181,0.56998676,0.0,0.51877517,0.44008476,-0.010259383,0.0,0.18808407,590.696,796.5934,703.91943,662.01465,759.12085,0.0260009765625,-0.01617431640625,0.99285888671875,1.487884521484375,-2.6019287109375,-0.11962890625,1.0,2.0,1.0,4.0,2.0,80.0,event
11:48:24.699,0.36643657,0.76875716,0.0,0.64727104,0.75155216,0.7839236,0.0,0.5678944,0.8062958,0.5558771,0.0,0.6135556,0.5722181,0.56998676,0.0,0.51877517,0.44008476,-0.010259383,0.0,0.18808407,583.0403,806.6667,858.24176,689.41394,704.3223,0.0262451171875,-0.01824951171875,0.9881591796875,2.145843505859375,-3.895416259765625,0.19439697265625,1.0,2.0,1.0,4.0,2.0,80.0,event
11:48:24.700,0.36643657,0.76875716,0.0,0.64727104,0.75155216,0.7839236,0.0,0.5678944,0.8062958,0.5558771,0.0,0.6135556,0.5722181,0.56998676,0.0,0.51877517,0.44008476,-0.010259383,0.0,0.18808407,690.2198,807.0696,1115.7142,714.7985,666.04395,0.0262451171875,-0.01824951171875,0.9881591796875,2.145843505859375,-3.895416259765625,0.19439697265625,1.0,2.0,1.0,4.0,2.0,80.0,event
11:48:24.701,0.36643657,0.76875716,0.0,0.64727104,0.75155216,0.7839236,0.0,0.5678944,0.8062958,0.5558771,0.0,0.6135556,0.5722181,0.56998676,0.0,0.51877517,0.44008476,-0.010259383,0.0,0.18808407,817.9487,787.326,1075.0183,738.5714,751.06226,0.0262451171875,-0.01824951171875,0.9881591796875,2.145843505859375,-3.895416259765625,0.19439697265625,1.0,2.0,1.0,4.0,2.0,80.0,event
11:48:24.701,0.36643657,0.76875716,0.0,0.64727104,0.75155216,0.7839236,0.0,0.5678944,0.8062958,0.5558771,0.0,0.6135556,0.5722181,0.56998676,0.0,0.51877517,0.44008476,-0.010259383,0.0,0.18808407,812.71063,769.59705,832.4542,763.95605,788.5348,0.0262451171875,-0.01824951171875,0.9881591796875,2.145843505859375,-3.895416259765625,0.19439697265625,1.0,2.0,1.0,4.0,2.0,80.0,event
11:48:24.702,0.36643657,0.76875716,0.0,0.64727104,0.75155216,0.7839236,0.0,0.5678944,0.8062958,0.5558771,0.0,0.6135556,0.5722181,0.56998676,0.0,0.51877517,0.44008476,-0.010259383,0.0,0.18808407,712.381,774.0293,838.49817,782.49084,813.5165,0.0262451171875,-0.01824951171875,0.9881591796875,2.145843505859375,-3.895416259765625,0.19439697265625,1.0,2.0,1.0,4.0,2.0,80.0,event
11:48:24.702,0.36643657,0.76875716,0.0,0.64727104,0.75155216,0.7839236,0.0,0.5678944,0.8062958,0.5558771,0.0,0.6135556,0.5722181,0.56998676,0.0,0.51877517,0.44008476,-0.010259383,0.0,0.18808407,668.46155,770.80585,796.1905,804.2491,826.8132,0.0262451171875,-0.01824951171875,0.9881591796875,2.145843505859375,-3.895416259765625,0.19439697265625,1.0,2.0,1.0,4.0,2.0,80.0,event
11:48:24.703,0.36643657,0.76875716,0.0,0.64727104,0.75155216,0.7839236,0.0,0.5678944,0.8062958,0.5558771,0.0,0.6135556,0.5722181,0.56998676,0.0,0.51877517,0.44008476,-0.010259383,0.0,0.18808407,922.3077,740.18317,336.04395,877.98535,1077.033,0.0262451171875,-0.01824951171875,0.9881591796875,2.145843505859375,-3.895416259765625,0.19439697265625,1.0,2.0,1.0,4.0,2.0,80.0,event
11:48:24.703,0.36643657,0.76875716,0.0,0.64727104,0.75155216,0.7839236,0.0,0.5678944,0.8062958,0.5558771,0.0,0.6135556,0.5722181,0.56998676,0.0,0.51877517,0.44008476,-0.010259383,0.0,0.18808407,763.95605,762.74725,716.0073,839.707,831.2454,0.0262451171875,-0.01824951171875,0.9881591796875,2.145843505859375,-3.895416259765625,0.19439697265625,1.0,2.0,1.0,4.0,2.0,80.0,event
11:48:24.704,0.36643657,0.76875716,0.0,0.64727104,0.75155216,0.7839236,0.0,0.5678944,0.8062958,0.5558771,0.0,0.6135556,0.5722181,0.56998676,0.0,0.51877517,0.44008476,-0.010259383,0.0,0.18808407,931.978,772.01465,365.4579,888.46155,1063.7362,0.0262451171875,-0.01824951171875,0.9881591796875,2.145843505859375,-3.895416259765625,0.19439697265625,1.0,2.0,1.0,4.0,2.0,80.0,event
11:48:24.704,0.36643657,0.76875716,0.0,0.64727104,0.75155216,0.7839236,0.0,0.5678944,0.8062958,0.5558771,0.0,0.6135556,0.5722181,0.56998676,0.0,0.51877517,0.44008476,-0.010259383,0.0,0.18808407,815.12823,799.011,853.4066,873.1502,740.58606,0.0262451171875,-0.01824951171875,0.9881591796875,2.145843505859375,-3.895416259765625,0.19439697265625,1.0,2.0,1.0,4.0,2.0,80.0,event
11:48:24.704,0.36643657,0.76875716,0.0,0.64727104,0.75155216,0.7839236,0.0,0.5678944,0.8062958,0.5558771,0.0,0.6135556,0.5722181,0.56998676,0.0,0.51877517,0.44008476,-0.010259383,0.0,0.18808407,768.7912,776.4469,821.5751,880.0,656.77655,0.0262451171875,-0.01824951171875,0.9881591796875,2.145843505859375,-3.895416259765625,0.19439697265625,1.0,2.0,1.0,4.0,2.0,80.0,event
11:48:24.705,0.36643657,0.76875716,0.0,0.64727104,0.75155216,0.7839236,0.0,0.5678944,0.8062958,0.5558771,0.0,0.6135556,0.5722181,0.56998676,0.0,0.51877517,0.44008476,-0.010259383,0.0,0.18808407,865.09155,775.64105,855.82416,920.293,691.8315,0.0262451171875,-0.01824951171875,0.9881591796875,2.145843505859375,-3.895416259765625,0.19439697265625,1.0,2.0,1.0,4.0,2.0,80.0,event
11:48:24.769,0.36643657,0.76875716,0.0,0.64727104,0.75155216,0.7839236,0.0,0.5678944,0.8062958,0.5558771,0.0,0.6135556,0.5722181,0.56998676,0.0,0.51877517,0.44008476,-0.010259383,0.0,0.18808407,1015.78754,785.7143,1089.9268,946.4835,730.10986,0.02490234375,-0.01483154296875,0.98541259765625,2.534637451171875,-1.8841552734375,-0.179443359375,1.0,2.0,1.0,4.0,2.0,80.0,event
11:48:24.770,0.36643657,0.76875716,0.0,0.64727104,0.75155216,0.7839236,0.0,0.5678944,0.8062958,0.5558771,0.0,0.6135556,0.5722181,0.56998676,0.0,0.51877517,0.44008476,-0.010259383,0.0,0.18808407,1042.7839,779.2674,1049.6337,946.08057,687.8022,0.02490234375,-0.01483154296875,0.98541259765625,2.534637451171875,-1.8841552734375,-0.179443359375,1.0,2.0,1.0,4.0,2.0,80.0,event
11:48:24.772,0.36643657,0.76875716,0.0,0.64727104,0.75155216,0.7839236,0.0,0.5678944,0.8062958,0.5558771,0.0,0.6135556,0.5722181,0.56998676,0.0,0.51877517,0.44008476,-0.010259383,0.0,0.18808407,916.6667,769.59705,762.3443,940.0366,711.5751,0.02490234375,-0.01483154296875,0.98541259765625,2.534637451171875,-1.8841552734375,-0.179443359375,1.0,2.0,1.0,4.0,2.0,80.0,event
11:48:24.773,0.36643657,0.76875716,0.0,0.64727104,0.75155216,0.7839236,0.0,0.5678944,0.8062958,0.5558771,0.0,0.6135556,0.5722181,0.56998676,0.0,0.51877517,0.44008476,-0.010259383,0.0,0.18808407,845.34796,785.7143,757.1062,941.2454,742.1978,0.02490234375,-0.01483154296875,0.98541259765625,2.534637451171875,-1.8841552734375,-0.179443359375,1.0,2.0,1.0,4.0,2.0,80.0,event
11:48:24.777,0.36643657,0.76875716,0.0,0.64727104,0.75155216,0.7839236,0.0,0.5678944,0.8062958,0.5558771,0.0,0.6135556,0.5722181,0.56998676,0.0,0.51877517,0.44008476,-0.010259383,0.0,0.18808407,924.3223,799.81683,957.76556,963.4066,709.5604,0.02490234375,-0.01483154296875,0.98541259765625,2.534637451171875,-1.8841552734375,-0.179443359375,1.0,2.0,1.0,4.0,2.0,80.0,event
11:48:24.778,0.36643657,0.76875716,0.0,0.64727104,0.75155216,0.7839236,0.0,0.5678944,0.8062958,0.5558771,0.0,0.6135556,0.5722181,0.56998676,0.0,0.51877517,0.44008476,-0.010259383,0.0,0.18808407,1049.6337,788.1319,894.5055,983.95605,736.55676,0.02490234375,-0.01483154296875,0.98541259765625,2.534637451171875,-1.8841552734375,-0.179443359375,1.0,2.0,1.0,4.0,2.0,80.0,event
11:48:24.779,0.36643657,0.76875716,0.0,0.64727104,0.75155216,0.7839236,0.0,0.5678944,0.8062958,0.5558771,0.0,0.6135556,0.5722181,0.56998676,0.0,0.51877517,0.44008476,-0.010259383,0.0,0.18808407,1067.7656,764.35895,548.3883,991.6117,965.0183,0.02490234375,-0.01483154296875,0.98541259765625,2.534637451171875,-1.8841552734375,-0.179443359375,1.0,2.0,1.0,4.0,2.0,80.0,event
11:48:24.780,0.36643657,0.76875716,0.0,0.64727104,0.75155216,0.7839236,0.0,0.5678944,0.8062958,0.5558771,0.0,0.6135556,0.5722181,0.56998676,0.0,0.51877517,0.44008476,-0.010259383,0.0,0.18808407,952.9304,775.2381,218.38828,980.7326,1055.2748,0.02490234375,-0.01483154296875,0.98541259765625,2.534637451171875,-1.8841552734375,-0.179443359375,1.0,2.0,1.0,4.0,2.0,80.0,event
11:48:24.781,0.36643657,0.76875716,0.0,0.64727104,0.75155216,0.7839236,0.0,0.5678944,0.8062958,0.5558771,0.0,0.6135556,0.5722181,0.56998676,0.0,0.51877517,0.44008476,-0.010259383,0.0,0.18808407,866.30035,816.7399,614.4689,965.42126,848.1685,0.02490234375,-0.01483154296875,0.98541259765625,2.534637451171875,-1.8841552734375,-0.179443359375,1.0,2.0,1.0,4.0,2.0,80.0,event
11:48:24.782,0.36643657,0.76875716,0.0,0.64727104,0.75155216,0.7839236,0.0,0.5678944,0.8062958,0.5558771,0.0,0.6135556,0.5722181,0.56998676,0.0,0.51877517,0.44008476,-0.010259383,0.0,0.18808407,917.47253,821.5751,937.2161,981.53845,793.36993,0.02490234375,-0.01483154296875,0.98541259765625,2.534637451171875,-1.8841552734375,-0.179443359375,1.0,2.0,1.0,4.0,2.0,80.0,event
11:48:24.783,0.36643657,0.76875716,0.0,0.64727104,0.75155216,0.7839236,0.0,0.5678944,0.8062958,0.5558771,0.0,0.6135556,0.5722181,0.56998676,0.0,0.51877517,0.44008476,-0.010259383,0.0,0.18808407,1041.1721,802.23444,736.55676,999.67035,873.95605,0.02490234375,-0.01483154296875,0.98541259765625,2.534637451171875,-1.8841552734375,-0.179443359375,1.0,2.0,1.0,4.0,2.0,80.0,event
11:48:24.784,0.36643657,0.76875716,0.0,0.64727104,0.75155216,0.7839236,0.0,0.5678944,0.8062958,0.5558771,0.0,0.6135556,0.5722181,0.56998676,0.0,0.51877517,0.44008476,-0.010259383,0.0,0.18808407,1093.956,820.7692,788.1319,991.6117,808.2784,0.02490234375,-0.01483154296875,0.98541259765625,2.534637451171875,-1.8841552734375,-0.179443359375,1.0,2.0,1.0,4.0,2.0,80.0,event
11:48:24.824,0.36643657,0.76875716,0.0,0.64727104,0.75155216,0.7839236,0.0,0.5678944,0.8062958,0.5558771,0.0,0.6135556,0.5722181,0.56998676,0.0,0.51877517,0.44008476,-0.010259383,0.0,0.18808407,985.56775,837.28937,982.74725,973.8828,722.4542,0.016357421875,-0.01068115234375,0.9901123046875,2.340240478515625,-2.79632568359375,1.697235107421875,1.0,2.0,1.0,4.0,2.0,80.0,event
11:48:24.825,0.36643657,0.76875716,0.0,0.64727104,0.75155216,0.7839236,0.0,0.5678944,0.8062958,0.5558771,0.0,0.6135556,0.5722181,0.56998676,0.0,0.51877517,0.44008476,-0.010259383,0.0,0.18808407,861.4652,829.6337,844.1392,969.0476,730.10986,0.016357421875,-0.01068115234375,0.9901123046875,2.340240478515625,-2.79632568359375,1.697235107421875,1.0,2.0,1.0,4.0,2.0,80.0,event
11:48:24.826,0.36643657,0.76875716,0.0,0.64727104,0.75155216,0.7839236,0.0,0.5678944,0.8062958,0.5558771,0.0,0.6135556,0.5722181,0.56998676,0.0,0.51877517,0.44008476,-0.010259383,0.0,0.18808407,885.64105,835.6777,767.1795,973.0769,778.0586,0.016357421875,-0.01068115234375,0.9901123046875,2.340240478515625,-2.79632568359375,1.697235107421875,1.0,2.0,1.0,4.0,2.0,80.0,event
11:48:24.827,0.36643657,0.76875716,0.0,0.64727104,0.75155216,0.7839236,0.0,0.5678944,0.8062958,0.5558771,0.0,0.6135556,0.5722181,0.56998676,0.0,0.51877517,0.44008476,-0.010259383,0.0,0.18808407,1019.41394,852.6007,962.6007,988.3883,752.674,0.016357421875,-0.01068115234375,0.9901123046875,2.340240478515625,-2.79632568359375,1.697235107421875,1.0,2.0,1.0,4.0,2.0,80.0,event
11:48:24.827,0.36643657,0.76875716,0.0,0.64727104,0.75155216,0.7839236,0.0,0.5678944,0.8062958,0.5558771,0.0,0.6135556,0.5722181,0.56998676,0.0,0.51877517,0.44008476,-0.010259383,0.0,0.18808407,1099.597,860.2564,1045.6044,986.3736,688.20514,0.016357421875,-0.01068115234375,0.9901123046875,2.340240478515625,-2.79632568359375,1.697235107421875,1.0,2.0,1.0,4.0,2.0,80.0,event
11:48:24.828,0.36643657,0.76875716,0.0,0.64727104,0.75155216,0.7839236,0.0,0.5678944,0.8062958,0.5558771,0.0,0.6135556,0.5722181,0.56998676,0.0,0.51877517,0.44008476,-0.010259383,0.0,0.18808407,983.5531,853.8095,710.3663,960.989,864.68866,0.016357421875,-0.01068115234375,0.9901123046875,2.340240478515625,-2.79632568359375,1.697235107421875,1.0,2.0,1.0,4.0,2.0,80.0,event
11:48:24.829,0.36643657,0.76875716,0.0,0.64727104,0.75155216,0.7839236,0.0,0.5678944,0.8062958,0.5558771,0.0,0.6135556,0.5722181,0.56998676,0.0,0.51877517,0.44008476,-0.010259383,0.0,0.18808407,848.97437,851.39197,202.27106,942.8571,1088.7179,0.016357421875,-0.01068115234375,0.9901123046875,2.340240478515625,-2.79632568359375,1.697235107421875,1.0,2.0,1.0,4.0,2.0,80.0,event
11:48:24.830,0.36643657,0.76875716,0.0,0.64727104,0.75155216,0.7839236,0.0,0.5678944,0.8062958,0.5558771,0.0,0.6135556,0.5722181,0.56998676,0.0,0.51877517,0.44008476,-0.010259383,0.0,0.18808407,988.3883,909.81683,1117.326,942.4542,717.619,0.016357421875,-0.01068115234375,0.9901123046875,2.340240478515625,-2.79632568359375,1.697235107421875,1.0,2.0,1.0,4.0,2.0,80.0,event
11:48:24.830,0.36643657,0.76875716,0.0,0.64727104,0.75155216,0.7839236,0.0,0.5678944,0.8062958,0.5558771,0.0,0.6135556,0.5722181,0.56998676,0.0,0.51877517,0.44008476,-0.010259383,0.0,0.18808407,871.9414,894.5055,572.1612,940.4396,864.2857,0.016357421875,-0.01068115234375,0.9901123046875,2.340240478515625,-2.79632568359375,1.697235107421875,1.0,2.0,1.0,4.0,2.0,80.0,event
11:48:24.831,0.36643657,0.76875716,0.0,0.64727104,0.75155216,0.7839236,0.0,0.5678944,0.8062958,0.5558771,0.0,0.6135556,0.5722181,0.56998676,0.0,0.51877517,0.44008476,-0.010259383,0.0,0.18808407,1060.1099,890.87915,1022.23444,944.87177,821.5751,0.016357421875,-0.01068115234375,0.9901123046875,2.340240478515625,-2.79632568359375,1.697235107421875,1.0,2.0,1.0,4.0,2.0,80.0,event
11:48:24.832,0.36643657,0.76875716,0.0,0.64727104,0.75155216,0.7839236,0.0,0.5678944,0.8062958,0.5558771,0.0,0.6135556,0.5722181,0.56998676,0.0,0.51877517,0.44008476,-0.010259383,0.0,0.18808407,978.71796,896.52014,794.9817,929.15753,793.36993,0.016357421875,-0.01068115234375,0.9901123046875,2.340240478515625,-2.79632568359375,1.697235107421875,1.0,2.0,1.0,4.0,2.0,80.0,event
11:48:24.832,0.36643657,0.76875716,0.0,0.64727104,0.75155216,0.7839236,0.0,0.5678944,0.8062958,0.5558771,0.0,0.6135556,0.5722181,0.56998676,0.0,0.51877517,0.44008476,-0.010259383,0.0,0.18808407,846.55676,906.1905,697.47253,913.8461,758.71796,0.016357421875,-0.01068115234375,0.9901123046875,2.340240478515625,-2.79632568359375,1.697235107421875,1.0,2.0,1.0,4.0,2.0,80.0,event
11:48:24.870,0.36643657,0.76875716,0.0,0.64727104,0.75155216,0.7839236,0.0,0.5678944,0.8062958,0.5558771,0.0,0.6135556,0.5722181,0.56998676,0.0,0.51877517,0.44008476,-0.010259383,0.0,0.18808407,834.87177,917.8755,826.0073,920.696,786.9231,0.025146484375,-0.01824951171875,0.98333740234375,1.338348388671875,-2.52716064453125,-0.55328369140625,1.0,2.0,1.0,4.0,2.0,80.0,event
11:48:24.871,0.36643657,0.76875716,0.0,0.64727104,0.75155216,0.7839236,0.0,0.5678944,0.8062958,0.5558771,0.0,0.6135556,0.5722181,0.56998676,0.0,0.51877517,0.44008476,-0.010259383,0.0,0.18808407,946.4835,918.2784,911.4286,927.5458,847.3626,0.025146484375,-0.01824951171875,0.98333740234375,1.338348388671875,-2.52716064453125,-0.55328369140625,1.0,2.0,1.0,4.0,2.0,80.0,event
11:48:24.872,0.36643657,0.76875716,0.0,0.64727104,0.75155216,0.7839236,0.0,0.5678944,0.8062958,0.5558771,0.0,0.6135556,0.5722181,0.56998676,0.0,0.51877517,0.44008476,-0.010259383,0.0,0.18808407,1046.8132,916.26373,740.58606,929.5604,860.65936,0.025146484375,-0.01824951171875,0.98333740234375,1.338348388671875,-2.52716064453125,-0.55328369140625,1.0,2.0,1.0,4.0,2.0,80.0,event
11:48:24.872,0.36643657,0.76875716,0.0,0.64727104,0.75155216,0.7839236,0.0,0.5678944,0.8062958,0.5558771,0.0,0.6135556,0.5722181,0.56998676,0.0,0.51877517,0.44008476,-0.010259383,0.0,0.18808407,981.9414,928.7546,757.50916,916.26373,771.2088,0.025146484375,-0.01824951171875,0.98333740234375,1.338348388671875,-2.52716064453125,-0.55328369140625,1.0,2.0,1.0,4.0,2.0,80.0,event
11:48:24.873,0.36643657,0.76875716,0.0,0.64727104,0.75155216,0.7839236,0.0,0.5678944,0.8062958,0.5558771,0.0,0.6135556,0.5722181,0.56998676,0.0,0.51877517,0.44008476,-0.010259383,0.0,0.18808407,843.73627,928.3516,887.25275,900.14655,726.4835,0.025146484375,-0.01824951171875,0.98333740234375,1.338348388671875,-2.52716064453125,-0.55328369140625,1.0,2.0,1.0,4.0,2.0,80.0,event
11:48:24.874,0.36643657,0.76875716,0.0,0.64727104,0.75155216,0.7839236,0.0,0.5678944,0.8062958,0.5558771,0.0,0.6135556,0.5722181,0.56998676,0.0,0.51877517,0.44008476,-0.010259383,0.0,0.18808407,806.6667,905.78754,633.00366,904.57874,900.14655,0.025146484375,-0.01824951171875,0.98333740234375,1.338348388671875,-2.52716064453125,-0.55328369140625,1.0,2.0,1.0,4.0,2.0,80.0,event
11:48:24.876,,,,,,,,,,,,,,,,,,,,,,,,,,,,,,,,,,,,,,blink
11:48:24.878,0.36643657,0.76875716,0.0,0.64727104,0.75155216,0.7839236,0.0,0.5678944,0.8062958,0.5558771,0.0,0.6135556,0.5722181,0.56998676,0.0,0.51877517,0.44008476,-0.010259383,0.0,0.18808407,899.7436,911.8315,347.72894,909.81683,1080.6593,0.025146484375,-0.01824951171875,0.98333740234375,1.338348388671875,-2.52716064453125,-0.55328369140625,1.0,2.0,1.0,4.0,2.0,80.0,event
11:48:24.879,0.36643657,0.76875716,0.0,0.64727104,0.75155216,0.7839236,0.0,0.5678944,0.8062958,0.5558771,0.0,0.6135556,0.5722181,0.56998676,0.0,0.51877517,0.44008476,-0.010259383,0.0,0.18808407,1023.44324,940.84247,835.6777,912.6374,812.3077,0.025146484375,-0.01824951171875,0.98333740234375,1.338348388671875,-2.52716064453125,-0.55328369140625,1.0,2.0,1.0,4.0,2.0,80.0,event
11:48:24.880,0.36643657,0.76875716,0.0,0.64727104,0.75155216,0.7839236,0.0,0.5678944,0.8062958,0.5558771,0.0,0.6135556,0.5722181,0.56998676,0.0,0.51877517,0.44008476,-0.010259383,0.0,0.18808407,823.9927,906.99634,523.4066,886.04395,759.12085,0.025146484375,-0.01824951171875,0.98333740234375,1.338348388671875,-2.52716064453125,-0.55328369140625,1.0,2.0,1.0,4.0,2.0,80.0,event
11:48:24.880,0.36643657,0.76875716,0.0,0.64727104,0.75155216,0.7839236,0.0,0.5678944,0.8062958,0.5558771,0.0,0.6135556,0.5722181,0.56998676,0.0,0.51877517,0.44008476,-0.010259383,0.0,0.18808407,984.35895,931.978,990.40295,901.3553,650.7326,0.025146484375,-0.01824951171875,0.98333740234375,1.338348388671875,-2.52716064453125,-0.55328369140625,1.0,2.0,1.0,4.0,2.0,80.0,event
11:48:24.881,0.36643657,0.76875716,0.0,0.64727104,0.75155216,0.7839236,0.0,0.5678944,0.8062958,0.5558771,0.0,0.6135556,0.5722181,0.56998676,0.0,0.51877517,0.44008476,-0.010259383,0.0,0.18808407,774.83514,919.0842,615.6777,886.4469,745.42126,0.025146484375,-0.01824951171875,0.98333740234375,1.338348388671875,-2.52716064453125,-0.55328369140625,1.0,2.0,1.0,4.0,2.0,80.0,event
11:48:24.882,0.36643657,0.76875716,0.0,0.64727104,0.75155216,0.7839236,0.0,0.5678944,0.8062958,0.5558771,0.0,0.6135556,0.5722181,0.56998676,0.0,0.51877517,0.44008476,-0.010259383,0.0,0.18808407,873.95605,927.1429,997.25275,895.31134,630.989,0.025146484375,-0.01824951171875,0.98333740234375,1.338348388671875,-2.52716064453125,-0.55328369140625,1.0,2.0,1.0,4.0,2.0,80.0,event
11:48:24.931,0.36643657,0.76875716,0.0,0.64727104,0.75155216,0.7839236,0.0,0.5678944,0.8062958,0.5558771,0.0,0.6135556,0.5722181,0.56998676,0.0,0.51877517,0.44008476,-0.010259383,0.0,0.18808407,990.0,912.23444,986.77655,906.1905,694.65204,0.025146484375,-0.01824951171875,0.98333740234375,1.338348388671875,-2.52716064453125,-0.55328369140625,1.0,2.0,1.0,4.0,2.0,80.0,event
11:48:24.933,0.36643657,0.76875716,0.0,0.64727104,0.75155216,0.7839236,0.0,0.5678944,0.8062958,0.5558771,0.0,0.6135556,0.5722181,0.56998676,0.0,0.51877517,0.44008476,-0.010259383,0.0,0.18808407,968.6447,904.9817,803.0403,896.52014,830.84247,0.025146484375,-0.01824951171875,0.98333740234375,1.338348388671875,-2.52716064453125,-0.55328369140625,1.0,2.0,1.0,4.0,2.0,80.0,event
11:48:24.934,0.36643657,0.76875716,0.0,0.64727104,0.75155216,0.7839236,0.0,0.5678944,0.8062958,0.5558771,0.0,0.6135556,0.5722181,0.56998676,0.0,0.51877517,0.44008476,-0.010259383,0.0,0.18808407,828.022,900.54944,678.5348,875.56775,801.4286,0.025146484375,-0.01824951171875,0.98333740234375,1.338348388671875,-2.52716064453125,-0.55328369140625,1.0,2.0,1.0,4.0,2.0,80.0,event
11:48:24.936,0.36643657,0.76875716,0.0,0.64727104,0.75155216,0.7839236,0.0,0.5678944,0.8062958,0.5558771,0.0,0.6135556,0.5722181,0.56998676,0.0,0.51877517,0.44008476,-0.010259383,0.0,0.18808407,762.74725,905.38464,744.61536,874.7619,747.8388,0.025146484375,-0.01824951171875,0.98333740234375,1.338348388671875,-2.52716064453125,-0.55328369140625,1.0,2.0,1.0,4.0,2.0,80.0,event
11:48:24.937,0.36643657,0.76875716,0.0,0.64727104,0.75155216,0.7839236,0.0,0.5678944,0.8062958,0.5558771,0.0,0.6135556,0.5722181,0.56998676,0.0,0.51877517,0.44008476,-0.010259383,0.0,0.18808407,838.9011,895.7143,934.3956,880.0,773.6264,0.025146484375,-0.01824951171875,0.98333740234375,1.338348388671875,-2.52716064453125,-0.55328369140625,1.0,2.0,1.0,4.0,2.0,80.0,event
11:48:24.938,0.36643657,0.76875716,0.0,0.64727104,0.75155216,0.7839236,0.0,0.5678944,0.8062958,0.5558771,0.0,0.6135556,0.5722181,0.56998676,0.0,0.51877517,0.44008476,-0.010259383,0.0,0.18808407,946.08057,855.82416,466.99634,893.2967,1049.2307,0.025146484375,-0.01824951171875,0.98333740234375,1.338348388671875,-2.52716064453125,-0.55328369140625,1.0,2.0,1.0,4.0,2.0,80.0,event
11:48:24.939,0.36643657,0.76875716,0.0,0.64727104,0.75155216,0.7839236,0.0,0.5678944,0.8062958,0.5558771,0.0,0.6135556,0.5722181,0.56998676,0.0,0.51877517,0.44008476,-0.010259383,0.0,0.18808407,949.707,873.95605,336.84982,885.64105,963.00366,0.025146484375,-0.01824951171875,0.98333740234375,1.338348388671875,-2.52716064453125,-0.55328369140625,1.0,2.0,1.0,4.0,2.0,80.0,event
11:48:24.940,0.36643657,0.76875716,0.0,0.64727104,0.75155216,0.7839236,0.0,0.5678944,0.8062958,0.5558771,0.0,0.6135556,0.5722181,0.56998676,0.0,0.51877517,0.44008476,-0.010259383,0.0,0.18808407,838.9011,902.1612,794.17584,856.2271,674.5055,0.025146484375,-0.01824951171875,0.98333740234375,1.338348388671875,-2.52716064453125,-0.55328369140625,1.0,2.0,1.0,4.0,2.0,80.0,event
11:48:24.941,0.36643657,0.76875716,0.0,0.64727104,0.75155216,0.7839236,0.0,0.5678944,0.8062958,0.5558771,0.0,0.6135556,0.5722181,0.56998676,0.0,0.51877517,0.44008476,-0.010259383,0.0,0.18808407,806.6667,862.674,456.52014,870.7326,876.77655,0.025146484375,-0.01824951171875,0.98333740234375,1.338348388671875,-2.52716064453125,-0.55328369140625,1.0,2.0,1.0,4.0,2.0,80.0,event
11:48:24.941,0.36643657,0.76875716,0.0,0.64727104,0.75155216,0.7839236,0.0,0.5678944,0.8062958,0.5558771,0.0,0.6135556,0.5722181,0.56998676,0.0,0.51877517,0.44008476,-0.010259383,0.0,0.18808407,756.30035,880.0,795.78754,854.61536,722.4542,0.025146484375,-0.01824951171875,0.98333740234375,1.338348388671875,-2.52716064453125,-0.55328369140625,1.0,2.0,1.0,4.0,2.0,80.0,event
11:48:24.942,0.36643657,0.76875716,0.0,0.64727104,0.75155216,0.7839236,0.0,0.5678944,0.8062958,0.5558771,0.0,0.6135556,0.5722181,0.56998676,0.0,0.51877517,0.44008476,-0.010259383,0.0,0.18808407,938.022,880.40295,844.1392,877.1795,795.78754,0.025146484375,-0.01824951171875,0.98333740234375,1.338348388671875,-2.52716064453125,-0.55328369140625,1.0,2.0,1.0,4.0,2.0,80.0,event
11:48:24.943,0.36643657,0.76875716,0.0,0.64727104,0.75155216,0.7839236,0.0,0.5678944,0.8062958,0.5558771,0.0,0.6135556,0.5722181,0.56998676,0.0,0.51877517,0.44008476,-0.010259383,0.0,0.18808407,965.82416,875.16486,1107.6556,867.9121,745.82416,0.025146484375,-0.01824951171875,0.98333740234375,1.338348388671875,-2.52716064453125,-0.55328369140625,1.0,2.0,1.0,4.0,2.0,80.0,event
11:48:24.971,0.36643657,0.76875716,0.0,0.64727104,0.75155216,0.7839236,0.0,0.5678944,0.8062958,0.5558771,0.0,0.6135556,0.5722181,0.56998676,0.0,0.51877517,0.44008476,-0.010259383,0.0,0.18808407,835.2747,855.42126,772.4176,848.1685,775.2381,0.0184326171875,-0.01336669921875,0.99285888671875,2.61688232421875,-2.280426025390625,1.27105712890625,1.0,2.0,1.0,4.0,2.0,80.0,event
11:48:24.973,0.36643657,0.76875716,0.0,0.64727104,0.75155216,0.7839236,0.0,0.5678944,0.8062958,0.5558771,0.0,0.6135556,0.5722181,0.56998676,0.0,0.51877517,0.44008476,-0.010259383,0.0,0.18808407,732.52747,859.45056,762.3443,839.304,783.2967,0.0184326171875,-0.01336669921875,0.99285888671875,2.61688232421875,-2.280426025390625,1.27105712890625,1.0,2.0,1.0,4.0,2.0,80.0,event
11:48:24.973,0.36643657,0.76875716,0.0,0.64727104,0.75155216,0.7839236,0.0,0.5678944,0.8062958,0.5558771,0.0,0.6135556,0.5722181,0.56998676,0.0,0.51877517,0.44008476,-0.010259383,0.0,0.18808407,786.1172,861.06226,993.6264,849.3773,746.2271,0.0184326171875,-0.01336669921875,0.99285888671875,2.61688232421875,-2.280426025390625,1.27105712890625,1.0,2.0,1.0,4.0,2.0,80.0,event
11:48:24.974,0.36643657,0.76875716,0.0,0.64727104,0.75155216,0.7839236,0.0,0.5678944,0.8062958,0.5558771,0.0,0.6135556,0.5722181,0.56998676,0.0,0.51877517,0.44008476,-0.010259383,0.0,0.18808407,918.2784,850.58606,1077.033,863.0769,749.45056,0.0184326171875,-0.01336669921875,0.99285888671875,2.61688232421875,-2.280426025390625,1.27105712890625,1.0,2.0,1.0,4.0,2.0,80.0,event
11:48:24.975,0.36643657,0.76875716,0.0,0.64727104,0.75155216,0.7839236,0.0,0.5678944,0.8062958,0.5558771,0.0,0.6135556,0.5722181,0.56998676,0.0,0.51877517,0.44008476,-0.010259383,0.0,0.18808407,945.6777,835.6777,867.1062,860.2564,822.7839,0.0184326171875,-0.01336669921875,0.99285888671875,2.61688232421875,-2.280426025390625,1.27105712890625,1.0,2.0,1.0,4.0,2.0,80.0,event
11:48:24.975,0.36643657,0.76875716,0.0,0.64727104,0.75155216,0.7839236,0.0,0.5678944,0.8062958,0.5558771,0.0,0.6135556,0.5722181,0.56998676,0.0,0.51877517,0.44008476,-0.010259383,0.0,0.18808407,811.9048,835.2747,492.38095,838.0952,806.26373,0.0184326171875,-0.01336669921875,0.99285888671875,2.61688232421875,-2.280426025390625,1.27105712890625,1.0,2.0,1.0,4.0,2.0,80.0,event
11:48:24.976,0.36643657,0.76875716,0.0,0.64727104,0.75155216,0.7839236,0.0,0.5678944,0.8062958,0.5558771,0.0,0.6135556,0.5722181,0.56998676,0.0,0.51877517,0.44008476,-0.010259383,0.0,0.18808407,715.2015,844.1392,455.7143,825.2015,746.63007,0.0184326171875,-0.01336669921875,0.99285888671875,2.61688232421875,-2.280426025390625,1.27105712890625,1.0,2.0,1.0,4.0,2.0,80.0,event
11:48:24.977,0.36643657,0.76875716,0.0,0.64727104,0.75155216,0.7839236,0.0,0.5678944,0.8062958,0.5558771,0.0,0.6135556,0.5722181,0.56998676,0.0,0.51877517,0.44008476,-0.010259383,0.0,0.18808407,756.7033,845.34796,644.2857,834.87177,768.7912,0.0184326171875,-0.01336669921875,0.99285888671875,2.61688232421875,-2.280426025390625,1.27105712890625,1.0,2.0,1.0,4.0,2.0,80.0,event
11:48:24.982,0.36643657,0.76875716,0.0,0.64727104,0.75155216,0.7839236,0.0,0.5678944,0.8062958,0.5558771,0.0,0.6135556,0.5722181,0.56998676,0.0,0.51877517,0.44008476,-0.010259383,0.0,0.18808407,883.22345,833.2601,562.49084,848.1685,936.4103,0.0184326171875,-0.01336669921875,0.99285888671875,2.61688232421875,-2.280426025390625,1.27105712890625,1.0,2.0,1.0,4.0,2.0,80.0,event
11:48:24.983,0.36643657,0.76875716,0.0,0.64727104,0.75155216,0.7839236,0.0,0.5678944,0.8062958,0.5558771,0.0,0.6135556,0.5722181,0.56998676,0.0,0.51877517,0.44008476,-0.010259383,0.0,0.18808407,946.4835,835.2747,430.7326,847.3626,971.4652,0.0184326171875,-0.01336669921875,0.99285888671875,2.61688232421875,-2.280426025390625,1.27105712890625,1.0,2.0,1.0,4.0,2.0,80.0,event
11:48:24.984,0.36643657,0.76875716,0.0,0.64727104,0.75155216,0.7839236,0.0,0.5678944,0.8062958,0.5558771,0.0,0.6135556,0.5722181,0.56998676,0.0,0.51877517,0.44008476,-0.010259383,0.0,0.18808407,849.7802,853.8095,775.64105,830.84247,749.0476,0.0184326171875,-0.01336669921875,0.99285888671875,2.61688232421875,-2.280426025390625,1.27105712890625,1.0,2.0,1.0,4.0,2.0,80.0,event
11:48:24.985,0.36643657,0.76875716,0.0,0.64727104,0.75155216,0.7839236,0.0,0.5678944,0.8062958,0.5558771,0.0,0.6135556,0.5722181,0.56998676,0.0,0.51877517,0.44008476,-0.010259383,0.0,0.18808407,732.9304,843.73627,913.44324,819.9634,698.2784,0.0184326171875,-0.01336669921875,0.99285888671875,2.61688232421875,-2.280426025390625,1.27105712890625,1.0,2.0,1.0,4.0,2.0,80.0,event
11:48:24.987,0.36643657,0.76875716,0.0,0.64727104,0.75155216,0.7839236,0.0,0.5678944,0.8062958,0.5558771,0.0,0.6135556,0.5722181,0.56998676,0.0,0.51877517,0.44008476,-0.010259383,0.0,0.18808407,736.55676,808.68134,542.3443,830.84247,851.79486,0.01605224609375,-0.00933837890625,0.9884033203125,2.64678955078125,-2.49725341796875,0.22430419921875,1.0,2.0,1.0,4.0,2.0,80.0,event
11:48:24.989,0.36643657,0.76875716,0.0,0.64727104,0.75155216,0.7839236,0.0,0.5678944,0.8062958,0.5558771,0.0,0.6135556,0.5722181,0.56998676,0.0,0.51877517,0.44008476,-0.010259383,0.0,0.18808407,870.32965,826.8132,672.49084,846.55676,824.7985,0.01605224609375,-0.00933837890625,0.9884033203125,2.64678955078125,-2.49725341796875,0.22430419921875,1.0,2.0,1.0,4.0,2.0,80.0,event
11:48:24.990,0.36643657,0.76875716,0.0,0.64727104,0.75155216,0.7839236,0.0,0.5678944,0.8062958,0.5558771,0.0,0.6135556,0.5722181,0.56998676,0.0,0.51877517,0.44008476,-0.010259383,0.0,0.18808407,963.8095,841.7216,1067.7656,843.73627,730.5128,0.01605224609375,-0.00933837890625,0.9884033203125,2.64678955078125,-2.49725341796875,0.22430419921875,1.0,2.0,1.0,4.0,2.0,80.0,event
11:48:24.991,0.36643657,0.76875716,0.0,0.64727104,0.75155216,0.7839236,0.0,0.5678944,0.8062958,0.5558771,0.0,0.6135556,0.5722181,0.56998676,0.0,0.51877517,0.44008476,-0.010259383,0.0,0.18808407,865.4945,814.3223,848.5714,826.0073,729.707,0.01605224609375,-0.00933837890625,0.9884033203125,2.64678955078125,-2.49725341796875,0.22430419921875,1.0,2.0,1.0,4.0,2.0,80.0,event
11:48:24.991,0.36643657,0.76875716,0.0,0.64727104,0.75155216,0.7839236,0.0,0.5678944,0.8062958,0.5558771,0.0,0.6135556,0.5722181,0.56998676,0.0,0.51877517,0.44008476,-0.010259383,0.0,0.18808407,734.94507,809.4872,624.5421,821.5751,745.42126,0.01605224609375,-0.00933837890625,0.9884033203125,2.64678955078125,-2.49725341796875,0.22430419921875,1.0,2.0,1.0,4.0,2.0,80.0,event
11:48:24.992,0.36643657,0.76875716,0.0,0.64727104,0.75155216,0.7839236,0.0,0.5678944,0.8062958,0.5558771,0.0,0.6135556,0.5722181,0.56998676,0.0,0.51877517,0.44008476,-0.010259383,0.0,0.18808407,739.7802,811.9048,603.5897,830.84247,803.44324,0.01605224609375,-0.00933837890625,0.9884033203125,2.64678955078125,-2.49725341796875,0.22430419921875,1.0,2.0,1.0,4.0,2.0,80.0,event
11:48:24.993,0.36643657,0.76875716,0.0,0.64727104,0.75155216,0.7839236,0.0,0.5678944,0.8062958,0.5558771,0.0,0.6135556,0.5722181,0.56998676,0.0,0.51877517,0.44008476,-0.010259383,0.0,0.18808407,852.6007,818.3516,718.4249,843.3333,819.15753,0.01605224609375,-0.00933837890625,0.9884033203125,2.64678955078125,-2.49725341796875,0.22430419921875,1.0,2.0,1.0,4.0,2.0,80.0,event
11:48:24.993,0.36643657,0.76875716,0.0,0.64727104,0.75155216,0.7839236,0.0,0.5678944,0.8062958,0.5558771,0.0,0.6135556,0.5722181,0.56998676,0.0,0.51877517,0.44008476,-0.010259383,0.0,0.18808407,943.663,815.12823,882.4176,843.73627,829.6337,0.01605224609375,-0.00933837890625,0.9884033203125,2.64678955078125,-2.49725341796875,0.22430419921875,1.0,2.0,1.0,4.0,2.0,80.0,event
11:48:24.994,0.36643657,0.76875716,0.0,0.64727104,0.75155216,0.7839236,0.0,0.5678944,0.8062958,0.5558771,0.0,0.6135556,0.5722181,0.56998676,0.0,0.51877517,0.44008476,-0.010259383,0.0,0.18808407,730.5128,805.8608,281.24542,807.0696,909.41394,0.01605224609375,-0.00933837890625,0.9884033203125,2.64678955078125,-2.49725341796875,0.22430419921875,1.0,2.0,1.0,4.0,2.0,80.0,event
11:48:24.994,0.36643657,0.76875716,0.0,0.64727104,0.75155216,0.7839236,0.0,0.5678944,0.8062958,0.5558771,0.0,0.6135556,0.5722181,0.56998676,0.0,0.51877517,0.44008476,-0.010259383,0.0,0.18808407,853.8095,784.90845,343.69965,819.15753,1046.0073,0.01605224609375,-0.00933837890625,0.9884033203125,2.64678955078125,-2.49725341796875,0.22430419921875,1.0,2.0,1.0,4.0,2.0,80.0,event
11:48:24.995,0.36643657,0.76875716,0.0,0.64727104,0.75155216,0.7839236,0.0,0.5678944,0.8062958,0.5558771,0.0,0.6135556,0.5722181,0.56998676,0.0,0.51877517,0.44008476,-0.010259383,0.0,0.18808407,726.08057,827.2161,885.2381,816.337,637.8388,0.01605224609375,-0.00933837890625,0.9884033203125,2.64678955078125,-2.49725341796875,0.22430419921875,1.0,2.0,1.0,4.0,2.0,80.0,event
11:48:24.996,0.36643657,0.76875716,0.0,0.64727104,0.75155216,0.7839236,0.0,0.5678944,0.8062958,0.5558771,0.0,0.6135556,0.5722181,0.56998676,0.0,0.51877517,0.44008476,-0.010259383,0.0,0.18808407,825.6044,805.4579,920.696,828.8278,729.304,0.01605224609375,-0.00933837890625,0.9884033203125,2.64678955078125,-2.49725341796875,0.22430419921875,1.0,2.0,1.0,4.0,2.0,80.0,event
11:48:25.030,0.36643657,0.76875716,0.0,0.64727104,0.75155216,0.7839236,0.0,0.5678944,0.8062958,0.5558771,0.0,0.6135556,0.5722181,0.56998676,0.0,0.51877517,0.44008476,-0.010259383,0.0,0.18808407,933.9927,797.8022,744.61536,837.6923,835.2747,0.023193359375,-0.01580810546875,0.9921875,2.175750732421875,-3.349609375,1.233673095703125,1.0,2.0,1.0,4.0,2.0,80.0,event
11:48:25.031,0.36643657,0.76875716,0.0,0.64727104,0.75155216,0.7839236,0.0,0.5678944,0.8062958,0.5558771,0.0,0.6135556,0.5722181,0.56998676,0.0,0.51877517,0.44008476,-0.010259383,0.0,0.18808407,894.5055,802.23444,871.9414,821.5751,745.82416,0.023193359375,-0.01580810546875,0.9921875,2.175750732421875,-3.349609375,1.233673095703125,1.0,2.0,1.0,4.0,2.0,80.0,event
11:48:25.031,0.36643657,0.76875716,0.0,0.64727104,0.75155216,0.7839236,0.0,0.5678944,0.8062958,0.5558771,0.0,0.6135556,0.5722181,0.56998676,0.0,0.51877517,0.44008476,-0.010259383,0.0,0.18808407,757.1062,798.20514,923.5165,796.1905,697.47253,0.023193359375,-0.01580810546875,0.9921875,2.175750732421875,-3.349609375,1.233673095703125,1.0,2.0,1.0,4.0,2.0,80.0,event
11:48:25.032,0.36643657,0.76875716,0.0,0.64727104,0.75155216,0.7839236,0.0,0.5678944,0.8062958,0.5558771,0.0,0.6135556,0.5722181,0.56998676,0.0,0.51877517,0.44008476,-0.010259383,0.0,0.18808407,706.337,786.9231,813.1135,797.8022,740.989,0.023193359375,-0.01580810546875,0.9921875,2.175750732421875,-3.349609375,1.233673095703125,1.0,2.0,1.0,4.0,2.0,80.0,event
11:48:25.032,0.36643657,0.76875716,0.0,0.64727104,0.75155216,0.7839236,0.0,0.5678944,0.8062958,0.5558771,0.0,0.6135556,0.5722181,0.56998676,0.0,0.51877517,0.44008476,-0.010259383,0.0,0.18808407,803.44324,792.96704,884.83514,818.7546,745.42126,0.023193359375,-0.01580810546875,0.9921875,2.175750732421875,-3.349609375,1.233673095703125,1.0,2.0,1.0,4.0,2.0,80.0,event
11:48:25.033,0.36643657,0.76875716,0.0,0.64727104,0.75155216,0.7839236,0.0,0.5678944,0.8062958,0.5558771,0.0,0.6135556,0.5722181,0.56998676,0.0,0.51877517,0.44008476,-0.010259383,0.0,0.18808407,923.1135,789.34064,872.74725,833.663,846.9597,0.023193359375,-0.01580810546875,0.9921875,2.175750732421875,-3.349609375,1.233673095703125,1.0,2.0,1.0,4.0,2.0,80.0,event
11:48:25.033,0.36643657,0.76875716,0.0,0.64727104,0.75155216,0.7839236,0.0,0.5678944,0.8062958,0.5558771,0.0,0.6135556,0.5722181,0.56998676,0.0,0.51877517,0.44008476,-0.010259383,0.0,0.18808407,880.40295,774.43225,729.707,822.381,896.9231,0.023193359375,-0.01580810546875,0.9921875,2.175750732421875,-3.349609375,1.233673095703125,1.0,2.0,1.0,4.0,2.0,80.0,event
11:48:25.034,0.36643657,0.76875716,0.0,0.64727104,0.75155216,0.7839236,0.0,0.5678944,0.8062958,0.5558771,0.0,0.6135556,0.5722181,0.56998676,0.0,0.51877517,0.44008476,-0.010259383,0.0,0.18808407,743.4066,758.315,475.8608,823.9927,904.17584,0.023193359375,-0.01580810546875,0.9921875,2.175750732421875,-3.349609375,1.233673095703125,1.0,2.0,1.0,4.0,2.0,80.0,event
11:48:25.035,0.36643657,0.76875716,0.0,0.64727104,0.75155216,0.7839236,0.0,0.5678944,0.8062958,0.5558771,0.0,0.6135556,0.5722181,0.56998676,0.0,0.51877517,0.44008476,-0.010259383,0.0,0.18808407,699.4872,778.46155,251.02563,823.1868,974.2857,0.023193359375,-0.01580810546875,0.9921875,2.175750732421875,-3.349609375,1.233673095703125,1.0,2.0,1.0,4.0,2.0,80.0,event
11:48:25.035,0.36643657,0.76875716,0.0,0.64727104,0.75155216,0.7839236,0.0,0.5678944,0.8062958,0.5558771,0.0,0.6135556,0.5722181,0.56998676,0.0,0.51877517,0.44008476,-0.010259383,0.0,0.18808407,778.0586,811.0989,740.18317,804.65204,779.2674,0.023193359375,-0.01580810546875,0.9921875,2.175750732421875,-3.349609375,1.233673095703125,1.0,2.0,1.0,4.0,2.0,80.0,event
11:48:25.038,0.36643657,0.76875716,0.0,0.64727104,0.75155216,0.7839236,0.0,0.5678944,0.8062958,0.5558771,0.0,0.6135556,0.5722181,0.56998676,0.0,0.51877517,0.44008476,-0.010259383,0.0,0.18808407,909.81683,792.1612,1039.1575,816.337,684.17584,0.023193359375,-0.01580810546875,0.9921875,2.175750732421875,-3.349609375,1.233673095703125,1.0,2.0,1.0,4.0,2.0,80.0,event
11:48:25.039,0.36643657,0.76875716,0.0,0.64727104,0.75155216,0.7839236,0.0,0.5678944,0.8062958,0.5558771,0.0,0.6135556,0.5722181,0.56998676,0.0,0.51877517,0.44008476,-0.010259383,0.0,0.18808407,905.78754,765.56775,672.0879,819.9634,799.81683,0.023193359375,-0.01580810546875,0.9921875,2.175750732421875,-3.349609375,1.233673095703125,1.0,2.0,1.0,4.0,2.0,80.0,event
11:48:25.080,0.36643657,0.76875716,0.0,0.64727104,0.75155216,0.7839236,0.0,0.5678944,0.8062958,0.5558771,0.0,0.6135556,0.5722181,0.56998676,0.0,0.51877517,0.44008476,-0.010259383,0.0,0.18808407,768.3883,781.28204,533.8828,795.38464,827.2161,0.01885986328125,-0.015625,0.97991943359375,2.4822998046875,-3.0206298828125,0.179443359375,1.0,2.0,1.0,4.0,2.0,80.0,event
11:48:25.081,0.36643657,0.76875716,0.0,0.64727104,0.75155216,0.7839236,0.0,0.5678944,0.8062958,0.5558771,0.0,0.6135556,0.5722181,0.56998676,0.0,0.51877517,0.44008476,-0.010259383,0.0,0.18808407,695.05493,804.65204,867.9121,786.52014,719.6337,0.01885986328125,-0.015625,0.97991943359375,2.4822998046875,-3.0206298828125,0.179443359375,1.0,2.0,1.0,4.0,2.0,80.0,event
11:48:25.082,0.36643657,0.76875716,0.0,0.64727104,0.75155216,0.7839236,0.0,0.5678944,0.8062958,0.5558771,0.0,0.6135556,0.5722181,0.56998676,0.0,0.51877517,0.44008476,-0.010259383,0.0,0.18808407,757.9121,788.5348,973.0769,805.8608,729.707,0.01885986328125,-0.015625,0.97991943359375,2.4822998046875,-3.0206298828125,0.179443359375,1.0,2.0,1.0,4.0,2.0,80.0,event
11:48:25.083,0.36643657,0.76875716,0.0,0.64727104,0.75155216,0.7839236,0.0,0.5678944,0.8062958,0.5558771,0.0,0.6135556,0.5722181,0.56998676,0.0,0.51877517,0.44008476,-0.010259383,0.0,0.18808407,885.2381,766.3736,660.40295,823.9927,886.04395,0.01885986328125,-0.015625,0.97991943359375,2.4822998046875,-3.0206298828125,0.179443359375,1.0,2.0,1.0,4.0,2.0,80.0,event
11:48:25.084,0.36643657,0.76875716,0.0,0.64727104,0.75155216,0.7839236,0.0,0.5678944,0.8062958,0.5558771,0.0,0.6135556,0.5722181,0.56998676,0.0,0.51877517,0.44008476,-0.010259383,0.0,0.18808407,902.5641,781.685,734.5421,812.3077,828.022,0.01885986328125,-0.015625,0.97991943359375,2.4822998046875,-3.0206298828125,0.179443359375,1.0,2.0,1.0,4.0,2.0,80.0,event
11:48:25.084,0.36643657,0.76875716,0.0,0.64727104,0.75155216,0.7839236,0.0,0.5678944,0.8062958,0.5558771,0.0,0.6135556,0.5722181,0.56998676,0.0,0.51877517,0.44008476,-0.010259383,0.0,0.18808407,773.6264,780.87915,736.1539,786.52014,753.8828,0.01885986328125,-0.015625,0.97991943359375,2.4822998046875,-3.0206298828125,0.179443359375,1.0,2.0,1.0,4.0,2.0,80.0,event
11:48:25.085,0.36643657,0.76875716,0.0,0.64727104,0.75155216,0.7839236,0.0,0.5678944,0.8062958,0.5558771,0.0,0.6135556,0.5722181,0.56998676,0.0,0.51877517,0.44008476,-0.010259383,0.0,0.18808407,685.38464,766.77655,525.0183,785.31134,799.41394,0.01885986328125,-0.015625,0.97991943359375,2.4822998046875,-3.0206298828125,0.179443359375,1.0,2.0,1.0,4.0,2.0,80.0,event
11:48:25.086,0.36643657,0.76875716,0.0,0.64727104,0.75155216,0.7839236,0.0,0.5678944,0.8062958,0.5558771,0.0,0.6135556,0.5722181,0.56998676,0.0,0.51877517,0.44008476,-0.010259383,0.0,0.18808407,743.8095,761.13556,274.79852,807.8755,979.5238,0.01885986328125,-0.015625,0.97991943359375,2.4822998046875,-3.0206298828125,0.179443359375,1.0,2.0,1.0,4.0,2.0,80.0,event
11:48:25.087,0.36643657,0.76875716,0.0,0.64727104,0.75155216,0.7839236,0.0,0.5678944,0.8062958,0.5558771,0.0,0.6135556,0.5722181,0.56998676,0.0,0.51877517,0.44008476,-0.010259383,0.0,0.18808407,880.0,795.38464,612.8571,813.1135,915.4579,0.01885986328125,-0.015625,0.97991943359375,2.4822998046875,-3.0206298828125,0.179443359375,1.0,2.0,1.0,4.0,2.0,80.0,event
11:48:25.088,0.36643657,0.76875716,0.0,0.64727104,0.75155216,0.7839236,0.0,0.5678944,0.8062958,0.5558771,0.0,0.6135556,0.5722181,0.56998676,0.0,0.51877517,0.44008476,-0.010259383,0.0,0.18808407,915.4579,801.02563,996.4469,801.4286,724.0659,0.01885986328125,-0.015625,0.97991943359375,2.4822998046875,-3.0206298828125,0.179443359375,1.0,2.0,1.0,4.0,2.0,80.0,event
11:48:25.089,0.36643657,0.76875716,0.0,0.64727104,0.75155216,0.7839236,0.0,0.5678944,0.8062958,0.5558771,0.0,0.6135556,0.5722181,0.56998676,0.0,0.51877517,0.44008476,-0.010259383,0.0,0.18808407,695.8608,786.9231,763.95605,784.10254,776.04395,0.01885986328125,-0.015625,0.97991943359375,2.4822998046875,-3.0206298828125,0.179443359375,1.0,2.0,1.0,4.0,2.0,80.0,event
11:48:25.089,0.36643657,0.76875716,0.0,0.64727104,0.75155216,0.7839236,0.0,0.5678944,0.8062958,0.5558771,0.0,0.6135556,0.5722181,0.56998676,0.0,0.51877517,0.44008476,-0.010259383,0.0,0.18808407,797.8022,784.5055,814.7253,786.9231,749.0476,0.01885986328125,-0.015625,0.97991943359375,2.4822998046875,-3.0206298828125,0.179443359375,1.0,2.0,1.0,4.0,2.0,80.0,event
11:48:25.113,0.36643657,0.76875716,0.0,0.64727104,0.75155216,0.7839236,0.0,0.5678944,0.8062958,0.5558771,0.0,0.6135556,0.5722181,0.56998676,0.0,0.51877517,0.44008476,-0.010259383,0.0,0.18808407,730.10986,781.685,981.13556,792.96704,747.4359,0.01885986328125,-0.015625,0.97991943359375,2.4822998046875,-3.0206298828125,0.179443359375,1.0,2.0,1.0,4.0,2.0,80.0,event
11:48:25.114,0.36643657,0.76875716,0.0,0.64727104,0.75155216,0.7839236,0.0,0.5678944,0.8062958,0.5558771,0.0,0.6135556,0.5722181,0.56998676,0.0,0.51877517,0.44008476,-0.010259383,0.0,0.18808407,867.50916,776.04395,1073.8096,805.8608,677.72894,0.01885986328125,-0.015625,0.97991943359375,2.4822998046875,-3.0206298828125,0.179443359375,1.0,2.0,1.0,4.0,2.0,80.0,event
11:48:25.115,0.36643657,0.76875716,0.0,0.64727104,0.75155216,0.7839236,0.0,0.5678944,0.8062958,0.5558771,0.0,0.6135556,0.5722181,0.56998676,0.0,0.51877517,0.44008476,-0.010259383,0.0,0.18808407,930.3663,767.98535,805.8608,810.696,689.41394,0.01885986328125,-0.015625,0.97991943359375,2.4822998046875,-3.0206298828125,0.179443359375,1.0,2.0,1.0,4.0,2.0,80.0,event
11:48:25.116,0.36643657,0.76875716,0.0,0.64727104,0.75155216,0.7839236,0.0,0.5678944,0.8062958,0.5558771,0.0,0.6135556,0.5722181,0.56998676,0.0,0.51877517,0.44008476,-0.010259383,0.0,0.18808407,814.3223,773.22345,595.12823,793.7729,827.2161,0.01885986328125,-0.015625,0.97991943359375,2.4822998046875,-3.0206298828125,0.179443359375,1.0,2.0,1.0,4.0,2.0,80.0,event
11:48:25.116,0.36643657,0.76875716,0.0,0.64727104,0.75155216,0.7839236,0.0,0.5678944,0.8062958,0.5558771,0.0,0.6135556,0.5722181,0.56998676,0.0,0.51877517,0.44008476,-0.010259383,0.0,0.18808407,700.293,782.49084,722.8571,780.07324,766.77655,0.01885986328125,-0.015625,0.97991943359375,2.4822998046875,-3.0206298828125,0.179443359375,1.0,2.0,1.0,4.0,2.0,80.0,event
11:48:25.117,0.36643657,0.76875716,0.0,0.64727104,0.75155216,0.7839236,0.0,0.5678944,0.8062958,0.5558771,0.0,0.6135556,0.5722181,0.56998676,0.0,0.51877517,0.44008476,-0.010259383,0.0,0.18808407,720.84247,775.64105,769.19415,792.96704,687.3993,0.01885986328125,-0.015625,0.97991943359375,2.4822998046875,-3.0206298828125,0.179443359375,1.0,2.0,1.0,4.0,2.0,80.0,event
11:48:25.118,0.36643657,0.76875716,0.0,0.64727104,0.75155216,0.7839236,0.0,0.5678944,0.8062958,0.5558771,0.0,0.6135556,0.5722181,0.56998676,0.0,0.51877517,0.44008476,-0.010259383,0.0,0.18808407,843.73627,761.9414,552.01465,814.7253,900.9524,0.01885986328125,-0.015625,0.97991943359375,2.4822998046875,-3.0206298828125,0.179443359375,1.0,2.0,1.0,4.0,2.0,80.0,event
11:48:25.118,0.36643657,0.76875716,0.0,0.64727104,0.75155216,0.7839236,0.0,0.5678944,0.8062958,0.5558771,0.0,0.6135556,0.5722181,0.56998676,0.0,0.51877517,0.44008476,-0.010259383,0.0,0.18808407,914.65204,759.12085,130.54945,825.2015,1134.652,0.01885986328125,-0.015625,0.97991943359375,2.4822998046875,-3.0206298828125,0.179443359375,1.0,2.0,1.0,4.0,2.0,80.0,event
11:48:25.119,0.36643657,0.76875716,0.0,0.64727104,0.75155216,0.7839236,0.0,0.5678944,0.8062958,0.5558771,0.0,0.6135556,0.5722181,0.56998676,0.0,0.51877517,0.44008476,-0.010259383,0.0,0.18808407,839.304,799.011,564.10254,803.0403,880.0,0.01885986328125,-0.015625,0.97991943359375,2.4822998046875,-3.0206298828125,0.179443359375,1.0,2.0,1.0,4.0,2.0,80.0,event
11:48:25.120,0.36643657,0.76875716,0.0,0.64727104,0.75155216,0.7839236,0.0,0.5678944,0.8062958,0.5558771,0.0,0.6135556,0.5722181,0.56998676,0.0,0.51877517,0.44008476,-0.010259383,0.0,0.18808407,724.4689,802.23444,958.5714,787.326,702.71063,0.01885986328125,-0.015625,0.97991943359375,2.4822998046875,-3.0206298828125,0.179443359375,1.0,2.0,1.0,4.0,2.0,80.0,event
11:48:25.121,0.36643657,0.76875716,0.0,0.64727104,0.75155216,0.7839236,0.0,0.5678944,0.8062958,0.5558771,0.0,0.6135556,0.5722181,0.56998676,0.0,0.51877517,0.44008476,-0.010259383,0.0,0.18808407,847.3626,795.38464,877.5824,802.23444,695.4579,0.01885986328125,-0.015625,0.97991943359375,2.4822998046875,-3.0206298828125,0.179443359375,1.0,2.0,1.0,4.0,2.0,80.0,event
11:48:25.121,0.36643657,0.76875716,0.0,0.64727104,0.75155216,0.7839236,0.0,0.5678944,0.8062958,0.5558771,0.0,0.6135556,0.5722181,0.56998676,0.0,0.51877517,0.44008476,-0.010259383,0.0,0.18808407,723.2601,785.7143,722.0513,792.5641,753.8828,0.01885986328125,-0.015625,0.97991943359375,2.4822998046875,-3.0206298828125,0.179443359375,1.0,2.0,1.0,4.0,2.0,80.0,event
11:48:25.209,0.36643657,0.76875716,0.0,0.64727104,0.75155216,0.7839236,0.0,0.5678944,0.8062958,0.5558771,0.0,0.6135556,0.5722181,0.56998676,0.0,0.51877517,0.44008476,-0.010259383,0.0,0.18808407,943.2601,801.4286,1069.7803,805.4579,713.9927,0.0166015625,-0.0106201171875,0.99200439453125,2.13836669921875,-2.332763671875,0.456085205078125,1.0,2.0,1.0,4.0,2.0,80.0,event
11:48:25.211,0.36643657,0.76875716,0.0,0.64727104,0.75155216,0.7839236,0.0,0.5678944,0.8062958,0.5558771,0.0,0.6135556,0.5722181,0.56998676,0.0,0.51877517,0.44008476,-0.010259383,0.0,0.18808407,853.00366,790.14655,930.7692,786.9231,762.74725,0.0166015625,-0.0106201171875,0.99200439453125,2.13836669921875,-2.332763671875,0.456085205078125,1.0,2.0,1.0,4.0,2.0,80.0,event
11:48:25.213,0.36643657,0.76875716,0.0,0.64727104,0.75155216,0.7839236,0.0,0.5678944,0.8062958,0.5558771,0.0,0.6135556,0.5722181,0.56998676,0.0,0.51877517,0.44008476,-0.010259383,0.0,0.18808407,716.4103,784.5055,673.69965,782.8938,772.01465,0.0166015625,-0.0106201171875,0.99200439453125,2.13836669921875,-2.332763671875,0.456085205078125,1.0,2.0,1.0,4.0,2.0,80.0,event
11:48:25.214,0.36643657,0.76875716,0.0,0.64727104,0.75155216,0.7839236,0.0,0.5678944,0.8062958,0.5558771,0.0,0.6135556,0.5722181,0.56998676,0.0,0.51877517,0.44008476,-0.010259383,0.0,0.18808407,714.7985,798.20514,826.0073,795.78754,734.1392,0.0166015625,-0.0106201171875,0.99200439453125,2.13836669921875,-2.332763671875,0.456085205078125,1.0,2.0,1.0,4.0,2.0,80.0,event
11:48:25.217,0.36643657,0.76875716,0.0,0.64727104,0.75155216,0.7839236,0.0,0.5678944,0.8062958,0.5558771,0.0,0.6135556,0.5722181,0.56998676,0.0,0.51877517,0.44008476,-0.010259383,0.0,0.18808407,828.4249,804.2491,1053.2601,808.68134,747.4359,0.0166015625,-0.0106201171875,0.99200439453125,2.13836669921875,-2.332763671875,0.456085205078125,1.0,2.0,1.0,4.0,2.0,80.0,event
11:48:25.218,0.36643657,0.76875716,0.0,0.64727104,0.75155216,0.7839236,0.0,0.5678944,0.8062958,0.5558771,0.0,0.6135556,0.5722181,0.56998676,0.0,0.51877517,0.44008476,-0.010259383,0.0,0.18808407,930.7692,788.5348,786.9231,814.7253,872.3443,0.0166015625,-0.0106201171875,0.99200439453125,2.13836669921875,-2.332763671875,0.456085205078125,1.0,2.0,1.0,4.0,2.0,80.0,event
11:48:25.220,0.36643657,0.76875716,0.0,0.64727104,0.75155216,0.7839236,0.0,0.5678944,0.8062958,0.5558771,0.0,0.6135556,0.5722181,0.56998676,0.0,0.51877517,0.44008476,-0.010259383,0.0,0.18808407,865.89746,773.6264,278.4249,809.0842,1087.5092,0.0166015625,-0.0106201171875,0.99200439453125,2.13836669921875,-2.332763671875,0.456085205078125,1.0,2.0,1.0,4.0,2.0,80.0,event
11:48:25.222,0.36643657,0.76875716,0.0,0.64727104,0.75155216,0.7839236,0.0,0.5678944,0.8062958,0.5558771,0.0,0.6135556,0.5722181,0.56998676,0.0,0.51877517,0.44008476,-0.010259383,0.0,0.18808407,727.6923,806.6667,388.4249,799.81683,1062.5275,0.0166015625,-0.0106201171875,0.99200439453125,2.13836669921875,-2.332763671875,0.456085205078125,1.0,2.0,1.0,4.0,2.0,80.0,event
11:48:25.223,0.36643657,0.76875716,0.0,0.64727104,0.75155216,0.7839236,0.0,0.5678944,0.8062958,0.5558771,0.0,0.6135556,0.5722181,0.56998676,0.0,0.51877517,0.44008476,-0.010259383,0.0,0.18808407,711.1722,825.6044,936.4103,801.8315,823.9927,0.0166015625,-0.0106201171875,0.99200439453125,2.13836669921875,-2.332763671875,0.456085205078125,1.0,2.0,1.0,4.0,2.0,80.0,event
11:48:25.224,0.36643657,0.76875716,0.0,0.64727104,0.75155216,0.7839236,0.0,0.5678944,0.8062958,0.5558771,0.0,0.6135556,0.5722181,0.56998676,0.0,0.51877517,0.44008476,-0.010259383,0.0,0.18808407,805.05493,795.78754,952.9304,803.8461,791.75824,0.0166015625,-0.0106201171875,0.99200439453125,2.13836669921875,-2.332763671875,0.456085205078125,1.0,2.0,1.0,4.0,2.0,80.0,event
11:48:25.225,0.36643657,0.76875716,0.0,0.64727104,0.75155216,0.7839236,0.0,0.5678944,0.8062958,0.5558771,0.0,0.6135556,0.5722181,0.56998676,0.0,0.51877517,0.44008476,-0.010259383,0.0,0.18808407,914.2491,785.31134,576.99634,812.71063,982.74725,0.0166015625,-0.0106201171875,0.99200439453125,2.13836669921875,-2.332763671875,0.456085205078125,1.0,2.0,1.0,4.0,2.0,80.0,event
11:48:25.226,0.36643657,0.76875716,0.0,0.64727104,0.75155216,0.7839236,0.0,0.5678944,0.8062958,0.5558771,0.0,0.6135556,0.5722181,0.56998676,0.0,0.51877517,0.44008476,-0.010259383,0.0,0.18808407,886.04395,806.6667,816.7399,804.65204,838.0952,0.0166015625,-0.0106201171875,0.99200439453125,2.13836669921875,-2.332763671875,0.456085205078125,1.0,2.0,1.0,4.0,2.0,80.0,event
11:48:25.250,0.36643657,0.76875716,0.0,0.64727104,0.75155216,0.7839236,0.0,0.5678944,0.8062958,0.5558771,0.0,0.6135556,0.5722181,0.56998676,0.0,0.51877517,0.44008476,-0.010259383,0.0,0.18808407,747.4359,802.6374,978.315,783.2967,684.57874,0.0234375,-0.01422119140625,0.9879150390625,2.213134765625,-3.476715087890625,0.620574951171875,1.0,2.0,1.0,4.0,2.0,80.0,event
11:48:25.250,0.36643657,0.76875716,0.0,0.64727104,0.75155216,0.7839236,0.0,0.5678944,0.8062958,0.5558771,0.0,0.6135556,0.5722181,0.56998676,0.0,0.51877517,0.44008476,-0.010259383,0.0,0.18808407,689.011,790.9524,831.2454,776.8498,786.52014,0.0234375,-0.01422119140625,0.9879150390625,2.213134765625,-3.476715087890625,0.620574951171875,1.0,2.0,1.0,4.0,2.0,80.0,event
11:48:25.251,0.36643657,0.76875716,0.0,0.64727104,0.75155216,0.7839236,0.0,0.5678944,0.8062958,0.5558771,0.0,0.6135556,0.5722181,0.56998676,0.0,0.51877517,0.44008476,-0.010259383,0.0,0.18808407,778.46155,790.54944,874.7619,789.7436,797.8022,0.0234375,-0.01422119140625,0.9879150390625,2.213134765625,-3.476715087890625,0.620574951171875,1.0,2.0,1.0,4.0,2.0,80.0,event
11:48:25.251,0.36643657,0.76875716,0.0,0.64727104,0.75155216,0.7839236,0.0,0.5678944,0.8062958,0.5558771,0.0,0.6135556,0.5722181,0.56998676,0.0,0.51877517,0.44008476,-0.010259383,0.0,0.18808407,913.8461,792.1612,973.0769,813.91943,730.9158,0.0234375,-0.01422119140625,0.9879150390625,2.213134765625,-3.476715087890625,0.620574951171875,1.0,2.0,1.0,4.0,2.0,80.0,event
11:48:25.252,0.36643657,0.76875716,0.0,0.64727104,0.75155216,0.7839236,0.0,0.5678944,0.8062958,0.5558771,0.0,0.6135556,0.5722181,0.56998676,0.0,0.51877517,0.44008476,-0.010259383,0.0,0.18808407,898.1319,786.1172,945.6777,800.6227,715.6044,0.0234375,-0.01422119140625,0.9879150390625,2.213134765625,-3.476715087890625,0.620574951171875,1.0,2.0,1.0,4.0,2.0,80.0,event
11:48:25.252,0.36643657,0.76875716,0.0,0.64727104,0.75155216,0.7839236,0.0,0.5678944,0.8062958,0.5558771,0.0,0.6135556,0.5722181,0.56998676,0.0,0.51877517,0.44008476,-0.010259383,0.0,0.18808407,751.06226,768.3883,633.4066,776.04395,902.96704,0.0234375,-0.01422119140625,0.9879150390625,2.213134765625,-3.476715087890625,0.620574951171875,1.0,2.0,1.0,4.0,2.0,80.0,event
11:48:25.253,0.36643657,0.76875716,0.0,0.64727104,0.75155216,0.7839236,0.0,0.5678944,0.8062958,0.5558771,0.0,0.6135556,0.5722181,0.56998676,0.0,0.51877517,0.44008476,-0.010259383,0.0,0.18808407,678.5348,772.8205,425.09158,774.0293,959.3773,0.0234375,-0.01422119140625,0.9879150390625,2.213134765625,-3.476715087890625,0.620574951171875,1.0,2.0,1.0,4.0,2.0,80.0,event
11:48:25.253,0.36643657,0.76875716,0.0,0.64727104,0.75155216,0.7839236,0.0,0.5678944,0.8062958,0.5558771,0.0,0.6135556,0.5722181,0.56998676,0.0,0.51877517,0.44008476,-0.010259383,0.0,0.18808407,766.3736,792.1612,773.6264,783.2967,722.0513,0.0234375,-0.01422119140625,0.9879150390625,2.213134765625,-3.476715087890625,0.620574951171875,1.0,2.0,1.0,4.0,2.0,80.0,event
11:48:25.254,0.36643657,0.76875716,0.0,0.64727104,0.75155216,0.7839236,0.0,0.5678944,0.8062958,0.5558771,0.0,0.6135556,0.5722181,0.56998676,0.0,0.51877517,0.44008476,-0.010259383,0.0,0.18808407,910.2198,784.90845,1007.326,799.41394,639.45056,0.0234375,-0.01422119140625,0.9879150390625,2.213134765625,-3.476715087890625,0.620574951171875,1.0,2.0,1.0,4.0,2.0,80.0,event
11:48:25.254,0.36643657,0.76875716,0.0,0.64727104,0.75155216,0.7839236,0.0,0.5678944,0.8062958,0.5558771,0.0,0.6135556,0.5722181,0.56998676,0.0,0.51877517,0.44008476,-0.010259383,0.0,0.18808407,904.57874,756.7033,578.60803,801.4286,917.47253,0.0234375,-0.01422119140625,0.9879150390625,2.213134765625,-3.476715087890625,0.620574951171875,1.0,2.0,1.0,4.0,2.0,80.0,event
11:48:25.255,0.36643657,0.76875716,0.0,0.64727104,0.75155216,0.7839236,0.0,0.5678944,0.8062958,0.5558771,0.0,0.6135556,0.5722181,0.56998676,0.0,0.51877517,0.44008476,-0.010259383,0.0,0.18808407,682.96704,795.78754,821.978,777.25275,770.40295,0.0234375,-0.01422119140625,0.9879150390625,2.213134765625,-3.476715087890625,0.620574951171875,1.0,2.0,1.0,4.0,2.0,80.0,event
11:48:25.255,0.36643657,0.76875716,0.0,0.64727104,0.75155216,0.7839236,0.0,0.5678944,0.8062958,0.5558771,0.0,0.6135556,0.5722181,0.56998676,0.0,0.51877517,0.44008476,-0.010259383,0.0,0.18808407,759.92676,765.9707,255.86081,787.72894,994.0293,0.0234375,-0.01422119140625,0.9879150390625,2.213134765625,-3.476715087890625,0.620574951171875,1.0,2.0,1.0,4.0,2.0,80.0,event
11:48:25.256,0.36643657,0.76875716,0.0,0.64727104,0.75155216,0.7839236,0.0,0.5678944,0.8062958,0.5558771,0.0,0.6135556,0.5722181,0.56998676,0.0,0.51877517,0.44008476,-0.010259383,0.0,0.18808407,751.8681,780.87915,1073.0037,794.17584,793.36993,0.01849365234375,-0.01165771484375,0.98681640625,2.16827392578125,-2.07855224609375,1.069183349609375,1.0,2.0,1.0,4.0,2.0,80.0,event
11:48:25.256,0.36643657,0.76875716,0.0,0.64727104,0.75155216,0.7839236,0.0,0.5678944,0.8062958,0.5558771,0.0,0.6135556,0.5722181,0.56998676,0.0,0.51877517,0.44008476,-0.010259383,0.0,0.18808407,882.4176,767.1795,838.9011,814.7253,815.12823,0.01849365234375,-0.01165771484375,0.98681640625,2.16827392578125,-2.07855224609375,1.069183349609375,1.0,2.0,1.0,4.0,2.0,80.0,event
11:48:25.259,0.36643657,0.76875716,0.0,0.64727104,0.75155216,0.7839236,0.0,0.5678944,0.8062958,0.5558771,0.0,0.6135556,0.5722181,0.56998676,0.0,0.51877517,0.44008476,-0.010259383,0.0,0.18808407,908.20514,775.64105,826.8132,806.26373,762.74725,0.01849365234375,-0.01165771484375,0.98681640625,2.16827392578125,-2.07855224609375,1.069183349609375,1.0,2.0,1.0,4.0,2.0,80.0,event
11:48:25.259,0.36643657,0.76875716,0.0,0.64727104,0.75155216,0.7839236,0.0,0.5678944,0.8062958,0.5558771,0.0,0.6135556,0.5722181,0.56998676,0.0,0.51877517,0.44008476,-0.010259383,0.0,0.18808407,787.326,778.0586,824.3956,795.38464,714.7985,0.01849365234375,-0.01165771484375,0.98681640625,2.16827392578125,-2.07855224609375,1.069183349609375,1.0,2.0,1.0,4.0,2.0,80.0,event
11:48:25.260,0.36643657,0.76875716,0.0,0.64727104,0.75155216,0.7839236,0.0,0.5678944,0.8062958,0.5558771,0.0,0.6135556,0.5722181,0.56998676,0.0,0.51877517,0.44008476,-0.010259383,0.0,0.18808407,688.20514,773.22345,788.93774,799.41394,713.9927,0.01849365234375,-0.01165771484375,0.98681640625,2.16827392578125,-2.07855224609375,1.069183349609375,1.0,2.0,1.0,4.0,2.0,80.0,event
11:48:25.260,0.36643657,0.76875716,0.0,0.64727104,0.75155216,0.7839236,0.0,0.5678944,0.8062958,0.5558771,0.0,0.6135556,0.5722181,0.56998676,0.0,0.51877517,0.44008476,-0.010259383,0.0,0.18808407,719.2308,757.1062,517.3626,803.8461,936.4103,0.01849365234375,-0.01165771484375,0.98681640625,2.16827392578125,-2.07855224609375,1.069183349609375,1.0,2.0,1.0,4.0,2.0,80.0,event
11:48:25.261,0.36643657,0.76875716,0.0,0.64727104,0.75155216,0.7839236,0.0,0.5678944,0.8062958,0.5558771,0.0,0.6135556,0.5722181,0.56998676,0.0,0.51877517,0.44008476,-0.010259383,0.0,0.18808407,859.45056,770.80585,568.93774,813.91943,900.54944,0.01849365234375,-0.01165771484375,0.98681640625,2.16827392578125,-2.07855224609375,1.069183349609375,1.0,2.0,1.0,4.0,2.0,80.0,event
11:48:25.261,0.36643657,0.76875716,0.0,0.64727104,0.75155216,0.7839236,0.0,0.5678944,0.8062958,0.5558771,0.0,0.6135556,0.5722181,0.56998676,0.0,0.51877517,0.44008476,-0.010259383,0.0,0.18808407,927.5458,794.17584,904.9817,814.3223,678.1319,0.01849365234375,-0.01165771484375,0.98681640625,2.16827392578125,-2.07855224609375,1.069183349609375,1.0,2.0,1.0,4.0,2.0,80.0,event
11:48:25.262,0.36643657,0.76875716,0.0,0.64727104,0.75155216,0.7839236,0.0,0.5678944,0.8062958,0.5558771,0.0,0.6135556,0.5722181,0.56998676,0.0,0.51877517,0.44008476,-0.010259383,0.0,0.18808407,803.44324,774.0293,763.95605,793.36993,648.71796,0.01849365234375,-0.01165771484375,0.98681640625,2.16827392578125,-2.07855224609375,1.069183349609375,1.0,2.0,1.0,4.0,2.0,80.0,event
11:48:25.262,0.36643657,0.76875716,0.0,0.64727104,0.75155216,0.7839236,0.0,0.5678944,0.8062958,0.5558771,0.0,0.6135556,0.5722181,0.56998676,0.0,0.51877517,0.44008476,-0.010259383,0.0,0.18808407,670.4762,749.0476,233.2967,782.0879,870.7326,0.01849365234375,-0.01165771484375,0.98681640625,2.16827392578125,-2.07855224609375,1.069183349609375,1.0,2.0,1.0,4.0,2.0,80.0,event
11:48:25.262,0.36643657,0.76875716,0.0,0.64727104,0.75155216,0.7839236,0.0,0.5678944,0.8062958,0.5558771,0.0,0.6135556,0.5722181,0.56998676,0.0,0.51877517,0.44008476,-0.010259383,0.0,0.18808407,710.3663,784.10254,617.28937,793.36993,789.7436,0.01849365234375,-0.01165771484375,0.98681640625,2.16827392578125,-2.07855224609375,1.069183349609375,1.0,2.0,1.0,4.0,2.0,80.0,event
11:48:25.263,0.36643657,0.76875716,0.0,0.64727104,0.75155216,0.7839236,0.0,0.5678944,0.8062958,0.5558771,0.0,0.6135556,0.5722181,0.56998676,0.0,0.51877517,0.44008476,-0.010259383,0.0,0.18808407,856.2271,791.3553,1075.8242,816.7399,659.19415,0.01849365234375,-0.01165771484375,0.98681640625,2.16827392578125,-2.07855224609375,1.069183349609375,1.0,2.0,1.0,4.0,2.0,80.0,event
11:48:25.318,0.36643657,0.76875716,0.0,0.64727104,0.75155216,0.7839236,0.0,0.5678944,0.8062958,0.5558771,0.0,0.6135556,0.5722181,0.56998676,0.0,0.51877517,0.44008476,-0.010259383,0.0,0.18808407,924.7253,772.01465,850.58606,823.5897,793.7729,0.009765625,-0.0091552734375,0.9981689453125,2.76641845703125,-3.880462646484375,1.57012939453125,1.0,2.0,1.0,4.0,2.0,80.0,event
11:48:25.319,0.36643657,0.76875716,0.0,0.64727104,0.75155216,0.7839236,0.0,0.5678944,0.8062958,0.5558771,0.0,0.6135556,0.5722181,0.56998676,0.0,0.51877517,0.44008476,-0.010259383,0.0,0.18808407,818.7546,780.4762,711.1722,803.0403,827.2161,0.009765625,-0.0091552734375,0.9981689453125,2.76641845703125,-3.880462646484375,1.57012939453125,1.0,2.0,1.0,4.0,2.0,80.0,event
11:48:25.320,0.36643657,0.76875716,0.0,0.64727104,0.75155216,0.7839236,0.0,0.5678944,0.8062958,0.5558771,0.0,0.6135556,0.5722181,0.56998676,0.0,0.51877517,0.44008476,-0.010259383,0.0,0.18808407,701.50183,791.75824,840.5128,792.96704,683.36993,0.009765625,-0.0091552734375,0.9981689453125,2.76641845703125,-3.880462646484375,1.57012939453125,1.0,2.0,1.0,4.0,2.0,80.0,event
11:48:25.320,0.36643657,0.76875716,0.0,0.64727104,0.75155216,0.7839236,0.0,0.5678944,0.8062958,0.5558771,0.0,0.6135556,0.5722181,0.56998676,0.0,0.51877517,0.44008476,-0.010259383,0.0,0.18808407,715.6044,792.96704,939.6337,807.0696,613.2601,0.009765625,-0.0091552734375,0.9981689453125,2.76641845703125,-3.880462646484375,1.57012939453125,1.0,2.0,1.0,4.0,2.0,80.0,event
11:48:25.321,0.36643657,0.76875716,0.0,0.64727104,0.75155216,0.7839236,0.0,0.5678944,0.8062958,0.5558771,0.0,0.6135556,0.5722181,0.56998676,0.0,0.51877517,0.44008476,-0.010259383,0.0,0.18808407,851.79486,781.28204,803.8461,819.15753,758.315,0.009765625,-0.0091552734375,0.9981689453125,2.76641845703125,-3.880462646484375,1.57012939453125,1.0,2.0,1.0,4.0,2.0,80.0,event
11:48:25.321,0.36643657,0.76875716,0.0,0.64727104,0.75155216,0.7839236,0.0,0.5678944,0.8062958,0.5558771,0.0,0.6135556,0.5722181,0.56998676,0.0,0.51877517,0.44008476,-0.010259383,0.0,0.18808407,932.7839,775.2381,652.74725,823.5897,906.5934,0.009765625,-0.0091552734375,0.9981689453125,2.76641845703125,-3.880462646484375,1.57012939453125,1.0,2.0,1.0,4.0,2.0,80.0,event
11:48:25.322,0.36643657,0.76875716,0.0,0.64727104,0.75155216,0.7839236,0.0,0.5678944,0.8062958,0.5558771,0.0,0.6135556,0.5722181,0.56998676,0.0,0.51877517,0.44008476,-0.010259383,0.0,0.18808407,844.1392,782.8938,654.35895,811.9048,902.1612,0.009765625,-0.0091552734375,0.9981689453125,2.76641845703125,-3.880462646484375,1.57012939453125,1.0,2.0,1.0,4.0,2.0,80.0,event
11:48:25.323,0.36643657,0.76875716,0.0,0.64727104,0.75155216,0.7839236,0.0,0.5678944,0.8062958,0.5558771,0.0,0.6135556,0.5722181,0.56998676,0.0,0.51877517,0.44008476,-0.010259383,0.0,0.18808407,724.0659,790.9524,778.46155,798.20514,733.73627,0.009765625,-0.0091552734375,0.9981689453125,2.76641845703125,-3.880462646484375,1.57012939453125,1.0,2.0,1.0,4.0,2.0,80.0,event
11:48:25.323,0.36643657,0.76875716,0.0,0.64727104,0.75155216,0.7839236,0.0,0.5678944,0.8062958,0.5558771,0.0,0.6135556,0.5722181,0.56998676,0.0,0.51877517,0.44008476,-0.010259383,0.0,0.18808407,713.9927,769.59705,587.0696,810.293,803.0403,0.009765625,-0.0091552734375,0.9981689453125,2.76641845703125,-3.880462646484375,1.57012939453125,1.0,2.0,1.0,4.0,2.0,80.0,event
11:48:25.324,0.36643657,0.76875716,0.0,0.64727104,0.75155216,0.7839236,0.0,0.5678944,0.8062958,0.5558771,0.0,0.6135556,0.5722181,0.56998676,0.0,0.51877517,0.44008476,-0.010259383,0.0,0.18808407,814.3223,769.59705,370.69598,821.1722,1006.9231,0.009765625,-0.0091552734375,0.9981689453125,2.76641845703125,-3.880462646484375,1.57012939453125,1.0,2.0,1.0,4.0,2.0,80.0,event
11:48:25.324,0.36643657,0.76875716,0.0,0.64727104,0.75155216,0.7839236,0.0,0.5678944,0.8062958,0.5558771,0.0,0.6135556,0.5722181,0.56998676,0.0,0.51877517,0.44008476,-0.010259383,0.0,0.18808407,944.0659,795.38464,898.5348,834.87177,808.68134,0.009765625,-0.0091552734375,0.9981689453125,2.76641845703125,-3.880462646484375,1.57012939453125,1.0,2.0,1.0,4.0,2.0,80.0,event
11:48:25.325,0.36643657,0.76875716,0.0,0.64727104,0.75155216,0.7839236,0.0,0.5678944,0.8062958,0.5558771,0.0,0.6135556,0.5722181,0.56998676,0.0,0.51877517,0.44008476,-0.010259383,0.0,0.18808407,894.10254,777.6557,1019.41394,830.4396,766.3736,0.009765625,-0.0091552734375,0.9981689453125,2.76641845703125,-3.880462646484375,1.57012939453125,1.0,2.0,1.0,4.0,2.0,80.0,event
11:48:25.350,0.36643657,0.76875716,0.0,0.64727104,0.75155216,0.7839236,0.0,0.5678944,0.8062958,0.5558771,0.0,0.6135556,0.5722181,0.56998676,0.0,0.51877517,0.44008476,-0.010259383,0.0,0.18808407,740.18317,757.9121,695.8608,810.293,845.34796,0.009765625,-0.0091552734375,0.9981689453125,2.76641845703125,-3.880462646484375,1.57012939453125,1.0,2.0,1.0,4.0,2.0,80.0,event
11:48:25.351,0.36643657,0.76875716,0.0,0.64727104,0.75155216,0.7839236,0.0,0.5678944,0.8062958,0.5558771,0.0,0.6135556,0.5722181,0.56998676,0.0,0.51877517,0.44008476,-0.010259383,0.0,0.18808407,721.2454,764.35895,809.0842,829.2308,751.8681,0.009765625,-0.0091552734375,0.9981689453125,2.76641845703125,-3.880462646484375,1.57012939453125,1.0,2.0,1.0,4.0,2.0,80.0,event
11:48:25.352,0.36643657,0.76875716,0.0,0.64727104,0.75155216,0.7839236,0.0,0.5678944,0.8062958,0.5558771,0.0,0.6135556,0.5722181,0.56998676,0.0,0.51877517,0.44008476,-0.010259383,0.0,0.18808407,828.8278,768.3883,1035.9341,841.7216,684.17584,0.009765625,-0.0091552734375,0.9981689453125,2.76641845703125,-3.880462646484375,1.57012939453125,1.0,2.0,1.0,4.0,2.0,80.0,event
11:48:25.353,0.36643657,0.76875716,0.0,0.64727104,0.75155216,0.7839236,0.0,0.5678944,0.8062958,0.5558771,0.0,0.6135556,0.5722181,0.56998676,0.0,0.51877517,0.44008476,-0.010259383,0.0,0.18808407,936.4103,749.45056,900.14655,836.4835,778.86444,0.009765625,-0.0091552734375,0.9981689453125,2.76641845703125,-3.880462646484375,1.57012939453125,1.0,2.0,1.0,4.0,2.0,80.0,event
11:48:25.356,0.36643657,0.76875716,0.0,0.64727104,0.75155216,0.7839236,0.0,0.5678944,0.8062958,0.5558771,0.0,0.6135556,0.5722181,0.56998676,0.0,0.51877517,0.44008476,-0.010259383,0.0,0.18808407,876.3736,739.3773,490.76923,822.381,933.1868,0.009765625,-0.0091552734375,0.9981689453125,2.76641845703125,-3.880462646484375,1.57012939453125,1.0,2.0,1.0,4.0,2.0,80.0,event
11:48:25.357,0.36643657,0.76875716,0.0,0.64727104,0.75155216,0.7839236,0.0,0.5678944,0.8062958,0.5558771,0.0,0.6135556,0.5722181,0.56998676,0.0,0.51877517,0.44008476,-0.010259383,0.0,0.18808407,722.8571,759.12085,436.77655,803.0403,828.022,0.009765625,-0.0091552734375,0.9981689453125,2.76641845703125,-3.880462646484375,1.57012939453125,1.0,2.0,1.0,4.0,2.0,80.0,event
11:48:25.358,0.36643657,0.76875716,0.0,0.64727104,0.75155216,0.7839236,0.0,0.5678944,0.8062958,0.5558771,0.0,0.6135556,0.5722181,0.56998676,0.0,0.51877517,0.44008476,-0.010259383,0.0,0.18808407,679.34064,766.77655,597.1429,801.4286,726.4835,0.009765625,-0.0091552734375,0.9981689453125,2.76641845703125,-3.880462646484375,1.57012939453125,1.0,2.0,1.0,4.0,2.0,80.0,event
11:48:25.358,0.36643657,0.76875716,0.0,0.64727104,0.75155216,0.7839236,0.0,0.5678944,0.8062958,0.5558771,0.0,0.6135556,0.5722181,0.56998676,0.0,0.51877517,0.44008476,-0.010259383,0.0,0.18808407,784.90845,764.7619,662.8205,821.1722,801.02563,0.009765625,-0.0091552734375,0.9981689453125,2.76641845703125,-3.880462646484375,1.57012939453125,1.0,2.0,1.0,4.0,2.0,80.0,event
11:48:25.359,0.36643657,0.76875716,0.0,0.64727104,0.75155216,0.7839236,0.0,0.5678944,0.8062958,0.5558771,0.0,0.6135556,0.5722181,0.56998676,0.0,0.51877517,0.44008476,-0.010259383,0.0,0.18808407,914.65204,751.4652,357.39926,844.94507,1001.685,0.009765625,-0.0091552734375,0.9981689453125,2.76641845703125,-3.880462646484375,1.57012939453125,1.0,2.0,1.0,4.0,2.0,80.0,event
11:48:25.359,0.36643657,0.76875716,0.0,0.64727104,0.75155216,0.7839236,0.0,0.5678944,0.8062958,0.5558771,0.0,0.6135556,0.5722181,0.56998676,0.0,0.51877517,0.44008476,-0.010259383,0.0,0.18808407,898.5348,781.28204,562.8938,825.6044,885.64105,0.009765625,-0.0091552734375,0.9981689453125,2.76641845703125,-3.880462646484375,1.57012939453125,1.0,2.0,1.0,4.0,2.0,80.0,event
11:48:25.360,0.36643657,0.76875716,0.0,0.64727104,0.75155216,0.7839236,0.0,0.5678944,0.8062958,0.5558771,0.0,0.6135556,0.5722181,0.56998676,0.0,0.51877517,0.44008476,-0.010259383,0.0,0.18808407,694.65204,778.46155,822.381,807.0696,706.337,0.009765625,-0.0091552734375,0.9981689453125,2.76641845703125,-3.880462646484375,1.57012939453125,1.0,2.0,1.0,4.0,2.0,80.0,event
11:48:25.360,0.36643657,0.76875716,0.0,0.64727104,0.75155216,0.7839236,0.0,0.5678944,0.8062958,0.5558771,0.0,0.6135556,0.5722181,0.56998676,0.0,0.51877517,0.44008476,-0.010259383,0.0,0.18808407,765.56775,794.9817,898.1319,803.8461,649.92676,0.009765625,-0.0091552734375,0.9981689453125,2.76641845703125,-3.880462646484375,1.57012939453125,1.0,2.0,1.0,4.0,2.0,80.0,event
11:48:25.386,0.36643657,0.76875716,0.0,0.64727104,0.75155216,0.7839236,0.0,0.5678944,0.8062958,0.5558771,0.0,0.6135556,0.5722181,0.56998676,0.0,0.51877517,0.44008476,-0.010259383,0.0,0.18808407,780.87915,785.7143,903.36993,817.9487,771.6117,0.0126953125,-0.01715087890625,0.97576904296875,1.697235107421875,-2.340240478515625,-1.016845703125,1.0,2.0,1.0,4.0,2.0,80.0,event
11:48:25.387,0.36643657,0.76875716,0.0,0.64727104,0.75155216,0.7839236,0.0,0.5678944,0.8062958,0.5558771,0.0,0.6135556,0.5722181,0.56998676,0.0,0.51877517,0.44008476,-0.010259383,0.0,0.18808407,923.5165,792.5641,1008.5348,830.4396,706.7399,0.0126953125,-0.01715087890625,0.97576904296875,1.697235107421875,-2.340240478515625,-1.016845703125,1.0,2.0,1.0,4.0,2.0,80.0,event
11:48:25.388,0.36643657,0.76875716,0.0,0.64727104,0.75155216,0.7839236,0.0,0.5678944,0.8062958,0.5558771,0.0,0.6135556,0.5722181,0.56998676,0.0,0.51877517,0.44008476,-0.010259383,0.0,0.18808407,915.4579,786.52014,969.0476,819.9634,669.67035,0.0126953125,-0.01715087890625,0.97576904296875,1.697235107421875,-2.340240478515625,-1.016845703125,1.0,2.0,1.0,4.0,2.0,80.0,event
11:48:25.389,0.36643657,0.76875716,0.0,0.64727104,0.75155216,0.7839236,0.0,0.5678944,0.8062958,0.5558771,0.0,0.6135556,0.5722181,0.56998676,0.0,0.51877517,0.44008476,-0.010259383,0.0,0.18808407,773.22345,782.49084,709.5604,796.5934,669.67035,0.0126953125,-0.01715087890625,0.97576904296875,1.697235107421875,-2.340240478515625,-1.016845703125,1.0,2.0,1.0,4.0,2.0,80.0,event
11:48:25.389,0.36643657,0.76875716,0.0,0.64727104,0.75155216,0.7839236,0.0,0.5678944,0.8062958,0.5558771,0.0,0.6135556,0.5722181,0.56998676,0.0,0.51877517,0.44008476,-0.010259383,0.0,0.18808407,690.6227,791.75824,674.10254,794.57874,685.38464,0.0126953125,-0.01715087890625,0.97576904296875,1.697235107421875,-2.340240478515625,-1.016845703125,1.0,2.0,1.0,4.0,2.0,80.0,event
11:48:25.390,0.36643657,0.76875716,0.0,0.64727104,0.75155216,0.7839236,0.0,0.5678944,0.8062958,0.5558771,0.0,0.6135556,0.5722181,0.56998676,0.0,0.51877517,0.44008476,-0.010259383,0.0,0.18808407,757.50916,787.326,720.0366,812.3077,788.93774,0.0126953125,-0.01715087890625,0.97576904296875,1.697235107421875,-2.340240478515625,-1.016845703125,1.0,2.0,1.0,4.0,2.0,80.0,event
11:48:25.391,0.36643657,0.76875716,0.0,0.64727104,0.75155216,0.7839236,0.0,0.5678944,0.8062958,0.5558771,0.0,0.6135556,0.5722181,0.56998676,0.0,0.51877517,0.44008476,-0.010259383,0.0,0.18808407,903.7729,796.5934,750.65936,830.0366,796.99634,0.0126953125,-0.01715087890625,0.97576904296875,1.697235107421875,-2.340240478515625,-1.016845703125,1.0,2.0,1.0,4.0,2.0,80.0,event
11:48:25.393,0.36643657,0.76875716,0.0,0.64727104,0.75155216,0.7839236,0.0,0.5678944,0.8062958,0.5558771,0.0,0.6135556,0.5722181,0.56998676,0.0,0.51877517,0.44008476,-0.010259383,0.0,0.18808407,922.3077,778.86444,556.8498,831.6484,920.696,0.0126953125,-0.01715087890625,0.97576904296875,1.697235107421875,-2.340240478515625,-1.016845703125,1.0,2.0,1.0,4.0,2.0,80.0,event
11:48:25.394,0.36643657,0.76875716,0.0,0.64727104,0.75155216,0.7839236,0.0,0.5678944,0.8062958,0.5558771,0.0,0.6135556,0.5722181,0.56998676,0.0,0.51877517,0.44008476,-0.010259383,0.0,0.18808407,780.4762,762.3443,68.49817,817.9487,1060.5128,0.0126953125,-0.01715087890625,0.97576904296875,1.697235107421875,-2.340240478515625,-1.016845703125,1.0,2.0,1.0,4.0,2.0,80.0,event
11:48:25.395,0.36643657,0.76875716,0.0,0.64727104,0.75155216,0.7839236,0.0,0.5678944,0.8062958,0.5558771,0.0,0.6135556,0.5722181,0.56998676,0.0,0.51877517,0.44008476,-0.010259383,0.0,0.18808407,698.2784,815.9341,570.9524,802.23444,809.89014,0.0126953125,-0.01715087890625,0.97576904296875,1.697235107421875,-2.340240478515625,-1.016845703125,1.0,2.0,1.0,4.0,2.0,80.0,event
11:48:25.396,0.36643657,0.76875716,0.0,0.64727104,0.75155216,0.7839236,0.0,0.5678944,0.8062958,0.5558771,0.0,0.6135556,0.5722181,0.56998676,0.0,0.51877517,0.44008476,-0.010259383,0.0,0.18808407,759.12085,815.9341,1000.87915,809.4872,669.2674,0.0126953125,-0.01715087890625,0.97576904296875,1.697235107421875,-2.340240478515625,-1.016845703125,1.0,2.0,1.0,4.0,2.0,80.0,event
11:48:25.396,0.36643657,0.76875716,0.0,0.64727104,0.75155216,0.7839236,0.0,0.5678944,0.8062958,0.5558771,0.0,0.6135556,0.5722181,0.56998676,0.0,0.51877517,0.44008476,-0.010259383,0.0,0.18808407,891.685,792.96704,857.8388,830.84247,822.381,0.0126953125,-0.01715087890625,0.97576904296875,1.697235107421875,-2.340240478515625,-1.016845703125,1.0,2.0,1.0,4.0,2.0,80.0,event
11:48:25.454,0.36643657,0.76875716,0.0,0.64727104,0.75155216,0.7839236,0.0,0.5678944,0.8062958,0.5558771,0.0,0.6135556,0.5722181,0.56998676,0.0,0.51877517,0.44008476,-0.010259383,0.0,0.18808407,944.4689,799.41394,944.0659,828.4249,769.19415,0.01629638671875,-0.01434326171875,0.993896484375,2.609405517578125,-3.51409912109375,-0.351409912109375,1.0,2.0,1.0,4.0,2.0,80.0,event
11:48:25.455,0.36643657,0.76875716,0.0,0.64727104,0.75155216,0.7839236,0.0,0.5678944,0.8062958,0.5558771,0.0,0.6135556,0.5722181,0.56998676,0.0,0.51877517,0.44008476,-0.010259383,0.0,0.18808407,820.7692,799.011,956.55676,807.47253,637.03296,0.01629638671875,-0.01434326171875,0.993896484375,2.609405517578125,-3.51409912109375,-0.351409912109375,1.0,2.0,1.0,4.0,2.0,80.0,event
11:48:25.456,0.36643657,0.76875716,0.0,0.64727104,0.75155216,0.7839236,0.0,0.5678944,0.8062958,0.5558771,0.0,0.6135556,0.5722181,0.56998676,0.0,0.51877517,0.44008476,-0.010259383,0.0,0.18808407,705.5311,794.57874,840.10986,801.8315,692.6374,0.01629638671875,-0.01434326171875,0.993896484375,2.609405517578125,-3.51409912109375,-0.351409912109375,1.0,2.0,1.0,4.0,2.0,80.0,event
11:48:25.457,0.36643657,0.76875716,0.0,0.64727104,0.75155216,0.7839236,0.0,0.5678944,0.8062958,0.5558771,0.0,0.6135556,0.5722181,0.56998676,0.0,0.51877517,0.44008476,-0.010259383,0.0,0.18808407,740.989,793.36993,781.685,808.68134,822.7839,0.01629638671875,-0.01434326171875,0.993896484375,2.609405517578125,-3.51409912109375,-0.351409912109375,1.0,2.0,1.0,4.0,2.0,80.0,event
11:48:25.458,0.36643657,0.76875716,0.0,0.64727104,0.75155216,0.7839236,0.0,0.5678944,0.8062958,0.5558771,0.0,0.6135556,0.5722181,0.56998676,0.0,0.51877517,0.44008476,-0.010259383,0.0,0.18808407,866.30035,792.5641,960.18317,823.1868,832.8571,0.01629638671875,-0.01434326171875,0.993896484375,2.609405517578125,-3.51409912109375,-0.351409912109375,1.0,2.0,1.0,4.0,2.0,80.0,event
11:48:25.458,0.36643657,0.76875716,0.0,0.64727104,0.75155216,0.7839236,0.0,0.5678944,0.8062958,0.5558771,0.0,0.6135556,0.5722181,0.56998676,0.0,0.51877517,0.44008476,-0.010259383,0.0,0.18808407,927.1429,786.9231,890.87915,819.9634,838.49817,0.01629638671875,-0.01434326171875,0.993896484375,2.609405517578125,-3.51409912109375,-0.351409912109375,1.0,2.0,1.0,4.0,2.0,80.0,event
11:48:25.462,0.36643657,0.76875716,0.0,0.64727104,0.75155216,0.7839236,0.0,0.5678944,0.8062958,0.5558771,0.0,0.6135556,0.5722181,0.56998676,0.0,0.51877517,0.44008476,-0.010259383,0.0,0.18808407,811.50183,780.87915,551.6117,795.38464,858.6447,0.01629638671875,-0.01434326171875,0.993896484375,2.609405517578125,-3.51409912109375,-0.351409912109375,1.0,2.0,1.0,4.0,2.0,80.0,event
11:48:25.463,0.36643657,0.76875716,0.0,0.64727104,0.75155216,0.7839236,0.0,0.5678944,0.8062958,0.5558771,0.0,0.6135556,0.5722181,0.56998676,0.0,0.51877517,0.44008476,-0.010259383,0.0,0.18808407,678.1319,766.77655,185.75092,789.34064,972.27106,0.01629638671875,-0.01434326171875,0.993896484375,2.609405517578125,-3.51409912109375,-0.351409912109375,1.0,2.0,1.0,4.0,2.0,80.0,event
11:48:25.464,0.36643657,0.76875716,0.0,0.64727104,0.75155216,0.7839236,0.0,0.5678944,0.8062958,0.5558771,0.0,0.6135556,0.5722181,0.56998676,0.0,0.51877517,0.44008476,-0.010259383,0.0,0.18808407,707.5458,797.8022,491.5751,802.6374,874.7619,0.01629638671875,-0.01434326171875,0.993896484375,2.609405517578125,-3.51409912109375,-0.351409912109375,1.0,2.0,1.0,4.0,2.0,80.0,event
11:48:25.465,0.36643657,0.76875716,0.0,0.64727104,0.75155216,0.7839236,0.0,0.5678944,0.8062958,0.5558771,0.0,0.6135556,0.5722181,0.56998676,0.0,0.51877517,0.44008476,-0.010259383,0.0,0.18808407,843.73627,806.6667,888.86444,819.5604,716.8132,0.01629638671875,-0.01434326171875,0.993896484375,2.609405517578125,-3.51409912109375,-0.351409912109375,1.0,2.0,1.0,4.0,2.0,80.0,event
11:48:25.465,0.36643657,0.76875716,0.0,0.64727104,0.75155216,0.7839236,0.0,0.5678944,0.8062958,0.5558771,0.0,0.6135556,0.5722181,0.56998676,0.0,0.51877517,0.44008476,-0.010259383,0.0,0.18808407,928.3516,780.4762,703.1135,825.6044,826.8132,0.01629638671875,-0.01434326171875,0.993896484375,2.609405517578125,-3.51409912109375,-0.351409912109375,1.0,2.0,1.0,4.0,2.0,80.0,event
11:48:25.466,0.36643657,0.76875716,0.0,0.64727104,0.75155216,0.7839236,0.0,0.5678944,0.8062958,0.5558771,0.0,0.6135556,0.5722181,0.56998676,0.0,0.51877517,0.44008476,-0.010259383,0.0,0.18808407,827.2161,779.2674,416.63004,814.7253,879.19415,0.01629638671875,-0.01434326171875,0.993896484375,2.609405517578125,-3.51409912109375,-0.351409912109375,1.0,2.0,1.0,4.0,2.0,80.0,event
11:48:25.487,0.36643657,0.76875716,0.0,0.64727104,0.75155216,0.7839236,0.0,0.5678944,0.8062958,0.5558771,0.0,0.6135556,0.5722181,0.56998676,0.0,0.51877517,0.44008476,-0.010259383,0.0,0.18808407,699.0842,806.26373,761.13556,798.20514,735.34796,0.00909423828125,-0.01385498046875,0.98480224609375,1.86920166015625,-3.087921142578125,0.1495361328125,1.0,2.0,1.0,4.0,2.0,80.0,event
11:48:25.489,0.36643657,0.76875716,0.0,0.64727104,0.75155216,0.7839236,0.0,0.5678944,0.8062958,0.5558771,0.0,0.6135556,0.5722181,0.56998676,0.0,0.51877517,0.44008476,-0.010259383,0.0,0.18808407,714.7985,803.44324,1065.348,798.20514,697.47253,0.00909423828125,-0.01385498046875,0.98480224609375,1.86920166015625,-3.087921142578125,0.1495361328125,1.0,2.0,1.0,4.0,2.0,80.0,event
11:48:25.489,0.36643657,0.76875716,0.0,0.64727104,0.75155216,0.7839236,0.0,0.5678944,0.8062958,0.5558771,0.0,0.6135556,0.5722181,0.56998676,0.0,0.51877517,0.44008476,-0.010259383,0.0,0.18808407,826.4103,787.72894,903.7729,811.50183,759.12085,0.00909423828125,-0.01385498046875,0.98480224609375,1.86920166015625,-3.087921142578125,0.1495361328125,1.0,2.0,1.0,4.0,2.0,80.0,event
11:48:25.490,0.36643657,0.76875716,0.0,0.64727104,0.75155216,0.7839236,0.0,0.5678944,0.8062958,0.5558771,0.0,0.6135556,0.5722181,0.56998676,0.0,0.51877517,0.44008476,-0.010259383,0.0,0.18808407,926.337,799.011,931.978,815.9341,762.74725,0.00909423828125,-0.01385498046875,0.98480224609375,1.86920166015625,-3.087921142578125,0.1495361328125,1.0,2.0,1.0,4.0,2.0,80.0,event
11:48:25.491,0.36643657,0.76875716,0.0,0.64727104,0.75155216,0.7839236,0.0,0.5678944,0.8062958,0.5558771,0.0,0.6135556,0.5722181,0.56998676,0.0,0.51877517,0.44008476,-0.010259383,0.0,0.18808407,860.2564,800.6227,953.3333,807.0696,709.5604,0.00909423828125,-0.01385498046875,0.98480224609375,1.86920166015625,-3.087921142578125,0.1495361328125,1.0,2.0,1.0,4.0,2.0,80.0,event
11:48:25.492,0.36643657,0.76875716,0.0,0.64727104,0.75155216,0.7839236,0.0,0.5678944,0.8062958,0.5558771,0.0,0.6135556,0.5722181,0.56998676,0.0,0.51877517,0.44008476,-0.010259383,0.0,0.18808407,713.5897,794.17584,781.685,797.8022,732.52747,0.00909423828125,-0.01385498046875,0.98480224609375,1.86920166015625,-3.087921142578125,0.1495361328125,1.0,2.0,1.0,4.0,2.0,80.0,event
11:48:25.492,0.36643657,0.76875716,0.0,0.64727104,0.75155216,0.7839236,0.0,0.5678944,0.8062958,0.5558771,0.0,0.6135556,0.5722181,0.56998676,0.0,0.51877517,0.44008476,-0.010259383,0.0,0.18808407,691.4286,780.07324,567.72894,805.8608,943.663,0.00909423828125,-0.01385498046875,0.98480224609375,1.86920166015625,-3.087921142578125,0.1495361328125,1.0,2.0,1.0,4.0,2.0,80.0,event
11:48:25.493,0.36643657,0.76875716,0.0,0.64727104,0.75155216,0.7839236,0.0,0.5678944,0.8062958,0.5558771,0.0,0.6135556,0.5722181,0.56998676,0.0,0.51877517,0.44008476,-0.010259383,0.0,0.18808407,796.99634,784.5055,356.5934,821.1722,1045.2014,0.00909423828125,-0.01385498046875,0.98480224609375,1.86920166015625,-3.087921142578125,0.1495361328125,1.0,2.0,1.0,4.0,2.0,80.0,event
11:48:25.494,0.36643657,0.76875716,0.0,0.64727104,0.75155216,0.7839236,0.0,0.5678944,0.8062958,0.5558771,0.0,0.6135556,0.5722181,0.56998676,0.0,0.51877517,0.44008476,-0.010259383,0.0,0.18808407,923.1135,815.9341,898.1319,828.022,804.65204,0.00909423828125,-0.01385498046875,0.98480224609375,1.86920166015625,-3.087921142578125,0.1495361328125,1.0,2.0,1.0,4.0,2.0,80.0,event
11:48:25.494,0.36643657,0.76875716,0.0,0.64727104,0.75155216,0.7839236,0.0,0.5678944,0.8062958,0.5558771,0.0,0.6135556,0.5722181,0.56998676,0.0,0.51877517,0.44008476,-0.010259383,0.0,0.18808407,871.13556,805.4579,1062.1245,809.89014,719.6337,0.00909423828125,-0.01385498046875,0.98480224609375,1.86920166015625,-3.087921142578125,0.1495361328125,1.0,2.0,1.0,4.0,2.0,80.0,event
11:48:25.495,0.36643657,0.76875716,0.0,0.64727104,0.75155216,0.7839236,0.0,0.5678944,0.8062958,0.5558771,0.0,0.6135556,0.5722181,0.56998676,0.0,0.51877517,0.44008476,-0.010259383,0.0,0.18808407,714.7985,790.54944,680.14655,789.7436,752.27106,0.00909423828125,-0.01385498046875,0.98480224609375,1.86920166015625,-3.087921142578125,0.1495361328125,1.0,2.0,1.0,4.0,2.0,80.0,event
11:48:25.496,0.36643657,0.76875716,0.0,0.64727104,0.75155216,0.7839236,0.0,0.5678944,0.8062958,0.5558771,0.0,0.6135556,0.5722181,0.56998676,0.0,0.51877517,0.44008476,-0.010259383,0.0,0.18808407,678.93774,803.0403,838.49817,791.75824,728.9011,0.00909423828125,-0.01385498046875,0.98480224609375,1.86920166015625,-3.087921142578125,0.1495361328125,1.0,2.0,1.0,4.0,2.0,80.0,event
11:48:25.556,0.36643657,0.76875716,0.0,0.64727104,0.75155216,0.7839236,0.0,0.5678944,0.8062958,0.5558771,0.0,0.6135556,0.5722181,0.56998676,0.0,0.51877517,0.44008476,-0.010259383,0.0,0.18808407,781.28204,799.41394,1043.1868,807.0696,729.707,0.01763916015625,-0.00469970703125,0.99365234375,2.788848876953125,-3.96270751953125,-0.01495361328125,1.0,2.0,1.0,4.0,2.0,80.0,event
11:48:25.558,0.36643657,0.76875716,0.0,0.64727104,0.75155216,0.7839236,0.0,0.5678944,0.8062958,0.5558771,0.0,0.6135556,0.5722181,0.56998676,0.0,0.51877517,0.44008476,-0.010259383,0.0,0.18808407,906.99634,782.8938,838.0952,814.7253,828.022,0.01763916015625,-0.00469970703125,0.99365234375,2.788848876953125,-3.96270751953125,-0.01495361328125,1.0,2.0,1.0,4.0,2.0,80.0,event
11:48:25.559,0.36643657,0.76875716,0.0,0.64727104,0.75155216,0.7839236,0.0,0.5678944,0.8062958,0.5558771,0.0,0.6135556,0.5722181,0.56998676,0.0,0.51877517,0.44008476,-0.010259383,0.0,0.18808407,863.47986,772.8205,494.79852,799.41394,909.41394,0.01763916015625,-0.00469970703125,0.99365234375,2.788848876953125,-3.96270751953125,-0.01495361328125,1.0,2.0,1.0,4.0,2.0,80.0,event
11:48:25.561,0.36643657,0.76875716,0.0,0.64727104,0.75155216,0.7839236,0.0,0.5678944,0.8062958,0.5558771,0.0,0.6135556,0.5722181,0.56998676,0.0,0.51877517,0.44008476,-0.010259383,0.0,0.18808407,722.8571,792.5641,664.0293,783.69965,781.28204,0.01763916015625,-0.00469970703125,0.99365234375,2.788848876953125,-3.96270751953125,-0.01495361328125,1.0,2.0,1.0,4.0,2.0,80.0,event
11:48:25.563,0.36643657,0.76875716,0.0,0.64727104,0.75155216,0.7839236,0.0,0.5678944,0.8062958,0.5558771,0.0,0.6135556,0.5722181,0.56998676,0.0,0.51877517,0.44008476,-0.010259383,0.0,0.18808407,682.1612,803.8461,942.4542,789.7436,645.89746,0.01763916015625,-0.00469970703125,0.99365234375,2.788848876953125,-3.96270751953125,-0.01495361328125,1.0,2.0,1.0,4.0,2.0,80.0,event
11:48:25.564,0.36643657,0.76875716,0.0,0.64727104,0.75155216,0.7839236,0.0,0.5678944,0.8062958,0.5558771,0.0,0.6135556,0.5722181,0.56998676,0.0,0.51877517,0.44008476,-0.010259383,0.0,0.18808407,772.01465,784.90845,816.337,806.26373,890.4762,0.01763916015625,-0.00469970703125,0.99365234375,2.788848876953125,-3.96270751953125,-0.01495361328125,1.0,2.0,1.0,4.0,2.0,80.0,event
11:48:25.566,0.36643657,0.76875716,0.0,0.64727104,0.75155216,0.7839236,0.0,0.5678944,0.8062958,0.5558771,0.0,0.6135556,0.5722181,0.56998676,0.0,0.51877517,0.44008476,-0.010259383,0.0,0.18808407,900.9524,767.98535,483.9194,822.381,1174.1392,0.01763916015625,-0.00469970703125,0.99365234375,2.788848876953125,-3.96270751953125,-0.01495361328125,1.0,2.0,1.0,4.0,2.0,80.0,event
11:48:25.568,0.36643657,0.76875716,0.0,0.64727104,0.75155216,0.7839236,0.0,0.5678944,0.8062958,0.5558771,0.0,0.6135556,0.5722181,0.56998676,0.0,0.51877517,0.44008476,-0.010259383,0.0,0.18808407,897.72894,798.20514,703.1135,814.3223,988.3883,0.01763916015625,-0.00469970703125,0.99365234375,2.788848876953125,-3.96270751953125,-0.01495361328125,1.0,2.0,1.0,4.0,2.0,80.0,event
11:48:25.572,0.36643657,0.76875716,0.0,0.64727104,0.75155216,0.7839236,0.0,0.5678944,0.8062958,0.5558771,0.0,0.6135556,0.5722181,0.56998676,0.0,0.51877517,0.44008476,-0.010259383,0.0,0.18808407,757.1062,809.0842,1014.57874,799.81683,722.8571,0.01763916015625,-0.00469970703125,0.99365234375,2.788848876953125,-3.96270751953125,-0.01495361328125,1.0,2.0,1.0,4.0,2.0,80.0,event
11:48:25.573,0.36643657,0.76875716,0.0,0.64727104,0.75155216,0.7839236,0.0,0.5678944,0.8062958,0.5558771,0.0,0.6135556,0.5722181,0.56998676,0.0,0.51877517,0.44008476,-0.010259383,0.0,0.18808407,678.93774,787.326,776.4469,800.6227,660.80585,0.01763916015625,-0.00469970703125,0.99365234375,2.788848876953125,-3.96270751953125,-0.01495361328125,1.0,2.0,1.0,4.0,2.0,80.0,event
11:48:25.573,0.36643657,0.76875716,0.0,0.64727104,0.75155216,0.7839236,0.0,0.5678944,0.8062958,0.5558771,0.0,0.6135556,0.5722181,0.56998676,0.0,0.51877517,0.44008476,-0.010259383,0.0,0.18808407,753.0769,779.67035,587.47253,810.293,792.96704,0.01763916015625,-0.00469970703125,0.99365234375,2.788848876953125,-3.96270751953125,-0.01495361328125,1.0,2.0,1.0,4.0,2.0,80.0,event
11:48:25.574,0.36643657,0.76875716,0.0,0.64727104,0.75155216,0.7839236,0.0,0.5678944,0.8062958,0.5558771,0.0,0.6135556,0.5722181,0.56998676,0.0,0.51877517,0.44008476,-0.010259383,0.0,0.18808407,888.86444,792.5641,949.304,820.7692,769.59705,0.01763916015625,-0.00469970703125,0.99365234375,2.788848876953125,-3.96270751953125,-0.01495361328125,1.0,2.0,1.0,4.0,2.0,80.0,event
11:48:25.597,0.36643657,0.76875716,0.0,0.64727104,0.75155216,0.7839236,0.0,0.5678944,0.8062958,0.5558771,0.0,0.6135556,0.5722181,0.56998676,0.0,0.51877517,0.44008476,-0.010259383,0.0,0.18808407,895.31134,791.3553,1057.6923,807.47253,677.72894,0.01763916015625,-0.00469970703125,0.99365234375,2.788848876953125,-3.96270751953125,-0.01495361328125,1.0,2.0,1.0,4.0,2.0,80.0,event
11:48:25.598,0.36643657,0.76875716,0.0,0.64727104,0.75155216,0.7839236,0.0,0.5678944,0.8062958,0.5558771,0.0,0.6135556,0.5722181,0.56998676,0.0,0.51877517,0.44008476,-0.010259383,0.0,0.18808407,764.7619,781.685,802.23444,786.9231,746.63007,0.01763916015625,-0.00469970703125,0.99365234375,2.788848876953125,-3.96270751953125,-0.01495361328125,1.0,2.0,1.0,4.0,2.0,80.0,event
11:48:25.599,0.36643657,0.76875716,0.0,0.64727104,0.75155216,0.7839236,0.0,0.5678944,0.8062958,0.5558771,0.0,0.6135556,0.5722181,0.56998676,0.0,0.51877517,0.44008476,-0.010259383,0.0,0.18808407,677.72894,790.54944,784.5055,788.1319,776.04395,0.01763916015625,-0.00469970703125,0.99365234375,2.788848876953125,-3.96270751953125,-0.01495361328125,1.0,2.0,1.0,4.0,2.0,80.0,event
11:48:25.599,0.36643657,0.76875716,0.0,0.64727104,0.75155216,0.7839236,0.0,0.5678944,0.8062958,0.5558771,0.0,0.6135556,0.5722181,0.56998676,0.0,0.51877517,0.44008476,-0.010259383,0.0,0.18808407,738.97437,793.7729,928.3516,800.2198,777.25275,0.01763916015625,-0.00469970703125,0.99365234375,2.788848876953125,-3.96270751953125,-0.01495361328125,1.0,2.0,1.0,4.0,2.0,80.0,event
11:48:25.600,0.36643657,0.76875716,0.0,0.64727104,0.75155216,0.7839236,0.0,0.5678944,0.8062958,0.5558771,0.0,0.6135556,0.5722181,0.56998676,0.0,0.51877517,0.44008476,-0.010259383,0.0,0.18808407,878.3883,785.7143,940.0366,813.1135,823.9927,0.01763916015625,-0.00469970703125,0.99365234375,2.788848876953125,-3.96270751953125,-0.01495361328125,1.0,2.0,1.0,4.0,2.0,80.0,event
11:48:25.601,0.36643657,0.76875716,0.0,0.64727104,0.75155216,0.7839236,0.0,0.5678944,0.8062958,0.5558771,0.0,0.6135556,0.5722181,0.56998676,0.0,0.51877517,0.44008476,-0.010259383,0.0,0.18808407,897.72894,772.01465,636.2271,815.12823,970.65936,0.01763916015625,-0.00469970703125,0.99365234375,2.788848876953125,-3.96270751953125,-0.01495361328125,1.0,2.0,1.0,4.0,2.0,80.0,event
11:48:25.601,0.36643657,0.76875716,0.0,0.64727104,0.75155216,0.7839236,0.0,0.5678944,0.8062958,0.5558771,0.0,0.6135556,0.5722181,0.56998676,0.0,0.51877517,0.44008476,-0.010259383,0.0,0.18808407,760.7326,759.5238,137.8022,807.47253,1149.5604,0.01763916015625,-0.00469970703125,0.99365234375,2.788848876953125,-3.96270751953125,-0.01495361328125,1.0,2.0,1.0,4.0,2.0,80.0,event
11:48:25.602,0.36643657,0.76875716,0.0,0.64727104,0.75155216,0.7839236,0.0,0.5678944,0.8062958,0.5558771,0.0,0.6135556,0.5722181,0.56998676,0.0,0.51877517,0.44008476,-0.010259383,0.0,0.18808407,679.7436,797.8022,609.6337,804.2491,865.4945,0.01763916015625,-0.00469970703125,0.99365234375,2.788848876953125,-3.96270751953125,-0.01495361328125,1.0,2.0,1.0,4.0,2.0,80.0,event
11:48:25.603,0.36643657,0.76875716,0.0,0.64727104,0.75155216,0.7839236,0.0,0.5678944,0.8062958,0.5558771,0.0,0.6135556,0.5722181,0.56998676,0.0,0.51877517,0.44008476,-0.010259383,0.0,0.18808407,743.4066,799.81683,969.85345,817.9487,664.0293,0.01763916015625,-0.00469970703125,0.99365234375,2.788848876953125,-3.96270751953125,-0.01495361328125,1.0,2.0,1.0,4.0,2.0,80.0,event
11:48:25.603,0.36643657,0.76875716,0.0,0.64727104,0.75155216,0.7839236,0.0,0.5678944,0.8062958,0.5558771,0.0,0.6135556,0.5722181,0.56998676,0.0,0.51877517,0.44008476,-0.010259383,0.0,0.18808407,863.47986,781.28204,754.2857,830.4396,780.07324,0.01763916015625,-0.00469970703125,0.99365234375,2.788848876953125,-3.96270751953125,-0.01495361328125,1.0,2.0,1.0,4.0,2.0,80.0,event
11:48:25.604,0.36643657,0.76875716,0.0,0.64727104,0.75155216,0.7839236,0.0,0.5678944,0.8062958,0.5558771,0.0,0.6135556,0.5722181,0.56998676,0.0,0.51877517,0.44008476,-0.010259383,0.0,0.18808407,904.9817,799.011,886.4469,812.3077,781.685,0.01763916015625,-0.00469970703125,0.99365234375,2.788848876953125,-3.96270751953125,-0.01495361328125,1.0,2.0,1.0,4.0,2.0,80.0,event
11:48:25.605,0.36643657,0.76875716,0.0,0.64727104,0.75155216,0.7839236,0.0,0.5678944,0.8062958,0.5558771,0.0,0.6135556,0.5722181,0.56998676,0.0,0.51877517,0.44008476,-0.010259383,0.0,0.18808407,792.96704,807.0696,991.6117,781.28204,674.5055,0.01763916015625,-0.00469970703125,0.99365234375,2.788848876953125,-3.96270751953125,-0.01495361328125,1.0,2.0,1.0,4.0,2.0,80.0,event
11:48:25.642,0.36643657,0.76875716,0.0,0.64727104,0.75155216,0.7839236,0.0,0.5678944,0.8062958,0.5558771,0.0,0.6135556,0.5722181,0.56998676,0.0,0.51877517,0.44008476,-0.010259383,0.0,0.18808407,670.87915,792.5641,877.98535,777.25275,674.5055,0.0093994140625,-0.01959228515625,0.98486328125,1.375732421875,-2.549591064453125,-0.657958984375,1.0,2.0,1.0,4.0,2.0,80.0,event
11:48:25.643,0.36643657,0.76875716,0.0,0.64727104,0.75155216,0.7839236,0.0,0.5678944,0.8062958,0.5558771,0.0,0.6135556,0.5722181,0.56998676,0.0,0.51877517,0.44008476,-0.010259383,0.0,0.18808407,693.8461,783.2967,707.1429,790.9524,776.4469,0.0093994140625,-0.01959228515625,0.98486328125,1.375732421875,-2.549591064453125,-0.657958984375,1.0,2.0,1.0,4.0,2.0,80.0,event
11:48:25.644,0.36643657,0.76875716,0.0,0.64727104,0.75155216,0.7839236,0.0,0.5678944,0.8062958,0.5558771,0.0,0.6135556,0.5722181,0.56998676,0.0,0.51877517,0.44008476,-0.010259383,0.0,0.18808407,832.0513,796.5934,879.19415,796.1905,740.18317,0.0093994140625,-0.01959228515625,0.98486328125,1.375732421875,-2.549591064453125,-0.657958984375,1.0,2.0,1.0,4.0,2.0,80.0,event
11:48:25.644,0.36643657,0.76875716,0.0,0.64727104,0.75155216,0.7839236,0.0,0.5678944,0.8062958,0.5558771,0.0,0.6135556,0.5722181,0.56998676,0.0,0.51877517,0.44008476,-0.010259383,0.0,0.18808407,898.1319,802.23444,1085.0916,787.326,715.2015,0.0093994140625,-0.01959228515625,0.98486328125,1.375732421875,-2.549591064453125,-0.657958984375,1.0,2.0,1.0,4.0,2.0,80.0,event
11:48:25.645,0.36643657,0.76875716,0.0,0.64727104,0.75155216,0.7839236,0.0,0.5678944,0.8062958,0.5558771,0.0,0.6135556,0.5722181,0.56998676,0.0,0.51877517,0.44008476,-0.010259383,0.0,0.18808407,792.96704,787.72894,921.0989,767.98535,810.293,0.0093994140625,-0.01959228515625,0.98486328125,1.375732421875,-2.549591064453125,-0.657958984375,1.0,2.0,1.0,4.0,2.0,80.0,event
11:48:25.646,0.36643657,0.76875716,0.0,0.64727104,0.75155216,0.7839236,0.0,0.5678944,0.8062958,0.5558771,0.0,0.6135556,0.5722181,0.56998676,0.0,0.51877517,0.44008476,-0.010259383,0.0,0.18808407,668.46155,776.8498,535.89746,759.92676,928.7546,0.0093994140625,-0.01959228515625,0.98486328125,1.375732421875,-2.549591064453125,-0.657958984375,1.0,2.0,1.0,4.0,2.0,80.0,event
11:48:25.646,0.36643657,0.76875716,0.0,0.64727104,0.75155216,0.7839236,0.0,0.5678944,0.8062958,0.5558771,0.0,0.6135556,0.5722181,0.56998676,0.0,0.51877517,0.44008476,-0.010259383,0.0,0.18808407,678.1319,788.5348,503.663,766.77655,882.8205,0.0093994140625,-0.01959228515625,0.98486328125,1.375732421875,-2.549591064453125,-0.657958984375,1.0,2.0,1.0,4.0,2.0,80.0,event
11:48:25.647,0.36643657,0.76875716,0.0,0.64727104,0.75155216,0.7839236,0.0,0.5678944,0.8062958,0.5558771,0.0,0.6135556,0.5722181,0.56998676,0.0,0.51877517,0.44008476,-0.010259383,0.0,0.18808407,802.6374,805.4579,713.5897,782.49084,736.55676,0.0093994140625,-0.01959228515625,0.98486328125,1.375732421875,-2.549591064453125,-0.657958984375,1.0,2.0,1.0,4.0,2.0,80.0,event
11:48:25.648,0.36643657,0.76875716,0.0,0.64727104,0.75155216,0.7839236,0.0,0.5678944,0.8062958,0.5558771,0.0,0.6135556,0.5722181,0.56998676,0.0,0.51877517,0.44008476,-0.010259383,0.0,0.18808407,909.41394,808.2784,824.7985,792.5641,748.24176,0.0093994140625,-0.01959228515625,0.98486328125,1.375732421875,-2.549591064453125,-0.657958984375,1.0,2.0,1.0,4.0,2.0,80.0,event
11:48:25.649,0.36643657,0.76875716,0.0,0.64727104,0.75155216,0.7839236,0.0,0.5678944,0.8062958,0.5558771,0.0,0.6135556,0.5722181,0.56998676,0.0,0.51877517,0.44008476,-0.010259383,0.0,0.18808407,826.8132,789.34064,335.2381,789.7436,1052.0513,0.0093994140625,-0.01959228515625,0.98486328125,1.375732421875,-2.549591064453125,-0.657958984375,1.0,2.0,1.0,4.0,2.0,80.0,event
11:48:25.654,0.36643657,0.76875716,0.0,0.64727104,0.75155216,0.7839236,0.0,0.5678944,0.8062958,0.5558771,0.0,0.6135556,0.5722181,0.56998676,0.0,0.51877517,0.44008476,-0.010259383,0.0,0.18808407,697.0696,819.15753,375.53113,784.90845,933.9927,0.0093994140625,-0.01959228515625,0.98486328125,1.375732421875,-2.549591064453125,-0.657958984375,1.0,2.0,1.0,4.0,2.0,80.0,event
11:48:25.655,0.36643657,0.76875716,0.0,0.64727104,0.75155216,0.7839236,0.0,0.5678944,0.8062958,0.5558771,0.0,0.6135556,0.5722181,0.56998676,0.0,0.51877517,0.44008476,-0.010259383,0.0,0.18808407,701.9048,828.022,869.5238,788.1319,617.28937,0.0093994140625,-0.01959228515625,0.98486328125,1.375732421875,-2.549591064453125,-0.657958984375,1.0,2.0,1.0,4.0,2.0,80.0,event
11:48:25.703,0.36643657,0.76875716,0.0,0.64727104,0.75155216,0.7839236,0.0,0.5678944,0.8062958,0.5558771,0.0,0.6135556,0.5722181,0.56998676,0.0,0.51877517,0.44008476,-0.010259383,0.0,0.18808407,811.9048,811.9048,857.4359,809.0842,659.19415,0.01995849609375,-0.01123046875,0.98486328125,2.99072265625,-3.506622314453125,-0.082244873046875,1.0,2.0,1.0,4.0,2.0,80.0,event
11:48:25.704,0.36643657,0.76875716,0.0,0.64727104,0.75155216,0.7839236,0.0,0.5678944,0.8062958,0.5558771,0.0,0.6135556,0.5722181,0.56998676,0.0,0.51877517,0.44008476,-0.010259383,0.0,0.18808407,927.5458,822.381,900.54944,823.5897,718.022,0.01995849609375,-0.01123046875,0.98486328125,2.99072265625,-3.506622314453125,-0.082244873046875,1.0,2.0,1.0,4.0,2.0,80.0,event
11:48:25.705,0.36643657,0.76875716,0.0,0.64727104,0.75155216,0.7839236,0.0,0.5678944,0.8062958,0.5558771,0.0,0.6135556,0.5722181,0.56998676,0.0,0.51877517,0.44008476,-0.010259383,0.0,0.18808407,866.30035,825.2015,936.0073,809.0842,704.7253,0.01995849609375,-0.01123046875,0.98486328125,2.99072265625,-3.506622314453125,-0.082244873046875,1.0,2.0,1.0,4.0,2.0,80.0,event
11:48:25.706,0.36643657,0.76875716,0.0,0.64727104,0.75155216,0.7839236,0.0,0.5678944,0.8062958,0.5558771,0.0,0.6135556,0.5722181,0.56998676,0.0,0.51877517,0.44008476,-0.010259383,0.0,0.18808407,722.8571,826.8132,775.2381,790.9524,697.0696,0.01995849609375,-0.01123046875,0.98486328125,2.99072265625,-3.506622314453125,-0.082244873046875,1.0,2.0,1.0,4.0,2.0,80.0,event
11:48:25.707,0.36643657,0.76875716,0.0,0.64727104,0.75155216,0.7839236,0.0,0.5678944,0.8062958,0.5558771,0.0,0.6135556,0.5722181,0.56998676,0.0,0.51877517,0.44008476,-0.010259383,0.0,0.18808407,709.5604,826.8132,657.5824,792.1612,710.7692,0.01995849609375,-0.01123046875,0.98486328125,2.99072265625,-3.506622314453125,-0.082244873046875,1.0,2.0,1.0,4.0,2.0,80.0,event
11:48:25.708,0.36643657,0.76875716,0.0,0.64727104,0.75155216,0.7839236,0.0,0.5678944,0.8062958,0.5558771,0.0,0.6135556,0.5722181,0.56998676,0.0,0.51877517,0.44008476,-0.010259383,0.0,0.18808407,815.9341,828.8278,644.2857,808.2784,792.1612,0.01995849609375,-0.01123046875,0.98486328125,2.99072265625,-3.506622314453125,-0.082244873046875,1.0,2.0,1.0,4.0,2.0,80.0,event
11:48:25.708,0.36643657,0.76875716,0.0,0.64727104,0.75155216,0.7839236,0.0,0.5678944,0.8062958,0.5558771,0.0,0.6135556,0.5722181,0.56998676,0.0,0.51877517,0.44008476,-0.010259383,0.0,0.18808407,923.5165,839.707,742.1978,820.3663,855.82416,0.01995849609375,-0.01123046875,0.98486328125,2.99072265625,-3.506622314453125,-0.082244873046875,1.0,2.0,1.0,4.0,2.0,80.0,event
11:48:25.709,0.36643657,0.76875716,0.0,0.64727104,0.75155216,0.7839236,0.0,0.5678944,0.8062958,0.5558771,0.0,0.6135556,0.5722181,0.56998676,0.0,0.51877517,0.44008476,-0.010259383,0.0,0.18808407,886.8498,845.34796,891.685,801.02563,755.4945,0.01995849609375,-0.01123046875,0.98486328125,2.99072265625,-3.506622314453125,-0.082244873046875,1.0,2.0,1.0,4.0,2.0,80.0,event
11:48:25.709,0.36643657,0.76875716,0.0,0.64727104,0.75155216,0.7839236,0.0,0.5678944,0.8062958,0.5558771,0.0,0.6135556,0.5722181,0.56998676,0.0,0.51877517,0.44008476,-0.010259383,0.0,0.18808407,734.1392,817.1429,597.1429,788.5348,827.619,0.01995849609375,-0.01123046875,0.98486328125,2.99072265625,-3.506622314453125,-0.082244873046875,1.0,2.0,1.0,4.0,2.0,80.0,event
11:48:25.710,0.36643657,0.76875716,0.0,0.64727104,0.75155216,0.7839236,0.0,0.5678944,0.8062958,0.5558771,0.0,0.6135556,0.5722181,0.56998676,0.0,0.51877517,0.44008476,-0.010259383,0.0,0.18808407,682.1612,821.5751,266.73993,798.20514,991.6117,0.01995849609375,-0.01123046875,0.98486328125,2.99072265625,-3.506622314453125,-0.082244873046875,1.0,2.0,1.0,4.0,2.0,80.0,event
11:48:25.710,0.36643657,0.76875716,0.0,0.64727104,0.75155216,0.7839236,0.0,0.5678944,0.8062958,0.5558771,0.0,0.6135556,0.5722181,0.56998676,0.0,0.51877517,0.44008476,-0.010259383,0.0,0.18808407,789.34064,850.989,699.4872,806.6667,810.293,0.01995849609375,-0.01123046875,0.98486328125,2.99072265625,-3.506622314453125,-0.082244873046875,1.0,2.0,1.0,4.0,2.0,80.0,event
11:48:25.711,0.36643657,0.76875716,0.0,0.64727104,0.75155216,0.7839236,0.0,0.5678944,0.8062958,0.5558771,0.0,0.6135556,0.5722181,0.56998676,0.0,0.51877517,0.44008476,-0.010259383,0.0,0.18808407,904.17584,840.5128,986.3736,813.5165,732.1245,0.01995849609375,-0.01123046875,0.98486328125,2.99072265625,-3.506622314453125,-0.082244873046875,1.0,2.0,1.0,4.0,2.0,80.0,event
11:48:25.738,0.36643657,0.76875716,0.0,0.64727104,0.75155216,0.7839236,0.0,0.5678944,0.8062958,0.5558771,0.0,0.6135556,0.5722181,0.56998676,0.0,0.51877517,0.44008476,-0.010259383,0.0,0.18808407,872.74725,815.9341,675.31134,806.6667,846.9597,0.00933837890625,-0.0089111328125,0.98760986328125,2.459869384765625,-1.65985107421875,1.42059326171875,1.0,2.0,1.0,4.0,2.0,80.0,event
11:48:25.739,0.36643657,0.76875716,0.0,0.64727104,0.75155216,0.7839236,0.0,0.5678944,0.8062958,0.5558771,0.0,0.6135556,0.5722181,0.56998676,0.0,0.51877517,0.44008476,-0.010259383,0.0,0.18808407,740.58606,829.2308,655.9707,788.93774,757.1062,0.00933837890625,-0.0089111328125,0.98760986328125,2.459869384765625,-1.65985107421875,1.42059326171875,1.0,2.0,1.0,4.0,2.0,80.0,event
11:48:25.740,0.36643657,0.76875716,0.0,0.64727104,0.75155216,0.7839236,0.0,0.5678944,0.8062958,0.5558771,0.0,0.6135556,0.5722181,0.56998676,0.0,0.51877517,0.44008476,-0.010259383,0.0,0.18808407,682.5641,843.3333,1004.5055,785.31134,725.6777,0.00933837890625,-0.0089111328125,0.98760986328125,2.459869384765625,-1.65985107421875,1.42059326171875,1.0,2.0,1.0,4.0,2.0,80.0,event
11:48:25.740,0.36643657,0.76875716,0.0,0.64727104,0.75155216,0.7839236,0.0,0.5678944,0.8062958,0.5558771,0.0,0.6135556,0.5722181,0.56998676,0.0,0.51877517,0.44008476,-0.010259383,0.0,0.18808407,762.74725,830.4396,1043.5897,796.99634,782.8938,0.00933837890625,-0.0089111328125,0.98760986328125,2.459869384765625,-1.65985107421875,1.42059326171875,1.0,2.0,1.0,4.0,2.0,80.0,event
11:48:25.741,0.36643657,0.76875716,0.0,0.64727104,0.75155216,0.7839236,0.0,0.5678944,0.8062958,0.5558771,0.0,0.6135556,0.5722181,0.56998676,0.0,0.51877517,0.44008476,-0.010259383,0.0,0.18808407,896.9231,828.8278,918.68134,811.9048,805.4579,0.00933837890625,-0.0089111328125,0.98760986328125,2.459869384765625,-1.65985107421875,1.42059326171875,1.0,2.0,1.0,4.0,2.0,80.0,event
11:48:25.742,0.36643657,0.76875716,0.0,0.64727104,0.75155216,0.7839236,0.0,0.5678944,0.8062958,0.5558771,0.0,0.6135556,0.5722181,0.56998676,0.0,0.51877517,0.44008476,-0.010259383,0.0,0.18808407,904.9817,828.8278,774.0293,810.293,832.0513,0.00933837890625,-0.0089111328125,0.98760986328125,2.459869384765625,-1.65985107421875,1.42059326171875,1.0,2.0,1.0,4.0,2.0,80.0,event
11:48:25.742,0.36643657,0.76875716,0.0,0.64727104,0.75155216,0.7839236,0.0,0.5678944,0.8062958,0.5558771,0.0,0.6135556,0.5722181,0.56998676,0.0,0.51877517,0.44008476,-0.010259383,0.0,0.18808407,766.77655,831.2454,670.87915,785.7143,761.13556,0.00933837890625,-0.0089111328125,0.98760986328125,2.459869384765625,-1.65985107421875,1.42059326171875,1.0,2.0,1.0,4.0,2.0,80.0,event
11:48:25.743,0.36643657,0.76875716,0.0,0.64727104,0.75155216,0.7839236,0.0,0.5678944,0.8062958,0.5558771,0.0,0.6135556,0.5722181,0.56998676,0.0,0.51877517,0.44008476,-0.010259383,0.0,0.18808407,682.1612,836.08057,747.03296,786.1172,785.7143,0.00933837890625,-0.0089111328125,0.98760986328125,2.459869384765625,-1.65985107421875,1.42059326171875,1.0,2.0,1.0,4.0,2.0,80.0,event
11:48:25.744,0.36643657,0.76875716,0.0,0.64727104,0.75155216,0.7839236,0.0,0.5678944,0.8062958,0.5558771,0.0,0.6135556,0.5722181,0.56998676,0.0,0.51877517,0.44008476,-0.010259383,0.0,0.18808407,744.21246,816.337,425.89743,810.696,1009.34064,0.00933837890625,-0.0089111328125,0.98760986328125,2.459869384765625,-1.65985107421875,1.42059326171875,1.0,2.0,1.0,4.0,2.0,80.0,event
