TimeStamp,Delta_TP9,Delta_AF7,Delta_AF8,Delta_TP10,Theta_TP9,Theta_AF7,Theta_AF8,Theta_TP10,Alpha_TP9,Alpha_AF7,Alpha_AF8,Alpha_TP10,Beta_TP9,Beta_AF7,Beta_AF8,Beta_TP10,Gamma_TP9,Gamma_AF7,Gamma_AF8,Gamma_TP10,RAW_TP9,RAW_AF7,RAW_AF8,RAW_TP10,AUX_RIGHT,Accelerometer_X,Accelerometer_Y,Accelerometer_Z,Gyro_X,Gyro_Y,Gyro_Z,HeadBandOn,HSI_TP9,HSI_AF7,HSI_AF8,HSI_TP10,Battery,Elements
11:34:25.620,0.51360387,0.48803517,0.93043804,0.038226664,0.57359207,0.32216457,0.45979702,0.16808814,0.77895045,0.33710665,0.41848785,0.52685505,0.65748715,-0.07696134,-0.16463774,0.17408739,0.16676356,-0.3012765,-0.59538,0.092876405,895.31134,807.8755,782.0879,835.2747,737.3626,-0.0443115234375,-0.0072021484375,0.98876953125,1.74957275390625,-3.416900634765625,0.097198486328125,1.0,2.0,1.0,4.0,2.0,90.0,event
11:34:25.621,0.51360387,0.48803517,0.93043804,0.038226664,0.57359207,0.32216457,0.45979702,0.16808814,0.77895045,0.33710665,0.41848785,0.52685505,0.65748715,-0.07696134,-0.16463774,0.17408739,0.16676356,-0.3012765,-0.59538,0.092876405,917.47253,804.2491,783.69965,826.8132,823.5897,-0.0443115234375,-0.0072021484375,0.98876953125,1.74957275390625,-3.416900634765625,0.097198486328125,1.0,2.0,1.0,4.0,2.0,90.0,event
11:34:25.624,0.51360387,0.48803517,0.93043804,0.038226664,0.57359207,0.32216457,0.45979702,0.16808814,0.77895045,0.33710665,0.41848785,0.52685505,0.65748715,-0.07696134,-0.16463774,0.17408739,0.16676356,-0.3012765,-0.59538,0.092876405,782.8938,798.60803,467.8022,811.9048,930.3663,-0.0443115234375,-0.0072021484375,0.98876953125,1.74957275390625,-3.416900634765625,0.097198486328125,1.0,2.0,1.0,4.0,2.0,90.0,event
11:34:25.625,0.51360387,0.48803517,0.93043804,0.038226664,0.57359207,0.32216457,0.45979702,0.16808814,0.77895045,0.33710665,0.41848785,0.52685505,0.65748715,-0.07696134,-0.16463774,0.17408739,0.16676356,-0.3012765,-0.59538,0.092876405,683.7729,802.23444,568.5348,811.9048,811.9048,-0.0443115234375,-0.0072021484375,0.98876953125,1.74957275390625,-3.416900634765625,0.097198486328125,1.0,2.0,1.0,4.0,2.0,90.0,event
11:34:25.626,0.51360387,0.48803517,0.93043804,0.038226664,0.57359207,0.32216457,0.45979702,0.16808814,0.77895045,0.33710665,0.41848785,0.52685505,0.65748715,-0.07696134,-0.16463774,0.17408739,0.16676356,-0.3012765,-0.59538,0.092876405,743.00366,801.02563,859.85345,820.3663,664.43225,-0.0443115234375,-0.0072021484375,0.98876953125,1.74957275390625,-3.416900634765625,0.097198486328125,1.0,2.0,1.0,4.0,2.0,90.0,event
11:34:25.627,0.51360387,0.48803517,0.93043804,0.038226664,0.57359207,0.32216457,0.45979702,0.16808814,0.77895045,0.33710665,0.41848785,0.52685505,0.65748715,-0.07696134,-0.16463774,0.17408739,0.16676356,-0.3012765,-0.59538,0.092876405,883.6264,795.78754,660.0,828.4249,757.1062,-0.0443115234375,-0.0072021484375,0.98876953125,1.74957275390625,-3.416900634765625,0.097198486328125,1.0,2.0,1.0,4.0,2.0,90.0,event
11:34:25.627,0.51360387,0.48803517,0.93043804,0.038226664,0.57359207,0.32216457,0.45979702,0.16808814,0.77895045,0.33710665,0.41848785,0.52685505,0.65748715,-0.07696134,-0.16463774,0.17408739,0.16676356,-0.3012765,-0.59538,0.092876405,925.9341,795.38464,238.93773,833.663,1008.93774,-0.0443115234375,-0.0072021484375,0.98876953125,1.74957275390625,-3.416900634765625,0.097198486328125,1.0,2.0,1.0,4.0,2.0,90.0,event
11:34:25.628,0.51360387,0.48803517,0.93043804,0.038226664,0.57359207,0.32216457,0.45979702,0.16808814,0.77895045,0.33710665,0.41848785,0.52685505,0.65748715,-0.07696134,-0.16463774,0.17408739,0.16676356,-0.3012765,-0.59538,0.092876405,811.9048,798.60803,412.1978,817.9487,859.0476,-0.0443115234375,-0.0072021484375,0.98876953125,1.74957275390625,-3.416900634765625,0.097198486328125,1.0,2.0,1.0,4.0,2.0,90.0,event
11:34:25.629,0.51360387,0.48803517,0.93043804,0.038226664,0.57359207,0.32216457,0.45979702,0.16808814,0.77895045,0.33710665,0.41848785,0.52685505,0.65748715,-0.07696134,-0.16463774,0.17408739,0.16676356,-0.3012765,-0.59538,0.092876405,698.2784,798.60803,788.5348,805.05493,639.45056,-0.0443115234375,-0.0072021484375,0.98876953125,1.74957275390625,-3.416900634765625,0.097198486328125,1.0,2.0,1.0,4.0,2.0,90.0,event
11:34:25.630,0.51360387,0.48803517,0.93043804,0.038226664,0.57359207,0.32216457,0.45979702,0.16808814,0.77895045,0.33710665,0.41848785,0.52685505,0.65748715,-0.07696134,-0.16463774,0.17408739,0.16676356,-0.3012765,-0.59538,0.092876405,721.6484,798.60803,711.5751,821.978,708.7546,-0.0443115234375,-0.0072021484375,0.98876953125,1.74957275390625,-3.416900634765625,0.097198486328125,1.0,2.0,1.0,4.0,2.0,90.0,event
11:34:25.630,0.51360387,0.48803517,0.93043804,0.038226664,0.57359207,0.32216457,0.45979702,0.16808814,0.77895045,0.33710665,0.41848785,0.52685505,0.65748715,-0.07696134,-0.16463774,0.17408739,0.16676356,-0.3012765,-0.59538,0.092876405,850.18317,802.23444,703.1135,836.08057,795.78754,-0.0443115234375,-0.0072021484375,0.98876953125,1.74957275390625,-3.416900634765625,0.097198486328125,1.0,2.0,1.0,4.0,2.0,90.0,event
11:34:25.631,0.51360387,0.48803517,0.93043804,0.038226664,0.57359207,0.32216457,0.45979702,0.16808814,0.77895045,0.33710665,0.41848785,0.52685505,0.65748715,-0.07696134,-0.16463774,0.17408739,0.16676356,-0.3012765,-0.59538,0.092876405,925.5311,805.8608,898.1319,832.4542,782.0879,-0.0443115234375,-0.0072021484375,0.98876953125,1.74957275390625,-3.416900634765625,0.097198486328125,1.0,2.0,1.0,4.0,2.0,90.0,event
11:34:25.685,0.51360387,0.48803517,0.93043804,0.038226664,0.57359207,0.32216457,0.45979702,0.16808814,0.77895045,0.33710665,0.41848785,0.52685505,0.65748715,-0.07696134,-0.16463774,0.17408739,0.16676356,-0.3012765,-0.59538,0.092876405,816.337,802.6374,861.8681,815.5311,723.663,-0.0443115234375,-0.0072021484375,0.98876953125,1.74957275390625,-3.416900634765625,0.097198486328125,1.0,2.0,1.0,4.0,2.0,90.0,event
11:34:25.686,0.51360387,0.48803517,0.93043804,0.038226664,0.57359207,0.32216457,0.45979702,0.16808814,0.77895045,0.33710665,0.41848785,0.52685505,0.65748715,-0.07696134,-0.16463774,0.17408739,0.16676356,-0.3012765,-0.59538,0.092876405,683.36993,799.41394,645.4945,806.26373,720.4396,-0.0443115234375,-0.0072021484375,0.98876953125,1.74957275390625,-3.416900634765625,0.097198486328125,1.0,2.0,1.0,4.0,2.0,90.0,event
11:34:25.687,0.51360387,0.48803517,0.93043804,0.038226664,0.57359207,0.32216457,0.45979702,0.16808814,0.77895045,0.33710665,0.41848785,0.52685505,0.65748715,-0.07696134,-0.16463774,0.17408739,0.16676356,-0.3012765,-0.59538,0.092876405,718.8278,801.8315,662.01465,815.5311,775.2381,-0.0443115234375,-0.0072021484375,0.98876953125,1.74957275390625,-3.416900634765625,0.097198486328125,1.0,2.0,1.0,4.0,2.0,90.0,event
11:34:25.688,0.51360387,0.48803517,0.93043804,0.038226664,0.57359207,0.32216457,0.45979702,0.16808814,0.77895045,0.33710665,0.41848785,0.52685505,0.65748715,-0.07696134,-0.16463774,0.17408739,0.16676356,-0.3012765,-0.59538,0.092876405,848.5714,807.0696,729.707,827.619,846.1539,-0.0443115234375,-0.0072021484375,0.98876953125,1.74957275390625,-3.416900634765625,0.097198486328125,1.0,2.0,1.0,4.0,2.0,90.0,event
11:34:25.689,0.51360387,0.48803517,0.93043804,0.038226664,0.57359207,0.32216457,0.45979702,0.16808814,0.77895045,0.33710665,0.41848785,0.52685505,0.65748715,-0.07696134,-0.16463774,0.17408739,0.16676356,-0.3012765,-0.59538,0.092876405,941.6484,811.0989,808.2784,830.84247,794.57874,-0.0443115234375,-0.0072021484375,0.98876953125,1.74957275390625,-3.416900634765625,0.097198486328125,1.0,2.0,1.0,4.0,2.0,90.0,event
11:34:25.690,0.51360387,0.48803517,0.93043804,0.038226664,0.57359207,0.32216457,0.45979702,0.16808814,0.77895045,0.33710665,0.41848785,0.52685505,0.65748715,-0.07696134,-0.16463774,0.17408739,0.16676356,-0.3012765,-0.59538,0.092876405,842.1245,803.44324,527.03296,813.91943,920.293,-0.0443115234375,-0.0072021484375,0.98876953125,1.74957275390625,-3.416900634765625,0.097198486328125,1.0,2.0,1.0,4.0,2.0,90.0,event
11:34:25.691,0.51360387,0.48803517,0.93043804,0.038226664,0.57359207,0.32216457,0.45979702,0.16808814,0.77895045,0.33710665,0.41848785,0.52685505,0.65748715,-0.07696134,-0.16463774,0.17408739,0.16676356,-0.3012765,-0.59538,0.092876405,691.02563,805.05493,46.336998,804.65204,1156.8132,-0.0443115234375,-0.0072021484375,0.98876953125,1.74957275390625,-3.416900634765625,0.097198486328125,1.0,2.0,1.0,4.0,2.0,90.0,event
11:34:25.692,0.51360387,0.48803517,0.93043804,0.038226664,0.57359207,0.32216457,0.45979702,0.16808814,0.77895045,0.33710665,0.41848785,0.52685505,0.65748715,-0.07696134,-0.16463774,0.17408739,0.16676356,-0.3012765,-0.59538,0.092876405,701.50183,815.5311,489.96338,806.26373,860.65936,-0.0443115234375,-0.0072021484375,0.98876953125,1.74957275390625,-3.416900634765625,0.097198486328125,1.0,2.0,1.0,4.0,2.0,90.0,event
11:34:25.692,0.51360387,0.48803517,0.93043804,0.038226664,0.57359207,0.32216457,0.45979702,0.16808814,0.77895045,0.33710665,0.41848785,0.52685505,0.65748715,-0.07696134,-0.16463774,0.17408739,0.16676356,-0.3012765,-0.59538,0.092876405,822.381,810.293,866.30035,815.9341,674.5055,-0.0443115234375,-0.0072021484375,0.98876953125,1.74957275390625,-3.416900634765625,0.097198486328125,1.0,2.0,1.0,4.0,2.0,90.0,event
11:34:25.693,0.51360387,0.48803517,0.93043804,0.038226664,0.57359207,0.32216457,0.45979702,0.16808814,0.77895045,0.33710665,0.41848785,0.52685505,0.65748715,-0.07696134,-0.16463774,0.17408739,0.16676356,-0.3012765,-0.59538,0.092876405,936.0073,808.2784,624.94507,831.2454,790.9524,-0.0443115234375,-0.0072021484375,0.98876953125,1.74957275390625,-3.416900634765625,0.097198486328125,1.0,2.0,1.0,4.0,2.0,90.0,event
11:34:25.694,0.51360387,0.48803517,0.93043804,0.038226664,0.57359207,0.32216457,0.45979702,0.16808814,0.77895045,0.33710665,0.41848785,0.52685505,0.65748715,-0.07696134,-0.16463774,0.17408739,0.16676356,-0.3012765,-0.59538,0.092876405,872.74725,810.696,639.45056,811.50183,741.39197,-0.0443115234375,-0.0072021484375,0.98876953125,1.74957275390625,-3.416900634765625,0.097198486328125,1.0,2.0,1.0,4.0,2.0,90.0,event
11:34:25.694,0.51360387,0.48803517,0.93043804,0.038226664,0.57359207,0.32216457,0.45979702,0.16808814,0.77895045,0.33710665,0.41848785,0.52685505,0.65748715,-0.07696134,-0.16463774,0.17408739,0.16676356,-0.3012765,-0.59538,0.092876405,718.022,808.2784,792.5641,790.54944,655.16486,-0.0443115234375,-0.0072021484375,0.98876953125,1.74957275390625,-3.416900634765625,0.097198486328125,1.0,2.0,1.0,4.0,2.0,90.0,event
11:34:25.721,0.51360387,0.48803517,0.93043804,0.038226664,0.57359207,0.32216457,0.45979702,0.16808814,0.77895045,0.33710665,0.41848785,0.52685505,0.65748715,-0.07696134,-0.16463774,0.17408739,0.16676356,-0.3012765,-0.59538,0.092876405,688.20514,805.4579,707.1429,802.23444,662.01465,-0.04595947265625,-0.01361083984375,0.98907470703125,2.026214599609375,-4.687957763671875,0.231781005859375,1.0,2.0,1.0,4.0,2.0,90.0,event
11:34:25.723,0.51360387,0.48803517,0.93043804,0.038226664,0.57359207,0.32216457,0.45979702,0.16808814,0.77895045,0.33710665,0.41848785,0.52685505,0.65748715,-0.07696134,-0.16463774,0.17408739,0.16676356,-0.3012765,-0.59538,0.092876405,796.5934,803.8461,633.8095,820.7692,788.93774,-0.04595947265625,-0.01361083984375,0.98907470703125,2.026214599609375,-4.687957763671875,0.231781005859375,1.0,2.0,1.0,4.0,2.0,90.0,event
11:34:25.724,0.51360387,0.48803517,0.93043804,0.038226664,0.57359207,0.32216457,0.45979702,0.16808814,0.77895045,0.33710665,0.41848785,0.52685505,0.65748715,-0.07696134,-0.16463774,0.17408739,0.16676356,-0.3012765,-0.59538,0.092876405,921.50183,805.8608,843.3333,826.8132,842.9304,-0.04595947265625,-0.01361083984375,0.98907470703125,2.026214599609375,-4.687957763671875,0.231781005859375,1.0,2.0,1.0,4.0,2.0,90.0,event
11:34:25.725,0.51360387,0.48803517,0.93043804,0.038226664,0.57359207,0.32216457,0.45979702,0.16808814,0.77895045,0.33710665,0.41848785,0.52685505,0.65748715,-0.07696134,-0.16463774,0.17408739,0.16676356,-0.3012765,-0.59538,0.092876405,883.6264,805.8608,870.32965,816.337,718.8278,-0.04595947265625,-0.01361083984375,0.98907470703125,2.026214599609375,-4.687957763671875,0.231781005859375,1.0,2.0,1.0,4.0,2.0,90.0,event
11:34:25.729,0.51360387,0.48803517,0.93043804,0.038226664,0.57359207,0.32216457,0.45979702,0.16808814,0.77895045,0.33710665,0.41848785,0.52685505,0.65748715,-0.07696134,-0.16463774,0.17408739,0.16676356,-0.3012765,-0.59538,0.092876405,750.2564,809.89014,685.38464,805.8608,745.0183,-0.04595947265625,-0.01361083984375,0.98907470703125,2.026214599609375,-4.687957763671875,0.231781005859375,1.0,2.0,1.0,4.0,2.0,90.0,event
11:34:25.730,0.51360387,0.48803517,0.93043804,0.038226664,0.57359207,0.32216457,0.45979702,0.16808814,0.77895045,0.33710665,0.41848785,0.52685505,0.65748715,-0.07696134,-0.16463774,0.17408739,0.16676356,-0.3012765,-0.59538,0.092876405,693.0403,809.89014,413.00366,806.26373,911.02563,-0.04595947265625,-0.01361083984375,0.98907470703125,2.026214599609375,-4.687957763671875,0.231781005859375,1.0,2.0,1.0,4.0,2.0,90.0,event
11:34:25.731,0.51360387,0.48803517,0.93043804,0.038226664,0.57359207,0.32216457,0.45979702,0.16808814,0.77895045,0.33710665,0.41848785,0.52685505,0.65748715,-0.07696134,-0.16463774,0.17408739,0.16676356,-0.3012765,-0.59538,0.092876405,763.95605,802.6374,475.8608,808.2784,863.47986,-0.04595947265625,-0.01361083984375,0.98907470703125,2.026214599609375,-4.687957763671875,0.231781005859375,1.0,2.0,1.0,4.0,2.0,90.0,event
11:34:25.732,0.51360387,0.48803517,0.93043804,0.038226664,0.57359207,0.32216457,0.45979702,0.16808814,0.77895045,0.33710665,0.41848785,0.52685505,0.65748715,-0.07696134,-0.16463774,0.17408739,0.16676356,-0.3012765,-0.59538,0.092876405,906.99634,792.1612,673.2967,823.1868,848.5714,-0.04595947265625,-0.01361083984375,0.98907470703125,2.026214599609375,-4.687957763671875,0.231781005859375,1.0,2.0,1.0,4.0,2.0,90.0,event
11:34:25.734,0.51360387,0.48803517,0.93043804,0.038226664,0.57359207,0.32216457,0.45979702,0.16808814,0.77895045,0.33710665,0.41848785,0.52685505,0.65748715,-0.07696134,-0.16463774,0.17408739,0.16676356,-0.3012765,-0.59538,0.092876405,888.0586,786.9231,556.04395,829.2308,890.07324,-0.04595947265625,-0.01361083984375,0.98907470703125,2.026214599609375,-4.687957763671875,0.231781005859375,1.0,2.0,1.0,4.0,2.0,90.0,event
11:34:25.736,0.51360387,0.48803517,0.93043804,0.038226664,0.57359207,0.32216457,0.45979702,0.16808814,0.77895045,0.33710665,0.41848785,0.52685505,0.65748715,-0.07696134,-0.16463774,0.17408739,0.16676356,-0.3012765,-0.59538,0.092876405,726.08057,783.2967,128.93773,819.9634,1000.87915,-0.04595947265625,-0.01361083984375,0.98907470703125,2.026214599609375,-4.687957763671875,0.231781005859375,1.0,2.0,1.0,4.0,2.0,90.0,event
11:34:25.737,0.51360387,0.48803517,0.93043804,0.038226664,0.57359207,0.32216457,0.45979702,0.16808814,0.77895045,0.33710665,0.41848785,0.52685505,0.65748715,-0.07696134,-0.16463774,0.17408739,0.16676356,-0.3012765,-0.59538,0.092876405,671.28204,785.7143,330.40292,821.978,944.0659,-0.04595947265625,-0.01361083984375,0.98907470703125,2.026214599609375,-4.687957763671875,0.231781005859375,1.0,2.0,1.0,4.0,2.0,90.0,event
11:34:25.738,0.51360387,0.48803517,0.93043804,0.038226664,0.57359207,0.32216457,0.45979702,0.16808814,0.77895045,0.33710665,0.41848785,0.52685505,0.65748715,-0.07696134,-0.16463774,0.17408739,0.16676356,-0.3012765,-0.59538,0.092876405,774.43225,789.34064,784.10254,836.4835,780.4762,-0.04595947265625,-0.01361083984375,0.98907470703125,2.026214599609375,-4.687957763671875,0.231781005859375,1.0,2.0,1.0,4.0,2.0,90.0,event
11:34:25.787,0.51360387,0.48803517,0.93043804,0.038226664,0.57359207,0.32216457,0.45979702,0.16808814,0.77895045,0.33710665,0.41848785,0.52685505,0.65748715,-0.07696134,-0.16463774,0.17408739,0.16676356,-0.3012765,-0.59538,0.092876405,918.68134,791.3553,773.22345,849.7802,761.9414,-0.042236328125,-0.01617431640625,0.99029541015625,2.429962158203125,-2.773895263671875,0.261688232421875,1.0,2.0,1.0,4.0,2.0,90.0,event
11:34:25.788,0.51360387,0.48803517,0.93043804,0.038226664,0.57359207,0.32216457,0.45979702,0.16808814,0.77895045,0.33710665,0.41848785,0.52685505,0.65748715,-0.07696134,-0.16463774,0.17408739,0.16676356,-0.3012765,-0.59538,0.092876405,923.1135,796.5934,715.2015,844.94507,798.60803,-0.042236328125,-0.01617431640625,0.99029541015625,2.429962158203125,-2.773895263671875,0.261688232421875,1.0,2.0,1.0,4.0,2.0,90.0,event
11:34:25.789,0.51360387,0.48803517,0.93043804,0.038226664,0.57359207,0.32216457,0.45979702,0.16808814,0.77895045,0.33710665,0.41848785,0.52685505,0.65748715,-0.07696134,-0.16463774,0.17408739,0.16676356,-0.3012765,-0.59538,0.092876405,783.69965,801.4286,755.09155,824.3956,712.381,-0.042236328125,-0.01617431640625,0.99029541015625,2.429962158203125,-2.773895263671875,0.261688232421875,1.0,2.0,1.0,4.0,2.0,90.0,event
11:34:25.790,0.51360387,0.48803517,0.93043804,0.038226664,0.57359207,0.32216457,0.45979702,0.16808814,0.77895045,0.33710665,0.41848785,0.52685505,0.65748715,-0.07696134,-0.16463774,0.17408739,0.16676356,-0.3012765,-0.59538,0.092876405,703.5165,802.23444,778.46155,825.6044,683.36993,-0.042236328125,-0.01617431640625,0.99029541015625,2.429962158203125,-2.773895263671875,0.261688232421875,1.0,2.0,1.0,4.0,2.0,90.0,event
11:34:25.791,0.51360387,0.48803517,0.93043804,0.038226664,0.57359207,0.32216457,0.45979702,0.16808814,0.77895045,0.33710665,0.41848785,0.52685505,0.65748715,-0.07696134,-0.16463774,0.17408739,0.16676356,-0.3012765,-0.59538,0.092876405,902.1612,799.81683,593.1135,842.52747,847.3626,-0.042236328125,-0.01617431640625,0.99029541015625,2.429962158203125,-2.773895263671875,0.261688232421875,1.0,2.0,1.0,4.0,2.0,90.0,event
11:34:25.791,0.51360387,0.48803517,0.93043804,0.038226664,0.57359207,0.32216457,0.45979702,0.16808814,0.77895045,0.33710665,0.41848785,0.52685505,0.65748715,-0.07696134,-0.16463774,0.17408739,0.16676356,-0.3012765,-0.59538,0.092876405,770.40295,799.81683,696.6667,840.5128,798.60803,-0.042236328125,-0.01617431640625,0.99029541015625,2.429962158203125,-2.773895263671875,0.261688232421875,1.0,2.0,1.0,4.0,2.0,90.0,event
11:34:25.792,0.51360387,0.48803517,0.93043804,0.038226664,0.57359207,0.32216457,0.45979702,0.16808814,0.77895045,0.33710665,0.41848785,0.52685505,0.65748715,-0.07696134,-0.16463774,0.17408739,0.16676356,-0.3012765,-0.59538,0.092876405,927.1429,803.44324,569.7436,839.304,892.0879,-0.042236328125,-0.01617431640625,0.99029541015625,2.429962158203125,-2.773895263671875,0.261688232421875,1.0,2.0,1.0,4.0,2.0,90.0,event
11:34:25.793,0.51360387,0.48803517,0.93043804,0.038226664,0.57359207,0.32216457,0.45979702,0.16808814,0.77895045,0.33710665,0.41848785,0.52685505,0.65748715,-0.07696134,-0.16463774,0.17408739,0.16676356,-0.3012765,-0.59538,0.092876405,798.60803,811.0989,698.2784,826.4103,810.293,-0.042236328125,-0.01617431640625,0.99029541015625,2.429962158203125,-2.773895263671875,0.261688232421875,1.0,2.0,1.0,4.0,2.0,90.0,event
11:34:25.794,0.51360387,0.48803517,0.93043804,0.038226664,0.57359207,0.32216457,0.45979702,0.16808814,0.77895045,0.33710665,0.41848785,0.52685505,0.65748715,-0.07696134,-0.16463774,0.17408739,0.16676356,-0.3012765,-0.59538,0.092876405,690.6227,808.2784,469.81686,818.3516,850.18317,-0.042236328125,-0.01617431640625,0.99029541015625,2.429962158203125,-2.773895263671875,0.261688232421875,1.0,2.0,1.0,4.0,2.0,90.0,event
11:34:25.794,0.51360387,0.48803517,0.93043804,0.038226664,0.57359207,0.32216457,0.45979702,0.16808814,0.77895045,0.33710665,0.41848785,0.52685505,0.65748715,-0.07696134,-0.16463774,0.17408739,0.16676356,-0.3012765,-0.59538,0.092876405,736.1539,803.44324,110.80586,835.2747,1041.978,-0.042236328125,-0.01617431640625,0.99029541015625,2.429962158203125,-2.773895263671875,0.261688232421875,1.0,2.0,1.0,4.0,2.0,90.0,event
11:34:25.795,0.51360387,0.48803517,0.93043804,0.038226664,0.57359207,0.32216457,0.45979702,0.16808814,0.77895045,0.33710665,0.41848785,0.52685505,0.65748715,-0.07696134,-0.16463774,0.17408739,0.16676356,-0.3012765,-0.59538,0.092876405,890.07324,807.8755,575.38464,848.1685,848.1685,-0.042236328125,-0.01617431640625,0.99029541015625,2.429962158203125,-2.773895263671875,0.261688232421875,1.0,2.0,1.0,4.0,2.0,90.0,event
11:34:25.796,0.51360387,0.48803517,0.93043804,0.038226664,0.57359207,0.32216457,0.45979702,0.16808814,0.77895045,0.33710665,0.41848785,0.52685505,0.65748715,-0.07696134,-0.16463774,0.17408739,0.16676356,-0.3012765,-0.59538,0.092876405,935.2015,803.8461,899.34064,835.2747,745.0183,-0.042236328125,-0.01617431640625,0.99029541015625,2.429962158203125,-2.773895263671875,0.261688232421875,1.0,2.0,1.0,4.0,2.0,90.0,event
11:34:25.821,0.51360387,0.48803517,0.93043804,0.038226664,0.57359207,0.32216457,0.45979702,0.16808814,0.77895045,0.33710665,0.41848785,0.52685505,0.65748715,-0.07696134,-0.16463774,0.17408739,0.16676356,-0.3012765,-0.59538,0.092876405,796.99634,799.011,438.38828,813.91943,820.7692,-0.041259765625,-0.0152587890625,0.98895263671875,1.98883056640625,-4.478607177734375,0.73272705078125,1.0,2.0,1.0,4.0,2.0,90.0,event
11:34:25.822,0.51360387,0.48803517,0.93043804,0.038226664,0.57359207,0.32216457,0.45979702,0.16808814,0.77895045,0.33710665,0.41848785,0.52685505,0.65748715,-0.07696134,-0.16463774,0.17408739,0.16676356,-0.3012765,-0.59538,0.092876405,691.02563,811.50183,484.72528,804.65204,747.4359,-0.041259765625,-0.0152587890625,0.98895263671875,1.98883056640625,-4.478607177734375,0.73272705078125,1.0,2.0,1.0,4.0,2.0,90.0,event
11:34:25.824,0.51360387,0.48803517,0.93043804,0.038226664,0.57359207,0.32216457,0.45979702,0.16808814,0.77895045,0.33710665,0.41848785,0.52685505,0.65748715,-0.07696134,-0.16463774,0.17408739,0.16676356,-0.3012765,-0.59538,0.092876405,734.94507,813.5165,815.12823,818.3516,668.86444,-0.041259765625,-0.0152587890625,0.98895263671875,1.98883056640625,-4.478607177734375,0.73272705078125,1.0,2.0,1.0,4.0,2.0,90.0,event
11:34:25.825,0.51360387,0.48803517,0.93043804,0.038226664,0.57359207,0.32216457,0.45979702,0.16808814,0.77895045,0.33710665,0.41848785,0.52685505,0.65748715,-0.07696134,-0.16463774,0.17408739,0.16676356,-0.3012765,-0.59538,0.092876405,868.71796,803.0403,847.3626,840.9158,744.61536,-0.041259765625,-0.0152587890625,0.98895263671875,1.98883056640625,-4.478607177734375,0.73272705078125,1.0,2.0,1.0,4.0,2.0,90.0,event
11:34:25.826,0.51360387,0.48803517,0.93043804,0.038226664,0.57359207,0.32216457,0.45979702,0.16808814,0.77895045,0.33710665,0.41848785,0.52685505,0.65748715,-0.07696134,-0.16463774,0.17408739,0.16676356,-0.3012765,-0.59538,0.092876405,931.1722,804.65204,715.2015,844.94507,813.5165,-0.041259765625,-0.0152587890625,0.98895263671875,1.98883056640625,-4.478607177734375,0.73272705078125,1.0,2.0,1.0,4.0,2.0,90.0,event
11:34:25.827,0.51360387,0.48803517,0.93043804,0.038226664,0.57359207,0.32216457,0.45979702,0.16808814,0.77895045,0.33710665,0.41848785,0.52685505,0.65748715,-0.07696134,-0.16463774,0.17408739,0.16676356,-0.3012765,-0.59538,0.092876405,817.5458,806.6667,487.14285,825.2015,820.3663,-0.041259765625,-0.0152587890625,0.98895263671875,1.98883056640625,-4.478607177734375,0.73272705078125,1.0,2.0,1.0,4.0,2.0,90.0,event
11:34:25.831,0.51360387,0.48803517,0.93043804,0.038226664,0.57359207,0.32216457,0.45979702,0.16808814,0.77895045,0.33710665,0.41848785,0.52685505,0.65748715,-0.07696134,-0.16463774,0.17408739,0.16676356,-0.3012765,-0.59538,0.092876405,699.0842,801.4286,452.89377,811.0989,815.9341,-0.041259765625,-0.0152587890625,0.98895263671875,1.98883056640625,-4.478607177734375,0.73272705078125,1.0,2.0,1.0,4.0,2.0,90.0,event
11:34:25.832,0.51360387,0.48803517,0.93043804,0.038226664,0.57359207,0.32216457,0.45979702,0.16808814,0.77895045,0.33710665,0.41848785,0.52685505,0.65748715,-0.07696134,-0.16463774,0.17408739,0.16676356,-0.3012765,-0.59538,0.092876405,713.1868,797.8022,570.9524,810.696,763.5531,-0.041259765625,-0.0152587890625,0.98895263671875,1.98883056640625,-4.478607177734375,0.73272705078125,1.0,2.0,1.0,4.0,2.0,90.0,event
11:34:25.833,0.51360387,0.48803517,0.93043804,0.038226664,0.57359207,0.32216457,0.45979702,0.16808814,0.77895045,0.33710665,0.41848785,0.52685505,0.65748715,-0.07696134,-0.16463774,0.17408739,0.16676356,-0.3012765,-0.59538,0.092876405,828.022,796.5934,265.1282,826.0073,954.94507,-0.041259765625,-0.0152587890625,0.98895263671875,1.98883056640625,-4.478607177734375,0.73272705078125,1.0,2.0,1.0,4.0,2.0,90.0,event
11:34:25.834,0.51360387,0.48803517,0.93043804,0.038226664,0.57359207,0.32216457,0.45979702,0.16808814,0.77895045,0.33710665,0.41848785,0.52685505,0.65748715,-0.07696134,-0.16463774,0.17408739,0.16676356,-0.3012765,-0.59538,0.092876405,922.71063,804.2491,487.54578,832.4542,867.50916,-0.041259765625,-0.0152587890625,0.98895263671875,1.98883056640625,-4.478607177734375,0.73272705078125,1.0,2.0,1.0,4.0,2.0,90.0,event
11:34:25.834,0.51360387,0.48803517,0.93043804,0.038226664,0.57359207,0.32216457,0.45979702,0.16808814,0.77895045,0.33710665,0.41848785,0.52685505,0.65748715,-0.07696134,-0.16463774,0.17408739,0.16676356,-0.3012765,-0.59538,0.092876405,840.9158,806.6667,841.31866,811.50183,655.16486,-0.041259765625,-0.0152587890625,0.98895263671875,1.98883056640625,-4.478607177734375,0.73272705078125,1.0,2.0,1.0,4.0,2.0,90.0,event
11:34:25.835,0.51360387,0.48803517,0.93043804,0.038226664,0.57359207,0.32216457,0.45979702,0.16808814,0.77895045,0.33710665,0.41848785,0.52685505,0.65748715,-0.07696134,-0.16463774,0.17408739,0.16676356,-0.3012765,-0.59538,0.092876405,708.3516,810.696,668.46155,799.011,694.65204,-0.041259765625,-0.0152587890625,0.98895263671875,1.98883056640625,-4.478607177734375,0.73272705078125,1.0,2.0,1.0,4.0,2.0,90.0,event
11:34:25.859,0.51360387,0.48803517,0.93043804,0.038226664,0.57359207,0.32216457,0.45979702,0.16808814,0.77895045,0.33710665,0.41848785,0.52685505,0.65748715,-0.07696134,-0.16463774,0.17408739,0.16676356,-0.3012765,-0.59538,0.092876405,709.15753,809.89014,580.6227,808.2784,756.30035,-0.04168701171875,-0.01629638671875,0.98602294921875,2.250518798828125,-2.49725341796875,0.10467529296875,1.0,2.0,1.0,4.0,2.0,90.0,event
11:34:25.860,0.51360387,0.48803517,0.93043804,0.038226664,0.57359207,0.32216457,0.45979702,0.16808814,0.77895045,0.33710665,0.41848785,0.52685505,0.65748715,-0.07696134,-0.16463774,0.17408739,0.16676356,-0.3012765,-0.59538,0.092876405,826.8132,803.8461,694.2491,817.9487,810.293,-0.04168701171875,-0.01629638671875,0.98602294921875,2.250518798828125,-2.49725341796875,0.10467529296875,1.0,2.0,1.0,4.0,2.0,90.0,event
11:34:25.861,0.51360387,0.48803517,0.93043804,0.038226664,0.57359207,0.32216457,0.45979702,0.16808814,0.77895045,0.33710665,0.41848785,0.52685505,0.65748715,-0.07696134,-0.16463774,0.17408739,0.16676356,-0.3012765,-0.59538,0.092876405,941.6484,811.0989,903.36993,826.0073,757.9121,-0.04168701171875,-0.01629638671875,0.98602294921875,2.250518798828125,-2.49725341796875,0.10467529296875,1.0,2.0,1.0,4.0,2.0,90.0,event
11:34:25.862,0.51360387,0.48803517,0.93043804,0.038226664,0.57359207,0.32216457,0.45979702,0.16808814,0.77895045,0.33710665,0.41848785,0.52685505,0.65748715,-0.07696134,-0.16463774,0.17408739,0.16676356,-0.3012765,-0.59538,0.092876405,712.7839,810.293,453.69965,802.6374,798.20514,-0.04168701171875,-0.01629638671875,0.98602294921875,2.250518798828125,-2.49725341796875,0.10467529296875,1.0,2.0,1.0,4.0,2.0,90.0,event
11:34:25.862,0.51360387,0.48803517,0.93043804,0.038226664,0.57359207,0.32216457,0.45979702,0.16808814,0.77895045,0.33710665,0.41848785,0.52685505,0.65748715,-0.07696134,-0.16463774,0.17408739,0.16676356,-0.3012765,-0.59538,0.092876405,865.4945,811.50183,696.6667,816.7399,781.685,-0.04168701171875,-0.01629638671875,0.98602294921875,2.250518798828125,-2.49725341796875,0.10467529296875,1.0,2.0,1.0,4.0,2.0,90.0,event
11:34:25.863,0.51360387,0.48803517,0.93043804,0.038226664,0.57359207,0.32216457,0.45979702,0.16808814,0.77895045,0.33710665,0.41848785,0.52685505,0.65748715,-0.07696134,-0.16463774,0.17408739,0.16676356,-0.3012765,-0.59538,0.092876405,721.2454,811.0989,491.97803,807.0696,752.27106,-0.04168701171875,-0.01629638671875,0.98602294921875,2.250518798828125,-2.49725341796875,0.10467529296875,1.0,2.0,1.0,4.0,2.0,90.0,event
11:34:25.864,0.51360387,0.48803517,0.93043804,0.038226664,0.57359207,0.32216457,0.45979702,0.16808814,0.77895045,0.33710665,0.41848785,0.52685505,0.65748715,-0.07696134,-0.16463774,0.17408739,0.16676356,-0.3012765,-0.59538,0.092876405,823.9927,803.8461,598.3516,811.0989,710.3663,-0.04168701171875,-0.01629638671875,0.98602294921875,2.250518798828125,-2.49725341796875,0.10467529296875,1.0,2.0,1.0,4.0,2.0,90.0,event
11:34:25.864,0.51360387,0.48803517,0.93043804,0.038226664,0.57359207,0.32216457,0.45979702,0.16808814,0.77895045,0.33710665,0.41848785,0.52685505,0.65748715,-0.07696134,-0.16463774,0.17408739,0.16676356,-0.3012765,-0.59538,0.092876405,922.71063,800.6227,455.7143,817.5458,818.3516,-0.04168701171875,-0.01629638671875,0.98602294921875,2.250518798828125,-2.49725341796875,0.10467529296875,1.0,2.0,1.0,4.0,2.0,90.0,event
11:34:25.865,0.51360387,0.48803517,0.93043804,0.038226664,0.57359207,0.32216457,0.45979702,0.16808814,0.77895045,0.33710665,0.41848785,0.52685505,0.65748715,-0.07696134,-0.16463774,0.17408739,0.16676356,-0.3012765,-0.59538,0.092876405,880.0,808.68134,184.13919,812.3077,950.9158,-0.04168701171875,-0.01629638671875,0.98602294921875,2.250518798828125,-2.49725341796875,0.10467529296875,1.0,2.0,1.0,4.0,2.0,90.0,event
11:34:25.866,0.51360387,0.48803517,0.93043804,0.038226664,0.57359207,0.32216457,0.45979702,0.16808814,0.77895045,0.33710665,0.41848785,0.52685505,0.65748715,-0.07696134,-0.16463774,0.17408739,0.16676356,-0.3012765,-0.59538,0.092876405,744.21246,808.68134,606.4103,790.9524,749.0476,-0.04168701171875,-0.01629638671875,0.98602294921875,2.250518798828125,-2.49725341796875,0.10467529296875,1.0,2.0,1.0,4.0,2.0,90.0,event
11:34:25.867,0.51360387,0.48803517,0.93043804,0.038226664,0.57359207,0.32216457,0.45979702,0.16808814,0.77895045,0.33710665,0.41848785,0.52685505,0.65748715,-0.07696134,-0.16463774,0.17408739,0.16676356,-0.3012765,-0.59538,0.092876405,705.12823,804.65204,777.25275,793.36993,678.1319,-0.04168701171875,-0.01629638671875,0.98602294921875,2.250518798828125,-2.49725341796875,0.10467529296875,1.0,2.0,1.0,4.0,2.0,90.0,event
11:34:25.867,0.51360387,0.48803517,0.93043804,0.038226664,0.57359207,0.32216457,0.45979702,0.16808814,0.77895045,0.33710665,0.41848785,0.52685505,0.65748715,-0.07696134,-0.16463774,0.17408739,0.16676356,-0.3012765,-0.59538,0.092876405,797.3993,804.2491,640.65936,808.68134,772.4176,-0.04168701171875,-0.01629638671875,0.98602294921875,2.250518798828125,-2.49725341796875,0.10467529296875,1.0,2.0,1.0,4.0,2.0,90.0,event
11:34:25.892,0.51360387,0.48803517,0.93043804,0.038226664,0.57359207,0.32216457,0.45979702,0.16808814,0.77895045,0.33710665,0.41848785,0.52685505,0.65748715,-0.07696134,-0.16463774,0.17408739,0.16676356,-0.3012765,-0.59538,0.092876405,927.1429,805.8608,846.55676,823.5897,797.3993,-0.04168701171875,-0.01629638671875,0.98602294921875,2.250518798828125,-2.49725341796875,0.10467529296875,1.0,2.0,1.0,4.0,2.0,90.0,event
11:34:25.893,0.51360387,0.48803517,0.93043804,0.038226664,0.57359207,0.32216457,0.45979702,0.16808814,0.77895045,0.33710665,0.41848785,0.52685505,0.65748715,-0.07696134,-0.16463774,0.17408739,0.16676356,-0.3012765,-0.59538,0.092876405,901.75824,809.89014,931.5751,816.7399,765.56775,-0.04168701171875,-0.01629638671875,0.98602294921875,2.250518798828125,-2.49725341796875,0.10467529296875,1.0,2.0,1.0,4.0,2.0,90.0,event
11:34:25.894,0.51360387,0.48803517,0.93043804,0.038226664,0.57359207,0.32216457,0.45979702,0.16808814,0.77895045,0.33710665,0.41848785,0.52685505,0.65748715,-0.07696134,-0.16463774,0.17408739,0.16676356,-0.3012765,-0.59538,0.092876405,757.50916,809.4872,732.1245,800.2198,716.8132,-0.04168701171875,-0.01629638671875,0.98602294921875,2.250518798828125,-2.49725341796875,0.10467529296875,1.0,2.0,1.0,4.0,2.0,90.0,event
11:34:25.895,0.51360387,0.48803517,0.93043804,0.038226664,0.57359207,0.32216457,0.45979702,0.16808814,0.77895045,0.33710665,0.41848785,0.52685505,0.65748715,-0.07696134,-0.16463774,0.17408739,0.16676356,-0.3012765,-0.59538,0.092876405,706.337,811.0989,543.1502,804.2491,784.90845,-0.04168701171875,-0.01629638671875,0.98602294921875,2.250518798828125,-2.49725341796875,0.10467529296875,1.0,2.0,1.0,4.0,2.0,90.0,event
11:34:25.896,0.51360387,0.48803517,0.93043804,0.038226664,0.57359207,0.32216457,0.45979702,0.16808814,0.77895045,0.33710665,0.41848785,0.52685505,0.65748715,-0.07696134,-0.16463774,0.17408739,0.16676356,-0.3012765,-0.59538,0.092876405,792.96704,813.91943,547.5824,813.5165,805.05493,-0.04168701171875,-0.01629638671875,0.98602294921875,2.250518798828125,-2.49725341796875,0.10467529296875,1.0,2.0,1.0,4.0,2.0,90.0,event
11:34:25.898,0.51360387,0.48803517,0.93043804,0.038226664,0.57359207,0.32216457,0.45979702,0.16808814,0.77895045,0.33710665,0.41848785,0.52685505,0.65748715,-0.07696134,-0.16463774,0.17408739,0.16676356,-0.3012765,-0.59538,0.092876405,916.6667,813.91943,655.9707,821.1722,841.7216,-0.04168701171875,-0.01629638671875,0.98602294921875,2.250518798828125,-2.49725341796875,0.10467529296875,1.0,2.0,1.0,4.0,2.0,90.0,event
11:34:25.899,0.51360387,0.48803517,0.93043804,0.038226664,0.57359207,0.32216457,0.45979702,0.16808814,0.77895045,0.33710665,0.41848785,0.52685505,0.65748715,-0.07696134,-0.16463774,0.17408739,0.16676356,-0.3012765,-0.59538,0.092876405,906.1905,808.68134,631.39197,811.0989,948.9011,-0.04168701171875,-0.01629638671875,0.98602294921875,2.250518798828125,-2.49725341796875,0.10467529296875,1.0,2.0,1.0,4.0,2.0,90.0,event
11:34:25.900,0.51360387,0.48803517,0.93043804,0.038226664,0.57359207,0.32216457,0.45979702,0.16808814,0.77895045,0.33710665,0.41848785,0.52685505,0.65748715,-0.07696134,-0.16463774,0.17408739,0.16676356,-0.3012765,-0.59538,0.092876405,763.95605,803.8461,151.90475,803.0403,1089.1208,-0.04168701171875,-0.01629638671875,0.98602294921875,2.250518798828125,-2.49725341796875,0.10467529296875,1.0,2.0,1.0,4.0,2.0,90.0,event
11:34:25.905,0.51360387,0.48803517,0.93043804,0.038226664,0.57359207,0.32216457,0.45979702,0.16808814,0.77895045,0.33710665,0.41848785,0.52685505,0.65748715,-0.07696134,-0.16463774,0.17408739,0.16676356,-0.3012765,-0.59538,0.092876405,690.6227,810.293,149.08424,807.47253,940.4396,-0.04168701171875,-0.01629638671875,0.98602294921875,2.250518798828125,-2.49725341796875,0.10467529296875,1.0,2.0,1.0,4.0,2.0,90.0,event
11:34:25.906,0.51360387,0.48803517,0.93043804,0.038226664,0.57359207,0.32216457,0.45979702,0.16808814,0.77895045,0.33710665,0.41848785,0.52685505,0.65748715,-0.07696134,-0.16463774,0.17408739,0.16676356,-0.3012765,-0.59538,0.092876405,771.6117,807.8755,774.83514,812.3077,668.46155,-0.04168701171875,-0.01629638671875,0.98602294921875,2.250518798828125,-2.49725341796875,0.10467529296875,1.0,2.0,1.0,4.0,2.0,90.0,event
11:34:25.907,0.51360387,0.48803517,0.93043804,0.038226664,0.57359207,0.32216457,0.45979702,0.16808814,0.77895045,0.33710665,0.41848785,0.52685505,0.65748715,-0.07696134,-0.16463774,0.17408739,0.16676356,-0.3012765,-0.59538,0.092876405,909.41394,802.6374,889.67035,826.4103,736.55676,-0.04168701171875,-0.01629638671875,0.98602294921875,2.250518798828125,-2.49725341796875,0.10467529296875,1.0,2.0,1.0,4.0,2.0,90.0,event
11:34:25.908,0.51360387,0.48803517,0.93043804,0.038226664,0.57359207,0.32216457,0.45979702,0.16808814,0.77895045,0.33710665,0.41848785,0.52685505,0.65748715,-0.07696134,-0.16463774,0.17408739,0.16676356,-0.3012765,-0.59538,0.092876405,920.696,806.6667,784.90845,824.7985,811.50183,-0.04168701171875,-0.01629638671875,0.98602294921875,2.250518798828125,-2.49725341796875,0.10467529296875,1.0,2.0,1.0,4.0,2.0,90.0,event
11:34:25.929,0.51360387,0.48803517,0.93043804,0.038226664,0.57359207,0.32216457,0.45979702,0.16808814,0.77895045,0.33710665,0.41848785,0.52685505,0.65748715,-0.07696134,-0.16463774,0.17408739,0.16676356,-0.3012765,-0.59538,0.092876405,782.49084,811.50183,794.57874,807.0696,739.7802,-0.046630859375,-0.0098876953125,0.98736572265625,2.953338623046875,-3.058013916015625,1.07666015625,1.0,2.0,1.0,4.0,2.0,90.0,event
11:34:25.931,0.51360387,0.48803517,0.93043804,0.038226664,0.57359207,0.32216457,0.45979702,0.16808814,0.77895045,0.33710665,0.41848785,0.52685505,0.65748715,-0.07696134,-0.16463774,0.17408739,0.16676356,-0.3012765,-0.59538,0.092876405,682.96704,811.50183,755.09155,808.68134,683.7729,-0.046630859375,-0.0098876953125,0.98736572265625,2.953338623046875,-3.058013916015625,1.07666015625,1.0,2.0,1.0,4.0,2.0,90.0,event
11:34:25.931,0.51360387,0.48803517,0.93043804,0.038226664,0.57359207,0.32216457,0.45979702,0.16808814,0.77895045,0.33710665,0.41848785,0.52685505,0.65748715,-0.07696134,-0.16463774,0.17408739,0.16676356,-0.3012765,-0.59538,0.092876405,740.989,808.68134,686.5934,832.8571,734.1392,-0.046630859375,-0.0098876953125,0.98736572265625,2.953338623046875,-3.058013916015625,1.07666015625,1.0,2.0,1.0,4.0,2.0,90.0,event
11:34:25.932,0.51360387,0.48803517,0.93043804,0.038226664,0.57359207,0.32216457,0.45979702,0.16808814,0.77895045,0.33710665,0.41848785,0.52685505,0.65748715,-0.07696134,-0.16463774,0.17408739,0.16676356,-0.3012765,-0.59538,0.092876405,882.4176,811.0989,773.6264,840.10986,755.89746,-0.046630859375,-0.0098876953125,0.98736572265625,2.953338623046875,-3.058013916015625,1.07666015625,1.0,2.0,1.0,4.0,2.0,90.0,event
11:34:25.932,0.51360387,0.48803517,0.93043804,0.038226664,0.57359207,0.32216457,0.45979702,0.16808814,0.77895045,0.33710665,0.41848785,0.52685505,0.65748715,-0.07696134,-0.16463774,0.17408739,0.16676356,-0.3012765,-0.59538,0.092876405,929.9634,811.9048,867.9121,828.022,752.674,-0.046630859375,-0.0098876953125,0.98736572265625,2.953338623046875,-3.058013916015625,1.07666015625,1.0,2.0,1.0,4.0,2.0,90.0,event
11:34:25.933,0.51360387,0.48803517,0.93043804,0.038226664,0.57359207,0.32216457,0.45979702,0.16808814,0.77895045,0.33710665,0.41848785,0.52685505,0.65748715,-0.07696134,-0.16463774,0.17408739,0.16676356,-0.3012765,-0.59538,0.092876405,683.36993,799.011,296.95972,805.8608,920.293,-0.046630859375,-0.0098876953125,0.98736572265625,2.953338623046875,-3.058013916015625,1.07666015625,1.0,2.0,1.0,4.0,2.0,90.0,event
11:34:25.933,0.51360387,0.48803517,0.93043804,0.038226664,0.57359207,0.32216457,0.45979702,0.16808814,0.77895045,0.33710665,0.41848785,0.52685505,0.65748715,-0.07696134,-0.16463774,0.17408739,0.16676356,-0.3012765,-0.59538,0.092876405,811.9048,808.68134,638.24176,816.7399,765.56775,-0.046630859375,-0.0098876953125,0.98736572265625,2.953338623046875,-3.058013916015625,1.07666015625,1.0,2.0,1.0,4.0,2.0,90.0,event
11:34:25.934,0.51360387,0.48803517,0.93043804,0.038226664,0.57359207,0.32216457,0.45979702,0.16808814,0.77895045,0.33710665,0.41848785,0.52685505,0.65748715,-0.07696134,-0.16463774,0.17408739,0.16676356,-0.3012765,-0.59538,0.092876405,706.337,799.41394,91.86813,811.9048,1098.3883,-0.046630859375,-0.0098876953125,0.98736572265625,2.953338623046875,-3.058013916015625,1.07666015625,1.0,2.0,1.0,4.0,2.0,90.0,event
11:34:25.935,0.51360387,0.48803517,0.93043804,0.038226664,0.57359207,0.32216457,0.45979702,0.16808814,0.77895045,0.33710665,0.41848785,0.52685505,0.65748715,-0.07696134,-0.16463774,0.17408739,0.16676356,-0.3012765,-0.59538,0.092876405,865.4945,804.2491,556.04395,829.6337,898.5348,-0.046630859375,-0.0098876953125,0.98736572265625,2.953338623046875,-3.058013916015625,1.07666015625,1.0,2.0,1.0,4.0,2.0,90.0,event
11:34:25.935,0.51360387,0.48803517,0.93043804,0.038226664,0.57359207,0.32216457,0.45979702,0.16808814,0.77895045,0.33710665,0.41848785,0.52685505,0.65748715,-0.07696134,-0.16463774,0.17408739,0.16676356,-0.3012765,-0.59538,0.092876405,942.0513,799.41394,940.4396,831.2454,733.73627,-0.046630859375,-0.0098876953125,0.98736572265625,2.953338623046875,-3.058013916015625,1.07666015625,1.0,2.0,1.0,4.0,2.0,90.0,event
11:34:25.936,0.51360387,0.48803517,0.93043804,0.038226664,0.57359207,0.32216457,0.45979702,0.16808814,0.77895045,0.33710665,0.41848785,0.52685505,0.65748715,-0.07696134,-0.16463774,0.17408739,0.16676356,-0.3012765,-0.59538,0.092876405,813.91943,793.36993,505.27472,818.3516,872.74725,-0.046630859375,-0.0098876953125,0.98736572265625,2.953338623046875,-3.058013916015625,1.07666015625,1.0,2.0,1.0,4.0,2.0,90.0,event
11:34:25.936,0.51360387,0.48803517,0.93043804,0.038226664,0.57359207,0.32216457,0.45979702,0.16808814,0.77895045,0.33710665,0.41848785,0.52685505,0.65748715,-0.07696134,-0.16463774,0.17408739,0.16676356,-0.3012765,-0.59538,0.092876405,699.0842,796.1905,379.96338,814.7253,855.0183,-0.046630859375,-0.0098876953125,0.98736572265625,2.953338623046875,-3.058013916015625,1.07666015625,1.0,2.0,1.0,4.0,2.0,90.0,event
11:34:26.024,0.51360387,0.48803517,0.93043804,0.038226664,0.57359207,0.32216457,0.45979702,0.16808814,0.77895045,0.33710665,0.41848785,0.52685505,0.65748715,-0.07696134,-0.16463774,0.17408739,0.16676356,-0.3012765,-0.59538,0.092876405,735.7509,796.1905,817.9487,821.1722,682.96704,-0.057373046875,-0.005859375,0.99566650390625,2.818756103515625,-3.446807861328125,1.30096435546875,1.0,2.0,1.0,4.0,2.0,90.0,event
11:34:26.025,0.51360387,0.48803517,0.93043804,0.038226664,0.57359207,0.32216457,0.45979702,0.16808814,0.77895045,0.33710665,0.41848785,0.52685505,0.65748715,-0.07696134,-0.16463774,0.17408739,0.16676356,-0.3012765,-0.59538,0.092876405,857.4359,790.54944,886.4469,827.619,703.91943,-0.057373046875,-0.005859375,0.99566650390625,2.818756103515625,-3.446807861328125,1.30096435546875,1.0,2.0,1.0,4.0,2.0,90.0,event
11:34:26.027,0.51360387,0.48803517,0.93043804,0.038226664,0.57359207,0.32216457,0.45979702,0.16808814,0.77895045,0.33710665,0.41848785,0.52685505,0.65748715,-0.07696134,-0.16463774,0.17408739,0.16676356,-0.3012765,-0.59538,0.092876405,928.7546,794.9817,723.663,828.8278,803.44324,-0.057373046875,-0.005859375,0.99566650390625,2.818756103515625,-3.446807861328125,1.30096435546875,1.0,2.0,1.0,4.0,2.0,90.0,event
11:34:26.028,0.51360387,0.48803517,0.93043804,0.038226664,0.57359207,0.32216457,0.45979702,0.16808814,0.77895045,0.33710665,0.41848785,0.52685505,0.65748715,-0.07696134,-0.16463774,0.17408739,0.16676356,-0.3012765,-0.59538,0.092876405,837.28937,802.23444,721.2454,813.1135,747.03296,-0.057373046875,-0.005859375,0.99566650390625,2.818756103515625,-3.446807861328125,1.30096435546875,1.0,2.0,1.0,4.0,2.0,90.0,event
11:34:26.029,0.51360387,0.48803517,0.93043804,0.038226664,0.57359207,0.32216457,0.45979702,0.16808814,0.77895045,0.33710665,0.41848785,0.52685505,0.65748715,-0.07696134,-0.16463774,0.17408739,0.16676356,-0.3012765,-0.59538,0.092876405,710.7692,805.4579,763.1502,800.2198,715.2015,-0.057373046875,-0.005859375,0.99566650390625,2.818756103515625,-3.446807861328125,1.30096435546875,1.0,2.0,1.0,4.0,2.0,90.0,event
11:34:26.031,0.51360387,0.48803517,0.93043804,0.038226664,0.57359207,0.32216457,0.45979702,0.16808814,0.77895045,0.33710665,0.41848785,0.52685505,0.65748715,-0.07696134,-0.16463774,0.17408739,0.16676356,-0.3012765,-0.59538,0.092876405,702.3077,805.8608,610.84247,806.26373,851.79486,-0.057373046875,-0.005859375,0.99566650390625,2.818756103515625,-3.446807861328125,1.30096435546875,1.0,2.0,1.0,4.0,2.0,90.0,event
11:34:26.032,0.51360387,0.48803517,0.93043804,0.038226664,0.57359207,0.32216457,0.45979702,0.16808814,0.77895045,0.33710665,0.41848785,0.52685505,0.65748715,-0.07696134,-0.16463774,0.17408739,0.16676356,-0.3012765,-0.59538,0.092876405,814.3223,806.26373,233.69963,821.978,1049.2307,-0.057373046875,-0.005859375,0.99566650390625,2.818756103515625,-3.446807861328125,1.30096435546875,1.0,2.0,1.0,4.0,2.0,90.0,event
11:34:26.033,0.51360387,0.48803517,0.93043804,0.038226664,0.57359207,0.32216457,0.45979702,0.16808814,0.77895045,0.33710665,0.41848785,0.52685505,0.65748715,-0.07696134,-0.16463774,0.17408739,0.16676356,-0.3012765,-0.59538,0.092876405,937.2161,816.337,552.01465,828.022,906.5934,-0.057373046875,-0.005859375,0.99566650390625,2.818756103515625,-3.446807861328125,1.30096435546875,1.0,2.0,1.0,4.0,2.0,90.0,event
11:34:26.035,0.51360387,0.48803517,0.93043804,0.038226664,0.57359207,0.32216457,0.45979702,0.16808814,0.77895045,0.33710665,0.41848785,0.52685505,0.65748715,-0.07696134,-0.16463774,0.17408739,0.16676356,-0.3012765,-0.59538,0.092876405,872.74725,818.7546,906.99634,811.50183,697.47253,-0.057373046875,-0.005859375,0.99566650390625,2.818756103515625,-3.446807861328125,1.30096435546875,1.0,2.0,1.0,4.0,2.0,90.0,event
11:34:26.036,0.51360387,0.48803517,0.93043804,0.038226664,0.57359207,0.32216457,0.45979702,0.16808814,0.77895045,0.33710665,0.41848785,0.52685505,0.65748715,-0.07696134,-0.16463774,0.17408739,0.16676356,-0.3012765,-0.59538,0.092876405,727.28937,815.9341,633.4066,797.3993,718.4249,-0.057373046875,-0.005859375,0.99566650390625,2.818756103515625,-3.446807861328125,1.30096435546875,1.0,2.0,1.0,4.0,2.0,90.0,event
11:34:26.040,0.51360387,0.48803517,0.93043804,0.038226664,0.57359207,0.32216457,0.45979702,0.16808814,0.77895045,0.33710665,0.41848785,0.52685505,0.65748715,-0.07696134,-0.16463774,0.17408739,0.16676356,-0.3012765,-0.59538,0.092876405,713.1868,813.91943,468.60806,805.05493,841.7216,-0.057373046875,-0.005859375,0.99566650390625,2.818756103515625,-3.446807861328125,1.30096435546875,1.0,2.0,1.0,4.0,2.0,90.0,event
11:34:26.041,0.51360387,0.48803517,0.93043804,0.038226664,0.57359207,0.32216457,0.45979702,0.16808814,0.77895045,0.33710665,0.41848785,0.52685505,0.65748715,-0.07696134,-0.16463774,0.17408739,0.16676356,-0.3012765,-0.59538,0.092876405,832.4542,815.12823,766.3736,819.15753,812.3077,-0.057373046875,-0.005859375,0.99566650390625,2.818756103515625,-3.446807861328125,1.30096435546875,1.0,2.0,1.0,4.0,2.0,90.0,event
11:34:26.077,0.51360387,0.48803517,0.93043804,0.038226664,0.57359207,0.32216457,0.45979702,0.16808814,0.77895045,0.33710665,0.41848785,0.52685505,0.65748715,-0.07696134,-0.16463774,0.17408739,0.16676356,-0.3012765,-0.59538,0.092876405,958.97437,819.9634,1001.685,829.6337,751.4652,-0.04876708984375,-0.00775146484375,0.98712158203125,1.30096435546875,-3.887939453125,-0.19439697265625,1.0,2.0,1.0,4.0,2.0,90.0,event
11:34:26.079,0.51360387,0.48803517,0.93043804,0.038226664,0.57359207,0.32216457,0.45979702,0.16808814,0.77895045,0.33710665,0.41848785,0.52685505,0.65748715,-0.07696134,-0.16463774,0.17408739,0.16676356,-0.3012765,-0.59538,0.092876405,901.3553,813.1135,718.022,817.5458,796.5934,-0.04876708984375,-0.00775146484375,0.98712158203125,1.30096435546875,-3.887939453125,-0.19439697265625,1.0,2.0,1.0,4.0,2.0,90.0,event
11:34:26.081,0.51360387,0.48803517,0.93043804,0.038226664,0.57359207,0.32216457,0.45979702,0.16808814,0.77895045,0.33710665,0.41848785,0.52685505,0.65748715,-0.07696134,-0.16463774,0.17408739,0.16676356,-0.3012765,-0.59538,0.092876405,740.18317,810.293,395.67764,800.2198,818.3516,-0.04876708984375,-0.00775146484375,0.98712158203125,1.30096435546875,-3.887939453125,-0.19439697265625,1.0,2.0,1.0,4.0,2.0,90.0,event
11:34:26.082,0.51360387,0.48803517,0.93043804,0.038226664,0.57359207,0.32216457,0.45979702,0.16808814,0.77895045,0.33710665,0.41848785,0.52685505,0.65748715,-0.07696134,-0.16463774,0.17408739,0.16676356,-0.3012765,-0.59538,0.092876405,704.3223,812.71063,715.2015,801.4286,770.80585,-0.04876708984375,-0.00775146484375,0.98712158203125,1.30096435546875,-3.887939453125,-0.19439697265625,1.0,2.0,1.0,4.0,2.0,90.0,event
11:34:26.084,0.51360387,0.48803517,0.93043804,0.038226664,0.57359207,0.32216457,0.45979702,0.16808814,0.77895045,0.33710665,0.41848785,0.52685505,0.65748715,-0.07696134,-0.16463774,0.17408739,0.16676356,-0.3012765,-0.59538,0.092876405,810.293,808.68134,940.4396,815.5311,732.9304,-0.04876708984375,-0.00775146484375,0.98712158203125,1.30096435546875,-3.887939453125,-0.19439697265625,1.0,2.0,1.0,4.0,2.0,90.0,event
11:34:26.086,0.51360387,0.48803517,0.93043804,0.038226664,0.57359207,0.32216457,0.45979702,0.16808814,0.77895045,0.33710665,0.41848785,0.52685505,0.65748715,-0.07696134,-0.16463774,0.17408739,0.16676356,-0.3012765,-0.59538,0.092876405,922.3077,808.2784,580.6227,828.4249,825.6044,-0.04876708984375,-0.00775146484375,0.98712158203125,1.30096435546875,-3.887939453125,-0.19439697265625,1.0,2.0,1.0,4.0,2.0,90.0,event
11:34:26.087,0.51360387,0.48803517,0.93043804,0.038226664,0.57359207,0.32216457,0.45979702,0.16808814,0.77895045,0.33710665,0.41848785,0.52685505,0.65748715,-0.07696134,-0.16463774,0.17408739,0.16676356,-0.3012765,-0.59538,0.092876405,879.19415,816.337,313.88278,813.91943,889.2674,-0.04876708984375,-0.00775146484375,0.98712158203125,1.30096435546875,-3.887939453125,-0.19439697265625,1.0,2.0,1.0,4.0,2.0,90.0,event
11:34:26.089,0.51360387,0.48803517,0.93043804,0.038226664,0.57359207,0.32216457,0.45979702,0.16808814,0.77895045,0.33710665,0.41848785,0.52685505,0.65748715,-0.07696134,-0.16463774,0.17408739,0.16676356,-0.3012765,-0.59538,0.092876405,737.3626,815.9341,520.58606,794.9817,735.34796,-0.04876708984375,-0.00775146484375,0.98712158203125,1.30096435546875,-3.887939453125,-0.19439697265625,1.0,2.0,1.0,4.0,2.0,90.0,event
11:34:26.091,0.51360387,0.48803517,0.93043804,0.038226664,0.57359207,0.32216457,0.45979702,0.16808814,0.77895045,0.33710665,0.41848785,0.52685505,0.65748715,-0.07696134,-0.16463774,0.17408739,0.16676356,-0.3012765,-0.59538,0.092876405,684.57874,808.68134,753.8828,800.2198,672.8938,-0.04876708984375,-0.00775146484375,0.98712158203125,1.30096435546875,-3.887939453125,-0.19439697265625,1.0,2.0,1.0,4.0,2.0,90.0,event
11:34:26.092,0.51360387,0.48803517,0.93043804,0.038226664,0.57359207,0.32216457,0.45979702,0.16808814,0.77895045,0.33710665,0.41848785,0.52685505,0.65748715,-0.07696134,-0.16463774,0.17408739,0.16676356,-0.3012765,-0.59538,0.092876405,776.4469,809.4872,506.0806,819.9634,789.34064,-0.04876708984375,-0.00775146484375,0.98712158203125,1.30096435546875,-3.887939453125,-0.19439697265625,1.0,2.0,1.0,4.0,2.0,90.0,event
11:34:26.093,0.51360387,0.48803517,0.93043804,0.038226664,0.57359207,0.32216457,0.45979702,0.16808814,0.77895045,0.33710665,0.41848785,0.52685505,0.65748715,-0.07696134,-0.16463774,0.17408739,0.16676356,-0.3012765,-0.59538,0.092876405,914.65204,815.9341,542.3443,834.4689,893.69965,-0.04876708984375,-0.00775146484375,0.98712158203125,1.30096435546875,-3.887939453125,-0.19439697265625,1.0,2.0,1.0,4.0,2.0,90.0,event
11:34:26.093,0.51360387,0.48803517,0.93043804,0.038226664,0.57359207,0.32216457,0.45979702,0.16808814,0.77895045,0.33710665,0.41848785,0.52685505,0.65748715,-0.07696134,-0.16463774,0.17408739,0.16676356,-0.3012765,-0.59538,0.092876405,913.44324,815.5311,902.1612,832.8571,784.10254,-0.04876708984375,-0.00775146484375,0.98712158203125,1.30096435546875,-3.887939453125,-0.19439697265625,1.0,2.0,1.0,4.0,2.0,90.0,event
11:34:26.142,0.51360387,0.48803517,0.93043804,0.038226664,0.57359207,0.32216457,0.45979702,0.16808814,0.77895045,0.33710665,0.41848785,0.52685505,0.65748715,-0.07696134,-0.16463774,0.17408739,0.16676356,-0.3012765,-0.59538,0.092876405,762.3443,810.293,707.9487,818.3516,707.1429,-0.04974365234375,-0.0155029296875,0.98614501953125,1.54022216796875,-3.78326416015625,-0.25421142578125,1.0,2.0,1.0,4.0,2.0,90.0,event
11:34:26.143,0.51360387,0.48803517,0.93043804,0.038226664,0.57359207,0.32216457,0.45979702,0.16808814,0.77895045,0.33710665,0.41848785,0.52685505,0.65748715,-0.07696134,-0.16463774,0.17408739,0.16676356,-0.3012765,-0.59538,0.092876405,674.90845,808.68134,412.1978,817.5458,864.68866,-0.04974365234375,-0.0155029296875,0.98614501953125,1.54022216796875,-3.78326416015625,-0.25421142578125,1.0,2.0,1.0,4.0,2.0,90.0,event
11:34:26.145,0.51360387,0.48803517,0.93043804,0.038226664,0.57359207,0.32216457,0.45979702,0.16808814,0.77895045,0.33710665,0.41848785,0.52685505,0.65748715,-0.07696134,-0.16463774,0.17408739,0.16676356,-0.3012765,-0.59538,0.092876405,765.16486,813.91943,639.45056,832.0513,793.7729,-0.04974365234375,-0.0155029296875,0.98614501953125,1.54022216796875,-3.78326416015625,-0.25421142578125,1.0,2.0,1.0,4.0,2.0,90.0,event
11:34:26.146,0.51360387,0.48803517,0.93043804,0.038226664,0.57359207,0.32216457,0.45979702,0.16808814,0.77895045,0.33710665,0.41848785,0.52685505,0.65748715,-0.07696134,-0.16463774,0.17408739,0.16676356,-0.3012765,-0.59538,0.092876405,909.41394,811.50183,929.15753,838.9011,673.2967,-0.04974365234375,-0.0155029296875,0.98614501953125,1.54022216796875,-3.78326416015625,-0.25421142578125,1.0,2.0,1.0,4.0,2.0,90.0,event
11:34:26.148,0.51360387,0.48803517,0.93043804,0.038226664,0.57359207,0.32216457,0.45979702,0.16808814,0.77895045,0.33710665,0.41848785,0.52685505,0.65748715,-0.07696134,-0.16463774,0.17408739,0.16676356,-0.3012765,-0.59538,0.092876405,906.5934,805.4579,813.1135,826.0073,790.54944,-0.04974365234375,-0.0155029296875,0.98614501953125,1.54022216796875,-3.78326416015625,-0.25421142578125,1.0,2.0,1.0,4.0,2.0,90.0,event
11:34:26.149,0.51360387,0.48803517,0.93043804,0.038226664,0.57359207,0.32216457,0.45979702,0.16808814,0.77895045,0.33710665,0.41848785,0.52685505,0.65748715,-0.07696134,-0.16463774,0.17408739,0.16676356,-0.3012765,-0.59538,0.092876405,761.13556,805.4579,300.989,802.23444,1048.022,-0.04974365234375,-0.0155029296875,0.98614501953125,1.54022216796875,-3.78326416015625,-0.25421142578125,1.0,2.0,1.0,4.0,2.0,90.0,event
11:34:26.151,0.51360387,0.48803517,0.93043804,0.038226664,0.57359207,0.32216457,0.45979702,0.16808814,0.77895045,0.33710665,0.41848785,0.52685505,0.65748715,-0.07696134,-0.16463774,0.17408739,0.16676356,-0.3012765,-0.59538,0.092876405,671.685,809.0842,278.82785,796.1905,915.05493,-0.04974365234375,-0.0155029296875,0.98614501953125,1.54022216796875,-3.78326416015625,-0.25421142578125,1.0,2.0,1.0,4.0,2.0,90.0,event
11:34:26.152,0.51360387,0.48803517,0.93043804,0.038226664,0.57359207,0.32216457,0.45979702,0.16808814,0.77895045,0.33710665,0.41848785,0.52685505,0.65748715,-0.07696134,-0.16463774,0.17408739,0.16676356,-0.3012765,-0.59538,0.092876405,742.6007,809.89014,729.707,810.293,679.7436,-0.04974365234375,-0.0155029296875,0.98614501953125,1.54022216796875,-3.78326416015625,-0.25421142578125,1.0,2.0,1.0,4.0,2.0,90.0,event
11:34:26.154,0.51360387,0.48803517,0.93043804,0.038226664,0.57359207,0.32216457,0.45979702,0.16808814,0.77895045,0.33710665,0.41848785,0.52685505,0.65748715,-0.07696134,-0.16463774,0.17408739,0.16676356,-0.3012765,-0.59538,0.092876405,891.28204,805.05493,759.12085,830.0366,708.7546,-0.04974365234375,-0.0155029296875,0.98614501953125,1.54022216796875,-3.78326416015625,-0.25421142578125,1.0,2.0,1.0,4.0,2.0,90.0,event
11:34:26.155,0.51360387,0.48803517,0.93043804,0.038226664,0.57359207,0.32216457,0.45979702,0.16808814,0.77895045,0.33710665,0.41848785,0.52685505,0.65748715,-0.07696134,-0.16463774,0.17408739,0.16676356,-0.3012765,-0.59538,0.092876405,918.2784,796.1905,231.68498,831.6484,915.4579,-0.04974365234375,-0.0155029296875,0.98614501953125,1.54022216796875,-3.78326416015625,-0.25421142578125,1.0,2.0,1.0,4.0,2.0,90.0,event
11:34:26.156,0.51360387,0.48803517,0.93043804,0.038226664,0.57359207,0.32216457,0.45979702,0.16808814,0.77895045,0.33710665,0.41848785,0.52685505,0.65748715,-0.07696134,-0.16463774,0.17408739,0.16676356,-0.3012765,-0.59538,0.092876405,793.36993,799.81683,411.39194,805.05493,834.87177,-0.04974365234375,-0.0155029296875,0.98614501953125,1.54022216796875,-3.78326416015625,-0.25421142578125,1.0,2.0,1.0,4.0,2.0,90.0,event
11:34:26.157,0.51360387,0.48803517,0.93043804,0.038226664,0.57359207,0.32216457,0.45979702,0.16808814,0.77895045,0.33710665,0.41848785,0.52685505,0.65748715,-0.07696134,-0.16463774,0.17408739,0.16676356,-0.3012765,-0.59538,0.092876405,696.6667,813.1135,736.1539,790.54944,654.7619,-0.04974365234375,-0.0155029296875,0.98614501953125,1.54022216796875,-3.78326416015625,-0.25421142578125,1.0,2.0,1.0,4.0,2.0,90.0,event
11:34:26.161,0.51360387,0.48803517,0.93043804,0.038226664,0.57359207,0.32216457,0.45979702,0.16808814,0.77895045,0.33710665,0.41848785,0.52685505,0.65748715,-0.07696134,-0.16463774,0.17408739,0.16676356,-0.3012765,-0.59538,0.092876405,734.1392,808.68134,678.1319,799.81683,702.3077,-0.04974365234375,-0.0155029296875,0.98614501953125,1.54022216796875,-3.78326416015625,-0.25421142578125,1.0,2.0,1.0,4.0,2.0,90.0,event
11:34:26.161,0.51360387,0.48803517,0.93043804,0.038226664,0.57359207,0.32216457,0.45979702,0.16808814,0.77895045,0.33710665,0.41848785,0.52685505,0.65748715,-0.07696134,-0.16463774,0.17408739,0.16676356,-0.3012765,-0.59538,0.092876405,884.83514,805.05493,749.0476,828.022,767.98535,-0.04974365234375,-0.0155029296875,0.98614501953125,1.54022216796875,-3.78326416015625,-0.25421142578125,1.0,2.0,1.0,4.0,2.0,90.0,event
11:34:26.162,0.51360387,0.48803517,0.93043804,0.038226664,0.57359207,0.32216457,0.45979702,0.16808814,0.77895045,0.33710665,0.41848785,0.52685505,0.65748715,-0.07696134,-0.16463774,0.17408739,0.16676356,-0.3012765,-0.59538,0.092876405,955.7509,804.65204,875.16486,828.022,763.95605,-0.04974365234375,-0.0155029296875,0.98614501953125,1.54022216796875,-3.78326416015625,-0.25421142578125,1.0,2.0,1.0,4.0,2.0,90.0,event
11:34:26.163,0.51360387,0.48803517,0.93043804,0.038226664,0.57359207,0.32216457,0.45979702,0.16808814,0.77895045,0.33710665,0.41848785,0.52685505,0.65748715,-0.07696134,-0.16463774,0.17408739,0.16676356,-0.3012765,-0.59538,0.092876405,818.3516,798.20514,741.39197,801.02563,726.08057,-0.04974365234375,-0.0155029296875,0.98614501953125,1.54022216796875,-3.78326416015625,-0.25421142578125,1.0,2.0,1.0,4.0,2.0,90.0,event
11:34:26.164,0.51360387,0.48803517,0.93043804,0.038226664,0.57359207,0.32216457,0.45979702,0.16808814,0.77895045,0.33710665,0.41848785,0.52685505,0.65748715,-0.07696134,-0.16463774,0.17408739,0.16676356,-0.3012765,-0.59538,0.092876405,696.26373,793.7729,499.6337,797.8022,811.9048,-0.04974365234375,-0.0155029296875,0.98614501953125,1.54022216796875,-3.78326416015625,-0.25421142578125,1.0,2.0,1.0,4.0,2.0,90.0,event
11:34:26.164,0.51360387,0.48803517,0.93043804,0.038226664,0.57359207,0.32216457,0.45979702,0.16808814,0.77895045,0.33710665,0.41848785,0.52685505,0.65748715,-0.07696134,-0.16463774,0.17408739,0.16676356,-0.3012765,-0.59538,0.092876405,730.5128,800.2198,442.82053,807.8755,915.05493,-0.04974365234375,-0.0155029296875,0.98614501953125,1.54022216796875,-3.78326416015625,-0.25421142578125,1.0,2.0,1.0,4.0,2.0,90.0,event
11:34:26.165,0.51360387,0.48803517,0.93043804,0.038226664,0.57359207,0.32216457,0.45979702,0.16808814,0.77895045,0.33710665,0.41848785,0.52685505,0.65748715,-0.07696134,-0.16463774,0.17408739,0.16676356,-0.3012765,-0.59538,0.092876405,863.47986,798.60803,573.36993,822.381,943.663,-0.04974365234375,-0.0155029296875,0.98614501953125,1.54022216796875,-3.78326416015625,-0.25421142578125,1.0,2.0,1.0,4.0,2.0,90.0,event
11:34:26.166,0.51360387,0.48803517,0.93043804,0.038226664,0.57359207,0.32216457,0.45979702,0.16808814,0.77895045,0.33710665,0.41848785,0.52685505,0.65748715,-0.07696134,-0.16463774,0.17408739,0.16676356,-0.3012765,-0.59538,0.092876405,838.49817,803.8461,441.2088,804.2491,908.20514,-0.04974365234375,-0.0155029296875,0.98614501953125,1.54022216796875,-3.78326416015625,-0.25421142578125,1.0,2.0,1.0,4.0,2.0,90.0,event
11:34:26.166,0.51360387,0.48803517,0.93043804,0.038226664,0.57359207,0.32216457,0.45979702,0.16808814,0.77895045,0.33710665,0.41848785,0.52685505,0.65748715,-0.07696134,-0.16463774,0.17408739,0.16676356,-0.3012765,-0.59538,0.092876405,946.8865,801.4286,743.8095,821.5751,874.7619,-0.04974365234375,-0.0155029296875,0.98614501953125,1.54022216796875,-3.78326416015625,-0.25421142578125,1.0,2.0,1.0,4.0,2.0,90.0,event
11:34:26.167,0.51360387,0.48803517,0.93043804,0.038226664,0.57359207,0.32216457,0.45979702,0.16808814,0.77895045,0.33710665,0.41848785,0.52685505,0.65748715,-0.07696134,-0.16463774,0.17408739,0.16676356,-0.3012765,-0.59538,0.092876405,703.5165,807.47253,69.70696,801.4286,1046.8132,-0.04974365234375,-0.0155029296875,0.98614501953125,1.54022216796875,-3.78326416015625,-0.25421142578125,1.0,2.0,1.0,4.0,2.0,90.0,event
11:34:26.168,0.51360387,0.48803517,0.93043804,0.038226664,0.57359207,0.32216457,0.45979702,0.16808814,0.77895045,0.33710665,0.41848785,0.52685505,0.65748715,-0.07696134,-0.16463774,0.17408739,0.16676356,-0.3012765,-0.59538,0.092876405,724.4689,812.3077,574.9817,806.6667,792.96704,-0.04974365234375,-0.0155029296875,0.98614501953125,1.54022216796875,-3.78326416015625,-0.25421142578125,1.0,2.0,1.0,4.0,2.0,90.0,event
11:34:26.169,0.51360387,0.48803517,0.93043804,0.038226664,0.57359207,0.32216457,0.45979702,0.16808814,0.77895045,0.33710665,0.41848785,0.52685505,0.65748715,-0.07696134,-0.16463774,0.17408739,0.16676356,-0.3012765,-0.59538,0.092876405,850.18317,809.4872,725.6777,820.3663,783.2967,-0.04974365234375,-0.0155029296875,0.98614501953125,1.54022216796875,-3.78326416015625,-0.25421142578125,1.0,2.0,1.0,4.0,2.0,90.0,event
11:34:26.211,0.51360387,0.48803517,0.93043804,0.038226664,0.57359207,0.32216457,0.45979702,0.16808814,0.77895045,0.33710665,0.41848785,0.52685505,0.65748715,-0.07696134,-0.16463774,0.17408739,0.16676356,-0.3012765,-0.59538,0.092876405,940.0366,811.9048,524.61536,822.381,849.3773,-0.04302978515625,-0.0118408203125,0.98333740234375,2.27294921875,-4.02252197265625,-0.097198486328125,1.0,2.0,1.0,4.0,2.0,90.0,event
11:34:26.212,0.51360387,0.48803517,0.93043804,0.038226664,0.57359207,0.32216457,0.45979702,0.16808814,0.77895045,0.33710665,0.41848785,0.52685505,0.65748715,-0.07696134,-0.16463774,0.17408739,0.16676356,-0.3012765,-0.59538,0.092876405,858.6447,809.89014,630.18317,806.26373,700.696,-0.04302978515625,-0.0118408203125,0.98333740234375,2.27294921875,-4.02252197265625,-0.097198486328125,1.0,2.0,1.0,4.0,2.0,90.0,event
11:34:26.213,0.51360387,0.48803517,0.93043804,0.038226664,0.57359207,0.32216457,0.45979702,0.16808814,0.77895045,0.33710665,0.41848785,0.52685505,0.65748715,-0.07696134,-0.16463774,0.17408739,0.16676356,-0.3012765,-0.59538,0.092876405,720.4396,808.68134,719.6337,791.3553,627.76556,-0.04302978515625,-0.0118408203125,0.98333740234375,2.27294921875,-4.02252197265625,-0.097198486328125,1.0,2.0,1.0,4.0,2.0,90.0,event
11:34:26.214,0.51360387,0.48803517,0.93043804,0.038226664,0.57359207,0.32216457,0.45979702,0.16808814,0.77895045,0.33710665,0.41848785,0.52685505,0.65748715,-0.07696134,-0.16463774,0.17408739,0.16676356,-0.3012765,-0.59538,0.092876405,711.5751,810.293,738.5714,794.9817,678.5348,-0.04302978515625,-0.0118408203125,0.98333740234375,2.27294921875,-4.02252197265625,-0.097198486328125,1.0,2.0,1.0,4.0,2.0,90.0,event
11:34:26.215,0.51360387,0.48803517,0.93043804,0.038226664,0.57359207,0.32216457,0.45979702,0.16808814,0.77895045,0.33710665,0.41848785,0.52685505,0.65748715,-0.07696134,-0.16463774,0.17408739,0.16676356,-0.3012765,-0.59538,0.092876405,818.7546,806.26373,705.5311,810.293,809.4872,-0.04302978515625,-0.0118408203125,0.98333740234375,2.27294921875,-4.02252197265625,-0.097198486328125,1.0,2.0,1.0,4.0,2.0,90.0,event
11:34:26.216,0.51360387,0.48803517,0.93043804,0.038226664,0.57359207,0.32216457,0.45979702,0.16808814,0.77895045,0.33710665,0.41848785,0.52685505,0.65748715,-0.07696134,-0.16463774,0.17408739,0.16676356,-0.3012765,-0.59538,0.092876405,869.5238,805.4579,512.52747,801.02563,846.55676,-0.04302978515625,-0.0118408203125,0.98333740234375,2.27294921875,-4.02252197265625,-0.097198486328125,1.0,2.0,1.0,4.0,2.0,90.0,event
11:34:26.216,0.51360387,0.48803517,0.93043804,0.038226664,0.57359207,0.32216457,0.45979702,0.16808814,0.77895045,0.33710665,0.41848785,0.52685505,0.65748715,-0.07696134,-0.16463774,0.17408739,0.16676356,-0.3012765,-0.59538,0.092876405,925.5311,803.8461,626.55676,818.3516,830.84247,-0.04302978515625,-0.0118408203125,0.98333740234375,2.27294921875,-4.02252197265625,-0.097198486328125,1.0,2.0,1.0,4.0,2.0,90.0,event
11:34:26.217,0.51360387,0.48803517,0.93043804,0.038226664,0.57359207,0.32216457,0.45979702,0.16808814,0.77895045,0.33710665,0.41848785,0.52685505,0.65748715,-0.07696134,-0.16463774,0.17408739,0.16676356,-0.3012765,-0.59538,0.092876405,722.0513,805.05493,424.2857,790.14655,858.6447,-0.04302978515625,-0.0118408203125,0.98333740234375,2.27294921875,-4.02252197265625,-0.097198486328125,1.0,2.0,1.0,4.0,2.0,90.0,event
11:34:26.218,0.51360387,0.48803517,0.93043804,0.038226664,0.57359207,0.32216457,0.45979702,0.16808814,0.77895045,0.33710665,0.41848785,0.52685505,0.65748715,-0.07696134,-0.16463774,0.17408739,0.16676356,-0.3012765,-0.59538,0.092876405,686.99634,807.0696,79.37729,809.89014,1031.0989,-0.04302978515625,-0.0118408203125,0.98333740234375,2.27294921875,-4.02252197265625,-0.097198486328125,1.0,2.0,1.0,4.0,2.0,90.0,event
11:34:26.219,0.51360387,0.48803517,0.93043804,0.038226664,0.57359207,0.32216457,0.45979702,0.16808814,0.77895045,0.33710665,0.41848785,0.52685505,0.65748715,-0.07696134,-0.16463774,0.17408739,0.16676356,-0.3012765,-0.59538,0.092876405,801.8315,810.293,286.48352,817.1429,1019.41394,-0.04302978515625,-0.0118408203125,0.98333740234375,2.27294921875,-4.02252197265625,-0.097198486328125,1.0,2.0,1.0,4.0,2.0,90.0,event
11:34:26.219,0.51360387,0.48803517,0.93043804,0.038226664,0.57359207,0.32216457,0.45979702,0.16808814,0.77895045,0.33710665,0.41848785,0.52685505,0.65748715,-0.07696134,-0.16463774,0.17408739,0.16676356,-0.3012765,-0.59538,0.092876405,934.7985,804.2491,924.3223,817.5458,772.8205,-0.04302978515625,-0.0118408203125,0.98333740234375,2.27294921875,-4.02252197265625,-0.097198486328125,1.0,2.0,1.0,4.0,2.0,90.0,event
11:34:26.220,0.51360387,0.48803517,0.93043804,0.038226664,0.57359207,0.32216457,0.45979702,0.16808814,0.77895045,0.33710665,0.41848785,0.52685505,0.65748715,-0.07696134,-0.16463774,0.17408739,0.16676356,-0.3012765,-0.59538,0.092876405,898.93774,803.8461,781.28204,809.89014,695.8608,-0.04302978515625,-0.0118408203125,0.98333740234375,2.27294921875,-4.02252197265625,-0.097198486328125,1.0,2.0,1.0,4.0,2.0,90.0,event
11:34:26.254,0.51360387,0.48803517,0.93043804,0.038226664,0.57359207,0.32216457,0.45979702,0.16808814,0.77895045,0.33710665,0.41848785,0.52685505,0.65748715,-0.07696134,-0.16463774,0.17408739,0.16676356,-0.3012765,-0.59538,0.092876405,756.30035,811.0989,577.8022,793.7729,680.14655,-0.04840087890625,-0.0126953125,0.99072265625,1.248626708984375,-3.342132568359375,0.441131591796875,1.0,2.0,1.0,4.0,2.0,90.0,event
11:34:26.255,0.51360387,0.48803517,0.93043804,0.038226664,0.57359207,0.32216457,0.45979702,0.16808814,0.77895045,0.33710665,0.41848785,0.52685505,0.65748715,-0.07696134,-0.16463774,0.17408739,0.16676356,-0.3012765,-0.59538,0.092876405,707.9487,808.2784,774.43225,792.96704,649.92676,-0.04840087890625,-0.0126953125,0.99072265625,1.248626708984375,-3.342132568359375,0.441131591796875,1.0,2.0,1.0,4.0,2.0,90.0,event
11:34:26.259,0.51360387,0.48803517,0.93043804,0.038226664,0.57359207,0.32216457,0.45979702,0.16808814,0.77895045,0.33710665,0.41848785,0.52685505,0.65748715,-0.07696134,-0.16463774,0.17408739,0.16676356,-0.3012765,-0.59538,0.092876405,809.0842,805.8608,913.44324,809.89014,696.26373,-0.04840087890625,-0.0126953125,0.99072265625,1.248626708984375,-3.342132568359375,0.441131591796875,1.0,2.0,1.0,4.0,2.0,90.0,event
11:34:26.260,0.51360387,0.48803517,0.93043804,0.038226664,0.57359207,0.32216457,0.45979702,0.16808814,0.77895045,0.33710665,0.41848785,0.52685505,0.65748715,-0.07696134,-0.16463774,0.17408739,0.16676356,-0.3012765,-0.59538,0.092876405,942.8571,806.6667,826.8132,828.4249,774.0293,-0.04840087890625,-0.0126953125,0.99072265625,1.248626708984375,-3.342132568359375,0.441131591796875,1.0,2.0,1.0,4.0,2.0,90.0,event
11:34:26.261,0.51360387,0.48803517,0.93043804,0.038226664,0.57359207,0.32216457,0.45979702,0.16808814,0.77895045,0.33710665,0.41848785,0.52685505,0.65748715,-0.07696134,-0.16463774,0.17408739,0.16676356,-0.3012765,-0.59538,0.092876405,919.89014,809.89014,736.55676,818.3516,774.83514,-0.04840087890625,-0.0126953125,0.99072265625,1.248626708984375,-3.342132568359375,0.441131591796875,1.0,2.0,1.0,4.0,2.0,90.0,event
11:34:26.261,0.51360387,0.48803517,0.93043804,0.038226664,0.57359207,0.32216457,0.45979702,0.16808814,0.77895045,0.33710665,0.41848785,0.52685505,0.65748715,-0.07696134,-0.16463774,0.17408739,0.16676356,-0.3012765,-0.59538,0.092876405,770.80585,809.89014,549.19415,798.20514,764.35895,-0.04840087890625,-0.0126953125,0.99072265625,1.248626708984375,-3.342132568359375,0.441131591796875,1.0,2.0,1.0,4.0,2.0,90.0,event
11:34:26.262,0.51360387,0.48803517,0.93043804,0.038226664,0.57359207,0.32216457,0.45979702,0.16808814,0.77895045,0.33710665,0.41848785,0.52685505,0.65748715,-0.07696134,-0.16463774,0.17408739,0.16676356,-0.3012765,-0.59538,0.092876405,699.89014,806.26373,479.8901,803.0403,776.4469,-0.04840087890625,-0.0126953125,0.99072265625,1.248626708984375,-3.342132568359375,0.441131591796875,1.0,2.0,1.0,4.0,2.0,90.0,event
11:34:26.263,0.51360387,0.48803517,0.93043804,0.038226664,0.57359207,0.32216457,0.45979702,0.16808814,0.77895045,0.33710665,0.41848785,0.52685505,0.65748715,-0.07696134,-0.16463774,0.17408739,0.16676356,-0.3012765,-0.59538,0.092876405,774.83514,801.02563,385.6044,819.9634,875.9707,-0.04840087890625,-0.0126953125,0.99072265625,1.248626708984375,-3.342132568359375,0.441131591796875,1.0,2.0,1.0,4.0,2.0,90.0,event
11:34:26.264,0.51360387,0.48803517,0.93043804,0.038226664,0.57359207,0.32216457,0.45979702,0.16808814,0.77895045,0.33710665,0.41848785,0.52685505,0.65748715,-0.07696134,-0.16463774,0.17408739,0.16676356,-0.3012765,-0.59538,0.092876405,911.8315,807.47253,730.9158,816.337,788.93774,-0.04840087890625,-0.0126953125,0.99072265625,1.248626708984375,-3.342132568359375,0.441131591796875,1.0,2.0,1.0,4.0,2.0,90.0,event
11:34:26.264,0.51360387,0.48803517,0.93043804,0.038226664,0.57359207,0.32216457,0.45979702,0.16808814,0.77895045,0.33710665,0.41848785,0.52685505,0.65748715,-0.07696134,-0.16463774,0.17408739,0.16676356,-0.3012765,-0.59538,0.092876405,902.1612,801.8315,246.19048,829.2308,994.83514,-0.04840087890625,-0.0126953125,0.99072265625,1.248626708984375,-3.342132568359375,0.441131591796875,1.0,2.0,1.0,4.0,2.0,90.0,event
11:34:26.265,0.51360387,0.48803517,0.93043804,0.038226664,0.57359207,0.32216457,0.45979702,0.16808814,0.77895045,0.33710665,0.41848785,0.52685505,0.65748715,-0.07696134,-0.16463774,0.17408739,0.16676356,-0.3012765,-0.59538,0.092876405,773.22345,804.2491,774.0293,796.5934,756.7033,-0.04840087890625,-0.0126953125,0.99072265625,1.248626708984375,-3.342132568359375,0.441131591796875,1.0,2.0,1.0,4.0,2.0,90.0,event
11:34:26.266,0.51360387,0.48803517,0.93043804,0.038226664,0.57359207,0.32216457,0.45979702,0.16808814,0.77895045,0.33710665,0.41848785,0.52685505,0.65748715,-0.07696134,-0.16463774,0.17408739,0.16676356,-0.3012765,-0.59538,0.092876405,668.86444,797.8022,402.9304,789.7436,919.89014,-0.04840087890625,-0.0126953125,0.99072265625,1.248626708984375,-3.342132568359375,0.441131591796875,1.0,2.0,1.0,4.0,2.0,90.0,event
11:34:26.288,0.51360387,0.48803517,0.93043804,0.038226664,0.57359207,0.32216457,0.45979702,0.16808814,0.77895045,0.33710665,0.41848785,0.52685505,0.65748715,-0.07696134,-0.16463774,0.17408739,0.16676356,-0.3012765,-0.59538,0.092876405,736.9597,805.8608,601.1722,795.78754,771.6117,-0.0413818359375,-0.01416015625,0.989501953125,2.190704345703125,-4.366455078125,0.777587890625,1.0,2.0,1.0,4.0,2.0,90.0,event
11:34:26.289,0.51360387,0.48803517,0.93043804,0.038226664,0.57359207,0.32216457,0.45979702,0.16808814,0.77895045,0.33710665,0.41848785,0.52685505,0.65748715,-0.07696134,-0.16463774,0.17408739,0.16676356,-0.3012765,-0.59538,0.092876405,890.87915,809.4872,972.27106,815.5311,701.9048,-0.0413818359375,-0.01416015625,0.989501953125,2.190704345703125,-4.366455078125,0.777587890625,1.0,2.0,1.0,4.0,2.0,90.0,event
11:34:26.290,0.51360387,0.48803517,0.93043804,0.038226664,0.57359207,0.32216457,0.45979702,0.16808814,0.77895045,0.33710665,0.41848785,0.52685505,0.65748715,-0.07696134,-0.16463774,0.17408739,0.16676356,-0.3012765,-0.59538,0.092876405,916.26373,804.65204,869.92676,819.15753,785.31134,-0.0413818359375,-0.01416015625,0.989501953125,2.190704345703125,-4.366455078125,0.777587890625,1.0,2.0,1.0,4.0,2.0,90.0,event
11:34:26.291,0.51360387,0.48803517,0.93043804,0.038226664,0.57359207,0.32216457,0.45979702,0.16808814,0.77895045,0.33710665,0.41848785,0.52685505,0.65748715,-0.07696134,-0.16463774,0.17408739,0.16676356,-0.3012765,-0.59538,0.092876405,785.31134,805.4579,601.978,800.6227,805.4579,-0.0413818359375,-0.01416015625,0.989501953125,2.190704345703125,-4.366455078125,0.777587890625,1.0,2.0,1.0,4.0,2.0,90.0,event
11:34:26.292,0.51360387,0.48803517,0.93043804,0.038226664,0.57359207,0.32216457,0.45979702,0.16808814,0.77895045,0.33710665,0.41848785,0.52685505,0.65748715,-0.07696134,-0.16463774,0.17408739,0.16676356,-0.3012765,-0.59538,0.092876405,690.6227,810.293,687.3993,797.8022,757.1062,-0.0413818359375,-0.01416015625,0.989501953125,2.190704345703125,-4.366455078125,0.777587890625,1.0,2.0,1.0,4.0,2.0,90.0,event
11:34:26.293,0.51360387,0.48803517,0.93043804,0.038226664,0.57359207,0.32216457,0.45979702,0.16808814,0.77895045,0.33710665,0.41848785,0.52685505,0.65748715,-0.07696134,-0.16463774,0.17408739,0.16676356,-0.3012765,-0.59538,0.092876405,738.5714,807.47253,700.696,809.4872,755.89746,-0.0413818359375,-0.01416015625,0.989501953125,2.190704345703125,-4.366455078125,0.777587890625,1.0,2.0,1.0,4.0,2.0,90.0,event
11:34:26.293,0.51360387,0.48803517,0.93043804,0.038226664,0.57359207,0.32216457,0.45979702,0.16808814,0.77895045,0.33710665,0.41848785,0.52685505,0.65748715,-0.07696134,-0.16463774,0.17408739,0.16676356,-0.3012765,-0.59538,0.092876405,872.3443,803.44324,552.01465,817.1429,872.3443,-0.0413818359375,-0.01416015625,0.989501953125,2.190704345703125,-4.366455078125,0.777587890625,1.0,2.0,1.0,4.0,2.0,90.0,event
11:34:26.294,0.51360387,0.48803517,0.93043804,0.038226664,0.57359207,0.32216457,0.45979702,0.16808814,0.77895045,0.33710665,0.41848785,0.52685505,0.65748715,-0.07696134,-0.16463774,0.17408739,0.16676356,-0.3012765,-0.59538,0.092876405,918.2784,807.0696,325.16483,813.91943,930.7692,-0.0413818359375,-0.01416015625,0.989501953125,2.190704345703125,-4.366455078125,0.777587890625,1.0,2.0,1.0,4.0,2.0,90.0,event
11:34:26.295,0.51360387,0.48803517,0.93043804,0.038226664,0.57359207,0.32216457,0.45979702,0.16808814,0.77895045,0.33710665,0.41848785,0.52685505,0.65748715,-0.07696134,-0.16463774,0.17408739,0.16676356,-0.3012765,-0.59538,0.092876405,804.2491,809.89014,530.2564,801.4286,776.04395,-0.0413818359375,-0.01416015625,0.989501953125,2.190704345703125,-4.366455078125,0.777587890625,1.0,2.0,1.0,4.0,2.0,90.0,event
11:34:26.296,0.51360387,0.48803517,0.93043804,0.038226664,0.57359207,0.32216457,0.45979702,0.16808814,0.77895045,0.33710665,0.41848785,0.52685505,0.65748715,-0.07696134,-0.16463774,0.17408739,0.16676356,-0.3012765,-0.59538,0.092876405,694.2491,809.89014,847.3626,793.36993,676.9231,-0.0413818359375,-0.01416015625,0.989501953125,2.190704345703125,-4.366455078125,0.777587890625,1.0,2.0,1.0,4.0,2.0,90.0,event
11:34:26.296,0.51360387,0.48803517,0.93043804,0.038226664,0.57359207,0.32216457,0.45979702,0.16808814,0.77895045,0.33710665,0.41848785,0.52685505,0.65748715,-0.07696134,-0.16463774,0.17408739,0.16676356,-0.3012765,-0.59538,0.092876405,718.8278,805.05493,713.9927,796.1905,755.4945,-0.0413818359375,-0.01416015625,0.989501953125,2.190704345703125,-4.366455078125,0.777587890625,1.0,2.0,1.0,4.0,2.0,90.0,event
11:34:26.297,0.51360387,0.48803517,0.93043804,0.038226664,0.57359207,0.32216457,0.45979702,0.16808814,0.77895045,0.33710665,0.41848785,0.52685505,0.65748715,-0.07696134,-0.16463774,0.17408739,0.16676356,-0.3012765,-0.59538,0.092876405,840.9158,801.02563,418.24176,809.0842,912.23444,-0.0413818359375,-0.01416015625,0.989501953125,2.190704345703125,-4.366455078125,0.777587890625,1.0,2.0,1.0,4.0,2.0,90.0,event
11:34:26.321,0.51360387,0.48803517,0.93043804,0.038226664,0.57359207,0.32216457,0.45979702,0.16808814,0.77895045,0.33710665,0.41848785,0.52685505,0.65748715,-0.07696134,-0.16463774,0.17408739,0.16676356,-0.3012765,-0.59538,0.092876405,923.5165,804.2491,751.06226,808.2784,817.5458,-0.0489501953125,-0.01214599609375,0.98455810546875,2.100982666015625,-2.923431396484375,0.949554443359375,1.0,2.0,1.0,4.0,2.0,90.0,event
11:34:26.322,0.51360387,0.48803517,0.93043804,0.038226664,0.57359207,0.32216457,0.45979702,0.16808814,0.77895045,0.33710665,0.41848785,0.52685505,0.65748715,-0.07696134,-0.16463774,0.17408739,0.16676356,-0.3012765,-0.59538,0.092876405,826.4103,808.2784,795.38464,795.38464,734.5421,-0.0489501953125,-0.01214599609375,0.98455810546875,2.100982666015625,-2.923431396484375,0.949554443359375,1.0,2.0,1.0,4.0,2.0,90.0,event
11:34:26.323,0.51360387,0.48803517,0.93043804,0.038226664,0.57359207,0.32216457,0.45979702,0.16808814,0.77895045,0.33710665,0.41848785,0.52685505,0.65748715,-0.07696134,-0.16463774,0.17408739,0.16676356,-0.3012765,-0.59538,0.092876405,696.26373,805.4579,454.5055,790.54944,838.0952,-0.0489501953125,-0.01214599609375,0.98455810546875,2.100982666015625,-2.923431396484375,0.949554443359375,1.0,2.0,1.0,4.0,2.0,90.0,event
11:34:26.323,0.51360387,0.48803517,0.93043804,0.038226664,0.57359207,0.32216457,0.45979702,0.16808814,0.77895045,0.33710665,0.41848785,0.52685505,0.65748715,-0.07696134,-0.16463774,0.17408739,0.16676356,-0.3012765,-0.59538,0.092876405,711.1722,806.26373,524.21246,794.57874,824.7985,-0.0489501953125,-0.01214599609375,0.98455810546875,2.100982666015625,-2.923431396484375,0.949554443359375,1.0,2.0,1.0,4.0,2.0,90.0,event
11:34:26.327,0.51360387,0.48803517,0.93043804,0.038226664,0.57359207,0.32216457,0.45979702,0.16808814,0.77895045,0.33710665,0.41848785,0.52685505,0.65748715,-0.07696134,-0.16463774,0.17408739,0.16676356,-0.3012765,-0.59538,0.092876405,841.31866,810.696,803.0403,807.47253,697.0696,-0.0489501953125,-0.01214599609375,0.98455810546875,2.100982666015625,-2.923431396484375,0.949554443359375,1.0,2.0,1.0,4.0,2.0,90.0,event
11:34:26.328,0.51360387,0.48803517,0.93043804,0.038226664,0.57359207,0.32216457,0.45979702,0.16808814,0.77895045,0.33710665,0.41848785,0.52685505,0.65748715,-0.07696134,-0.16463774,0.17408739,0.16676356,-0.3012765,-0.59538,0.092876405,940.84247,807.47253,790.9524,815.5311,787.326,-0.0489501953125,-0.01214599609375,0.98455810546875,2.100982666015625,-2.923431396484375,0.949554443359375,1.0,2.0,1.0,4.0,2.0,90.0,event
11:34:26.330,0.51360387,0.48803517,0.93043804,0.038226664,0.57359207,0.32216457,0.45979702,0.16808814,0.77895045,0.33710665,0.41848785,0.52685505,0.65748715,-0.07696134,-0.16463774,0.17408739,0.16676356,-0.3012765,-0.59538,0.092876405,850.58606,809.0842,454.10257,801.02563,1018.20514,-0.0489501953125,-0.01214599609375,0.98455810546875,2.100982666015625,-2.923431396484375,0.949554443359375,1.0,2.0,1.0,4.0,2.0,90.0,event
11:34:26.331,0.51360387,0.48803517,0.93043804,0.038226664,0.57359207,0.32216457,0.45979702,0.16808814,0.77895045,0.33710665,0.41848785,0.52685505,0.65748715,-0.07696134,-0.16463774,0.17408739,0.16676356,-0.3012765,-0.59538,0.092876405,706.337,811.50183,145.05495,791.3553,1041.978,-0.0489501953125,-0.01214599609375,0.98455810546875,2.100982666015625,-2.923431396484375,0.949554443359375,1.0,2.0,1.0,4.0,2.0,90.0,event
11:34:26.332,0.51360387,0.48803517,0.93043804,0.038226664,0.57359207,0.32216457,0.45979702,0.16808814,0.77895045,0.33710665,0.41848785,0.52685505,0.65748715,-0.07696134,-0.16463774,0.17408739,0.16676356,-0.3012765,-0.59538,0.092876405,709.5604,808.68134,659.59705,796.1905,770.80585,-0.0489501953125,-0.01214599609375,0.98455810546875,2.100982666015625,-2.923431396484375,0.949554443359375,1.0,2.0,1.0,4.0,2.0,90.0,event
11:34:26.333,0.51360387,0.48803517,0.93043804,0.038226664,0.57359207,0.32216457,0.45979702,0.16808814,0.77895045,0.33710665,0.41848785,0.52685505,0.65748715,-0.07696134,-0.16463774,0.17408739,0.16676356,-0.3012765,-0.59538,0.092876405,821.978,810.696,954.94507,807.8755,672.49084,-0.0489501953125,-0.01214599609375,0.98455810546875,2.100982666015625,-2.923431396484375,0.949554443359375,1.0,2.0,1.0,4.0,2.0,90.0,event
11:34:26.334,0.51360387,0.48803517,0.93043804,0.038226664,0.57359207,0.32216457,0.45979702,0.16808814,0.77895045,0.33710665,0.41848785,0.52685505,0.65748715,-0.07696134,-0.16463774,0.17408739,0.16676356,-0.3012765,-0.59538,0.092876405,930.7692,811.9048,701.9048,817.1429,783.2967,-0.0489501953125,-0.01214599609375,0.98455810546875,2.100982666015625,-2.923431396484375,0.949554443359375,1.0,2.0,1.0,4.0,2.0,90.0,event
11:34:26.335,0.51360387,0.48803517,0.93043804,0.038226664,0.57359207,0.32216457,0.45979702,0.16808814,0.77895045,0.33710665,0.41848785,0.52685505,0.65748715,-0.07696134,-0.16463774,0.17408739,0.16676356,-0.3012765,-0.59538,0.092876405,873.5531,812.3077,737.3626,805.05493,795.38464,-0.0489501953125,-0.01214599609375,0.98455810546875,2.100982666015625,-2.923431396484375,0.949554443359375,1.0,2.0,1.0,4.0,2.0,90.0,event
11:34:26.392,0.51360387,0.48803517,0.93043804,0.038226664,0.57359207,0.32216457,0.45979702,0.16808814,0.77895045,0.33710665,0.41848785,0.52685505,0.65748715,-0.07696134,-0.16463774,0.17408739,0.16676356,-0.3012765,-0.59538,0.092876405,726.08057,815.12823,803.44324,792.96704,662.8205,-0.0489501953125,-0.01214599609375,0.98455810546875,2.100982666015625,-2.923431396484375,0.949554443359375,1.0,2.0,1.0,4.0,2.0,90.0,event
11:34:26.394,0.51360387,0.48803517,0.93043804,0.038226664,0.57359207,0.32216457,0.45979702,0.16808814,0.77895045,0.33710665,0.41848785,0.52685505,0.65748715,-0.07696134,-0.16463774,0.17408739,0.16676356,-0.3012765,-0.59538,0.092876405,693.44324,811.50183,746.2271,802.6374,662.01465,-0.0489501953125,-0.01214599609375,0.98455810546875,2.100982666015625,-2.923431396484375,0.949554443359375,1.0,2.0,1.0,4.0,2.0,90.0,event
11:34:26.395,0.51360387,0.48803517,0.93043804,0.038226664,0.57359207,0.32216457,0.45979702,0.16808814,0.77895045,0.33710665,0.41848785,0.52685505,0.65748715,-0.07696134,-0.16463774,0.17408739,0.16676356,-0.3012765,-0.59538,0.092876405,799.011,811.0989,632.6007,821.978,732.1245,-0.0489501953125,-0.01214599609375,0.98455810546875,2.100982666015625,-2.923431396484375,0.949554443359375,1.0,2.0,1.0,4.0,2.0,90.0,event
11:34:26.397,0.51360387,0.48803517,0.93043804,0.038226664,0.57359207,0.32216457,0.45979702,0.16808814,0.77895045,0.33710665,0.41848785,0.52685505,0.65748715,-0.07696134,-0.16463774,0.17408739,0.16676356,-0.3012765,-0.59538,0.092876405,927.5458,814.3223,785.7143,823.1868,716.0073,-0.0489501953125,-0.01214599609375,0.98455810546875,2.100982666015625,-2.923431396484375,0.949554443359375,1.0,2.0,1.0,4.0,2.0,90.0,event
11:34:26.398,0.51360387,0.48803517,0.93043804,0.038226664,0.57359207,0.32216457,0.45979702,0.16808814,0.77895045,0.33710665,0.41848785,0.52685505,0.65748715,-0.07696134,-0.16463774,0.17408739,0.16676356,-0.3012765,-0.59538,0.092876405,887.6557,810.696,796.5934,806.6667,776.8498,-0.0489501953125,-0.01214599609375,0.98455810546875,2.100982666015625,-2.923431396484375,0.949554443359375,1.0,2.0,1.0,4.0,2.0,90.0,event
11:34:26.400,0.51360387,0.48803517,0.93043804,0.038226664,0.57359207,0.32216457,0.45979702,0.16808814,0.77895045,0.33710665,0.41848785,0.52685505,0.65748715,-0.07696134,-0.16463774,0.17408739,0.16676356,-0.3012765,-0.59538,0.092876405,731.7216,813.1135,479.8901,792.1612,827.2161,-0.0489501953125,-0.01214599609375,0.98455810546875,2.100982666015625,-2.923431396484375,0.949554443359375,1.0,2.0,1.0,4.0,2.0,90.0,event
11:34:26.400,0.51360387,0.48803517,0.93043804,0.038226664,0.57359207,0.32216457,0.45979702,0.16808814,0.77895045,0.33710665,0.41848785,0.52685505,0.65748715,-0.07696134,-0.16463774,0.17408739,0.16676356,-0.3012765,-0.59538,0.092876405,676.1172,815.12823,77.765564,797.3993,997.25275,-0.0489501953125,-0.01214599609375,0.98455810546875,2.100982666015625,-2.923431396484375,0.949554443359375,1.0,2.0,1.0,4.0,2.0,90.0,event
11:34:26.401,0.51360387,0.48803517,0.93043804,0.038226664,0.57359207,0.32216457,0.45979702,0.16808814,0.77895045,0.33710665,0.41848785,0.52685505,0.65748715,-0.07696134,-0.16463774,0.17408739,0.16676356,-0.3012765,-0.59538,0.092876405,786.52014,815.9341,205.09157,817.1429,1009.34064,-0.0489501953125,-0.01214599609375,0.98455810546875,2.100982666015625,-2.923431396484375,0.949554443359375,1.0,2.0,1.0,4.0,2.0,90.0,event
11:34:26.402,0.51360387,0.48803517,0.93043804,0.038226664,0.57359207,0.32216457,0.45979702,0.16808814,0.77895045,0.33710665,0.41848785,0.52685505,0.65748715,-0.07696134,-0.16463774,0.17408739,0.16676356,-0.3012765,-0.59538,0.092876405,932.381,820.3663,797.3993,828.8278,729.707,-0.0489501953125,-0.01214599609375,0.98455810546875,2.100982666015625,-2.923431396484375,0.949554443359375,1.0,2.0,1.0,4.0,2.0,90.0,event
11:34:26.403,0.51360387,0.48803517,0.93043804,0.038226664,0.57359207,0.32216457,0.45979702,0.16808814,0.77895045,0.33710665,0.41848785,0.52685505,0.65748715,-0.07696134,-0.16463774,0.17408739,0.16676356,-0.3012765,-0.59538,0.092876405,900.14655,819.9634,722.0513,815.5311,734.5421,-0.0489501953125,-0.01214599609375,0.98455810546875,2.100982666015625,-2.923431396484375,0.949554443359375,1.0,2.0,1.0,4.0,2.0,90.0,event
11:34:26.403,0.51360387,0.48803517,0.93043804,0.038226664,0.57359207,0.32216457,0.45979702,0.16808814,0.77895045,0.33710665,0.41848785,0.52685505,0.65748715,-0.07696134,-0.16463774,0.17408739,0.16676356,-0.3012765,-0.59538,0.092876405,750.65936,818.3516,402.52747,801.02563,843.3333,-0.0489501953125,-0.01214599609375,0.98455810546875,2.100982666015625,-2.923431396484375,0.949554443359375,1.0,2.0,1.0,4.0,2.0,90.0,event
11:34:26.404,0.51360387,0.48803517,0.93043804,0.038226664,0.57359207,0.32216457,0.45979702,0.16808814,0.77895045,0.33710665,0.41848785,0.52685505,0.65748715,-0.07696134,-0.16463774,0.17408739,0.16676356,-0.3012765,-0.59538,0.092876405,693.0403,817.9487,679.7436,794.17584,720.0366,-0.0489501953125,-0.01214599609375,0.98455810546875,2.100982666015625,-2.923431396484375,0.949554443359375,1.0,2.0,1.0,4.0,2.0,90.0,event
11:34:26.444,0.51360387,0.48803517,0.93043804,0.038226664,0.57359207,0.32216457,0.45979702,0.16808814,0.77895045,0.33710665,0.41848785,0.52685505,0.65748715,-0.07696134,-0.16463774,0.17408739,0.16676356,-0.3012765,-0.59538,0.092876405,778.0586,812.71063,933.9927,806.26373,696.26373,-0.05010986328125,-0.01519775390625,0.98822021484375,2.1234130859375,-5.121612548828125,-0.538330078125,1.0,2.0,1.0,4.0,2.0,90.0,event
11:34:26.446,0.51360387,0.48803517,0.93043804,0.038226664,0.57359207,0.32216457,0.45979702,0.16808814,0.77895045,0.33710665,0.41848785,0.52685505,0.65748715,-0.07696134,-0.16463774,0.17408739,0.16676356,-0.3012765,-0.59538,0.092876405,916.26373,813.1135,845.34796,827.619,803.8461,-0.05010986328125,-0.01519775390625,0.98822021484375,2.1234130859375,-5.121612548828125,-0.538330078125,1.0,2.0,1.0,4.0,2.0,90.0,event
11:34:26.447,0.51360387,0.48803517,0.93043804,0.038226664,0.57359207,0.32216457,0.45979702,0.16808814,0.77895045,0.33710665,0.41848785,0.52685505,0.65748715,-0.07696134,-0.16463774,0.17408739,0.16676356,-0.3012765,-0.59538,0.092876405,919.4872,815.5311,682.5641,816.7399,786.9231,-0.05010986328125,-0.01519775390625,0.98822021484375,2.1234130859375,-5.121612548828125,-0.538330078125,1.0,2.0,1.0,4.0,2.0,90.0,event
11:34:26.447,0.51360387,0.48803517,0.93043804,0.038226664,0.57359207,0.32216457,0.45979702,0.16808814,0.77895045,0.33710665,0.41848785,0.52685505,0.65748715,-0.07696134,-0.16463774,0.17408739,0.16676356,-0.3012765,-0.59538,0.092876405,775.64105,815.5311,732.52747,797.3993,704.7253,-0.05010986328125,-0.01519775390625,0.98822021484375,2.1234130859375,-5.121612548828125,-0.538330078125,1.0,2.0,1.0,4.0,2.0,90.0,event
11:34:26.448,0.51360387,0.48803517,0.93043804,0.038226664,0.57359207,0.32216457,0.45979702,0.16808814,0.77895045,0.33710665,0.41848785,0.52685505,0.65748715,-0.07696134,-0.16463774,0.17408739,0.16676356,-0.3012765,-0.59538,0.092876405,680.9524,812.3077,805.05493,792.5641,704.7253,-0.05010986328125,-0.01519775390625,0.98822021484375,2.1234130859375,-5.121612548828125,-0.538330078125,1.0,2.0,1.0,4.0,2.0,90.0,event
11:34:26.449,0.51360387,0.23963173,0.93043804,0.038226664,0.57359207,0.41198277,0.45979702,0.16808814,0.77895045,0.62162346,0.41848785,0.52685505,0.65748715,0.21720591,-0.16463774,0.17408739,0.16676356,-0.28722948,-0.59538,0.092876405,737.3626,804.2491,565.31134,804.65204,894.10254,-0.05010986328125,-0.01519775390625,0.98822021484375,2.1234130859375,-5.121612548828125,-0.538330078125,1.0,2.0,1.0,4.0,2.0,90.0,event
11:34:26.453,0.51360387,0.23963173,0.93043804,0.038226664,0.57359207,0.41198277,0.45979702,0.16808814,0.77895045,0.62162346,0.41848785,0.52685505,0.65748715,0.21720591,-0.16463774,0.17408739,0.16676356,-0.28722948,-0.59538,0.092876405,883.22345,807.8755,475.05493,820.7692,987.1795,-0.05010986328125,-0.01519775390625,0.98822021484375,2.1234130859375,-5.121612548828125,-0.538330078125,1.0,2.0,1.0,4.0,2.0,90.0,event
11:34:26.454,0.51360387,0.23963173,0.93043804,0.038226664,0.57359207,0.41198277,0.45979702,0.16808814,0.77895045,0.62162346,0.41848785,0.52685505,0.65748715,0.21720591,-0.16463774,0.17408739,0.16676356,-0.28722948,-0.59538,0.092876405,790.14655,815.9341,618.0952,804.2491,819.9634,-0.05010986328125,-0.01519775390625,0.98822021484375,2.1234130859375,-5.121612548828125,-0.538330078125,1.0,2.0,1.0,4.0,2.0,90.0,event
11:34:26.454,0.51360387,0.23963173,0.93043804,0.038226664,0.57359207,0.41198277,0.45979702,0.16808814,0.77895045,0.62162346,0.41848785,0.52685505,0.65748715,0.21720591,-0.16463774,0.17408739,0.16676356,-0.28722948,-0.59538,0.092876405,923.5165,816.7399,681.75824,817.9487,874.35895,-0.05010986328125,-0.01519775390625,0.98822021484375,2.1234130859375,-5.121612548828125,-0.538330078125,1.0,2.0,1.0,4.0,2.0,90.0,event
11:34:26.455,0.51360387,0.23963173,0.93043804,0.038226664,0.57359207,0.41198277,0.45979702,0.16808814,0.77895045,0.62162346,0.41848785,0.52685505,0.65748715,0.21720591,-0.16463774,0.17408739,0.16676356,-0.28722948,-0.59538,0.092876405,686.1905,805.8608,300.18314,804.65204,894.90845,-0.05010986328125,-0.01519775390625,0.98822021484375,2.1234130859375,-5.121612548828125,-0.538330078125,1.0,2.0,1.0,4.0,2.0,90.0,event
11:34:26.456,0.51360387,0.23963173,0.93043804,0.038226664,0.57359207,0.41198277,0.45979702,0.16808814,0.77895045,0.62162346,0.41848785,0.52685505,0.65748715,0.21720591,-0.16463774,0.17408739,0.16676356,-0.28722948,-0.59538,0.092876405,749.45056,808.68134,217.17949,821.5751,956.9597,-0.05010986328125,-0.01519775390625,0.98822021484375,2.1234130859375,-5.121612548828125,-0.538330078125,1.0,2.0,1.0,4.0,2.0,90.0,event
11:34:26.456,0.51360387,0.23963173,0.93043804,0.038226664,0.57359207,0.41198277,0.45979702,0.16808814,0.77895045,0.62162346,0.41848785,0.52685505,0.65748715,0.21720591,-0.16463774,0.17408739,0.16676356,-0.28722948,-0.59538,0.092876405,897.72894,817.9487,789.34064,836.08057,740.58606,-0.05010986328125,-0.01519775390625,0.98822021484375,2.1234130859375,-5.121612548828125,-0.538330078125,1.0,2.0,1.0,4.0,2.0,90.0,event
11:34:26.492,0.51360387,0.23963173,0.93043804,0.038226664,0.57359207,0.41198277,0.45979702,0.16808814,0.77895045,0.62162346,0.41848785,0.52685505,0.65748715,0.21720591,-0.16463774,0.17408739,0.16676356,-0.28722948,-0.59538,0.092876405,917.8755,810.696,853.8095,813.1135,665.2381,-0.03515625,-0.00994873046875,0.98638916015625,2.79632568359375,-2.52716064453125,-0.082244873046875,1.0,2.0,1.0,4.0,2.0,90.0,event
11:34:26.494,0.51360387,0.23963173,0.93043804,0.038226664,0.57359207,0.41198277,0.45979702,0.16808814,0.77895045,0.62162346,0.41848785,0.52685505,0.65748715,0.21720591,-0.16463774,0.17408739,0.16676356,-0.28722948,-0.59538,0.092876405,772.8205,804.65204,548.7912,780.07324,740.18317,-0.03515625,-0.00994873046875,0.98638916015625,2.79632568359375,-2.52716064453125,-0.082244873046875,1.0,2.0,1.0,4.0,2.0,90.0,event
11:34:26.494,0.51360387,0.23963173,0.93043804,0.038226664,0.57359207,0.41198277,0.45979702,0.16808814,0.77895045,0.62162346,0.41848785,0.52685505,0.65748715,0.21720591,-0.16463774,0.17408739,0.16676356,-0.28722948,-0.59538,0.092876405,669.2674,809.0842,657.1795,777.6557,695.05493,-0.03515625,-0.00994873046875,0.98638916015625,2.79632568359375,-2.52716064453125,-0.082244873046875,1.0,2.0,1.0,4.0,2.0,90.0,event
11:34:26.495,0.51360387,0.23963173,0.93043804,0.038226664,0.57359207,0.41198277,0.45979702,0.16808814,0.77895045,0.62162346,0.41848785,0.52685505,0.65748715,0.21720591,-0.16463774,0.17408739,0.16676356,-0.28722948,-0.59538,0.092876405,718.022,811.9048,913.8461,802.6374,685.78754,-0.03515625,-0.00994873046875,0.98638916015625,2.79632568359375,-2.52716064453125,-0.082244873046875,1.0,2.0,1.0,4.0,2.0,90.0,event
11:34:26.496,0.51360387,0.23963173,0.93043804,0.038226664,0.57359207,0.41198277,0.45979702,0.16808814,0.77895045,0.62162346,0.41848785,0.52685505,0.65748715,0.21720591,-0.16463774,0.17408739,0.16676356,-0.28722948,-0.59538,0.092876405,853.00366,809.0842,881.6117,817.1429,742.6007,-0.03515625,-0.00994873046875,0.98638916015625,2.79632568359375,-2.52716064453125,-0.082244873046875,1.0,2.0,1.0,4.0,2.0,90.0,event
11:34:26.497,0.51360387,0.23963173,0.93043804,0.038226664,0.57359207,0.41198277,0.45979702,0.16808814,0.77895045,0.62162346,0.41848785,0.52685505,0.65748715,0.21720591,-0.16463774,0.17408739,0.16676356,-0.28722948,-0.59538,0.092876405,915.4579,813.5165,493.58975,809.4872,870.7326,-0.03515625,-0.00994873046875,0.98638916015625,2.79632568359375,-2.52716064453125,-0.082244873046875,1.0,2.0,1.0,4.0,2.0,90.0,event
11:34:26.497,0.51360387,0.23963173,0.93043804,0.038226664,0.57359207,0.41198277,0.45979702,0.16808814,0.77895045,0.62162346,0.41848785,0.52685505,0.65748715,0.21720591,-0.16463774,0.17408739,0.16676356,-0.28722948,-0.59538,0.092876405,813.91943,815.5311,427.91208,799.41394,855.42126,-0.03515625,-0.00994873046875,0.98638916015625,2.79632568359375,-2.52716064453125,-0.082244873046875,1.0,2.0,1.0,4.0,2.0,90.0,event
11:34:26.498,0.51360387,0.23963173,0.93043804,0.038226664,0.57359207,0.41198277,0.45979702,0.16808814,0.77895045,0.62162346,0.41848785,0.52685505,0.65748715,0.21720591,-0.16463774,0.17408739,0.16676356,-0.28722948,-0.59538,0.092876405,693.44324,812.71063,707.5458,794.9817,731.7216,-0.03515625,-0.00994873046875,0.98638916015625,2.79632568359375,-2.52716064453125,-0.082244873046875,1.0,2.0,1.0,4.0,2.0,90.0,event
11:34:26.499,0.51360387,0.23963173,0.93043804,0.038226664,0.57359207,0.41198277,0.45979702,0.16808814,0.77895045,0.62162346,0.41848785,0.52685505,0.65748715,0.21720591,-0.16463774,0.17408739,0.16676356,-0.28722948,-0.59538,0.092876405,703.91943,807.47253,741.79486,803.0403,752.674,-0.03515625,-0.00994873046875,0.98638916015625,2.79632568359375,-2.52716064453125,-0.082244873046875,1.0,2.0,1.0,4.0,2.0,90.0,event
11:34:26.500,0.51360387,0.23963173,0.93043804,0.038226664,0.57359207,0.41198277,0.45979702,0.16808814,0.77895045,0.62162346,0.41848785,0.52685505,0.65748715,0.21720591,-0.16463774,0.17408739,0.16676356,-0.28722948,-0.59538,0.092876405,922.71063,812.71063,505.27472,827.619,857.4359,-0.03515625,-0.00994873046875,0.98638916015625,2.79632568359375,-2.52716064453125,-0.082244873046875,1.0,2.0,1.0,4.0,2.0,90.0,event
11:34:26.500,0.51360387,0.23963173,0.93043804,0.038226664,0.57359207,0.41198277,0.45979702,0.16808814,0.77895045,0.62162346,0.41848785,0.52685505,0.65748715,0.21720591,-0.16463774,0.17408739,0.16676356,-0.28722948,-0.59538,0.092876405,826.0073,805.8608,319.92673,817.9487,948.49817,-0.03515625,-0.00994873046875,0.98638916015625,2.79632568359375,-2.52716064453125,-0.082244873046875,1.0,2.0,1.0,4.0,2.0,90.0,event
11:34:26.501,0.51360387,0.23963173,0.93043804,0.038226664,0.57359207,0.41198277,0.45979702,0.16808814,0.77895045,0.62162346,0.41848785,0.52685505,0.65748715,0.21720591,-0.16463774,0.17408739,0.16676356,-0.28722948,-0.59538,0.092876405,830.84247,814.3223,713.5897,803.44324,816.7399,-0.03515625,-0.00994873046875,0.98638916015625,2.79632568359375,-2.52716064453125,-0.082244873046875,1.0,2.0,1.0,4.0,2.0,90.0,event
11:34:26.525,0.51360387,0.23963173,0.93043804,0.038226664,0.57359207,0.41198277,0.45979702,0.16808814,0.77895045,0.62162346,0.41848785,0.52685505,0.65748715,0.21720591,-0.16463774,0.17408739,0.16676356,-0.28722948,-0.59538,0.092876405,691.02563,816.7399,519.3773,786.1172,804.65204,-0.04425048828125,-0.01263427734375,0.98187255859375,2.31781005859375,-3.90289306640625,1.143951416015625,1.0,2.0,1.0,4.0,2.0,90.0,event
11:34:26.527,0.51360387,0.23963173,0.93043804,0.038226664,0.57359207,0.41198277,0.45979702,0.16808814,0.77895045,0.62162346,0.41848785,0.52685505,0.65748715,0.21720591,-0.16463774,0.17408739,0.16676356,-0.28722948,-0.59538,0.092876405,698.68134,821.978,466.99634,803.0403,743.4066,-0.04425048828125,-0.01263427734375,0.98187255859375,2.31781005859375,-3.90289306640625,1.143951416015625,1.0,2.0,1.0,4.0,2.0,90.0,event
11:34:26.528,0.51360387,0.23963173,0.93043804,0.038226664,0.57359207,0.41198277,0.45979702,0.16808814,0.77895045,0.62162346,0.41848785,0.52685505,0.65748715,0.21720591,-0.16463774,0.17408739,0.16676356,-0.28722948,-0.59538,0.092876405,823.1868,819.15753,809.4872,820.3663,719.2308,-0.04425048828125,-0.01263427734375,0.98187255859375,2.31781005859375,-3.90289306640625,1.143951416015625,1.0,2.0,1.0,4.0,2.0,90.0,event
11:34:26.529,0.51360387,0.23963173,0.93043804,0.038226664,0.57359207,0.41198277,0.45979702,0.16808814,0.77895045,0.62162346,0.41848785,0.52685505,0.65748715,0.21720591,-0.16463774,0.17408739,0.16676356,-0.28722948,-0.59538,0.092876405,930.7692,813.5165,935.2015,823.1868,723.663,-0.04425048828125,-0.01263427734375,0.98187255859375,2.31781005859375,-3.90289306640625,1.143951416015625,1.0,2.0,1.0,4.0,2.0,90.0,event
11:34:26.533,0.51360387,0.23963173,0.93043804,0.038226664,0.57359207,0.41198277,0.45979702,0.16808814,0.77895045,0.62162346,0.41848785,0.52685505,0.65748715,0.21720591,-0.16463774,0.17408739,0.16676356,-0.28722948,-0.59538,0.092876405,864.2857,813.1135,635.42126,813.5165,733.3333,-0.04425048828125,-0.01263427734375,0.98187255859375,2.31781005859375,-3.90289306640625,1.143951416015625,1.0,2.0,1.0,4.0,2.0,90.0,event
11:34:26.534,0.51360387,0.23963173,0.93043804,0.038226664,0.57359207,0.41198277,0.45979702,0.16808814,0.77895045,0.62162346,0.41848785,0.52685505,0.65748715,0.21720591,-0.16463774,0.17408739,0.16676356,-0.28722948,-0.59538,0.092876405,712.7839,815.5311,423.47986,807.47253,850.989,-0.04425048828125,-0.01263427734375,0.98187255859375,2.31781005859375,-3.90289306640625,1.143951416015625,1.0,2.0,1.0,4.0,2.0,90.0,event
11:34:26.535,0.51360387,0.23963173,0.93043804,0.038226664,0.57359207,0.41198277,0.45979702,0.16808814,0.77895045,0.62162346,0.41848785,0.52685505,0.65748715,0.21720591,-0.16463774,0.17408739,0.16676356,-0.28722948,-0.59538,0.092876405,686.5934,813.91943,537.50916,805.4579,945.2747,-0.04425048828125,-0.01263427734375,0.98187255859375,2.31781005859375,-3.90289306640625,1.143951416015625,1.0,2.0,1.0,4.0,2.0,90.0,event
11:34:26.536,0.1101578,0.18076329,0.93043804,0.730195,0.47790882,0.40576866,0.45979702,0.8547161,0.7905924,0.62162346,0.41848785,0.33807343,0.68161297,0.21877453,-0.16463774,0.3404595,0.3800763,-0.3235981,-0.59538,0.09297068,799.011,814.3223,835.6777,812.71063,809.89014,-0.04425048828125,-0.01263427734375,0.98187255859375,2.31781005859375,-3.90289306640625,1.143951416015625,1.0,2.0,1.0,2.0,2.0,90.0,event
11:34:26.542,0.1101578,0.18076329,0.93043804,0.730195,0.47790882,0.40576866,0.45979702,0.8547161,0.7905924,0.62162346,0.41848785,0.33807343,0.68161297,0.21877453,-0.16463774,0.3404595,0.3800763,-0.3235981,-0.59538,0.09297068,913.8461,811.9048,614.0659,818.7546,899.7436,-0.04425048828125,-0.01263427734375,0.98187255859375,2.31781005859375,-3.90289306640625,1.143951416015625,1.0,2.0,1.0,2.0,2.0,90.0,event
11:34:26.543,0.1101578,0.18076329,0.93043804,0.730195,0.47790882,0.40576866,0.45979702,0.8547161,0.7905924,0.62162346,0.41848785,0.33807343,0.68161297,0.21877453,-0.16463774,0.3404595,0.3800763,-0.3235981,-0.59538,0.09297068,875.9707,822.381,193.4066,813.1135,1003.2967,-0.04425048828125,-0.01263427734375,0.98187255859375,2.31781005859375,-3.90289306640625,1.143951416015625,1.0,2.0,1.0,2.0,2.0,90.0,event
11:34:26.544,0.1101578,0.18076329,0.93043804,0.730195,0.47790882,0.40576866,0.45979702,0.8547161,0.7905924,0.62162346,0.41848785,0.33807343,0.68161297,0.21877453,-0.16463774,0.3404595,0.3800763,-0.3235981,-0.59538,0.09297068,690.2198,818.3516,842.9304,792.5641,724.0659,-0.04425048828125,-0.01263427734375,0.98187255859375,2.31781005859375,-3.90289306640625,1.143951416015625,1.0,2.0,1.0,2.0,2.0,90.0,event
11:34:26.544,0.1101578,0.18076329,0.93043804,0.730195,0.47790882,0.40576866,0.45979702,0.8547161,0.7905924,0.62162346,0.41848785,0.33807343,0.68161297,0.21877453,-0.16463774,0.3404595,0.3800763,-0.3235981,-0.59538,0.09297068,740.58606,826.8132,643.0769,792.5641,778.86444,-0.04425048828125,-0.01263427734375,0.98187255859375,2.31781005859375,-3.90289306640625,1.143951416015625,1.0,2.0,1.0,2.0,2.0,90.0,event
11:34:26.579,0.1101578,0.18076329,0.93043804,0.730195,0.47790882,0.40576866,0.45979702,0.8547161,0.7905924,0.62162346,0.41848785,0.33807343,0.68161297,0.21877453,-0.16463774,0.3404595,0.3800763,-0.3235981,-0.59538,0.09297068,794.9817,816.337,672.8938,809.89014,785.31134,-0.04425048828125,-0.01263427734375,0.98187255859375,2.31781005859375,-3.90289306640625,1.143951416015625,1.0,2.0,1.0,2.0,2.0,90.0,event
11:34:26.580,0.1101578,0.18076329,0.93043804,0.730195,0.47790882,0.40576866,0.45979702,0.8547161,0.7905924,0.62162346,0.41848785,0.33807343,0.68161297,0.21877453,-0.16463774,0.3404595,0.3800763,-0.3235981,-0.59538,0.09297068,923.91943,816.7399,774.0293,818.3516,794.17584,-0.04425048828125,-0.01263427734375,0.98187255859375,2.31781005859375,-3.90289306640625,1.143951416015625,1.0,2.0,1.0,2.0,2.0,90.0,event
11:34:26.581,0.1101578,0.18076329,0.93043804,0.730195,0.47790882,0.40576866,0.45979702,0.8547161,0.7905924,0.62162346,0.41848785,0.33807343,0.68161297,0.21877453,-0.16463774,0.3404595,0.3800763,-0.3235981,-0.59538,0.09297068,891.685,815.12823,710.3663,807.8755,806.26373,-0.04425048828125,-0.01263427734375,0.98187255859375,2.31781005859375,-3.90289306640625,1.143951416015625,1.0,2.0,1.0,2.0,2.0,90.0,event
11:34:26.581,0.1101578,0.18076329,0.93043804,0.730195,0.47790882,0.40576866,0.45979702,0.8547161,0.7905924,0.62162346,0.41848785,0.33807343,0.68161297,0.21877453,-0.16463774,0.3404595,0.3800763,-0.3235981,-0.59538,0.09297068,750.65936,814.7253,606.8132,788.5348,770.0,-0.04425048828125,-0.01263427734375,0.98187255859375,2.31781005859375,-3.90289306640625,1.143951416015625,1.0,2.0,1.0,2.0,2.0,90.0,event
11:34:26.582,0.1101578,0.18076329,0.93043804,0.730195,0.47790882,0.40576866,0.45979702,0.8547161,0.7905924,0.62162346,0.41848785,0.33807343,0.68161297,0.21877453,-0.16463774,0.3404595,0.3800763,-0.3235981,-0.59538,0.09297068,684.17584,815.5311,386.41025,791.75824,830.0366,-0.04425048828125,-0.01263427734375,0.98187255859375,2.31781005859375,-3.90289306640625,1.143951416015625,1.0,2.0,1.0,2.0,2.0,90.0,event
11:34:26.583,0.1101578,0.18076329,0.93043804,0.730195,0.47790882,0.40576866,0.45979702,0.8547161,0.7905924,0.62162346,0.41848785,0.33807343,0.68161297,0.21877453,-0.16463774,0.3404595,0.3800763,-0.3235981,-0.59538,0.09297068,774.43225,817.1429,429.5238,804.2491,812.71063,-0.04425048828125,-0.01263427734375,0.98187255859375,2.31781005859375,-3.90289306640625,1.143951416015625,1.0,2.0,1.0,2.0,2.0,90.0,event
11:34:26.584,0.1101578,0.18076329,0.93043804,0.730195,0.47790882,0.40576866,0.45979702,0.8547161,0.7905924,0.62162346,0.41848785,0.33807343,0.68161297,0.21877453,-0.16463774,0.3404595,0.3800763,-0.3235981,-0.59538,0.09297068,917.0696,819.15753,613.663,812.71063,830.4396,-0.04425048828125,-0.01263427734375,0.98187255859375,2.31781005859375,-3.90289306640625,1.143951416015625,1.0,2.0,1.0,2.0,2.0,90.0,event
11:34:26.584,0.1101578,0.18076329,0.93043804,0.730195,0.47790882,0.40576866,0.45979702,0.8547161,0.7905924,0.62162346,0.41848785,0.33807343,0.68161297,0.21877453,-0.16463774,0.3404595,0.3800763,-0.3235981,-0.59538,0.09297068,907.8022,818.7546,563.2967,807.0696,887.6557,-0.04425048828125,-0.01263427734375,0.98187255859375,2.31781005859375,-3.90289306640625,1.143951416015625,1.0,2.0,1.0,2.0,2.0,90.0,event
11:34:26.585,0.1101578,0.18076329,0.93043804,0.730195,0.47790882,0.40576866,0.45979702,0.8547161,0.7905924,0.62162346,0.41848785,0.33807343,0.68161297,0.21877453,-0.16463774,0.3404595,0.3800763,-0.3235981,-0.59538,0.09297068,755.4945,817.5458,168.02197,794.9817,996.8498,-0.04425048828125,-0.01263427734375,0.98187255859375,2.31781005859375,-3.90289306640625,1.143951416015625,1.0,2.0,1.0,2.0,2.0,90.0,event
11:34:26.586,0.1101578,0.18076329,0.93043804,0.730195,0.47790882,0.40576866,0.45979702,0.8547161,0.7905924,0.62162346,0.41848785,0.33807343,0.68161297,0.21877453,-0.16463774,0.3404595,0.3800763,-0.3235981,-0.59538,0.09297068,674.5055,821.1722,404.94507,790.14655,863.8828,-0.04425048828125,-0.01263427734375,0.98187255859375,2.31781005859375,-3.90289306640625,1.143951416015625,1.0,2.0,1.0,2.0,2.0,90.0,event
11:34:26.587,0.1101578,0.18076329,0.93043804,0.730195,0.47790882,0.40576866,0.45979702,0.8547161,0.7905924,0.62162346,0.41848785,0.33807343,0.68161297,0.21877453,-0.16463774,0.3404595,0.3800763,-0.3235981,-0.59538,0.09297068,900.54944,813.91943,717.2161,814.3223,784.5055,-0.04425048828125,-0.01263427734375,0.98187255859375,2.31781005859375,-3.90289306640625,1.143951416015625,1.0,2.0,1.0,2.0,2.0,90.0,event
11:34:26.587,0.1101578,0.18076329,0.93043804,0.730195,0.47790882,0.40576866,0.45979702,0.8547161,0.7905924,0.62162346,0.41848785,0.33807343,0.68161297,0.21877453,-0.16463774,0.3404595,0.3800763,-0.3235981,-0.59538,0.09297068,757.9121,817.9487,893.2967,798.60803,693.0403,-0.04425048828125,-0.01263427734375,0.98187255859375,2.31781005859375,-3.90289306640625,1.143951416015625,1.0,2.0,1.0,2.0,2.0,90.0,event
11:34:26.622,0.1101578,0.18076329,0.93043804,0.730195,0.47790882,0.40576866,0.45979702,0.8547161,0.7905924,0.62162346,0.41848785,0.33807343,0.68161297,0.21877453,-0.16463774,0.3404595,0.3800763,-0.3235981,-0.59538,0.09297068,916.26373,817.5458,695.05493,817.5458,806.6667,-0.04583740234375,-0.00787353515625,0.98583984375,3.15521240234375,-3.028106689453125,-0.2392578125,1.0,2.0,1.0,2.0,2.0,90.0,event
11:34:26.624,0.1101578,0.18076329,0.93043804,0.730195,0.47790882,0.40576866,0.45979702,0.8547161,0.7905924,0.62162346,0.41848785,0.33807343,0.68161297,0.21877453,-0.16463774,0.3404595,0.3800763,-0.3235981,-0.59538,0.09297068,781.28204,817.5458,842.52747,799.011,737.3626,-0.04583740234375,-0.00787353515625,0.98583984375,3.15521240234375,-3.028106689453125,-0.2392578125,1.0,2.0,1.0,2.0,2.0,90.0,event
11:34:26.625,0.1101578,0.18076329,0.93043804,0.730195,0.47790882,0.40576866,0.45979702,0.8547161,0.7905924,0.62162346,0.41848785,0.33807343,0.68161297,0.21877453,-0.16463774,0.3404595,0.3800763,-0.3235981,-0.59538,0.09297068,676.52014,811.9048,813.5165,787.72894,664.43225,-0.04583740234375,-0.00787353515625,0.98583984375,3.15521240234375,-3.028106689453125,-0.2392578125,1.0,2.0,1.0,2.0,2.0,90.0,event
11:34:26.626,0.1101578,0.18076329,0.93043804,0.730195,0.47790882,0.40576866,0.45979702,0.8547161,0.7905924,0.62162346,0.41848785,0.33807343,0.68161297,0.21877453,-0.16463774,0.3404595,0.3800763,-0.3235981,-0.59538,0.09297068,733.3333,808.2784,699.0842,802.23444,684.9817,-0.04583740234375,-0.00787353515625,0.98583984375,3.15521240234375,-3.028106689453125,-0.2392578125,1.0,2.0,1.0,2.0,2.0,90.0,event
11:34:26.626,0.1101578,0.18076329,0.93043804,0.730195,0.47790882,0.40576866,0.45979702,0.8547161,0.7905924,0.62162346,0.41848785,0.33807343,0.68161297,0.21877453,-0.16463774,0.3404595,0.3800763,-0.3235981,-0.59538,0.09297068,885.64105,813.91943,776.4469,822.381,806.6667,-0.04583740234375,-0.00787353515625,0.98583984375,3.15521240234375,-3.028106689453125,-0.2392578125,1.0,2.0,1.0,2.0,2.0,90.0,event
11:34:26.627,0.1101578,0.18076329,0.93043804,0.730195,0.47790882,0.40576866,0.45979702,0.8547161,0.7905924,0.62162346,0.41848785,0.33807343,0.68161297,0.21877453,-0.16463774,0.3404595,0.3800763,-0.3235981,-0.59538,0.09297068,925.5311,818.3516,738.97437,817.5458,888.0586,-0.04583740234375,-0.00787353515625,0.98583984375,3.15521240234375,-3.028106689453125,-0.2392578125,1.0,2.0,1.0,2.0,2.0,90.0,event
11:34:26.628,0.1101578,0.18076329,0.93043804,0.730195,0.47790882,0.40576866,0.45979702,0.8547161,0.7905924,0.62162346,0.41848785,0.33807343,0.68161297,0.21877453,-0.16463774,0.3404595,0.3800763,-0.3235981,-0.59538,0.09297068,799.81683,821.978,610.0366,794.17584,890.07324,-0.04583740234375,-0.00787353515625,0.98583984375,3.15521240234375,-3.028106689453125,-0.2392578125,1.0,2.0,1.0,2.0,2.0,90.0,event
11:34:26.629,0.1101578,0.18076329,0.93043804,0.730195,0.47790882,0.40576866,0.45979702,0.8547161,0.7905924,0.62162346,0.41848785,0.33807343,0.68161297,0.21877453,-0.16463774,0.3404595,0.3800763,-0.3235981,-0.59538,0.09297068,685.38464,820.3663,409.3773,794.57874,961.79486,-0.04583740234375,-0.00787353515625,0.98583984375,3.15521240234375,-3.028106689453125,-0.2392578125,1.0,2.0,1.0,2.0,2.0,90.0,event
11:34:26.629,0.1101578,0.18076329,0.93043804,0.730195,0.47790882,0.40576866,0.45979702,0.8547161,0.7905924,0.62162346,0.41848785,0.33807343,0.68161297,0.21877453,-0.16463774,0.3404595,0.3800763,-0.3235981,-0.59538,0.09297068,718.4249,816.7399,63.260075,812.71063,1110.8792,-0.04583740234375,-0.00787353515625,0.98583984375,3.15521240234375,-3.028106689453125,-0.2392578125,1.0,2.0,1.0,2.0,2.0,90.0,event
11:34:26.630,0.13886145,0.14730948,0.93043804,0.69923973,0.4870164,0.38826945,0.45979702,0.7904848,0.8424096,0.62162346,0.41848785,0.33807343,0.6982168,0.20789637,-0.16463774,0.34584767,0.3304109,-0.35969222,-0.59538,0.086190835,874.7619,819.15753,614.4689,829.6337,925.5311,-0.04583740234375,-0.00787353515625,0.98583984375,3.15521240234375,-3.028106689453125,-0.2392578125,1.0,1.0,1.0,4.0,1.0,90.0,event
11:34:26.635,0.13886145,0.14730948,0.93043804,0.69923973,0.4870164,0.38826945,0.45979702,0.7904848,0.8424096,0.62162346,0.41848785,0.33807343,0.6982168,0.20789637,-0.16463774,0.34584767,0.3304109,-0.35969222,-0.59538,0.086190835,821.978,817.9487,672.49084,799.81683,816.7399,-0.04583740234375,-0.00787353515625,0.98583984375,3.15521240234375,-3.028106689453125,-0.2392578125,1.0,1.0,1.0,4.0,1.0,90.0,event
11:34:26.635,0.13886145,0.14730948,0.93043804,0.69923973,0.4870164,0.38826945,0.45979702,0.7904848,0.8424096,0.62162346,0.41848785,0.33807343,0.6982168,0.20789637,-0.16463774,0.34584767,0.3304109,-0.35969222,-0.59538,0.086190835,949.707,816.7399,1011.75824,828.022,790.54944,-0.04583740234375,-0.00787353515625,0.98583984375,3.15521240234375,-3.028106689453125,-0.2392578125,1.0,1.0,1.0,4.0,1.0,90.0,event
11:34:26.678,0.13886145,0.14730948,0.93043804,0.69923973,0.4870164,0.38826945,0.45979702,0.7904848,0.8424096,0.62162346,0.41848785,0.33807343,0.6982168,0.20789637,-0.16463774,0.34584767,0.3304109,-0.35969222,-0.59538,0.086190835,685.38464,814.3223,697.0696,786.1172,724.4689,-0.04241943359375,-0.015380859375,0.979736328125,2.22808837890625,-4.05242919921875,-0.800018310546875,1.0,1.0,1.0,4.0,1.0,90.0,event
11:34:26.680,0.13886145,0.14730948,0.93043804,0.69923973,0.4870164,0.38826945,0.45979702,0.7904848,0.8424096,0.62162346,0.41848785,0.33807343,0.6982168,0.20789637,-0.16463774,0.34584767,0.3304109,-0.35969222,-0.59538,0.086190835,709.15753,810.696,931.1722,802.6374,688.20514,-0.04241943359375,-0.015380859375,0.979736328125,2.22808837890625,-4.05242919921875,-0.800018310546875,1.0,1.0,1.0,4.0,1.0,90.0,event
11:34:26.681,0.13886145,0.14730948,0.93043804,0.69923973,0.4870164,0.38826945,0.45979702,0.7904848,0.8424096,0.62162346,0.41848785,0.33807343,0.6982168,0.20789637,-0.16463774,0.34584767,0.3304109,-0.35969222,-0.59538,0.086190835,840.10986,815.12823,879.19415,822.381,754.68866,-0.04241943359375,-0.015380859375,0.979736328125,2.22808837890625,-4.05242919921875,-0.800018310546875,1.0,1.0,1.0,4.0,1.0,90.0,event
11:34:26.681,0.13886145,0.14730948,0.93043804,0.69923973,0.4870164,0.38826945,0.45979702,0.7904848,0.8424096,0.62162346,0.41848785,0.33807343,0.6982168,0.20789637,-0.16463774,0.34584767,0.3304109,-0.35969222,-0.59538,0.086190835,924.7253,813.5165,736.1539,824.7985,830.4396,-0.04241943359375,-0.015380859375,0.979736328125,2.22808837890625,-4.05242919921875,-0.800018310546875,1.0,1.0,1.0,4.0,1.0,90.0,event
11:34:26.682,0.13886145,0.14730948,0.93043804,0.69923973,0.4870164,0.38826945,0.45979702,0.7904848,0.8424096,0.62162346,0.41848785,0.33807343,0.6982168,0.20789637,-0.16463774,0.34584767,0.3304109,-0.35969222,-0.59538,0.086190835,836.8865,815.9341,770.80585,808.2784,786.52014,-0.04241943359375,-0.015380859375,0.979736328125,2.22808837890625,-4.05242919921875,-0.800018310546875,1.0,1.0,1.0,4.0,1.0,90.0,event
11:34:26.683,0.13886145,0.14730948,0.93043804,0.69923973,0.4870164,0.38826945,0.45979702,0.7904848,0.8424096,0.62162346,0.41848785,0.33807343,0.6982168,0.20789637,-0.16463774,0.34584767,0.3304109,-0.35969222,-0.59538,0.086190835,706.7399,820.3663,562.8938,791.75824,751.8681,-0.04241943359375,-0.015380859375,0.979736328125,2.22808837890625,-4.05242919921875,-0.800018310546875,1.0,1.0,1.0,4.0,1.0,90.0,event
11:34:26.684,0.13886145,0.14730948,0.93043804,0.69923973,0.4870164,0.38826945,0.45979702,0.7904848,0.8424096,0.62162346,0.41848785,0.33807343,0.6982168,0.20789637,-0.16463774,0.34584767,0.3304109,-0.35969222,-0.59538,0.086190835,696.6667,811.9048,457.72894,799.41394,816.7399,-0.04241943359375,-0.015380859375,0.979736328125,2.22808837890625,-4.05242919921875,-0.800018310546875,1.0,1.0,1.0,4.0,1.0,90.0,event
11:34:26.684,0.13886145,0.14730948,0.93043804,0.69923973,0.4870164,0.38826945,0.45979702,0.7904848,0.8424096,0.62162346,0.41848785,0.33807343,0.6982168,0.20789637,-0.16463774,0.34584767,0.3304109,-0.35969222,-0.59538,0.086190835,809.4872,807.0696,195.42125,825.2015,961.39197,-0.04241943359375,-0.015380859375,0.979736328125,2.22808837890625,-4.05242919921875,-0.800018310546875,1.0,1.0,1.0,4.0,1.0,90.0,event
11:34:26.685,0.13886145,0.14730948,0.93043804,0.69923973,0.4870164,0.38826945,0.45979702,0.7904848,0.8424096,0.62162346,0.41848785,0.33807343,0.6982168,0.20789637,-0.16463774,0.34584767,0.3304109,-0.35969222,-0.59538,0.086190835,860.65936,819.5604,772.01465,809.89014,728.49817,-0.04241943359375,-0.015380859375,0.979736328125,2.22808837890625,-4.05242919921875,-0.800018310546875,1.0,1.0,1.0,4.0,1.0,90.0,event
11:34:26.685,0.13886145,0.14730948,0.93043804,0.69923973,0.4870164,0.38826945,0.45979702,0.7904848,0.8424096,0.62162346,0.41848785,0.33807343,0.6982168,0.20789637,-0.16463774,0.34584767,0.3304109,-0.35969222,-0.59538,0.086190835,922.3077,817.9487,296.95972,828.022,948.49817,-0.04241943359375,-0.015380859375,0.979736328125,2.22808837890625,-4.05242919921875,-0.800018310546875,1.0,1.0,1.0,4.0,1.0,90.0,event
11:34:26.686,0.13886145,0.14730948,0.93043804,0.69923973,0.4870164,0.38826945,0.45979702,0.7904848,0.8424096,0.62162346,0.41848785,0.33807343,0.6982168,0.20789637,-0.16463774,0.34584767,0.3304109,-0.35969222,-0.59538,0.086190835,693.8461,817.9487,548.3883,815.12823,840.10986,-0.04241943359375,-0.015380859375,0.979736328125,2.22808837890625,-4.05242919921875,-0.800018310546875,1.0,1.0,1.0,4.0,1.0,90.0,event
11:34:26.686,0.13886145,0.14730948,0.93043804,0.69923973,0.4870164,0.38826945,0.45979702,0.7904848,0.8424096,0.62162346,0.41848785,0.33807343,0.6982168,0.20789637,-0.16463774,0.34584767,0.3304109,-0.35969222,-0.59538,0.086190835,717.2161,817.1429,691.02563,803.44324,710.3663,-0.04241943359375,-0.015380859375,0.979736328125,2.22808837890625,-4.05242919921875,-0.800018310546875,1.0,1.0,1.0,4.0,1.0,90.0,event
11:34:26.724,0.13886145,0.14730948,0.93043804,0.69923973,0.4870164,0.38826945,0.45979702,0.7904848,0.8424096,0.62162346,0.41848785,0.33807343,0.6982168,0.20789637,-0.16463774,0.34584767,0.3304109,-0.35969222,-0.59538,0.086190835,816.337,817.9487,843.73627,827.619,750.2564,-0.04498291015625,-0.00970458984375,0.9876708984375,2.340240478515625,-3.222503662109375,0.85235595703125,1.0,1.0,1.0,4.0,1.0,90.0,event
11:34:26.725,0.13886145,0.14730948,0.93043804,0.69923973,0.4870164,0.38826945,0.45979702,0.7904848,0.8424096,0.62162346,0.41848785,0.33807343,0.6982168,0.20789637,-0.16463774,0.34584767,0.3304109,-0.35969222,-0.59538,0.086190835,943.663,822.381,1012.5641,834.4689,722.0513,-0.04498291015625,-0.00970458984375,0.9876708984375,2.340240478515625,-3.222503662109375,0.85235595703125,1.0,1.0,1.0,4.0,1.0,90.0,event
11:34:26.726,0.13886145,0.14730948,0.93043804,0.69923973,0.4870164,0.38826945,0.45979702,0.7904848,0.8424096,0.62162346,0.41848785,0.33807343,0.6982168,0.20789637,-0.16463774,0.34584767,0.3304109,-0.35969222,-0.59538,0.086190835,890.07324,818.3516,792.1612,815.12823,776.04395,-0.04498291015625,-0.00970458984375,0.9876708984375,2.340240478515625,-3.222503662109375,0.85235595703125,1.0,1.0,1.0,4.0,1.0,90.0,event
11:34:26.730,0.13886145,0.14730948,0.93043804,0.69923973,0.4870164,0.38826945,0.45979702,0.7904848,0.8424096,0.62162346,0.41848785,0.33807343,0.6982168,0.20789637,-0.16463774,0.34584767,0.3304109,-0.35969222,-0.59538,0.086190835,735.34796,815.9341,653.5531,796.1905,732.52747,-0.04498291015625,-0.00970458984375,0.9876708984375,2.340240478515625,-3.222503662109375,0.85235595703125,1.0,1.0,1.0,4.0,1.0,90.0,event
11:34:26.732,0.13886145,0.14730948,0.93043804,0.69923973,0.4870164,0.38826945,0.45979702,0.7904848,0.8424096,0.62162346,0.41848785,0.33807343,0.6982168,0.20789637,-0.16463774,0.34584767,0.3304109,-0.35969222,-0.59538,0.086190835,703.91943,820.3663,793.36993,801.8315,734.1392,-0.04498291015625,-0.00970458984375,0.9876708984375,2.340240478515625,-3.222503662109375,0.85235595703125,1.0,1.0,1.0,4.0,1.0,90.0,event
11:34:26.733,0.13886145,0.14730948,0.93043804,0.69923973,0.4870164,0.38826945,0.45979702,0.7904848,0.8424096,0.62162346,0.41848785,0.33807343,0.6982168,0.20789637,-0.16463774,0.34584767,0.3304109,-0.35969222,-0.59538,0.086190835,816.337,815.9341,799.011,811.50183,839.707,-0.04498291015625,-0.00970458984375,0.9876708984375,2.340240478515625,-3.222503662109375,0.85235595703125,1.0,1.0,1.0,4.0,1.0,90.0,event
11:34:26.734,0.13886145,0.14730948,0.93043804,0.69923973,0.4870164,0.38826945,0.45979702,0.7904848,0.8424096,0.62162346,0.41848785,0.33807343,0.6982168,0.20789637,-0.16463774,0.34584767,0.3304109,-0.35969222,-0.59538,0.086190835,929.5604,811.50183,548.3883,824.7985,1013.7729,-0.04498291015625,-0.00970458984375,0.9876708984375,2.340240478515625,-3.222503662109375,0.85235595703125,1.0,1.0,1.0,4.0,1.0,90.0,event
11:34:26.736,0.13886145,0.14730948,0.93043804,0.69923973,0.4870164,0.38826945,0.45979702,0.7904848,0.8424096,0.62162346,0.41848785,0.33807343,0.6982168,0.20789637,-0.16463774,0.34584767,0.3304109,-0.35969222,-0.59538,0.086190835,888.0586,816.7399,256.66666,821.978,1128.608,-0.04498291015625,-0.00970458984375,0.9876708984375,2.340240478515625,-3.222503662109375,0.85235595703125,1.0,1.0,1.0,4.0,1.0,90.0,event
11:34:26.737,0.13886145,0.14730948,0.93043804,0.69923973,0.4870164,0.38826945,0.45979702,0.7904848,0.8424096,0.62162346,0.41848785,0.33807343,0.6982168,0.20789637,-0.16463774,0.34584767,0.3304109,-0.35969222,-0.59538,0.086190835,750.65936,821.978,641.06226,799.011,837.28937,-0.04498291015625,-0.00970458984375,0.9876708984375,2.340240478515625,-3.222503662109375,0.85235595703125,1.0,1.0,1.0,4.0,1.0,90.0,event
11:34:26.738,0.13886145,0.14730948,0.93043804,0.69923973,0.4870164,0.38826945,0.45979702,0.7904848,0.8424096,0.62162346,0.41848785,0.33807343,0.6982168,0.20789637,-0.16463774,0.34584767,0.3304109,-0.35969222,-0.59538,0.086190835,694.2491,821.978,838.49817,798.60803,655.16486,-0.04498291015625,-0.00970458984375,0.9876708984375,2.340240478515625,-3.222503662109375,0.85235595703125,1.0,1.0,1.0,4.0,1.0,90.0,event
11:34:26.739,0.17900759,0.15608919,0.93043804,0.6751239,0.4963662,0.35984233,0.45979702,0.73232085,0.8609789,0.62162346,0.41848785,0.33812985,0.7048368,0.18647723,-0.16463774,0.35305074,0.29596287,-0.38956568,-0.59538,0.08356023,930.7692,818.7546,657.5824,830.4396,793.36993,-0.04498291015625,-0.00970458984375,0.9876708984375,2.340240478515625,-3.222503662109375,0.85235595703125,1.0,1.0,1.0,4.0,1.0,90.0,event
11:34:26.739,0.13886145,0.14730948,0.93043804,0.69923973,0.4870164,0.38826945,0.45979702,0.7904848,0.8424096,0.62162346,0.41848785,0.33807343,0.6982168,0.20789637,-0.16463774,0.34584767,0.3304109,-0.35969222,-0.59538,0.086190835,795.78754,819.5604,654.7619,816.337,740.989,-0.04498291015625,-0.00970458984375,0.9876708984375,2.340240478515625,-3.222503662109375,0.85235595703125,1.0,1.0,1.0,4.0,1.0,90.0,event
