TimeStamp,Delta_TP9,Delta_AF7,Delta_AF8,Delta_TP10,Theta_TP9,Theta_AF7,Theta_AF8,Theta_TP10,Alpha_TP9,Alpha_AF7,Alpha_AF8,Alpha_TP10,Beta_TP9,Beta_AF7,Beta_AF8,Beta_TP10,Gamma_TP9,Gamma_AF7,Gamma_AF8,Gamma_TP10,RAW_TP9,RAW_AF7,RAW_AF8,RAW_TP10,AUX_RIGHT,Accelerometer_X,Accelerometer_Y,Accelerometer_Z,Gyro_X,Gyro_Y,Gyro_Z,HeadBandOn,HSI_TP9,HSI_AF7,HSI_AF8,HSI_TP10,Battery,Elements
10:31:57.289,1.3450904,0.0,1.1969795,1.2810538,1.1978596,0.0,0.36165506,1.6646616,1.1835978,0.0,0.03874003,1.295106,1.1697083,0.0,0.14602406,1.1252238,0.96912897,0.0,-0.106642246,0.8519563,801.02563,1019.81683,772.8205,783.2967,649.92676,-0.1728515625,0.12774658203125,0.96746826171875,2.355194091796875,-3.297271728515625,-0.142059326171875,1.0,2.0,4.0,1.0,2.0,85.0,event
10:31:57.291,1.3450904,0.0,1.1969795,1.2810538,1.1978596,0.0,0.36165506,1.6646616,1.1835978,0.0,0.03874003,1.295106,1.1697083,0.0,0.14602406,1.1252238,0.96912897,0.0,-0.106642246,0.8519563,800.2198,886.04395,772.8205,810.696,748.6447,-0.1728515625,0.12774658203125,0.96746826171875,2.355194091796875,-3.297271728515625,-0.142059326171875,1.0,2.0,4.0,1.0,2.0,85.0,event
10:31:57.291,1.3450904,0.0,1.1969795,1.2810538,1.1978596,0.0,0.36165506,1.6646616,1.1835978,0.0,0.03874003,1.295106,1.1697083,0.0,0.14602406,1.1252238,0.96912897,0.0,-0.106642246,0.8519563,801.8315,736.55676,761.9414,815.12823,791.3553,-0.1728515625,0.12774658203125,0.96746826171875,2.355194091796875,-3.297271728515625,-0.142059326171875,1.0,2.0,4.0,1.0,2.0,85.0,event
10:31:57.292,1.3450904,0.0,1.1969795,1.2810538,1.1978596,0.0,0.36165506,1.6646616,1.1835978,0.0,0.03874003,1.295106,1.1697083,0.0,0.14602406,1.1252238,0.96912897,0.0,-0.106642246,0.8519563,795.38464,731.31866,766.77655,794.17584,776.04395,-0.1728515625,0.12774658203125,0.96746826171875,2.355194091796875,-3.297271728515625,-0.142059326171875,1.0,2.0,4.0,1.0,2.0,85.0,event
10:31:57.293,1.3450904,0.0,1.1969795,1.2810538,1.1978596,0.0,0.36165506,1.6646616,1.1835978,0.0,0.03874003,1.295106,1.1697083,0.0,0.14602406,1.1252238,0.96912897,0.0,-0.106642246,0.8519563,801.8315,555.64105,751.8681,796.1905,911.02563,-0.1728515625,0.12774658203125,0.96746826171875,2.355194091796875,-3.297271728515625,-0.142059326171875,1.0,2.0,4.0,1.0,2.0,85.0,event
10:31:57.293,1.3450904,0.0,1.1969795,1.2810538,1.1978596,0.0,0.36165506,1.6646616,1.1835978,0.0,0.03874003,1.295106,1.1697083,0.0,0.14602406,1.1252238,0.96912897,0.0,-0.106642246,0.8519563,787.72894,852.6007,782.49084,778.86444,703.1135,-0.1728515625,0.12774658203125,0.96746826171875,2.355194091796875,-3.297271728515625,-0.142059326171875,1.0,2.0,4.0,1.0,2.0,85.0,event
10:31:57.294,1.3450904,0.0,1.1969795,1.2810538,1.1978596,0.0,0.36165506,1.6646616,1.1835978,0.0,0.03874003,1.295106,1.1697083,0.0,0.14602406,1.1252238,0.96912897,0.0,-0.106642246,0.8519563,816.337,71.72161,775.64105,832.4542,1195.0916,-0.1728515625,0.12774658203125,0.96746826171875,2.355194091796875,-3.297271728515625,-0.142059326171875,1.0,2.0,4.0,1.0,2.0,85.0,event
10:31:57.295,1.3450904,0.0,1.1969795,1.2810538,1.1978596,0.0,0.36165506,1.6646616,1.1835978,0.0,0.03874003,1.295106,1.1697083,0.0,0.14602406,1.1252238,0.96912897,0.0,-0.106642246,0.8519563,813.5165,618.49817,809.4872,828.8278,922.3077,-0.1728515625,0.12774658203125,0.96746826171875,2.355194091796875,-3.297271728515625,-0.142059326171875,1.0,2.0,4.0,1.0,2.0,85.0,event
10:31:57.299,1.3450904,0.0,1.1969795,1.2810538,1.1978596,0.0,0.36165506,1.6646616,1.1835978,0.0,0.03874003,1.295106,1.1697083,0.0,0.14602406,1.1252238,0.96912897,0.0,-0.106642246,0.8519563,807.0696,1062.1245,783.2967,805.8608,669.67035,-0.1728515625,0.12774658203125,0.96746826171875,2.355194091796875,-3.297271728515625,-0.142059326171875,1.0,2.0,4.0,1.0,2.0,85.0,event
10:31:57.300,1.3450904,0.0,1.1969795,1.2810538,1.1978596,0.0,0.36165506,1.6646616,1.1835978,0.0,0.03874003,1.295106,1.1697083,0.0,0.14602406,1.1252238,0.96912897,0.0,-0.106642246,0.8519563,796.99634,627.3626,786.9231,782.0879,755.09155,-0.1728515625,0.12774658203125,0.96746826171875,2.355194091796875,-3.297271728515625,-0.142059326171875,1.0,2.0,4.0,1.0,2.0,85.0,event
10:31:57.300,1.3450904,0.0,1.1969795,1.2810538,1.1978596,0.0,0.36165506,1.6646616,1.1835978,0.0,0.03874003,1.295106,1.1697083,0.0,0.14602406,1.1252238,0.96912897,0.0,-0.106642246,0.8519563,783.69965,575.38464,804.2491,770.40295,744.21246,-0.1728515625,0.12774658203125,0.96746826171875,2.355194091796875,-3.297271728515625,-0.142059326171875,1.0,2.0,4.0,1.0,2.0,85.0,event
10:31:57.301,1.3450904,0.0,1.1969795,1.2810538,1.1978596,0.0,0.36165506,1.6646616,1.1835978,0.0,0.03874003,1.295106,1.1697083,0.0,0.14602406,1.1252238,0.96912897,0.0,-0.106642246,0.8519563,797.8022,1026.6666,794.17584,800.2198,654.35895,-0.1728515625,0.12774658203125,0.96746826171875,2.355194091796875,-3.297271728515625,-0.142059326171875,1.0,2.0,4.0,1.0,2.0,85.0,event
10:31:57.327,1.3450904,0.0,1.1969795,1.2810538,1.1978596,0.0,0.36165506,1.6646616,1.1835978,0.0,0.03874003,1.295106,1.1697083,0.0,0.14602406,1.1252238,0.96912897,0.0,-0.106642246,0.8519563,805.8608,1033.1135,783.69965,834.87177,738.5714,-0.17578125,0.129150390625,0.9595947265625,2.041168212890625,-3.835601806640625,-0.022430419921875,1.0,2.0,4.0,1.0,2.0,85.0,event
10:31:57.328,1.3450904,0.0,1.1969795,1.2810538,1.1978596,0.0,0.36165506,1.6646616,1.1835978,0.0,0.03874003,1.295106,1.1697083,0.0,0.14602406,1.1252238,0.96912897,0.0,-0.106642246,0.8519563,801.02563,844.94507,790.14655,816.337,764.7619,-0.17578125,0.129150390625,0.9595947265625,2.041168212890625,-3.835601806640625,-0.022430419921875,1.0,2.0,4.0,1.0,2.0,85.0,event
10:31:57.329,1.3450904,0.0,1.1969795,1.2810538,1.1978596,0.0,0.36165506,1.6646616,1.1835978,0.0,0.03874003,1.295106,1.1697083,0.0,0.14602406,1.1252238,0.96912897,0.0,-0.106642246,0.8519563,788.5348,1018.20514,798.20514,777.6557,686.1905,-0.17578125,0.129150390625,0.9595947265625,2.041168212890625,-3.835601806640625,-0.022430419921875,1.0,2.0,4.0,1.0,2.0,85.0,event
10:31:57.329,1.3450904,0.0,1.1969795,1.2810538,1.1978596,0.0,0.36165506,1.6646616,1.1835978,0.0,0.03874003,1.295106,1.1697083,0.0,0.14602406,1.1252238,0.96912897,0.0,-0.106642246,0.8519563,786.52014,886.04395,799.011,780.4762,736.55676,-0.17578125,0.129150390625,0.9595947265625,2.041168212890625,-3.835601806640625,-0.022430419921875,1.0,2.0,4.0,1.0,2.0,85.0,event
10:31:57.330,1.3450904,0.0,1.1969795,1.2810538,1.1978596,0.0,0.36165506,1.6646616,1.1835978,0.0,0.03874003,1.295106,1.1697083,0.0,0.14602406,1.1252238,0.96912897,0.0,-0.106642246,0.8519563,814.7253,964.61536,803.44324,805.4579,725.2747,-0.17578125,0.129150390625,0.9595947265625,2.041168212890625,-3.835601806640625,-0.022430419921875,1.0,2.0,4.0,1.0,2.0,85.0,event
10:31:57.330,1.3450904,0.0,1.1969795,1.2810538,1.1978596,0.0,0.36165506,1.6646616,1.1835978,0.0,0.03874003,1.295106,1.1697083,0.0,0.14602406,1.1252238,0.96912897,0.0,-0.106642246,0.8519563,828.8278,707.1429,815.5311,852.1978,919.0842,-0.17578125,0.129150390625,0.9595947265625,2.041168212890625,-3.835601806640625,-0.022430419921875,1.0,2.0,4.0,1.0,2.0,85.0,event
10:31:57.331,1.3450904,0.0,1.1969795,1.2810538,1.1978596,0.0,0.36165506,1.6646616,1.1835978,0.0,0.03874003,1.295106,1.1697083,0.0,0.14602406,1.1252238,0.96912897,0.0,-0.106642246,0.8519563,815.9341,655.56775,817.1429,840.9158,936.0073,-0.17578125,0.129150390625,0.9595947265625,2.041168212890625,-3.835601806640625,-0.022430419921875,1.0,2.0,4.0,1.0,2.0,85.0,event
10:31:57.331,1.3450904,0.0,1.1969795,1.2810538,1.1978596,0.0,0.36165506,1.6646616,1.1835978,0.0,0.03874003,1.295106,1.1697083,0.0,0.14602406,1.1252238,0.96912897,0.0,-0.106642246,0.8519563,805.8608,714.7985,817.1429,796.99634,838.49817,-0.17578125,0.129150390625,0.9595947265625,2.041168212890625,-3.835601806640625,-0.022430419921875,1.0,2.0,4.0,1.0,2.0,85.0,event
10:31:57.332,1.3450904,0.0,1.1969795,1.2810538,1.1978596,0.0,0.36165506,1.6646616,1.1835978,0.0,0.03874003,1.295106,1.1697083,0.0,0.14602406,1.1252238,0.96912897,0.0,-0.106642246,0.8519563,798.60803,752.674,810.696,791.75824,703.5165,-0.17578125,0.129150390625,0.9595947265625,2.041168212890625,-3.835601806640625,-0.022430419921875,1.0,2.0,4.0,1.0,2.0,85.0,event
10:31:57.332,1.3450904,0.0,1.1969795,1.2810538,1.1978596,0.0,0.36165506,1.6646616,1.1835978,0.0,0.03874003,1.295106,1.1697083,0.0,0.14602406,1.1252238,0.96912897,0.0,-0.106642246,0.8519563,796.5934,261.50183,807.8755,801.02563,893.2967,-0.17578125,0.129150390625,0.9595947265625,2.041168212890625,-3.835601806640625,-0.022430419921875,1.0,2.0,4.0,1.0,2.0,85.0,event
10:31:57.333,1.3450904,0.0,1.1969795,1.2810538,1.1978596,0.0,0.36165506,1.6646616,1.1835978,0.0,0.03874003,1.295106,1.1697083,0.0,0.14602406,1.1252238,0.96912897,0.0,-0.106642246,0.8519563,805.05493,308.64468,840.10986,819.9634,1005.31134,-0.17578125,0.129150390625,0.9595947265625,2.041168212890625,-3.835601806640625,-0.022430419921875,1.0,2.0,4.0,1.0,2.0,85.0,event
10:31:57.333,1.3450904,0.0,1.1969795,1.2810538,1.1978596,0.0,0.36165506,1.6646616,1.1835978,0.0,0.03874003,1.295106,1.1697083,0.0,0.14602406,1.1252238,0.96912897,0.0,-0.106642246,0.8519563,807.8755,964.61536,827.619,819.5604,757.1062,-0.17578125,0.129150390625,0.9595947265625,2.041168212890625,-3.835601806640625,-0.022430419921875,1.0,2.0,4.0,1.0,2.0,85.0,event
10:31:57.358,1.3450904,0.0,1.1969795,1.2810538,1.1978596,0.0,0.36165506,1.6646616,1.1835978,0.0,0.03874003,1.295106,1.1697083,0.0,0.14602406,1.1252238,0.96912897,0.0,-0.106642246,0.8519563,799.011,792.1612,816.337,781.685,733.73627,-0.1705322265625,0.12469482421875,0.9598388671875,1.876678466796875,-4.0972900390625,-0.082244873046875,1.0,2.0,4.0,1.0,2.0,85.0,event
10:31:57.359,1.3450904,0.0,1.1969795,1.2810538,1.1978596,0.0,0.36165506,1.6646616,1.1835978,0.0,0.03874003,1.295106,1.1697083,0.0,0.14602406,1.1252238,0.96912897,0.0,-0.106642246,0.8519563,793.36993,684.9817,827.619,759.92676,784.5055,-0.1705322265625,0.12469482421875,0.9598388671875,1.876678466796875,-4.0972900390625,-0.082244873046875,1.0,2.0,4.0,1.0,2.0,85.0,event
10:31:57.360,1.3450904,0.0,1.1969795,1.2810538,1.1978596,0.0,0.36165506,1.6646616,1.1835978,0.0,0.03874003,1.295106,1.1697083,0.0,0.14602406,1.1252238,0.96912897,0.0,-0.106642246,0.8519563,805.8608,1010.9524,844.1392,783.2967,739.7802,-0.1705322265625,0.12469482421875,0.9598388671875,1.876678466796875,-4.0972900390625,-0.082244873046875,1.0,2.0,4.0,1.0,2.0,85.0,event
10:31:57.361,1.3450904,0.0,1.1969795,1.2810538,1.1978596,0.0,0.36165506,1.6646616,1.1835978,0.0,0.03874003,1.295106,1.1697083,0.0,0.14602406,1.1252238,0.96912897,0.0,-0.106642246,0.8519563,822.7839,1129.414,844.1392,824.7985,750.65936,-0.1705322265625,0.12469482421875,0.9598388671875,1.876678466796875,-4.0972900390625,-0.082244873046875,1.0,2.0,4.0,1.0,2.0,85.0,event
10:31:57.363,1.3450904,0.0,1.1969795,1.2810538,1.1978596,0.0,0.36165506,1.6646616,1.1835978,0.0,0.03874003,1.295106,1.1697083,0.0,0.14602406,1.1252238,0.96912897,0.0,-0.106642246,0.8519563,816.337,846.1539,831.2454,835.2747,842.9304,-0.1705322265625,0.12469482421875,0.9598388671875,1.876678466796875,-4.0972900390625,-0.082244873046875,1.0,2.0,4.0,1.0,2.0,85.0,event
10:31:57.364,1.3450904,0.0,1.1969795,1.2810538,1.1978596,0.0,0.36165506,1.6646616,1.1835978,0.0,0.03874003,1.295106,1.1697083,0.0,0.14602406,1.1252238,0.96912897,0.0,-0.106642246,0.8519563,788.93774,543.5531,827.619,795.78754,900.9524,-0.1705322265625,0.12469482421875,0.9598388671875,1.876678466796875,-4.0972900390625,-0.082244873046875,1.0,2.0,4.0,1.0,2.0,85.0,event
10:31:57.365,1.3450904,0.0,1.1969795,1.2810538,1.1978596,0.0,0.36165506,1.6646616,1.1835978,0.0,0.03874003,1.295106,1.1697083,0.0,0.14602406,1.1252238,0.96912897,0.0,-0.106642246,0.8519563,771.6117,609.2308,844.94507,755.89746,827.2161,-0.1705322265625,0.12469482421875,0.9598388671875,1.876678466796875,-4.0972900390625,-0.082244873046875,1.0,2.0,4.0,1.0,2.0,85.0,event
10:31:57.366,1.3450904,0.0,1.1969795,1.2810538,1.1978596,0.0,0.36165506,1.6646616,1.1835978,0.0,0.03874003,1.295106,1.1697083,0.0,0.14602406,1.1252238,0.96912897,0.0,-0.106642246,0.8519563,790.9524,928.7546,851.79486,765.56775,681.75824,-0.1705322265625,0.12469482421875,0.9598388671875,1.876678466796875,-4.0972900390625,-0.082244873046875,1.0,2.0,4.0,1.0,2.0,85.0,event
10:31:57.367,1.3450904,0.0,1.1969795,1.2810538,1.1978596,0.0,0.36165506,1.6646616,1.1835978,0.0,0.03874003,1.295106,1.1697083,0.0,0.14602406,1.1252238,0.96912897,0.0,-0.106642246,0.8519563,825.2015,607.2161,832.4542,826.8132,814.3223,-0.1705322265625,0.12469482421875,0.9598388671875,1.876678466796875,-4.0972900390625,-0.082244873046875,1.0,2.0,4.0,1.0,2.0,85.0,event
10:31:57.368,1.3450904,0.0,1.1969795,1.2810538,1.1978596,0.0,0.36165506,1.6646616,1.1835978,0.0,0.03874003,1.295106,1.1697083,0.0,0.14602406,1.1252238,0.96912897,0.0,-0.106642246,0.8519563,813.5165,87.4359,850.989,836.8865,1048.022,-0.1705322265625,0.12469482421875,0.9598388671875,1.876678466796875,-4.0972900390625,-0.082244873046875,1.0,2.0,4.0,1.0,2.0,85.0,event
10:31:57.371,1.3450904,0.0,1.1969795,1.2810538,1.1978596,0.0,0.36165506,1.6646616,1.1835978,0.0,0.03874003,1.295106,1.1697083,0.0,0.14602406,1.1252238,0.96912897,0.0,-0.106642246,0.8519563,789.34064,702.71063,862.27106,777.6557,806.26373,-0.1705322265625,0.12469482421875,0.9598388671875,1.876678466796875,-4.0972900390625,-0.082244873046875,1.0,2.0,4.0,1.0,2.0,85.0,event
10:31:57.372,1.3450904,0.0,1.1969795,1.2810538,1.1978596,0.0,0.36165506,1.6646616,1.1835978,0.0,0.03874003,1.295106,1.1697083,0.0,0.14602406,1.1252238,0.96912897,0.0,-0.106642246,0.8519563,793.7729,998.46155,834.4689,766.77655,624.94507,-0.1705322265625,0.12469482421875,0.9598388671875,1.876678466796875,-4.0972900390625,-0.082244873046875,1.0,2.0,4.0,1.0,2.0,85.0,event
10:31:57.402,1.3450904,0.0,1.1969795,1.2810538,1.1978596,0.0,0.36165506,1.6646616,1.1835978,0.0,0.03874003,1.295106,1.1697083,0.0,0.14602406,1.1252238,0.96912897,0.0,-0.106642246,0.8519563,805.4579,750.2564,849.3773,777.25275,656.77655,-0.16619873046875,0.12786865234375,0.96466064453125,3.132781982421875,-3.46923828125,1.1065673828125,1.0,2.0,4.0,1.0,2.0,85.0,event
10:31:57.403,1.3450904,0.0,1.1969795,1.2810538,1.1978596,0.0,0.36165506,1.6646616,1.1835978,0.0,0.03874003,1.295106,1.1697083,0.0,0.14602406,1.1252238,0.96912897,0.0,-0.106642246,0.8519563,818.3516,849.7802,865.89746,816.337,720.84247,-0.16619873046875,0.12786865234375,0.96466064453125,3.132781982421875,-3.46923828125,1.1065673828125,1.0,2.0,4.0,1.0,2.0,85.0,event
10:31:57.404,1.3450904,0.0,1.1969795,1.2810538,1.1978596,0.0,0.36165506,1.6646616,1.1835978,0.0,0.03874003,1.295106,1.1697083,0.0,0.14602406,1.1252238,0.96912897,0.0,-0.106642246,0.8519563,823.1868,1094.762,853.00366,838.0952,756.7033,-0.16619873046875,0.12786865234375,0.96466064453125,3.132781982421875,-3.46923828125,1.1065673828125,1.0,2.0,4.0,1.0,2.0,85.0,event
10:31:57.405,1.3450904,0.0,1.1969795,1.2810538,1.1978596,0.0,0.36165506,1.6646616,1.1835978,0.0,0.03874003,1.295106,1.1697083,0.0,0.14602406,1.1252238,0.96912897,0.0,-0.106642246,0.8519563,799.41394,998.46155,838.0952,784.90845,735.34796,-0.16619873046875,0.12786865234375,0.96466064453125,3.132781982421875,-3.46923828125,1.1065673828125,1.0,2.0,4.0,1.0,2.0,85.0,event
10:31:57.406,1.3450904,0.0,1.1969795,1.2810538,1.1978596,0.0,0.36165506,1.6646616,1.1835978,0.0,0.03874003,1.295106,1.1697083,0.0,0.14602406,1.1252238,0.96912897,0.0,-0.106642246,0.8519563,796.1905,782.8938,829.6337,765.16486,775.2381,-0.16619873046875,0.12786865234375,0.96466064453125,3.132781982421875,-3.46923828125,1.1065673828125,1.0,2.0,4.0,1.0,2.0,85.0,event
10:31:57.407,1.3450904,0.0,1.1969795,1.2810538,1.1978596,0.0,0.36165506,1.6646616,1.1835978,0.0,0.03874003,1.295106,1.1697083,0.0,0.14602406,1.1252238,0.96912897,0.0,-0.106642246,0.8519563,835.2747,674.5055,834.87177,795.38464,823.1868,-0.16619873046875,0.12786865234375,0.96466064453125,3.132781982421875,-3.46923828125,1.1065673828125,1.0,2.0,4.0,1.0,2.0,85.0,event
10:31:57.407,1.3450904,0.0,1.1969795,1.2810538,1.1978596,0.0,0.36165506,1.6646616,1.1835978,0.0,0.03874003,1.295106,1.1697083,0.0,0.14602406,1.1252238,0.96912897,0.0,-0.106642246,0.8519563,847.76556,671.685,846.1539,823.5897,818.3516,-0.16619873046875,0.12786865234375,0.96466064453125,3.132781982421875,-3.46923828125,1.1065673828125,1.0,2.0,4.0,1.0,2.0,85.0,event
10:31:57.408,1.3450904,0.0,1.1969795,1.2810538,1.1978596,0.0,0.36165506,1.6646616,1.1835978,0.0,0.03874003,1.295106,1.1697083,0.0,0.14602406,1.1252238,0.96912897,0.0,-0.106642246,0.8519563,819.9634,831.2454,824.3956,834.0659,816.337,-0.16619873046875,0.12786865234375,0.96466064453125,3.132781982421875,-3.46923828125,1.1065673828125,1.0,2.0,4.0,1.0,2.0,85.0,event
10:31:57.409,1.3450904,0.0,1.1969795,1.2810538,1.1978596,0.0,0.36165506,1.6646616,1.1835978,0.0,0.03874003,1.295106,1.1697083,0.0,0.14602406,1.1252238,0.96912897,0.0,-0.106642246,0.8519563,787.326,402.12454,819.9634,811.50183,925.9341,-0.16619873046875,0.12786865234375,0.96466064453125,3.132781982421875,-3.46923828125,1.1065673828125,1.0,2.0,4.0,1.0,2.0,85.0,event
10:31:57.410,1.3450904,0.0,1.1969795,1.2810538,1.1978596,0.0,0.36165506,1.6646616,1.1835978,0.0,0.03874003,1.295106,1.1697083,0.0,0.14602406,1.1252238,0.96912897,0.0,-0.106642246,0.8519563,777.6557,413.8095,858.24176,784.10254,795.78754,-0.16619873046875,0.12786865234375,0.96466064453125,3.132781982421875,-3.46923828125,1.1065673828125,1.0,2.0,4.0,1.0,2.0,85.0,event
10:31:57.410,1.3450904,0.0,1.1969795,1.2810538,1.1978596,0.0,0.36165506,1.6646616,1.1835978,0.0,0.03874003,1.295106,1.1697083,0.0,0.14602406,1.1252238,0.96912897,0.0,-0.106642246,0.8519563,801.02563,1023.8461,845.34796,787.326,604.3956,-0.16619873046875,0.12786865234375,0.96466064453125,3.132781982421875,-3.46923828125,1.1065673828125,1.0,2.0,4.0,1.0,2.0,85.0,event
10:31:57.411,1.3450904,0.0,1.1969795,1.2810538,1.1978596,0.0,0.36165506,1.6646616,1.1835978,0.0,0.03874003,1.295106,1.1697083,0.0,0.14602406,1.1252238,0.96912897,0.0,-0.106642246,0.8519563,823.1868,890.07324,819.9634,824.7985,745.82416,-0.16619873046875,0.12786865234375,0.96466064453125,3.132781982421875,-3.46923828125,1.1065673828125,1.0,2.0,4.0,1.0,2.0,85.0,event
10:31:57.447,1.3450904,0.0,1.1969795,1.2810538,1.1978596,0.0,0.36165506,1.6646616,1.1835978,0.0,0.03874003,1.295106,1.1697083,0.0,0.14602406,1.1252238,0.96912897,0.0,-0.106642246,0.8519563,815.9341,589.0842,817.1429,840.5128,891.28204,-0.17254638671875,0.12860107421875,0.96514892578125,2.43743896484375,-3.12530517578125,0.6280517578125,1.0,2.0,4.0,1.0,2.0,85.0,event
10:31:57.448,1.3450904,0.0,1.1969795,1.2810538,1.1978596,0.0,0.36165506,1.6646616,1.1835978,0.0,0.03874003,1.295106,1.1697083,0.0,0.14602406,1.1252238,0.96912897,0.0,-0.106642246,0.8519563,808.2784,813.5165,834.87177,815.12823,819.5604,-0.17254638671875,0.12860107421875,0.96514892578125,2.43743896484375,-3.12530517578125,0.6280517578125,1.0,2.0,4.0,1.0,2.0,85.0,event
10:31:57.449,1.3450904,0.0,1.1969795,1.2810538,1.1978596,0.0,0.36165506,1.6646616,1.1835978,0.0,0.03874003,1.295106,1.1697083,0.0,0.14602406,1.1252238,0.96912897,0.0,-0.106642246,0.8519563,812.3077,1098.3883,826.0073,782.0879,697.47253,-0.17254638671875,0.12860107421875,0.96514892578125,2.43743896484375,-3.12530517578125,0.6280517578125,1.0,2.0,4.0,1.0,2.0,85.0,event
10:31:57.450,1.3450904,0.0,1.1969795,1.2810538,1.1978596,0.0,0.36165506,1.6646616,1.1835978,0.0,0.03874003,1.295106,1.1697083,0.0,0.14602406,1.1252238,0.96912897,0.0,-0.106642246,0.8519563,794.57874,761.9414,799.81683,763.5531,798.60803,-0.17254638671875,0.12860107421875,0.96514892578125,2.43743896484375,-3.12530517578125,0.6280517578125,1.0,2.0,4.0,1.0,2.0,85.0,event
10:31:57.451,1.3450904,0.0,1.1969795,1.2810538,1.1978596,0.0,0.36165506,1.6646616,1.1835978,0.0,0.03874003,1.295106,1.1697083,0.0,0.14602406,1.1252238,0.96912897,0.0,-0.106642246,0.8519563,833.663,796.5934,817.1429,857.03296,857.03296,-0.17254638671875,0.12860107421875,0.96514892578125,2.43743896484375,-3.12530517578125,0.6280517578125,1.0,2.0,4.0,1.0,2.0,85.0,event
10:31:57.451,1.3450904,0.0,1.1969795,1.2810538,1.1978596,0.0,0.36165506,1.6646616,1.1835978,0.0,0.03874003,1.295106,1.1697083,0.0,0.14602406,1.1252238,0.96912897,0.0,-0.106642246,0.8519563,797.3993,547.5824,805.8608,801.02563,888.86444,-0.17254638671875,0.12860107421875,0.96514892578125,2.43743896484375,-3.12530517578125,0.6280517578125,1.0,2.0,4.0,1.0,2.0,85.0,event
10:31:57.452,1.3450904,0.0,1.1969795,1.2810538,1.1978596,0.0,0.36165506,1.6646616,1.1835978,0.0,0.03874003,1.295106,1.1697083,0.0,0.14602406,1.1252238,0.96912897,0.0,-0.106642246,0.8519563,838.9011,827.619,818.3516,841.31866,899.7436,-0.17254638671875,0.12860107421875,0.96514892578125,2.43743896484375,-3.12530517578125,0.6280517578125,1.0,2.0,4.0,1.0,2.0,85.0,event
10:31:57.452,1.3450904,0.0,1.1969795,1.2810538,1.1978596,0.0,0.36165506,1.6646616,1.1835978,0.0,0.03874003,1.295106,1.1697083,0.0,0.14602406,1.1252238,0.96912897,0.0,-0.106642246,0.8519563,808.68134,436.77655,802.23444,809.4872,957.3626,-0.17254638671875,0.12860107421875,0.96514892578125,2.43743896484375,-3.12530517578125,0.6280517578125,1.0,2.0,4.0,1.0,2.0,85.0,event
10:31:57.453,1.3450904,0.0,1.1969795,1.2810538,1.1978596,0.0,0.36165506,1.6646616,1.1835978,0.0,0.03874003,1.295106,1.1697083,0.0,0.14602406,1.1252238,0.96912897,0.0,-0.106642246,0.8519563,794.57874,213.15018,809.4872,793.36993,947.6923,-0.17254638671875,0.12860107421875,0.96514892578125,2.43743896484375,-3.12530517578125,0.6280517578125,1.0,2.0,4.0,1.0,2.0,85.0,event
10:31:57.453,1.3450904,0.0,1.1969795,1.2810538,1.1978596,0.0,0.36165506,1.6646616,1.1835978,0.0,0.03874003,1.295106,1.1697083,0.0,0.14602406,1.1252238,0.96912897,0.0,-0.106642246,0.8519563,805.4579,838.49817,825.6044,794.57874,758.315,-0.17254638671875,0.12860107421875,0.96514892578125,2.43743896484375,-3.12530517578125,0.6280517578125,1.0,2.0,4.0,1.0,2.0,85.0,event
10:31:57.454,1.3450904,0.0,1.1969795,1.2810538,1.1978596,0.0,0.36165506,1.6646616,1.1835978,0.0,0.03874003,1.295106,1.1697083,0.0,0.14602406,1.1252238,0.96912897,0.0,-0.106642246,0.8519563,821.978,1056.4835,811.0989,834.4689,678.93774,-0.17254638671875,0.12860107421875,0.96514892578125,2.43743896484375,-3.12530517578125,0.6280517578125,1.0,2.0,4.0,1.0,2.0,85.0,event
10:31:57.455,1.3450904,0.0,1.1969795,1.2810538,1.1978596,0.0,0.36165506,1.6646616,1.1835978,0.0,0.03874003,1.295106,1.1697083,0.0,0.14602406,1.1252238,0.96912897,0.0,-0.106642246,0.8519563,805.8608,861.8681,810.293,820.7692,706.337,-0.17254638671875,0.12860107421875,0.96514892578125,2.43743896484375,-3.12530517578125,0.6280517578125,1.0,2.0,4.0,1.0,2.0,85.0,event
10:31:57.481,1.3450904,0.0,1.1969795,1.2810538,1.1978596,0.0,0.36165506,1.6646616,1.1835978,0.0,0.03874003,1.295106,1.1697083,0.0,0.14602406,1.1252238,0.96912897,0.0,-0.106642246,0.8519563,776.04395,877.5824,815.9341,774.43225,699.4872,-0.17254638671875,0.12860107421875,0.96514892578125,2.43743896484375,-3.12530517578125,0.6280517578125,1.0,2.0,4.0,1.0,2.0,85.0,event
10:31:57.482,1.3450904,0.0,1.1969795,1.2810538,1.1978596,0.0,0.36165506,1.6646616,1.1835978,0.0,0.03874003,1.295106,1.1697083,0.0,0.14602406,1.1252238,0.96912897,0.0,-0.106642246,0.8519563,816.7399,981.13556,813.1135,804.2491,678.5348,-0.17254638671875,0.12860107421875,0.96514892578125,2.43743896484375,-3.12530517578125,0.6280517578125,1.0,2.0,4.0,1.0,2.0,85.0,event
10:31:57.482,1.3450904,0.0,1.1969795,1.2810538,1.1978596,0.0,0.36165506,1.6646616,1.1835978,0.0,0.03874003,1.295106,1.1697083,0.0,0.14602406,1.1252238,0.96912897,0.0,-0.106642246,0.8519563,788.93774,1041.5751,818.3516,775.64105,672.0879,-0.17254638671875,0.12860107421875,0.96514892578125,2.43743896484375,-3.12530517578125,0.6280517578125,1.0,2.0,4.0,1.0,2.0,85.0,event
10:31:57.483,1.3450904,0.0,1.1969795,1.2810538,1.1978596,0.0,0.36165506,1.6646616,1.1835978,0.0,0.03874003,1.295106,1.1697083,0.0,0.14602406,1.1252238,0.96912897,0.0,-0.106642246,0.8519563,821.1722,726.08057,811.50183,828.4249,812.3077,-0.17254638671875,0.12860107421875,0.96514892578125,2.43743896484375,-3.12530517578125,0.6280517578125,1.0,2.0,4.0,1.0,2.0,85.0,event
10:31:57.483,1.3450904,0.0,1.1969795,1.2810538,1.1978596,0.0,0.36165506,1.6646616,1.1835978,0.0,0.03874003,1.295106,1.1697083,0.0,0.14602406,1.1252238,0.96912897,0.0,-0.106642246,0.8519563,814.7253,814.7253,815.5311,831.6484,855.82416,-0.17254638671875,0.12860107421875,0.96514892578125,2.43743896484375,-3.12530517578125,0.6280517578125,1.0,2.0,4.0,1.0,2.0,85.0,event
10:31:57.484,1.3450904,0.0,1.1969795,1.2810538,1.1978596,0.0,0.36165506,1.6646616,1.1835978,0.0,0.03874003,1.295106,1.1697083,0.0,0.14602406,1.1252238,0.96912897,0.0,-0.106642246,0.8519563,811.0989,833.663,811.9048,815.12823,846.9597,-0.17254638671875,0.12860107421875,0.96514892578125,2.43743896484375,-3.12530517578125,0.6280517578125,1.0,2.0,4.0,1.0,2.0,85.0,event
10:31:57.484,1.3450904,0.0,1.1969795,1.2810538,1.1978596,0.0,0.36165506,1.6646616,1.1835978,0.0,0.03874003,1.295106,1.1697083,0.0,0.14602406,1.1252238,0.96912897,0.0,-0.106642246,0.8519563,805.05493,699.89014,804.65204,805.4579,835.2747,-0.17254638671875,0.12860107421875,0.96514892578125,2.43743896484375,-3.12530517578125,0.6280517578125,1.0,2.0,4.0,1.0,2.0,85.0,event
10:31:57.485,1.3450904,0.0,1.1969795,1.2810538,1.1978596,0.0,0.36165506,1.6646616,1.1835978,0.0,0.03874003,1.295106,1.1697083,0.0,0.14602406,1.1252238,0.96912897,0.0,-0.106642246,0.8519563,815.12823,250.21979,779.67035,796.5934,1007.326,-0.17254638671875,0.12860107421875,0.96514892578125,2.43743896484375,-3.12530517578125,0.6280517578125,1.0,2.0,4.0,1.0,2.0,85.0,event
10:31:57.485,1.3450904,0.0,1.1969795,1.2810538,1.1978596,0.0,0.36165506,1.6646616,1.1835978,0.0,0.03874003,1.295106,1.1697083,0.0,0.14602406,1.1252238,0.96912897,0.0,-0.106642246,0.8519563,843.73627,233.2967,812.71063,814.7253,1066.1538,-0.17254638671875,0.12860107421875,0.96514892578125,2.43743896484375,-3.12530517578125,0.6280517578125,1.0,2.0,4.0,1.0,2.0,85.0,event
10:31:57.486,1.3450904,0.0,1.1969795,1.2810538,1.1978596,0.0,0.36165506,1.6646616,1.1835978,0.0,0.03874003,1.295106,1.1697083,0.0,0.14602406,1.1252238,0.96912897,0.0,-0.106642246,0.8519563,831.6484,1022.6374,826.4103,837.28937,796.5934,-0.17254638671875,0.12860107421875,0.96514892578125,2.43743896484375,-3.12530517578125,0.6280517578125,1.0,2.0,4.0,1.0,2.0,85.0,event
10:31:57.486,1.3450904,0.0,1.1969795,1.2810538,1.1978596,0.0,0.36165506,1.6646616,1.1835978,0.0,0.03874003,1.295106,1.1697083,0.0,0.14602406,1.1252238,0.96912897,0.0,-0.106642246,0.8519563,786.9231,975.09155,799.011,805.05493,778.86444,-0.17254638671875,0.12860107421875,0.96514892578125,2.43743896484375,-3.12530517578125,0.6280517578125,1.0,2.0,4.0,1.0,2.0,85.0,event
10:31:57.487,1.3450904,0.0,1.1969795,1.2810538,1.1978596,0.0,0.36165506,1.6646616,1.1835978,0.0,0.03874003,1.295106,1.1697083,0.0,0.14602406,1.1252238,0.96912897,0.0,-0.106642246,0.8519563,778.46155,820.3663,814.7253,775.64105,809.4872,-0.17254638671875,0.12860107421875,0.96514892578125,2.43743896484375,-3.12530517578125,0.6280517578125,1.0,2.0,4.0,1.0,2.0,85.0,event
10:31:57.511,1.3450904,0.0,1.1969795,1.2810538,1.1978596,0.0,0.36165506,1.6646616,1.1835978,0.0,0.03874003,1.295106,1.1697083,0.0,0.14602406,1.1252238,0.96912897,0.0,-0.106642246,0.8519563,788.1319,1051.6483,825.2015,787.72894,772.01465,-0.1749267578125,0.1260986328125,0.96417236328125,1.9439697265625,-1.891632080078125,-0.25421142578125,1.0,2.0,4.0,1.0,2.0,85.0,event
10:31:57.512,1.3450904,0.0,1.1969795,1.2810538,1.1978596,0.0,0.36165506,1.6646616,1.1835978,0.0,0.03874003,1.295106,1.1697083,0.0,0.14602406,1.1252238,0.96912897,0.0,-0.106642246,0.8519563,805.05493,1155.6044,826.4103,830.4396,781.685,-0.1749267578125,0.1260986328125,0.96417236328125,1.9439697265625,-1.891632080078125,-0.25421142578125,1.0,2.0,4.0,1.0,2.0,85.0,event
10:31:57.513,1.3450904,0.0,1.1969795,1.2810538,1.1978596,0.0,0.36165506,1.6646616,1.1835978,0.0,0.03874003,1.295106,1.1697083,0.0,0.14602406,1.1252238,0.96912897,0.0,-0.106642246,0.8519563,816.7399,951.7216,830.0366,846.55676,821.5751,-0.1749267578125,0.1260986328125,0.96417236328125,1.9439697265625,-1.891632080078125,-0.25421142578125,1.0,2.0,4.0,1.0,2.0,85.0,event
10:31:57.513,1.3450904,0.0,1.1969795,1.2810538,1.1978596,0.0,0.36165506,1.6646616,1.1835978,0.0,0.03874003,1.295106,1.1697083,0.0,0.14602406,1.1252238,0.96912897,0.0,-0.106642246,0.8519563,787.326,850.58606,823.5897,783.69965,829.2308,-0.1749267578125,0.1260986328125,0.96417236328125,1.9439697265625,-1.891632080078125,-0.25421142578125,1.0,2.0,4.0,1.0,2.0,85.0,event
10:31:57.514,1.3450904,0.0,1.1969795,1.2810538,1.1978596,0.0,0.36165506,1.6646616,1.1835978,0.0,0.03874003,1.295106,1.1697083,0.0,0.14602406,1.1252238,0.96912897,0.0,-0.106642246,0.8519563,778.86444,1000.4762,805.05493,763.95605,781.685,-0.1749267578125,0.1260986328125,0.96417236328125,1.9439697265625,-1.891632080078125,-0.25421142578125,1.0,2.0,4.0,1.0,2.0,85.0,event
10:31:57.514,1.3450904,0.0,1.1969795,1.2810538,1.1978596,0.0,0.36165506,1.6646616,1.1835978,0.0,0.03874003,1.295106,1.1697083,0.0,0.14602406,1.1252238,0.96912897,0.0,-0.106642246,0.8519563,791.75824,850.58606,805.8608,781.685,778.86444,-0.1749267578125,0.1260986328125,0.96417236328125,1.9439697265625,-1.891632080078125,-0.25421142578125,1.0,2.0,4.0,1.0,2.0,85.0,event
10:31:57.515,1.3450904,0.0,1.1969795,1.2810538,1.1978596,0.0,0.36165506,1.6646616,1.1835978,0.0,0.03874003,1.295106,1.1697083,0.0,0.14602406,1.1252238,0.96912897,0.0,-0.106642246,0.8519563,810.696,444.43222,802.23444,828.022,944.87177,-0.1749267578125,0.1260986328125,0.96417236328125,1.9439697265625,-1.891632080078125,-0.25421142578125,1.0,2.0,4.0,1.0,2.0,85.0,event
10:31:57.515,1.3450904,0.0,1.1969795,1.2810538,1.1978596,0.0,0.36165506,1.6646616,1.1835978,0.0,0.03874003,1.295106,1.1697083,0.0,0.14602406,1.1252238,0.96912897,0.0,-0.106642246,0.8519563,826.4103,68.09524,820.7692,864.2857,1120.9524,-0.1749267578125,0.1260986328125,0.96417236328125,1.9439697265625,-1.891632080078125,-0.25421142578125,1.0,2.0,4.0,1.0,2.0,85.0,event
10:31:57.516,1.3450904,0.0,1.1969795,1.2810538,1.1978596,0.0,0.36165506,1.6646616,1.1835978,0.0,0.03874003,1.295106,1.1697083,0.0,0.14602406,1.1252238,0.96912897,0.0,-0.106642246,0.8519563,815.12823,527.8388,843.73627,818.3516,867.9121,-0.1749267578125,0.1260986328125,0.96417236328125,1.9439697265625,-1.891632080078125,-0.25421142578125,1.0,2.0,4.0,1.0,2.0,85.0,event
10:31:57.517,1.3450904,0.0,1.1969795,1.2810538,1.1978596,0.0,0.36165506,1.6646616,1.1835978,0.0,0.03874003,1.295106,1.1697083,0.0,0.14602406,1.1252238,0.96912897,0.0,-0.106642246,0.8519563,782.49084,701.0989,832.0513,783.69965,801.4286,-0.1749267578125,0.1260986328125,0.96417236328125,1.9439697265625,-1.891632080078125,-0.25421142578125,1.0,2.0,4.0,1.0,2.0,85.0,event
10:31:57.517,1.3450904,0.0,1.1969795,1.2810538,1.1978596,0.0,0.36165506,1.6646616,1.1835978,0.0,0.03874003,1.295106,1.1697083,0.0,0.14602406,1.1252238,0.96912897,0.0,-0.106642246,0.8519563,800.6227,1038.3517,823.1868,783.69965,660.40295,-0.1749267578125,0.1260986328125,0.96417236328125,1.9439697265625,-1.891632080078125,-0.25421142578125,1.0,2.0,4.0,1.0,2.0,85.0,event
10:31:57.518,1.3450904,0.0,1.1969795,1.2810538,1.1978596,0.0,0.36165506,1.6646616,1.1835978,0.0,0.03874003,1.295106,1.1697083,0.0,0.14602406,1.1252238,0.96912897,0.0,-0.106642246,0.8519563,801.02563,668.46155,849.3773,809.4872,809.89014,-0.1749267578125,0.1260986328125,0.96417236328125,1.9439697265625,-1.891632080078125,-0.25421142578125,1.0,2.0,4.0,1.0,2.0,85.0,event
10:31:57.607,1.3450904,0.0,1.1969795,1.2810538,1.1978596,0.0,0.36165506,1.6646616,1.1835978,0.0,0.03874003,1.295106,1.1697083,0.0,0.14602406,1.1252238,0.96912897,0.0,-0.106642246,0.8519563,826.0073,1095.5677,836.08057,830.0366,688.60803,-0.17620849609375,0.1243896484375,0.96490478515625,2.1234130859375,-2.4224853515625,-0.0,1.0,2.0,4.0,1.0,2.0,85.0,event
10:31:57.608,1.3450904,0.0,1.1969795,1.2810538,1.1978596,0.0,0.36165506,1.6646616,1.1835978,0.0,0.03874003,1.295106,1.1697083,0.0,0.14602406,1.1252238,0.96912897,0.0,-0.106642246,0.8519563,802.6374,1027.0696,819.5604,791.75824,705.5311,-0.17620849609375,0.1243896484375,0.96490478515625,2.1234130859375,-2.4224853515625,-0.0,1.0,2.0,4.0,1.0,2.0,85.0,event
10:31:57.611,1.3450904,0.0,1.1969795,1.2810538,1.1978596,0.0,0.36165506,1.6646616,1.1835978,0.0,0.03874003,1.295106,1.1697083,0.0,0.14602406,1.1252238,0.96912897,0.0,-0.106642246,0.8519563,780.07324,824.3956,815.12823,748.24176,729.707,-0.17620849609375,0.1243896484375,0.96490478515625,2.1234130859375,-2.4224853515625,-0.0,1.0,2.0,4.0,1.0,2.0,85.0,event
10:31:57.612,1.3450904,0.0,1.1969795,1.2810538,1.1978596,0.0,0.36165506,1.6646616,1.1835978,0.0,0.03874003,1.295106,1.1697083,0.0,0.14602406,1.1252238,0.96912897,0.0,-0.106642246,0.8519563,788.5348,868.315,828.8278,757.50916,662.8205,-0.17620849609375,0.1243896484375,0.96490478515625,2.1234130859375,-2.4224853515625,-0.0,1.0,2.0,4.0,1.0,2.0,85.0,event
10:31:57.613,1.3450904,0.0,1.1969795,1.2810538,1.1978596,0.0,0.36165506,1.6646616,1.1835978,0.0,0.03874003,1.295106,1.1697083,0.0,0.14602406,1.1252238,0.96912897,0.0,-0.106642246,0.8519563,832.0513,901.75824,819.9634,839.707,838.9011,-0.17620849609375,0.1243896484375,0.96490478515625,2.1234130859375,-2.4224853515625,-0.0,1.0,2.0,4.0,1.0,2.0,85.0,event
10:31:57.613,1.3450904,0.0,1.1969795,1.2810538,1.1978596,0.0,0.36165506,1.6646616,1.1835978,0.0,0.03874003,1.295106,1.1697083,0.0,0.14602406,1.1252238,0.96912897,0.0,-0.106642246,0.8519563,819.5604,996.4469,830.84247,808.2784,716.8132,-0.17620849609375,0.1243896484375,0.96490478515625,2.1234130859375,-2.4224853515625,-0.0,1.0,2.0,4.0,1.0,2.0,85.0,event
10:31:57.614,1.3450904,0.0,1.1969795,1.2810538,1.1978596,0.0,0.36165506,1.6646616,1.1835978,0.0,0.03874003,1.295106,1.1697083,0.0,0.14602406,1.1252238,0.96912897,0.0,-0.106642246,0.8519563,811.0989,300.5861,825.6044,826.4103,1031.0989,-0.17620849609375,0.1243896484375,0.96490478515625,2.1234130859375,-2.4224853515625,-0.0,1.0,2.0,4.0,1.0,2.0,85.0,event
10:31:57.615,1.3450904,0.0,1.1969795,1.2810538,1.1978596,0.0,0.36165506,1.6646616,1.1835978,0.0,0.03874003,1.295106,1.1697083,0.0,0.14602406,1.1252238,0.96912897,0.0,-0.106642246,0.8519563,789.7436,1012.5641,827.2161,785.31134,647.9121,-0.17620849609375,0.1243896484375,0.96490478515625,2.1234130859375,-2.4224853515625,-0.0,1.0,2.0,4.0,1.0,2.0,85.0,event
10:31:57.615,1.3450904,0.0,1.1969795,1.2810538,1.1978596,0.0,0.36165506,1.6646616,1.1835978,0.0,0.03874003,1.295106,1.1697083,0.0,0.14602406,1.1252238,0.96912897,0.0,-0.106642246,0.8519563,795.38464,343.2967,842.9304,801.4286,951.7216,-0.17620849609375,0.1243896484375,0.96490478515625,2.1234130859375,-2.4224853515625,-0.0,1.0,2.0,4.0,1.0,2.0,85.0,event
10:31:57.616,1.3450904,0.0,1.1969795,1.2810538,1.1978596,0.0,0.36165506,1.6646616,1.1835978,0.0,0.03874003,1.295106,1.1697083,0.0,0.14602406,1.1252238,0.96912897,0.0,-0.106642246,0.8519563,788.1319,905.78754,804.65204,789.7436,774.83514,-0.17620849609375,0.1243896484375,0.96490478515625,2.1234130859375,-2.4224853515625,-0.0,1.0,2.0,4.0,1.0,2.0,85.0,event
10:31:57.617,1.3450904,0.0,1.1969795,1.2810538,1.1978596,0.0,0.36165506,1.6646616,1.1835978,0.0,0.03874003,1.295106,1.1697083,0.0,0.14602406,1.1252238,0.96912897,0.0,-0.106642246,0.8519563,792.1612,723.663,815.5311,811.0989,893.69965,-0.17620849609375,0.1243896484375,0.96490478515625,2.1234130859375,-2.4224853515625,-0.0,1.0,2.0,4.0,1.0,2.0,85.0,event
10:31:57.617,1.3450904,0.0,1.1969795,1.2810538,1.1978596,0.0,0.36165506,1.6646616,1.1835978,0.0,0.03874003,1.295106,1.1697083,0.0,0.14602406,1.1252238,0.96912897,0.0,-0.106642246,0.8519563,786.1172,940.0366,827.619,789.34064,750.65936,-0.17620849609375,0.1243896484375,0.96490478515625,2.1234130859375,-2.4224853515625,-0.0,1.0,2.0,4.0,1.0,2.0,85.0,event
10:31:57.646,1.3450904,0.0,1.1969795,1.2810538,1.1978596,0.0,0.36165506,1.6646616,1.1835978,0.0,0.03874003,1.295106,1.1697083,0.0,0.14602406,1.1252238,0.96912897,0.0,-0.106642246,0.8519563,774.0293,1067.3627,810.293,751.4652,660.80585,-0.17059326171875,0.12890625,0.968017578125,3.043060302734375,-3.24493408203125,0.351409912109375,1.0,2.0,4.0,1.0,2.0,85.0,event
10:31:57.647,1.3450904,0.0,1.1969795,1.2810538,1.1978596,0.0,0.36165506,1.6646616,1.1835978,0.0,0.03874003,1.295106,1.1697083,0.0,0.14602406,1.1252238,0.96912897,0.0,-0.106642246,0.8519563,795.38464,800.2198,809.0842,767.1795,737.3626,-0.17059326171875,0.12890625,0.968017578125,3.043060302734375,-3.24493408203125,0.351409912109375,1.0,2.0,4.0,1.0,2.0,85.0,event
10:31:57.649,1.3450904,0.0,1.1969795,1.2810538,1.1978596,0.0,0.36165506,1.6646616,1.1835978,0.0,0.03874003,1.295106,1.1697083,0.0,0.14602406,1.1252238,0.96912897,0.0,-0.106642246,0.8519563,815.12823,664.0293,823.5897,807.8755,795.78754,-0.17059326171875,0.12890625,0.968017578125,3.043060302734375,-3.24493408203125,0.351409912109375,1.0,2.0,4.0,1.0,2.0,85.0,event
10:31:57.650,1.3450904,0.0,1.1969795,1.2810538,1.1978596,0.0,0.36165506,1.6646616,1.1835978,0.0,0.03874003,1.295106,1.1697083,0.0,0.14602406,1.1252238,0.96912897,0.0,-0.106642246,0.8519563,820.7692,975.89746,822.381,844.5421,722.8571,-0.17059326171875,0.12890625,0.968017578125,3.043060302734375,-3.24493408203125,0.351409912109375,1.0,2.0,4.0,1.0,2.0,85.0,event
10:31:57.651,1.3450904,0.0,1.1969795,1.2810538,1.1978596,0.0,0.36165506,1.6646616,1.1835978,0.0,0.03874003,1.295106,1.1697083,0.0,0.14602406,1.1252238,0.96912897,0.0,-0.106642246,0.8519563,799.011,537.1062,781.28204,775.64105,909.41394,-0.17059326171875,0.12890625,0.968017578125,3.043060302734375,-3.24493408203125,0.351409912109375,1.0,2.0,4.0,1.0,2.0,85.0,event
10:31:57.651,1.3450904,0.0,1.1969795,1.2810538,1.1978596,0.0,0.36165506,1.6646616,1.1835978,0.0,0.03874003,1.295106,1.1697083,0.0,0.14602406,1.1252238,0.96912897,0.0,-0.106642246,0.8519563,820.7692,1054.8718,806.6667,828.4249,687.3993,-0.17059326171875,0.12890625,0.968017578125,3.043060302734375,-3.24493408203125,0.351409912109375,1.0,2.0,4.0,1.0,2.0,85.0,event
10:31:57.653,1.3450904,0.0,1.1969795,1.2810538,1.1978596,0.0,0.36165506,1.6646616,1.1835978,0.0,0.03874003,1.295106,1.1697083,0.0,0.14602406,1.1252238,0.96912897,0.0,-0.106642246,0.8519563,781.685,168.02197,791.75824,755.89746,1028.2784,-0.17059326171875,0.12890625,0.968017578125,3.043060302734375,-3.24493408203125,0.351409912109375,1.0,2.0,4.0,1.0,2.0,85.0,event
10:31:57.654,1.3450904,0.0,1.1969795,1.2810538,1.1978596,0.0,0.36165506,1.6646616,1.1835978,0.0,0.03874003,1.295106,1.1697083,0.0,0.14602406,1.1252238,0.96912897,0.0,-0.106642246,0.8519563,792.5641,747.03296,819.5604,787.326,805.05493,-0.17059326171875,0.12890625,0.968017578125,3.043060302734375,-3.24493408203125,0.351409912109375,1.0,2.0,4.0,1.0,2.0,85.0,event
10:31:57.655,1.3450904,0.0,1.1969795,1.2810538,1.1978596,0.0,0.36165506,1.6646616,1.1835978,0.0,0.03874003,1.295106,1.1697083,0.0,0.14602406,1.1252238,0.96912897,0.0,-0.106642246,0.8519563,807.47253,1124.1758,805.05493,845.7509,747.8388,-0.17059326171875,0.12890625,0.968017578125,3.043060302734375,-3.24493408203125,0.351409912109375,1.0,2.0,4.0,1.0,2.0,85.0,event
10:31:57.656,1.3450904,0.0,1.1969795,1.2810538,1.1978596,0.0,0.36165506,1.6646616,1.1835978,0.0,0.03874003,1.295106,1.1697083,0.0,0.14602406,1.1252238,0.96912897,0.0,-0.106642246,0.8519563,802.23444,701.50183,797.8022,829.2308,876.3736,-0.17059326171875,0.12890625,0.968017578125,3.043060302734375,-3.24493408203125,0.351409912109375,1.0,2.0,4.0,1.0,2.0,85.0,event
10:31:57.656,1.3450904,0.0,1.1969795,1.2810538,1.1978596,0.0,0.36165506,1.6646616,1.1835978,0.0,0.03874003,1.295106,1.1697083,0.0,0.14602406,1.1252238,0.96912897,0.0,-0.106642246,0.8519563,795.38464,628.97437,813.5165,771.2088,894.10254,-0.17059326171875,0.12890625,0.968017578125,3.043060302734375,-3.24493408203125,0.351409912109375,1.0,2.0,4.0,1.0,2.0,85.0,event
10:31:57.657,1.3450904,0.0,1.1969795,1.2810538,1.1978596,0.0,0.36165506,1.6646616,1.1835978,0.0,0.03874003,1.295106,1.1697083,0.0,0.14602406,1.1252238,0.96912897,0.0,-0.106642246,0.8519563,800.6227,1033.9194,800.6227,765.16486,746.2271,-0.17059326171875,0.12890625,0.968017578125,3.043060302734375,-3.24493408203125,0.351409912109375,1.0,2.0,4.0,1.0,2.0,85.0,event
10:31:57.691,1.3450904,0.0,1.1969795,1.2810538,1.1978596,0.0,0.36165506,1.6646616,1.1835978,0.0,0.03874003,1.295106,1.1697083,0.0,0.14602406,1.1252238,0.96912897,0.0,-0.106642246,0.8519563,799.41394,956.9597,781.28204,785.31134,711.978,-0.16949462890625,0.13299560546875,0.9637451171875,2.639312744140625,-2.691650390625,0.418701171875,1.0,2.0,4.0,1.0,2.0,85.0,event
10:31:57.692,1.3450904,0.0,1.1969795,1.2810538,1.1978596,0.0,0.36165506,1.6646616,1.1835978,0.0,0.03874003,1.295106,1.1697083,0.0,0.14602406,1.1252238,0.96912897,0.0,-0.106642246,0.8519563,807.47253,743.4066,798.60803,824.3956,821.5751,-0.16949462890625,0.13299560546875,0.9637451171875,2.639312744140625,-2.691650390625,0.418701171875,1.0,2.0,4.0,1.0,2.0,85.0,event
10:31:57.693,1.3450904,0.0,1.1969795,1.2810538,1.1978596,0.0,0.36165506,1.6646616,1.1835978,0.0,0.03874003,1.295106,1.1697083,0.0,0.14602406,1.1252238,0.96912897,0.0,-0.106642246,0.8519563,806.6667,815.9341,802.23444,822.7839,809.0842,-0.16949462890625,0.13299560546875,0.9637451171875,2.639312744140625,-2.691650390625,0.418701171875,1.0,2.0,4.0,1.0,2.0,85.0,event
10:31:57.694,1.3450904,0.0,1.1969795,1.2810538,1.1978596,0.0,0.36165506,1.6646616,1.1835978,0.0,0.03874003,1.295106,1.1697083,0.0,0.14602406,1.1252238,0.96912897,0.0,-0.106642246,0.8519563,785.7143,1025.4579,784.5055,776.8498,720.0366,-0.16949462890625,0.13299560546875,0.9637451171875,2.639312744140625,-2.691650390625,0.418701171875,1.0,2.0,4.0,1.0,2.0,85.0,event
10:31:57.697,1.3450904,0.0,1.1969795,1.2810538,1.1978596,0.0,0.36165506,1.6646616,1.1835978,0.0,0.03874003,1.295106,1.1697083,0.0,0.14602406,1.1252238,0.96912897,0.0,-0.106642246,0.8519563,792.1612,933.5897,784.5055,791.75824,790.54944,-0.16949462890625,0.13299560546875,0.9637451171875,2.639312744140625,-2.691650390625,0.418701171875,1.0,2.0,4.0,1.0,2.0,85.0,event
10:31:57.698,1.3450904,0.0,1.1969795,1.2810538,1.1978596,0.0,0.36165506,1.6646616,1.1835978,0.0,0.03874003,1.295106,1.1697083,0.0,0.14602406,1.1252238,0.96912897,0.0,-0.106642246,0.8519563,812.71063,539.12085,789.34064,819.5604,983.95605,-0.16949462890625,0.13299560546875,0.9637451171875,2.639312744140625,-2.691650390625,0.418701171875,1.0,2.0,4.0,1.0,2.0,85.0,event
10:31:57.699,1.3450904,0.0,1.1969795,1.2810538,1.1978596,0.0,0.36165506,1.6646616,1.1835978,0.0,0.03874003,1.295106,1.1697083,0.0,0.14602406,1.1252238,0.96912897,0.0,-0.106642246,0.8519563,811.50183,498.4249,786.1172,829.6337,944.0659,-0.16949462890625,0.13299560546875,0.9637451171875,2.639312744140625,-2.691650390625,0.418701171875,1.0,2.0,4.0,1.0,2.0,85.0,event
10:31:57.700,1.3450904,0.0,1.1969795,1.2810538,1.1978596,0.0,0.36165506,1.6646616,1.1835978,0.0,0.03874003,1.295106,1.1697083,0.0,0.14602406,1.1252238,0.96912897,0.0,-0.106642246,0.8519563,802.23444,894.5055,785.31134,826.8132,835.2747,-0.16949462890625,0.13299560546875,0.9637451171875,2.639312744140625,-2.691650390625,0.418701171875,1.0,2.0,4.0,1.0,2.0,85.0,event
10:31:57.700,1.3450904,0.0,1.1969795,1.2810538,1.1978596,0.0,0.36165506,1.6646616,1.1835978,0.0,0.03874003,1.295106,1.1697083,0.0,0.14602406,1.1252238,0.96912897,0.0,-0.106642246,0.8519563,784.90845,984.7619,769.19415,792.5641,842.52747,-0.16949462890625,0.13299560546875,0.9637451171875,2.639312744140625,-2.691650390625,0.418701171875,1.0,2.0,4.0,1.0,2.0,85.0,event
10:31:57.701,1.3450904,0.0,1.1969795,1.2810538,1.1978596,0.0,0.36165506,1.6646616,1.1835978,0.0,0.03874003,1.295106,1.1697083,0.0,0.14602406,1.1252238,0.96912897,0.0,-0.106642246,0.8519563,779.67035,393.26007,768.7912,777.6557,940.4396,-0.16949462890625,0.13299560546875,0.9637451171875,2.639312744140625,-2.691650390625,0.418701171875,1.0,2.0,4.0,1.0,2.0,85.0,event
10:31:57.702,1.3450904,0.0,1.1969795,1.2810538,1.1978596,0.0,0.36165506,1.6646616,1.1835978,0.0,0.03874003,1.295106,1.1697083,0.0,0.14602406,1.1252238,0.96912897,0.0,-0.106642246,0.8519563,791.75824,499.23077,801.02563,788.93774,808.2784,-0.16949462890625,0.13299560546875,0.9637451171875,2.639312744140625,-2.691650390625,0.418701171875,1.0,2.0,4.0,1.0,2.0,85.0,event
10:31:57.702,1.3450904,0.0,1.1969795,1.2810538,1.1978596,0.0,0.36165506,1.6646616,1.1835978,0.0,0.03874003,1.295106,1.1697083,0.0,0.14602406,1.1252238,0.96912897,0.0,-0.106642246,0.8519563,815.9341,1079.0476,785.31134,819.15753,706.7399,-0.16949462890625,0.13299560546875,0.9637451171875,2.639312744140625,-2.691650390625,0.418701171875,1.0,2.0,4.0,1.0,2.0,85.0,event
10:31:57.726,1.3450904,0.0,1.1969795,1.2810538,1.1978596,0.0,0.36165506,1.6646616,1.1835978,0.0,0.03874003,1.295106,1.1697083,0.0,0.14602406,1.1252238,0.96912897,0.0,-0.106642246,0.8519563,832.8571,906.5934,767.98535,834.4689,794.17584,-0.16949462890625,0.13299560546875,0.9637451171875,2.639312744140625,-2.691650390625,0.418701171875,1.0,2.0,4.0,1.0,2.0,85.0,event
10:31:57.727,1.3450904,0.0,1.1969795,1.2810538,1.1978596,0.0,0.36165506,1.6646616,1.1835978,0.0,0.03874003,1.295106,1.1697083,0.0,0.14602406,1.1252238,0.96912897,0.0,-0.106642246,0.8519563,821.1722,726.8865,772.8205,804.2491,754.2857,-0.16949462890625,0.13299560546875,0.9637451171875,2.639312744140625,-2.691650390625,0.418701171875,1.0,2.0,4.0,1.0,2.0,85.0,event
10:31:57.728,1.3450904,0.0,1.1969795,1.2810538,1.1978596,0.0,0.36165506,1.6646616,1.1835978,0.0,0.03874003,1.295106,1.1697083,0.0,0.14602406,1.1252238,0.96912897,0.0,-0.106642246,0.8519563,811.0989,928.3516,780.07324,778.46155,712.381,-0.16949462890625,0.13299560546875,0.9637451171875,2.639312744140625,-2.691650390625,0.418701171875,1.0,2.0,4.0,1.0,2.0,85.0,event
10:31:57.728,1.3450904,0.0,1.1969795,1.2810538,1.1978596,0.0,0.36165506,1.6646616,1.1835978,0.0,0.03874003,1.295106,1.1697083,0.0,0.14602406,1.1252238,0.96912897,0.0,-0.106642246,0.8519563,817.9487,898.5348,772.01465,778.86444,666.8498,-0.16949462890625,0.13299560546875,0.9637451171875,2.639312744140625,-2.691650390625,0.418701171875,1.0,2.0,4.0,1.0,2.0,85.0,event
10:31:57.729,1.3450904,0.0,1.1969795,1.2810538,1.1978596,0.0,0.36165506,1.6646616,1.1835978,0.0,0.03874003,1.295106,1.1697083,0.0,0.14602406,1.1252238,0.96912897,0.0,-0.106642246,0.8519563,826.0073,549.19415,763.1502,809.89014,819.5604,-0.16949462890625,0.13299560546875,0.9637451171875,2.639312744140625,-2.691650390625,0.418701171875,1.0,2.0,4.0,1.0,2.0,85.0,event
10:31:57.730,1.3450904,0.0,1.1969795,1.2810538,1.1978596,0.0,0.36165506,1.6646616,1.1835978,0.0,0.03874003,1.295106,1.1697083,0.0,0.14602406,1.1252238,0.96912897,0.0,-0.106642246,0.8519563,819.5604,371.50183,759.92676,831.2454,1023.0403,-0.16949462890625,0.13299560546875,0.9637451171875,2.639312744140625,-2.691650390625,0.418701171875,1.0,2.0,4.0,1.0,2.0,85.0,event
10:31:57.730,1.3450904,0.0,1.1969795,1.2810538,1.1978596,0.0,0.36165506,1.6646616,1.1835978,0.0,0.03874003,1.295106,1.1697083,0.0,0.14602406,1.1252238,0.96912897,0.0,-0.106642246,0.8519563,799.81683,536.7033,767.1795,787.326,850.18317,-0.16949462890625,0.13299560546875,0.9637451171875,2.639312744140625,-2.691650390625,0.418701171875,1.0,2.0,4.0,1.0,2.0,85.0,event
10:31:57.731,1.3450904,0.0,1.1969795,1.2810538,1.1978596,0.0,0.36165506,1.6646616,1.1835978,0.0,0.03874003,1.295106,1.1697083,0.0,0.14602406,1.1252238,0.96912897,0.0,-0.106642246,0.8519563,781.28204,839.304,777.25275,761.53845,657.1795,-0.16949462890625,0.13299560546875,0.9637451171875,2.639312744140625,-2.691650390625,0.418701171875,1.0,2.0,4.0,1.0,2.0,85.0,event
10:31:57.731,1.3450904,0.0,1.1969795,1.2810538,1.1978596,0.0,0.36165506,1.6646616,1.1835978,0.0,0.03874003,1.295106,1.1697083,0.0,0.14602406,1.1252238,0.96912897,0.0,-0.106642246,0.8519563,786.52014,525.82416,745.42126,782.0879,802.23444,-0.16949462890625,0.13299560546875,0.9637451171875,2.639312744140625,-2.691650390625,0.418701171875,1.0,2.0,4.0,1.0,2.0,85.0,event
10:31:57.732,1.3450904,0.0,1.1969795,1.2810538,1.1978596,0.0,0.36165506,1.6646616,1.1835978,0.0,0.03874003,1.295106,1.1697083,0.0,0.14602406,1.1252238,0.96912897,0.0,-0.106642246,0.8519563,803.8461,207.10623,768.7912,818.3516,925.5311,-0.16949462890625,0.13299560546875,0.9637451171875,2.639312744140625,-2.691650390625,0.418701171875,1.0,2.0,4.0,1.0,2.0,85.0,event
10:31:57.733,1.3450904,0.0,1.1969795,1.2810538,1.1978596,0.0,0.36165506,1.6646616,1.1835978,0.0,0.03874003,1.295106,1.1697083,0.0,0.14602406,1.1252238,0.96912897,0.0,-0.106642246,0.8519563,817.1429,838.49817,788.1319,848.97437,773.6264,-0.16949462890625,0.13299560546875,0.9637451171875,2.639312744140625,-2.691650390625,0.418701171875,1.0,2.0,4.0,1.0,2.0,85.0,event
10:31:57.734,1.3450904,0.0,1.1969795,1.2810538,1.1978596,0.0,0.36165506,1.6646616,1.1835978,0.0,0.03874003,1.295106,1.1697083,0.0,0.14602406,1.1252238,0.96912897,0.0,-0.106642246,0.8519563,817.1429,915.05493,765.16486,829.6337,703.1135,-0.16949462890625,0.13299560546875,0.9637451171875,2.639312744140625,-2.691650390625,0.418701171875,1.0,2.0,4.0,1.0,2.0,85.0,event
10:31:57.758,1.3450904,0.0,1.1969795,1.2810538,1.1978596,0.0,0.36165506,1.6646616,1.1835978,0.0,0.03874003,1.295106,1.1697083,0.0,0.14602406,1.1252238,0.96912897,0.0,-0.106642246,0.8519563,807.8755,727.28937,773.6264,792.1612,730.10986,-0.1719970703125,0.12860107421875,0.96600341796875,2.16827392578125,-2.175750732421875,0.9271240234375,1.0,2.0,4.0,1.0,2.0,85.0,event
10:31:57.759,1.3450904,0.0,1.1969795,1.2810538,1.1978596,0.0,0.36165506,1.6646616,1.1835978,0.0,0.03874003,1.295106,1.1697083,0.0,0.14602406,1.1252238,0.96912897,0.0,-0.106642246,0.8519563,810.696,790.9524,776.04395,778.46155,694.65204,-0.1719970703125,0.12860107421875,0.96600341796875,2.16827392578125,-2.175750732421875,0.9271240234375,1.0,2.0,4.0,1.0,2.0,85.0,event
10:31:57.760,1.3450904,0.0,1.1969795,1.2810538,1.1978596,0.0,0.36165506,1.6646616,1.1835978,0.0,0.03874003,1.295106,1.1697083,0.0,0.14602406,1.1252238,0.96912897,0.0,-0.106642246,0.8519563,814.3223,1010.9524,774.83514,808.68134,662.4176,-0.1719970703125,0.12860107421875,0.96600341796875,2.16827392578125,-2.175750732421875,0.9271240234375,1.0,2.0,4.0,1.0,2.0,85.0,event
10:31:57.761,1.3450904,0.0,1.1969795,1.2810538,1.1978596,0.0,0.36165506,1.6646616,1.1835978,0.0,0.03874003,1.295106,1.1697083,0.0,0.14602406,1.1252238,0.96912897,0.0,-0.106642246,0.8519563,818.7546,1035.9341,755.4945,836.8865,757.1062,-0.1719970703125,0.12860107421875,0.96600341796875,2.16827392578125,-2.175750732421875,0.9271240234375,1.0,2.0,4.0,1.0,2.0,85.0,event
10:31:57.761,1.3450904,0.0,1.1969795,1.2810538,1.1978596,0.0,0.36165506,1.6646616,1.1835978,0.0,0.03874003,1.295106,1.1697083,0.0,0.14602406,1.1252238,0.96912897,0.0,-0.106642246,0.8519563,811.0989,853.8095,739.3773,817.9487,851.39197,-0.1719970703125,0.12860107421875,0.96600341796875,2.16827392578125,-2.175750732421875,0.9271240234375,1.0,2.0,4.0,1.0,2.0,85.0,event
10:31:57.762,1.3450904,0.0,1.1969795,1.2810538,1.1978596,0.0,0.36165506,1.6646616,1.1835978,0.0,0.03874003,1.295106,1.1697083,0.0,0.14602406,1.1252238,0.96912897,0.0,-0.106642246,0.8519563,795.38464,678.93774,755.4945,791.3553,865.89746,-0.1719970703125,0.12860107421875,0.96600341796875,2.16827392578125,-2.175750732421875,0.9271240234375,1.0,2.0,4.0,1.0,2.0,85.0,event
10:31:57.766,1.3450904,0.0,1.1969795,1.2810538,1.1978596,0.0,0.36165506,1.6646616,1.1835978,0.0,0.03874003,1.295106,1.1697083,0.0,0.14602406,1.1252238,0.96912897,0.0,-0.106642246,0.8519563,792.96704,750.65936,764.7619,782.8938,846.55676,-0.1719970703125,0.12860107421875,0.96600341796875,2.16827392578125,-2.175750732421875,0.9271240234375,1.0,2.0,4.0,1.0,2.0,85.0,event
10:31:57.766,1.3450904,0.0,1.1969795,1.2810538,1.1978596,0.0,0.36165506,1.6646616,1.1835978,0.0,0.03874003,1.295106,1.1697083,0.0,0.14602406,1.1252238,0.96912897,0.0,-0.106642246,0.8519563,792.1612,622.1245,772.4176,769.59705,850.989,-0.1719970703125,0.12860107421875,0.96600341796875,2.16827392578125,-2.175750732421875,0.9271240234375,1.0,2.0,4.0,1.0,2.0,85.0,event
10:31:57.767,1.3450904,0.0,1.1969795,1.2810538,1.1978596,0.0,0.36165506,1.6646616,1.1835978,0.0,0.03874003,1.295106,1.1697083,0.0,0.14602406,1.1252238,0.96912897,0.0,-0.106642246,0.8519563,799.41394,296.95972,744.61536,832.4542,1047.2161,-0.1719970703125,0.12860107421875,0.96600341796875,2.16827392578125,-2.175750732421875,0.9271240234375,1.0,2.0,4.0,1.0,2.0,85.0,event
10:31:57.771,1.3450904,0.0,1.1969795,1.2810538,1.1978596,0.0,0.36165506,1.6646616,1.1835978,0.0,0.03874003,1.295106,1.1697083,0.0,0.14602406,1.1252238,0.96912897,0.0,-0.106642246,0.8519563,805.4579,185.34799,768.7912,824.3956,983.95605,-0.1719970703125,0.12860107421875,0.96600341796875,2.16827392578125,-2.175750732421875,0.9271240234375,1.0,2.0,4.0,1.0,2.0,85.0,event
10:31:57.773,1.3450904,0.0,1.1969795,1.2810538,1.1978596,0.0,0.36165506,1.6646616,1.1835978,0.0,0.03874003,1.295106,1.1697083,0.0,0.14602406,1.1252238,0.96912897,0.0,-0.106642246,0.8519563,800.2198,898.93774,774.43225,784.5055,643.8828,-0.1719970703125,0.12860107421875,0.96600341796875,2.16827392578125,-2.175750732421875,0.9271240234375,1.0,2.0,4.0,1.0,2.0,85.0,event
10:31:57.774,1.3450904,0.0,1.1969795,1.2810538,1.1978596,0.0,0.36165506,1.6646616,1.1835978,0.0,0.03874003,1.295106,1.1697083,0.0,0.14602406,1.1252238,0.96912897,0.0,-0.106642246,0.8519563,801.02563,866.30035,754.68866,783.69965,704.3223,-0.1719970703125,0.12860107421875,0.96600341796875,2.16827392578125,-2.175750732421875,0.9271240234375,1.0,2.0,4.0,1.0,2.0,85.0,event
10:31:57.802,1.3450904,0.0,1.1969795,1.2810538,1.1978596,0.0,0.36165506,1.6646616,1.1835978,0.0,0.03874003,1.295106,1.1697083,0.0,0.14602406,1.1252238,0.96912897,0.0,-0.106642246,0.8519563,817.9487,786.52014,763.1502,809.4872,785.7143,-0.1783447265625,0.12469482421875,0.964599609375,1.682281494140625,-2.85614013671875,1.27105712890625,1.0,2.0,4.0,1.0,2.0,85.0,event
10:31:57.803,1.3450904,0.0,1.1969795,1.2810538,1.1978596,0.0,0.36165506,1.6646616,1.1835978,0.0,0.03874003,1.295106,1.1697083,0.0,0.14602406,1.1252238,0.96912897,0.0,-0.106642246,0.8519563,827.2161,1073.0037,762.3443,844.5421,737.76556,-0.1783447265625,0.12469482421875,0.964599609375,1.682281494140625,-2.85614013671875,1.27105712890625,1.0,2.0,4.0,1.0,2.0,85.0,event
10:31:57.804,1.3450904,0.0,1.1969795,1.2810538,1.1978596,0.0,0.36165506,1.6646616,1.1835978,0.0,0.03874003,1.295106,1.1697083,0.0,0.14602406,1.1252238,0.96912897,0.0,-0.106642246,0.8519563,826.4103,1119.3407,746.63007,837.28937,733.73627,-0.1783447265625,0.12469482421875,0.964599609375,1.682281494140625,-2.85614013671875,1.27105712890625,1.0,2.0,4.0,1.0,2.0,85.0,event
10:31:57.805,1.3450904,0.0,1.1969795,1.2810538,1.1978596,0.0,0.36165506,1.6646616,1.1835978,0.0,0.03874003,1.295106,1.1697083,0.0,0.14602406,1.1252238,0.96912897,0.0,-0.106642246,0.8519563,796.1905,891.28204,749.45056,794.17584,796.99634,-0.1783447265625,0.12469482421875,0.964599609375,1.682281494140625,-2.85614013671875,1.27105712890625,1.0,2.0,4.0,1.0,2.0,85.0,event
10:31:57.805,1.3450904,0.0,1.1969795,1.2810538,1.1978596,0.0,0.36165506,1.6646616,1.1835978,0.0,0.03874003,1.295106,1.1697083,0.0,0.14602406,1.1252238,0.96912897,0.0,-0.106642246,0.8519563,787.326,812.3077,760.7326,782.0879,831.6484,-0.1783447265625,0.12469482421875,0.964599609375,1.682281494140625,-2.85614013671875,1.27105712890625,1.0,2.0,4.0,1.0,2.0,85.0,event
10:31:57.806,1.3450904,0.0,1.1969795,1.2810538,1.1978596,0.0,0.36165506,1.6646616,1.1835978,0.0,0.03874003,1.295106,1.1697083,0.0,0.14602406,1.1252238,0.96912897,0.0,-0.106642246,0.8519563,816.337,857.03296,768.7912,844.94507,908.60803,-0.1783447265625,0.12469482421875,0.964599609375,1.682281494140625,-2.85614013671875,1.27105712890625,1.0,2.0,4.0,1.0,2.0,85.0,event
10:31:57.806,1.3450904,0.0,1.1969795,1.2810538,1.1978596,0.0,0.36165506,1.6646616,1.1835978,0.0,0.03874003,1.295106,1.1697083,0.0,0.14602406,1.1252238,0.96912897,0.0,-0.106642246,0.8519563,814.3223,819.15753,761.13556,811.0989,841.31866,-0.1783447265625,0.12469482421875,0.964599609375,1.682281494140625,-2.85614013671875,1.27105712890625,1.0,2.0,4.0,1.0,2.0,85.0,event
10:31:57.807,1.3450904,0.0,1.1969795,1.2810538,1.1978596,0.0,0.36165506,1.6646616,1.1835978,0.0,0.03874003,1.295106,1.1697083,0.0,0.14602406,1.1252238,0.96912897,0.0,-0.106642246,0.8519563,794.17584,531.8681,748.6447,838.9011,984.35895,-0.1783447265625,0.12469482421875,0.964599609375,1.682281494140625,-2.85614013671875,1.27105712890625,1.0,2.0,4.0,1.0,2.0,85.0,event
10:31:57.808,1.3450904,0.0,1.1969795,1.2810538,1.1978596,0.0,0.36165506,1.6646616,1.1835978,0.0,0.03874003,1.295106,1.1697083,0.0,0.14602406,1.1252238,0.96912897,0.0,-0.106642246,0.8519563,780.07324,203.07692,758.71796,803.0403,956.1539,-0.1783447265625,0.12469482421875,0.964599609375,1.682281494140625,-2.85614013671875,1.27105712890625,1.0,2.0,4.0,1.0,2.0,85.0,event
10:31:57.808,1.3450904,0.0,1.1969795,1.2810538,1.1978596,0.0,0.36165506,1.6646616,1.1835978,0.0,0.03874003,1.295106,1.1697083,0.0,0.14602406,1.1252238,0.96912897,0.0,-0.106642246,0.8519563,807.47253,779.67035,778.46155,793.7729,769.19415,-0.1783447265625,0.12469482421875,0.964599609375,1.682281494140625,-2.85614013671875,1.27105712890625,1.0,2.0,4.0,1.0,2.0,85.0,event
10:31:57.809,1.3450904,0.0,1.1969795,1.2810538,1.1978596,0.0,0.36165506,1.6646616,1.1835978,0.0,0.03874003,1.295106,1.1697083,0.0,0.14602406,1.1252238,0.96912897,0.0,-0.106642246,0.8519563,825.6044,893.69965,755.4945,801.4286,766.3736,-0.1783447265625,0.12469482421875,0.964599609375,1.682281494140625,-2.85614013671875,1.27105712890625,1.0,2.0,4.0,1.0,2.0,85.0,event
10:31:57.810,1.3450904,0.0,1.1969795,1.2810538,1.1978596,0.0,0.36165506,1.6646616,1.1835978,0.0,0.03874003,1.295106,1.1697083,0.0,0.14602406,1.1252238,0.96912897,0.0,-0.106642246,0.8519563,825.2015,694.65204,772.8205,829.2308,893.2967,-0.1783447265625,0.12469482421875,0.964599609375,1.682281494140625,-2.85614013671875,1.27105712890625,1.0,2.0,4.0,1.0,2.0,85.0,event
10:31:57.865,1.3450904,0.0,1.1969795,1.2810538,1.1978596,0.0,0.36165506,1.6646616,1.1835978,0.0,0.03874003,1.295106,1.1697083,0.0,0.14602406,1.1252238,0.96912897,0.0,-0.106642246,0.8519563,822.7839,873.5531,770.80585,838.9011,863.8828,-0.17010498046875,0.11932373046875,0.96002197265625,1.128997802734375,-3.46923828125,1.263580322265625,1.0,2.0,4.0,1.0,2.0,85.0,event
10:31:57.866,1.3450904,0.0,1.1969795,1.2810538,1.1978596,0.0,0.36165506,1.6646616,1.1835978,0.0,0.03874003,1.295106,1.1697083,0.0,0.14602406,1.1252238,0.96912897,0.0,-0.106642246,0.8519563,805.05493,1050.0366,752.674,797.3993,694.2491,-0.17010498046875,0.11932373046875,0.96002197265625,1.128997802734375,-3.46923828125,1.263580322265625,1.0,2.0,4.0,1.0,2.0,85.0,event
10:31:57.867,1.3450904,0.0,1.1969795,1.2810538,1.1978596,0.0,0.36165506,1.6646616,1.1835978,0.0,0.03874003,1.295106,1.1697083,0.0,0.14602406,1.1252238,0.96912897,0.0,-0.106642246,0.8519563,786.9231,940.0366,739.7802,777.25275,658.7912,-0.17010498046875,0.11932373046875,0.96002197265625,1.128997802734375,-3.46923828125,1.263580322265625,1.0,2.0,4.0,1.0,2.0,85.0,event
10:31:57.868,1.3450904,0.0,1.1969795,1.2810538,1.1978596,0.0,0.36165506,1.6646616,1.1835978,0.0,0.03874003,1.295106,1.1697083,0.0,0.14602406,1.1252238,0.96912897,0.0,-0.106642246,0.8519563,822.7839,770.40295,769.19415,833.2601,808.2784,-0.17010498046875,0.11932373046875,0.96002197265625,1.128997802734375,-3.46923828125,1.263580322265625,1.0,2.0,4.0,1.0,2.0,85.0,event
10:31:57.868,1.3450904,0.0,1.1969795,1.2810538,1.1978596,0.0,0.36165506,1.6646616,1.1835978,0.0,0.03874003,1.295106,1.1697083,0.0,0.14602406,1.1252238,0.96912897,0.0,-0.106642246,0.8519563,803.0403,626.55676,753.8828,799.41394,728.49817,-0.17010498046875,0.11932373046875,0.96002197265625,1.128997802734375,-3.46923828125,1.263580322265625,1.0,2.0,4.0,1.0,2.0,85.0,event
10:31:57.869,1.3450904,0.0,1.1969795,1.2810538,1.1978596,0.0,0.36165506,1.6646616,1.1835978,0.0,0.03874003,1.295106,1.1697083,0.0,0.14602406,1.1252238,0.96912897,0.0,-0.106642246,0.8519563,816.337,865.09155,747.4359,838.0952,793.36993,-0.17010498046875,0.11932373046875,0.96002197265625,1.128997802734375,-3.46923828125,1.263580322265625,1.0,2.0,4.0,1.0,2.0,85.0,event
10:31:57.869,1.3450904,0.0,1.1969795,1.2810538,1.1978596,0.0,0.36165506,1.6646616,1.1835978,0.0,0.03874003,1.295106,1.1697083,0.0,0.14602406,1.1252238,0.96912897,0.0,-0.106642246,0.8519563,803.8461,655.16486,742.6007,805.4579,740.989,-0.17010498046875,0.11932373046875,0.96002197265625,1.128997802734375,-3.46923828125,1.263580322265625,1.0,2.0,4.0,1.0,2.0,85.0,event
10:31:57.870,0.23564152,0.0,1.1969795,1.2810538,0.09937999,0.0,0.36165506,1.6646616,0.21525785,0.0,0.03874003,1.295106,1.2354122,0.0,0.14602406,1.1252238,1.0702813,0.0,-0.106642246,0.8519563,782.8938,236.52014,756.30035,767.98535,913.44324,-0.17010498046875,0.11932373046875,0.96002197265625,1.128997802734375,-3.46923828125,1.263580322265625,1.0,2.0,4.0,1.0,2.0,85.0,event
10:31:57.874,0.23564152,0.0,1.1969795,1.2810538,0.09937999,0.0,0.36165506,1.6646616,0.21525785,0.0,0.03874003,1.295106,1.2354122,0.0,0.14602406,1.1252238,1.0702813,0.0,-0.106642246,0.8519563,782.8938,390.43958,775.2381,759.92676,896.52014,-0.17010498046875,0.11932373046875,0.96002197265625,1.128997802734375,-3.46923828125,1.263580322265625,1.0,2.0,4.0,1.0,2.0,85.0,event
10:31:57.875,0.23564152,0.0,1.1969795,1.2810538,0.09937999,0.0,0.36165506,1.6646616,0.21525785,0.0,0.03874003,1.295106,1.2354122,0.0,0.14602406,1.1252238,1.0702813,0.0,-0.106642246,0.8519563,801.8315,1058.9011,751.8681,793.36993,662.8205,-0.17010498046875,0.11932373046875,0.96002197265625,1.128997802734375,-3.46923828125,1.263580322265625,1.0,2.0,4.0,1.0,2.0,85.0,event
10:31:57.876,0.23564152,0.0,1.1969795,1.2810538,0.09937999,0.0,0.36165506,1.6646616,0.21525785,0.0,0.03874003,1.295106,1.2354122,0.0,0.14602406,1.1252238,1.0702813,0.0,-0.106642246,0.8519563,805.05493,922.3077,737.76556,825.6044,726.08057,-0.17010498046875,0.11932373046875,0.96002197265625,1.128997802734375,-3.46923828125,1.263580322265625,1.0,2.0,4.0,1.0,2.0,85.0,event
10:31:57.877,0.23564152,0.0,1.1969795,1.2810538,0.09937999,0.0,0.36165506,1.6646616,0.21525785,0.0,0.03874003,1.295106,1.2354122,0.0,0.14602406,1.1252238,1.0702813,0.0,-0.106642246,0.8519563,791.3553,794.17584,743.00366,806.6667,803.8461,-0.17010498046875,0.11932373046875,0.96002197265625,1.128997802734375,-3.46923828125,1.263580322265625,1.0,2.0,4.0,1.0,2.0,85.0,event
10:31:57.900,0.23564152,0.0,1.1969795,1.2810538,0.09937999,0.0,0.36165506,1.6646616,0.21525785,0.0,0.03874003,1.295106,1.2354122,0.0,0.14602406,1.1252238,1.0702813,0.0,-0.106642246,0.8519563,816.337,882.8205,737.3626,772.01465,755.89746,-0.1783447265625,0.12847900390625,0.9588623046875,2.908477783203125,-3.36456298828125,2.04864501953125,1.0,2.0,4.0,1.0,2.0,85.0,event
10:31:57.900,0.23564152,0.0,1.1969795,1.2810538,0.09937999,0.0,0.36165506,1.6646616,0.21525785,0.0,0.03874003,1.295106,1.2354122,0.0,0.14602406,1.1252238,1.0702813,0.0,-0.106642246,0.8519563,787.326,961.79486,743.4066,773.6264,736.9597,-0.1783447265625,0.12847900390625,0.9588623046875,2.908477783203125,-3.36456298828125,2.04864501953125,1.0,2.0,4.0,1.0,2.0,85.0,event
10:31:57.901,0.23564152,0.0,1.1969795,1.2810538,0.09937999,0.0,0.36165506,1.6646616,0.21525785,0.0,0.03874003,1.295106,1.2354122,0.0,0.14602406,1.1252238,1.0702813,0.0,-0.106642246,0.8519563,854.21246,564.5055,734.1392,818.7546,861.8681,-0.1783447265625,0.12847900390625,0.9588623046875,2.908477783203125,-3.36456298828125,2.04864501953125,1.0,2.0,4.0,1.0,2.0,85.0,event
10:31:57.902,0.23564152,0.0,1.1969795,1.2810538,0.09937999,0.0,0.36165506,1.6646616,0.21525785,0.0,0.03874003,1.295106,1.2354122,0.0,0.14602406,1.1252238,1.0702813,0.0,-0.106642246,0.8519563,854.21246,571.3553,748.24176,855.42126,887.25275,-0.1783447265625,0.12847900390625,0.9588623046875,2.908477783203125,-3.36456298828125,2.04864501953125,1.0,2.0,4.0,1.0,2.0,85.0,event
10:31:57.902,0.23564152,0.0,1.1969795,1.2810538,0.09937999,0.0,0.36165506,1.6646616,0.21525785,0.0,0.03874003,1.295106,1.2354122,0.0,0.14602406,1.1252238,1.0702813,0.0,-0.106642246,0.8519563,805.05493,893.69965,739.3773,828.022,743.00366,-0.1783447265625,0.12847900390625,0.9588623046875,2.908477783203125,-3.36456298828125,2.04864501953125,1.0,2.0,4.0,1.0,2.0,85.0,event
10:31:57.903,0.23564152,0.0,1.1969795,1.2810538,0.09937999,0.0,0.36165506,1.6646616,0.21525785,0.0,0.03874003,1.295106,1.2354122,0.0,0.14602406,1.1252238,1.0702813,0.0,-0.106642246,0.8519563,767.1795,793.36993,721.6484,784.10254,716.8132,-0.1783447265625,0.12847900390625,0.9588623046875,2.908477783203125,-3.36456298828125,2.04864501953125,1.0,2.0,4.0,1.0,2.0,85.0,event
10:31:57.904,0.23564152,0.0,1.1969795,1.2810538,0.09937999,0.0,0.36165506,1.6646616,0.21525785,0.0,0.03874003,1.295106,1.2354122,0.0,0.14602406,1.1252238,1.0702813,0.0,-0.106642246,0.8519563,786.1172,408.57144,720.4396,790.14655,969.0476,-0.1783447265625,0.12847900390625,0.9588623046875,2.908477783203125,-3.36456298828125,2.04864501953125,1.0,2.0,4.0,1.0,2.0,85.0,event
10:31:57.904,0.23564152,0.0,1.1969795,1.2810538,0.09937999,0.0,0.36165506,1.6646616,0.21525785,0.0,0.03874003,1.295106,1.2354122,0.0,0.14602406,1.1252238,1.0702813,0.0,-0.106642246,0.8519563,811.50183,207.9121,737.76556,820.3663,1018.20514,-0.1783447265625,0.12847900390625,0.9588623046875,2.908477783203125,-3.36456298828125,2.04864501953125,1.0,2.0,4.0,1.0,2.0,85.0,event
10:31:57.905,0.23564152,0.0,1.1969795,1.2810538,0.09937999,0.0,0.36165506,1.6646616,0.21525785,0.0,0.03874003,1.295106,1.2354122,0.0,0.14602406,1.1252238,1.0702813,0.0,-0.106642246,0.8519563,815.9341,802.6374,747.4359,826.4103,749.85345,-0.1783447265625,0.12847900390625,0.9588623046875,2.908477783203125,-3.36456298828125,2.04864501953125,1.0,2.0,4.0,1.0,2.0,85.0,event
10:31:57.905,0.23564152,0.0,1.1969795,1.2810538,0.09937999,0.0,0.36165506,1.6646616,0.21525785,0.0,0.03874003,1.295106,1.2354122,0.0,0.14602406,1.1252238,1.0702813,0.0,-0.106642246,0.8519563,810.293,1100.0,715.6044,806.26373,736.1539,-0.1783447265625,0.12847900390625,0.9588623046875,2.908477783203125,-3.36456298828125,2.04864501953125,1.0,2.0,4.0,1.0,2.0,85.0,event
10:31:57.906,0.23564152,0.0,1.1969795,1.2810538,0.09937999,0.0,0.36165506,1.6646616,0.21525785,0.0,0.03874003,1.295106,1.2354122,0.0,0.14602406,1.1252238,1.0702813,0.0,-0.106642246,0.8519563,778.86444,861.06226,729.707,761.53845,763.1502,-0.1783447265625,0.12847900390625,0.9588623046875,2.908477783203125,-3.36456298828125,2.04864501953125,1.0,2.0,4.0,1.0,2.0,85.0,event
10:31:57.906,0.23564152,0.0,1.1969795,1.2810538,0.09937999,0.0,0.36165506,1.6646616,0.21525785,0.0,0.03874003,1.295106,1.2354122,0.0,0.14602406,1.1252238,1.0702813,0.0,-0.106642246,0.8519563,794.57874,851.79486,726.4835,780.4762,797.8022,-0.1783447265625,0.12847900390625,0.9588623046875,2.908477783203125,-3.36456298828125,2.04864501953125,1.0,2.0,4.0,1.0,2.0,85.0,event
10:31:57.969,0.23564152,0.0,1.1969795,1.2810538,0.09937999,0.0,0.36165506,1.6646616,0.21525785,0.0,0.03874003,1.295106,1.2354122,0.0,0.14602406,1.1252238,1.0702813,0.0,-0.106642246,0.8519563,793.36993,1064.1392,720.0366,783.2967,697.0696,-0.1783447265625,0.12847900390625,0.9588623046875,2.908477783203125,-3.36456298828125,2.04864501953125,1.0,2.0,4.0,1.0,2.0,85.0,event
10:31:57.970,0.23564152,0.0,1.1969795,1.2810538,0.09937999,0.0,0.36165506,1.6646616,0.21525785,0.0,0.03874003,1.295106,1.2354122,0.0,0.14602406,1.1252238,1.0702813,0.0,-0.106642246,0.8519563,818.3516,1019.41394,707.1429,828.022,715.2015,-0.1783447265625,0.12847900390625,0.9588623046875,2.908477783203125,-3.36456298828125,2.04864501953125,1.0,2.0,4.0,1.0,2.0,85.0,event
10:31:57.971,0.23564152,0.0,1.1969795,1.2810538,0.09937999,0.0,0.36165506,1.6646616,0.21525785,0.0,0.03874003,1.295106,1.2354122,0.0,0.14602406,1.1252238,1.0702813,0.0,-0.106642246,0.8519563,812.71063,840.10986,702.3077,819.9634,769.19415,-0.1783447265625,0.12847900390625,0.9588623046875,2.908477783203125,-3.36456298828125,2.04864501953125,1.0,2.0,4.0,1.0,2.0,85.0,event
10:31:57.971,0.23564152,0.0,1.1969795,1.2810538,0.09937999,0.0,0.36165506,1.6646616,0.21525785,0.0,0.03874003,1.295106,1.2354122,0.0,0.14602406,1.1252238,1.0702813,0.0,-0.106642246,0.8519563,805.05493,884.83514,711.1722,784.5055,785.31134,-0.1783447265625,0.12847900390625,0.9588623046875,2.908477783203125,-3.36456298828125,2.04864501953125,1.0,2.0,4.0,1.0,2.0,85.0,event
10:31:57.972,0.23564152,0.0,1.1969795,1.2810538,0.09937999,0.0,0.36165506,1.6646616,0.21525785,0.0,0.03874003,1.295106,1.2354122,0.0,0.14602406,1.1252238,1.0702813,0.0,-0.106642246,0.8519563,798.60803,811.50183,704.7253,763.95605,771.2088,-0.1783447265625,0.12847900390625,0.9588623046875,2.908477783203125,-3.36456298828125,2.04864501953125,1.0,2.0,4.0,1.0,2.0,85.0,event
10:31:57.973,0.23564152,0.0,1.1969795,1.2810538,0.09937999,0.0,0.36165506,1.6646616,0.21525785,0.0,0.03874003,1.295106,1.2354122,0.0,0.14602406,1.1252238,1.0702813,0.0,-0.106642246,0.8519563,804.65204,734.94507,709.15753,792.5641,792.96704,-0.1783447265625,0.12847900390625,0.9588623046875,2.908477783203125,-3.36456298828125,2.04864501953125,1.0,2.0,4.0,1.0,2.0,85.0,event
10:31:57.973,0.23564152,0.0,1.1969795,1.2810538,0.09937999,0.0,0.36165506,1.6646616,0.21525785,0.0,0.03874003,1.295106,1.2354122,0.0,0.14602406,1.1252238,1.0702813,0.0,-0.106642246,0.8519563,826.0073,313.47986,695.8608,839.707,1081.8682,-0.1783447265625,0.12847900390625,0.9588623046875,2.908477783203125,-3.36456298828125,2.04864501953125,1.0,2.0,4.0,1.0,2.0,85.0,event
10:31:57.974,0.23564152,0.0,1.1969795,1.2810538,0.09937999,0.0,0.36165506,1.6646616,0.21525785,0.0,0.03874003,1.295106,1.2354122,0.0,0.14602406,1.1252238,1.0702813,0.0,-0.106642246,0.8519563,819.15753,160.3663,714.3956,822.7839,1087.9121,-0.1783447265625,0.12847900390625,0.9588623046875,2.908477783203125,-3.36456298828125,2.04864501953125,1.0,2.0,4.0,1.0,2.0,85.0,event
10:31:57.975,0.23564152,0.0,1.1969795,1.2810538,0.09937999,0.0,0.36165506,1.6646616,0.21525785,0.0,0.03874003,1.295106,1.2354122,0.0,0.14602406,1.1252238,1.0702813,0.0,-0.106642246,0.8519563,786.9231,813.1135,727.28937,771.6117,680.14655,-0.1783447265625,0.12847900390625,0.9588623046875,2.908477783203125,-3.36456298828125,2.04864501953125,1.0,2.0,4.0,1.0,2.0,85.0,event
10:31:57.976,0.27852717,0.0,1.1969795,1.2810538,0.041786604,0.0,0.36165506,1.6646616,0.26749343,0.0,0.03874003,1.295106,1.2037005,0.0,0.14602406,1.1252238,1.0287882,0.0,-0.106642246,0.8519563,782.0879,796.5934,699.4872,759.12085,616.8865,-0.1783447265625,0.12847900390625,0.9588623046875,2.908477783203125,-3.36456298828125,2.04864501953125,1.0,1.0,4.0,1.0,1.0,85.0,event
10:31:57.980,0.27852717,0.0,1.1969795,1.2810538,0.041786604,0.0,0.36165506,1.6646616,0.26749343,0.0,0.03874003,1.295106,1.2037005,0.0,0.14602406,1.1252238,1.0287882,0.0,-0.106642246,0.8519563,805.4579,676.1172,702.71063,793.7729,722.8571,-0.1783447265625,0.12847900390625,0.9588623046875,2.908477783203125,-3.36456298828125,2.04864501953125,1.0,1.0,4.0,1.0,1.0,85.0,event
10:31:57.980,0.27852717,0.0,1.1969795,1.2810538,0.041786604,0.0,0.36165506,1.6646616,0.26749343,0.0,0.03874003,1.295106,1.2037005,0.0,0.14602406,1.1252238,1.0287882,0.0,-0.106642246,0.8519563,821.1722,973.0769,711.978,835.2747,709.5604,-0.1783447265625,0.12847900390625,0.9588623046875,2.908477783203125,-3.36456298828125,2.04864501953125,1.0,1.0,4.0,1.0,1.0,85.0,event
10:31:58.002,0.27852717,0.0,1.1969795,1.2810538,0.041786604,0.0,0.36165506,1.6646616,0.26749343,0.0,0.03874003,1.295106,1.2037005,0.0,0.14602406,1.1252238,1.0287882,0.0,-0.106642246,0.8519563,815.5311,1099.597,711.5751,830.84247,686.5934,-0.1820068359375,0.1356201171875,0.965087890625,3.581390380859375,-2.3626708984375,0.964508056640625,1.0,1.0,4.0,1.0,1.0,85.0,event
10:31:58.003,0.27852717,0.0,1.1969795,1.2810538,0.041786604,0.0,0.36165506,1.6646616,0.26749343,0.0,0.03874003,1.295106,1.2037005,0.0,0.14602406,1.1252238,1.0287882,0.0,-0.106642246,0.8519563,792.1612,875.16486,710.7692,790.14655,813.5165,-0.1820068359375,0.1356201171875,0.965087890625,3.581390380859375,-2.3626708984375,0.964508056640625,1.0,1.0,4.0,1.0,1.0,85.0,event
10:31:58.004,0.27852717,0.0,1.1969795,1.2810538,0.041786604,0.0,0.36165506,1.6646616,0.26749343,0.0,0.03874003,1.295106,1.2037005,0.0,0.14602406,1.1252238,1.0287882,0.0,-0.106642246,0.8519563,776.04395,748.6447,714.3956,770.80585,828.4249,-0.1820068359375,0.1356201171875,0.965087890625,3.581390380859375,-2.3626708984375,0.964508056640625,1.0,1.0,4.0,1.0,1.0,85.0,event
10:31:58.004,0.27852717,0.0,1.1969795,1.2810538,0.041786604,0.0,0.36165506,1.6646616,0.26749343,0.0,0.03874003,1.295106,1.2037005,0.0,0.14602406,1.1252238,1.0287882,0.0,-0.106642246,0.8519563,779.2674,957.76556,715.6044,783.69965,691.4286,-0.1820068359375,0.1356201171875,0.965087890625,3.581390380859375,-2.3626708984375,0.964508056640625,1.0,1.0,4.0,1.0,1.0,85.0,event
10:31:58.005,0.27852717,0.0,1.1969795,1.2810538,0.041786604,0.0,0.36165506,1.6646616,0.26749343,0.0,0.03874003,1.295106,1.2037005,0.0,0.14602406,1.1252238,1.0287882,0.0,-0.106642246,0.8519563,797.8022,1050.4396,697.8755,825.2015,691.4286,-0.1820068359375,0.1356201171875,0.965087890625,3.581390380859375,-2.3626708984375,0.964508056640625,1.0,1.0,4.0,1.0,1.0,85.0,event
10:31:58.006,0.27852717,0.0,1.1969795,1.2810538,0.041786604,0.0,0.36165506,1.6646616,0.26749343,0.0,0.03874003,1.295106,1.2037005,0.0,0.14602406,1.1252238,1.0287882,0.0,-0.106642246,0.8519563,804.65204,561.28204,682.96704,845.7509,931.978,-0.1820068359375,0.1356201171875,0.965087890625,3.581390380859375,-2.3626708984375,0.964508056640625,1.0,1.0,4.0,1.0,1.0,85.0,event
10:31:58.008,0.27852717,0.0,1.1969795,1.2810538,0.041786604,0.0,0.36165506,1.6646616,0.26749343,0.0,0.03874003,1.295106,1.2037005,0.0,0.14602406,1.1252238,1.0287882,0.0,-0.106642246,0.8519563,787.72894,191.79488,718.8278,780.07324,1050.4396,-0.1820068359375,0.1356201171875,0.965087890625,3.581390380859375,-2.3626708984375,0.964508056640625,1.0,1.0,4.0,1.0,1.0,85.0,event
10:31:58.009,0.27852717,0.0,1.1969795,1.2810538,0.041786604,0.0,0.36165506,1.6646616,0.26749343,0.0,0.03874003,1.295106,1.2037005,0.0,0.14602406,1.1252238,1.0287882,0.0,-0.106642246,0.8519563,794.9817,542.3443,745.0183,752.27106,829.6337,-0.1820068359375,0.1356201171875,0.965087890625,3.581390380859375,-2.3626708984375,0.964508056640625,1.0,1.0,4.0,1.0,1.0,85.0,event
10:31:58.009,0.27852717,0.0,1.1969795,1.2810538,0.041786604,0.0,0.36165506,1.6646616,0.26749343,0.0,0.03874003,1.295106,1.2037005,0.0,0.14602406,1.1252238,1.0287882,0.0,-0.106642246,0.8519563,812.71063,883.6264,738.1685,796.99634,712.381,-0.1820068359375,0.1356201171875,0.965087890625,3.581390380859375,-2.3626708984375,0.964508056640625,1.0,1.0,4.0,1.0,1.0,85.0,event
10:31:58.010,0.27852717,0.0,1.1969795,1.2810538,0.041786604,0.0,0.36165506,1.6646616,0.26749343,0.0,0.03874003,1.295106,1.2037005,0.0,0.14602406,1.1252238,1.0287882,0.0,-0.106642246,0.8519563,835.6777,585.4579,729.707,861.06226,888.86444,-0.1820068359375,0.1356201171875,0.965087890625,3.581390380859375,-2.3626708984375,0.964508056640625,1.0,1.0,4.0,1.0,1.0,85.0,event
10:31:58.011,0.27852717,0.0,1.1969795,1.2810538,0.041786604,0.0,0.36165506,1.6646616,0.26749343,0.0,0.03874003,1.295106,1.2037005,0.0,0.14602406,1.1252238,1.0287882,0.0,-0.106642246,0.8519563,850.18317,323.95605,751.8681,887.25275,966.2271,-0.1820068359375,0.1356201171875,0.965087890625,3.581390380859375,-2.3626708984375,0.964508056640625,1.0,1.0,4.0,1.0,1.0,85.0,event
10:31:58.011,0.27852717,0.0,1.1969795,1.2810538,0.041786604,0.0,0.36165506,1.6646616,0.26749343,0.0,0.03874003,1.295106,1.2037005,0.0,0.14602406,1.1252238,1.0287882,0.0,-0.106642246,0.8519563,828.8278,870.7326,760.32965,831.2454,705.5311,-0.1820068359375,0.1356201171875,0.965087890625,3.581390380859375,-2.3626708984375,0.964508056640625,1.0,1.0,4.0,1.0,1.0,85.0,event
10:31:58.056,0.27852717,0.0,1.1969795,1.2810538,0.041786604,0.0,0.36165506,1.6646616,0.26749343,0.0,0.03874003,1.295106,1.2037005,0.0,0.14602406,1.1252238,1.0287882,0.0,-0.106642246,0.8519563,814.3223,878.3883,743.8095,798.20514,591.9048,-0.18017578125,0.13787841796875,0.95947265625,2.579498291015625,-2.938385009765625,0.844879150390625,1.0,1.0,4.0,1.0,1.0,85.0,event
10:31:58.058,0.27852717,0.0,1.1969795,1.2810538,0.041786604,0.0,0.36165506,1.6646616,0.26749343,0.0,0.03874003,1.295106,1.2037005,0.0,0.14602406,1.1252238,1.0287882,0.0,-0.106642246,0.8519563,805.4579,755.09155,755.89746,806.26373,658.7912,-0.18017578125,0.13787841796875,0.95947265625,2.579498291015625,-2.938385009765625,0.844879150390625,1.0,1.0,4.0,1.0,1.0,85.0,event
10:31:58.058,0.27852717,0.0,1.1969795,1.2810538,0.041786604,0.0,0.36165506,1.6646616,0.26749343,0.0,0.03874003,1.295106,1.2037005,0.0,0.14602406,1.1252238,1.0287882,0.0,-0.106642246,0.8519563,815.9341,903.36993,766.3736,842.52747,735.34796,-0.18017578125,0.13787841796875,0.95947265625,2.579498291015625,-2.938385009765625,0.844879150390625,1.0,1.0,4.0,1.0,1.0,85.0,event
10:31:58.059,0.27852717,0.0,1.1969795,1.2810538,0.041786604,0.0,0.36165506,1.6646616,0.26749343,0.0,0.03874003,1.295106,1.2037005,0.0,0.14602406,1.1252238,1.0287882,0.0,-0.106642246,0.8519563,821.1722,1087.5092,773.6264,859.85345,742.6007,-0.18017578125,0.13787841796875,0.95947265625,2.579498291015625,-2.938385009765625,0.844879150390625,1.0,1.0,4.0,1.0,1.0,85.0,event
10:31:58.060,0.27852717,0.0,1.1969795,1.2810538,0.041786604,0.0,0.36165506,1.6646616,0.26749343,0.0,0.03874003,1.295106,1.2037005,0.0,0.14602406,1.1252238,1.0287882,0.0,-0.106642246,0.8519563,790.9524,916.6667,761.13556,811.9048,746.63007,-0.18017578125,0.13787841796875,0.95947265625,2.579498291015625,-2.938385009765625,0.844879150390625,1.0,1.0,4.0,1.0,1.0,85.0,event
10:31:58.060,0.27852717,0.0,1.1969795,1.2810538,0.041786604,0.0,0.36165506,1.6646616,0.26749343,0.0,0.03874003,1.295106,1.2037005,0.0,0.14602406,1.1252238,1.0287882,0.0,-0.106642246,0.8519563,783.69965,561.685,767.98535,792.1612,885.64105,-0.18017578125,0.13787841796875,0.95947265625,2.579498291015625,-2.938385009765625,0.844879150390625,1.0,1.0,4.0,1.0,1.0,85.0,event
10:31:58.061,0.27852717,0.0,1.1969795,1.2810538,0.041786604,0.0,0.36165506,1.6646616,0.26749343,0.0,0.03874003,1.295106,1.2037005,0.0,0.14602406,1.1252238,1.0287882,0.0,-0.106642246,0.8519563,809.89014,572.5641,796.1905,832.4542,958.1685,-0.18017578125,0.13787841796875,0.95947265625,2.579498291015625,-2.938385009765625,0.844879150390625,1.0,1.0,4.0,1.0,1.0,85.0,event
10:31:58.061,0.27852717,0.0,1.1969795,1.2810538,0.041786604,0.0,0.36165506,1.6646616,0.26749343,0.0,0.03874003,1.295106,1.2037005,0.0,0.14602406,1.1252238,1.0287882,0.0,-0.106642246,0.8519563,846.9597,904.17584,806.6667,868.71796,851.39197,-0.18017578125,0.13787841796875,0.95947265625,2.579498291015625,-2.938385009765625,0.844879150390625,1.0,1.0,4.0,1.0,1.0,85.0,event
10:31:58.062,0.27852717,0.0,1.1969795,1.2810538,0.041786604,0.0,0.36165506,1.6646616,0.26749343,0.0,0.03874003,1.295106,1.2037005,0.0,0.14602406,1.1252238,1.0287882,0.0,-0.106642246,0.8519563,842.1245,1014.17584,785.7143,848.1685,841.7216,-0.18017578125,0.13787841796875,0.95947265625,2.579498291015625,-2.938385009765625,0.844879150390625,1.0,1.0,4.0,1.0,1.0,85.0,event
10:31:58.063,0.27852717,0.0,1.1969795,1.2810538,0.041786604,0.0,0.36165506,1.6646616,0.26749343,0.0,0.03874003,1.295106,1.2037005,0.0,0.14602406,1.1252238,1.0287882,0.0,-0.106642246,0.8519563,814.3223,461.75824,787.72894,806.6667,1009.34064,-0.18017578125,0.13787841796875,0.95947265625,2.579498291015625,-2.938385009765625,0.844879150390625,1.0,1.0,4.0,1.0,1.0,85.0,event
10:31:58.064,0.27852717,0.0,1.1969795,1.2810538,0.041786604,0.0,0.36165506,1.6646616,0.26749343,0.0,0.03874003,1.295106,1.2037005,0.0,0.14602406,1.1252238,1.0287882,0.0,-0.106642246,0.8519563,811.50183,383.99268,813.91943,789.34064,934.3956,-0.18017578125,0.13787841796875,0.95947265625,2.579498291015625,-2.938385009765625,0.844879150390625,1.0,1.0,4.0,1.0,1.0,85.0,event
10:31:58.065,0.29777128,0.0,1.1969795,0.5144716,-0.0025120082,0.0,0.36165506,0.41553107,0.2924949,0.0,0.03874003,0.2507678,1.184089,0.0,0.14602406,1.0236359,0.9932317,0.0,-0.106642246,0.85364026,811.0989,846.9597,811.50183,791.75824,755.4945,-0.18017578125,0.13787841796875,0.95947265625,2.579498291015625,-2.938385009765625,0.844879150390625,1.0,1.0,4.0,1.0,1.0,85.0,event
10:31:58.125,0.29777128,0.0,1.1969795,0.5144716,-0.0025120082,0.0,0.36165506,0.41553107,0.2924949,0.0,0.03874003,0.2507678,1.184089,0.0,0.14602406,1.0236359,0.9932317,0.0,-0.106642246,0.85364026,819.9634,777.6557,797.8022,824.7985,781.685,-0.18475341796875,0.13067626953125,0.958984375,2.355194091796875,-4.119720458984375,0.11962890625,1.0,1.0,4.0,1.0,1.0,85.0,event
10:31:58.126,0.29777128,0.0,1.1969795,0.5144716,-0.0025120082,0.0,0.36165506,0.41553107,0.2924949,0.0,0.03874003,0.2507678,1.184089,0.0,0.14602406,1.0236359,0.9932317,0.0,-0.106642246,0.85364026,842.52747,518.1685,806.26373,863.8828,813.1135,-0.18475341796875,0.13067626953125,0.958984375,2.355194091796875,-4.119720458984375,0.11962890625,1.0,1.0,4.0,1.0,1.0,85.0,event
10:31:58.127,0.29777128,0.0,1.1969795,0.5144716,-0.0025120082,0.0,0.36165506,0.41553107,0.2924949,0.0,0.03874003,0.2507678,1.184089,0.0,0.14602406,1.0236359,0.9932317,0.0,-0.106642246,0.85364026,832.8571,818.3516,821.978,838.0952,720.0366,-0.18475341796875,0.13067626953125,0.958984375,2.355194091796875,-4.119720458984375,0.11962890625,1.0,1.0,4.0,1.0,1.0,85.0,event
10:31:58.128,0.29777128,0.0,1.1969795,0.5144716,-0.0025120082,0.0,0.36165506,0.41553107,0.2924949,0.0,0.03874003,0.2507678,1.184089,0.0,0.14602406,1.0236359,0.9932317,0.0,-0.106642246,0.85364026,821.5751,938.4249,810.293,801.8315,643.8828,-0.18475341796875,0.13067626953125,0.958984375,2.355194091796875,-4.119720458984375,0.11962890625,1.0,1.0,4.0,1.0,1.0,85.0,event
10:31:58.128,0.29777128,0.0,1.1969795,0.5144716,-0.0025120082,0.0,0.36165506,0.41553107,0.2924949,0.0,0.03874003,0.2507678,1.184089,0.0,0.14602406,1.0236359,0.9932317,0.0,-0.106642246,0.85364026,826.4103,725.6777,809.89014,811.9048,707.5458,-0.18475341796875,0.13067626953125,0.958984375,2.355194091796875,-4.119720458984375,0.11962890625,1.0,1.0,4.0,1.0,1.0,85.0,event
10:31:58.129,0.29777128,0.0,1.1969795,0.5144716,-0.0025120082,0.0,0.36165506,0.41553107,0.2924949,0.0,0.03874003,0.2507678,1.184089,0.0,0.14602406,1.0236359,0.9932317,0.0,-0.106642246,0.85364026,834.0659,545.56775,820.3663,852.1978,851.79486,-0.18475341796875,0.13067626953125,0.958984375,2.355194091796875,-4.119720458984375,0.11962890625,1.0,1.0,4.0,1.0,1.0,85.0,event
10:31:58.130,0.29777128,0.0,1.1969795,0.5144716,-0.0025120082,0.0,0.36165506,0.41553107,0.2924949,0.0,0.03874003,0.2507678,1.184089,0.0,0.14602406,1.0236359,0.9932317,0.0,-0.106642246,0.85364026,832.8571,668.0586,830.4396,881.2088,915.8608,-0.18475341796875,0.13067626953125,0.958984375,2.355194091796875,-4.119720458984375,0.11962890625,1.0,1.0,4.0,1.0,1.0,85.0,event
10:31:58.130,0.29777128,0.0,1.1969795,0.5144716,-0.0025120082,0.0,0.36165506,0.41553107,0.2924949,0.0,0.03874003,0.2507678,1.184089,0.0,0.14602406,1.0236359,0.9932317,0.0,-0.106642246,0.85364026,824.7985,928.3516,828.4249,851.79486,799.011,-0.18475341796875,0.13067626953125,0.958984375,2.355194091796875,-4.119720458984375,0.11962890625,1.0,1.0,4.0,1.0,1.0,85.0,event
10:31:58.131,0.29777128,0.0,1.1969795,0.5144716,-0.0025120082,0.0,0.36165506,0.41553107,0.2924949,0.0,0.03874003,0.2507678,1.184089,0.0,0.14602406,1.0236359,0.9932317,0.0,-0.106642246,0.85364026,817.9487,514.1392,811.50183,799.41394,830.0366,-0.18475341796875,0.13067626953125,0.958984375,2.355194091796875,-4.119720458984375,0.11962890625,1.0,1.0,4.0,1.0,1.0,85.0,event
10:31:58.132,0.29777128,0.0,1.1969795,0.5144716,-0.0025120082,0.0,0.36165506,0.41553107,0.2924949,0.0,0.03874003,0.2507678,1.184089,0.0,0.14602406,1.0236359,0.9932317,0.0,-0.106642246,0.85364026,823.5897,150.29305,834.4689,777.25275,926.7399,-0.18475341796875,0.13067626953125,0.958984375,2.355194091796875,-4.119720458984375,0.11962890625,1.0,1.0,4.0,1.0,1.0,85.0,event
10:31:58.133,0.29777128,0.0,1.1969795,0.5144716,-0.0025120082,0.0,0.36165506,0.41553107,0.2924949,0.0,0.03874003,0.2507678,1.184089,0.0,0.14602406,1.0236359,0.9932317,0.0,-0.106642246,0.85364026,832.4542,735.34796,854.21246,813.5165,662.4176,-0.18475341796875,0.13067626953125,0.958984375,2.355194091796875,-4.119720458984375,0.11962890625,1.0,1.0,4.0,1.0,1.0,85.0,event
10:31:58.133,0.29777128,0.0,1.1969795,0.5144716,-0.0025120082,0.0,0.36165506,0.41553107,0.2924949,0.0,0.03874003,0.2507678,1.184089,0.0,0.14602406,1.0236359,0.9932317,0.0,-0.106642246,0.85364026,849.7802,935.6044,830.84247,872.74725,617.28937,-0.18475341796875,0.13067626953125,0.958984375,2.355194091796875,-4.119720458984375,0.11962890625,1.0,1.0,4.0,1.0,1.0,85.0,event
10:31:58.164,0.29777128,0.0,1.1969795,0.5144716,-0.0025120082,0.0,0.36165506,0.41553107,0.2924949,0.0,0.03874003,0.2507678,1.184089,0.0,0.14602406,1.0236359,0.9932317,0.0,-0.106642246,0.85364026,852.1978,795.78754,832.4542,855.82416,741.79486,-0.167236328125,0.13739013671875,0.96630859375,2.46734619140625,-4.14215087890625,-0.35888671875,1.0,1.0,4.0,1.0,1.0,85.0,event
10:31:58.165,0.29777128,0.0,1.1969795,0.5144716,-0.0025120082,0.0,0.36165506,0.41553107,0.2924949,0.0,0.03874003,0.2507678,1.184089,0.0,0.14602406,1.0236359,0.9932317,0.0,-0.106642246,0.85364026,813.1135,672.8938,843.73627,798.60803,743.00366,-0.167236328125,0.13739013671875,0.96630859375,2.46734619140625,-4.14215087890625,-0.35888671875,1.0,1.0,4.0,1.0,1.0,85.0,event
10:31:58.167,0.29777128,0.0,1.1969795,0.5144716,-0.0025120082,0.0,0.36165506,0.41553107,0.2924949,0.0,0.03874003,0.2507678,1.184089,0.0,0.14602406,1.0236359,0.9932317,0.0,-0.106642246,0.85364026,812.71063,702.3077,860.2564,797.3993,704.3223,-0.167236328125,0.13739013671875,0.96630859375,2.46734619140625,-4.14215087890625,-0.35888671875,1.0,1.0,4.0,1.0,1.0,85.0,event
10:31:58.168,0.29777128,0.0,1.1969795,0.5144716,-0.0025120082,0.0,0.36165506,0.41553107,0.2924949,0.0,0.03874003,0.2507678,1.184089,0.0,0.14602406,1.0236359,0.9932317,0.0,-0.106642246,0.85364026,834.4689,860.65936,861.06226,831.6484,694.65204,-0.167236328125,0.13739013671875,0.96630859375,2.46734619140625,-4.14215087890625,-0.35888671875,1.0,1.0,4.0,1.0,1.0,85.0,event
10:31:58.169,0.29777128,0.0,1.1969795,0.5144716,-0.0025120082,0.0,0.36165506,0.41553107,0.2924949,0.0,0.03874003,0.2507678,1.184089,0.0,0.14602406,1.0236359,0.9932317,0.0,-0.106642246,0.85364026,835.2747,609.6337,843.73627,856.63007,784.10254,-0.167236328125,0.13739013671875,0.96630859375,2.46734619140625,-4.14215087890625,-0.35888671875,1.0,1.0,4.0,1.0,1.0,85.0,event
10:31:58.170,0.29777128,0.0,1.1969795,0.5144716,-0.0025120082,0.0,0.36165506,0.41553107,0.2924949,0.0,0.03874003,0.2507678,1.184089,0.0,0.14602406,1.0236359,0.9932317,0.0,-0.106642246,0.85364026,823.1868,458.93774,841.31866,845.34796,869.5238,-0.167236328125,0.13739013671875,0.96630859375,2.46734619140625,-4.14215087890625,-0.35888671875,1.0,1.0,4.0,1.0,1.0,85.0,event
10:31:58.171,0.29777128,0.0,1.1969795,0.5144716,-0.0025120082,0.0,0.36165506,0.41553107,0.2924949,0.0,0.03874003,0.2507678,1.184089,0.0,0.14602406,1.0236359,0.9932317,0.0,-0.106642246,0.85364026,799.011,573.7729,843.73627,803.8461,841.7216,-0.167236328125,0.13739013671875,0.96630859375,2.46734619140625,-4.14215087890625,-0.35888671875,1.0,1.0,4.0,1.0,1.0,85.0,event
10:31:58.172,0.29777128,0.0,1.1969795,0.5144716,-0.0025120082,0.0,0.36165506,0.41553107,0.2924949,0.0,0.03874003,0.2507678,1.184089,0.0,0.14602406,1.0236359,0.9932317,0.0,-0.106642246,0.85364026,800.2198,628.5714,836.08057,788.1319,727.28937,-0.167236328125,0.13739013671875,0.96630859375,2.46734619140625,-4.14215087890625,-0.35888671875,1.0,1.0,4.0,1.0,1.0,85.0,event
10:31:58.172,0.29777128,0.0,1.1969795,0.5144716,-0.0025120082,0.0,0.36165506,0.41553107,0.2924949,0.0,0.03874003,0.2507678,1.184089,0.0,0.14602406,1.0236359,0.9932317,0.0,-0.106642246,0.85364026,826.0073,236.92308,848.5714,807.47253,890.07324,-0.167236328125,0.13739013671875,0.96630859375,2.46734619140625,-4.14215087890625,-0.35888671875,1.0,1.0,4.0,1.0,1.0,85.0,event
10:31:58.173,0.29777128,0.0,1.1969795,0.5144716,-0.0025120082,0.0,0.36165506,0.41553107,0.2924949,0.0,0.03874003,0.2507678,1.184089,0.0,0.14602406,1.0236359,0.9932317,0.0,-0.106642246,0.85364026,844.94507,421.06226,884.43225,857.4359,934.3956,-0.167236328125,0.13739013671875,0.96630859375,2.46734619140625,-4.14215087890625,-0.35888671875,1.0,1.0,4.0,1.0,1.0,85.0,event
10:31:58.174,0.29777128,0.0,1.1969795,0.5144716,-0.0025120082,0.0,0.36165506,0.41553107,0.2924949,0.0,0.03874003,0.2507678,1.184089,0.0,0.14602406,1.0236359,0.9932317,0.0,-0.106642246,0.85364026,846.9597,999.2674,862.27106,873.5531,713.5897,-0.167236328125,0.13739013671875,0.96630859375,2.46734619140625,-4.14215087890625,-0.35888671875,1.0,1.0,4.0,1.0,1.0,85.0,event
10:31:58.175,0.29777128,0.0,1.1969795,0.5144716,-0.0025120082,0.0,0.36165506,0.41553107,0.2924949,0.0,0.03874003,0.2507678,1.184089,0.0,0.14602406,1.0236359,0.9932317,0.0,-0.106642246,0.85364026,832.4542,642.674,842.52747,821.978,766.3736,-0.167236328125,0.13739013671875,0.96630859375,2.46734619140625,-4.14215087890625,-0.35888671875,1.0,1.0,4.0,1.0,1.0,85.0,event
10:31:58.201,0.29777128,0.0,1.1969795,0.5144716,-0.0025120082,0.0,0.36165506,0.41553107,0.2924949,0.0,0.03874003,0.2507678,1.184089,0.0,0.14602406,1.0236359,0.9932317,0.0,-0.106642246,0.85364026,823.5897,562.0879,857.4359,786.1172,790.14655,-0.167236328125,0.13739013671875,0.96630859375,2.46734619140625,-4.14215087890625,-0.35888671875,1.0,1.0,4.0,1.0,1.0,85.0,event
10:31:58.202,0.32493737,0.0,1.1969795,0.5547927,-0.037508294,0.0,0.36165506,0.38473904,0.30160725,0.0,0.03874003,0.3398139,1.1744654,0.0,0.14602406,1.0324469,0.96615684,0.0,-0.106642246,0.8498775,828.4249,908.20514,860.2564,798.20514,684.57874,-0.167236328125,0.13739013671875,0.96630859375,2.46734619140625,-4.14215087890625,-0.35888671875,1.0,1.0,4.0,1.0,1.0,85.0,event
10:31:58.207,0.32493737,0.0,1.1969795,0.5547927,-0.037508294,0.0,0.36165506,0.38473904,0.30160725,0.0,0.03874003,0.3398139,1.1744654,0.0,0.14602406,1.0324469,0.96615684,0.0,-0.106642246,0.8498775,849.3773,1020.6227,850.58606,850.989,697.0696,-0.167236328125,0.13739013671875,0.96630859375,2.46734619140625,-4.14215087890625,-0.35888671875,1.0,1.0,4.0,1.0,1.0,85.0,event
10:31:58.207,0.32493737,0.0,1.1969795,0.5547927,-0.037508294,0.0,0.36165506,0.38473904,0.30160725,0.0,0.03874003,0.3398139,1.1744654,0.0,0.14602406,1.0324469,0.96615684,0.0,-0.106642246,0.8498775,868.71796,840.5128,849.7802,863.0769,778.86444,-0.167236328125,0.13739013671875,0.96630859375,2.46734619140625,-4.14215087890625,-0.35888671875,1.0,1.0,4.0,1.0,1.0,85.0,event
10:31:58.208,0.32493737,0.0,1.1969795,0.5547927,-0.037508294,0.0,0.36165506,0.38473904,0.30160725,0.0,0.03874003,0.3398139,1.1744654,0.0,0.14602406,1.0324469,0.96615684,0.0,-0.106642246,0.8498775,840.10986,634.61536,843.3333,813.5165,782.8938,-0.167236328125,0.13739013671875,0.96630859375,2.46734619140625,-4.14215087890625,-0.35888671875,1.0,1.0,4.0,1.0,1.0,85.0,event
10:31:58.209,0.32493737,0.0,1.1969795,0.5547927,-0.037508294,0.0,0.36165506,0.38473904,0.30160725,0.0,0.03874003,0.3398139,1.1744654,0.0,0.14602406,1.0324469,0.96615684,0.0,-0.106642246,0.8498775,793.7729,564.10254,841.31866,778.86444,716.4103,-0.167236328125,0.13739013671875,0.96630859375,2.46734619140625,-4.14215087890625,-0.35888671875,1.0,1.0,4.0,1.0,1.0,85.0,event
10:31:58.209,0.32493737,0.0,1.1969795,0.5547927,-0.037508294,0.0,0.36165506,0.38473904,0.30160725,0.0,0.03874003,0.3398139,1.1744654,0.0,0.14602406,1.0324469,0.96615684,0.0,-0.106642246,0.8498775,793.7729,635.82416,851.79486,790.9524,742.1978,-0.167236328125,0.13739013671875,0.96630859375,2.46734619140625,-4.14215087890625,-0.35888671875,1.0,1.0,4.0,1.0,1.0,85.0,event
10:31:58.210,0.32493737,0.0,1.1969795,0.5547927,-0.037508294,0.0,0.36165506,0.38473904,0.30160725,0.0,0.03874003,0.3398139,1.1744654,0.0,0.14602406,1.0324469,0.96615684,0.0,-0.106642246,0.8498775,827.619,414.6154,847.3626,844.5421,979.5238,-0.167236328125,0.13739013671875,0.96630859375,2.46734619140625,-4.14215087890625,-0.35888671875,1.0,1.0,4.0,1.0,1.0,85.0,event
10:31:58.211,0.32493737,0.0,1.1969795,0.5547927,-0.037508294,0.0,0.36165506,0.38473904,0.30160725,0.0,0.03874003,0.3398139,1.1744654,0.0,0.14602406,1.0324469,0.96615684,0.0,-0.106642246,0.8498775,834.0659,141.8315,858.6447,855.82416,1093.956,-0.167236328125,0.13739013671875,0.96630859375,2.46734619140625,-4.14215087890625,-0.35888671875,1.0,1.0,4.0,1.0,1.0,85.0,event
10:31:58.211,0.32493737,0.0,1.1969795,0.5547927,-0.037508294,0.0,0.36165506,0.38473904,0.30160725,0.0,0.03874003,0.3398139,1.1744654,0.0,0.14602406,1.0324469,0.96615684,0.0,-0.106642246,0.8498775,809.0842,665.64105,858.24176,809.89014,820.7692,-0.167236328125,0.13739013671875,0.96630859375,2.46734619140625,-4.14215087890625,-0.35888671875,1.0,1.0,4.0,1.0,1.0,85.0,event
10:31:58.212,0.32493737,0.0,1.1969795,0.5547927,-0.037508294,0.0,0.36165506,0.38473904,0.30160725,0.0,0.03874003,0.3398139,1.1744654,0.0,0.14602406,1.0324469,0.96615684,0.0,-0.106642246,0.8498775,790.9524,979.92676,838.0952,789.7436,682.96704,-0.167236328125,0.13739013671875,0.96630859375,2.46734619140625,-4.14215087890625,-0.35888671875,1.0,1.0,4.0,1.0,1.0,85.0,event
10:31:58.213,0.32493737,0.0,1.1969795,0.5547927,-0.037508294,0.0,0.36165506,0.38473904,0.30160725,0.0,0.03874003,0.3398139,1.1744654,0.0,0.14602406,1.0324469,0.96615684,0.0,-0.106642246,0.8498775,801.8315,591.0989,848.1685,799.011,759.5238,-0.167236328125,0.13739013671875,0.96630859375,2.46734619140625,-4.14215087890625,-0.35888671875,1.0,1.0,4.0,1.0,1.0,85.0,event
10:31:58.235,0.32493737,0.0,1.1969795,0.5547927,-0.037508294,0.0,0.36165506,0.38473904,0.30160725,0.0,0.03874003,0.3398139,1.1744654,0.0,0.14602406,1.0324469,0.96615684,0.0,-0.106642246,0.8498775,832.8571,585.05493,863.8828,838.0952,740.989,-0.16888427734375,0.13311767578125,0.9678955078125,2.086029052734375,-3.48419189453125,-0.40374755859375,1.0,1.0,4.0,1.0,1.0,85.0,event
10:31:58.236,0.32493737,0.0,1.1969795,0.5547927,-0.037508294,0.0,0.36165506,0.38473904,0.30160725,0.0,0.03874003,0.3398139,1.1744654,0.0,0.14602406,1.0324469,0.96615684,0.0,-0.106642246,0.8498775,842.9304,992.01465,840.5128,850.18317,667.6557,-0.16888427734375,0.13311767578125,0.9678955078125,2.086029052734375,-3.48419189453125,-0.40374755859375,1.0,1.0,4.0,1.0,1.0,85.0,event
10:31:58.236,0.32493737,0.0,1.1969795,0.5547927,-0.037508294,0.0,0.36165506,0.38473904,0.30160725,0.0,0.03874003,0.3398139,1.1744654,0.0,0.14602406,1.0324469,0.96615684,0.0,-0.106642246,0.8498775,810.293,870.7326,819.9634,813.5165,688.60803,-0.16888427734375,0.13311767578125,0.9678955078125,2.086029052734375,-3.48419189453125,-0.40374755859375,1.0,1.0,4.0,1.0,1.0,85.0,event
10:31:58.237,0.32493737,0.0,1.1969795,0.5547927,-0.037508294,0.0,0.36165506,0.38473904,0.30160725,0.0,0.03874003,0.3398139,1.1744654,0.0,0.14602406,1.0324469,0.96615684,0.0,-0.106642246,0.8498775,791.3553,684.57874,831.6484,793.7729,704.3223,-0.16888427734375,0.13311767578125,0.9678955078125,2.086029052734375,-3.48419189453125,-0.40374755859375,1.0,1.0,4.0,1.0,1.0,85.0,event
10:31:58.238,0.32493737,0.0,1.1969795,0.5547927,-0.037508294,0.0,0.36165506,0.38473904,0.30160725,0.0,0.03874003,0.3398139,1.1744654,0.0,0.14602406,1.0324469,0.96615684,0.0,-0.106642246,0.8498775,844.1392,766.77655,826.0073,842.9304,799.41394,-0.16888427734375,0.13311767578125,0.9678955078125,2.086029052734375,-3.48419189453125,-0.40374755859375,1.0,1.0,4.0,1.0,1.0,85.0,event
10:31:58.238,0.32493737,0.0,1.1969795,0.5547927,-0.037508294,0.0,0.36165506,0.38473904,0.30160725,0.0,0.03874003,0.3398139,1.1744654,0.0,0.14602406,1.0324469,0.96615684,0.0,-0.106642246,0.8498775,816.337,793.7729,836.08057,800.2198,702.71063,-0.16888427734375,0.13311767578125,0.9678955078125,2.086029052734375,-3.48419189453125,-0.40374755859375,1.0,1.0,4.0,1.0,1.0,85.0,event
10:31:58.239,0.32493737,0.0,1.1969795,0.5547927,-0.037508294,0.0,0.36165506,0.38473904,0.30160725,0.0,0.03874003,0.3398139,1.1744654,0.0,0.14602406,1.0324469,0.96615684,0.0,-0.106642246,0.8498775,869.12085,678.5348,827.2161,877.1795,884.83514,-0.16888427734375,0.13311767578125,0.9678955078125,2.086029052734375,-3.48419189453125,-0.40374755859375,1.0,1.0,4.0,1.0,1.0,85.0,event
10:31:58.240,0.32493737,0.0,1.1969795,0.5547927,-0.037508294,0.0,0.36165506,0.38473904,0.30160725,0.0,0.03874003,0.3398139,1.1744654,0.0,0.14602406,1.0324469,0.96615684,0.0,-0.106642246,0.8498775,846.55676,256.66666,824.3956,841.7216,1066.5568,-0.16888427734375,0.13311767578125,0.9678955078125,2.086029052734375,-3.48419189453125,-0.40374755859375,1.0,1.0,4.0,1.0,1.0,85.0,event
10:31:58.240,0.32493737,0.0,1.1969795,0.5547927,-0.037508294,0.0,0.36165506,0.38473904,0.30160725,0.0,0.03874003,0.3398139,1.1744654,0.0,0.14602406,1.0324469,0.96615684,0.0,-0.106642246,0.8498775,792.5641,230.87912,838.9011,789.34064,996.4469,-0.16888427734375,0.13311767578125,0.9678955078125,2.086029052734375,-3.48419189453125,-0.40374755859375,1.0,1.0,4.0,1.0,1.0,85.0,event
10:31:58.242,0.32493737,0.0,1.1969795,0.5547927,-0.037508294,0.0,0.36165506,0.38473904,0.30160725,0.0,0.03874003,0.3398139,1.1744654,0.0,0.14602406,1.0324469,0.96615684,0.0,-0.106642246,0.8498775,791.3553,935.2015,839.304,789.34064,722.0513,-0.16888427734375,0.13311767578125,0.9678955078125,2.086029052734375,-3.48419189453125,-0.40374755859375,1.0,1.0,4.0,1.0,1.0,85.0,event
10:31:58.243,0.32493737,0.0,1.1969795,0.5547927,-0.037508294,0.0,0.36165506,0.38473904,0.30160725,0.0,0.03874003,0.3398139,1.1744654,0.0,0.14602406,1.0324469,0.96615684,0.0,-0.106642246,0.8498775,804.65204,921.0989,805.4579,817.9487,819.15753,-0.16888427734375,0.13311767578125,0.9678955078125,2.086029052734375,-3.48419189453125,-0.40374755859375,1.0,1.0,4.0,1.0,1.0,85.0,event
10:31:58.244,0.32493737,0.0,1.1969795,0.5547927,-0.037508294,0.0,0.36165506,0.38473904,0.30160725,0.0,0.03874003,0.3398139,1.1744654,0.0,0.14602406,1.0324469,0.96615684,0.0,-0.106642246,0.8498775,813.5165,623.73627,803.8461,846.9597,918.68134,-0.16888427734375,0.13311767578125,0.9678955078125,2.086029052734375,-3.48419189453125,-0.40374755859375,1.0,1.0,4.0,1.0,1.0,85.0,event
10:31:58.267,0.32493737,0.0,1.1969795,0.5547927,-0.037508294,0.0,0.36165506,0.38473904,0.30160725,0.0,0.03874003,0.3398139,1.1744654,0.0,0.14602406,1.0324469,0.96615684,0.0,-0.106642246,0.8498775,822.7839,828.4249,828.022,836.4835,773.6264,-0.17724609375,0.132080078125,0.96240234375,1.60003662109375,-1.786956787109375,-0.59814453125,1.0,1.0,4.0,1.0,1.0,85.0,event
10:31:58.270,0.32493737,0.0,1.1969795,0.5547927,-0.037508294,0.0,0.36165506,0.38473904,0.30160725,0.0,0.03874003,0.3398139,1.1744654,0.0,0.14602406,1.0324469,0.96615684,0.0,-0.106642246,0.8498775,825.2015,1010.54944,815.5311,796.99634,702.71063,-0.17724609375,0.132080078125,0.96240234375,1.60003662109375,-1.786956787109375,-0.59814453125,1.0,1.0,4.0,1.0,1.0,85.0,event
10:31:58.270,0.32493737,0.0,1.1969795,0.5547927,-0.037508294,0.0,0.36165506,0.38473904,0.30160725,0.0,0.03874003,0.3398139,1.1744654,0.0,0.14602406,1.0324469,0.96615684,0.0,-0.106642246,0.8498775,820.7692,789.34064,810.293,795.78754,751.06226,-0.17724609375,0.132080078125,0.96240234375,1.60003662109375,-1.786956787109375,-0.59814453125,1.0,1.0,4.0,1.0,1.0,85.0,event
10:31:58.271,0.38932747,0.0,1.1969795,0.6412634,-0.057032704,0.0,0.36165506,0.38247803,0.3043623,0.0,0.03874003,0.44312146,1.1711156,0.0,0.14602406,1.0324125,0.9491437,0.0,-0.106642246,0.8331332,807.47253,740.58606,820.7692,807.8755,777.25275,-0.17724609375,0.132080078125,0.96240234375,1.60003662109375,-1.786956787109375,-0.59814453125,1.0,1.0,4.0,1.0,1.0,85.0,event
10:31:58.275,0.38932747,0.0,1.1969795,0.6412634,-0.057032704,0.0,0.36165506,0.38247803,0.3043623,0.0,0.03874003,0.44312146,1.1711156,0.0,0.14602406,1.0324125,0.9491437,0.0,-0.106642246,0.8331332,811.0989,941.6484,811.0989,830.84247,745.42126,-0.17724609375,0.132080078125,0.96240234375,1.60003662109375,-1.786956787109375,-0.59814453125,1.0,1.0,4.0,1.0,1.0,85.0,event
10:31:58.276,0.38932747,0.0,1.1969795,0.6412634,-0.057032704,0.0,0.36165506,0.38247803,0.3043623,0.0,0.03874003,0.44312146,1.1711156,0.0,0.14602406,1.0324125,0.9491437,0.0,-0.106642246,0.8331332,825.2015,798.60803,800.6227,838.49817,793.7729,-0.17724609375,0.132080078125,0.96240234375,1.60003662109375,-1.786956787109375,-0.59814453125,1.0,1.0,4.0,1.0,1.0,85.0,event
10:31:58.277,0.38932747,0.0,1.1969795,0.6412634,-0.057032704,0.0,0.36165506,0.38247803,0.3043623,0.0,0.03874003,0.44312146,1.1711156,0.0,0.14602406,1.0324125,0.9491437,0.0,-0.106642246,0.8331332,810.696,361.02563,791.75824,807.47253,983.1502,-0.17724609375,0.132080078125,0.96240234375,1.60003662109375,-1.786956787109375,-0.59814453125,1.0,1.0,4.0,1.0,1.0,85.0,event
10:31:58.278,0.38932747,0.0,1.1969795,0.6412634,-0.057032704,0.0,0.36165506,0.38247803,0.3043623,0.0,0.03874003,0.44312146,1.1711156,0.0,0.14602406,1.0324125,0.9491437,0.0,-0.106642246,0.8331332,790.54944,158.35165,811.9048,794.17584,1014.9817,-0.17724609375,0.132080078125,0.96240234375,1.60003662109375,-1.786956787109375,-0.59814453125,1.0,1.0,4.0,1.0,1.0,85.0,event
10:31:58.278,0.38932747,0.0,1.1969795,0.6412634,-0.057032704,0.0,0.36165506,0.38247803,0.3043623,0.0,0.03874003,0.44312146,1.1711156,0.0,0.14602406,1.0324125,0.9491437,0.0,-0.106642246,0.8331332,795.38464,759.92676,829.2308,811.9048,796.99634,-0.17724609375,0.132080078125,0.96240234375,1.60003662109375,-1.786956787109375,-0.59814453125,1.0,1.0,4.0,1.0,1.0,85.0,event
10:31:58.279,0.38932747,0.0,1.1969795,0.6412634,-0.057032704,0.0,0.36165506,0.38247803,0.3043623,0.0,0.03874003,0.44312146,1.1711156,0.0,0.14602406,1.0324125,0.9491437,0.0,-0.106642246,0.8331332,806.6667,1085.0916,805.05493,837.28937,763.1502,-0.17724609375,0.132080078125,0.96240234375,1.60003662109375,-1.786956787109375,-0.59814453125,1.0,1.0,4.0,1.0,1.0,85.0,event
10:31:58.280,0.38932747,0.0,1.1969795,0.6412634,-0.057032704,0.0,0.36165506,0.38247803,0.3043623,0.0,0.03874003,0.44312146,1.1711156,0.0,0.14602406,1.0324125,0.9491437,0.0,-0.106642246,0.8331332,800.2198,803.8461,800.6227,832.8571,807.8755,-0.17724609375,0.132080078125,0.96240234375,1.60003662109375,-1.786956787109375,-0.59814453125,1.0,1.0,4.0,1.0,1.0,85.0,event
10:31:58.280,0.38932747,0.0,1.1969795,0.6412634,-0.057032704,0.0,0.36165506,0.38247803,0.3043623,0.0,0.03874003,0.44312146,1.1711156,0.0,0.14602406,1.0324125,0.9491437,0.0,-0.106642246,0.8331332,792.96704,604.7985,816.337,804.65204,780.87915,-0.17724609375,0.132080078125,0.96240234375,1.60003662109375,-1.786956787109375,-0.59814453125,1.0,1.0,4.0,1.0,1.0,85.0,event
10:31:58.333,0.38932747,0.0,1.1969795,0.6412634,-0.057032704,0.0,0.36165506,0.38247803,0.3043623,0.0,0.03874003,0.44312146,1.1711156,0.0,0.14602406,1.0324125,0.9491437,0.0,-0.106642246,0.8331332,795.78754,831.2454,826.0073,793.7729,703.5165,-0.1807861328125,0.12774658203125,0.9656982421875,1.00189208984375,-2.743988037109375,-0.785064697265625,1.0,1.0,4.0,1.0,1.0,85.0,event
10:31:58.334,0.38932747,0.0,1.1969795,0.6412634,-0.057032704,0.0,0.36165506,0.38247803,0.3043623,0.0,0.03874003,0.44312146,1.1711156,0.0,0.14602406,1.0324125,0.9491437,0.0,-0.106642246,0.8331332,816.7399,979.12085,816.7399,818.3516,698.68134,-0.1807861328125,0.12774658203125,0.9656982421875,1.00189208984375,-2.743988037109375,-0.785064697265625,1.0,1.0,4.0,1.0,1.0,85.0,event
10:31:58.334,0.38932747,0.0,1.1969795,0.6412634,-0.057032704,0.0,0.36165506,0.38247803,0.3043623,0.0,0.03874003,0.44312146,1.1711156,0.0,0.14602406,1.0324125,0.9491437,0.0,-0.106642246,0.8331332,836.08057,641.4652,823.5897,864.2857,803.0403,-0.1807861328125,0.12774658203125,0.9656982421875,1.00189208984375,-2.743988037109375,-0.785064697265625,1.0,1.0,4.0,1.0,1.0,85.0,event
10:31:58.335,0.38932747,0.0,1.1969795,0.6412634,-0.057032704,0.0,0.36165506,0.38247803,0.3043623,0.0,0.03874003,0.44312146,1.1711156,0.0,0.14602406,1.0324125,0.9491437,0.0,-0.106642246,0.8331332,831.6484,651.13556,828.8278,842.52747,790.14655,-0.1807861328125,0.12774658203125,0.9656982421875,1.00189208984375,-2.743988037109375,-0.785064697265625,1.0,1.0,4.0,1.0,1.0,85.0,event
10:31:58.336,0.38932747,0.0,1.1969795,0.6412634,-0.057032704,0.0,0.36165506,0.38247803,0.3043623,0.0,0.03874003,0.44312146,1.1711156,0.0,0.14602406,1.0324125,0.9491437,0.0,-0.106642246,0.8331332,819.5604,898.5348,806.26373,790.9524,726.08057,-0.1807861328125,0.12774658203125,0.9656982421875,1.00189208984375,-2.743988037109375,-0.785064697265625,1.0,1.0,4.0,1.0,1.0,85.0,event
10:31:58.336,0.38932747,0.0,1.1969795,0.6412634,-0.057032704,0.0,0.36165506,0.38247803,0.3043623,0.0,0.03874003,0.44312146,1.1711156,0.0,0.14602406,1.0324125,0.9491437,0.0,-0.106642246,0.8331332,809.4872,745.42126,802.6374,784.10254,781.685,-0.1807861328125,0.12774658203125,0.9656982421875,1.00189208984375,-2.743988037109375,-0.785064697265625,1.0,1.0,4.0,1.0,1.0,85.0,event
10:31:58.337,0.38932747,0.0,1.1969795,0.6412634,-0.057032704,0.0,0.36165506,0.38247803,0.3043623,0.0,0.03874003,0.44312146,1.1711156,0.0,0.14602406,1.0324125,0.9491437,0.0,-0.106642246,0.8331332,804.2491,231.68498,812.3077,804.2491,1002.0879,-0.1807861328125,0.12774658203125,0.9656982421875,1.00189208984375,-2.743988037109375,-0.785064697265625,1.0,1.0,4.0,1.0,1.0,85.0,event
10:31:58.338,0.38932747,0.0,1.1969795,0.6412634,-0.057032704,0.0,0.36165506,0.38247803,0.3043623,0.0,0.03874003,0.44312146,1.1711156,0.0,0.14602406,1.0324125,0.9491437,0.0,-0.106642246,0.8331332,807.0696,350.9524,833.663,832.8571,977.1062,-0.1807861328125,0.12774658203125,0.9656982421875,1.00189208984375,-2.743988037109375,-0.785064697265625,1.0,1.0,4.0,1.0,1.0,85.0,event
10:31:58.338,0.38932747,0.0,1.1969795,0.6412634,-0.057032704,0.0,0.36165506,0.38247803,0.3043623,0.0,0.03874003,0.44312146,1.1711156,0.0,0.14602406,1.0324125,0.9491437,0.0,-0.106642246,0.8331332,815.9341,967.4359,823.9927,835.6777,700.696,-0.1807861328125,0.12774658203125,0.9656982421875,1.00189208984375,-2.743988037109375,-0.785064697265625,1.0,1.0,4.0,1.0,1.0,85.0,event
10:31:58.339,0.38932747,0.0,1.1969795,0.6412634,-0.057032704,0.0,0.36165506,0.38247803,0.3043623,0.0,0.03874003,0.44312146,1.1711156,0.0,0.14602406,1.0324125,0.9491437,0.0,-0.106642246,0.8331332,802.6374,683.7729,816.337,764.7619,737.3626,-0.1807861328125,0.12774658203125,0.9656982421875,1.00189208984375,-2.743988037109375,-0.785064697265625,1.0,1.0,4.0,1.0,1.0,85.0,event
10:31:58.339,0.38932747,0.0,1.1969795,0.6412634,-0.057032704,0.0,0.36165506,0.38247803,0.3043623,0.0,0.03874003,0.44312146,1.1711156,0.0,0.14602406,1.0324125,0.9491437,0.0,-0.106642246,0.8331332,815.9341,823.9927,808.68134,794.17584,720.0366,-0.1807861328125,0.12774658203125,0.9656982421875,1.00189208984375,-2.743988037109375,-0.785064697265625,1.0,1.0,4.0,1.0,1.0,85.0,event
10:31:58.340,0.38932747,0.0,1.1969795,0.6412634,-0.057032704,0.0,0.36165506,0.38247803,0.3043623,0.0,0.03874003,0.44312146,1.1711156,0.0,0.14602406,1.0324125,0.9491437,0.0,-0.106642246,0.8331332,801.4286,892.49084,822.7839,782.8938,688.20514,-0.1807861328125,0.12774658203125,0.9656982421875,1.00189208984375,-2.743988037109375,-0.785064697265625,1.0,1.0,4.0,1.0,1.0,85.0,event
10:31:58.373,0.38932747,0.0,1.1969795,0.6412634,-0.057032704,0.0,0.36165506,0.38247803,0.3043623,0.0,0.03874003,0.44312146,1.1711156,0.0,0.14602406,1.0324125,0.9491437,0.0,-0.106642246,0.8331332,811.9048,1063.7362,821.1722,832.8571,730.5128,-0.1807861328125,0.12774658203125,0.9656982421875,1.00189208984375,-2.743988037109375,-0.785064697265625,1.0,1.0,4.0,1.0,1.0,85.0,event
10:31:58.374,0.38932747,0.0,1.1969795,0.6412634,-0.057032704,0.0,0.36165506,0.38247803,0.3043623,0.0,0.03874003,0.44312146,1.1711156,0.0,0.14602406,1.0324125,0.9491437,0.0,-0.106642246,0.8331332,816.337,854.61536,810.293,847.76556,815.5311,-0.1807861328125,0.12774658203125,0.9656982421875,1.00189208984375,-2.743988037109375,-0.785064697265625,1.0,1.0,4.0,1.0,1.0,85.0,event
10:31:58.375,0.38932747,0.0,1.1969795,0.6412634,-0.057032704,0.0,0.36165506,0.38247803,0.3043623,0.0,0.03874003,0.44312146,1.1711156,0.0,0.14602406,1.0324125,0.9491437,0.0,-0.106642246,0.8331332,814.7253,517.76556,807.47253,807.0696,858.24176,-0.1807861328125,0.12774658203125,0.9656982421875,1.00189208984375,-2.743988037109375,-0.785064697265625,1.0,1.0,4.0,1.0,1.0,85.0,event
10:31:58.376,0.38932747,0.0,1.1969795,0.6412634,-0.057032704,0.0,0.36165506,0.38247803,0.3043623,0.0,0.03874003,0.44312146,1.1711156,0.0,0.14602406,1.0324125,0.9491437,0.0,-0.106642246,0.8331332,792.96704,744.21246,823.1868,775.2381,804.65204,-0.1807861328125,0.12774658203125,0.9656982421875,1.00189208984375,-2.743988037109375,-0.785064697265625,1.0,1.0,4.0,1.0,1.0,85.0,event
10:31:58.377,0.38932747,0.0,1.1969795,0.6412634,-0.057032704,0.0,0.36165506,0.38247803,0.3043623,0.0,0.03874003,0.44312146,1.1711156,0.0,0.14602406,1.0324125,0.9491437,0.0,-0.106642246,0.8331332,772.01465,992.4176,812.71063,769.19415,719.6337,-0.1807861328125,0.12774658203125,0.9656982421875,1.00189208984375,-2.743988037109375,-0.785064697265625,1.0,1.0,4.0,1.0,1.0,85.0,event
10:31:58.378,0.5061239,0.0,1.1969795,0.76407754,-0.053518645,0.0,0.36165506,0.40938854,0.32366052,0.0,0.03874003,0.53716624,1.1719621,0.0,0.14602406,1.0330944,0.9398013,0.0,-0.106642246,0.8116707,804.2491,542.74725,796.5934,828.4249,875.56775,-0.1807861328125,0.12774658203125,0.9656982421875,1.00189208984375,-2.743988037109375,-0.785064697265625,1.0,1.0,4.0,1.0,1.0,85.0,event
10:31:58.382,0.5061239,0.0,1.1969795,0.76407754,-0.053518645,0.0,0.36165506,0.40938854,0.32366052,0.0,0.03874003,0.53716624,1.1719621,0.0,0.14602406,1.0330944,0.9398013,0.0,-0.106642246,0.8116707,826.4103,12.490843,817.5458,858.6447,1163.2601,-0.1807861328125,0.12774658203125,0.9656982421875,1.00189208984375,-2.743988037109375,-0.785064697265625,1.0,1.0,4.0,1.0,1.0,85.0,event
10:31:58.383,0.5061239,0.0,1.1969795,0.76407754,-0.053518645,0.0,0.36165506,0.40938854,0.32366052,0.0,0.03874003,0.53716624,1.1719621,0.0,0.14602406,1.0330944,0.9398013,0.0,-0.106642246,0.8116707,794.17584,449.67032,834.4689,786.1172,929.15753,-0.1807861328125,0.12774658203125,0.9656982421875,1.00189208984375,-2.743988037109375,-0.785064697265625,1.0,1.0,4.0,1.0,1.0,85.0,event
10:31:58.384,0.5061239,0.0,1.1969795,0.76407754,-0.053518645,0.0,0.36165506,0.40938854,0.32366052,0.0,0.03874003,0.53716624,1.1719621,0.0,0.14602406,1.0330944,0.9398013,0.0,-0.106642246,0.8116707,766.77655,968.6447,807.47253,737.76556,668.86444,-0.1807861328125,0.12774658203125,0.9656982421875,1.00189208984375,-2.743988037109375,-0.785064697265625,1.0,1.0,4.0,1.0,1.0,85.0,event
10:31:58.385,0.5061239,0.0,1.1969795,0.76407754,-0.053518645,0.0,0.36165506,0.40938854,0.32366052,0.0,0.03874003,0.53716624,1.1719621,0.0,0.14602406,1.0330944,0.9398013,0.0,-0.106642246,0.8116707,767.1795,588.2784,806.26373,759.5238,756.7033,-0.1807861328125,0.12774658203125,0.9656982421875,1.00189208984375,-2.743988037109375,-0.785064697265625,1.0,1.0,4.0,1.0,1.0,85.0,event
10:31:58.386,0.5061239,0.0,1.1969795,0.76407754,-0.053518645,0.0,0.36165506,0.40938854,0.32366052,0.0,0.03874003,0.53716624,1.1719621,0.0,0.14602406,1.0330944,0.9398013,0.0,-0.106642246,0.8116707,797.3993,536.7033,831.6484,811.9048,759.5238,-0.1807861328125,0.12774658203125,0.9656982421875,1.00189208984375,-2.743988037109375,-0.785064697265625,1.0,1.0,4.0,1.0,1.0,85.0,event
10:31:58.387,0.5061239,0.0,1.1969795,0.76407754,-0.053518645,0.0,0.36165506,0.40938854,0.32366052,0.0,0.03874003,0.53716624,1.1719621,0.0,0.14602406,1.0330944,0.9398013,0.0,-0.106642246,0.8116707,817.5458,985.56775,822.7839,838.0952,701.0989,-0.1807861328125,0.12774658203125,0.9656982421875,1.00189208984375,-2.743988037109375,-0.785064697265625,1.0,1.0,4.0,1.0,1.0,85.0,event
10:31:58.412,0.5061239,0.0,1.1969795,0.76407754,-0.053518645,0.0,0.36165506,0.40938854,0.32366052,0.0,0.03874003,0.53716624,1.1719621,0.0,0.14602406,1.0330944,0.9398013,0.0,-0.106642246,0.8116707,801.8315,943.663,800.6227,808.2784,727.28937,-0.1744384765625,0.1253662109375,0.960693359375,2.16827392578125,-3.21502685546875,-0.0299072265625,1.0,1.0,4.0,1.0,1.0,85.0,event
10:31:58.413,0.5061239,0.0,1.1969795,0.76407754,-0.053518645,0.0,0.36165506,0.40938854,0.32366052,0.0,0.03874003,0.53716624,1.1719621,0.0,0.14602406,1.0330944,0.9398013,0.0,-0.106642246,0.8116707,786.1172,762.3443,804.65204,770.80585,730.5128,-0.1744384765625,0.1253662109375,0.960693359375,2.16827392578125,-3.21502685546875,-0.0299072265625,1.0,1.0,4.0,1.0,1.0,85.0,event
10:31:58.413,0.5061239,0.0,1.1969795,0.76407754,-0.053518645,0.0,0.36165506,0.40938854,0.32366052,0.0,0.03874003,0.53716624,1.1719621,0.0,0.14602406,1.0330944,0.9398013,0.0,-0.106642246,0.8116707,796.99634,844.5421,819.5604,769.59705,755.4945,-0.1744384765625,0.1253662109375,0.960693359375,2.16827392578125,-3.21502685546875,-0.0299072265625,1.0,1.0,4.0,1.0,1.0,85.0,event
10:31:58.414,0.5061239,0.0,1.1969795,0.76407754,-0.053518645,0.0,0.36165506,0.40938854,0.32366052,0.0,0.03874003,0.53716624,1.1719621,0.0,0.14602406,1.0330944,0.9398013,0.0,-0.106642246,0.8116707,828.4249,934.3956,797.3993,824.3956,763.1502,-0.1744384765625,0.1253662109375,0.960693359375,2.16827392578125,-3.21502685546875,-0.0299072265625,1.0,1.0,4.0,1.0,1.0,85.0,event
10:31:58.414,0.5061239,0.0,1.1969795,0.76407754,-0.053518645,0.0,0.36165506,0.40938854,0.32366052,0.0,0.03874003,0.53716624,1.1719621,0.0,0.14602406,1.0330944,0.9398013,0.0,-0.106642246,0.8116707,825.6044,1016.99634,813.1135,798.20514,734.5421,-0.1744384765625,0.1253662109375,0.960693359375,2.16827392578125,-3.21502685546875,-0.0299072265625,1.0,1.0,4.0,1.0,1.0,85.0,event
10:31:58.415,0.5061239,0.0,1.1969795,0.76407754,-0.053518645,0.0,0.36165506,0.40938854,0.32366052,0.0,0.03874003,0.53716624,1.1719621,0.0,0.14602406,1.0330944,0.9398013,0.0,-0.106642246,0.8116707,771.6117,576.99634,799.41394,769.59705,900.54944,-0.1744384765625,0.1253662109375,0.960693359375,2.16827392578125,-3.21502685546875,-0.0299072265625,1.0,1.0,4.0,1.0,1.0,85.0,event
10:31:58.415,0.5061239,0.0,1.1969795,0.76407754,-0.053518645,0.0,0.36165506,0.40938854,0.32366052,0.0,0.03874003,0.53716624,1.1719621,0.0,0.14602406,1.0330944,0.9398013,0.0,-0.106642246,0.8116707,794.9817,655.9707,788.93774,796.1905,874.7619,-0.1744384765625,0.1253662109375,0.960693359375,2.16827392578125,-3.21502685546875,-0.0299072265625,1.0,1.0,4.0,1.0,1.0,85.0,event
10:31:58.416,0.5061239,0.0,1.1969795,0.76407754,-0.053518645,0.0,0.36165506,0.40938854,0.32366052,0.0,0.03874003,0.53716624,1.1719621,0.0,0.14602406,1.0330944,0.9398013,0.0,-0.106642246,0.8116707,779.2674,662.01465,807.0696,768.7912,918.68134,-0.1744384765625,0.1253662109375,0.960693359375,2.16827392578125,-3.21502685546875,-0.0299072265625,1.0,1.0,4.0,1.0,1.0,85.0,event
10:31:58.416,0.5061239,0.0,1.1969795,0.76407754,-0.053518645,0.0,0.36165506,0.40938854,0.32366052,0.0,0.03874003,0.53716624,1.1719621,0.0,0.14602406,1.0330944,0.9398013,0.0,-0.106642246,0.8116707,791.75824,751.8681,795.38464,779.67035,881.2088,-0.1744384765625,0.1253662109375,0.960693359375,2.16827392578125,-3.21502685546875,-0.0299072265625,1.0,1.0,4.0,1.0,1.0,85.0,event
10:31:58.417,0.5061239,0.0,1.1969795,0.76407754,-0.053518645,0.0,0.36165506,0.40938854,0.32366052,0.0,0.03874003,0.53716624,1.1719621,0.0,0.14602406,1.0330944,0.9398013,0.0,-0.106642246,0.8116707,813.91943,279.6337,781.685,836.4835,1041.978,-0.1744384765625,0.1253662109375,0.960693359375,2.16827392578125,-3.21502685546875,-0.0299072265625,1.0,1.0,4.0,1.0,1.0,85.0,event
10:31:58.417,0.5061239,0.0,1.1969795,0.76407754,-0.053518645,0.0,0.36165506,0.40938854,0.32366052,0.0,0.03874003,0.53716624,1.1719621,0.0,0.14602406,1.0330944,0.9398013,0.0,-0.106642246,0.8116707,807.8755,179.70695,813.5165,838.49817,1006.52014,-0.1744384765625,0.1253662109375,0.960693359375,2.16827392578125,-3.21502685546875,-0.0299072265625,1.0,1.0,4.0,1.0,1.0,85.0,event
10:31:58.418,0.5061239,0.0,1.1969795,0.76407754,-0.053518645,0.0,0.36165506,0.40938854,0.32366052,0.0,0.03874003,0.53716624,1.1719621,0.0,0.14602406,1.0330944,0.9398013,0.0,-0.106642246,0.8116707,781.685,877.1795,809.89014,778.86444,683.7729,-0.1744384765625,0.1253662109375,0.960693359375,2.16827392578125,-3.21502685546875,-0.0299072265625,1.0,1.0,4.0,1.0,1.0,85.0,event
10:31:58.471,0.5061239,0.0,1.1969795,0.76407754,-0.053518645,0.0,0.36165506,0.40938854,0.32366052,0.0,0.03874003,0.53716624,1.1719621,0.0,0.14602406,1.0330944,0.9398013,0.0,-0.106642246,0.8116707,782.8938,821.1722,783.69965,772.8205,706.7399,-0.17620849609375,0.13226318359375,0.9639892578125,2.2430419921875,-2.67669677734375,1.42059326171875,1.0,1.0,4.0,1.0,1.0,85.0,event
10:31:58.472,0.5061239,0.0,1.1969795,0.76407754,-0.053518645,0.0,0.36165506,0.40938854,0.32366052,0.0,0.03874003,0.53716624,1.1719621,0.0,0.14602406,1.0330944,0.9398013,0.0,-0.106642246,0.8116707,806.6667,687.8022,795.78754,802.23444,703.1135,-0.17620849609375,0.13226318359375,0.9639892578125,2.2430419921875,-2.67669677734375,1.42059326171875,1.0,1.0,4.0,1.0,1.0,85.0,event
10:31:58.473,0.5061239,0.0,1.1969795,0.76407754,-0.053518645,0.0,0.36165506,0.40938854,0.32366052,0.0,0.03874003,0.53716624,1.1719621,0.0,0.14602406,1.0330944,0.9398013,0.0,-0.106642246,0.8116707,819.9634,925.12823,802.6374,822.7839,677.326,-0.17620849609375,0.13226318359375,0.9639892578125,2.2430419921875,-2.67669677734375,1.42059326171875,1.0,1.0,4.0,1.0,1.0,85.0,event
10:31:58.474,0.5061239,0.0,1.1969795,0.76407754,-0.053518645,0.0,0.36165506,0.40938854,0.32366052,0.0,0.03874003,0.53716624,1.1719621,0.0,0.14602406,1.0330944,0.9398013,0.0,-0.106642246,0.8116707,797.8022,807.8755,778.46155,771.2088,811.9048,-0.17620849609375,0.13226318359375,0.9639892578125,2.2430419921875,-2.67669677734375,1.42059326171875,1.0,1.0,4.0,1.0,1.0,85.0,event
10:31:58.474,0.5061239,0.0,1.1969795,0.76407754,-0.053518645,0.0,0.36165506,0.40938854,0.32366052,0.0,0.03874003,0.53716624,1.1719621,0.0,0.14602406,1.0330944,0.9398013,0.0,-0.106642246,0.8116707,806.6667,1045.6044,785.7143,806.26373,772.4176,-0.17620849609375,0.13226318359375,0.9639892578125,2.2430419921875,-2.67669677734375,1.42059326171875,1.0,1.0,4.0,1.0,1.0,85.0,event
10:31:58.475,0.5061239,0.0,1.1969795,0.76407754,-0.053518645,0.0,0.36165506,0.40938854,0.32366052,0.0,0.03874003,0.53716624,1.1719621,0.0,0.14602406,1.0330944,0.9398013,0.0,-0.106642246,0.8116707,816.7399,528.24176,790.54944,782.0879,809.4872,-0.17620849609375,0.13226318359375,0.9639892578125,2.2430419921875,-2.67669677734375,1.42059326171875,1.0,1.0,4.0,1.0,1.0,85.0,event
10:31:58.476,0.5061239,0.0,1.1969795,0.76407754,-0.053518645,0.0,0.36165506,0.40938854,0.32366052,0.0,0.03874003,0.53716624,1.1719621,0.0,0.14602406,1.0330944,0.9398013,0.0,-0.106642246,0.8116707,826.8132,587.0696,794.9817,819.5604,860.2564,-0.17620849609375,0.13226318359375,0.9639892578125,2.2430419921875,-2.67669677734375,1.42059326171875,1.0,1.0,4.0,1.0,1.0,85.0,event
10:31:58.476,0.6524334,0.0,1.1969795,0.8864915,-0.032642227,0.0,0.36165506,0.44460776,0.3615155,0.0,0.03874003,0.56582683,1.1745114,0.0,0.14602406,1.0357378,0.9335606,0.0,-0.106642246,0.79291326,805.4579,870.32965,792.1612,822.7839,802.23444,-0.17620849609375,0.13226318359375,0.9639892578125,2.2430419921875,-2.67669677734375,1.42059326171875,1.0,1.0,4.0,1.0,1.0,85.0,event
10:31:58.482,0.6524334,0.0,1.1969795,0.8864915,-0.032642227,0.0,0.36165506,0.44460776,0.3615155,0.0,0.03874003,0.56582683,1.1745114,0.0,0.14602406,1.0357378,0.9335606,0.0,-0.106642246,0.79291326,780.4762,598.3516,765.56775,808.2784,903.7729,-0.17620849609375,0.13226318359375,0.9639892578125,2.2430419921875,-2.67669677734375,1.42059326171875,1.0,1.0,4.0,1.0,1.0,85.0,event
10:31:58.483,0.6524334,0.0,1.1969795,0.8864915,-0.032642227,0.0,0.36165506,0.44460776,0.3615155,0.0,0.03874003,0.56582683,1.1745114,0.0,0.14602406,1.0357378,0.9335606,0.0,-0.106642246,0.79291326,770.80585,4.835165,783.2967,783.69965,1123.773,-0.17620849609375,0.13226318359375,0.9639892578125,2.2430419921875,-2.67669677734375,1.42059326171875,1.0,1.0,4.0,1.0,1.0,85.0,event
10:31:58.484,0.6524334,0.0,1.1969795,0.8864915,-0.032642227,0.0,0.36165506,0.44460776,0.3615155,0.0,0.03874003,0.56582683,1.1745114,0.0,0.14602406,1.0357378,0.9335606,0.0,-0.106642246,0.79291326,770.0,570.54944,808.2784,757.9121,869.5238,-0.17620849609375,0.13226318359375,0.9639892578125,2.2430419921875,-2.67669677734375,1.42059326171875,1.0,1.0,4.0,1.0,1.0,85.0,event
