TimeStamp,Delta_TP9,Delta_AF7,Delta_AF8,Delta_TP10,Theta_TP9,Theta_AF7,Theta_AF8,Theta_TP10,Alpha_TP9,Alpha_AF7,Alpha_AF8,Alpha_TP10,Beta_TP9,Beta_AF7,Beta_AF8,Beta_TP10,Gamma_TP9,Gamma_AF7,Gamma_AF8,Gamma_TP10,RAW_TP9,RAW_AF7,RAW_AF8,RAW_TP10,AUX_RIGHT,Accelerometer_X,Accelerometer_Y,Accelerometer_Z,Gyro_X,Gyro_Y,Gyro_Z,HeadBandOn,HSI_TP9,HSI_AF7,HSI_AF8,HSI_TP10,Battery,Elements
09:40:35.876,0.5119846,0.0,0.55870575,0.8900826,0.10635216,0.0,0.01822983,0.5212574,0.121369965,0.0,0.26143673,0.1122093,0.6772406,0.0,-0.011853188,0.40013555,0.35369232,0.0,-0.4113228,0.12801696,922.3077,1044.7986,796.5934,827.619,809.89014,-0.1651611328125,0.06317138671875,0.96588134765625,2.093505859375,-5.15899658203125,7.394561767578125,1.0,2.0,4.0,1.0,2.0,80.0,event
09:40:35.878,0.5119846,0.0,0.55870575,0.8900826,0.10635216,0.0,0.01822983,0.5212574,0.121369965,0.0,0.26143673,0.1122093,0.6772406,0.0,-0.011853188,0.40013555,0.35369232,0.0,-0.4113228,0.12801696,664.83514,1077.8389,805.05493,787.326,665.2381,-0.1651611328125,0.06317138671875,0.96588134765625,2.093505859375,-5.15899658203125,7.394561767578125,1.0,2.0,4.0,1.0,2.0,80.0,event
09:40:35.879,0.5119846,0.0,0.55870575,0.8900826,0.10635216,0.0,0.01822983,0.5212574,0.121369965,0.0,0.26143673,0.1122093,0.6772406,0.0,-0.011853188,0.40013555,0.35369232,0.0,-0.4113228,0.12801696,609.2308,1164.0659,804.65204,770.40295,628.1685,-0.1651611328125,0.06317138671875,0.96588134765625,2.093505859375,-5.15899658203125,7.394561767578125,1.0,2.0,4.0,1.0,2.0,80.0,event
09:40:35.879,0.5119846,0.0,0.55870575,0.8900826,0.10635216,0.0,0.01822983,0.5212574,0.121369965,0.0,0.26143673,0.1122093,0.6772406,0.0,-0.011853188,0.40013555,0.35369232,0.0,-0.4113228,0.12801696,779.67035,1050.8425,801.02563,796.99634,705.9341,-0.1651611328125,0.06317138671875,0.96588134765625,2.093505859375,-5.15899658203125,7.394561767578125,1.0,2.0,4.0,1.0,2.0,80.0,event
09:40:35.880,0.5119846,0.0,0.55870575,0.8900826,0.10635216,0.0,0.01822983,0.5212574,0.121369965,0.0,0.26143673,0.1122093,0.6772406,0.0,-0.011853188,0.40013555,0.35369232,0.0,-0.4113228,0.12801696,965.82416,969.0476,801.4286,826.8132,770.80585,-0.1651611328125,0.06317138671875,0.96588134765625,2.093505859375,-5.15899658203125,7.394561767578125,1.0,2.0,4.0,1.0,2.0,80.0,event
09:40:35.881,0.5119846,0.0,0.55870575,0.8900826,0.10635216,0.0,0.01822983,0.5212574,0.121369965,0.0,0.26143673,0.1122093,0.6772406,0.0,-0.011853188,0.40013555,0.35369232,0.0,-0.4113228,0.12801696,942.8571,946.4835,802.6374,827.619,841.7216,-0.1651611328125,0.06317138671875,0.96588134765625,2.093505859375,-5.15899658203125,7.394561767578125,1.0,2.0,4.0,1.0,2.0,80.0,event
09:40:35.882,0.5119846,0.0,0.55870575,0.8900826,0.10635216,0.0,0.01822983,0.5212574,0.121369965,0.0,0.26143673,0.1122093,0.6772406,0.0,-0.011853188,0.40013555,0.35369232,0.0,-0.4113228,0.12801696,715.2015,685.38464,799.011,825.2015,816.7399,-0.1651611328125,0.06317138671875,0.96588134765625,2.093505859375,-5.15899658203125,7.394561767578125,1.0,2.0,4.0,1.0,2.0,80.0,event
09:40:35.882,0.5119846,0.0,0.55870575,0.8900826,0.10635216,0.0,0.01822983,0.5212574,0.121369965,0.0,0.26143673,0.1122093,0.6772406,0.0,-0.011853188,0.40013555,0.35369232,0.0,-0.4113228,0.12801696,758.315,887.25275,805.4579,805.05493,821.978,-0.1651611328125,0.06317138671875,0.96588134765625,2.093505859375,-5.15899658203125,7.394561767578125,1.0,2.0,4.0,1.0,2.0,80.0,event
09:40:35.883,0.5119846,0.0,0.55870575,0.8900826,0.10635216,0.0,0.01822983,0.5212574,0.121369965,0.0,0.26143673,0.1122093,0.6772406,0.0,-0.011853188,0.40013555,0.35369232,0.0,-0.4113228,0.12801696,883.22345,342.49084,808.2784,850.989,926.337,-0.1651611328125,0.06317138671875,0.96588134765625,2.093505859375,-5.15899658203125,7.394561767578125,1.0,2.0,4.0,1.0,2.0,80.0,event
09:40:35.884,0.5119846,0.0,0.55870575,0.8900826,0.10635216,0.0,0.01822983,0.5212574,0.121369965,0.0,0.26143673,0.1122093,0.6772406,0.0,-0.011853188,0.40013555,0.35369232,0.0,-0.4113228,0.12801696,1150.7693,963.8095,822.7839,861.06226,855.82416,-0.1651611328125,0.06317138671875,0.96588134765625,2.093505859375,-5.15899658203125,7.394561767578125,1.0,2.0,4.0,1.0,2.0,80.0,event
09:40:35.884,0.5119846,0.0,0.55870575,0.8900826,0.10635216,0.0,0.01822983,0.5212574,0.121369965,0.0,0.26143673,0.1122093,0.6772406,0.0,-0.011853188,0.40013555,0.35369232,0.0,-0.4113228,0.12801696,1141.9048,1462.2344,807.0696,849.3773,770.40295,-0.1651611328125,0.06317138671875,0.96588134765625,2.093505859375,-5.15899658203125,7.394561767578125,1.0,2.0,4.0,1.0,2.0,80.0,event
09:40:35.885,0.5119846,0.0,0.55870575,0.8900826,0.10635216,0.0,0.01822983,0.5212574,0.121369965,0.0,0.26143673,0.1122093,0.6772406,0.0,-0.011853188,0.40013555,0.35369232,0.0,-0.4113228,0.12801696,847.76556,866.30035,797.8022,807.47253,915.4579,-0.1651611328125,0.06317138671875,0.96588134765625,2.093505859375,-5.15899658203125,7.394561767578125,1.0,2.0,4.0,1.0,2.0,80.0,event
09:40:35.913,0.5119846,0.0,0.55870575,0.8900826,0.10635216,0.0,0.01822983,0.5212574,0.121369965,0.0,0.26143673,0.1122093,0.6772406,0.0,-0.011853188,0.40013555,0.35369232,0.0,-0.4113228,0.12801696,765.56775,674.10254,811.0989,790.54944,822.381,-0.1529541015625,0.06298828125,0.9677734375,2.34771728515625,-6.9683837890625,11.746063232421877,1.0,2.0,4.0,1.0,2.0,80.0,event
09:40:35.914,0.5119846,0.0,0.55870575,0.8900826,0.10635216,0.0,0.01822983,0.5212574,0.121369965,0.0,0.26143673,0.1122093,0.6772406,0.0,-0.011853188,0.40013555,0.35369232,0.0,-0.4113228,0.12801696,883.22345,1155.2014,821.978,797.8022,604.3956,-0.1529541015625,0.06298828125,0.9677734375,2.34771728515625,-6.9683837890625,11.746063232421877,1.0,2.0,4.0,1.0,2.0,80.0,event
09:40:35.915,0.5119846,0.0,0.55870575,0.8900826,0.10635216,0.0,0.01822983,0.5212574,0.121369965,0.0,0.26143673,0.1122093,0.6772406,0.0,-0.011853188,0.40013555,0.35369232,0.0,-0.4113228,0.12801696,1102.0146,1257.5458,818.3516,810.293,664.43225,-0.1529541015625,0.06298828125,0.9677734375,2.34771728515625,-6.9683837890625,11.746063232421877,1.0,2.0,4.0,1.0,2.0,80.0,event
09:40:35.915,0.5119846,0.0,0.55870575,0.8900826,0.10635216,0.0,0.01822983,0.5212574,0.121369965,0.0,0.26143673,0.1122093,0.6772406,0.0,-0.011853188,0.40013555,0.35369232,0.0,-0.4113228,0.12801696,1240.2197,1095.5677,816.337,818.7546,734.94507,-0.1529541015625,0.06298828125,0.9677734375,2.34771728515625,-6.9683837890625,11.746063232421877,1.0,2.0,4.0,1.0,2.0,80.0,event
09:40:35.916,0.5119846,0.0,0.55870575,0.8900826,0.10635216,0.0,0.01822983,0.5212574,0.121369965,0.0,0.26143673,0.1122093,0.6772406,0.0,-0.011853188,0.40013555,0.35369232,0.0,-0.4113228,0.12801696,1152.7839,1045.6044,815.5311,815.9341,772.8205,-0.1529541015625,0.06298828125,0.9677734375,2.34771728515625,-6.9683837890625,11.746063232421877,1.0,2.0,4.0,1.0,2.0,80.0,event
09:40:35.916,0.5119846,0.0,0.5517983,0.8900826,0.10635216,0.0,0.018640414,0.5212574,0.121369965,0.0,0.26467758,0.1122093,0.6772406,0.0,-0.006184562,0.40013555,0.35369232,0.0,-0.40955967,0.12801696,1113.6996,858.6447,815.12823,807.8755,748.6447,-0.1529541015625,0.06298828125,0.9677734375,2.34771728515625,-6.9683837890625,11.746063232421877,1.0,2.0,4.0,1.0,2.0,80.0,event
09:40:35.920,0.5119846,0.0,0.5517983,0.8900826,0.10635216,0.0,0.018640414,0.5212574,0.121369965,0.0,0.26467758,0.1122093,0.6772406,0.0,-0.006184562,0.40013555,0.35369232,0.0,-0.40955967,0.12801696,1385.6776,819.9634,821.1722,790.54944,715.6044,-0.1529541015625,0.06298828125,0.9677734375,2.34771728515625,-6.9683837890625,11.746063232421877,1.0,2.0,4.0,1.0,2.0,80.0,event
09:40:35.921,0.5119846,0.0,0.5517983,0.8900826,0.10635216,0.0,0.018640414,0.5212574,0.121369965,0.0,0.26467758,0.1122093,0.6772406,0.0,-0.006184562,0.40013555,0.35369232,0.0,-0.40955967,0.12801696,1632.2711,541.53845,810.293,782.0879,983.5531,-0.1529541015625,0.06298828125,0.9677734375,2.34771728515625,-6.9683837890625,11.746063232421877,1.0,2.0,4.0,1.0,2.0,80.0,event
09:40:35.921,0.5119846,0.0,0.5517983,0.8900826,0.10635216,0.0,0.018640414,0.5212574,0.121369965,0.0,0.26467758,0.1122093,0.6772406,0.0,-0.006184562,0.40013555,0.35369232,0.0,-0.40955967,0.12801696,1623.4066,477.47253,815.9341,763.5531,1035.9341,-0.1529541015625,0.06298828125,0.9677734375,2.34771728515625,-6.9683837890625,11.746063232421877,1.0,2.0,4.0,1.0,2.0,80.0,event
09:40:35.922,0.5119846,0.0,0.5517983,0.8900826,0.10635216,0.0,0.018640414,0.5212574,0.121369965,0.0,0.26467758,0.1122093,0.6772406,0.0,-0.006184562,0.40013555,0.35369232,0.0,-0.40955967,0.12801696,1622.6007,1145.1282,816.337,727.6923,702.3077,-0.1529541015625,0.06298828125,0.9677734375,2.34771728515625,-6.9683837890625,11.746063232421877,1.0,2.0,4.0,1.0,2.0,80.0,event
09:40:35.922,0.5119846,0.0,0.5517983,0.8900826,0.10635216,0.0,0.018640414,0.5212574,0.121369965,0.0,0.26467758,0.1122093,0.6772406,0.0,-0.006184562,0.40013555,0.35369232,0.0,-0.40955967,0.12801696,1629.4506,1089.1208,803.0403,743.00366,688.20514,-0.1529541015625,0.06298828125,0.9677734375,2.34771728515625,-6.9683837890625,11.746063232421877,1.0,2.0,4.0,1.0,2.0,80.0,event
09:40:35.923,0.5119846,0.0,0.5517983,0.8900826,0.10635216,0.0,0.018640414,0.5212574,0.121369965,0.0,0.26467758,0.1122093,0.6772406,0.0,-0.006184562,0.40013555,0.35369232,0.0,-0.40955967,0.12801696,1627.8389,886.04395,811.0989,750.65936,792.96704,-0.1529541015625,0.06298828125,0.9677734375,2.34771728515625,-6.9683837890625,11.746063232421877,1.0,2.0,4.0,1.0,2.0,80.0,event
09:40:35.960,0.5119846,0.0,0.5517983,0.8900826,0.10635216,0.0,0.018640414,0.5212574,0.121369965,0.0,0.26467758,0.1122093,0.6772406,0.0,-0.006184562,0.40013555,0.35369232,0.0,-0.40955967,0.12801696,1627.8389,1143.1135,817.1429,732.9304,776.04395,-0.1529541015625,0.06298828125,0.9677734375,2.34771728515625,-6.9683837890625,11.746063232421877,1.0,2.0,4.0,1.0,2.0,80.0,event
09:40:35.961,0.5119846,0.0,0.5517983,0.8900826,0.10635216,0.0,0.018640414,0.5212574,0.121369965,0.0,0.26467758,0.1122093,0.6772406,0.0,-0.006184562,0.40013555,0.35369232,0.0,-0.40955967,0.12801696,1627.8389,1322.4176,809.89014,728.9011,745.42126,-0.1529541015625,0.06298828125,0.9677734375,2.34771728515625,-6.9683837890625,11.746063232421877,1.0,2.0,4.0,1.0,2.0,80.0,event
09:40:35.962,0.5119846,0.0,0.5517983,0.8900826,0.10635216,0.0,0.018640414,0.5212574,0.121369965,0.0,0.26467758,0.1122093,0.6772406,0.0,-0.006184562,0.40013555,0.35369232,0.0,-0.40955967,0.12801696,1627.8389,948.49817,796.99634,757.9121,859.85345,-0.1529541015625,0.06298828125,0.9677734375,2.34771728515625,-6.9683837890625,11.746063232421877,1.0,2.0,4.0,1.0,2.0,80.0,event
09:40:35.962,0.5119846,0.0,0.5517983,0.8900826,0.10635216,0.0,0.018640414,0.5212574,0.121369965,0.0,0.26467758,0.1122093,0.6772406,0.0,-0.006184562,0.40013555,0.35369232,0.0,-0.40955967,0.12801696,1627.8389,632.6007,805.05493,784.10254,865.89746,-0.1529541015625,0.06298828125,0.9677734375,2.34771728515625,-6.9683837890625,11.746063232421877,1.0,2.0,4.0,1.0,2.0,80.0,event
09:40:35.963,0.5119846,0.0,0.5517983,0.8900826,0.10635216,0.0,0.018640414,0.5212574,0.121369965,0.0,0.26467758,0.1122093,0.6772406,0.0,-0.006184562,0.40013555,0.35369232,0.0,-0.40955967,0.12801696,1628.2417,924.3223,817.9487,734.94507,745.0183,-0.1529541015625,0.06298828125,0.9677734375,2.34771728515625,-6.9683837890625,11.746063232421877,1.0,2.0,4.0,1.0,2.0,80.0,event
09:40:35.964,0.5119846,0.0,0.5517983,0.8900826,0.10635216,0.0,0.018640414,0.5212574,0.121369965,0.0,0.26467758,0.1122093,0.6772406,0.0,-0.006184562,0.40013555,0.35369232,0.0,-0.40955967,0.12801696,1621.7949,1044.3956,814.3223,721.2454,836.8865,-0.1529541015625,0.06298828125,0.9677734375,2.34771728515625,-6.9683837890625,11.746063232421877,1.0,2.0,4.0,1.0,2.0,80.0,event
09:40:35.965,0.5119846,0.0,0.5517983,0.8900826,0.10635216,0.0,0.018640414,0.5212574,0.121369965,0.0,0.26467758,0.1122093,0.6772406,0.0,-0.006184562,0.40013555,0.35369232,0.0,-0.40955967,0.12801696,1591.978,347.32602,806.6667,699.0842,1029.8901,-0.1529541015625,0.06298828125,0.9677734375,2.34771728515625,-6.9683837890625,11.746063232421877,1.0,2.0,4.0,1.0,2.0,80.0,event
09:40:35.965,0.5119846,0.0,0.5517983,0.8900826,0.10635216,0.0,0.018640414,0.5212574,0.121369965,0.0,0.26467758,0.1122093,0.6772406,0.0,-0.006184562,0.40013555,0.35369232,0.0,-0.40955967,0.12801696,1633.4799,778.0586,802.6374,755.4945,978.315,-0.1529541015625,0.06298828125,0.9677734375,2.34771728515625,-6.9683837890625,11.746063232421877,1.0,2.0,4.0,1.0,2.0,80.0,event
09:40:35.966,0.5119846,0.0,0.5517983,0.8900826,0.10635216,0.0,0.018640414,0.5212574,0.121369965,0.0,0.26467758,0.1122093,0.6772406,0.0,-0.006184562,0.40013555,0.35369232,0.0,-0.40955967,0.12801696,1400.1831,745.82416,823.1868,646.7033,852.6007,-0.1529541015625,0.06298828125,0.9677734375,2.34771728515625,-6.9683837890625,11.746063232421877,1.0,2.0,4.0,1.0,2.0,80.0,event
09:40:35.967,0.5119846,0.0,0.5517983,0.8900826,0.10635216,0.0,0.018640414,0.5212574,0.121369965,0.0,0.26467758,0.1122093,0.6772406,0.0,-0.006184562,0.40013555,0.35369232,0.0,-0.40955967,0.12801696,1341.7583,1190.6593,812.71063,669.2674,662.4176,-0.1529541015625,0.06298828125,0.9677734375,2.34771728515625,-6.9683837890625,11.746063232421877,1.0,2.0,4.0,1.0,2.0,80.0,event
09:40:35.968,0.5119846,0.0,0.5517983,0.8900826,0.10635216,0.0,0.018640414,0.5212574,0.121369965,0.0,0.26467758,0.1122093,0.6772406,0.0,-0.006184562,0.40013555,0.35369232,0.0,-0.40955967,0.12801696,1479.9634,943.2601,810.293,718.022,724.87177,-0.1529541015625,0.06298828125,0.9677734375,2.34771728515625,-6.9683837890625,11.746063232421877,1.0,2.0,4.0,1.0,2.0,80.0,event
09:40:35.968,0.5119846,0.0,0.5517983,0.8900826,0.10635216,0.0,0.018640414,0.5212574,0.121369965,0.0,0.26467758,0.1122093,0.6772406,0.0,-0.006184562,0.40013555,0.35369232,0.0,-0.40955967,0.12801696,1572.6373,931.978,814.7253,742.6007,811.0989,-0.1529541015625,0.06298828125,0.9677734375,2.34771728515625,-6.9683837890625,11.746063232421877,1.0,2.0,4.0,1.0,2.0,80.0,event
09:40:36.026,0.5119846,0.0,0.5517983,0.8900826,0.10635216,0.0,0.018640414,0.5212574,0.121369965,0.0,0.26467758,0.1122093,0.6772406,0.0,-0.006184562,0.40013555,0.35369232,0.0,-0.40955967,0.12801696,1385.6776,1202.7472,815.9341,718.022,720.0366,-0.170166015625,0.06524658203125,0.9703369140625,3.043060302734375,-5.644989013671875,18.61724853515625,1.0,2.0,4.0,1.0,2.0,80.0,event
09:40:36.027,0.5119846,0.0,0.5517983,0.8900826,0.10635216,0.0,0.018640414,0.5212574,0.121369965,0.0,0.26467758,0.1122093,0.6772406,0.0,-0.006184562,0.40013555,0.35369232,0.0,-0.40955967,0.12801696,1056.8865,1163.2601,809.89014,706.7399,671.28204,-0.170166015625,0.06524658203125,0.9703369140625,3.043060302734375,-5.644989013671875,18.61724853515625,1.0,2.0,4.0,1.0,2.0,80.0,event
09:40:36.028,0.5119846,0.0,0.5517983,0.8900826,0.10635216,0.0,0.018640414,0.5212574,0.121369965,0.0,0.26467758,0.1122093,0.6772406,0.0,-0.006184562,0.40013555,0.35369232,0.0,-0.40955967,0.12801696,970.2564,880.80585,811.50183,725.6777,746.2271,-0.170166015625,0.06524658203125,0.9703369140625,3.043060302734375,-5.644989013671875,18.61724853515625,1.0,2.0,4.0,1.0,2.0,80.0,event
09:40:36.029,0.5119846,0.0,0.5517983,0.8900826,0.10635216,0.0,0.018640414,0.5212574,0.121369965,0.0,0.26467758,0.1122093,0.6772406,0.0,-0.006184562,0.40013555,0.35369232,0.0,-0.40955967,0.12801696,1084.2858,946.08057,822.7839,749.45056,735.7509,-0.170166015625,0.06524658203125,0.9703369140625,3.043060302734375,-5.644989013671875,18.61724853515625,1.0,2.0,4.0,1.0,2.0,80.0,event
09:40:36.029,0.5119846,0.0,0.5517983,0.8900826,0.10635216,0.0,0.018640414,0.5212574,0.121369965,0.0,0.26467758,0.1122093,0.6772406,0.0,-0.006184562,0.40013555,0.35369232,0.0,-0.40955967,0.12801696,1177.7656,1207.9854,821.978,759.12085,746.63007,-0.170166015625,0.06524658203125,0.9703369140625,3.043060302734375,-5.644989013671875,18.61724853515625,1.0,2.0,4.0,1.0,2.0,80.0,event
09:40:36.030,0.5119846,0.0,0.5517983,0.8900826,0.10635216,0.0,0.018640414,0.5212574,0.121369965,0.0,0.26467758,0.1122093,0.6772406,0.0,-0.006184562,0.40013555,0.35369232,0.0,-0.40955967,0.12801696,1065.751,1124.9817,810.696,724.4689,846.9597,-0.170166015625,0.06524658203125,0.9703369140625,3.043060302734375,-5.644989013671875,18.61724853515625,1.0,2.0,4.0,1.0,2.0,80.0,event
09:40:36.030,0.5119846,0.0,0.5517983,0.8900826,0.10635216,0.0,0.018640414,0.5212574,0.121369965,0.0,0.26467758,0.1122093,0.6772406,0.0,-0.006184562,0.40013555,0.35369232,0.0,-0.40955967,0.12801696,760.7326,473.44324,803.0403,703.91943,1073.4066,-0.170166015625,0.06524658203125,0.9703369140625,3.043060302734375,-5.644989013671875,18.61724853515625,1.0,2.0,4.0,1.0,2.0,80.0,event
09:40:36.031,0.5119846,0.0,0.53621125,0.8900826,0.10635216,0.0,0.004572094,0.5212574,0.121369965,0.0,0.26645038,0.1122093,0.6772406,0.0,-0.0022427633,0.40013555,0.35369232,0.0,-0.40596858,0.12801696,645.89746,176.48352,813.91943,710.7692,1062.1245,-0.170166015625,0.06524658203125,0.9703369140625,3.043060302734375,-5.644989013671875,18.61724853515625,1.0,2.0,4.0,1.0,2.0,80.0,event
09:40:36.033,,,,,,,,,,,,,,,,,,,,,,,,,,,,,,,,,,,,,,jaw_clench
09:40:36.034,0.5119846,0.0,0.53621125,0.8900826,0.10635216,0.0,0.004572094,0.5212574,0.121369965,0.0,0.26645038,0.1122093,0.6772406,0.0,-0.0022427633,0.40013555,0.35369232,0.0,-0.40596858,0.12801696,801.02563,958.5714,816.7399,719.6337,727.6923,-0.170166015625,0.06524658203125,0.9703369140625,3.043060302734375,-5.644989013671875,18.61724853515625,1.0,2.0,4.0,1.0,2.0,80.0,event
09:40:36.034,0.5119846,0.0,0.53621125,0.8900826,0.10635216,0.0,0.004572094,0.5212574,0.121369965,0.0,0.26645038,0.1122093,0.6772406,0.0,-0.0022427633,0.40013555,0.35369232,0.0,-0.40596858,0.12801696,964.21246,1236.9963,801.4286,762.3443,755.89746,-0.170166015625,0.06524658203125,0.9703369140625,3.043060302734375,-5.644989013671875,18.61724853515625,1.0,2.0,4.0,1.0,2.0,80.0,event
09:40:36.035,0.5119846,0.0,0.53621125,0.8900826,0.10635216,0.0,0.004572094,0.5212574,0.121369965,0.0,0.26645038,0.1122093,0.6772406,0.0,-0.0022427633,0.40013555,0.35369232,0.0,-0.40596858,0.12801696,907.8022,917.47253,806.26373,802.6374,873.95605,-0.170166015625,0.06524658203125,0.9703369140625,3.043060302734375,-5.644989013671875,18.61724853515625,1.0,2.0,4.0,1.0,2.0,80.0,event
09:40:36.035,0.5119846,0.0,0.53621125,0.8900826,0.10635216,0.0,0.004572094,0.5212574,0.121369965,0.0,0.26645038,0.1122093,0.6772406,0.0,-0.0022427633,0.40013555,0.35369232,0.0,-0.40596858,0.12801696,625.34796,971.06226,811.9048,743.00366,786.52014,-0.170166015625,0.06524658203125,0.9703369140625,3.043060302734375,-5.644989013671875,18.61724853515625,1.0,2.0,4.0,1.0,2.0,80.0,event
09:40:36.075,0.5119846,0.0,0.53621125,0.8900826,0.10635216,0.0,0.004572094,0.5212574,0.121369965,0.0,0.26645038,0.1122093,0.6772406,0.0,-0.0022427633,0.40013555,0.35369232,0.0,-0.40596858,0.12801696,476.66666,1161.2454,807.47253,691.02563,644.68866,-0.19403076171875,0.060546875,0.9725341796875,3.8580322265625,-3.33465576171875,16.209716796875,1.0,2.0,4.0,1.0,2.0,80.0,event
09:40:36.076,0.5119846,0.0,0.53621125,0.8900826,0.10635216,0.0,0.004572094,0.5212574,0.121369965,0.0,0.26645038,0.1122093,0.6772406,0.0,-0.0022427633,0.40013555,0.35369232,0.0,-0.40596858,0.12801696,598.7546,1063.7362,810.293,732.52747,718.022,-0.19403076171875,0.060546875,0.9725341796875,3.8580322265625,-3.33465576171875,16.209716796875,1.0,2.0,4.0,1.0,2.0,80.0,event
09:40:36.077,0.5119846,0.0,0.53621125,0.8900826,0.10635216,0.0,0.004572094,0.5212574,0.121369965,0.0,0.26645038,0.1122093,0.6772406,0.0,-0.0022427633,0.40013555,0.35369232,0.0,-0.40596858,0.12801696,792.5641,1012.96704,817.9487,758.315,813.91943,-0.19403076171875,0.060546875,0.9725341796875,3.8580322265625,-3.33465576171875,16.209716796875,1.0,2.0,4.0,1.0,2.0,80.0,event
09:40:36.078,0.5119846,0.0,0.53621125,0.8900826,0.10635216,0.0,0.004572094,0.5212574,0.121369965,0.0,0.26645038,0.1122093,0.6772406,0.0,-0.0022427633,0.40013555,0.35369232,0.0,-0.40596858,0.12801696,761.53845,1184.2124,815.12823,733.73627,757.50916,-0.19403076171875,0.060546875,0.9725341796875,3.8580322265625,-3.33465576171875,16.209716796875,1.0,2.0,4.0,1.0,2.0,80.0,event
09:40:36.079,0.5119846,0.0,0.53621125,0.8900826,0.10635216,0.0,0.004572094,0.5212574,0.121369965,0.0,0.26645038,0.1122093,0.6772406,0.0,-0.0022427633,0.40013555,0.35369232,0.0,-0.40596858,0.12801696,476.26373,1201.5385,809.4872,710.7692,672.0879,-0.19403076171875,0.060546875,0.9725341796875,3.8580322265625,-3.33465576171875,16.209716796875,1.0,2.0,4.0,1.0,2.0,80.0,event
09:40:36.079,0.5119846,0.0,0.53621125,0.8900826,0.10635216,0.0,0.004572094,0.5212574,0.121369965,0.0,0.26645038,0.1122093,0.6772406,0.0,-0.0022427633,0.40013555,0.35369232,0.0,-0.40596858,0.12801696,253.44322,730.10986,805.8608,694.2491,779.67035,-0.19403076171875,0.060546875,0.9725341796875,3.8580322265625,-3.33465576171875,16.209716796875,1.0,2.0,4.0,1.0,2.0,80.0,event
09:40:36.080,0.5119846,0.0,0.53621125,0.8900826,0.10635216,0.0,0.004572094,0.5212574,0.121369965,0.0,0.26645038,0.1122093,0.6772406,0.0,-0.0022427633,0.40013555,0.35369232,0.0,-0.40596858,0.12801696,317.91208,359.81686,814.7253,695.05493,936.0073,-0.19403076171875,0.060546875,0.9725341796875,3.8580322265625,-3.33465576171875,16.209716796875,1.0,2.0,4.0,1.0,2.0,80.0,event
09:40:36.081,0.5119846,0.0,0.53621125,0.8900826,0.10635216,0.0,0.004572094,0.5212574,0.121369965,0.0,0.26645038,0.1122093,0.6772406,0.0,-0.0022427633,0.40013555,0.35369232,0.0,-0.40596858,0.12801696,641.4652,1191.8682,814.7253,766.3736,707.5458,-0.19403076171875,0.060546875,0.9725341796875,3.8580322265625,-3.33465576171875,16.209716796875,1.0,2.0,4.0,1.0,2.0,80.0,event
09:40:36.081,0.5119846,0.0,0.53621125,0.8900826,0.10635216,0.0,0.004572094,0.5212574,0.121369965,0.0,0.26645038,0.1122093,0.6772406,0.0,-0.0022427633,0.40013555,0.35369232,0.0,-0.40596858,0.12801696,589.0842,902.5641,820.3663,749.45056,794.9817,-0.19403076171875,0.060546875,0.9725341796875,3.8580322265625,-3.33465576171875,16.209716796875,1.0,2.0,4.0,1.0,2.0,80.0,event
09:40:36.082,0.5119846,0.0,0.53621125,0.8900826,0.10635216,0.0,0.004572094,0.5212574,0.121369965,0.0,0.26645038,0.1122093,0.6772406,0.0,-0.0022427633,0.40013555,0.35369232,0.0,-0.40596858,0.12801696,345.31134,689.011,812.3077,693.8461,869.92676,-0.19403076171875,0.060546875,0.9725341796875,3.8580322265625,-3.33465576171875,16.209716796875,1.0,2.0,4.0,1.0,2.0,80.0,event
09:40:36.083,0.5119846,0.0,0.53621125,0.8900826,0.10635216,0.0,0.004572094,0.5212574,0.121369965,0.0,0.26645038,0.1122093,0.6772406,0.0,-0.0022427633,0.40013555,0.35369232,0.0,-0.40596858,0.12801696,143.84616,405.75092,822.7839,656.3736,921.9048,-0.19403076171875,0.060546875,0.9725341796875,3.8580322265625,-3.33465576171875,16.209716796875,1.0,2.0,4.0,1.0,2.0,80.0,event
09:40:36.084,0.5119846,0.0,0.53621125,0.8900826,0.10635216,0.0,0.004572094,0.5212574,0.121369965,0.0,0.26645038,0.1122093,0.6772406,0.0,-0.0022427633,0.40013555,0.35369232,0.0,-0.40596858,0.12801696,228.05861,987.5824,839.707,651.9414,692.23444,-0.19403076171875,0.060546875,0.9725341796875,3.8580322265625,-3.33465576171875,16.209716796875,1.0,2.0,4.0,1.0,2.0,80.0,event
09:40:36.125,0.5119846,0.0,0.53621125,0.8900826,0.10635216,0.0,0.004572094,0.5212574,0.121369965,0.0,0.26645038,0.1122093,0.6772406,0.0,-0.0022427633,0.40013555,0.35369232,0.0,-0.40596858,0.12801696,356.1905,1332.4908,830.4396,647.1062,697.8755,-0.1612548828125,0.0633544921875,0.99737548828125,1.502838134765625,4.8748779296875,11.52923583984375,1.0,2.0,4.0,1.0,2.0,80.0,event
09:40:36.126,0.5119846,0.0,0.53621125,0.8900826,0.10635216,0.0,0.004572094,0.5212574,0.121369965,0.0,0.26645038,0.1122093,0.6772406,0.0,-0.0022427633,0.40013555,0.35369232,0.0,-0.40596858,0.12801696,406.15384,1176.9597,830.0366,613.663,780.07324,-0.1612548828125,0.0633544921875,0.99737548828125,1.502838134765625,4.8748779296875,11.52923583984375,1.0,2.0,4.0,1.0,2.0,80.0,event
09:40:36.127,0.5119846,0.0,0.53621125,0.8900826,0.10635216,0.0,0.004572094,0.5212574,0.121369965,0.0,0.26645038,0.1122093,0.6772406,0.0,-0.0022427633,0.40013555,0.35369232,0.0,-0.40596858,0.12801696,304.6154,1153.9927,840.10986,587.47253,719.2308,-0.1612548828125,0.0633544921875,0.99737548828125,1.502838134765625,4.8748779296875,11.52923583984375,1.0,2.0,4.0,1.0,2.0,80.0,event
09:40:36.128,0.5119846,0.0,0.53621125,0.8900826,0.10635216,0.0,0.004572094,0.5212574,0.121369965,0.0,0.26645038,0.1122093,0.6772406,0.0,-0.0022427633,0.40013555,0.35369232,0.0,-0.40596858,0.12801696,141.42857,1254.3224,850.989,612.8571,662.4176,-0.1612548828125,0.0633544921875,0.99737548828125,1.502838134765625,4.8748779296875,11.52923583984375,1.0,2.0,4.0,1.0,2.0,80.0,event
09:40:36.129,0.5119846,0.0,0.53621125,0.8900826,0.10635216,0.0,0.004572094,0.5212574,0.121369965,0.0,0.26645038,0.1122093,0.6772406,0.0,-0.0022427633,0.40013555,0.35369232,0.0,-0.40596858,0.12801696,171.24542,1252.7106,858.24176,597.9487,644.2857,-0.1612548828125,0.0633544921875,0.99737548828125,1.502838134765625,4.8748779296875,11.52923583984375,1.0,2.0,4.0,1.0,2.0,80.0,event
09:40:36.129,0.5119846,0.0,0.53621125,0.8900826,0.10635216,0.0,0.004572094,0.5212574,0.121369965,0.0,0.26645038,0.1122093,0.6772406,0.0,-0.0022427633,0.40013555,0.35369232,0.0,-0.40596858,0.12801696,296.15384,1051.2454,870.7326,592.3077,798.60803,-0.1612548828125,0.0633544921875,0.99737548828125,1.502838134765625,4.8748779296875,11.52923583984375,1.0,2.0,4.0,1.0,2.0,80.0,event
09:40:36.130,0.5119846,0.0,0.53621125,0.8900826,0.10635216,0.0,0.004572094,0.5212574,0.121369965,0.0,0.26645038,0.1122093,0.6772406,0.0,-0.0022427633,0.40013555,0.35369232,0.0,-0.40596858,0.12801696,325.9707,1021.02563,887.6557,564.90845,933.5897,-0.1612548828125,0.0633544921875,0.99737548828125,1.502838134765625,4.8748779296875,11.52923583984375,1.0,2.0,4.0,1.0,2.0,80.0,event
09:40:36.131,0.5119846,0.0,0.53621125,0.8900826,0.10635216,0.0,0.004572094,0.5212574,0.121369965,0.0,0.26645038,0.1122093,0.6772406,0.0,-0.0022427633,0.40013555,0.35369232,0.0,-0.40596858,0.12801696,126.11722,1478.7546,901.3553,517.76556,713.1868,-0.1612548828125,0.0633544921875,0.99737548828125,1.502838134765625,4.8748779296875,11.52923583984375,1.0,2.0,4.0,1.0,2.0,80.0,event
09:40:36.131,0.5119846,0.0,0.53621125,0.8900826,0.10635216,0.0,0.004572094,0.5212574,0.121369965,0.0,0.26645038,0.1122093,0.6772406,0.0,-0.0022427633,0.40013555,0.35369232,0.0,-0.40596858,0.12801696,259.8901,1350.6227,901.3553,526.2271,829.6337,-0.1612548828125,0.0633544921875,0.99737548828125,1.502838134765625,4.8748779296875,11.52923583984375,1.0,2.0,4.0,1.0,2.0,80.0,event
09:40:36.132,0.5119846,0.0,0.5176958,0.8900826,0.10635216,0.0,-0.01904332,0.5212574,0.121369965,0.0,0.25245064,0.1122093,0.6772406,0.0,-0.0015672062,0.40013555,0.35369232,0.0,-0.40104532,0.12801696,94.28571,935.6044,916.26373,465.3846,864.2857,-0.1612548828125,0.0633544921875,0.99737548828125,1.502838134765625,4.8748779296875,11.52923583984375,1.0,2.0,4.0,1.0,2.0,80.0,event
09:40:36.137,0.5119846,0.0,0.5176958,0.8900826,0.10635216,0.0,-0.01904332,0.5212574,0.121369965,0.0,0.25245064,0.1122093,0.6772406,0.0,-0.0015672062,0.40013555,0.35369232,0.0,-0.40104532,0.12801696,263.9194,1111.6849,943.663,464.9817,888.46155,-0.1612548828125,0.0633544921875,0.99737548828125,1.502838134765625,4.8748779296875,11.52923583984375,1.0,2.0,4.0,1.0,2.0,80.0,event
09:40:36.138,0.5119846,0.0,0.5176958,0.8900826,0.10635216,0.0,-0.01904332,0.5212574,0.121369965,0.0,0.25245064,0.1122093,0.6772406,0.0,-0.0015672062,0.40013555,0.35369232,0.0,-0.40104532,0.12801696,452.49084,49.15751,942.8571,454.10257,786.9231,-0.1612548828125,0.0633544921875,0.99737548828125,1.502838134765625,4.8748779296875,11.52923583984375,1.0,2.0,4.0,1.0,2.0,80.0,event
09:40:36.168,0.5119846,0.0,0.5176958,0.8900826,0.10635216,0.0,-0.01904332,0.5212574,0.121369965,0.0,0.25245064,0.1122093,0.6772406,0.0,-0.0015672062,0.40013555,0.35369232,0.0,-0.40104532,0.12801696,362.23444,1606.8865,944.4689,426.7033,862.674,-0.22119140625,0.05731201171875,0.955322265625,6.602020263671875,0.007476806640625,4.373931884765625,1.0,2.0,4.0,1.0,2.0,80.0,event
09:40:36.169,0.5119846,0.0,0.5176958,0.8900826,0.10635216,0.0,-0.01904332,0.5212574,0.121369965,0.0,0.25245064,0.1122093,0.6772406,0.0,-0.0015672062,0.40013555,0.35369232,0.0,-0.40104532,0.12801696,162.38095,1586.7399,954.94507,434.7619,880.0,-0.22119140625,0.05731201171875,0.955322265625,6.602020263671875,0.007476806640625,4.373931884765625,1.0,2.0,4.0,1.0,2.0,80.0,event
09:40:36.170,0.5119846,0.0,0.5176958,0.8900826,0.10635216,0.0,-0.01904332,0.5212574,0.121369965,0.0,0.25245064,0.1122093,0.6772406,0.0,-0.0015672062,0.40013555,0.35369232,0.0,-0.40104532,0.12801696,182.9304,1623.8096,968.24176,446.04395,836.8865,-0.22119140625,0.05731201171875,0.955322265625,6.602020263671875,0.007476806640625,4.373931884765625,1.0,2.0,4.0,1.0,2.0,80.0,event
09:40:36.171,0.5119846,0.0,0.5176958,0.8900826,0.10635216,0.0,-0.01904332,0.5212574,0.121369965,0.0,0.25245064,0.1122093,0.6772406,0.0,-0.0015672062,0.40013555,0.35369232,0.0,-0.40104532,0.12801696,446.04395,1632.674,973.0769,477.0696,752.674,-0.22119140625,0.05731201171875,0.955322265625,6.602020263671875,0.007476806640625,4.373931884765625,1.0,2.0,4.0,1.0,2.0,80.0,event
09:40:36.172,0.5119846,0.0,0.5176958,0.8900826,0.10635216,0.0,-0.01904332,0.5212574,0.121369965,0.0,0.25245064,0.1122093,0.6772406,0.0,-0.0015672062,0.40013555,0.35369232,0.0,-0.40104532,0.12801696,706.7399,1625.8242,981.9414,522.6007,814.7253,-0.22119140625,0.05731201171875,0.955322265625,6.602020263671875,0.007476806640625,4.373931884765625,1.0,2.0,4.0,1.0,2.0,80.0,event
09:40:36.173,0.5119846,0.0,0.5176958,0.8900826,0.10635216,0.0,-0.01904332,0.5212574,0.121369965,0.0,0.25245064,0.1122093,0.6772406,0.0,-0.0015672062,0.40013555,0.35369232,0.0,-0.40104532,0.12801696,633.4066,1629.0476,996.4469,519.7802,944.0659,-0.22119140625,0.05731201171875,0.955322265625,6.602020263671875,0.007476806640625,4.373931884765625,1.0,2.0,4.0,1.0,2.0,80.0,event
09:40:36.174,0.5119846,0.0,0.5176958,0.8900826,0.10635216,0.0,-0.01904332,0.5212574,0.121369965,0.0,0.25245064,0.1122093,0.6772406,0.0,-0.0015672062,0.40013555,0.35369232,0.0,-0.40104532,0.12801696,377.54578,1628.2417,1027.4725,420.2564,851.39197,-0.22119140625,0.05731201171875,0.955322265625,6.602020263671875,0.007476806640625,4.373931884765625,1.0,2.0,4.0,1.0,2.0,80.0,event
09:40:36.176,0.5119846,0.0,0.5176958,0.8900826,0.10635216,0.0,-0.01904332,0.5212574,0.121369965,0.0,0.25245064,0.1122093,0.6772406,0.0,-0.0015672062,0.40013555,0.35369232,0.0,-0.40104532,0.12801696,365.4579,1628.2417,1053.2601,356.99634,692.6374,-0.22119140625,0.05731201171875,0.955322265625,6.602020263671875,0.007476806640625,4.373931884765625,1.0,2.0,4.0,1.0,2.0,80.0,event
09:40:36.177,0.5119846,0.0,0.5176958,0.8900826,0.10635216,0.0,-0.01904332,0.5212574,0.121369965,0.0,0.25245064,0.1122093,0.6772406,0.0,-0.0015672062,0.40013555,0.35369232,0.0,-0.40104532,0.12801696,658.7912,1628.6447,1067.7656,452.49084,810.696,-0.22119140625,0.05731201171875,0.955322265625,6.602020263671875,0.007476806640625,4.373931884765625,1.0,2.0,4.0,1.0,2.0,80.0,event
09:40:36.178,0.5119846,0.0,0.5176958,0.8900826,0.10635216,0.0,-0.01904332,0.5212574,0.121369965,0.0,0.25245064,0.1122093,0.6772406,0.0,-0.0015672062,0.40013555,0.35369232,0.0,-0.40104532,0.12801696,903.7729,1628.6447,1086.7032,493.58975,1010.54944,-0.22119140625,0.05731201171875,0.955322265625,6.602020263671875,0.007476806640625,4.373931884765625,1.0,2.0,4.0,1.0,2.0,80.0,event
09:40:36.179,0.5119846,0.0,0.5176958,0.8900826,0.10635216,0.0,-0.01904332,0.5212574,0.121369965,0.0,0.25245064,0.1122093,0.6772406,0.0,-0.0015672062,0.40013555,0.35369232,0.0,-0.40104532,0.12801696,811.9048,1628.2417,1087.9121,414.6154,822.7839,-0.22119140625,0.05731201171875,0.955322265625,6.602020263671875,0.007476806640625,4.373931884765625,1.0,2.0,4.0,1.0,2.0,80.0,event
09:40:36.180,0.5119846,0.0,0.5176958,0.8900826,0.10635216,0.0,-0.01904332,0.5212574,0.121369965,0.0,0.25245064,0.1122093,0.6772406,0.0,-0.0015672062,0.40013555,0.35369232,0.0,-0.40104532,0.12801696,546.3736,1628.2417,1067.7656,344.90842,638.24176,-0.22119140625,0.05731201171875,0.955322265625,6.602020263671875,0.007476806640625,4.373931884765625,1.0,2.0,4.0,1.0,2.0,80.0,event
09:40:36.212,0.5119846,0.0,0.5176958,0.8900826,0.10635216,0.0,-0.01904332,0.5212574,0.121369965,0.0,0.25245064,0.1122093,0.6772406,0.0,-0.0015672062,0.40013555,0.35369232,0.0,-0.40104532,0.12801696,475.8608,1628.6447,1043.9927,337.65567,706.337,-0.22119140625,0.05731201171875,0.955322265625,6.602020263671875,0.007476806640625,4.373931884765625,1.0,2.0,4.0,1.0,2.0,80.0,event
09:40:36.213,0.5119846,0.0,0.5176958,0.8900826,0.10635216,0.0,-0.01904332,0.5212574,0.121369965,0.0,0.25245064,0.1122093,0.6772406,0.0,-0.0015672062,0.40013555,0.35369232,0.0,-0.40104532,0.12801696,624.5421,1628.2417,1010.14655,401.72162,733.3333,-0.22119140625,0.05731201171875,0.955322265625,6.602020263671875,0.007476806640625,4.373931884765625,1.0,2.0,4.0,1.0,2.0,80.0,event
09:40:36.214,0.5119846,0.0,0.5176958,0.8900826,0.10635216,0.0,-0.01904332,0.5212574,0.121369965,0.0,0.25245064,0.1122093,0.6772406,0.0,-0.0015672062,0.40013555,0.35369232,0.0,-0.40104532,0.12801696,811.50183,1628.2417,973.0769,444.83517,813.91943,-0.22119140625,0.05731201171875,0.955322265625,6.602020263671875,0.007476806640625,4.373931884765625,1.0,2.0,4.0,1.0,2.0,80.0,event
09:40:36.215,0.5119846,0.0,0.5176958,0.8900826,0.10635216,0.0,-0.01904332,0.5212574,0.121369965,0.0,0.25245064,0.1122093,0.6772406,0.0,-0.0015672062,0.40013555,0.35369232,0.0,-0.40104532,0.12801696,801.8315,1628.2417,945.2747,435.16483,866.30035,-0.22119140625,0.05731201171875,0.955322265625,6.602020263671875,0.007476806640625,4.373931884765625,1.0,2.0,4.0,1.0,2.0,80.0,event
09:40:36.215,0.5119846,0.0,0.5176958,0.8900826,0.10635216,0.0,-0.01904332,0.5212574,0.121369965,0.0,0.25245064,0.1122093,0.6772406,0.0,-0.0015672062,0.40013555,0.35369232,0.0,-0.40104532,0.12801696,557.6557,1628.2417,893.2967,403.73627,864.2857,-0.22119140625,0.05731201171875,0.955322265625,6.602020263671875,0.007476806640625,4.373931884765625,1.0,2.0,4.0,1.0,2.0,80.0,event
09:40:36.216,0.5119846,0.0,0.5176958,0.8900826,0.10635216,0.0,-0.01904332,0.5212574,0.121369965,0.0,0.25245064,0.1122093,0.6772406,0.0,-0.0015672062,0.40013555,0.35369232,0.0,-0.40104532,0.12801696,477.87546,1628.2417,811.50183,427.10623,835.6777,-0.22119140625,0.05731201171875,0.955322265625,6.602020263671875,0.007476806640625,4.373931884765625,1.0,2.0,4.0,1.0,2.0,80.0,event
09:40:36.216,0.5119846,0.0,0.5176958,0.8900826,0.10635216,0.0,-0.01904332,0.5212574,0.121369965,0.0,0.25245064,0.1122093,0.6772406,0.0,-0.0015672062,0.40013555,0.35369232,0.0,-0.40104532,0.12801696,640.65936,1628.2417,769.59705,505.67764,805.4579,-0.22119140625,0.05731201171875,0.955322265625,6.602020263671875,0.007476806640625,4.373931884765625,1.0,2.0,4.0,1.0,2.0,80.0,event
09:40:36.217,0.5119846,0.0,0.5176958,0.8900826,0.10635216,0.0,-0.01904332,0.5212574,0.121369965,0.0,0.25245064,0.1122093,0.6772406,0.0,-0.0015672062,0.40013555,0.35369232,0.0,-0.40104532,0.12801696,833.2601,1628.2417,755.09155,551.6117,821.978,-0.22119140625,0.05731201171875,0.955322265625,6.602020263671875,0.007476806640625,4.373931884765625,1.0,2.0,4.0,1.0,2.0,80.0,event
09:40:36.217,0.5119846,0.0,0.5176958,0.8900826,0.10635216,0.0,-0.01904332,0.5212574,0.121369965,0.0,0.25245064,0.1122093,0.6772406,0.0,-0.0015672062,0.40013555,0.35369232,0.0,-0.40104532,0.12801696,804.2491,1628.2417,732.9304,556.04395,1019.41394,-0.22119140625,0.05731201171875,0.955322265625,6.602020263671875,0.007476806640625,4.373931884765625,1.0,2.0,4.0,1.0,2.0,80.0,event
09:40:36.218,0.5119846,0.0,0.5176958,0.8900826,0.10635216,0.0,-0.01904332,0.5212574,0.121369965,0.0,0.25245064,0.1122093,0.6772406,0.0,-0.0015672062,0.40013555,0.35369232,0.0,-0.40104532,0.12801696,603.5897,1628.2417,738.5714,611.6484,1085.4945,-0.22119140625,0.05731201171875,0.955322265625,6.602020263671875,0.007476806640625,4.373931884765625,1.0,2.0,4.0,1.0,2.0,80.0,event
09:40:36.219,0.5119846,0.0,0.5176958,0.8900826,0.10635216,0.0,-0.01904332,0.5212574,0.121369965,0.0,0.25245064,0.1122093,0.6772406,0.0,-0.0015672062,0.40013555,0.35369232,0.0,-0.40104532,0.12801696,471.8315,1628.2417,742.1978,612.4542,757.9121,-0.22119140625,0.05731201171875,0.955322265625,6.602020263671875,0.007476806640625,4.373931884765625,1.0,2.0,4.0,1.0,2.0,80.0,event
09:40:36.219,0.5119846,0.0,0.48830456,0.8900826,0.10635216,0.0,-0.05138925,0.5212574,0.121369965,0.0,0.19059798,0.1122093,0.6772406,0.0,-0.028769674,0.40013555,0.35369232,0.0,-0.4161267,0.12801696,512.1245,1628.2417,731.31866,572.96704,726.08057,-0.22119140625,0.05731201171875,0.955322265625,6.602020263671875,0.007476806640625,4.373931884765625,1.0,2.0,4.0,1.0,2.0,80.0,event
09:40:36.222,,,,,,,,,,,,,,,,,,,,,,,,,,,,,,,,,,,,,,jaw_clench
09:40:36.249,0.5119846,0.0,0.48830456,0.8900826,0.10635216,0.0,-0.05138925,0.5212574,0.121369965,0.0,0.19059798,0.1122093,0.6772406,0.0,-0.028769674,0.40013555,0.35369232,0.0,-0.4161267,0.12801696,689.41394,1628.2417,738.5714,630.18317,784.5055,-0.194580078125,0.0863037109375,0.99395751953125,3.671112060546875,-4.074859619140625,-0.6280517578125,1.0,2.0,4.0,1.0,2.0,80.0,event
09:40:36.250,0.5119846,0.0,0.48830456,0.8900826,0.10635216,0.0,-0.05138925,0.5212574,0.121369965,0.0,0.19059798,0.1122093,0.6772406,0.0,-0.028769674,0.40013555,0.35369232,0.0,-0.4161267,0.12801696,744.61536,1628.2417,737.76556,685.78754,765.56775,-0.194580078125,0.0863037109375,0.99395751953125,3.671112060546875,-4.074859619140625,-0.6280517578125,1.0,2.0,4.0,1.0,2.0,80.0,event
09:40:36.252,0.5119846,0.0,0.48830456,0.8900826,0.10635216,0.0,-0.05138925,0.5212574,0.121369965,0.0,0.19059798,0.1122093,0.6772406,0.0,-0.028769674,0.40013555,0.35369232,0.0,-0.4161267,0.12801696,564.10254,1628.2417,724.0659,679.34064,728.0952,-0.194580078125,0.0863037109375,0.99395751953125,3.671112060546875,-4.074859619140625,-0.6280517578125,1.0,2.0,4.0,1.0,2.0,80.0,event
09:40:36.252,0.5119846,0.0,0.48830456,0.8900826,0.10635216,0.0,-0.05138925,0.5212574,0.121369965,0.0,0.19059798,0.1122093,0.6772406,0.0,-0.028769674,0.40013555,0.35369232,0.0,-0.4161267,0.12801696,410.18314,1628.2417,718.4249,669.2674,720.84247,-0.194580078125,0.0863037109375,0.99395751953125,3.671112060546875,-4.074859619140625,-0.6280517578125,1.0,2.0,4.0,1.0,2.0,80.0,event
09:40:36.253,0.5119846,0.0,0.48830456,0.8900826,0.10635216,0.0,-0.05138925,0.5212574,0.121369965,0.0,0.19059798,0.1122093,0.6772406,0.0,-0.028769674,0.40013555,0.35369232,0.0,-0.4161267,0.12801696,520.58606,1628.2417,726.8865,693.8461,740.989,-0.194580078125,0.0863037109375,0.99395751953125,3.671112060546875,-4.074859619140625,-0.6280517578125,1.0,2.0,4.0,1.0,2.0,80.0,event
09:40:36.254,0.5119846,0.0,0.48830456,0.8900826,0.10635216,0.0,-0.05138925,0.5212574,0.121369965,0.0,0.19059798,0.1122093,0.6772406,0.0,-0.028769674,0.40013555,0.35369232,0.0,-0.4161267,0.12801696,703.1135,1628.2417,732.52747,716.4103,823.9927,-0.194580078125,0.0863037109375,0.99395751953125,3.671112060546875,-4.074859619140625,-0.6280517578125,1.0,2.0,4.0,1.0,2.0,80.0,event
09:40:36.255,0.5119846,0.0,0.48830456,0.8900826,0.10635216,0.0,-0.05138925,0.5212574,0.121369965,0.0,0.19059798,0.1122093,0.6772406,0.0,-0.028769674,0.40013555,0.35369232,0.0,-0.4161267,0.12801696,735.34796,1628.2417,732.9304,738.97437,921.9048,-0.194580078125,0.0863037109375,0.99395751953125,3.671112060546875,-4.074859619140625,-0.6280517578125,1.0,2.0,4.0,1.0,2.0,80.0,event
09:40:36.256,0.5119846,0.0,0.48830456,0.8900826,0.10635216,0.0,-0.05138925,0.5212574,0.121369965,0.0,0.19059798,0.1122093,0.6772406,0.0,-0.028769674,0.40013555,0.35369232,0.0,-0.4161267,0.12801696,564.5055,1628.2417,722.4542,731.31866,942.8571,-0.194580078125,0.0863037109375,0.99395751953125,3.671112060546875,-4.074859619140625,-0.6280517578125,1.0,2.0,4.0,1.0,2.0,80.0,event
09:40:36.257,0.5119846,0.0,0.48830456,0.8900826,0.10635216,0.0,-0.05138925,0.5212574,0.121369965,0.0,0.19059798,0.1122093,0.6772406,0.0,-0.028769674,0.40013555,0.35369232,0.0,-0.4161267,0.12801696,388.82785,1628.2417,734.1392,706.7399,1037.5458,-0.194580078125,0.0863037109375,0.99395751953125,3.671112060546875,-4.074859619140625,-0.6280517578125,1.0,2.0,4.0,1.0,2.0,80.0,event
09:40:36.258,0.5119846,0.0,0.48830456,0.8900826,0.10635216,0.0,-0.05138925,0.5212574,0.121369965,0.0,0.19059798,0.1122093,0.6772406,0.0,-0.028769674,0.40013555,0.35369232,0.0,-0.4161267,0.12801696,456.92307,1628.6447,757.1062,730.9158,884.83514,-0.194580078125,0.0863037109375,0.99395751953125,3.671112060546875,-4.074859619140625,-0.6280517578125,1.0,2.0,4.0,1.0,2.0,80.0,event
09:40:36.259,0.5119846,0.0,0.48830456,0.8900826,0.10635216,0.0,-0.05138925,0.5212574,0.121369965,0.0,0.19059798,0.1122093,0.6772406,0.0,-0.028769674,0.40013555,0.35369232,0.0,-0.4161267,0.12801696,648.315,1628.2417,747.8388,747.03296,708.3516,-0.194580078125,0.0863037109375,0.99395751953125,3.671112060546875,-4.074859619140625,-0.6280517578125,1.0,2.0,4.0,1.0,2.0,80.0,event
09:40:36.260,0.5119846,0.0,0.48830456,0.8900826,0.10635216,0.0,-0.05138925,0.5212574,0.121369965,0.0,0.19059798,0.1122093,0.6772406,0.0,-0.028769674,0.40013555,0.35369232,0.0,-0.4161267,0.12801696,703.5165,1627.8389,747.4359,723.2601,809.4872,-0.194580078125,0.0863037109375,0.99395751953125,3.671112060546875,-4.074859619140625,-0.6280517578125,1.0,2.0,4.0,1.0,2.0,80.0,event
09:40:36.284,0.5119846,0.0,0.48830456,0.8900826,0.10635216,0.0,-0.05138925,0.5212574,0.121369965,0.0,0.19059798,0.1122093,0.6772406,0.0,-0.028769674,0.40013555,0.35369232,0.0,-0.4161267,0.12801696,560.07324,1628.2417,748.6447,713.9927,791.3553,-0.16522216796875,0.07843017578125,0.9522705078125,1.18133544921875,-2.91595458984375,1.772003173828125,1.0,2.0,4.0,1.0,2.0,80.0,event
09:40:36.285,0.5119846,0.0,0.48830456,0.8900826,0.10635216,0.0,-0.05138925,0.5212574,0.121369965,0.0,0.19059798,0.1122093,0.6772406,0.0,-0.028769674,0.40013555,0.35369232,0.0,-0.4161267,0.12801696,403.33334,1628.2417,749.0476,701.9048,690.2198,-0.16522216796875,0.07843017578125,0.9522705078125,1.18133544921875,-2.91595458984375,1.772003173828125,1.0,2.0,4.0,1.0,2.0,80.0,event
09:40:36.285,0.5119846,0.0,0.48830456,0.8900826,0.10635216,0.0,-0.05138925,0.5212574,0.121369965,0.0,0.19059798,0.1122093,0.6772406,0.0,-0.028769674,0.40013555,0.35369232,0.0,-0.4161267,0.12801696,427.50916,1628.2417,752.27106,701.9048,697.47253,-0.16522216796875,0.07843017578125,0.9522705078125,1.18133544921875,-2.91595458984375,1.772003173828125,1.0,2.0,4.0,1.0,2.0,80.0,event
09:40:36.286,0.5119846,0.0,0.48830456,0.8900826,0.10635216,0.0,-0.05138925,0.5212574,0.121369965,0.0,0.19059798,0.1122093,0.6772406,0.0,-0.028769674,0.40013555,0.35369232,0.0,-0.4161267,0.12801696,622.52747,1628.2417,759.92676,743.4066,835.6777,-0.16522216796875,0.07843017578125,0.9522705078125,1.18133544921875,-2.91595458984375,1.772003173828125,1.0,2.0,4.0,1.0,2.0,80.0,event
09:40:36.286,0.5119846,0.0,0.48830456,0.8900826,0.10635216,0.0,-0.05138925,0.5212574,0.121369965,0.0,0.19059798,0.1122093,0.6772406,0.0,-0.028769674,0.40013555,0.35369232,0.0,-0.4161267,0.12801696,763.95605,1628.2417,765.16486,796.1905,856.2271,-0.16522216796875,0.07843017578125,0.9522705078125,1.18133544921875,-2.91595458984375,1.772003173828125,1.0,2.0,4.0,1.0,2.0,80.0,event
09:40:36.287,0.5119846,0.0,0.48830456,0.8900826,0.10635216,0.0,-0.05138925,0.5212574,0.121369965,0.0,0.19059798,0.1122093,0.6772406,0.0,-0.028769674,0.40013555,0.35369232,0.0,-0.4161267,0.12801696,618.49817,1628.2417,766.77655,781.685,761.9414,-0.16522216796875,0.07843017578125,0.9522705078125,1.18133544921875,-2.91595458984375,1.772003173828125,1.0,2.0,4.0,1.0,2.0,80.0,event
09:40:36.287,0.5119846,0.0,0.48830456,0.8900826,0.10635216,0.0,-0.05138925,0.5212574,0.121369965,0.0,0.19059798,0.1122093,0.6772406,0.0,-0.028769674,0.40013555,0.35369232,0.0,-0.4161267,0.12801696,378.35165,1628.2417,772.4176,724.0659,787.72894,-0.16522216796875,0.07843017578125,0.9522705078125,1.18133544921875,-2.91595458984375,1.772003173828125,1.0,2.0,4.0,1.0,2.0,80.0,event
09:40:36.288,0.5119846,0.0,0.48830456,0.8900826,0.10635216,0.0,-0.05138925,0.5212574,0.121369965,0.0,0.19059798,0.1122093,0.6772406,0.0,-0.028769674,0.40013555,0.35369232,0.0,-0.4161267,0.12801696,727.28937,1628.2417,782.49084,747.03296,818.3516,-0.16522216796875,0.07843017578125,0.9522705078125,1.18133544921875,-2.91595458984375,1.772003173828125,1.0,2.0,4.0,1.0,2.0,80.0,event
09:40:36.288,0.5119846,0.0,0.48830456,0.8900826,0.10635216,0.0,-0.05138925,0.5212574,0.121369965,0.0,0.19059798,0.1122093,0.6772406,0.0,-0.028769674,0.40013555,0.35369232,0.0,-0.4161267,0.12801696,570.9524,1628.2417,773.6264,747.8388,1050.8425,-0.16522216796875,0.07843017578125,0.9522705078125,1.18133544921875,-2.91595458984375,1.772003173828125,1.0,2.0,4.0,1.0,2.0,80.0,event
09:40:36.288,0.5119846,0.0,0.48830456,0.8900826,0.10635216,0.0,-0.05138925,0.5212574,0.121369965,0.0,0.19059798,0.1122093,0.6772406,0.0,-0.028769674,0.40013555,0.35369232,0.0,-0.4161267,0.12801696,368.6813,1628.2417,766.3736,719.2308,978.315,-0.16522216796875,0.07843017578125,0.9522705078125,1.18133544921875,-2.91595458984375,1.772003173828125,1.0,2.0,4.0,1.0,2.0,80.0,event
09:40:36.289,0.5119846,0.0,0.48830456,0.8900826,0.10635216,0.0,-0.05138925,0.5212574,0.121369965,0.0,0.19059798,0.1122093,0.6772406,0.0,-0.028769674,0.40013555,0.35369232,0.0,-0.4161267,0.12801696,629.3773,1628.2417,772.01465,726.4835,704.3223,-0.16522216796875,0.07843017578125,0.9522705078125,1.18133544921875,-2.91595458984375,1.772003173828125,1.0,2.0,4.0,1.0,2.0,80.0,event
09:40:36.289,0.5119846,0.0,0.48830456,0.8900826,0.10635216,0.0,-0.05138925,0.5212574,0.121369965,0.0,0.19059798,0.1122093,0.6772406,0.0,-0.028769674,0.40013555,0.35369232,0.0,-0.4161267,0.12801696,471.42856,1628.2417,768.3883,765.16486,795.38464,-0.16522216796875,0.07843017578125,0.9522705078125,1.18133544921875,-2.91595458984375,1.772003173828125,1.0,2.0,4.0,1.0,2.0,80.0,event
09:40:36.314,0.5119846,0.0,0.48830456,0.8900826,0.10635216,0.0,-0.05138925,0.5212574,0.121369965,0.0,0.19059798,0.1122093,0.6772406,0.0,-0.028769674,0.40013555,0.35369232,0.0,-0.4161267,0.12801696,492.38095,1628.2417,773.6264,795.78754,739.7802,-0.18182373046875,0.070068359375,0.97918701171875,0.5084228515625,-2.99072265625,3.69354248046875,1.0,2.0,4.0,1.0,2.0,80.0,event
09:40:36.315,0.5119846,0.0,0.4446409,0.8900826,0.10635216,0.0,-0.082270876,0.5212574,0.121369965,0.0,0.07446706,0.1122093,0.6772406,0.0,-0.061341047,0.40013555,0.35369232,0.0,-0.42686749,0.12801696,639.85345,1628.2417,784.10254,782.8938,635.42126,-0.18182373046875,0.070068359375,0.97918701171875,0.5084228515625,-2.99072265625,3.69354248046875,1.0,2.0,4.0,1.0,2.0,80.0,event
09:40:36.317,,,,,,,,,,,,,,,,,,,,,,,,,,,,,,,,,,,,,,blink
09:40:36.318,0.5119846,0.0,0.4446409,0.8900826,0.10635216,0.0,-0.082270876,0.5212574,0.121369965,0.0,0.07446706,0.1122093,0.6772406,0.0,-0.061341047,0.40013555,0.35369232,0.0,-0.42686749,0.12801696,749.85345,1628.2417,783.69965,778.86444,725.2747,-0.18182373046875,0.070068359375,0.97918701171875,0.5084228515625,-2.99072265625,3.69354248046875,1.0,2.0,4.0,1.0,2.0,80.0,event
09:40:36.320,0.5119846,0.0,0.4446409,0.8900826,0.10635216,0.0,-0.082270876,0.5212574,0.121369965,0.0,0.07446706,0.1122093,0.6772406,0.0,-0.061341047,0.40013555,0.35369232,0.0,-0.42686749,0.12801696,660.0,1628.2417,777.25275,749.45056,758.315,-0.18182373046875,0.070068359375,0.97918701171875,0.5084228515625,-2.99072265625,3.69354248046875,1.0,2.0,4.0,1.0,2.0,80.0,event
09:40:36.321,0.5119846,0.0,0.4446409,0.8900826,0.10635216,0.0,-0.082270876,0.5212574,0.121369965,0.0,0.07446706,0.1122093,0.6772406,0.0,-0.061341047,0.40013555,0.35369232,0.0,-0.42686749,0.12801696,498.4249,1627.8389,778.0586,753.0769,705.9341,-0.18182373046875,0.070068359375,0.97918701171875,0.5084228515625,-2.99072265625,3.69354248046875,1.0,2.0,4.0,1.0,2.0,80.0,event
09:40:36.322,0.5119846,0.0,0.4446409,0.8900826,0.10635216,0.0,-0.082270876,0.5212574,0.121369965,0.0,0.07446706,0.1122093,0.6772406,0.0,-0.061341047,0.40013555,0.35369232,0.0,-0.42686749,0.12801696,511.72162,1628.2417,774.43225,791.75824,755.89746,-0.18182373046875,0.070068359375,0.97918701171875,0.5084228515625,-2.99072265625,3.69354248046875,1.0,2.0,4.0,1.0,2.0,80.0,event
09:40:36.323,0.5119846,0.0,0.4446409,0.8900826,0.10635216,0.0,-0.082270876,0.5212574,0.121369965,0.0,0.07446706,0.1122093,0.6772406,0.0,-0.061341047,0.40013555,0.35369232,0.0,-0.42686749,0.12801696,668.46155,1628.2417,777.6557,809.0842,844.1392,-0.18182373046875,0.070068359375,0.97918701171875,0.5084228515625,-2.99072265625,3.69354248046875,1.0,2.0,4.0,1.0,2.0,80.0,event
09:40:36.324,0.5119846,0.0,0.4446409,0.8900826,0.10635216,0.0,-0.082270876,0.5212574,0.121369965,0.0,0.07446706,0.1122093,0.6772406,0.0,-0.061341047,0.40013555,0.35369232,0.0,-0.42686749,0.12801696,711.1722,1628.2417,793.36993,751.8681,770.0,-0.18182373046875,0.070068359375,0.97918701171875,0.5084228515625,-2.99072265625,3.69354248046875,1.0,2.0,4.0,1.0,2.0,80.0,event
09:40:36.324,0.5119846,0.0,0.4446409,0.8900826,0.10635216,0.0,-0.082270876,0.5212574,0.121369965,0.0,0.07446706,0.1122093,0.6772406,0.0,-0.061341047,0.40013555,0.35369232,0.0,-0.42686749,0.12801696,765.16486,1628.2417,790.54944,763.1502,864.2857,-0.18182373046875,0.070068359375,0.97918701171875,0.5084228515625,-2.99072265625,3.69354248046875,1.0,2.0,4.0,1.0,2.0,80.0,event
09:40:36.325,0.5119846,0.0,0.4446409,0.8900826,0.10635216,0.0,-0.082270876,0.5212574,0.121369965,0.0,0.07446706,0.1122093,0.6772406,0.0,-0.061341047,0.40013555,0.35369232,0.0,-0.42686749,0.12801696,593.1135,1628.2417,784.10254,796.1905,720.4396,-0.18182373046875,0.070068359375,0.97918701171875,0.5084228515625,-2.99072265625,3.69354248046875,1.0,2.0,4.0,1.0,2.0,80.0,event
09:40:36.326,0.5119846,0.0,0.4446409,0.8900826,0.10635216,0.0,-0.082270876,0.5212574,0.121369965,0.0,0.07446706,0.1122093,0.6772406,0.0,-0.061341047,0.40013555,0.35369232,0.0,-0.42686749,0.12801696,529.0476,1628.2417,786.1172,785.31134,867.50916,-0.18182373046875,0.070068359375,0.97918701171875,0.5084228515625,-2.99072265625,3.69354248046875,1.0,2.0,4.0,1.0,2.0,80.0,event
09:40:36.326,0.5119846,0.0,0.4446409,0.8900826,0.10635216,0.0,-0.082270876,0.5212574,0.121369965,0.0,0.07446706,0.1122093,0.6772406,0.0,-0.061341047,0.40013555,0.35369232,0.0,-0.42686749,0.12801696,616.8865,1628.2417,796.5934,790.54944,964.61536,-0.18182373046875,0.070068359375,0.97918701171875,0.5084228515625,-2.99072265625,3.69354248046875,1.0,2.0,4.0,1.0,2.0,80.0,event
09:40:36.376,0.5119846,0.0,0.4446409,0.8900826,0.10635216,0.0,-0.082270876,0.5212574,0.121369965,0.0,0.07446706,0.1122093,0.6772406,0.0,-0.061341047,0.40013555,0.35369232,0.0,-0.42686749,0.12801696,787.72894,1628.2417,807.47253,763.5531,834.0659,-0.16845703125,0.08917236328125,1.00299072265625,-3.895416259765625,-4.05242919921875,5.15899658203125,1.0,2.0,4.0,1.0,2.0,80.0,event
09:40:36.377,0.5119846,0.0,0.4446409,0.8900826,0.10635216,0.0,-0.082270876,0.5212574,0.121369965,0.0,0.07446706,0.1122093,0.6772406,0.0,-0.061341047,0.40013555,0.35369232,0.0,-0.42686749,0.12801696,747.8388,1628.2417,800.2198,716.8132,751.4652,-0.16845703125,0.08917236328125,1.00299072265625,-3.895416259765625,-4.05242919921875,5.15899658203125,1.0,2.0,4.0,1.0,2.0,80.0,event
09:40:36.377,0.5119846,0.0,0.4446409,0.8900826,0.10635216,0.0,-0.082270876,0.5212574,0.121369965,0.0,0.07446706,0.1122093,0.6772406,0.0,-0.061341047,0.40013555,0.35369232,0.0,-0.42686749,0.12801696,543.95605,1628.2417,797.8022,728.9011,787.72894,-0.16845703125,0.08917236328125,1.00299072265625,-3.895416259765625,-4.05242919921875,5.15899658203125,1.0,2.0,4.0,1.0,2.0,80.0,event
09:40:36.378,0.5119846,0.0,0.4446409,0.8900826,0.10635216,0.0,-0.082270876,0.5212574,0.121369965,0.0,0.07446706,0.1122093,0.6772406,0.0,-0.061341047,0.40013555,0.35369232,0.0,-0.42686749,0.12801696,476.66666,1628.2417,810.696,734.5421,756.30035,-0.16845703125,0.08917236328125,1.00299072265625,-3.895416259765625,-4.05242919921875,5.15899658203125,1.0,2.0,4.0,1.0,2.0,80.0,event
09:40:36.378,0.5119846,0.0,0.4446409,0.8900826,0.10635216,0.0,-0.082270876,0.5212574,0.121369965,0.0,0.07446706,0.1122093,0.6772406,0.0,-0.061341047,0.40013555,0.35369232,0.0,-0.42686749,0.12801696,611.2454,1628.2417,803.44324,744.61536,646.30035,-0.16845703125,0.08917236328125,1.00299072265625,-3.895416259765625,-4.05242919921875,5.15899658203125,1.0,2.0,4.0,1.0,2.0,80.0,event
09:40:36.379,0.5119846,0.0,0.4446409,0.8900826,0.10635216,0.0,-0.082270876,0.5212574,0.121369965,0.0,0.07446706,0.1122093,0.6772406,0.0,-0.061341047,0.40013555,0.35369232,0.0,-0.42686749,0.12801696,826.8132,1628.2417,799.011,805.4579,818.3516,-0.16845703125,0.08917236328125,1.00299072265625,-3.895416259765625,-4.05242919921875,5.15899658203125,1.0,2.0,4.0,1.0,2.0,80.0,event
09:40:36.379,0.5119846,0.0,0.4446409,0.8900826,0.10635216,0.0,-0.082270876,0.5212574,0.121369965,0.0,0.07446706,0.1122093,0.6772406,0.0,-0.061341047,0.40013555,0.35369232,0.0,-0.42686749,0.12801696,844.5421,1628.2417,796.1905,840.9158,1146.337,-0.16845703125,0.08917236328125,1.00299072265625,-3.895416259765625,-4.05242919921875,5.15899658203125,1.0,2.0,4.0,1.0,2.0,80.0,event
09:40:36.380,0.5119846,0.0,0.4446409,0.8900826,0.10635216,0.0,-0.082270876,0.5212574,0.121369965,0.0,0.07446706,0.1122093,0.6772406,0.0,-0.061341047,0.40013555,0.35369232,0.0,-0.42686749,0.12801696,525.82416,1628.6447,817.5458,788.1319,682.5641,-0.16845703125,0.08917236328125,1.00299072265625,-3.895416259765625,-4.05242919921875,5.15899658203125,1.0,2.0,4.0,1.0,2.0,80.0,event
09:40:36.380,0.5119846,0.0,0.4446409,0.8900826,0.10635216,0.0,-0.082270876,0.5212574,0.121369965,0.0,0.07446706,0.1122093,0.6772406,0.0,-0.061341047,0.40013555,0.35369232,0.0,-0.42686749,0.12801696,629.3773,1628.2417,807.47253,815.5311,1035.5311,-0.16845703125,0.08917236328125,1.00299072265625,-3.895416259765625,-4.05242919921875,5.15899658203125,1.0,2.0,4.0,1.0,2.0,80.0,event
09:40:36.381,0.5119846,0.0,0.4446409,0.8900826,0.10635216,0.0,-0.082270876,0.5212574,0.121369965,0.0,0.07446706,0.1122093,0.6772406,0.0,-0.061341047,0.40013555,0.35369232,0.0,-0.42686749,0.12801696,582.6374,1628.2417,803.0403,750.2564,687.3993,-0.16845703125,0.08917236328125,1.00299072265625,-3.895416259765625,-4.05242919921875,5.15899658203125,1.0,2.0,4.0,1.0,2.0,80.0,event
09:40:36.381,0.5119846,0.0,0.4446409,0.8900826,0.10635216,0.0,-0.082270876,0.5212574,0.121369965,0.0,0.07446706,0.1122093,0.6772406,0.0,-0.061341047,0.40013555,0.35369232,0.0,-0.42686749,0.12801696,757.50916,1628.2417,800.6227,745.0183,755.4945,-0.16845703125,0.08917236328125,1.00299072265625,-3.895416259765625,-4.05242919921875,5.15899658203125,1.0,2.0,4.0,1.0,2.0,80.0,event
09:40:36.382,0.5119846,0.0,0.4446409,0.8900826,0.10635216,0.0,-0.082270876,0.5212574,0.121369965,0.0,0.07446706,0.1122093,0.6772406,0.0,-0.061341047,0.40013555,0.35369232,0.0,-0.42686749,0.12801696,838.0952,1628.2417,799.41394,781.685,761.53845,-0.16845703125,0.08917236328125,1.00299072265625,-3.895416259765625,-4.05242919921875,5.15899658203125,1.0,2.0,4.0,1.0,2.0,80.0,event
09:40:36.444,0.5119846,0.0,0.4446409,0.8900826,0.10635216,0.0,-0.082270876,0.5212574,0.121369965,0.0,0.07446706,0.1122093,0.6772406,0.0,-0.061341047,0.40013555,0.35369232,0.0,-0.42686749,0.12801696,654.7619,1628.2417,799.41394,763.5531,668.0586,-0.16845703125,0.08917236328125,1.00299072265625,-3.895416259765625,-4.05242919921875,5.15899658203125,1.0,2.0,4.0,1.0,2.0,80.0,event
09:40:36.445,0.5119846,0.0,0.4446409,0.8900826,0.10635216,0.0,-0.082270876,0.5212574,0.121369965,0.0,0.07446706,0.1122093,0.6772406,0.0,-0.061341047,0.40013555,0.35369232,0.0,-0.42686749,0.12801696,493.1868,1628.2417,799.011,730.9158,649.12085,-0.16845703125,0.08917236328125,1.00299072265625,-3.895416259765625,-4.05242919921875,5.15899658203125,1.0,2.0,4.0,1.0,2.0,80.0,event
09:40:36.446,0.5119846,0.0,0.4446409,0.8900826,0.10635216,0.0,-0.082270876,0.5212574,0.121369965,0.0,0.07446706,0.1122093,0.6772406,0.0,-0.061341047,0.40013555,0.35369232,0.0,-0.42686749,0.12801696,606.8132,1628.6447,803.0403,805.05493,737.3626,-0.16845703125,0.08917236328125,1.00299072265625,-3.895416259765625,-4.05242919921875,5.15899658203125,1.0,2.0,4.0,1.0,2.0,80.0,event
09:40:36.447,0.5119846,0.0,0.40128988,0.8900826,0.10635216,0.0,-0.09717491,0.5212574,0.121369965,0.0,-0.042225607,0.1122093,0.6772406,0.0,-0.087185256,0.40013555,0.35369232,0.0,-0.43094411,0.12801696,814.3223,1628.2417,811.0989,830.0366,786.1172,-0.16845703125,0.08917236328125,1.00299072265625,-3.895416259765625,-4.05242919921875,5.15899658203125,1.0,2.0,4.0,1.0,2.0,80.0,event
09:40:36.451,0.5119846,0.0,0.40128988,0.8900826,0.10635216,0.0,-0.09717491,0.5212574,0.121369965,0.0,-0.042225607,0.1122093,0.6772406,0.0,-0.087185256,0.40013555,0.35369232,0.0,-0.43094411,0.12801696,843.73627,1628.2417,803.8461,774.43225,708.7546,-0.16845703125,0.08917236328125,1.00299072265625,-3.895416259765625,-4.05242919921875,5.15899658203125,1.0,2.0,4.0,1.0,2.0,80.0,event
09:40:36.452,0.5119846,0.0,0.40128988,0.8900826,0.10635216,0.0,-0.09717491,0.5212574,0.121369965,0.0,-0.042225607,0.1122093,0.6772406,0.0,-0.087185256,0.40013555,0.35369232,0.0,-0.43094411,0.12801696,657.1795,1628.2417,786.9231,758.71796,704.3223,-0.16845703125,0.08917236328125,1.00299072265625,-3.895416259765625,-4.05242919921875,5.15899658203125,1.0,2.0,4.0,1.0,2.0,80.0,event
09:40:36.453,0.5119846,0.0,0.40128988,0.8900826,0.10635216,0.0,-0.09717491,0.5212574,0.121369965,0.0,-0.042225607,0.1122093,0.6772406,0.0,-0.087185256,0.40013555,0.35369232,0.0,-0.43094411,0.12801696,492.38095,1628.2417,790.14655,742.1978,1030.2931,-0.16845703125,0.08917236328125,1.00299072265625,-3.895416259765625,-4.05242919921875,5.15899658203125,1.0,2.0,4.0,1.0,2.0,80.0,event
09:40:36.454,0.5119846,0.0,0.40128988,0.8900826,0.10635216,0.0,-0.09717491,0.5212574,0.121369965,0.0,-0.042225607,0.1122093,0.6772406,0.0,-0.087185256,0.40013555,0.35369232,0.0,-0.43094411,0.12801696,789.7436,1628.2417,808.2784,778.46155,616.4835,-0.16845703125,0.08917236328125,1.00299072265625,-3.895416259765625,-4.05242919921875,5.15899658203125,1.0,2.0,4.0,1.0,2.0,80.0,event
09:40:36.454,0.5119846,0.0,0.40128988,0.8900826,0.10635216,0.0,-0.09717491,0.5212574,0.121369965,0.0,-0.042225607,0.1122093,0.6772406,0.0,-0.087185256,0.40013555,0.35369232,0.0,-0.43094411,0.12801696,561.685,1628.2417,812.71063,731.7216,902.5641,-0.16845703125,0.08917236328125,1.00299072265625,-3.895416259765625,-4.05242919921875,5.15899658203125,1.0,2.0,4.0,1.0,2.0,80.0,event
09:40:36.455,0.5119846,0.0,0.40128988,0.8900826,0.10635216,0.0,-0.09717491,0.5212574,0.121369965,0.0,-0.042225607,0.1122093,0.6772406,0.0,-0.087185256,0.40013555,0.35369232,0.0,-0.43094411,0.12801696,896.1172,1628.2417,801.02563,822.7839,744.21246,-0.16845703125,0.08917236328125,1.00299072265625,-3.895416259765625,-4.05242919921875,5.15899658203125,1.0,2.0,4.0,1.0,2.0,80.0,event
09:40:36.456,0.5119846,0.0,0.40128988,0.8900826,0.10635216,0.0,-0.09717491,0.5212574,0.121369965,0.0,-0.042225607,0.1122093,0.6772406,0.0,-0.087185256,0.40013555,0.35369232,0.0,-0.43094411,0.12801696,721.6484,1628.2417,803.44324,766.3736,743.4066,-0.16845703125,0.08917236328125,1.00299072265625,-3.895416259765625,-4.05242919921875,5.15899658203125,1.0,2.0,4.0,1.0,2.0,80.0,event
09:40:36.456,0.5119846,0.0,0.40128988,0.8900826,0.10635216,0.0,-0.09717491,0.5212574,0.121369965,0.0,-0.042225607,0.1122093,0.6772406,0.0,-0.087185256,0.40013555,0.35369232,0.0,-0.43094411,0.12801696,517.76556,1628.2417,798.60803,707.1429,639.85345,-0.16845703125,0.08917236328125,1.00299072265625,-3.895416259765625,-4.05242919921875,5.15899658203125,1.0,2.0,4.0,1.0,2.0,80.0,event
09:40:36.485,0.5119846,0.0,0.40128988,0.8900826,0.10635216,0.0,-0.09717491,0.5212574,0.121369965,0.0,-0.042225607,0.1122093,0.6772406,0.0,-0.087185256,0.40013555,0.35369232,0.0,-0.43094411,0.12801696,568.1319,1628.2417,793.7729,763.5531,611.6484,-0.16302490234375,0.08892822265625,0.984619140625,-13.884429931640623,-4.68048095703125,12.658233642578123,1.0,2.0,4.0,1.0,2.0,80.0,event
09:40:36.486,0.5119846,0.0,0.40128988,0.8900826,0.10635216,0.0,-0.09717491,0.5212574,0.121369965,0.0,-0.042225607,0.1122093,0.6772406,0.0,-0.087185256,0.40013555,0.35369232,0.0,-0.43094411,0.12801696,819.15753,1628.2417,804.2491,863.0769,703.5165,-0.16302490234375,0.08892822265625,0.984619140625,-13.884429931640623,-4.68048095703125,12.658233642578123,1.0,2.0,4.0,1.0,2.0,80.0,event
09:40:36.487,0.5119846,0.0,0.40128988,0.8900826,0.10635216,0.0,-0.09717491,0.5212574,0.121369965,0.0,-0.042225607,0.1122093,0.6772406,0.0,-0.087185256,0.40013555,0.35369232,0.0,-0.43094411,0.12801696,882.01465,1628.2417,815.12823,792.1612,765.56775,-0.16302490234375,0.08892822265625,0.984619140625,-13.884429931640623,-4.68048095703125,12.658233642578123,1.0,2.0,4.0,1.0,2.0,80.0,event
09:40:36.487,0.5119846,0.0,0.40128988,0.8900826,0.10635216,0.0,-0.09717491,0.5212574,0.121369965,0.0,-0.042225607,0.1122093,0.6772406,0.0,-0.087185256,0.40013555,0.35369232,0.0,-0.43094411,0.12801696,686.99634,1628.2417,804.65204,702.3077,732.9304,-0.16302490234375,0.08892822265625,0.984619140625,-13.884429931640623,-4.68048095703125,12.658233642578123,1.0,2.0,4.0,1.0,2.0,80.0,event
09:40:36.488,0.5119846,0.0,0.40128988,0.8900826,0.10635216,0.0,-0.09717491,0.5212574,0.121369965,0.0,-0.042225607,0.1122093,0.6772406,0.0,-0.087185256,0.40013555,0.35369232,0.0,-0.43094411,0.12801696,515.34796,1628.2417,796.1905,710.3663,689.011,-0.16302490234375,0.08892822265625,0.984619140625,-13.884429931640623,-4.68048095703125,12.658233642578123,1.0,2.0,4.0,1.0,2.0,80.0,event
09:40:36.488,0.5119846,0.0,0.40128988,0.8900826,0.10635216,0.0,-0.09717491,0.5212574,0.121369965,0.0,-0.042225607,0.1122093,0.6772406,0.0,-0.087185256,0.40013555,0.35369232,0.0,-0.43094411,0.12801696,530.2564,1628.2417,792.5641,746.63007,812.3077,-0.16302490234375,0.08892822265625,0.984619140625,-13.884429931640623,-4.68048095703125,12.658233642578123,1.0,2.0,4.0,1.0,2.0,80.0,event
09:40:36.489,0.5119846,0.0,0.40128988,0.8900826,0.10635216,0.0,-0.09717491,0.5212574,0.121369965,0.0,-0.042225607,0.1122093,0.6772406,0.0,-0.087185256,0.40013555,0.35369232,0.0,-0.43094411,0.12801696,734.1392,1628.2417,796.5934,793.36993,851.39197,-0.16302490234375,0.08892822265625,0.984619140625,-13.884429931640623,-4.68048095703125,12.658233642578123,1.0,2.0,4.0,1.0,2.0,80.0,event
09:40:36.490,0.5119846,0.0,0.40128988,0.8900826,0.10635216,0.0,-0.09717491,0.5212574,0.121369965,0.0,-0.042225607,0.1122093,0.6772406,0.0,-0.087185256,0.40013555,0.35369232,0.0,-0.43094411,0.12801696,877.5824,1628.2417,798.60803,801.4286,854.21246,-0.16302490234375,0.08892822265625,0.984619140625,-13.884429931640623,-4.68048095703125,12.658233642578123,1.0,2.0,4.0,1.0,2.0,80.0,event
09:40:36.491,0.5119846,0.0,0.40128988,0.8900826,0.10635216,0.0,-0.09717491,0.5212574,0.121369965,0.0,-0.042225607,0.1122093,0.6772406,0.0,-0.087185256,0.40013555,0.35369232,0.0,-0.43094411,0.12801696,776.04395,1628.2417,789.34064,782.0879,806.6667,-0.16302490234375,0.08892822265625,0.984619140625,-13.884429931640623,-4.68048095703125,12.658233642578123,1.0,2.0,4.0,1.0,2.0,80.0,event
09:40:36.492,0.5119846,0.0,0.40128988,0.8900826,0.10635216,0.0,-0.09717491,0.5212574,0.121369965,0.0,-0.042225607,0.1122093,0.6772406,0.0,-0.087185256,0.40013555,0.35369232,0.0,-0.43094411,0.12801696,571.75824,1628.2417,775.64105,761.9414,912.6374,-0.16302490234375,0.08892822265625,0.984619140625,-13.884429931640623,-4.68048095703125,12.658233642578123,1.0,2.0,4.0,1.0,2.0,80.0,event
09:40:36.493,0.5119846,0.0,0.40128988,0.8900826,0.10635216,0.0,-0.09717491,0.5212574,0.121369965,0.0,-0.042225607,0.1122093,0.6772406,0.0,-0.087185256,0.40013555,0.35369232,0.0,-0.43094411,0.12801696,547.1795,1628.2417,790.54944,751.8681,939.2308,-0.16302490234375,0.08892822265625,0.984619140625,-13.884429931640623,-4.68048095703125,12.658233642578123,1.0,2.0,4.0,1.0,2.0,80.0,event
09:40:36.494,0.5119846,0.0,0.40128988,0.8900826,0.10635216,0.0,-0.09717491,0.5212574,0.121369965,0.0,-0.042225607,0.1122093,0.6772406,0.0,-0.087185256,0.40013555,0.35369232,0.0,-0.43094411,0.12801696,709.5604,1628.2417,801.02563,755.09155,682.1612,-0.16302490234375,0.08892822265625,0.984619140625,-13.884429931640623,-4.68048095703125,12.658233642578123,1.0,2.0,4.0,1.0,2.0,80.0,event
09:40:36.525,0.5119846,0.0,0.40128988,0.8900826,0.10635216,0.0,-0.09717491,0.5212574,0.121369965,0.0,-0.042225607,0.1122093,0.6772406,0.0,-0.087185256,0.40013555,0.35369232,0.0,-0.43094411,0.12801696,853.4066,1628.2417,788.5348,767.1795,743.00366,-0.17840576171875,0.0372314453125,0.95654296875,-13.62274169921875,-6.078643798828125,13.032073974609377,1.0,2.0,4.0,1.0,2.0,80.0,event
09:40:36.526,0.5119846,0.0,0.40128988,0.8900826,0.10635216,0.0,-0.09717491,0.5212574,0.121369965,0.0,-0.042225607,0.1122093,0.6772406,0.0,-0.087185256,0.40013555,0.35369232,0.0,-0.43094411,0.12801696,796.5934,1628.2417,783.2967,757.50916,777.6557,-0.17840576171875,0.0372314453125,0.95654296875,-13.62274169921875,-6.078643798828125,13.032073974609377,1.0,2.0,4.0,1.0,2.0,80.0,event
09:40:36.527,0.5119846,0.0,0.40128988,0.8900826,0.10635216,0.0,-0.09717491,0.5212574,0.121369965,0.0,-0.042225607,0.1122093,0.6772406,0.0,-0.087185256,0.40013555,0.35369232,0.0,-0.43094411,0.12801696,587.8755,1628.2417,786.52014,724.4689,671.28204,-0.17840576171875,0.0372314453125,0.95654296875,-13.62274169921875,-6.078643798828125,13.032073974609377,1.0,2.0,4.0,1.0,2.0,80.0,event
09:40:36.527,0.5119846,0.0,0.40128988,0.8900826,0.10635216,0.0,-0.09717491,0.5212574,0.121369965,0.0,-0.042225607,0.1122093,0.6772406,0.0,-0.087185256,0.40013555,0.35369232,0.0,-0.43094411,0.12801696,555.2381,1628.2417,786.9231,740.989,668.46155,-0.17840576171875,0.0372314453125,0.95654296875,-13.62274169921875,-6.078643798828125,13.032073974609377,1.0,2.0,4.0,1.0,2.0,80.0,event
09:40:36.528,0.5119846,0.0,0.40128988,0.8900826,0.10635216,0.0,-0.09717491,0.5212574,0.121369965,0.0,-0.042225607,0.1122093,0.6772406,0.0,-0.087185256,0.40013555,0.35369232,0.0,-0.43094411,0.12801696,709.5604,1628.2417,778.86444,773.22345,800.6227,-0.17840576171875,0.0372314453125,0.95654296875,-13.62274169921875,-6.078643798828125,13.032073974609377,1.0,2.0,4.0,1.0,2.0,80.0,event
09:40:36.529,0.5119846,0.0,0.36950034,0.8900826,0.10635216,0.0,-0.096134454,0.5212574,0.121369965,0.0,-0.09471885,0.1122093,0.6772406,0.0,-0.10018604,0.40013555,0.35369232,0.0,-0.42881778,0.12801696,847.76556,1628.2417,779.67035,771.6117,919.4872,-0.17840576171875,0.0372314453125,0.95654296875,-13.62274169921875,-6.078643798828125,13.032073974609377,1.0,2.0,4.0,1.0,2.0,80.0,event
09:40:36.532,0.5119846,0.0,0.36950034,0.8900826,0.10635216,0.0,-0.096134454,0.5212574,0.121369965,0.0,-0.09471885,0.1122093,0.6772406,0.0,-0.10018604,0.40013555,0.35369232,0.0,-0.42881778,0.12801696,802.23444,1628.2417,784.90845,759.92676,929.15753,-0.17840576171875,0.0372314453125,0.95654296875,-13.62274169921875,-6.078643798828125,13.032073974609377,1.0,2.0,4.0,1.0,2.0,80.0,event
09:40:36.533,0.5119846,0.0,0.36950034,0.8900826,0.10635216,0.0,-0.096134454,0.5212574,0.121369965,0.0,-0.09471885,0.1122093,0.6772406,0.0,-0.10018604,0.40013555,0.35369232,0.0,-0.42881778,0.12801696,625.7509,1628.6447,780.87915,741.79486,739.3773,-0.17840576171875,0.0372314453125,0.95654296875,-13.62274169921875,-6.078643798828125,13.032073974609377,1.0,2.0,4.0,1.0,2.0,80.0,event
09:40:36.534,0.5119846,0.0,0.36950034,0.8900826,0.10635216,0.0,-0.096134454,0.5212574,0.121369965,0.0,-0.09471885,0.1122093,0.6772406,0.0,-0.10018604,0.40013555,0.35369232,0.0,-0.42881778,0.12801696,574.57874,1628.2417,768.7912,769.59705,729.707,-0.17840576171875,0.0372314453125,0.95654296875,-13.62274169921875,-6.078643798828125,13.032073974609377,1.0,2.0,4.0,1.0,2.0,80.0,event
09:40:36.534,0.5119846,0.0,0.36950034,0.8900826,0.10635216,0.0,-0.096134454,0.5212574,0.121369965,0.0,-0.09471885,0.1122093,0.6772406,0.0,-0.10018604,0.40013555,0.35369232,0.0,-0.42881778,0.12801696,651.53845,1628.2417,778.46155,769.19415,1010.54944,-0.17840576171875,0.0372314453125,0.95654296875,-13.62274169921875,-6.078643798828125,13.032073974609377,1.0,2.0,4.0,1.0,2.0,80.0,event
09:40:36.535,0.5119846,0.0,0.36950034,0.8900826,0.10635216,0.0,-0.096134454,0.5212574,0.121369965,0.0,-0.09471885,0.1122093,0.6772406,0.0,-0.10018604,0.40013555,0.35369232,0.0,-0.42881778,0.12801696,799.41394,1628.6447,792.1612,737.3626,865.09155,-0.17840576171875,0.0372314453125,0.95654296875,-13.62274169921875,-6.078643798828125,13.032073974609377,1.0,2.0,4.0,1.0,2.0,80.0,event
09:40:36.536,0.5119846,0.0,0.36950034,0.8900826,0.10635216,0.0,-0.096134454,0.5212574,0.121369965,0.0,-0.09471885,0.1122093,0.6772406,0.0,-0.10018604,0.40013555,0.35369232,0.0,-0.42881778,0.12801696,815.5311,1628.6447,773.22345,744.21246,681.3553,-0.17840576171875,0.0372314453125,0.95654296875,-13.62274169921875,-6.078643798828125,13.032073974609377,1.0,2.0,4.0,1.0,2.0,80.0,event
09:40:36.576,0.5119846,0.0,0.36950034,0.8900826,0.10635216,0.0,-0.096134454,0.5212574,0.121369965,0.0,-0.09471885,0.1122093,0.6772406,0.0,-0.10018604,0.40013555,0.35369232,0.0,-0.42881778,0.12801696,626.55676,1628.2417,765.56775,736.1539,763.5531,-0.20123291015625,0.013916015625,0.95477294921875,-8.874969482421875,-6.50482177734375,7.29736328125,1.0,2.0,4.0,1.0,2.0,80.0,event
09:40:36.577,0.5119846,0.0,0.36950034,0.8900826,0.10635216,0.0,-0.096134454,0.5212574,0.121369965,0.0,-0.09471885,0.1122093,0.6772406,0.0,-0.10018604,0.40013555,0.35369232,0.0,-0.42881778,0.12801696,546.77655,1628.2417,776.4469,743.8095,745.42126,-0.20123291015625,0.013916015625,0.95477294921875,-8.874969482421875,-6.50482177734375,7.29736328125,1.0,2.0,4.0,1.0,2.0,80.0,event
09:40:36.578,0.5119846,0.0,0.36950034,0.8900826,0.10635216,0.0,-0.096134454,0.5212574,0.121369965,0.0,-0.09471885,0.1122093,0.6772406,0.0,-0.10018604,0.40013555,0.35369232,0.0,-0.42881778,0.12801696,655.56775,1628.2417,778.46155,749.0476,690.2198,-0.20123291015625,0.013916015625,0.95477294921875,-8.874969482421875,-6.50482177734375,7.29736328125,1.0,2.0,4.0,1.0,2.0,80.0,event
09:40:36.579,0.5119846,0.0,0.36950034,0.8900826,0.10635216,0.0,-0.096134454,0.5212574,0.121369965,0.0,-0.09471885,0.1122093,0.6772406,0.0,-0.10018604,0.40013555,0.35369232,0.0,-0.42881778,0.12801696,823.9927,1628.2417,772.8205,761.53845,754.2857,-0.20123291015625,0.013916015625,0.95477294921875,-8.874969482421875,-6.50482177734375,7.29736328125,1.0,2.0,4.0,1.0,2.0,80.0,event
09:40:36.579,0.5119846,0.0,0.36950034,0.8900826,0.10635216,0.0,-0.096134454,0.5212574,0.121369965,0.0,-0.09471885,0.1122093,0.6772406,0.0,-0.10018604,0.40013555,0.35369232,0.0,-0.42881778,0.12801696,854.21246,1628.6447,764.7619,786.1172,798.20514,-0.20123291015625,0.013916015625,0.95477294921875,-8.874969482421875,-6.50482177734375,7.29736328125,1.0,2.0,4.0,1.0,2.0,80.0,event
09:40:36.580,0.5119846,0.0,0.36950034,0.8900826,0.10635216,0.0,-0.096134454,0.5212574,0.121369965,0.0,-0.09471885,0.1122093,0.6772406,0.0,-0.10018604,0.40013555,0.35369232,0.0,-0.42881778,0.12801696,691.4286,1628.2417,765.56775,776.04395,834.87177,-0.20123291015625,0.013916015625,0.95477294921875,-8.874969482421875,-6.50482177734375,7.29736328125,1.0,2.0,4.0,1.0,2.0,80.0,event
09:40:36.581,0.5119846,0.0,0.36950034,0.8900826,0.10635216,0.0,-0.096134454,0.5212574,0.121369965,0.0,-0.09471885,0.1122093,0.6772406,0.0,-0.10018604,0.40013555,0.35369232,0.0,-0.42881778,0.12801696,617.6923,1628.2417,778.0586,758.315,696.26373,-0.20123291015625,0.013916015625,0.95477294921875,-8.874969482421875,-6.50482177734375,7.29736328125,1.0,2.0,4.0,1.0,2.0,80.0,event
09:40:36.581,0.5119846,0.0,0.36950034,0.8900826,0.10635216,0.0,-0.096134454,0.5212574,0.121369965,0.0,-0.09471885,0.1122093,0.6772406,0.0,-0.10018604,0.40013555,0.35369232,0.0,-0.42881778,0.12801696,565.31134,1628.2417,777.6557,756.7033,854.61536,-0.20123291015625,0.013916015625,0.95477294921875,-8.874969482421875,-6.50482177734375,7.29736328125,1.0,2.0,4.0,1.0,2.0,80.0,event
09:40:36.582,0.5119846,0.0,0.36950034,0.8900826,0.10635216,0.0,-0.096134454,0.5212574,0.121369965,0.0,-0.09471885,0.1122093,0.6772406,0.0,-0.10018604,0.40013555,0.35369232,0.0,-0.42881778,0.12801696,789.7436,1628.2417,761.13556,786.1172,865.09155,-0.20123291015625,0.013916015625,0.95477294921875,-8.874969482421875,-6.50482177734375,7.29736328125,1.0,2.0,4.0,1.0,2.0,80.0,event
09:40:36.583,0.5119846,0.0,0.36950034,0.8900826,0.10635216,0.0,-0.096134454,0.5212574,0.121369965,0.0,-0.09471885,0.1122093,0.6772406,0.0,-0.10018604,0.40013555,0.35369232,0.0,-0.42881778,0.12801696,865.09155,1628.2417,767.98535,805.05493,1014.9817,-0.20123291015625,0.013916015625,0.95477294921875,-8.874969482421875,-6.50482177734375,7.29736328125,1.0,2.0,4.0,1.0,2.0,80.0,event
09:40:36.584,0.5119846,0.0,0.36950034,0.8900826,0.10635216,0.0,-0.096134454,0.5212574,0.121369965,0.0,-0.09471885,0.1122093,0.6772406,0.0,-0.10018604,0.40013555,0.35369232,0.0,-0.42881778,0.12801696,724.4689,1628.2417,770.40295,776.8498,757.50916,-0.20123291015625,0.013916015625,0.95477294921875,-8.874969482421875,-6.50482177734375,7.29736328125,1.0,2.0,4.0,1.0,2.0,80.0,event
09:40:36.585,0.5119846,0.0,0.36950034,0.8900826,0.10635216,0.0,-0.096134454,0.5212574,0.121369965,0.0,-0.09471885,0.1122093,0.6772406,0.0,-0.10018604,0.40013555,0.35369232,0.0,-0.42881778,0.12801696,574.9817,1628.2417,760.7326,751.06226,706.7399,-0.20123291015625,0.013916015625,0.95477294921875,-8.874969482421875,-6.50482177734375,7.29736328125,1.0,2.0,4.0,1.0,2.0,80.0,event
09:40:36.644,0.5119846,0.0,0.36950034,0.8900826,0.10635216,0.0,-0.096134454,0.5212574,0.121369965,0.0,-0.09471885,0.1122093,0.6772406,0.0,-0.10018604,0.40013555,0.35369232,0.0,-0.42881778,0.12801696,620.5128,1628.2417,763.5531,753.8828,809.89014,-0.19720458984375,-0.00384521484375,0.94110107421875,3.327178955078125,-6.639404296875,-6.34033203125,1.0,2.0,4.0,1.0,2.0,80.0,event
09:40:36.645,0.5119846,0.0,0.36950034,0.8900826,0.10635216,0.0,-0.096134454,0.5212574,0.121369965,0.0,-0.09471885,0.1122093,0.6772406,0.0,-0.10018604,0.40013555,0.35369232,0.0,-0.42881778,0.12801696,825.2015,1628.2417,770.80585,805.05493,856.63007,-0.19720458984375,-0.00384521484375,0.94110107421875,3.327178955078125,-6.639404296875,-6.34033203125,1.0,2.0,4.0,1.0,2.0,80.0,event
09:40:36.646,0.5119846,0.0,0.36950034,0.8900826,0.10635216,0.0,-0.096134454,0.5212574,0.121369965,0.0,-0.09471885,0.1122093,0.6772406,0.0,-0.10018604,0.40013555,0.35369232,0.0,-0.42881778,0.12801696,919.89014,1628.2417,774.0293,825.2015,800.2198,-0.19720458984375,-0.00384521484375,0.94110107421875,3.327178955078125,-6.639404296875,-6.34033203125,1.0,2.0,4.0,1.0,2.0,80.0,event
09:40:36.646,0.5119846,0.0,0.36950034,0.8900826,0.10635216,0.0,-0.096134454,0.5212574,0.121369965,0.0,-0.09471885,0.1122093,0.6772406,0.0,-0.10018604,0.40013555,0.35369232,0.0,-0.42881778,0.12801696,724.4689,1628.2417,768.3883,762.3443,798.60803,-0.19720458984375,-0.00384521484375,0.94110107421875,3.327178955078125,-6.639404296875,-6.34033203125,1.0,2.0,4.0,1.0,2.0,80.0,event
09:40:36.647,0.5119846,0.0,0.36950034,0.8900826,0.10635216,0.0,-0.096134454,0.5212574,0.121369965,0.0,-0.09471885,0.1122093,0.6772406,0.0,-0.10018604,0.40013555,0.35369232,0.0,-0.42881778,0.12801696,503.663,1628.2417,771.2088,703.5165,799.011,-0.19720458984375,-0.00384521484375,0.94110107421875,3.327178955078125,-6.639404296875,-6.34033203125,1.0,2.0,4.0,1.0,2.0,80.0,event
09:40:36.648,0.5119846,0.0,0.36950034,0.8900826,0.10635216,0.0,-0.096134454,0.5212574,0.121369965,0.0,-0.09471885,0.1122093,0.6772406,0.0,-0.10018604,0.40013555,0.35369232,0.0,-0.42881778,0.12801696,557.6557,1628.2417,780.87915,724.4689,748.24176,-0.19720458984375,-0.00384521484375,0.94110107421875,3.327178955078125,-6.639404296875,-6.34033203125,1.0,2.0,4.0,1.0,2.0,80.0,event
09:40:36.648,0.5119846,0.0,0.36950034,0.8900826,0.10635216,0.0,-0.096134454,0.5212574,0.121369965,0.0,-0.09471885,0.1122093,0.6772406,0.0,-0.10018604,0.40013555,0.35369232,0.0,-0.42881778,0.12801696,753.47986,1628.2417,779.67035,780.4762,815.12823,-0.19720458984375,-0.00384521484375,0.94110107421875,3.327178955078125,-6.639404296875,-6.34033203125,1.0,2.0,4.0,1.0,2.0,80.0,event
09:40:36.649,0.5119846,0.0,0.33849195,0.8900826,0.10635216,0.0,-0.089802794,0.5212574,0.121369965,0.0,-0.09471885,0.1122093,0.6772406,0.0,-0.101341754,0.40013555,0.35369232,0.0,-0.4222353,0.12801696,836.08057,1628.6447,767.98535,776.4469,910.6227,-0.19720458984375,-0.00384521484375,0.94110107421875,3.327178955078125,-6.639404296875,-6.34033203125,1.0,2.0,4.0,1.0,2.0,80.0,event
09:40:36.653,0.5119846,0.0,0.33849195,0.8900826,0.10635216,0.0,-0.089802794,0.5212574,0.121369965,0.0,-0.09471885,0.1122093,0.6772406,0.0,-0.101341754,0.40013555,0.35369232,0.0,-0.4222353,0.12801696,713.1868,1628.6447,772.01465,757.9121,1015.38464,-0.19720458984375,-0.00384521484375,0.94110107421875,3.327178955078125,-6.639404296875,-6.34033203125,1.0,2.0,4.0,1.0,2.0,80.0,event
09:40:36.654,0.5119846,0.0,0.33849195,0.8900826,0.10635216,0.0,-0.089802794,0.5212574,0.121369965,0.0,-0.09471885,0.1122093,0.6772406,0.0,-0.101341754,0.40013555,0.35369232,0.0,-0.4222353,0.12801696,560.87915,1628.2417,789.7436,740.18317,791.3553,-0.19720458984375,-0.00384521484375,0.94110107421875,3.327178955078125,-6.639404296875,-6.34033203125,1.0,2.0,4.0,1.0,2.0,80.0,event
09:40:36.654,0.5119846,0.0,0.33849195,0.8900826,0.10635216,0.0,-0.089802794,0.5212574,0.121369965,0.0,-0.09471885,0.1122093,0.6772406,0.0,-0.101341754,0.40013555,0.35369232,0.0,-0.4222353,0.12801696,601.1722,1628.2417,781.685,740.989,609.2308,-0.19720458984375,-0.00384521484375,0.94110107421875,3.327178955078125,-6.639404296875,-6.34033203125,1.0,2.0,4.0,1.0,2.0,80.0,event
09:40:36.655,0.5119846,0.0,0.33849195,0.8900826,0.10635216,0.0,-0.089802794,0.5212574,0.121369965,0.0,-0.09471885,0.1122093,0.6772406,0.0,-0.101341754,0.40013555,0.35369232,0.0,-0.4222353,0.12801696,765.56775,1628.6447,780.87915,786.1172,671.685,-0.19720458984375,-0.00384521484375,0.94110107421875,3.327178955078125,-6.639404296875,-6.34033203125,1.0,2.0,4.0,1.0,2.0,80.0,event
09:40:36.680,0.5119846,0.0,0.33849195,0.8900826,0.10635216,0.0,-0.089802794,0.5212574,0.121369965,0.0,-0.09471885,0.1122093,0.6772406,0.0,-0.101341754,0.40013555,0.35369232,0.0,-0.4222353,0.12801696,866.30035,1628.6447,784.90845,799.41394,711.1722,-0.19720458984375,-0.00384521484375,0.94110107421875,3.327178955078125,-6.639404296875,-6.34033203125,1.0,2.0,4.0,1.0,2.0,80.0,event
09:40:36.681,0.5119846,0.0,0.33849195,0.8900826,0.10635216,0.0,-0.089802794,0.5212574,0.121369965,0.0,-0.09471885,0.1122093,0.6772406,0.0,-0.101341754,0.40013555,0.35369232,0.0,-0.4222353,0.12801696,752.27106,1628.2417,780.87915,764.7619,703.91943,-0.19720458984375,-0.00384521484375,0.94110107421875,3.327178955078125,-6.639404296875,-6.34033203125,1.0,2.0,4.0,1.0,2.0,80.0,event
09:40:36.682,0.5119846,0.0,0.33849195,0.8900826,0.10635216,0.0,-0.089802794,0.5212574,0.121369965,0.0,-0.09471885,0.1122093,0.6772406,0.0,-0.101341754,0.40013555,0.35369232,0.0,-0.4222353,0.12801696,558.46155,1628.2417,777.25275,741.79486,692.23444,-0.19720458984375,-0.00384521484375,0.94110107421875,3.327178955078125,-6.639404296875,-6.34033203125,1.0,2.0,4.0,1.0,2.0,80.0,event
09:40:36.682,0.5119846,0.0,0.33849195,0.8900826,0.10635216,0.0,-0.089802794,0.5212574,0.121369965,0.0,-0.09471885,0.1122093,0.6772406,0.0,-0.101341754,0.40013555,0.35369232,0.0,-0.4222353,0.12801696,538.315,1628.2417,781.28204,751.8681,795.78754,-0.19720458984375,-0.00384521484375,0.94110107421875,3.327178955078125,-6.639404296875,-6.34033203125,1.0,2.0,4.0,1.0,2.0,80.0,event
09:40:36.683,0.5119846,0.0,0.33849195,0.8900826,0.10635216,0.0,-0.089802794,0.5212574,0.121369965,0.0,-0.09471885,0.1122093,0.6772406,0.0,-0.101341754,0.40013555,0.35369232,0.0,-0.4222353,0.12801696,703.5165,1628.2417,782.49084,773.6264,866.30035,-0.19720458984375,-0.00384521484375,0.94110107421875,3.327178955078125,-6.639404296875,-6.34033203125,1.0,2.0,4.0,1.0,2.0,80.0,event
09:40:36.686,0.5119846,0.0,0.33849195,0.8900826,0.10635216,0.0,-0.089802794,0.5212574,0.121369965,0.0,-0.09471885,0.1122093,0.6772406,0.0,-0.101341754,0.40013555,0.35369232,0.0,-0.4222353,0.12801696,855.0183,1628.2417,780.07324,800.2198,884.0293,-0.19720458984375,-0.00384521484375,0.94110107421875,3.327178955078125,-6.639404296875,-6.34033203125,1.0,2.0,4.0,1.0,2.0,80.0,event
09:40:36.687,0.5119846,0.0,0.33849195,0.8900826,0.10635216,0.0,-0.089802794,0.5212574,0.121369965,0.0,-0.09471885,0.1122093,0.6772406,0.0,-0.101341754,0.40013555,0.35369232,0.0,-0.4222353,0.12801696,778.0586,1628.2417,779.2674,795.78754,836.08057,-0.19720458984375,-0.00384521484375,0.94110107421875,3.327178955078125,-6.639404296875,-6.34033203125,1.0,2.0,4.0,1.0,2.0,80.0,event
09:40:36.688,0.5119846,0.0,0.33849195,0.8900826,0.10635216,0.0,-0.089802794,0.5212574,0.121369965,0.0,-0.09471885,0.1122093,0.6772406,0.0,-0.101341754,0.40013555,0.35369232,0.0,-0.4222353,0.12801696,554.43225,1628.2417,770.0,767.1795,978.71796,-0.19720458984375,-0.00384521484375,0.94110107421875,3.327178955078125,-6.639404296875,-6.34033203125,1.0,2.0,4.0,1.0,2.0,80.0,event
09:40:36.689,0.5119846,0.0,0.33849195,0.8900826,0.10635216,0.0,-0.089802794,0.5212574,0.121369965,0.0,-0.09471885,0.1122093,0.6772406,0.0,-0.101341754,0.40013555,0.35369232,0.0,-0.4222353,0.12801696,542.74725,1628.2417,784.90845,771.6117,1029.0842,-0.19720458984375,-0.00384521484375,0.94110107421875,3.327178955078125,-6.639404296875,-6.34033203125,1.0,2.0,4.0,1.0,2.0,80.0,event
09:40:36.690,0.5119846,0.0,0.33849195,0.8900826,0.10635216,0.0,-0.089802794,0.5212574,0.121369965,0.0,-0.09471885,0.1122093,0.6772406,0.0,-0.101341754,0.40013555,0.35369232,0.0,-0.4222353,0.12801696,716.0073,1628.2417,798.20514,793.7729,717.619,-0.19720458984375,-0.00384521484375,0.94110107421875,3.327178955078125,-6.639404296875,-6.34033203125,1.0,2.0,4.0,1.0,2.0,80.0,event
09:40:36.691,0.5119846,0.0,0.33849195,0.8900826,0.10635216,0.0,-0.089802794,0.5212574,0.121369965,0.0,-0.09471885,0.1122093,0.6772406,0.0,-0.101341754,0.40013555,0.35369232,0.0,-0.4222353,0.12801696,828.8278,1628.2417,782.49084,792.96704,677.326,-0.19720458984375,-0.00384521484375,0.94110107421875,3.327178955078125,-6.639404296875,-6.34033203125,1.0,2.0,4.0,1.0,2.0,80.0,event
09:40:36.692,0.5119846,0.0,0.33849195,0.8900826,0.10635216,0.0,-0.089802794,0.5212574,0.121369965,0.0,-0.09471885,0.1122093,0.6772406,0.0,-0.101341754,0.40013555,0.35369232,0.0,-0.4222353,0.12801696,765.9707,1628.2417,782.0879,764.7619,735.34796,-0.19720458984375,-0.00384521484375,0.94110107421875,3.327178955078125,-6.639404296875,-6.34033203125,1.0,2.0,4.0,1.0,2.0,80.0,event
09:40:36.694,0.5119846,0.0,0.33849195,0.8900826,0.10635216,0.0,-0.089802794,0.5212574,0.121369965,0.0,-0.09471885,0.1122093,0.6772406,0.0,-0.101341754,0.40013555,0.35369232,0.0,-0.4222353,0.12801696,493.99268,1628.2417,786.9231,748.24176,716.8132,-0.169677734375,0.0142822265625,0.96343994140625,11.8133544921875,-6.138458251953125,-13.734893798828123,1.0,2.0,4.0,1.0,2.0,80.0,event
09:40:36.694,0.5119846,0.0,0.33849195,0.8900826,0.10635216,0.0,-0.089802794,0.5212574,0.121369965,0.0,-0.09471885,0.1122093,0.6772406,0.0,-0.101341754,0.40013555,0.35369232,0.0,-0.4222353,0.12801696,553.6264,1628.2417,785.7143,745.42126,720.84247,-0.169677734375,0.0142822265625,0.96343994140625,11.8133544921875,-6.138458251953125,-13.734893798828123,1.0,2.0,4.0,1.0,2.0,80.0,event
09:40:36.695,0.5119846,0.0,0.33849195,0.8900826,0.10635216,0.0,-0.089802794,0.5212574,0.121369965,0.0,-0.09471885,0.1122093,0.6772406,0.0,-0.101341754,0.40013555,0.35369232,0.0,-0.4222353,0.12801696,621.7216,1628.2417,782.0879,753.47986,785.31134,-0.169677734375,0.0142822265625,0.96343994140625,11.8133544921875,-6.138458251953125,-13.734893798828123,1.0,2.0,4.0,1.0,2.0,80.0,event
09:40:36.696,0.5119846,0.0,0.33849195,0.8900826,0.10635216,0.0,-0.089802794,0.5212574,0.121369965,0.0,-0.09471885,0.1122093,0.6772406,0.0,-0.101341754,0.40013555,0.35369232,0.0,-0.4222353,0.12801696,802.23444,1628.6447,790.14655,772.8205,824.3956,-0.169677734375,0.0142822265625,0.96343994140625,11.8133544921875,-6.138458251953125,-13.734893798828123,1.0,2.0,4.0,1.0,2.0,80.0,event
09:40:36.697,0.5119846,0.0,0.33849195,0.8900826,0.10635216,0.0,-0.089802794,0.5212574,0.121369965,0.0,-0.09471885,0.1122093,0.6772406,0.0,-0.101341754,0.40013555,0.35369232,0.0,-0.4222353,0.12801696,765.9707,1625.4213,794.9817,757.9121,735.34796,-0.169677734375,0.0142822265625,0.96343994140625,11.8133544921875,-6.138458251953125,-13.734893798828123,1.0,2.0,4.0,1.0,2.0,80.0,event
09:40:36.698,0.5119846,0.0,0.33849195,0.8900826,0.10635216,0.0,-0.089802794,0.5212574,0.121369965,0.0,-0.09471885,0.1122093,0.6772406,0.0,-0.101341754,0.40013555,0.35369232,0.0,-0.4222353,0.12801696,508.09525,1632.2711,786.9231,695.4579,760.32965,-0.169677734375,0.0142822265625,0.96343994140625,11.8133544921875,-6.138458251953125,-13.734893798828123,1.0,2.0,4.0,1.0,2.0,80.0,event
09:40:36.698,0.5119846,0.0,0.33849195,0.8900826,0.10635216,0.0,-0.089802794,0.5212574,0.121369965,0.0,-0.09471885,0.1122093,0.6772406,0.0,-0.101341754,0.40013555,0.35369232,0.0,-0.4222353,0.12801696,424.68866,1623.8096,787.326,677.72894,917.0696,-0.169677734375,0.0142822265625,0.96343994140625,11.8133544921875,-6.138458251953125,-13.734893798828123,1.0,2.0,4.0,1.0,2.0,80.0,event
09:40:36.699,0.5119846,0.0,0.33849195,0.8900826,0.10635216,0.0,-0.089802794,0.5212574,0.121369965,0.0,-0.09471885,0.1122093,0.6772406,0.0,-0.101341754,0.40013555,0.35369232,0.0,-0.4222353,0.12801696,518.5714,1557.7289,794.57874,720.84247,1211.2087,-0.169677734375,0.0142822265625,0.96343994140625,11.8133544921875,-6.138458251953125,-13.734893798828123,1.0,2.0,4.0,1.0,2.0,80.0,event
09:40:36.700,0.5119846,0.0,0.33849195,0.8900826,0.10635216,0.0,-0.089802794,0.5212574,0.121369965,0.0,-0.09471885,0.1122093,0.6772406,0.0,-0.101341754,0.40013555,0.35369232,0.0,-0.4222353,0.12801696,690.2198,1593.9927,815.12823,722.0513,1083.4799,-0.169677734375,0.0142822265625,0.96343994140625,11.8133544921875,-6.138458251953125,-13.734893798828123,1.0,2.0,4.0,1.0,2.0,80.0,event
09:40:36.701,0.5119846,0.0,0.27561697,0.8900826,0.10635216,0.0,-0.07984472,0.5212574,0.121369965,0.0,-0.09471885,0.1122093,0.6772406,0.0,-0.09231113,0.40013555,0.35369232,0.0,-0.4126255,0.12801696,716.0073,1638.3151,803.8461,681.3553,743.8095,-0.169677734375,0.0142822265625,0.96343994140625,11.8133544921875,-6.138458251953125,-13.734893798828123,1.0,2.0,2.0,1.0,2.0,80.0,event
09:40:36.707,0.5119846,0.0,0.27561697,0.8900826,0.10635216,0.0,-0.07984472,0.5212574,0.121369965,0.0,-0.09471885,0.1122093,0.6772406,0.0,-0.09231113,0.40013555,0.35369232,0.0,-0.4126255,0.12801696,502.85715,1624.2124,794.57874,663.22345,774.0293,-0.169677734375,0.0142822265625,0.96343994140625,11.8133544921875,-6.138458251953125,-13.734893798828123,1.0,2.0,2.0,1.0,2.0,80.0,event
09:40:36.708,0.5119846,0.0,0.27561697,0.8900826,0.10635216,0.0,-0.07984472,0.5212574,0.121369965,0.0,-0.09471885,0.1122093,0.6772406,0.0,-0.09231113,0.40013555,0.35369232,0.0,-0.4126255,0.12801696,398.49817,1628.6447,804.2491,675.7143,761.53845,-0.169677734375,0.0142822265625,0.96343994140625,11.8133544921875,-6.138458251953125,-13.734893798828123,1.0,2.0,2.0,1.0,2.0,80.0,event
09:40:36.756,0.5119846,0.0,0.27561697,0.8900826,0.10635216,0.0,-0.07984472,0.5212574,0.121369965,0.0,-0.09471885,0.1122093,0.6772406,0.0,-0.09231113,0.40013555,0.35369232,0.0,-0.4126255,0.12801696,493.1868,1627.8389,807.0696,684.9817,687.8022,-0.1533203125,0.04022216796875,0.97381591796875,13.53302001953125,-4.508514404296875,-14.273223876953123,1.0,2.0,2.0,1.0,2.0,80.0,event
09:40:36.757,0.5119846,0.0,0.27561697,0.8900826,0.10635216,0.0,-0.07984472,0.5212574,0.121369965,0.0,-0.09471885,0.1122093,0.6772406,0.0,-0.09231113,0.40013555,0.35369232,0.0,-0.4126255,0.12801696,662.8205,1628.2417,800.6227,694.65204,722.0513,-0.1533203125,0.04022216796875,0.97381591796875,13.53302001953125,-4.508514404296875,-14.273223876953123,1.0,2.0,2.0,1.0,2.0,80.0,event
09:40:36.758,0.5119846,0.0,0.27561697,0.8900826,0.10635216,0.0,-0.07984472,0.5212574,0.121369965,0.0,-0.09471885,0.1122093,0.6772406,0.0,-0.09231113,0.40013555,0.35369232,0.0,-0.4126255,0.12801696,730.10986,1628.2417,799.011,733.73627,801.4286,-0.1533203125,0.04022216796875,0.97381591796875,13.53302001953125,-4.508514404296875,-14.273223876953123,1.0,2.0,2.0,1.0,2.0,80.0,event
09:40:36.759,0.5119846,0.0,0.27561697,0.8900826,0.10635216,0.0,-0.07984472,0.5212574,0.121369965,0.0,-0.09471885,0.1122093,0.6772406,0.0,-0.09231113,0.40013555,0.35369232,0.0,-0.4126255,0.12801696,584.2491,1629.0476,801.4286,751.06226,772.8205,-0.1533203125,0.04022216796875,0.97381591796875,13.53302001953125,-4.508514404296875,-14.273223876953123,1.0,2.0,2.0,1.0,2.0,80.0,event
09:40:36.759,0.5119846,0.0,0.27561697,0.8900826,0.10635216,0.0,-0.07984472,0.5212574,0.121369965,0.0,-0.09471885,0.1122093,0.6772406,0.0,-0.09231113,0.40013555,0.35369232,0.0,-0.4126255,0.12801696,433.5531,1614.5421,794.9817,721.2454,672.49084,-0.1533203125,0.04022216796875,0.97381591796875,13.53302001953125,-4.508514404296875,-14.273223876953123,1.0,2.0,2.0,1.0,2.0,80.0,event
09:40:36.760,0.5119846,0.0,0.27561697,0.8900826,0.10635216,0.0,-0.07984472,0.5212574,0.121369965,0.0,-0.09471885,0.1122093,0.6772406,0.0,-0.09231113,0.40013555,0.35369232,0.0,-0.4126255,0.12801696,489.56042,20.54945,798.60803,718.8278,740.989,-0.1533203125,0.04022216796875,0.97381591796875,13.53302001953125,-4.508514404296875,-14.273223876953123,1.0,2.0,2.0,1.0,2.0,80.0,event
09:40:36.761,0.5119846,0.0,0.27561697,0.8900826,0.10635216,0.0,-0.07984472,0.5212574,0.121369965,0.0,-0.09471885,0.1122093,0.6772406,0.0,-0.09231113,0.40013555,0.35369232,0.0,-0.4126255,0.12801696,695.8608,1442.0879,800.2198,758.71796,1022.6374,-0.1533203125,0.04022216796875,0.97381591796875,13.53302001953125,-4.508514404296875,-14.273223876953123,1.0,2.0,2.0,1.0,2.0,80.0,event
09:40:36.761,0.5119846,0.0,0.27561697,0.8900826,0.10635216,0.0,-0.07984472,0.5212574,0.121369965,0.0,-0.09471885,0.1122093,0.6772406,0.0,-0.09231113,0.40013555,0.35369232,0.0,-0.4126255,0.12801696,801.8315,1372.381,803.8461,784.10254,1078.2417,-0.1533203125,0.04022216796875,0.97381591796875,13.53302001953125,-4.508514404296875,-14.273223876953123,1.0,2.0,2.0,1.0,2.0,80.0,event
09:40:36.762,0.5119846,0.0,0.27561697,0.8900826,0.10635216,0.0,-0.07984472,0.5212574,0.121369965,0.0,-0.09471885,0.1122093,0.6772406,0.0,-0.09231113,0.40013555,0.35369232,0.0,-0.4126255,0.12801696,654.35895,1.6117216,802.23444,788.1319,803.0403,-0.1533203125,0.04022216796875,0.97381591796875,13.53302001953125,-4.508514404296875,-14.273223876953123,1.0,2.0,2.0,1.0,2.0,80.0,event
09:40:36.762,0.5119846,0.0,0.27561697,0.8900826,0.10635216,0.0,-0.07984472,0.5212574,0.121369965,0.0,-0.09471885,0.1122093,0.6772406,0.0,-0.09231113,0.40013555,0.35369232,0.0,-0.4126255,0.12801696,513.3333,1627.033,798.20514,780.87915,723.663,-0.1533203125,0.04022216796875,0.97381591796875,13.53302001953125,-4.508514404296875,-14.273223876953123,1.0,2.0,2.0,1.0,2.0,80.0,event
09:40:36.763,0.5119846,0.0,0.27561697,0.8900826,0.10635216,0.0,-0.07984472,0.5212574,0.121369965,0.0,-0.09471885,0.1122093,0.6772406,0.0,-0.09231113,0.40013555,0.35369232,0.0,-0.4126255,0.12801696,572.5641,1601.6483,805.4579,780.4762,863.8828,-0.1533203125,0.04022216796875,0.97381591796875,13.53302001953125,-4.508514404296875,-14.273223876953123,1.0,2.0,2.0,1.0,2.0,80.0,event
09:40:36.764,0.5119846,0.0,0.27561697,0.8900826,0.10635216,0.0,-0.07984472,0.5212574,0.121369965,0.0,-0.09471885,0.1122093,0.6772406,0.0,-0.09231113,0.40013555,0.35369232,0.0,-0.4126255,0.12801696,734.94507,1611.3187,808.68134,806.6667,809.4872,-0.1533203125,0.04022216796875,0.97381591796875,13.53302001953125,-4.508514404296875,-14.273223876953123,1.0,2.0,2.0,1.0,2.0,80.0,event
09:40:36.798,0.5119846,0.0,0.27561697,0.8900826,0.10635216,0.0,-0.07984472,0.5212574,0.121369965,0.0,-0.09471885,0.1122093,0.6772406,0.0,-0.09231113,0.40013555,0.35369232,0.0,-0.4126255,0.12801696,755.89746,1573.4432,788.5348,855.42126,822.7839,-0.1513671875,0.0592041015625,0.98919677734375,9.951629638671877,-7.97027587890625,-7.230072021484375,1.0,2.0,2.0,1.0,2.0,80.0,event
09:40:36.798,0.5119846,0.0,0.27561697,0.8900826,0.10635216,0.0,-0.07984472,0.5212574,0.121369965,0.0,-0.09471885,0.1122093,0.6772406,0.0,-0.09231113,0.40013555,0.35369232,0.0,-0.4126255,0.12801696,868.71796,3.2234433,802.6374,852.1978,748.6447,-0.1513671875,0.0592041015625,0.98919677734375,9.951629638671877,-7.97027587890625,-7.230072021484375,1.0,2.0,2.0,1.0,2.0,80.0,event
09:40:36.799,0.5119846,0.0,0.27561697,0.8900826,0.10635216,0.0,-0.07984472,0.5212574,0.121369965,0.0,-0.09471885,0.1122093,0.6772406,0.0,-0.09231113,0.40013555,0.35369232,0.0,-0.4126255,0.12801696,591.50183,1364.3224,789.34064,848.1685,833.2601,-0.1513671875,0.0592041015625,0.98919677734375,9.951629638671877,-7.97027587890625,-7.230072021484375,1.0,2.0,2.0,1.0,2.0,80.0,event
09:40:36.799,0.5119846,0.0,0.27561697,0.8900826,0.10635216,0.0,-0.07984472,0.5212574,0.121369965,0.0,-0.09471885,0.1122093,0.6772406,0.0,-0.09231113,0.40013555,0.35369232,0.0,-0.4126255,0.12801696,623.3333,1385.2748,799.41394,866.7033,768.3883,-0.1513671875,0.0592041015625,0.98919677734375,9.951629638671877,-7.97027587890625,-7.230072021484375,1.0,2.0,2.0,1.0,2.0,80.0,event
09:40:36.800,0.5119846,0.0,0.27561697,0.8900826,0.10635216,0.0,-0.07984472,0.5212574,0.121369965,0.0,-0.09471885,0.1122093,0.6772406,0.0,-0.09231113,0.40013555,0.35369232,0.0,-0.4126255,0.12801696,794.57874,1264.3956,795.78754,896.1172,700.293,-0.1513671875,0.0592041015625,0.98919677734375,9.951629638671877,-7.97027587890625,-7.230072021484375,1.0,2.0,2.0,1.0,2.0,80.0,event
09:40:36.800,0.5119846,0.0,0.27561697,0.8900826,0.10635216,0.0,-0.07984472,0.5212574,0.121369965,0.0,-0.09471885,0.1122093,0.6772406,0.0,-0.09231113,0.40013555,0.35369232,0.0,-0.4126255,0.12801696,914.2491,631.79486,782.49084,916.6667,855.0183,-0.1513671875,0.0592041015625,0.98919677734375,9.951629638671877,-7.97027587890625,-7.230072021484375,1.0,2.0,2.0,1.0,2.0,80.0,event
09:40:36.800,0.5119846,0.0,0.27561697,0.8900826,0.10635216,0.0,-0.07984472,0.5212574,0.121369965,0.0,-0.09471885,0.1122093,0.6772406,0.0,-0.09231113,0.40013555,0.35369232,0.0,-0.4126255,0.12801696,818.3516,27.399267,782.8938,931.5751,1051.6483,-0.1513671875,0.0592041015625,0.98919677734375,9.951629638671877,-7.97027587890625,-7.230072021484375,1.0,2.0,2.0,1.0,2.0,80.0,event
09:40:36.801,0.5119846,0.0,0.27561697,0.8900826,0.10635216,0.0,-0.07984472,0.5212574,0.121369965,0.0,-0.09471885,0.1122093,0.6772406,0.0,-0.09231113,0.40013555,0.35369232,0.0,-0.4126255,0.12801696,645.4945,0.0,793.7729,914.65204,849.3773,-0.1513671875,0.0592041015625,0.98919677734375,9.951629638671877,-7.97027587890625,-7.230072021484375,1.0,2.0,2.0,1.0,2.0,80.0,event
09:40:36.801,0.5119846,0.0,0.27561697,0.8900826,0.10635216,0.0,-0.07984472,0.5212574,0.121369965,0.0,-0.09471885,0.1122093,0.6772406,0.0,-0.09231113,0.40013555,0.35369232,0.0,-0.4126255,0.12801696,632.1978,16.520147,787.326,902.5641,655.16486,-0.1513671875,0.0592041015625,0.98919677734375,9.951629638671877,-7.97027587890625,-7.230072021484375,1.0,2.0,2.0,1.0,2.0,80.0,event
09:40:36.802,0.5119846,0.0,0.27561697,0.8900826,0.10635216,0.0,-0.07984472,0.5212574,0.121369965,0.0,-0.09471885,0.1122093,0.6772406,0.0,-0.09231113,0.40013555,0.35369232,0.0,-0.4126255,0.12801696,807.47253,0.0,783.2967,934.7985,768.7912,-0.1513671875,0.0592041015625,0.98919677734375,9.951629638671877,-7.97027587890625,-7.230072021484375,1.0,2.0,2.0,1.0,2.0,80.0,event
09:40:36.803,0.5119846,0.0,0.27561697,0.8900826,0.10635216,0.0,-0.07984472,0.5212574,0.121369965,0.0,-0.09471885,0.1122093,0.6772406,0.0,-0.09231113,0.40013555,0.35369232,0.0,-0.4126255,0.12801696,984.35895,0.0,783.2967,953.73627,862.27106,-0.1513671875,0.0592041015625,0.98919677734375,9.951629638671877,-7.97027587890625,-7.230072021484375,1.0,2.0,2.0,1.0,2.0,80.0,event
09:40:36.804,0.5119846,0.0,0.18968734,0.8900826,0.10635216,0.0,-0.06698066,0.5212574,0.121369965,0.0,-0.09471885,0.1122093,0.6772406,0.0,-0.075603835,0.40013555,0.35369232,0.0,-0.39724436,0.12801696,947.28937,0.0,779.2674,960.989,734.5421,-0.1513671875,0.0592041015625,0.98919677734375,9.951629638671877,-7.97027587890625,-7.230072021484375,1.0,2.0,4.0,1.0,2.0,80.0,event
09:40:36.805,,,,,,,,,,,,,,,,,,,,,,,,,,,,,,,,,,,,,,jaw_clench
09:40:36.832,0.5119846,0.0,0.18968734,0.8900826,0.10635216,0.0,-0.06698066,0.5212574,0.121369965,0.0,-0.09471885,0.1122093,0.6772406,0.0,-0.075603835,0.40013555,0.35369232,0.0,-0.39724436,0.12801696,692.6374,0.0,779.2674,940.84247,830.0366,-0.14532470703125,0.0643310546875,0.9967041015625,4.224395751953125,-4.97955322265625,-0.43365478515625,1.0,2.0,4.0,1.0,2.0,80.0,event
09:40:36.832,0.5119846,0.0,0.18968734,0.8900826,0.10635216,0.0,-0.06698066,0.5212574,0.121369965,0.0,-0.09471885,0.1122093,0.6772406,0.0,-0.075603835,0.40013555,0.35369232,0.0,-0.39724436,0.12801696,754.2857,0.0,774.43225,945.2747,657.5824,-0.14532470703125,0.0643310546875,0.9967041015625,4.224395751953125,-4.97955322265625,-0.43365478515625,1.0,2.0,4.0,1.0,2.0,80.0,event
09:40:36.833,0.5119846,0.0,0.18968734,0.8900826,0.10635216,0.0,-0.06698066,0.5212574,0.121369965,0.0,-0.09471885,0.1122093,0.6772406,0.0,-0.075603835,0.40013555,0.35369232,0.0,-0.39724436,0.12801696,841.31866,0.0,787.72894,955.7509,864.2857,-0.14532470703125,0.0643310546875,0.9967041015625,4.224395751953125,-4.97955322265625,-0.43365478515625,1.0,2.0,4.0,1.0,2.0,80.0,event
09:40:36.833,0.5119846,0.0,0.18968734,0.8900826,0.10635216,0.0,-0.06698066,0.5212574,0.121369965,0.0,-0.09471885,0.1122093,0.6772406,0.0,-0.075603835,0.40013555,0.35369232,0.0,-0.39724436,0.12801696,1046.0073,0.0,780.07324,981.13556,751.06226,-0.14532470703125,0.0643310546875,0.9967041015625,4.224395751953125,-4.97955322265625,-0.43365478515625,1.0,2.0,4.0,1.0,2.0,80.0,event
09:40:36.833,0.5119846,0.0,0.18968734,0.8900826,0.10635216,0.0,-0.06698066,0.5212574,0.121369965,0.0,-0.09471885,0.1122093,0.6772406,0.0,-0.075603835,0.40013555,0.35369232,0.0,-0.39724436,0.12801696,1027.0696,0.0,772.01465,979.92676,770.0,-0.14532470703125,0.0643310546875,0.9967041015625,4.224395751953125,-4.97955322265625,-0.43365478515625,1.0,2.0,4.0,1.0,2.0,80.0,event
09:40:36.833,0.5119846,0.0,0.18968734,0.8900826,0.10635216,0.0,-0.06698066,0.5212574,0.121369965,0.0,-0.09471885,0.1122093,0.6772406,0.0,-0.075603835,0.40013555,0.35369232,0.0,-0.39724436,0.12801696,785.7143,0.0,761.53845,972.674,1064.5421,-0.14532470703125,0.0643310546875,0.9967041015625,4.224395751953125,-4.97955322265625,-0.43365478515625,1.0,2.0,4.0,1.0,2.0,80.0,event
09:40:36.834,0.5119846,0.0,0.18968734,0.8900826,0.10635216,0.0,-0.06698066,0.5212574,0.121369965,0.0,-0.09471885,0.1122093,0.6772406,0.0,-0.075603835,0.40013555,0.35369232,0.0,-0.39724436,0.12801696,757.9121,0.0,776.04395,979.92676,1162.4542,-0.14532470703125,0.0643310546875,0.9967041015625,4.224395751953125,-4.97955322265625,-0.43365478515625,1.0,2.0,4.0,1.0,2.0,80.0,event
09:40:36.834,0.5119846,0.0,0.18968734,0.8900826,0.10635216,0.0,-0.06698066,0.5212574,0.121369965,0.0,-0.09471885,0.1122093,0.6772406,0.0,-0.075603835,0.40013555,0.35369232,0.0,-0.39724436,0.12801696,956.1539,0.0,793.7729,975.89746,801.4286,-0.14532470703125,0.0643310546875,0.9967041015625,4.224395751953125,-4.97955322265625,-0.43365478515625,1.0,2.0,4.0,1.0,2.0,80.0,event
09:40:36.834,0.5119846,0.0,0.18968734,0.8900826,0.10635216,0.0,-0.06698066,0.5212574,0.121369965,0.0,-0.09471885,0.1122093,0.6772406,0.0,-0.075603835,0.40013555,0.35369232,0.0,-0.39724436,0.12801696,1162.8572,0.0,782.49084,1003.69965,753.8828,-0.14532470703125,0.0643310546875,0.9967041015625,4.224395751953125,-4.97955322265625,-0.43365478515625,1.0,2.0,4.0,1.0,2.0,80.0,event
09:40:36.835,0.5119846,0.0,0.18968734,0.8900826,0.10635216,0.0,-0.06698066,0.5212574,0.121369965,0.0,-0.09471885,0.1122093,0.6772406,0.0,-0.075603835,0.40013555,0.35369232,0.0,-0.39724436,0.12801696,1149.5604,0.0,778.86444,1004.10254,889.67035,-0.14532470703125,0.0643310546875,0.9967041015625,4.224395751953125,-4.97955322265625,-0.43365478515625,1.0,2.0,4.0,1.0,2.0,80.0,event
09:40:36.835,0.5119846,0.0,0.18968734,0.8900826,0.10635216,0.0,-0.06698066,0.5212574,0.121369965,0.0,-0.09471885,0.1122093,0.6772406,0.0,-0.075603835,0.40013555,0.35369232,0.0,-0.39724436,0.12801696,917.0696,0.0,789.7436,973.0769,758.315,-0.14532470703125,0.0643310546875,0.9967041015625,4.224395751953125,-4.97955322265625,-0.43365478515625,1.0,2.0,4.0,1.0,2.0,80.0,event
09:40:36.835,0.5119846,0.0,0.18968734,0.8900826,0.10635216,0.0,-0.06698066,0.5212574,0.121369965,0.0,-0.09471885,0.1122093,0.6772406,0.0,-0.075603835,0.40013555,0.35369232,0.0,-0.39724436,0.12801696,830.0366,0.0,790.54944,976.7033,678.5348,-0.14532470703125,0.0643310546875,0.9967041015625,4.224395751953125,-4.97955322265625,-0.43365478515625,1.0,2.0,4.0,1.0,2.0,80.0,event
09:40:36.898,0.5119846,0.0,0.18968734,0.8900826,0.10635216,0.0,-0.06698066,0.5212574,0.121369965,0.0,-0.09471885,0.1122093,0.6772406,0.0,-0.075603835,0.40013555,0.35369232,0.0,-0.39724436,0.12801696,995.2381,0.0,783.2967,997.25275,715.2015,-0.14532470703125,0.0643310546875,0.9967041015625,4.224395751953125,-4.97955322265625,-0.43365478515625,1.0,2.0,4.0,1.0,2.0,80.0,event
09:40:36.899,0.5119846,0.0,0.18968734,0.8900826,0.10635216,0.0,-0.06698066,0.5212574,0.121369965,0.0,-0.09471885,0.1122093,0.6772406,0.0,-0.075603835,0.40013555,0.35369232,0.0,-0.39724436,0.12801696,1207.5824,0.0,789.7436,1026.2638,771.2088,-0.14532470703125,0.0643310546875,0.9967041015625,4.224395751953125,-4.97955322265625,-0.43365478515625,1.0,2.0,4.0,1.0,2.0,80.0,event
09:40:36.899,0.5119846,0.0,0.18968734,0.8900826,0.10635216,0.0,-0.06698066,0.5212574,0.121369965,0.0,-0.09471885,0.1122093,0.6772406,0.0,-0.075603835,0.40013555,0.35369232,0.0,-0.39724436,0.12801696,1243.8462,0.0,792.96704,1035.9341,832.8571,-0.14532470703125,0.0643310546875,0.9967041015625,4.224395751953125,-4.97955322265625,-0.43365478515625,1.0,2.0,4.0,1.0,2.0,80.0,event
09:40:36.899,0.5119846,0.0,0.18968734,0.8900826,0.10635216,0.0,-0.06698066,0.5212574,0.121369965,0.0,-0.09471885,0.1122093,0.6772406,0.0,-0.075603835,0.40013555,0.35369232,0.0,-0.39724436,0.12801696,1081.4652,0.0,788.1319,1006.52014,755.89746,-0.14532470703125,0.0643310546875,0.9967041015625,4.224395751953125,-4.97955322265625,-0.43365478515625,1.0,2.0,4.0,1.0,2.0,80.0,event
09:40:36.900,0.5119846,0.0,0.18968734,0.8900826,0.10635216,0.0,-0.06698066,0.5212574,0.121369965,0.0,-0.09471885,0.1122093,0.6772406,0.0,-0.075603835,0.40013555,0.35369232,0.0,-0.39724436,0.12801696,988.3883,0.0,782.49084,1000.87915,786.52014,-0.14532470703125,0.0643310546875,0.9967041015625,4.224395751953125,-4.97955322265625,-0.43365478515625,1.0,2.0,4.0,1.0,2.0,80.0,event
09:40:36.900,0.5119846,0.0,0.18968734,0.8900826,0.10635216,0.0,-0.06698066,0.5212574,0.121369965,0.0,-0.09471885,0.1122093,0.6772406,0.0,-0.075603835,0.40013555,0.35369232,0.0,-0.39724436,0.12801696,1141.5018,0.0,790.9524,1003.2967,925.12823,-0.14532470703125,0.0643310546875,0.9967041015625,4.224395751953125,-4.97955322265625,-0.43365478515625,1.0,2.0,4.0,1.0,2.0,80.0,event
09:40:36.900,0.5119846,0.0,0.18968734,0.8900826,0.10635216,0.0,-0.06698066,0.5212574,0.121369965,0.0,-0.09471885,0.1122093,0.6772406,0.0,-0.075603835,0.40013555,0.35369232,0.0,-0.39724436,0.12801696,1421.1355,0.0,805.8608,1014.17584,859.85345,-0.14532470703125,0.0643310546875,0.9967041015625,4.224395751953125,-4.97955322265625,-0.43365478515625,1.0,2.0,4.0,1.0,2.0,80.0,event
09:40:36.901,0.5119846,0.0,0.18968734,0.8900826,0.10635216,0.0,-0.06698066,0.5212574,0.121369965,0.0,-0.09471885,0.1122093,0.6772406,0.0,-0.075603835,0.40013555,0.35369232,0.0,-0.39724436,0.12801696,1517.033,0.0,805.4579,1036.7399,743.4066,-0.14532470703125,0.0643310546875,0.9967041015625,4.224395751953125,-4.97955322265625,-0.43365478515625,1.0,2.0,4.0,1.0,2.0,80.0,event
09:40:36.901,0.5119846,0.0,0.18968734,0.8900826,0.10635216,0.0,-0.06698066,0.5212574,0.121369965,0.0,-0.09471885,0.1122093,0.6772406,0.0,-0.075603835,0.40013555,0.35369232,0.0,-0.39724436,0.12801696,1319.1941,0.0,791.75824,1019.011,806.6667,-0.14532470703125,0.0643310546875,0.9967041015625,4.224395751953125,-4.97955322265625,-0.43365478515625,1.0,2.0,4.0,1.0,2.0,80.0,event
09:40:36.901,0.5119846,0.0,0.18968734,0.8900826,0.10635216,0.0,-0.06698066,0.5212574,0.121369965,0.0,-0.09471885,0.1122093,0.6772406,0.0,-0.075603835,0.40013555,0.35369232,0.0,-0.39724436,0.12801696,1144.7252,0.0,797.3993,995.2381,941.6484,-0.14532470703125,0.0643310546875,0.9967041015625,4.224395751953125,-4.97955322265625,-0.43365478515625,1.0,2.0,4.0,1.0,2.0,80.0,event
09:40:36.902,0.5119846,0.0,0.18968734,0.8900826,0.10635216,0.0,-0.06698066,0.5212574,0.121369965,0.0,-0.09471885,0.1122093,0.6772406,0.0,-0.075603835,0.40013555,0.35369232,0.0,-0.39724436,0.12801696,1214.0293,0.0,814.7253,1015.78754,778.86444,-0.14532470703125,0.0643310546875,0.9967041015625,4.224395751953125,-4.97955322265625,-0.43365478515625,1.0,2.0,4.0,1.0,2.0,80.0,event
09:40:36.902,0.5119846,0.0,0.18968734,0.8900826,0.10635216,0.0,-0.06698066,0.5212574,0.121369965,0.0,-0.09471885,0.1122093,0.6772406,0.0,-0.075603835,0.40013555,0.35369232,0.0,-0.39724436,0.12801696,1404.6154,0.0,810.696,1061.3187,726.8865,-0.14532470703125,0.0643310546875,0.9967041015625,4.224395751953125,-4.97955322265625,-0.43365478515625,1.0,2.0,4.0,1.0,2.0,80.0,event
09:40:36.932,0.5119846,0.0,0.18968734,0.8900826,0.10635216,0.0,-0.06698066,0.5212574,0.121369965,0.0,-0.09471885,0.1122093,0.6772406,0.0,-0.075603835,0.40013555,0.35369232,0.0,-0.39724436,0.12801696,1427.9854,0.0,813.91943,1045.2014,831.6484,-0.1695556640625,0.05230712890625,0.97235107421875,1.12152099609375,-3.2000732421875,2.519683837890625,1.0,2.0,4.0,1.0,2.0,80.0,event
09:40:36.933,0.5119846,0.0,0.095121585,0.8900826,0.10635216,0.0,-0.05358311,0.5212574,0.121369965,0.0,-0.09471885,0.1122093,0.6772406,0.0,-0.05719864,0.40013555,0.35369232,0.0,-0.37245736,0.12801696,1210.403,0.0,819.5604,1005.31134,848.5714,-0.1695556640625,0.05230712890625,0.97235107421875,1.12152099609375,-3.2000732421875,2.519683837890625,1.0,2.0,4.0,1.0,2.0,80.0,event
09:40:36.934,,,,,,,,,,,,,,,,,,,,,,,,,,,,,,,,,,,,,,blink
09:40:36.935,0.5119846,0.0,0.095121585,0.8900826,0.10635216,0.0,-0.05358311,0.5212574,0.121369965,0.0,-0.09471885,0.1122093,0.6772406,0.0,-0.05719864,0.40013555,0.35369232,0.0,-0.37245736,0.12801696,1010.54944,0.0,822.381,985.9707,765.9707,-0.1695556640625,0.05230712890625,0.97235107421875,1.12152099609375,-3.2000732421875,2.519683837890625,1.0,2.0,4.0,1.0,2.0,80.0,event
09:40:36.936,0.5119846,0.0,0.095121585,0.8900826,0.10635216,0.0,-0.05358311,0.5212574,0.121369965,0.0,-0.09471885,0.1122093,0.6772406,0.0,-0.05719864,0.40013555,0.35369232,0.0,-0.37245736,0.12801696,1021.8315,0.0,820.7692,984.7619,699.0842,-0.1695556640625,0.05230712890625,0.97235107421875,1.12152099609375,-3.2000732421875,2.519683837890625,1.0,2.0,4.0,1.0,2.0,80.0,event
09:40:36.937,0.5119846,0.0,0.095121585,0.8900826,0.10635216,0.0,-0.05358311,0.5212574,0.121369965,0.0,-0.09471885,0.1122093,0.6772406,0.0,-0.05719864,0.40013555,0.35369232,0.0,-0.37245736,0.12801696,1177.7656,0.0,820.3663,994.83514,722.4542,-0.1695556640625,0.05230712890625,0.97235107421875,1.12152099609375,-3.2000732421875,2.519683837890625,1.0,2.0,4.0,1.0,2.0,80.0,event
09:40:36.937,0.5119846,0.0,0.095121585,0.8900826,0.10635216,0.0,-0.05358311,0.5212574,0.121369965,0.0,-0.09471885,0.1122093,0.6772406,0.0,-0.05719864,0.40013555,0.35369232,0.0,-0.37245736,0.12801696,1255.9341,0.0,825.2015,1004.90845,836.8865,-0.1695556640625,0.05230712890625,0.97235107421875,1.12152099609375,-3.2000732421875,2.519683837890625,1.0,2.0,4.0,1.0,2.0,80.0,event
09:40:36.938,0.5119846,0.0,0.095121585,0.8900826,0.10635216,0.0,-0.05358311,0.5212574,0.121369965,0.0,-0.09471885,0.1122093,0.6772406,0.0,-0.05719864,0.40013555,0.35369232,0.0,-0.37245736,0.12801696,1091.1355,0.0,825.6044,998.86444,895.31134,-0.1695556640625,0.05230712890625,0.97235107421875,1.12152099609375,-3.2000732421875,2.519683837890625,1.0,2.0,4.0,1.0,2.0,80.0,event
09:40:36.938,0.5119846,0.0,0.095121585,0.8900826,0.10635216,0.0,-0.05358311,0.5212574,0.121369965,0.0,-0.09471885,0.1122093,0.6772406,0.0,-0.05719864,0.40013555,0.35369232,0.0,-0.37245736,0.12801696,879.19415,0.0,826.4103,984.7619,807.8755,-0.1695556640625,0.05230712890625,0.97235107421875,1.12152099609375,-3.2000732421875,2.519683837890625,1.0,2.0,4.0,1.0,2.0,80.0,event
09:40:36.939,0.5119846,0.0,0.095121585,0.8900826,0.10635216,0.0,-0.05358311,0.5212574,0.121369965,0.0,-0.09471885,0.1122093,0.6772406,0.0,-0.05719864,0.40013555,0.35369232,0.0,-0.37245736,0.12801696,855.42126,0.0,821.978,985.56775,944.4689,-0.1695556640625,0.05230712890625,0.97235107421875,1.12152099609375,-3.2000732421875,2.519683837890625,1.0,2.0,4.0,1.0,2.0,80.0,event
09:40:36.939,0.5119846,0.0,0.095121585,0.8900826,0.10635216,0.0,-0.05358311,0.5212574,0.121369965,0.0,-0.09471885,0.1122093,0.6772406,0.0,-0.05719864,0.40013555,0.35369232,0.0,-0.37245736,0.12801696,1032.7106,0.0,834.0659,1001.28204,1057.2894,-0.1695556640625,0.05230712890625,0.97235107421875,1.12152099609375,-3.2000732421875,2.519683837890625,1.0,2.0,4.0,1.0,2.0,80.0,event
09:40:36.940,0.5119846,0.0,0.095121585,0.8900826,0.10635216,0.0,-0.05358311,0.5212574,0.121369965,0.0,-0.09471885,0.1122093,0.6772406,0.0,-0.05719864,0.40013555,0.35369232,0.0,-0.37245736,0.12801696,1163.2601,0.0,838.0952,1016.99634,818.7546,-0.1695556640625,0.05230712890625,0.97235107421875,1.12152099609375,-3.2000732421875,2.519683837890625,1.0,2.0,4.0,1.0,2.0,80.0,event
09:40:36.940,0.5119846,0.0,0.095121585,0.8900826,0.10635216,0.0,-0.05358311,0.5212574,0.121369965,0.0,-0.09471885,0.1122093,0.6772406,0.0,-0.05719864,0.40013555,0.35369232,0.0,-0.37245736,0.12801696,1008.1319,0.0,818.7546,1001.28204,757.50916,-0.1695556640625,0.05230712890625,0.97235107421875,1.12152099609375,-3.2000732421875,2.519683837890625,1.0,2.0,4.0,1.0,2.0,80.0,event
09:40:36.963,0.5119846,0.0,0.095121585,0.8900826,0.10635216,0.0,-0.05358311,0.5212574,0.121369965,0.0,-0.09471885,0.1122093,0.6772406,0.0,-0.05719864,0.40013555,0.35369232,0.0,-0.37245736,0.12801696,789.7436,0.0,820.7692,967.8388,763.95605,-0.1741943359375,0.0440673828125,0.95654296875,2.415008544921875,-3.461761474609375,-1.4056396484375,1.0,2.0,4.0,1.0,2.0,80.0,event
09:40:36.964,0.5119846,0.0,0.095121585,0.8900826,0.10635216,0.0,-0.05358311,0.5212574,0.121369965,0.0,-0.09471885,0.1122093,0.6772406,0.0,-0.05719864,0.40013555,0.35369232,0.0,-0.37245736,0.12801696,764.35895,0.0,826.0073,967.03296,745.0183,-0.1741943359375,0.0440673828125,0.95654296875,2.415008544921875,-3.461761474609375,-1.4056396484375,1.0,2.0,4.0,1.0,2.0,80.0,event
09:40:36.964,0.5119846,0.0,0.095121585,0.8900826,0.10635216,0.0,-0.05358311,0.5212574,0.121369965,0.0,-0.09471885,0.1122093,0.6772406,0.0,-0.05719864,0.40013555,0.35369232,0.0,-0.37245736,0.12801696,940.4396,0.0,823.5897,990.40295,733.3333,-0.1741943359375,0.0440673828125,0.95654296875,2.415008544921875,-3.461761474609375,-1.4056396484375,1.0,2.0,4.0,1.0,2.0,80.0,event
09:40:36.965,0.5119846,0.0,0.095121585,0.8900826,0.10635216,0.0,-0.05358311,0.5212574,0.121369965,0.0,-0.09471885,0.1122093,0.6772406,0.0,-0.05719864,0.40013555,0.35369232,0.0,-0.37245736,0.12801696,1089.9268,0.0,821.978,996.04395,754.68866,-0.1741943359375,0.0440673828125,0.95654296875,2.415008544921875,-3.461761474609375,-1.4056396484375,1.0,2.0,4.0,1.0,2.0,80.0,event
09:40:36.965,0.5119846,0.0,0.095121585,0.8900826,0.10635216,0.0,-0.05358311,0.5212574,0.121369965,0.0,-0.09471885,0.1122093,0.6772406,0.0,-0.05719864,0.40013555,0.35369232,0.0,-0.37245736,0.12801696,962.1978,0.0,820.7692,982.74725,810.696,-0.1741943359375,0.0440673828125,0.95654296875,2.415008544921875,-3.461761474609375,-1.4056396484375,1.0,2.0,4.0,1.0,2.0,80.0,event
09:40:36.966,0.5119846,0.0,0.095121585,0.8900826,0.10635216,0.0,-0.05358311,0.5212574,0.121369965,0.0,-0.09471885,0.1122093,0.6772406,0.0,-0.05719864,0.40013555,0.35369232,0.0,-0.37245736,0.12801696,720.0366,0.0,818.7546,962.1978,800.6227,-0.1741943359375,0.0440673828125,0.95654296875,2.415008544921875,-3.461761474609375,-1.4056396484375,1.0,2.0,4.0,1.0,2.0,80.0,event
09:40:36.967,0.5119846,0.0,0.095121585,0.8900826,0.10635216,0.0,-0.05358311,0.5212574,0.121369965,0.0,-0.09471885,0.1122093,0.6772406,0.0,-0.05719864,0.40013555,0.35369232,0.0,-0.37245736,0.12801696,677.72894,0.0,820.3663,952.52747,765.56775,-0.1741943359375,0.0440673828125,0.95654296875,2.415008544921875,-3.461761474609375,-1.4056396484375,1.0,2.0,4.0,1.0,2.0,80.0,event
09:40:36.967,0.5119846,0.0,0.095121585,0.8900826,0.10635216,0.0,-0.05358311,0.5212574,0.121369965,0.0,-0.09471885,0.1122093,0.6772406,0.0,-0.05719864,0.40013555,0.35369232,0.0,-0.37245736,0.12801696,847.76556,0.0,812.71063,984.35895,836.8865,-0.1741943359375,0.0440673828125,0.95654296875,2.415008544921875,-3.461761474609375,-1.4056396484375,1.0,2.0,4.0,1.0,2.0,80.0,event
09:40:36.968,0.5119846,0.0,0.095121585,0.8900826,0.10635216,0.0,-0.05358311,0.5212574,0.121369965,0.0,-0.09471885,0.1122093,0.6772406,0.0,-0.05719864,0.40013555,0.35369232,0.0,-0.37245736,0.12801696,1017.8022,0.0,821.1722,1013.7729,968.24176,-0.1741943359375,0.0440673828125,0.95654296875,2.415008544921875,-3.461761474609375,-1.4056396484375,1.0,2.0,4.0,1.0,2.0,80.0,event
09:40:36.968,0.5119846,0.0,0.095121585,0.8900826,0.10635216,0.0,-0.05358311,0.5212574,0.121369965,0.0,-0.09471885,0.1122093,0.6772406,0.0,-0.05719864,0.40013555,0.35369232,0.0,-0.37245736,0.12801696,961.79486,0.0,830.4396,983.1502,877.5824,-0.1741943359375,0.0440673828125,0.95654296875,2.415008544921875,-3.461761474609375,-1.4056396484375,1.0,2.0,4.0,1.0,2.0,80.0,event
09:40:36.969,0.5119846,0.0,0.095121585,0.8900826,0.10635216,0.0,-0.05358311,0.5212574,0.121369965,0.0,-0.09471885,0.1122093,0.6772406,0.0,-0.05719864,0.40013555,0.35369232,0.0,-0.37245736,0.12801696,723.663,0.0,814.3223,928.7546,824.3956,-0.1741943359375,0.0440673828125,0.95654296875,2.415008544921875,-3.461761474609375,-1.4056396484375,1.0,2.0,4.0,1.0,2.0,80.0,event
09:40:36.969,0.5119846,0.0,0.095121585,0.8900826,0.10635216,0.0,-0.05358311,0.5212574,0.121369965,0.0,-0.09471885,0.1122093,0.6772406,0.0,-0.05719864,0.40013555,0.35369232,0.0,-0.37245736,0.12801696,641.8681,0.0,818.3516,922.71063,865.89746,-0.1741943359375,0.0440673828125,0.95654296875,2.415008544921875,-3.461761474609375,-1.4056396484375,1.0,2.0,4.0,1.0,2.0,80.0,event
09:40:37.031,0.5119846,0.0,0.095121585,0.8900826,0.10635216,0.0,-0.05358311,0.5212574,0.121369965,0.0,-0.09471885,0.1122093,0.6772406,0.0,-0.05719864,0.40013555,0.35369232,0.0,-0.37245736,0.12801696,790.9524,0.0,828.8278,944.0659,830.4396,-0.164794921875,0.0592041015625,0.9774169921875,3.925323486328125,-1.981353759765625,-5.630035400390625,1.0,2.0,4.0,1.0,2.0,80.0,event
09:40:37.032,0.5119846,0.0,0.009520333,0.8900826,0.10635216,0.0,-0.04818428,0.5212574,0.121369965,0.0,-0.12623386,0.1122093,0.6772406,0.0,-0.03997273,0.40013555,0.35369232,0.0,-0.33866397,0.12801696,722.0513,0.0,814.7253,938.8278,752.27106,-0.164794921875,0.0592041015625,0.9774169921875,3.925323486328125,-1.981353759765625,-5.630035400390625,1.0,2.0,4.0,1.0,2.0,80.0,event
09:40:37.032,0.5119846,0.0,0.095121585,0.8900826,0.10635216,0.0,-0.05358311,0.5212574,0.121369965,0.0,-0.09471885,0.1122093,0.6772406,0.0,-0.05719864,0.40013555,0.35369232,0.0,-0.37245736,0.12801696,980.7326,0.0,825.2015,958.1685,748.6447,-0.164794921875,0.0592041015625,0.9774169921875,3.925323486328125,-1.981353759765625,-5.630035400390625,1.0,2.0,4.0,1.0,2.0,80.0,event
09:40:37.032,0.5119846,0.0,0.095121585,0.8900826,0.10635216,0.0,-0.05358311,0.5212574,0.121369965,0.0,-0.09471885,0.1122093,0.6772406,0.0,-0.05719864,0.40013555,0.35369232,0.0,-0.37245736,0.12801696,952.52747,0.0,813.91943,963.00366,764.35895,-0.164794921875,0.0592041015625,0.9774169921875,3.925323486328125,-1.981353759765625,-5.630035400390625,1.0,2.0,4.0,1.0,2.0,80.0,event
09:40:37.035,0.5119846,0.0,0.009520333,0.8900826,0.10635216,0.0,-0.04818428,0.5212574,0.121369965,0.0,-0.12623386,0.1122093,0.6772406,0.0,-0.03997273,0.40013555,0.35369232,0.0,-0.33866397,0.12801696,623.3333,0.0,823.1868,936.0073,720.84247,-0.164794921875,0.0592041015625,0.9774169921875,3.925323486328125,-1.981353759765625,-5.630035400390625,1.0,2.0,4.0,1.0,2.0,80.0,event
09:40:37.035,0.5119846,0.0,0.009520333,0.8900826,0.10635216,0.0,-0.04818428,0.5212574,0.121369965,0.0,-0.12623386,0.1122093,0.6772406,0.0,-0.03997273,0.40013555,0.35369232,0.0,-0.33866397,0.12801696,747.8388,0.0,826.0073,951.7216,808.2784,-0.164794921875,0.0592041015625,0.9774169921875,3.925323486328125,-1.981353759765625,-5.630035400390625,1.0,2.0,4.0,1.0,2.0,80.0,event
09:40:37.035,0.5119846,0.0,0.009520333,0.8900826,0.10635216,0.0,-0.04818428,0.5212574,0.121369965,0.0,-0.12623386,0.1122093,0.6772406,0.0,-0.03997273,0.40013555,0.35369232,0.0,-0.33866397,0.12801696,947.6923,0.0,827.619,965.0183,855.82416,-0.164794921875,0.0592041015625,0.9774169921875,3.925323486328125,-1.981353759765625,-5.630035400390625,1.0,2.0,4.0,1.0,2.0,80.0,event
09:40:37.036,0.5119846,0.0,0.009520333,0.8900826,0.10635216,0.0,-0.04818428,0.5212574,0.121369965,0.0,-0.12623386,0.1122093,0.6772406,0.0,-0.03997273,0.40013555,0.35369232,0.0,-0.33866397,0.12801696,931.978,0.0,817.5458,962.6007,1014.17584,-0.164794921875,0.0592041015625,0.9774169921875,3.925323486328125,-1.981353759765625,-5.630035400390625,1.0,2.0,4.0,1.0,2.0,80.0,event
09:40:37.036,0.5119846,0.0,0.009520333,0.8900826,0.10635216,0.0,-0.04818428,0.5212574,0.121369965,0.0,-0.12623386,0.1122093,0.6772406,0.0,-0.03997273,0.40013555,0.35369232,0.0,-0.33866397,0.12801696,701.9048,0.0,823.1868,926.7399,1028.2784,-0.164794921875,0.0592041015625,0.9774169921875,3.925323486328125,-1.981353759765625,-5.630035400390625,1.0,2.0,4.0,1.0,2.0,80.0,event
09:40:37.036,0.5119846,0.0,0.009520333,0.8900826,0.10635216,0.0,-0.04818428,0.5212574,0.121369965,0.0,-0.12623386,0.1122093,0.6772406,0.0,-0.03997273,0.40013555,0.35369232,0.0,-0.33866397,0.12801696,618.49817,0.0,829.2308,915.8608,761.13556,-0.164794921875,0.0592041015625,0.9774169921875,3.925323486328125,-1.981353759765625,-5.630035400390625,1.0,2.0,4.0,1.0,2.0,80.0,event
09:40:37.037,0.5119846,0.0,0.009520333,0.8900826,0.10635216,0.0,-0.04818428,0.5212574,0.121369965,0.0,-0.12623386,0.1122093,0.6772406,0.0,-0.03997273,0.40013555,0.35369232,0.0,-0.33866397,0.12801696,734.94507,0.0,823.5897,926.7399,720.0366,-0.164794921875,0.0592041015625,0.9774169921875,3.925323486328125,-1.981353759765625,-5.630035400390625,1.0,2.0,4.0,1.0,2.0,80.0,event
09:40:37.037,0.5119846,0.0,0.009520333,0.8900826,0.10635216,0.0,-0.04818428,0.5212574,0.121369965,0.0,-0.12623386,0.1122093,0.6772406,0.0,-0.03997273,0.40013555,0.35369232,0.0,-0.33866397,0.12801696,938.022,0.0,826.8132,944.0659,755.09155,-0.164794921875,0.0592041015625,0.9774169921875,3.925323486328125,-1.981353759765625,-5.630035400390625,1.0,2.0,4.0,1.0,2.0,80.0,event
09:40:37.064,0.5119846,0.0,0.009520333,0.8900826,0.10635216,0.0,-0.04818428,0.5212574,0.121369965,0.0,-0.12623386,0.1122093,0.6772406,0.0,-0.03997273,0.40013555,0.35369232,0.0,-0.33866397,0.12801696,971.8681,0.0,828.8278,956.9597,721.6484,-0.1700439453125,0.0626220703125,0.97467041015625,4.987030029296875,-3.887939453125,-7.61138916015625,1.0,2.0,4.0,1.0,2.0,80.0,event
09:40:37.065,0.5119846,0.0,0.009520333,0.8900826,0.10635216,0.0,-0.04818428,0.5212574,0.121369965,0.0,-0.12623386,0.1122093,0.6772406,0.0,-0.03997273,0.40013555,0.35369232,0.0,-0.33866397,0.12801696,683.36993,0.0,827.619,940.4396,760.32965,-0.1700439453125,0.0626220703125,0.97467041015625,4.987030029296875,-3.887939453125,-7.61138916015625,1.0,2.0,4.0,1.0,2.0,80.0,event
09:40:37.065,0.5119846,0.0,0.009520333,0.8900826,0.10635216,0.0,-0.04818428,0.5212574,0.121369965,0.0,-0.12623386,0.1122093,0.6772406,0.0,-0.03997273,0.40013555,0.35369232,0.0,-0.33866397,0.12801696,747.8388,0.0,822.7839,929.15753,774.83514,-0.1700439453125,0.0626220703125,0.97467041015625,4.987030029296875,-3.887939453125,-7.61138916015625,1.0,2.0,4.0,1.0,2.0,80.0,event
09:40:37.065,0.5119846,0.0,0.009520333,0.8900826,0.10635216,0.0,-0.04818428,0.5212574,0.121369965,0.0,-0.12623386,0.1122093,0.6772406,0.0,-0.03997273,0.40013555,0.35369232,0.0,-0.33866397,0.12801696,599.15753,0.0,821.1722,911.8315,811.9048,-0.1700439453125,0.0626220703125,0.97467041015625,4.987030029296875,-3.887939453125,-7.61138916015625,1.0,2.0,4.0,1.0,2.0,80.0,event
