TimeStamp,Delta_TP9,Delta_AF7,Delta_AF8,Delta_TP10,Theta_TP9,Theta_AF7,Theta_AF8,Theta_TP10,Alpha_TP9,Alpha_AF7,Alpha_AF8,Alpha_TP10,Beta_TP9,Beta_AF7,Beta_AF8,Beta_TP10,Gamma_TP9,Gamma_AF7,Gamma_AF8,Gamma_TP10,RAW_TP9,RAW_AF7,RAW_AF8,RAW_TP10,AUX_RIGHT,Accelerometer_X,Accelerometer_Y,Accelerometer_Z,Gyro_X,Gyro_Y,Gyro_Z,HeadBandOn,HSI_TP9,HSI_AF7,HSI_AF8,HSI_TP10,Battery,Elements
11:52:15.841,0.47491473,-0.5646276,-0.112409316,-0.21628034,0.71367407,-0.2684289,-0.48448426,0.4749554,1.0461917,0.41761023,0.19230007,0.78211105,1.2759556,1.055942,1.0128999,1.4632827,1.0639156,1.0836483,0.9581818,1.0157453,775.2381,806.6667,799.011,778.0586,656.77655,-0.12115478515625,0.14031982421875,0.9815673828125,2.968292236328125,0.994415283203125,1.48040771484375,1.0,1.0,1.0,1.0,1.0,100.0,event
11:52:15.842,0.47491473,-0.5646276,-0.112409316,-0.21628034,0.71367407,-0.2684289,-0.48448426,0.4749554,1.0461917,0.41761023,0.19230007,0.78211105,1.2759556,1.055942,1.0128999,1.4632827,1.0639156,1.0836483,0.9581818,1.0157453,788.93774,794.17584,789.7436,796.1905,787.326,-0.12115478515625,0.14031982421875,0.9815673828125,2.968292236328125,0.994415283203125,1.48040771484375,1.0,1.0,1.0,1.0,1.0,100.0,event
11:52:15.843,0.47491473,-0.5646276,-0.112409316,-0.21628034,0.71367407,-0.2684289,-0.48448426,0.4749554,1.0461917,0.41761023,0.19230007,0.78211105,1.2759556,1.055942,1.0128999,1.4632827,1.0639156,1.0836483,0.9581818,1.0157453,799.81683,801.4286,772.8205,807.47253,885.2381,-0.12115478515625,0.14031982421875,0.9815673828125,2.968292236328125,0.994415283203125,1.48040771484375,1.0,1.0,1.0,1.0,1.0,100.0,event
11:52:15.843,0.47491473,-0.5646276,-0.112409316,-0.21628034,0.71367407,-0.2684289,-0.48448426,0.4749554,1.0461917,0.41761023,0.19230007,0.78211105,1.2759556,1.055942,1.0128999,1.4632827,1.0639156,1.0836483,0.9581818,1.0157453,774.0293,787.72894,790.54944,794.57874,755.89746,-0.12115478515625,0.14031982421875,0.9815673828125,2.968292236328125,0.994415283203125,1.48040771484375,1.0,1.0,1.0,1.0,1.0,100.0,event
11:52:15.844,0.47491473,-0.5646276,-0.112409316,-0.21628034,0.71367407,-0.2684289,-0.48448426,0.4749554,1.0461917,0.41761023,0.19230007,0.78211105,1.2759556,1.055942,1.0128999,1.4632827,1.0639156,1.0836483,0.9581818,1.0157453,767.1795,774.0293,813.5165,803.8461,696.6667,-0.12115478515625,0.14031982421875,0.9815673828125,2.968292236328125,0.994415283203125,1.48040771484375,1.0,1.0,1.0,1.0,1.0,100.0,event
11:52:15.845,0.47491473,-0.5646276,-0.112409316,-0.21628034,0.71367407,-0.2684289,-0.48448426,0.4749554,1.0461917,0.41761023,0.19230007,0.78211105,1.2759556,1.055942,1.0128999,1.4632827,1.0639156,1.0836483,0.9581818,1.0157453,786.52014,805.8608,781.685,781.685,1215.641,-0.12115478515625,0.14031982421875,0.9815673828125,2.968292236328125,0.994415283203125,1.48040771484375,1.0,1.0,1.0,1.0,1.0,100.0,event
11:52:15.845,0.47491473,-0.5646276,-0.112409316,-0.21628034,0.71367407,-0.2684289,-0.48448426,0.4749554,1.0461917,0.41761023,0.19230007,0.78211105,1.2759556,1.055942,1.0128999,1.4632827,1.0639156,1.0836483,0.9581818,1.0157453,794.17584,801.02563,803.8461,809.89014,903.7729,-0.12115478515625,0.14031982421875,0.9815673828125,2.968292236328125,0.994415283203125,1.48040771484375,1.0,1.0,1.0,1.0,1.0,100.0,event
11:52:15.846,0.47491473,-0.5725738,-0.112409316,-0.21628034,0.71367407,-0.25792634,-0.48448426,0.4749554,1.0461917,0.43491042,0.19230007,0.78211105,1.2759556,1.0629936,1.0128999,1.4632827,1.0639156,1.0685819,0.9581818,1.0157453,781.28204,802.23444,784.10254,778.86444,987.98535,-0.12115478515625,0.14031982421875,0.9815673828125,2.968292236328125,0.994415283203125,1.48040771484375,1.0,2.0,1.0,1.0,2.0,100.0,event
11:52:15.849,0.47491473,-0.5725738,-0.112409316,-0.21628034,0.71367407,-0.25792634,-0.48448426,0.4749554,1.0461917,0.43491042,0.19230007,0.78211105,1.2759556,1.0629936,1.0128999,1.4632827,1.0639156,1.0685819,0.9581818,1.0157453,792.5641,806.6667,792.96704,792.5641,719.6337,-0.12115478515625,0.14031982421875,0.9815673828125,2.968292236328125,0.994415283203125,1.48040771484375,1.0,2.0,1.0,1.0,2.0,100.0,event
11:52:15.850,0.47491473,-0.5725738,-0.112409316,-0.21628034,0.71367407,-0.25792634,-0.48448426,0.4749554,1.0461917,0.43491042,0.19230007,0.78211105,1.2759556,1.0629936,1.0128999,1.4632827,1.0639156,1.0685819,0.9581818,1.0157453,790.14655,799.41394,786.1172,789.34064,776.04395,-0.12115478515625,0.14031982421875,0.9815673828125,2.968292236328125,0.994415283203125,1.48040771484375,1.0,2.0,1.0,1.0,2.0,100.0,event
11:52:15.850,0.47491473,-0.5725738,-0.112409316,-0.21628034,0.71367407,-0.25792634,-0.48448426,0.4749554,1.0461917,0.43491042,0.19230007,0.78211105,1.2759556,1.0629936,1.0128999,1.4632827,1.0639156,1.0685819,0.9581818,1.0157453,799.81683,787.326,779.2674,806.6667,819.15753,-0.12115478515625,0.14031982421875,0.9815673828125,2.968292236328125,0.994415283203125,1.48040771484375,1.0,2.0,1.0,1.0,2.0,100.0,event
11:52:15.851,0.47491473,-0.5725738,-0.112409316,-0.21628034,0.71367407,-0.25792634,-0.48448426,0.4749554,1.0461917,0.43491042,0.19230007,0.78211105,1.2759556,1.0629936,1.0128999,1.4632827,1.0639156,1.0685819,0.9581818,1.0157453,811.0989,803.8461,803.0403,830.4396,752.674,-0.12115478515625,0.14031982421875,0.9815673828125,2.968292236328125,0.994415283203125,1.48040771484375,1.0,2.0,1.0,1.0,2.0,100.0,event
11:52:15.877,0.47491473,-0.5725738,-0.112409316,-0.21628034,0.71367407,-0.25792634,-0.48448426,0.4749554,1.0461917,0.43491042,0.19230007,0.78211105,1.2759556,1.0629936,1.0128999,1.4632827,1.0639156,1.0685819,0.9581818,1.0157453,812.71063,817.1429,805.8608,823.1868,705.12823,-0.12115478515625,0.14031982421875,0.9815673828125,2.968292236328125,0.994415283203125,1.48040771484375,1.0,2.0,1.0,1.0,2.0,100.0,event
11:52:15.878,0.47491473,-0.5725738,-0.112409316,-0.21628034,0.71367407,-0.25792634,-0.48448426,0.4749554,1.0461917,0.43491042,0.19230007,0.78211105,1.2759556,1.0629936,1.0128999,1.4632827,1.0639156,1.0685819,0.9581818,1.0157453,819.5604,792.96704,782.8938,812.71063,752.27106,-0.12115478515625,0.14031982421875,0.9815673828125,2.968292236328125,0.994415283203125,1.48040771484375,1.0,2.0,1.0,1.0,2.0,100.0,event
11:52:15.879,0.47491473,-0.5725738,-0.112409316,-0.21628034,0.71367407,-0.25792634,-0.48448426,0.4749554,1.0461917,0.43491042,0.19230007,0.78211105,1.2759556,1.0629936,1.0128999,1.4632827,1.0639156,1.0685819,0.9581818,1.0157453,820.7692,765.16486,779.2674,830.0366,747.8388,-0.12115478515625,0.14031982421875,0.9815673828125,2.968292236328125,0.994415283203125,1.48040771484375,1.0,2.0,1.0,1.0,2.0,100.0,event
11:52:15.879,0.47491473,-0.5725738,-0.112409316,-0.21628034,0.71367407,-0.25792634,-0.48448426,0.4749554,1.0461917,0.43491042,0.19230007,0.78211105,1.2759556,1.0629936,1.0128999,1.4632827,1.0639156,1.0685819,0.9581818,1.0157453,823.5897,788.1319,802.23444,834.4689,724.0659,-0.12115478515625,0.14031982421875,0.9815673828125,2.968292236328125,0.994415283203125,1.48040771484375,1.0,2.0,1.0,1.0,2.0,100.0,event
11:52:15.880,0.47491473,-0.5725738,-0.112409316,-0.21628034,0.71367407,-0.25792634,-0.48448426,0.4749554,1.0461917,0.43491042,0.19230007,0.78211105,1.2759556,1.0629936,1.0128999,1.4632827,1.0639156,1.0685819,0.9581818,1.0157453,835.6777,796.5934,808.68134,846.1539,741.39197,-0.12115478515625,0.14031982421875,0.9815673828125,2.968292236328125,0.994415283203125,1.48040771484375,1.0,2.0,1.0,1.0,2.0,100.0,event
11:52:15.880,0.47491473,-0.5725738,-0.112409316,-0.21628034,0.71367407,-0.25792634,-0.48448426,0.4749554,1.0461917,0.43491042,0.19230007,0.78211105,1.2759556,1.0629936,1.0128999,1.4632827,1.0639156,1.0685819,0.9581818,1.0157453,849.3773,774.83514,809.0842,863.47986,852.6007,-0.12115478515625,0.14031982421875,0.9815673828125,2.968292236328125,0.994415283203125,1.48040771484375,1.0,2.0,1.0,1.0,2.0,100.0,event
11:52:15.881,0.47491473,-0.5725738,-0.112409316,-0.21628034,0.71367407,-0.25792634,-0.48448426,0.4749554,1.0461917,0.43491042,0.19230007,0.78211105,1.2759556,1.0629936,1.0128999,1.4632827,1.0639156,1.0685819,0.9581818,1.0157453,798.60803,822.7839,778.86444,811.9048,817.9487,-0.12115478515625,0.14031982421875,0.9815673828125,2.968292236328125,0.994415283203125,1.48040771484375,1.0,2.0,1.0,1.0,2.0,100.0,event
11:52:15.881,0.47491473,-0.5725738,-0.112409316,-0.21628034,0.71367407,-0.25792634,-0.48448426,0.4749554,1.0461917,0.43491042,0.19230007,0.78211105,1.2759556,1.0629936,1.0128999,1.4632827,1.0639156,1.0685819,0.9581818,1.0157453,837.6923,798.20514,790.54944,832.4542,904.17584,-0.12115478515625,0.14031982421875,0.9815673828125,2.968292236328125,0.994415283203125,1.48040771484375,1.0,2.0,1.0,1.0,2.0,100.0,event
11:52:15.882,0.47491473,-0.5725738,-0.112409316,-0.21628034,0.71367407,-0.25792634,-0.48448426,0.4749554,1.0461917,0.43491042,0.19230007,0.78211105,1.2759556,1.0629936,1.0128999,1.4632827,1.0639156,1.0685819,0.9581818,1.0157453,804.65204,805.8608,814.7253,819.9634,935.2015,-0.12115478515625,0.14031982421875,0.9815673828125,2.968292236328125,0.994415283203125,1.48040771484375,1.0,2.0,1.0,1.0,2.0,100.0,event
11:52:15.882,0.47491473,-0.5725738,-0.112409316,-0.21628034,0.71367407,-0.25792634,-0.48448426,0.4749554,1.0461917,0.43491042,0.19230007,0.78211105,1.2759556,1.0629936,1.0128999,1.4632827,1.0639156,1.0685819,0.9581818,1.0157453,770.40295,797.8022,800.6227,812.71063,747.8388,-0.12115478515625,0.14031982421875,0.9815673828125,2.968292236328125,0.994415283203125,1.48040771484375,1.0,2.0,1.0,1.0,2.0,100.0,event
11:52:15.883,0.47491473,-0.5725738,-0.112409316,-0.21628034,0.71367407,-0.25792634,-0.48448426,0.4749554,1.0461917,0.43491042,0.19230007,0.78211105,1.2759556,1.0629936,1.0128999,1.4632827,1.0639156,1.0685819,0.9581818,1.0157453,791.3553,817.5458,788.5348,794.9817,966.2271,-0.12115478515625,0.14031982421875,0.9815673828125,2.968292236328125,0.994415283203125,1.48040771484375,1.0,2.0,1.0,1.0,2.0,100.0,event
11:52:15.884,0.47491473,-0.5725738,-0.112409316,-0.21628034,0.71367407,-0.25792634,-0.48448426,0.4749554,1.0461917,0.43491042,0.19230007,0.78211105,1.2759556,1.0629936,1.0128999,1.4632827,1.0639156,1.0685819,0.9581818,1.0157453,726.08057,807.47253,778.86444,774.83514,712.381,-0.12115478515625,0.14031982421875,0.9815673828125,2.968292236328125,0.994415283203125,1.48040771484375,1.0,2.0,1.0,1.0,2.0,100.0,event
11:52:15.944,0.47491473,-0.5725738,-0.112409316,-0.21628034,0.71367407,-0.25792634,-0.48448426,0.4749554,1.0461917,0.43491042,0.19230007,0.78211105,1.2759556,1.0629936,1.0128999,1.4632827,1.0639156,1.0685819,0.9581818,1.0157453,727.6923,785.31134,797.8022,825.6044,724.0659,-0.12298583984375,0.127685546875,0.9696044921875,0.76263427734375,-2.684173583984375,2.03369140625,1.0,2.0,1.0,1.0,2.0,100.0,event
11:52:15.945,0.47491473,-0.5725738,-0.112409316,-0.21628034,0.71367407,-0.25792634,-0.48448426,0.4749554,1.0461917,0.43491042,0.19230007,0.78211105,1.2759556,1.0629936,1.0128999,1.4632827,1.0639156,1.0685819,0.9581818,1.0157453,755.89746,780.07324,795.78754,818.3516,791.3553,-0.12298583984375,0.127685546875,0.9696044921875,0.76263427734375,-2.684173583984375,2.03369140625,1.0,2.0,1.0,1.0,2.0,100.0,event
11:52:15.946,0.47491473,-0.5725738,-0.112409316,-0.21628034,0.71367407,-0.25792634,-0.48448426,0.4749554,1.0461917,0.43491042,0.19230007,0.78211105,1.2759556,1.0629936,1.0128999,1.4632827,1.0639156,1.0685819,0.9581818,1.0157453,840.10986,792.5641,798.60803,799.81683,773.6264,-0.12298583984375,0.127685546875,0.9696044921875,0.76263427734375,-2.684173583984375,2.03369140625,1.0,2.0,1.0,1.0,2.0,100.0,event
11:52:15.946,0.47491473,-0.5725738,-0.112409316,-0.21628034,0.71367407,-0.25792634,-0.48448426,0.4749554,1.0461917,0.43491042,0.19230007,0.78211105,1.2759556,1.0629936,1.0128999,1.4632827,1.0639156,1.0685819,0.9581818,1.0157453,860.65936,809.89014,789.7436,803.44324,710.7692,-0.12298583984375,0.127685546875,0.9696044921875,0.76263427734375,-2.684173583984375,2.03369140625,1.0,2.0,1.0,1.0,2.0,100.0,event
11:52:15.947,0.47491473,-0.5725738,-0.112409316,-0.21628034,0.71367407,-0.25792634,-0.48448426,0.4749554,1.0461917,0.43491042,0.19230007,0.78211105,1.2759556,1.0629936,1.0128999,1.4632827,1.0639156,1.0685819,0.9581818,1.0157453,813.5165,813.5165,797.3993,794.9817,749.85345,-0.12298583984375,0.127685546875,0.9696044921875,0.76263427734375,-2.684173583984375,2.03369140625,1.0,2.0,1.0,1.0,2.0,100.0,event
11:52:15.948,0.47491473,-0.5725738,-0.112409316,-0.21628034,0.71367407,-0.25792634,-0.48448426,0.4749554,1.0461917,0.43491042,0.19230007,0.78211105,1.2759556,1.0629936,1.0128999,1.4632827,1.0639156,1.0685819,0.9581818,1.0157453,805.05493,809.0842,800.6227,789.7436,922.71063,-0.12298583984375,0.127685546875,0.9696044921875,0.76263427734375,-2.684173583984375,2.03369140625,1.0,2.0,1.0,1.0,2.0,100.0,event
11:52:15.948,0.47491473,-0.5725738,-0.112409316,-0.21628034,0.71367407,-0.25792634,-0.48448426,0.4749554,1.0461917,0.43491042,0.19230007,0.78211105,1.2759556,1.0629936,1.0128999,1.4632827,1.0639156,1.0685819,0.9581818,1.0157453,792.96704,794.57874,777.25275,786.9231,881.6117,-0.12298583984375,0.127685546875,0.9696044921875,0.76263427734375,-2.684173583984375,2.03369140625,1.0,2.0,1.0,1.0,2.0,100.0,event
11:52:15.949,0.47491473,-0.5725738,-0.112409316,-0.21628034,0.71367407,-0.25792634,-0.48448426,0.4749554,1.0461917,0.43491042,0.19230007,0.78211105,1.2759556,1.0629936,1.0128999,1.4632827,1.0639156,1.0685819,0.9581818,1.0157453,787.72894,806.6667,783.69965,745.0183,782.49084,-0.12298583984375,0.127685546875,0.9696044921875,0.76263427734375,-2.684173583984375,2.03369140625,1.0,2.0,1.0,1.0,2.0,100.0,event
11:52:15.949,0.47491473,-0.5725738,-0.112409316,-0.21628034,0.71367407,-0.25792634,-0.48448426,0.4749554,1.0461917,0.43491042,0.19230007,0.78211105,1.2759556,1.0629936,1.0128999,1.4632827,1.0639156,1.0685819,0.9581818,1.0157453,777.6557,765.56775,767.5824,760.32965,762.74725,-0.12298583984375,0.127685546875,0.9696044921875,0.76263427734375,-2.684173583984375,2.03369140625,1.0,2.0,1.0,1.0,2.0,100.0,event
11:52:15.950,0.47491473,-0.5599518,0.2521256,-0.21628034,0.71367407,-0.25764924,-0.23680444,0.4749554,1.0461917,0.41555318,0.21838264,0.78211105,1.2759556,1.0793895,0.99941325,1.4632827,1.0639156,1.0602244,0.95039505,1.0157453,753.0769,857.8388,793.7729,770.80585,1005.31134,-0.12298583984375,0.127685546875,0.9696044921875,0.76263427734375,-2.684173583984375,2.03369140625,1.0,2.0,1.0,1.0,2.0,100.0,event
11:52:15.954,0.47491473,-0.5599518,0.2521256,-0.21628034,0.71367407,-0.25764924,-0.23680444,0.4749554,1.0461917,0.41555318,0.21838264,0.78211105,1.2759556,1.0793895,0.99941325,1.4632827,1.0639156,1.0602244,0.95039505,1.0157453,691.02563,839.707,778.86444,776.8498,926.7399,-0.12298583984375,0.127685546875,0.9696044921875,0.76263427734375,-2.684173583984375,2.03369140625,1.0,2.0,1.0,1.0,2.0,100.0,event
11:52:15.955,0.47491473,-0.5599518,0.2521256,-0.21628034,0.71367407,-0.25764924,-0.23680444,0.4749554,1.0461917,0.41555318,0.21838264,0.78211105,1.2759556,1.0793895,0.99941325,1.4632827,1.0639156,1.0602244,0.95039505,1.0157453,649.5238,808.2784,803.44324,726.4835,762.3443,-0.12298583984375,0.127685546875,0.9696044921875,0.76263427734375,-2.684173583984375,2.03369140625,1.0,2.0,1.0,1.0,2.0,100.0,event
11:52:15.981,0.47491473,-0.5599518,0.2521256,-0.21628034,0.71367407,-0.25764924,-0.23680444,0.4749554,1.0461917,0.41555318,0.21838264,0.78211105,1.2759556,1.0793895,0.99941325,1.4632827,1.0639156,1.0602244,0.95039505,1.0157453,662.01465,801.02563,816.337,654.7619,810.293,-0.13751220703125,0.12469482421875,0.98931884765625,4.628143310546875,-14.49005126953125,0.13458251953125,1.0,2.0,1.0,1.0,2.0,100.0,event
11:52:15.982,0.47491473,-0.5599518,0.2521256,-0.21628034,0.71367407,-0.25764924,-0.23680444,0.4749554,1.0461917,0.41555318,0.21838264,0.78211105,1.2759556,1.0793895,0.99941325,1.4632827,1.0639156,1.0602244,0.95039505,1.0157453,856.63007,789.7436,798.20514,765.9707,766.3736,-0.13751220703125,0.12469482421875,0.98931884765625,4.628143310546875,-14.49005126953125,0.13458251953125,1.0,2.0,1.0,1.0,2.0,100.0,event
11:52:15.982,0.47491473,-0.5599518,0.2521256,-0.21628034,0.71367407,-0.25764924,-0.23680444,0.4749554,1.0461917,0.41555318,0.21838264,0.78211105,1.2759556,1.0793895,0.99941325,1.4632827,1.0639156,1.0602244,0.95039505,1.0157453,899.7436,797.8022,804.2491,871.9414,667.6557,-0.13751220703125,0.12469482421875,0.98931884765625,4.628143310546875,-14.49005126953125,0.13458251953125,1.0,2.0,1.0,1.0,2.0,100.0,event
11:52:15.983,0.47491473,-0.5599518,0.2521256,-0.21628034,0.71367407,-0.25764924,-0.23680444,0.4749554,1.0461917,0.41555318,0.21838264,0.78211105,1.2759556,1.0793895,0.99941325,1.4632827,1.0639156,1.0602244,0.95039505,1.0157453,853.8095,789.34064,792.1612,858.6447,659.59705,-0.13751220703125,0.12469482421875,0.98931884765625,4.628143310546875,-14.49005126953125,0.13458251953125,1.0,2.0,1.0,1.0,2.0,100.0,event
11:52:15.984,0.47491473,-0.5599518,0.2521256,-0.21628034,0.71367407,-0.25764924,-0.23680444,0.4749554,1.0461917,0.41555318,0.21838264,0.78211105,1.2759556,1.0793895,0.99941325,1.4632827,1.0639156,1.0602244,0.95039505,1.0157453,897.326,766.3736,787.72894,877.98535,765.9707,-0.13751220703125,0.12469482421875,0.98931884765625,4.628143310546875,-14.49005126953125,0.13458251953125,1.0,2.0,1.0,1.0,2.0,100.0,event
11:52:15.984,0.47491473,-0.5599518,0.2521256,-0.21628034,0.71367407,-0.25764924,-0.23680444,0.4749554,1.0461917,0.41555318,0.21838264,0.78211105,1.2759556,1.0793895,0.99941325,1.4632827,1.0639156,1.0602244,0.95039505,1.0157453,882.01465,802.6374,809.4872,843.73627,808.68134,-0.13751220703125,0.12469482421875,0.98931884765625,4.628143310546875,-14.49005126953125,0.13458251953125,1.0,2.0,1.0,1.0,2.0,100.0,event
11:52:15.985,0.47491473,-0.5599518,0.2521256,-0.21628034,0.71367407,-0.25764924,-0.23680444,0.4749554,1.0461917,0.41555318,0.21838264,0.78211105,1.2759556,1.0793895,0.99941325,1.4632827,1.0639156,1.0602244,0.95039505,1.0157453,778.86444,774.83514,840.5128,774.83514,756.7033,-0.13751220703125,0.12469482421875,0.98931884765625,4.628143310546875,-14.49005126953125,0.13458251953125,1.0,2.0,1.0,1.0,2.0,100.0,event
11:52:15.985,0.47491473,-0.5599518,0.2521256,-0.21628034,0.71367407,-0.25764924,-0.23680444,0.4749554,1.0461917,0.41555318,0.21838264,0.78211105,1.2759556,1.0793895,0.99941325,1.4632827,1.0639156,1.0602244,0.95039505,1.0157453,759.12085,784.10254,786.1172,780.4762,734.94507,-0.13751220703125,0.12469482421875,0.98931884765625,4.628143310546875,-14.49005126953125,0.13458251953125,1.0,2.0,1.0,1.0,2.0,100.0,event
11:52:15.986,0.47491473,-0.5599518,0.2521256,-0.21628034,0.71367407,-0.25764924,-0.23680444,0.4749554,1.0461917,0.41555318,0.21838264,0.78211105,1.2759556,1.0793895,0.99941325,1.4632827,1.0639156,1.0602244,0.95039505,1.0157453,739.3773,795.78754,793.7729,805.8608,1000.87915,-0.13751220703125,0.12469482421875,0.98931884765625,4.628143310546875,-14.49005126953125,0.13458251953125,1.0,2.0,1.0,1.0,2.0,100.0,event
11:52:15.986,0.47491473,-0.5599518,0.2521256,-0.21628034,0.71367407,-0.25764924,-0.23680444,0.4749554,1.0461917,0.41555318,0.21838264,0.78211105,1.2759556,1.0793895,0.99941325,1.4632827,1.0639156,1.0602244,0.95039505,1.0157453,705.5311,838.0952,745.0183,823.1868,941.2454,-0.13751220703125,0.12469482421875,0.98931884765625,4.628143310546875,-14.49005126953125,0.13458251953125,1.0,2.0,1.0,1.0,2.0,100.0,event
11:52:15.987,0.47491473,-0.5599518,0.2521256,-0.21628034,0.71367407,-0.25764924,-0.23680444,0.4749554,1.0461917,0.41555318,0.21838264,0.78211105,1.2759556,1.0793895,0.99941325,1.4632827,1.0639156,1.0602244,0.95039505,1.0157453,884.83514,803.44324,796.1905,842.9304,765.16486,-0.13751220703125,0.12469482421875,0.98931884765625,4.628143310546875,-14.49005126953125,0.13458251953125,1.0,2.0,1.0,1.0,2.0,100.0,event
11:52:15.987,0.47491473,-0.5599518,0.2521256,-0.21628034,0.71367407,-0.25764924,-0.23680444,0.4749554,1.0461917,0.41555318,0.21838264,0.78211105,1.2759556,1.0793895,0.99941325,1.4632827,1.0639156,1.0602244,0.95039505,1.0157453,904.9817,828.022,768.3883,882.4176,799.41394,-0.13751220703125,0.12469482421875,0.98931884765625,4.628143310546875,-14.49005126953125,0.13458251953125,1.0,2.0,1.0,1.0,2.0,100.0,event
11:52:16.013,0.47491473,-0.5599518,0.2521256,-0.21628034,0.71367407,-0.25764924,-0.23680444,0.4749554,1.0461917,0.41555318,0.21838264,0.78211105,1.2759556,1.0793895,0.99941325,1.4632827,1.0639156,1.0602244,0.95039505,1.0157453,875.9707,805.8608,776.4469,861.8681,836.8865,-0.09686279296875,0.1336669921875,0.9722900390625,1.5850830078125,-7.46185302734375,1.27105712890625,1.0,2.0,1.0,1.0,2.0,100.0,event
11:52:16.014,0.47491473,-0.5599518,0.2521256,-0.21628034,0.71367407,-0.25764924,-0.23680444,0.4749554,1.0461917,0.41555318,0.21838264,0.78211105,1.2759556,1.0793895,0.99941325,1.4632827,1.0639156,1.0602244,0.95039505,1.0157453,850.58606,795.38464,784.90845,844.94507,726.4835,-0.09686279296875,0.1336669921875,0.9722900390625,1.5850830078125,-7.46185302734375,1.27105712890625,1.0,2.0,1.0,1.0,2.0,100.0,event
11:52:16.015,0.47491473,-0.5599518,0.2521256,-0.21628034,0.71367407,-0.25764924,-0.23680444,0.4749554,1.0461917,0.41555318,0.21838264,0.78211105,1.2759556,1.0793895,0.99941325,1.4632827,1.0639156,1.0602244,0.95039505,1.0157453,866.30035,785.7143,787.72894,854.61536,685.78754,-0.09686279296875,0.1336669921875,0.9722900390625,1.5850830078125,-7.46185302734375,1.27105712890625,1.0,2.0,1.0,1.0,2.0,100.0,event
11:52:16.015,0.47491473,-0.5599518,0.2521256,-0.21628034,0.71367407,-0.25764924,-0.23680444,0.4749554,1.0461917,0.41555318,0.21838264,0.78211105,1.2759556,1.0793895,0.99941325,1.4632827,1.0639156,1.0602244,0.95039505,1.0157453,892.0879,789.34064,780.07324,859.45056,699.89014,-0.09686279296875,0.1336669921875,0.9722900390625,1.5850830078125,-7.46185302734375,1.27105712890625,1.0,2.0,1.0,1.0,2.0,100.0,event
11:52:16.016,0.47491473,-0.5599518,0.2521256,-0.21628034,0.71367407,-0.25764924,-0.23680444,0.4749554,1.0461917,0.41555318,0.21838264,0.78211105,1.2759556,1.0793895,0.99941325,1.4632827,1.0639156,1.0602244,0.95039505,1.0157453,859.0476,823.9927,779.2674,833.2601,817.5458,-0.09686279296875,0.1336669921875,0.9722900390625,1.5850830078125,-7.46185302734375,1.27105712890625,1.0,2.0,1.0,1.0,2.0,100.0,event
11:52:16.017,0.47491473,-0.5599518,0.2521256,-0.21628034,0.71367407,-0.25764924,-0.23680444,0.4749554,1.0461917,0.41555318,0.21838264,0.78211105,1.2759556,1.0793895,0.99941325,1.4632827,1.0639156,1.0602244,0.95039505,1.0157453,812.71063,825.6044,778.86444,785.7143,879.19415,-0.09686279296875,0.1336669921875,0.9722900390625,1.5850830078125,-7.46185302734375,1.27105712890625,1.0,2.0,1.0,1.0,2.0,100.0,event
11:52:16.017,0.47491473,-0.5599518,0.2521256,-0.21628034,0.71367407,-0.25764924,-0.23680444,0.4749554,1.0461917,0.41555318,0.21838264,0.78211105,1.2759556,1.0793895,0.99941325,1.4632827,1.0639156,1.0602244,0.95039505,1.0157453,802.6374,801.8315,767.98535,768.3883,807.0696,-0.09686279296875,0.1336669921875,0.9722900390625,1.5850830078125,-7.46185302734375,1.27105712890625,1.0,2.0,1.0,1.0,2.0,100.0,event
11:52:16.018,0.47491473,-0.5599518,0.2521256,-0.21628034,0.71367407,-0.25764924,-0.23680444,0.4749554,1.0461917,0.41555318,0.21838264,0.78211105,1.2759556,1.0793895,0.99941325,1.4632827,1.0639156,1.0602244,0.95039505,1.0157453,827.2161,805.05493,774.0293,811.9048,948.9011,-0.09686279296875,0.1336669921875,0.9722900390625,1.5850830078125,-7.46185302734375,1.27105712890625,1.0,2.0,1.0,1.0,2.0,100.0,event
11:52:16.018,0.47491473,-0.5599518,0.2521256,-0.21628034,0.71367407,-0.25764924,-0.23680444,0.4749554,1.0461917,0.41555318,0.21838264,0.78211105,1.2759556,1.0793895,0.99941325,1.4632827,1.0639156,1.0602244,0.95039505,1.0157453,820.3663,795.38464,755.4945,802.23444,731.7216,-0.09686279296875,0.1336669921875,0.9722900390625,1.5850830078125,-7.46185302734375,1.27105712890625,1.0,2.0,1.0,1.0,2.0,100.0,event
11:52:16.019,0.47491473,-0.5599518,0.2521256,-0.21628034,0.71367407,-0.25764924,-0.23680444,0.4749554,1.0461917,0.41555318,0.21838264,0.78211105,1.2759556,1.0793895,0.99941325,1.4632827,1.0639156,1.0602244,0.95039505,1.0157453,778.46155,826.4103,788.93774,757.50916,821.5751,-0.09686279296875,0.1336669921875,0.9722900390625,1.5850830078125,-7.46185302734375,1.27105712890625,1.0,2.0,1.0,1.0,2.0,100.0,event
11:52:16.019,0.47491473,-0.5599518,0.2521256,-0.21628034,0.71367407,-0.25764924,-0.23680444,0.4749554,1.0461917,0.41555318,0.21838264,0.78211105,1.2759556,1.0793895,0.99941325,1.4632827,1.0639156,1.0602244,0.95039505,1.0157453,762.74725,813.91943,775.64105,736.9597,649.12085,-0.09686279296875,0.1336669921875,0.9722900390625,1.5850830078125,-7.46185302734375,1.27105712890625,1.0,2.0,1.0,1.0,2.0,100.0,event
11:52:16.020,0.47491473,-0.5306961,0.38755506,-0.21628034,0.71367407,-0.26817173,-0.14507306,0.4749554,1.0461917,0.37731272,0.27678764,0.78211105,1.2759556,1.0963413,0.9854458,1.4632827,1.0639156,1.0585729,0.9471834,1.0157453,781.685,789.7436,763.5531,754.68866,758.71796,-0.09686279296875,0.1336669921875,0.9722900390625,1.5850830078125,-7.46185302734375,1.27105712890625,1.0,2.0,1.0,1.0,2.0,100.0,event
11:52:16.076,0.47491473,-0.5306961,0.38755506,-0.21628034,0.71367407,-0.26817173,-0.14507306,0.4749554,1.0461917,0.37731272,0.27678764,0.78211105,1.2759556,1.0963413,0.9854458,1.4632827,1.0639156,1.0585729,0.9471834,1.0157453,805.8608,785.7143,754.68866,786.52014,720.84247,-0.09686279296875,0.1336669921875,0.9722900390625,1.5850830078125,-7.46185302734375,1.27105712890625,1.0,2.0,1.0,1.0,2.0,100.0,event
11:52:16.077,0.47491473,-0.5306961,0.38755506,-0.21628034,0.71367407,-0.26817173,-0.14507306,0.4749554,1.0461917,0.37731272,0.27678764,0.78211105,1.2759556,1.0963413,0.9854458,1.4632827,1.0639156,1.0585729,0.9471834,1.0157453,845.34796,792.5641,771.2088,824.3956,723.2601,-0.09686279296875,0.1336669921875,0.9722900390625,1.5850830078125,-7.46185302734375,1.27105712890625,1.0,2.0,1.0,1.0,2.0,100.0,event
11:52:16.078,0.47491473,-0.5306961,0.38755506,-0.21628034,0.71367407,-0.26817173,-0.14507306,0.4749554,1.0461917,0.37731272,0.27678764,0.78211105,1.2759556,1.0963413,0.9854458,1.4632827,1.0639156,1.0585729,0.9471834,1.0157453,831.2454,799.81683,801.4286,811.9048,805.4579,-0.09686279296875,0.1336669921875,0.9722900390625,1.5850830078125,-7.46185302734375,1.27105712890625,1.0,2.0,1.0,1.0,2.0,100.0,event
11:52:16.080,0.47491473,-0.5306961,0.38755506,-0.21628034,0.71367407,-0.26817173,-0.14507306,0.4749554,1.0461917,0.37731272,0.27678764,0.78211105,1.2759556,1.0963413,0.9854458,1.4632827,1.0639156,1.0585729,0.9471834,1.0157453,809.89014,776.8498,798.60803,781.28204,849.7802,-0.09686279296875,0.1336669921875,0.9722900390625,1.5850830078125,-7.46185302734375,1.27105712890625,1.0,2.0,1.0,1.0,2.0,100.0,event
11:52:16.081,0.47491473,-0.5306961,0.38755506,-0.21628034,0.71367407,-0.26817173,-0.14507306,0.4749554,1.0461917,0.37731272,0.27678764,0.78211105,1.2759556,1.0963413,0.9854458,1.4632827,1.0639156,1.0585729,0.9471834,1.0157453,810.293,807.8755,788.93774,775.64105,780.87915,-0.09686279296875,0.1336669921875,0.9722900390625,1.5850830078125,-7.46185302734375,1.27105712890625,1.0,2.0,1.0,1.0,2.0,100.0,event
11:52:16.082,0.47491473,-0.5306961,0.38755506,-0.21628034,0.71367407,-0.26817173,-0.14507306,0.4749554,1.0461917,0.37731272,0.27678764,0.78211105,1.2759556,1.0963413,0.9854458,1.4632827,1.0639156,1.0585729,0.9471834,1.0157453,797.3993,820.3663,803.44324,790.54944,742.1978,-0.09686279296875,0.1336669921875,0.9722900390625,1.5850830078125,-7.46185302734375,1.27105712890625,1.0,2.0,1.0,1.0,2.0,100.0,event
11:52:16.083,0.47491473,-0.5306961,0.38755506,-0.21628034,0.71367407,-0.26817173,-0.14507306,0.4749554,1.0461917,0.37731272,0.27678764,0.78211105,1.2759556,1.0963413,0.9854458,1.4632827,1.0639156,1.0585729,0.9471834,1.0157453,796.1905,792.1612,797.8022,795.38464,772.4176,-0.09686279296875,0.1336669921875,0.9722900390625,1.5850830078125,-7.46185302734375,1.27105712890625,1.0,2.0,1.0,1.0,2.0,100.0,event
11:52:16.084,0.47491473,-0.5306961,0.38755506,-0.21628034,0.71367407,-0.26817173,-0.14507306,0.4749554,1.0461917,0.37731272,0.27678764,0.78211105,1.2759556,1.0963413,0.9854458,1.4632827,1.0639156,1.0585729,0.9471834,1.0157453,819.15753,781.28204,772.8205,811.50183,914.2491,-0.09686279296875,0.1336669921875,0.9722900390625,1.5850830078125,-7.46185302734375,1.27105712890625,1.0,2.0,1.0,1.0,2.0,100.0,event
11:52:16.084,0.47491473,-0.5306961,0.38755506,-0.21628034,0.71367407,-0.26817173,-0.14507306,0.4749554,1.0461917,0.37731272,0.27678764,0.78211105,1.2759556,1.0963413,0.9854458,1.4632827,1.0639156,1.0585729,0.9471834,1.0157453,853.8095,794.57874,774.0293,840.5128,952.1245,-0.09686279296875,0.1336669921875,0.9722900390625,1.5850830078125,-7.46185302734375,1.27105712890625,1.0,2.0,1.0,1.0,2.0,100.0,event
11:52:16.085,0.47491473,-0.5306961,0.38755506,-0.21628034,0.71367407,-0.26817173,-0.14507306,0.4749554,1.0461917,0.37731272,0.27678764,0.78211105,1.2759556,1.0963413,0.9854458,1.4632827,1.0639156,1.0585729,0.9471834,1.0157453,819.9634,821.5751,815.12823,800.6227,746.2271,-0.09686279296875,0.1336669921875,0.9722900390625,1.5850830078125,-7.46185302734375,1.27105712890625,1.0,2.0,1.0,1.0,2.0,100.0,event
11:52:16.086,0.47491473,-0.5306961,0.38755506,-0.21628034,0.71367407,-0.26817173,-0.14507306,0.4749554,1.0461917,0.37731272,0.27678764,0.78211105,1.2759556,1.0963413,0.9854458,1.4632827,1.0639156,1.0585729,0.9471834,1.0157453,778.0586,847.3626,796.1905,769.19415,747.4359,-0.09686279296875,0.1336669921875,0.9722900390625,1.5850830078125,-7.46185302734375,1.27105712890625,1.0,2.0,1.0,1.0,2.0,100.0,event
11:52:16.087,0.47491473,-0.5306961,0.38755506,-0.21628034,0.71367407,-0.26817173,-0.14507306,0.4749554,1.0461917,0.37731272,0.27678764,0.78211105,1.2759556,1.0963413,0.9854458,1.4632827,1.0639156,1.0585729,0.9471834,1.0157453,815.5311,822.7839,773.6264,770.80585,801.8315,-0.09686279296875,0.1336669921875,0.9722900390625,1.5850830078125,-7.46185302734375,1.27105712890625,1.0,2.0,1.0,1.0,2.0,100.0,event
11:52:16.111,0.47491473,-0.5306961,0.38755506,-0.21628034,0.71367407,-0.26817173,-0.14507306,0.4749554,1.0461917,0.37731272,0.27678764,0.78211105,1.2759556,1.0963413,0.9854458,1.4632827,1.0639156,1.0585729,0.9471834,1.0157453,703.5165,806.26373,817.5458,712.7839,733.3333,-0.115234375,0.1343994140625,0.999755859375,1.951446533203125,-5.75714111328125,2.43743896484375,1.0,2.0,1.0,1.0,2.0,100.0,event
11:52:16.112,0.47491473,-0.5306961,0.38755506,-0.21628034,0.71367407,-0.26817173,-0.14507306,0.4749554,1.0461917,0.37731272,0.27678764,0.78211105,1.2759556,1.0963413,0.9854458,1.4632827,1.0639156,1.0585729,0.9471834,1.0157453,701.50183,818.7546,806.6667,759.92676,660.0,-0.115234375,0.1343994140625,0.999755859375,1.951446533203125,-5.75714111328125,2.43743896484375,1.0,2.0,1.0,1.0,2.0,100.0,event
11:52:16.112,0.47491473,-0.5306961,0.38755506,-0.21628034,0.71367407,-0.26817173,-0.14507306,0.4749554,1.0461917,0.37731272,0.27678764,0.78211105,1.2759556,1.0963413,0.9854458,1.4632827,1.0639156,1.0585729,0.9471834,1.0157453,889.2674,801.4286,799.41394,809.89014,740.18317,-0.115234375,0.1343994140625,0.999755859375,1.951446533203125,-5.75714111328125,2.43743896484375,1.0,2.0,1.0,1.0,2.0,100.0,event
11:52:16.113,0.47491473,-0.5306961,0.38755506,-0.21628034,0.71367407,-0.26817173,-0.14507306,0.4749554,1.0461917,0.37731272,0.27678764,0.78211105,1.2759556,1.0963413,0.9854458,1.4632827,1.0639156,1.0585729,0.9471834,1.0157453,921.9048,772.01465,814.3223,894.5055,805.05493,-0.115234375,0.1343994140625,0.999755859375,1.951446533203125,-5.75714111328125,2.43743896484375,1.0,2.0,1.0,1.0,2.0,100.0,event
11:52:16.113,0.47491473,-0.5306961,0.38755506,-0.21628034,0.71367407,-0.26817173,-0.14507306,0.4749554,1.0461917,0.37731272,0.27678764,0.78211105,1.2759556,1.0963413,0.9854458,1.4632827,1.0639156,1.0585729,0.9471834,1.0157453,897.326,765.9707,811.9048,894.10254,759.92676,-0.115234375,0.1343994140625,0.999755859375,1.951446533203125,-5.75714111328125,2.43743896484375,1.0,2.0,1.0,1.0,2.0,100.0,event
11:52:16.114,0.47491473,-0.5306961,0.38755506,-0.21628034,0.71367407,-0.26817173,-0.14507306,0.4749554,1.0461917,0.37731272,0.27678764,0.78211105,1.2759556,1.0963413,0.9854458,1.4632827,1.0639156,1.0585729,0.9471834,1.0157453,859.0476,797.3993,795.38464,844.1392,749.45056,-0.115234375,0.1343994140625,0.999755859375,1.951446533203125,-5.75714111328125,2.43743896484375,1.0,2.0,1.0,1.0,2.0,100.0,event
11:52:16.114,0.47491473,-0.5306961,0.38755506,-0.21628034,0.71367407,-0.26817173,-0.14507306,0.4749554,1.0461917,0.37731272,0.27678764,0.78211105,1.2759556,1.0963413,0.9854458,1.4632827,1.0639156,1.0585729,0.9471834,1.0157453,827.619,806.26373,790.54944,827.619,799.41394,-0.115234375,0.1343994140625,0.999755859375,1.951446533203125,-5.75714111328125,2.43743896484375,1.0,2.0,1.0,1.0,2.0,100.0,event
11:52:16.114,0.47491473,-0.5306961,0.38755506,-0.21628034,0.71367407,-0.26817173,-0.14507306,0.4749554,1.0461917,0.37731272,0.27678764,0.78211105,1.2759556,1.0963413,0.9854458,1.4632827,1.0639156,1.0585729,0.9471834,1.0157453,816.337,788.93774,772.4176,836.4835,1027.0696,-0.115234375,0.1343994140625,0.999755859375,1.951446533203125,-5.75714111328125,2.43743896484375,1.0,2.0,1.0,1.0,2.0,100.0,event
11:52:16.115,0.47491473,-0.5306961,0.38755506,-0.21628034,0.71367407,-0.26817173,-0.14507306,0.4749554,1.0461917,0.37731272,0.27678764,0.78211105,1.2759556,1.0963413,0.9854458,1.4632827,1.0639156,1.0585729,0.9471834,1.0157453,818.3516,790.14655,800.2198,784.90845,798.60803,-0.115234375,0.1343994140625,0.999755859375,1.951446533203125,-5.75714111328125,2.43743896484375,1.0,2.0,1.0,1.0,2.0,100.0,event
11:52:16.115,0.47491473,-0.5306961,0.38755506,-0.21628034,0.71367407,-0.26817173,-0.14507306,0.4749554,1.0461917,0.37731272,0.27678764,0.78211105,1.2759556,1.0963413,0.9854458,1.4632827,1.0639156,1.0585729,0.9471834,1.0157453,811.9048,835.2747,787.72894,778.0586,629.3773,-0.115234375,0.1343994140625,0.999755859375,1.951446533203125,-5.75714111328125,2.43743896484375,1.0,2.0,1.0,1.0,2.0,100.0,event
11:52:16.115,0.47491473,-0.5306961,0.38755506,-0.21628034,0.71367407,-0.26817173,-0.14507306,0.4749554,1.0461917,0.37731272,0.27678764,0.78211105,1.2759556,1.0963413,0.9854458,1.4632827,1.0639156,1.0585729,0.9471834,1.0157453,791.3553,823.1868,755.89746,826.8132,847.3626,-0.115234375,0.1343994140625,0.999755859375,1.951446533203125,-5.75714111328125,2.43743896484375,1.0,2.0,1.0,1.0,2.0,100.0,event
11:52:16.116,0.47491473,-0.5306961,0.38755506,-0.21628034,0.71367407,-0.26817173,-0.14507306,0.4749554,1.0461917,0.37731272,0.27678764,0.78211105,1.2759556,1.0963413,0.9854458,1.4632827,1.0639156,1.0585729,0.9471834,1.0157453,811.9048,778.86444,785.7143,819.9634,1002.8938,-0.115234375,0.1343994140625,0.999755859375,1.951446533203125,-5.75714111328125,2.43743896484375,1.0,2.0,1.0,1.0,2.0,100.0,event
11:52:16.179,0.47491473,-0.5306961,0.38755506,-0.21628034,0.71367407,-0.26817173,-0.14507306,0.4749554,1.0461917,0.37731272,0.27678764,0.78211105,1.2759556,1.0963413,0.9854458,1.4632827,1.0639156,1.0585729,0.9471834,1.0157453,817.1429,804.2491,782.0879,815.9341,820.7692,-0.10748291015625,0.13543701171875,0.98101806640625,1.428070068359375,-2.811279296875,-0.755157470703125,1.0,2.0,1.0,1.0,2.0,100.0,event
11:52:16.181,0.47491473,-0.4829082,0.43325642,-0.21628034,0.71367407,-0.28402603,-0.11444827,0.4749554,1.0461917,0.35651508,0.33984762,0.78211105,1.2759556,1.1070538,0.9657891,1.4632827,1.0639156,1.0597984,0.9395702,1.0157453,802.6374,811.9048,797.3993,799.41394,672.0879,-0.10748291015625,0.13543701171875,0.98101806640625,1.428070068359375,-2.811279296875,-0.755157470703125,1.0,2.0,1.0,1.0,2.0,100.0,event
11:52:16.184,,,,,,,,,,,,,,,,,,,,,,,,,,,,,,,,,,,,,,blink
11:52:16.186,0.47491473,-0.4829082,0.43325642,-0.21628034,0.71367407,-0.28402603,-0.11444827,0.4749554,1.0461917,0.35651508,0.33984762,0.78211105,1.2759556,1.1070538,0.9657891,1.4632827,1.0639156,1.0597984,0.9395702,1.0157453,809.89014,814.3223,821.5751,805.05493,785.31134,-0.10748291015625,0.13543701171875,0.98101806640625,1.428070068359375,-2.811279296875,-0.755157470703125,1.0,2.0,1.0,1.0,2.0,100.0,event
11:52:16.186,0.47491473,-0.4829082,0.43325642,-0.21628034,0.71367407,-0.28402603,-0.11444827,0.4749554,1.0461917,0.35651508,0.33984762,0.78211105,1.2759556,1.1070538,0.9657891,1.4632827,1.0639156,1.0597984,0.9395702,1.0157453,850.989,807.8755,815.9341,829.2308,777.6557,-0.10748291015625,0.13543701171875,0.98101806640625,1.428070068359375,-2.811279296875,-0.755157470703125,1.0,2.0,1.0,1.0,2.0,100.0,event
11:52:16.187,0.47491473,-0.4829082,0.43325642,-0.21628034,0.71367407,-0.28402603,-0.11444827,0.4749554,1.0461917,0.35651508,0.33984762,0.78211105,1.2759556,1.1070538,0.9657891,1.4632827,1.0639156,1.0597984,0.9395702,1.0157453,820.3663,795.78754,786.1172,807.0696,745.42126,-0.10748291015625,0.13543701171875,0.98101806640625,1.428070068359375,-2.811279296875,-0.755157470703125,1.0,2.0,1.0,1.0,2.0,100.0,event
11:52:16.188,0.47491473,-0.4829082,0.43325642,-0.21628034,0.71367407,-0.28402603,-0.11444827,0.4749554,1.0461917,0.35651508,0.33984762,0.78211105,1.2759556,1.1070538,0.9657891,1.4632827,1.0639156,1.0597984,0.9395702,1.0157453,785.7143,799.011,775.64105,768.7912,828.022,-0.10748291015625,0.13543701171875,0.98101806640625,1.428070068359375,-2.811279296875,-0.755157470703125,1.0,2.0,1.0,1.0,2.0,100.0,event
11:52:16.189,0.47491473,-0.4829082,0.43325642,-0.21628034,0.71367407,-0.28402603,-0.11444827,0.4749554,1.0461917,0.35651508,0.33984762,0.78211105,1.2759556,1.1070538,0.9657891,1.4632827,1.0639156,1.0597984,0.9395702,1.0157453,800.6227,798.60803,794.57874,779.2674,1048.8279,-0.10748291015625,0.13543701171875,0.98101806640625,1.428070068359375,-2.811279296875,-0.755157470703125,1.0,2.0,1.0,1.0,2.0,100.0,event
11:52:16.189,0.47491473,-0.4829082,0.43325642,-0.21628034,0.71367407,-0.28402603,-0.11444827,0.4749554,1.0461917,0.35651508,0.33984762,0.78211105,1.2759556,1.1070538,0.9657891,1.4632827,1.0639156,1.0597984,0.9395702,1.0157453,798.20514,797.8022,779.67035,780.07324,1051.2454,-0.10748291015625,0.13543701171875,0.98101806640625,1.428070068359375,-2.811279296875,-0.755157470703125,1.0,2.0,1.0,1.0,2.0,100.0,event
11:52:16.190,0.47491473,-0.4829082,0.43325642,-0.21628034,0.71367407,-0.28402603,-0.11444827,0.4749554,1.0461917,0.35651508,0.33984762,0.78211105,1.2759556,1.1070538,0.9657891,1.4632827,1.0639156,1.0597984,0.9395702,1.0157453,766.77655,816.7399,797.3993,766.77655,783.2967,-0.10748291015625,0.13543701171875,0.98101806640625,1.428070068359375,-2.811279296875,-0.755157470703125,1.0,2.0,1.0,1.0,2.0,100.0,event
11:52:16.190,0.47491473,-0.4829082,0.43325642,-0.21628034,0.71367407,-0.28402603,-0.11444827,0.4749554,1.0461917,0.35651508,0.33984762,0.78211105,1.2759556,1.1070538,0.9657891,1.4632827,1.0639156,1.0597984,0.9395702,1.0157453,768.7912,803.44324,778.0586,763.1502,821.978,-0.10748291015625,0.13543701171875,0.98101806640625,1.428070068359375,-2.811279296875,-0.755157470703125,1.0,2.0,1.0,1.0,2.0,100.0,event
11:52:16.191,0.47491473,-0.4829082,0.43325642,-0.21628034,0.71367407,-0.28402603,-0.11444827,0.4749554,1.0461917,0.35651508,0.33984762,0.78211105,1.2759556,1.1070538,0.9657891,1.4632827,1.0639156,1.0597984,0.9395702,1.0157453,768.7912,811.50183,789.7436,783.69965,880.80585,-0.10748291015625,0.13543701171875,0.98101806640625,1.428070068359375,-2.811279296875,-0.755157470703125,1.0,2.0,1.0,1.0,2.0,100.0,event
11:52:16.192,0.47491473,-0.4829082,0.43325642,-0.21628034,0.71367407,-0.28402603,-0.11444827,0.4749554,1.0461917,0.35651508,0.33984762,0.78211105,1.2759556,1.1070538,0.9657891,1.4632827,1.0639156,1.0597984,0.9395702,1.0157453,754.68866,796.99634,798.60803,756.7033,817.5458,-0.10748291015625,0.13543701171875,0.98101806640625,1.428070068359375,-2.811279296875,-0.755157470703125,1.0,2.0,1.0,1.0,2.0,100.0,event
11:52:16.220,0.47491473,-0.4829082,0.43325642,-0.21628034,0.71367407,-0.28402603,-0.11444827,0.4749554,1.0461917,0.35651508,0.33984762,0.78211105,1.2759556,1.1070538,0.9657891,1.4632827,1.0639156,1.0597984,0.9395702,1.0157453,735.34796,809.4872,806.26373,722.0513,698.68134,-0.119140625,0.13055419921875,0.98419189453125,1.039276123046875,-1.607513427734375,-0.6280517578125,1.0,2.0,1.0,1.0,2.0,100.0,event
11:52:16.221,0.47491473,-0.4829082,0.43325642,-0.21628034,0.71367407,-0.28402603,-0.11444827,0.4749554,1.0461917,0.35651508,0.33984762,0.78211105,1.2759556,1.1070538,0.9657891,1.4632827,1.0639156,1.0597984,0.9395702,1.0157453,735.34796,796.99634,794.9817,757.9121,749.85345,-0.119140625,0.13055419921875,0.98419189453125,1.039276123046875,-1.607513427734375,-0.6280517578125,1.0,2.0,1.0,1.0,2.0,100.0,event
11:52:16.222,0.47491473,-0.4829082,0.43325642,-0.21628034,0.71367407,-0.28402603,-0.11444827,0.4749554,1.0461917,0.35651508,0.33984762,0.78211105,1.2759556,1.1070538,0.9657891,1.4632827,1.0639156,1.0597984,0.9395702,1.0157453,776.8498,769.19415,791.75824,794.17584,801.8315,-0.119140625,0.13055419921875,0.98419189453125,1.039276123046875,-1.607513427734375,-0.6280517578125,1.0,2.0,1.0,1.0,2.0,100.0,event
11:52:16.223,0.47491473,-0.4829082,0.43325642,-0.21628034,0.71367407,-0.28402603,-0.11444827,0.4749554,1.0461917,0.35651508,0.33984762,0.78211105,1.2759556,1.1070538,0.9657891,1.4632827,1.0639156,1.0597984,0.9395702,1.0157453,788.93774,783.69965,781.685,792.96704,786.1172,-0.119140625,0.13055419921875,0.98419189453125,1.039276123046875,-1.607513427734375,-0.6280517578125,1.0,2.0,1.0,1.0,2.0,100.0,event
11:52:16.223,0.47491473,-0.4829082,0.43325642,-0.21628034,0.71367407,-0.28402603,-0.11444827,0.4749554,1.0461917,0.35651508,0.33984762,0.78211105,1.2759556,1.1070538,0.9657891,1.4632827,1.0639156,1.0597984,0.9395702,1.0157453,780.4762,804.2491,783.69965,782.0879,694.2491,-0.119140625,0.13055419921875,0.98419189453125,1.039276123046875,-1.607513427734375,-0.6280517578125,1.0,2.0,1.0,1.0,2.0,100.0,event
11:52:16.224,0.47491473,-0.4829082,0.43325642,-0.21628034,0.71367407,-0.28402603,-0.11444827,0.4749554,1.0461917,0.35651508,0.33984762,0.78211105,1.2759556,1.1070538,0.9657891,1.4632827,1.0639156,1.0597984,0.9395702,1.0157453,794.17584,793.7729,785.31134,789.7436,791.75824,-0.119140625,0.13055419921875,0.98419189453125,1.039276123046875,-1.607513427734375,-0.6280517578125,1.0,2.0,1.0,1.0,2.0,100.0,event
11:52:16.227,0.47491473,-0.4829082,0.43325642,-0.21628034,0.71367407,-0.28402603,-0.11444827,0.4749554,1.0461917,0.35651508,0.33984762,0.78211105,1.2759556,1.1070538,0.9657891,1.4632827,1.0639156,1.0597984,0.9395702,1.0157453,832.0513,795.38464,778.0586,847.76556,1109.6703,-0.119140625,0.13055419921875,0.98419189453125,1.039276123046875,-1.607513427734375,-0.6280517578125,1.0,2.0,1.0,1.0,2.0,100.0,event
11:52:16.228,0.47491473,-0.4829082,0.43325642,-0.21628034,0.71367407,-0.28402603,-0.11444827,0.4749554,1.0461917,0.35651508,0.33984762,0.78211105,1.2759556,1.1070538,0.9657891,1.4632827,1.0639156,1.0597984,0.9395702,1.0157453,850.58606,788.93774,791.3553,854.61536,949.707,-0.119140625,0.13055419921875,0.98419189453125,1.039276123046875,-1.607513427734375,-0.6280517578125,1.0,2.0,1.0,1.0,2.0,100.0,event
11:52:16.229,0.47491473,-0.4829082,0.43325642,-0.21628034,0.71367407,-0.28402603,-0.11444827,0.4749554,1.0461917,0.35651508,0.33984762,0.78211105,1.2759556,1.1070538,0.9657891,1.4632827,1.0639156,1.0597984,0.9395702,1.0157453,838.49817,795.38464,796.5934,806.6667,703.91943,-0.119140625,0.13055419921875,0.98419189453125,1.039276123046875,-1.607513427734375,-0.6280517578125,1.0,2.0,1.0,1.0,2.0,100.0,event
11:52:16.230,0.47491473,-0.4829082,0.43325642,-0.21628034,0.71367407,-0.28402603,-0.11444827,0.4749554,1.0461917,0.35651508,0.33984762,0.78211105,1.2759556,1.1070538,0.9657891,1.4632827,1.0639156,1.0597984,0.9395702,1.0157453,827.2161,840.10986,809.89014,812.71063,769.59705,-0.119140625,0.13055419921875,0.98419189453125,1.039276123046875,-1.607513427734375,-0.6280517578125,1.0,2.0,1.0,1.0,2.0,100.0,event
11:52:16.232,0.47491473,-0.4829082,0.43325642,-0.21628034,0.71367407,-0.28402603,-0.11444827,0.4749554,1.0461917,0.35651508,0.33984762,0.78211105,1.2759556,1.1070538,0.9657891,1.4632827,1.0639156,1.0597984,0.9395702,1.0157453,792.96704,811.50183,794.9817,788.5348,752.27106,-0.119140625,0.13055419921875,0.98419189453125,1.039276123046875,-1.607513427734375,-0.6280517578125,1.0,2.0,1.0,1.0,2.0,100.0,event
11:52:16.233,0.47491473,-0.4829082,0.43325642,-0.21628034,0.71367407,-0.28402603,-0.11444827,0.4749554,1.0461917,0.35651508,0.33984762,0.78211105,1.2759556,1.1070538,0.9657891,1.4632827,1.0639156,1.0597984,0.9395702,1.0157453,803.44324,784.90845,792.1612,791.3553,761.13556,-0.119140625,0.13055419921875,0.98419189453125,1.039276123046875,-1.607513427734375,-0.6280517578125,1.0,2.0,1.0,1.0,2.0,100.0,event
11:52:16.262,0.47491473,-0.4829082,0.43325642,-0.21628034,0.71367407,-0.28402603,-0.11444827,0.4749554,1.0461917,0.35651508,0.33984762,0.78211105,1.2759556,1.1070538,0.9657891,1.4632827,1.0639156,1.0597984,0.9395702,1.0157453,800.2198,783.69965,818.3516,797.3993,862.27106,-0.11431884765625,0.14178466796875,0.9854736328125,2.444915771484375,1.562652587890625,0.889739990234375,1.0,2.0,1.0,1.0,2.0,100.0,event
11:52:16.263,0.47491473,-0.4829082,0.43325642,-0.21628034,0.71367407,-0.28402603,-0.11444827,0.4749554,1.0461917,0.35651508,0.33984762,0.78211105,1.2759556,1.1070538,0.9657891,1.4632827,1.0639156,1.0597984,0.9395702,1.0157453,790.54944,781.28204,794.57874,777.25275,834.0659,-0.11431884765625,0.14178466796875,0.9854736328125,2.444915771484375,1.562652587890625,0.889739990234375,1.0,2.0,1.0,1.0,2.0,100.0,event
11:52:16.263,0.47491473,-0.4829082,0.43325642,-0.21628034,0.71367407,-0.28402603,-0.11444827,0.4749554,1.0461917,0.35651508,0.33984762,0.78211105,1.2759556,1.1070538,0.9657891,1.4632827,1.0639156,1.0597984,0.9395702,1.0157453,826.0073,809.4872,791.75824,810.293,782.0879,-0.11431884765625,0.14178466796875,0.9854736328125,2.444915771484375,1.562652587890625,0.889739990234375,1.0,2.0,1.0,1.0,2.0,100.0,event
11:52:16.264,0.47491473,-0.4207675,0.44855157,-0.21628034,0.71367407,-0.2966775,-0.08286947,0.4749554,1.0461917,0.36424673,0.41095844,0.78211105,1.2759556,1.113209,0.9415882,1.4632827,1.0639156,1.0612452,0.92619765,1.0157453,820.3663,832.8571,813.5165,805.05493,705.5311,-0.11431884765625,0.14178466796875,0.9854736328125,2.444915771484375,1.562652587890625,0.889739990234375,1.0,2.0,1.0,1.0,2.0,100.0,event
11:52:16.267,0.47491473,-0.4207675,0.44855157,-0.21628034,0.71367407,-0.2966775,-0.08286947,0.4749554,1.0461917,0.36424673,0.41095844,0.78211105,1.2759556,1.113209,0.9415882,1.4632827,1.0639156,1.0612452,0.92619765,1.0157453,782.8938,815.5311,796.99634,786.1172,711.1722,-0.11431884765625,0.14178466796875,0.9854736328125,2.444915771484375,1.562652587890625,0.889739990234375,1.0,2.0,1.0,1.0,2.0,100.0,event
11:52:16.268,0.47491473,-0.4207675,0.44855157,-0.21628034,0.71367407,-0.2966775,-0.08286947,0.4749554,1.0461917,0.36424673,0.41095844,0.78211105,1.2759556,1.113209,0.9415882,1.4632827,1.0639156,1.0612452,0.92619765,1.0157453,782.0879,794.17584,783.2967,795.78754,856.2271,-0.11431884765625,0.14178466796875,0.9854736328125,2.444915771484375,1.562652587890625,0.889739990234375,1.0,2.0,1.0,1.0,2.0,100.0,event
11:52:16.268,0.47491473,-0.4207675,0.44855157,-0.21628034,0.71367407,-0.2966775,-0.08286947,0.4749554,1.0461917,0.36424673,0.41095844,0.78211105,1.2759556,1.113209,0.9415882,1.4632827,1.0639156,1.0612452,0.92619765,1.0157453,792.96704,800.2198,794.57874,786.9231,896.9231,-0.11431884765625,0.14178466796875,0.9854736328125,2.444915771484375,1.562652587890625,0.889739990234375,1.0,2.0,1.0,1.0,2.0,100.0,event
11:52:16.269,0.47491473,-0.4207675,0.44855157,-0.21628034,0.71367407,-0.2966775,-0.08286947,0.4749554,1.0461917,0.36424673,0.41095844,0.78211105,1.2759556,1.113209,0.9415882,1.4632827,1.0639156,1.0612452,0.92619765,1.0157453,817.5458,813.1135,789.34064,811.50183,724.87177,-0.11431884765625,0.14178466796875,0.9854736328125,2.444915771484375,1.562652587890625,0.889739990234375,1.0,2.0,1.0,1.0,2.0,100.0,event
11:52:16.269,0.47491473,-0.4207675,0.44855157,-0.21628034,0.71367407,-0.2966775,-0.08286947,0.4749554,1.0461917,0.36424673,0.41095844,0.78211105,1.2759556,1.113209,0.9415882,1.4632827,1.0639156,1.0612452,0.92619765,1.0157453,801.4286,812.3077,788.5348,797.3993,780.07324,-0.11431884765625,0.14178466796875,0.9854736328125,2.444915771484375,1.562652587890625,0.889739990234375,1.0,2.0,1.0,1.0,2.0,100.0,event
11:52:16.270,0.47491473,-0.4207675,0.44855157,-0.21628034,0.71367407,-0.2966775,-0.08286947,0.4749554,1.0461917,0.36424673,0.41095844,0.78211105,1.2759556,1.113209,0.9415882,1.4632827,1.0639156,1.0612452,0.92619765,1.0157453,837.28937,763.1502,794.57874,834.0659,1008.1319,-0.11431884765625,0.14178466796875,0.9854736328125,2.444915771484375,1.562652587890625,0.889739990234375,1.0,2.0,1.0,1.0,2.0,100.0,event
11:52:16.270,0.47491473,-0.4207675,0.44855157,-0.21628034,0.71367407,-0.2966775,-0.08286947,0.4749554,1.0461917,0.36424673,0.41095844,0.78211105,1.2759556,1.113209,0.9415882,1.4632827,1.0639156,1.0612452,0.92619765,1.0157453,839.707,791.75824,819.15753,828.022,974.2857,-0.11431884765625,0.14178466796875,0.9854736328125,2.444915771484375,1.562652587890625,0.889739990234375,1.0,2.0,1.0,1.0,2.0,100.0,event
11:52:16.271,0.47491473,-0.4207675,0.44855157,-0.21628034,0.71367407,-0.2966775,-0.08286947,0.4749554,1.0461917,0.36424673,0.41095844,0.78211105,1.2759556,1.113209,0.9415882,1.4632827,1.0639156,1.0612452,0.92619765,1.0157453,813.5165,771.2088,777.6557,820.7692,793.36993,-0.11431884765625,0.14178466796875,0.9854736328125,2.444915771484375,1.562652587890625,0.889739990234375,1.0,2.0,1.0,1.0,2.0,100.0,event
11:52:16.310,0.47491473,-0.4207675,0.44855157,-0.21628034,0.71367407,-0.2966775,-0.08286947,0.4749554,1.0461917,0.36424673,0.41095844,0.78211105,1.2759556,1.113209,0.9415882,1.4632827,1.0639156,1.0612452,0.92619765,1.0157453,792.96704,790.54944,801.02563,797.3993,825.2015,-0.11431884765625,0.14178466796875,0.9854736328125,2.444915771484375,1.562652587890625,0.889739990234375,1.0,2.0,1.0,1.0,2.0,100.0,event
11:52:16.312,0.47491473,-0.4207675,0.44855157,-0.21628034,0.71367407,-0.2966775,-0.08286947,0.4749554,1.0461917,0.36424673,0.41095844,0.78211105,1.2759556,1.113209,0.9415882,1.4632827,1.0639156,1.0612452,0.92619765,1.0157453,792.96704,789.34064,799.011,789.7436,865.89746,-0.11431884765625,0.14178466796875,0.9854736328125,2.444915771484375,1.562652587890625,0.889739990234375,1.0,2.0,1.0,1.0,2.0,100.0,event
11:52:16.312,0.47491473,-0.4207675,0.44855157,-0.21628034,0.71367407,-0.2966775,-0.08286947,0.4749554,1.0461917,0.36424673,0.41095844,0.78211105,1.2759556,1.113209,0.9415882,1.4632827,1.0639156,1.0612452,0.92619765,1.0157453,803.8461,791.75824,794.57874,802.6374,849.3773,-0.11431884765625,0.14178466796875,0.9854736328125,2.444915771484375,1.562652587890625,0.889739990234375,1.0,2.0,1.0,1.0,2.0,100.0,event
11:52:16.313,0.47491473,-0.4207675,0.44855157,-0.21628034,0.71367407,-0.2966775,-0.08286947,0.4749554,1.0461917,0.36424673,0.41095844,0.78211105,1.2759556,1.113209,0.9415882,1.4632827,1.0639156,1.0612452,0.92619765,1.0157453,823.1868,830.4396,798.20514,802.23444,788.1319,-0.11431884765625,0.14178466796875,0.9854736328125,2.444915771484375,1.562652587890625,0.889739990234375,1.0,2.0,1.0,1.0,2.0,100.0,event
11:52:16.314,0.47491473,-0.4207675,0.44855157,-0.21628034,0.71367407,-0.2966775,-0.08286947,0.4749554,1.0461917,0.36424673,0.41095844,0.78211105,1.2759556,1.113209,0.9415882,1.4632827,1.0639156,1.0612452,0.92619765,1.0157453,819.5604,810.293,795.38464,795.78754,804.65204,-0.11431884765625,0.14178466796875,0.9854736328125,2.444915771484375,1.562652587890625,0.889739990234375,1.0,2.0,1.0,1.0,2.0,100.0,event
11:52:16.315,0.47491473,-0.4207675,0.44855157,-0.21628034,0.71367407,-0.2966775,-0.08286947,0.4749554,1.0461917,0.36424673,0.41095844,0.78211105,1.2759556,1.113209,0.9415882,1.4632827,1.0639156,1.0612452,0.92619765,1.0157453,800.6227,779.67035,798.20514,786.9231,1102.4176,-0.11431884765625,0.14178466796875,0.9854736328125,2.444915771484375,1.562652587890625,0.889739990234375,1.0,2.0,1.0,1.0,2.0,100.0,event
11:52:16.315,0.47491473,-0.4207675,0.44855157,-0.21628034,0.71367407,-0.2966775,-0.08286947,0.4749554,1.0461917,0.36424673,0.41095844,0.78211105,1.2759556,1.113209,0.9415882,1.4632827,1.0639156,1.0612452,0.92619765,1.0157453,790.9524,805.4579,790.54944,791.75824,990.40295,-0.11431884765625,0.14178466796875,0.9854736328125,2.444915771484375,1.562652587890625,0.889739990234375,1.0,2.0,1.0,1.0,2.0,100.0,event
11:52:16.316,0.47491473,-0.4207675,0.44855157,-0.21628034,0.71367407,-0.2966775,-0.08286947,0.4749554,1.0461917,0.36424673,0.41095844,0.78211105,1.2759556,1.113209,0.9415882,1.4632827,1.0639156,1.0612452,0.92619765,1.0157453,807.0696,805.8608,793.36993,824.7985,693.44324,-0.11431884765625,0.14178466796875,0.9854736328125,2.444915771484375,1.562652587890625,0.889739990234375,1.0,2.0,1.0,1.0,2.0,100.0,event
11:52:16.317,0.47491473,-0.4207675,0.44855157,-0.21628034,0.71367407,-0.2966775,-0.08286947,0.4749554,1.0461917,0.36424673,0.41095844,0.78211105,1.2759556,1.113209,0.9415882,1.4632827,1.0639156,1.0612452,0.92619765,1.0157453,841.7216,772.8205,801.8315,840.10986,735.7509,-0.11431884765625,0.14178466796875,0.9854736328125,2.444915771484375,1.562652587890625,0.889739990234375,1.0,2.0,1.0,1.0,2.0,100.0,event
11:52:16.317,0.47491473,-0.4207675,0.44855157,-0.21628034,0.71367407,-0.2966775,-0.08286947,0.4749554,1.0461917,0.36424673,0.41095844,0.78211105,1.2759556,1.113209,0.9415882,1.4632827,1.0639156,1.0612452,0.92619765,1.0157453,812.3077,772.8205,785.31134,793.7729,879.59705,-0.11431884765625,0.14178466796875,0.9854736328125,2.444915771484375,1.562652587890625,0.889739990234375,1.0,2.0,1.0,1.0,2.0,100.0,event
11:52:16.318,0.47491473,-0.4207675,0.44855157,-0.21628034,0.71367407,-0.2966775,-0.08286947,0.4749554,1.0461917,0.36424673,0.41095844,0.78211105,1.2759556,1.113209,0.9415882,1.4632827,1.0639156,1.0612452,0.92619765,1.0157453,780.07324,802.23444,784.5055,772.8205,710.3663,-0.11431884765625,0.14178466796875,0.9854736328125,2.444915771484375,1.562652587890625,0.889739990234375,1.0,2.0,1.0,1.0,2.0,100.0,event
11:52:16.319,0.47491473,-0.4207675,0.44855157,-0.21628034,0.71367407,-0.2966775,-0.08286947,0.4749554,1.0461917,0.36424673,0.41095844,0.78211105,1.2759556,1.113209,0.9415882,1.4632827,1.0639156,1.0612452,0.92619765,1.0157453,789.7436,793.36993,793.36993,787.72894,629.7802,-0.11431884765625,0.14178466796875,0.9854736328125,2.444915771484375,1.562652587890625,0.889739990234375,1.0,2.0,1.0,1.0,2.0,100.0,event
11:52:16.356,0.47491473,-0.4207675,0.44855157,-0.21628034,0.71367407,-0.2966775,-0.08286947,0.4749554,1.0461917,0.36424673,0.41095844,0.78211105,1.2759556,1.113209,0.9415882,1.4632827,1.0639156,1.0612452,0.92619765,1.0157453,792.96704,832.0513,792.1612,774.0293,679.7436,-0.11920166015625,0.131103515625,0.94842529296875,-0.2093505859375,-5.360870361328125,-0.8673095703125,1.0,2.0,1.0,1.0,2.0,100.0,event
11:52:16.357,0.47491473,-0.4207675,0.44855157,-0.21628034,0.71367407,-0.2966775,-0.08286947,0.4749554,1.0461917,0.36424673,0.41095844,0.78211105,1.2759556,1.113209,0.9415882,1.4632827,1.0639156,1.0612452,0.92619765,1.0157453,789.7436,845.34796,790.54944,772.4176,694.65204,-0.11920166015625,0.131103515625,0.94842529296875,-0.2093505859375,-5.360870361328125,-0.8673095703125,1.0,2.0,1.0,1.0,2.0,100.0,event
11:52:16.358,0.47491473,-0.4207675,0.44855157,-0.21628034,0.71367407,-0.2966775,-0.08286947,0.4749554,1.0461917,0.36424673,0.41095844,0.78211105,1.2759556,1.113209,0.9415882,1.4632827,1.0639156,1.0612452,0.92619765,1.0157453,780.07324,809.89014,790.54944,755.4945,733.73627,-0.11920166015625,0.131103515625,0.94842529296875,-0.2093505859375,-5.360870361328125,-0.8673095703125,1.0,2.0,1.0,1.0,2.0,100.0,event
11:52:16.359,0.47491473,-0.4207675,0.44855157,-0.21628034,0.71367407,-0.2966775,-0.08286947,0.4749554,1.0461917,0.36424673,0.41095844,0.78211105,1.2759556,1.113209,0.9415882,1.4632827,1.0639156,1.0612452,0.92619765,1.0157453,784.5055,786.52014,784.90845,751.4652,726.4835,-0.11920166015625,0.131103515625,0.94842529296875,-0.2093505859375,-5.360870361328125,-0.8673095703125,1.0,2.0,1.0,1.0,2.0,100.0,event
11:52:16.359,0.47491473,-0.4207675,0.44855157,-0.21628034,0.71367407,-0.2966775,-0.08286947,0.4749554,1.0461917,0.36424673,0.41095844,0.78211105,1.2759556,1.113209,0.9415882,1.4632827,1.0639156,1.0612452,0.92619765,1.0157453,792.1612,803.8461,777.25275,771.6117,773.6264,-0.11920166015625,0.131103515625,0.94842529296875,-0.2093505859375,-5.360870361328125,-0.8673095703125,1.0,2.0,1.0,1.0,2.0,100.0,event
11:52:16.360,0.47491473,-0.3537254,0.45785978,-0.21628034,0.71367407,-0.30318943,-0.008163413,0.4749554,1.0461917,0.43222716,0.5124325,0.78211105,1.2759556,1.1226276,0.9212442,1.4632827,1.0639156,1.0644255,0.91135883,1.0157453,796.1905,820.3663,780.87915,781.685,831.2454,-0.11920166015625,0.131103515625,0.94842529296875,-0.2093505859375,-5.360870361328125,-0.8673095703125,1.0,2.0,1.0,1.0,2.0,100.0,event
11:52:16.362,,,,,,,,,,,,,,,,,,,,,,,,,,,,,,,,,,,,,,jaw_clench
11:52:16.364,0.47491473,-0.3537254,0.45785978,-0.21628034,0.71367407,-0.30318943,-0.008163413,0.4749554,1.0461917,0.43222716,0.5124325,0.78211105,1.2759556,1.1226276,0.9212442,1.4632827,1.0639156,1.0644255,0.91135883,1.0157453,804.65204,792.96704,783.2967,791.75824,871.13556,-0.11920166015625,0.131103515625,0.94842529296875,-0.2093505859375,-5.360870361328125,-0.8673095703125,1.0,2.0,1.0,1.0,2.0,100.0,event
11:52:16.364,0.47491473,-0.3537254,0.45785978,-0.21628034,0.71367407,-0.30318943,-0.008163413,0.4749554,1.0461917,0.43222716,0.5124325,0.78211105,1.2759556,1.1226276,0.9212442,1.4632827,1.0639156,1.0644255,0.91135883,1.0157453,818.3516,789.34064,765.56775,794.57874,902.96704,-0.11920166015625,0.131103515625,0.94842529296875,-0.2093505859375,-5.360870361328125,-0.8673095703125,1.0,2.0,1.0,1.0,2.0,100.0,event
11:52:16.365,0.47491473,-0.3537254,0.45785978,-0.21628034,0.71367407,-0.30318943,-0.008163413,0.4749554,1.0461917,0.43222716,0.5124325,0.78211105,1.2759556,1.1226276,0.9212442,1.4632827,1.0639156,1.0644255,0.91135883,1.0157453,815.9341,788.5348,749.85345,798.60803,972.674,-0.11920166015625,0.131103515625,0.94842529296875,-0.2093505859375,-5.360870361328125,-0.8673095703125,1.0,2.0,1.0,1.0,2.0,100.0,event
11:52:16.366,0.47491473,-0.3537254,0.45785978,-0.21628034,0.71367407,-0.30318943,-0.008163413,0.4749554,1.0461917,0.43222716,0.5124325,0.78211105,1.2759556,1.1226276,0.9212442,1.4632827,1.0639156,1.0644255,0.91135883,1.0157453,812.71063,792.5641,786.9231,796.99634,851.39197,-0.11920166015625,0.131103515625,0.94842529296875,-0.2093505859375,-5.360870361328125,-0.8673095703125,1.0,2.0,1.0,1.0,2.0,100.0,event
11:52:16.366,0.47491473,-0.3537254,0.45785978,-0.21628034,0.71367407,-0.30318943,-0.008163413,0.4749554,1.0461917,0.43222716,0.5124325,0.78211105,1.2759556,1.1226276,0.9212442,1.4632827,1.0639156,1.0644255,0.91135883,1.0157453,804.2491,783.2967,778.0586,814.3223,1047.619,-0.11920166015625,0.131103515625,0.94842529296875,-0.2093505859375,-5.360870361328125,-0.8673095703125,1.0,2.0,1.0,1.0,2.0,100.0,event
11:52:16.367,0.47491473,-0.3537254,0.45785978,-0.21628034,0.71367407,-0.30318943,-0.008163413,0.4749554,1.0461917,0.43222716,0.5124325,0.78211105,1.2759556,1.1226276,0.9212442,1.4632827,1.0639156,1.0644255,0.91135883,1.0157453,817.9487,816.337,781.685,774.0293,830.84247,-0.11920166015625,0.131103515625,0.94842529296875,-0.2093505859375,-5.360870361328125,-0.8673095703125,1.0,2.0,1.0,1.0,2.0,100.0,event
11:52:16.392,0.47491473,-0.3537254,0.45785978,-0.21628034,0.71367407,-0.30318943,-0.008163413,0.4749554,1.0461917,0.43222716,0.5124325,0.78211105,1.2759556,1.1226276,0.9212442,1.4632827,1.0639156,1.0644255,0.91135883,1.0157453,784.5055,816.7399,786.1172,755.09155,859.0476,-0.1129150390625,0.13519287109375,0.97906494140625,-0.485992431640625,-7.663726806640625,-1.652374267578125,1.0,2.0,1.0,1.0,2.0,100.0,event
11:52:16.393,0.47491473,-0.3537254,0.45785978,-0.21628034,0.71367407,-0.30318943,-0.008163413,0.4749554,1.0461917,0.43222716,0.5124325,0.78211105,1.2759556,1.1226276,0.9212442,1.4632827,1.0639156,1.0644255,0.91135883,1.0157453,769.19415,792.5641,784.90845,740.989,741.79486,-0.1129150390625,0.13519287109375,0.97906494140625,-0.485992431640625,-7.663726806640625,-1.652374267578125,1.0,2.0,1.0,1.0,2.0,100.0,event
11:52:16.393,0.47491473,-0.3537254,0.45785978,-0.21628034,0.71367407,-0.30318943,-0.008163413,0.4749554,1.0461917,0.43222716,0.5124325,0.78211105,1.2759556,1.1226276,0.9212442,1.4632827,1.0639156,1.0644255,0.91135883,1.0157453,797.8022,812.3077,783.2967,765.56775,645.4945,-0.1129150390625,0.13519287109375,0.97906494140625,-0.485992431640625,-7.663726806640625,-1.652374267578125,1.0,2.0,1.0,1.0,2.0,100.0,event
11:52:16.394,0.47491473,-0.3537254,0.45785978,-0.21628034,0.71367407,-0.30318943,-0.008163413,0.4749554,1.0461917,0.43222716,0.5124325,0.78211105,1.2759556,1.1226276,0.9212442,1.4632827,1.0639156,1.0644255,0.91135883,1.0157453,809.4872,823.5897,764.35895,786.1172,672.0879,-0.1129150390625,0.13519287109375,0.97906494140625,-0.485992431640625,-7.663726806640625,-1.652374267578125,1.0,2.0,1.0,1.0,2.0,100.0,event
11:52:16.395,0.47491473,-0.3537254,0.45785978,-0.21628034,0.71367407,-0.30318943,-0.008163413,0.4749554,1.0461917,0.43222716,0.5124325,0.78211105,1.2759556,1.1226276,0.9212442,1.4632827,1.0639156,1.0644255,0.91135883,1.0157453,802.6374,794.57874,764.35895,791.3553,783.2967,-0.1129150390625,0.13519287109375,0.97906494140625,-0.485992431640625,-7.663726806640625,-1.652374267578125,1.0,2.0,1.0,1.0,2.0,100.0,event
11:52:16.395,0.47491473,-0.3537254,0.45785978,-0.21628034,0.71367407,-0.30318943,-0.008163413,0.4749554,1.0461917,0.43222716,0.5124325,0.78211105,1.2759556,1.1226276,0.9212442,1.4632827,1.0639156,1.0644255,0.91135883,1.0157453,790.9524,792.96704,794.17584,770.40295,860.2564,-0.1129150390625,0.13519287109375,0.97906494140625,-0.485992431640625,-7.663726806640625,-1.652374267578125,1.0,2.0,1.0,1.0,2.0,100.0,event
11:52:16.396,0.47491473,-0.3537254,0.45785978,-0.21628034,0.71367407,-0.30318943,-0.008163413,0.4749554,1.0461917,0.43222716,0.5124325,0.78211105,1.2759556,1.1226276,0.9212442,1.4632827,1.0639156,1.0644255,0.91135883,1.0157453,787.326,804.2491,809.89014,752.674,792.5641,-0.1129150390625,0.13519287109375,0.97906494140625,-0.485992431640625,-7.663726806640625,-1.652374267578125,1.0,2.0,1.0,1.0,2.0,100.0,event
11:52:16.397,0.47491473,-0.3537254,0.45785978,-0.21628034,0.71367407,-0.30318943,-0.008163413,0.4749554,1.0461917,0.43222716,0.5124325,0.78211105,1.2759556,1.1226276,0.9212442,1.4632827,1.0639156,1.0644255,0.91135883,1.0157453,774.43225,797.3993,781.685,756.30035,788.1319,-0.1129150390625,0.13519287109375,0.97906494140625,-0.485992431640625,-7.663726806640625,-1.652374267578125,1.0,2.0,1.0,1.0,2.0,100.0,event
11:52:16.398,0.47491473,-0.3537254,0.45785978,-0.21628034,0.71367407,-0.30318943,-0.008163413,0.4749554,1.0461917,0.43222716,0.5124325,0.78211105,1.2759556,1.1226276,0.9212442,1.4632827,1.0639156,1.0644255,0.91135883,1.0157453,776.04395,802.6374,776.4469,775.64105,998.0586,-0.1129150390625,0.13519287109375,0.97906494140625,-0.485992431640625,-7.663726806640625,-1.652374267578125,1.0,2.0,1.0,1.0,2.0,100.0,event
11:52:16.399,0.47491473,-0.3537254,0.45785978,-0.21628034,0.71367407,-0.30318943,-0.008163413,0.4749554,1.0461917,0.43222716,0.5124325,0.78211105,1.2759556,1.1226276,0.9212442,1.4632827,1.0639156,1.0644255,0.91135883,1.0157453,816.337,797.8022,788.1319,802.23444,878.3883,-0.1129150390625,0.13519287109375,0.97906494140625,-0.485992431640625,-7.663726806640625,-1.652374267578125,1.0,2.0,1.0,1.0,2.0,100.0,event
11:52:16.400,0.47491473,-0.3537254,0.45785978,-0.21628034,0.71367407,-0.30318943,-0.008163413,0.4749554,1.0461917,0.43222716,0.5124325,0.78211105,1.2759556,1.1226276,0.9212442,1.4632827,1.0639156,1.0644255,0.91135883,1.0157453,823.5897,810.293,780.4762,803.44324,696.6667,-0.1129150390625,0.13519287109375,0.97906494140625,-0.485992431640625,-7.663726806640625,-1.652374267578125,1.0,2.0,1.0,1.0,2.0,100.0,event
11:52:16.401,0.47491473,-0.3537254,0.45785978,-0.21628034,0.71367407,-0.30318943,-0.008163413,0.4749554,1.0461917,0.43222716,0.5124325,0.78211105,1.2759556,1.1226276,0.9212442,1.4632827,1.0639156,1.0644255,0.91135883,1.0157453,771.6117,831.2454,789.7436,757.9121,761.9414,-0.1129150390625,0.13519287109375,0.97906494140625,-0.485992431640625,-7.663726806640625,-1.652374267578125,1.0,2.0,1.0,1.0,2.0,100.0,event
11:52:16.426,0.47491473,-0.3537254,0.45785978,-0.21628034,0.71367407,-0.30318943,-0.008163413,0.4749554,1.0461917,0.43222716,0.5124325,0.78211105,1.2759556,1.1226276,0.9212442,1.4632827,1.0639156,1.0644255,0.91135883,1.0157453,761.9414,809.89014,803.8461,759.12085,782.8938,-0.11407470703125,0.12176513671875,0.96697998046875,0.61309814453125,0.13458251953125,-0.79254150390625,1.0,2.0,1.0,1.0,2.0,100.0,event
11:52:16.427,0.47491473,-0.3537254,0.45785978,-0.21628034,0.71367407,-0.30318943,-0.008163413,0.4749554,1.0461917,0.43222716,0.5124325,0.78211105,1.2759556,1.1226276,0.9212442,1.4632827,1.0639156,1.0644255,0.91135883,1.0157453,782.8938,770.80585,788.1319,777.25275,670.87915,-0.11407470703125,0.12176513671875,0.96697998046875,0.61309814453125,0.13458251953125,-0.79254150390625,1.0,2.0,1.0,1.0,2.0,100.0,event
11:52:16.427,0.47491473,-0.3537254,0.45785978,-0.21628034,0.71367407,-0.30318943,-0.008163413,0.4749554,1.0461917,0.43222716,0.5124325,0.78211105,1.2759556,1.1226276,0.9212442,1.4632827,1.0639156,1.0644255,0.91135883,1.0157453,794.9817,770.80585,777.25275,763.1502,639.45056,-0.11407470703125,0.12176513671875,0.96697998046875,0.61309814453125,0.13458251953125,-0.79254150390625,1.0,2.0,1.0,1.0,2.0,100.0,event
11:52:16.428,0.47491473,-0.3537254,0.45785978,-0.21628034,0.71367407,-0.30318943,-0.008163413,0.4749554,1.0461917,0.43222716,0.5124325,0.78211105,1.2759556,1.1226276,0.9212442,1.4632827,1.0639156,1.0644255,0.91135883,1.0157453,786.52014,825.2015,791.75824,762.74725,744.61536,-0.11407470703125,0.12176513671875,0.96697998046875,0.61309814453125,0.13458251953125,-0.79254150390625,1.0,2.0,1.0,1.0,2.0,100.0,event
11:52:16.428,0.47491473,-0.3537254,0.45785978,-0.21628034,0.71367407,-0.30318943,-0.008163413,0.4749554,1.0461917,0.43222716,0.5124325,0.78211105,1.2759556,1.1226276,0.9212442,1.4632827,1.0639156,1.0644255,0.91135883,1.0157453,769.19415,838.9011,804.2491,763.5531,713.5897,-0.11407470703125,0.12176513671875,0.96697998046875,0.61309814453125,0.13458251953125,-0.79254150390625,1.0,2.0,1.0,1.0,2.0,100.0,event
11:52:16.429,0.47491473,-0.3537254,0.45785978,-0.21628034,0.71367407,-0.30318943,-0.008163413,0.4749554,1.0461917,0.43222716,0.5124325,0.78211105,1.2759556,1.1226276,0.9212442,1.4632827,1.0639156,1.0644255,0.91135883,1.0157453,769.19415,829.6337,796.99634,764.7619,777.6557,-0.11407470703125,0.12176513671875,0.96697998046875,0.61309814453125,0.13458251953125,-0.79254150390625,1.0,2.0,1.0,1.0,2.0,100.0,event
11:52:16.430,0.47491473,-0.3537254,0.45785978,-0.21628034,0.71367407,-0.30318943,-0.008163413,0.4749554,1.0461917,0.43222716,0.5124325,0.78211105,1.2759556,1.1226276,0.9212442,1.4632827,1.0639156,1.0644255,0.91135883,1.0157453,788.93774,810.293,777.25275,781.685,898.93774,-0.11407470703125,0.12176513671875,0.96697998046875,0.61309814453125,0.13458251953125,-0.79254150390625,1.0,2.0,1.0,1.0,2.0,100.0,event
11:52:16.430,0.47491473,-0.29412785,0.4625094,-0.21628034,0.71367407,-0.30752417,0.089192815,0.4749554,1.0461917,0.51555556,0.6119627,0.78211105,1.2759556,1.1397634,0.9121094,1.4632827,1.0639156,1.0696815,0.89751565,1.0157453,799.41394,783.69965,782.0879,800.2198,960.58606,-0.11407470703125,0.12176513671875,0.96697998046875,0.61309814453125,0.13458251953125,-0.79254150390625,1.0,2.0,1.0,1.0,2.0,100.0,event
11:52:16.434,0.47491473,-0.29412785,0.4625094,-0.21628034,0.71367407,-0.30752417,0.089192815,0.4749554,1.0461917,0.51555556,0.6119627,0.78211105,1.2759556,1.1397634,0.9121094,1.4632827,1.0639156,1.0696815,0.89751565,1.0157453,821.1722,803.44324,802.6374,812.71063,776.04395,-0.11407470703125,0.12176513671875,0.96697998046875,0.61309814453125,0.13458251953125,-0.79254150390625,1.0,2.0,1.0,1.0,2.0,100.0,event
11:52:16.434,0.47491473,-0.29412785,0.4625094,-0.21628034,0.71367407,-0.30752417,0.089192815,0.4749554,1.0461917,0.51555556,0.6119627,0.78211105,1.2759556,1.1397634,0.9121094,1.4632827,1.0639156,1.0696815,0.89751565,1.0157453,813.5165,807.47253,811.0989,817.1429,958.5714,-0.11407470703125,0.12176513671875,0.96697998046875,0.61309814453125,0.13458251953125,-0.79254150390625,1.0,2.0,1.0,1.0,2.0,100.0,event
11:52:16.435,0.47491473,-0.29412785,0.4625094,-0.21628034,0.71367407,-0.30752417,0.089192815,0.4749554,1.0461917,0.51555556,0.6119627,0.78211105,1.2759556,1.1397634,0.9121094,1.4632827,1.0639156,1.0696815,0.89751565,1.0157453,800.6227,788.1319,786.1172,791.3553,701.0989,-0.11407470703125,0.12176513671875,0.96697998046875,0.61309814453125,0.13458251953125,-0.79254150390625,1.0,2.0,1.0,1.0,2.0,100.0,event
11:52:16.435,0.47491473,-0.29412785,0.4625094,-0.21628034,0.71367407,-0.30752417,0.089192815,0.4749554,1.0461917,0.51555556,0.6119627,0.78211105,1.2759556,1.1397634,0.9121094,1.4632827,1.0639156,1.0696815,0.89751565,1.0157453,798.20514,805.8608,785.31134,791.75824,724.87177,-0.11407470703125,0.12176513671875,0.96697998046875,0.61309814453125,0.13458251953125,-0.79254150390625,1.0,2.0,1.0,1.0,2.0,100.0,event
11:52:16.497,0.47491473,-0.29412785,0.4625094,-0.21628034,0.71367407,-0.30752417,0.089192815,0.4749554,1.0461917,0.51555556,0.6119627,0.78211105,1.2759556,1.1397634,0.9121094,1.4632827,1.0639156,1.0696815,0.89751565,1.0157453,821.978,777.6557,778.46155,812.71063,813.1135,-0.13360595703125,0.12249755859375,0.97821044921875,1.158905029296875,-3.70849609375,-0.919647216796875,1.0,2.0,1.0,1.0,2.0,100.0,event
11:52:16.498,0.47491473,-0.29412785,0.4625094,-0.21628034,0.71367407,-0.30752417,0.089192815,0.4749554,1.0461917,0.51555556,0.6119627,0.78211105,1.2759556,1.1397634,0.9121094,1.4632827,1.0639156,1.0696815,0.89751565,1.0157453,823.1868,798.60803,763.95605,805.8608,702.71063,-0.13360595703125,0.12249755859375,0.97821044921875,1.158905029296875,-3.70849609375,-0.919647216796875,1.0,2.0,1.0,1.0,2.0,100.0,event
11:52:16.498,0.47491473,-0.29412785,0.4625094,-0.21628034,0.71367407,-0.30752417,0.089192815,0.4749554,1.0461917,0.51555556,0.6119627,0.78211105,1.2759556,1.1397634,0.9121094,1.4632827,1.0639156,1.0696815,0.89751565,1.0157453,807.8755,815.5311,782.0879,793.7729,679.7436,-0.13360595703125,0.12249755859375,0.97821044921875,1.158905029296875,-3.70849609375,-0.919647216796875,1.0,2.0,1.0,1.0,2.0,100.0,event
11:52:16.499,0.47491473,-0.29412785,0.4625094,-0.21628034,0.71367407,-0.30752417,0.089192815,0.4749554,1.0461917,0.51555556,0.6119627,0.78211105,1.2759556,1.1397634,0.9121094,1.4632827,1.0639156,1.0696815,0.89751565,1.0157453,806.26373,806.26373,786.52014,802.6374,824.7985,-0.13360595703125,0.12249755859375,0.97821044921875,1.158905029296875,-3.70849609375,-0.919647216796875,1.0,2.0,1.0,1.0,2.0,100.0,event
11:52:16.500,0.47491473,-0.29412785,0.4625094,-0.21628034,0.71367407,-0.30752417,0.089192815,0.4749554,1.0461917,0.51555556,0.6119627,0.78211105,1.2759556,1.1397634,0.9121094,1.4632827,1.0639156,1.0696815,0.89751565,1.0157453,807.47253,809.4872,780.4762,799.41394,754.2857,-0.13360595703125,0.12249755859375,0.97821044921875,1.158905029296875,-3.70849609375,-0.919647216796875,1.0,2.0,1.0,1.0,2.0,100.0,event
11:52:16.500,0.47491473,-0.29412785,0.4625094,-0.21628034,0.71367407,-0.30752417,0.089192815,0.4749554,1.0461917,0.51555556,0.6119627,0.78211105,1.2759556,1.1397634,0.9121094,1.4632827,1.0639156,1.0696815,0.89751565,1.0157453,804.65204,797.8022,790.9524,797.8022,776.4469,-0.13360595703125,0.12249755859375,0.97821044921875,1.158905029296875,-3.70849609375,-0.919647216796875,1.0,2.0,1.0,1.0,2.0,100.0,event
11:52:16.501,0.47491473,-0.29412785,0.4625094,-0.21628034,0.71367407,-0.30752417,0.089192815,0.4749554,1.0461917,0.51555556,0.6119627,0.78211105,1.2759556,1.1397634,0.9121094,1.4632827,1.0639156,1.0696815,0.89751565,1.0157453,809.4872,803.8461,811.50183,792.5641,892.8938,-0.13360595703125,0.12249755859375,0.97821044921875,1.158905029296875,-3.70849609375,-0.919647216796875,1.0,2.0,1.0,1.0,2.0,100.0,event
11:52:16.501,0.47491473,-0.29412785,0.4625094,-0.21628034,0.71367407,-0.30752417,0.089192815,0.4749554,1.0461917,0.51555556,0.6119627,0.78211105,1.2759556,1.1397634,0.9121094,1.4632827,1.0639156,1.0696815,0.89751565,1.0157453,822.381,820.7692,818.7546,801.8315,1065.751,-0.13360595703125,0.12249755859375,0.97821044921875,1.158905029296875,-3.70849609375,-0.919647216796875,1.0,2.0,1.0,1.0,2.0,100.0,event
11:52:16.502,0.47491473,-0.29412785,0.4625094,-0.21628034,0.71367407,-0.30752417,0.089192815,0.4749554,1.0461917,0.51555556,0.6119627,0.78211105,1.2759556,1.1397634,0.9121094,1.4632827,1.0639156,1.0696815,0.89751565,1.0157453,815.5311,807.47253,789.34064,810.696,853.8095,-0.13360595703125,0.12249755859375,0.97821044921875,1.158905029296875,-3.70849609375,-0.919647216796875,1.0,2.0,1.0,1.0,2.0,100.0,event
11:52:16.503,0.47491473,-0.29412785,0.4625094,-0.21628034,0.71367407,-0.30752417,0.089192815,0.4749554,1.0461917,0.51555556,0.6119627,0.78211105,1.2759556,1.1397634,0.9121094,1.4632827,1.0639156,1.0696815,0.89751565,1.0157453,815.12823,792.96704,794.17584,802.6374,709.5604,-0.13360595703125,0.12249755859375,0.97821044921875,1.158905029296875,-3.70849609375,-0.919647216796875,1.0,2.0,1.0,1.0,2.0,100.0,event
11:52:16.503,0.47491473,-0.29412785,0.4625094,-0.21628034,0.71367407,-0.30752417,0.089192815,0.4749554,1.0461917,0.51555556,0.6119627,0.78211105,1.2759556,1.1397634,0.9121094,1.4632827,1.0639156,1.0696815,0.89751565,1.0157453,801.8315,799.81683,770.0,805.05493,671.28204,-0.13360595703125,0.12249755859375,0.97821044921875,1.158905029296875,-3.70849609375,-0.919647216796875,1.0,2.0,1.0,1.0,2.0,100.0,event
11:52:16.504,0.47491473,-0.29412785,0.4625094,-0.21628034,0.71367407,-0.30752417,0.089192815,0.4749554,1.0461917,0.51555556,0.6119627,0.78211105,1.2759556,1.1397634,0.9121094,1.4632827,1.0639156,1.0696815,0.89751565,1.0157453,824.3956,799.81683,807.8755,797.3993,688.60803,-0.13360595703125,0.12249755859375,0.97821044921875,1.158905029296875,-3.70849609375,-0.919647216796875,1.0,2.0,1.0,1.0,2.0,100.0,event
11:52:16.534,0.47491473,-0.29412785,0.4625094,-0.21628034,0.71367407,-0.30752417,0.089192815,0.4749554,1.0461917,0.51555556,0.6119627,0.78211105,1.2759556,1.1397634,0.9121094,1.4632827,1.0639156,1.0696815,0.89751565,1.0157453,825.6044,819.5604,788.5348,797.3993,699.89014,-0.13360595703125,0.12249755859375,0.97821044921875,1.158905029296875,-3.70849609375,-0.919647216796875,1.0,2.0,1.0,1.0,2.0,100.0,event
11:52:16.535,0.47491473,-0.29412785,0.4625094,-0.21628034,0.71367407,-0.30752417,0.089192815,0.4749554,1.0461917,0.51555556,0.6119627,0.78211105,1.2759556,1.1397634,0.9121094,1.4632827,1.0639156,1.0696815,0.89751565,1.0157453,817.5458,832.8571,772.4176,802.23444,695.8608,-0.13360595703125,0.12249755859375,0.97821044921875,1.158905029296875,-3.70849609375,-0.919647216796875,1.0,2.0,1.0,1.0,2.0,100.0,event
11:52:16.536,0.47491473,-0.29412785,0.4625094,-0.21628034,0.71367407,-0.30752417,0.089192815,0.4749554,1.0461917,0.51555556,0.6119627,0.78211105,1.2759556,1.1397634,0.9121094,1.4632827,1.0639156,1.0696815,0.89751565,1.0157453,817.9487,821.5751,778.86444,818.3516,732.9304,-0.13360595703125,0.12249755859375,0.97821044921875,1.158905029296875,-3.70849609375,-0.919647216796875,1.0,2.0,1.0,1.0,2.0,100.0,event
11:52:16.536,0.47491473,-0.29412785,0.4625094,-0.21628034,0.71367407,-0.30752417,0.089192815,0.4749554,1.0461917,0.51555556,0.6119627,0.78211105,1.2759556,1.1397634,0.9121094,1.4632827,1.0639156,1.0696815,0.89751565,1.0157453,830.84247,792.96704,809.4872,813.1135,842.52747,-0.13360595703125,0.12249755859375,0.97821044921875,1.158905029296875,-3.70849609375,-0.919647216796875,1.0,2.0,1.0,1.0,2.0,100.0,event
11:52:16.537,0.47491473,-0.29412785,0.4625094,-0.21628034,0.71367407,-0.30752417,0.089192815,0.4749554,1.0461917,0.51555556,0.6119627,0.78211105,1.2759556,1.1397634,0.9121094,1.4632827,1.0639156,1.0696815,0.89751565,1.0157453,796.99634,786.1172,806.6667,788.5348,812.71063,-0.13360595703125,0.12249755859375,0.97821044921875,1.158905029296875,-3.70849609375,-0.919647216796875,1.0,2.0,1.0,1.0,2.0,100.0,event
11:52:16.538,0.47491473,-0.29412785,0.4625094,-0.21628034,0.71367407,-0.30752417,0.089192815,0.4749554,1.0461917,0.51555556,0.6119627,0.78211105,1.2759556,1.1397634,0.9121094,1.4632827,1.0639156,1.0696815,0.89751565,1.0157453,777.25275,792.5641,790.14655,780.07324,792.5641,-0.13360595703125,0.12249755859375,0.97821044921875,1.158905029296875,-3.70849609375,-0.919647216796875,1.0,2.0,1.0,1.0,2.0,100.0,event
11:52:16.538,0.47491473,-0.29412785,0.4625094,-0.21628034,0.71367407,-0.30752417,0.089192815,0.4749554,1.0461917,0.51555556,0.6119627,0.78211105,1.2759556,1.1397634,0.9121094,1.4632827,1.0639156,1.0696815,0.89751565,1.0157453,810.293,799.011,797.3993,791.3553,990.0,-0.13360595703125,0.12249755859375,0.97821044921875,1.158905029296875,-3.70849609375,-0.919647216796875,1.0,2.0,1.0,1.0,2.0,100.0,event
11:52:16.539,0.47491473,-0.29412785,0.4625094,-0.21628034,0.71367407,-0.30752417,0.089192815,0.4749554,1.0461917,0.51555556,0.6119627,0.78211105,1.2759556,1.1397634,0.9121094,1.4632827,1.0639156,1.0696815,0.89751565,1.0157453,817.5458,815.9341,796.1905,799.011,1161.2454,-0.13360595703125,0.12249755859375,0.97821044921875,1.158905029296875,-3.70849609375,-0.919647216796875,1.0,2.0,1.0,1.0,2.0,100.0,event
11:52:16.540,0.47491473,-0.29412785,0.4625094,-0.21628034,0.71367407,-0.30752417,0.089192815,0.4749554,1.0461917,0.51555556,0.6119627,0.78211105,1.2759556,1.1397634,0.9121094,1.4632827,1.0639156,1.0696815,0.89751565,1.0157453,798.20514,820.7692,783.69965,795.78754,824.7985,-0.13360595703125,0.12249755859375,0.97821044921875,1.158905029296875,-3.70849609375,-0.919647216796875,1.0,2.0,1.0,1.0,2.0,100.0,event
11:52:16.541,0.47491473,-0.25263706,0.4667488,-0.21628034,0.71367407,-0.31552187,0.17412533,0.4749554,1.0461917,0.5807215,0.65740705,0.78211105,1.2759556,1.1625408,0.91239566,1.4632827,1.0639156,1.070695,0.88326985,1.0157453,812.3077,795.38464,765.16486,829.2308,657.98535,-0.13360595703125,0.12249755859375,0.97821044921875,1.158905029296875,-3.70849609375,-0.919647216796875,1.0,2.0,1.0,1.0,2.0,100.0,event
11:52:16.545,0.47491473,-0.25263706,0.4667488,-0.21628034,0.71367407,-0.31552187,0.17412533,0.4749554,1.0461917,0.5807215,0.65740705,0.78211105,1.2759556,1.1625408,0.91239566,1.4632827,1.0639156,1.070695,0.88326985,1.0157453,809.0842,805.05493,795.78754,807.8755,750.65936,-0.13360595703125,0.12249755859375,0.97821044921875,1.158905029296875,-3.70849609375,-0.919647216796875,1.0,2.0,1.0,1.0,2.0,100.0,event
11:52:16.546,0.47491473,-0.25263706,0.4667488,-0.21628034,0.71367407,-0.31552187,0.17412533,0.4749554,1.0461917,0.5807215,0.65740705,0.78211105,1.2759556,1.1625408,0.91239566,1.4632827,1.0639156,1.070695,0.88326985,1.0157453,798.20514,834.4689,812.71063,770.80585,705.12823,-0.13360595703125,0.12249755859375,0.97821044921875,1.158905029296875,-3.70849609375,-0.919647216796875,1.0,2.0,1.0,1.0,2.0,100.0,event
11:52:16.611,0.47491473,-0.25263706,0.4667488,-0.21628034,0.71367407,-0.31552187,0.17412533,0.4749554,1.0461917,0.5807215,0.65740705,0.78211105,1.2759556,1.1625408,0.91239566,1.4632827,1.0639156,1.070695,0.88326985,1.0157453,804.2491,807.0696,801.4286,795.78754,684.9817,-0.111328125,0.12042236328125,0.96429443359375,1.21124267578125,-0.7476806640625,-0.919647216796875,1.0,2.0,1.0,1.0,2.0,100.0,event
11:52:16.612,0.47491473,-0.25263706,0.4667488,-0.21628034,0.71367407,-0.31552187,0.17412533,0.4749554,1.0461917,0.5807215,0.65740705,0.78211105,1.2759556,1.1625408,0.91239566,1.4632827,1.0639156,1.070695,0.88326985,1.0157453,805.8608,792.96704,800.2198,805.4579,691.8315,-0.111328125,0.12042236328125,0.96429443359375,1.21124267578125,-0.7476806640625,-0.919647216796875,1.0,2.0,1.0,1.0,2.0,100.0,event
11:52:16.613,0.47491473,-0.25263706,0.4667488,-0.21628034,0.71367407,-0.31552187,0.17412533,0.4749554,1.0461917,0.5807215,0.65740705,0.78211105,1.2759556,1.1625408,0.91239566,1.4632827,1.0639156,1.070695,0.88326985,1.0157453,795.38464,796.1905,803.0403,793.36993,754.2857,-0.111328125,0.12042236328125,0.96429443359375,1.21124267578125,-0.7476806640625,-0.919647216796875,1.0,2.0,1.0,1.0,2.0,100.0,event
11:52:16.614,0.47491473,-0.25263706,0.4667488,-0.21628034,0.71367407,-0.31552187,0.17412533,0.4749554,1.0461917,0.5807215,0.65740705,0.78211105,1.2759556,1.1625408,0.91239566,1.4632827,1.0639156,1.070695,0.88326985,1.0157453,775.2381,788.1319,795.78754,782.8938,732.52747,-0.111328125,0.12042236328125,0.96429443359375,1.21124267578125,-0.7476806640625,-0.919647216796875,1.0,2.0,1.0,1.0,2.0,100.0,event
11:52:16.614,0.47491473,-0.25263706,0.4667488,-0.21628034,0.71367407,-0.31552187,0.17412533,0.4749554,1.0461917,0.5807215,0.65740705,0.78211105,1.2759556,1.1625408,0.91239566,1.4632827,1.0639156,1.070695,0.88326985,1.0157453,766.3736,805.8608,791.75824,774.43225,655.16486,-0.111328125,0.12042236328125,0.96429443359375,1.21124267578125,-0.7476806640625,-0.919647216796875,1.0,2.0,1.0,1.0,2.0,100.0,event
11:52:16.615,0.47491473,-0.25263706,0.4667488,-0.21628034,0.71367407,-0.31552187,0.17412533,0.4749554,1.0461917,0.5807215,0.65740705,0.78211105,1.2759556,1.1625408,0.91239566,1.4632827,1.0639156,1.070695,0.88326985,1.0157453,764.7619,820.3663,787.326,775.64105,838.9011,-0.111328125,0.12042236328125,0.96429443359375,1.21124267578125,-0.7476806640625,-0.919647216796875,1.0,2.0,1.0,1.0,2.0,100.0,event
11:52:16.615,0.47491473,-0.25263706,0.4667488,-0.21628034,0.71367407,-0.31552187,0.17412533,0.4749554,1.0461917,0.5807215,0.65740705,0.78211105,1.2759556,1.1625408,0.91239566,1.4632827,1.0639156,1.070695,0.88326985,1.0157453,774.83514,793.7729,801.02563,782.8938,1021.4286,-0.111328125,0.12042236328125,0.96429443359375,1.21124267578125,-0.7476806640625,-0.919647216796875,1.0,2.0,1.0,1.0,2.0,100.0,event
11:52:16.616,0.47491473,-0.25263706,0.4667488,-0.21628034,0.71367407,-0.31552187,0.17412533,0.4749554,1.0461917,0.5807215,0.65740705,0.78211105,1.2759556,1.1625408,0.91239566,1.4632827,1.0639156,1.070695,0.88326985,1.0157453,794.17584,784.10254,807.8755,801.02563,904.17584,-0.111328125,0.12042236328125,0.96429443359375,1.21124267578125,-0.7476806640625,-0.919647216796875,1.0,2.0,1.0,1.0,2.0,100.0,event
11:52:16.617,0.47491473,-0.25263706,0.4667488,-0.21628034,0.71367407,-0.31552187,0.17412533,0.4749554,1.0461917,0.5807215,0.65740705,0.78211105,1.2759556,1.1625408,0.91239566,1.4632827,1.0639156,1.070695,0.88326985,1.0157453,814.7253,791.3553,802.6374,830.0366,776.8498,-0.111328125,0.12042236328125,0.96429443359375,1.21124267578125,-0.7476806640625,-0.919647216796875,1.0,2.0,1.0,1.0,2.0,100.0,event
11:52:16.617,0.47491473,-0.25263706,0.4667488,-0.21628034,0.71367407,-0.31552187,0.17412533,0.4749554,1.0461917,0.5807215,0.65740705,0.78211105,1.2759556,1.1625408,0.91239566,1.4632827,1.0639156,1.070695,0.88326985,1.0157453,810.293,801.02563,793.7729,817.9487,781.685,-0.111328125,0.12042236328125,0.96429443359375,1.21124267578125,-0.7476806640625,-0.919647216796875,1.0,2.0,1.0,1.0,2.0,100.0,event
11:52:16.618,0.47491473,-0.25263706,0.4667488,-0.21628034,0.71367407,-0.31552187,0.17412533,0.4749554,1.0461917,0.5807215,0.65740705,0.78211105,1.2759556,1.1625408,0.91239566,1.4632827,1.0639156,1.070695,0.88326985,1.0157453,805.8608,788.1319,796.99634,832.8571,1019.011,-0.111328125,0.12042236328125,0.96429443359375,1.21124267578125,-0.7476806640625,-0.919647216796875,1.0,2.0,1.0,1.0,2.0,100.0,event
11:52:16.619,0.47491473,-0.25263706,0.4667488,-0.21628034,0.71367407,-0.31552187,0.17412533,0.4749554,1.0461917,0.5807215,0.65740705,0.78211105,1.2759556,1.1625408,0.91239566,1.4632827,1.0639156,1.070695,0.88326985,1.0157453,782.0879,784.90845,791.75824,805.4579,860.2564,-0.111328125,0.12042236328125,0.96429443359375,1.21124267578125,-0.7476806640625,-0.919647216796875,1.0,2.0,1.0,1.0,2.0,100.0,event
11:52:16.648,0.47491473,-0.25263706,0.4667488,-0.21628034,0.71367407,-0.31552187,0.17412533,0.4749554,1.0461917,0.5807215,0.65740705,0.78211105,1.2759556,1.1625408,0.91239566,1.4632827,1.0639156,1.070695,0.88326985,1.0157453,761.9414,779.67035,812.3077,786.52014,621.7216,-0.1158447265625,0.12384033203125,0.97662353515625,1.697235107421875,-1.502838134765625,1.57012939453125,1.0,2.0,1.0,1.0,2.0,100.0,event
11:52:16.649,0.47491473,-0.25263706,0.4667488,-0.21628034,0.71367407,-0.31552187,0.17412533,0.4749554,1.0461917,0.5807215,0.65740705,0.78211105,1.2759556,1.1625408,0.91239566,1.4632827,1.0639156,1.070695,0.88326985,1.0157453,758.71796,792.96704,809.4872,779.2674,704.7253,-0.1158447265625,0.12384033203125,0.97662353515625,1.697235107421875,-1.502838134765625,1.57012939453125,1.0,2.0,1.0,1.0,2.0,100.0,event
11:52:16.650,0.47491473,-0.25263706,0.4667488,-0.21628034,0.71367407,-0.31552187,0.17412533,0.4749554,1.0461917,0.5807215,0.65740705,0.78211105,1.2759556,1.1625408,0.91239566,1.4632827,1.0639156,1.070695,0.88326985,1.0157453,755.4945,789.34064,803.8461,776.4469,724.0659,-0.1158447265625,0.12384033203125,0.97662353515625,1.697235107421875,-1.502838134765625,1.57012939453125,1.0,2.0,1.0,1.0,2.0,100.0,event
11:52:16.651,0.47491473,-0.25263706,0.4667488,-0.21628034,0.71367407,-0.31552187,0.17412533,0.4749554,1.0461917,0.5807215,0.65740705,0.78211105,1.2759556,1.1625408,0.91239566,1.4632827,1.0639156,1.070695,0.88326985,1.0157453,757.9121,804.65204,800.6227,787.326,678.93774,-0.1158447265625,0.12384033203125,0.97662353515625,1.697235107421875,-1.502838134765625,1.57012939453125,1.0,2.0,1.0,1.0,2.0,100.0,event
11:52:16.652,0.47491473,-0.25263706,0.4667488,-0.21628034,0.71367407,-0.31552187,0.17412533,0.4749554,1.0461917,0.5807215,0.65740705,0.78211105,1.2759556,1.1625408,0.91239566,1.4632827,1.0639156,1.070695,0.88326985,1.0157453,766.3736,815.12823,785.31134,790.9524,659.59705,-0.1158447265625,0.12384033203125,0.97662353515625,1.697235107421875,-1.502838134765625,1.57012939453125,1.0,2.0,1.0,1.0,2.0,100.0,event
11:52:16.652,0.47491473,-0.25263706,0.4667488,-0.21628034,0.71367407,-0.31552187,0.17412533,0.4749554,1.0461917,0.5807215,0.65740705,0.78211105,1.2759556,1.1625408,0.91239566,1.4632827,1.0639156,1.070695,0.88326985,1.0157453,785.31134,806.26373,802.23444,794.9817,836.8865,-0.1158447265625,0.12384033203125,0.97662353515625,1.697235107421875,-1.502838134765625,1.57012939453125,1.0,2.0,1.0,1.0,2.0,100.0,event
11:52:16.653,0.47491473,-0.25263706,0.4667488,-0.21628034,0.71367407,-0.31552187,0.17412533,0.4749554,1.0461917,0.5807215,0.65740705,0.78211105,1.2759556,1.1625408,0.91239566,1.4632827,1.0639156,1.070695,0.88326985,1.0157453,814.7253,784.5055,807.8755,816.7399,894.90845,-0.1158447265625,0.12384033203125,0.97662353515625,1.697235107421875,-1.502838134765625,1.57012939453125,1.0,2.0,1.0,1.0,2.0,100.0,event
11:52:16.653,0.47491473,-0.25263706,0.4667488,-0.21628034,0.71367407,-0.31552187,0.17412533,0.4749554,1.0461917,0.5807215,0.65740705,0.78211105,1.2759556,1.1625408,0.91239566,1.4632827,1.0639156,1.070695,0.88326985,1.0157453,832.8571,759.5238,807.47253,835.6777,740.18317,-0.1158447265625,0.12384033203125,0.97662353515625,1.697235107421875,-1.502838134765625,1.57012939453125,1.0,2.0,1.0,1.0,2.0,100.0,event
11:52:16.654,0.47491473,-0.25263706,0.4667488,-0.21628034,0.71367407,-0.31552187,0.17412533,0.4749554,1.0461917,0.5807215,0.65740705,0.78211105,1.2759556,1.1625408,0.91239566,1.4632827,1.0639156,1.070695,0.88326985,1.0157453,820.3663,788.93774,809.4872,822.7839,680.14655,-0.1158447265625,0.12384033203125,0.97662353515625,1.697235107421875,-1.502838134765625,1.57012939453125,1.0,2.0,1.0,1.0,2.0,100.0,event
11:52:16.655,0.47491473,-0.25263706,0.4667488,-0.21628034,0.71367407,-0.31552187,0.17412533,0.4749554,1.0461917,0.5807215,0.65740705,0.78211105,1.2759556,1.1625408,0.91239566,1.4632827,1.0639156,1.070695,0.88326985,1.0157453,774.43225,831.2454,782.0879,784.90845,865.4945,-0.1158447265625,0.12384033203125,0.97662353515625,1.697235107421875,-1.502838134765625,1.57012939453125,1.0,2.0,1.0,1.0,2.0,100.0,event
11:52:16.655,0.47491473,-0.25263706,0.4667488,-0.21628034,0.71367407,-0.31552187,0.17412533,0.4749554,1.0461917,0.5807215,0.65740705,0.78211105,1.2759556,1.1625408,0.91239566,1.4632827,1.0639156,1.070695,0.88326985,1.0157453,794.17584,830.0366,788.1319,798.60803,836.4835,-0.1158447265625,0.12384033203125,0.97662353515625,1.697235107421875,-1.502838134765625,1.57012939453125,1.0,2.0,1.0,1.0,2.0,100.0,event
11:52:16.656,0.47491473,-0.2189253,0.4984504,-0.21628034,0.71367407,-0.3302406,0.25795513,0.4749554,1.0461917,0.6052771,0.66679424,0.78211105,1.2759556,1.1849182,0.9076771,1.4632827,1.0639156,1.0573472,0.8635876,1.0157453,767.5824,817.1429,802.6374,765.9707,741.79486,-0.1158447265625,0.12384033203125,0.97662353515625,1.697235107421875,-1.502838134765625,1.57012939453125,1.0,2.0,1.0,1.0,2.0,100.0,event
11:52:16.682,0.47491473,-0.2189253,0.4984504,-0.21628034,0.71367407,-0.3302406,0.25795513,0.4749554,1.0461917,0.6052771,0.66679424,0.78211105,1.2759556,1.1849182,0.9076771,1.4632827,1.0639156,1.0573472,0.8635876,1.0157453,779.2674,786.9231,795.78754,767.98535,758.71796,-0.1416015625,0.1171875,0.97613525390625,1.734619140625,-1.801910400390625,2.07855224609375,1.0,2.0,1.0,1.0,2.0,100.0,event
11:52:16.682,0.47491473,-0.2189253,0.4984504,-0.21628034,0.71367407,-0.3302406,0.25795513,0.4749554,1.0461917,0.6052771,0.66679424,0.78211105,1.2759556,1.1849182,0.9076771,1.4632827,1.0639156,1.0573472,0.8635876,1.0157453,781.28204,789.7436,778.86444,788.1319,964.21246,-0.1416015625,0.1171875,0.97613525390625,1.734619140625,-1.801910400390625,2.07855224609375,1.0,2.0,1.0,1.0,2.0,100.0,event
11:52:16.683,0.47491473,-0.2189253,0.4984504,-0.21628034,0.71367407,-0.3302406,0.25795513,0.4749554,1.0461917,0.6052771,0.66679424,0.78211105,1.2759556,1.1849182,0.9076771,1.4632827,1.0639156,1.0573472,0.8635876,1.0157453,774.43225,790.54944,799.81683,792.5641,943.663,-0.1416015625,0.1171875,0.97613525390625,1.734619140625,-1.801910400390625,2.07855224609375,1.0,2.0,1.0,1.0,2.0,100.0,event
11:52:16.683,0.47491473,-0.2189253,0.4984504,-0.21628034,0.71367407,-0.3302406,0.25795513,0.4749554,1.0461917,0.6052771,0.66679424,0.78211105,1.2759556,1.1849182,0.9076771,1.4632827,1.0639156,1.0573472,0.8635876,1.0157453,788.1319,780.4762,821.1722,801.8315,722.0513,-0.1416015625,0.1171875,0.97613525390625,1.734619140625,-1.801910400390625,2.07855224609375,1.0,2.0,1.0,1.0,2.0,100.0,event
11:52:16.684,0.47491473,-0.2189253,0.4984504,-0.21628034,0.71367407,-0.3302406,0.25795513,0.4749554,1.0461917,0.6052771,0.66679424,0.78211105,1.2759556,1.1849182,0.9076771,1.4632827,1.0639156,1.0573472,0.8635876,1.0157453,785.7143,792.96704,803.8461,786.52014,702.3077,-0.1416015625,0.1171875,0.97613525390625,1.734619140625,-1.801910400390625,2.07855224609375,1.0,2.0,1.0,1.0,2.0,100.0,event
11:52:16.684,0.47491473,-0.2189253,0.4984504,-0.21628034,0.71367407,-0.3302406,0.25795513,0.4749554,1.0461917,0.6052771,0.66679424,0.78211105,1.2759556,1.1849182,0.9076771,1.4632827,1.0639156,1.0573472,0.8635876,1.0157453,772.4176,786.52014,786.52014,779.2674,860.2564,-0.1416015625,0.1171875,0.97613525390625,1.734619140625,-1.801910400390625,2.07855224609375,1.0,2.0,1.0,1.0,2.0,100.0,event
11:52:16.685,0.47491473,-0.2189253,0.4984504,-0.21628034,0.71367407,-0.3302406,0.25795513,0.4749554,1.0461917,0.6052771,0.66679424,0.78211105,1.2759556,1.1849182,0.9076771,1.4632827,1.0639156,1.0573472,0.8635876,1.0157453,770.0,804.2491,777.25275,788.1319,865.09155,-0.1416015625,0.1171875,0.97613525390625,1.734619140625,-1.801910400390625,2.07855224609375,1.0,2.0,1.0,1.0,2.0,100.0,event
11:52:16.685,0.47491473,-0.2189253,0.4984504,-0.21628034,0.71367407,-0.3302406,0.25795513,0.4749554,1.0461917,0.6052771,0.66679424,0.78211105,1.2759556,1.1849182,0.9076771,1.4632827,1.0639156,1.0573472,0.8635876,1.0157453,773.6264,799.81683,807.0696,790.54944,743.00366,-0.1416015625,0.1171875,0.97613525390625,1.734619140625,-1.801910400390625,2.07855224609375,1.0,2.0,1.0,1.0,2.0,100.0,event
11:52:16.685,0.47491473,-0.2189253,0.4984504,-0.21628034,0.71367407,-0.3302406,0.25795513,0.4749554,1.0461917,0.6052771,0.66679424,0.78211105,1.2759556,1.1849182,0.9076771,1.4632827,1.0639156,1.0573472,0.8635876,1.0157453,790.14655,751.06226,804.65204,806.6667,804.65204,-0.1416015625,0.1171875,0.97613525390625,1.734619140625,-1.801910400390625,2.07855224609375,1.0,2.0,1.0,1.0,2.0,100.0,event
11:52:16.686,0.47491473,-0.2189253,0.4984504,-0.21628034,0.71367407,-0.3302406,0.25795513,0.4749554,1.0461917,0.6052771,0.66679424,0.78211105,1.2759556,1.1849182,0.9076771,1.4632827,1.0639156,1.0573472,0.8635876,1.0157453,803.8461,812.71063,783.2967,818.3516,895.7143,-0.1416015625,0.1171875,0.97613525390625,1.734619140625,-1.801910400390625,2.07855224609375,1.0,2.0,1.0,1.0,2.0,100.0,event
11:52:16.686,0.47491473,-0.2189253,0.4984504,-0.21628034,0.71367407,-0.3302406,0.25795513,0.4749554,1.0461917,0.6052771,0.66679424,0.78211105,1.2759556,1.1849182,0.9076771,1.4632827,1.0639156,1.0573472,0.8635876,1.0157453,801.02563,799.41394,789.34064,818.3516,1097.5824,-0.1416015625,0.1171875,0.97613525390625,1.734619140625,-1.801910400390625,2.07855224609375,1.0,2.0,1.0,1.0,2.0,100.0,event
11:52:16.687,0.47491473,-0.2189253,0.4984504,-0.21628034,0.71367407,-0.3302406,0.25795513,0.4749554,1.0461917,0.6052771,0.66679424,0.78211105,1.2759556,1.1849182,0.9076771,1.4632827,1.0639156,1.0573472,0.8635876,1.0157453,798.60803,781.685,768.3883,811.0989,644.2857,-0.1416015625,0.1171875,0.97613525390625,1.734619140625,-1.801910400390625,2.07855224609375,1.0,2.0,1.0,1.0,2.0,100.0,event
11:52:16.745,0.47491473,-0.2189253,0.4984504,-0.21628034,0.71367407,-0.3302406,0.25795513,0.4749554,1.0461917,0.6052771,0.66679424,0.78211105,1.2759556,1.1849182,0.9076771,1.4632827,1.0639156,1.0573472,0.8635876,1.0157453,782.49084,823.1868,805.8608,801.02563,737.76556,-0.1387939453125,0.1197509765625,0.97430419921875,2.370147705078125,-4.11224365234375,-0.037384033203125,1.0,2.0,1.0,1.0,2.0,100.0,event
11:52:16.745,0.47491473,-0.2189253,0.4984504,-0.21628034,0.71367407,-0.3302406,0.25795513,0.4749554,1.0461917,0.6052771,0.66679424,0.78211105,1.2759556,1.1849182,0.9076771,1.4632827,1.0639156,1.0573472,0.8635876,1.0157453,788.5348,814.7253,813.1135,797.8022,757.1062,-0.1387939453125,0.1197509765625,0.97430419921875,2.370147705078125,-4.11224365234375,-0.037384033203125,1.0,2.0,1.0,1.0,2.0,100.0,event
11:52:16.746,0.47491473,-0.2189253,0.4984504,-0.21628034,0.71367407,-0.3302406,0.25795513,0.4749554,1.0461917,0.6052771,0.66679424,0.78211105,1.2759556,1.1849182,0.9076771,1.4632827,1.0639156,1.0573472,0.8635876,1.0157453,793.7729,813.5165,789.34064,796.99634,713.1868,-0.1387939453125,0.1197509765625,0.97430419921875,2.370147705078125,-4.11224365234375,-0.037384033203125,1.0,2.0,1.0,1.0,2.0,100.0,event
11:52:16.746,0.47491473,-0.2189253,0.4984504,-0.21628034,0.71367407,-0.3302406,0.25795513,0.4749554,1.0461917,0.6052771,0.66679424,0.78211105,1.2759556,1.1849182,0.9076771,1.4632827,1.0639156,1.0573472,0.8635876,1.0157453,792.1612,801.02563,799.41394,801.4286,734.5421,-0.1387939453125,0.1197509765625,0.97430419921875,2.370147705078125,-4.11224365234375,-0.037384033203125,1.0,2.0,1.0,1.0,2.0,100.0,event
11:52:16.747,0.47491473,-0.2189253,0.4984504,-0.21628034,0.71367407,-0.3302406,0.25795513,0.4749554,1.0461917,0.6052771,0.66679424,0.78211105,1.2759556,1.1849182,0.9076771,1.4632827,1.0639156,1.0573472,0.8635876,1.0157453,805.8608,751.8681,794.9817,817.5458,811.9048,-0.1387939453125,0.1197509765625,0.97430419921875,2.370147705078125,-4.11224365234375,-0.037384033203125,1.0,2.0,1.0,1.0,2.0,100.0,event
11:52:16.747,0.47491473,-0.2189253,0.4984504,-0.21628034,0.71367407,-0.3302406,0.25795513,0.4749554,1.0461917,0.6052771,0.66679424,0.78211105,1.2759556,1.1849182,0.9076771,1.4632827,1.0639156,1.0573472,0.8635876,1.0157453,795.38464,797.3993,792.1612,808.68134,834.87177,-0.1387939453125,0.1197509765625,0.97430419921875,2.370147705078125,-4.11224365234375,-0.037384033203125,1.0,2.0,1.0,1.0,2.0,100.0,event
11:52:16.748,0.47491473,-0.2189253,0.4984504,-0.21628034,0.71367407,-0.3302406,0.25795513,0.4749554,1.0461917,0.6052771,0.66679424,0.78211105,1.2759556,1.1849182,0.9076771,1.4632827,1.0639156,1.0573472,0.8635876,1.0157453,781.685,778.86444,782.0879,790.54944,866.30035,-0.1387939453125,0.1197509765625,0.97430419921875,2.370147705078125,-4.11224365234375,-0.037384033203125,1.0,2.0,1.0,1.0,2.0,100.0,event
11:52:16.748,0.47491473,-0.2189253,0.4984504,-0.21628034,0.71367407,-0.3302406,0.25795513,0.4749554,1.0461917,0.6052771,0.66679424,0.78211105,1.2759556,1.1849182,0.9076771,1.4632827,1.0639156,1.0573472,0.8635876,1.0157453,772.4176,825.6044,815.12823,777.25275,788.5348,-0.1387939453125,0.1197509765625,0.97430419921875,2.370147705078125,-4.11224365234375,-0.037384033203125,1.0,2.0,1.0,1.0,2.0,100.0,event
11:52:16.748,0.47491473,-0.2189253,0.4984504,-0.21628034,0.71367407,-0.3302406,0.25795513,0.4749554,1.0461917,0.6052771,0.66679424,0.78211105,1.2759556,1.1849182,0.9076771,1.4632827,1.0639156,1.0573472,0.8635876,1.0157453,774.43225,789.34064,795.38464,767.98535,748.24176,-0.1387939453125,0.1197509765625,0.97430419921875,2.370147705078125,-4.11224365234375,-0.037384033203125,1.0,2.0,1.0,1.0,2.0,100.0,event
11:52:16.749,0.47491473,-0.2189253,0.4984504,-0.21628034,0.71367407,-0.3302406,0.25795513,0.4749554,1.0461917,0.6052771,0.66679424,0.78211105,1.2759556,1.1849182,0.9076771,1.4632827,1.0639156,1.0573472,0.8635876,1.0157453,817.9487,834.0659,813.91943,804.65204,748.6447,-0.1387939453125,0.1197509765625,0.97430419921875,2.370147705078125,-4.11224365234375,-0.037384033203125,1.0,2.0,1.0,1.0,2.0,100.0,event
11:52:16.749,0.47491473,-0.2189253,0.4984504,-0.21628034,0.71367407,-0.3302406,0.25795513,0.4749554,1.0461917,0.6052771,0.66679424,0.78211105,1.2759556,1.1849182,0.9076771,1.4632827,1.0639156,1.0573472,0.8635876,1.0157453,801.8315,810.293,803.8461,802.23444,919.4872,-0.1387939453125,0.1197509765625,0.97430419921875,2.370147705078125,-4.11224365234375,-0.037384033203125,1.0,2.0,1.0,1.0,2.0,100.0,event
11:52:16.750,0.47491473,-0.2189253,0.4984504,-0.21628034,0.71367407,-0.3302406,0.25795513,0.4749554,1.0461917,0.6052771,0.66679424,0.78211105,1.2759556,1.1849182,0.9076771,1.4632827,1.0639156,1.0573472,0.8635876,1.0157453,796.1905,817.5458,817.5458,793.36993,693.8461,-0.1387939453125,0.1197509765625,0.97430419921875,2.370147705078125,-4.11224365234375,-0.037384033203125,1.0,2.0,1.0,1.0,2.0,100.0,event
11:52:16.777,0.47491473,-0.2189253,0.4984504,-0.21628034,0.71367407,-0.3302406,0.25795513,0.4749554,1.0461917,0.6052771,0.66679424,0.78211105,1.2759556,1.1849182,0.9076771,1.4632827,1.0639156,1.0573472,0.8635876,1.0157453,785.7143,805.8608,801.02563,782.0879,672.8938,-0.1387939453125,0.1197509765625,0.97430419921875,2.370147705078125,-4.11224365234375,-0.037384033203125,1.0,2.0,1.0,1.0,2.0,100.0,event
11:52:16.778,0.47491473,-0.18074031,0.53411806,-0.21628034,0.71367407,-0.35119164,0.31622395,0.4749554,1.0461917,0.63300335,0.6679812,0.78211105,1.2759556,1.2002995,0.8926775,1.4632827,1.0639156,1.025449,0.84303266,1.0157453,787.326,809.4872,790.54944,785.7143,626.1539,-0.1387939453125,0.1197509765625,0.97430419921875,2.370147705078125,-4.11224365234375,-0.037384033203125,1.0,2.0,1.0,1.0,2.0,100.0,event
11:52:16.782,0.47491473,-0.18074031,0.53411806,-0.21628034,0.71367407,-0.35119164,0.31622395,0.4749554,1.0461917,0.63300335,0.6679812,0.78211105,1.2759556,1.2002995,0.8926775,1.4632827,1.0639156,1.025449,0.84303266,1.0157453,781.685,793.7729,801.8315,789.34064,678.1319,-0.1387939453125,0.1197509765625,0.97430419921875,2.370147705078125,-4.11224365234375,-0.037384033203125,1.0,2.0,1.0,1.0,2.0,100.0,event
11:52:16.783,0.47491473,-0.18074031,0.53411806,-0.21628034,0.71367407,-0.35119164,0.31622395,0.4749554,1.0461917,0.63300335,0.6679812,0.78211105,1.2759556,1.2002995,0.8926775,1.4632827,1.0639156,1.025449,0.84303266,1.0157453,789.7436,794.57874,790.54944,792.5641,819.5604,-0.1387939453125,0.1197509765625,0.97430419921875,2.370147705078125,-4.11224365234375,-0.037384033203125,1.0,2.0,1.0,1.0,2.0,100.0,event
11:52:16.783,0.47491473,-0.18074031,0.53411806,-0.21628034,0.71367407,-0.35119164,0.31622395,0.4749554,1.0461917,0.63300335,0.6679812,0.78211105,1.2759556,1.2002995,0.8926775,1.4632827,1.0639156,1.025449,0.84303266,1.0157453,817.5458,780.4762,789.34064,819.15753,898.93774,-0.1387939453125,0.1197509765625,0.97430419921875,2.370147705078125,-4.11224365234375,-0.037384033203125,1.0,2.0,1.0,1.0,2.0,100.0,event
11:52:16.784,0.47491473,-0.18074031,0.53411806,-0.21628034,0.71367407,-0.35119164,0.31622395,0.4749554,1.0461917,0.63300335,0.6679812,0.78211105,1.2759556,1.2002995,0.8926775,1.4632827,1.0639156,1.025449,0.84303266,1.0157453,857.03296,778.46155,778.86444,865.4945,892.8938,-0.1387939453125,0.1197509765625,0.97430419921875,2.370147705078125,-4.11224365234375,-0.037384033203125,1.0,2.0,1.0,1.0,2.0,100.0,event
11:52:16.785,0.47491473,-0.18074031,0.53411806,-0.21628034,0.71367407,-0.35119164,0.31622395,0.4749554,1.0461917,0.63300335,0.6679812,0.78211105,1.2759556,1.2002995,0.8926775,1.4632827,1.0639156,1.025449,0.84303266,1.0157453,830.84247,818.3516,782.0879,826.8132,876.3736,-0.1387939453125,0.1197509765625,0.97430419921875,2.370147705078125,-4.11224365234375,-0.037384033203125,1.0,2.0,1.0,1.0,2.0,100.0,event
11:52:16.785,0.47491473,-0.18074031,0.53411806,-0.21628034,0.71367407,-0.35119164,0.31622395,0.4749554,1.0461917,0.63300335,0.6679812,0.78211105,1.2759556,1.2002995,0.8926775,1.4632827,1.0639156,1.025449,0.84303266,1.0157453,772.01465,837.6923,817.1429,771.6117,804.65204,-0.1387939453125,0.1197509765625,0.97430419921875,2.370147705078125,-4.11224365234375,-0.037384033203125,1.0,2.0,1.0,1.0,2.0,100.0,event
11:52:16.786,0.47491473,-0.18074031,0.53411806,-0.21628034,0.71367407,-0.35119164,0.31622395,0.4749554,1.0461917,0.63300335,0.6679812,0.78211105,1.2759556,1.2002995,0.8926775,1.4632827,1.0639156,1.025449,0.84303266,1.0157453,797.8022,816.337,821.5751,782.8938,856.63007,-0.1387939453125,0.1197509765625,0.97430419921875,2.370147705078125,-4.11224365234375,-0.037384033203125,1.0,2.0,1.0,1.0,2.0,100.0,event
11:52:16.786,0.47491473,-0.18074031,0.53411806,-0.21628034,0.71367407,-0.35119164,0.31622395,0.4749554,1.0461917,0.63300335,0.6679812,0.78211105,1.2759556,1.2002995,0.8926775,1.4632827,1.0639156,1.025449,0.84303266,1.0157453,771.6117,828.4249,830.0366,775.2381,1005.31134,-0.1387939453125,0.1197509765625,0.97430419921875,2.370147705078125,-4.11224365234375,-0.037384033203125,1.0,2.0,1.0,1.0,2.0,100.0,event
11:52:16.787,0.47491473,-0.18074031,0.53411806,-0.21628034,0.71367407,-0.35119164,0.31622395,0.4749554,1.0461917,0.63300335,0.6679812,0.78211105,1.2759556,1.2002995,0.8926775,1.4632827,1.0639156,1.025449,0.84303266,1.0157453,797.8022,806.6667,785.7143,774.0293,658.3883,-0.1387939453125,0.1197509765625,0.97430419921875,2.370147705078125,-4.11224365234375,-0.037384033203125,1.0,2.0,1.0,1.0,2.0,100.0,event
11:52:16.787,0.47491473,-0.18074031,0.53411806,-0.21628034,0.71367407,-0.35119164,0.31622395,0.4749554,1.0461917,0.63300335,0.6679812,0.78211105,1.2759556,1.2002995,0.8926775,1.4632827,1.0639156,1.025449,0.84303266,1.0157453,791.3553,801.4286,786.52014,778.86444,851.79486,-0.1387939453125,0.1197509765625,0.97430419921875,2.370147705078125,-4.11224365234375,-0.037384033203125,1.0,2.0,1.0,1.0,2.0,100.0,event
11:52:16.836,0.47491473,-0.18074031,0.53411806,-0.21628034,0.71367407,-0.35119164,0.31622395,0.4749554,1.0461917,0.63300335,0.6679812,0.78211105,1.2759556,1.2002995,0.8926775,1.4632827,1.0639156,1.025449,0.84303266,1.0157453,791.3553,794.57874,812.71063,788.93774,829.6337,-0.11846923828125,0.1187744140625,0.96820068359375,2.325286865234375,-5.345916748046875,-0.426177978515625,1.0,2.0,1.0,1.0,2.0,100.0,event
11:52:16.837,0.47491473,-0.18074031,0.53411806,-0.21628034,0.71367407,-0.35119164,0.31622395,0.4749554,1.0461917,0.63300335,0.6679812,0.78211105,1.2759556,1.2002995,0.8926775,1.4632827,1.0639156,1.025449,0.84303266,1.0157453,790.9524,796.99634,804.65204,788.93774,668.0586,-0.11846923828125,0.1187744140625,0.96820068359375,2.325286865234375,-5.345916748046875,-0.426177978515625,1.0,2.0,1.0,1.0,2.0,100.0,event
11:52:16.838,0.47491473,-0.18074031,0.53411806,-0.21628034,0.71367407,-0.35119164,0.31622395,0.4749554,1.0461917,0.63300335,0.6679812,0.78211105,1.2759556,1.2002995,0.8926775,1.4632827,1.0639156,1.025449,0.84303266,1.0157453,804.2491,833.2601,790.9524,799.41394,691.8315,-0.11846923828125,0.1187744140625,0.96820068359375,2.325286865234375,-5.345916748046875,-0.426177978515625,1.0,2.0,1.0,1.0,2.0,100.0,event
11:52:16.839,0.47491473,-0.18074031,0.53411806,-0.21628034,0.71367407,-0.35119164,0.31622395,0.4749554,1.0461917,0.63300335,0.6679812,0.78211105,1.2759556,1.2002995,0.8926775,1.4632827,1.0639156,1.025449,0.84303266,1.0157453,818.7546,817.9487,794.9817,805.8608,758.71796,-0.11846923828125,0.1187744140625,0.96820068359375,2.325286865234375,-5.345916748046875,-0.426177978515625,1.0,2.0,1.0,1.0,2.0,100.0,event
11:52:16.839,0.47491473,-0.18074031,0.53411806,-0.21628034,0.71367407,-0.35119164,0.31622395,0.4749554,1.0461917,0.63300335,0.6679812,0.78211105,1.2759556,1.2002995,0.8926775,1.4632827,1.0639156,1.025449,0.84303266,1.0157453,803.8461,803.0403,809.0842,794.17584,754.68866,-0.11846923828125,0.1187744140625,0.96820068359375,2.325286865234375,-5.345916748046875,-0.426177978515625,1.0,2.0,1.0,1.0,2.0,100.0,event
11:52:16.840,0.47491473,-0.18074031,0.53411806,-0.21628034,0.71367407,-0.35119164,0.31622395,0.4749554,1.0461917,0.63300335,0.6679812,0.78211105,1.2759556,1.2002995,0.8926775,1.4632827,1.0639156,1.025449,0.84303266,1.0157453,810.696,800.2198,806.26373,801.4286,782.8938,-0.11846923828125,0.1187744140625,0.96820068359375,2.325286865234375,-5.345916748046875,-0.426177978515625,1.0,2.0,1.0,1.0,2.0,100.0,event
11:52:16.840,0.47491473,-0.18074031,0.53411806,-0.21628034,0.71367407,-0.35119164,0.31622395,0.4749554,1.0461917,0.63300335,0.6679812,0.78211105,1.2759556,1.2002995,0.8926775,1.4632827,1.0639156,1.025449,0.84303266,1.0157453,801.4286,778.0586,796.1905,802.23444,747.03296,-0.11846923828125,0.1187744140625,0.96820068359375,2.325286865234375,-5.345916748046875,-0.426177978515625,1.0,2.0,1.0,1.0,2.0,100.0,event
11:52:16.841,0.47491473,-0.18074031,0.53411806,-0.21628034,0.71367407,-0.35119164,0.31622395,0.4749554,1.0461917,0.63300335,0.6679812,0.78211105,1.2759556,1.2002995,0.8926775,1.4632827,1.0639156,1.025449,0.84303266,1.0157453,768.7912,803.8461,789.34064,782.0879,925.12823,-0.11846923828125,0.1187744140625,0.96820068359375,2.325286865234375,-5.345916748046875,-0.426177978515625,1.0,2.0,1.0,1.0,2.0,100.0,event
11:52:16.841,0.47491473,-0.18074031,0.53411806,-0.21628034,0.71367407,-0.35119164,0.31622395,0.4749554,1.0461917,0.63300335,0.6679812,0.78211105,1.2759556,1.2002995,0.8926775,1.4632827,1.0639156,1.025449,0.84303266,1.0157453,778.86444,795.78754,795.38464,793.7729,1081.0623,-0.11846923828125,0.1187744140625,0.96820068359375,2.325286865234375,-5.345916748046875,-0.426177978515625,1.0,2.0,1.0,1.0,2.0,100.0,event
11:52:16.842,0.47491473,-0.18074031,0.53411806,-0.21628034,0.71367407,-0.35119164,0.31622395,0.4749554,1.0461917,0.63300335,0.6679812,0.78211105,1.2759556,1.2002995,0.8926775,1.4632827,1.0639156,1.025449,0.84303266,1.0157453,803.8461,788.5348,764.7619,806.6667,675.31134,-0.11846923828125,0.1187744140625,0.96820068359375,2.325286865234375,-5.345916748046875,-0.426177978515625,1.0,2.0,1.0,1.0,2.0,100.0,event
11:52:16.842,0.47491473,-0.18074031,0.53411806,-0.21628034,0.71367407,-0.35119164,0.31622395,0.4749554,1.0461917,0.63300335,0.6679812,0.78211105,1.2759556,1.2002995,0.8926775,1.4632827,1.0639156,1.025449,0.84303266,1.0157453,801.02563,777.25275,784.10254,813.1135,757.9121,-0.11846923828125,0.1187744140625,0.96820068359375,2.325286865234375,-5.345916748046875,-0.426177978515625,1.0,2.0,1.0,1.0,2.0,100.0,event
11:52:16.843,0.47491473,-0.18074031,0.53411806,-0.21628034,0.71367407,-0.35119164,0.31622395,0.4749554,1.0461917,0.63300335,0.6679812,0.78211105,1.2759556,1.2002995,0.8926775,1.4632827,1.0639156,1.025449,0.84303266,1.0157453,799.011,811.0989,793.7729,796.99634,775.2381,-0.11846923828125,0.1187744140625,0.96820068359375,2.325286865234375,-5.345916748046875,-0.426177978515625,1.0,2.0,1.0,1.0,2.0,100.0,event
11:52:16.901,0.47491473,-0.18074031,0.53411806,-0.21628034,0.71367407,-0.35119164,0.31622395,0.4749554,1.0461917,0.63300335,0.6679812,0.78211105,1.2759556,1.2002995,0.8926775,1.4632827,1.0639156,1.025449,0.84303266,1.0157453,798.60803,807.8755,825.6044,801.4286,729.707,-0.11175537109375,0.116455078125,0.96807861328125,2.175750732421875,-4.134674072265625,0.994415283203125,1.0,2.0,1.0,1.0,2.0,100.0,event
11:52:16.902,0.47491473,-0.18074031,0.53411806,-0.21628034,0.71367407,-0.35119164,0.31622395,0.4749554,1.0461917,0.63300335,0.6679812,0.78211105,1.2759556,1.2002995,0.8926775,1.4632827,1.0639156,1.025449,0.84303266,1.0157453,790.54944,807.8755,815.9341,795.78754,689.81683,-0.11175537109375,0.116455078125,0.96807861328125,2.175750732421875,-4.134674072265625,0.994415283203125,1.0,2.0,1.0,1.0,2.0,100.0,event
11:52:16.903,0.47491473,-0.18074031,0.53411806,-0.21628034,0.71367407,-0.35119164,0.31622395,0.4749554,1.0461917,0.63300335,0.6679812,0.78211105,1.2759556,1.2002995,0.8926775,1.4632827,1.0639156,1.025449,0.84303266,1.0157453,778.86444,818.7546,815.5311,786.52014,735.34796,-0.11175537109375,0.116455078125,0.96807861328125,2.175750732421875,-4.134674072265625,0.994415283203125,1.0,2.0,1.0,1.0,2.0,100.0,event
11:52:16.904,0.47491473,-0.12959492,0.57721096,-0.21628034,0.71367407,-0.36991844,0.35663775,0.4749554,1.0461917,0.6455704,0.6679812,0.78211105,1.2759556,1.2045863,0.8709975,1.4632827,1.0639156,0.9855376,0.81407213,1.0157453,787.326,796.1905,814.3223,793.36993,796.99634,-0.11175537109375,0.116455078125,0.96807861328125,2.175750732421875,-4.134674072265625,0.994415283203125,1.0,2.0,1.0,1.0,2.0,100.0,event
11:52:16.909,0.47491473,-0.12959492,0.57721096,-0.21628034,0.71367407,-0.36991844,0.35663775,0.4749554,1.0461917,0.6455704,0.6679812,0.78211105,1.2759556,1.2045863,0.8709975,1.4632827,1.0639156,0.9855376,0.81407213,1.0157453,793.36993,793.7729,799.011,790.14655,747.8388,-0.11175537109375,0.116455078125,0.96807861328125,2.175750732421875,-4.134674072265625,0.994415283203125,1.0,2.0,1.0,1.0,2.0,100.0,event
11:52:16.910,0.47491473,-0.12959492,0.57721096,-0.21628034,0.71367407,-0.36991844,0.35663775,0.4749554,1.0461917,0.6455704,0.6679812,0.78211105,1.2759556,1.2045863,0.8709975,1.4632827,1.0639156,0.9855376,0.81407213,1.0157453,802.23444,776.8498,781.28204,795.38464,777.6557,-0.11175537109375,0.116455078125,0.96807861328125,2.175750732421875,-4.134674072265625,0.994415283203125,1.0,2.0,1.0,1.0,2.0,100.0,event
11:52:16.911,0.47491473,-0.12959492,0.57721096,-0.21628034,0.71367407,-0.36991844,0.35663775,0.4749554,1.0461917,0.6455704,0.6679812,0.78211105,1.2759556,1.2045863,0.8709975,1.4632827,1.0639156,0.9855376,0.81407213,1.0157453,830.4396,777.25275,753.8828,837.28937,906.1905,-0.11175537109375,0.116455078125,0.96807861328125,2.175750732421875,-4.134674072265625,0.994415283203125,1.0,2.0,1.0,1.0,2.0,100.0,event
11:52:16.912,0.47491473,-0.12959492,0.57721096,-0.21628034,0.71367407,-0.36991844,0.35663775,0.4749554,1.0461917,0.6455704,0.6679812,0.78211105,1.2759556,1.2045863,0.8709975,1.4632827,1.0639156,0.9855376,0.81407213,1.0157453,810.293,809.89014,790.9524,822.7839,1045.6044,-0.11175537109375,0.116455078125,0.96807861328125,2.175750732421875,-4.134674072265625,0.994415283203125,1.0,2.0,1.0,1.0,2.0,100.0,event
11:52:16.913,0.47491473,-0.12959492,0.57721096,-0.21628034,0.71367407,-0.36991844,0.35663775,0.4749554,1.0461917,0.6455704,0.6679812,0.78211105,1.2759556,1.2045863,0.8709975,1.4632827,1.0639156,0.9855376,0.81407213,1.0157453,758.71796,834.87177,817.1429,763.95605,866.7033,-0.11175537109375,0.116455078125,0.96807861328125,2.175750732421875,-4.134674072265625,0.994415283203125,1.0,2.0,1.0,1.0,2.0,100.0,event
11:52:16.914,0.47491473,-0.12959492,0.57721096,-0.21628034,0.71367407,-0.36991844,0.35663775,0.4749554,1.0461917,0.6455704,0.6679812,0.78211105,1.2759556,1.2045863,0.8709975,1.4632827,1.0639156,0.9855376,0.81407213,1.0157453,763.5531,825.6044,820.3663,765.16486,847.76556,-0.11175537109375,0.116455078125,0.96807861328125,2.175750732421875,-4.134674072265625,0.994415283203125,1.0,2.0,1.0,1.0,2.0,100.0,event
11:52:16.914,0.47491473,-0.12959492,0.57721096,-0.21628034,0.71367407,-0.36991844,0.35663775,0.4749554,1.0461917,0.6455704,0.6679812,0.78211105,1.2759556,1.2045863,0.8709975,1.4632827,1.0639156,0.9855376,0.81407213,1.0157453,761.53845,847.3626,818.3516,767.5824,741.39197,-0.11175537109375,0.116455078125,0.96807861328125,2.175750732421875,-4.134674072265625,0.994415283203125,1.0,2.0,1.0,1.0,2.0,100.0,event
11:52:16.915,0.47491473,-0.12959492,0.57721096,-0.21628034,0.71367407,-0.36991844,0.35663775,0.4749554,1.0461917,0.6455704,0.6679812,0.78211105,1.2759556,1.2045863,0.8709975,1.4632827,1.0639156,0.9855376,0.81407213,1.0157453,769.19415,808.68134,813.5165,763.1502,793.7729,-0.11175537109375,0.116455078125,0.96807861328125,2.175750732421875,-4.134674072265625,0.994415283203125,1.0,2.0,1.0,1.0,2.0,100.0,event
11:52:16.947,0.47491473,-0.12959492,0.57721096,-0.21628034,0.71367407,-0.36991844,0.35663775,0.4749554,1.0461917,0.6455704,0.6679812,0.78211105,1.2759556,1.2045863,0.8709975,1.4632827,1.0639156,0.9855376,0.81407213,1.0157453,791.3553,794.9817,801.8315,780.4762,724.4689,-0.11639404296875,0.1251220703125,0.97125244140625,2.67669677734375,-1.12152099609375,0.28411865234375,1.0,2.0,1.0,1.0,2.0,100.0,event
11:52:16.949,0.47491473,-0.12959492,0.57721096,-0.21628034,0.71367407,-0.36991844,0.35663775,0.4749554,1.0461917,0.6455704,0.6679812,0.78211105,1.2759556,1.2045863,0.8709975,1.4632827,1.0639156,0.9855376,0.81407213,1.0157453,808.2784,784.5055,799.81683,795.38464,703.91943,-0.11639404296875,0.1251220703125,0.97125244140625,2.67669677734375,-1.12152099609375,0.28411865234375,1.0,2.0,1.0,1.0,2.0,100.0,event
11:52:16.950,0.47491473,-0.12959492,0.57721096,-0.21628034,0.71367407,-0.36991844,0.35663775,0.4749554,1.0461917,0.6455704,0.6679812,0.78211105,1.2759556,1.2045863,0.8709975,1.4632827,1.0639156,0.9855376,0.81407213,1.0157453,811.0989,807.47253,803.44324,799.41394,754.2857,-0.11639404296875,0.1251220703125,0.97125244140625,2.67669677734375,-1.12152099609375,0.28411865234375,1.0,2.0,1.0,1.0,2.0,100.0,event
11:52:16.951,0.47491473,-0.12959492,0.57721096,-0.21628034,0.71367407,-0.36991844,0.35663775,0.4749554,1.0461917,0.6455704,0.6679812,0.78211105,1.2759556,1.2045863,0.8709975,1.4632827,1.0639156,0.9855376,0.81407213,1.0157453,801.8315,800.6227,786.1172,807.47253,766.3736,-0.11639404296875,0.1251220703125,0.97125244140625,2.67669677734375,-1.12152099609375,0.28411865234375,1.0,2.0,1.0,1.0,2.0,100.0,event
11:52:16.951,0.47491473,-0.12959492,0.57721096,-0.21628034,0.71367407,-0.36991844,0.35663775,0.4749554,1.0461917,0.6455704,0.6679812,0.78211105,1.2759556,1.2045863,0.8709975,1.4632827,1.0639156,0.9855376,0.81407213,1.0157453,798.60803,780.07324,782.49084,806.6667,665.2381,-0.11639404296875,0.1251220703125,0.97125244140625,2.67669677734375,-1.12152099609375,0.28411865234375,1.0,2.0,1.0,1.0,2.0,100.0,event
11:52:16.952,0.47491473,-0.12959492,0.57721096,-0.21628034,0.71367407,-0.36991844,0.35663775,0.4749554,1.0461917,0.6455704,0.6679812,0.78211105,1.2759556,1.2045863,0.8709975,1.4632827,1.0639156,0.9855376,0.81407213,1.0157453,787.72894,795.78754,808.68134,782.8938,797.8022,-0.11639404296875,0.1251220703125,0.97125244140625,2.67669677734375,-1.12152099609375,0.28411865234375,1.0,2.0,1.0,1.0,2.0,100.0,event
11:52:16.953,0.47491473,-0.12959492,0.57721096,-0.21628034,0.71367407,-0.36991844,0.35663775,0.4749554,1.0461917,0.6455704,0.6679812,0.78211105,1.2759556,1.2045863,0.8709975,1.4632827,1.0639156,0.9855376,0.81407213,1.0157453,770.0,807.8755,811.0989,772.4176,1052.4542,-0.11639404296875,0.1251220703125,0.97125244140625,2.67669677734375,-1.12152099609375,0.28411865234375,1.0,2.0,1.0,1.0,2.0,100.0,event
11:52:16.954,0.47491473,-0.12959492,0.57721096,-0.21628034,0.71367407,-0.36991844,0.35663775,0.4749554,1.0461917,0.6455704,0.6679812,0.78211105,1.2759556,1.2045863,0.8709975,1.4632827,1.0639156,0.9855376,0.81407213,1.0157453,778.86444,796.1905,792.5641,790.9524,985.9707,-0.11639404296875,0.1251220703125,0.97125244140625,2.67669677734375,-1.12152099609375,0.28411865234375,1.0,2.0,1.0,1.0,2.0,100.0,event
11:52:16.954,0.47491473,-0.12959492,0.57721096,-0.21628034,0.71367407,-0.36991844,0.35663775,0.4749554,1.0461917,0.6455704,0.6679812,0.78211105,1.2759556,1.2045863,0.8709975,1.4632827,1.0639156,0.9855376,0.81407213,1.0157453,800.6227,799.011,801.8315,807.47253,692.6374,-0.11639404296875,0.1251220703125,0.97125244140625,2.67669677734375,-1.12152099609375,0.28411865234375,1.0,2.0,1.0,1.0,2.0,100.0,event
11:52:16.955,0.47491473,-0.12959492,0.57721096,-0.21628034,0.71367407,-0.36991844,0.35663775,0.4749554,1.0461917,0.6455704,0.6679812,0.78211105,1.2759556,1.2045863,0.8709975,1.4632827,1.0639156,0.9855376,0.81407213,1.0157453,794.9817,802.6374,810.293,805.4579,681.75824,-0.11639404296875,0.1251220703125,0.97125244140625,2.67669677734375,-1.12152099609375,0.28411865234375,1.0,2.0,1.0,1.0,2.0,100.0,event
11:52:16.956,0.47491473,-0.12959492,0.57721096,-0.21628034,0.71367407,-0.36991844,0.35663775,0.4749554,1.0461917,0.6455704,0.6679812,0.78211105,1.2759556,1.2045863,0.8709975,1.4632827,1.0639156,0.9855376,0.81407213,1.0157453,791.3553,797.8022,805.8608,782.8938,772.8205,-0.11639404296875,0.1251220703125,0.97125244140625,2.67669677734375,-1.12152099609375,0.28411865234375,1.0,2.0,1.0,1.0,2.0,100.0,event
11:52:16.956,0.47491473,-0.12959492,0.57721096,-0.21628034,0.71367407,-0.36991844,0.35663775,0.4749554,1.0461917,0.6455704,0.6679812,0.78211105,1.2759556,1.2045863,0.8709975,1.4632827,1.0639156,0.9855376,0.81407213,1.0157453,783.2967,802.6374,812.71063,788.5348,753.0769,-0.11639404296875,0.1251220703125,0.97125244140625,2.67669677734375,-1.12152099609375,0.28411865234375,1.0,2.0,1.0,1.0,2.0,100.0,event
11:52:16.985,0.47491473,-0.12959492,0.57721096,-0.21628034,0.71367407,-0.36991844,0.35663775,0.4749554,1.0461917,0.6455704,0.6679812,0.78211105,1.2759556,1.2045863,0.8709975,1.4632827,1.0639156,0.9855376,0.81407213,1.0157453,784.90845,815.5311,790.14655,778.86444,806.26373,-0.12921142578125,0.120849609375,0.97900390625,1.128997802734375,-1.06170654296875,-0.605621337890625,1.0,2.0,1.0,1.0,2.0,100.0,event
11:52:16.986,0.47491473,-0.12959492,0.57721096,-0.21628034,0.71367407,-0.36991844,0.35663775,0.4749554,1.0461917,0.6455704,0.6679812,0.78211105,1.2759556,1.2045863,0.8709975,1.4632827,1.0639156,0.9855376,0.81407213,1.0157453,772.8205,796.99634,790.9524,783.2967,852.1978,-0.12921142578125,0.120849609375,0.97900390625,1.128997802734375,-1.06170654296875,-0.605621337890625,1.0,2.0,1.0,1.0,2.0,100.0,event
11:52:16.987,0.47491473,-0.12959492,0.57721096,-0.21628034,0.71367407,-0.36991844,0.35663775,0.4749554,1.0461917,0.6455704,0.6679812,0.78211105,1.2759556,1.2045863,0.8709975,1.4632827,1.0639156,0.9855376,0.81407213,1.0157453,785.31134,767.5824,784.5055,796.5934,891.685,-0.12921142578125,0.120849609375,0.97900390625,1.128997802734375,-1.06170654296875,-0.605621337890625,1.0,2.0,1.0,1.0,2.0,100.0,event
11:52:16.987,0.47491473,-0.12959492,0.57721096,-0.21628034,0.71367407,-0.36991844,0.35663775,0.4749554,1.0461917,0.6455704,0.6679812,0.78211105,1.2759556,1.2045863,0.8709975,1.4632827,1.0639156,0.9855376,0.81407213,1.0157453,813.91943,805.4579,773.6264,809.89014,760.7326,-0.12921142578125,0.120849609375,0.97900390625,1.128997802734375,-1.06170654296875,-0.605621337890625,1.0,2.0,1.0,1.0,2.0,100.0,event
11:52:16.988,0.47491473,-0.12959492,0.57721096,-0.21628034,0.71367407,-0.36991844,0.35663775,0.4749554,1.0461917,0.6455704,0.6679812,0.78211105,1.2759556,1.2045863,0.8709975,1.4632827,1.0639156,0.9855376,0.81407213,1.0157453,823.5897,822.7839,802.6374,820.7692,694.2491,-0.12921142578125,0.120849609375,0.97900390625,1.128997802734375,-1.06170654296875,-0.605621337890625,1.0,2.0,1.0,1.0,2.0,100.0,event
