TimeStamp,Delta_TP9,Delta_AF7,Delta_AF8,Delta_TP10,Theta_TP9,Theta_AF7,Theta_AF8,Theta_TP10,Alpha_TP9,Alpha_AF7,Alpha_AF8,Alpha_TP10,Beta_TP9,Beta_AF7,Beta_AF8,Beta_TP10,Gamma_TP9,Gamma_AF7,Gamma_AF8,Gamma_TP10,RAW_TP9,RAW_AF7,RAW_AF8,RAW_TP10,AUX_RIGHT,Accelerometer_X,Accelerometer_Y,Accelerometer_Z,Gyro_X,Gyro_Y,Gyro_Z,HeadBandOn,HSI_TP9,HSI_AF7,HSI_AF8,HSI_TP10,Battery,Elements
15:18:44.820,0.441809,0.4531525,0.041096177,0.793667,0.279709,0.032707445,-0.03809104,0.24612199,0.36151394,-0.022725739,0.263918,0.44347328,0.57350826,0.14122409,0.0072573293,0.8611371,0.6636411,-0.14120287,0.031022556,0.7432396,801.8315,801.8315,799.011,788.1319,834.87177,-0.3033447265625,0.03167724609375,0.9444580078125,2.056121826171875,-3.476715087890625,1.27105712890625,1.0,1.0,1.0,1.0,1.0,90.0,event
15:18:44.821,0.441809,0.4531525,0.041096177,0.793667,0.279709,0.032707445,-0.03809104,0.24612199,0.36151394,-0.022725739,0.263918,0.44347328,0.57350826,0.14122409,0.0072573293,0.8611371,0.6636411,-0.14120287,0.031022556,0.7432396,794.57874,801.02563,794.9817,784.10254,816.337,-0.3033447265625,0.03167724609375,0.9444580078125,2.056121826171875,-3.476715087890625,1.27105712890625,1.0,1.0,1.0,1.0,1.0,90.0,event
15:18:44.822,0.441809,0.4531525,0.041096177,0.793667,0.279709,0.032707445,-0.03809104,0.24612199,0.36151394,-0.022725739,0.263918,0.44347328,0.57350826,0.14122409,0.0072573293,0.8611371,0.6636411,-0.14120287,0.031022556,0.7432396,795.78754,806.26373,800.2198,781.28204,839.707,-0.3033447265625,0.03167724609375,0.9444580078125,2.056121826171875,-3.476715087890625,1.27105712890625,1.0,1.0,1.0,1.0,1.0,90.0,event
15:18:44.822,0.441809,0.4531525,0.041096177,0.793667,0.279709,0.032707445,-0.03809104,0.24612199,0.36151394,-0.022725739,0.263918,0.44347328,0.57350826,0.14122409,0.0072573293,0.8611371,0.6636411,-0.14120287,0.031022556,0.7432396,788.1319,803.0403,799.81683,789.34064,802.6374,-0.3033447265625,0.03167724609375,0.9444580078125,2.056121826171875,-3.476715087890625,1.27105712890625,1.0,1.0,1.0,1.0,1.0,90.0,event
15:18:44.823,0.441809,0.4531525,0.041096177,0.793667,0.279709,0.032707445,-0.03809104,0.24612199,0.36151394,-0.022725739,0.263918,0.44347328,0.57350826,0.14122409,0.0072573293,0.8611371,0.6636411,-0.14120287,0.031022556,0.7432396,799.81683,808.2784,799.41394,792.1612,724.0659,-0.3033447265625,0.03167724609375,0.9444580078125,2.056121826171875,-3.476715087890625,1.27105712890625,1.0,1.0,1.0,1.0,1.0,90.0,event
15:18:44.824,0.441809,0.4531525,0.041096177,0.793667,0.279709,0.032707445,-0.03809104,0.24612199,0.36151394,-0.022725739,0.263918,0.44347328,0.57350826,0.14122409,0.0072573293,0.8611371,0.6636411,-0.14120287,0.031022556,0.7432396,802.23444,808.2784,799.011,786.9231,654.35895,-0.3033447265625,0.03167724609375,0.9444580078125,2.056121826171875,-3.476715087890625,1.27105712890625,1.0,1.0,1.0,1.0,1.0,90.0,event
15:18:44.824,0.441809,0.4531525,0.041096177,0.793667,0.279709,0.032707445,-0.03809104,0.24612199,0.36151394,-0.022725739,0.263918,0.44347328,0.57350826,0.14122409,0.0072573293,0.8611371,0.6636411,-0.14120287,0.031022556,0.7432396,799.011,808.2784,797.8022,782.49084,888.86444,-0.3033447265625,0.03167724609375,0.9444580078125,2.056121826171875,-3.476715087890625,1.27105712890625,1.0,1.0,1.0,1.0,1.0,90.0,event
15:18:44.825,0.441809,0.4531525,0.041096177,0.793667,0.279709,0.032707445,-0.03809104,0.24612199,0.36151394,-0.022725739,0.263918,0.44347328,0.57350826,0.14122409,0.0072573293,0.8611371,0.6636411,-0.14120287,0.031022556,0.7432396,809.89014,804.2491,803.0403,803.44324,1095.5677,-0.3033447265625,0.03167724609375,0.9444580078125,2.056121826171875,-3.476715087890625,1.27105712890625,1.0,1.0,1.0,1.0,1.0,90.0,event
15:18:44.825,0.441809,0.4531525,0.041096177,0.793667,0.279709,0.032707445,-0.03809104,0.24612199,0.36151394,-0.022725739,0.263918,0.44347328,0.57350826,0.14122409,0.0072573293,0.8611371,0.6636411,-0.14120287,0.031022556,0.7432396,796.1905,801.8315,800.6227,803.44324,831.2454,-0.3033447265625,0.03167724609375,0.9444580078125,2.056121826171875,-3.476715087890625,1.27105712890625,1.0,1.0,1.0,1.0,1.0,90.0,event
15:18:44.826,0.441809,0.48456964,0.09135444,0.793667,0.279709,0.04993619,-0.030776037,0.24612199,0.36151394,-0.007967118,0.2616635,0.44347328,0.57350826,0.15392597,-0.00065849576,0.8611371,0.6636411,-0.15932727,0.01986769,0.7432396,791.75824,799.011,793.7729,789.34064,715.6044,-0.3033447265625,0.03167724609375,0.9444580078125,2.056121826171875,-3.476715087890625,1.27105712890625,1.0,1.0,1.0,1.0,1.0,90.0,event
15:18:44.829,0.441809,0.48456964,0.09135444,0.793667,0.279709,0.04993619,-0.030776037,0.24612199,0.36151394,-0.007967118,0.2616635,0.44347328,0.57350826,0.15392597,-0.00065849576,0.8611371,0.6636411,-0.15932727,0.01986769,0.7432396,805.4579,796.1905,798.60803,796.5934,823.5897,-0.3033447265625,0.03167724609375,0.9444580078125,2.056121826171875,-3.476715087890625,1.27105712890625,1.0,1.0,1.0,1.0,1.0,90.0,event
15:18:44.830,0.441809,0.48456964,0.09135444,0.793667,0.279709,0.04993619,-0.030776037,0.24612199,0.36151394,-0.007967118,0.2616635,0.44347328,0.57350826,0.15392597,-0.00065849576,0.8611371,0.6636411,-0.15932727,0.01986769,0.7432396,798.20514,801.02563,801.02563,785.7143,850.989,-0.3033447265625,0.03167724609375,0.9444580078125,2.056121826171875,-3.476715087890625,1.27105712890625,1.0,1.0,1.0,1.0,1.0,90.0,event
15:18:44.856,0.441809,0.48456964,0.09135444,0.793667,0.279709,0.04993619,-0.030776037,0.24612199,0.36151394,-0.007967118,0.2616635,0.44347328,0.57350826,0.15392597,-0.00065849576,0.8611371,0.6636411,-0.15932727,0.01986769,0.7432396,794.57874,801.02563,800.2198,786.1172,761.13556,-0.3033447265625,0.03167724609375,0.9444580078125,2.056121826171875,-3.476715087890625,1.27105712890625,1.0,1.0,1.0,1.0,1.0,90.0,event
15:18:44.857,0.441809,0.48456964,0.09135444,0.793667,0.279709,0.04993619,-0.030776037,0.24612199,0.36151394,-0.007967118,0.2616635,0.44347328,0.57350826,0.15392597,-0.00065849576,0.8611371,0.6636411,-0.15932727,0.01986769,0.7432396,780.87915,795.78754,801.02563,788.5348,756.30035,-0.3033447265625,0.03167724609375,0.9444580078125,2.056121826171875,-3.476715087890625,1.27105712890625,1.0,1.0,1.0,1.0,1.0,90.0,event
15:18:44.858,0.441809,0.48456964,0.09135444,0.793667,0.279709,0.04993619,-0.030776037,0.24612199,0.36151394,-0.007967118,0.2616635,0.44347328,0.57350826,0.15392597,-0.00065849576,0.8611371,0.6636411,-0.15932727,0.01986769,0.7432396,779.2674,801.8315,797.3993,778.86444,865.4945,-0.3033447265625,0.03167724609375,0.9444580078125,2.056121826171875,-3.476715087890625,1.27105712890625,1.0,1.0,1.0,1.0,1.0,90.0,event
15:18:44.859,0.441809,0.48456964,0.09135444,0.793667,0.279709,0.04993619,-0.030776037,0.24612199,0.36151394,-0.007967118,0.2616635,0.44347328,0.57350826,0.15392597,-0.00065849576,0.8611371,0.6636411,-0.15932727,0.01986769,0.7432396,785.31134,806.26373,795.38464,793.36993,787.72894,-0.3033447265625,0.03167724609375,0.9444580078125,2.056121826171875,-3.476715087890625,1.27105712890625,1.0,1.0,1.0,1.0,1.0,90.0,event
15:18:44.860,0.441809,0.48456964,0.09135444,0.793667,0.279709,0.04993619,-0.030776037,0.24612199,0.36151394,-0.007967118,0.2616635,0.44347328,0.57350826,0.15392597,-0.00065849576,0.8611371,0.6636411,-0.15932727,0.01986769,0.7432396,786.1172,798.60803,804.2491,803.0403,679.7436,-0.3033447265625,0.03167724609375,0.9444580078125,2.056121826171875,-3.476715087890625,1.27105712890625,1.0,1.0,1.0,1.0,1.0,90.0,event
15:18:44.861,0.441809,0.48456964,0.09135444,0.793667,0.279709,0.04993619,-0.030776037,0.24612199,0.36151394,-0.007967118,0.2616635,0.44347328,0.57350826,0.15392597,-0.00065849576,0.8611371,0.6636411,-0.15932727,0.01986769,0.7432396,793.7729,796.1905,802.23444,807.0696,732.9304,-0.3033447265625,0.03167724609375,0.9444580078125,2.056121826171875,-3.476715087890625,1.27105712890625,1.0,1.0,1.0,1.0,1.0,90.0,event
15:18:44.862,0.441809,0.48456964,0.09135444,0.793667,0.279709,0.04993619,-0.030776037,0.24612199,0.36151394,-0.007967118,0.2616635,0.44347328,0.57350826,0.15392597,-0.00065849576,0.8611371,0.6636411,-0.15932727,0.01986769,0.7432396,785.7143,796.1905,800.2198,799.011,1008.1319,-0.3033447265625,0.03167724609375,0.9444580078125,2.056121826171875,-3.476715087890625,1.27105712890625,1.0,1.0,1.0,1.0,1.0,90.0,event
15:18:44.863,0.441809,0.48456964,0.09135444,0.793667,0.279709,0.04993619,-0.030776037,0.24612199,0.36151394,-0.007967118,0.2616635,0.44347328,0.57350826,0.15392597,-0.00065849576,0.8611371,0.6636411,-0.15932727,0.01986769,0.7432396,795.38464,802.23444,802.23444,794.17584,1061.3187,-0.3033447265625,0.03167724609375,0.9444580078125,2.056121826171875,-3.476715087890625,1.27105712890625,1.0,1.0,1.0,1.0,1.0,90.0,event
15:18:44.864,0.441809,0.48456964,0.09135444,0.793667,0.279709,0.04993619,-0.030776037,0.24612199,0.36151394,-0.007967118,0.2616635,0.44347328,0.57350826,0.15392597,-0.00065849576,0.8611371,0.6636411,-0.15932727,0.01986769,0.7432396,792.1612,806.26373,802.23444,794.57874,785.7143,-0.3033447265625,0.03167724609375,0.9444580078125,2.056121826171875,-3.476715087890625,1.27105712890625,1.0,1.0,1.0,1.0,1.0,90.0,event
15:18:44.865,0.441809,0.48456964,0.09135444,0.793667,0.279709,0.04993619,-0.030776037,0.24612199,0.36151394,-0.007967118,0.2616635,0.44347328,0.57350826,0.15392597,-0.00065849576,0.8611371,0.6636411,-0.15932727,0.01986769,0.7432396,780.07324,795.78754,803.44324,791.75824,713.9927,-0.3033447265625,0.03167724609375,0.9444580078125,2.056121826171875,-3.476715087890625,1.27105712890625,1.0,1.0,1.0,1.0,1.0,90.0,event
15:18:44.866,0.441809,0.48456964,0.09135444,0.793667,0.279709,0.04993619,-0.030776037,0.24612199,0.36151394,-0.007967118,0.2616635,0.44347328,0.57350826,0.15392597,-0.00065849576,0.8611371,0.6636411,-0.15932727,0.01986769,0.7432396,789.7436,793.36993,799.41394,796.5934,755.89746,-0.3033447265625,0.03167724609375,0.9444580078125,2.056121826171875,-3.476715087890625,1.27105712890625,1.0,1.0,1.0,1.0,1.0,90.0,event
15:18:44.866,0.441809,0.48456964,0.09135444,0.793667,0.279709,0.04993619,-0.030776037,0.24612199,0.36151394,-0.007967118,0.2616635,0.44347328,0.57350826,0.15392597,-0.00065849576,0.8611371,0.6636411,-0.15932727,0.01986769,0.7432396,799.41394,801.4286,796.99634,796.1905,756.30035,-0.3033447265625,0.03167724609375,0.9444580078125,2.056121826171875,-3.476715087890625,1.27105712890625,1.0,1.0,1.0,1.0,1.0,90.0,event
15:18:44.889,0.441809,0.48456964,0.09135444,0.793667,0.279709,0.04993619,-0.030776037,0.24612199,0.36151394,-0.007967118,0.2616635,0.44347328,0.57350826,0.15392597,-0.00065849576,0.8611371,0.6636411,-0.15932727,0.01986769,0.7432396,788.5348,799.011,803.0403,807.0696,757.1062,-0.3157958984375,0.02484130859375,0.94091796875,1.203765869140625,-3.701019287109375,0.590667724609375,1.0,1.0,1.0,1.0,1.0,90.0,event
15:18:44.890,0.441809,0.48456964,0.09135444,0.793667,0.279709,0.04993619,-0.030776037,0.24612199,0.36151394,-0.007967118,0.2616635,0.44347328,0.57350826,0.15392597,-0.00065849576,0.8611371,0.6636411,-0.15932727,0.01986769,0.7432396,775.2381,799.011,802.6374,778.46155,782.49084,-0.3157958984375,0.02484130859375,0.94091796875,1.203765869140625,-3.701019287109375,0.590667724609375,1.0,1.0,1.0,1.0,1.0,90.0,event
15:18:44.890,0.441809,0.48456964,0.09135444,0.793667,0.279709,0.04993619,-0.030776037,0.24612199,0.36151394,-0.007967118,0.2616635,0.44347328,0.57350826,0.15392597,-0.00065849576,0.8611371,0.6636411,-0.15932727,0.01986769,0.7432396,774.43225,806.6667,796.5934,751.06226,818.3516,-0.3157958984375,0.02484130859375,0.94091796875,1.203765869140625,-3.701019287109375,0.590667724609375,1.0,1.0,1.0,1.0,1.0,90.0,event
15:18:44.891,0.441809,0.48456964,0.09135444,0.793667,0.279709,0.04993619,-0.030776037,0.24612199,0.36151394,-0.007967118,0.2616635,0.44347328,0.57350826,0.15392597,-0.00065849576,0.8611371,0.6636411,-0.15932727,0.01986769,0.7432396,796.5934,796.5934,803.44324,793.7729,730.5128,-0.3157958984375,0.02484130859375,0.94091796875,1.203765869140625,-3.701019287109375,0.590667724609375,1.0,1.0,1.0,1.0,1.0,90.0,event
15:18:44.891,0.441809,0.48456964,0.09135444,0.793667,0.279709,0.04993619,-0.030776037,0.24612199,0.36151394,-0.007967118,0.2616635,0.44347328,0.57350826,0.15392597,-0.00065849576,0.8611371,0.6636411,-0.15932727,0.01986769,0.7432396,780.87915,803.0403,796.99634,780.07324,783.2967,-0.3157958984375,0.02484130859375,0.94091796875,1.203765869140625,-3.701019287109375,0.590667724609375,1.0,1.0,1.0,1.0,1.0,90.0,event
15:18:44.892,0.441809,0.48456964,0.09135444,0.793667,0.279709,0.04993619,-0.030776037,0.24612199,0.36151394,-0.007967118,0.2616635,0.44347328,0.57350826,0.15392597,-0.00065849576,0.8611371,0.6636411,-0.15932727,0.01986769,0.7432396,794.9817,796.5934,805.8608,790.14655,856.2271,-0.3157958984375,0.02484130859375,0.94091796875,1.203765869140625,-3.701019287109375,0.590667724609375,1.0,1.0,1.0,1.0,1.0,90.0,event
15:18:44.893,0.441809,0.48456964,0.09135444,0.793667,0.279709,0.04993619,-0.030776037,0.24612199,0.36151394,-0.007967118,0.2616635,0.44347328,0.57350826,0.15392597,-0.00065849576,0.8611371,0.6636411,-0.15932727,0.01986769,0.7432396,781.685,795.38464,804.2491,794.17584,1000.07324,-0.3157958984375,0.02484130859375,0.94091796875,1.203765869140625,-3.701019287109375,0.590667724609375,1.0,1.0,1.0,1.0,1.0,90.0,event
15:18:44.893,0.441809,0.48456964,0.09135444,0.793667,0.279709,0.04993619,-0.030776037,0.24612199,0.36151394,-0.007967118,0.2616635,0.44347328,0.57350826,0.15392597,-0.00065849576,0.8611371,0.6636411,-0.15932727,0.01986769,0.7432396,792.1612,797.3993,803.8461,791.3553,932.381,-0.3157958984375,0.02484130859375,0.94091796875,1.203765869140625,-3.701019287109375,0.590667724609375,1.0,1.0,1.0,1.0,1.0,90.0,event
15:18:44.894,0.441809,0.48456964,0.09135444,0.793667,0.279709,0.04993619,-0.030776037,0.24612199,0.36151394,-0.007967118,0.2616635,0.44347328,0.57350826,0.15392597,-0.00065849576,0.8611371,0.6636411,-0.15932727,0.01986769,0.7432396,797.3993,799.011,804.65204,789.34064,802.23444,-0.3157958984375,0.02484130859375,0.94091796875,1.203765869140625,-3.701019287109375,0.590667724609375,1.0,1.0,1.0,1.0,1.0,90.0,event
15:18:44.894,0.441809,0.48456964,0.09135444,0.793667,0.279709,0.04993619,-0.030776037,0.24612199,0.36151394,-0.007967118,0.2616635,0.44347328,0.57350826,0.15392597,-0.00065849576,0.8611371,0.6636411,-0.15932727,0.01986769,0.7432396,796.5934,798.60803,801.02563,792.5641,869.12085,-0.3157958984375,0.02484130859375,0.94091796875,1.203765869140625,-3.701019287109375,0.590667724609375,1.0,1.0,1.0,1.0,1.0,90.0,event
15:18:44.895,0.441809,0.48456964,0.09135444,0.793667,0.279709,0.04993619,-0.030776037,0.24612199,0.36151394,-0.007967118,0.2616635,0.44347328,0.57350826,0.15392597,-0.00065849576,0.8611371,0.6636411,-0.15932727,0.01986769,0.7432396,800.6227,799.81683,801.8315,788.93774,976.7033,-0.3157958984375,0.02484130859375,0.94091796875,1.203765869140625,-3.701019287109375,0.590667724609375,1.0,1.0,1.0,1.0,1.0,90.0,event
15:18:44.896,0.441809,0.5153641,0.112524636,0.793667,0.279709,0.059361752,-0.019593097,0.24612199,0.36151394,0.0029780564,0.25877205,0.44347328,0.57350826,0.16059908,-0.008953162,0.8611371,0.6636411,-0.17077793,0.0035743467,0.7432396,786.1172,798.20514,806.6667,799.011,821.1722,-0.3157958984375,0.02484130859375,0.94091796875,1.203765869140625,-3.701019287109375,0.590667724609375,1.0,1.0,1.0,1.0,1.0,90.0,event
15:18:44.922,0.441809,0.5153641,0.112524636,0.793667,0.279709,0.059361752,-0.019593097,0.24612199,0.36151394,0.0029780564,0.25877205,0.44347328,0.57350826,0.16059908,-0.008953162,0.8611371,0.6636411,-0.17077793,0.0035743467,0.7432396,778.46155,800.6227,801.8315,792.5641,752.27106,-0.31536865234375,0.027099609375,0.94525146484375,1.62994384765625,-3.790740966796875,0.291595458984375,1.0,1.0,1.0,1.0,1.0,90.0,event
15:18:44.923,0.441809,0.5153641,0.112524636,0.793667,0.279709,0.059361752,-0.019593097,0.24612199,0.36151394,0.0029780564,0.25877205,0.44347328,0.57350826,0.16059908,-0.008953162,0.8611371,0.6636411,-0.17077793,0.0035743467,0.7432396,784.90845,799.011,796.99634,774.0293,794.17584,-0.31536865234375,0.027099609375,0.94525146484375,1.62994384765625,-3.790740966796875,0.291595458984375,1.0,1.0,1.0,1.0,1.0,90.0,event
15:18:44.923,0.441809,0.5153641,0.112524636,0.793667,0.279709,0.059361752,-0.019593097,0.24612199,0.36151394,0.0029780564,0.25877205,0.44347328,0.57350826,0.16059908,-0.008953162,0.8611371,0.6636411,-0.17077793,0.0035743467,0.7432396,766.77655,793.7729,800.6227,777.25275,766.77655,-0.31536865234375,0.027099609375,0.94525146484375,1.62994384765625,-3.790740966796875,0.291595458984375,1.0,1.0,1.0,1.0,1.0,90.0,event
15:18:44.924,0.441809,0.5153641,0.112524636,0.793667,0.279709,0.059361752,-0.019593097,0.24612199,0.36151394,0.0029780564,0.25877205,0.44347328,0.57350826,0.16059908,-0.008953162,0.8611371,0.6636411,-0.17077793,0.0035743467,0.7432396,778.86444,792.5641,797.3993,788.93774,780.4762,-0.31536865234375,0.027099609375,0.94525146484375,1.62994384765625,-3.790740966796875,0.291595458984375,1.0,1.0,1.0,1.0,1.0,90.0,event
15:18:44.924,0.441809,0.5153641,0.112524636,0.793667,0.279709,0.059361752,-0.019593097,0.24612199,0.36151394,0.0029780564,0.25877205,0.44347328,0.57350826,0.16059908,-0.008953162,0.8611371,0.6636411,-0.17077793,0.0035743467,0.7432396,762.74725,789.7436,796.1905,789.7436,720.4396,-0.31536865234375,0.027099609375,0.94525146484375,1.62994384765625,-3.790740966796875,0.291595458984375,1.0,1.0,1.0,1.0,1.0,90.0,event
15:18:44.925,0.441809,0.5153641,0.112524636,0.793667,0.279709,0.059361752,-0.019593097,0.24612199,0.36151394,0.0029780564,0.25877205,0.44347328,0.57350826,0.16059908,-0.008953162,0.8611371,0.6636411,-0.17077793,0.0035743467,0.7432396,780.87915,792.5641,803.8461,794.17584,900.54944,-0.31536865234375,0.027099609375,0.94525146484375,1.62994384765625,-3.790740966796875,0.291595458984375,1.0,1.0,1.0,1.0,1.0,90.0,event
15:18:44.926,0.441809,0.5153641,0.112524636,0.793667,0.279709,0.059361752,-0.019593097,0.24612199,0.36151394,0.0029780564,0.25877205,0.44347328,0.57350826,0.16059908,-0.008953162,0.8611371,0.6636411,-0.17077793,0.0035743467,0.7432396,778.46155,789.34064,802.23444,798.60803,873.95605,-0.31536865234375,0.027099609375,0.94525146484375,1.62994384765625,-3.790740966796875,0.291595458984375,1.0,1.0,1.0,1.0,1.0,90.0,event
15:18:44.926,0.441809,0.5153641,0.112524636,0.793667,0.279709,0.059361752,-0.019593097,0.24612199,0.36151394,0.0029780564,0.25877205,0.44347328,0.57350826,0.16059908,-0.008953162,0.8611371,0.6636411,-0.17077793,0.0035743467,0.7432396,797.3993,797.8022,804.2491,791.75824,738.5714,-0.31536865234375,0.027099609375,0.94525146484375,1.62994384765625,-3.790740966796875,0.291595458984375,1.0,1.0,1.0,1.0,1.0,90.0,event
15:18:44.927,0.441809,0.5153641,0.112524636,0.793667,0.279709,0.059361752,-0.019593097,0.24612199,0.36151394,0.0029780564,0.25877205,0.44347328,0.57350826,0.16059908,-0.008953162,0.8611371,0.6636411,-0.17077793,0.0035743467,0.7432396,789.7436,801.02563,804.2491,790.9524,773.6264,-0.31536865234375,0.027099609375,0.94525146484375,1.62994384765625,-3.790740966796875,0.291595458984375,1.0,1.0,1.0,1.0,1.0,90.0,event
15:18:44.928,0.441809,0.5153641,0.112524636,0.793667,0.279709,0.059361752,-0.019593097,0.24612199,0.36151394,0.0029780564,0.25877205,0.44347328,0.57350826,0.16059908,-0.008953162,0.8611371,0.6636411,-0.17077793,0.0035743467,0.7432396,779.2674,800.2198,804.65204,796.99634,1045.2014,-0.31536865234375,0.027099609375,0.94525146484375,1.62994384765625,-3.790740966796875,0.291595458984375,1.0,1.0,1.0,1.0,1.0,90.0,event
15:18:44.928,0.441809,0.5153641,0.112524636,0.793667,0.279709,0.059361752,-0.019593097,0.24612199,0.36151394,0.0029780564,0.25877205,0.44347328,0.57350826,0.16059908,-0.008953162,0.8611371,0.6636411,-0.17077793,0.0035743467,0.7432396,791.75824,802.23444,805.8608,800.6227,967.8388,-0.31536865234375,0.027099609375,0.94525146484375,1.62994384765625,-3.790740966796875,0.291595458984375,1.0,1.0,1.0,1.0,1.0,90.0,event
15:18:44.929,0.441809,0.5153641,0.112524636,0.793667,0.279709,0.059361752,-0.019593097,0.24612199,0.36151394,0.0029780564,0.25877205,0.44347328,0.57350826,0.16059908,-0.008953162,0.8611371,0.6636411,-0.17077793,0.0035743467,0.7432396,778.0586,801.02563,804.65204,791.75824,756.30035,-0.31536865234375,0.027099609375,0.94525146484375,1.62994384765625,-3.790740966796875,0.291595458984375,1.0,1.0,1.0,1.0,1.0,90.0,event
15:18:44.958,0.441809,0.5153641,0.112524636,0.793667,0.279709,0.059361752,-0.019593097,0.24612199,0.36151394,0.0029780564,0.25877205,0.44347328,0.57350826,0.16059908,-0.008953162,0.8611371,0.6636411,-0.17077793,0.0035743467,0.7432396,784.10254,801.02563,807.0696,791.3553,797.8022,-0.30816650390625,0.020263671875,0.936279296875,1.936492919921875,-2.998199462890625,0.85235595703125,1.0,1.0,1.0,1.0,1.0,90.0,event
15:18:44.959,0.441809,0.5153641,0.112524636,0.793667,0.279709,0.059361752,-0.019593097,0.24612199,0.36151394,0.0029780564,0.25877205,0.44347328,0.57350826,0.16059908,-0.008953162,0.8611371,0.6636411,-0.17077793,0.0035743467,0.7432396,792.1612,807.47253,809.0842,795.38464,845.7509,-0.30816650390625,0.020263671875,0.936279296875,1.936492919921875,-2.998199462890625,0.85235595703125,1.0,1.0,1.0,1.0,1.0,90.0,event
15:18:44.960,0.441809,0.5153641,0.112524636,0.793667,0.279709,0.059361752,-0.019593097,0.24612199,0.36151394,0.0029780564,0.25877205,0.44347328,0.57350826,0.16059908,-0.008953162,0.8611371,0.6636411,-0.17077793,0.0035743467,0.7432396,781.685,811.0989,805.4579,772.8205,779.67035,-0.30816650390625,0.020263671875,0.936279296875,1.936492919921875,-2.998199462890625,0.85235595703125,1.0,1.0,1.0,1.0,1.0,90.0,event
15:18:44.961,0.441809,0.5153641,0.112524636,0.793667,0.279709,0.059361752,-0.019593097,0.24612199,0.36151394,0.0029780564,0.25877205,0.44347328,0.57350826,0.16059908,-0.008953162,0.8611371,0.6636411,-0.17077793,0.0035743467,0.7432396,792.96704,803.0403,805.4579,786.52014,690.2198,-0.30816650390625,0.020263671875,0.936279296875,1.936492919921875,-2.998199462890625,0.85235595703125,1.0,1.0,1.0,1.0,1.0,90.0,event
15:18:44.962,0.441809,0.5153641,0.112524636,0.793667,0.279709,0.059361752,-0.019593097,0.24612199,0.36151394,0.0029780564,0.25877205,0.44347328,0.57350826,0.16059908,-0.008953162,0.8611371,0.6636411,-0.17077793,0.0035743467,0.7432396,796.1905,805.4579,806.26373,802.23444,687.3993,-0.30816650390625,0.020263671875,0.936279296875,1.936492919921875,-2.998199462890625,0.85235595703125,1.0,1.0,1.0,1.0,1.0,90.0,event
15:18:44.962,0.441809,0.5153641,0.112524636,0.793667,0.279709,0.059361752,-0.019593097,0.24612199,0.36151394,0.0029780564,0.25877205,0.44347328,0.57350826,0.16059908,-0.008953162,0.8611371,0.6636411,-0.17077793,0.0035743467,0.7432396,772.8205,807.47253,806.6667,780.87915,880.40295,-0.30816650390625,0.020263671875,0.936279296875,1.936492919921875,-2.998199462890625,0.85235595703125,1.0,1.0,1.0,1.0,1.0,90.0,event
15:18:44.963,0.441809,0.5153641,0.112524636,0.793667,0.279709,0.059361752,-0.019593097,0.24612199,0.36151394,0.0029780564,0.25877205,0.44347328,0.57350826,0.16059908,-0.008953162,0.8611371,0.6636411,-0.17077793,0.0035743467,0.7432396,766.3736,801.02563,805.8608,775.64105,845.7509,-0.30816650390625,0.020263671875,0.936279296875,1.936492919921875,-2.998199462890625,0.85235595703125,1.0,1.0,1.0,1.0,1.0,90.0,event
15:18:44.964,0.441809,0.5153641,0.112524636,0.793667,0.279709,0.059361752,-0.019593097,0.24612199,0.36151394,0.0029780564,0.25877205,0.44347328,0.57350826,0.16059908,-0.008953162,0.8611371,0.6636411,-0.17077793,0.0035743467,0.7432396,773.6264,805.05493,802.6374,788.1319,703.1135,-0.30816650390625,0.020263671875,0.936279296875,1.936492919921875,-2.998199462890625,0.85235595703125,1.0,1.0,1.0,1.0,1.0,90.0,event
15:18:44.964,0.441809,0.5153641,0.112524636,0.793667,0.279709,0.059361752,-0.019593097,0.24612199,0.36151394,0.0029780564,0.25877205,0.44347328,0.57350826,0.16059908,-0.008953162,0.8611371,0.6636411,-0.17077793,0.0035743467,0.7432396,782.0879,810.696,804.65204,786.9231,800.2198,-0.30816650390625,0.020263671875,0.936279296875,1.936492919921875,-2.998199462890625,0.85235595703125,1.0,1.0,1.0,1.0,1.0,90.0,event
15:18:44.965,0.441809,0.5153641,0.112524636,0.793667,0.279709,0.059361752,-0.019593097,0.24612199,0.36151394,0.0029780564,0.25877205,0.44347328,0.57350826,0.16059908,-0.008953162,0.8611371,0.6636411,-0.17077793,0.0035743467,0.7432396,789.7436,817.1429,804.65204,780.4762,992.8205,-0.30816650390625,0.020263671875,0.936279296875,1.936492919921875,-2.998199462890625,0.85235595703125,1.0,1.0,1.0,1.0,1.0,90.0,event
15:18:44.966,0.441809,0.5153641,0.112524636,0.793667,0.279709,0.059361752,-0.019593097,0.24612199,0.36151394,0.0029780564,0.25877205,0.44347328,0.57350826,0.16059908,-0.008953162,0.8611371,0.6636411,-0.17077793,0.0035743467,0.7432396,778.86444,818.3516,801.02563,770.80585,798.60803,-0.30816650390625,0.020263671875,0.936279296875,1.936492919921875,-2.998199462890625,0.85235595703125,1.0,1.0,1.0,1.0,1.0,90.0,event
15:18:44.967,0.441809,0.5153641,0.112524636,0.793667,0.279709,0.059361752,-0.019593097,0.24612199,0.36151394,0.0029780564,0.25877205,0.44347328,0.57350826,0.16059908,-0.008953162,0.8611371,0.6636411,-0.17077793,0.0035743467,0.7432396,776.4469,811.50183,801.8315,761.9414,670.07324,-0.30816650390625,0.020263671875,0.936279296875,1.936492919921875,-2.998199462890625,0.85235595703125,1.0,1.0,1.0,1.0,1.0,90.0,event
15:18:45.025,0.441809,0.5153641,0.112524636,0.793667,0.279709,0.059361752,-0.019593097,0.24612199,0.36151394,0.0029780564,0.25877205,0.44347328,0.57350826,0.16059908,-0.008953162,0.8611371,0.6636411,-0.17077793,0.0035743467,0.7432396,782.49084,813.5165,803.0403,767.5824,818.3516,-0.30828857421875,0.02740478515625,0.93408203125,2.82623291015625,-3.57391357421875,0.46356201171875,1.0,1.0,1.0,1.0,1.0,90.0,event
15:18:45.026,0.441809,0.5348537,0.114913486,0.793667,0.279709,0.06238607,-0.016214633,0.24612199,0.36151394,0.025796814,0.25485933,0.44347328,0.57350826,0.16465452,-0.018600594,0.8611371,0.6636411,-0.1743846,-0.013522282,0.7432396,775.2381,816.7399,801.02563,762.3443,809.89014,-0.30828857421875,0.02740478515625,0.93408203125,2.82623291015625,-3.57391357421875,0.46356201171875,1.0,1.0,1.0,1.0,1.0,90.0,event
15:18:45.030,0.441809,0.5348537,0.114913486,0.793667,0.279709,0.06238607,-0.016214633,0.24612199,0.36151394,0.025796814,0.25485933,0.44347328,0.57350826,0.16465452,-0.018600594,0.8611371,0.6636411,-0.1743846,-0.013522282,0.7432396,784.90845,815.9341,798.60803,763.5531,699.89014,-0.30828857421875,0.02740478515625,0.93408203125,2.82623291015625,-3.57391357421875,0.46356201171875,1.0,1.0,1.0,1.0,1.0,90.0,event
15:18:45.031,0.441809,0.5348537,0.114913486,0.793667,0.279709,0.06238607,-0.016214633,0.24612199,0.36151394,0.025796814,0.25485933,0.44347328,0.57350826,0.16465452,-0.018600594,0.8611371,0.6636411,-0.1743846,-0.013522282,0.7432396,796.1905,814.7253,803.0403,785.7143,704.3223,-0.30828857421875,0.02740478515625,0.93408203125,2.82623291015625,-3.57391357421875,0.46356201171875,1.0,1.0,1.0,1.0,1.0,90.0,event
15:18:45.032,0.441809,0.5348537,0.114913486,0.793667,0.279709,0.06238607,-0.016214633,0.24612199,0.36151394,0.025796814,0.25485933,0.44347328,0.57350826,0.16465452,-0.018600594,0.8611371,0.6636411,-0.1743846,-0.013522282,0.7432396,792.5641,816.337,803.44324,785.7143,873.95605,-0.30828857421875,0.02740478515625,0.93408203125,2.82623291015625,-3.57391357421875,0.46356201171875,1.0,1.0,1.0,1.0,1.0,90.0,event
15:18:45.032,0.441809,0.5348537,0.114913486,0.793667,0.279709,0.06238607,-0.016214633,0.24612199,0.36151394,0.025796814,0.25485933,0.44347328,0.57350826,0.16465452,-0.018600594,0.8611371,0.6636411,-0.1743846,-0.013522282,0.7432396,786.52014,814.7253,804.2491,781.28204,915.4579,-0.30828857421875,0.02740478515625,0.93408203125,2.82623291015625,-3.57391357421875,0.46356201171875,1.0,1.0,1.0,1.0,1.0,90.0,event
15:18:45.033,0.441809,0.5348537,0.114913486,0.793667,0.279709,0.06238607,-0.016214633,0.24612199,0.36151394,0.025796814,0.25485933,0.44347328,0.57350826,0.16465452,-0.018600594,0.8611371,0.6636411,-0.1743846,-0.013522282,0.7432396,783.69965,811.0989,802.6374,786.1172,861.4652,-0.30828857421875,0.02740478515625,0.93408203125,2.82623291015625,-3.57391357421875,0.46356201171875,1.0,1.0,1.0,1.0,1.0,90.0,event
15:18:45.034,0.441809,0.5348537,0.114913486,0.793667,0.279709,0.06238607,-0.016214633,0.24612199,0.36151394,0.025796814,0.25485933,0.44347328,0.57350826,0.16465452,-0.018600594,0.8611371,0.6636411,-0.1743846,-0.013522282,0.7432396,790.9524,809.0842,802.23444,779.2674,870.32965,-0.30828857421875,0.02740478515625,0.93408203125,2.82623291015625,-3.57391357421875,0.46356201171875,1.0,1.0,1.0,1.0,1.0,90.0,event
15:18:45.036,0.441809,0.5348537,0.114913486,0.793667,0.279709,0.06238607,-0.016214633,0.24612199,0.36151394,0.025796814,0.25485933,0.44347328,0.57350826,0.16465452,-0.018600594,0.8611371,0.6636411,-0.1743846,-0.013522282,0.7432396,785.7143,807.8755,803.44324,783.2967,994.43225,-0.30828857421875,0.02740478515625,0.93408203125,2.82623291015625,-3.57391357421875,0.46356201171875,1.0,1.0,1.0,1.0,1.0,90.0,event
15:18:45.037,0.441809,0.5348537,0.114913486,0.793667,0.279709,0.06238607,-0.016214633,0.24612199,0.36151394,0.025796814,0.25485933,0.44347328,0.57350826,0.16465452,-0.018600594,0.8611371,0.6636411,-0.1743846,-0.013522282,0.7432396,779.2674,811.0989,803.0403,787.72894,910.2198,-0.30828857421875,0.02740478515625,0.93408203125,2.82623291015625,-3.57391357421875,0.46356201171875,1.0,1.0,1.0,1.0,1.0,90.0,event
15:18:45.038,0.441809,0.5348537,0.114913486,0.793667,0.279709,0.06238607,-0.016214633,0.24612199,0.36151394,0.025796814,0.25485933,0.44347328,0.57350826,0.16465452,-0.018600594,0.8611371,0.6636411,-0.1743846,-0.013522282,0.7432396,788.93774,812.71063,804.65204,780.4762,710.7692,-0.30828857421875,0.02740478515625,0.93408203125,2.82623291015625,-3.57391357421875,0.46356201171875,1.0,1.0,1.0,1.0,1.0,90.0,event
15:18:45.039,0.441809,0.5348537,0.114913486,0.793667,0.279709,0.06238607,-0.016214633,0.24612199,0.36151394,0.025796814,0.25485933,0.44347328,0.57350826,0.16465452,-0.018600594,0.8611371,0.6636411,-0.1743846,-0.013522282,0.7432396,786.9231,810.293,799.81683,772.4176,739.7802,-0.30828857421875,0.02740478515625,0.93408203125,2.82623291015625,-3.57391357421875,0.46356201171875,1.0,1.0,1.0,1.0,1.0,90.0,event
15:18:45.064,0.441809,0.5348537,0.114913486,0.793667,0.279709,0.06238607,-0.016214633,0.24612199,0.36151394,0.025796814,0.25485933,0.44347328,0.57350826,0.16465452,-0.018600594,0.8611371,0.6636411,-0.1743846,-0.013522282,0.7432396,785.31134,806.26373,803.0403,776.4469,728.0952,-0.30828857421875,0.02740478515625,0.93408203125,2.82623291015625,-3.57391357421875,0.46356201171875,1.0,1.0,1.0,1.0,1.0,90.0,event
15:18:45.065,0.441809,0.5348537,0.114913486,0.793667,0.279709,0.06238607,-0.016214633,0.24612199,0.36151394,0.025796814,0.25485933,0.44347328,0.57350826,0.16465452,-0.018600594,0.8611371,0.6636411,-0.1743846,-0.013522282,0.7432396,802.6374,810.293,806.26373,775.64105,634.61536,-0.30828857421875,0.02740478515625,0.93408203125,2.82623291015625,-3.57391357421875,0.46356201171875,1.0,1.0,1.0,1.0,1.0,90.0,event
15:18:45.066,0.441809,0.5348537,0.114913486,0.793667,0.279709,0.06238607,-0.016214633,0.24612199,0.36151394,0.025796814,0.25485933,0.44347328,0.57350826,0.16465452,-0.018600594,0.8611371,0.6636411,-0.1743846,-0.013522282,0.7432396,800.6227,809.89014,805.8608,775.2381,641.06226,-0.30828857421875,0.02740478515625,0.93408203125,2.82623291015625,-3.57391357421875,0.46356201171875,1.0,1.0,1.0,1.0,1.0,90.0,event
15:18:45.067,0.441809,0.5348537,0.114913486,0.793667,0.279709,0.06238607,-0.016214633,0.24612199,0.36151394,0.025796814,0.25485933,0.44347328,0.57350826,0.16465452,-0.018600594,0.8611371,0.6636411,-0.1743846,-0.013522282,0.7432396,804.65204,809.0842,803.8461,778.46155,713.1868,-0.30828857421875,0.02740478515625,0.93408203125,2.82623291015625,-3.57391357421875,0.46356201171875,1.0,1.0,1.0,1.0,1.0,90.0,event
15:18:45.067,0.441809,0.5348537,0.114913486,0.793667,0.279709,0.06238607,-0.016214633,0.24612199,0.36151394,0.025796814,0.25485933,0.44347328,0.57350826,0.16465452,-0.018600594,0.8611371,0.6636411,-0.1743846,-0.013522282,0.7432396,805.05493,813.5165,804.65204,768.7912,798.20514,-0.30828857421875,0.02740478515625,0.93408203125,2.82623291015625,-3.57391357421875,0.46356201171875,1.0,1.0,1.0,1.0,1.0,90.0,event
15:18:45.068,0.441809,0.5348537,0.114913486,0.793667,0.279709,0.06238607,-0.016214633,0.24612199,0.36151394,0.025796814,0.25485933,0.44347328,0.57350826,0.16465452,-0.018600594,0.8611371,0.6636411,-0.1743846,-0.013522282,0.7432396,785.7143,807.47253,809.0842,778.46155,863.8828,-0.30828857421875,0.02740478515625,0.93408203125,2.82623291015625,-3.57391357421875,0.46356201171875,1.0,1.0,1.0,1.0,1.0,90.0,event
15:18:45.068,0.441809,0.5348537,0.114913486,0.793667,0.279709,0.06238607,-0.016214633,0.24612199,0.36151394,0.025796814,0.25485933,0.44347328,0.57350826,0.16465452,-0.018600594,0.8611371,0.6636411,-0.1743846,-0.013522282,0.7432396,785.7143,799.81683,807.47253,788.5348,865.89746,-0.30828857421875,0.02740478515625,0.93408203125,2.82623291015625,-3.57391357421875,0.46356201171875,1.0,1.0,1.0,1.0,1.0,90.0,event
15:18:45.069,0.441809,0.5348537,0.114913486,0.793667,0.279709,0.06238607,-0.016214633,0.24612199,0.36151394,0.025796814,0.25485933,0.44347328,0.57350826,0.16465452,-0.018600594,0.8611371,0.6636411,-0.1743846,-0.013522282,0.7432396,786.1172,803.0403,803.8461,778.0586,869.92676,-0.30828857421875,0.02740478515625,0.93408203125,2.82623291015625,-3.57391357421875,0.46356201171875,1.0,1.0,1.0,1.0,1.0,90.0,event
15:18:45.070,0.441809,0.5348537,0.114913486,0.793667,0.279709,0.06238607,-0.016214633,0.24612199,0.36151394,0.025796814,0.25485933,0.44347328,0.57350826,0.16465452,-0.018600594,0.8611371,0.6636411,-0.1743846,-0.013522282,0.7432396,776.8498,807.8755,808.2784,782.8938,1079.0476,-0.30828857421875,0.02740478515625,0.93408203125,2.82623291015625,-3.57391357421875,0.46356201171875,1.0,1.0,1.0,1.0,1.0,90.0,event
15:18:45.070,0.441809,0.5348537,0.114913486,0.793667,0.279709,0.06238607,-0.016214633,0.24612199,0.36151394,0.025796814,0.25485933,0.44347328,0.57350826,0.16465452,-0.018600594,0.8611371,0.6636411,-0.1743846,-0.013522282,0.7432396,777.25275,803.44324,807.0696,786.9231,859.0476,-0.30828857421875,0.02740478515625,0.93408203125,2.82623291015625,-3.57391357421875,0.46356201171875,1.0,1.0,1.0,1.0,1.0,90.0,event
15:18:45.071,0.441809,0.5348537,0.114913486,0.793667,0.279709,0.06238607,-0.016214633,0.24612199,0.36151394,0.025796814,0.25485933,0.44347328,0.57350826,0.16465452,-0.018600594,0.8611371,0.6636411,-0.1743846,-0.013522282,0.7432396,767.5824,795.78754,805.05493,771.6117,657.5824,-0.30828857421875,0.02740478515625,0.93408203125,2.82623291015625,-3.57391357421875,0.46356201171875,1.0,1.0,1.0,1.0,1.0,90.0,event
15:18:45.072,0.441809,0.5348537,0.114913486,0.793667,0.279709,0.06238607,-0.016214633,0.24612199,0.36151394,0.025796814,0.25485933,0.44347328,0.57350826,0.16465452,-0.018600594,0.8611371,0.6636411,-0.1743846,-0.013522282,0.7432396,785.31134,806.26373,811.50183,781.685,755.4945,-0.30828857421875,0.02740478515625,0.93408203125,2.82623291015625,-3.57391357421875,0.46356201171875,1.0,1.0,1.0,1.0,1.0,90.0,event
15:18:45.123,0.441809,0.5348537,0.114913486,0.793667,0.279709,0.06238607,-0.016214633,0.24612199,0.36151394,0.025796814,0.25485933,0.44347328,0.57350826,0.16465452,-0.018600594,0.8611371,0.6636411,-0.1743846,-0.013522282,0.7432396,803.0403,811.0989,808.68134,790.14655,737.76556,-0.3052978515625,0.03204345703125,0.94439697265625,2.788848876953125,-4.17205810546875,1.24114990234375,1.0,1.0,1.0,1.0,1.0,90.0,event
15:18:45.124,0.441809,0.5348537,0.114913486,0.793667,0.279709,0.06238607,-0.016214633,0.24612199,0.36151394,0.025796814,0.25485933,0.44347328,0.57350826,0.16465452,-0.018600594,0.8611371,0.6636411,-0.1743846,-0.013522282,0.7432396,778.46155,805.05493,806.26373,772.8205,745.82416,-0.3052978515625,0.03204345703125,0.94439697265625,2.788848876953125,-4.17205810546875,1.24114990234375,1.0,1.0,1.0,1.0,1.0,90.0,event
15:18:45.125,0.441809,0.5348537,0.114913486,0.793667,0.279709,0.06238607,-0.016214633,0.24612199,0.36151394,0.025796814,0.25485933,0.44347328,0.57350826,0.16465452,-0.018600594,0.8611371,0.6636411,-0.1743846,-0.013522282,0.7432396,778.46155,805.8608,809.0842,776.4469,720.84247,-0.3052978515625,0.03204345703125,0.94439697265625,2.788848876953125,-4.17205810546875,1.24114990234375,1.0,1.0,1.0,1.0,1.0,90.0,event
15:18:45.126,0.441809,0.5484742,0.1149395,0.793667,0.279709,0.063254185,-0.02490046,0.24612199,0.36151394,0.045383733,0.24276263,0.44347328,0.57350826,0.16895686,-0.03141488,0.8611371,0.6636411,-0.17528792,-0.031004937,0.7432396,793.36993,805.05493,807.8755,787.72894,792.96704,-0.3052978515625,0.03204345703125,0.94439697265625,2.788848876953125,-4.17205810546875,1.24114990234375,1.0,1.0,1.0,1.0,1.0,90.0,event
15:18:45.129,0.441809,0.5484742,0.1149395,0.793667,0.279709,0.063254185,-0.02490046,0.24612199,0.36151394,0.045383733,0.24276263,0.44347328,0.57350826,0.16895686,-0.03141488,0.8611371,0.6636411,-0.17528792,-0.031004937,0.7432396,789.34064,802.23444,806.6667,788.93774,753.47986,-0.3052978515625,0.03204345703125,0.94439697265625,2.788848876953125,-4.17205810546875,1.24114990234375,1.0,1.0,1.0,1.0,1.0,90.0,event
15:18:45.130,0.441809,0.5484742,0.1149395,0.793667,0.279709,0.063254185,-0.02490046,0.24612199,0.36151394,0.045383733,0.24276263,0.44347328,0.57350826,0.16895686,-0.03141488,0.8611371,0.6636411,-0.17528792,-0.031004937,0.7432396,794.17584,803.0403,808.2784,784.10254,722.8571,-0.3052978515625,0.03204345703125,0.94439697265625,2.788848876953125,-4.17205810546875,1.24114990234375,1.0,1.0,1.0,1.0,1.0,90.0,event
15:18:45.131,0.441809,0.5484742,0.1149395,0.793667,0.279709,0.063254185,-0.02490046,0.24612199,0.36151394,0.045383733,0.24276263,0.44347328,0.57350826,0.16895686,-0.03141488,0.8611371,0.6636411,-0.17528792,-0.031004937,0.7432396,790.14655,806.26373,802.6374,772.4176,863.8828,-0.3052978515625,0.03204345703125,0.94439697265625,2.788848876953125,-4.17205810546875,1.24114990234375,1.0,1.0,1.0,1.0,1.0,90.0,event
15:18:45.131,0.441809,0.5484742,0.1149395,0.793667,0.279709,0.063254185,-0.02490046,0.24612199,0.36151394,0.045383733,0.24276263,0.44347328,0.57350826,0.16895686,-0.03141488,0.8611371,0.6636411,-0.17528792,-0.031004937,0.7432396,772.01465,802.23444,797.8022,775.64105,1128.608,-0.3052978515625,0.03204345703125,0.94439697265625,2.788848876953125,-4.17205810546875,1.24114990234375,1.0,1.0,1.0,1.0,1.0,90.0,event
15:18:45.132,0.441809,0.5484742,0.1149395,0.793667,0.279709,0.063254185,-0.02490046,0.24612199,0.36151394,0.045383733,0.24276263,0.44347328,0.57350826,0.16895686,-0.03141488,0.8611371,0.6636411,-0.17528792,-0.031004937,0.7432396,771.6117,801.8315,799.011,782.49084,1014.57874,-0.3052978515625,0.03204345703125,0.94439697265625,2.788848876953125,-4.17205810546875,1.24114990234375,1.0,1.0,1.0,1.0,1.0,90.0,event
15:18:45.132,0.441809,0.5484742,0.1149395,0.793667,0.279709,0.063254185,-0.02490046,0.24612199,0.36151394,0.045383733,0.24276263,0.44347328,0.57350826,0.16895686,-0.03141488,0.8611371,0.6636411,-0.17528792,-0.031004937,0.7432396,779.67035,805.05493,805.05493,782.8938,634.21246,-0.3052978515625,0.03204345703125,0.94439697265625,2.788848876953125,-4.17205810546875,1.24114990234375,1.0,1.0,1.0,1.0,1.0,90.0,event
15:18:45.133,0.441809,0.5484742,0.1149395,0.793667,0.279709,0.063254185,-0.02490046,0.24612199,0.36151394,0.045383733,0.24276263,0.44347328,0.57350826,0.16895686,-0.03141488,0.8611371,0.6636411,-0.17528792,-0.031004937,0.7432396,784.5055,799.011,806.6667,782.8938,630.989,-0.3052978515625,0.03204345703125,0.94439697265625,2.788848876953125,-4.17205810546875,1.24114990234375,1.0,1.0,1.0,1.0,1.0,90.0,event
15:18:45.133,0.441809,0.5484742,0.1149395,0.793667,0.279709,0.063254185,-0.02490046,0.24612199,0.36151394,0.045383733,0.24276263,0.44347328,0.57350826,0.16895686,-0.03141488,0.8611371,0.6636411,-0.17528792,-0.031004937,0.7432396,788.5348,795.38464,800.6227,789.34064,745.0183,-0.3052978515625,0.03204345703125,0.94439697265625,2.788848876953125,-4.17205810546875,1.24114990234375,1.0,1.0,1.0,1.0,1.0,90.0,event
15:18:45.162,0.441809,0.5484742,0.1149395,0.793667,0.279709,0.063254185,-0.02490046,0.24612199,0.36151394,0.045383733,0.24276263,0.44347328,0.57350826,0.16895686,-0.03141488,0.8611371,0.6636411,-0.17528792,-0.031004937,0.7432396,794.57874,800.6227,805.8608,795.78754,726.4835,-0.30584716796875,0.04290771484375,0.94610595703125,2.429962158203125,-4.246826171875,1.62994384765625,1.0,1.0,1.0,1.0,1.0,90.0,event
15:18:45.163,0.441809,0.5484742,0.1149395,0.793667,0.279709,0.063254185,-0.02490046,0.24612199,0.36151394,0.045383733,0.24276263,0.44347328,0.57350826,0.16895686,-0.03141488,0.8611371,0.6636411,-0.17528792,-0.031004937,0.7432396,784.5055,801.8315,807.8755,787.326,658.3883,-0.30584716796875,0.04290771484375,0.94610595703125,2.429962158203125,-4.246826171875,1.62994384765625,1.0,1.0,1.0,1.0,1.0,90.0,event
15:18:45.164,0.441809,0.5484742,0.1149395,0.793667,0.279709,0.063254185,-0.02490046,0.24612199,0.36151394,0.045383733,0.24276263,0.44347328,0.57350826,0.16895686,-0.03141488,0.8611371,0.6636411,-0.17528792,-0.031004937,0.7432396,778.46155,801.8315,804.2491,789.34064,709.15753,-0.30584716796875,0.04290771484375,0.94610595703125,2.429962158203125,-4.246826171875,1.62994384765625,1.0,1.0,1.0,1.0,1.0,90.0,event
15:18:45.164,0.441809,0.5484742,0.1149395,0.793667,0.279709,0.063254185,-0.02490046,0.24612199,0.36151394,0.045383733,0.24276263,0.44347328,0.57350826,0.16895686,-0.03141488,0.8611371,0.6636411,-0.17528792,-0.031004937,0.7432396,787.326,799.011,802.6374,777.25275,715.6044,-0.30584716796875,0.04290771484375,0.94610595703125,2.429962158203125,-4.246826171875,1.62994384765625,1.0,1.0,1.0,1.0,1.0,90.0,event
15:18:45.165,0.441809,0.5484742,0.1149395,0.793667,0.279709,0.063254185,-0.02490046,0.24612199,0.36151394,0.045383733,0.24276263,0.44347328,0.57350826,0.16895686,-0.03141488,0.8611371,0.6636411,-0.17528792,-0.031004937,0.7432396,785.31134,803.44324,798.60803,762.74725,763.5531,-0.30584716796875,0.04290771484375,0.94610595703125,2.429962158203125,-4.246826171875,1.62994384765625,1.0,1.0,1.0,1.0,1.0,90.0,event
15:18:45.165,0.441809,0.5484742,0.1149395,0.793667,0.279709,0.063254185,-0.02490046,0.24612199,0.36151394,0.045383733,0.24276263,0.44347328,0.57350826,0.16895686,-0.03141488,0.8611371,0.6636411,-0.17528792,-0.031004937,0.7432396,782.49084,807.8755,801.8315,784.90845,820.3663,-0.30584716796875,0.04290771484375,0.94610595703125,2.429962158203125,-4.246826171875,1.62994384765625,1.0,1.0,1.0,1.0,1.0,90.0,event
15:18:45.166,0.441809,0.5484742,0.1149395,0.793667,0.279709,0.063254185,-0.02490046,0.24612199,0.36151394,0.045383733,0.24276263,0.44347328,0.57350826,0.16895686,-0.03141488,0.8611371,0.6636411,-0.17528792,-0.031004937,0.7432396,777.6557,800.2198,800.2198,775.64105,953.3333,-0.30584716796875,0.04290771484375,0.94610595703125,2.429962158203125,-4.246826171875,1.62994384765625,1.0,1.0,1.0,1.0,1.0,90.0,event
15:18:45.166,0.441809,0.5484742,0.1149395,0.793667,0.279709,0.063254185,-0.02490046,0.24612199,0.36151394,0.045383733,0.24276263,0.44347328,0.57350826,0.16895686,-0.03141488,0.8611371,0.6636411,-0.17528792,-0.031004937,0.7432396,777.25275,795.38464,798.20514,767.1795,1105.238,-0.30584716796875,0.04290771484375,0.94610595703125,2.429962158203125,-4.246826171875,1.62994384765625,1.0,1.0,1.0,1.0,1.0,90.0,event
15:18:45.167,0.441809,0.5484742,0.1149395,0.793667,0.279709,0.063254185,-0.02490046,0.24612199,0.36151394,0.045383733,0.24276263,0.44347328,0.57350826,0.16895686,-0.03141488,0.8611371,0.6636411,-0.17528792,-0.031004937,0.7432396,781.685,797.8022,803.44324,787.326,781.28204,-0.30584716796875,0.04290771484375,0.94610595703125,2.429962158203125,-4.246826171875,1.62994384765625,1.0,1.0,1.0,1.0,1.0,90.0,event
15:18:45.168,0.441809,0.5484742,0.1149395,0.793667,0.279709,0.063254185,-0.02490046,0.24612199,0.36151394,0.045383733,0.24276263,0.44347328,0.57350826,0.16895686,-0.03141488,0.8611371,0.6636411,-0.17528792,-0.031004937,0.7432396,780.87915,800.2198,807.47253,787.326,662.4176,-0.30584716796875,0.04290771484375,0.94610595703125,2.429962158203125,-4.246826171875,1.62994384765625,1.0,1.0,1.0,1.0,1.0,90.0,event
15:18:45.168,0.441809,0.5484742,0.1149395,0.793667,0.279709,0.063254185,-0.02490046,0.24612199,0.36151394,0.045383733,0.24276263,0.44347328,0.57350826,0.16895686,-0.03141488,0.8611371,0.6636411,-0.17528792,-0.031004937,0.7432396,772.8205,801.4286,806.6667,790.14655,883.6264,-0.30584716796875,0.04290771484375,0.94610595703125,2.429962158203125,-4.246826171875,1.62994384765625,1.0,1.0,1.0,1.0,1.0,90.0,event
15:18:45.169,0.441809,0.5484742,0.1149395,0.793667,0.279709,0.063254185,-0.02490046,0.24612199,0.36151394,0.045383733,0.24276263,0.44347328,0.57350826,0.16895686,-0.03141488,0.8611371,0.6636411,-0.17528792,-0.031004937,0.7432396,787.326,803.0403,795.78754,788.5348,844.5421,-0.30584716796875,0.04290771484375,0.94610595703125,2.429962158203125,-4.246826171875,1.62994384765625,1.0,1.0,1.0,1.0,1.0,90.0,event
15:18:45.212,0.441809,0.5484742,0.1149395,0.793667,0.279709,0.063254185,-0.02490046,0.24612199,0.36151394,0.045383733,0.24276263,0.44347328,0.57350826,0.16895686,-0.03141488,0.8611371,0.6636411,-0.17528792,-0.031004937,0.7432396,795.38464,805.05493,796.99634,785.7143,695.05493,-0.30535888671875,0.03485107421875,0.9383544921875,1.383209228515625,-3.69354248046875,0.157012939453125,1.0,1.0,1.0,1.0,1.0,90.0,event
15:18:45.213,0.441809,0.5484742,0.1149395,0.793667,0.279709,0.063254185,-0.02490046,0.24612199,0.36151394,0.045383733,0.24276263,0.44347328,0.57350826,0.16895686,-0.03141488,0.8611371,0.6636411,-0.17528792,-0.031004937,0.7432396,782.49084,798.20514,802.6374,778.46155,826.8132,-0.30535888671875,0.03485107421875,0.9383544921875,1.383209228515625,-3.69354248046875,0.157012939453125,1.0,1.0,1.0,1.0,1.0,90.0,event
15:18:45.213,0.441809,0.5484742,0.1149395,0.793667,0.279709,0.063254185,-0.02490046,0.24612199,0.36151394,0.045383733,0.24276263,0.44347328,0.57350826,0.16895686,-0.03141488,0.8611371,0.6636411,-0.17528792,-0.031004937,0.7432396,784.10254,804.65204,810.696,782.0879,699.4872,-0.30535888671875,0.03485107421875,0.9383544921875,1.383209228515625,-3.69354248046875,0.157012939453125,1.0,1.0,1.0,1.0,1.0,90.0,event
15:18:45.214,0.441809,0.5484742,0.1149395,0.793667,0.279709,0.063254185,-0.02490046,0.24612199,0.36151394,0.045383733,0.24276263,0.44347328,0.57350826,0.16895686,-0.03141488,0.8611371,0.6636411,-0.17528792,-0.031004937,0.7432396,780.4762,794.17584,803.44324,779.67035,758.71796,-0.30535888671875,0.03485107421875,0.9383544921875,1.383209228515625,-3.69354248046875,0.157012939453125,1.0,1.0,1.0,1.0,1.0,90.0,event
15:18:45.215,0.441809,0.5484742,0.1149395,0.793667,0.279709,0.063254185,-0.02490046,0.24612199,0.36151394,0.045383733,0.24276263,0.44347328,0.57350826,0.16895686,-0.03141488,0.8611371,0.6636411,-0.17528792,-0.031004937,0.7432396,781.685,795.38464,811.0989,769.19415,661.2088,-0.30535888671875,0.03485107421875,0.9383544921875,1.383209228515625,-3.69354248046875,0.157012939453125,1.0,1.0,1.0,1.0,1.0,90.0,event
15:18:45.216,0.441809,0.55842334,0.11637233,0.793667,0.279709,0.06734554,-0.044499476,0.24612199,0.36151394,0.06373763,0.20034128,0.44347328,0.57350826,0.17429437,-0.048086073,0.8611371,0.6636411,-0.17884512,-0.049530998,0.7432396,768.3883,795.38464,807.0696,756.30035,800.2198,-0.30535888671875,0.03485107421875,0.9383544921875,1.383209228515625,-3.69354248046875,0.157012939453125,1.0,2.0,1.0,1.0,2.0,90.0,event
15:18:45.220,0.441809,0.55842334,0.11637233,0.793667,0.279709,0.06734554,-0.044499476,0.24612199,0.36151394,0.06373763,0.20034128,0.44347328,0.57350826,0.17429437,-0.048086073,0.8611371,0.6636411,-0.17884512,-0.049530998,0.7432396,759.92676,803.44324,832.4542,778.46155,1005.31134,-0.30535888671875,0.03485107421875,0.9383544921875,1.383209228515625,-3.69354248046875,0.157012939453125,1.0,2.0,1.0,1.0,2.0,90.0,event
15:18:45.221,0.441809,0.55842334,0.11637233,0.793667,0.279709,0.06734554,-0.044499476,0.24612199,0.36151394,0.06373763,0.20034128,0.44347328,0.57350826,0.17429437,-0.048086073,0.8611371,0.6636411,-0.17884512,-0.049530998,0.7432396,779.67035,818.3516,850.989,803.44324,840.9158,-0.30535888671875,0.03485107421875,0.9383544921875,1.383209228515625,-3.69354248046875,0.157012939453125,1.0,2.0,1.0,1.0,2.0,90.0,event
15:18:45.221,0.441809,0.55842334,0.11637233,0.793667,0.279709,0.06734554,-0.044499476,0.24612199,0.36151394,0.06373763,0.20034128,0.44347328,0.57350826,0.17429437,-0.048086073,0.8611371,0.6636411,-0.17884512,-0.049530998,0.7432396,782.0879,798.20514,830.84247,793.36993,636.63007,-0.30535888671875,0.03485107421875,0.9383544921875,1.383209228515625,-3.69354248046875,0.157012939453125,1.0,2.0,1.0,1.0,2.0,90.0,event
15:18:45.222,0.441809,0.55842334,0.11637233,0.793667,0.279709,0.06734554,-0.044499476,0.24612199,0.36151394,0.06373763,0.20034128,0.44347328,0.57350826,0.17429437,-0.048086073,0.8611371,0.6636411,-0.17884512,-0.049530998,0.7432396,765.9707,786.1172,800.2198,778.86444,733.73627,-0.30535888671875,0.03485107421875,0.9383544921875,1.383209228515625,-3.69354248046875,0.157012939453125,1.0,2.0,1.0,1.0,2.0,90.0,event
15:18:45.223,0.441809,0.55842334,0.11637233,0.793667,0.279709,0.06734554,-0.044499476,0.24612199,0.36151394,0.06373763,0.20034128,0.44347328,0.57350826,0.17429437,-0.048086073,0.8611371,0.6636411,-0.17884512,-0.049530998,0.7432396,760.32965,799.011,772.01465,777.25275,815.5311,-0.30535888671875,0.03485107421875,0.9383544921875,1.383209228515625,-3.69354248046875,0.157012939453125,1.0,2.0,1.0,1.0,2.0,90.0,event
15:18:45.224,0.441809,0.55842334,0.11637233,0.793667,0.279709,0.06734554,-0.044499476,0.24612199,0.36151394,0.06373763,0.20034128,0.44347328,0.57350826,0.17429437,-0.048086073,0.8611371,0.6636411,-0.17884512,-0.049530998,0.7432396,761.53845,795.78754,776.8498,783.69965,757.50916,-0.30535888671875,0.03485107421875,0.9383544921875,1.383209228515625,-3.69354248046875,0.157012939453125,1.0,2.0,1.0,1.0,2.0,90.0,event
15:18:45.278,0.441809,0.55842334,0.11637233,0.793667,0.279709,0.06734554,-0.044499476,0.24612199,0.36151394,0.06373763,0.20034128,0.44347328,0.57350826,0.17429437,-0.048086073,0.8611371,0.6636411,-0.17884512,-0.049530998,0.7432396,788.5348,802.23444,801.8315,798.20514,658.7912,-0.3001708984375,0.03436279296875,0.9422607421875,2.88604736328125,-1.24114990234375,-2.265472412109375,1.0,2.0,1.0,1.0,2.0,90.0,event
15:18:45.279,0.441809,0.55842334,0.11637233,0.793667,0.279709,0.06734554,-0.044499476,0.24612199,0.36151394,0.06373763,0.20034128,0.44347328,0.57350826,0.17429437,-0.048086073,0.8611371,0.6636411,-0.17884512,-0.049530998,0.7432396,793.7729,781.28204,809.4872,791.3553,776.04395,-0.3001708984375,0.03436279296875,0.9422607421875,2.88604736328125,-1.24114990234375,-2.265472412109375,1.0,2.0,1.0,1.0,2.0,90.0,event
15:18:45.280,0.441809,0.55842334,0.11637233,0.793667,0.279709,0.06734554,-0.044499476,0.24612199,0.36151394,0.06373763,0.20034128,0.44347328,0.57350826,0.17429437,-0.048086073,0.8611371,0.6636411,-0.17884512,-0.049530998,0.7432396,773.6264,758.71796,801.4286,778.46155,861.8681,-0.3001708984375,0.03436279296875,0.9422607421875,2.88604736328125,-1.24114990234375,-2.265472412109375,1.0,2.0,1.0,1.0,2.0,90.0,event
15:18:45.281,0.441809,0.55842334,0.11637233,0.793667,0.279709,0.06734554,-0.044499476,0.24612199,0.36151394,0.06373763,0.20034128,0.44347328,0.57350826,0.17429437,-0.048086073,0.8611371,0.6636411,-0.17884512,-0.049530998,0.7432396,783.69965,786.1172,805.8608,794.17584,756.7033,-0.3001708984375,0.03436279296875,0.9422607421875,2.88604736328125,-1.24114990234375,-2.265472412109375,1.0,2.0,1.0,1.0,2.0,90.0,event
15:18:45.282,0.441809,0.55842334,0.11637233,0.793667,0.279709,0.06734554,-0.044499476,0.24612199,0.36151394,0.06373763,0.20034128,0.44347328,0.57350826,0.17429437,-0.048086073,0.8611371,0.6636411,-0.17884512,-0.049530998,0.7432396,779.2674,795.78754,804.65204,788.93774,698.68134,-0.3001708984375,0.03436279296875,0.9422607421875,2.88604736328125,-1.24114990234375,-2.265472412109375,1.0,2.0,1.0,1.0,2.0,90.0,event
15:18:45.283,0.441809,0.55842334,0.11637233,0.793667,0.279709,0.06734554,-0.044499476,0.24612199,0.36151394,0.06373763,0.20034128,0.44347328,0.57350826,0.17429437,-0.048086073,0.8611371,0.6636411,-0.17884512,-0.049530998,0.7432396,768.7912,765.16486,783.69965,778.46155,891.28204,-0.3001708984375,0.03436279296875,0.9422607421875,2.88604736328125,-1.24114990234375,-2.265472412109375,1.0,2.0,1.0,1.0,2.0,90.0,event
15:18:45.284,0.441809,0.55842334,0.11637233,0.793667,0.279709,0.06734554,-0.044499476,0.24612199,0.36151394,0.06373763,0.20034128,0.44347328,0.57350826,0.17429437,-0.048086073,0.8611371,0.6636411,-0.17884512,-0.049530998,0.7432396,770.0,757.9121,784.5055,784.10254,1104.0293,-0.3001708984375,0.03436279296875,0.9422607421875,2.88604736328125,-1.24114990234375,-2.265472412109375,1.0,2.0,1.0,1.0,2.0,90.0,event
15:18:45.285,0.441809,0.55842334,0.11637233,0.793667,0.279709,0.06734554,-0.044499476,0.24612199,0.36151394,0.06373763,0.20034128,0.44347328,0.57350826,0.17429437,-0.048086073,0.8611371,0.6636411,-0.17884512,-0.049530998,0.7432396,775.64105,768.7912,778.0586,773.6264,859.0476,-0.3001708984375,0.03436279296875,0.9422607421875,2.88604736328125,-1.24114990234375,-2.265472412109375,1.0,2.0,1.0,1.0,2.0,90.0,event
15:18:45.286,0.441809,0.55842334,0.11637233,0.793667,0.279709,0.06734554,-0.044499476,0.24612199,0.36151394,0.06373763,0.20034128,0.44347328,0.57350826,0.17429437,-0.048086073,0.8611371,0.6636411,-0.17884512,-0.049530998,0.7432396,774.83514,779.2674,779.2674,784.5055,698.68134,-0.3001708984375,0.03436279296875,0.9422607421875,2.88604736328125,-1.24114990234375,-2.265472412109375,1.0,2.0,1.0,1.0,2.0,90.0,event
15:18:45.287,0.441809,0.55842334,0.11637233,0.793667,0.279709,0.06734554,-0.044499476,0.24612199,0.36151394,0.06373763,0.20034128,0.44347328,0.57350826,0.17429437,-0.048086073,0.8611371,0.6636411,-0.17884512,-0.049530998,0.7432396,772.8205,786.1172,786.52014,782.8938,811.50183,-0.3001708984375,0.03436279296875,0.9422607421875,2.88604736328125,-1.24114990234375,-2.265472412109375,1.0,2.0,1.0,1.0,2.0,90.0,event
15:18:45.288,0.441809,0.55842334,0.11637233,0.793667,0.279709,0.06734554,-0.044499476,0.24612199,0.36151394,0.06373763,0.20034128,0.44347328,0.57350826,0.17429437,-0.048086073,0.8611371,0.6636411,-0.17884512,-0.049530998,0.7432396,767.5824,790.54944,788.93774,761.9414,810.696,-0.3001708984375,0.03436279296875,0.9422607421875,2.88604736328125,-1.24114990234375,-2.265472412109375,1.0,2.0,1.0,1.0,2.0,90.0,event
15:18:45.289,0.441809,0.55842334,0.11637233,0.793667,0.279709,0.06734554,-0.044499476,0.24612199,0.36151394,0.06373763,0.20034128,0.44347328,0.57350826,0.17429437,-0.048086073,0.8611371,0.6636411,-0.17884512,-0.049530998,0.7432396,775.2381,795.38464,791.75824,776.04395,734.94507,-0.3001708984375,0.03436279296875,0.9422607421875,2.88604736328125,-1.24114990234375,-2.265472412109375,1.0,2.0,1.0,1.0,2.0,90.0,event
15:18:45.313,0.441809,0.55842334,0.11637233,0.793667,0.279709,0.06734554,-0.044499476,0.24612199,0.36151394,0.06373763,0.20034128,0.44347328,0.57350826,0.17429437,-0.048086073,0.8611371,0.6636411,-0.17884512,-0.049530998,0.7432396,787.72894,791.3553,784.90845,788.5348,780.07324,-0.3001708984375,0.03436279296875,0.9422607421875,2.88604736328125,-1.24114990234375,-2.265472412109375,1.0,2.0,1.0,1.0,2.0,90.0,event
15:18:45.314,0.441809,0.55842334,0.11637233,0.793667,0.279709,0.06734554,-0.044499476,0.24612199,0.36151394,0.06373763,0.20034128,0.44347328,0.57350826,0.17429437,-0.048086073,0.8611371,0.6636411,-0.17884512,-0.049530998,0.7432396,782.0879,791.3553,784.90845,764.35895,786.9231,-0.3001708984375,0.03436279296875,0.9422607421875,2.88604736328125,-1.24114990234375,-2.265472412109375,1.0,2.0,1.0,1.0,2.0,90.0,event
15:18:45.315,0.441809,0.55842334,0.11637233,0.793667,0.279709,0.06734554,-0.044499476,0.24612199,0.36151394,0.06373763,0.20034128,0.44347328,0.57350826,0.17429437,-0.048086073,0.8611371,0.6636411,-0.17884512,-0.049530998,0.7432396,776.4469,788.5348,790.9524,767.98535,679.7436,-0.3001708984375,0.03436279296875,0.9422607421875,2.88604736328125,-1.24114990234375,-2.265472412109375,1.0,2.0,1.0,1.0,2.0,90.0,event
15:18:45.316,0.441809,0.55842334,0.11637233,0.793667,0.279709,0.06734554,-0.044499476,0.24612199,0.36151394,0.06373763,0.20034128,0.44347328,0.57350826,0.17429437,-0.048086073,0.8611371,0.6636411,-0.17884512,-0.049530998,0.7432396,785.31134,784.10254,790.54944,794.57874,635.42126,-0.3001708984375,0.03436279296875,0.9422607421875,2.88604736328125,-1.24114990234375,-2.265472412109375,1.0,2.0,1.0,1.0,2.0,90.0,event
15:18:45.316,0.441809,0.55842334,0.11637233,0.793667,0.279709,0.06734554,-0.044499476,0.24612199,0.36151394,0.06373763,0.20034128,0.44347328,0.57350826,0.17429437,-0.048086073,0.8611371,0.6636411,-0.17884512,-0.049530998,0.7432396,798.20514,787.72894,789.7436,798.20514,741.79486,-0.3001708984375,0.03436279296875,0.9422607421875,2.88604736328125,-1.24114990234375,-2.265472412109375,1.0,2.0,1.0,1.0,2.0,90.0,event
15:18:45.317,0.441809,0.55842334,0.11637233,0.793667,0.279709,0.06734554,-0.044499476,0.24612199,0.36151394,0.06373763,0.20034128,0.44347328,0.57350826,0.17429437,-0.048086073,0.8611371,0.6636411,-0.17884512,-0.049530998,0.7432396,776.04395,793.7729,786.1172,790.14655,939.6337,-0.3001708984375,0.03436279296875,0.9422607421875,2.88604736328125,-1.24114990234375,-2.265472412109375,1.0,2.0,1.0,1.0,2.0,90.0,event
15:18:45.318,0.441809,0.55842334,0.11637233,0.793667,0.279709,0.06734554,-0.044499476,0.24612199,0.36151394,0.06373763,0.20034128,0.44347328,0.57350826,0.17429437,-0.048086073,0.8611371,0.6636411,-0.17884512,-0.049530998,0.7432396,769.19415,794.17584,779.67035,768.7912,944.4689,-0.3001708984375,0.03436279296875,0.9422607421875,2.88604736328125,-1.24114990234375,-2.265472412109375,1.0,2.0,1.0,1.0,2.0,90.0,event
15:18:45.318,0.441809,0.5680634,0.12170631,0.793667,0.279709,0.07962407,-0.06797376,0.24612199,0.36151394,0.07814188,0.15483196,0.44347328,0.57350826,0.17910393,-0.06419081,0.8611371,0.6636411,-0.18600309,-0.067145765,0.7432396,780.4762,792.1612,781.685,778.86444,793.36993,-0.3001708984375,0.03436279296875,0.9422607421875,2.88604736328125,-1.24114990234375,-2.265472412109375,1.0,2.0,1.0,1.0,2.0,90.0,event
15:18:45.323,0.441809,0.5680634,0.12170631,0.793667,0.279709,0.07962407,-0.06797376,0.24612199,0.36151394,0.07814188,0.15483196,0.44347328,0.57350826,0.17910393,-0.06419081,0.8611371,0.6636411,-0.18600309,-0.067145765,0.7432396,780.07324,794.9817,783.2967,787.326,762.74725,-0.3001708984375,0.03436279296875,0.9422607421875,2.88604736328125,-1.24114990234375,-2.265472412109375,1.0,2.0,1.0,1.0,2.0,90.0,event
15:18:45.324,0.441809,0.5680634,0.12170631,0.793667,0.279709,0.07962407,-0.06797376,0.24612199,0.36151394,0.07814188,0.15483196,0.44347328,0.57350826,0.17910393,-0.06419081,0.8611371,0.6636411,-0.18600309,-0.067145765,0.7432396,780.87915,796.1905,781.28204,774.83514,1030.6959,-0.3001708984375,0.03436279296875,0.9422607421875,2.88604736328125,-1.24114990234375,-2.265472412109375,1.0,2.0,1.0,1.0,2.0,90.0,event
15:18:45.324,0.441809,0.5680634,0.12170631,0.793667,0.279709,0.07962407,-0.06797376,0.24612199,0.36151394,0.07814188,0.15483196,0.44347328,0.57350826,0.17910393,-0.06419081,0.8611371,0.6636411,-0.18600309,-0.067145765,0.7432396,782.49084,797.3993,787.326,782.49084,989.59705,-0.3001708984375,0.03436279296875,0.9422607421875,2.88604736328125,-1.24114990234375,-2.265472412109375,1.0,2.0,1.0,1.0,2.0,90.0,event
15:18:45.325,0.441809,0.5680634,0.12170631,0.793667,0.279709,0.07962407,-0.06797376,0.24612199,0.36151394,0.07814188,0.15483196,0.44347328,0.57350826,0.17910393,-0.06419081,0.8611371,0.6636411,-0.18600309,-0.067145765,0.7432396,795.38464,801.02563,784.90845,774.43225,772.01465,-0.3001708984375,0.03436279296875,0.9422607421875,2.88604736328125,-1.24114990234375,-2.265472412109375,1.0,2.0,1.0,1.0,2.0,90.0,event
15:18:45.348,0.441809,0.5680634,0.12170631,0.793667,0.279709,0.07962407,-0.06797376,0.24612199,0.36151394,0.07814188,0.15483196,0.44347328,0.57350826,0.17910393,-0.06419081,0.8611371,0.6636411,-0.18600309,-0.067145765,0.7432396,812.3077,805.8608,777.25275,784.90845,729.304,-0.308349609375,0.03094482421875,0.9515380859375,2.82623291015625,-2.4224853515625,-0.6280517578125,1.0,2.0,1.0,1.0,2.0,90.0,event
15:18:45.349,0.441809,0.5680634,0.12170631,0.793667,0.279709,0.07962407,-0.06797376,0.24612199,0.36151394,0.07814188,0.15483196,0.44347328,0.57350826,0.17910393,-0.06419081,0.8611371,0.6636411,-0.18600309,-0.067145765,0.7432396,797.8022,809.0842,786.1172,794.17584,759.5238,-0.308349609375,0.03094482421875,0.9515380859375,2.82623291015625,-2.4224853515625,-0.6280517578125,1.0,2.0,1.0,1.0,2.0,90.0,event
15:18:45.350,0.441809,0.5680634,0.12170631,0.793667,0.279709,0.07962407,-0.06797376,0.24612199,0.36151394,0.07814188,0.15483196,0.44347328,0.57350826,0.17910393,-0.06419081,0.8611371,0.6636411,-0.18600309,-0.067145765,0.7432396,781.28204,804.2491,794.17584,770.0,776.04395,-0.308349609375,0.03094482421875,0.9515380859375,2.82623291015625,-2.4224853515625,-0.6280517578125,1.0,2.0,1.0,1.0,2.0,90.0,event
15:18:45.351,0.441809,0.5680634,0.12170631,0.793667,0.279709,0.07962407,-0.06797376,0.24612199,0.36151394,0.07814188,0.15483196,0.44347328,0.57350826,0.17910393,-0.06419081,0.8611371,0.6636411,-0.18600309,-0.067145765,0.7432396,772.8205,796.5934,796.5934,784.90845,720.84247,-0.308349609375,0.03094482421875,0.9515380859375,2.82623291015625,-2.4224853515625,-0.6280517578125,1.0,2.0,1.0,1.0,2.0,90.0,event
15:18:45.351,0.441809,0.5680634,0.12170631,0.793667,0.279709,0.07962407,-0.06797376,0.24612199,0.36151394,0.07814188,0.15483196,0.44347328,0.57350826,0.17910393,-0.06419081,0.8611371,0.6636411,-0.18600309,-0.067145765,0.7432396,770.0,793.7729,793.36993,792.1612,736.55676,-0.308349609375,0.03094482421875,0.9515380859375,2.82623291015625,-2.4224853515625,-0.6280517578125,1.0,2.0,1.0,1.0,2.0,90.0,event
15:18:45.352,0.441809,0.5680634,0.12170631,0.793667,0.279709,0.07962407,-0.06797376,0.24612199,0.36151394,0.07814188,0.15483196,0.44347328,0.57350826,0.17910393,-0.06419081,0.8611371,0.6636411,-0.18600309,-0.067145765,0.7432396,784.5055,792.96704,791.3553,791.3553,778.0586,-0.308349609375,0.03094482421875,0.9515380859375,2.82623291015625,-2.4224853515625,-0.6280517578125,1.0,2.0,1.0,1.0,2.0,90.0,event
15:18:45.352,0.441809,0.5680634,0.12170631,0.793667,0.279709,0.07962407,-0.06797376,0.24612199,0.36151394,0.07814188,0.15483196,0.44347328,0.57350826,0.17910393,-0.06419081,0.8611371,0.6636411,-0.18600309,-0.067145765,0.7432396,771.2088,793.7729,803.0403,792.1612,774.0293,-0.308349609375,0.03094482421875,0.9515380859375,2.82623291015625,-2.4224853515625,-0.6280517578125,1.0,2.0,1.0,1.0,2.0,90.0,event
15:18:45.353,0.441809,0.5680634,0.12170631,0.793667,0.279709,0.07962407,-0.06797376,0.24612199,0.36151394,0.07814188,0.15483196,0.44347328,0.57350826,0.17910393,-0.06419081,0.8611371,0.6636411,-0.18600309,-0.067145765,0.7432396,763.95605,791.75824,807.0696,778.86444,728.49817,-0.308349609375,0.03094482421875,0.9515380859375,2.82623291015625,-2.4224853515625,-0.6280517578125,1.0,2.0,1.0,1.0,2.0,90.0,event
15:18:45.353,0.441809,0.5680634,0.12170631,0.793667,0.279709,0.07962407,-0.06797376,0.24612199,0.36151394,0.07814188,0.15483196,0.44347328,0.57350826,0.17910393,-0.06419081,0.8611371,0.6636411,-0.18600309,-0.067145765,0.7432396,779.67035,792.96704,802.6374,788.1319,865.89746,-0.308349609375,0.03094482421875,0.9515380859375,2.82623291015625,-2.4224853515625,-0.6280517578125,1.0,2.0,1.0,1.0,2.0,90.0,event
15:18:45.354,0.441809,0.5680634,0.12170631,0.793667,0.279709,0.07962407,-0.06797376,0.24612199,0.36151394,0.07814188,0.15483196,0.44347328,0.57350826,0.17910393,-0.06419081,0.8611371,0.6636411,-0.18600309,-0.067145765,0.7432396,769.19415,796.99634,797.3993,767.5824,1106.8499,-0.308349609375,0.03094482421875,0.9515380859375,2.82623291015625,-2.4224853515625,-0.6280517578125,1.0,2.0,1.0,1.0,2.0,90.0,event
15:18:45.355,0.441809,0.5680634,0.12170631,0.793667,0.279709,0.07962407,-0.06797376,0.24612199,0.36151394,0.07814188,0.15483196,0.44347328,0.57350826,0.17910393,-0.06419081,0.8611371,0.6636411,-0.18600309,-0.067145765,0.7432396,753.0769,796.1905,796.99634,757.50916,853.00366,-0.308349609375,0.03094482421875,0.9515380859375,2.82623291015625,-2.4224853515625,-0.6280517578125,1.0,2.0,1.0,1.0,2.0,90.0,event
15:18:45.355,0.441809,0.5680634,0.12170631,0.793667,0.279709,0.07962407,-0.06797376,0.24612199,0.36151394,0.07814188,0.15483196,0.44347328,0.57350826,0.17910393,-0.06419081,0.8611371,0.6636411,-0.18600309,-0.067145765,0.7432396,767.1795,791.75824,798.20514,784.90845,729.304,-0.308349609375,0.03094482421875,0.9515380859375,2.82623291015625,-2.4224853515625,-0.6280517578125,1.0,2.0,1.0,1.0,2.0,90.0,event
15:18:45.380,0.441809,0.5680634,0.12170631,0.793667,0.279709,0.07962407,-0.06797376,0.24612199,0.36151394,0.07814188,0.15483196,0.44347328,0.57350826,0.17910393,-0.06419081,0.8611371,0.6636411,-0.18600309,-0.067145765,0.7432396,795.38464,796.5934,798.20514,803.8461,853.4066,-0.313232421875,0.02880859375,0.93389892578125,2.16827392578125,-5.1141357421875,0.112152099609375,1.0,2.0,1.0,1.0,2.0,90.0,event
15:18:45.381,0.441809,0.5680634,0.12170631,0.793667,0.279709,0.07962407,-0.06797376,0.24612199,0.36151394,0.07814188,0.15483196,0.44347328,0.57350826,0.17910393,-0.06419081,0.8611371,0.6636411,-0.18600309,-0.067145765,0.7432396,807.0696,797.3993,804.2491,815.9341,779.67035,-0.313232421875,0.02880859375,0.93389892578125,2.16827392578125,-5.1141357421875,0.112152099609375,1.0,2.0,1.0,1.0,2.0,90.0,event
15:18:45.382,0.441809,0.5680634,0.12170631,0.793667,0.279709,0.07962407,-0.06797376,0.24612199,0.36151394,0.07814188,0.15483196,0.44347328,0.57350826,0.17910393,-0.06419081,0.8611371,0.6636411,-0.18600309,-0.067145765,0.7432396,782.49084,791.3553,805.05493,810.293,667.25275,-0.313232421875,0.02880859375,0.93389892578125,2.16827392578125,-5.1141357421875,0.112152099609375,1.0,2.0,1.0,1.0,2.0,90.0,event
15:18:45.382,0.441809,0.5680634,0.12170631,0.793667,0.279709,0.07962407,-0.06797376,0.24612199,0.36151394,0.07814188,0.15483196,0.44347328,0.57350826,0.17910393,-0.06419081,0.8611371,0.6636411,-0.18600309,-0.067145765,0.7432396,778.46155,793.36993,808.68134,793.36993,643.47986,-0.313232421875,0.02880859375,0.93389892578125,2.16827392578125,-5.1141357421875,0.112152099609375,1.0,2.0,1.0,1.0,2.0,90.0,event
15:18:45.383,0.441809,0.5680634,0.12170631,0.793667,0.279709,0.07962407,-0.06797376,0.24612199,0.36151394,0.07814188,0.15483196,0.44347328,0.57350826,0.17910393,-0.06419081,0.8611371,0.6636411,-0.18600309,-0.067145765,0.7432396,786.9231,799.41394,806.26373,794.9817,743.8095,-0.313232421875,0.02880859375,0.93389892578125,2.16827392578125,-5.1141357421875,0.112152099609375,1.0,2.0,1.0,1.0,2.0,90.0,event
15:18:45.384,0.441809,0.5680634,0.12170631,0.793667,0.279709,0.07962407,-0.06797376,0.24612199,0.36151394,0.07814188,0.15483196,0.44347328,0.57350826,0.17910393,-0.06419081,0.8611371,0.6636411,-0.18600309,-0.067145765,0.7432396,787.326,797.8022,803.0403,791.75824,802.6374,-0.313232421875,0.02880859375,0.93389892578125,2.16827392578125,-5.1141357421875,0.112152099609375,1.0,2.0,1.0,1.0,2.0,90.0,event
15:18:45.384,0.441809,0.5680634,0.12170631,0.793667,0.279709,0.07962407,-0.06797376,0.24612199,0.36151394,0.07814188,0.15483196,0.44347328,0.57350826,0.17910393,-0.06419081,0.8611371,0.6636411,-0.18600309,-0.067145765,0.7432396,782.8938,795.38464,807.0696,782.8938,804.65204,-0.313232421875,0.02880859375,0.93389892578125,2.16827392578125,-5.1141357421875,0.112152099609375,1.0,2.0,1.0,1.0,2.0,90.0,event
15:18:45.385,0.441809,0.5680634,0.12170631,0.793667,0.279709,0.07962407,-0.06797376,0.24612199,0.36151394,0.07814188,0.15483196,0.44347328,0.57350826,0.17910393,-0.06419081,0.8611371,0.6636411,-0.18600309,-0.067145765,0.7432396,776.8498,794.17584,803.44324,766.3736,801.4286,-0.313232421875,0.02880859375,0.93389892578125,2.16827392578125,-5.1141357421875,0.112152099609375,1.0,2.0,1.0,1.0,2.0,90.0,event
15:18:45.385,0.441809,0.5680634,0.12170631,0.793667,0.279709,0.07962407,-0.06797376,0.24612199,0.36151394,0.07814188,0.15483196,0.44347328,0.57350826,0.17910393,-0.06419081,0.8611371,0.6636411,-0.18600309,-0.067145765,0.7432396,780.87915,791.3553,804.65204,776.4469,976.30035,-0.313232421875,0.02880859375,0.93389892578125,2.16827392578125,-5.1141357421875,0.112152099609375,1.0,2.0,1.0,1.0,2.0,90.0,event
15:18:45.386,0.441809,0.58714443,0.13784456,0.793667,0.279709,0.10251166,-0.080186374,0.24612199,0.36151394,0.10602686,0.16842756,0.44347328,0.57350826,0.18257,-0.06372358,0.8611371,0.6636411,-0.19351728,-0.07152803,0.7432396,786.1172,794.57874,807.0696,789.7436,909.41394,-0.313232421875,0.02880859375,0.93389892578125,2.16827392578125,-5.1141357421875,0.112152099609375,1.0,2.0,1.0,1.0,2.0,90.0,event
15:18:45.390,0.441809,0.58714443,0.13784456,0.793667,0.279709,0.10251166,-0.080186374,0.24612199,0.36151394,0.10602686,0.16842756,0.44347328,0.57350826,0.18257,-0.06372358,0.8611371,0.6636411,-0.19351728,-0.07152803,0.7432396,786.1172,794.57874,813.5165,780.4762,876.3736,-0.313232421875,0.02880859375,0.93389892578125,2.16827392578125,-5.1141357421875,0.112152099609375,1.0,2.0,1.0,1.0,2.0,90.0,event
15:18:45.390,0.441809,0.58714443,0.13784456,0.793667,0.279709,0.10251166,-0.080186374,0.24612199,0.36151394,0.10602686,0.16842756,0.44347328,0.57350826,0.18257,-0.06372358,0.8611371,0.6636411,-0.19351728,-0.07152803,0.7432396,782.49084,792.96704,807.0696,780.07324,721.2454,-0.313232421875,0.02880859375,0.93389892578125,2.16827392578125,-5.1141357421875,0.112152099609375,1.0,2.0,1.0,1.0,2.0,90.0,event
15:18:45.444,0.441809,0.58714443,0.13784456,0.793667,0.279709,0.10251166,-0.080186374,0.24612199,0.36151394,0.10602686,0.16842756,0.44347328,0.57350826,0.18257,-0.06372358,0.8611371,0.6636411,-0.19351728,-0.07152803,0.7432396,786.9231,799.41394,815.12823,788.1319,915.8608,-0.309814453125,0.0323486328125,0.94036865234375,2.6318359375,-6.9384765625,0.530853271484375,1.0,2.0,1.0,1.0,2.0,90.0,event
15:18:45.445,0.441809,0.58714443,0.13784456,0.793667,0.279709,0.10251166,-0.080186374,0.24612199,0.36151394,0.10602686,0.16842756,0.44347328,0.57350826,0.18257,-0.06372358,0.8611371,0.6636411,-0.19351728,-0.07152803,0.7432396,775.64105,794.9817,813.91943,796.5934,774.0293,-0.309814453125,0.0323486328125,0.94036865234375,2.6318359375,-6.9384765625,0.530853271484375,1.0,2.0,1.0,1.0,2.0,90.0,event
15:18:45.446,0.441809,0.58714443,0.13784456,0.793667,0.279709,0.10251166,-0.080186374,0.24612199,0.36151394,0.10602686,0.16842756,0.44347328,0.57350826,0.18257,-0.06372358,0.8611371,0.6636411,-0.19351728,-0.07152803,0.7432396,778.0586,804.65204,813.91943,796.5934,747.4359,-0.309814453125,0.0323486328125,0.94036865234375,2.6318359375,-6.9384765625,0.530853271484375,1.0,2.0,1.0,1.0,2.0,90.0,event
15:18:45.447,0.441809,0.58714443,0.13784456,0.793667,0.279709,0.10251166,-0.080186374,0.24612199,0.36151394,0.10602686,0.16842756,0.44347328,0.57350826,0.18257,-0.06372358,0.8611371,0.6636411,-0.19351728,-0.07152803,0.7432396,784.10254,808.68134,810.293,786.52014,736.1539,-0.309814453125,0.0323486328125,0.94036865234375,2.6318359375,-6.9384765625,0.530853271484375,1.0,2.0,1.0,1.0,2.0,90.0,event
15:18:45.447,0.441809,0.58714443,0.13784456,0.793667,0.279709,0.10251166,-0.080186374,0.24612199,0.36151394,0.10602686,0.16842756,0.44347328,0.57350826,0.18257,-0.06372358,0.8611371,0.6636411,-0.19351728,-0.07152803,0.7432396,786.9231,788.1319,805.05493,802.23444,711.5751,-0.309814453125,0.0323486328125,0.94036865234375,2.6318359375,-6.9384765625,0.530853271484375,1.0,2.0,1.0,1.0,2.0,90.0,event
15:18:45.449,0.441809,0.58714443,0.13784456,0.793667,0.279709,0.10251166,-0.080186374,0.24612199,0.36151394,0.10602686,0.16842756,0.44347328,0.57350826,0.18257,-0.06372358,0.8611371,0.6636411,-0.19351728,-0.07152803,0.7432396,785.31134,784.90845,804.2491,809.4872,847.3626,-0.309814453125,0.0323486328125,0.94036865234375,2.6318359375,-6.9384765625,0.530853271484375,1.0,2.0,1.0,1.0,2.0,90.0,event
15:18:45.450,0.441809,0.58714443,0.13784456,0.793667,0.279709,0.10251166,-0.080186374,0.24612199,0.36151394,0.10602686,0.16842756,0.44347328,0.57350826,0.18257,-0.06372358,0.8611371,0.6636411,-0.19351728,-0.07152803,0.7432396,778.0586,785.7143,805.05493,775.2381,872.74725,-0.309814453125,0.0323486328125,0.94036865234375,2.6318359375,-6.9384765625,0.530853271484375,1.0,2.0,1.0,1.0,2.0,90.0,event
15:18:45.451,0.441809,0.58714443,0.13784456,0.793667,0.279709,0.10251166,-0.080186374,0.24612199,0.36151394,0.10602686,0.16842756,0.44347328,0.57350826,0.18257,-0.06372358,0.8611371,0.6636411,-0.19351728,-0.07152803,0.7432396,778.46155,785.31134,804.2491,770.40295,937.2161,-0.309814453125,0.0323486328125,0.94036865234375,2.6318359375,-6.9384765625,0.530853271484375,1.0,2.0,1.0,1.0,2.0,90.0,event
15:18:45.452,0.441809,0.58714443,0.13784456,0.793667,0.279709,0.10251166,-0.080186374,0.24612199,0.36151394,0.10602686,0.16842756,0.44347328,0.57350826,0.18257,-0.06372358,0.8611371,0.6636411,-0.19351728,-0.07152803,0.7432396,774.0293,787.326,804.65204,798.60803,1103.2234,-0.309814453125,0.0323486328125,0.94036865234375,2.6318359375,-6.9384765625,0.530853271484375,1.0,2.0,1.0,1.0,2.0,90.0,event
15:18:45.453,0.441809,0.58714443,0.13784456,0.793667,0.279709,0.10251166,-0.080186374,0.24612199,0.36151394,0.10602686,0.16842756,0.44347328,0.57350826,0.18257,-0.06372358,0.8611371,0.6636411,-0.19351728,-0.07152803,0.7432396,795.78754,801.4286,811.50183,791.75824,692.23444,-0.309814453125,0.0323486328125,0.94036865234375,2.6318359375,-6.9384765625,0.530853271484375,1.0,2.0,1.0,1.0,2.0,90.0,event
15:18:45.453,0.441809,0.58714443,0.13784456,0.793667,0.279709,0.10251166,-0.080186374,0.24612199,0.36151394,0.10602686,0.16842756,0.44347328,0.57350826,0.18257,-0.06372358,0.8611371,0.6636411,-0.19351728,-0.07152803,0.7432396,785.7143,803.44324,811.50183,796.99634,807.8755,-0.309814453125,0.0323486328125,0.94036865234375,2.6318359375,-6.9384765625,0.530853271484375,1.0,2.0,1.0,1.0,2.0,90.0,event
15:18:45.454,0.441809,0.58714443,0.13784456,0.793667,0.279709,0.10251166,-0.080186374,0.24612199,0.36151394,0.10602686,0.16842756,0.44347328,0.57350826,0.18257,-0.06372358,0.8611371,0.6636411,-0.19351728,-0.07152803,0.7432396,780.4762,788.93774,811.0989,790.14655,772.01465,-0.309814453125,0.0323486328125,0.94036865234375,2.6318359375,-6.9384765625,0.530853271484375,1.0,2.0,1.0,1.0,2.0,90.0,event
15:18:45.481,0.441809,0.58714443,0.13784456,0.793667,0.279709,0.10251166,-0.080186374,0.24612199,0.36151394,0.10602686,0.16842756,0.44347328,0.57350826,0.18257,-0.06372358,0.8611371,0.6636411,-0.19351728,-0.07152803,0.7432396,780.4762,794.17584,807.8755,786.1172,719.2308,-0.309814453125,0.0323486328125,0.94036865234375,2.6318359375,-6.9384765625,0.530853271484375,1.0,2.0,1.0,1.0,2.0,90.0,event
15:18:45.482,0.441809,0.58714443,0.13784456,0.793667,0.279709,0.10251166,-0.080186374,0.24612199,0.36151394,0.10602686,0.16842756,0.44347328,0.57350826,0.18257,-0.06372358,0.8611371,0.6636411,-0.19351728,-0.07152803,0.7432396,776.8498,794.57874,801.4286,784.10254,734.1392,-0.309814453125,0.0323486328125,0.94036865234375,2.6318359375,-6.9384765625,0.530853271484375,1.0,2.0,1.0,1.0,2.0,90.0,event
15:18:45.482,0.441809,0.58714443,0.13784456,0.793667,0.279709,0.10251166,-0.080186374,0.24612199,0.36151394,0.10602686,0.16842756,0.44347328,0.57350826,0.18257,-0.06372358,0.8611371,0.6636411,-0.19351728,-0.07152803,0.7432396,779.2674,791.3553,809.4872,783.69965,832.4542,-0.309814453125,0.0323486328125,0.94036865234375,2.6318359375,-6.9384765625,0.530853271484375,1.0,2.0,1.0,1.0,2.0,90.0,event
15:18:45.483,0.441809,0.58714443,0.13784456,0.793667,0.279709,0.10251166,-0.080186374,0.24612199,0.36151394,0.10602686,0.16842756,0.44347328,0.57350826,0.18257,-0.06372358,0.8611371,0.6636411,-0.19351728,-0.07152803,0.7432396,788.1319,791.3553,817.1429,790.9524,929.5604,-0.309814453125,0.0323486328125,0.94036865234375,2.6318359375,-6.9384765625,0.530853271484375,1.0,2.0,1.0,1.0,2.0,90.0,event
15:18:45.483,0.441809,0.58714443,0.13784456,0.793667,0.279709,0.10251166,-0.080186374,0.24612199,0.36151394,0.10602686,0.16842756,0.44347328,0.57350826,0.18257,-0.06372358,0.8611371,0.6636411,-0.19351728,-0.07152803,0.7432396,781.685,792.1612,809.4872,790.54944,807.0696,-0.309814453125,0.0323486328125,0.94036865234375,2.6318359375,-6.9384765625,0.530853271484375,1.0,2.0,1.0,1.0,2.0,90.0,event
15:18:45.484,0.441809,0.58714443,0.13784456,0.793667,0.279709,0.10251166,-0.080186374,0.24612199,0.36151394,0.10602686,0.16842756,0.44347328,0.57350826,0.18257,-0.06372358,0.8611371,0.6636411,-0.19351728,-0.07152803,0.7432396,780.4762,797.3993,803.8461,786.52014,783.2967,-0.309814453125,0.0323486328125,0.94036865234375,2.6318359375,-6.9384765625,0.530853271484375,1.0,2.0,1.0,1.0,2.0,90.0,event
15:18:45.485,0.441809,0.58714443,0.13784456,0.793667,0.279709,0.10251166,-0.080186374,0.24612199,0.36151394,0.10602686,0.16842756,0.44347328,0.57350826,0.18257,-0.06372358,0.8611371,0.6636411,-0.19351728,-0.07152803,0.7432396,791.75824,800.6227,816.7399,792.5641,892.8938,-0.309814453125,0.0323486328125,0.94036865234375,2.6318359375,-6.9384765625,0.530853271484375,1.0,2.0,1.0,1.0,2.0,90.0,event
15:18:45.485,0.441809,0.58714443,0.13784456,0.793667,0.279709,0.10251166,-0.080186374,0.24612199,0.36151394,0.10602686,0.16842756,0.44347328,0.57350826,0.18257,-0.06372358,0.8611371,0.6636411,-0.19351728,-0.07152803,0.7432396,783.69965,804.65204,810.293,795.38464,873.95605,-0.309814453125,0.0323486328125,0.94036865234375,2.6318359375,-6.9384765625,0.530853271484375,1.0,2.0,1.0,1.0,2.0,90.0,event
15:18:45.486,0.441809,0.58714443,0.13784456,0.793667,0.279709,0.10251166,-0.080186374,0.24612199,0.36151394,0.10602686,0.16842756,0.44347328,0.57350826,0.18257,-0.06372358,0.8611371,0.6636411,-0.19351728,-0.07152803,0.7432396,779.67035,800.2198,812.71063,793.7729,719.2308,-0.309814453125,0.0323486328125,0.94036865234375,2.6318359375,-6.9384765625,0.530853271484375,1.0,2.0,1.0,1.0,2.0,90.0,event
15:18:45.486,0.441809,0.58714443,0.13784456,0.793667,0.279709,0.10251166,-0.080186374,0.24612199,0.36151394,0.10602686,0.16842756,0.44347328,0.57350826,0.18257,-0.06372358,0.8611371,0.6636411,-0.19351728,-0.07152803,0.7432396,790.54944,803.44324,810.696,792.96704,772.4176,-0.309814453125,0.0323486328125,0.94036865234375,2.6318359375,-6.9384765625,0.530853271484375,1.0,2.0,1.0,1.0,2.0,90.0,event
15:18:45.487,0.441809,0.58714443,0.13784456,0.793667,0.279709,0.10251166,-0.080186374,0.24612199,0.36151394,0.10602686,0.16842756,0.44347328,0.57350826,0.18257,-0.06372358,0.8611371,0.6636411,-0.19351728,-0.07152803,0.7432396,784.5055,783.69965,805.05493,781.685,778.46155,-0.309814453125,0.0323486328125,0.94036865234375,2.6318359375,-6.9384765625,0.530853271484375,1.0,2.0,1.0,1.0,2.0,90.0,event
15:18:45.487,0.441809,0.61795783,0.17957585,0.793667,0.279709,0.13517717,-0.049655266,0.24612199,0.36151394,0.16558644,0.22848608,0.44347328,0.57350826,0.18741079,-0.019580258,0.8611371,0.6636411,-0.19453983,-0.037876904,0.7432396,799.011,785.31134,803.8461,785.7143,882.8205,-0.309814453125,0.0323486328125,0.94036865234375,2.6318359375,-6.9384765625,0.530853271484375,1.0,2.0,1.0,1.0,2.0,90.0,event
15:18:45.528,0.441809,0.61795783,0.17957585,0.793667,0.279709,0.13517717,-0.049655266,0.24612199,0.36151394,0.16558644,0.22848608,0.44347328,0.57350826,0.18741079,-0.019580258,0.8611371,0.6636411,-0.19453983,-0.037876904,0.7432396,790.54944,795.38464,813.5165,796.1905,782.0879,-0.29498291015625,0.03436279296875,0.9388427734375,2.235565185546875,-4.373931884765625,1.2261962890625,1.0,2.0,1.0,1.0,2.0,90.0,event
15:18:45.529,0.441809,0.61795783,0.17957585,0.793667,0.279709,0.13517717,-0.049655266,0.24612199,0.36151394,0.16558644,0.22848608,0.44347328,0.57350826,0.18741079,-0.019580258,0.8611371,0.6636411,-0.19453983,-0.037876904,0.7432396,802.6374,796.1905,807.8755,803.8461,709.15753,-0.29498291015625,0.03436279296875,0.9388427734375,2.235565185546875,-4.373931884765625,1.2261962890625,1.0,2.0,1.0,1.0,2.0,90.0,event
15:18:45.530,0.441809,0.61795783,0.17957585,0.793667,0.279709,0.13517717,-0.049655266,0.24612199,0.36151394,0.16558644,0.22848608,0.44347328,0.57350826,0.18741079,-0.019580258,0.8611371,0.6636411,-0.19453983,-0.037876904,0.7432396,803.8461,793.7729,804.65204,794.57874,776.4469,-0.29498291015625,0.03436279296875,0.9388427734375,2.235565185546875,-4.373931884765625,1.2261962890625,1.0,2.0,1.0,1.0,2.0,90.0,event
15:18:45.530,0.441809,0.61795783,0.17957585,0.793667,0.279709,0.13517717,-0.049655266,0.24612199,0.36151394,0.16558644,0.22848608,0.44347328,0.57350826,0.18741079,-0.019580258,0.8611371,0.6636411,-0.19453983,-0.037876904,0.7432396,785.31134,794.57874,804.2491,784.10254,784.90845,-0.29498291015625,0.03436279296875,0.9388427734375,2.235565185546875,-4.373931884765625,1.2261962890625,1.0,2.0,1.0,1.0,2.0,90.0,event
15:18:45.531,0.441809,0.61795783,0.17957585,0.793667,0.279709,0.13517717,-0.049655266,0.24612199,0.36151394,0.16558644,0.22848608,0.44347328,0.57350826,0.18741079,-0.019580258,0.8611371,0.6636411,-0.19453983,-0.037876904,0.7432396,780.07324,790.9524,803.8461,787.326,743.4066,-0.29498291015625,0.03436279296875,0.9388427734375,2.235565185546875,-4.373931884765625,1.2261962890625,1.0,2.0,1.0,1.0,2.0,90.0,event
15:18:45.532,0.441809,0.61795783,0.17957585,0.793667,0.279709,0.13517717,-0.049655266,0.24612199,0.36151394,0.16558644,0.22848608,0.44347328,0.57350826,0.18741079,-0.019580258,0.8611371,0.6636411,-0.19453983,-0.037876904,0.7432396,780.07324,790.14655,806.6667,775.64105,1019.41394,-0.29498291015625,0.03436279296875,0.9388427734375,2.235565185546875,-4.373931884765625,1.2261962890625,1.0,2.0,1.0,1.0,2.0,90.0,event
15:18:45.532,0.441809,0.61795783,0.17957585,0.793667,0.279709,0.13517717,-0.049655266,0.24612199,0.36151394,0.16558644,0.22848608,0.44347328,0.57350826,0.18741079,-0.019580258,0.8611371,0.6636411,-0.19453983,-0.037876904,0.7432396,772.01465,786.52014,803.8461,776.4469,786.9231,-0.29498291015625,0.03436279296875,0.9388427734375,2.235565185546875,-4.373931884765625,1.2261962890625,1.0,2.0,1.0,1.0,2.0,90.0,event
15:18:45.533,0.441809,0.61795783,0.17957585,0.793667,0.279709,0.13517717,-0.049655266,0.24612199,0.36151394,0.16558644,0.22848608,0.44347328,0.57350826,0.18741079,-0.019580258,0.8611371,0.6636411,-0.19453983,-0.037876904,0.7432396,776.04395,800.6227,808.68134,781.685,1192.2711,-0.29498291015625,0.03436279296875,0.9388427734375,2.235565185546875,-4.373931884765625,1.2261962890625,1.0,2.0,1.0,1.0,2.0,90.0,event
15:18:45.534,0.441809,0.61795783,0.17957585,0.793667,0.279709,0.13517717,-0.049655266,0.24612199,0.36151394,0.16558644,0.22848608,0.44347328,0.57350826,0.18741079,-0.019580258,0.8611371,0.6636411,-0.19453983,-0.037876904,0.7432396,788.5348,801.02563,813.1135,781.685,683.7729,-0.29498291015625,0.03436279296875,0.9388427734375,2.235565185546875,-4.373931884765625,1.2261962890625,1.0,2.0,1.0,1.0,2.0,90.0,event
15:18:45.534,0.441809,0.61795783,0.17957585,0.793667,0.279709,0.13517717,-0.049655266,0.24612199,0.36151394,0.16558644,0.22848608,0.44347328,0.57350826,0.18741079,-0.019580258,0.8611371,0.6636411,-0.19453983,-0.037876904,0.7432396,768.7912,804.2491,815.5311,773.22345,855.42126,-0.29498291015625,0.03436279296875,0.9388427734375,2.235565185546875,-4.373931884765625,1.2261962890625,1.0,2.0,1.0,1.0,2.0,90.0,event
15:18:45.535,0.441809,0.61795783,0.17957585,0.793667,0.279709,0.13517717,-0.049655266,0.24612199,0.36151394,0.16558644,0.22848608,0.44347328,0.57350826,0.18741079,-0.019580258,0.8611371,0.6636411,-0.19453983,-0.037876904,0.7432396,763.95605,786.52014,801.8315,788.93774,752.27106,-0.29498291015625,0.03436279296875,0.9388427734375,2.235565185546875,-4.373931884765625,1.2261962890625,1.0,2.0,1.0,1.0,2.0,90.0,event
15:18:45.535,0.441809,0.61795783,0.17957585,0.793667,0.279709,0.13517717,-0.049655266,0.24612199,0.36151394,0.16558644,0.22848608,0.44347328,0.57350826,0.18741079,-0.019580258,0.8611371,0.6636411,-0.19453983,-0.037876904,0.7432396,782.8938,790.9524,798.20514,780.07324,761.13556,-0.29498291015625,0.03436279296875,0.9388427734375,2.235565185546875,-4.373931884765625,1.2261962890625,1.0,2.0,1.0,1.0,2.0,90.0,event
15:18:45.610,0.441809,0.61795783,0.17957585,0.793667,0.279709,0.13517717,-0.049655266,0.24612199,0.36151394,0.16558644,0.22848608,0.44347328,0.57350826,0.18741079,-0.019580258,0.8611371,0.6636411,-0.19453983,-0.037876904,0.7432396,764.35895,790.54944,805.8608,786.52014,686.99634,-0.29827880859375,0.03350830078125,0.94232177734375,1.712188720703125,-0.0,1.248626708984375,1.0,2.0,1.0,1.0,2.0,90.0,event
15:18:45.611,0.441809,0.61795783,0.17957585,0.793667,0.279709,0.13517717,-0.049655266,0.24612199,0.36151394,0.16558644,0.22848608,0.44347328,0.57350826,0.18741079,-0.019580258,0.8611371,0.6636411,-0.19453983,-0.037876904,0.7432396,772.01465,798.20514,807.0696,777.25275,661.6117,-0.29827880859375,0.03350830078125,0.94232177734375,1.712188720703125,-0.0,1.248626708984375,1.0,2.0,1.0,1.0,2.0,90.0,event
15:18:45.612,0.441809,0.61795783,0.17957585,0.793667,0.279709,0.13517717,-0.049655266,0.24612199,0.36151394,0.16558644,0.22848608,0.44347328,0.57350826,0.18741079,-0.019580258,0.8611371,0.6636411,-0.19453983,-0.037876904,0.7432396,780.07324,803.0403,807.8755,780.4762,790.9524,-0.29827880859375,0.03350830078125,0.94232177734375,1.712188720703125,-0.0,1.248626708984375,1.0,2.0,1.0,1.0,2.0,90.0,event
15:18:45.613,0.441809,0.61795783,0.17957585,0.793667,0.279709,0.13517717,-0.049655266,0.24612199,0.36151394,0.16558644,0.22848608,0.44347328,0.57350826,0.18741079,-0.019580258,0.8611371,0.6636411,-0.19453983,-0.037876904,0.7432396,774.0293,796.99634,801.4286,778.0586,767.1795,-0.29827880859375,0.03350830078125,0.94232177734375,1.712188720703125,-0.0,1.248626708984375,1.0,2.0,1.0,1.0,2.0,90.0,event
15:18:45.613,0.441809,0.61795783,0.17957585,0.793667,0.279709,0.13517717,-0.049655266,0.24612199,0.36151394,0.16558644,0.22848608,0.44347328,0.57350826,0.18741079,-0.019580258,0.8611371,0.6636411,-0.19453983,-0.037876904,0.7432396,771.6117,790.9524,801.8315,770.40295,704.7253,-0.29827880859375,0.03350830078125,0.94232177734375,1.712188720703125,-0.0,1.248626708984375,1.0,2.0,1.0,1.0,2.0,90.0,event
15:18:45.614,0.441809,0.61795783,0.17957585,0.793667,0.279709,0.13517717,-0.049655266,0.24612199,0.36151394,0.16558644,0.22848608,0.44347328,0.57350826,0.18741079,-0.019580258,0.8611371,0.6636411,-0.19453983,-0.037876904,0.7432396,785.7143,789.7436,809.4872,780.07324,855.82416,-0.29827880859375,0.03350830078125,0.94232177734375,1.712188720703125,-0.0,1.248626708984375,1.0,2.0,1.0,1.0,2.0,90.0,event
15:18:45.615,0.441809,0.61795783,0.17957585,0.793667,0.279709,0.13517717,-0.049655266,0.24612199,0.36151394,0.16558644,0.22848608,0.44347328,0.57350826,0.18741079,-0.019580258,0.8611371,0.6636411,-0.19453983,-0.037876904,0.7432396,784.10254,786.52014,813.1135,798.60803,1042.381,-0.29827880859375,0.03350830078125,0.94232177734375,1.712188720703125,-0.0,1.248626708984375,1.0,2.0,1.0,1.0,2.0,90.0,event
15:18:45.616,0.441809,0.61795783,0.17957585,0.793667,0.279709,0.13517717,-0.049655266,0.24612199,0.36151394,0.16558644,0.22848608,0.44347328,0.57350826,0.18741079,-0.019580258,0.8611371,0.6636411,-0.19453983,-0.037876904,0.7432396,783.69965,787.326,803.44324,798.20514,894.10254,-0.29827880859375,0.03350830078125,0.94232177734375,1.712188720703125,-0.0,1.248626708984375,1.0,2.0,1.0,1.0,2.0,90.0,event
15:18:45.616,0.441809,0.61795783,0.17957585,0.793667,0.279709,0.13517717,-0.049655266,0.24612199,0.36151394,0.16558644,0.22848608,0.44347328,0.57350826,0.18741079,-0.019580258,0.8611371,0.6636411,-0.19453983,-0.037876904,0.7432396,774.0293,794.9817,802.23444,773.6264,728.0952,-0.29827880859375,0.03350830078125,0.94232177734375,1.712188720703125,-0.0,1.248626708984375,1.0,2.0,1.0,1.0,2.0,90.0,event
15:18:45.617,0.441809,0.61795783,0.17957585,0.793667,0.279709,0.13517717,-0.049655266,0.24612199,0.36151394,0.16558644,0.22848608,0.44347328,0.57350826,0.18741079,-0.019580258,0.8611371,0.6636411,-0.19453983,-0.037876904,0.7432396,762.74725,799.41394,811.0989,772.8205,776.04395,-0.29827880859375,0.03350830078125,0.94232177734375,1.712188720703125,-0.0,1.248626708984375,1.0,2.0,1.0,1.0,2.0,90.0,event
15:18:45.618,0.441809,0.61795783,0.17957585,0.793667,0.279709,0.13517717,-0.049655266,0.24612199,0.36151394,0.16558644,0.22848608,0.44347328,0.57350826,0.18741079,-0.019580258,0.8611371,0.6636411,-0.19453983,-0.037876904,0.7432396,774.0293,798.20514,802.6374,779.67035,835.2747,-0.29827880859375,0.03350830078125,0.94232177734375,1.712188720703125,-0.0,1.248626708984375,1.0,2.0,1.0,1.0,2.0,90.0,event
15:18:45.618,0.441809,0.61795783,0.17957585,0.793667,0.279709,0.13517717,-0.049655266,0.24612199,0.36151394,0.16558644,0.22848608,0.44347328,0.57350826,0.18741079,-0.019580258,0.8611371,0.6636411,-0.19453983,-0.037876904,0.7432396,782.49084,796.1905,795.78754,759.5238,740.18317,-0.29827880859375,0.03350830078125,0.94232177734375,1.712188720703125,-0.0,1.248626708984375,1.0,2.0,1.0,1.0,2.0,90.0,event
15:18:45.644,0.441809,0.61795783,0.17957585,0.793667,0.279709,0.13517717,-0.049655266,0.24612199,0.36151394,0.16558644,0.22848608,0.44347328,0.57350826,0.18741079,-0.019580258,0.8611371,0.6636411,-0.19453983,-0.037876904,0.7432396,780.07324,798.20514,793.36993,772.4176,677.326,-0.306884765625,0.031494140625,0.9473876953125,1.77947998046875,-1.6448974609375,1.0467529296875,1.0,2.0,1.0,1.0,2.0,90.0,event
15:18:45.645,0.5379604,0.6507306,0.26476207,0.793667,0.089483164,0.17611901,0.036247972,0.24612199,0.19900057,0.2666747,0.29034737,0.44347328,0.70702285,0.19700822,0.0686651,0.8611371,0.34449783,-0.18159002,0.03626619,0.7432396,773.22345,799.41394,787.326,789.34064,718.022,-0.306884765625,0.031494140625,0.9473876953125,1.77947998046875,-1.6448974609375,1.0467529296875,1.0,2.0,1.0,1.0,2.0,90.0,event
15:18:45.648,0.5379604,0.6507306,0.26476207,0.793667,0.089483164,0.17611901,0.036247972,0.24612199,0.19900057,0.2666747,0.29034737,0.44347328,0.70702285,0.19700822,0.0686651,0.8611371,0.34449783,-0.18159002,0.03626619,0.7432396,793.7729,805.05493,791.75824,794.9817,716.4103,-0.306884765625,0.031494140625,0.9473876953125,1.77947998046875,-1.6448974609375,1.0467529296875,1.0,2.0,1.0,1.0,2.0,90.0,event
15:18:45.649,0.5379604,0.6507306,0.26476207,0.793667,0.089483164,0.17611901,0.036247972,0.24612199,0.19900057,0.2666747,0.29034737,0.44347328,0.70702285,0.19700822,0.0686651,0.8611371,0.34449783,-0.18159002,0.03626619,0.7432396,803.44324,803.44324,793.36993,795.38464,636.63007,-0.306884765625,0.031494140625,0.9473876953125,1.77947998046875,-1.6448974609375,1.0467529296875,1.0,2.0,1.0,1.0,2.0,90.0,event
15:18:45.650,0.5379604,0.6507306,0.26476207,0.793667,0.089483164,0.17611901,0.036247972,0.24612199,0.19900057,0.2666747,0.29034737,0.44347328,0.70702285,0.19700822,0.0686651,0.8611371,0.34449783,-0.18159002,0.03626619,0.7432396,796.1905,802.6374,790.54944,786.9231,608.022,-0.306884765625,0.031494140625,0.9473876953125,1.77947998046875,-1.6448974609375,1.0467529296875,1.0,2.0,1.0,1.0,2.0,90.0,event
15:18:45.650,0.5379604,0.6507306,0.26476207,0.793667,0.089483164,0.17611901,0.036247972,0.24612199,0.19900057,0.2666747,0.29034737,0.44347328,0.70702285,0.19700822,0.0686651,0.8611371,0.34449783,-0.18159002,0.03626619,0.7432396,788.5348,812.3077,802.23444,783.69965,826.0073,-0.306884765625,0.031494140625,0.9473876953125,1.77947998046875,-1.6448974609375,1.0467529296875,1.0,2.0,1.0,1.0,2.0,90.0,event
15:18:45.651,0.5379604,0.6507306,0.26476207,0.793667,0.089483164,0.17611901,0.036247972,0.24612199,0.19900057,0.2666747,0.29034737,0.44347328,0.70702285,0.19700822,0.0686651,0.8611371,0.34449783,-0.18159002,0.03626619,0.7432396,790.9524,811.50183,797.8022,785.7143,948.49817,-0.306884765625,0.031494140625,0.9473876953125,1.77947998046875,-1.6448974609375,1.0467529296875,1.0,2.0,1.0,1.0,2.0,90.0,event
15:18:45.652,0.5379604,0.6507306,0.26476207,0.793667,0.089483164,0.17611901,0.036247972,0.24612199,0.19900057,0.2666747,0.29034737,0.44347328,0.70702285,0.19700822,0.0686651,0.8611371,0.34449783,-0.18159002,0.03626619,0.7432396,795.78754,801.4286,793.7729,777.25275,799.81683,-0.306884765625,0.031494140625,0.9473876953125,1.77947998046875,-1.6448974609375,1.0467529296875,1.0,2.0,1.0,1.0,2.0,90.0,event
15:18:45.653,0.5379604,0.6507306,0.26476207,0.793667,0.089483164,0.17611901,0.036247972,0.24612199,0.19900057,0.2666747,0.29034737,0.44347328,0.70702285,0.19700822,0.0686651,0.8611371,0.34449783,-0.18159002,0.03626619,0.7432396,812.71063,802.23444,795.78754,802.6374,803.44324,-0.306884765625,0.031494140625,0.9473876953125,1.77947998046875,-1.6448974609375,1.0467529296875,1.0,2.0,1.0,1.0,2.0,90.0,event
15:18:45.653,0.5379604,0.6507306,0.26476207,0.793667,0.089483164,0.17611901,0.036247972,0.24612199,0.19900057,0.2666747,0.29034737,0.44347328,0.70702285,0.19700822,0.0686651,0.8611371,0.34449783,-0.18159002,0.03626619,0.7432396,804.65204,803.0403,797.3993,782.8938,728.0952,-0.306884765625,0.031494140625,0.9473876953125,1.77947998046875,-1.6448974609375,1.0467529296875,1.0,2.0,1.0,1.0,2.0,90.0,event
15:18:45.654,0.5379604,0.6507306,0.26476207,0.793667,0.089483164,0.17611901,0.036247972,0.24612199,0.19900057,0.2666747,0.29034737,0.44347328,0.70702285,0.19700822,0.0686651,0.8611371,0.34449783,-0.18159002,0.03626619,0.7432396,805.4579,799.011,799.011,805.05493,812.3077,-0.306884765625,0.031494140625,0.9473876953125,1.77947998046875,-1.6448974609375,1.0467529296875,1.0,2.0,1.0,1.0,2.0,90.0,event
15:18:45.655,0.5379604,0.6507306,0.26476207,0.793667,0.089483164,0.17611901,0.036247972,0.24612199,0.19900057,0.2666747,0.29034737,0.44347328,0.70702285,0.19700822,0.0686651,0.8611371,0.34449783,-0.18159002,0.03626619,0.7432396,806.6667,804.65204,794.17584,795.38464,801.02563,-0.306884765625,0.031494140625,0.9473876953125,1.77947998046875,-1.6448974609375,1.0467529296875,1.0,2.0,1.0,1.0,2.0,90.0,event
15:18:45.683,0.5379604,0.6507306,0.26476207,0.793667,0.089483164,0.17611901,0.036247972,0.24612199,0.19900057,0.2666747,0.29034737,0.44347328,0.70702285,0.19700822,0.0686651,0.8611371,0.34449783,-0.18159002,0.03626619,0.7432396,802.6374,809.4872,790.54944,785.31134,823.9927,-0.3140869140625,0.0380859375,0.93975830078125,1.83929443359375,-2.6019287109375,0.919647216796875,1.0,2.0,1.0,1.0,2.0,90.0,event
15:18:45.685,0.5379604,0.6507306,0.26476207,0.793667,0.089483164,0.17611901,0.036247972,0.24612199,0.19900057,0.2666747,0.29034737,0.44347328,0.70702285,0.19700822,0.0686651,0.8611371,0.34449783,-0.18159002,0.03626619,0.7432396,805.4579,808.68134,796.1905,792.96704,950.5128,-0.3140869140625,0.0380859375,0.93975830078125,1.83929443359375,-2.6019287109375,0.919647216796875,1.0,2.0,1.0,1.0,2.0,90.0,event
15:18:45.686,0.5379604,0.6507306,0.26476207,0.793667,0.089483164,0.17611901,0.036247972,0.24612199,0.19900057,0.2666747,0.29034737,0.44347328,0.70702285,0.19700822,0.0686651,0.8611371,0.34449783,-0.18159002,0.03626619,0.7432396,792.5641,797.3993,794.57874,792.5641,887.6557,-0.3140869140625,0.0380859375,0.93975830078125,1.83929443359375,-2.6019287109375,0.919647216796875,1.0,2.0,1.0,1.0,2.0,90.0,event
15:18:45.687,0.5379604,0.6507306,0.26476207,0.793667,0.089483164,0.17611901,0.036247972,0.24612199,0.19900057,0.2666747,0.29034737,0.44347328,0.70702285,0.19700822,0.0686651,0.8611371,0.34449783,-0.18159002,0.03626619,0.7432396,784.5055,797.8022,797.3993,786.1172,683.36993,-0.3140869140625,0.0380859375,0.93975830078125,1.83929443359375,-2.6019287109375,0.919647216796875,1.0,2.0,1.0,1.0,2.0,90.0,event
15:18:45.688,0.5379604,0.6507306,0.26476207,0.793667,0.089483164,0.17611901,0.036247972,0.24612199,0.19900057,0.2666747,0.29034737,0.44347328,0.70702285,0.19700822,0.0686651,0.8611371,0.34449783,-0.18159002,0.03626619,0.7432396,789.34064,805.8608,804.2491,793.7729,755.4945,-0.3140869140625,0.0380859375,0.93975830078125,1.83929443359375,-2.6019287109375,0.919647216796875,1.0,2.0,1.0,1.0,2.0,90.0,event
15:18:45.692,0.5379604,0.6507306,0.26476207,0.793667,0.089483164,0.17611901,0.036247972,0.24612199,0.19900057,0.2666747,0.29034737,0.44347328,0.70702285,0.19700822,0.0686651,0.8611371,0.34449783,-0.18159002,0.03626619,0.7432396,778.46155,803.0403,797.8022,781.28204,928.7546,-0.3140869140625,0.0380859375,0.93975830078125,1.83929443359375,-2.6019287109375,0.919647216796875,1.0,2.0,1.0,1.0,2.0,90.0,event
15:18:45.694,0.5379604,0.6507306,0.26476207,0.793667,0.089483164,0.17611901,0.036247972,0.24612199,0.19900057,0.2666747,0.29034737,0.44347328,0.70702285,0.19700822,0.0686651,0.8611371,0.34449783,-0.18159002,0.03626619,0.7432396,787.72894,799.81683,794.9817,788.93774,873.5531,-0.3140869140625,0.0380859375,0.93975830078125,1.83929443359375,-2.6019287109375,0.919647216796875,1.0,2.0,1.0,1.0,2.0,90.0,event
15:18:45.695,0.5379604,0.6507306,0.26476207,0.793667,0.089483164,0.17611901,0.036247972,0.24612199,0.19900057,0.2666747,0.29034737,0.44347328,0.70702285,0.19700822,0.0686651,0.8611371,0.34449783,-0.18159002,0.03626619,0.7432396,807.47253,800.2198,803.8461,800.6227,695.4579,-0.3140869140625,0.0380859375,0.93975830078125,1.83929443359375,-2.6019287109375,0.919647216796875,1.0,2.0,1.0,1.0,2.0,90.0,event
15:18:45.697,0.5379604,0.6507306,0.26476207,0.793667,0.089483164,0.17611901,0.036247972,0.24612199,0.19900057,0.2666747,0.29034737,0.44347328,0.70702285,0.19700822,0.0686651,0.8611371,0.34449783,-0.18159002,0.03626619,0.7432396,799.011,800.6227,801.02563,793.36993,689.41394,-0.3140869140625,0.0380859375,0.93975830078125,1.83929443359375,-2.6019287109375,0.919647216796875,1.0,2.0,1.0,1.0,2.0,90.0,event
15:18:45.699,0.5379604,0.6507306,0.26476207,0.793667,0.089483164,0.17611901,0.036247972,0.24612199,0.19900057,0.2666747,0.29034737,0.44347328,0.70702285,0.19700822,0.0686651,0.8611371,0.34449783,-0.18159002,0.03626619,0.7432396,807.0696,799.41394,798.20514,806.26373,925.12823,-0.3140869140625,0.0380859375,0.93975830078125,1.83929443359375,-2.6019287109375,0.919647216796875,1.0,2.0,1.0,1.0,2.0,90.0,event
15:18:45.700,0.5379604,0.6507306,0.26476207,0.793667,0.089483164,0.17611901,0.036247972,0.24612199,0.19900057,0.2666747,0.29034737,0.44347328,0.70702285,0.19700822,0.0686651,0.8611371,0.34449783,-0.18159002,0.03626619,0.7432396,812.3077,801.8315,801.8315,811.50183,884.43225,-0.3140869140625,0.0380859375,0.93975830078125,1.83929443359375,-2.6019287109375,0.919647216796875,1.0,2.0,1.0,1.0,2.0,90.0,event
15:18:45.701,0.5379604,0.6507306,0.26476207,0.793667,0.089483164,0.17611901,0.036247972,0.24612199,0.19900057,0.2666747,0.29034737,0.44347328,0.70702285,0.19700822,0.0686651,0.8611371,0.34449783,-0.18159002,0.03626619,0.7432396,801.8315,803.8461,795.38464,803.44324,738.97437,-0.3140869140625,0.0380859375,0.93975830078125,1.83929443359375,-2.6019287109375,0.919647216796875,1.0,2.0,1.0,1.0,2.0,90.0,event
15:18:45.727,0.5379604,0.6507306,0.26476207,0.793667,0.089483164,0.17611901,0.036247972,0.24612199,0.19900057,0.2666747,0.29034737,0.44347328,0.70702285,0.19700822,0.0686651,0.8611371,0.34449783,-0.18159002,0.03626619,0.7432396,788.5348,805.4579,798.60803,795.38464,738.97437,-0.3140869140625,0.0380859375,0.93975830078125,1.83929443359375,-2.6019287109375,0.919647216796875,1.0,2.0,1.0,1.0,2.0,90.0,event
15:18:45.728,0.5379604,0.6507306,0.26476207,0.793667,0.089483164,0.17611901,0.036247972,0.24612199,0.19900057,0.2666747,0.29034737,0.44347328,0.70702285,0.19700822,0.0686651,0.8611371,0.34449783,-0.18159002,0.03626619,0.7432396,788.1319,803.44324,807.47253,800.6227,718.4249,-0.3140869140625,0.0380859375,0.93975830078125,1.83929443359375,-2.6019287109375,0.919647216796875,1.0,2.0,1.0,1.0,2.0,90.0,event
15:18:45.728,0.5379604,0.6507306,0.26476207,0.793667,0.089483164,0.17611901,0.036247972,0.24612199,0.19900057,0.2666747,0.29034737,0.44347328,0.70702285,0.19700822,0.0686651,0.8611371,0.34449783,-0.18159002,0.03626619,0.7432396,794.57874,799.41394,803.0403,791.3553,735.34796,-0.3140869140625,0.0380859375,0.93975830078125,1.83929443359375,-2.6019287109375,0.919647216796875,1.0,2.0,1.0,1.0,2.0,90.0,event
15:18:45.729,0.53547186,0.67440414,0.37755808,0.793667,0.08258477,0.21465828,0.14078665,0.24612199,0.26718098,0.34105194,0.30566415,0.44347328,0.714165,0.20878628,0.16431957,0.8611371,0.36133546,-0.153665,0.115708455,0.7432396,779.2674,794.9817,801.8315,785.31134,763.1502,-0.3140869140625,0.0380859375,0.93975830078125,1.83929443359375,-2.6019287109375,0.919647216796875,1.0,1.0,1.0,1.0,1.0,90.0,event
15:18:45.733,0.53547186,0.67440414,0.37755808,0.793667,0.08258477,0.21465828,0.14078665,0.24612199,0.26718098,0.34105194,0.30566415,0.44347328,0.714165,0.20878628,0.16431957,0.8611371,0.36133546,-0.153665,0.115708455,0.7432396,788.5348,802.23444,794.57874,782.49084,809.89014,-0.3140869140625,0.0380859375,0.93975830078125,1.83929443359375,-2.6019287109375,0.919647216796875,1.0,1.0,1.0,1.0,1.0,90.0,event
15:18:45.733,0.53547186,0.67440414,0.37755808,0.793667,0.08258477,0.21465828,0.14078665,0.24612199,0.26718098,0.34105194,0.30566415,0.44347328,0.714165,0.20878628,0.16431957,0.8611371,0.36133546,-0.153665,0.115708455,0.7432396,799.011,799.011,794.17584,779.2674,922.71063,-0.3140869140625,0.0380859375,0.93975830078125,1.83929443359375,-2.6019287109375,0.919647216796875,1.0,1.0,1.0,1.0,1.0,90.0,event
15:18:45.734,0.53547186,0.67440414,0.37755808,0.793667,0.08258477,0.21465828,0.14078665,0.24612199,0.26718098,0.34105194,0.30566415,0.44347328,0.714165,0.20878628,0.16431957,0.8611371,0.36133546,-0.153665,0.115708455,0.7432396,794.57874,789.7436,800.2198,794.57874,876.3736,-0.3140869140625,0.0380859375,0.93975830078125,1.83929443359375,-2.6019287109375,0.919647216796875,1.0,1.0,1.0,1.0,1.0,90.0,event
15:18:45.734,0.53547186,0.67440414,0.37755808,0.793667,0.08258477,0.21465828,0.14078665,0.24612199,0.26718098,0.34105194,0.30566415,0.44347328,0.714165,0.20878628,0.16431957,0.8611371,0.36133546,-0.153665,0.115708455,0.7432396,802.23444,795.38464,800.6227,798.60803,767.1795,-0.3140869140625,0.0380859375,0.93975830078125,1.83929443359375,-2.6019287109375,0.919647216796875,1.0,1.0,1.0,1.0,1.0,90.0,event
15:18:45.735,0.53547186,0.67440414,0.37755808,0.793667,0.08258477,0.21465828,0.14078665,0.24612199,0.26718098,0.34105194,0.30566415,0.44347328,0.714165,0.20878628,0.16431957,0.8611371,0.36133546,-0.153665,0.115708455,0.7432396,802.6374,801.02563,803.8461,803.8461,1071.392,-0.3140869140625,0.0380859375,0.93975830078125,1.83929443359375,-2.6019287109375,0.919647216796875,1.0,1.0,1.0,1.0,1.0,90.0,event
15:18:45.735,0.53547186,0.67440414,0.37755808,0.793667,0.08258477,0.21465828,0.14078665,0.24612199,0.26718098,0.34105194,0.30566415,0.44347328,0.714165,0.20878628,0.16431957,0.8611371,0.36133546,-0.153665,0.115708455,0.7432396,808.2784,799.41394,803.44324,802.6374,875.9707,-0.3140869140625,0.0380859375,0.93975830078125,1.83929443359375,-2.6019287109375,0.919647216796875,1.0,1.0,1.0,1.0,1.0,90.0,event
15:18:45.736,0.53547186,0.67440414,0.37755808,0.793667,0.08258477,0.21465828,0.14078665,0.24612199,0.26718098,0.34105194,0.30566415,0.44347328,0.714165,0.20878628,0.16431957,0.8611371,0.36133546,-0.153665,0.115708455,0.7432396,798.60803,805.8608,807.8755,792.5641,818.3516,-0.3140869140625,0.0380859375,0.93975830078125,1.83929443359375,-2.6019287109375,0.919647216796875,1.0,1.0,1.0,1.0,1.0,90.0,event
15:18:45.736,0.53547186,0.67440414,0.37755808,0.793667,0.08258477,0.21465828,0.14078665,0.24612199,0.26718098,0.34105194,0.30566415,0.44347328,0.714165,0.20878628,0.16431957,0.8611371,0.36133546,-0.153665,0.115708455,0.7432396,796.1905,807.8755,807.8755,790.54944,639.85345,-0.3140869140625,0.0380859375,0.93975830078125,1.83929443359375,-2.6019287109375,0.919647216796875,1.0,1.0,1.0,1.0,1.0,90.0,event
15:18:45.760,0.53547186,0.67440414,0.37755808,0.793667,0.08258477,0.21465828,0.14078665,0.24612199,0.26718098,0.34105194,0.30566415,0.44347328,0.714165,0.20878628,0.16431957,0.8611371,0.36133546,-0.153665,0.115708455,0.7432396,792.1612,805.8608,798.20514,794.17584,761.13556,-0.30694580078125,0.03271484375,0.9388427734375,1.27105712890625,-3.45428466796875,0.112152099609375,1.0,1.0,1.0,1.0,1.0,90.0,event
15:18:45.761,0.53547186,0.67440414,0.37755808,0.793667,0.08258477,0.21465828,0.14078665,0.24612199,0.26718098,0.34105194,0.30566415,0.44347328,0.714165,0.20878628,0.16431957,0.8611371,0.36133546,-0.153665,0.115708455,0.7432396,788.1319,802.6374,799.41394,791.3553,775.64105,-0.30694580078125,0.03271484375,0.9388427734375,1.27105712890625,-3.45428466796875,0.112152099609375,1.0,1.0,1.0,1.0,1.0,90.0,event
15:18:45.762,0.53547186,0.67440414,0.37755808,0.793667,0.08258477,0.21465828,0.14078665,0.24612199,0.26718098,0.34105194,0.30566415,0.44347328,0.714165,0.20878628,0.16431957,0.8611371,0.36133546,-0.153665,0.115708455,0.7432396,786.52014,803.8461,798.20514,789.7436,701.9048,-0.30694580078125,0.03271484375,0.9388427734375,1.27105712890625,-3.45428466796875,0.112152099609375,1.0,1.0,1.0,1.0,1.0,90.0,event
15:18:45.762,0.53547186,0.67440414,0.37755808,0.793667,0.08258477,0.21465828,0.14078665,0.24612199,0.26718098,0.34105194,0.30566415,0.44347328,0.714165,0.20878628,0.16431957,0.8611371,0.36133546,-0.153665,0.115708455,0.7432396,790.9524,801.02563,799.81683,789.7436,782.8938,-0.30694580078125,0.03271484375,0.9388427734375,1.27105712890625,-3.45428466796875,0.112152099609375,1.0,1.0,1.0,1.0,1.0,90.0,event
15:18:45.763,0.53547186,0.67440414,0.37755808,0.793667,0.08258477,0.21465828,0.14078665,0.24612199,0.26718098,0.34105194,0.30566415,0.44347328,0.714165,0.20878628,0.16431957,0.8611371,0.36133546,-0.153665,0.115708455,0.7432396,787.72894,799.41394,803.0403,765.16486,841.31866,-0.30694580078125,0.03271484375,0.9388427734375,1.27105712890625,-3.45428466796875,0.112152099609375,1.0,1.0,1.0,1.0,1.0,90.0,event
15:18:45.763,0.53547186,0.67440414,0.37755808,0.793667,0.08258477,0.21465828,0.14078665,0.24612199,0.26718098,0.34105194,0.30566415,0.44347328,0.714165,0.20878628,0.16431957,0.8611371,0.36133546,-0.153665,0.115708455,0.7432396,786.52014,809.0842,797.3993,767.5824,819.15753,-0.30694580078125,0.03271484375,0.9388427734375,1.27105712890625,-3.45428466796875,0.112152099609375,1.0,1.0,1.0,1.0,1.0,90.0,event
15:18:45.764,0.53547186,0.67440414,0.37755808,0.793667,0.08258477,0.21465828,0.14078665,0.24612199,0.26718098,0.34105194,0.30566415,0.44347328,0.714165,0.20878628,0.16431957,0.8611371,0.36133546,-0.153665,0.115708455,0.7432396,790.14655,793.36993,802.23444,777.6557,867.1062,-0.30694580078125,0.03271484375,0.9388427734375,1.27105712890625,-3.45428466796875,0.112152099609375,1.0,1.0,1.0,1.0,1.0,90.0,event
15:18:45.764,0.53547186,0.67440414,0.37755808,0.793667,0.08258477,0.21465828,0.14078665,0.24612199,0.26718098,0.34105194,0.30566415,0.44347328,0.714165,0.20878628,0.16431957,0.8611371,0.36133546,-0.153665,0.115708455,0.7432396,789.34064,805.4579,800.2198,777.6557,849.3773,-0.30694580078125,0.03271484375,0.9388427734375,1.27105712890625,-3.45428466796875,0.112152099609375,1.0,1.0,1.0,1.0,1.0,90.0,event
15:18:45.765,0.53547186,0.67440414,0.37755808,0.793667,0.08258477,0.21465828,0.14078665,0.24612199,0.26718098,0.34105194,0.30566415,0.44347328,0.714165,0.20878628,0.16431957,0.8611371,0.36133546,-0.153665,0.115708455,0.7432396,784.10254,792.96704,800.6227,791.3553,1089.5238,-0.30694580078125,0.03271484375,0.9388427734375,1.27105712890625,-3.45428466796875,0.112152099609375,1.0,1.0,1.0,1.0,1.0,90.0,event
15:18:45.765,0.53547186,0.67440414,0.37755808,0.793667,0.08258477,0.21465828,0.14078665,0.24612199,0.26718098,0.34105194,0.30566415,0.44347328,0.714165,0.20878628,0.16431957,0.8611371,0.36133546,-0.153665,0.115708455,0.7432396,774.83514,794.17584,798.20514,789.7436,1074.6154,-0.30694580078125,0.03271484375,0.9388427734375,1.27105712890625,-3.45428466796875,0.112152099609375,1.0,1.0,1.0,1.0,1.0,90.0,event
15:18:45.766,0.53547186,0.67440414,0.37755808,0.793667,0.08258477,0.21465828,0.14078665,0.24612199,0.26718098,0.34105194,0.30566415,0.44347328,0.714165,0.20878628,0.16431957,0.8611371,0.36133546,-0.153665,0.115708455,0.7432396,783.2967,795.78754,796.5934,790.14655,698.68134,-0.30694580078125,0.03271484375,0.9388427734375,1.27105712890625,-3.45428466796875,0.112152099609375,1.0,1.0,1.0,1.0,1.0,90.0,event
15:18:45.766,0.53547186,0.67440414,0.37755808,0.793667,0.08258477,0.21465828,0.14078665,0.24612199,0.26718098,0.34105194,0.30566415,0.44347328,0.714165,0.20878628,0.16431957,0.8611371,0.36133546,-0.153665,0.115708455,0.7432396,790.9524,801.4286,798.60803,793.7729,626.9597,-0.30694580078125,0.03271484375,0.9388427734375,1.27105712890625,-3.45428466796875,0.112152099609375,1.0,1.0,1.0,1.0,1.0,90.0,event
15:18:45.830,0.53547186,0.67440414,0.37755808,0.793667,0.08258477,0.21465828,0.14078665,0.24612199,0.26718098,0.34105194,0.30566415,0.44347328,0.714165,0.20878628,0.16431957,0.8611371,0.36133546,-0.153665,0.115708455,0.7432396,795.78754,802.23444,797.8022,796.5934,736.55676,-0.30389404296875,0.031494140625,0.94244384765625,1.1663818359375,-3.24493408203125,0.67291259765625,1.0,1.0,1.0,1.0,1.0,90.0,event
15:18:45.831,0.53547186,0.67440414,0.37755808,0.793667,0.08258477,0.21465828,0.14078665,0.24612199,0.26718098,0.34105194,0.30566415,0.44347328,0.714165,0.20878628,0.16431957,0.8611371,0.36133546,-0.153665,0.115708455,0.7432396,788.1319,801.8315,797.3993,798.20514,743.00366,-0.30389404296875,0.031494140625,0.94244384765625,1.1663818359375,-3.24493408203125,0.67291259765625,1.0,1.0,1.0,1.0,1.0,90.0,event
15:18:45.832,0.53547186,0.67440414,0.37755808,0.793667,0.08258477,0.21465828,0.14078665,0.24612199,0.26718098,0.34105194,0.30566415,0.44347328,0.714165,0.20878628,0.16431957,0.8611371,0.36133546,-0.153665,0.115708455,0.7432396,786.1172,800.2198,799.81683,791.75824,685.38464,-0.30389404296875,0.031494140625,0.94244384765625,1.1663818359375,-3.24493408203125,0.67291259765625,1.0,1.0,1.0,1.0,1.0,90.0,event
15:18:45.832,0.53547186,0.67440414,0.37755808,0.793667,0.08258477,0.21465828,0.14078665,0.24612199,0.26718098,0.34105194,0.30566415,0.44347328,0.714165,0.20878628,0.16431957,0.8611371,0.36133546,-0.153665,0.115708455,0.7432396,794.57874,803.8461,802.23444,795.38464,682.5641,-0.30389404296875,0.031494140625,0.94244384765625,1.1663818359375,-3.24493408203125,0.67291259765625,1.0,1.0,1.0,1.0,1.0,90.0,event
15:18:45.833,0.53547186,0.67440414,0.37755808,0.793667,0.08258477,0.21465828,0.14078665,0.24612199,0.26718098,0.34105194,0.30566415,0.44347328,0.714165,0.20878628,0.16431957,0.8611371,0.36133546,-0.153665,0.115708455,0.7432396,782.0879,805.4579,802.6374,796.5934,701.50183,-0.30389404296875,0.031494140625,0.94244384765625,1.1663818359375,-3.24493408203125,0.67291259765625,1.0,1.0,1.0,1.0,1.0,90.0,event
15:18:45.834,0.52592194,0.6889105,0.4838894,0.793667,0.094489925,0.23757422,0.22194913,0.24612199,0.37673378,0.3427558,0.31371993,0.44347328,0.71734184,0.21234946,0.23416926,0.8611371,0.3776173,-0.11617257,0.16446504,0.7432396,769.59705,801.4286,806.26373,778.46155,806.26373,-0.30389404296875,0.031494140625,0.94244384765625,1.1663818359375,-3.24493408203125,0.67291259765625,1.0,1.0,1.0,1.0,1.0,90.0,event
15:18:45.838,0.52592194,0.6889105,0.4838894,0.793667,0.094489925,0.23757422,0.22194913,0.24612199,0.37673378,0.3427558,0.31371993,0.44347328,0.71734184,0.21234946,0.23416926,0.8611371,0.3776173,-0.11617257,0.16446504,0.7432396,780.4762,800.6227,803.0403,767.5824,855.0183,-0.30389404296875,0.031494140625,0.94244384765625,1.1663818359375,-3.24493408203125,0.67291259765625,1.0,1.0,1.0,1.0,1.0,90.0,event
15:18:45.839,0.52592194,0.6889105,0.4838894,0.793667,0.094489925,0.23757422,0.22194913,0.24612199,0.37673378,0.3427558,0.31371993,0.44347328,0.71734184,0.21234946,0.23416926,0.8611371,0.3776173,-0.11617257,0.16446504,0.7432396,788.93774,801.8315,801.02563,793.7729,852.6007,-0.30389404296875,0.031494140625,0.94244384765625,1.1663818359375,-3.24493408203125,0.67291259765625,1.0,1.0,1.0,1.0,1.0,90.0,event
15:18:45.840,0.52592194,0.6889105,0.4838894,0.793667,0.094489925,0.23757422,0.22194913,0.24612199,0.37673378,0.3427558,0.31371993,0.44347328,0.71734184,0.21234946,0.23416926,0.8611371,0.3776173,-0.11617257,0.16446504,0.7432396,780.87915,799.011,809.4872,808.68134,1033.9194,-0.30389404296875,0.031494140625,0.94244384765625,1.1663818359375,-3.24493408203125,0.67291259765625,1.0,1.0,1.0,1.0,1.0,90.0,event
15:18:45.840,0.52592194,0.6889105,0.4838894,0.793667,0.094489925,0.23757422,0.22194913,0.24612199,0.37673378,0.3427558,0.31371993,0.44347328,0.71734184,0.21234946,0.23416926,0.8611371,0.3776173,-0.11617257,0.16446504,0.7432396,786.52014,797.3993,803.8461,806.6667,871.53845,-0.30389404296875,0.031494140625,0.94244384765625,1.1663818359375,-3.24493408203125,0.67291259765625,1.0,1.0,1.0,1.0,1.0,90.0,event
15:18:45.841,0.52592194,0.6889105,0.4838894,0.793667,0.094489925,0.23757422,0.22194913,0.24612199,0.37673378,0.3427558,0.31371993,0.44347328,0.71734184,0.21234946,0.23416926,0.8611371,0.3776173,-0.11617257,0.16446504,0.7432396,792.96704,796.1905,794.9817,804.2491,711.978,-0.30389404296875,0.031494140625,0.94244384765625,1.1663818359375,-3.24493408203125,0.67291259765625,1.0,1.0,1.0,1.0,1.0,90.0,event
15:18:45.842,0.52592194,0.6889105,0.4838894,0.793667,0.094489925,0.23757422,0.22194913,0.24612199,0.37673378,0.3427558,0.31371993,0.44347328,0.71734184,0.21234946,0.23416926,0.8611371,0.3776173,-0.11617257,0.16446504,0.7432396,788.93774,794.57874,795.78754,803.44324,863.0769,-0.30389404296875,0.031494140625,0.94244384765625,1.1663818359375,-3.24493408203125,0.67291259765625,1.0,1.0,1.0,1.0,1.0,90.0,event
15:18:45.868,0.52592194,0.6889105,0.4838894,0.793667,0.094489925,0.23757422,0.22194913,0.24612199,0.37673378,0.3427558,0.31371993,0.44347328,0.71734184,0.21234946,0.23416926,0.8611371,0.3776173,-0.11617257,0.16446504,0.7432396,792.1612,803.44324,800.6227,796.5934,835.2747,-0.310302734375,0.0302734375,0.9432373046875,1.734619140625,-3.237457275390625,1.2261962890625,1.0,1.0,1.0,1.0,1.0,90.0,event
15:18:45.869,0.52592194,0.6889105,0.4838894,0.793667,0.094489925,0.23757422,0.22194913,0.24612199,0.37673378,0.3427558,0.31371993,0.44347328,0.71734184,0.21234946,0.23416926,0.8611371,0.3776173,-0.11617257,0.16446504,0.7432396,797.3993,807.47253,808.68134,793.36993,674.5055,-0.310302734375,0.0302734375,0.9432373046875,1.734619140625,-3.237457275390625,1.2261962890625,1.0,1.0,1.0,1.0,1.0,90.0,event
15:18:45.869,0.52592194,0.6889105,0.4838894,0.793667,0.094489925,0.23757422,0.22194913,0.24612199,0.37673378,0.3427558,0.31371993,0.44347328,0.71734184,0.21234946,0.23416926,0.8611371,0.3776173,-0.11617257,0.16446504,0.7432396,793.36993,811.0989,810.696,797.8022,664.0293,-0.310302734375,0.0302734375,0.9432373046875,1.734619140625,-3.237457275390625,1.2261962890625,1.0,1.0,1.0,1.0,1.0,90.0,event
15:18:45.870,0.52592194,0.6889105,0.4838894,0.793667,0.094489925,0.23757422,0.22194913,0.24612199,0.37673378,0.3427558,0.31371993,0.44347328,0.71734184,0.21234946,0.23416926,0.8611371,0.3776173,-0.11617257,0.16446504,0.7432396,778.46155,807.47253,807.47253,803.8461,775.2381,-0.310302734375,0.0302734375,0.9432373046875,1.734619140625,-3.237457275390625,1.2261962890625,1.0,1.0,1.0,1.0,1.0,90.0,event
15:18:45.871,0.52592194,0.6889105,0.4838894,0.793667,0.094489925,0.23757422,0.22194913,0.24612199,0.37673378,0.3427558,0.31371993,0.44347328,0.71734184,0.21234946,0.23416926,0.8611371,0.3776173,-0.11617257,0.16446504,0.7432396,775.64105,793.36993,809.4872,799.81683,802.23444,-0.310302734375,0.0302734375,0.9432373046875,1.734619140625,-3.237457275390625,1.2261962890625,1.0,1.0,1.0,1.0,1.0,90.0,event
15:18:45.872,0.52592194,0.6889105,0.4838894,0.793667,0.094489925,0.23757422,0.22194913,0.24612199,0.37673378,0.3427558,0.31371993,0.44347328,0.71734184,0.21234946,0.23416926,0.8611371,0.3776173,-0.11617257,0.16446504,0.7432396,775.64105,792.96704,808.2784,793.7729,790.14655,-0.310302734375,0.0302734375,0.9432373046875,1.734619140625,-3.237457275390625,1.2261962890625,1.0,1.0,1.0,1.0,1.0,90.0,event
15:18:45.874,0.52592194,0.6889105,0.4838894,0.793667,0.094489925,0.23757422,0.22194913,0.24612199,0.37673378,0.3427558,0.31371993,0.44347328,0.71734184,0.21234946,0.23416926,0.8611371,0.3776173,-0.11617257,0.16446504,0.7432396,772.4176,796.1905,802.23444,780.4762,859.85345,-0.310302734375,0.0302734375,0.9432373046875,1.734619140625,-3.237457275390625,1.2261962890625,1.0,1.0,1.0,1.0,1.0,90.0,event
15:18:45.875,0.52592194,0.6889105,0.4838894,0.793667,0.094489925,0.23757422,0.22194913,0.24612199,0.37673378,0.3427558,0.31371993,0.44347328,0.71734184,0.21234946,0.23416926,0.8611371,0.3776173,-0.11617257,0.16446504,0.7432396,774.43225,803.8461,804.2491,771.2088,931.5751,-0.310302734375,0.0302734375,0.9432373046875,1.734619140625,-3.237457275390625,1.2261962890625,1.0,1.0,1.0,1.0,1.0,90.0,event
15:18:45.876,0.52592194,0.6889105,0.4838894,0.793667,0.094489925,0.23757422,0.22194913,0.24612199,0.37673378,0.3427558,0.31371993,0.44347328,0.71734184,0.21234946,0.23416926,0.8611371,0.3776173,-0.11617257,0.16446504,0.7432396,785.31134,806.6667,803.8461,795.78754,779.2674,-0.310302734375,0.0302734375,0.9432373046875,1.734619140625,-3.237457275390625,1.2261962890625,1.0,1.0,1.0,1.0,1.0,90.0,event
15:18:45.877,0.52592194,0.6889105,0.4838894,0.793667,0.094489925,0.23757422,0.22194913,0.24612199,0.37673378,0.3427558,0.31371993,0.44347328,0.71734184,0.21234946,0.23416926,0.8611371,0.3776173,-0.11617257,0.16446504,0.7432396,788.1319,805.4579,798.60803,792.96704,661.2088,-0.310302734375,0.0302734375,0.9432373046875,1.734619140625,-3.237457275390625,1.2261962890625,1.0,1.0,1.0,1.0,1.0,90.0,event
15:18:45.878,0.52592194,0.6889105,0.4838894,0.793667,0.094489925,0.23757422,0.22194913,0.24612199,0.37673378,0.3427558,0.31371993,0.44347328,0.71734184,0.21234946,0.23416926,0.8611371,0.3776173,-0.11617257,0.16446504,0.7432396,786.1172,807.0696,801.02563,782.0879,726.4835,-0.310302734375,0.0302734375,0.9432373046875,1.734619140625,-3.237457275390625,1.2261962890625,1.0,1.0,1.0,1.0,1.0,90.0,event
15:18:45.879,0.52592194,0.6889105,0.4838894,0.793667,0.094489925,0.23757422,0.22194913,0.24612199,0.37673378,0.3427558,0.31371993,0.44347328,0.71734184,0.21234946,0.23416926,0.8611371,0.3776173,-0.11617257,0.16446504,0.7432396,791.3553,808.2784,809.0842,796.5934,1066.1538,-0.310302734375,0.0302734375,0.9432373046875,1.734619140625,-3.237457275390625,1.2261962890625,1.0,1.0,1.0,1.0,1.0,90.0,event
15:18:45.905,0.52592194,0.6889105,0.4838894,0.793667,0.094489925,0.23757422,0.22194913,0.24612199,0.37673378,0.3427558,0.31371993,0.44347328,0.71734184,0.21234946,0.23416926,0.8611371,0.3776173,-0.11617257,0.16446504,0.7432396,799.41394,815.12823,809.4872,798.20514,1030.2931,-0.30401611328125,0.02520751953125,0.93902587890625,1.256103515625,-3.312225341796875,0.022430419921875,1.0,1.0,1.0,1.0,1.0,90.0,event
15:18:45.906,0.52592194,0.6889105,0.4838894,0.793667,0.094489925,0.23757422,0.22194913,0.24612199,0.37673378,0.3427558,0.31371993,0.44347328,0.71734184,0.21234946,0.23416926,0.8611371,0.3776173,-0.11617257,0.16446504,0.7432396,804.65204,815.5311,805.05493,786.1172,688.20514,-0.30401611328125,0.02520751953125,0.93902587890625,1.256103515625,-3.312225341796875,0.022430419921875,1.0,1.0,1.0,1.0,1.0,90.0,event
15:18:45.907,0.52592194,0.6889105,0.4838894,0.793667,0.094489925,0.23757422,0.22194913,0.24612199,0.37673378,0.3427558,0.31371993,0.44347328,0.71734184,0.21234946,0.23416926,0.8611371,0.3776173,-0.11617257,0.16446504,0.7432396,786.9231,811.9048,803.0403,778.0586,721.2454,-0.30401611328125,0.02520751953125,0.93902587890625,1.256103515625,-3.312225341796875,0.022430419921875,1.0,1.0,1.0,1.0,1.0,90.0,event
15:18:45.908,0.52592194,0.6889105,0.4838894,0.793667,0.094489925,0.23757422,0.22194913,0.24612199,0.37673378,0.3427558,0.31371993,0.44347328,0.71734184,0.21234946,0.23416926,0.8611371,0.3776173,-0.11617257,0.16446504,0.7432396,776.4469,803.44324,804.65204,794.17584,805.4579,-0.30401611328125,0.02520751953125,0.93902587890625,1.256103515625,-3.312225341796875,0.022430419921875,1.0,1.0,1.0,1.0,1.0,90.0,event
15:18:45.908,0.52592194,0.6889105,0.4838894,0.793667,0.094489925,0.23757422,0.22194913,0.24612199,0.37673378,0.3427558,0.31371993,0.44347328,0.71734184,0.21234946,0.23416926,0.8611371,0.3776173,-0.11617257,0.16446504,0.7432396,785.7143,795.78754,810.293,804.65204,748.24176,-0.30401611328125,0.02520751953125,0.93902587890625,1.256103515625,-3.312225341796875,0.022430419921875,1.0,1.0,1.0,1.0,1.0,90.0,event
