TimeStamp,Delta_TP9,Delta_AF7,Delta_AF8,Delta_TP10,Theta_TP9,Theta_AF7,Theta_AF8,Theta_TP10,Alpha_TP9,Alpha_AF7,Alpha_AF8,Alpha_TP10,Beta_TP9,Beta_AF7,Beta_AF8,Beta_TP10,Gamma_TP9,Gamma_AF7,Gamma_AF8,Gamma_TP10,RAW_TP9,RAW_AF7,RAW_AF8,RAW_TP10,AUX_RIGHT,Accelerometer_X,Accelerometer_Y,Accelerometer_Z,Gyro_X,Gyro_Y,Gyro_Z,HeadBandOn,HSI_TP9,HSI_AF7,HSI_AF8,HSI_TP10,Battery,Elements
15:25:31.698,1.6776335,0.37109533,0.119106054,1.7745408,1.4190296,0.059066355,0.064563386,1.1004275,1.1717186,0.20263208,-0.022316266,0.87632525,0.7664403,0.073738426,0.09169639,0.69652057,0.4816031,0.10073631,-0.0849611,0.7183567,776.04395,802.6374,801.8315,713.9927,650.32965,-0.31866455078125,0.044921875,0.930908203125,1.667327880859375,-6.1907958984375,-0.067291259765625,1.0,1.0,1.0,1.0,1.0,85.0,event
15:25:31.698,1.6776335,0.37109533,0.119106054,1.7745408,1.4190296,0.059066355,0.064563386,1.1004275,1.1717186,0.20263208,-0.022316266,0.87632525,0.7664403,0.073738426,0.09169639,0.69652057,0.4816031,0.10073631,-0.0849611,0.7183567,794.9817,805.05493,798.60803,722.4542,748.6447,-0.31866455078125,0.044921875,0.930908203125,1.667327880859375,-6.1907958984375,-0.067291259765625,1.0,1.0,1.0,1.0,1.0,85.0,event
15:25:31.699,1.6776335,0.37109533,0.119106054,1.7745408,1.4190296,0.059066355,0.064563386,1.1004275,1.1717186,0.20263208,-0.022316266,0.87632525,0.7664403,0.073738426,0.09169639,0.69652057,0.4816031,0.10073631,-0.0849611,0.7183567,763.1502,800.6227,803.0403,709.5604,699.4872,-0.31866455078125,0.044921875,0.930908203125,1.667327880859375,-6.1907958984375,-0.067291259765625,1.0,1.0,1.0,1.0,1.0,85.0,event
15:25:31.700,1.6776335,0.37109533,0.119106054,1.7745408,1.4190296,0.059066355,0.064563386,1.1004275,1.1717186,0.20263208,-0.022316266,0.87632525,0.7664403,0.073738426,0.09169639,0.69652057,0.4816031,0.10073631,-0.0849611,0.7183567,762.74725,800.6227,806.6667,695.4579,823.5897,-0.31866455078125,0.044921875,0.930908203125,1.667327880859375,-6.1907958984375,-0.067291259765625,1.0,1.0,1.0,1.0,1.0,85.0,event
15:25:31.701,1.6776335,0.37109533,0.119106054,1.7745408,1.4190296,0.059066355,0.064563386,1.1004275,1.1717186,0.20263208,-0.022316266,0.87632525,0.7664403,0.073738426,0.09169639,0.69652057,0.4816031,0.10073631,-0.0849611,0.7183567,775.64105,799.011,808.2784,714.3956,870.32965,-0.31866455078125,0.044921875,0.930908203125,1.667327880859375,-6.1907958984375,-0.067291259765625,1.0,1.0,1.0,1.0,1.0,85.0,event
15:25:31.702,1.6776335,0.37109533,0.119106054,1.7745408,1.4190296,0.059066355,0.064563386,1.1004275,1.1717186,0.20263208,-0.022316266,0.87632525,0.7664403,0.073738426,0.09169639,0.69652057,0.4816031,0.10073631,-0.0849611,0.7183567,771.6117,797.3993,811.0989,728.9011,821.5751,-0.31866455078125,0.044921875,0.930908203125,1.667327880859375,-6.1907958984375,-0.067291259765625,1.0,1.0,1.0,1.0,1.0,85.0,event
15:25:31.703,1.6776335,0.37109533,0.119106054,1.7745408,1.4190296,0.059066355,0.064563386,1.1004275,1.1717186,0.20263208,-0.022316266,0.87632525,0.7664403,0.073738426,0.09169639,0.69652057,0.4816031,0.10073631,-0.0849611,0.7183567,767.1795,794.17584,811.9048,721.2454,767.98535,-0.31866455078125,0.044921875,0.930908203125,1.667327880859375,-6.1907958984375,-0.067291259765625,1.0,1.0,1.0,1.0,1.0,85.0,event
15:25:31.704,1.6776335,0.37109533,0.119106054,1.7745408,1.4190296,0.059066355,0.064563386,1.1004275,1.1717186,0.20263208,-0.022316266,0.87632525,0.7664403,0.073738426,0.09169639,0.69652057,0.4816031,0.10073631,-0.0849611,0.7183567,773.6264,794.57874,803.44324,718.4249,954.94507,-0.31866455078125,0.044921875,0.930908203125,1.667327880859375,-6.1907958984375,-0.067291259765625,1.0,1.0,1.0,1.0,1.0,85.0,event
15:25:31.705,1.6776335,0.37109533,0.119106054,1.7745408,1.4190296,0.059066355,0.064563386,1.1004275,1.1717186,0.20263208,-0.022316266,0.87632525,0.7664403,0.073738426,0.09169639,0.69652057,0.4816031,0.10073631,-0.0849611,0.7183567,779.67035,797.8022,805.4579,719.6337,923.5165,-0.31866455078125,0.044921875,0.930908203125,1.667327880859375,-6.1907958984375,-0.067291259765625,1.0,1.0,1.0,1.0,1.0,85.0,event
15:25:31.706,1.6776335,0.37109533,0.119106054,1.7745408,1.4190296,0.059066355,0.064563386,1.1004275,1.1717186,0.20263208,-0.022316266,0.87632525,0.7664403,0.073738426,0.09169639,0.69652057,0.4816031,0.10073631,-0.0849611,0.7183567,776.8498,801.8315,808.2784,711.978,701.9048,-0.31866455078125,0.044921875,0.930908203125,1.667327880859375,-6.1907958984375,-0.067291259765625,1.0,1.0,1.0,1.0,1.0,85.0,event
15:25:31.744,1.6776335,0.37109533,0.119106054,1.7745408,1.4190296,0.059066355,0.064563386,1.1004275,1.1717186,0.20263208,-0.022316266,0.87632525,0.7664403,0.073738426,0.09169639,0.69652057,0.4816031,0.10073631,-0.0849611,0.7183567,780.87915,807.0696,807.8755,713.5897,689.81683,-0.31390380859375,0.0423583984375,0.94244384765625,1.114044189453125,-4.134674072265625,-0.7476806640625,1.0,1.0,1.0,1.0,1.0,85.0,event
15:25:31.746,1.6776335,0.37109533,0.119106054,1.7745408,1.4190296,0.059066355,0.064563386,1.1004275,1.1717186,0.20263208,-0.022316266,0.87632525,0.7664403,0.073738426,0.09169639,0.69652057,0.4816031,0.10073631,-0.0849611,0.7183567,785.31134,801.02563,807.47253,715.6044,707.1429,-0.31390380859375,0.0423583984375,0.94244384765625,1.114044189453125,-4.134674072265625,-0.7476806640625,1.0,1.0,1.0,1.0,1.0,85.0,event
15:25:31.747,1.6776335,0.37109533,0.119106054,1.7745408,1.4190296,0.059066355,0.064563386,1.1004275,1.1717186,0.20263208,-0.022316266,0.87632525,0.7664403,0.073738426,0.09169639,0.69652057,0.4816031,0.10073631,-0.0849611,0.7183567,785.7143,799.011,807.47253,719.6337,738.1685,-0.31390380859375,0.0423583984375,0.94244384765625,1.114044189453125,-4.134674072265625,-0.7476806640625,1.0,1.0,1.0,1.0,1.0,85.0,event
15:25:31.747,1.6776335,0.37109533,0.119106054,1.7745408,1.4190296,0.059066355,0.064563386,1.1004275,1.1717186,0.20263208,-0.022316266,0.87632525,0.7664403,0.073738426,0.09169639,0.69652057,0.4816031,0.10073631,-0.0849611,0.7183567,786.52014,798.60803,807.8755,722.0513,688.20514,-0.31390380859375,0.0423583984375,0.94244384765625,1.114044189453125,-4.134674072265625,-0.7476806640625,1.0,1.0,1.0,1.0,1.0,85.0,event
15:25:31.748,1.6776335,0.37109533,0.119106054,1.7745408,1.4190296,0.059066355,0.064563386,1.1004275,1.1717186,0.20263208,-0.022316266,0.87632525,0.7664403,0.073738426,0.09169639,0.69652057,0.4816031,0.10073631,-0.0849611,0.7183567,779.67035,793.36993,801.4286,717.619,830.4396,-0.31390380859375,0.0423583984375,0.94244384765625,1.114044189453125,-4.134674072265625,-0.7476806640625,1.0,1.0,1.0,1.0,1.0,85.0,event
15:25:31.749,1.6776335,0.37109533,0.119106054,1.7745408,1.4190296,0.059066355,0.064563386,1.1004275,1.1717186,0.20263208,-0.022316266,0.87632525,0.7664403,0.073738426,0.09169639,0.69652057,0.4816031,0.10073631,-0.0849611,0.7183567,774.43225,801.02563,802.6374,725.2747,848.5714,-0.31390380859375,0.0423583984375,0.94244384765625,1.114044189453125,-4.134674072265625,-0.7476806640625,1.0,1.0,1.0,1.0,1.0,85.0,event
15:25:31.750,1.6776335,0.37109533,0.119106054,1.7745408,1.4190296,0.059066355,0.064563386,1.1004275,1.1717186,0.20263208,-0.022316266,0.87632525,0.7664403,0.073738426,0.09169639,0.69652057,0.4816031,0.10073631,-0.0849611,0.7183567,778.46155,809.89014,810.696,726.08057,795.38464,-0.31390380859375,0.0423583984375,0.94244384765625,1.114044189453125,-4.134674072265625,-0.7476806640625,1.0,1.0,1.0,1.0,1.0,85.0,event
15:25:31.750,1.6963352,0.36014584,0.10830069,1.7745408,1.4438136,0.055383872,0.0464744,1.1004275,1.1716902,0.20263208,0.0026809284,0.87632525,0.7665141,0.07003947,0.0954414,0.69652057,0.47905892,0.101525225,-0.092312366,0.7183567,787.326,802.23444,817.9487,740.989,728.0952,-0.31390380859375,0.0423583984375,0.94244384765625,1.114044189453125,-4.134674072265625,-0.7476806640625,1.0,1.0,1.0,1.0,1.0,85.0,event
15:25:31.754,1.6963352,0.36014584,0.10830069,1.7745408,1.4438136,0.055383872,0.0464744,1.1004275,1.1716902,0.20263208,0.0026809284,0.87632525,0.7665141,0.07003947,0.0954414,0.69652057,0.47905892,0.101525225,-0.092312366,0.7183567,794.17584,794.17584,817.9487,743.4066,891.28204,-0.31390380859375,0.0423583984375,0.94244384765625,1.114044189453125,-4.134674072265625,-0.7476806640625,1.0,1.0,1.0,1.0,1.0,85.0,event
15:25:31.755,1.6963352,0.36014584,0.10830069,1.7745408,1.4438136,0.055383872,0.0464744,1.1004275,1.1716902,0.20263208,0.0026809284,0.87632525,0.7665141,0.07003947,0.0954414,0.69652057,0.47905892,0.101525225,-0.092312366,0.7183567,798.60803,799.41394,810.696,749.85345,1025.0549,-0.31390380859375,0.0423583984375,0.94244384765625,1.114044189453125,-4.134674072265625,-0.7476806640625,1.0,1.0,1.0,1.0,1.0,85.0,event
15:25:31.756,1.6963352,0.36014584,0.10830069,1.7745408,1.4438136,0.055383872,0.0464744,1.1004275,1.1716902,0.20263208,0.0026809284,0.87632525,0.7665141,0.07003947,0.0954414,0.69652057,0.47905892,0.101525225,-0.092312366,0.7183567,792.96704,804.65204,807.47253,743.4066,861.06226,-0.31390380859375,0.0423583984375,0.94244384765625,1.114044189453125,-4.134674072265625,-0.7476806640625,1.0,1.0,1.0,1.0,1.0,85.0,event
15:25:31.756,1.6963352,0.36014584,0.10830069,1.7745408,1.4438136,0.055383872,0.0464744,1.1004275,1.1716902,0.20263208,0.0026809284,0.87632525,0.7665141,0.07003947,0.0954414,0.69652057,0.47905892,0.101525225,-0.092312366,0.7183567,791.75824,803.8461,810.293,735.34796,815.5311,-0.31390380859375,0.0423583984375,0.94244384765625,1.114044189453125,-4.134674072265625,-0.7476806640625,1.0,1.0,1.0,1.0,1.0,85.0,event
15:25:31.779,1.6963352,0.36014584,0.10830069,1.7745408,1.4438136,0.055383872,0.0464744,1.1004275,1.1716902,0.20263208,0.0026809284,0.87632525,0.7665141,0.07003947,0.0954414,0.69652057,0.47905892,0.101525225,-0.092312366,0.7183567,792.5641,803.0403,811.9048,735.7509,935.6044,-0.3232421875,0.04107666015625,0.9317626953125,1.338348388671875,-1.92901611328125,-0.83740234375,1.0,1.0,1.0,1.0,1.0,85.0,event
15:25:31.780,1.6963352,0.36014584,0.10830069,1.7745408,1.4438136,0.055383872,0.0464744,1.1004275,1.1716902,0.20263208,0.0026809284,0.87632525,0.7665141,0.07003947,0.0954414,0.69652057,0.47905892,0.101525225,-0.092312366,0.7183567,776.04395,803.8461,807.47253,718.022,899.7436,-0.3232421875,0.04107666015625,0.9317626953125,1.338348388671875,-1.92901611328125,-0.83740234375,1.0,1.0,1.0,1.0,1.0,85.0,event
15:25:31.781,1.6963352,0.36014584,0.10830069,1.7745408,1.4438136,0.055383872,0.0464744,1.1004275,1.1716902,0.20263208,0.0026809284,0.87632525,0.7665141,0.07003947,0.0954414,0.69652057,0.47905892,0.101525225,-0.092312366,0.7183567,795.38464,807.47253,805.8608,733.3333,794.17584,-0.3232421875,0.04107666015625,0.9317626953125,1.338348388671875,-1.92901611328125,-0.83740234375,1.0,1.0,1.0,1.0,1.0,85.0,event
15:25:31.781,1.6963352,0.36014584,0.10830069,1.7745408,1.4438136,0.055383872,0.0464744,1.1004275,1.1716902,0.20263208,0.0026809284,0.87632525,0.7665141,0.07003947,0.0954414,0.69652057,0.47905892,0.101525225,-0.092312366,0.7183567,788.1319,805.4579,804.65204,720.84247,807.0696,-0.3232421875,0.04107666015625,0.9317626953125,1.338348388671875,-1.92901611328125,-0.83740234375,1.0,1.0,1.0,1.0,1.0,85.0,event
15:25:31.782,1.6963352,0.36014584,0.10830069,1.7745408,1.4438136,0.055383872,0.0464744,1.1004275,1.1716902,0.20263208,0.0026809284,0.87632525,0.7665141,0.07003947,0.0954414,0.69652057,0.47905892,0.101525225,-0.092312366,0.7183567,787.326,805.4579,805.4579,728.9011,757.1062,-0.3232421875,0.04107666015625,0.9317626953125,1.338348388671875,-1.92901611328125,-0.83740234375,1.0,1.0,1.0,1.0,1.0,85.0,event
15:25:31.782,1.6963352,0.36014584,0.10830069,1.7745408,1.4438136,0.055383872,0.0464744,1.1004275,1.1716902,0.20263208,0.0026809284,0.87632525,0.7665141,0.07003947,0.0954414,0.69652057,0.47905892,0.101525225,-0.092312366,0.7183567,792.5641,802.23444,806.26373,726.8865,817.9487,-0.3232421875,0.04107666015625,0.9317626953125,1.338348388671875,-1.92901611328125,-0.83740234375,1.0,1.0,1.0,1.0,1.0,85.0,event
15:25:31.783,1.6963352,0.36014584,0.10830069,1.7745408,1.4438136,0.055383872,0.0464744,1.1004275,1.1716902,0.20263208,0.0026809284,0.87632525,0.7665141,0.07003947,0.0954414,0.69652057,0.47905892,0.101525225,-0.092312366,0.7183567,796.99634,805.4579,805.8608,717.619,898.1319,-0.3232421875,0.04107666015625,0.9317626953125,1.338348388671875,-1.92901611328125,-0.83740234375,1.0,1.0,1.0,1.0,1.0,85.0,event
15:25:31.783,1.6963352,0.36014584,0.10830069,1.7745408,1.4438136,0.055383872,0.0464744,1.1004275,1.1716902,0.20263208,0.0026809284,0.87632525,0.7665141,0.07003947,0.0954414,0.69652057,0.47905892,0.101525225,-0.092312366,0.7183567,796.1905,806.6667,800.2198,722.8571,891.685,-0.3232421875,0.04107666015625,0.9317626953125,1.338348388671875,-1.92901611328125,-0.83740234375,1.0,1.0,1.0,1.0,1.0,85.0,event
15:25:31.784,1.6963352,0.36014584,0.10830069,1.7745408,1.4438136,0.055383872,0.0464744,1.1004275,1.1716902,0.20263208,0.0026809284,0.87632525,0.7665141,0.07003947,0.0954414,0.69652057,0.47905892,0.101525225,-0.092312366,0.7183567,798.20514,804.2491,802.6374,730.10986,1022.23444,-0.3232421875,0.04107666015625,0.9317626953125,1.338348388671875,-1.92901611328125,-0.83740234375,1.0,1.0,1.0,1.0,1.0,85.0,event
15:25:31.784,1.6963352,0.36014584,0.10830069,1.7745408,1.4438136,0.055383872,0.0464744,1.1004275,1.1716902,0.20263208,0.0026809284,0.87632525,0.7665141,0.07003947,0.0954414,0.69652057,0.47905892,0.101525225,-0.092312366,0.7183567,798.60803,804.65204,803.44324,726.8865,836.8865,-0.3232421875,0.04107666015625,0.9317626953125,1.338348388671875,-1.92901611328125,-0.83740234375,1.0,1.0,1.0,1.0,1.0,85.0,event
15:25:31.785,1.6963352,0.36014584,0.10830069,1.7745408,1.4438136,0.055383872,0.0464744,1.1004275,1.1716902,0.20263208,0.0026809284,0.87632525,0.7665141,0.07003947,0.0954414,0.69652057,0.47905892,0.101525225,-0.092312366,0.7183567,798.20514,809.4872,803.44324,731.7216,628.97437,-0.3232421875,0.04107666015625,0.9317626953125,1.338348388671875,-1.92901611328125,-0.83740234375,1.0,1.0,1.0,1.0,1.0,85.0,event
15:25:31.785,1.6963352,0.36014584,0.10830069,1.7745408,1.4438136,0.055383872,0.0464744,1.1004275,1.1716902,0.20263208,0.0026809284,0.87632525,0.7665141,0.07003947,0.0954414,0.69652057,0.47905892,0.101525225,-0.092312366,0.7183567,797.8022,807.8755,807.0696,730.9158,733.73627,-0.3232421875,0.04107666015625,0.9317626953125,1.338348388671875,-1.92901611328125,-0.83740234375,1.0,1.0,1.0,1.0,1.0,85.0,event
15:25:31.810,1.6963352,0.36014584,0.10830069,1.7745408,1.4438136,0.055383872,0.0464744,1.1004275,1.1716902,0.20263208,0.0026809284,0.87632525,0.7665141,0.07003947,0.0954414,0.69652057,0.47905892,0.101525225,-0.092312366,0.7183567,781.28204,801.02563,804.65204,716.8132,832.4542,-0.33099365234375,0.0357666015625,0.92645263671875,1.9439697265625,-1.951446533203125,-0.142059326171875,1.0,1.0,1.0,1.0,1.0,85.0,event
15:25:31.810,1.6963352,0.36014584,0.10830069,1.7745408,1.4438136,0.055383872,0.0464744,1.1004275,1.1716902,0.20263208,0.0026809284,0.87632525,0.7665141,0.07003947,0.0954414,0.69652057,0.47905892,0.101525225,-0.092312366,0.7183567,788.1319,801.8315,806.6667,720.84247,786.9231,-0.33099365234375,0.0357666015625,0.92645263671875,1.9439697265625,-1.951446533203125,-0.142059326171875,1.0,1.0,1.0,1.0,1.0,85.0,event
15:25:31.811,1.6963352,0.36014584,0.10830069,1.7745408,1.4438136,0.055383872,0.0464744,1.1004275,1.1716902,0.20263208,0.0026809284,0.87632525,0.7665141,0.07003947,0.0954414,0.69652057,0.47905892,0.101525225,-0.092312366,0.7183567,789.7436,799.81683,809.89014,722.8571,769.19415,-0.33099365234375,0.0357666015625,0.92645263671875,1.9439697265625,-1.951446533203125,-0.142059326171875,1.0,1.0,1.0,1.0,1.0,85.0,event
15:25:31.812,1.6963352,0.36014584,0.10830069,1.7745408,1.4438136,0.055383872,0.0464744,1.1004275,1.1716902,0.20263208,0.0026809284,0.87632525,0.7665141,0.07003947,0.0954414,0.69652057,0.47905892,0.101525225,-0.092312366,0.7183567,801.02563,801.02563,812.3077,724.0659,806.26373,-0.33099365234375,0.0357666015625,0.92645263671875,1.9439697265625,-1.951446533203125,-0.142059326171875,1.0,1.0,1.0,1.0,1.0,85.0,event
15:25:31.812,1.6963352,0.36014584,0.10830069,1.7745408,1.4438136,0.055383872,0.0464744,1.1004275,1.1716902,0.20263208,0.0026809284,0.87632525,0.7665141,0.07003947,0.0954414,0.69652057,0.47905892,0.101525225,-0.092312366,0.7183567,792.5641,799.011,805.05493,731.7216,837.28937,-0.33099365234375,0.0357666015625,0.92645263671875,1.9439697265625,-1.951446533203125,-0.142059326171875,1.0,1.0,1.0,1.0,1.0,85.0,event
15:25:31.813,1.6963352,0.36014584,0.10830069,1.7745408,1.4438136,0.055383872,0.0464744,1.1004275,1.1716902,0.20263208,0.0026809284,0.87632525,0.7665141,0.07003947,0.0954414,0.69652057,0.47905892,0.101525225,-0.092312366,0.7183567,786.52014,804.65204,805.8608,745.82416,794.17584,-0.33099365234375,0.0357666015625,0.92645263671875,1.9439697265625,-1.951446533203125,-0.142059326171875,1.0,1.0,1.0,1.0,1.0,85.0,event
15:25:31.813,1.6963352,0.36014584,0.10830069,1.7745408,1.4438136,0.055383872,0.0464744,1.1004275,1.1716902,0.20263208,0.0026809284,0.87632525,0.7665141,0.07003947,0.0954414,0.69652057,0.47905892,0.101525225,-0.092312366,0.7183567,804.2491,807.47253,807.8755,757.50916,809.89014,-0.33099365234375,0.0357666015625,0.92645263671875,1.9439697265625,-1.951446533203125,-0.142059326171875,1.0,1.0,1.0,1.0,1.0,85.0,event
15:25:31.814,1.6963352,0.36014584,0.10830069,1.7745408,1.4438136,0.055383872,0.0464744,1.1004275,1.1716902,0.20263208,0.0026809284,0.87632525,0.7665141,0.07003947,0.0954414,0.69652057,0.47905892,0.101525225,-0.092312366,0.7183567,805.05493,801.8315,805.4579,750.2564,917.8755,-0.33099365234375,0.0357666015625,0.92645263671875,1.9439697265625,-1.951446533203125,-0.142059326171875,1.0,1.0,1.0,1.0,1.0,85.0,event
15:25:31.815,1.6963352,0.36014584,0.10830069,1.7745408,1.4438136,0.055383872,0.0464744,1.1004275,1.1716902,0.20263208,0.0026809284,0.87632525,0.7665141,0.07003947,0.0954414,0.69652057,0.47905892,0.101525225,-0.092312366,0.7183567,805.05493,807.47253,803.8461,738.97437,979.12085,-0.33099365234375,0.0357666015625,0.92645263671875,1.9439697265625,-1.951446533203125,-0.142059326171875,1.0,1.0,1.0,1.0,1.0,85.0,event
15:25:31.816,1.6591383,0.34368062,0.12034867,1.7745408,1.3979139,0.040437624,0.039122302,1.1004275,1.1683084,0.20263208,0.034725685,0.87632525,0.76024145,0.06855116,0.09680001,0.69652057,0.4475881,0.10131308,-0.10491656,0.7183567,803.0403,809.4872,801.8315,728.49817,703.5165,-0.33099365234375,0.0357666015625,0.92645263671875,1.9439697265625,-1.951446533203125,-0.142059326171875,1.0,1.0,1.0,1.0,1.0,85.0,event
15:25:31.821,1.6591383,0.34368062,0.12034867,1.7745408,1.3979139,0.040437624,0.039122302,1.1004275,1.1683084,0.20263208,0.034725685,0.87632525,0.76024145,0.06855116,0.09680001,0.69652057,0.4475881,0.10131308,-0.10491656,0.7183567,793.36993,805.4579,799.011,731.31866,669.2674,-0.33099365234375,0.0357666015625,0.92645263671875,1.9439697265625,-1.951446533203125,-0.142059326171875,1.0,1.0,1.0,1.0,1.0,85.0,event
15:25:31.822,1.6591383,0.34368062,0.12034867,1.7745408,1.3979139,0.040437624,0.039122302,1.1004275,1.1683084,0.20263208,0.034725685,0.87632525,0.76024145,0.06855116,0.09680001,0.69652057,0.4475881,0.10131308,-0.10491656,0.7183567,791.75824,804.65204,796.99634,733.73627,737.3626,-0.33099365234375,0.0357666015625,0.92645263671875,1.9439697265625,-1.951446533203125,-0.142059326171875,1.0,1.0,1.0,1.0,1.0,85.0,event
15:25:31.882,1.6591383,0.34368062,0.12034867,1.7745408,1.3979139,0.040437624,0.039122302,1.1004275,1.1683084,0.20263208,0.034725685,0.87632525,0.76024145,0.06855116,0.09680001,0.69652057,0.4475881,0.10131308,-0.10491656,0.7183567,791.75824,805.8608,797.8022,730.5128,689.011,-0.33099365234375,0.0357666015625,0.92645263671875,1.9439697265625,-1.951446533203125,-0.142059326171875,1.0,1.0,1.0,1.0,1.0,85.0,event
15:25:31.883,1.6591383,0.34368062,0.12034867,1.7745408,1.3979139,0.040437624,0.039122302,1.1004275,1.1683084,0.20263208,0.034725685,0.87632525,0.76024145,0.06855116,0.09680001,0.69652057,0.4475881,0.10131308,-0.10491656,0.7183567,798.20514,807.47253,797.3993,738.5714,647.9121,-0.33099365234375,0.0357666015625,0.92645263671875,1.9439697265625,-1.951446533203125,-0.142059326171875,1.0,1.0,1.0,1.0,1.0,85.0,event
15:25:31.884,1.6591383,0.34368062,0.12034867,1.7745408,1.3979139,0.040437624,0.039122302,1.1004275,1.1683084,0.20263208,0.034725685,0.87632525,0.76024145,0.06855116,0.09680001,0.69652057,0.4475881,0.10131308,-0.10491656,0.7183567,796.5934,804.65204,796.99634,729.304,647.1062,-0.33099365234375,0.0357666015625,0.92645263671875,1.9439697265625,-1.951446533203125,-0.142059326171875,1.0,1.0,1.0,1.0,1.0,85.0,event
15:25:31.884,1.6591383,0.34368062,0.12034867,1.7745408,1.3979139,0.040437624,0.039122302,1.1004275,1.1683084,0.20263208,0.034725685,0.87632525,0.76024145,0.06855116,0.09680001,0.69652057,0.4475881,0.10131308,-0.10491656,0.7183567,785.31134,800.2198,798.20514,712.381,707.9487,-0.33099365234375,0.0357666015625,0.92645263671875,1.9439697265625,-1.951446533203125,-0.142059326171875,1.0,1.0,1.0,1.0,1.0,85.0,event
15:25:31.885,1.6591383,0.34368062,0.12034867,1.7745408,1.3979139,0.040437624,0.039122302,1.1004275,1.1683084,0.20263208,0.034725685,0.87632525,0.76024145,0.06855116,0.09680001,0.69652057,0.4475881,0.10131308,-0.10491656,0.7183567,784.5055,801.8315,798.20514,718.4249,702.71063,-0.33099365234375,0.0357666015625,0.92645263671875,1.9439697265625,-1.951446533203125,-0.142059326171875,1.0,1.0,1.0,1.0,1.0,85.0,event
15:25:31.886,1.6591383,0.34368062,0.12034867,1.7745408,1.3979139,0.040437624,0.039122302,1.1004275,1.1683084,0.20263208,0.034725685,0.87632525,0.76024145,0.06855116,0.09680001,0.69652057,0.4475881,0.10131308,-0.10491656,0.7183567,794.9817,805.8608,799.41394,732.1245,784.5055,-0.33099365234375,0.0357666015625,0.92645263671875,1.9439697265625,-1.951446533203125,-0.142059326171875,1.0,1.0,1.0,1.0,1.0,85.0,event
15:25:31.886,1.6591383,0.34368062,0.12034867,1.7745408,1.3979139,0.040437624,0.039122302,1.1004275,1.1683084,0.20263208,0.034725685,0.87632525,0.76024145,0.06855116,0.09680001,0.69652057,0.4475881,0.10131308,-0.10491656,0.7183567,794.57874,808.2784,799.81683,733.3333,907.8022,-0.33099365234375,0.0357666015625,0.92645263671875,1.9439697265625,-1.951446533203125,-0.142059326171875,1.0,1.0,1.0,1.0,1.0,85.0,event
15:25:31.887,1.6591383,0.34368062,0.12034867,1.7745408,1.3979139,0.040437624,0.039122302,1.1004275,1.1683084,0.20263208,0.034725685,0.87632525,0.76024145,0.06855116,0.09680001,0.69652057,0.4475881,0.10131308,-0.10491656,0.7183567,796.1905,807.0696,802.6374,738.97437,1061.7216,-0.33099365234375,0.0357666015625,0.92645263671875,1.9439697265625,-1.951446533203125,-0.142059326171875,1.0,1.0,1.0,1.0,1.0,85.0,event
15:25:31.888,1.6591383,0.34368062,0.12034867,1.7745408,1.3979139,0.040437624,0.039122302,1.1004275,1.1683084,0.20263208,0.034725685,0.87632525,0.76024145,0.06855116,0.09680001,0.69652057,0.4475881,0.10131308,-0.10491656,0.7183567,802.23444,807.8755,808.2784,740.18317,952.1245,-0.33099365234375,0.0357666015625,0.92645263671875,1.9439697265625,-1.951446533203125,-0.142059326171875,1.0,1.0,1.0,1.0,1.0,85.0,event
15:25:31.888,1.6591383,0.34368062,0.12034867,1.7745408,1.3979139,0.040437624,0.039122302,1.1004275,1.1683084,0.20263208,0.034725685,0.87632525,0.76024145,0.06855116,0.09680001,0.69652057,0.4475881,0.10131308,-0.10491656,0.7183567,801.8315,811.9048,805.8608,733.73627,695.4579,-0.33099365234375,0.0357666015625,0.92645263671875,1.9439697265625,-1.951446533203125,-0.142059326171875,1.0,1.0,1.0,1.0,1.0,85.0,event
15:25:31.889,1.6591383,0.34368062,0.12034867,1.7745408,1.3979139,0.040437624,0.039122302,1.1004275,1.1683084,0.20263208,0.034725685,0.87632525,0.76024145,0.06855116,0.09680001,0.69652057,0.4475881,0.10131308,-0.10491656,0.7183567,801.8315,803.44324,797.3993,725.2747,699.4872,-0.33099365234375,0.0357666015625,0.92645263671875,1.9439697265625,-1.951446533203125,-0.142059326171875,1.0,1.0,1.0,1.0,1.0,85.0,event
15:25:31.889,1.6591383,0.34368062,0.12034867,1.7745408,1.3979139,0.040437624,0.039122302,1.1004275,1.1683084,0.20263208,0.034725685,0.87632525,0.76024145,0.06855116,0.09680001,0.69652057,0.4475881,0.10131308,-0.10491656,0.7183567,800.2198,806.26373,797.3993,730.9158,668.46155,-0.33099365234375,0.0357666015625,0.92645263671875,1.9439697265625,-1.951446533203125,-0.142059326171875,1.0,1.0,1.0,1.0,1.0,85.0,event
15:25:31.916,1.6591383,0.34368062,0.12034867,1.7745408,1.3979139,0.040437624,0.039122302,1.1004275,1.1683084,0.20263208,0.034725685,0.87632525,0.76024145,0.06855116,0.09680001,0.69652057,0.4475881,0.10131308,-0.10491656,0.7183567,790.54944,804.2491,800.6227,710.3663,644.68866,-0.3310546875,0.03564453125,0.93353271484375,2.295379638671875,-3.880462646484375,-0.059814453125,1.0,1.0,1.0,1.0,1.0,85.0,event
15:25:31.918,1.6591383,0.34368062,0.12034867,1.7745408,1.3979139,0.040437624,0.039122302,1.1004275,1.1683084,0.20263208,0.034725685,0.87632525,0.76024145,0.06855116,0.09680001,0.69652057,0.4475881,0.10131308,-0.10491656,0.7183567,788.5348,805.05493,802.6374,730.9158,648.315,-0.3310546875,0.03564453125,0.93353271484375,2.295379638671875,-3.880462646484375,-0.059814453125,1.0,1.0,1.0,1.0,1.0,85.0,event
15:25:31.918,1.6591383,0.34368062,0.12034867,1.7745408,1.3979139,0.040437624,0.039122302,1.1004275,1.1683084,0.20263208,0.034725685,0.87632525,0.76024145,0.06855116,0.09680001,0.69652057,0.4475881,0.10131308,-0.10491656,0.7183567,798.20514,806.26373,801.4286,750.2564,770.80585,-0.3310546875,0.03564453125,0.93353271484375,2.295379638671875,-3.880462646484375,-0.059814453125,1.0,1.0,1.0,1.0,1.0,85.0,event
15:25:31.919,1.6591383,0.34368062,0.12034867,1.7745408,1.3979139,0.040437624,0.039122302,1.1004275,1.1683084,0.20263208,0.034725685,0.87632525,0.76024145,0.06855116,0.09680001,0.69652057,0.4475881,0.10131308,-0.10491656,0.7183567,788.5348,803.8461,799.011,725.6777,819.9634,-0.3310546875,0.03564453125,0.93353271484375,2.295379638671875,-3.880462646484375,-0.059814453125,1.0,1.0,1.0,1.0,1.0,85.0,event
15:25:31.920,1.6591383,0.34368062,0.12034867,1.7745408,1.3979139,0.040437624,0.039122302,1.1004275,1.1683084,0.20263208,0.034725685,0.87632525,0.76024145,0.06855116,0.09680001,0.69652057,0.4475881,0.10131308,-0.10491656,0.7183567,797.8022,798.20514,801.8315,726.4835,732.1245,-0.3310546875,0.03564453125,0.93353271484375,2.295379638671875,-3.880462646484375,-0.059814453125,1.0,1.0,1.0,1.0,1.0,85.0,event
15:25:31.920,1.6591383,0.34368062,0.12034867,1.7745408,1.3979139,0.040437624,0.039122302,1.1004275,1.1683084,0.20263208,0.034725685,0.87632525,0.76024145,0.06855116,0.09680001,0.69652057,0.4475881,0.10131308,-0.10491656,0.7183567,803.44324,798.60803,801.4286,733.73627,772.4176,-0.3310546875,0.03564453125,0.93353271484375,2.295379638671875,-3.880462646484375,-0.059814453125,1.0,1.0,1.0,1.0,1.0,85.0,event
15:25:31.921,1.6591383,0.34368062,0.12034867,1.7745408,1.3979139,0.040437624,0.039122302,1.1004275,1.1683084,0.20263208,0.034725685,0.87632525,0.76024145,0.06855116,0.09680001,0.69652057,0.4475881,0.10131308,-0.10491656,0.7183567,801.4286,803.8461,798.60803,741.79486,924.7253,-0.3310546875,0.03564453125,0.93353271484375,2.295379638671875,-3.880462646484375,-0.059814453125,1.0,1.0,1.0,1.0,1.0,85.0,event
15:25:31.921,1.6591383,0.34368062,0.12034867,1.7745408,1.3979139,0.040437624,0.039122302,1.1004275,1.1683084,0.20263208,0.034725685,0.87632525,0.76024145,0.06855116,0.09680001,0.69652057,0.4475881,0.10131308,-0.10491656,0.7183567,802.23444,805.8608,800.2198,740.18317,996.4469,-0.3310546875,0.03564453125,0.93353271484375,2.295379638671875,-3.880462646484375,-0.059814453125,1.0,1.0,1.0,1.0,1.0,85.0,event
15:25:31.922,1.6591383,0.34368062,0.12034867,1.7745408,1.3979139,0.040437624,0.039122302,1.1004275,1.1683084,0.20263208,0.034725685,0.87632525,0.76024145,0.06855116,0.09680001,0.69652057,0.4475881,0.10131308,-0.10491656,0.7183567,808.2784,805.4579,799.41394,725.6777,811.50183,-0.3310546875,0.03564453125,0.93353271484375,2.295379638671875,-3.880462646484375,-0.059814453125,1.0,1.0,1.0,1.0,1.0,85.0,event
15:25:31.923,1.6591383,0.34368062,0.12034867,1.7745408,1.3979139,0.040437624,0.039122302,1.1004275,1.1683084,0.20263208,0.034725685,0.87632525,0.76024145,0.06855116,0.09680001,0.69652057,0.4475881,0.10131308,-0.10491656,0.7183567,803.0403,804.2491,797.3993,738.1685,676.1172,-0.3310546875,0.03564453125,0.93353271484375,2.295379638671875,-3.880462646484375,-0.059814453125,1.0,1.0,1.0,1.0,1.0,85.0,event
15:25:31.924,1.6192936,0.32837227,0.173911,1.7745408,1.32269,0.008095405,0.03936348,1.1004275,1.155272,0.19763124,0.05592892,0.87632525,0.7626125,0.06921618,0.09878902,0.69652057,0.4196142,0.10100472,-0.1219985,0.7183567,791.75824,804.65204,799.81683,716.8132,877.5824,-0.3310546875,0.03564453125,0.93353271484375,2.295379638671875,-3.880462646484375,-0.059814453125,1.0,1.0,1.0,1.0,1.0,85.0,event
15:25:31.924,1.6591383,0.34368062,0.12034867,1.7745408,1.3979139,0.040437624,0.039122302,1.1004275,1.1683084,0.20263208,0.034725685,0.87632525,0.76024145,0.06855116,0.09680001,0.69652057,0.4475881,0.10131308,-0.10491656,0.7183567,786.52014,805.4579,798.60803,732.9304,825.6044,-0.3310546875,0.03564453125,0.93353271484375,2.295379638671875,-3.880462646484375,-0.059814453125,1.0,1.0,1.0,1.0,1.0,85.0,event
15:25:31.953,1.6192936,0.32837227,0.173911,1.7745408,1.32269,0.008095405,0.03936348,1.1004275,1.155272,0.19763124,0.05592892,0.87632525,0.7626125,0.06921618,0.09878902,0.69652057,0.4196142,0.10100472,-0.1219985,0.7183567,803.8461,806.26373,805.05493,728.9011,740.989,-0.32696533203125,0.0413818359375,0.9425048828125,2.28790283203125,-4.314117431640625,0.590667724609375,1.0,1.0,1.0,1.0,1.0,85.0,event
15:25:31.954,1.6192936,0.32837227,0.173911,1.7745408,1.32269,0.008095405,0.03936348,1.1004275,1.155272,0.19763124,0.05592892,0.87632525,0.7626125,0.06921618,0.09878902,0.69652057,0.4196142,0.10100472,-0.1219985,0.7183567,783.2967,804.2491,799.41394,720.0366,751.4652,-0.32696533203125,0.0413818359375,0.9425048828125,2.28790283203125,-4.314117431640625,0.590667724609375,1.0,1.0,1.0,1.0,1.0,85.0,event
15:25:31.954,1.6192936,0.32837227,0.173911,1.7745408,1.32269,0.008095405,0.03936348,1.1004275,1.155272,0.19763124,0.05592892,0.87632525,0.7626125,0.06921618,0.09878902,0.69652057,0.4196142,0.10100472,-0.1219985,0.7183567,789.34064,806.6667,805.05493,731.31866,707.5458,-0.32696533203125,0.0413818359375,0.9425048828125,2.28790283203125,-4.314117431640625,0.590667724609375,1.0,1.0,1.0,1.0,1.0,85.0,event
15:25:31.955,1.6192936,0.32837227,0.173911,1.7745408,1.32269,0.008095405,0.03936348,1.1004275,1.155272,0.19763124,0.05592892,0.87632525,0.7626125,0.06921618,0.09878902,0.69652057,0.4196142,0.10100472,-0.1219985,0.7183567,790.14655,798.60803,801.8315,719.2308,745.82416,-0.32696533203125,0.0413818359375,0.9425048828125,2.28790283203125,-4.314117431640625,0.590667724609375,1.0,1.0,1.0,1.0,1.0,85.0,event
15:25:31.956,1.6192936,0.32837227,0.173911,1.7745408,1.32269,0.008095405,0.03936348,1.1004275,1.155272,0.19763124,0.05592892,0.87632525,0.7626125,0.06921618,0.09878902,0.69652057,0.4196142,0.10100472,-0.1219985,0.7183567,786.52014,798.60803,806.26373,732.52747,720.4396,-0.32696533203125,0.0413818359375,0.9425048828125,2.28790283203125,-4.314117431640625,0.590667724609375,1.0,1.0,1.0,1.0,1.0,85.0,event
15:25:31.956,1.6192936,0.32837227,0.173911,1.7745408,1.32269,0.008095405,0.03936348,1.1004275,1.155272,0.19763124,0.05592892,0.87632525,0.7626125,0.06921618,0.09878902,0.69652057,0.4196142,0.10100472,-0.1219985,0.7183567,783.69965,801.8315,801.4286,731.7216,891.28204,-0.32696533203125,0.0413818359375,0.9425048828125,2.28790283203125,-4.314117431640625,0.590667724609375,1.0,1.0,1.0,1.0,1.0,85.0,event
15:25:31.957,1.6192936,0.32837227,0.173911,1.7745408,1.32269,0.008095405,0.03936348,1.1004275,1.155272,0.19763124,0.05592892,0.87632525,0.7626125,0.06921618,0.09878902,0.69652057,0.4196142,0.10100472,-0.1219985,0.7183567,793.36993,804.2491,800.2198,726.8865,1178.1685,-0.32696533203125,0.0413818359375,0.9425048828125,2.28790283203125,-4.314117431640625,0.590667724609375,1.0,1.0,1.0,1.0,1.0,85.0,event
15:25:31.957,1.6192936,0.32837227,0.173911,1.7745408,1.32269,0.008095405,0.03936348,1.1004275,1.155272,0.19763124,0.05592892,0.87632525,0.7626125,0.06921618,0.09878902,0.69652057,0.4196142,0.10100472,-0.1219985,0.7183567,796.1905,807.47253,803.0403,724.4689,934.3956,-0.32696533203125,0.0413818359375,0.9425048828125,2.28790283203125,-4.314117431640625,0.590667724609375,1.0,1.0,1.0,1.0,1.0,85.0,event
15:25:31.958,1.6192936,0.32837227,0.173911,1.7745408,1.32269,0.008095405,0.03936348,1.1004275,1.155272,0.19763124,0.05592892,0.87632525,0.7626125,0.06921618,0.09878902,0.69652057,0.4196142,0.10100472,-0.1219985,0.7183567,789.7436,803.44324,800.2198,714.7985,731.31866,-0.32696533203125,0.0413818359375,0.9425048828125,2.28790283203125,-4.314117431640625,0.590667724609375,1.0,1.0,1.0,1.0,1.0,85.0,event
15:25:31.958,1.6192936,0.32837227,0.173911,1.7745408,1.32269,0.008095405,0.03936348,1.1004275,1.155272,0.19763124,0.05592892,0.87632525,0.7626125,0.06921618,0.09878902,0.69652057,0.4196142,0.10100472,-0.1219985,0.7183567,782.49084,805.4579,804.2491,709.15753,823.9927,-0.32696533203125,0.0413818359375,0.9425048828125,2.28790283203125,-4.314117431640625,0.590667724609375,1.0,1.0,1.0,1.0,1.0,85.0,event
15:25:31.959,1.6192936,0.32837227,0.173911,1.7745408,1.32269,0.008095405,0.03936348,1.1004275,1.155272,0.19763124,0.05592892,0.87632525,0.7626125,0.06921618,0.09878902,0.69652057,0.4196142,0.10100472,-0.1219985,0.7183567,787.72894,803.44324,807.0696,707.1429,933.1868,-0.32696533203125,0.0413818359375,0.9425048828125,2.28790283203125,-4.314117431640625,0.590667724609375,1.0,1.0,1.0,1.0,1.0,85.0,event
15:25:31.959,1.6192936,0.32837227,0.173911,1.7745408,1.32269,0.008095405,0.03936348,1.1004275,1.155272,0.19763124,0.05592892,0.87632525,0.7626125,0.06921618,0.09878902,0.69652057,0.4196142,0.10100472,-0.1219985,0.7183567,796.99634,794.17584,805.4579,727.28937,879.59705,-0.32696533203125,0.0413818359375,0.9425048828125,2.28790283203125,-4.314117431640625,0.590667724609375,1.0,1.0,1.0,1.0,1.0,85.0,event
15:25:32.045,1.6192936,0.32837227,0.173911,1.7745408,1.32269,0.008095405,0.03936348,1.1004275,1.155272,0.19763124,0.05592892,0.87632525,0.7626125,0.06921618,0.09878902,0.69652057,0.4196142,0.10100472,-0.1219985,0.7183567,794.9817,796.1905,804.65204,734.94507,718.4249,-0.3272705078125,0.04205322265625,0.94158935546875,1.854248046875,-3.955230712890625,1.667327880859375,1.0,1.0,1.0,1.0,1.0,85.0,event
15:25:32.046,1.6192936,0.32837227,0.173911,1.7745408,1.32269,0.008095405,0.03936348,1.1004275,1.155272,0.19763124,0.05592892,0.87632525,0.7626125,0.06921618,0.09878902,0.69652057,0.4196142,0.10100472,-0.1219985,0.7183567,803.0403,801.02563,801.4286,720.84247,752.674,-0.3272705078125,0.04205322265625,0.94158935546875,1.854248046875,-3.955230712890625,1.667327880859375,1.0,1.0,1.0,1.0,1.0,85.0,event
15:25:32.047,1.6192936,0.32837227,0.173911,1.7745408,1.32269,0.008095405,0.03936348,1.1004275,1.155272,0.19763124,0.05592892,0.87632525,0.7626125,0.06921618,0.09878902,0.69652057,0.4196142,0.10100472,-0.1219985,0.7183567,795.78754,804.2491,801.02563,722.0513,808.2784,-0.3272705078125,0.04205322265625,0.94158935546875,1.854248046875,-3.955230712890625,1.667327880859375,1.0,1.0,1.0,1.0,1.0,85.0,event
15:25:32.048,1.6192936,0.32837227,0.173911,1.7745408,1.32269,0.008095405,0.03936348,1.1004275,1.155272,0.19763124,0.05592892,0.87632525,0.7626125,0.06921618,0.09878902,0.69652057,0.4196142,0.10100472,-0.1219985,0.7183567,784.5055,800.2198,795.38464,716.8132,695.8608,-0.3272705078125,0.04205322265625,0.94158935546875,1.854248046875,-3.955230712890625,1.667327880859375,1.0,1.0,1.0,1.0,1.0,85.0,event
15:25:32.049,1.6192936,0.32837227,0.173911,1.7745408,1.32269,0.008095405,0.03936348,1.1004275,1.155272,0.19763124,0.05592892,0.87632525,0.7626125,0.06921618,0.09878902,0.69652057,0.4196142,0.10100472,-0.1219985,0.7183567,788.93774,803.8461,791.75824,718.4249,675.7143,-0.3272705078125,0.04205322265625,0.94158935546875,1.854248046875,-3.955230712890625,1.667327880859375,1.0,1.0,1.0,1.0,1.0,85.0,event
15:25:32.049,1.6192936,0.32837227,0.173911,1.7745408,1.32269,0.008095405,0.03936348,1.1004275,1.155272,0.19763124,0.05592892,0.87632525,0.7626125,0.06921618,0.09878902,0.69652057,0.4196142,0.10100472,-0.1219985,0.7183567,796.99634,811.50183,800.6227,724.4689,852.1978,-0.3272705078125,0.04205322265625,0.94158935546875,1.854248046875,-3.955230712890625,1.667327880859375,1.0,1.0,1.0,1.0,1.0,85.0,event
15:25:32.050,1.6192936,0.32837227,0.173911,1.7745408,1.32269,0.008095405,0.03936348,1.1004275,1.155272,0.19763124,0.05592892,0.87632525,0.7626125,0.06921618,0.09878902,0.69652057,0.4196142,0.10100472,-0.1219985,0.7183567,796.1905,803.44324,804.65204,711.5751,943.2601,-0.3272705078125,0.04205322265625,0.94158935546875,1.854248046875,-3.955230712890625,1.667327880859375,1.0,1.0,1.0,1.0,1.0,85.0,event
15:25:32.050,1.6192936,0.32837227,0.173911,1.7745408,1.32269,0.008095405,0.03936348,1.1004275,1.155272,0.19763124,0.05592892,0.87632525,0.7626125,0.06921618,0.09878902,0.69652057,0.4196142,0.10100472,-0.1219985,0.7183567,785.31134,800.6227,801.02563,701.9048,787.72894,-0.3272705078125,0.04205322265625,0.94158935546875,1.854248046875,-3.955230712890625,1.667327880859375,1.0,1.0,1.0,1.0,1.0,85.0,event
15:25:32.051,1.6192936,0.32837227,0.173911,1.7745408,1.32269,0.008095405,0.03936348,1.1004275,1.155272,0.19763124,0.05592892,0.87632525,0.7626125,0.06921618,0.09878902,0.69652057,0.4196142,0.10100472,-0.1219985,0.7183567,787.72894,805.05493,799.011,711.1722,697.47253,-0.3272705078125,0.04205322265625,0.94158935546875,1.854248046875,-3.955230712890625,1.667327880859375,1.0,1.0,1.0,1.0,1.0,85.0,event
15:25:32.052,1.6192936,0.32837227,0.173911,1.7745408,1.32269,0.008095405,0.03936348,1.1004275,1.155272,0.19763124,0.05592892,0.87632525,0.7626125,0.06921618,0.09878902,0.69652057,0.4196142,0.10100472,-0.1219985,0.7183567,794.17584,805.05493,800.2198,722.0513,830.84247,-0.3272705078125,0.04205322265625,0.94158935546875,1.854248046875,-3.955230712890625,1.667327880859375,1.0,1.0,1.0,1.0,1.0,85.0,event
15:25:32.053,1.6192936,0.32837227,0.173911,1.7745408,1.32269,0.008095405,0.03936348,1.1004275,1.155272,0.19763124,0.05592892,0.87632525,0.7626125,0.06921618,0.09878902,0.69652057,0.4196142,0.10100472,-0.1219985,0.7183567,789.7436,801.4286,801.02563,724.87177,845.34796,-0.3272705078125,0.04205322265625,0.94158935546875,1.854248046875,-3.955230712890625,1.667327880859375,1.0,1.0,1.0,1.0,1.0,85.0,event
15:25:32.053,1.6192936,0.32837227,0.173911,1.7745408,1.32269,0.008095405,0.03936348,1.1004275,1.155272,0.19763124,0.05592892,0.87632525,0.7626125,0.06921618,0.09878902,0.69652057,0.4196142,0.10100472,-0.1219985,0.7183567,793.36993,802.6374,798.60803,724.4689,699.4872,-0.3272705078125,0.04205322265625,0.94158935546875,1.854248046875,-3.955230712890625,1.667327880859375,1.0,1.0,1.0,1.0,1.0,85.0,event
15:25:32.080,1.6192936,0.32837227,0.173911,1.7745408,1.32269,0.008095405,0.03936348,1.1004275,1.155272,0.19763124,0.05592892,0.87632525,0.7626125,0.06921618,0.09878902,0.69652057,0.4196142,0.10100472,-0.1219985,0.7183567,792.1612,801.8315,797.8022,726.4835,662.4176,-0.32501220703125,0.041015625,0.931884765625,1.6448974609375,-3.357086181640625,0.381317138671875,1.0,1.0,1.0,1.0,1.0,85.0,event
15:25:32.081,1.5658484,0.3116619,0.25537127,1.7745408,1.2204669,-0.041284304,0.03844551,1.1004275,1.1370441,0.17751439,0.0655434,0.87632525,0.76925606,0.070529476,0.10445243,0.69652057,0.39495742,0.097556375,-0.14500935,0.7183567,787.72894,803.8461,803.0403,720.0366,781.685,-0.32501220703125,0.041015625,0.931884765625,1.6448974609375,-3.357086181640625,0.381317138671875,1.0,1.0,1.0,1.0,1.0,85.0,event
15:25:32.085,1.5658484,0.3116619,0.25537127,1.7745408,1.2204669,-0.041284304,0.03844551,1.1004275,1.1370441,0.17751439,0.0655434,0.87632525,0.76925606,0.070529476,0.10445243,0.69652057,0.39495742,0.097556375,-0.14500935,0.7183567,790.9524,809.89014,803.0403,714.3956,898.5348,-0.32501220703125,0.041015625,0.931884765625,1.6448974609375,-3.357086181640625,0.381317138671875,1.0,1.0,1.0,1.0,1.0,85.0,event
15:25:32.086,1.5658484,0.3116619,0.25537127,1.7745408,1.2204669,-0.041284304,0.03844551,1.1004275,1.1370441,0.17751439,0.0655434,0.87632525,0.76925606,0.070529476,0.10445243,0.69652057,0.39495742,0.097556375,-0.14500935,0.7183567,790.14655,805.8608,799.41394,721.2454,770.40295,-0.32501220703125,0.041015625,0.931884765625,1.6448974609375,-3.357086181640625,0.381317138671875,1.0,1.0,1.0,1.0,1.0,85.0,event
15:25:32.087,1.5658484,0.3116619,0.25537127,1.7745408,1.2204669,-0.041284304,0.03844551,1.1004275,1.1370441,0.17751439,0.0655434,0.87632525,0.76925606,0.070529476,0.10445243,0.69652057,0.39495742,0.097556375,-0.14500935,0.7183567,784.5055,801.8315,800.2198,724.0659,727.6923,-0.32501220703125,0.041015625,0.931884765625,1.6448974609375,-3.357086181640625,0.381317138671875,1.0,1.0,1.0,1.0,1.0,85.0,event
15:25:32.087,1.5658484,0.3116619,0.25537127,1.7745408,1.2204669,-0.041284304,0.03844551,1.1004275,1.1370441,0.17751439,0.0655434,0.87632525,0.76925606,0.070529476,0.10445243,0.69652057,0.39495742,0.097556375,-0.14500935,0.7183567,790.14655,805.8608,797.8022,732.1245,1017.3993,-0.32501220703125,0.041015625,0.931884765625,1.6448974609375,-3.357086181640625,0.381317138671875,1.0,1.0,1.0,1.0,1.0,85.0,event
15:25:32.088,1.5658484,0.3116619,0.25537127,1.7745408,1.2204669,-0.041284304,0.03844551,1.1004275,1.1370441,0.17751439,0.0655434,0.87632525,0.76925606,0.070529476,0.10445243,0.69652057,0.39495742,0.097556375,-0.14500935,0.7183567,801.02563,805.05493,795.38464,720.84247,1008.93774,-0.32501220703125,0.041015625,0.931884765625,1.6448974609375,-3.357086181640625,0.381317138671875,1.0,1.0,1.0,1.0,1.0,85.0,event
15:25:32.089,1.5658484,0.3116619,0.25537127,1.7745408,1.2204669,-0.041284304,0.03844551,1.1004275,1.1370441,0.17751439,0.0655434,0.87632525,0.76925606,0.070529476,0.10445243,0.69652057,0.39495742,0.097556375,-0.14500935,0.7183567,803.8461,802.6374,802.23444,723.2601,766.77655,-0.32501220703125,0.041015625,0.931884765625,1.6448974609375,-3.357086181640625,0.381317138671875,1.0,1.0,1.0,1.0,1.0,85.0,event
15:25:32.090,1.5658484,0.3116619,0.25537127,1.7745408,1.2204669,-0.041284304,0.03844551,1.1004275,1.1370441,0.17751439,0.0655434,0.87632525,0.76925606,0.070529476,0.10445243,0.69652057,0.39495742,0.097556375,-0.14500935,0.7183567,796.99634,803.44324,807.0696,733.73627,757.1062,-0.32501220703125,0.041015625,0.931884765625,1.6448974609375,-3.357086181640625,0.381317138671875,1.0,1.0,1.0,1.0,1.0,85.0,event
15:25:32.091,1.5658484,0.3116619,0.25537127,1.7745408,1.2204669,-0.041284304,0.03844551,1.1004275,1.1370441,0.17751439,0.0655434,0.87632525,0.76925606,0.070529476,0.10445243,0.69652057,0.39495742,0.097556375,-0.14500935,0.7183567,795.38464,800.6227,802.6374,728.9011,876.3736,-0.32501220703125,0.041015625,0.931884765625,1.6448974609375,-3.357086181640625,0.381317138671875,1.0,1.0,1.0,1.0,1.0,85.0,event
15:25:32.091,1.5658484,0.3116619,0.25537127,1.7745408,1.2204669,-0.041284304,0.03844551,1.1004275,1.1370441,0.17751439,0.0655434,0.87632525,0.76925606,0.070529476,0.10445243,0.69652057,0.39495742,0.097556375,-0.14500935,0.7183567,799.81683,803.0403,800.2198,732.52747,729.707,-0.32501220703125,0.041015625,0.931884765625,1.6448974609375,-3.357086181640625,0.381317138671875,1.0,1.0,1.0,1.0,1.0,85.0,event
15:25:32.092,1.5658484,0.3116619,0.25537127,1.7745408,1.2204669,-0.041284304,0.03844551,1.1004275,1.1370441,0.17751439,0.0655434,0.87632525,0.76925606,0.070529476,0.10445243,0.69652057,0.39495742,0.097556375,-0.14500935,0.7183567,796.5934,803.44324,803.44324,731.31866,652.74725,-0.32501220703125,0.041015625,0.931884765625,1.6448974609375,-3.357086181640625,0.381317138671875,1.0,1.0,1.0,1.0,1.0,85.0,event
15:25:32.116,1.5658484,0.3116619,0.25537127,1.7745408,1.2204669,-0.041284304,0.03844551,1.1004275,1.1370441,0.17751439,0.0655434,0.87632525,0.76925606,0.070529476,0.10445243,0.69652057,0.39495742,0.097556375,-0.14500935,0.7183567,787.326,796.99634,799.41394,732.1245,819.15753,-0.32501220703125,0.041015625,0.931884765625,1.6448974609375,-3.357086181640625,0.381317138671875,1.0,1.0,1.0,1.0,1.0,85.0,event
15:25:32.117,1.5658484,0.3116619,0.25537127,1.7745408,1.2204669,-0.041284304,0.03844551,1.1004275,1.1370441,0.17751439,0.0655434,0.87632525,0.76925606,0.070529476,0.10445243,0.69652057,0.39495742,0.097556375,-0.14500935,0.7183567,784.90845,794.9817,793.36993,721.6484,798.20514,-0.32501220703125,0.041015625,0.931884765625,1.6448974609375,-3.357086181640625,0.381317138671875,1.0,1.0,1.0,1.0,1.0,85.0,event
15:25:32.118,1.5658484,0.3116619,0.25537127,1.7745408,1.2204669,-0.041284304,0.03844551,1.1004275,1.1370441,0.17751439,0.0655434,0.87632525,0.76925606,0.070529476,0.10445243,0.69652057,0.39495742,0.097556375,-0.14500935,0.7183567,806.26373,799.011,796.99634,716.4103,695.8608,-0.32501220703125,0.041015625,0.931884765625,1.6448974609375,-3.357086181640625,0.381317138671875,1.0,1.0,1.0,1.0,1.0,85.0,event
15:25:32.119,1.5658484,0.3116619,0.25537127,1.7745408,1.2204669,-0.041284304,0.03844551,1.1004275,1.1370441,0.17751439,0.0655434,0.87632525,0.76925606,0.070529476,0.10445243,0.69652057,0.39495742,0.097556375,-0.14500935,0.7183567,811.9048,801.8315,800.6227,739.7802,670.4762,-0.32501220703125,0.041015625,0.931884765625,1.6448974609375,-3.357086181640625,0.381317138671875,1.0,1.0,1.0,1.0,1.0,85.0,event
15:25:32.120,1.5658484,0.3116619,0.25537127,1.7745408,1.2204669,-0.041284304,0.03844551,1.1004275,1.1370441,0.17751439,0.0655434,0.87632525,0.76925606,0.070529476,0.10445243,0.69652057,0.39495742,0.097556375,-0.14500935,0.7183567,797.8022,798.60803,800.2198,732.9304,737.3626,-0.32501220703125,0.041015625,0.931884765625,1.6448974609375,-3.357086181640625,0.381317138671875,1.0,1.0,1.0,1.0,1.0,85.0,event
15:25:32.121,1.5658484,0.3116619,0.25537127,1.7745408,1.2204669,-0.041284304,0.03844551,1.1004275,1.1370441,0.17751439,0.0655434,0.87632525,0.76925606,0.070529476,0.10445243,0.69652057,0.39495742,0.097556375,-0.14500935,0.7183567,796.99634,796.1905,803.44324,738.5714,866.30035,-0.32501220703125,0.041015625,0.931884765625,1.6448974609375,-3.357086181640625,0.381317138671875,1.0,1.0,1.0,1.0,1.0,85.0,event
15:25:32.121,1.5658484,0.3116619,0.25537127,1.7745408,1.2204669,-0.041284304,0.03844551,1.1004275,1.1370441,0.17751439,0.0655434,0.87632525,0.76925606,0.070529476,0.10445243,0.69652057,0.39495742,0.097556375,-0.14500935,0.7183567,801.02563,795.38464,805.4579,742.1978,866.30035,-0.32501220703125,0.041015625,0.931884765625,1.6448974609375,-3.357086181640625,0.381317138671875,1.0,1.0,1.0,1.0,1.0,85.0,event
15:25:32.122,1.5658484,0.3116619,0.25537127,1.7745408,1.2204669,-0.041284304,0.03844551,1.1004275,1.1370441,0.17751439,0.0655434,0.87632525,0.76925606,0.070529476,0.10445243,0.69652057,0.39495742,0.097556375,-0.14500935,0.7183567,786.52014,795.38464,803.8461,730.9158,803.44324,-0.32501220703125,0.041015625,0.931884765625,1.6448974609375,-3.357086181640625,0.381317138671875,1.0,1.0,1.0,1.0,1.0,85.0,event
15:25:32.126,1.5658484,0.3116619,0.25537127,1.7745408,1.2204669,-0.041284304,0.03844551,1.1004275,1.1370441,0.17751439,0.0655434,0.87632525,0.76925606,0.070529476,0.10445243,0.69652057,0.39495742,0.097556375,-0.14500935,0.7183567,786.1172,801.02563,803.0403,736.9597,934.7985,-0.32501220703125,0.041015625,0.931884765625,1.6448974609375,-3.357086181640625,0.381317138671875,1.0,1.0,1.0,1.0,1.0,85.0,event
15:25:32.127,1.5658484,0.3116619,0.25537127,1.7745408,1.2204669,-0.041284304,0.03844551,1.1004275,1.1370441,0.17751439,0.0655434,0.87632525,0.76925606,0.070529476,0.10445243,0.69652057,0.39495742,0.097556375,-0.14500935,0.7183567,794.57874,806.26373,802.6374,731.7216,1137.4725,-0.32501220703125,0.041015625,0.931884765625,1.6448974609375,-3.357086181640625,0.381317138671875,1.0,1.0,1.0,1.0,1.0,85.0,event
15:25:32.127,1.5658484,0.3116619,0.25537127,1.7745408,1.2204669,-0.041284304,0.03844551,1.1004275,1.1370441,0.17751439,0.0655434,0.87632525,0.76925606,0.070529476,0.10445243,0.69652057,0.39495742,0.097556375,-0.14500935,0.7183567,787.72894,804.65204,801.02563,721.2454,898.1319,-0.32501220703125,0.041015625,0.931884765625,1.6448974609375,-3.357086181640625,0.381317138671875,1.0,1.0,1.0,1.0,1.0,85.0,event
15:25:32.128,1.5658484,0.3116619,0.25537127,1.7745408,1.2204669,-0.041284304,0.03844551,1.1004275,1.1370441,0.17751439,0.0655434,0.87632525,0.76925606,0.070529476,0.10445243,0.69652057,0.39495742,0.097556375,-0.14500935,0.7183567,785.7143,806.26373,798.20514,716.0073,763.5531,-0.32501220703125,0.041015625,0.931884765625,1.6448974609375,-3.357086181640625,0.381317138671875,1.0,1.0,1.0,1.0,1.0,85.0,event
15:25:32.153,1.5658484,0.3116619,0.25537127,1.7745408,1.2204669,-0.041284304,0.03844551,1.1004275,1.1370441,0.17751439,0.0655434,0.87632525,0.76925606,0.070529476,0.10445243,0.69652057,0.39495742,0.097556375,-0.14500935,0.7183567,791.75824,807.8755,799.011,722.8571,911.4286,-0.32647705078125,0.0341796875,0.93414306640625,2.265472412109375,-4.104766845703125,-0.844879150390625,1.0,1.0,1.0,1.0,1.0,85.0,event
15:25:32.155,1.5658484,0.3116619,0.25537127,1.7745408,1.2204669,-0.041284304,0.03844551,1.1004275,1.1370441,0.17751439,0.0655434,0.87632525,0.76925606,0.070529476,0.10445243,0.69652057,0.39495742,0.097556375,-0.14500935,0.7183567,796.99634,806.6667,800.2198,737.3626,763.5531,-0.32647705078125,0.0341796875,0.93414306640625,2.265472412109375,-4.104766845703125,-0.844879150390625,1.0,1.0,1.0,1.0,1.0,85.0,event
15:25:32.155,1.5658484,0.3116619,0.25537127,1.7745408,1.2204669,-0.041284304,0.03844551,1.1004275,1.1370441,0.17751439,0.0655434,0.87632525,0.76925606,0.070529476,0.10445243,0.69652057,0.39495742,0.097556375,-0.14500935,0.7183567,799.41394,808.68134,800.6227,740.18317,635.82416,-0.32647705078125,0.0341796875,0.93414306640625,2.265472412109375,-4.104766845703125,-0.844879150390625,1.0,1.0,1.0,1.0,1.0,85.0,event
15:25:32.156,1.4878407,0.2831971,0.332609,1.7745408,1.098103,-0.101253115,0.029841196,1.1004275,1.0850848,0.15917869,0.067339376,0.87632525,0.77308923,0.06709957,0.11164775,0.69652057,0.3625823,0.08112016,-0.18142815,0.7183567,804.65204,810.293,799.41394,733.3333,770.0,-0.32647705078125,0.0341796875,0.93414306640625,2.265472412109375,-4.104766845703125,-0.844879150390625,1.0,1.0,1.0,1.0,1.0,85.0,event
15:25:32.161,1.4878407,0.2831971,0.332609,1.7745408,1.098103,-0.101253115,0.029841196,1.1004275,1.0850848,0.15917869,0.067339376,0.87632525,0.77308923,0.06709957,0.11164775,0.69652057,0.3625823,0.08112016,-0.18142815,0.7183567,805.05493,810.696,796.99634,738.97437,760.7326,-0.32647705078125,0.0341796875,0.93414306640625,2.265472412109375,-4.104766845703125,-0.844879150390625,1.0,1.0,1.0,1.0,1.0,85.0,event
15:25:32.162,1.4878407,0.2831971,0.332609,1.7745408,1.098103,-0.101253115,0.029841196,1.1004275,1.0850848,0.15917869,0.067339376,0.87632525,0.77308923,0.06709957,0.11164775,0.69652057,0.3625823,0.08112016,-0.18142815,0.7183567,803.44324,812.71063,799.41394,743.4066,759.92676,-0.32647705078125,0.0341796875,0.93414306640625,2.265472412109375,-4.104766845703125,-0.844879150390625,1.0,1.0,1.0,1.0,1.0,85.0,event
15:25:32.162,1.4878407,0.2831971,0.332609,1.7745408,1.098103,-0.101253115,0.029841196,1.1004275,1.0850848,0.15917869,0.067339376,0.87632525,0.77308923,0.06709957,0.11164775,0.69652057,0.3625823,0.08112016,-0.18142815,0.7183567,803.44324,813.1135,798.60803,738.97437,807.8755,-0.32647705078125,0.0341796875,0.93414306640625,2.265472412109375,-4.104766845703125,-0.844879150390625,1.0,1.0,1.0,1.0,1.0,85.0,event
15:25:32.163,1.4878407,0.2831971,0.332609,1.7745408,1.098103,-0.101253115,0.029841196,1.1004275,1.0850848,0.15917869,0.067339376,0.87632525,0.77308923,0.06709957,0.11164775,0.69652057,0.3625823,0.08112016,-0.18142815,0.7183567,809.0842,808.2784,797.8022,725.2747,838.0952,-0.32647705078125,0.0341796875,0.93414306640625,2.265472412109375,-4.104766845703125,-0.844879150390625,1.0,1.0,1.0,1.0,1.0,85.0,event
15:25:32.163,1.4878407,0.2831971,0.332609,1.7745408,1.098103,-0.101253115,0.029841196,1.1004275,1.0850848,0.15917869,0.067339376,0.87632525,0.77308923,0.06709957,0.11164775,0.69652057,0.3625823,0.08112016,-0.18142815,0.7183567,800.6227,805.4579,800.2198,720.84247,1122.1611,-0.32647705078125,0.0341796875,0.93414306640625,2.265472412109375,-4.104766845703125,-0.844879150390625,1.0,1.0,1.0,1.0,1.0,85.0,event
15:25:32.164,1.4878407,0.2831971,0.332609,1.7745408,1.098103,-0.101253115,0.029841196,1.1004275,1.0850848,0.15917869,0.067339376,0.87632525,0.77308923,0.06709957,0.11164775,0.69652057,0.3625823,0.08112016,-0.18142815,0.7183567,794.17584,801.4286,796.99634,725.2747,1000.4762,-0.32647705078125,0.0341796875,0.93414306640625,2.265472412109375,-4.104766845703125,-0.844879150390625,1.0,1.0,1.0,1.0,1.0,85.0,event
15:25:32.165,1.4878407,0.2831971,0.332609,1.7745408,1.098103,-0.101253115,0.029841196,1.1004275,1.0850848,0.15917869,0.067339376,0.87632525,0.77308923,0.06709957,0.11164775,0.69652057,0.3625823,0.08112016,-0.18142815,0.7183567,793.7729,796.5934,793.7729,720.0366,636.63007,-0.32647705078125,0.0341796875,0.93414306640625,2.265472412109375,-4.104766845703125,-0.844879150390625,1.0,1.0,1.0,1.0,1.0,85.0,event
15:25:32.165,1.4878407,0.2831971,0.332609,1.7745408,1.098103,-0.101253115,0.029841196,1.1004275,1.0850848,0.15917869,0.067339376,0.87632525,0.77308923,0.06709957,0.11164775,0.69652057,0.3625823,0.08112016,-0.18142815,0.7183567,790.54944,801.4286,794.17584,738.1685,626.1539,-0.32647705078125,0.0341796875,0.93414306640625,2.265472412109375,-4.104766845703125,-0.844879150390625,1.0,1.0,1.0,1.0,1.0,85.0,event
15:25:32.191,1.4878407,0.2831971,0.332609,1.7745408,1.098103,-0.101253115,0.029841196,1.1004275,1.0850848,0.15917869,0.067339376,0.87632525,0.77308923,0.06709957,0.11164775,0.69652057,0.3625823,0.08112016,-0.18142815,0.7183567,792.1612,802.23444,802.23444,735.7509,692.6374,-0.31475830078125,0.02935791015625,0.940673828125,3.0206298828125,-3.349609375,-1.5252685546875,1.0,1.0,1.0,1.0,1.0,85.0,event
15:25:32.192,1.4878407,0.2831971,0.332609,1.7745408,1.098103,-0.101253115,0.029841196,1.1004275,1.0850848,0.15917869,0.067339376,0.87632525,0.77308923,0.06709957,0.11164775,0.69652057,0.3625823,0.08112016,-0.18142815,0.7183567,794.9817,800.2198,804.2491,735.34796,687.3993,-0.31475830078125,0.02935791015625,0.940673828125,3.0206298828125,-3.349609375,-1.5252685546875,1.0,1.0,1.0,1.0,1.0,85.0,event
15:25:32.192,1.4878407,0.2831971,0.332609,1.7745408,1.098103,-0.101253115,0.029841196,1.1004275,1.0850848,0.15917869,0.067339376,0.87632525,0.77308923,0.06709957,0.11164775,0.69652057,0.3625823,0.08112016,-0.18142815,0.7183567,790.14655,799.81683,802.23444,745.0183,677.72894,-0.31475830078125,0.02935791015625,0.940673828125,3.0206298828125,-3.349609375,-1.5252685546875,1.0,1.0,1.0,1.0,1.0,85.0,event
15:25:32.193,1.4878407,0.2831971,0.332609,1.7745408,1.098103,-0.101253115,0.029841196,1.1004275,1.0850848,0.15917869,0.067339376,0.87632525,0.77308923,0.06709957,0.11164775,0.69652057,0.3625823,0.08112016,-0.18142815,0.7183567,795.38464,804.2491,807.47253,738.97437,698.68134,-0.31475830078125,0.02935791015625,0.940673828125,3.0206298828125,-3.349609375,-1.5252685546875,1.0,1.0,1.0,1.0,1.0,85.0,event
15:25:32.193,1.4878407,0.2831971,0.332609,1.7745408,1.098103,-0.101253115,0.029841196,1.1004275,1.0850848,0.15917869,0.067339376,0.87632525,0.77308923,0.06709957,0.11164775,0.69652057,0.3625823,0.08112016,-0.18142815,0.7183567,807.0696,809.0842,811.9048,735.34796,708.7546,-0.31475830078125,0.02935791015625,0.940673828125,3.0206298828125,-3.349609375,-1.5252685546875,1.0,1.0,1.0,1.0,1.0,85.0,event
15:25:32.194,1.4878407,0.2831971,0.332609,1.7745408,1.098103,-0.101253115,0.029841196,1.1004275,1.0850848,0.15917869,0.067339376,0.87632525,0.77308923,0.06709957,0.11164775,0.69652057,0.3625823,0.08112016,-0.18142815,0.7183567,794.9817,810.293,807.8755,724.87177,821.5751,-0.31475830078125,0.02935791015625,0.940673828125,3.0206298828125,-3.349609375,-1.5252685546875,1.0,1.0,1.0,1.0,1.0,85.0,event
15:25:32.194,1.4878407,0.2831971,0.332609,1.7745408,1.098103,-0.101253115,0.029841196,1.1004275,1.0850848,0.15917869,0.067339376,0.87632525,0.77308923,0.06709957,0.11164775,0.69652057,0.3625823,0.08112016,-0.18142815,0.7183567,784.90845,809.0842,804.65204,713.5897,833.2601,-0.31475830078125,0.02935791015625,0.940673828125,3.0206298828125,-3.349609375,-1.5252685546875,1.0,1.0,1.0,1.0,1.0,85.0,event
15:25:32.195,1.4878407,0.2831971,0.332609,1.7745408,1.098103,-0.101253115,0.029841196,1.1004275,1.0850848,0.15917869,0.067339376,0.87632525,0.77308923,0.06709957,0.11164775,0.69652057,0.3625823,0.08112016,-0.18142815,0.7183567,791.75824,802.23444,804.65204,724.0659,886.04395,-0.31475830078125,0.02935791015625,0.940673828125,3.0206298828125,-3.349609375,-1.5252685546875,1.0,1.0,1.0,1.0,1.0,85.0,event
15:25:32.196,1.4878407,0.2831971,0.332609,1.7745408,1.098103,-0.101253115,0.029841196,1.1004275,1.0850848,0.15917869,0.067339376,0.87632525,0.77308923,0.06709957,0.11164775,0.69652057,0.3625823,0.08112016,-0.18142815,0.7183567,787.326,801.02563,809.4872,740.58606,814.3223,-0.31475830078125,0.02935791015625,0.940673828125,3.0206298828125,-3.349609375,-1.5252685546875,1.0,1.0,1.0,1.0,1.0,85.0,event
15:25:32.196,1.4878407,0.2831971,0.332609,1.7745408,1.098103,-0.101253115,0.029841196,1.1004275,1.0850848,0.15917869,0.067339376,0.87632525,0.77308923,0.06709957,0.11164775,0.69652057,0.3625823,0.08112016,-0.18142815,0.7183567,788.1319,799.41394,804.65204,740.18317,1001.28204,-0.31475830078125,0.02935791015625,0.940673828125,3.0206298828125,-3.349609375,-1.5252685546875,1.0,1.0,1.0,1.0,1.0,85.0,event
15:25:32.197,1.4878407,0.2831971,0.332609,1.7745408,1.098103,-0.101253115,0.029841196,1.1004275,1.0850848,0.15917869,0.067339376,0.87632525,0.77308923,0.06709957,0.11164775,0.69652057,0.3625823,0.08112016,-0.18142815,0.7183567,791.3553,801.4286,809.89014,733.73627,760.32965,-0.31475830078125,0.02935791015625,0.940673828125,3.0206298828125,-3.349609375,-1.5252685546875,1.0,1.0,1.0,1.0,1.0,85.0,event
15:25:32.197,1.4878407,0.2831971,0.332609,1.7745408,1.098103,-0.101253115,0.029841196,1.1004275,1.0850848,0.15917869,0.067339376,0.87632525,0.77308923,0.06709957,0.11164775,0.69652057,0.3625823,0.08112016,-0.18142815,0.7183567,790.9524,805.4579,805.05493,729.707,897.72894,-0.31475830078125,0.02935791015625,0.940673828125,3.0206298828125,-3.349609375,-1.5252685546875,1.0,1.0,1.0,1.0,1.0,85.0,event
15:25:32.236,1.4878407,0.2831971,0.332609,1.7745408,1.098103,-0.101253115,0.029841196,1.1004275,1.0850848,0.15917869,0.067339376,0.87632525,0.77308923,0.06709957,0.11164775,0.69652057,0.3625823,0.08112016,-0.18142815,0.7183567,782.8938,803.8461,800.6227,721.6484,833.2601,-0.32684326171875,0.03302001953125,0.927734375,2.093505859375,-1.173858642578125,-1.4056396484375,1.0,1.0,1.0,1.0,1.0,85.0,event
15:25:32.237,1.4878407,0.2831971,0.332609,1.7745408,1.098103,-0.101253115,0.029841196,1.1004275,1.0850848,0.15917869,0.067339376,0.87632525,0.77308923,0.06709957,0.11164775,0.69652057,0.3625823,0.08112016,-0.18142815,0.7183567,783.2967,804.65204,799.41394,724.4689,736.9597,-0.32684326171875,0.03302001953125,0.927734375,2.093505859375,-1.173858642578125,-1.4056396484375,1.0,1.0,1.0,1.0,1.0,85.0,event
15:25:32.238,1.4878407,0.2831971,0.332609,1.7745408,1.098103,-0.101253115,0.029841196,1.1004275,1.0850848,0.15917869,0.067339376,0.87632525,0.77308923,0.06709957,0.11164775,0.69652057,0.3625823,0.08112016,-0.18142815,0.7183567,799.011,809.0842,803.0403,724.4689,765.16486,-0.32684326171875,0.03302001953125,0.927734375,2.093505859375,-1.173858642578125,-1.4056396484375,1.0,1.0,1.0,1.0,1.0,85.0,event
15:25:32.238,1.4878407,0.2831971,0.332609,1.7745408,1.098103,-0.101253115,0.029841196,1.1004275,1.0850848,0.15917869,0.067339376,0.87632525,0.77308923,0.06709957,0.11164775,0.69652057,0.3625823,0.08112016,-0.18142815,0.7183567,789.7436,807.47253,802.23444,708.7546,811.0989,-0.32684326171875,0.03302001953125,0.927734375,2.093505859375,-1.173858642578125,-1.4056396484375,1.0,1.0,1.0,1.0,1.0,85.0,event
15:25:32.239,1.4878407,0.2831971,0.332609,1.7745408,1.098103,-0.101253115,0.029841196,1.1004275,1.0850848,0.15917869,0.067339376,0.87632525,0.77308923,0.06709957,0.11164775,0.69652057,0.3625823,0.08112016,-0.18142815,0.7183567,784.90845,811.50183,802.6374,722.4542,728.9011,-0.32684326171875,0.03302001953125,0.927734375,2.093505859375,-1.173858642578125,-1.4056396484375,1.0,1.0,1.0,1.0,1.0,85.0,event
15:25:32.239,1.349298,0.23463161,0.38299736,1.7745408,0.9655234,-0.1605579,0.011491537,1.1004275,0.9792037,0.12830512,0.072393395,0.87632525,0.76786816,0.052819535,0.11463401,0.69652057,0.30541596,0.0421656,-0.23782247,0.7183567,796.1905,810.293,804.65204,740.989,778.46155,-0.32684326171875,0.03302001953125,0.927734375,2.093505859375,-1.173858642578125,-1.4056396484375,1.0,1.0,1.0,1.0,1.0,85.0,event
15:25:32.244,1.349298,0.23463161,0.38299736,1.7745408,0.9655234,-0.1605579,0.011491537,1.1004275,0.9792037,0.12830512,0.072393395,0.87632525,0.76786816,0.052819535,0.11463401,0.69652057,0.30541596,0.0421656,-0.23782247,0.7183567,789.7436,803.44324,807.47253,739.7802,896.52014,-0.32684326171875,0.03302001953125,0.927734375,2.093505859375,-1.173858642578125,-1.4056396484375,1.0,1.0,1.0,1.0,1.0,85.0,event
15:25:32.245,1.349298,0.23463161,0.38299736,1.7745408,0.9655234,-0.1605579,0.011491537,1.1004275,0.9792037,0.12830512,0.072393395,0.87632525,0.76786816,0.052819535,0.11463401,0.69652057,0.30541596,0.0421656,-0.23782247,0.7183567,791.75824,807.47253,797.3993,731.7216,892.8938,-0.32684326171875,0.03302001953125,0.927734375,2.093505859375,-1.173858642578125,-1.4056396484375,1.0,1.0,1.0,1.0,1.0,85.0,event
15:25:32.245,1.349298,0.23463161,0.38299736,1.7745408,0.9655234,-0.1605579,0.011491537,1.1004275,0.9792037,0.12830512,0.072393395,0.87632525,0.76786816,0.052819535,0.11463401,0.69652057,0.30541596,0.0421656,-0.23782247,0.7183567,785.7143,807.47253,804.2491,732.9304,1014.9817,-0.32684326171875,0.03302001953125,0.927734375,2.093505859375,-1.173858642578125,-1.4056396484375,1.0,1.0,1.0,1.0,1.0,85.0,event
15:25:32.246,1.349298,0.23463161,0.38299736,1.7745408,0.9655234,-0.1605579,0.011491537,1.1004275,0.9792037,0.12830512,0.072393395,0.87632525,0.76786816,0.052819535,0.11463401,0.69652057,0.30541596,0.0421656,-0.23782247,0.7183567,788.93774,803.0403,801.02563,732.9304,647.1062,-0.32684326171875,0.03302001953125,0.927734375,2.093505859375,-1.173858642578125,-1.4056396484375,1.0,1.0,1.0,1.0,1.0,85.0,event
15:25:32.247,1.349298,0.23463161,0.38299736,1.7745408,0.9655234,-0.1605579,0.011491537,1.1004275,0.9792037,0.12830512,0.072393395,0.87632525,0.76786816,0.052819535,0.11463401,0.69652057,0.30541596,0.0421656,-0.23782247,0.7183567,783.69965,799.81683,804.2491,732.9304,661.6117,-0.32684326171875,0.03302001953125,0.927734375,2.093505859375,-1.173858642578125,-1.4056396484375,1.0,1.0,1.0,1.0,1.0,85.0,event
15:25:32.247,1.349298,0.23463161,0.38299736,1.7745408,0.9655234,-0.1605579,0.011491537,1.1004275,0.9792037,0.12830512,0.072393395,0.87632525,0.76786816,0.052819535,0.11463401,0.69652057,0.30541596,0.0421656,-0.23782247,0.7183567,802.6374,798.60803,801.8315,732.1245,745.82416,-0.32684326171875,0.03302001953125,0.927734375,2.093505859375,-1.173858642578125,-1.4056396484375,1.0,1.0,1.0,1.0,1.0,85.0,event
15:25:32.278,1.349298,0.23463161,0.38299736,1.7745408,0.9655234,-0.1605579,0.011491537,1.1004275,0.9792037,0.12830512,0.072393395,0.87632525,0.76786816,0.052819535,0.11463401,0.69652057,0.30541596,0.0421656,-0.23782247,0.7183567,806.26373,807.47253,803.0403,733.73627,721.2454,-0.32684326171875,0.03302001953125,0.927734375,2.093505859375,-1.173858642578125,-1.4056396484375,1.0,1.0,1.0,1.0,1.0,85.0,event
15:25:32.278,1.349298,0.23463161,0.38299736,1.7745408,0.9655234,-0.1605579,0.011491537,1.1004275,0.9792037,0.12830512,0.072393395,0.87632525,0.76786816,0.052819535,0.11463401,0.69652057,0.30541596,0.0421656,-0.23782247,0.7183567,779.67035,810.293,802.23444,729.707,711.1722,-0.32684326171875,0.03302001953125,0.927734375,2.093505859375,-1.173858642578125,-1.4056396484375,1.0,1.0,1.0,1.0,1.0,85.0,event
15:25:32.279,1.349298,0.23463161,0.38299736,1.7745408,0.9655234,-0.1605579,0.011491537,1.1004275,0.9792037,0.12830512,0.072393395,0.87632525,0.76786816,0.052819535,0.11463401,0.69652057,0.30541596,0.0421656,-0.23782247,0.7183567,769.59705,801.4286,797.3993,715.6044,811.50183,-0.32684326171875,0.03302001953125,0.927734375,2.093505859375,-1.173858642578125,-1.4056396484375,1.0,1.0,1.0,1.0,1.0,85.0,event
15:25:32.280,1.349298,0.23463161,0.38299736,1.7745408,0.9655234,-0.1605579,0.011491537,1.1004275,0.9792037,0.12830512,0.072393395,0.87632525,0.76786816,0.052819535,0.11463401,0.69652057,0.30541596,0.0421656,-0.23782247,0.7183567,778.46155,802.6374,799.41394,717.619,788.1319,-0.32684326171875,0.03302001953125,0.927734375,2.093505859375,-1.173858642578125,-1.4056396484375,1.0,1.0,1.0,1.0,1.0,85.0,event
15:25:32.280,1.349298,0.23463161,0.38299736,1.7745408,0.9655234,-0.1605579,0.011491537,1.1004275,0.9792037,0.12830512,0.072393395,0.87632525,0.76786816,0.052819535,0.11463401,0.69652057,0.30541596,0.0421656,-0.23782247,0.7183567,783.2967,805.8608,800.2198,723.2601,718.022,-0.32684326171875,0.03302001953125,0.927734375,2.093505859375,-1.173858642578125,-1.4056396484375,1.0,1.0,1.0,1.0,1.0,85.0,event
15:25:32.281,1.349298,0.23463161,0.38299736,1.7745408,0.9655234,-0.1605579,0.011491537,1.1004275,0.9792037,0.12830512,0.072393395,0.87632525,0.76786816,0.052819535,0.11463401,0.69652057,0.30541596,0.0421656,-0.23782247,0.7183567,789.34064,797.3993,799.011,713.1868,851.79486,-0.32684326171875,0.03302001953125,0.927734375,2.093505859375,-1.173858642578125,-1.4056396484375,1.0,1.0,1.0,1.0,1.0,85.0,event
15:25:32.281,1.349298,0.23463161,0.38299736,1.7745408,0.9655234,-0.1605579,0.011491537,1.1004275,0.9792037,0.12830512,0.072393395,0.87632525,0.76786816,0.052819535,0.11463401,0.69652057,0.30541596,0.0421656,-0.23782247,0.7183567,786.1172,799.81683,800.6227,716.0073,738.5714,-0.32684326171875,0.03302001953125,0.927734375,2.093505859375,-1.173858642578125,-1.4056396484375,1.0,1.0,1.0,1.0,1.0,85.0,event
15:25:32.282,1.349298,0.23463161,0.38299736,1.7745408,0.9655234,-0.1605579,0.011491537,1.1004275,0.9792037,0.12830512,0.072393395,0.87632525,0.76786816,0.052819535,0.11463401,0.69652057,0.30541596,0.0421656,-0.23782247,0.7183567,788.93774,799.81683,794.17584,726.4835,1058.0952,-0.32684326171875,0.03302001953125,0.927734375,2.093505859375,-1.173858642578125,-1.4056396484375,1.0,1.0,1.0,1.0,1.0,85.0,event
15:25:32.283,1.349298,0.23463161,0.38299736,1.7745408,0.9655234,-0.1605579,0.011491537,1.1004275,0.9792037,0.12830512,0.072393395,0.87632525,0.76786816,0.052819535,0.11463401,0.69652057,0.30541596,0.0421656,-0.23782247,0.7183567,794.17584,800.6227,792.96704,730.9158,839.304,-0.32684326171875,0.03302001953125,0.927734375,2.093505859375,-1.173858642578125,-1.4056396484375,1.0,1.0,1.0,1.0,1.0,85.0,event
15:25:32.283,1.349298,0.23463161,0.38299736,1.7745408,0.9655234,-0.1605579,0.011491537,1.1004275,0.9792037,0.12830512,0.072393395,0.87632525,0.76786816,0.052819535,0.11463401,0.69652057,0.30541596,0.0421656,-0.23782247,0.7183567,794.17584,803.44324,795.78754,731.7216,688.60803,-0.32684326171875,0.03302001953125,0.927734375,2.093505859375,-1.173858642578125,-1.4056396484375,1.0,1.0,1.0,1.0,1.0,85.0,event
15:25:32.284,1.349298,0.23463161,0.38299736,1.7745408,0.9655234,-0.1605579,0.011491537,1.1004275,0.9792037,0.12830512,0.072393395,0.87632525,0.76786816,0.052819535,0.11463401,0.69652057,0.30541596,0.0421656,-0.23782247,0.7183567,797.3993,808.2784,799.41394,728.49817,819.9634,-0.32684326171875,0.03302001953125,0.927734375,2.093505859375,-1.173858642578125,-1.4056396484375,1.0,1.0,1.0,1.0,1.0,85.0,event
15:25:32.285,1.349298,0.23463161,0.38299736,1.7745408,0.9655234,-0.1605579,0.011491537,1.1004275,0.9792037,0.12830512,0.072393395,0.87632525,0.76786816,0.052819535,0.11463401,0.69652057,0.30541596,0.0421656,-0.23782247,0.7183567,801.02563,803.44324,794.57874,721.2454,843.73627,-0.32684326171875,0.03302001953125,0.927734375,2.093505859375,-1.173858642578125,-1.4056396484375,1.0,1.0,1.0,1.0,1.0,85.0,event
15:25:32.345,1.349298,0.23463161,0.38299736,1.7745408,0.9655234,-0.1605579,0.011491537,1.1004275,0.9792037,0.12830512,0.072393395,0.87632525,0.76786816,0.052819535,0.11463401,0.69652057,0.30541596,0.0421656,-0.23782247,0.7183567,797.8022,797.3993,789.7436,722.8571,729.304,-0.3251953125,0.0450439453125,0.931396484375,2.818756103515625,-3.431854248046875,-0.142059326171875,1.0,1.0,1.0,1.0,1.0,85.0,event
15:25:32.346,1.349298,0.23463161,0.38299736,1.7745408,0.9655234,-0.1605579,0.011491537,1.1004275,0.9792037,0.12830512,0.072393395,0.87632525,0.76786816,0.052819535,0.11463401,0.69652057,0.30541596,0.0421656,-0.23782247,0.7183567,790.9524,796.1905,790.14655,715.2015,730.10986,-0.3251953125,0.0450439453125,0.931396484375,2.818756103515625,-3.431854248046875,-0.142059326171875,1.0,1.0,1.0,1.0,1.0,85.0,event
15:25:32.347,1.349298,0.23463161,0.38299736,1.7745408,0.9655234,-0.1605579,0.011491537,1.1004275,0.9792037,0.12830512,0.072393395,0.87632525,0.76786816,0.052819535,0.11463401,0.69652057,0.30541596,0.0421656,-0.23782247,0.7183567,777.25275,793.36993,788.1319,706.7399,790.14655,-0.3251953125,0.0450439453125,0.931396484375,2.818756103515625,-3.431854248046875,-0.142059326171875,1.0,1.0,1.0,1.0,1.0,85.0,event
15:25:32.348,1.349298,0.23463161,0.38299736,1.7745408,0.9655234,-0.1605579,0.011491537,1.1004275,0.9792037,0.12830512,0.072393395,0.87632525,0.76786816,0.052819535,0.11463401,0.69652057,0.30541596,0.0421656,-0.23782247,0.7183567,788.5348,790.54944,791.3553,740.58606,782.8938,-0.3251953125,0.0450439453125,0.931396484375,2.818756103515625,-3.431854248046875,-0.142059326171875,1.0,1.0,1.0,1.0,1.0,85.0,event
15:25:32.348,1.349298,0.23463161,0.38299736,1.7745408,0.9655234,-0.1605579,0.011491537,1.1004275,0.9792037,0.12830512,0.072393395,0.87632525,0.76786816,0.052819535,0.11463401,0.69652057,0.30541596,0.0421656,-0.23782247,0.7183567,795.38464,790.9524,797.8022,747.8388,727.28937,-0.3251953125,0.0450439453125,0.931396484375,2.818756103515625,-3.431854248046875,-0.142059326171875,1.0,1.0,1.0,1.0,1.0,85.0,event
15:25:32.349,1.349298,0.23463161,0.38299736,1.7745408,0.9655234,-0.1605579,0.011491537,1.1004275,0.9792037,0.12830512,0.072393395,0.87632525,0.76786816,0.052819535,0.11463401,0.69652057,0.30541596,0.0421656,-0.23782247,0.7183567,793.36993,796.1905,800.6227,740.18317,761.53845,-0.3251953125,0.0450439453125,0.931396484375,2.818756103515625,-3.431854248046875,-0.142059326171875,1.0,1.0,1.0,1.0,1.0,85.0,event
15:25:32.350,1.349298,0.23463161,0.38299736,1.7745408,0.9655234,-0.1605579,0.011491537,1.1004275,0.9792037,0.12830512,0.072393395,0.87632525,0.76786816,0.052819535,0.11463401,0.69652057,0.30541596,0.0421656,-0.23782247,0.7183567,791.75824,801.8315,799.41394,749.0476,1077.8389,-0.3251953125,0.0450439453125,0.931396484375,2.818756103515625,-3.431854248046875,-0.142059326171875,1.0,1.0,1.0,1.0,1.0,85.0,event
15:25:32.350,1.0036714,0.16260667,0.40165678,0.43989417,0.8233673,-0.2101955,-0.01742748,0.5480065,0.7157034,0.11407782,0.07656523,0.7028425,0.74831223,0.02665454,0.11020205,0.7975954,0.21051729,-0.018621026,-0.30823123,0.6209885,796.5934,800.6227,799.81683,739.3773,1116.9231,-0.3251953125,0.0450439453125,0.931396484375,2.818756103515625,-3.431854248046875,-0.142059326171875,1.0,1.0,1.0,1.0,1.0,85.0,event
15:25:32.355,1.0036714,0.16260667,0.40165678,0.43989417,0.8233673,-0.2101955,-0.01742748,0.5480065,0.7157034,0.11407782,0.07656523,0.7028425,0.74831223,0.02665454,0.11020205,0.7975954,0.21051729,-0.018621026,-0.30823123,0.6209885,807.8755,798.60803,801.4286,739.3773,798.20514,-0.3251953125,0.0450439453125,0.931396484375,2.818756103515625,-3.431854248046875,-0.142059326171875,1.0,1.0,1.0,1.0,1.0,85.0,event
15:25:32.355,1.0036714,0.16260667,0.40165678,0.43989417,0.8233673,-0.2101955,-0.01742748,0.5480065,0.7157034,0.11407782,0.07656523,0.7028425,0.74831223,0.02665454,0.11020205,0.7975954,0.21051729,-0.018621026,-0.30823123,0.6209885,807.47253,800.6227,801.02563,747.8388,812.71063,-0.3251953125,0.0450439453125,0.931396484375,2.818756103515625,-3.431854248046875,-0.142059326171875,1.0,1.0,1.0,1.0,1.0,85.0,event
15:25:32.356,1.0036714,0.16260667,0.40165678,0.43989417,0.8233673,-0.2101955,-0.01742748,0.5480065,0.7157034,0.11407782,0.07656523,0.7028425,0.74831223,0.02665454,0.11020205,0.7975954,0.21051729,-0.018621026,-0.30823123,0.6209885,799.011,802.6374,798.20514,751.06226,903.36993,-0.3251953125,0.0450439453125,0.931396484375,2.818756103515625,-3.431854248046875,-0.142059326171875,1.0,1.0,1.0,1.0,1.0,85.0,event
15:25:32.357,1.0036714,0.16260667,0.40165678,0.43989417,0.8233673,-0.2101955,-0.01742748,0.5480065,0.7157034,0.11407782,0.07656523,0.7028425,0.74831223,0.02665454,0.11020205,0.7975954,0.21051729,-0.018621026,-0.30823123,0.6209885,799.011,807.0696,797.8022,749.45056,767.1795,-0.3251953125,0.0450439453125,0.931396484375,2.818756103515625,-3.431854248046875,-0.142059326171875,1.0,1.0,1.0,1.0,1.0,85.0,event
15:25:32.380,1.0036714,0.16260667,0.40165678,0.43989417,0.8233673,-0.2101955,-0.01742748,0.5480065,0.7157034,0.11407782,0.07656523,0.7028425,0.74831223,0.02665454,0.11020205,0.7975954,0.21051729,-0.018621026,-0.30823123,0.6209885,788.93774,806.6667,795.78754,742.1978,771.2088,-0.32452392578125,0.0604248046875,0.93646240234375,3.529052734375,-5.106658935546875,1.786956787109375,1.0,1.0,1.0,1.0,1.0,85.0,event
15:25:32.381,1.0036714,0.16260667,0.40165678,0.43989417,0.8233673,-0.2101955,-0.01742748,0.5480065,0.7157034,0.11407782,0.07656523,0.7028425,0.74831223,0.02665454,0.11020205,0.7975954,0.21051729,-0.018621026,-0.30823123,0.6209885,789.7436,804.65204,800.6227,744.61536,806.6667,-0.32452392578125,0.0604248046875,0.93646240234375,3.529052734375,-5.106658935546875,1.786956787109375,1.0,1.0,1.0,1.0,1.0,85.0,event
15:25:32.381,1.0036714,0.16260667,0.40165678,0.43989417,0.8233673,-0.2101955,-0.01742748,0.5480065,0.7157034,0.11407782,0.07656523,0.7028425,0.74831223,0.02665454,0.11020205,0.7975954,0.21051729,-0.018621026,-0.30823123,0.6209885,791.75824,803.0403,808.2784,732.1245,762.3443,-0.32452392578125,0.0604248046875,0.93646240234375,3.529052734375,-5.106658935546875,1.786956787109375,1.0,1.0,1.0,1.0,1.0,85.0,event
15:25:32.382,1.0036714,0.16260667,0.40165678,0.43989417,0.8233673,-0.2101955,-0.01742748,0.5480065,0.7157034,0.11407782,0.07656523,0.7028425,0.74831223,0.02665454,0.11020205,0.7975954,0.21051729,-0.018621026,-0.30823123,0.6209885,782.0879,805.05493,800.6227,719.6337,723.2601,-0.32452392578125,0.0604248046875,0.93646240234375,3.529052734375,-5.106658935546875,1.786956787109375,1.0,1.0,1.0,1.0,1.0,85.0,event
15:25:32.383,1.0036714,0.16260667,0.40165678,0.43989417,0.8233673,-0.2101955,-0.01742748,0.5480065,0.7157034,0.11407782,0.07656523,0.7028425,0.74831223,0.02665454,0.11020205,0.7975954,0.21051729,-0.018621026,-0.30823123,0.6209885,793.7729,806.6667,797.3993,738.1685,740.58606,-0.32452392578125,0.0604248046875,0.93646240234375,3.529052734375,-5.106658935546875,1.786956787109375,1.0,1.0,1.0,1.0,1.0,85.0,event
15:25:32.383,1.0036714,0.16260667,0.40165678,0.43989417,0.8233673,-0.2101955,-0.01742748,0.5480065,0.7157034,0.11407782,0.07656523,0.7028425,0.74831223,0.02665454,0.11020205,0.7975954,0.21051729,-0.018621026,-0.30823123,0.6209885,792.1612,799.81683,798.60803,757.50916,869.92676,-0.32452392578125,0.0604248046875,0.93646240234375,3.529052734375,-5.106658935546875,1.786956787109375,1.0,1.0,1.0,1.0,1.0,85.0,event
15:25:32.384,1.0036714,0.16260667,0.40165678,0.43989417,0.8233673,-0.2101955,-0.01742748,0.5480065,0.7157034,0.11407782,0.07656523,0.7028425,0.74831223,0.02665454,0.11020205,0.7975954,0.21051729,-0.018621026,-0.30823123,0.6209885,786.1172,799.81683,794.17584,753.0769,967.03296,-0.32452392578125,0.0604248046875,0.93646240234375,3.529052734375,-5.106658935546875,1.786956787109375,1.0,1.0,1.0,1.0,1.0,85.0,event
15:25:32.384,1.0036714,0.16260667,0.40165678,0.43989417,0.8233673,-0.2101955,-0.01742748,0.5480065,0.7157034,0.11407782,0.07656523,0.7028425,0.74831223,0.02665454,0.11020205,0.7975954,0.21051729,-0.018621026,-0.30823123,0.6209885,785.7143,805.05493,795.78754,728.9011,786.9231,-0.32452392578125,0.0604248046875,0.93646240234375,3.529052734375,-5.106658935546875,1.786956787109375,1.0,1.0,1.0,1.0,1.0,85.0,event
15:25:32.385,1.0036714,0.16260667,0.40165678,0.43989417,0.8233673,-0.2101955,-0.01742748,0.5480065,0.7157034,0.11407782,0.07656523,0.7028425,0.74831223,0.02665454,0.11020205,0.7975954,0.21051729,-0.018621026,-0.30823123,0.6209885,789.34064,810.696,795.78754,728.9011,738.97437,-0.32452392578125,0.0604248046875,0.93646240234375,3.529052734375,-5.106658935546875,1.786956787109375,1.0,1.0,1.0,1.0,1.0,85.0,event
15:25:32.386,1.0036714,0.16260667,0.40165678,0.43989417,0.8233673,-0.2101955,-0.01742748,0.5480065,0.7157034,0.11407782,0.07656523,0.7028425,0.74831223,0.02665454,0.11020205,0.7975954,0.21051729,-0.018621026,-0.30823123,0.6209885,773.6264,811.9048,790.9524,724.0659,994.43225,-0.32452392578125,0.0604248046875,0.93646240234375,3.529052734375,-5.106658935546875,1.786956787109375,1.0,1.0,1.0,1.0,1.0,85.0,event
15:25:32.386,1.0036714,0.16260667,0.40165678,0.43989417,0.8233673,-0.2101955,-0.01742748,0.5480065,0.7157034,0.11407782,0.07656523,0.7028425,0.74831223,0.02665454,0.11020205,0.7975954,0.21051729,-0.018621026,-0.30823123,0.6209885,781.28204,813.1135,792.96704,728.49817,972.27106,-0.32452392578125,0.0604248046875,0.93646240234375,3.529052734375,-5.106658935546875,1.786956787109375,1.0,1.0,1.0,1.0,1.0,85.0,event
15:25:32.387,1.0036714,0.16260667,0.40165678,0.43989417,0.8233673,-0.2101955,-0.01742748,0.5480065,0.7157034,0.11407782,0.07656523,0.7028425,0.74831223,0.02665454,0.11020205,0.7975954,0.21051729,-0.018621026,-0.30823123,0.6209885,782.8938,811.9048,786.9231,723.663,772.4176,-0.32452392578125,0.0604248046875,0.93646240234375,3.529052734375,-5.106658935546875,1.786956787109375,1.0,1.0,1.0,1.0,1.0,85.0,event
15:25:32.412,1.0036714,0.16260667,0.40165678,0.43989417,0.8233673,-0.2101955,-0.01742748,0.5480065,0.7157034,0.11407782,0.07656523,0.7028425,0.74831223,0.02665454,0.11020205,0.7975954,0.21051729,-0.018621026,-0.30823123,0.6209885,778.0586,815.5311,788.93774,721.2454,729.707,-0.32720947265625,0.0555419921875,0.94146728515625,1.495361328125,-4.85992431640625,1.383209228515625,1.0,1.0,1.0,1.0,1.0,85.0,event
15:25:32.413,1.0036714,0.16260667,0.40165678,0.43989417,0.8233673,-0.2101955,-0.01742748,0.5480065,0.7157034,0.11407782,0.07656523,0.7028425,0.74831223,0.02665454,0.11020205,0.7975954,0.21051729,-0.018621026,-0.30823123,0.6209885,775.2381,812.3077,792.1612,728.0952,761.9414,-0.32720947265625,0.0555419921875,0.94146728515625,1.495361328125,-4.85992431640625,1.383209228515625,1.0,1.0,1.0,1.0,1.0,85.0,event
15:25:32.414,1.0036714,0.16260667,0.40165678,0.43989417,0.8233673,-0.2101955,-0.01742748,0.5480065,0.7157034,0.11407782,0.07656523,0.7028425,0.74831223,0.02665454,0.11020205,0.7975954,0.21051729,-0.018621026,-0.30823123,0.6209885,776.4469,809.4872,789.34064,723.663,725.2747,-0.32720947265625,0.0555419921875,0.94146728515625,1.495361328125,-4.85992431640625,1.383209228515625,1.0,1.0,1.0,1.0,1.0,85.0,event
15:25:32.414,1.0036714,0.16260667,0.40165678,0.43989417,0.8233673,-0.2101955,-0.01742748,0.5480065,0.7157034,0.11407782,0.07656523,0.7028425,0.74831223,0.02665454,0.11020205,0.7975954,0.21051729,-0.018621026,-0.30823123,0.6209885,782.0879,808.68134,789.7436,713.1868,698.2784,-0.32720947265625,0.0555419921875,0.94146728515625,1.495361328125,-4.85992431640625,1.383209228515625,1.0,1.0,1.0,1.0,1.0,85.0,event
15:25:32.415,1.0036714,0.16260667,0.40165678,0.43989417,0.8233673,-0.2101955,-0.01742748,0.5480065,0.7157034,0.11407782,0.07656523,0.7028425,0.74831223,0.02665454,0.11020205,0.7975954,0.21051729,-0.018621026,-0.30823123,0.6209885,781.685,807.0696,791.3553,720.4396,760.7326,-0.32720947265625,0.0555419921875,0.94146728515625,1.495361328125,-4.85992431640625,1.383209228515625,1.0,1.0,1.0,1.0,1.0,85.0,event
15:25:32.415,1.0036714,0.16260667,0.40165678,0.43989417,0.8233673,-0.2101955,-0.01742748,0.5480065,0.7157034,0.11407782,0.07656523,0.7028425,0.74831223,0.02665454,0.11020205,0.7975954,0.21051729,-0.018621026,-0.30823123,0.6209885,775.64105,805.05493,792.5641,730.9158,936.8132,-0.32720947265625,0.0555419921875,0.94146728515625,1.495361328125,-4.85992431640625,1.383209228515625,1.0,1.0,1.0,1.0,1.0,85.0,event
15:25:32.416,1.0036714,0.16260667,0.40165678,0.43989417,0.8233673,-0.2101955,-0.01742748,0.5480065,0.7157034,0.11407782,0.07656523,0.7028425,0.74831223,0.02665454,0.11020205,0.7975954,0.21051729,-0.018621026,-0.30823123,0.6209885,780.4762,807.8755,797.3993,735.7509,882.4176,-0.32720947265625,0.0555419921875,0.94146728515625,1.495361328125,-4.85992431640625,1.383209228515625,1.0,1.0,1.0,1.0,1.0,85.0,event
15:25:32.416,1.0036714,0.16260667,0.40165678,0.43989417,0.8233673,-0.2101955,-0.01742748,0.5480065,0.7157034,0.11407782,0.07656523,0.7028425,0.74831223,0.02665454,0.11020205,0.7975954,0.21051729,-0.018621026,-0.30823123,0.6209885,793.7729,812.71063,798.20514,738.5714,708.7546,-0.32720947265625,0.0555419921875,0.94146728515625,1.495361328125,-4.85992431640625,1.383209228515625,1.0,1.0,1.0,1.0,1.0,85.0,event
15:25:32.417,0.9682114,0.076909766,0.39873204,0.47003826,0.7826714,-0.24718244,-0.05472541,0.5054477,0.7196702,0.13254045,0.08004824,0.7057806,0.7272618,-0.0037701528,0.09917477,0.7761471,0.1916714,-0.08740049,-0.37294772,0.5965634,788.93774,807.47253,796.99634,732.9304,1027.4725,-0.32720947265625,0.0555419921875,0.94146728515625,1.495361328125,-4.85992431640625,1.383209228515625,1.0,1.0,1.0,1.0,1.0,85.0,event
15:25:32.417,1.0036714,0.16260667,0.40165678,0.43989417,0.8233673,-0.2101955,-0.01742748,0.5480065,0.7157034,0.11407782,0.07656523,0.7028425,0.74831223,0.02665454,0.11020205,0.7975954,0.21051729,-0.018621026,-0.30823123,0.6209885,796.1905,813.1135,796.99634,746.63007,771.6117,-0.32720947265625,0.0555419921875,0.94146728515625,1.495361328125,-4.85992431640625,1.383209228515625,1.0,1.0,1.0,1.0,1.0,85.0,event
15:25:32.421,0.9682114,0.076909766,0.39873204,0.47003826,0.7826714,-0.24718244,-0.05472541,0.5054477,0.7196702,0.13254045,0.08004824,0.7057806,0.7272618,-0.0037701528,0.09917477,0.7761471,0.1916714,-0.08740049,-0.37294772,0.5965634,786.9231,807.8755,797.3993,725.2747,824.3956,-0.32720947265625,0.0555419921875,0.94146728515625,1.495361328125,-4.85992431640625,1.383209228515625,1.0,1.0,1.0,1.0,1.0,85.0,event
15:25:32.422,0.9682114,0.076909766,0.39873204,0.47003826,0.7826714,-0.24718244,-0.05472541,0.5054477,0.7196702,0.13254045,0.08004824,0.7057806,0.7272618,-0.0037701528,0.09917477,0.7761471,0.1916714,-0.08740049,-0.37294772,0.5965634,786.1172,813.5165,794.17584,731.7216,699.0842,-0.32720947265625,0.0555419921875,0.94146728515625,1.495361328125,-4.85992431640625,1.383209228515625,1.0,1.0,1.0,1.0,1.0,85.0,event
15:25:32.486,0.9682114,0.076909766,0.39873204,0.47003826,0.7826714,-0.24718244,-0.05472541,0.5054477,0.7196702,0.13254045,0.08004824,0.7057806,0.7272618,-0.0037701528,0.09917477,0.7761471,0.1916714,-0.08740049,-0.37294772,0.5965634,788.1319,814.3223,792.1612,729.707,863.47986,-0.32708740234375,0.04150390625,0.939453125,1.009368896484375,-3.63372802734375,-0.07476806640625,1.0,1.0,1.0,1.0,1.0,85.0,event
15:25:32.487,0.9682114,0.076909766,0.39873204,0.47003826,0.7826714,-0.24718244,-0.05472541,0.5054477,0.7196702,0.13254045,0.08004824,0.7057806,0.7272618,-0.0037701528,0.09917477,0.7761471,0.1916714,-0.08740049,-0.37294772,0.5965634,782.49084,808.68134,790.9524,735.7509,842.9304,-0.32708740234375,0.04150390625,0.939453125,1.009368896484375,-3.63372802734375,-0.07476806640625,1.0,1.0,1.0,1.0,1.0,85.0,event
15:25:32.488,0.9682114,0.076909766,0.39873204,0.47003826,0.7826714,-0.24718244,-0.05472541,0.5054477,0.7196702,0.13254045,0.08004824,0.7057806,0.7272618,-0.0037701528,0.09917477,0.7761471,0.1916714,-0.08740049,-0.37294772,0.5965634,788.5348,809.89014,794.9817,732.9304,718.4249,-0.32708740234375,0.04150390625,0.939453125,1.009368896484375,-3.63372802734375,-0.07476806640625,1.0,1.0,1.0,1.0,1.0,85.0,event
15:25:32.489,0.9682114,0.076909766,0.39873204,0.47003826,0.7826714,-0.24718244,-0.05472541,0.5054477,0.7196702,0.13254045,0.08004824,0.7057806,0.7272618,-0.0037701528,0.09917477,0.7761471,0.1916714,-0.08740049,-0.37294772,0.5965634,797.3993,817.1429,799.011,729.304,682.1612,-0.32708740234375,0.04150390625,0.939453125,1.009368896484375,-3.63372802734375,-0.07476806640625,1.0,1.0,1.0,1.0,1.0,85.0,event
15:25:32.489,0.9682114,0.076909766,0.39873204,0.47003826,0.7826714,-0.24718244,-0.05472541,0.5054477,0.7196702,0.13254045,0.08004824,0.7057806,0.7272618,-0.0037701528,0.09917477,0.7761471,0.1916714,-0.08740049,-0.37294772,0.5965634,796.5934,810.696,796.5934,739.3773,748.24176,-0.32708740234375,0.04150390625,0.939453125,1.009368896484375,-3.63372802734375,-0.07476806640625,1.0,1.0,1.0,1.0,1.0,85.0,event
15:25:32.490,0.9682114,0.076909766,0.39873204,0.47003826,0.7826714,-0.24718244,-0.05472541,0.5054477,0.7196702,0.13254045,0.08004824,0.7057806,0.7272618,-0.0037701528,0.09917477,0.7761471,0.1916714,-0.08740049,-0.37294772,0.5965634,789.7436,801.4286,798.60803,743.00366,822.7839,-0.32708740234375,0.04150390625,0.939453125,1.009368896484375,-3.63372802734375,-0.07476806640625,1.0,1.0,1.0,1.0,1.0,85.0,event
15:25:32.491,0.9682114,0.076909766,0.39873204,0.47003826,0.7826714,-0.24718244,-0.05472541,0.5054477,0.7196702,0.13254045,0.08004824,0.7057806,0.7272618,-0.0037701528,0.09917477,0.7761471,0.1916714,-0.08740049,-0.37294772,0.5965634,799.81683,801.4286,803.8461,736.1539,846.1539,-0.32708740234375,0.04150390625,0.939453125,1.009368896484375,-3.63372802734375,-0.07476806640625,1.0,1.0,1.0,1.0,1.0,85.0,event
15:25:32.492,0.9682114,0.076909766,0.39873204,0.47003826,0.7826714,-0.24718244,-0.05472541,0.5054477,0.7196702,0.13254045,0.08004824,0.7057806,0.7272618,-0.0037701528,0.09917477,0.7761471,0.1916714,-0.08740049,-0.37294772,0.5965634,800.2198,801.8315,793.7729,739.3773,818.7546,-0.32708740234375,0.04150390625,0.939453125,1.009368896484375,-3.63372802734375,-0.07476806640625,1.0,1.0,1.0,1.0,1.0,85.0,event
15:25:32.492,0.9682114,0.076909766,0.39873204,0.47003826,0.7826714,-0.24718244,-0.05472541,0.5054477,0.7196702,0.13254045,0.08004824,0.7057806,0.7272618,-0.0037701528,0.09917477,0.7761471,0.1916714,-0.08740049,-0.37294772,0.5965634,805.4579,800.2198,800.2198,729.707,721.2454,-0.32708740234375,0.04150390625,0.939453125,1.009368896484375,-3.63372802734375,-0.07476806640625,1.0,1.0,1.0,1.0,1.0,85.0,event
15:25:32.493,0.9682114,0.076909766,0.39873204,0.47003826,0.7826714,-0.24718244,-0.05472541,0.5054477,0.7196702,0.13254045,0.08004824,0.7057806,0.7272618,-0.0037701528,0.09917477,0.7761471,0.1916714,-0.08740049,-0.37294772,0.5965634,797.8022,805.4579,794.9817,750.2564,933.5897,-0.32708740234375,0.04150390625,0.939453125,1.009368896484375,-3.63372802734375,-0.07476806640625,1.0,1.0,1.0,1.0,1.0,85.0,event
15:25:32.493,0.9682114,0.076909766,0.39873204,0.47003826,0.7826714,-0.24718244,-0.05472541,0.5054477,0.7196702,0.13254045,0.08004824,0.7057806,0.7272618,-0.0037701528,0.09917477,0.7761471,0.1916714,-0.08740049,-0.37294772,0.5965634,803.44324,807.8755,801.4286,745.82416,727.6923,-0.32708740234375,0.04150390625,0.939453125,1.009368896484375,-3.63372802734375,-0.07476806640625,1.0,1.0,1.0,1.0,1.0,85.0,event
15:25:32.494,0.9682114,0.076909766,0.39873204,0.47003826,0.7826714,-0.24718244,-0.05472541,0.5054477,0.7196702,0.13254045,0.08004824,0.7057806,0.7272618,-0.0037701528,0.09917477,0.7761471,0.1916714,-0.08740049,-0.37294772,0.5965634,811.9048,806.6667,795.78754,738.97437,723.2601,-0.32708740234375,0.04150390625,0.939453125,1.009368896484375,-3.63372802734375,-0.07476806640625,1.0,1.0,1.0,1.0,1.0,85.0,event
15:25:32.521,0.9682114,0.076909766,0.39873204,0.47003826,0.7826714,-0.24718244,-0.05472541,0.5054477,0.7196702,0.13254045,0.08004824,0.7057806,0.7272618,-0.0037701528,0.09917477,0.7761471,0.1916714,-0.08740049,-0.37294772,0.5965634,798.20514,806.6667,782.0879,737.3626,836.4835,-0.32708740234375,0.04150390625,0.939453125,1.009368896484375,-3.63372802734375,-0.07476806640625,1.0,1.0,1.0,1.0,1.0,85.0,event
15:25:32.522,0.9682114,0.076909766,0.39873204,0.47003826,0.7826714,-0.24718244,-0.05472541,0.5054477,0.7196702,0.13254045,0.08004824,0.7057806,0.7272618,-0.0037701528,0.09917477,0.7761471,0.1916714,-0.08740049,-0.37294772,0.5965634,790.9524,806.6667,790.54944,735.7509,740.18317,-0.32708740234375,0.04150390625,0.939453125,1.009368896484375,-3.63372802734375,-0.07476806640625,1.0,1.0,1.0,1.0,1.0,85.0,event
15:25:32.523,0.9682114,0.076909766,0.39873204,0.47003826,0.7826714,-0.24718244,-0.05472541,0.5054477,0.7196702,0.13254045,0.08004824,0.7057806,0.7272618,-0.0037701528,0.09917477,0.7761471,0.1916714,-0.08740049,-0.37294772,0.5965634,800.6227,801.02563,801.4286,738.1685,703.1135,-0.32708740234375,0.04150390625,0.939453125,1.009368896484375,-3.63372802734375,-0.07476806640625,1.0,1.0,1.0,1.0,1.0,85.0,event
15:25:32.524,0.9682114,0.076909766,0.39873204,0.47003826,0.7826714,-0.24718244,-0.05472541,0.5054477,0.7196702,0.13254045,0.08004824,0.7057806,0.7272618,-0.0037701528,0.09917477,0.7761471,0.1916714,-0.08740049,-0.37294772,0.5965634,801.4286,803.0403,801.02563,744.21246,796.5934,-0.32708740234375,0.04150390625,0.939453125,1.009368896484375,-3.63372802734375,-0.07476806640625,1.0,1.0,1.0,1.0,1.0,85.0,event
15:25:32.524,0.9682114,0.076909766,0.39873204,0.47003826,0.7826714,-0.24718244,-0.05472541,0.5054477,0.7196702,0.13254045,0.08004824,0.7057806,0.7272618,-0.0037701528,0.09917477,0.7761471,0.1916714,-0.08740049,-0.37294772,0.5965634,797.3993,807.47253,801.02563,734.94507,890.87915,-0.32708740234375,0.04150390625,0.939453125,1.009368896484375,-3.63372802734375,-0.07476806640625,1.0,1.0,1.0,1.0,1.0,85.0,event
15:25:32.525,0.9682114,0.076909766,0.39873204,0.47003826,0.7826714,-0.24718244,-0.05472541,0.5054477,0.7196702,0.13254045,0.08004824,0.7057806,0.7272618,-0.0037701528,0.09917477,0.7761471,0.1916714,-0.08740049,-0.37294772,0.5965634,791.75824,801.4286,800.2198,745.0183,904.9817,-0.32708740234375,0.04150390625,0.939453125,1.009368896484375,-3.63372802734375,-0.07476806640625,1.0,1.0,1.0,1.0,1.0,85.0,event
15:25:32.526,0.9682114,0.076909766,0.39873204,0.47003826,0.7826714,-0.24718244,-0.05472541,0.5054477,0.7196702,0.13254045,0.08004824,0.7057806,0.7272618,-0.0037701528,0.09917477,0.7761471,0.1916714,-0.08740049,-0.37294772,0.5965634,795.78754,798.60803,803.8461,751.06226,793.7729,-0.32708740234375,0.04150390625,0.939453125,1.009368896484375,-3.63372802734375,-0.07476806640625,1.0,1.0,1.0,1.0,1.0,85.0,event
15:25:32.526,0.9682114,0.076909766,0.39873204,0.47003826,0.7826714,-0.24718244,-0.05472541,0.5054477,0.7196702,0.13254045,0.08004824,0.7057806,0.7272618,-0.0037701528,0.09917477,0.7761471,0.1916714,-0.08740049,-0.37294772,0.5965634,791.75824,799.81683,800.2198,755.89746,855.0183,-0.32708740234375,0.04150390625,0.939453125,1.009368896484375,-3.63372802734375,-0.07476806640625,1.0,1.0,1.0,1.0,1.0,85.0,event
15:25:32.527,0.9682114,0.076909766,0.39873204,0.47003826,0.7826714,-0.24718244,-0.05472541,0.5054477,0.7196702,0.13254045,0.08004824,0.7057806,0.7272618,-0.0037701528,0.09917477,0.7761471,0.1916714,-0.08740049,-0.37294772,0.5965634,801.8315,798.20514,798.60803,749.85345,989.59705,-0.32708740234375,0.04150390625,0.939453125,1.009368896484375,-3.63372802734375,-0.07476806640625,1.0,1.0,1.0,1.0,1.0,85.0,event
15:25:32.528,0.9682114,0.076909766,0.39873204,0.47003826,0.7826714,-0.24718244,-0.05472541,0.5054477,0.7196702,0.13254045,0.08004824,0.7057806,0.7272618,-0.0037701528,0.09917477,0.7761471,0.1916714,-0.08740049,-0.37294772,0.5965634,796.5934,796.99634,799.41394,743.00366,911.8315,-0.32708740234375,0.04150390625,0.939453125,1.009368896484375,-3.63372802734375,-0.07476806640625,1.0,1.0,1.0,1.0,1.0,85.0,event
15:25:32.529,0.9682114,0.076909766,0.39873204,0.47003826,0.7826714,-0.24718244,-0.05472541,0.5054477,0.7196702,0.13254045,0.08004824,0.7057806,0.7272618,-0.0037701528,0.09917477,0.7761471,0.1916714,-0.08740049,-0.37294772,0.5965634,784.5055,795.78754,804.2491,735.34796,677.72894,-0.32708740234375,0.04150390625,0.939453125,1.009368896484375,-3.63372802734375,-0.07476806640625,1.0,1.0,1.0,1.0,1.0,85.0,event
15:25:32.529,0.93148607,-0.00081926933,0.38773695,0.4913773,0.7453859,-0.26947525,-0.09278122,0.4831354,0.72459096,0.14092325,0.068295665,0.7059287,0.7074803,-0.028067602,0.08364379,0.76254725,0.17463593,-0.14629,-0.41468927,0.5696412,787.72894,798.60803,801.8315,741.79486,737.76556,-0.32708740234375,0.04150390625,0.939453125,1.009368896484375,-3.63372802734375,-0.07476806640625,1.0,1.0,1.0,1.0,1.0,85.0,event
15:25:32.567,0.93148607,-0.00081926933,0.38773695,0.4913773,0.7453859,-0.26947525,-0.09278122,0.4831354,0.72459096,0.14092325,0.068295665,0.7059287,0.7074803,-0.028067602,0.08364379,0.76254725,0.17463593,-0.14629,-0.41468927,0.5696412,800.2198,801.4286,799.41394,746.2271,755.09155,-0.31695556640625,0.03912353515625,0.927734375,2.594451904296875,-2.385101318359375,1.016845703125,1.0,1.0,1.0,1.0,1.0,85.0,event
15:25:32.569,0.93148607,-0.00081926933,0.38773695,0.4913773,0.7453859,-0.26947525,-0.09278122,0.4831354,0.72459096,0.14092325,0.068295665,0.7059287,0.7074803,-0.028067602,0.08364379,0.76254725,0.17463593,-0.14629,-0.41468927,0.5696412,799.011,801.4286,797.3993,739.7802,725.6777,-0.31695556640625,0.03912353515625,0.927734375,2.594451904296875,-2.385101318359375,1.016845703125,1.0,1.0,1.0,1.0,1.0,85.0,event
15:25:32.570,0.93148607,-0.00081926933,0.38773695,0.4913773,0.7453859,-0.26947525,-0.09278122,0.4831354,0.72459096,0.14092325,0.068295665,0.7059287,0.7074803,-0.028067602,0.08364379,0.76254725,0.17463593,-0.14629,-0.41468927,0.5696412,782.0879,799.011,796.1905,737.3626,732.1245,-0.31695556640625,0.03912353515625,0.927734375,2.594451904296875,-2.385101318359375,1.016845703125,1.0,1.0,1.0,1.0,1.0,85.0,event
15:25:32.571,0.93148607,-0.00081926933,0.38773695,0.4913773,0.7453859,-0.26947525,-0.09278122,0.4831354,0.72459096,0.14092325,0.068295665,0.7059287,0.7074803,-0.028067602,0.08364379,0.76254725,0.17463593,-0.14629,-0.41468927,0.5696412,784.5055,796.1905,799.81683,747.03296,799.81683,-0.31695556640625,0.03912353515625,0.927734375,2.594451904296875,-2.385101318359375,1.016845703125,1.0,1.0,1.0,1.0,1.0,85.0,event
15:25:32.572,0.93148607,-0.00081926933,0.38773695,0.4913773,0.7453859,-0.26947525,-0.09278122,0.4831354,0.72459096,0.14092325,0.068295665,0.7059287,0.7074803,-0.028067602,0.08364379,0.76254725,0.17463593,-0.14629,-0.41468927,0.5696412,786.1172,798.60803,802.6374,745.82416,853.8095,-0.31695556640625,0.03912353515625,0.927734375,2.594451904296875,-2.385101318359375,1.016845703125,1.0,1.0,1.0,1.0,1.0,85.0,event
15:25:32.573,0.93148607,-0.00081926933,0.38773695,0.4913773,0.7453859,-0.26947525,-0.09278122,0.4831354,0.72459096,0.14092325,0.068295665,0.7059287,0.7074803,-0.028067602,0.08364379,0.76254725,0.17463593,-0.14629,-0.41468927,0.5696412,790.9524,798.60803,802.6374,734.1392,905.38464,-0.31695556640625,0.03912353515625,0.927734375,2.594451904296875,-2.385101318359375,1.016845703125,1.0,1.0,1.0,1.0,1.0,85.0,event
15:25:32.574,0.93148607,-0.00081926933,0.38773695,0.4913773,0.7453859,-0.26947525,-0.09278122,0.4831354,0.72459096,0.14092325,0.068295665,0.7059287,0.7074803,-0.028067602,0.08364379,0.76254725,0.17463593,-0.14629,-0.41468927,0.5696412,790.54944,799.011,805.8608,740.18317,844.1392,-0.31695556640625,0.03912353515625,0.927734375,2.594451904296875,-2.385101318359375,1.016845703125,1.0,1.0,1.0,1.0,1.0,85.0,event
15:25:32.575,0.93148607,-0.00081926933,0.38773695,0.4913773,0.7453859,-0.26947525,-0.09278122,0.4831354,0.72459096,0.14092325,0.068295665,0.7059287,0.7074803,-0.028067602,0.08364379,0.76254725,0.17463593,-0.14629,-0.41468927,0.5696412,778.0586,804.2491,804.65204,747.8388,927.9487,-0.31695556640625,0.03912353515625,0.927734375,2.594451904296875,-2.385101318359375,1.016845703125,1.0,1.0,1.0,1.0,1.0,85.0,event
15:25:32.577,0.93148607,-0.00081926933,0.38773695,0.4913773,0.7453859,-0.26947525,-0.09278122,0.4831354,0.72459096,0.14092325,0.068295665,0.7059287,0.7074803,-0.028067602,0.08364379,0.76254725,0.17463593,-0.14629,-0.41468927,0.5696412,787.72894,801.8315,802.6374,749.0476,1148.7546,-0.31695556640625,0.03912353515625,0.927734375,2.594451904296875,-2.385101318359375,1.016845703125,1.0,1.0,1.0,1.0,1.0,85.0,event
15:25:32.579,0.93148607,-0.00081926933,0.38773695,0.4913773,0.7453859,-0.26947525,-0.09278122,0.4831354,0.72459096,0.14092325,0.068295665,0.7059287,0.7074803,-0.028067602,0.08364379,0.76254725,0.17463593,-0.14629,-0.41468927,0.5696412,807.8755,803.8461,807.8755,751.4652,871.53845,-0.31695556640625,0.03912353515625,0.927734375,2.594451904296875,-2.385101318359375,1.016845703125,1.0,1.0,1.0,1.0,1.0,85.0,event
15:25:32.580,0.93148607,-0.00081926933,0.38773695,0.4913773,0.7453859,-0.26947525,-0.09278122,0.4831354,0.72459096,0.14092325,0.068295665,0.7059287,0.7074803,-0.028067602,0.08364379,0.76254725,0.17463593,-0.14629,-0.41468927,0.5696412,797.3993,809.89014,807.0696,743.4066,682.5641,-0.31695556640625,0.03912353515625,0.927734375,2.594451904296875,-2.385101318359375,1.016845703125,1.0,1.0,1.0,1.0,1.0,85.0,event
15:25:32.581,0.93148607,-0.00081926933,0.38773695,0.4913773,0.7453859,-0.26947525,-0.09278122,0.4831354,0.72459096,0.14092325,0.068295665,0.7059287,0.7074803,-0.028067602,0.08364379,0.76254725,0.17463593,-0.14629,-0.41468927,0.5696412,792.1612,808.2784,798.20514,745.82416,782.49084,-0.31695556640625,0.03912353515625,0.927734375,2.594451904296875,-2.385101318359375,1.016845703125,1.0,1.0,1.0,1.0,1.0,85.0,event
15:25:32.629,0.93148607,-0.00081926933,0.38773695,0.4913773,0.7453859,-0.26947525,-0.09278122,0.4831354,0.72459096,0.14092325,0.068295665,0.7059287,0.7074803,-0.028067602,0.08364379,0.76254725,0.17463593,-0.14629,-0.41468927,0.5696412,793.36993,804.2491,796.99634,748.6447,763.1502,-0.32586669921875,0.04266357421875,0.935302734375,1.487884521484375,-2.893524169921875,1.428070068359375,1.0,1.0,1.0,1.0,1.0,85.0,event
15:25:32.630,0.93148607,-0.00081926933,0.38773695,0.4913773,0.7453859,-0.26947525,-0.09278122,0.4831354,0.72459096,0.14092325,0.068295665,0.7059287,0.7074803,-0.028067602,0.08364379,0.76254725,0.17463593,-0.14629,-0.41468927,0.5696412,791.75824,806.26373,799.81683,737.3626,727.6923,-0.32586669921875,0.04266357421875,0.935302734375,1.487884521484375,-2.893524169921875,1.428070068359375,1.0,1.0,1.0,1.0,1.0,85.0,event
15:25:32.630,0.93148607,-0.00081926933,0.38773695,0.4913773,0.7453859,-0.26947525,-0.09278122,0.4831354,0.72459096,0.14092325,0.068295665,0.7059287,0.7074803,-0.028067602,0.08364379,0.76254725,0.17463593,-0.14629,-0.41468927,0.5696412,801.8315,809.4872,802.23444,739.3773,724.4689,-0.32586669921875,0.04266357421875,0.935302734375,1.487884521484375,-2.893524169921875,1.428070068359375,1.0,1.0,1.0,1.0,1.0,85.0,event
15:25:32.631,0.93148607,-0.00081926933,0.38773695,0.4913773,0.7453859,-0.26947525,-0.09278122,0.4831354,0.72459096,0.14092325,0.068295665,0.7059287,0.7074803,-0.028067602,0.08364379,0.76254725,0.17463593,-0.14629,-0.41468927,0.5696412,798.20514,811.0989,806.6667,745.82416,760.7326,-0.32586669921875,0.04266357421875,0.935302734375,1.487884521484375,-2.893524169921875,1.428070068359375,1.0,1.0,1.0,1.0,1.0,85.0,event
15:25:32.632,0.93148607,-0.00081926933,0.38773695,0.4913773,0.7453859,-0.26947525,-0.09278122,0.4831354,0.72459096,0.14092325,0.068295665,0.7059287,0.7074803,-0.028067602,0.08364379,0.76254725,0.17463593,-0.14629,-0.41468927,0.5696412,794.57874,810.696,805.8608,743.00366,756.30035,-0.32586669921875,0.04266357421875,0.935302734375,1.487884521484375,-2.893524169921875,1.428070068359375,1.0,1.0,1.0,1.0,1.0,85.0,event
15:25:32.632,0.93148607,-0.00081926933,0.38773695,0.4913773,0.7453859,-0.26947525,-0.09278122,0.4831354,0.72459096,0.14092325,0.068295665,0.7059287,0.7074803,-0.028067602,0.08364379,0.76254725,0.17463593,-0.14629,-0.41468927,0.5696412,795.78754,810.696,807.8755,747.4359,767.1795,-0.32586669921875,0.04266357421875,0.935302734375,1.487884521484375,-2.893524169921875,1.428070068359375,1.0,1.0,1.0,1.0,1.0,85.0,event
15:25:32.633,0.93148607,-0.00081926933,0.38773695,0.4913773,0.7453859,-0.26947525,-0.09278122,0.4831354,0.72459096,0.14092325,0.068295665,0.7059287,0.7074803,-0.028067602,0.08364379,0.76254725,0.17463593,-0.14629,-0.41468927,0.5696412,791.75824,809.0842,803.0403,739.7802,791.3553,-0.32586669921875,0.04266357421875,0.935302734375,1.487884521484375,-2.893524169921875,1.428070068359375,1.0,1.0,1.0,1.0,1.0,85.0,event
15:25:32.633,0.93148607,-0.00081926933,0.38773695,0.4913773,0.7453859,-0.26947525,-0.09278122,0.4831354,0.72459096,0.14092325,0.068295665,0.7059287,0.7074803,-0.028067602,0.08364379,0.76254725,0.17463593,-0.14629,-0.41468927,0.5696412,803.0403,806.26373,802.23444,759.12085,971.8681,-0.32586669921875,0.04266357421875,0.935302734375,1.487884521484375,-2.893524169921875,1.428070068359375,1.0,1.0,1.0,1.0,1.0,85.0,event
15:25:32.634,0.93148607,-0.00081926933,0.38773695,0.4913773,0.7453859,-0.26947525,-0.09278122,0.4831354,0.72459096,0.14092325,0.068295665,0.7059287,0.7074803,-0.028067602,0.08364379,0.76254725,0.17463593,-0.14629,-0.41468927,0.5696412,797.3993,807.0696,803.44324,747.03296,903.36993,-0.32586669921875,0.04266357421875,0.935302734375,1.487884521484375,-2.893524169921875,1.428070068359375,1.0,1.0,1.0,1.0,1.0,85.0,event
15:25:32.634,0.93148607,-0.00081926933,0.38773695,0.4913773,0.7453859,-0.26947525,-0.09278122,0.4831354,0.72459096,0.14092325,0.068295665,0.7059287,0.7074803,-0.028067602,0.08364379,0.76254725,0.17463593,-0.14629,-0.41468927,0.5696412,784.10254,805.4579,801.8315,744.21246,740.989,-0.32586669921875,0.04266357421875,0.935302734375,1.487884521484375,-2.893524169921875,1.428070068359375,1.0,1.0,1.0,1.0,1.0,85.0,event
15:25:32.635,0.93148607,-0.00081926933,0.38773695,0.4913773,0.7453859,-0.26947525,-0.09278122,0.4831354,0.72459096,0.14092325,0.068295665,0.7059287,0.7074803,-0.028067602,0.08364379,0.76254725,0.17463593,-0.14629,-0.41468927,0.5696412,789.34064,803.8461,802.23444,752.674,725.2747,-0.32586669921875,0.04266357421875,0.935302734375,1.487884521484375,-2.893524169921875,1.428070068359375,1.0,1.0,1.0,1.0,1.0,85.0,event
15:25:32.635,0.93148607,-0.00081926933,0.38773695,0.4913773,0.7453859,-0.26947525,-0.09278122,0.4831354,0.72459096,0.14092325,0.068295665,0.7059287,0.7074803,-0.028067602,0.08364379,0.76254725,0.17463593,-0.14629,-0.41468927,0.5696412,799.81683,804.65204,801.8315,749.45056,757.1062,-0.32586669921875,0.04266357421875,0.935302734375,1.487884521484375,-2.893524169921875,1.428070068359375,1.0,1.0,1.0,1.0,1.0,85.0,event
15:25:32.663,0.93148607,-0.00081926933,0.38773695,0.4913773,0.7453859,-0.26947525,-0.09278122,0.4831354,0.72459096,0.14092325,0.068295665,0.7059287,0.7074803,-0.028067602,0.08364379,0.76254725,0.17463593,-0.14629,-0.41468927,0.5696412,798.60803,803.44324,800.6227,757.1062,706.337,-0.3260498046875,0.04315185546875,0.93695068359375,0.874786376953125,-4.149627685546875,-0.456085205078125,1.0,1.0,1.0,1.0,1.0,85.0,event
15:25:32.664,0.89674395,-0.041200086,0.38467658,0.4999437,0.71729606,-0.270266,-0.12243665,0.48270303,0.72459096,0.11118038,0.05949849,0.70776814,0.6916837,-0.04057043,0.06461757,0.753446,0.16100743,-0.189173,-0.43596512,0.55462545,794.9817,805.4579,800.6227,753.47986,678.1319,-0.3260498046875,0.04315185546875,0.93695068359375,0.874786376953125,-4.149627685546875,-0.456085205078125,1.0,1.0,1.0,1.0,1.0,85.0,event
15:25:32.668,0.89674395,-0.041200086,0.38467658,0.4999437,0.71729606,-0.270266,-0.12243665,0.48270303,0.72459096,0.11118038,0.05949849,0.70776814,0.6916837,-0.04057043,0.06461757,0.753446,0.16100743,-0.189173,-0.43596512,0.55462545,797.8022,805.4579,799.011,753.8828,707.1429,-0.3260498046875,0.04315185546875,0.93695068359375,0.874786376953125,-4.149627685546875,-0.456085205078125,1.0,1.0,1.0,1.0,1.0,85.0,event
15:25:32.668,0.89674395,-0.041200086,0.38467658,0.4999437,0.71729606,-0.270266,-0.12243665,0.48270303,0.72459096,0.11118038,0.05949849,0.70776814,0.6916837,-0.04057043,0.06461757,0.753446,0.16100743,-0.189173,-0.43596512,0.55462545,803.8461,808.68134,799.011,763.95605,724.0659,-0.3260498046875,0.04315185546875,0.93695068359375,0.874786376953125,-4.149627685546875,-0.456085205078125,1.0,1.0,1.0,1.0,1.0,85.0,event
15:25:32.669,0.89674395,-0.041200086,0.38467658,0.4999437,0.71729606,-0.270266,-0.12243665,0.48270303,0.72459096,0.11118038,0.05949849,0.70776814,0.6916837,-0.04057043,0.06461757,0.753446,0.16100743,-0.189173,-0.43596512,0.55462545,794.57874,803.0403,804.2491,766.77655,768.7912,-0.3260498046875,0.04315185546875,0.93695068359375,0.874786376953125,-4.149627685546875,-0.456085205078125,1.0,1.0,1.0,1.0,1.0,85.0,event
15:25:32.669,0.89674395,-0.041200086,0.38467658,0.4999437,0.71729606,-0.270266,-0.12243665,0.48270303,0.72459096,0.11118038,0.05949849,0.70776814,0.6916837,-0.04057043,0.06461757,0.753446,0.16100743,-0.189173,-0.43596512,0.55462545,803.8461,812.3077,804.65204,772.8205,716.8132,-0.3260498046875,0.04315185546875,0.93695068359375,0.874786376953125,-4.149627685546875,-0.456085205078125,1.0,1.0,1.0,1.0,1.0,85.0,event
15:25:32.670,0.89674395,-0.041200086,0.38467658,0.4999437,0.71729606,-0.270266,-0.12243665,0.48270303,0.72459096,0.11118038,0.05949849,0.70776814,0.6916837,-0.04057043,0.06461757,0.753446,0.16100743,-0.189173,-0.43596512,0.55462545,785.7143,800.2198,797.3993,755.09155,917.8755,-0.3260498046875,0.04315185546875,0.93695068359375,0.874786376953125,-4.149627685546875,-0.456085205078125,1.0,1.0,1.0,1.0,1.0,85.0,event
15:25:32.671,0.89674395,-0.041200086,0.38467658,0.4999437,0.71729606,-0.270266,-0.12243665,0.48270303,0.72459096,0.11118038,0.05949849,0.70776814,0.6916837,-0.04057043,0.06461757,0.753446,0.16100743,-0.189173,-0.43596512,0.55462545,784.90845,805.8608,794.17584,751.4652,887.6557,-0.3260498046875,0.04315185546875,0.93695068359375,0.874786376953125,-4.149627685546875,-0.456085205078125,1.0,1.0,1.0,1.0,1.0,85.0,event
15:25:32.671,0.89674395,-0.041200086,0.38467658,0.4999437,0.71729606,-0.270266,-0.12243665,0.48270303,0.72459096,0.11118038,0.05949849,0.70776814,0.6916837,-0.04057043,0.06461757,0.753446,0.16100743,-0.189173,-0.43596512,0.55462545,789.34064,802.23444,794.57874,747.8388,745.82416,-0.3260498046875,0.04315185546875,0.93695068359375,0.874786376953125,-4.149627685546875,-0.456085205078125,1.0,1.0,1.0,1.0,1.0,85.0,event
15:25:32.672,0.89674395,-0.041200086,0.38467658,0.4999437,0.71729606,-0.270266,-0.12243665,0.48270303,0.72459096,0.11118038,0.05949849,0.70776814,0.6916837,-0.04057043,0.06461757,0.753446,0.16100743,-0.189173,-0.43596512,0.55462545,793.36993,808.68134,800.6227,755.89746,850.58606,-0.3260498046875,0.04315185546875,0.93695068359375,0.874786376953125,-4.149627685546875,-0.456085205078125,1.0,1.0,1.0,1.0,1.0,85.0,event
15:25:32.672,0.89674395,-0.041200086,0.38467658,0.4999437,0.71729606,-0.270266,-0.12243665,0.48270303,0.72459096,0.11118038,0.05949849,0.70776814,0.6916837,-0.04057043,0.06461757,0.753446,0.16100743,-0.189173,-0.43596512,0.55462545,787.72894,801.4286,797.3993,748.24176,754.68866,-0.3260498046875,0.04315185546875,0.93695068359375,0.874786376953125,-4.149627685546875,-0.456085205078125,1.0,1.0,1.0,1.0,1.0,85.0,event
15:25:32.673,0.89674395,-0.041200086,0.38467658,0.4999437,0.71729606,-0.270266,-0.12243665,0.48270303,0.72459096,0.11118038,0.05949849,0.70776814,0.6916837,-0.04057043,0.06461757,0.753446,0.16100743,-0.189173,-0.43596512,0.55462545,801.4286,809.89014,803.8461,753.8828,823.5897,-0.3260498046875,0.04315185546875,0.93695068359375,0.874786376953125,-4.149627685546875,-0.456085205078125,1.0,1.0,1.0,1.0,1.0,85.0,event
15:25:32.715,0.89674395,-0.041200086,0.38467658,0.4999437,0.71729606,-0.270266,-0.12243665,0.48270303,0.72459096,0.11118038,0.05949849,0.70776814,0.6916837,-0.04057043,0.06461757,0.753446,0.16100743,-0.189173,-0.43596512,0.55462545,797.8022,807.47253,800.2198,752.674,790.54944,-0.31640625,0.0411376953125,0.9378662109375,0.91217041015625,-4.65057373046875,-0.396270751953125,1.0,1.0,1.0,1.0,1.0,85.0,event
15:25:32.716,0.89674395,-0.041200086,0.38467658,0.4999437,0.71729606,-0.270266,-0.12243665,0.48270303,0.72459096,0.11118038,0.05949849,0.70776814,0.6916837,-0.04057043,0.06461757,0.753446,0.16100743,-0.189173,-0.43596512,0.55462545,784.5055,807.47253,798.60803,750.2564,769.19415,-0.31640625,0.0411376953125,0.9378662109375,0.91217041015625,-4.65057373046875,-0.396270751953125,1.0,1.0,1.0,1.0,1.0,85.0,event
15:25:32.717,0.89674395,-0.041200086,0.38467658,0.4999437,0.71729606,-0.270266,-0.12243665,0.48270303,0.72459096,0.11118038,0.05949849,0.70776814,0.6916837,-0.04057043,0.06461757,0.753446,0.16100743,-0.189173,-0.43596512,0.55462545,783.69965,807.8755,799.81683,751.8681,908.60803,-0.31640625,0.0411376953125,0.9378662109375,0.91217041015625,-4.65057373046875,-0.396270751953125,1.0,1.0,1.0,1.0,1.0,85.0,event
15:25:32.718,0.89674395,-0.041200086,0.38467658,0.4999437,0.71729606,-0.270266,-0.12243665,0.48270303,0.72459096,0.11118038,0.05949849,0.70776814,0.6916837,-0.04057043,0.06461757,0.753446,0.16100743,-0.189173,-0.43596512,0.55462545,794.17584,806.26373,801.02563,763.95605,831.6484,-0.31640625,0.0411376953125,0.9378662109375,0.91217041015625,-4.65057373046875,-0.396270751953125,1.0,1.0,1.0,1.0,1.0,85.0,event
15:25:32.719,0.89674395,-0.041200086,0.38467658,0.4999437,0.71729606,-0.270266,-0.12243665,0.48270303,0.72459096,0.11118038,0.05949849,0.70776814,0.6916837,-0.04057043,0.06461757,0.753446,0.16100743,-0.189173,-0.43596512,0.55462545,794.9817,798.60803,803.0403,755.89746,664.83514,-0.31640625,0.0411376953125,0.9378662109375,0.91217041015625,-4.65057373046875,-0.396270751953125,1.0,1.0,1.0,1.0,1.0,85.0,event
15:25:32.720,0.89674395,-0.041200086,0.38467658,0.4999437,0.71729606,-0.270266,-0.12243665,0.48270303,0.72459096,0.11118038,0.05949849,0.70776814,0.6916837,-0.04057043,0.06461757,0.753446,0.16100743,-0.189173,-0.43596512,0.55462545,793.36993,804.65204,798.20514,747.8388,837.28937,-0.31640625,0.0411376953125,0.9378662109375,0.91217041015625,-4.65057373046875,-0.396270751953125,1.0,1.0,1.0,1.0,1.0,85.0,event
15:25:32.720,0.89674395,-0.041200086,0.38467658,0.4999437,0.71729606,-0.270266,-0.12243665,0.48270303,0.72459096,0.11118038,0.05949849,0.70776814,0.6916837,-0.04057043,0.06461757,0.753446,0.16100743,-0.189173,-0.43596512,0.55462545,798.60803,806.6667,793.7729,752.27106,1070.586,-0.31640625,0.0411376953125,0.9378662109375,0.91217041015625,-4.65057373046875,-0.396270751953125,1.0,1.0,1.0,1.0,1.0,85.0,event
15:25:32.721,0.89674395,-0.041200086,0.38467658,0.4999437,0.71729606,-0.270266,-0.12243665,0.48270303,0.72459096,0.11118038,0.05949849,0.70776814,0.6916837,-0.04057043,0.06461757,0.753446,0.16100743,-0.189173,-0.43596512,0.55462545,796.99634,802.6374,795.38464,754.2857,839.304,-0.31640625,0.0411376953125,0.9378662109375,0.91217041015625,-4.65057373046875,-0.396270751953125,1.0,1.0,1.0,1.0,1.0,85.0,event
15:25:32.721,0.89674395,-0.041200086,0.38467658,0.4999437,0.71729606,-0.270266,-0.12243665,0.48270303,0.72459096,0.11118038,0.05949849,0.70776814,0.6916837,-0.04057043,0.06461757,0.753446,0.16100743,-0.189173,-0.43596512,0.55462545,787.326,803.0403,796.99634,753.8828,697.8755,-0.31640625,0.0411376953125,0.9378662109375,0.91217041015625,-4.65057373046875,-0.396270751953125,1.0,1.0,1.0,1.0,1.0,85.0,event
15:25:32.722,0.89674395,-0.041200086,0.38467658,0.4999437,0.71729606,-0.270266,-0.12243665,0.48270303,0.72459096,0.11118038,0.05949849,0.70776814,0.6916837,-0.04057043,0.06461757,0.753446,0.16100743,-0.189173,-0.43596512,0.55462545,779.67035,803.44324,800.2198,746.2271,772.01465,-0.31640625,0.0411376953125,0.9378662109375,0.91217041015625,-4.65057373046875,-0.396270751953125,1.0,1.0,1.0,1.0,1.0,85.0,event
15:25:32.722,0.89674395,-0.041200086,0.38467658,0.4999437,0.71729606,-0.270266,-0.12243665,0.48270303,0.72459096,0.11118038,0.05949849,0.70776814,0.6916837,-0.04057043,0.06461757,0.753446,0.16100743,-0.189173,-0.43596512,0.55462545,786.1172,803.0403,802.23444,759.12085,784.5055,-0.31640625,0.0411376953125,0.9378662109375,0.91217041015625,-4.65057373046875,-0.396270751953125,1.0,1.0,1.0,1.0,1.0,85.0,event
15:25:32.723,0.89674395,-0.041200086,0.38467658,0.4999437,0.71729606,-0.270266,-0.12243665,0.48270303,0.72459096,0.11118038,0.05949849,0.70776814,0.6916837,-0.04057043,0.06461757,0.753446,0.16100743,-0.189173,-0.43596512,0.55462545,787.72894,801.4286,799.011,756.7033,779.67035,-0.31640625,0.0411376953125,0.9378662109375,0.91217041015625,-4.65057373046875,-0.396270751953125,1.0,1.0,1.0,1.0,1.0,85.0,event
15:25:32.760,0.89674395,-0.041200086,0.38467658,0.4999437,0.71729606,-0.270266,-0.12243665,0.48270303,0.72459096,0.11118038,0.05949849,0.70776814,0.6916837,-0.04057043,0.06461757,0.753446,0.16100743,-0.189173,-0.43596512,0.55462545,790.54944,805.05493,801.02563,737.3626,738.97437,-0.31640625,0.0411376953125,0.9378662109375,0.91217041015625,-4.65057373046875,-0.396270751953125,1.0,1.0,1.0,1.0,1.0,85.0,event
15:25:32.761,0.89674395,-0.041200086,0.38467658,0.4999437,0.71729606,-0.270266,-0.12243665,0.48270303,0.72459096,0.11118038,0.05949849,0.70776814,0.6916837,-0.04057043,0.06461757,0.753446,0.16100743,-0.189173,-0.43596512,0.55462545,797.3993,804.2491,801.4286,745.0183,780.4762,-0.31640625,0.0411376953125,0.9378662109375,0.91217041015625,-4.65057373046875,-0.396270751953125,1.0,1.0,1.0,1.0,1.0,85.0,event
15:25:32.761,0.89674395,-0.041200086,0.38467658,0.4999437,0.71729606,-0.270266,-0.12243665,0.48270303,0.72459096,0.11118038,0.05949849,0.70776814,0.6916837,-0.04057043,0.06461757,0.753446,0.16100743,-0.189173,-0.43596512,0.55462545,795.38464,807.8755,803.44324,757.9121,819.5604,-0.31640625,0.0411376953125,0.9378662109375,0.91217041015625,-4.65057373046875,-0.396270751953125,1.0,1.0,1.0,1.0,1.0,85.0,event
15:25:32.762,0.8651026,-0.043703757,0.39380726,0.51364094,0.70112294,-0.24286585,-0.13948622,0.49503866,0.72459096,0.056056034,0.08990699,0.72116244,0.6783272,-0.04314053,0.04494101,0.7430097,0.14818528,-0.22129993,-0.44756484,0.5544064,793.7729,812.3077,807.0696,762.3443,871.53845,-0.31640625,0.0411376953125,0.9378662109375,0.91217041015625,-4.65057373046875,-0.396270751953125,1.0,1.0,1.0,1.0,1.0,85.0,event
15:25:32.766,0.8651026,-0.043703757,0.39380726,0.51364094,0.70112294,-0.24286585,-0.13948622,0.49503866,0.72459096,0.056056034,0.08990699,0.72116244,0.6783272,-0.04314053,0.04494101,0.7430097,0.14818528,-0.22129993,-0.44756484,0.5544064,787.326,807.8755,805.8608,757.1062,801.4286,-0.31640625,0.0411376953125,0.9378662109375,0.91217041015625,-4.65057373046875,-0.396270751953125,1.0,1.0,1.0,1.0,1.0,85.0,event
15:25:32.767,0.8651026,-0.043703757,0.39380726,0.51364094,0.70112294,-0.24286585,-0.13948622,0.49503866,0.72459096,0.056056034,0.08990699,0.72116244,0.6783272,-0.04314053,0.04494101,0.7430097,0.14818528,-0.22129993,-0.44756484,0.5544064,798.20514,809.0842,803.44324,753.47986,905.78754,-0.31640625,0.0411376953125,0.9378662109375,0.91217041015625,-4.65057373046875,-0.396270751953125,1.0,1.0,1.0,1.0,1.0,85.0,event
15:25:32.768,0.8651026,-0.043703757,0.39380726,0.51364094,0.70112294,-0.24286585,-0.13948622,0.49503866,0.72459096,0.056056034,0.08990699,0.72116244,0.6783272,-0.04314053,0.04494101,0.7430097,0.14818528,-0.22129993,-0.44756484,0.5544064,800.2198,805.4579,803.44324,757.50916,1203.5531,-0.31640625,0.0411376953125,0.9378662109375,0.91217041015625,-4.65057373046875,-0.396270751953125,1.0,1.0,1.0,1.0,1.0,85.0,event
15:25:32.768,0.8651026,-0.043703757,0.39380726,0.51364094,0.70112294,-0.24286585,-0.13948622,0.49503866,0.72459096,0.056056034,0.08990699,0.72116244,0.6783272,-0.04314053,0.04494101,0.7430097,0.14818528,-0.22129993,-0.44756484,0.5544064,785.7143,802.6374,804.65204,759.92676,915.8608,-0.31640625,0.0411376953125,0.9378662109375,0.91217041015625,-4.65057373046875,-0.396270751953125,1.0,1.0,1.0,1.0,1.0,85.0,event
15:25:32.769,0.8651026,-0.043703757,0.39380726,0.51364094,0.70112294,-0.24286585,-0.13948622,0.49503866,0.72459096,0.056056034,0.08990699,0.72116244,0.6783272,-0.04314053,0.04494101,0.7430097,0.14818528,-0.22129993,-0.44756484,0.5544064,782.49084,805.05493,802.23444,755.89746,667.25275,-0.31640625,0.0411376953125,0.9378662109375,0.91217041015625,-4.65057373046875,-0.396270751953125,1.0,1.0,1.0,1.0,1.0,85.0,event
15:25:32.769,0.8651026,-0.043703757,0.39380726,0.51364094,0.70112294,-0.24286585,-0.13948622,0.49503866,0.72459096,0.056056034,0.08990699,0.72116244,0.6783272,-0.04314053,0.04494101,0.7430097,0.14818528,-0.22129993,-0.44756484,0.5544064,789.34064,809.0842,803.0403,747.4359,737.76556,-0.31640625,0.0411376953125,0.9378662109375,0.91217041015625,-4.65057373046875,-0.396270751953125,1.0,1.0,1.0,1.0,1.0,85.0,event
15:25:32.770,0.8651026,-0.043703757,0.39380726,0.51364094,0.70112294,-0.24286585,-0.13948622,0.49503866,0.72459096,0.056056034,0.08990699,0.72116244,0.6783272,-0.04314053,0.04494101,0.7430097,0.14818528,-0.22129993,-0.44756484,0.5544064,787.326,809.0842,803.44324,747.03296,736.1539,-0.31640625,0.0411376953125,0.9378662109375,0.91217041015625,-4.65057373046875,-0.396270751953125,1.0,1.0,1.0,1.0,1.0,85.0,event
15:25:32.771,0.8651026,-0.043703757,0.39380726,0.51364094,0.70112294,-0.24286585,-0.13948622,0.49503866,0.72459096,0.056056034,0.08990699,0.72116244,0.6783272,-0.04314053,0.04494101,0.7430097,0.14818528,-0.22129993,-0.44756484,0.5544064,780.4762,806.6667,801.8315,747.03296,658.3883,-0.31640625,0.0411376953125,0.9378662109375,0.91217041015625,-4.65057373046875,-0.396270751953125,1.0,1.0,1.0,1.0,1.0,85.0,event
15:25:32.796,0.8651026,-0.043703757,0.39380726,0.51364094,0.70112294,-0.24286585,-0.13948622,0.49503866,0.72459096,0.056056034,0.08990699,0.72116244,0.6783272,-0.04314053,0.04494101,0.7430097,0.14818528,-0.22129993,-0.44756484,0.5544064,786.9231,809.4872,796.99634,756.7033,685.38464,-0.32061767578125,0.03564453125,0.93646240234375,0.8673095703125,-3.641204833984375,-0.01495361328125,1.0,1.0,1.0,1.0,1.0,85.0,event
15:25:32.797,0.8651026,-0.043703757,0.39380726,0.51364094,0.70112294,-0.24286585,-0.13948622,0.49503866,0.72459096,0.056056034,0.08990699,0.72116244,0.6783272,-0.04314053,0.04494101,0.7430097,0.14818528,-0.22129993,-0.44756484,0.5544064,789.7436,806.26373,799.41394,749.85345,807.0696,-0.32061767578125,0.03564453125,0.93646240234375,0.8673095703125,-3.641204833984375,-0.01495361328125,1.0,1.0,1.0,1.0,1.0,85.0,event
15:25:32.797,0.8651026,-0.043703757,0.39380726,0.51364094,0.70112294,-0.24286585,-0.13948622,0.49503866,0.72459096,0.056056034,0.08990699,0.72116244,0.6783272,-0.04314053,0.04494101,0.7430097,0.14818528,-0.22129993,-0.44756484,0.5544064,795.38464,804.2491,803.8461,736.1539,800.6227,-0.32061767578125,0.03564453125,0.93646240234375,0.8673095703125,-3.641204833984375,-0.01495361328125,1.0,1.0,1.0,1.0,1.0,85.0,event
15:25:32.798,0.8651026,-0.043703757,0.39380726,0.51364094,0.70112294,-0.24286585,-0.13948622,0.49503866,0.72459096,0.056056034,0.08990699,0.72116244,0.6783272,-0.04314053,0.04494101,0.7430097,0.14818528,-0.22129993,-0.44756484,0.5544064,794.57874,800.6227,804.65204,751.4652,784.5055,-0.32061767578125,0.03564453125,0.93646240234375,0.8673095703125,-3.641204833984375,-0.01495361328125,1.0,1.0,1.0,1.0,1.0,85.0,event
15:25:32.799,0.8651026,-0.043703757,0.39380726,0.51364094,0.70112294,-0.24286585,-0.13948622,0.49503866,0.72459096,0.056056034,0.08990699,0.72116244,0.6783272,-0.04314053,0.04494101,0.7430097,0.14818528,-0.22129993,-0.44756484,0.5544064,800.2198,804.65204,807.8755,764.7619,809.0842,-0.32061767578125,0.03564453125,0.93646240234375,0.8673095703125,-3.641204833984375,-0.01495361328125,1.0,1.0,1.0,1.0,1.0,85.0,event
15:25:32.799,0.8651026,-0.043703757,0.39380726,0.51364094,0.70112294,-0.24286585,-0.13948622,0.49503866,0.72459096,0.056056034,0.08990699,0.72116244,0.6783272,-0.04314053,0.04494101,0.7430097,0.14818528,-0.22129993,-0.44756484,0.5544064,803.0403,808.2784,808.2784,753.8828,880.40295,-0.32061767578125,0.03564453125,0.93646240234375,0.8673095703125,-3.641204833984375,-0.01495361328125,1.0,1.0,1.0,1.0,1.0,85.0,event
