TimeStamp,Delta_TP9,Delta_AF7,Delta_AF8,Delta_TP10,Theta_TP9,Theta_AF7,Theta_AF8,Theta_TP10,Alpha_TP9,Alpha_AF7,Alpha_AF8,Alpha_TP10,Beta_TP9,Beta_AF7,Beta_AF8,Beta_TP10,Gamma_TP9,Gamma_AF7,Gamma_AF8,Gamma_TP10,RAW_TP9,RAW_AF7,RAW_AF8,RAW_TP10,AUX_RIGHT,Accelerometer_X,Accelerometer_Y,Accelerometer_Z,Gyro_X,Gyro_Y,Gyro_Z,HeadBandOn,HSI_TP9,HSI_AF7,HSI_AF8,HSI_TP10,Battery,Elements
15:36:29.689,1.0343307,0.23156895,-0.04114301,1.6586542,0.6857746,-0.22141287,-0.034528363,1.2274891,0.6909109,0.15782994,0.12596662,1.1839633,0.6041094,-0.041214637,0.09034118,0.79730225,0.43317744,-0.262234,-0.3538496,0.611326,828.022,809.4872,794.17584,817.9487,743.8095,-0.30340576171875,0.02734375,0.9459228515625,1.734619140625,-3.6187744140625,0.201873779296875,1.0,1.0,1.0,1.0,1.0,75.0,event
15:36:29.689,1.0343307,0.23156895,-0.04114301,1.6586542,0.6857746,-0.22141287,-0.034528363,1.2274891,0.6909109,0.15782994,0.12596662,1.1839633,0.6041094,-0.041214637,0.09034118,0.79730225,0.43317744,-0.262234,-0.3538496,0.611326,806.26373,807.0696,800.2198,809.0842,734.5421,-0.30340576171875,0.02734375,0.9459228515625,1.734619140625,-3.6187744140625,0.201873779296875,1.0,1.0,1.0,1.0,1.0,75.0,event
15:36:29.690,1.0343307,0.23156895,-0.04114301,1.6586542,0.6857746,-0.22141287,-0.034528363,1.2274891,0.6909109,0.15782994,0.12596662,1.1839633,0.6041094,-0.041214637,0.09034118,0.79730225,0.43317744,-0.262234,-0.3538496,0.611326,803.0403,805.05493,799.81683,817.9487,809.89014,-0.30340576171875,0.02734375,0.9459228515625,1.734619140625,-3.6187744140625,0.201873779296875,1.0,1.0,1.0,1.0,1.0,75.0,event
15:36:29.690,1.0343307,0.23156895,-0.04114301,1.6586542,0.6857746,-0.22141287,-0.034528363,1.2274891,0.6909109,0.15782994,0.12596662,1.1839633,0.6041094,-0.041214637,0.09034118,0.79730225,0.43317744,-0.262234,-0.3538496,0.611326,804.2491,799.81683,798.60803,821.1722,709.9634,-0.30340576171875,0.02734375,0.9459228515625,1.734619140625,-3.6187744140625,0.201873779296875,1.0,1.0,1.0,1.0,1.0,75.0,event
15:36:29.691,1.0343307,0.23156895,-0.04114301,1.6586542,0.6857746,-0.22141287,-0.034528363,1.2274891,0.6909109,0.15782994,0.12596662,1.1839633,0.6041094,-0.041214637,0.09034118,0.79730225,0.43317744,-0.262234,-0.3538496,0.611326,805.05493,803.0403,798.20514,815.9341,637.4359,-0.30340576171875,0.02734375,0.9459228515625,1.734619140625,-3.6187744140625,0.201873779296875,1.0,1.0,1.0,1.0,1.0,75.0,event
15:36:29.691,1.0343307,0.23156895,-0.04114301,1.6586542,0.6857746,-0.22141287,-0.034528363,1.2274891,0.6909109,0.15782994,0.12596662,1.1839633,0.6041094,-0.041214637,0.09034118,0.79730225,0.43317744,-0.262234,-0.3538496,0.611326,827.619,821.1722,794.57874,801.02563,856.2271,-0.30340576171875,0.02734375,0.9459228515625,1.734619140625,-3.6187744140625,0.201873779296875,1.0,1.0,1.0,1.0,1.0,75.0,event
15:36:29.692,1.0343307,0.23156895,-0.04114301,1.6586542,0.6857746,-0.22141287,-0.034528363,1.2274891,0.6909109,0.15782994,0.12596662,1.1839633,0.6041094,-0.041214637,0.09034118,0.79730225,0.43317744,-0.262234,-0.3538496,0.611326,806.6667,811.9048,788.5348,784.90845,828.022,-0.30340576171875,0.02734375,0.9459228515625,1.734619140625,-3.6187744140625,0.201873779296875,1.0,1.0,1.0,1.0,1.0,75.0,event
15:36:29.692,1.0343307,0.23156895,-0.04114301,1.6586542,0.6857746,-0.22141287,-0.034528363,1.2274891,0.6909109,0.15782994,0.12596662,1.1839633,0.6041094,-0.041214637,0.09034118,0.79730225,0.43317744,-0.262234,-0.3538496,0.611326,819.9634,820.7692,785.7143,786.9231,1078.2417,-0.30340576171875,0.02734375,0.9459228515625,1.734619140625,-3.6187744140625,0.201873779296875,1.0,1.0,1.0,1.0,1.0,75.0,event
15:36:29.693,1.0343307,0.23156895,-0.04114301,1.6586542,0.6857746,-0.22141287,-0.034528363,1.2274891,0.6909109,0.15782994,0.12596662,1.1839633,0.6041094,-0.041214637,0.09034118,0.79730225,0.43317744,-0.262234,-0.3538496,0.611326,826.0073,814.3223,801.4286,844.1392,683.7729,-0.30340576171875,0.02734375,0.9459228515625,1.734619140625,-3.6187744140625,0.201873779296875,1.0,1.0,1.0,1.0,1.0,75.0,event
15:36:29.693,1.0343307,0.23156895,-0.04114301,1.6586542,0.6857746,-0.22141287,-0.034528363,1.2274891,0.6909109,0.15782994,0.12596662,1.1839633,0.6041094,-0.041214637,0.09034118,0.79730225,0.43317744,-0.262234,-0.3538496,0.611326,817.5458,815.5311,799.011,816.337,628.1685,-0.30340576171875,0.02734375,0.9459228515625,1.734619140625,-3.6187744140625,0.201873779296875,1.0,1.0,1.0,1.0,1.0,75.0,event
15:36:29.694,1.0343307,0.23156895,-0.04114301,1.6586542,0.6857746,-0.22141287,-0.034528363,1.2274891,0.6909109,0.15782994,0.12596662,1.1839633,0.6041094,-0.041214637,0.09034118,0.79730225,0.43317744,-0.262234,-0.3538496,0.611326,826.4103,822.7839,798.60803,813.1135,701.50183,-0.30340576171875,0.02734375,0.9459228515625,1.734619140625,-3.6187744140625,0.201873779296875,1.0,1.0,1.0,1.0,1.0,75.0,event
15:36:29.694,1.0343307,0.23156895,-0.04114301,1.6586542,0.6857746,-0.22141287,-0.034528363,1.2274891,0.6909109,0.15782994,0.12596662,1.1839633,0.6041094,-0.041214637,0.09034118,0.79730225,0.43317744,-0.262234,-0.3538496,0.611326,835.2747,821.978,797.3993,805.4579,691.02563,-0.30340576171875,0.02734375,0.9459228515625,1.734619140625,-3.6187744140625,0.201873779296875,1.0,1.0,1.0,1.0,1.0,75.0,event
15:36:29.725,1.0343307,0.23156895,-0.04114301,1.6586542,0.6857746,-0.22141287,-0.034528363,1.2274891,0.6909109,0.15782994,0.12596662,1.1839633,0.6041094,-0.041214637,0.09034118,0.79730225,0.43317744,-0.262234,-0.3538496,0.611326,828.8278,817.1429,794.17584,810.293,702.71063,-0.30340576171875,0.02734375,0.9459228515625,1.734619140625,-3.6187744140625,0.201873779296875,1.0,1.0,1.0,1.0,1.0,75.0,event
15:36:29.726,1.0343307,0.23156895,-0.04114301,1.6586542,0.6857746,-0.22141287,-0.034528363,1.2274891,0.6909109,0.15782994,0.12596662,1.1839633,0.6041094,-0.041214637,0.09034118,0.79730225,0.43317744,-0.262234,-0.3538496,0.611326,834.4689,820.3663,788.5348,816.7399,755.89746,-0.30340576171875,0.02734375,0.9459228515625,1.734619140625,-3.6187744140625,0.201873779296875,1.0,1.0,1.0,1.0,1.0,75.0,event
15:36:29.727,1.0343307,0.23156895,-0.04114301,1.6586542,0.6857746,-0.22141287,-0.034528363,1.2274891,0.6909109,0.15782994,0.12596662,1.1839633,0.6041094,-0.041214637,0.09034118,0.79730225,0.43317744,-0.262234,-0.3538496,0.611326,836.8865,812.71063,792.96704,829.6337,832.0513,-0.30340576171875,0.02734375,0.9459228515625,1.734619140625,-3.6187744140625,0.201873779296875,1.0,1.0,1.0,1.0,1.0,75.0,event
15:36:29.728,1.0343307,0.23156895,-0.04114301,1.6586542,0.6857746,-0.22141287,-0.034528363,1.2274891,0.6909109,0.15782994,0.12596662,1.1839633,0.6041094,-0.041214637,0.09034118,0.79730225,0.43317744,-0.262234,-0.3538496,0.611326,819.9634,807.0696,799.011,822.381,786.52014,-0.30340576171875,0.02734375,0.9459228515625,1.734619140625,-3.6187744140625,0.201873779296875,1.0,1.0,1.0,1.0,1.0,75.0,event
15:36:29.729,1.0343307,0.23156895,-0.04114301,1.6586542,0.6857746,-0.22141287,-0.034528363,1.2274891,0.6909109,0.15782994,0.12596662,1.1839633,0.6041094,-0.041214637,0.09034118,0.79730225,0.43317744,-0.262234,-0.3538496,0.611326,831.2454,815.12823,799.011,835.2747,758.315,-0.30340576171875,0.02734375,0.9459228515625,1.734619140625,-3.6187744140625,0.201873779296875,1.0,1.0,1.0,1.0,1.0,75.0,event
15:36:29.730,1.0219978,0.19776048,-0.09060961,1.6586542,0.69274926,-0.20926501,-0.06670658,1.2274891,0.7487124,0.18740973,0.11261207,1.1839633,0.61860275,-0.031710733,0.08461546,0.79730225,0.4327998,-0.28059068,-0.35546082,0.611326,837.28937,821.5751,796.5934,820.3663,960.58606,-0.30340576171875,0.02734375,0.9459228515625,1.734619140625,-3.6187744140625,0.201873779296875,1.0,1.0,1.0,1.0,1.0,75.0,event
15:36:29.735,1.0219978,0.19776048,-0.09060961,1.6586542,0.69274926,-0.20926501,-0.06670658,1.2274891,0.7487124,0.18740973,0.11261207,1.1839633,0.61860275,-0.031710733,0.08461546,0.79730225,0.4327998,-0.28059068,-0.35546082,0.611326,835.6777,825.6044,798.20514,799.011,973.0769,-0.30340576171875,0.02734375,0.9459228515625,1.734619140625,-3.6187744140625,0.201873779296875,1.0,1.0,1.0,1.0,1.0,75.0,event
15:36:29.736,1.0219978,0.19776048,-0.09060961,1.6586542,0.69274926,-0.20926501,-0.06670658,1.2274891,0.7487124,0.18740973,0.11261207,1.1839633,0.61860275,-0.031710733,0.08461546,0.79730225,0.4327998,-0.28059068,-0.35546082,0.611326,833.2601,819.9634,800.2198,832.8571,776.4469,-0.30340576171875,0.02734375,0.9459228515625,1.734619140625,-3.6187744140625,0.201873779296875,1.0,1.0,1.0,1.0,1.0,75.0,event
15:36:29.737,1.0219978,0.19776048,-0.09060961,1.6586542,0.69274926,-0.20926501,-0.06670658,1.2274891,0.7487124,0.18740973,0.11261207,1.1839633,0.61860275,-0.031710733,0.08461546,0.79730225,0.4327998,-0.28059068,-0.35546082,0.611326,821.5751,812.3077,797.3993,828.022,943.663,-0.30340576171875,0.02734375,0.9459228515625,1.734619140625,-3.6187744140625,0.201873779296875,1.0,1.0,1.0,1.0,1.0,75.0,event
15:36:29.737,1.0219978,0.19776048,-0.09060961,1.6586542,0.69274926,-0.20926501,-0.06670658,1.2274891,0.7487124,0.18740973,0.11261207,1.1839633,0.61860275,-0.031710733,0.08461546,0.79730225,0.4327998,-0.28059068,-0.35546082,0.611326,817.1429,809.4872,796.5934,822.381,691.8315,-0.30340576171875,0.02734375,0.9459228515625,1.734619140625,-3.6187744140625,0.201873779296875,1.0,1.0,1.0,1.0,1.0,75.0,event
15:36:29.738,1.0219978,0.19776048,-0.09060961,1.6586542,0.69274926,-0.20926501,-0.06670658,1.2274891,0.7487124,0.18740973,0.11261207,1.1839633,0.61860275,-0.031710733,0.08461546,0.79730225,0.4327998,-0.28059068,-0.35546082,0.611326,830.84247,812.3077,795.38464,827.619,1095.1648,-0.30340576171875,0.02734375,0.9459228515625,1.734619140625,-3.6187744140625,0.201873779296875,1.0,1.0,1.0,1.0,1.0,75.0,event
15:36:29.740,1.0219978,0.19776048,-0.09060961,1.6586542,0.69274926,-0.20926501,-0.06670658,1.2274891,0.7487124,0.18740973,0.11261207,1.1839633,0.61860275,-0.031710733,0.08461546,0.79730225,0.4327998,-0.28059068,-0.35546082,0.611326,811.0989,807.47253,795.38464,818.7546,770.0,-0.30340576171875,0.02734375,0.9459228515625,1.734619140625,-3.6187744140625,0.201873779296875,1.0,1.0,1.0,1.0,1.0,75.0,event
15:36:29.766,1.0219978,0.19776048,-0.09060961,1.6586542,0.69274926,-0.20926501,-0.06670658,1.2274891,0.7487124,0.18740973,0.11261207,1.1839633,0.61860275,-0.031710733,0.08461546,0.79730225,0.4327998,-0.28059068,-0.35546082,0.611326,813.1135,811.0989,802.23444,827.2161,684.57874,-0.2979736328125,0.025146484375,0.94384765625,1.57012939453125,-3.028106689453125,-0.127105712890625,1.0,1.0,1.0,1.0,1.0,75.0,event
15:36:29.767,1.0219978,0.19776048,-0.09060961,1.6586542,0.69274926,-0.20926501,-0.06670658,1.2274891,0.7487124,0.18740973,0.11261207,1.1839633,0.61860275,-0.031710733,0.08461546,0.79730225,0.4327998,-0.28059068,-0.35546082,0.611326,823.5897,817.9487,800.6227,809.4872,781.28204,-0.2979736328125,0.025146484375,0.94384765625,1.57012939453125,-3.028106689453125,-0.127105712890625,1.0,1.0,1.0,1.0,1.0,75.0,event
15:36:29.769,1.0219978,0.19776048,-0.09060961,1.6586542,0.69274926,-0.20926501,-0.06670658,1.2274891,0.7487124,0.18740973,0.11261207,1.1839633,0.61860275,-0.031710733,0.08461546,0.79730225,0.4327998,-0.28059068,-0.35546082,0.611326,827.619,815.12823,792.5641,794.17584,785.31134,-0.2979736328125,0.025146484375,0.94384765625,1.57012939453125,-3.028106689453125,-0.127105712890625,1.0,1.0,1.0,1.0,1.0,75.0,event
15:36:29.770,1.0219978,0.19776048,-0.09060961,1.6586542,0.69274926,-0.20926501,-0.06670658,1.2274891,0.7487124,0.18740973,0.11261207,1.1839633,0.61860275,-0.031710733,0.08461546,0.79730225,0.4327998,-0.28059068,-0.35546082,0.611326,822.7839,808.68134,792.96704,814.7253,756.30035,-0.2979736328125,0.025146484375,0.94384765625,1.57012939453125,-3.028106689453125,-0.127105712890625,1.0,1.0,1.0,1.0,1.0,75.0,event
15:36:29.771,1.0219978,0.19776048,-0.09060961,1.6586542,0.69274926,-0.20926501,-0.06670658,1.2274891,0.7487124,0.18740973,0.11261207,1.1839633,0.61860275,-0.031710733,0.08461546,0.79730225,0.4327998,-0.28059068,-0.35546082,0.611326,823.1868,814.3223,795.38464,829.2308,724.87177,-0.2979736328125,0.025146484375,0.94384765625,1.57012939453125,-3.028106689453125,-0.127105712890625,1.0,1.0,1.0,1.0,1.0,75.0,event
15:36:29.772,1.0219978,0.19776048,-0.09060961,1.6586542,0.69274926,-0.20926501,-0.06670658,1.2274891,0.7487124,0.18740973,0.11261207,1.1839633,0.61860275,-0.031710733,0.08461546,0.79730225,0.4327998,-0.28059068,-0.35546082,0.611326,834.0659,822.381,801.4286,823.9927,815.12823,-0.2979736328125,0.025146484375,0.94384765625,1.57012939453125,-3.028106689453125,-0.127105712890625,1.0,1.0,1.0,1.0,1.0,75.0,event
15:36:29.772,1.0219978,0.19776048,-0.09060961,1.6586542,0.69274926,-0.20926501,-0.06670658,1.2274891,0.7487124,0.18740973,0.11261207,1.1839633,0.61860275,-0.031710733,0.08461546,0.79730225,0.4327998,-0.28059068,-0.35546082,0.611326,834.87177,821.1722,806.6667,831.6484,865.4945,-0.2979736328125,0.025146484375,0.94384765625,1.57012939453125,-3.028106689453125,-0.127105712890625,1.0,1.0,1.0,1.0,1.0,75.0,event
15:36:29.773,1.0219978,0.19776048,-0.09060961,1.6586542,0.69274926,-0.20926501,-0.06670658,1.2274891,0.7487124,0.18740973,0.11261207,1.1839633,0.61860275,-0.031710733,0.08461546,0.79730225,0.4327998,-0.28059068,-0.35546082,0.611326,811.9048,808.68134,799.41394,836.8865,814.7253,-0.2979736328125,0.025146484375,0.94384765625,1.57012939453125,-3.028106689453125,-0.127105712890625,1.0,1.0,1.0,1.0,1.0,75.0,event
15:36:29.773,1.0219978,0.19776048,-0.09060961,1.6586542,0.69274926,-0.20926501,-0.06670658,1.2274891,0.7487124,0.18740973,0.11261207,1.1839633,0.61860275,-0.031710733,0.08461546,0.79730225,0.4327998,-0.28059068,-0.35546082,0.611326,816.7399,810.696,805.4579,841.7216,838.0952,-0.2979736328125,0.025146484375,0.94384765625,1.57012939453125,-3.028106689453125,-0.127105712890625,1.0,1.0,1.0,1.0,1.0,75.0,event
15:36:29.774,1.0219978,0.19776048,-0.09060961,1.6586542,0.69274926,-0.20926501,-0.06670658,1.2274891,0.7487124,0.18740973,0.11261207,1.1839633,0.61860275,-0.031710733,0.08461546,0.79730225,0.4327998,-0.28059068,-0.35546082,0.611326,816.7399,813.91943,797.3993,829.6337,1013.36993,-0.2979736328125,0.025146484375,0.94384765625,1.57012939453125,-3.028106689453125,-0.127105712890625,1.0,1.0,1.0,1.0,1.0,75.0,event
15:36:29.774,1.0219978,0.19776048,-0.09060961,1.6586542,0.69274926,-0.20926501,-0.06670658,1.2274891,0.7487124,0.18740973,0.11261207,1.1839633,0.61860275,-0.031710733,0.08461546,0.79730225,0.4327998,-0.28059068,-0.35546082,0.611326,809.4872,809.89014,796.99634,807.0696,969.45056,-0.2979736328125,0.025146484375,0.94384765625,1.57012939453125,-3.028106689453125,-0.127105712890625,1.0,1.0,1.0,1.0,1.0,75.0,event
15:36:29.774,1.0219978,0.19776048,-0.09060961,1.6586542,0.69274926,-0.20926501,-0.06670658,1.2274891,0.7487124,0.18740973,0.11261207,1.1839633,0.61860275,-0.031710733,0.08461546,0.79730225,0.4327998,-0.28059068,-0.35546082,0.611326,800.2198,805.05493,791.3553,801.02563,672.8938,-0.2979736328125,0.025146484375,0.94384765625,1.57012939453125,-3.028106689453125,-0.127105712890625,1.0,1.0,1.0,1.0,1.0,75.0,event
15:36:29.838,1.0219978,0.19776048,-0.09060961,1.6586542,0.69274926,-0.20926501,-0.06670658,1.2274891,0.7487124,0.18740973,0.11261207,1.1839633,0.61860275,-0.031710733,0.08461546,0.79730225,0.4327998,-0.28059068,-0.35546082,0.611326,800.2198,813.5165,791.75824,818.3516,710.3663,-0.303955078125,0.02508544921875,0.945068359375,2.332763671875,-3.880462646484375,0.007476806640625,1.0,1.0,1.0,1.0,1.0,75.0,event
15:36:29.839,1.0219978,0.19776048,-0.09060961,1.6586542,0.69274926,-0.20926501,-0.06670658,1.2274891,0.7487124,0.18740973,0.11261207,1.1839633,0.61860275,-0.031710733,0.08461546,0.79730225,0.4327998,-0.28059068,-0.35546082,0.611326,811.50183,813.1135,792.96704,828.022,710.3663,-0.303955078125,0.02508544921875,0.945068359375,2.332763671875,-3.880462646484375,0.007476806640625,1.0,1.0,1.0,1.0,1.0,75.0,event
15:36:29.840,1.0219978,0.19776048,-0.09060961,1.6586542,0.69274926,-0.20926501,-0.06670658,1.2274891,0.7487124,0.18740973,0.11261207,1.1839633,0.61860275,-0.031710733,0.08461546,0.79730225,0.4327998,-0.28059068,-0.35546082,0.611326,817.9487,810.293,790.54944,820.7692,637.8388,-0.303955078125,0.02508544921875,0.945068359375,2.332763671875,-3.880462646484375,0.007476806640625,1.0,1.0,1.0,1.0,1.0,75.0,event
15:36:29.841,1.0219978,0.19776048,-0.09060961,1.6586542,0.69274926,-0.20926501,-0.06670658,1.2274891,0.7487124,0.18740973,0.11261207,1.1839633,0.61860275,-0.031710733,0.08461546,0.79730225,0.4327998,-0.28059068,-0.35546082,0.611326,819.9634,815.12823,793.36993,802.6374,685.38464,-0.303955078125,0.02508544921875,0.945068359375,2.332763671875,-3.880462646484375,0.007476806640625,1.0,1.0,1.0,1.0,1.0,75.0,event
15:36:29.841,1.0219978,0.19776048,-0.09060961,1.6586542,0.69274926,-0.20926501,-0.06670658,1.2274891,0.7487124,0.18740973,0.11261207,1.1839633,0.61860275,-0.031710733,0.08461546,0.79730225,0.4327998,-0.28059068,-0.35546082,0.611326,817.1429,814.7253,793.7729,811.50183,765.9707,-0.303955078125,0.02508544921875,0.945068359375,2.332763671875,-3.880462646484375,0.007476806640625,1.0,1.0,1.0,1.0,1.0,75.0,event
15:36:29.842,1.0219978,0.19776048,-0.09060961,1.6586542,0.69274926,-0.20926501,-0.06670658,1.2274891,0.7487124,0.18740973,0.11261207,1.1839633,0.61860275,-0.031710733,0.08461546,0.79730225,0.4327998,-0.28059068,-0.35546082,0.611326,817.9487,814.3223,788.93774,803.8461,811.50183,-0.303955078125,0.02508544921875,0.945068359375,2.332763671875,-3.880462646484375,0.007476806640625,1.0,1.0,1.0,1.0,1.0,75.0,event
15:36:29.842,1.0219978,0.19776048,-0.09060961,1.6586542,0.69274926,-0.20926501,-0.06670658,1.2274891,0.7487124,0.18740973,0.11261207,1.1839633,0.61860275,-0.031710733,0.08461546,0.79730225,0.4327998,-0.28059068,-0.35546082,0.611326,826.0073,814.3223,790.9524,828.8278,787.326,-0.303955078125,0.02508544921875,0.945068359375,2.332763671875,-3.880462646484375,0.007476806640625,1.0,1.0,1.0,1.0,1.0,75.0,event
15:36:29.843,0.9985932,0.16925347,-0.14101236,0.7522294,0.68619,-0.18346801,-0.10760144,0.5650715,0.8259585,0.18801963,0.07444084,0.73094183,0.6277317,-0.029835299,0.07850392,1.0406151,0.42667738,-0.29732454,-0.35926577,0.5030174,798.20514,811.50183,788.5348,796.5934,776.04395,-0.303955078125,0.02508544921875,0.945068359375,2.332763671875,-3.880462646484375,0.007476806640625,1.0,1.0,1.0,1.0,1.0,75.0,event
15:36:29.848,0.9985932,0.16925347,-0.14101236,0.7522294,0.68619,-0.18346801,-0.10760144,0.5650715,0.8259585,0.18801963,0.07444084,0.73094183,0.6277317,-0.029835299,0.07850392,1.0406151,0.42667738,-0.29732454,-0.35926577,0.5030174,797.8022,810.293,790.14655,807.47253,941.6484,-0.303955078125,0.02508544921875,0.945068359375,2.332763671875,-3.880462646484375,0.007476806640625,1.0,1.0,1.0,1.0,1.0,75.0,event
15:36:29.848,0.9985932,0.16925347,-0.14101236,0.7522294,0.68619,-0.18346801,-0.10760144,0.5650715,0.8259585,0.18801963,0.07444084,0.73094183,0.6277317,-0.029835299,0.07850392,1.0406151,0.42667738,-0.29732454,-0.35926577,0.5030174,811.9048,813.91943,786.9231,791.3553,1108.0586,-0.303955078125,0.02508544921875,0.945068359375,2.332763671875,-3.880462646484375,0.007476806640625,1.0,1.0,1.0,1.0,1.0,75.0,event
15:36:29.849,0.9985932,0.16925347,-0.14101236,0.7522294,0.68619,-0.18346801,-0.10760144,0.5650715,0.8259585,0.18801963,0.07444084,0.73094183,0.6277317,-0.029835299,0.07850392,1.0406151,0.42667738,-0.29732454,-0.35926577,0.5030174,813.91943,817.5458,786.1172,777.25275,857.03296,-0.303955078125,0.02508544921875,0.945068359375,2.332763671875,-3.880462646484375,0.007476806640625,1.0,1.0,1.0,1.0,1.0,75.0,event
15:36:29.849,0.9985932,0.16925347,-0.14101236,0.7522294,0.68619,-0.18346801,-0.10760144,0.5650715,0.8259585,0.18801963,0.07444084,0.73094183,0.6277317,-0.029835299,0.07850392,1.0406151,0.42667738,-0.29732454,-0.35926577,0.5030174,810.696,811.50183,788.93774,806.26373,717.619,-0.303955078125,0.02508544921875,0.945068359375,2.332763671875,-3.880462646484375,0.007476806640625,1.0,1.0,1.0,1.0,1.0,75.0,event
15:36:29.875,0.9985932,0.16925347,-0.14101236,0.7522294,0.68619,-0.18346801,-0.10760144,0.5650715,0.8259585,0.18801963,0.07444084,0.73094183,0.6277317,-0.029835299,0.07850392,1.0406151,0.42667738,-0.29732454,-0.35926577,0.5030174,803.8461,812.3077,792.1612,837.6923,763.95605,-0.3009033203125,0.02459716796875,0.9390869140625,2.0037841796875,-2.938385009765625,-0.321502685546875,1.0,1.0,1.0,1.0,1.0,75.0,event
15:36:29.876,0.9985932,0.16925347,-0.14101236,0.7522294,0.68619,-0.18346801,-0.10760144,0.5650715,0.8259585,0.18801963,0.07444084,0.73094183,0.6277317,-0.029835299,0.07850392,1.0406151,0.42667738,-0.29732454,-0.35926577,0.5030174,804.2491,816.337,794.9817,809.0842,709.15753,-0.3009033203125,0.02459716796875,0.9390869140625,2.0037841796875,-2.938385009765625,-0.321502685546875,1.0,1.0,1.0,1.0,1.0,75.0,event
15:36:29.877,0.9985932,0.16925347,-0.14101236,0.7522294,0.68619,-0.18346801,-0.10760144,0.5650715,0.8259585,0.18801963,0.07444084,0.73094183,0.6277317,-0.029835299,0.07850392,1.0406151,0.42667738,-0.29732454,-0.35926577,0.5030174,817.9487,815.9341,797.8022,812.3077,672.0879,-0.3009033203125,0.02459716796875,0.9390869140625,2.0037841796875,-2.938385009765625,-0.321502685546875,1.0,1.0,1.0,1.0,1.0,75.0,event
15:36:29.878,0.9985932,0.16925347,-0.14101236,0.7522294,0.68619,-0.18346801,-0.10760144,0.5650715,0.8259585,0.18801963,0.07444084,0.73094183,0.6277317,-0.029835299,0.07850392,1.0406151,0.42667738,-0.29732454,-0.35926577,0.5030174,810.696,811.50183,801.4286,823.1868,726.8865,-0.3009033203125,0.02459716796875,0.9390869140625,2.0037841796875,-2.938385009765625,-0.321502685546875,1.0,1.0,1.0,1.0,1.0,75.0,event
15:36:29.878,0.9985932,0.16925347,-0.14101236,0.7522294,0.68619,-0.18346801,-0.10760144,0.5650715,0.8259585,0.18801963,0.07444084,0.73094183,0.6277317,-0.029835299,0.07850392,1.0406151,0.42667738,-0.29732454,-0.35926577,0.5030174,799.81683,815.12823,799.81683,819.9634,773.6264,-0.3009033203125,0.02459716796875,0.9390869140625,2.0037841796875,-2.938385009765625,-0.321502685546875,1.0,1.0,1.0,1.0,1.0,75.0,event
15:36:29.879,0.9985932,0.16925347,-0.14101236,0.7522294,0.68619,-0.18346801,-0.10760144,0.5650715,0.8259585,0.18801963,0.07444084,0.73094183,0.6277317,-0.029835299,0.07850392,1.0406151,0.42667738,-0.29732454,-0.35926577,0.5030174,832.4542,817.1429,796.99634,827.619,830.84247,-0.3009033203125,0.02459716796875,0.9390869140625,2.0037841796875,-2.938385009765625,-0.321502685546875,1.0,1.0,1.0,1.0,1.0,75.0,event
15:36:29.879,0.9985932,0.16925347,-0.14101236,0.7522294,0.68619,-0.18346801,-0.10760144,0.5650715,0.8259585,0.18801963,0.07444084,0.73094183,0.6277317,-0.029835299,0.07850392,1.0406151,0.42667738,-0.29732454,-0.35926577,0.5030174,816.337,822.7839,794.17584,831.2454,832.0513,-0.3009033203125,0.02459716796875,0.9390869140625,2.0037841796875,-2.938385009765625,-0.321502685546875,1.0,1.0,1.0,1.0,1.0,75.0,event
15:36:29.880,0.9985932,0.16925347,-0.14101236,0.7522294,0.68619,-0.18346801,-0.10760144,0.5650715,0.8259585,0.18801963,0.07444084,0.73094183,0.6277317,-0.029835299,0.07850392,1.0406151,0.42667738,-0.29732454,-0.35926577,0.5030174,815.5311,812.3077,790.54944,811.9048,1012.96704,-0.3009033203125,0.02459716796875,0.9390869140625,2.0037841796875,-2.938385009765625,-0.321502685546875,1.0,1.0,1.0,1.0,1.0,75.0,event
15:36:29.880,0.9985932,0.16925347,-0.14101236,0.7522294,0.68619,-0.18346801,-0.10760144,0.5650715,0.8259585,0.18801963,0.07444084,0.73094183,0.6277317,-0.029835299,0.07850392,1.0406151,0.42667738,-0.29732454,-0.35926577,0.5030174,823.1868,809.0842,794.57874,820.7692,841.31866,-0.3009033203125,0.02459716796875,0.9390869140625,2.0037841796875,-2.938385009765625,-0.321502685546875,1.0,1.0,1.0,1.0,1.0,75.0,event
15:36:29.881,0.9985932,0.16925347,-0.14101236,0.7522294,0.68619,-0.18346801,-0.10760144,0.5650715,0.8259585,0.18801963,0.07444084,0.73094183,0.6277317,-0.029835299,0.07850392,1.0406151,0.42667738,-0.29732454,-0.35926577,0.5030174,807.47253,815.12823,792.1612,817.5458,892.8938,-0.3009033203125,0.02459716796875,0.9390869140625,2.0037841796875,-2.938385009765625,-0.321502685546875,1.0,1.0,1.0,1.0,1.0,75.0,event
15:36:29.882,0.9985932,0.16925347,-0.14101236,0.7522294,0.68619,-0.18346801,-0.10760144,0.5650715,0.8259585,0.18801963,0.07444084,0.73094183,0.6277317,-0.029835299,0.07850392,1.0406151,0.42667738,-0.29732454,-0.35926577,0.5030174,805.8608,804.2491,790.54944,809.0842,781.28204,-0.3009033203125,0.02459716796875,0.9390869140625,2.0037841796875,-2.938385009765625,-0.321502685546875,1.0,1.0,1.0,1.0,1.0,75.0,event
15:36:29.882,0.9985932,0.16925347,-0.14101236,0.7522294,0.68619,-0.18346801,-0.10760144,0.5650715,0.8259585,0.18801963,0.07444084,0.73094183,0.6277317,-0.029835299,0.07850392,1.0406151,0.42667738,-0.29732454,-0.35926577,0.5030174,818.3516,805.4579,791.75824,826.4103,844.1392,-0.3009033203125,0.02459716796875,0.9390869140625,2.0037841796875,-2.938385009765625,-0.321502685546875,1.0,1.0,1.0,1.0,1.0,75.0,event
15:36:29.909,0.9985932,0.16925347,-0.14101236,0.7522294,0.68619,-0.18346801,-0.10760144,0.5650715,0.8259585,0.18801963,0.07444084,0.73094183,0.6277317,-0.029835299,0.07850392,1.0406151,0.42667738,-0.29732454,-0.35926577,0.5030174,827.619,813.91943,789.7436,815.5311,826.0073,-0.306396484375,0.0224609375,0.9442138671875,2.25799560546875,-2.811279296875,-0.2392578125,1.0,1.0,1.0,1.0,1.0,75.0,event
15:36:29.910,0.9985932,0.16925347,-0.14101236,0.7522294,0.68619,-0.18346801,-0.10760144,0.5650715,0.8259585,0.18801963,0.07444084,0.73094183,0.6277317,-0.029835299,0.07850392,1.0406151,0.42667738,-0.29732454,-0.35926577,0.5030174,821.5751,812.3077,790.14655,789.34064,751.06226,-0.306396484375,0.0224609375,0.9442138671875,2.25799560546875,-2.811279296875,-0.2392578125,1.0,1.0,1.0,1.0,1.0,75.0,event
15:36:29.910,0.9985932,0.16925347,-0.14101236,0.7522294,0.68619,-0.18346801,-0.10760144,0.5650715,0.8259585,0.18801963,0.07444084,0.73094183,0.6277317,-0.029835299,0.07850392,1.0406151,0.42667738,-0.29732454,-0.35926577,0.5030174,827.619,809.4872,790.54944,809.89014,732.1245,-0.306396484375,0.0224609375,0.9442138671875,2.25799560546875,-2.811279296875,-0.2392578125,1.0,1.0,1.0,1.0,1.0,75.0,event
15:36:29.911,0.9985932,0.16925347,-0.14101236,0.7522294,0.68619,-0.18346801,-0.10760144,0.5650715,0.8259585,0.18801963,0.07444084,0.73094183,0.6277317,-0.029835299,0.07850392,1.0406151,0.42667738,-0.29732454,-0.35926577,0.5030174,826.0073,808.2784,786.9231,836.4835,848.1685,-0.306396484375,0.0224609375,0.9442138671875,2.25799560546875,-2.811279296875,-0.2392578125,1.0,1.0,1.0,1.0,1.0,75.0,event
15:36:29.912,0.9985932,0.16925347,-0.14101236,0.7522294,0.68619,-0.18346801,-0.10760144,0.5650715,0.8259585,0.18801963,0.07444084,0.73094183,0.6277317,-0.029835299,0.07850392,1.0406151,0.42667738,-0.29732454,-0.35926577,0.5030174,819.9634,817.5458,788.93774,823.9927,807.8755,-0.306396484375,0.0224609375,0.9442138671875,2.25799560546875,-2.811279296875,-0.2392578125,1.0,1.0,1.0,1.0,1.0,75.0,event
15:36:29.912,0.9985932,0.16925347,-0.14101236,0.7522294,0.68619,-0.18346801,-0.10760144,0.5650715,0.8259585,0.18801963,0.07444084,0.73094183,0.6277317,-0.029835299,0.07850392,1.0406151,0.42667738,-0.29732454,-0.35926577,0.5030174,828.8278,823.5897,788.5348,828.4249,792.5641,-0.306396484375,0.0224609375,0.9442138671875,2.25799560546875,-2.811279296875,-0.2392578125,1.0,1.0,1.0,1.0,1.0,75.0,event
15:36:29.913,0.9985932,0.16925347,-0.14101236,0.7522294,0.68619,-0.18346801,-0.10760144,0.5650715,0.8259585,0.18801963,0.07444084,0.73094183,0.6277317,-0.029835299,0.07850392,1.0406151,0.42667738,-0.29732454,-0.35926577,0.5030174,815.12823,819.15753,785.31134,801.4286,1021.02563,-0.306396484375,0.0224609375,0.9442138671875,2.25799560546875,-2.811279296875,-0.2392578125,1.0,1.0,1.0,1.0,1.0,75.0,event
15:36:29.913,0.9985932,0.16925347,-0.14101236,0.7522294,0.68619,-0.18346801,-0.10760144,0.5650715,0.8259585,0.18801963,0.07444084,0.73094183,0.6277317,-0.029835299,0.07850392,1.0406151,0.42667738,-0.29732454,-0.35926577,0.5030174,830.4396,820.3663,789.34064,826.0073,906.5934,-0.306396484375,0.0224609375,0.9442138671875,2.25799560546875,-2.811279296875,-0.2392578125,1.0,1.0,1.0,1.0,1.0,75.0,event
15:36:29.914,0.9985932,0.16925347,-0.14101236,0.7522294,0.68619,-0.18346801,-0.10760144,0.5650715,0.8259585,0.18801963,0.07444084,0.73094183,0.6277317,-0.029835299,0.07850392,1.0406151,0.42667738,-0.29732454,-0.35926577,0.5030174,804.65204,809.89014,785.7143,801.02563,1012.5641,-0.306396484375,0.0224609375,0.9442138671875,2.25799560546875,-2.811279296875,-0.2392578125,1.0,1.0,1.0,1.0,1.0,75.0,event
15:36:29.914,0.9795717,0.14201437,-0.16982986,0.7293748,0.6688157,-0.13415484,-0.15203835,0.53513545,0.8525193,0.18801963,0.07550216,0.7431832,0.6347584,-0.03201037,0.074023426,0.9999933,0.41727826,-0.30219415,-0.36171198,0.51918083,807.8755,815.5311,788.5348,806.6667,705.9341,-0.306396484375,0.0224609375,0.9442138671875,2.25799560546875,-2.811279296875,-0.2392578125,1.0,1.0,1.0,1.0,1.0,75.0,event
15:36:29.919,0.9795717,0.14201437,-0.16982986,0.7293748,0.6688157,-0.13415484,-0.15203835,0.53513545,0.8525193,0.18801963,0.07550216,0.7431832,0.6347584,-0.03201037,0.074023426,0.9999933,0.41727826,-0.30219415,-0.36171198,0.51918083,830.0366,815.12823,790.9524,810.293,626.9597,-0.306396484375,0.0224609375,0.9442138671875,2.25799560546875,-2.811279296875,-0.2392578125,1.0,1.0,1.0,1.0,1.0,75.0,event
15:36:29.919,0.9795717,0.14201437,-0.16982986,0.7293748,0.6688157,-0.13415484,-0.15203835,0.53513545,0.8525193,0.18801963,0.07550216,0.7431832,0.6347584,-0.03201037,0.074023426,0.9999933,0.41727826,-0.30219415,-0.36171198,0.51918083,832.0513,808.2784,795.78754,817.9487,726.4835,-0.306396484375,0.0224609375,0.9442138671875,2.25799560546875,-2.811279296875,-0.2392578125,1.0,1.0,1.0,1.0,1.0,75.0,event
15:36:29.972,0.9795717,0.14201437,-0.16982986,0.7293748,0.6688157,-0.13415484,-0.15203835,0.53513545,0.8525193,0.18801963,0.07550216,0.7431832,0.6347584,-0.03201037,0.074023426,0.9999933,0.41727826,-0.30219415,-0.36171198,0.51918083,818.3516,813.1135,794.9817,822.7839,732.52747,-0.306396484375,0.0224609375,0.9442138671875,2.25799560546875,-2.811279296875,-0.2392578125,1.0,1.0,1.0,1.0,1.0,75.0,event
15:36:29.973,0.9795717,0.14201437,-0.16982986,0.7293748,0.6688157,-0.13415484,-0.15203835,0.53513545,0.8525193,0.18801963,0.07550216,0.7431832,0.6347584,-0.03201037,0.074023426,0.9999933,0.41727826,-0.30219415,-0.36171198,0.51918083,807.8755,809.0842,792.5641,820.3663,680.14655,-0.306396484375,0.0224609375,0.9442138671875,2.25799560546875,-2.811279296875,-0.2392578125,1.0,1.0,1.0,1.0,1.0,75.0,event
15:36:29.974,0.9795717,0.14201437,-0.16982986,0.7293748,0.6688157,-0.13415484,-0.15203835,0.53513545,0.8525193,0.18801963,0.07550216,0.7431832,0.6347584,-0.03201037,0.074023426,0.9999933,0.41727826,-0.30219415,-0.36171198,0.51918083,806.6667,811.0989,788.5348,817.5458,699.4872,-0.306396484375,0.0224609375,0.9442138671875,2.25799560546875,-2.811279296875,-0.2392578125,1.0,1.0,1.0,1.0,1.0,75.0,event
15:36:29.974,0.9795717,0.14201437,-0.16982986,0.7293748,0.6688157,-0.13415484,-0.15203835,0.53513545,0.8525193,0.18801963,0.07550216,0.7431832,0.6347584,-0.03201037,0.074023426,0.9999933,0.41727826,-0.30219415,-0.36171198,0.51918083,823.9927,819.9634,788.5348,812.3077,813.91943,-0.306396484375,0.0224609375,0.9442138671875,2.25799560546875,-2.811279296875,-0.2392578125,1.0,1.0,1.0,1.0,1.0,75.0,event
15:36:29.975,0.9795717,0.14201437,-0.16982986,0.7293748,0.6688157,-0.13415484,-0.15203835,0.53513545,0.8525193,0.18801963,0.07550216,0.7431832,0.6347584,-0.03201037,0.074023426,0.9999933,0.41727826,-0.30219415,-0.36171198,0.51918083,833.2601,817.9487,790.14655,811.9048,809.4872,-0.306396484375,0.0224609375,0.9442138671875,2.25799560546875,-2.811279296875,-0.2392578125,1.0,1.0,1.0,1.0,1.0,75.0,event
15:36:29.976,0.9795717,0.14201437,-0.16982986,0.7293748,0.6688157,-0.13415484,-0.15203835,0.53513545,0.8525193,0.18801963,0.07550216,0.7431832,0.6347584,-0.03201037,0.074023426,0.9999933,0.41727826,-0.30219415,-0.36171198,0.51918083,809.4872,815.5311,779.2674,823.9927,883.6264,-0.306396484375,0.0224609375,0.9442138671875,2.25799560546875,-2.811279296875,-0.2392578125,1.0,1.0,1.0,1.0,1.0,75.0,event
15:36:29.976,0.9795717,0.14201437,-0.16982986,0.7293748,0.6688157,-0.13415484,-0.15203835,0.53513545,0.8525193,0.18801963,0.07550216,0.7431832,0.6347584,-0.03201037,0.074023426,0.9999933,0.41727826,-0.30219415,-0.36171198,0.51918083,817.1429,814.7253,784.90845,826.8132,792.96704,-0.306396484375,0.0224609375,0.9442138671875,2.25799560546875,-2.811279296875,-0.2392578125,1.0,1.0,1.0,1.0,1.0,75.0,event
15:36:29.977,0.9795717,0.14201437,-0.16982986,0.7293748,0.6688157,-0.13415484,-0.15203835,0.53513545,0.8525193,0.18801963,0.07550216,0.7431832,0.6347584,-0.03201037,0.074023426,0.9999933,0.41727826,-0.30219415,-0.36171198,0.51918083,811.9048,822.381,781.685,813.5165,1062.5275,-0.306396484375,0.0224609375,0.9442138671875,2.25799560546875,-2.811279296875,-0.2392578125,1.0,1.0,1.0,1.0,1.0,75.0,event
15:36:29.978,0.9795717,0.14201437,-0.16982986,0.7293748,0.6688157,-0.13415484,-0.15203835,0.53513545,0.8525193,0.18801963,0.07550216,0.7431832,0.6347584,-0.03201037,0.074023426,0.9999933,0.41727826,-0.30219415,-0.36171198,0.51918083,822.7839,818.3516,791.3553,807.47253,939.6337,-0.306396484375,0.0224609375,0.9442138671875,2.25799560546875,-2.811279296875,-0.2392578125,1.0,1.0,1.0,1.0,1.0,75.0,event
15:36:29.978,0.9795717,0.14201437,-0.16982986,0.7293748,0.6688157,-0.13415484,-0.15203835,0.53513545,0.8525193,0.18801963,0.07550216,0.7431832,0.6347584,-0.03201037,0.074023426,0.9999933,0.41727826,-0.30219415,-0.36171198,0.51918083,833.2601,815.5311,793.7729,825.6044,697.47253,-0.306396484375,0.0224609375,0.9442138671875,2.25799560546875,-2.811279296875,-0.2392578125,1.0,1.0,1.0,1.0,1.0,75.0,event
15:36:29.979,0.9795717,0.14201437,-0.16982986,0.7293748,0.6688157,-0.13415484,-0.15203835,0.53513545,0.8525193,0.18801963,0.07550216,0.7431832,0.6347584,-0.03201037,0.074023426,0.9999933,0.41727826,-0.30219415,-0.36171198,0.51918083,830.84247,812.3077,790.9524,839.304,774.83514,-0.306396484375,0.0224609375,0.9442138671875,2.25799560546875,-2.811279296875,-0.2392578125,1.0,1.0,1.0,1.0,1.0,75.0,event
15:36:29.980,0.9795717,0.14201437,-0.16982986,0.7293748,0.6688157,-0.13415484,-0.15203835,0.53513545,0.8525193,0.18801963,0.07550216,0.7431832,0.6347584,-0.03201037,0.074023426,0.9999933,0.41727826,-0.30219415,-0.36171198,0.51918083,813.1135,810.293,790.54944,840.9158,830.84247,-0.306396484375,0.0224609375,0.9442138671875,2.25799560546875,-2.811279296875,-0.2392578125,1.0,1.0,1.0,1.0,1.0,75.0,event
15:36:30.010,0.9795717,0.14201437,-0.16982986,0.7293748,0.6688157,-0.13415484,-0.15203835,0.53513545,0.8525193,0.18801963,0.07550216,0.7431832,0.6347584,-0.03201037,0.074023426,0.9999933,0.41727826,-0.30219415,-0.36171198,0.51918083,811.0989,815.5311,784.90845,839.707,649.5238,-0.3001708984375,0.02630615234375,0.947509765625,2.25799560546875,-2.534637451171875,0.097198486328125,1.0,1.0,1.0,1.0,1.0,75.0,event
15:36:30.013,0.9795717,0.14201437,-0.16982986,0.7293748,0.6688157,-0.13415484,-0.15203835,0.53513545,0.8525193,0.18801963,0.07550216,0.7431832,0.6347584,-0.03201037,0.074023426,0.9999933,0.41727826,-0.30219415,-0.36171198,0.51918083,820.3663,811.9048,781.28204,820.7692,629.3773,-0.3001708984375,0.02630615234375,0.947509765625,2.25799560546875,-2.534637451171875,0.097198486328125,1.0,1.0,1.0,1.0,1.0,75.0,event
15:36:30.014,0.9795717,0.14201437,-0.16982986,0.7293748,0.6688157,-0.13415484,-0.15203835,0.53513545,0.8525193,0.18801963,0.07550216,0.7431832,0.6347584,-0.03201037,0.074023426,0.9999933,0.41727826,-0.30219415,-0.36171198,0.51918083,813.91943,813.5165,787.72894,809.4872,830.4396,-0.3001708984375,0.02630615234375,0.947509765625,2.25799560546875,-2.534637451171875,0.097198486328125,1.0,1.0,1.0,1.0,1.0,75.0,event
15:36:30.015,0.9795717,0.14201437,-0.16982986,0.7293748,0.6688157,-0.13415484,-0.15203835,0.53513545,0.8525193,0.18801963,0.07550216,0.7431832,0.6347584,-0.03201037,0.074023426,0.9999933,0.41727826,-0.30219415,-0.36171198,0.51918083,813.5165,825.2015,791.75824,821.5751,873.1502,-0.3001708984375,0.02630615234375,0.947509765625,2.25799560546875,-2.534637451171875,0.097198486328125,1.0,1.0,1.0,1.0,1.0,75.0,event
15:36:30.016,0.9795717,0.14201437,-0.16982986,0.7293748,0.6688157,-0.13415484,-0.15203835,0.53513545,0.8525193,0.18801963,0.07550216,0.7431832,0.6347584,-0.03201037,0.074023426,0.9999933,0.41727826,-0.30219415,-0.36171198,0.51918083,821.978,824.3956,789.34064,830.4396,792.1612,-0.3001708984375,0.02630615234375,0.947509765625,2.25799560546875,-2.534637451171875,0.097198486328125,1.0,1.0,1.0,1.0,1.0,75.0,event
15:36:30.017,0.9795717,0.14201437,-0.16982986,0.7293748,0.6688157,-0.13415484,-0.15203835,0.53513545,0.8525193,0.18801963,0.07550216,0.7431832,0.6347584,-0.03201037,0.074023426,0.9999933,0.41727826,-0.30219415,-0.36171198,0.51918083,819.5604,814.3223,790.54944,820.7692,832.8571,-0.3001708984375,0.02630615234375,0.947509765625,2.25799560546875,-2.534637451171875,0.097198486328125,1.0,1.0,1.0,1.0,1.0,75.0,event
15:36:30.018,0.9795717,0.14201437,-0.16982986,0.7293748,0.6688157,-0.13415484,-0.15203835,0.53513545,0.8525193,0.18801963,0.07550216,0.7431832,0.6347584,-0.03201037,0.074023426,0.9999933,0.41727826,-0.30219415,-0.36171198,0.51918083,820.3663,816.7399,789.34064,831.2454,937.2161,-0.3001708984375,0.02630615234375,0.947509765625,2.25799560546875,-2.534637451171875,0.097198486328125,1.0,1.0,1.0,1.0,1.0,75.0,event
15:36:30.020,0.9795717,0.14201437,-0.16982986,0.7293748,0.6688157,-0.13415484,-0.15203835,0.53513545,0.8525193,0.18801963,0.07550216,0.7431832,0.6347584,-0.03201037,0.074023426,0.9999933,0.41727826,-0.30219415,-0.36171198,0.51918083,824.7985,815.5311,780.07324,825.6044,1041.978,-0.3001708984375,0.02630615234375,0.947509765625,2.25799560546875,-2.534637451171875,0.097198486328125,1.0,1.0,1.0,1.0,1.0,75.0,event
15:36:30.021,0.9795717,0.14201437,-0.16982986,0.7293748,0.6688157,-0.13415484,-0.15203835,0.53513545,0.8525193,0.18801963,0.07550216,0.7431832,0.6347584,-0.03201037,0.074023426,0.9999933,0.41727826,-0.30219415,-0.36171198,0.51918083,819.15753,810.293,782.49084,824.7985,919.4872,-0.3001708984375,0.02630615234375,0.947509765625,2.25799560546875,-2.534637451171875,0.097198486328125,1.0,1.0,1.0,1.0,1.0,75.0,event
15:36:30.022,0.9795717,0.14201437,-0.16982986,0.7293748,0.6688157,-0.13415484,-0.15203835,0.53513545,0.8525193,0.18801963,0.07550216,0.7431832,0.6347584,-0.03201037,0.074023426,0.9999933,0.41727826,-0.30219415,-0.36171198,0.51918083,820.7692,808.2784,786.9231,834.4689,669.67035,-0.3001708984375,0.02630615234375,0.947509765625,2.25799560546875,-2.534637451171875,0.097198486328125,1.0,1.0,1.0,1.0,1.0,75.0,event
15:36:30.023,0.9795717,0.14201437,-0.16982986,0.7293748,0.6688157,-0.13415484,-0.15203835,0.53513545,0.8525193,0.18801963,0.07550216,0.7431832,0.6347584,-0.03201037,0.074023426,0.9999933,0.41727826,-0.30219415,-0.36171198,0.51918083,819.15753,808.2784,782.8938,821.1722,625.34796,-0.3001708984375,0.02630615234375,0.947509765625,2.25799560546875,-2.534637451171875,0.097198486328125,1.0,1.0,1.0,1.0,1.0,75.0,event
15:36:30.024,0.9761747,0.1248855,-0.1616725,0.7232423,0.65087473,-0.065263845,-0.1887506,0.5294891,0.8585771,0.18801963,0.07550216,0.8000872,0.643341,-0.03109714,0.07077652,0.9640151,0.40840495,-0.2918137,-0.3603272,0.5534367,809.89014,815.12823,782.0879,811.50183,704.3223,-0.3001708984375,0.02630615234375,0.947509765625,2.25799560546875,-2.534637451171875,0.097198486328125,1.0,1.0,1.0,1.0,1.0,75.0,event
15:36:30.051,0.9761747,0.1248855,-0.1616725,0.7232423,0.65087473,-0.065263845,-0.1887506,0.5294891,0.8585771,0.18801963,0.07550216,0.8000872,0.643341,-0.03109714,0.07077652,0.9640151,0.40840495,-0.2918137,-0.3603272,0.5534367,819.5604,815.5311,781.28204,814.3223,800.6227,-0.30609130859375,0.0220947265625,0.94122314453125,1.74957275390625,-2.79632568359375,0.49346923828125,1.0,1.0,1.0,1.0,1.0,75.0,event
15:36:30.052,0.9761747,0.1248855,-0.1616725,0.7232423,0.65087473,-0.065263845,-0.1887506,0.5294891,0.8585771,0.18801963,0.07550216,0.8000872,0.643341,-0.03109714,0.07077652,0.9640151,0.40840495,-0.2918137,-0.3603272,0.5534367,832.8571,818.7546,782.0879,831.2454,779.67035,-0.30609130859375,0.0220947265625,0.94122314453125,1.74957275390625,-2.79632568359375,0.49346923828125,1.0,1.0,1.0,1.0,1.0,75.0,event
15:36:30.053,0.9761747,0.1248855,-0.1616725,0.7232423,0.65087473,-0.065263845,-0.1887506,0.5294891,0.8585771,0.18801963,0.07550216,0.8000872,0.643341,-0.03109714,0.07077652,0.9640151,0.40840495,-0.2918137,-0.3603272,0.5534367,811.50183,817.1429,784.10254,830.4396,705.5311,-0.30609130859375,0.0220947265625,0.94122314453125,1.74957275390625,-2.79632568359375,0.49346923828125,1.0,1.0,1.0,1.0,1.0,75.0,event
15:36:30.053,0.9761747,0.1248855,-0.1616725,0.7232423,0.65087473,-0.065263845,-0.1887506,0.5294891,0.8585771,0.18801963,0.07550216,0.8000872,0.643341,-0.03109714,0.07077652,0.9640151,0.40840495,-0.2918137,-0.3603272,0.5534367,821.978,820.7692,785.7143,827.619,691.4286,-0.30609130859375,0.0220947265625,0.94122314453125,1.74957275390625,-2.79632568359375,0.49346923828125,1.0,1.0,1.0,1.0,1.0,75.0,event
15:36:30.053,0.9761747,0.1248855,-0.1616725,0.7232423,0.65087473,-0.065263845,-0.1887506,0.5294891,0.8585771,0.18801963,0.07550216,0.8000872,0.643341,-0.03109714,0.07077652,0.9640151,0.40840495,-0.2918137,-0.3603272,0.5534367,817.1429,824.7985,780.4762,834.87177,691.8315,-0.30609130859375,0.0220947265625,0.94122314453125,1.74957275390625,-2.79632568359375,0.49346923828125,1.0,1.0,1.0,1.0,1.0,75.0,event
15:36:30.054,0.9761747,0.1248855,-0.1616725,0.7232423,0.65087473,-0.065263845,-0.1887506,0.5294891,0.8585771,0.18801963,0.07550216,0.8000872,0.643341,-0.03109714,0.07077652,0.9640151,0.40840495,-0.2918137,-0.3603272,0.5534367,831.2454,826.8132,787.326,813.5165,760.32965,-0.30609130859375,0.0220947265625,0.94122314453125,1.74957275390625,-2.79632568359375,0.49346923828125,1.0,1.0,1.0,1.0,1.0,75.0,event
15:36:30.054,0.9761747,0.1248855,-0.1616725,0.7232423,0.65087473,-0.065263845,-0.1887506,0.5294891,0.8585771,0.18801963,0.07550216,0.8000872,0.643341,-0.03109714,0.07077652,0.9640151,0.40840495,-0.2918137,-0.3603272,0.5534367,824.3956,831.2454,784.90845,813.91943,747.03296,-0.30609130859375,0.0220947265625,0.94122314453125,1.74957275390625,-2.79632568359375,0.49346923828125,1.0,1.0,1.0,1.0,1.0,75.0,event
15:36:30.055,0.9761747,0.1248855,-0.1616725,0.7232423,0.65087473,-0.065263845,-0.1887506,0.5294891,0.8585771,0.18801963,0.07550216,0.8000872,0.643341,-0.03109714,0.07077652,0.9640151,0.40840495,-0.2918137,-0.3603272,0.5534367,833.2601,827.2161,785.31134,821.978,931.1722,-0.30609130859375,0.0220947265625,0.94122314453125,1.74957275390625,-2.79632568359375,0.49346923828125,1.0,1.0,1.0,1.0,1.0,75.0,event
15:36:30.056,0.9761747,0.1248855,-0.1616725,0.7232423,0.65087473,-0.065263845,-0.1887506,0.5294891,0.8585771,0.18801963,0.07550216,0.8000872,0.643341,-0.03109714,0.07077652,0.9640151,0.40840495,-0.2918137,-0.3603272,0.5534367,828.022,822.381,786.52014,815.5311,1021.02563,-0.30609130859375,0.0220947265625,0.94122314453125,1.74957275390625,-2.79632568359375,0.49346923828125,1.0,1.0,1.0,1.0,1.0,75.0,event
15:36:30.056,0.9761747,0.1248855,-0.1616725,0.7232423,0.65087473,-0.065263845,-0.1887506,0.5294891,0.8585771,0.18801963,0.07550216,0.8000872,0.643341,-0.03109714,0.07077652,0.9640151,0.40840495,-0.2918137,-0.3603272,0.5534367,817.9487,818.3516,784.90845,819.9634,778.46155,-0.30609130859375,0.0220947265625,0.94122314453125,1.74957275390625,-2.79632568359375,0.49346923828125,1.0,1.0,1.0,1.0,1.0,75.0,event
15:36:30.056,0.9761747,0.1248855,-0.1616725,0.7232423,0.65087473,-0.065263845,-0.1887506,0.5294891,0.8585771,0.18801963,0.07550216,0.8000872,0.643341,-0.03109714,0.07077652,0.9640151,0.40840495,-0.2918137,-0.3603272,0.5534367,813.1135,825.6044,780.87915,821.5751,760.32965,-0.30609130859375,0.0220947265625,0.94122314453125,1.74957275390625,-2.79632568359375,0.49346923828125,1.0,1.0,1.0,1.0,1.0,75.0,event
15:36:30.057,0.9761747,0.1248855,-0.1616725,0.7232423,0.65087473,-0.065263845,-0.1887506,0.5294891,0.8585771,0.18801963,0.07550216,0.8000872,0.643341,-0.03109714,0.07077652,0.9640151,0.40840495,-0.2918137,-0.3603272,0.5534367,809.4872,824.3956,783.2967,811.9048,713.1868,-0.30609130859375,0.0220947265625,0.94122314453125,1.74957275390625,-2.79632568359375,0.49346923828125,1.0,1.0,1.0,1.0,1.0,75.0,event
15:36:30.117,0.9761747,0.1248855,-0.1616725,0.7232423,0.65087473,-0.065263845,-0.1887506,0.5294891,0.8585771,0.18801963,0.07550216,0.8000872,0.643341,-0.03109714,0.07077652,0.9640151,0.40840495,-0.2918137,-0.3603272,0.5534367,817.5458,820.3663,782.8938,801.4286,628.1685,-0.31097412109375,0.02606201171875,0.94561767578125,3.06549072265625,-3.8580322265625,1.256103515625,1.0,1.0,1.0,1.0,1.0,75.0,event
15:36:30.118,0.9761747,0.1248855,-0.1616725,0.7232423,0.65087473,-0.065263845,-0.1887506,0.5294891,0.8585771,0.18801963,0.07550216,0.8000872,0.643341,-0.03109714,0.07077652,0.9640151,0.40840495,-0.2918137,-0.3603272,0.5534367,823.9927,825.2015,776.8498,819.15753,643.47986,-0.31097412109375,0.02606201171875,0.94561767578125,3.06549072265625,-3.8580322265625,1.256103515625,1.0,1.0,1.0,1.0,1.0,75.0,event
15:36:30.118,0.9761747,0.1248855,-0.1616725,0.7232423,0.65087473,-0.065263845,-0.1887506,0.5294891,0.8585771,0.18801963,0.07550216,0.8000872,0.643341,-0.03109714,0.07077652,0.9640151,0.40840495,-0.2918137,-0.3603272,0.5534367,831.6484,821.5751,779.2674,828.022,708.3516,-0.31097412109375,0.02606201171875,0.94561767578125,3.06549072265625,-3.8580322265625,1.256103515625,1.0,1.0,1.0,1.0,1.0,75.0,event
15:36:30.119,0.9761747,0.1248855,-0.1616725,0.7232423,0.65087473,-0.065263845,-0.1887506,0.5294891,0.8585771,0.18801963,0.07550216,0.8000872,0.643341,-0.03109714,0.07077652,0.9640151,0.40840495,-0.2918137,-0.3603272,0.5534367,821.978,817.1429,783.2967,822.7839,708.3516,-0.31097412109375,0.02606201171875,0.94561767578125,3.06549072265625,-3.8580322265625,1.256103515625,1.0,1.0,1.0,1.0,1.0,75.0,event
15:36:30.119,0.9761747,0.1248855,-0.1616725,0.7232423,0.65087473,-0.065263845,-0.1887506,0.5294891,0.8585771,0.18801963,0.07550216,0.8000872,0.643341,-0.03109714,0.07077652,0.9640151,0.40840495,-0.2918137,-0.3603272,0.5534367,817.9487,821.1722,786.52014,826.0073,706.337,-0.31097412109375,0.02606201171875,0.94561767578125,3.06549072265625,-3.8580322265625,1.256103515625,1.0,1.0,1.0,1.0,1.0,75.0,event
15:36:30.120,0.9761747,0.1248855,-0.1616725,0.7232423,0.65087473,-0.065263845,-0.1887506,0.5294891,0.8585771,0.18801963,0.07550216,0.8000872,0.643341,-0.03109714,0.07077652,0.9640151,0.40840495,-0.2918137,-0.3603272,0.5534367,830.4396,819.15753,786.9231,817.9487,785.7143,-0.31097412109375,0.02606201171875,0.94561767578125,3.06549072265625,-3.8580322265625,1.256103515625,1.0,1.0,1.0,1.0,1.0,75.0,event
15:36:30.121,0.9761747,0.1248855,-0.1616725,0.7232423,0.65087473,-0.065263845,-0.1887506,0.5294891,0.8585771,0.18801963,0.07550216,0.8000872,0.643341,-0.03109714,0.07077652,0.9640151,0.40840495,-0.2918137,-0.3603272,0.5534367,819.9634,813.91943,784.10254,836.8865,859.0476,-0.31097412109375,0.02606201171875,0.94561767578125,3.06549072265625,-3.8580322265625,1.256103515625,1.0,1.0,1.0,1.0,1.0,75.0,event
15:36:30.121,0.9761747,0.1248855,-0.1616725,0.7232423,0.65087473,-0.065263845,-0.1887506,0.5294891,0.8585771,0.18801963,0.07550216,0.8000872,0.643341,-0.03109714,0.07077652,0.9640151,0.40840495,-0.2918137,-0.3603272,0.5534367,811.50183,815.5311,785.31134,850.18317,944.0659,-0.31097412109375,0.02606201171875,0.94561767578125,3.06549072265625,-3.8580322265625,1.256103515625,1.0,1.0,1.0,1.0,1.0,75.0,event
15:36:30.122,0.9761747,0.1248855,-0.1616725,0.7232423,0.65087473,-0.065263845,-0.1887506,0.5294891,0.8585771,0.18801963,0.07550216,0.8000872,0.643341,-0.03109714,0.07077652,0.9640151,0.40840495,-0.2918137,-0.3603272,0.5534367,802.6374,818.3516,787.326,824.3956,796.5934,-0.31097412109375,0.02606201171875,0.94561767578125,3.06549072265625,-3.8580322265625,1.256103515625,1.0,1.0,1.0,1.0,1.0,75.0,event
15:36:30.122,0.9761747,0.1248855,-0.1616725,0.7232423,0.65087473,-0.065263845,-0.1887506,0.5294891,0.8585771,0.18801963,0.07550216,0.8000872,0.643341,-0.03109714,0.07077652,0.9640151,0.40840495,-0.2918137,-0.3603272,0.5534367,809.4872,822.7839,791.75824,819.9634,669.2674,-0.31097412109375,0.02606201171875,0.94561767578125,3.06549072265625,-3.8580322265625,1.256103515625,1.0,1.0,1.0,1.0,1.0,75.0,event
15:36:30.123,0.9761747,0.1248855,-0.1616725,0.7232423,0.65087473,-0.065263845,-0.1887506,0.5294891,0.8585771,0.18801963,0.07550216,0.8000872,0.643341,-0.03109714,0.07077652,0.9640151,0.40840495,-0.2918137,-0.3603272,0.5534367,820.7692,827.619,787.326,813.1135,789.34064,-0.31097412109375,0.02606201171875,0.94561767578125,3.06549072265625,-3.8580322265625,1.256103515625,1.0,1.0,1.0,1.0,1.0,75.0,event
15:36:30.123,0.9761747,0.1248855,-0.1616725,0.7232423,0.65087473,-0.065263845,-0.1887506,0.5294891,0.8585771,0.18801963,0.07550216,0.8000872,0.643341,-0.03109714,0.07077652,0.9640151,0.40840495,-0.2918137,-0.3603272,0.5534367,817.5458,819.9634,780.4762,807.0696,822.381,-0.31097412109375,0.02606201171875,0.94561767578125,3.06549072265625,-3.8580322265625,1.256103515625,1.0,1.0,1.0,1.0,1.0,75.0,event
15:36:30.153,0.9761747,0.1248855,-0.1616725,0.7232423,0.65087473,-0.065263845,-0.1887506,0.5294891,0.8585771,0.18801963,0.07550216,0.8000872,0.643341,-0.03109714,0.07077652,0.9640151,0.40840495,-0.2918137,-0.3603272,0.5534367,817.5458,814.7253,781.28204,811.0989,679.34064,-0.30145263671875,0.0264892578125,0.94134521484375,2.923431396484375,-4.463653564453125,1.60003662109375,1.0,1.0,1.0,1.0,1.0,75.0,event
15:36:30.154,0.97904277,0.119384944,-0.120247625,0.71009654,0.63863033,0.0011156661,-0.20603536,0.5363521,0.8585771,0.18801963,0.07385458,0.8416734,0.6523315,-0.021913933,0.0675803,0.9416227,0.40237352,-0.2737874,-0.35481438,0.58918923,828.022,820.3663,778.86444,807.8755,702.71063,-0.30145263671875,0.0264892578125,0.94134521484375,2.923431396484375,-4.463653564453125,1.60003662109375,1.0,1.0,1.0,1.0,1.0,75.0,event
15:36:30.158,0.97904277,0.119384944,-0.120247625,0.71009654,0.63863033,0.0011156661,-0.20603536,0.5363521,0.8585771,0.18801963,0.07385458,0.8416734,0.6523315,-0.021913933,0.0675803,0.9416227,0.40237352,-0.2737874,-0.35481438,0.58918923,829.2308,825.6044,780.4762,825.2015,778.86444,-0.30145263671875,0.0264892578125,0.94134521484375,2.923431396484375,-4.463653564453125,1.60003662109375,1.0,1.0,1.0,1.0,1.0,75.0,event
15:36:30.159,0.97904277,0.119384944,-0.120247625,0.71009654,0.63863033,0.0011156661,-0.20603536,0.5363521,0.8585771,0.18801963,0.07385458,0.8416734,0.6523315,-0.021913933,0.0675803,0.9416227,0.40237352,-0.2737874,-0.35481438,0.58918923,828.4249,822.381,783.69965,831.6484,755.4945,-0.30145263671875,0.0264892578125,0.94134521484375,2.923431396484375,-4.463653564453125,1.60003662109375,1.0,1.0,1.0,1.0,1.0,75.0,event
15:36:30.160,0.97904277,0.119384944,-0.120247625,0.71009654,0.63863033,0.0011156661,-0.20603536,0.5363521,0.8585771,0.18801963,0.07385458,0.8416734,0.6523315,-0.021913933,0.0675803,0.9416227,0.40237352,-0.2737874,-0.35481438,0.58918923,826.0073,833.663,789.7436,828.022,786.52014,-0.30145263671875,0.0264892578125,0.94134521484375,2.923431396484375,-4.463653564453125,1.60003662109375,1.0,1.0,1.0,1.0,1.0,75.0,event
15:36:30.160,0.97904277,0.119384944,-0.120247625,0.71009654,0.63863033,0.0011156661,-0.20603536,0.5363521,0.8585771,0.18801963,0.07385458,0.8416734,0.6523315,-0.021913933,0.0675803,0.9416227,0.40237352,-0.2737874,-0.35481438,0.58918923,832.4542,823.1868,783.2967,817.5458,653.1502,-0.30145263671875,0.0264892578125,0.94134521484375,2.923431396484375,-4.463653564453125,1.60003662109375,1.0,1.0,1.0,1.0,1.0,75.0,event
15:36:30.161,0.97904277,0.119384944,-0.120247625,0.71009654,0.63863033,0.0011156661,-0.20603536,0.5363521,0.8585771,0.18801963,0.07385458,0.8416734,0.6523315,-0.021913933,0.0675803,0.9416227,0.40237352,-0.2737874,-0.35481438,0.58918923,831.6484,826.4103,790.14655,841.31866,978.315,-0.30145263671875,0.0264892578125,0.94134521484375,2.923431396484375,-4.463653564453125,1.60003662109375,1.0,1.0,1.0,1.0,1.0,75.0,event
15:36:30.162,0.97904277,0.119384944,-0.120247625,0.71009654,0.63863033,0.0011156661,-0.20603536,0.5363521,0.8585771,0.18801963,0.07385458,0.8416734,0.6523315,-0.021913933,0.0675803,0.9416227,0.40237352,-0.2737874,-0.35481438,0.58918923,830.0366,817.5458,782.49084,835.2747,843.73627,-0.30145263671875,0.0264892578125,0.94134521484375,2.923431396484375,-4.463653564453125,1.60003662109375,1.0,1.0,1.0,1.0,1.0,75.0,event
15:36:30.162,0.97904277,0.119384944,-0.120247625,0.71009654,0.63863033,0.0011156661,-0.20603536,0.5363521,0.8585771,0.18801963,0.07385458,0.8416734,0.6523315,-0.021913933,0.0675803,0.9416227,0.40237352,-0.2737874,-0.35481438,0.58918923,827.619,819.5604,781.28204,821.1722,701.9048,-0.30145263671875,0.0264892578125,0.94134521484375,2.923431396484375,-4.463653564453125,1.60003662109375,1.0,1.0,1.0,1.0,1.0,75.0,event
15:36:30.163,0.97904277,0.119384944,-0.120247625,0.71009654,0.63863033,0.0011156661,-0.20603536,0.5363521,0.8585771,0.18801963,0.07385458,0.8416734,0.6523315,-0.021913933,0.0675803,0.9416227,0.40237352,-0.2737874,-0.35481438,0.58918923,840.10986,823.9927,781.685,830.0366,689.41394,-0.30145263671875,0.0264892578125,0.94134521484375,2.923431396484375,-4.463653564453125,1.60003662109375,1.0,1.0,1.0,1.0,1.0,75.0,event
15:36:30.163,0.97904277,0.119384944,-0.120247625,0.71009654,0.63863033,0.0011156661,-0.20603536,0.5363521,0.8585771,0.18801963,0.07385458,0.8416734,0.6523315,-0.021913933,0.0675803,0.9416227,0.40237352,-0.2737874,-0.35481438,0.58918923,829.6337,828.022,788.1319,847.3626,943.663,-0.30145263671875,0.0264892578125,0.94134521484375,2.923431396484375,-4.463653564453125,1.60003662109375,1.0,1.0,1.0,1.0,1.0,75.0,event
15:36:30.164,0.97904277,0.119384944,-0.120247625,0.71009654,0.63863033,0.0011156661,-0.20603536,0.5363521,0.8585771,0.18801963,0.07385458,0.8416734,0.6523315,-0.021913933,0.0675803,0.9416227,0.40237352,-0.2737874,-0.35481438,0.58918923,813.1135,824.7985,791.75824,834.87177,963.4066,-0.30145263671875,0.0264892578125,0.94134521484375,2.923431396484375,-4.463653564453125,1.60003662109375,1.0,1.0,1.0,1.0,1.0,75.0,event
15:36:30.187,0.97904277,0.119384944,-0.120247625,0.71009654,0.63863033,0.0011156661,-0.20603536,0.5363521,0.8585771,0.18801963,0.07385458,0.8416734,0.6523315,-0.021913933,0.0675803,0.9416227,0.40237352,-0.2737874,-0.35481438,0.58918923,826.8132,823.9927,792.96704,828.8278,684.9817,-0.304931640625,0.02960205078125,0.9447021484375,2.64678955078125,-3.760833740234375,2.100982666015625,1.0,1.0,1.0,1.0,1.0,75.0,event
15:36:30.189,0.97904277,0.119384944,-0.120247625,0.71009654,0.63863033,0.0011156661,-0.20603536,0.5363521,0.8585771,0.18801963,0.07385458,0.8416734,0.6523315,-0.021913933,0.0675803,0.9416227,0.40237352,-0.2737874,-0.35481438,0.58918923,834.87177,829.2308,796.5934,840.10986,790.14655,-0.304931640625,0.02960205078125,0.9447021484375,2.64678955078125,-3.760833740234375,2.100982666015625,1.0,1.0,1.0,1.0,1.0,75.0,event
15:36:30.190,0.97904277,0.119384944,-0.120247625,0.71009654,0.63863033,0.0011156661,-0.20603536,0.5363521,0.8585771,0.18801963,0.07385458,0.8416734,0.6523315,-0.021913933,0.0675803,0.9416227,0.40237352,-0.2737874,-0.35481438,0.58918923,821.978,826.0073,790.9524,836.08057,845.34796,-0.304931640625,0.02960205078125,0.9447021484375,2.64678955078125,-3.760833740234375,2.100982666015625,1.0,1.0,1.0,1.0,1.0,75.0,event
15:36:30.191,0.97904277,0.119384944,-0.120247625,0.71009654,0.63863033,0.0011156661,-0.20603536,0.5363521,0.8585771,0.18801963,0.07385458,0.8416734,0.6523315,-0.021913933,0.0675803,0.9416227,0.40237352,-0.2737874,-0.35481438,0.58918923,812.3077,823.5897,792.5641,835.2747,685.78754,-0.304931640625,0.02960205078125,0.9447021484375,2.64678955078125,-3.760833740234375,2.100982666015625,1.0,1.0,1.0,1.0,1.0,75.0,event
15:36:30.192,0.97904277,0.119384944,-0.120247625,0.71009654,0.63863033,0.0011156661,-0.20603536,0.5363521,0.8585771,0.18801963,0.07385458,0.8416734,0.6523315,-0.021913933,0.0675803,0.9416227,0.40237352,-0.2737874,-0.35481438,0.58918923,814.3223,825.6044,789.34064,826.4103,696.6667,-0.304931640625,0.02960205078125,0.9447021484375,2.64678955078125,-3.760833740234375,2.100982666015625,1.0,1.0,1.0,1.0,1.0,75.0,event
15:36:30.193,0.97904277,0.119384944,-0.120247625,0.71009654,0.63863033,0.0011156661,-0.20603536,0.5363521,0.8585771,0.18801963,0.07385458,0.8416734,0.6523315,-0.021913933,0.0675803,0.9416227,0.40237352,-0.2737874,-0.35481438,0.58918923,809.4872,817.5458,779.67035,813.5165,864.2857,-0.304931640625,0.02960205078125,0.9447021484375,2.64678955078125,-3.760833740234375,2.100982666015625,1.0,1.0,1.0,1.0,1.0,75.0,event
15:36:30.193,0.97904277,0.119384944,-0.120247625,0.71009654,0.63863033,0.0011156661,-0.20603536,0.5363521,0.8585771,0.18801963,0.07385458,0.8416734,0.6523315,-0.021913933,0.0675803,0.9416227,0.40237352,-0.2737874,-0.35481438,0.58918923,823.5897,819.5604,783.2967,826.4103,1016.1905,-0.304931640625,0.02960205078125,0.9447021484375,2.64678955078125,-3.760833740234375,2.100982666015625,1.0,1.0,1.0,1.0,1.0,75.0,event
15:36:30.194,0.97904277,0.119384944,-0.120247625,0.71009654,0.63863033,0.0011156661,-0.20603536,0.5363521,0.8585771,0.18801963,0.07385458,0.8416734,0.6523315,-0.021913933,0.0675803,0.9416227,0.40237352,-0.2737874,-0.35481438,0.58918923,826.4103,825.6044,784.10254,840.9158,849.3773,-0.304931640625,0.02960205078125,0.9447021484375,2.64678955078125,-3.760833740234375,2.100982666015625,1.0,1.0,1.0,1.0,1.0,75.0,event
15:36:30.195,0.97904277,0.119384944,-0.120247625,0.71009654,0.63863033,0.0011156661,-0.20603536,0.5363521,0.8585771,0.18801963,0.07385458,0.8416734,0.6523315,-0.021913933,0.0675803,0.9416227,0.40237352,-0.2737874,-0.35481438,0.58918923,817.1429,821.978,784.90845,839.304,641.8681,-0.304931640625,0.02960205078125,0.9447021484375,2.64678955078125,-3.760833740234375,2.100982666015625,1.0,1.0,1.0,1.0,1.0,75.0,event
15:36:30.195,0.97904277,0.119384944,-0.120247625,0.71009654,0.63863033,0.0011156661,-0.20603536,0.5363521,0.8585771,0.18801963,0.07385458,0.8416734,0.6523315,-0.021913933,0.0675803,0.9416227,0.40237352,-0.2737874,-0.35481438,0.58918923,823.5897,823.5897,785.31134,830.0366,872.74725,-0.304931640625,0.02960205078125,0.9447021484375,2.64678955078125,-3.760833740234375,2.100982666015625,1.0,1.0,1.0,1.0,1.0,75.0,event
15:36:30.196,0.97904277,0.119384944,-0.120247625,0.71009654,0.63863033,0.0011156661,-0.20603536,0.5363521,0.8585771,0.18801963,0.07385458,0.8416734,0.6523315,-0.021913933,0.0675803,0.9416227,0.40237352,-0.2737874,-0.35481438,0.58918923,824.7985,830.4396,780.87915,822.381,980.7326,-0.304931640625,0.02960205078125,0.9447021484375,2.64678955078125,-3.760833740234375,2.100982666015625,1.0,1.0,1.0,1.0,1.0,75.0,event
15:36:30.197,0.97904277,0.119384944,-0.120247625,0.71009654,0.63863033,0.0011156661,-0.20603536,0.5363521,0.8585771,0.18801963,0.07385458,0.8416734,0.6523315,-0.021913933,0.0675803,0.9416227,0.40237352,-0.2737874,-0.35481438,0.58918923,815.5311,828.8278,780.07324,820.7692,741.39197,-0.304931640625,0.02960205078125,0.9447021484375,2.64678955078125,-3.760833740234375,2.100982666015625,1.0,1.0,1.0,1.0,1.0,75.0,event
15:36:30.257,0.97904277,0.119384944,-0.120247625,0.71009654,0.63863033,0.0011156661,-0.20603536,0.5363521,0.8585771,0.18801963,0.07385458,0.8416734,0.6523315,-0.021913933,0.0675803,0.9416227,0.40237352,-0.2737874,-0.35481438,0.58918923,821.978,819.5604,783.2967,840.9158,668.46155,-0.304931640625,0.02960205078125,0.9447021484375,2.64678955078125,-3.760833740234375,2.100982666015625,1.0,1.0,1.0,1.0,1.0,75.0,event
15:36:30.258,0.97904277,0.119384944,-0.120247625,0.71009654,0.63863033,0.0011156661,-0.20603536,0.5363521,0.8585771,0.18801963,0.07385458,0.8416734,0.6523315,-0.021913933,0.0675803,0.9416227,0.40237352,-0.2737874,-0.35481438,0.58918923,840.10986,817.1429,785.7143,859.0476,722.8571,-0.304931640625,0.02960205078125,0.9447021484375,2.64678955078125,-3.760833740234375,2.100982666015625,1.0,1.0,1.0,1.0,1.0,75.0,event
15:36:30.259,0.97904277,0.119384944,-0.120247625,0.71009654,0.63863033,0.0011156661,-0.20603536,0.5363521,0.8585771,0.18801963,0.07385458,0.8416734,0.6523315,-0.021913933,0.0675803,0.9416227,0.40237352,-0.2737874,-0.35481438,0.58918923,832.8571,822.381,780.4762,842.9304,779.67035,-0.304931640625,0.02960205078125,0.9447021484375,2.64678955078125,-3.760833740234375,2.100982666015625,1.0,1.0,1.0,1.0,1.0,75.0,event
15:36:30.260,0.9746719,0.11367365,-0.055312727,0.68204886,0.63302267,0.04580275,-0.20778129,0.5410737,0.8585771,0.18801963,0.07144119,0.8464262,0.6573194,-0.0043676463,0.06512403,0.93074375,0.39879462,-0.26094928,-0.34557924,0.61403614,818.3516,823.1868,780.87915,831.2454,796.99634,-0.304931640625,0.02960205078125,0.9447021484375,2.64678955078125,-3.760833740234375,2.100982666015625,1.0,1.0,1.0,1.0,1.0,75.0,event
15:36:30.265,0.9746719,0.11367365,-0.055312727,0.68204886,0.63302267,0.04580275,-0.20778129,0.5410737,0.8585771,0.18801963,0.07144119,0.8464262,0.6573194,-0.0043676463,0.06512403,0.93074375,0.39879462,-0.26094928,-0.34557924,0.61403614,823.1868,830.84247,779.67035,836.8865,928.7546,-0.304931640625,0.02960205078125,0.9447021484375,2.64678955078125,-3.760833740234375,2.100982666015625,1.0,1.0,1.0,1.0,1.0,75.0,event
15:36:30.265,0.9746719,0.11367365,-0.055312727,0.68204886,0.63302267,0.04580275,-0.20778129,0.5410737,0.8585771,0.18801963,0.07144119,0.8464262,0.6573194,-0.0043676463,0.06512403,0.93074375,0.39879462,-0.26094928,-0.34557924,0.61403614,815.12823,824.3956,780.4762,842.1245,780.07324,-0.304931640625,0.02960205078125,0.9447021484375,2.64678955078125,-3.760833740234375,2.100982666015625,1.0,1.0,1.0,1.0,1.0,75.0,event
15:36:30.266,0.9746719,0.11367365,-0.055312727,0.68204886,0.63302267,0.04580275,-0.20778129,0.5410737,0.8585771,0.18801963,0.07144119,0.8464262,0.6573194,-0.0043676463,0.06512403,0.93074375,0.39879462,-0.26094928,-0.34557924,0.61403614,836.08057,828.4249,785.31134,823.9927,946.08057,-0.304931640625,0.02960205078125,0.9447021484375,2.64678955078125,-3.760833740234375,2.100982666015625,1.0,1.0,1.0,1.0,1.0,75.0,event
15:36:30.267,0.9746719,0.11367365,-0.055312727,0.68204886,0.63302267,0.04580275,-0.20778129,0.5410737,0.8585771,0.18801963,0.07144119,0.8464262,0.6573194,-0.0043676463,0.06512403,0.93074375,0.39879462,-0.26094928,-0.34557924,0.61403614,824.7985,827.619,784.5055,813.1135,686.5934,-0.304931640625,0.02960205078125,0.9447021484375,2.64678955078125,-3.760833740234375,2.100982666015625,1.0,1.0,1.0,1.0,1.0,75.0,event
15:36:30.267,0.9746719,0.11367365,-0.055312727,0.68204886,0.63302267,0.04580275,-0.20778129,0.5410737,0.8585771,0.18801963,0.07144119,0.8464262,0.6573194,-0.0043676463,0.06512403,0.93074375,0.39879462,-0.26094928,-0.34557924,0.61403614,820.7692,829.2308,787.326,827.619,729.707,-0.304931640625,0.02960205078125,0.9447021484375,2.64678955078125,-3.760833740234375,2.100982666015625,1.0,1.0,1.0,1.0,1.0,75.0,event
15:36:30.268,0.9746719,0.11367365,-0.055312727,0.68204886,0.63302267,0.04580275,-0.20778129,0.5410737,0.8585771,0.18801963,0.07144119,0.8464262,0.6573194,-0.0043676463,0.06512403,0.93074375,0.39879462,-0.26094928,-0.34557924,0.61403614,834.4689,827.2161,792.1612,853.00366,880.0,-0.304931640625,0.02960205078125,0.9447021484375,2.64678955078125,-3.760833740234375,2.100982666015625,1.0,1.0,1.0,1.0,1.0,75.0,event
15:36:30.268,0.9746719,0.11367365,-0.055312727,0.68204886,0.63302267,0.04580275,-0.20778129,0.5410737,0.8585771,0.18801963,0.07144119,0.8464262,0.6573194,-0.0043676463,0.06512403,0.93074375,0.39879462,-0.26094928,-0.34557924,0.61403614,828.4249,823.1868,789.7436,840.5128,788.93774,-0.304931640625,0.02960205078125,0.9447021484375,2.64678955078125,-3.760833740234375,2.100982666015625,1.0,1.0,1.0,1.0,1.0,75.0,event
15:36:30.269,0.9746719,0.11367365,-0.055312727,0.68204886,0.63302267,0.04580275,-0.20778129,0.5410737,0.8585771,0.18801963,0.07144119,0.8464262,0.6573194,-0.0043676463,0.06512403,0.93074375,0.39879462,-0.26094928,-0.34557924,0.61403614,826.4103,830.84247,782.8938,830.84247,698.2784,-0.304931640625,0.02960205078125,0.9447021484375,2.64678955078125,-3.760833740234375,2.100982666015625,1.0,1.0,1.0,1.0,1.0,75.0,event
15:36:30.296,0.9746719,0.11367365,-0.055312727,0.68204886,0.63302267,0.04580275,-0.20778129,0.5410737,0.8585771,0.18801963,0.07144119,0.8464262,0.6573194,-0.0043676463,0.06512403,0.93074375,0.39879462,-0.26094928,-0.34557924,0.61403614,817.5458,829.2308,780.87915,826.0073,738.5714,-0.307373046875,0.03369140625,0.9534912109375,3.087921142578125,-2.743988037109375,1.966400146484375,1.0,1.0,1.0,1.0,1.0,75.0,event
15:36:30.297,0.9746719,0.11367365,-0.055312727,0.68204886,0.63302267,0.04580275,-0.20778129,0.5410737,0.8585771,0.18801963,0.07144119,0.8464262,0.6573194,-0.0043676463,0.06512403,0.93074375,0.39879462,-0.26094928,-0.34557924,0.61403614,808.2784,819.15753,782.0879,810.293,775.2381,-0.307373046875,0.03369140625,0.9534912109375,3.087921142578125,-2.743988037109375,1.966400146484375,1.0,1.0,1.0,1.0,1.0,75.0,event
15:36:30.298,0.9746719,0.11367365,-0.055312727,0.68204886,0.63302267,0.04580275,-0.20778129,0.5410737,0.8585771,0.18801963,0.07144119,0.8464262,0.6573194,-0.0043676463,0.06512403,0.93074375,0.39879462,-0.26094928,-0.34557924,0.61403614,831.2454,821.978,780.4762,849.7802,672.49084,-0.307373046875,0.03369140625,0.9534912109375,3.087921142578125,-2.743988037109375,1.966400146484375,1.0,1.0,1.0,1.0,1.0,75.0,event
15:36:30.298,0.9746719,0.11367365,-0.055312727,0.68204886,0.63302267,0.04580275,-0.20778129,0.5410737,0.8585771,0.18801963,0.07144119,0.8464262,0.6573194,-0.0043676463,0.06512403,0.93074375,0.39879462,-0.26094928,-0.34557924,0.61403614,827.2161,819.9634,778.86444,827.2161,763.1502,-0.307373046875,0.03369140625,0.9534912109375,3.087921142578125,-2.743988037109375,1.966400146484375,1.0,1.0,1.0,1.0,1.0,75.0,event
15:36:30.299,0.9746719,0.11367365,-0.055312727,0.68204886,0.63302267,0.04580275,-0.20778129,0.5410737,0.8585771,0.18801963,0.07144119,0.8464262,0.6573194,-0.0043676463,0.06512403,0.93074375,0.39879462,-0.26094928,-0.34557924,0.61403614,813.1135,827.2161,784.90845,838.0952,686.1905,-0.307373046875,0.03369140625,0.9534912109375,3.087921142578125,-2.743988037109375,1.966400146484375,1.0,1.0,1.0,1.0,1.0,75.0,event
15:36:30.299,0.9746719,0.11367365,-0.055312727,0.68204886,0.63302267,0.04580275,-0.20778129,0.5410737,0.8585771,0.18801963,0.07144119,0.8464262,0.6573194,-0.0043676463,0.06512403,0.93074375,0.39879462,-0.26094928,-0.34557924,0.61403614,814.3223,831.2454,785.31134,836.4835,845.7509,-0.307373046875,0.03369140625,0.9534912109375,3.087921142578125,-2.743988037109375,1.966400146484375,1.0,1.0,1.0,1.0,1.0,75.0,event
15:36:30.300,0.9746719,0.11367365,-0.055312727,0.68204886,0.63302267,0.04580275,-0.20778129,0.5410737,0.8585771,0.18801963,0.07144119,0.8464262,0.6573194,-0.0043676463,0.06512403,0.93074375,0.39879462,-0.26094928,-0.34557924,0.61403614,830.0366,836.4835,782.0879,848.5714,936.0073,-0.307373046875,0.03369140625,0.9534912109375,3.087921142578125,-2.743988037109375,1.966400146484375,1.0,1.0,1.0,1.0,1.0,75.0,event
15:36:30.300,0.9746719,0.11367365,-0.055312727,0.68204886,0.63302267,0.04580275,-0.20778129,0.5410737,0.8585771,0.18801963,0.07144119,0.8464262,0.6573194,-0.0043676463,0.06512403,0.93074375,0.39879462,-0.26094928,-0.34557924,0.61403614,842.52747,832.4542,782.49084,842.9304,880.0,-0.307373046875,0.03369140625,0.9534912109375,3.087921142578125,-2.743988037109375,1.966400146484375,1.0,1.0,1.0,1.0,1.0,75.0,event
15:36:30.301,0.9746719,0.11367365,-0.055312727,0.68204886,0.63302267,0.04580275,-0.20778129,0.5410737,0.8585771,0.18801963,0.07144119,0.8464262,0.6573194,-0.0043676463,0.06512403,0.93074375,0.39879462,-0.26094928,-0.34557924,0.61403614,843.3333,829.2308,786.52014,845.7509,921.9048,-0.307373046875,0.03369140625,0.9534912109375,3.087921142578125,-2.743988037109375,1.966400146484375,1.0,1.0,1.0,1.0,1.0,75.0,event
15:36:30.302,0.9746719,0.11367365,-0.055312727,0.68204886,0.63302267,0.04580275,-0.20778129,0.5410737,0.8585771,0.18801963,0.07144119,0.8464262,0.6573194,-0.0043676463,0.06512403,0.93074375,0.39879462,-0.26094928,-0.34557924,0.61403614,821.1722,831.6484,782.8938,844.1392,1161.6483,-0.307373046875,0.03369140625,0.9534912109375,3.087921142578125,-2.743988037109375,1.966400146484375,1.0,1.0,1.0,1.0,1.0,75.0,event
15:36:30.302,0.9746719,0.11367365,-0.055312727,0.68204886,0.63302267,0.04580275,-0.20778129,0.5410737,0.8585771,0.18801963,0.07144119,0.8464262,0.6573194,-0.0043676463,0.06512403,0.93074375,0.39879462,-0.26094928,-0.34557924,0.61403614,810.696,829.2308,778.86444,823.9927,981.9414,-0.307373046875,0.03369140625,0.9534912109375,3.087921142578125,-2.743988037109375,1.966400146484375,1.0,1.0,1.0,1.0,1.0,75.0,event
15:36:30.303,0.9746719,0.11367365,-0.055312727,0.68204886,0.63302267,0.04580275,-0.20778129,0.5410737,0.8585771,0.18801963,0.07144119,0.8464262,0.6573194,-0.0043676463,0.06512403,0.93074375,0.39879462,-0.26094928,-0.34557924,0.61403614,816.7399,825.2015,780.07324,826.8132,723.663,-0.307373046875,0.03369140625,0.9534912109375,3.087921142578125,-2.743988037109375,1.966400146484375,1.0,1.0,1.0,1.0,1.0,75.0,event
15:36:30.338,0.9746719,0.11367365,-0.055312727,0.68204886,0.63302267,0.04580275,-0.20778129,0.5410737,0.8585771,0.18801963,0.07144119,0.8464262,0.6573194,-0.0043676463,0.06512403,0.93074375,0.39879462,-0.26094928,-0.34557924,0.61403614,830.0366,825.6044,784.10254,826.8132,779.2674,-0.3123779296875,0.0345458984375,0.94183349609375,2.930908203125,-2.773895263671875,0.710296630859375,1.0,1.0,1.0,1.0,1.0,75.0,event
15:36:30.339,0.9746719,0.11367365,-0.055312727,0.68204886,0.63302267,0.04580275,-0.20778129,0.5410737,0.8585771,0.18801963,0.07144119,0.8464262,0.6573194,-0.0043676463,0.06512403,0.93074375,0.39879462,-0.26094928,-0.34557924,0.61403614,835.6777,826.4103,782.49084,826.8132,731.31866,-0.3123779296875,0.0345458984375,0.94183349609375,2.930908203125,-2.773895263671875,0.710296630859375,1.0,1.0,1.0,1.0,1.0,75.0,event
15:36:30.340,0.9746719,0.11367365,-0.055312727,0.68204886,0.63302267,0.04580275,-0.20778129,0.5410737,0.8585771,0.18801963,0.07144119,0.8464262,0.6573194,-0.0043676463,0.06512403,0.93074375,0.39879462,-0.26094928,-0.34557924,0.61403614,822.381,828.022,780.07324,827.619,691.02563,-0.3123779296875,0.0345458984375,0.94183349609375,2.930908203125,-2.773895263671875,0.710296630859375,1.0,1.0,1.0,1.0,1.0,75.0,event
15:36:30.340,0.9746719,0.11367365,-0.055312727,0.68204886,0.63302267,0.04580275,-0.20778129,0.5410737,0.8585771,0.18801963,0.07144119,0.8464262,0.6573194,-0.0043676463,0.06512403,0.93074375,0.39879462,-0.26094928,-0.34557924,0.61403614,832.4542,823.9927,778.86444,837.28937,628.5714,-0.3123779296875,0.0345458984375,0.94183349609375,2.930908203125,-2.773895263671875,0.710296630859375,1.0,1.0,1.0,1.0,1.0,75.0,event
15:36:30.341,0.9746719,0.11367365,-0.055312727,0.68204886,0.63302267,0.04580275,-0.20778129,0.5410737,0.8585771,0.18801963,0.07144119,0.8464262,0.6573194,-0.0043676463,0.06512403,0.93074375,0.39879462,-0.26094928,-0.34557924,0.61403614,816.7399,829.2308,779.67035,828.022,804.2491,-0.3123779296875,0.0345458984375,0.94183349609375,2.930908203125,-2.773895263671875,0.710296630859375,1.0,1.0,1.0,1.0,1.0,75.0,event
15:36:30.341,0.8652843,0.10296087,0.02142023,0.6563787,0.56159407,0.06451978,-0.20718303,0.5361636,0.82932687,0.18723722,0.06793631,0.8464262,0.66348505,0.017607013,0.06390259,0.9242802,0.4131903,-0.25986528,-0.33353573,0.6263893,823.1868,827.619,775.64105,828.022,853.4066,-0.3123779296875,0.0345458984375,0.94183349609375,2.930908203125,-2.773895263671875,0.710296630859375,1.0,1.0,1.0,1.0,1.0,75.0,event
15:36:30.345,0.8652843,0.10296087,0.02142023,0.6563787,0.56159407,0.06451978,-0.20718303,0.5361636,0.82932687,0.18723722,0.06793631,0.8464262,0.66348505,0.017607013,0.06390259,0.9242802,0.4131903,-0.25986528,-0.33353573,0.6263893,832.0513,829.2308,774.83514,826.4103,822.7839,-0.3123779296875,0.0345458984375,0.94183349609375,2.930908203125,-2.773895263671875,0.710296630859375,1.0,1.0,1.0,1.0,1.0,75.0,event
15:36:30.346,0.8652843,0.10296087,0.02142023,0.6563787,0.56159407,0.06451978,-0.20718303,0.5361636,0.82932687,0.18723722,0.06793631,0.8464262,0.66348505,0.017607013,0.06390259,0.9242802,0.4131903,-0.25986528,-0.33353573,0.6263893,825.2015,829.6337,775.64105,820.7692,748.24176,-0.3123779296875,0.0345458984375,0.94183349609375,2.930908203125,-2.773895263671875,0.710296630859375,1.0,1.0,1.0,1.0,1.0,75.0,event
15:36:30.347,0.8652843,0.10296087,0.02142023,0.6563787,0.56159407,0.06451978,-0.20718303,0.5361636,0.82932687,0.18723722,0.06793631,0.8464262,0.66348505,0.017607013,0.06390259,0.9242802,0.4131903,-0.25986528,-0.33353573,0.6263893,827.2161,827.2161,778.86444,834.87177,931.978,-0.3123779296875,0.0345458984375,0.94183349609375,2.930908203125,-2.773895263671875,0.710296630859375,1.0,1.0,1.0,1.0,1.0,75.0,event
15:36:30.347,0.8652843,0.10296087,0.02142023,0.6563787,0.56159407,0.06451978,-0.20718303,0.5361636,0.82932687,0.18723722,0.06793631,0.8464262,0.66348505,0.017607013,0.06390259,0.9242802,0.4131903,-0.25986528,-0.33353573,0.6263893,832.0513,828.022,782.49084,848.1685,913.8461,-0.3123779296875,0.0345458984375,0.94183349609375,2.930908203125,-2.773895263671875,0.710296630859375,1.0,1.0,1.0,1.0,1.0,75.0,event
15:36:30.348,0.8652843,0.10296087,0.02142023,0.6563787,0.56159407,0.06451978,-0.20718303,0.5361636,0.82932687,0.18723722,0.06793631,0.8464262,0.66348505,0.017607013,0.06390259,0.9242802,0.4131903,-0.25986528,-0.33353573,0.6263893,829.6337,834.87177,782.8938,842.52747,753.0769,-0.3123779296875,0.0345458984375,0.94183349609375,2.930908203125,-2.773895263671875,0.710296630859375,1.0,1.0,1.0,1.0,1.0,75.0,event
15:36:30.349,0.8652843,0.10296087,0.02142023,0.6563787,0.56159407,0.06451978,-0.20718303,0.5361636,0.82932687,0.18723722,0.06793631,0.8464262,0.66348505,0.017607013,0.06390259,0.9242802,0.4131903,-0.25986528,-0.33353573,0.6263893,822.7839,837.6923,784.5055,836.8865,835.2747,-0.3123779296875,0.0345458984375,0.94183349609375,2.930908203125,-2.773895263671875,0.710296630859375,1.0,1.0,1.0,1.0,1.0,75.0,event
15:36:30.384,0.8652843,0.10296087,0.02142023,0.6563787,0.56159407,0.06451978,-0.20718303,0.5361636,0.82932687,0.18723722,0.06793631,0.8464262,0.66348505,0.017607013,0.06390259,0.9242802,0.4131903,-0.25986528,-0.33353573,0.6263893,825.6044,835.6777,784.90845,832.8571,843.3333,-0.301025390625,0.03729248046875,0.9432373046875,2.31781005859375,-3.57391357421875,-0.2691650390625,1.0,1.0,1.0,1.0,1.0,75.0,event
15:36:30.385,0.8652843,0.10296087,0.02142023,0.6563787,0.56159407,0.06451978,-0.20718303,0.5361636,0.82932687,0.18723722,0.06793631,0.8464262,0.66348505,0.017607013,0.06390259,0.9242802,0.4131903,-0.25986528,-0.33353573,0.6263893,841.7216,829.6337,786.52014,837.28937,785.31134,-0.301025390625,0.03729248046875,0.9432373046875,2.31781005859375,-3.57391357421875,-0.2691650390625,1.0,1.0,1.0,1.0,1.0,75.0,event
15:36:30.386,0.8652843,0.10296087,0.02142023,0.6563787,0.56159407,0.06451978,-0.20718303,0.5361636,0.82932687,0.18723722,0.06793631,0.8464262,0.66348505,0.017607013,0.06390259,0.9242802,0.4131903,-0.25986528,-0.33353573,0.6263893,831.6484,829.6337,779.2674,842.52747,760.32965,-0.301025390625,0.03729248046875,0.9432373046875,2.31781005859375,-3.57391357421875,-0.2691650390625,1.0,1.0,1.0,1.0,1.0,75.0,event
15:36:30.386,0.8652843,0.10296087,0.02142023,0.6563787,0.56159407,0.06451978,-0.20718303,0.5361636,0.82932687,0.18723722,0.06793631,0.8464262,0.66348505,0.017607013,0.06390259,0.9242802,0.4131903,-0.25986528,-0.33353573,0.6263893,835.6777,830.0366,784.10254,837.28937,735.7509,-0.301025390625,0.03729248046875,0.9432373046875,2.31781005859375,-3.57391357421875,-0.2691650390625,1.0,1.0,1.0,1.0,1.0,75.0,event
15:36:30.387,0.8652843,0.10296087,0.02142023,0.6563787,0.56159407,0.06451978,-0.20718303,0.5361636,0.82932687,0.18723722,0.06793631,0.8464262,0.66348505,0.017607013,0.06390259,0.9242802,0.4131903,-0.25986528,-0.33353573,0.6263893,834.4689,824.7985,784.5055,867.1062,733.3333,-0.301025390625,0.03729248046875,0.9432373046875,2.31781005859375,-3.57391357421875,-0.2691650390625,1.0,1.0,1.0,1.0,1.0,75.0,event
15:36:30.388,0.8652843,0.10296087,0.02142023,0.6563787,0.56159407,0.06451978,-0.20718303,0.5361636,0.82932687,0.18723722,0.06793631,0.8464262,0.66348505,0.017607013,0.06390259,0.9242802,0.4131903,-0.25986528,-0.33353573,0.6263893,828.022,823.1868,785.31134,858.24176,753.0769,-0.301025390625,0.03729248046875,0.9432373046875,2.31781005859375,-3.57391357421875,-0.2691650390625,1.0,1.0,1.0,1.0,1.0,75.0,event
15:36:30.388,0.8652843,0.10296087,0.02142023,0.6563787,0.56159407,0.06451978,-0.20718303,0.5361636,0.82932687,0.18723722,0.06793631,0.8464262,0.66348505,0.017607013,0.06390259,0.9242802,0.4131903,-0.25986528,-0.33353573,0.6263893,815.5311,828.4249,781.28204,826.8132,799.81683,-0.301025390625,0.03729248046875,0.9432373046875,2.31781005859375,-3.57391357421875,-0.2691650390625,1.0,1.0,1.0,1.0,1.0,75.0,event
15:36:30.389,0.8652843,0.10296087,0.02142023,0.6563787,0.56159407,0.06451978,-0.20718303,0.5361636,0.82932687,0.18723722,0.06793631,0.8464262,0.66348505,0.017607013,0.06390259,0.9242802,0.4131903,-0.25986528,-0.33353573,0.6263893,829.2308,826.8132,782.8938,842.9304,859.45056,-0.301025390625,0.03729248046875,0.9432373046875,2.31781005859375,-3.57391357421875,-0.2691650390625,1.0,1.0,1.0,1.0,1.0,75.0,event
15:36:30.389,0.8652843,0.10296087,0.02142023,0.6563787,0.56159407,0.06451978,-0.20718303,0.5361636,0.82932687,0.18723722,0.06793631,0.8464262,0.66348505,0.017607013,0.06390259,0.9242802,0.4131903,-0.25986528,-0.33353573,0.6263893,846.55676,822.7839,784.5055,869.12085,964.61536,-0.301025390625,0.03729248046875,0.9432373046875,2.31781005859375,-3.57391357421875,-0.2691650390625,1.0,1.0,1.0,1.0,1.0,75.0,event
15:36:30.390,0.8652843,0.10296087,0.02142023,0.6563787,0.56159407,0.06451978,-0.20718303,0.5361636,0.82932687,0.18723722,0.06793631,0.8464262,0.66348505,0.017607013,0.06390259,0.9242802,0.4131903,-0.25986528,-0.33353573,0.6263893,836.4835,828.8278,782.8938,855.0183,788.1319,-0.301025390625,0.03729248046875,0.9432373046875,2.31781005859375,-3.57391357421875,-0.2691650390625,1.0,1.0,1.0,1.0,1.0,75.0,event
15:36:30.390,0.8652843,0.10296087,0.02142023,0.6563787,0.56159407,0.06451978,-0.20718303,0.5361636,0.82932687,0.18723722,0.06793631,0.8464262,0.66348505,0.017607013,0.06390259,0.9242802,0.4131903,-0.25986528,-0.33353573,0.6263893,833.663,829.6337,783.69965,846.55676,635.42126,-0.301025390625,0.03729248046875,0.9432373046875,2.31781005859375,-3.57391357421875,-0.2691650390625,1.0,1.0,1.0,1.0,1.0,75.0,event
15:36:30.391,0.8652843,0.10296087,0.02142023,0.6563787,0.56159407,0.06451978,-0.20718303,0.5361636,0.82932687,0.18723722,0.06793631,0.8464262,0.66348505,0.017607013,0.06390259,0.9242802,0.4131903,-0.25986528,-0.33353573,0.6263893,849.7802,828.022,784.5055,835.6777,770.40295,-0.301025390625,0.03729248046875,0.9432373046875,2.31781005859375,-3.57391357421875,-0.2691650390625,1.0,1.0,1.0,1.0,1.0,75.0,event
15:36:30.452,0.8652843,0.10296087,0.02142023,0.6563787,0.56159407,0.06451978,-0.20718303,0.5361636,0.82932687,0.18723722,0.06793631,0.8464262,0.66348505,0.017607013,0.06390259,0.9242802,0.4131903,-0.25986528,-0.33353573,0.6263893,847.76556,828.022,783.2967,830.84247,791.3553,-0.29620361328125,0.0340576171875,0.940185546875,2.55706787109375,-3.656158447265625,0.112152099609375,1.0,1.0,1.0,1.0,1.0,75.0,event
15:36:30.453,0.8652843,0.10296087,0.02142023,0.6563787,0.56159407,0.06451978,-0.20718303,0.5361636,0.82932687,0.18723722,0.06793631,0.8464262,0.66348505,0.017607013,0.06390259,0.9242802,0.4131903,-0.25986528,-0.33353573,0.6263893,831.2454,832.0513,782.0879,832.4542,740.58606,-0.29620361328125,0.0340576171875,0.940185546875,2.55706787109375,-3.656158447265625,0.112152099609375,1.0,1.0,1.0,1.0,1.0,75.0,event
15:36:30.454,0.8652843,0.10296087,0.02142023,0.6563787,0.56159407,0.06451978,-0.20718303,0.5361636,0.82932687,0.18723722,0.06793631,0.8464262,0.66348505,0.017607013,0.06390259,0.9242802,0.4131903,-0.25986528,-0.33353573,0.6263893,843.73627,833.663,779.2674,834.4689,724.4689,-0.29620361328125,0.0340576171875,0.940185546875,2.55706787109375,-3.656158447265625,0.112152099609375,1.0,1.0,1.0,1.0,1.0,75.0,event
15:36:30.454,0.8652843,0.10296087,0.02142023,0.6563787,0.56159407,0.06451978,-0.20718303,0.5361636,0.82932687,0.18723722,0.06793631,0.8464262,0.66348505,0.017607013,0.06390259,0.9242802,0.4131903,-0.25986528,-0.33353573,0.6263893,834.4689,832.8571,782.8938,833.663,680.9524,-0.29620361328125,0.0340576171875,0.940185546875,2.55706787109375,-3.656158447265625,0.112152099609375,1.0,1.0,1.0,1.0,1.0,75.0,event
15:36:30.455,0.8652843,0.10296087,0.02142023,0.6563787,0.56159407,0.06451978,-0.20718303,0.5361636,0.82932687,0.18723722,0.06793631,0.8464262,0.66348505,0.017607013,0.06390259,0.9242802,0.4131903,-0.25986528,-0.33353573,0.6263893,846.55676,835.6777,781.685,839.304,783.2967,-0.29620361328125,0.0340576171875,0.940185546875,2.55706787109375,-3.656158447265625,0.112152099609375,1.0,1.0,1.0,1.0,1.0,75.0,event
15:36:30.456,0.8652843,0.10296087,0.02142023,0.6563787,0.56159407,0.06451978,-0.20718303,0.5361636,0.82932687,0.18723722,0.06793631,0.8464262,0.66348505,0.017607013,0.06390259,0.9242802,0.4131903,-0.25986528,-0.33353573,0.6263893,843.3333,833.2601,788.5348,844.1392,802.23444,-0.29620361328125,0.0340576171875,0.940185546875,2.55706787109375,-3.656158447265625,0.112152099609375,1.0,1.0,1.0,1.0,1.0,75.0,event
15:36:30.456,0.8652843,0.10296087,0.02142023,0.6563787,0.56159407,0.06451978,-0.20718303,0.5361636,0.82932687,0.18723722,0.06793631,0.8464262,0.66348505,0.017607013,0.06390259,0.9242802,0.4131903,-0.25986528,-0.33353573,0.6263893,838.49817,830.0366,789.7436,846.55676,857.03296,-0.29620361328125,0.0340576171875,0.940185546875,2.55706787109375,-3.656158447265625,0.112152099609375,1.0,1.0,1.0,1.0,1.0,75.0,event
15:36:30.457,0.79203796,0.11187211,0.09301834,0.65239525,0.5051161,0.062493987,-0.21593921,0.5240192,0.80896175,0.1785837,0.0691817,0.8464262,0.66086286,0.03807392,0.0608958,0.9174042,0.42558107,-0.2654615,-0.32125175,0.63040215,838.49817,827.2161,787.326,843.73627,1002.49084,-0.29620361328125,0.0340576171875,0.940185546875,2.55706787109375,-3.656158447265625,0.112152099609375,1.0,1.0,1.0,1.0,1.0,75.0,event
15:36:30.461,0.79203796,0.11187211,0.09301834,0.65239525,0.5051161,0.062493987,-0.21593921,0.5240192,0.80896175,0.1785837,0.0691817,0.8464262,0.66086286,0.03807392,0.0608958,0.9174042,0.42558107,-0.2654615,-0.32125175,0.63040215,826.0073,828.4249,782.49084,834.0659,1000.07324,-0.29620361328125,0.0340576171875,0.940185546875,2.55706787109375,-3.656158447265625,0.112152099609375,1.0,1.0,1.0,1.0,1.0,75.0,event
15:36:30.462,0.79203796,0.11187211,0.09301834,0.65239525,0.5051161,0.062493987,-0.21593921,0.5240192,0.80896175,0.1785837,0.0691817,0.8464262,0.66086286,0.03807392,0.0608958,0.9174042,0.42558107,-0.2654615,-0.32125175,0.63040215,824.7985,835.6777,787.326,831.2454,741.39197,-0.29620361328125,0.0340576171875,0.940185546875,2.55706787109375,-3.656158447265625,0.112152099609375,1.0,1.0,1.0,1.0,1.0,75.0,event
15:36:30.462,0.79203796,0.11187211,0.09301834,0.65239525,0.5051161,0.062493987,-0.21593921,0.5240192,0.80896175,0.1785837,0.0691817,0.8464262,0.66086286,0.03807392,0.0608958,0.9174042,0.42558107,-0.2654615,-0.32125175,0.63040215,826.4103,842.1245,791.75824,843.3333,710.7692,-0.29620361328125,0.0340576171875,0.940185546875,2.55706787109375,-3.656158447265625,0.112152099609375,1.0,1.0,1.0,1.0,1.0,75.0,event
15:36:30.463,0.79203796,0.11187211,0.09301834,0.65239525,0.5051161,0.062493987,-0.21593921,0.5240192,0.80896175,0.1785837,0.0691817,0.8464262,0.66086286,0.03807392,0.0608958,0.9174042,0.42558107,-0.2654615,-0.32125175,0.63040215,834.0659,834.0659,792.5641,852.6007,768.3883,-0.29620361328125,0.0340576171875,0.940185546875,2.55706787109375,-3.656158447265625,0.112152099609375,1.0,1.0,1.0,1.0,1.0,75.0,event
15:36:30.486,0.79203796,0.11187211,0.09301834,0.65239525,0.5051161,0.062493987,-0.21593921,0.5240192,0.80896175,0.1785837,0.0691817,0.8464262,0.66086286,0.03807392,0.0608958,0.9174042,0.42558107,-0.2654615,-0.32125175,0.63040215,844.94507,826.4103,792.1612,845.34796,709.15753,-0.29620361328125,0.0340576171875,0.940185546875,2.55706787109375,-3.656158447265625,0.112152099609375,1.0,1.0,1.0,1.0,1.0,75.0,event
15:36:30.487,0.79203796,0.11187211,0.09301834,0.65239525,0.5051161,0.062493987,-0.21593921,0.5240192,0.80896175,0.1785837,0.0691817,0.8464262,0.66086286,0.03807392,0.0608958,0.9174042,0.42558107,-0.2654615,-0.32125175,0.63040215,838.0952,828.4249,783.69965,854.61536,721.2454,-0.29620361328125,0.0340576171875,0.940185546875,2.55706787109375,-3.656158447265625,0.112152099609375,1.0,1.0,1.0,1.0,1.0,75.0,event
15:36:30.487,0.79203796,0.11187211,0.09301834,0.65239525,0.5051161,0.062493987,-0.21593921,0.5240192,0.80896175,0.1785837,0.0691817,0.8464262,0.66086286,0.03807392,0.0608958,0.9174042,0.42558107,-0.2654615,-0.32125175,0.63040215,848.5714,827.2161,790.14655,859.0476,651.9414,-0.29620361328125,0.0340576171875,0.940185546875,2.55706787109375,-3.656158447265625,0.112152099609375,1.0,1.0,1.0,1.0,1.0,75.0,event
15:36:30.488,0.79203796,0.11187211,0.09301834,0.65239525,0.5051161,0.062493987,-0.21593921,0.5240192,0.80896175,0.1785837,0.0691817,0.8464262,0.66086286,0.03807392,0.0608958,0.9174042,0.42558107,-0.2654615,-0.32125175,0.63040215,840.10986,832.4542,782.8938,840.5128,765.16486,-0.29620361328125,0.0340576171875,0.940185546875,2.55706787109375,-3.656158447265625,0.112152099609375,1.0,1.0,1.0,1.0,1.0,75.0,event
15:36:30.488,0.79203796,0.11187211,0.09301834,0.65239525,0.5051161,0.062493987,-0.21593921,0.5240192,0.80896175,0.1785837,0.0691817,0.8464262,0.66086286,0.03807392,0.0608958,0.9174042,0.42558107,-0.2654615,-0.32125175,0.63040215,832.8571,837.28937,791.3553,853.00366,793.36993,-0.29620361328125,0.0340576171875,0.940185546875,2.55706787109375,-3.656158447265625,0.112152099609375,1.0,1.0,1.0,1.0,1.0,75.0,event
15:36:30.489,0.79203796,0.11187211,0.09301834,0.65239525,0.5051161,0.062493987,-0.21593921,0.5240192,0.80896175,0.1785837,0.0691817,0.8464262,0.66086286,0.03807392,0.0608958,0.9174042,0.42558107,-0.2654615,-0.32125175,0.63040215,828.022,831.2454,792.1612,846.55676,784.5055,-0.29620361328125,0.0340576171875,0.940185546875,2.55706787109375,-3.656158447265625,0.112152099609375,1.0,1.0,1.0,1.0,1.0,75.0,event
15:36:30.489,0.79203796,0.11187211,0.09301834,0.65239525,0.5051161,0.062493987,-0.21593921,0.5240192,0.80896175,0.1785837,0.0691817,0.8464262,0.66086286,0.03807392,0.0608958,0.9174042,0.42558107,-0.2654615,-0.32125175,0.63040215,831.6484,826.0073,791.75824,834.0659,866.7033,-0.29620361328125,0.0340576171875,0.940185546875,2.55706787109375,-3.656158447265625,0.112152099609375,1.0,1.0,1.0,1.0,1.0,75.0,event
15:36:30.490,0.79203796,0.11187211,0.09301834,0.65239525,0.5051161,0.062493987,-0.21593921,0.5240192,0.80896175,0.1785837,0.0691817,0.8464262,0.66086286,0.03807392,0.0608958,0.9174042,0.42558107,-0.2654615,-0.32125175,0.63040215,827.2161,828.4249,791.75824,841.7216,1113.6996,-0.29620361328125,0.0340576171875,0.940185546875,2.55706787109375,-3.656158447265625,0.112152099609375,1.0,1.0,1.0,1.0,1.0,75.0,event
15:36:30.490,0.79203796,0.11187211,0.09301834,0.65239525,0.5051161,0.062493987,-0.21593921,0.5240192,0.80896175,0.1785837,0.0691817,0.8464262,0.66086286,0.03807392,0.0608958,0.9174042,0.42558107,-0.2654615,-0.32125175,0.63040215,829.2308,827.619,787.326,838.0952,976.30035,-0.29620361328125,0.0340576171875,0.940185546875,2.55706787109375,-3.656158447265625,0.112152099609375,1.0,1.0,1.0,1.0,1.0,75.0,event
15:36:30.491,0.79203796,0.11187211,0.09301834,0.65239525,0.5051161,0.062493987,-0.21593921,0.5240192,0.80896175,0.1785837,0.0691817,0.8464262,0.66086286,0.03807392,0.0608958,0.9174042,0.42558107,-0.2654615,-0.32125175,0.63040215,824.7985,829.2308,786.52014,836.8865,728.49817,-0.29620361328125,0.0340576171875,0.940185546875,2.55706787109375,-3.656158447265625,0.112152099609375,1.0,1.0,1.0,1.0,1.0,75.0,event
15:36:30.491,0.79203796,0.11187211,0.09301834,0.65239525,0.5051161,0.062493987,-0.21593921,0.5240192,0.80896175,0.1785837,0.0691817,0.8464262,0.66086286,0.03807392,0.0608958,0.9174042,0.42558107,-0.2654615,-0.32125175,0.63040215,827.619,833.2601,786.52014,835.6777,752.674,-0.29620361328125,0.0340576171875,0.940185546875,2.55706787109375,-3.656158447265625,0.112152099609375,1.0,1.0,1.0,1.0,1.0,75.0,event
15:36:30.492,0.79203796,0.11187211,0.09301834,0.65239525,0.5051161,0.062493987,-0.21593921,0.5240192,0.80896175,0.1785837,0.0691817,0.8464262,0.66086286,0.03807392,0.0608958,0.9174042,0.42558107,-0.2654615,-0.32125175,0.63040215,830.4396,827.2161,786.1172,832.8571,765.56775,-0.29620361328125,0.0340576171875,0.940185546875,2.55706787109375,-3.656158447265625,0.112152099609375,1.0,1.0,1.0,1.0,1.0,75.0,event
15:36:30.558,0.79203796,0.11187211,0.09301834,0.65239525,0.5051161,0.062493987,-0.21593921,0.5240192,0.80896175,0.1785837,0.0691817,0.8464262,0.66086286,0.03807392,0.0608958,0.9174042,0.42558107,-0.2654615,-0.32125175,0.63040215,825.6044,821.5751,784.90845,825.6044,715.2015,-0.2960205078125,0.0362548828125,0.94915771484375,2.3626708984375,-3.327178955078125,0.59814453125,1.0,1.0,1.0,1.0,1.0,75.0,event
15:36:30.559,0.79203796,0.11187211,0.09301834,0.65239525,0.5051161,0.062493987,-0.21593921,0.5240192,0.80896175,0.1785837,0.0691817,0.8464262,0.66086286,0.03807392,0.0608958,0.9174042,0.42558107,-0.2654615,-0.32125175,0.63040215,829.6337,828.022,786.9231,832.4542,744.21246,-0.2960205078125,0.0362548828125,0.94915771484375,2.3626708984375,-3.327178955078125,0.59814453125,1.0,1.0,1.0,1.0,1.0,75.0,event
15:36:30.560,0.79203796,0.11187211,0.09301834,0.65239525,0.5051161,0.062493987,-0.21593921,0.5240192,0.80896175,0.1785837,0.0691817,0.8464262,0.66086286,0.03807392,0.0608958,0.9174042,0.42558107,-0.2654615,-0.32125175,0.63040215,842.9304,832.8571,788.5348,851.39197,855.0183,-0.2960205078125,0.0362548828125,0.94915771484375,2.3626708984375,-3.327178955078125,0.59814453125,1.0,1.0,1.0,1.0,1.0,75.0,event
15:36:30.561,0.79203796,0.11187211,0.09301834,0.65239525,0.5051161,0.062493987,-0.21593921,0.5240192,0.80896175,0.1785837,0.0691817,0.8464262,0.66086286,0.03807392,0.0608958,0.9174042,0.42558107,-0.2654615,-0.32125175,0.63040215,844.5421,830.0366,785.7143,847.3626,805.4579,-0.2960205078125,0.0362548828125,0.94915771484375,2.3626708984375,-3.327178955078125,0.59814453125,1.0,1.0,1.0,1.0,1.0,75.0,event
15:36:30.562,0.79203796,0.11187211,0.09301834,0.65239525,0.5051161,0.062493987,-0.21593921,0.5240192,0.80896175,0.1785837,0.0691817,0.8464262,0.66086286,0.03807392,0.0608958,0.9174042,0.42558107,-0.2654615,-0.32125175,0.63040215,836.08057,826.8132,790.14655,845.34796,734.94507,-0.2960205078125,0.0362548828125,0.94915771484375,2.3626708984375,-3.327178955078125,0.59814453125,1.0,1.0,1.0,1.0,1.0,75.0,event
15:36:30.563,0.79203796,0.11187211,0.09301834,0.65239525,0.5051161,0.062493987,-0.21593921,0.5240192,0.80896175,0.1785837,0.0691817,0.8464262,0.66086286,0.03807392,0.0608958,0.9174042,0.42558107,-0.2654615,-0.32125175,0.63040215,834.0659,828.4249,792.96704,848.5714,862.27106,-0.2960205078125,0.0362548828125,0.94915771484375,2.3626708984375,-3.327178955078125,0.59814453125,1.0,1.0,1.0,1.0,1.0,75.0,event
15:36:30.564,0.79203796,0.11187211,0.09301834,0.65239525,0.5051161,0.062493987,-0.21593921,0.5240192,0.80896175,0.1785837,0.0691817,0.8464262,0.66086286,0.03807392,0.0608958,0.9174042,0.42558107,-0.2654615,-0.32125175,0.63040215,847.3626,826.4103,789.7436,865.4945,1043.1868,-0.2960205078125,0.0362548828125,0.94915771484375,2.3626708984375,-3.327178955078125,0.59814453125,1.0,1.0,1.0,1.0,1.0,75.0,event
15:36:30.565,0.79203796,0.11187211,0.09301834,0.65239525,0.5051161,0.062493987,-0.21593921,0.5240192,0.80896175,0.1785837,0.0691817,0.8464262,0.66086286,0.03807392,0.0608958,0.9174042,0.42558107,-0.2654615,-0.32125175,0.63040215,849.3773,825.2015,789.7436,867.50916,999.67035,-0.2960205078125,0.0362548828125,0.94915771484375,2.3626708984375,-3.327178955078125,0.59814453125,1.0,1.0,1.0,1.0,1.0,75.0,event
15:36:30.566,0.79203796,0.11187211,0.09301834,0.65239525,0.5051161,0.062493987,-0.21593921,0.5240192,0.80896175,0.1785837,0.0691817,0.8464262,0.66086286,0.03807392,0.0608958,0.9174042,0.42558107,-0.2654615,-0.32125175,0.63040215,834.0659,831.6484,794.17584,850.18317,807.8755,-0.2960205078125,0.0362548828125,0.94915771484375,2.3626708984375,-3.327178955078125,0.59814453125,1.0,1.0,1.0,1.0,1.0,75.0,event
15:36:30.567,0.76093954,0.14764747,0.14243193,0.6695265,0.47149503,0.05146563,-0.24058972,0.50902283,0.7874687,0.16724436,0.057472438,0.8464262,0.6524984,0.052308705,0.051470123,0.9086562,0.4330884,-0.26738337,-0.31291658,0.6325209,832.4542,832.0513,794.9817,848.1685,711.1722,-0.2960205078125,0.0362548828125,0.94915771484375,2.3626708984375,-3.327178955078125,0.59814453125,1.0,1.0,1.0,1.0,1.0,75.0,event
15:36:30.571,0.76093954,0.14764747,0.14243193,0.6695265,0.47149503,0.05146563,-0.24058972,0.50902283,0.7874687,0.16724436,0.057472438,0.8464262,0.6524984,0.052308705,0.051470123,0.9086562,0.4330884,-0.26738337,-0.31291658,0.6325209,827.619,826.4103,791.3553,838.49817,769.19415,-0.2960205078125,0.0362548828125,0.94915771484375,2.3626708984375,-3.327178955078125,0.59814453125,1.0,1.0,1.0,1.0,1.0,75.0,event
15:36:30.572,0.76093954,0.14764747,0.14243193,0.6695265,0.47149503,0.05146563,-0.24058972,0.50902283,0.7874687,0.16724436,0.057472438,0.8464262,0.6524984,0.052308705,0.051470123,0.9086562,0.4330884,-0.26738337,-0.31291658,0.6325209,832.8571,823.9927,794.9817,840.10986,786.52014,-0.2960205078125,0.0362548828125,0.94915771484375,2.3626708984375,-3.327178955078125,0.59814453125,1.0,1.0,1.0,1.0,1.0,75.0,event
15:36:30.597,0.76093954,0.14764747,0.14243193,0.6695265,0.47149503,0.05146563,-0.24058972,0.50902283,0.7874687,0.16724436,0.057472438,0.8464262,0.6524984,0.052308705,0.051470123,0.9086562,0.4330884,-0.26738337,-0.31291658,0.6325209,836.8865,829.6337,790.54944,841.31866,739.3773,-0.3009033203125,0.03399658203125,0.94342041015625,1.495361328125,-2.73651123046875,0.64300537109375,1.0,1.0,1.0,1.0,1.0,75.0,event
15:36:30.598,0.76093954,0.14764747,0.14243193,0.6695265,0.47149503,0.05146563,-0.24058972,0.50902283,0.7874687,0.16724436,0.057472438,0.8464262,0.6524984,0.052308705,0.051470123,0.9086562,0.4330884,-0.26738337,-0.31291658,0.6325209,838.0952,829.6337,788.93774,836.8865,773.22345,-0.3009033203125,0.03399658203125,0.94342041015625,1.495361328125,-2.73651123046875,0.64300537109375,1.0,1.0,1.0,1.0,1.0,75.0,event
15:36:30.598,0.76093954,0.14764747,0.14243193,0.6695265,0.47149503,0.05146563,-0.24058972,0.50902283,0.7874687,0.16724436,0.057472438,0.8464262,0.6524984,0.052308705,0.051470123,0.9086562,0.4330884,-0.26738337,-0.31291658,0.6325209,840.5128,827.2161,794.57874,842.1245,790.9524,-0.3009033203125,0.03399658203125,0.94342041015625,1.495361328125,-2.73651123046875,0.64300537109375,1.0,1.0,1.0,1.0,1.0,75.0,event
15:36:30.599,0.76093954,0.14764747,0.14243193,0.6695265,0.47149503,0.05146563,-0.24058972,0.50902283,0.7874687,0.16724436,0.057472438,0.8464262,0.6524984,0.052308705,0.051470123,0.9086562,0.4330884,-0.26738337,-0.31291658,0.6325209,828.4249,830.84247,792.5641,838.9011,713.9927,-0.3009033203125,0.03399658203125,0.94342041015625,1.495361328125,-2.73651123046875,0.64300537109375,1.0,1.0,1.0,1.0,1.0,75.0,event
15:36:30.599,0.76093954,0.14764747,0.14243193,0.6695265,0.47149503,0.05146563,-0.24058972,0.50902283,0.7874687,0.16724436,0.057472438,0.8464262,0.6524984,0.052308705,0.051470123,0.9086562,0.4330884,-0.26738337,-0.31291658,0.6325209,839.304,831.6484,791.3553,842.9304,679.34064,-0.3009033203125,0.03399658203125,0.94342041015625,1.495361328125,-2.73651123046875,0.64300537109375,1.0,1.0,1.0,1.0,1.0,75.0,event
15:36:30.600,0.76093954,0.14764747,0.14243193,0.6695265,0.47149503,0.05146563,-0.24058972,0.50902283,0.7874687,0.16724436,0.057472438,0.8464262,0.6524984,0.052308705,0.051470123,0.9086562,0.4330884,-0.26738337,-0.31291658,0.6325209,848.1685,836.08057,792.96704,844.1392,900.54944,-0.3009033203125,0.03399658203125,0.94342041015625,1.495361328125,-2.73651123046875,0.64300537109375,1.0,1.0,1.0,1.0,1.0,75.0,event
15:36:30.600,0.76093954,0.14764747,0.14243193,0.6695265,0.47149503,0.05146563,-0.24058972,0.50902283,0.7874687,0.16724436,0.057472438,0.8464262,0.6524984,0.052308705,0.051470123,0.9086562,0.4330884,-0.26738337,-0.31291658,0.6325209,831.2454,833.2601,787.326,829.6337,1056.0806,-0.3009033203125,0.03399658203125,0.94342041015625,1.495361328125,-2.73651123046875,0.64300537109375,1.0,1.0,1.0,1.0,1.0,75.0,event
15:36:30.601,0.76093954,0.14764747,0.14243193,0.6695265,0.47149503,0.05146563,-0.24058972,0.50902283,0.7874687,0.16724436,0.057472438,0.8464262,0.6524984,0.052308705,0.051470123,0.9086562,0.4330884,-0.26738337,-0.31291658,0.6325209,826.0073,828.022,782.8938,831.6484,834.0659,-0.3009033203125,0.03399658203125,0.94342041015625,1.495361328125,-2.73651123046875,0.64300537109375,1.0,1.0,1.0,1.0,1.0,75.0,event
15:36:30.602,0.76093954,0.14764747,0.14243193,0.6695265,0.47149503,0.05146563,-0.24058972,0.50902283,0.7874687,0.16724436,0.057472438,0.8464262,0.6524984,0.052308705,0.051470123,0.9086562,0.4330884,-0.26738337,-0.31291658,0.6325209,835.6777,827.619,786.52014,840.5128,693.0403,-0.3009033203125,0.03399658203125,0.94342041015625,1.495361328125,-2.73651123046875,0.64300537109375,1.0,1.0,1.0,1.0,1.0,75.0,event
15:36:30.602,0.76093954,0.14764747,0.14243193,0.6695265,0.47149503,0.05146563,-0.24058972,0.50902283,0.7874687,0.16724436,0.057472438,0.8464262,0.6524984,0.052308705,0.051470123,0.9086562,0.4330884,-0.26738337,-0.31291658,0.6325209,836.08057,825.2015,792.1612,850.18317,850.989,-0.3009033203125,0.03399658203125,0.94342041015625,1.495361328125,-2.73651123046875,0.64300537109375,1.0,1.0,1.0,1.0,1.0,75.0,event
15:36:30.603,0.76093954,0.14764747,0.14243193,0.6695265,0.47149503,0.05146563,-0.24058972,0.50902283,0.7874687,0.16724436,0.057472438,0.8464262,0.6524984,0.052308705,0.051470123,0.9086562,0.4330884,-0.26738337,-0.31291658,0.6325209,830.84247,830.84247,792.5641,848.1685,991.2088,-0.3009033203125,0.03399658203125,0.94342041015625,1.495361328125,-2.73651123046875,0.64300537109375,1.0,1.0,1.0,1.0,1.0,75.0,event
15:36:30.603,0.76093954,0.14764747,0.14243193,0.6695265,0.47149503,0.05146563,-0.24058972,0.50902283,0.7874687,0.16724436,0.057472438,0.8464262,0.6524984,0.052308705,0.051470123,0.9086562,0.4330884,-0.26738337,-0.31291658,0.6325209,837.6923,834.4689,786.1172,824.7985,803.0403,-0.3009033203125,0.03399658203125,0.94342041015625,1.495361328125,-2.73651123046875,0.64300537109375,1.0,1.0,1.0,1.0,1.0,75.0,event
15:36:30.628,0.76093954,0.14764747,0.14243193,0.6695265,0.47149503,0.05146563,-0.24058972,0.50902283,0.7874687,0.16724436,0.057472438,0.8464262,0.6524984,0.052308705,0.051470123,0.9086562,0.4330884,-0.26738337,-0.31291658,0.6325209,846.55676,831.6484,786.9231,825.6044,708.7546,-0.306640625,0.0322265625,0.935302734375,1.368255615234375,-2.87109375,0.418701171875,1.0,1.0,1.0,1.0,1.0,75.0,event
15:36:30.629,0.76093954,0.14764747,0.14243193,0.6695265,0.47149503,0.05146563,-0.24058972,0.50902283,0.7874687,0.16724436,0.057472438,0.8464262,0.6524984,0.052308705,0.051470123,0.9086562,0.4330884,-0.26738337,-0.31291658,0.6325209,840.10986,827.619,792.1612,842.1245,865.09155,-0.306640625,0.0322265625,0.935302734375,1.368255615234375,-2.87109375,0.418701171875,1.0,1.0,1.0,1.0,1.0,75.0,event
15:36:30.629,0.76093954,0.14764747,0.14243193,0.6695265,0.47149503,0.05146563,-0.24058972,0.50902283,0.7874687,0.16724436,0.057472438,0.8464262,0.6524984,0.052308705,0.051470123,0.9086562,0.4330884,-0.26738337,-0.31291658,0.6325209,839.707,831.2454,790.9524,837.28937,840.9158,-0.306640625,0.0322265625,0.935302734375,1.368255615234375,-2.87109375,0.418701171875,1.0,1.0,1.0,1.0,1.0,75.0,event
15:36:30.630,0.76093954,0.14764747,0.14243193,0.6695265,0.47149503,0.05146563,-0.24058972,0.50902283,0.7874687,0.16724436,0.057472438,0.8464262,0.6524984,0.052308705,0.051470123,0.9086562,0.4330884,-0.26738337,-0.31291658,0.6325209,855.82416,829.6337,792.1612,840.9158,749.85345,-0.306640625,0.0322265625,0.935302734375,1.368255615234375,-2.87109375,0.418701171875,1.0,1.0,1.0,1.0,1.0,75.0,event
15:36:30.630,0.76093954,0.14764747,0.14243193,0.6695265,0.47149503,0.05146563,-0.24058972,0.50902283,0.7874687,0.16724436,0.057472438,0.8464262,0.6524984,0.052308705,0.051470123,0.9086562,0.4330884,-0.26738337,-0.31291658,0.6325209,847.76556,828.022,789.34064,836.8865,722.0513,-0.306640625,0.0322265625,0.935302734375,1.368255615234375,-2.87109375,0.418701171875,1.0,1.0,1.0,1.0,1.0,75.0,event
15:36:30.631,0.76093954,0.14764747,0.14243193,0.6695265,0.47149503,0.05146563,-0.24058972,0.50902283,0.7874687,0.16724436,0.057472438,0.8464262,0.6524984,0.052308705,0.051470123,0.9086562,0.4330884,-0.26738337,-0.31291658,0.6325209,834.4689,826.0073,792.5641,843.3333,842.52747,-0.306640625,0.0322265625,0.935302734375,1.368255615234375,-2.87109375,0.418701171875,1.0,1.0,1.0,1.0,1.0,75.0,event
15:36:30.632,0.76093954,0.14764747,0.14243193,0.6695265,0.47149503,0.05146563,-0.24058972,0.50902283,0.7874687,0.16724436,0.057472438,0.8464262,0.6524984,0.052308705,0.051470123,0.9086562,0.4330884,-0.26738337,-0.31291658,0.6325209,843.3333,831.2454,796.1905,833.663,898.93774,-0.306640625,0.0322265625,0.935302734375,1.368255615234375,-2.87109375,0.418701171875,1.0,1.0,1.0,1.0,1.0,75.0,event
15:36:30.632,0.76093954,0.14764747,0.14243193,0.6695265,0.47149503,0.05146563,-0.24058972,0.50902283,0.7874687,0.16724436,0.057472438,0.8464262,0.6524984,0.052308705,0.051470123,0.9086562,0.4330884,-0.26738337,-0.31291658,0.6325209,834.87177,832.0513,796.1905,828.022,825.2015,-0.306640625,0.0322265625,0.935302734375,1.368255615234375,-2.87109375,0.418701171875,1.0,1.0,1.0,1.0,1.0,75.0,event
15:36:30.633,0.76093954,0.14764747,0.14243193,0.6695265,0.47149503,0.05146563,-0.24058972,0.50902283,0.7874687,0.16724436,0.057472438,0.8464262,0.6524984,0.052308705,0.051470123,0.9086562,0.4330884,-0.26738337,-0.31291658,0.6325209,826.8132,826.0073,795.78754,828.8278,733.73627,-0.306640625,0.0322265625,0.935302734375,1.368255615234375,-2.87109375,0.418701171875,1.0,1.0,1.0,1.0,1.0,75.0,event
15:36:30.633,0.76093954,0.14764747,0.14243193,0.6695265,0.47149503,0.05146563,-0.24058972,0.50902283,0.7874687,0.16724436,0.057472438,0.8464262,0.6524984,0.052308705,0.051470123,0.9086562,0.4330884,-0.26738337,-0.31291658,0.6325209,830.0366,823.9927,796.5934,838.9011,932.7839,-0.306640625,0.0322265625,0.935302734375,1.368255615234375,-2.87109375,0.418701171875,1.0,1.0,1.0,1.0,1.0,75.0,event
15:36:30.634,0.76093954,0.14764747,0.14243193,0.6695265,0.47149503,0.05146563,-0.24058972,0.50902283,0.7874687,0.16724436,0.057472438,0.8464262,0.6524984,0.052308705,0.051470123,0.9086562,0.4330884,-0.26738337,-0.31291658,0.6325209,842.9304,830.84247,795.38464,849.7802,1025.0549,-0.306640625,0.0322265625,0.935302734375,1.368255615234375,-2.87109375,0.418701171875,1.0,1.0,1.0,1.0,1.0,75.0,event
15:36:30.635,0.752048,0.19335118,0.17890282,0.69096375,0.45450363,0.03846654,-0.28543425,0.4920193,0.7874687,0.16724436,0.05234977,0.8464262,0.64235246,0.060072478,0.0348299,0.8990339,0.433806,-0.2609451,-0.31112722,0.63602406,840.9158,828.4249,791.3553,824.7985,769.19415,-0.306640625,0.0322265625,0.935302734375,1.368255615234375,-2.87109375,0.418701171875,1.0,1.0,1.0,1.0,1.0,75.0,event
15:36:30.688,0.752048,0.19335118,0.17890282,0.69096375,0.45450363,0.03846654,-0.28543425,0.4920193,0.7874687,0.16724436,0.05234977,0.8464262,0.64235246,0.060072478,0.0348299,0.8990339,0.433806,-0.2609451,-0.31112722,0.63602406,832.0513,821.978,787.326,834.0659,720.0366,-0.30743408203125,0.03179931640625,0.93896484375,1.607513427734375,-3.985137939453125,-0.19439697265625,1.0,1.0,1.0,1.0,1.0,75.0,event
15:36:30.689,0.752048,0.19335118,0.17890282,0.69096375,0.45450363,0.03846654,-0.28543425,0.4920193,0.7874687,0.16724436,0.05234977,0.8464262,0.64235246,0.060072478,0.0348299,0.8990339,0.433806,-0.2609451,-0.31112722,0.63602406,845.7509,823.5897,792.96704,828.8278,808.68134,-0.30743408203125,0.03179931640625,0.93896484375,1.607513427734375,-3.985137939453125,-0.19439697265625,1.0,1.0,1.0,1.0,1.0,75.0,event
15:36:30.689,0.752048,0.19335118,0.17890282,0.69096375,0.45450363,0.03846654,-0.28543425,0.4920193,0.7874687,0.16724436,0.05234977,0.8464262,0.64235246,0.060072478,0.0348299,0.8990339,0.433806,-0.2609451,-0.31112722,0.63602406,833.663,822.381,788.5348,834.4689,804.2491,-0.30743408203125,0.03179931640625,0.93896484375,1.607513427734375,-3.985137939453125,-0.19439697265625,1.0,1.0,1.0,1.0,1.0,75.0,event
15:36:30.690,0.752048,0.19335118,0.17890282,0.69096375,0.45450363,0.03846654,-0.28543425,0.4920193,0.7874687,0.16724436,0.05234977,0.8464262,0.64235246,0.060072478,0.0348299,0.8990339,0.433806,-0.2609451,-0.31112722,0.63602406,846.9597,825.2015,789.34064,825.6044,695.05493,-0.30743408203125,0.03179931640625,0.93896484375,1.607513427734375,-3.985137939453125,-0.19439697265625,1.0,1.0,1.0,1.0,1.0,75.0,event
15:36:30.690,0.752048,0.19335118,0.17890282,0.69096375,0.45450363,0.03846654,-0.28543425,0.4920193,0.7874687,0.16724436,0.05234977,0.8464262,0.64235246,0.060072478,0.0348299,0.8990339,0.433806,-0.2609451,-0.31112722,0.63602406,830.84247,826.0073,794.17584,816.337,765.9707,-0.30743408203125,0.03179931640625,0.93896484375,1.607513427734375,-3.985137939453125,-0.19439697265625,1.0,1.0,1.0,1.0,1.0,75.0,event
15:36:30.691,0.752048,0.19335118,0.17890282,0.69096375,0.45450363,0.03846654,-0.28543425,0.4920193,0.7874687,0.16724436,0.05234977,0.8464262,0.64235246,0.060072478,0.0348299,0.8990339,0.433806,-0.2609451,-0.31112722,0.63602406,826.4103,832.0513,796.1905,825.2015,990.80585,-0.30743408203125,0.03179931640625,0.93896484375,1.607513427734375,-3.985137939453125,-0.19439697265625,1.0,1.0,1.0,1.0,1.0,75.0,event
15:36:30.691,0.752048,0.19335118,0.17890282,0.69096375,0.45450363,0.03846654,-0.28543425,0.4920193,0.7874687,0.16724436,0.05234977,0.8464262,0.64235246,0.060072478,0.0348299,0.8990339,0.433806,-0.2609451,-0.31112722,0.63602406,818.7546,829.6337,793.36993,826.4103,916.6667,-0.30743408203125,0.03179931640625,0.93896484375,1.607513427734375,-3.985137939453125,-0.19439697265625,1.0,1.0,1.0,1.0,1.0,75.0,event
15:36:30.692,0.752048,0.19335118,0.17890282,0.69096375,0.45450363,0.03846654,-0.28543425,0.4920193,0.7874687,0.16724436,0.05234977,0.8464262,0.64235246,0.060072478,0.0348299,0.8990339,0.433806,-0.2609451,-0.31112722,0.63602406,819.5604,814.7253,794.57874,829.2308,733.3333,-0.30743408203125,0.03179931640625,0.93896484375,1.607513427734375,-3.985137939453125,-0.19439697265625,1.0,1.0,1.0,1.0,1.0,75.0,event
15:36:30.692,0.752048,0.19335118,0.17890282,0.69096375,0.45450363,0.03846654,-0.28543425,0.4920193,0.7874687,0.16724436,0.05234977,0.8464262,0.64235246,0.060072478,0.0348299,0.8990339,0.433806,-0.2609451,-0.31112722,0.63602406,821.5751,811.0989,793.7729,825.2015,850.58606,-0.30743408203125,0.03179931640625,0.93896484375,1.607513427734375,-3.985137939453125,-0.19439697265625,1.0,1.0,1.0,1.0,1.0,75.0,event
15:36:30.693,0.752048,0.19335118,0.17890282,0.69096375,0.45450363,0.03846654,-0.28543425,0.4920193,0.7874687,0.16724436,0.05234977,0.8464262,0.64235246,0.060072478,0.0348299,0.8990339,0.433806,-0.2609451,-0.31112722,0.63602406,829.2308,815.5311,792.5641,821.5751,1004.10254,-0.30743408203125,0.03179931640625,0.93896484375,1.607513427734375,-3.985137939453125,-0.19439697265625,1.0,1.0,1.0,1.0,1.0,75.0,event
15:36:30.694,0.752048,0.19335118,0.17890282,0.69096375,0.45450363,0.03846654,-0.28543425,0.4920193,0.7874687,0.16724436,0.05234977,0.8464262,0.64235246,0.060072478,0.0348299,0.8990339,0.433806,-0.2609451,-0.31112722,0.63602406,830.0366,817.5458,792.96704,817.9487,771.2088,-0.30743408203125,0.03179931640625,0.93896484375,1.607513427734375,-3.985137939453125,-0.19439697265625,1.0,1.0,1.0,1.0,1.0,75.0,event
15:36:30.695,0.752048,0.19335118,0.17890282,0.69096375,0.45450363,0.03846654,-0.28543425,0.4920193,0.7874687,0.16724436,0.05234977,0.8464262,0.64235246,0.060072478,0.0348299,0.8990339,0.433806,-0.2609451,-0.31112722,0.63602406,824.3956,821.5751,795.78754,819.9634,632.1978,-0.30743408203125,0.03179931640625,0.93896484375,1.607513427734375,-3.985137939453125,-0.19439697265625,1.0,1.0,1.0,1.0,1.0,75.0,event
15:36:30.726,0.752048,0.19335118,0.17890282,0.69096375,0.45450363,0.03846654,-0.28543425,0.4920193,0.7874687,0.16724436,0.05234977,0.8464262,0.64235246,0.060072478,0.0348299,0.8990339,0.433806,-0.2609451,-0.31112722,0.63602406,836.4835,823.5897,798.20514,833.2601,674.5055,-0.30743408203125,0.03179931640625,0.93896484375,1.607513427734375,-3.985137939453125,-0.19439697265625,1.0,1.0,1.0,1.0,1.0,75.0,event
15:36:30.727,0.752048,0.19335118,0.17890282,0.69096375,0.45450363,0.03846654,-0.28543425,0.4920193,0.7874687,0.16724436,0.05234977,0.8464262,0.64235246,0.060072478,0.0348299,0.8990339,0.433806,-0.2609451,-0.31112722,0.63602406,838.9011,819.15753,802.23444,841.7216,696.26373,-0.30743408203125,0.03179931640625,0.93896484375,1.607513427734375,-3.985137939453125,-0.19439697265625,1.0,1.0,1.0,1.0,1.0,75.0,event
15:36:30.728,0.752048,0.19335118,0.17890282,0.69096375,0.45450363,0.03846654,-0.28543425,0.4920193,0.7874687,0.16724436,0.05234977,0.8464262,0.64235246,0.060072478,0.0348299,0.8990339,0.433806,-0.2609451,-0.31112722,0.63602406,828.4249,823.1868,804.65204,834.87177,671.685,-0.30743408203125,0.03179931640625,0.93896484375,1.607513427734375,-3.985137939453125,-0.19439697265625,1.0,1.0,1.0,1.0,1.0,75.0,event
15:36:30.730,0.752048,0.19335118,0.17890282,0.69096375,0.45450363,0.03846654,-0.28543425,0.4920193,0.7874687,0.16724436,0.05234977,0.8464262,0.64235246,0.060072478,0.0348299,0.8990339,0.433806,-0.2609451,-0.31112722,0.63602406,828.4249,826.4103,802.23444,838.9011,635.42126,-0.30743408203125,0.03179931640625,0.93896484375,1.607513427734375,-3.985137939453125,-0.19439697265625,1.0,1.0,1.0,1.0,1.0,75.0,event
15:36:30.731,0.752048,0.19335118,0.17890282,0.69096375,0.45450363,0.03846654,-0.28543425,0.4920193,0.7874687,0.16724436,0.05234977,0.8464262,0.64235246,0.060072478,0.0348299,0.8990339,0.433806,-0.2609451,-0.31112722,0.63602406,828.8278,818.3516,792.5641,841.31866,680.14655,-0.30743408203125,0.03179931640625,0.93896484375,1.607513427734375,-3.985137939453125,-0.19439697265625,1.0,1.0,1.0,1.0,1.0,75.0,event
15:36:30.733,0.752048,0.19335118,0.17890282,0.69096375,0.45450363,0.03846654,-0.28543425,0.4920193,0.7874687,0.16724436,0.05234977,0.8464262,0.64235246,0.060072478,0.0348299,0.8990339,0.433806,-0.2609451,-0.31112722,0.63602406,839.304,815.5311,791.3553,834.87177,764.7619,-0.30743408203125,0.03179931640625,0.93896484375,1.607513427734375,-3.985137939453125,-0.19439697265625,1.0,1.0,1.0,1.0,1.0,75.0,event
15:36:30.734,0.752048,0.19335118,0.17890282,0.69096375,0.45450363,0.03846654,-0.28543425,0.4920193,0.7874687,0.16724436,0.05234977,0.8464262,0.64235246,0.060072478,0.0348299,0.8990339,0.433806,-0.2609451,-0.31112722,0.63602406,841.7216,822.7839,797.8022,823.9927,778.86444,-0.30743408203125,0.03179931640625,0.93896484375,1.607513427734375,-3.985137939453125,-0.19439697265625,1.0,1.0,1.0,1.0,1.0,75.0,event
15:36:30.736,0.752048,0.19335118,0.17890282,0.69096375,0.45450363,0.03846654,-0.28543425,0.4920193,0.7874687,0.16724436,0.05234977,0.8464262,0.64235246,0.060072478,0.0348299,0.8990339,0.433806,-0.2609451,-0.31112722,0.63602406,832.0513,818.3516,798.60803,811.0989,765.9707,-0.30743408203125,0.03179931640625,0.93896484375,1.607513427734375,-3.985137939453125,-0.19439697265625,1.0,1.0,1.0,1.0,1.0,75.0,event
15:36:30.737,0.752048,0.19335118,0.17890282,0.69096375,0.45450363,0.03846654,-0.28543425,0.4920193,0.7874687,0.16724436,0.05234977,0.8464262,0.64235246,0.060072478,0.0348299,0.8990339,0.433806,-0.2609451,-0.31112722,0.63602406,819.9634,813.5165,799.81683,837.28937,925.9341,-0.30743408203125,0.03179931640625,0.93896484375,1.607513427734375,-3.985137939453125,-0.19439697265625,1.0,1.0,1.0,1.0,1.0,75.0,event
15:36:30.737,0.752048,0.19335118,0.17890282,0.69096375,0.45450363,0.03846654,-0.28543425,0.4920193,0.7874687,0.16724436,0.05234977,0.8464262,0.64235246,0.060072478,0.0348299,0.8990339,0.433806,-0.2609451,-0.31112722,0.63602406,820.3663,815.12823,801.02563,854.61536,923.91943,-0.30743408203125,0.03179931640625,0.93896484375,1.607513427734375,-3.985137939453125,-0.19439697265625,1.0,1.0,1.0,1.0,1.0,75.0,event
15:36:30.738,0.752048,0.19335118,0.17890282,0.69096375,0.45450363,0.03846654,-0.28543425,0.4920193,0.7874687,0.16724436,0.05234977,0.8464262,0.64235246,0.060072478,0.0348299,0.8990339,0.433806,-0.2609451,-0.31112722,0.63602406,826.4103,819.9634,794.9817,822.7839,724.4689,-0.30743408203125,0.03179931640625,0.93896484375,1.607513427734375,-3.985137939453125,-0.19439697265625,1.0,1.0,1.0,1.0,1.0,75.0,event
15:36:30.739,0.752048,0.19335118,0.17890282,0.69096375,0.45450363,0.03846654,-0.28543425,0.4920193,0.7874687,0.16724436,0.05234977,0.8464262,0.64235246,0.060072478,0.0348299,0.8990339,0.433806,-0.2609451,-0.31112722,0.63602406,830.4396,823.1868,792.5641,821.978,728.0952,-0.30743408203125,0.03179931640625,0.93896484375,1.607513427734375,-3.985137939453125,-0.19439697265625,1.0,1.0,1.0,1.0,1.0,75.0,event
15:36:30.823,0.752048,0.19335118,0.17890282,0.69096375,0.45450363,0.03846654,-0.28543425,0.4920193,0.7874687,0.16724436,0.05234977,0.8464262,0.64235246,0.060072478,0.0348299,0.8990339,0.433806,-0.2609451,-0.31112722,0.63602406,833.2601,819.5604,794.57874,824.3956,869.5238,-0.3089599609375,0.03076171875,0.9385986328125,1.9140625,-3.648681640625,0.61309814453125,1.0,1.0,1.0,1.0,1.0,75.0,event
15:36:30.824,0.7588142,0.23478046,0.21535766,0.7147256,0.44912353,0.026944535,-0.3516101,0.4728109,0.7874687,0.16724436,0.056832362,0.8464262,0.63340044,0.06258392,0.015640898,0.8896473,0.42719513,-0.2498673,-0.31481788,0.6401953,837.28937,817.9487,797.3993,814.3223,817.9487,-0.3089599609375,0.03076171875,0.9385986328125,1.9140625,-3.648681640625,0.61309814453125,1.0,1.0,1.0,1.0,1.0,75.0,event
15:36:30.829,0.7588142,0.23478046,0.21535766,0.7147256,0.44912353,0.026944535,-0.3516101,0.4728109,0.7874687,0.16724436,0.056832362,0.8464262,0.63340044,0.06258392,0.015640898,0.8896473,0.42719513,-0.2498673,-0.31481788,0.6401953,827.619,821.1722,801.02563,832.0513,679.34064,-0.3089599609375,0.03076171875,0.9385986328125,1.9140625,-3.648681640625,0.61309814453125,1.0,1.0,1.0,1.0,1.0,75.0,event
15:36:30.829,0.7588142,0.23478046,0.21535766,0.7147256,0.44912353,0.026944535,-0.3516101,0.4728109,0.7874687,0.16724436,0.056832362,0.8464262,0.63340044,0.06258392,0.015640898,0.8896473,0.42719513,-0.2498673,-0.31481788,0.6401953,812.71063,819.5604,800.2198,832.0513,768.3883,-0.3089599609375,0.03076171875,0.9385986328125,1.9140625,-3.648681640625,0.61309814453125,1.0,1.0,1.0,1.0,1.0,75.0,event
15:36:30.830,0.7588142,0.23478046,0.21535766,0.7147256,0.44912353,0.026944535,-0.3516101,0.4728109,0.7874687,0.16724436,0.056832362,0.8464262,0.63340044,0.06258392,0.015640898,0.8896473,0.42719513,-0.2498673,-0.31481788,0.6401953,807.47253,816.337,798.20514,833.2601,822.381,-0.3089599609375,0.03076171875,0.9385986328125,1.9140625,-3.648681640625,0.61309814453125,1.0,1.0,1.0,1.0,1.0,75.0,event
15:36:30.830,0.7588142,0.23478046,0.21535766,0.7147256,0.44912353,0.026944535,-0.3516101,0.4728109,0.7874687,0.16724436,0.056832362,0.8464262,0.63340044,0.06258392,0.015640898,0.8896473,0.42719513,-0.2498673,-0.31481788,0.6401953,816.7399,817.5458,797.3993,830.4396,830.84247,-0.3089599609375,0.03076171875,0.9385986328125,1.9140625,-3.648681640625,0.61309814453125,1.0,1.0,1.0,1.0,1.0,75.0,event
15:36:30.831,0.7588142,0.23478046,0.21535766,0.7147256,0.44912353,0.026944535,-0.3516101,0.4728109,0.7874687,0.16724436,0.056832362,0.8464262,0.63340044,0.06258392,0.015640898,0.8896473,0.42719513,-0.2498673,-0.31481788,0.6401953,838.0952,819.15753,800.6227,837.6923,838.49817,-0.3089599609375,0.03076171875,0.9385986328125,1.9140625,-3.648681640625,0.61309814453125,1.0,1.0,1.0,1.0,1.0,75.0,event
15:36:30.832,0.7588142,0.23478046,0.21535766,0.7147256,0.44912353,0.026944535,-0.3516101,0.4728109,0.7874687,0.16724436,0.056832362,0.8464262,0.63340044,0.06258392,0.015640898,0.8896473,0.42719513,-0.2498673,-0.31481788,0.6401953,836.08057,823.1868,802.6374,838.9011,852.6007,-0.3089599609375,0.03076171875,0.9385986328125,1.9140625,-3.648681640625,0.61309814453125,1.0,1.0,1.0,1.0,1.0,75.0,event
15:36:30.832,0.7588142,0.23478046,0.21535766,0.7147256,0.44912353,0.026944535,-0.3516101,0.4728109,0.7874687,0.16724436,0.056832362,0.8464262,0.63340044,0.06258392,0.015640898,0.8896473,0.42719513,-0.2498673,-0.31481788,0.6401953,837.28937,823.9927,803.44324,822.7839,1101.2087,-0.3089599609375,0.03076171875,0.9385986328125,1.9140625,-3.648681640625,0.61309814453125,1.0,1.0,1.0,1.0,1.0,75.0,event
15:36:30.833,0.7588142,0.23478046,0.21535766,0.7147256,0.44912353,0.026944535,-0.3516101,0.4728109,0.7874687,0.16724436,0.056832362,0.8464262,0.63340044,0.06258392,0.015640898,0.8896473,0.42719513,-0.2498673,-0.31481788,0.6401953,836.08057,825.6044,805.4579,831.6484,935.6044,-0.3089599609375,0.03076171875,0.9385986328125,1.9140625,-3.648681640625,0.61309814453125,1.0,1.0,1.0,1.0,1.0,75.0,event
15:36:30.833,0.7588142,0.23478046,0.21535766,0.7147256,0.44912353,0.026944535,-0.3516101,0.4728109,0.7874687,0.16724436,0.056832362,0.8464262,0.63340044,0.06258392,0.015640898,0.8896473,0.42719513,-0.2498673,-0.31481788,0.6401953,829.2308,831.2454,804.2491,830.4396,707.1429,-0.3089599609375,0.03076171875,0.9385986328125,1.9140625,-3.648681640625,0.61309814453125,1.0,1.0,1.0,1.0,1.0,75.0,event
15:36:30.834,0.7588142,0.23478046,0.21535766,0.7147256,0.44912353,0.026944535,-0.3516101,0.4728109,0.7874687,0.16724436,0.056832362,0.8464262,0.63340044,0.06258392,0.015640898,0.8896473,0.42719513,-0.2498673,-0.31481788,0.6401953,836.8865,833.2601,809.4872,836.8865,784.5055,-0.3089599609375,0.03076171875,0.9385986328125,1.9140625,-3.648681640625,0.61309814453125,1.0,1.0,1.0,1.0,1.0,75.0,event
15:36:30.835,0.7588142,0.23478046,0.21535766,0.7147256,0.44912353,0.026944535,-0.3516101,0.4728109,0.7874687,0.16724436,0.056832362,0.8464262,0.63340044,0.06258392,0.015640898,0.8896473,0.42719513,-0.2498673,-0.31481788,0.6401953,834.4689,829.6337,805.4579,857.03296,812.71063,-0.310791015625,0.0341796875,0.94549560546875,2.459869384765625,-4.0972900390625,0.665435791015625,1.0,1.0,1.0,1.0,1.0,75.0,event
15:36:30.835,0.7588142,0.23478046,0.21535766,0.7147256,0.44912353,0.026944535,-0.3516101,0.4728109,0.7874687,0.16724436,0.056832362,0.8464262,0.63340044,0.06258392,0.015640898,0.8896473,0.42719513,-0.2498673,-0.31481788,0.6401953,834.4689,832.4542,812.71063,861.06226,809.4872,-0.310791015625,0.0341796875,0.94549560546875,2.459869384765625,-4.0972900390625,0.665435791015625,1.0,1.0,1.0,1.0,1.0,75.0,event
15:36:30.836,0.7588142,0.23478046,0.21535766,0.7147256,0.44912353,0.026944535,-0.3516101,0.4728109,0.7874687,0.16724436,0.056832362,0.8464262,0.63340044,0.06258392,0.015640898,0.8896473,0.42719513,-0.2498673,-0.31481788,0.6401953,830.4396,817.9487,807.47253,843.73627,814.7253,-0.310791015625,0.0341796875,0.94549560546875,2.459869384765625,-4.0972900390625,0.665435791015625,1.0,1.0,1.0,1.0,1.0,75.0,event
15:36:30.837,0.7588142,0.23478046,0.21535766,0.7147256,0.44912353,0.026944535,-0.3516101,0.4728109,0.7874687,0.16724436,0.056832362,0.8464262,0.63340044,0.06258392,0.015640898,0.8896473,0.42719513,-0.2498673,-0.31481788,0.6401953,832.4542,819.15753,806.6667,844.1392,834.87177,-0.310791015625,0.0341796875,0.94549560546875,2.459869384765625,-4.0972900390625,0.665435791015625,1.0,1.0,1.0,1.0,1.0,75.0,event
15:36:30.837,0.7588142,0.23478046,0.21535766,0.7147256,0.44912353,0.026944535,-0.3516101,0.4728109,0.7874687,0.16724436,0.056832362,0.8464262,0.63340044,0.06258392,0.015640898,0.8896473,0.42719513,-0.2498673,-0.31481788,0.6401953,840.9158,832.0513,802.6374,848.1685,799.011,-0.310791015625,0.0341796875,0.94549560546875,2.459869384765625,-4.0972900390625,0.665435791015625,1.0,1.0,1.0,1.0,1.0,75.0,event
