TimeStamp,Delta_TP9,Delta_AF7,Delta_AF8,Delta_TP10,Theta_TP9,Theta_AF7,Theta_AF8,Theta_TP10,Alpha_TP9,Alpha_AF7,Alpha_AF8,Alpha_TP10,Beta_TP9,Beta_AF7,Beta_AF8,Beta_TP10,Gamma_TP9,Gamma_AF7,Gamma_AF8,Gamma_TP10,RAW_TP9,RAW_AF7,RAW_AF8,RAW_TP10,AUX_RIGHT,Accelerometer_X,Accelerometer_Y,Accelerometer_Z,Gyro_X,Gyro_Y,Gyro_Z,HeadBandOn,HSI_TP9,HSI_AF7,HSI_AF8,HSI_TP10,Battery,Elements
14:22:32.918,0.17121187,0.55809796,0.47158426,0.21642879,1.0961045,0.66869277,-0.09204712,1.1405573,1.057562,0.5334064,0.43033487,1.138735,0.95585257,1.2955449,0.6643635,0.8789955,0.76895505,0.98777205,0.5335413,0.67380035,823.1868,821.978,795.78754,831.2454,811.50183,-0.344970703125,0.13348388671875,0.91851806640625,1.996307373046875,-3.66363525390625,0.545806884765625,1.0,1.0,1.0,1.0,1.0,95.0,event
14:22:32.920,0.17121187,0.55809796,0.47158426,0.21642879,1.0961045,0.66869277,-0.09204712,1.1405573,1.057562,0.5334064,0.43033487,1.138735,0.95585257,1.2955449,0.6643635,0.8789955,0.76895505,0.98777205,0.5335413,0.67380035,821.1722,813.91943,788.1319,823.5897,701.0989,-0.344970703125,0.13348388671875,0.91851806640625,1.996307373046875,-3.66363525390625,0.545806884765625,1.0,1.0,1.0,1.0,1.0,95.0,event
14:22:32.921,0.17121187,0.55809796,0.47158426,0.21642879,1.0961045,0.66869277,-0.09204712,1.1405573,1.057562,0.5334064,0.43033487,1.138735,0.95585257,1.2955449,0.6643635,0.8789955,0.76895505,0.98777205,0.5335413,0.67380035,823.1868,774.83514,799.81683,820.3663,576.1905,-0.344970703125,0.13348388671875,0.91851806640625,1.996307373046875,-3.66363525390625,0.545806884765625,1.0,1.0,1.0,1.0,1.0,95.0,event
14:22:32.922,0.17121187,0.55809796,0.47158426,0.21642879,1.0961045,0.66869277,-0.09204712,1.1405573,1.057562,0.5334064,0.43033487,1.138735,0.95585257,1.2955449,0.6643635,0.8789955,0.76895505,0.98777205,0.5335413,0.67380035,817.5458,767.98535,801.4286,812.3077,651.9414,-0.344970703125,0.13348388671875,0.91851806640625,1.996307373046875,-3.66363525390625,0.545806884765625,1.0,1.0,1.0,1.0,1.0,95.0,event
14:22:32.923,0.17121187,0.55809796,0.47158426,0.21642879,1.0961045,0.66869277,-0.09204712,1.1405573,1.057562,0.5334064,0.43033487,1.138735,0.95585257,1.2955449,0.6643635,0.8789955,0.76895505,0.98777205,0.5335413,0.67380035,813.5165,814.3223,805.4579,818.3516,740.18317,-0.344970703125,0.13348388671875,0.91851806640625,1.996307373046875,-3.66363525390625,0.545806884765625,1.0,1.0,1.0,1.0,1.0,95.0,event
14:22:32.924,0.17121187,0.55809796,0.47158426,0.21642879,1.0961045,0.66869277,-0.09204712,1.1405573,1.057562,0.5334064,0.43033487,1.138735,0.95585257,1.2955449,0.6643635,0.8789955,0.76895505,0.98777205,0.5335413,0.67380035,813.5165,825.6044,803.0403,810.293,796.1905,-0.344970703125,0.13348388671875,0.91851806640625,1.996307373046875,-3.66363525390625,0.545806884765625,1.0,1.0,1.0,1.0,1.0,95.0,event
14:22:32.925,0.17121187,0.55809796,0.47158426,0.21642879,1.0961045,0.66869277,-0.09204712,1.1405573,1.057562,0.5334064,0.43033487,1.138735,0.95585257,1.2955449,0.6643635,0.8789955,0.76895505,0.98777205,0.5335413,0.67380035,785.7143,807.8755,805.4579,801.8315,764.7619,-0.344970703125,0.13348388671875,0.91851806640625,1.996307373046875,-3.66363525390625,0.545806884765625,1.0,1.0,1.0,1.0,1.0,95.0,event
14:22:32.926,0.17121187,0.55809796,0.47158426,0.21642879,1.0961045,0.66869277,-0.09204712,1.1405573,1.057562,0.5334064,0.43033487,1.138735,0.95585257,1.2955449,0.6643635,0.8789955,0.76895505,0.98777205,0.5335413,0.67380035,780.87915,807.8755,810.696,808.2784,734.94507,-0.344970703125,0.13348388671875,0.91851806640625,1.996307373046875,-3.66363525390625,0.545806884765625,1.0,1.0,1.0,1.0,1.0,95.0,event
14:22:32.927,0.17121187,0.55809796,0.47158426,0.21642879,1.0961045,0.66869277,-0.09204712,1.1405573,1.057562,0.5334064,0.43033487,1.138735,0.95585257,1.2955449,0.6643635,0.8789955,0.76895505,0.98777205,0.5335413,0.67380035,781.28204,816.337,811.50183,796.1905,939.6337,-0.344970703125,0.13348388671875,0.91851806640625,1.996307373046875,-3.66363525390625,0.545806884765625,1.0,1.0,1.0,1.0,1.0,95.0,event
14:22:32.929,0.17121187,0.55809796,0.47158426,0.21642879,1.0961045,0.66869277,-0.09204712,1.1405573,1.057562,0.5334064,0.43033487,1.138735,0.95585257,1.2955449,0.6643635,0.8789955,0.76895505,0.98777205,0.5335413,0.67380035,755.09155,815.5311,807.47253,765.16486,883.22345,-0.344970703125,0.13348388671875,0.91851806640625,1.996307373046875,-3.66363525390625,0.545806884765625,1.0,1.0,1.0,1.0,1.0,95.0,event
14:22:32.930,0.17121187,0.55809796,0.47158426,0.21642879,1.0961045,0.66869277,-0.09204712,1.1405573,1.057562,0.5334064,0.43033487,1.138735,0.95585257,1.2955449,0.6643635,0.8789955,0.76895505,0.98777205,0.5335413,0.67380035,751.8681,812.71063,810.696,753.8828,760.32965,-0.344970703125,0.13348388671875,0.91851806640625,1.996307373046875,-3.66363525390625,0.545806884765625,1.0,1.0,1.0,1.0,1.0,95.0,event
14:22:32.931,0.17121187,0.55809796,0.47158426,0.21642879,1.0961045,0.66869277,-0.09204712,1.1405573,1.057562,0.5334064,0.43033487,1.138735,0.95585257,1.2955449,0.6643635,0.8789955,0.76895505,0.98777205,0.5335413,0.67380035,760.7326,808.68134,819.5604,762.74725,749.85345,-0.344970703125,0.13348388671875,0.91851806640625,1.996307373046875,-3.66363525390625,0.545806884765625,1.0,1.0,1.0,1.0,1.0,95.0,event
14:22:32.972,0.17121187,0.55809796,0.47158426,0.21642879,1.0961045,0.66869277,-0.09204712,1.1405573,1.057562,0.5334064,0.43033487,1.138735,0.95585257,1.2955449,0.6643635,0.8789955,0.76895505,0.98777205,0.5335413,0.67380035,752.674,799.011,817.9487,764.35895,758.315,-0.33258056640625,0.1324462890625,0.9190673828125,2.370147705078125,-3.21502685546875,0.157012939453125,1.0,1.0,1.0,1.0,1.0,95.0,event
14:22:32.973,0.17121187,0.55809796,0.47158426,0.21642879,1.0961045,0.66869277,-0.09204712,1.1405573,1.057562,0.5334064,0.43033487,1.138735,0.95585257,1.2955449,0.6643635,0.8789955,0.76895505,0.98777205,0.5335413,0.67380035,731.7216,794.57874,811.50183,743.4066,739.7802,-0.33258056640625,0.1324462890625,0.9190673828125,2.370147705078125,-3.21502685546875,0.157012939453125,1.0,1.0,1.0,1.0,1.0,95.0,event
14:22:32.974,0.17121187,0.55809796,0.47158426,0.21642879,1.0961045,0.66869277,-0.09204712,1.1405573,1.057562,0.5334064,0.43033487,1.138735,0.95585257,1.2955449,0.6643635,0.8789955,0.76895505,0.98777205,0.5335413,0.67380035,712.381,786.1172,805.8608,721.2454,747.03296,-0.33258056640625,0.1324462890625,0.9190673828125,2.370147705078125,-3.21502685546875,0.157012939453125,1.0,1.0,1.0,1.0,1.0,95.0,event
14:22:32.974,0.17121187,0.55809796,0.47158426,0.21642879,1.0961045,0.66869277,-0.09204712,1.1405573,1.057562,0.5334064,0.43033487,1.138735,0.95585257,1.2955449,0.6643635,0.8789955,0.76895505,0.98777205,0.5335413,0.67380035,708.3516,773.6264,812.71063,710.7692,747.8388,-0.33258056640625,0.1324462890625,0.9190673828125,2.370147705078125,-3.21502685546875,0.157012939453125,1.0,1.0,1.0,1.0,1.0,95.0,event
14:22:32.975,0.17121187,0.55809796,0.47158426,0.21642879,1.0961045,0.66869277,-0.09204712,1.1405573,1.057562,0.5334064,0.43033487,1.138735,0.95585257,1.2955449,0.6643635,0.8789955,0.76895505,0.98777205,0.5335413,0.67380035,709.9634,786.1172,825.6044,713.9927,770.40295,-0.33258056640625,0.1324462890625,0.9190673828125,2.370147705078125,-3.21502685546875,0.157012939453125,1.0,1.0,1.0,1.0,1.0,95.0,event
14:22:32.975,0.17121187,0.63277525,0.5857721,0.21642879,1.0961045,0.6808743,-0.06688737,1.1405573,1.057562,0.5628788,0.43033487,1.138735,0.95585257,1.2714957,0.65416324,0.8789955,0.76895505,0.97833043,0.5315127,0.67380035,689.81683,790.14655,827.619,711.5751,832.4542,-0.33258056640625,0.1324462890625,0.9190673828125,2.370147705078125,-3.21502685546875,0.157012939453125,1.0,1.0,1.0,1.0,1.0,95.0,event
14:22:32.979,0.17121187,0.63277525,0.5857721,0.21642879,1.0961045,0.6808743,-0.06688737,1.1405573,1.057562,0.5628788,0.43033487,1.138735,0.95585257,1.2714957,0.65416324,0.8789955,0.76895505,0.97833043,0.5315127,0.67380035,687.8022,790.14655,829.2308,698.2784,901.75824,-0.33258056640625,0.1324462890625,0.9190673828125,2.370147705078125,-3.21502685546875,0.157012939453125,1.0,1.0,1.0,1.0,1.0,95.0,event
14:22:32.980,0.17121187,0.63277525,0.5857721,0.21642879,1.0961045,0.6808743,-0.06688737,1.1405573,1.057562,0.5628788,0.43033487,1.138735,0.95585257,1.2714957,0.65416324,0.8789955,0.76895505,0.97833043,0.5315127,0.67380035,680.54944,804.2491,827.2161,684.17584,1002.49084,-0.33258056640625,0.1324462890625,0.9190673828125,2.370147705078125,-3.21502685546875,0.157012939453125,1.0,1.0,1.0,1.0,1.0,95.0,event
14:22:32.981,0.17121187,0.63277525,0.5857721,0.21642879,1.0961045,0.6808743,-0.06688737,1.1405573,1.057562,0.5628788,0.43033487,1.138735,0.95585257,1.2714957,0.65416324,0.8789955,0.76895505,0.97833043,0.5315127,0.67380035,666.4469,793.7729,815.9341,667.6557,967.8388,-0.33258056640625,0.1324462890625,0.9190673828125,2.370147705078125,-3.21502685546875,0.157012939453125,1.0,1.0,1.0,1.0,1.0,95.0,event
14:22:32.982,0.17121187,0.63277525,0.5857721,0.21642879,1.0961045,0.6808743,-0.06688737,1.1405573,1.057562,0.5628788,0.43033487,1.138735,0.95585257,1.2714957,0.65416324,0.8789955,0.76895505,0.97833043,0.5315127,0.67380035,666.04395,781.685,810.696,669.2674,697.0696,-0.33258056640625,0.1324462890625,0.9190673828125,2.370147705078125,-3.21502685546875,0.157012939453125,1.0,1.0,1.0,1.0,1.0,95.0,event
14:22:32.982,0.17121187,0.63277525,0.5857721,0.21642879,1.0961045,0.6808743,-0.06688737,1.1405573,1.057562,0.5628788,0.43033487,1.138735,0.95585257,1.2714957,0.65416324,0.8789955,0.76895505,0.97833043,0.5315127,0.67380035,647.9121,782.8938,809.0842,653.95605,633.00366,-0.33258056640625,0.1324462890625,0.9190673828125,2.370147705078125,-3.21502685546875,0.157012939453125,1.0,1.0,1.0,1.0,1.0,95.0,event
14:22:32.983,0.17121187,0.63277525,0.5857721,0.21642879,1.0961045,0.6808743,-0.06688737,1.1405573,1.057562,0.5628788,0.43033487,1.138735,0.95585257,1.2714957,0.65416324,0.8789955,0.76895505,0.97833043,0.5315127,0.67380035,643.0769,801.4286,811.50183,627.3626,659.59705,-0.33258056640625,0.1324462890625,0.9190673828125,2.370147705078125,-3.21502685546875,0.157012939453125,1.0,1.0,1.0,1.0,1.0,95.0,event
14:22:33.037,0.17121187,0.63277525,0.5857721,0.21642879,1.0961045,0.6808743,-0.06688737,1.1405573,1.057562,0.5628788,0.43033487,1.138735,0.95585257,1.2714957,0.65416324,0.8789955,0.76895505,0.97833043,0.5315127,0.67380035,660.80585,815.12823,815.9341,641.4652,688.60803,-0.33648681640625,0.1365966796875,0.922607421875,2.2430419921875,-3.775787353515625,0.306549072265625,1.0,1.0,1.0,1.0,1.0,95.0,event
14:22:33.038,0.17121187,0.63277525,0.5857721,0.21642879,1.0961045,0.6808743,-0.06688737,1.1405573,1.057562,0.5628788,0.43033487,1.138735,0.95585257,1.2714957,0.65416324,0.8789955,0.76895505,0.97833043,0.5315127,0.67380035,660.80585,810.696,807.0696,665.64105,703.5165,-0.33648681640625,0.1365966796875,0.922607421875,2.2430419921875,-3.775787353515625,0.306549072265625,1.0,1.0,1.0,1.0,1.0,95.0,event
14:22:33.039,0.17121187,0.63277525,0.5857721,0.21642879,1.0961045,0.6808743,-0.06688737,1.1405573,1.057562,0.5628788,0.43033487,1.138735,0.95585257,1.2714957,0.65416324,0.8789955,0.76895505,0.97833043,0.5315127,0.67380035,662.01465,793.7729,796.5934,657.98535,718.4249,-0.33648681640625,0.1365966796875,0.922607421875,2.2430419921875,-3.775787353515625,0.306549072265625,1.0,1.0,1.0,1.0,1.0,95.0,event
14:22:33.040,0.17121187,0.63277525,0.5857721,0.21642879,1.0961045,0.6808743,-0.06688737,1.1405573,1.057562,0.5628788,0.43033487,1.138735,0.95585257,1.2714957,0.65416324,0.8789955,0.76895505,0.97833043,0.5315127,0.67380035,660.0,799.011,803.8461,644.2857,866.7033,-0.33648681640625,0.1365966796875,0.922607421875,2.2430419921875,-3.775787353515625,0.306549072265625,1.0,1.0,1.0,1.0,1.0,95.0,event
14:22:33.041,0.17121187,0.63277525,0.5857721,0.21642879,1.0961045,0.6808743,-0.06688737,1.1405573,1.057562,0.5628788,0.43033487,1.138735,0.95585257,1.2714957,0.65416324,0.8789955,0.76895505,0.97833043,0.5315127,0.67380035,664.0293,828.4249,796.1905,638.24176,813.5165,-0.33648681640625,0.1365966796875,0.922607421875,2.2430419921875,-3.775787353515625,0.306549072265625,1.0,1.0,1.0,1.0,1.0,95.0,event
14:22:33.041,0.17121187,0.63277525,0.5857721,0.21642879,1.0961045,0.6808743,-0.06688737,1.1405573,1.057562,0.5628788,0.43033487,1.138735,0.95585257,1.2714957,0.65416324,0.8789955,0.76895505,0.97833043,0.5315127,0.67380035,673.69965,829.6337,780.87915,657.5824,727.6923,-0.33648681640625,0.1365966796875,0.922607421875,2.2430419921875,-3.775787353515625,0.306549072265625,1.0,1.0,1.0,1.0,1.0,95.0,event
14:22:33.042,0.17121187,0.63277525,0.5857721,0.21642879,1.0961045,0.6808743,-0.06688737,1.1405573,1.057562,0.5628788,0.43033487,1.138735,0.95585257,1.2714957,0.65416324,0.8789955,0.76895505,0.97833043,0.5315127,0.67380035,675.31134,814.3223,790.9524,670.87915,833.663,-0.33648681640625,0.1365966796875,0.922607421875,2.2430419921875,-3.775787353515625,0.306549072265625,1.0,1.0,1.0,1.0,1.0,95.0,event
14:22:33.043,0.17121187,0.63277525,0.5857721,0.21642879,1.0961045,0.6808743,-0.06688737,1.1405573,1.057562,0.5628788,0.43033487,1.138735,0.95585257,1.2714957,0.65416324,0.8789955,0.76895505,0.97833043,0.5315127,0.67380035,673.2967,814.3223,796.99634,667.25275,1117.326,-0.33648681640625,0.1365966796875,0.922607421875,2.2430419921875,-3.775787353515625,0.306549072265625,1.0,1.0,1.0,1.0,1.0,95.0,event
14:22:33.043,0.17121187,0.63277525,0.5857721,0.21642879,1.0961045,0.6808743,-0.06688737,1.1405573,1.057562,0.5628788,0.43033487,1.138735,0.95585257,1.2714957,0.65416324,0.8789955,0.76895505,0.97833043,0.5315127,0.67380035,701.50183,816.7399,803.0403,687.3993,941.6484,-0.33648681640625,0.1365966796875,0.922607421875,2.2430419921875,-3.775787353515625,0.306549072265625,1.0,1.0,1.0,1.0,1.0,95.0,event
14:22:33.044,0.17121187,0.63277525,0.5857721,0.21642879,1.0961045,0.6808743,-0.06688737,1.1405573,1.057562,0.5628788,0.43033487,1.138735,0.95585257,1.2714957,0.65416324,0.8789955,0.76895505,0.97833043,0.5315127,0.67380035,715.2015,811.0989,819.15753,699.89014,664.43225,-0.33648681640625,0.1365966796875,0.922607421875,2.2430419921875,-3.775787353515625,0.306549072265625,1.0,1.0,1.0,1.0,1.0,95.0,event
14:22:33.045,0.17121187,0.63277525,0.5857721,0.21642879,1.0961045,0.6808743,-0.06688737,1.1405573,1.057562,0.5628788,0.43033487,1.138735,0.95585257,1.2714957,0.65416324,0.8789955,0.76895505,0.97833043,0.5315127,0.67380035,691.02563,798.60803,802.23444,692.6374,729.304,-0.33648681640625,0.1365966796875,0.922607421875,2.2430419921875,-3.775787353515625,0.306549072265625,1.0,1.0,1.0,1.0,1.0,95.0,event
14:22:33.045,0.17121187,0.63277525,0.5857721,0.21642879,1.0961045,0.6808743,-0.06688737,1.1405573,1.057562,0.5628788,0.43033487,1.138735,0.95585257,1.2714957,0.65416324,0.8789955,0.76895505,0.97833043,0.5315127,0.67380035,720.0366,808.68134,792.5641,707.1429,755.89746,-0.33648681640625,0.1365966796875,0.922607421875,2.2430419921875,-3.775787353515625,0.306549072265625,1.0,1.0,1.0,1.0,1.0,95.0,event
14:22:33.068,0.17121187,0.63277525,0.5857721,0.21642879,1.0961045,0.6808743,-0.06688737,1.1405573,1.057562,0.5628788,0.43033487,1.138735,0.95585257,1.2714957,0.65416324,0.8789955,0.76895505,0.97833043,0.5315127,0.67380035,755.09155,827.2161,796.99634,732.52747,693.8461,-0.33648681640625,0.1365966796875,0.922607421875,2.2430419921875,-3.775787353515625,0.306549072265625,1.0,1.0,1.0,1.0,1.0,95.0,event
14:22:33.069,0.17121187,0.63277525,0.5857721,0.21642879,1.0961045,0.6808743,-0.06688737,1.1405573,1.057562,0.5628788,0.43033487,1.138735,0.95585257,1.2714957,0.65416324,0.8789955,0.76895505,0.97833043,0.5315127,0.67380035,743.4066,821.978,790.9524,740.18317,709.5604,-0.33648681640625,0.1365966796875,0.922607421875,2.2430419921875,-3.775787353515625,0.306549072265625,1.0,1.0,1.0,1.0,1.0,95.0,event
14:22:33.070,0.17121187,0.63277525,0.5857721,0.21642879,1.0961045,0.6808743,-0.06688737,1.1405573,1.057562,0.5628788,0.43033487,1.138735,0.95585257,1.2714957,0.65416324,0.8789955,0.76895505,0.97833043,0.5315127,0.67380035,757.9121,809.89014,788.1319,739.7802,736.1539,-0.33648681640625,0.1365966796875,0.922607421875,2.2430419921875,-3.775787353515625,0.306549072265625,1.0,1.0,1.0,1.0,1.0,95.0,event
14:22:33.071,0.17121187,0.63277525,0.5857721,0.21642879,1.0961045,0.6808743,-0.06688737,1.1405573,1.057562,0.5628788,0.43033487,1.138735,0.95585257,1.2714957,0.65416324,0.8789955,0.76895505,0.97833043,0.5315127,0.67380035,780.07324,812.71063,792.96704,782.49084,841.7216,-0.33648681640625,0.1365966796875,0.922607421875,2.2430419921875,-3.775787353515625,0.306549072265625,1.0,1.0,1.0,1.0,1.0,95.0,event
14:22:33.071,0.17121187,0.63277525,0.5857721,0.21642879,1.0961045,0.6808743,-0.06688737,1.1405573,1.057562,0.5628788,0.43033487,1.138735,0.95585257,1.2714957,0.65416324,0.8789955,0.76895505,0.97833043,0.5315127,0.67380035,778.46155,815.12823,786.9231,758.315,813.1135,-0.33648681640625,0.1365966796875,0.922607421875,2.2430419921875,-3.775787353515625,0.306549072265625,1.0,1.0,1.0,1.0,1.0,95.0,event
14:22:33.072,0.17121187,0.63277525,0.5857721,0.21642879,1.0961045,0.6808743,-0.06688737,1.1405573,1.057562,0.5628788,0.43033487,1.138735,0.95585257,1.2714957,0.65416324,0.8789955,0.76895505,0.97833043,0.5315127,0.67380035,784.5055,810.293,799.011,777.6557,804.2491,-0.33648681640625,0.1365966796875,0.922607421875,2.2430419921875,-3.775787353515625,0.306549072265625,1.0,1.0,1.0,1.0,1.0,95.0,event
14:22:33.073,0.17121187,0.63277525,0.5857721,0.21642879,1.0961045,0.6808743,-0.06688737,1.1405573,1.057562,0.5628788,0.43033487,1.138735,0.95585257,1.2714957,0.65416324,0.8789955,0.76895505,0.97833043,0.5315127,0.67380035,799.81683,806.6667,801.02563,783.2967,954.5421,-0.33648681640625,0.1365966796875,0.922607421875,2.2430419921875,-3.775787353515625,0.306549072265625,1.0,1.0,1.0,1.0,1.0,95.0,event
14:22:33.073,0.17121187,0.69915605,0.68453395,0.21642879,1.0961045,0.68761927,-0.0409626,1.1405573,1.057562,0.5890234,0.43033487,1.138735,0.95585257,1.233551,0.6478987,0.8789955,0.76895505,0.96147907,0.53310996,0.67380035,824.3956,799.41394,803.44324,814.3223,1105.641,-0.33648681640625,0.1365966796875,0.922607421875,2.2430419921875,-3.775787353515625,0.306549072265625,1.0,1.0,1.0,1.0,1.0,95.0,event
14:22:33.077,0.17121187,0.69915605,0.68453395,0.21642879,1.0961045,0.68761927,-0.0409626,1.1405573,1.057562,0.5890234,0.43033487,1.138735,0.95585257,1.233551,0.6478987,0.8789955,0.76895505,0.96147907,0.53310996,0.67380035,832.4542,799.81683,798.60803,828.8278,876.77655,-0.33648681640625,0.1365966796875,0.922607421875,2.2430419921875,-3.775787353515625,0.306549072265625,1.0,1.0,1.0,1.0,1.0,95.0,event
14:22:33.078,0.17121187,0.69915605,0.68453395,0.21642879,1.0961045,0.68761927,-0.0409626,1.1405573,1.057562,0.5890234,0.43033487,1.138735,0.95585257,1.233551,0.6478987,0.8789955,0.76895505,0.96147907,0.53310996,0.67380035,823.9927,799.81683,792.5641,826.8132,738.97437,-0.33648681640625,0.1365966796875,0.922607421875,2.2430419921875,-3.775787353515625,0.306549072265625,1.0,1.0,1.0,1.0,1.0,95.0,event
14:22:33.079,0.17121187,0.69915605,0.68453395,0.21642879,1.0961045,0.68761927,-0.0409626,1.1405573,1.057562,0.5890234,0.43033487,1.138735,0.95585257,1.233551,0.6478987,0.8789955,0.76895505,0.96147907,0.53310996,0.67380035,845.34796,804.2491,803.8461,834.87177,776.4469,-0.33648681640625,0.1365966796875,0.922607421875,2.2430419921875,-3.775787353515625,0.306549072265625,1.0,1.0,1.0,1.0,1.0,95.0,event
14:22:33.079,0.17121187,0.69915605,0.68453395,0.21642879,1.0961045,0.68761927,-0.0409626,1.1405573,1.057562,0.5890234,0.43033487,1.138735,0.95585257,1.233551,0.6478987,0.8789955,0.76895505,0.96147907,0.53310996,0.67380035,856.2271,803.44324,807.8755,841.7216,717.619,-0.33648681640625,0.1365966796875,0.922607421875,2.2430419921875,-3.775787353515625,0.306549072265625,1.0,1.0,1.0,1.0,1.0,95.0,event
14:22:33.121,0.17121187,0.69915605,0.68453395,0.21642879,1.0961045,0.68761927,-0.0409626,1.1405573,1.057562,0.5890234,0.43033487,1.138735,0.95585257,1.233551,0.6478987,0.8789955,0.76895505,0.96147907,0.53310996,0.67380035,842.52747,803.44324,791.3553,843.3333,690.2198,-0.34619140625,0.14208984375,0.927490234375,2.385101318359375,-2.572021484375,0.037384033203125,1.0,1.0,1.0,1.0,1.0,95.0,event
14:22:33.122,0.17121187,0.69915605,0.68453395,0.21642879,1.0961045,0.68761927,-0.0409626,1.1405573,1.057562,0.5890234,0.43033487,1.138735,0.95585257,1.233551,0.6478987,0.8789955,0.76895505,0.96147907,0.53310996,0.67380035,846.55676,808.68134,787.72894,848.5714,739.7802,-0.34619140625,0.14208984375,0.927490234375,2.385101318359375,-2.572021484375,0.037384033203125,1.0,1.0,1.0,1.0,1.0,95.0,event
14:22:33.123,0.17121187,0.69915605,0.68453395,0.21642879,1.0961045,0.68761927,-0.0409626,1.1405573,1.057562,0.5890234,0.43033487,1.138735,0.95585257,1.233551,0.6478987,0.8789955,0.76895505,0.96147907,0.53310996,0.67380035,859.0476,801.8315,804.2491,858.24176,809.0842,-0.34619140625,0.14208984375,0.927490234375,2.385101318359375,-2.572021484375,0.037384033203125,1.0,1.0,1.0,1.0,1.0,95.0,event
14:22:33.124,0.17121187,0.69915605,0.68453395,0.21642879,1.0961045,0.68761927,-0.0409626,1.1405573,1.057562,0.5890234,0.43033487,1.138735,0.95585257,1.233551,0.6478987,0.8789955,0.76895505,0.96147907,0.53310996,0.67380035,866.7033,792.1612,813.1135,866.30035,753.0769,-0.34619140625,0.14208984375,0.927490234375,2.385101318359375,-2.572021484375,0.037384033203125,1.0,1.0,1.0,1.0,1.0,95.0,event
14:22:33.124,0.17121187,0.69915605,0.68453395,0.21642879,1.0961045,0.68761927,-0.0409626,1.1405573,1.057562,0.5890234,0.43033487,1.138735,0.95585257,1.233551,0.6478987,0.8789955,0.76895505,0.96147907,0.53310996,0.67380035,882.01465,800.6227,794.17584,877.5824,683.36993,-0.34619140625,0.14208984375,0.927490234375,2.385101318359375,-2.572021484375,0.037384033203125,1.0,1.0,1.0,1.0,1.0,95.0,event
14:22:33.125,0.17121187,0.69915605,0.68453395,0.21642879,1.0961045,0.68761927,-0.0409626,1.1405573,1.057562,0.5890234,0.43033487,1.138735,0.95585257,1.233551,0.6478987,0.8789955,0.76895505,0.96147907,0.53310996,0.67380035,859.0476,780.4762,774.43225,871.9414,1087.1062,-0.34619140625,0.14208984375,0.927490234375,2.385101318359375,-2.572021484375,0.037384033203125,1.0,1.0,1.0,1.0,1.0,95.0,event
14:22:33.125,0.17121187,0.69915605,0.68453395,0.21642879,1.0961045,0.68761927,-0.0409626,1.1405573,1.057562,0.5890234,0.43033487,1.138735,0.95585257,1.233551,0.6478987,0.8789955,0.76895505,0.96147907,0.53310996,0.67380035,876.77655,805.8608,766.3736,890.07324,841.7216,-0.34619140625,0.14208984375,0.927490234375,2.385101318359375,-2.572021484375,0.037384033203125,1.0,1.0,1.0,1.0,1.0,95.0,event
14:22:33.126,0.17121187,0.69915605,0.68453395,0.21642879,1.0961045,0.68761927,-0.0409626,1.1405573,1.057562,0.5890234,0.43033487,1.138735,0.95585257,1.233551,0.6478987,0.8789955,0.76895505,0.96147907,0.53310996,0.67380035,866.30035,781.28204,796.1905,857.4359,1011.3553,-0.34619140625,0.14208984375,0.927490234375,2.385101318359375,-2.572021484375,0.037384033203125,1.0,1.0,1.0,1.0,1.0,95.0,event
14:22:33.127,0.17121187,0.69915605,0.68453395,0.21642879,1.0961045,0.68761927,-0.0409626,1.1405573,1.057562,0.5890234,0.43033487,1.138735,0.95585257,1.233551,0.6478987,0.8789955,0.76895505,0.96147907,0.53310996,0.67380035,877.98535,813.5165,806.6667,877.5824,786.9231,-0.34619140625,0.14208984375,0.927490234375,2.385101318359375,-2.572021484375,0.037384033203125,1.0,1.0,1.0,1.0,1.0,95.0,event
14:22:33.128,0.17121187,0.69915605,0.68453395,0.21642879,1.0961045,0.68761927,-0.0409626,1.1405573,1.057562,0.5890234,0.43033487,1.138735,0.95585257,1.233551,0.6478987,0.8789955,0.76895505,0.96147907,0.53310996,0.67380035,883.6264,805.05493,805.05493,893.69965,795.78754,-0.34619140625,0.14208984375,0.927490234375,2.385101318359375,-2.572021484375,0.037384033203125,1.0,1.0,1.0,1.0,1.0,95.0,event
14:22:33.129,0.17121187,0.69915605,0.68453395,0.21642879,1.0961045,0.68761927,-0.0409626,1.1405573,1.057562,0.5890234,0.43033487,1.138735,0.95585257,1.233551,0.6478987,0.8789955,0.76895505,0.96147907,0.53310996,0.67380035,886.4469,789.34064,788.93774,894.90845,917.47253,-0.34619140625,0.14208984375,0.927490234375,2.385101318359375,-2.572021484375,0.037384033203125,1.0,1.0,1.0,1.0,1.0,95.0,event
14:22:33.130,0.17121187,0.69915605,0.68453395,0.21642879,1.0961045,0.68761927,-0.0409626,1.1405573,1.057562,0.5890234,0.43033487,1.138735,0.95585257,1.233551,0.6478987,0.8789955,0.76895505,0.96147907,0.53310996,0.67380035,887.6557,814.3223,777.25275,885.64105,811.0989,-0.34619140625,0.14208984375,0.927490234375,2.385101318359375,-2.572021484375,0.037384033203125,1.0,1.0,1.0,1.0,1.0,95.0,event
14:22:33.169,0.17121187,0.69915605,0.68453395,0.21642879,1.0961045,0.68761927,-0.0409626,1.1405573,1.057562,0.5890234,0.43033487,1.138735,0.95585257,1.233551,0.6478987,0.8789955,0.76895505,0.96147907,0.53310996,0.67380035,892.0879,824.3956,774.83514,885.2381,745.0183,-0.33856201171875,0.13909912109375,0.9229736328125,1.6748046875,-3.820648193359375,0.142059326171875,1.0,1.0,1.0,1.0,1.0,95.0,event
14:22:33.170,0.17121187,0.69915605,0.68453395,0.21642879,1.0961045,0.68761927,-0.0409626,1.1405573,1.057562,0.5890234,0.43033487,1.138735,0.95585257,1.233551,0.6478987,0.8789955,0.76895505,0.96147907,0.53310996,0.67380035,884.83514,803.44324,787.326,889.2674,764.35895,-0.33856201171875,0.13909912109375,0.9229736328125,1.6748046875,-3.820648193359375,0.142059326171875,1.0,1.0,1.0,1.0,1.0,95.0,event
14:22:33.170,0.17121187,0.69915605,0.68453395,0.21642879,1.0961045,0.68761927,-0.0409626,1.1405573,1.057562,0.5890234,0.43033487,1.138735,0.95585257,1.233551,0.6478987,0.8789955,0.76895505,0.96147907,0.53310996,0.67380035,865.4945,794.17584,796.99634,871.53845,739.3773,-0.33856201171875,0.13909912109375,0.9229736328125,1.6748046875,-3.820648193359375,0.142059326171875,1.0,1.0,1.0,1.0,1.0,95.0,event
14:22:33.171,0.17121187,0.69915605,0.68453395,0.21642879,1.0961045,0.68761927,-0.0409626,1.1405573,1.057562,0.5890234,0.43033487,1.138735,0.95585257,1.233551,0.6478987,0.8789955,0.76895505,0.96147907,0.53310996,0.67380035,851.39197,809.4872,799.011,859.0476,718.022,-0.33856201171875,0.13909912109375,0.9229736328125,1.6748046875,-3.820648193359375,0.142059326171875,1.0,1.0,1.0,1.0,1.0,95.0,event
14:22:33.172,0.17121187,0.69915605,0.68453395,0.21642879,1.0961045,0.68761927,-0.0409626,1.1405573,1.057562,0.5890234,0.43033487,1.138735,0.95585257,1.233551,0.6478987,0.8789955,0.76895505,0.96147907,0.53310996,0.67380035,863.0769,820.3663,799.81683,868.71796,772.01465,-0.33856201171875,0.13909912109375,0.9229736328125,1.6748046875,-3.820648193359375,0.142059326171875,1.0,1.0,1.0,1.0,1.0,95.0,event
14:22:33.172,0.17121187,0.69915605,0.68453395,0.21642879,1.0961045,0.68761927,-0.0409626,1.1405573,1.057562,0.5890234,0.43033487,1.138735,0.95585257,1.233551,0.6478987,0.8789955,0.76895505,0.96147907,0.53310996,0.67380035,897.326,812.71063,804.2491,894.10254,932.381,-0.33856201171875,0.13909912109375,0.9229736328125,1.6748046875,-3.820648193359375,0.142059326171875,1.0,1.0,1.0,1.0,1.0,95.0,event
14:22:33.173,0.17121187,0.69915605,0.68453395,0.21642879,1.0961045,0.68761927,-0.0409626,1.1405573,1.057562,0.5890234,0.43033487,1.138735,0.95585257,1.233551,0.6478987,0.8789955,0.76895505,0.96147907,0.53310996,0.67380035,891.685,808.2784,809.89014,910.6227,1044.7986,-0.33856201171875,0.13909912109375,0.9229736328125,1.6748046875,-3.820648193359375,0.142059326171875,1.0,1.0,1.0,1.0,1.0,95.0,event
14:22:33.173,0.17121187,0.69915605,0.68453395,0.21642879,1.0961045,0.68761927,-0.0409626,1.1405573,1.057562,0.5890234,0.43033487,1.138735,0.95585257,1.233551,0.6478987,0.8789955,0.76895505,0.96147907,0.53310996,0.67380035,866.30035,797.3993,800.6227,888.86444,925.5311,-0.33856201171875,0.13909912109375,0.9229736328125,1.6748046875,-3.820648193359375,0.142059326171875,1.0,1.0,1.0,1.0,1.0,95.0,event
14:22:33.174,0.17121187,0.7461401,0.767006,0.21642879,1.0961045,0.6929506,-0.021640293,1.1405573,1.057562,0.6126309,0.43033487,1.138735,0.95585257,1.1862639,0.6426247,0.8789955,0.76895505,0.94263524,0.53515214,0.67380035,857.8388,797.3993,788.93774,880.0,861.8681,-0.33856201171875,0.13909912109375,0.9229736328125,1.6748046875,-3.820648193359375,0.142059326171875,1.0,1.0,1.0,1.0,1.0,95.0,event
14:22:33.174,0.17121187,0.69915605,0.68453395,0.21642879,1.0961045,0.68761927,-0.0409626,1.1405573,1.057562,0.5890234,0.43033487,1.138735,0.95585257,1.233551,0.6478987,0.8789955,0.76895505,0.96147907,0.53310996,0.67380035,864.68866,786.9231,790.14655,864.68866,753.8828,-0.33856201171875,0.13909912109375,0.9229736328125,1.6748046875,-3.820648193359375,0.142059326171875,1.0,1.0,1.0,1.0,1.0,95.0,event
14:22:33.177,,,,,,,,,,,,,,,,,,,,,,,,,,,,,,,,,,,,,,blink
14:22:33.178,0.17121187,0.7461401,0.767006,0.21642879,1.0961045,0.6929506,-0.021640293,1.1405573,1.057562,0.6126309,0.43033487,1.138735,0.95585257,1.1862639,0.6426247,0.8789955,0.76895505,0.94263524,0.53515214,0.67380035,859.45056,793.7729,782.8938,891.685,954.5421,-0.33856201171875,0.13909912109375,0.9229736328125,1.6748046875,-3.820648193359375,0.142059326171875,1.0,1.0,1.0,1.0,1.0,95.0,event
14:22:33.179,0.17121187,0.7461401,0.767006,0.21642879,1.0961045,0.6929506,-0.021640293,1.1405573,1.057562,0.6126309,0.43033487,1.138735,0.95585257,1.1862639,0.6426247,0.8789955,0.76895505,0.94263524,0.53515214,0.67380035,860.65936,813.1135,786.1172,874.35895,738.5714,-0.33856201171875,0.13909912109375,0.9229736328125,1.6748046875,-3.820648193359375,0.142059326171875,1.0,1.0,1.0,1.0,1.0,95.0,event
14:22:33.202,0.17121187,0.7461401,0.767006,0.21642879,1.0961045,0.6929506,-0.021640293,1.1405573,1.057562,0.6126309,0.43033487,1.138735,0.95585257,1.1862639,0.6426247,0.8789955,0.76895505,0.94263524,0.53515214,0.67380035,838.49817,827.2161,786.1172,851.79486,655.56775,-0.341796875,0.1348876953125,0.92333984375,1.921539306640625,-5.63751220703125,0.19439697265625,1.0,1.0,1.0,1.0,1.0,95.0,event
14:22:33.203,0.17121187,0.7461401,0.767006,0.21642879,1.0961045,0.6929506,-0.021640293,1.1405573,1.057562,0.6126309,0.43033487,1.138735,0.95585257,1.1862639,0.6426247,0.8789955,0.76895505,0.94263524,0.53515214,0.67380035,845.34796,825.2015,784.90845,848.5714,793.36993,-0.341796875,0.1348876953125,0.92333984375,1.921539306640625,-5.63751220703125,0.19439697265625,1.0,1.0,1.0,1.0,1.0,95.0,event
14:22:33.203,0.17121187,0.7461401,0.767006,0.21642879,1.0961045,0.6929506,-0.021640293,1.1405573,1.057562,0.6126309,0.43033487,1.138735,0.95585257,1.1862639,0.6426247,0.8789955,0.76895505,0.94263524,0.53515214,0.67380035,872.74725,818.7546,801.02563,871.9414,740.18317,-0.341796875,0.1348876953125,0.92333984375,1.921539306640625,-5.63751220703125,0.19439697265625,1.0,1.0,1.0,1.0,1.0,95.0,event
14:22:33.204,0.17121187,0.7461401,0.767006,0.21642879,1.0961045,0.6929506,-0.021640293,1.1405573,1.057562,0.6126309,0.43033487,1.138735,0.95585257,1.1862639,0.6426247,0.8789955,0.76895505,0.94263524,0.53515214,0.67380035,879.59705,805.4579,799.41394,882.01465,625.34796,-0.341796875,0.1348876953125,0.92333984375,1.921539306640625,-5.63751220703125,0.19439697265625,1.0,1.0,1.0,1.0,1.0,95.0,event
14:22:33.205,0.17121187,0.7461401,0.767006,0.21642879,1.0961045,0.6929506,-0.021640293,1.1405573,1.057562,0.6126309,0.43033487,1.138735,0.95585257,1.1862639,0.6426247,0.8789955,0.76895505,0.94263524,0.53515214,0.67380035,871.13556,789.7436,791.75824,861.8681,758.71796,-0.341796875,0.1348876953125,0.92333984375,1.921539306640625,-5.63751220703125,0.19439697265625,1.0,1.0,1.0,1.0,1.0,95.0,event
14:22:33.205,0.17121187,0.7461401,0.767006,0.21642879,1.0961045,0.6929506,-0.021640293,1.1405573,1.057562,0.6126309,0.43033487,1.138735,0.95585257,1.1862639,0.6426247,0.8789955,0.76895505,0.94263524,0.53515214,0.67380035,849.7802,793.36993,796.1905,849.3773,904.9817,-0.341796875,0.1348876953125,0.92333984375,1.921539306640625,-5.63751220703125,0.19439697265625,1.0,1.0,1.0,1.0,1.0,95.0,event
14:22:33.206,0.17121187,0.7461401,0.767006,0.21642879,1.0961045,0.6929506,-0.021640293,1.1405573,1.057562,0.6126309,0.43033487,1.138735,0.95585257,1.1862639,0.6426247,0.8789955,0.76895505,0.94263524,0.53515214,0.67380035,839.304,810.696,792.96704,854.61536,821.5751,-0.341796875,0.1348876953125,0.92333984375,1.921539306640625,-5.63751220703125,0.19439697265625,1.0,1.0,1.0,1.0,1.0,95.0,event
14:22:33.206,0.17121187,0.7461401,0.767006,0.21642879,1.0961045,0.6929506,-0.021640293,1.1405573,1.057562,0.6126309,0.43033487,1.138735,0.95585257,1.1862639,0.6426247,0.8789955,0.76895505,0.94263524,0.53515214,0.67380035,842.52747,813.91943,804.65204,857.8388,754.2857,-0.341796875,0.1348876953125,0.92333984375,1.921539306640625,-5.63751220703125,0.19439697265625,1.0,1.0,1.0,1.0,1.0,95.0,event
14:22:33.207,0.17121187,0.7461401,0.767006,0.21642879,1.0961045,0.6929506,-0.021640293,1.1405573,1.057562,0.6126309,0.43033487,1.138735,0.95585257,1.1862639,0.6426247,0.8789955,0.76895505,0.94263524,0.53515214,0.67380035,837.28937,807.0696,807.0696,844.5421,803.8461,-0.341796875,0.1348876953125,0.92333984375,1.921539306640625,-5.63751220703125,0.19439697265625,1.0,1.0,1.0,1.0,1.0,95.0,event
14:22:33.207,0.17121187,0.7461401,0.767006,0.21642879,1.0961045,0.6929506,-0.021640293,1.1405573,1.057562,0.6126309,0.43033487,1.138735,0.95585257,1.1862639,0.6426247,0.8789955,0.76895505,0.94263524,0.53515214,0.67380035,834.4689,785.7143,805.05493,844.94507,963.00366,-0.341796875,0.1348876953125,0.92333984375,1.921539306640625,-5.63751220703125,0.19439697265625,1.0,1.0,1.0,1.0,1.0,95.0,event
14:22:33.208,0.17121187,0.7461401,0.767006,0.21642879,1.0961045,0.6929506,-0.021640293,1.1405573,1.057562,0.6126309,0.43033487,1.138735,0.95585257,1.1862639,0.6426247,0.8789955,0.76895505,0.94263524,0.53515214,0.67380035,832.8571,815.5311,798.20514,837.28937,740.58606,-0.341796875,0.1348876953125,0.92333984375,1.921539306640625,-5.63751220703125,0.19439697265625,1.0,1.0,1.0,1.0,1.0,95.0,event
14:22:33.208,0.17121187,0.7461401,0.767006,0.21642879,1.0961045,0.6929506,-0.021640293,1.1405573,1.057562,0.6126309,0.43033487,1.138735,0.95585257,1.1862639,0.6426247,0.8789955,0.76895505,0.94263524,0.53515214,0.67380035,841.7216,803.44324,814.7253,851.79486,834.0659,-0.341796875,0.1348876953125,0.92333984375,1.921539306640625,-5.63751220703125,0.19439697265625,1.0,1.0,1.0,1.0,1.0,95.0,event
14:22:33.237,0.17121187,0.7461401,0.767006,0.21642879,1.0961045,0.6929506,-0.021640293,1.1405573,1.057562,0.6126309,0.43033487,1.138735,0.95585257,1.1862639,0.6426247,0.8789955,0.76895505,0.94263524,0.53515214,0.67380035,810.696,815.9341,778.86444,815.9341,769.59705,-0.33953857421875,0.1358642578125,0.92425537109375,2.564544677734375,-2.878570556640625,-0.650482177734375,1.0,1.0,1.0,1.0,1.0,95.0,event
14:22:33.238,0.17121187,0.7461401,0.767006,0.21642879,1.0961045,0.6929506,-0.021640293,1.1405573,1.057562,0.6126309,0.43033487,1.138735,0.95585257,1.1862639,0.6426247,0.8789955,0.76895505,0.94263524,0.53515214,0.67380035,808.2784,830.0366,782.8938,810.696,781.28204,-0.33953857421875,0.1358642578125,0.92425537109375,2.564544677734375,-2.878570556640625,-0.650482177734375,1.0,1.0,1.0,1.0,1.0,95.0,event
14:22:33.238,0.17121187,0.7461401,0.767006,0.21642879,1.0961045,0.6929506,-0.021640293,1.1405573,1.057562,0.6126309,0.43033487,1.138735,0.95585257,1.1862639,0.6426247,0.8789955,0.76895505,0.94263524,0.53515214,0.67380035,814.3223,809.89014,794.9817,822.7839,832.8571,-0.33953857421875,0.1358642578125,0.92425537109375,2.564544677734375,-2.878570556640625,-0.650482177734375,1.0,1.0,1.0,1.0,1.0,95.0,event
14:22:33.239,0.17121187,0.7461401,0.767006,0.21642879,1.0961045,0.6929506,-0.021640293,1.1405573,1.057562,0.6126309,0.43033487,1.138735,0.95585257,1.1862639,0.6426247,0.8789955,0.76895505,0.94263524,0.53515214,0.67380035,815.9341,807.47253,797.8022,835.6777,720.4396,-0.33953857421875,0.1358642578125,0.92425537109375,2.564544677734375,-2.878570556640625,-0.650482177734375,1.0,1.0,1.0,1.0,1.0,95.0,event
14:22:33.239,0.17121187,0.7461401,0.767006,0.21642879,1.0961045,0.6929506,-0.021640293,1.1405573,1.057562,0.6126309,0.43033487,1.138735,0.95585257,1.1862639,0.6426247,0.8789955,0.76895505,0.94263524,0.53515214,0.67380035,832.4542,819.5604,775.2381,841.7216,728.9011,-0.33953857421875,0.1358642578125,0.92425537109375,2.564544677734375,-2.878570556640625,-0.650482177734375,1.0,1.0,1.0,1.0,1.0,95.0,event
14:22:33.240,0.17121187,0.7461401,0.767006,0.21642879,1.0961045,0.6929506,-0.021640293,1.1405573,1.057562,0.6126309,0.43033487,1.138735,0.95585257,1.1862639,0.6426247,0.8789955,0.76895505,0.94263524,0.53515214,0.67380035,835.2747,810.696,787.72894,830.0366,919.89014,-0.33953857421875,0.1358642578125,0.92425537109375,2.564544677734375,-2.878570556640625,-0.650482177734375,1.0,1.0,1.0,1.0,1.0,95.0,event
14:22:33.241,0.17121187,0.7461401,0.767006,0.21642879,1.0961045,0.6929506,-0.021640293,1.1405573,1.057562,0.6126309,0.43033487,1.138735,0.95585257,1.1862639,0.6426247,0.8789955,0.76895505,0.94263524,0.53515214,0.67380035,820.3663,804.65204,811.9048,821.1722,923.1135,-0.33953857421875,0.1358642578125,0.92425537109375,2.564544677734375,-2.878570556640625,-0.650482177734375,1.0,1.0,1.0,1.0,1.0,95.0,event
14:22:33.241,0.17121187,0.7461401,0.767006,0.21642879,1.0961045,0.6929506,-0.021640293,1.1405573,1.057562,0.6126309,0.43033487,1.138735,0.95585257,1.1862639,0.6426247,0.8789955,0.76895505,0.94263524,0.53515214,0.67380035,813.91943,808.2784,797.3993,815.12823,759.5238,-0.33953857421875,0.1358642578125,0.92425537109375,2.564544677734375,-2.878570556640625,-0.650482177734375,1.0,1.0,1.0,1.0,1.0,95.0,event
14:22:33.242,0.17121187,0.7461401,0.767006,0.21642879,1.0961045,0.6929506,-0.021640293,1.1405573,1.057562,0.6126309,0.43033487,1.138735,0.95585257,1.1862639,0.6426247,0.8789955,0.76895505,0.94263524,0.53515214,0.67380035,815.12823,813.91943,794.17584,819.15753,876.3736,-0.33953857421875,0.1358642578125,0.92425537109375,2.564544677734375,-2.878570556640625,-0.650482177734375,1.0,1.0,1.0,1.0,1.0,95.0,event
14:22:33.242,0.17121187,0.7461401,0.767006,0.21642879,1.0961045,0.6929506,-0.021640293,1.1405573,1.057562,0.6126309,0.43033487,1.138735,0.95585257,1.1862639,0.6426247,0.8789955,0.76895505,0.94263524,0.53515214,0.67380035,824.3956,805.4579,808.68134,834.87177,994.0293,-0.33953857421875,0.1358642578125,0.92425537109375,2.564544677734375,-2.878570556640625,-0.650482177734375,1.0,1.0,1.0,1.0,1.0,95.0,event
14:22:33.243,0.17121187,0.7461401,0.767006,0.21642879,1.0961045,0.6929506,-0.021640293,1.1405573,1.057562,0.6126309,0.43033487,1.138735,0.95585257,1.1862639,0.6426247,0.8789955,0.76895505,0.94263524,0.53515214,0.67380035,818.7546,789.34064,809.0842,834.4689,709.15753,-0.33953857421875,0.1358642578125,0.92425537109375,2.564544677734375,-2.878570556640625,-0.650482177734375,1.0,1.0,1.0,1.0,1.0,95.0,event
14:22:33.243,0.17121187,0.77264583,0.830024,0.21642879,1.0961045,0.70034784,0.00066703814,1.1405573,1.057562,0.6373884,0.43033487,1.138735,0.95585257,1.1435275,0.63462627,0.8789955,0.76895505,0.92873055,0.5352034,0.67380035,822.7839,798.60803,807.0696,835.2747,681.75824,-0.33953857421875,0.1358642578125,0.92425537109375,2.564544677734375,-2.878570556640625,-0.650482177734375,1.0,1.0,1.0,1.0,1.0,95.0,event
14:22:33.304,0.17121187,0.77264583,0.830024,0.21642879,1.0961045,0.70034784,0.00066703814,1.1405573,1.057562,0.6373884,0.43033487,1.138735,0.95585257,1.1435275,0.63462627,0.8789955,0.76895505,0.92873055,0.5352034,0.67380035,832.8571,813.1135,811.50183,833.2601,767.98535,-0.33953857421875,0.1358642578125,0.92425537109375,2.564544677734375,-2.878570556640625,-0.650482177734375,1.0,1.0,1.0,1.0,1.0,95.0,event
14:22:33.305,0.17121187,0.77264583,0.830024,0.21642879,1.0961045,0.70034784,0.00066703814,1.1405573,1.057562,0.6373884,0.43033487,1.138735,0.95585257,1.1435275,0.63462627,0.8789955,0.76895505,0.92873055,0.5352034,0.67380035,811.50183,814.3223,798.60803,817.9487,670.4762,-0.33953857421875,0.1358642578125,0.92425537109375,2.564544677734375,-2.878570556640625,-0.650482177734375,1.0,1.0,1.0,1.0,1.0,95.0,event
14:22:33.306,0.17121187,0.77264583,0.830024,0.21642879,1.0961045,0.70034784,0.00066703814,1.1405573,1.057562,0.6373884,0.43033487,1.138735,0.95585257,1.1435275,0.63462627,0.8789955,0.76895505,0.92873055,0.5352034,0.67380035,827.619,818.7546,807.8755,829.6337,646.7033,-0.33953857421875,0.1358642578125,0.92425537109375,2.564544677734375,-2.878570556640625,-0.650482177734375,1.0,1.0,1.0,1.0,1.0,95.0,event
14:22:33.306,0.17121187,0.77264583,0.830024,0.21642879,1.0961045,0.70034784,0.00066703814,1.1405573,1.057562,0.6373884,0.43033487,1.138735,0.95585257,1.1435275,0.63462627,0.8789955,0.76895505,0.92873055,0.5352034,0.67380035,811.0989,819.15753,795.38464,818.3516,616.8865,-0.33953857421875,0.1358642578125,0.92425537109375,2.564544677734375,-2.878570556640625,-0.650482177734375,1.0,1.0,1.0,1.0,1.0,95.0,event
14:22:33.307,0.17121187,0.77264583,0.830024,0.21642879,1.0961045,0.70034784,0.00066703814,1.1405573,1.057562,0.6373884,0.43033487,1.138735,0.95585257,1.1435275,0.63462627,0.8789955,0.76895505,0.92873055,0.5352034,0.67380035,821.5751,811.9048,803.0403,826.8132,813.91943,-0.33953857421875,0.1358642578125,0.92425537109375,2.564544677734375,-2.878570556640625,-0.650482177734375,1.0,1.0,1.0,1.0,1.0,95.0,event
14:22:33.307,0.17121187,0.77264583,0.830024,0.21642879,1.0961045,0.70034784,0.00066703814,1.1405573,1.057562,0.6373884,0.43033487,1.138735,0.95585257,1.1435275,0.63462627,0.8789955,0.76895505,0.92873055,0.5352034,0.67380035,821.1722,808.68134,791.75824,826.0073,922.3077,-0.33953857421875,0.1358642578125,0.92425537109375,2.564544677734375,-2.878570556640625,-0.650482177734375,1.0,1.0,1.0,1.0,1.0,95.0,event
14:22:33.308,0.17121187,0.77264583,0.830024,0.21642879,1.0961045,0.70034784,0.00066703814,1.1405573,1.057562,0.6373884,0.43033487,1.138735,0.95585257,1.1435275,0.63462627,0.8789955,0.76895505,0.92873055,0.5352034,0.67380035,822.381,795.78754,782.49084,829.2308,844.1392,-0.33953857421875,0.1358642578125,0.92425537109375,2.564544677734375,-2.878570556640625,-0.650482177734375,1.0,1.0,1.0,1.0,1.0,95.0,event
14:22:33.309,0.17121187,0.77264583,0.830024,0.21642879,1.0961045,0.70034784,0.00066703814,1.1405573,1.057562,0.6373884,0.43033487,1.138735,0.95585257,1.1435275,0.63462627,0.8789955,0.76895505,0.92873055,0.5352034,0.67380035,816.337,797.3993,792.5641,830.4396,755.09155,-0.33953857421875,0.1358642578125,0.92425537109375,2.564544677734375,-2.878570556640625,-0.650482177734375,1.0,1.0,1.0,1.0,1.0,95.0,event
14:22:33.310,0.17121187,0.77264583,0.830024,0.21642879,1.0961045,0.70034784,0.00066703814,1.1405573,1.057562,0.6373884,0.43033487,1.138735,0.95585257,1.1435275,0.63462627,0.8789955,0.76895505,0.92873055,0.5352034,0.67380035,822.7839,806.6667,803.0403,841.31866,976.7033,-0.33953857421875,0.1358642578125,0.92425537109375,2.564544677734375,-2.878570556640625,-0.650482177734375,1.0,1.0,1.0,1.0,1.0,95.0,event
14:22:33.311,0.17121187,0.77264583,0.830024,0.21642879,1.0961045,0.70034784,0.00066703814,1.1405573,1.057562,0.6373884,0.43033487,1.138735,0.95585257,1.1435275,0.63462627,0.8789955,0.76895505,0.92873055,0.5352034,0.67380035,826.4103,799.011,804.65204,840.5128,954.5421,-0.33953857421875,0.1358642578125,0.92425537109375,2.564544677734375,-2.878570556640625,-0.650482177734375,1.0,1.0,1.0,1.0,1.0,95.0,event
14:22:33.311,0.17121187,0.77264583,0.830024,0.21642879,1.0961045,0.70034784,0.00066703814,1.1405573,1.057562,0.6373884,0.43033487,1.138735,0.95585257,1.1435275,0.63462627,0.8789955,0.76895505,0.92873055,0.5352034,0.67380035,819.15753,801.8315,816.7399,834.0659,698.2784,-0.33953857421875,0.1358642578125,0.92425537109375,2.564544677734375,-2.878570556640625,-0.650482177734375,1.0,1.0,1.0,1.0,1.0,95.0,event
14:22:33.312,0.17121187,0.77264583,0.830024,0.21642879,1.0961045,0.70034784,0.00066703814,1.1405573,1.057562,0.6373884,0.43033487,1.138735,0.95585257,1.1435275,0.63462627,0.8789955,0.76895505,0.92873055,0.5352034,0.67380035,799.41394,805.8608,814.3223,816.7399,768.3883,-0.33953857421875,0.1358642578125,0.92425537109375,2.564544677734375,-2.878570556640625,-0.650482177734375,1.0,1.0,1.0,1.0,1.0,95.0,event
14:22:33.341,0.17121187,0.77264583,0.830024,0.21642879,1.0961045,0.70034784,0.00066703814,1.1405573,1.057562,0.6373884,0.43033487,1.138735,0.95585257,1.1435275,0.63462627,0.8789955,0.76895505,0.92873055,0.5352034,0.67380035,790.54944,801.02563,802.23444,796.5934,778.46155,-0.33026123046875,0.1363525390625,0.918701171875,2.280426025390625,-3.289794921875,-0.8074951171875,1.0,1.0,1.0,1.0,1.0,95.0,event
14:22:33.343,0.17121187,0.77264583,0.830024,0.21642879,1.0961045,0.70034784,0.00066703814,1.1405573,1.057562,0.6373884,0.43033487,1.138735,0.95585257,1.1435275,0.63462627,0.8789955,0.76895505,0.92873055,0.5352034,0.67380035,804.2491,806.26373,793.7729,803.0403,678.1319,-0.33026123046875,0.1363525390625,0.918701171875,2.280426025390625,-3.289794921875,-0.8074951171875,1.0,1.0,1.0,1.0,1.0,95.0,event
14:22:33.344,0.17121187,0.77264583,0.830024,0.21642879,1.0961045,0.70034784,0.00066703814,1.1405573,1.057562,0.6373884,0.43033487,1.138735,0.95585257,1.1435275,0.63462627,0.8789955,0.76895505,0.92873055,0.5352034,0.67380035,812.71063,810.696,789.7436,822.7839,684.17584,-0.33026123046875,0.1363525390625,0.918701171875,2.280426025390625,-3.289794921875,-0.8074951171875,1.0,1.0,1.0,1.0,1.0,95.0,event
14:22:33.344,0.17121187,0.77264583,0.830024,0.21642879,1.0961045,0.70034784,0.00066703814,1.1405573,1.057562,0.6373884,0.43033487,1.138735,0.95585257,1.1435275,0.63462627,0.8789955,0.76895505,0.92873055,0.5352034,0.67380035,820.7692,812.71063,794.9817,841.7216,739.7802,-0.33026123046875,0.1363525390625,0.918701171875,2.280426025390625,-3.289794921875,-0.8074951171875,1.0,1.0,1.0,1.0,1.0,95.0,event
14:22:33.345,0.17121187,0.77264583,0.830024,0.21642879,1.0961045,0.70034784,0.00066703814,1.1405573,1.057562,0.6373884,0.43033487,1.138735,0.95585257,1.1435275,0.63462627,0.8789955,0.76895505,0.92873055,0.5352034,0.67380035,807.47253,815.12823,792.5641,817.9487,819.15753,-0.33026123046875,0.1363525390625,0.918701171875,2.280426025390625,-3.289794921875,-0.8074951171875,1.0,1.0,1.0,1.0,1.0,95.0,event
14:22:33.345,0.17121187,0.77264583,0.830024,0.21642879,1.0961045,0.70034784,0.00066703814,1.1405573,1.057562,0.6373884,0.43033487,1.138735,0.95585257,1.1435275,0.63462627,0.8789955,0.76895505,0.92873055,0.5352034,0.67380035,822.7839,813.1135,803.0403,842.52747,740.989,-0.33026123046875,0.1363525390625,0.918701171875,2.280426025390625,-3.289794921875,-0.8074951171875,1.0,1.0,1.0,1.0,1.0,95.0,event
14:22:33.346,0.17121187,0.77264583,0.830024,0.21642879,1.0961045,0.70034784,0.00066703814,1.1405573,1.057562,0.6373884,0.43033487,1.138735,0.95585257,1.1435275,0.63462627,0.8789955,0.76895505,0.92873055,0.5352034,0.67380035,795.38464,811.0989,783.69965,808.2784,825.6044,-0.33026123046875,0.1363525390625,0.918701171875,2.280426025390625,-3.289794921875,-0.8074951171875,1.0,1.0,1.0,1.0,1.0,95.0,event
14:22:33.347,0.17121187,0.77264583,0.830024,0.21642879,1.0961045,0.70034784,0.00066703814,1.1405573,1.057562,0.6373884,0.43033487,1.138735,0.95585257,1.1435275,0.63462627,0.8789955,0.76895505,0.92873055,0.5352034,0.67380035,796.5934,803.0403,784.5055,806.26373,947.6923,-0.33026123046875,0.1363525390625,0.918701171875,2.280426025390625,-3.289794921875,-0.8074951171875,1.0,1.0,1.0,1.0,1.0,95.0,event
14:22:33.347,0.17121187,0.77264583,0.830024,0.21642879,1.0961045,0.70034784,0.00066703814,1.1405573,1.057562,0.6373884,0.43033487,1.138735,0.95585257,1.1435275,0.63462627,0.8789955,0.76895505,0.92873055,0.5352034,0.67380035,810.293,799.011,802.6374,814.7253,1127.3993,-0.33026123046875,0.1363525390625,0.918701171875,2.280426025390625,-3.289794921875,-0.8074951171875,1.0,1.0,1.0,1.0,1.0,95.0,event
14:22:33.348,0.17121187,0.77264583,0.830024,0.21642879,1.0961045,0.70034784,0.00066703814,1.1405573,1.057562,0.6373884,0.43033487,1.138735,0.95585257,1.1435275,0.63462627,0.8789955,0.76895505,0.92873055,0.5352034,0.67380035,824.7985,814.7253,829.6337,836.08057,826.4103,-0.33026123046875,0.1363525390625,0.918701171875,2.280426025390625,-3.289794921875,-0.8074951171875,1.0,1.0,1.0,1.0,1.0,95.0,event
14:22:33.349,0.17121187,0.77264583,0.830024,0.21642879,1.0961045,0.70034784,0.00066703814,1.1405573,1.057562,0.6373884,0.43033487,1.138735,0.95585257,1.1435275,0.63462627,0.8789955,0.76895505,0.92873055,0.5352034,0.67380035,818.7546,823.1868,819.15753,826.4103,669.2674,-0.33026123046875,0.1363525390625,0.918701171875,2.280426025390625,-3.289794921875,-0.8074951171875,1.0,1.0,1.0,1.0,1.0,95.0,event
14:22:33.351,0.17121187,0.77264583,0.830024,0.21642879,1.0961045,0.70034784,0.00066703814,1.1405573,1.057562,0.6373884,0.43033487,1.138735,0.95585257,1.1435275,0.63462627,0.8789955,0.76895505,0.92873055,0.5352034,0.67380035,803.44324,823.5897,792.96704,807.8755,736.9597,-0.33026123046875,0.1363525390625,0.918701171875,2.280426025390625,-3.289794921875,-0.8074951171875,1.0,1.0,1.0,1.0,1.0,95.0,event
14:22:33.376,0.17121187,0.77264583,0.830024,0.21642879,1.0961045,0.70034784,0.00066703814,1.1405573,1.057562,0.6373884,0.43033487,1.138735,0.95585257,1.1435275,0.63462627,0.8789955,0.76895505,0.92873055,0.5352034,0.67380035,801.4286,805.05493,788.1319,801.02563,702.3077,-0.339599609375,0.1341552734375,0.92095947265625,2.093505859375,-5.271148681640625,0.9271240234375,1.0,1.0,1.0,1.0,1.0,95.0,event
14:22:33.377,0.17121187,0.77847296,0.87707907,0.21642879,1.0961045,0.7086614,0.03964891,1.1405573,1.057562,0.6715453,0.44177175,1.138735,0.95585257,1.1176413,0.6233242,0.8789955,0.76895505,0.92375654,0.5362085,0.67380035,804.2491,788.1319,791.3553,794.57874,719.6337,-0.339599609375,0.1341552734375,0.92095947265625,2.093505859375,-5.271148681640625,0.9271240234375,1.0,1.0,1.0,1.0,1.0,95.0,event
14:22:33.381,0.17121187,0.77847296,0.87707907,0.21642879,1.0961045,0.7086614,0.03964891,1.1405573,1.057562,0.6715453,0.44177175,1.138735,0.95585257,1.1176413,0.6233242,0.8789955,0.76895505,0.92375654,0.5362085,0.67380035,798.60803,805.05493,783.69965,803.44324,765.16486,-0.339599609375,0.1341552734375,0.92095947265625,2.093505859375,-5.271148681640625,0.9271240234375,1.0,1.0,1.0,1.0,1.0,95.0,event
14:22:33.382,0.17121187,0.77847296,0.87707907,0.21642879,1.0961045,0.7086614,0.03964891,1.1405573,1.057562,0.6715453,0.44177175,1.138735,0.95585257,1.1176413,0.6233242,0.8789955,0.76895505,0.92375654,0.5362085,0.67380035,792.5641,808.68134,784.5055,811.0989,791.3553,-0.339599609375,0.1341552734375,0.92095947265625,2.093505859375,-5.271148681640625,0.9271240234375,1.0,1.0,1.0,1.0,1.0,95.0,event
14:22:33.383,0.17121187,0.77847296,0.87707907,0.21642879,1.0961045,0.7086614,0.03964891,1.1405573,1.057562,0.6715453,0.44177175,1.138735,0.95585257,1.1176413,0.6233242,0.8789955,0.76895505,0.92375654,0.5362085,0.67380035,818.3516,802.23444,807.8755,832.8571,827.619,-0.339599609375,0.1341552734375,0.92095947265625,2.093505859375,-5.271148681640625,0.9271240234375,1.0,1.0,1.0,1.0,1.0,95.0,event
14:22:33.383,0.17121187,0.77847296,0.87707907,0.21642879,1.0961045,0.7086614,0.03964891,1.1405573,1.057562,0.6715453,0.44177175,1.138735,0.95585257,1.1176413,0.6233242,0.8789955,0.76895505,0.92375654,0.5362085,0.67380035,811.9048,806.26373,800.6227,818.7546,765.9707,-0.339599609375,0.1341552734375,0.92095947265625,2.093505859375,-5.271148681640625,0.9271240234375,1.0,1.0,1.0,1.0,1.0,95.0,event
14:22:33.384,0.17121187,0.77847296,0.87707907,0.21642879,1.0961045,0.7086614,0.03964891,1.1405573,1.057562,0.6715453,0.44177175,1.138735,0.95585257,1.1176413,0.6233242,0.8789955,0.76895505,0.92375654,0.5362085,0.67380035,808.68134,817.9487,805.05493,810.696,875.16486,-0.339599609375,0.1341552734375,0.92095947265625,2.093505859375,-5.271148681640625,0.9271240234375,1.0,1.0,1.0,1.0,1.0,95.0,event
14:22:33.385,0.17121187,0.77847296,0.87707907,0.21642879,1.0961045,0.7086614,0.03964891,1.1405573,1.057562,0.6715453,0.44177175,1.138735,0.95585257,1.1176413,0.6233242,0.8789955,0.76895505,0.92375654,0.5362085,0.67380035,798.20514,832.0513,800.6227,799.81683,914.65204,-0.339599609375,0.1341552734375,0.92095947265625,2.093505859375,-5.271148681640625,0.9271240234375,1.0,1.0,1.0,1.0,1.0,95.0,event
14:22:33.385,0.17121187,0.77847296,0.87707907,0.21642879,1.0961045,0.7086614,0.03964891,1.1405573,1.057562,0.6715453,0.44177175,1.138735,0.95585257,1.1176413,0.6233242,0.8789955,0.76895505,0.92375654,0.5362085,0.67380035,805.05493,832.0513,802.23444,793.7729,1022.23444,-0.339599609375,0.1341552734375,0.92095947265625,2.093505859375,-5.271148681640625,0.9271240234375,1.0,1.0,1.0,1.0,1.0,95.0,event
14:22:33.386,0.17121187,0.77847296,0.87707907,0.21642879,1.0961045,0.7086614,0.03964891,1.1405573,1.057562,0.6715453,0.44177175,1.138735,0.95585257,1.1176413,0.6233242,0.8789955,0.76895505,0.92375654,0.5362085,0.67380035,793.7729,819.9634,802.23444,799.011,713.5897,-0.339599609375,0.1341552734375,0.92095947265625,2.093505859375,-5.271148681640625,0.9271240234375,1.0,1.0,1.0,1.0,1.0,95.0,event
14:22:33.387,0.17121187,0.77847296,0.87707907,0.21642879,1.0961045,0.7086614,0.03964891,1.1405573,1.057562,0.6715453,0.44177175,1.138735,0.95585257,1.1176413,0.6233242,0.8789955,0.76895505,0.92375654,0.5362085,0.67380035,793.36993,793.7729,796.5934,798.20514,770.40295,-0.339599609375,0.1341552734375,0.92095947265625,2.093505859375,-5.271148681640625,0.9271240234375,1.0,1.0,1.0,1.0,1.0,95.0,event
14:22:33.387,0.17121187,0.77847296,0.87707907,0.21642879,1.0961045,0.7086614,0.03964891,1.1405573,1.057562,0.6715453,0.44177175,1.138735,0.95585257,1.1176413,0.6233242,0.8789955,0.76895505,0.92375654,0.5362085,0.67380035,801.8315,807.47253,798.20514,800.6227,835.2747,-0.339599609375,0.1341552734375,0.92095947265625,2.093505859375,-5.271148681640625,0.9271240234375,1.0,1.0,1.0,1.0,1.0,95.0,event
14:22:33.440,0.17121187,0.77847296,0.87707907,0.21642879,1.0961045,0.7086614,0.03964891,1.1405573,1.057562,0.6715453,0.44177175,1.138735,0.95585257,1.1176413,0.6233242,0.8789955,0.76895505,0.92375654,0.5362085,0.67380035,794.17584,813.91943,787.72894,796.1905,743.00366,-0.33251953125,0.13134765625,0.92144775390625,2.392578125,-4.388885498046875,1.24114990234375,1.0,1.0,1.0,1.0,1.0,95.0,event
14:22:33.441,0.17121187,0.77847296,0.87707907,0.21642879,1.0961045,0.7086614,0.03964891,1.1405573,1.057562,0.6715453,0.44177175,1.138735,0.95585257,1.1176413,0.6233242,0.8789955,0.76895505,0.92375654,0.5362085,0.67380035,792.96704,811.0989,787.326,806.6667,704.7253,-0.33251953125,0.13134765625,0.92144775390625,2.392578125,-4.388885498046875,1.24114990234375,1.0,1.0,1.0,1.0,1.0,95.0,event
14:22:33.441,0.17121187,0.77847296,0.87707907,0.21642879,1.0961045,0.7086614,0.03964891,1.1405573,1.057562,0.6715453,0.44177175,1.138735,0.95585257,1.1176413,0.6233242,0.8789955,0.76895505,0.92375654,0.5362085,0.67380035,805.05493,809.0842,801.8315,811.0989,802.23444,-0.33251953125,0.13134765625,0.92144775390625,2.392578125,-4.388885498046875,1.24114990234375,1.0,1.0,1.0,1.0,1.0,95.0,event
14:22:33.442,0.17121187,0.77847296,0.87707907,0.21642879,1.0961045,0.7086614,0.03964891,1.1405573,1.057562,0.6715453,0.44177175,1.138735,0.95585257,1.1176413,0.6233242,0.8789955,0.76895505,0.92375654,0.5362085,0.67380035,815.12823,807.8755,807.0696,816.7399,837.28937,-0.33251953125,0.13134765625,0.92144775390625,2.392578125,-4.388885498046875,1.24114990234375,1.0,1.0,1.0,1.0,1.0,95.0,event
14:22:33.443,0.17121187,0.77847296,0.87707907,0.21642879,1.0961045,0.7086614,0.03964891,1.1405573,1.057562,0.6715453,0.44177175,1.138735,0.95585257,1.1176413,0.6233242,0.8789955,0.76895505,0.92375654,0.5362085,0.67380035,805.4579,795.78754,805.05493,819.15753,779.2674,-0.33251953125,0.13134765625,0.92144775390625,2.392578125,-4.388885498046875,1.24114990234375,1.0,1.0,1.0,1.0,1.0,95.0,event
14:22:33.443,0.17121187,0.77847296,0.87707907,0.21642879,1.0961045,0.7086614,0.03964891,1.1405573,1.057562,0.6715453,0.44177175,1.138735,0.95585257,1.1176413,0.6233242,0.8789955,0.76895505,0.92375654,0.5362085,0.67380035,793.7729,797.3993,804.2491,803.0403,820.7692,-0.33251953125,0.13134765625,0.92144775390625,2.392578125,-4.388885498046875,1.24114990234375,1.0,1.0,1.0,1.0,1.0,95.0,event
14:22:33.444,0.17121187,0.77847296,0.87707907,0.21642879,1.0961045,0.7086614,0.03964891,1.1405573,1.057562,0.6715453,0.44177175,1.138735,0.95585257,1.1176413,0.6233242,0.8789955,0.76895505,0.92375654,0.5362085,0.67380035,804.65204,820.7692,799.011,801.8315,948.49817,-0.33251953125,0.13134765625,0.92144775390625,2.392578125,-4.388885498046875,1.24114990234375,1.0,1.0,1.0,1.0,1.0,95.0,event
14:22:33.445,0.17121187,0.77847296,0.87707907,0.21642879,1.0961045,0.7086614,0.03964891,1.1405573,1.057562,0.6715453,0.44177175,1.138735,0.95585257,1.1176413,0.6233242,0.8789955,0.76895505,0.92375654,0.5362085,0.67380035,813.1135,810.696,772.8205,809.4872,798.20514,-0.33251953125,0.13134765625,0.92144775390625,2.392578125,-4.388885498046875,1.24114990234375,1.0,1.0,1.0,1.0,1.0,95.0,event
14:22:33.445,0.17121187,0.77847296,0.87707907,0.21642879,1.0961045,0.7086614,0.03964891,1.1405573,1.057562,0.6715453,0.44177175,1.138735,0.95585257,1.1176413,0.6233242,0.8789955,0.76895505,0.92375654,0.5362085,0.67380035,821.5751,820.3663,777.6557,814.3223,1059.7069,-0.33251953125,0.13134765625,0.92144775390625,2.392578125,-4.388885498046875,1.24114990234375,1.0,1.0,1.0,1.0,1.0,95.0,event
14:22:33.446,0.17121187,0.77847296,0.87707907,0.21642879,1.0961045,0.7086614,0.03964891,1.1405573,1.057562,0.6715453,0.44177175,1.138735,0.95585257,1.1176413,0.6233242,0.8789955,0.76895505,0.92375654,0.5362085,0.67380035,828.4249,815.12823,794.57874,823.9927,674.10254,-0.33251953125,0.13134765625,0.92144775390625,2.392578125,-4.388885498046875,1.24114990234375,1.0,1.0,1.0,1.0,1.0,95.0,event
14:22:33.447,0.17121187,0.77847296,0.87707907,0.21642879,1.0961045,0.7086614,0.03964891,1.1405573,1.057562,0.6715453,0.44177175,1.138735,0.95585257,1.1176413,0.6233242,0.8789955,0.76895505,0.92375654,0.5362085,0.67380035,809.89014,807.0696,801.02563,808.2784,798.20514,-0.33251953125,0.13134765625,0.92144775390625,2.392578125,-4.388885498046875,1.24114990234375,1.0,1.0,1.0,1.0,1.0,95.0,event
14:22:33.447,0.17121187,0.77847296,0.87707907,0.21642879,1.0961045,0.7086614,0.03964891,1.1405573,1.057562,0.6715453,0.44177175,1.138735,0.95585257,1.1176413,0.6233242,0.8789955,0.76895505,0.92375654,0.5362085,0.67380035,832.4542,816.337,796.99634,835.2747,803.44324,-0.33251953125,0.13134765625,0.92144775390625,2.392578125,-4.388885498046875,1.24114990234375,1.0,1.0,1.0,1.0,1.0,95.0,event
14:22:33.474,0.17121187,0.77847296,0.87707907,0.21642879,1.0961045,0.7086614,0.03964891,1.1405573,1.057562,0.6715453,0.44177175,1.138735,0.95585257,1.1176413,0.6233242,0.8789955,0.76895505,0.92375654,0.5362085,0.67380035,811.50183,794.9817,805.05493,792.5641,693.8461,-0.3363037109375,0.1380615234375,0.9246826171875,2.743988037109375,-2.7813720703125,0.366363525390625,1.0,1.0,1.0,1.0,1.0,95.0,event
14:22:33.475,0.17121187,0.77847296,0.87707907,0.21642879,1.0961045,0.7086614,0.03964891,1.1405573,1.057562,0.6715453,0.44177175,1.138735,0.95585257,1.1176413,0.6233242,0.8789955,0.76895505,0.92375654,0.5362085,0.67380035,809.89014,808.68134,802.6374,798.60803,736.9597,-0.3363037109375,0.1380615234375,0.9246826171875,2.743988037109375,-2.7813720703125,0.366363525390625,1.0,1.0,1.0,1.0,1.0,95.0,event
14:22:33.476,0.17121187,0.77847296,0.87707907,0.21642879,1.0961045,0.7086614,0.03964891,1.1405573,1.057562,0.6715453,0.44177175,1.138735,0.95585257,1.1176413,0.6233242,0.8789955,0.76895505,0.92375654,0.5362085,0.67380035,803.44324,820.3663,807.0696,803.44324,912.6374,-0.3363037109375,0.1380615234375,0.9246826171875,2.743988037109375,-2.7813720703125,0.366363525390625,1.0,1.0,1.0,1.0,1.0,95.0,event
14:22:33.477,0.17121187,0.76796585,0.91181034,0.21642879,1.0961045,0.7079405,0.09044669,1.1405573,1.057562,0.6988627,0.46280417,1.138735,0.95585257,1.1075054,0.61386,0.8789955,0.76895505,0.925475,0.54042834,0.67380035,808.68134,812.3077,805.4579,805.4579,812.3077,-0.3363037109375,0.1380615234375,0.9246826171875,2.743988037109375,-2.7813720703125,0.366363525390625,1.0,1.0,1.0,1.0,1.0,95.0,event
14:22:33.481,0.17121187,0.76796585,0.91181034,0.21642879,1.0961045,0.7079405,0.09044669,1.1405573,1.057562,0.6988627,0.46280417,1.138735,0.95585257,1.1075054,0.61386,0.8789955,0.76895505,0.925475,0.54042834,0.67380035,816.337,803.8461,794.9817,807.47253,725.6777,-0.3363037109375,0.1380615234375,0.9246826171875,2.743988037109375,-2.7813720703125,0.366363525390625,1.0,1.0,1.0,1.0,1.0,95.0,event
14:22:33.481,0.17121187,0.76796585,0.91181034,0.21642879,1.0961045,0.7079405,0.09044669,1.1405573,1.057562,0.6988627,0.46280417,1.138735,0.95585257,1.1075054,0.61386,0.8789955,0.76895505,0.925475,0.54042834,0.67380035,815.9341,794.17584,796.99634,799.81683,842.1245,-0.3363037109375,0.1380615234375,0.9246826171875,2.743988037109375,-2.7813720703125,0.366363525390625,1.0,1.0,1.0,1.0,1.0,95.0,event
14:22:33.482,0.17121187,0.76796585,0.91181034,0.21642879,1.0961045,0.7079405,0.09044669,1.1405573,1.057562,0.6988627,0.46280417,1.138735,0.95585257,1.1075054,0.61386,0.8789955,0.76895505,0.925475,0.54042834,0.67380035,817.9487,801.02563,801.02563,798.60803,963.4066,-0.3363037109375,0.1380615234375,0.9246826171875,2.743988037109375,-2.7813720703125,0.366363525390625,1.0,1.0,1.0,1.0,1.0,95.0,event
14:22:33.482,0.17121187,0.76796585,0.91181034,0.21642879,1.0961045,0.7079405,0.09044669,1.1405573,1.057562,0.6988627,0.46280417,1.138735,0.95585257,1.1075054,0.61386,0.8789955,0.76895505,0.925475,0.54042834,0.67380035,825.2015,806.26373,802.23444,800.6227,833.2601,-0.3363037109375,0.1380615234375,0.9246826171875,2.743988037109375,-2.7813720703125,0.366363525390625,1.0,1.0,1.0,1.0,1.0,95.0,event
14:22:33.483,0.17121187,0.76796585,0.91181034,0.21642879,1.0961045,0.7079405,0.09044669,1.1405573,1.057562,0.6988627,0.46280417,1.138735,0.95585257,1.1075054,0.61386,0.8789955,0.76895505,0.925475,0.54042834,0.67380035,816.7399,801.8315,796.5934,798.20514,718.4249,-0.3363037109375,0.1380615234375,0.9246826171875,2.743988037109375,-2.7813720703125,0.366363525390625,1.0,1.0,1.0,1.0,1.0,95.0,event
14:22:33.483,0.17121187,0.76796585,0.91181034,0.21642879,1.0961045,0.7079405,0.09044669,1.1405573,1.057562,0.6988627,0.46280417,1.138735,0.95585257,1.1075054,0.61386,0.8789955,0.76895505,0.925475,0.54042834,0.67380035,817.9487,823.1868,781.685,807.8755,801.02563,-0.3363037109375,0.1380615234375,0.9246826171875,2.743988037109375,-2.7813720703125,0.366363525390625,1.0,1.0,1.0,1.0,1.0,95.0,event
14:22:33.484,0.17121187,0.76796585,0.91181034,0.21642879,1.0961045,0.7079405,0.09044669,1.1405573,1.057562,0.6988627,0.46280417,1.138735,0.95585257,1.1075054,0.61386,0.8789955,0.76895505,0.925475,0.54042834,0.67380035,830.4396,825.2015,801.4286,812.71063,855.0183,-0.3363037109375,0.1380615234375,0.9246826171875,2.743988037109375,-2.7813720703125,0.366363525390625,1.0,1.0,1.0,1.0,1.0,95.0,event
14:22:33.484,0.17121187,0.76796585,0.91181034,0.21642879,1.0961045,0.7079405,0.09044669,1.1405573,1.057562,0.6988627,0.46280417,1.138735,0.95585257,1.1075054,0.61386,0.8789955,0.76895505,0.925475,0.54042834,0.67380035,833.2601,845.7509,784.90845,820.3663,1013.7729,-0.3363037109375,0.1380615234375,0.9246826171875,2.743988037109375,-2.7813720703125,0.366363525390625,1.0,1.0,1.0,1.0,1.0,95.0,event
14:22:33.543,0.17121187,0.76796585,0.91181034,0.21642879,1.0961045,0.7079405,0.09044669,1.1405573,1.057562,0.6988627,0.46280417,1.138735,0.95585257,1.1075054,0.61386,0.8789955,0.76895505,0.925475,0.54042834,0.67380035,805.8608,811.50183,806.6667,807.47253,650.7326,-0.3363037109375,0.1380615234375,0.9246826171875,2.743988037109375,-2.7813720703125,0.366363525390625,1.0,1.0,1.0,1.0,1.0,95.0,event
14:22:33.545,0.17121187,0.76796585,0.91181034,0.21642879,1.0961045,0.7079405,0.09044669,1.1405573,1.057562,0.6988627,0.46280417,1.138735,0.95585257,1.1075054,0.61386,0.8789955,0.76895505,0.925475,0.54042834,0.67380035,778.0586,817.1429,799.41394,801.02563,704.7253,-0.3363037109375,0.1380615234375,0.9246826171875,2.743988037109375,-2.7813720703125,0.366363525390625,1.0,1.0,1.0,1.0,1.0,95.0,event
14:22:33.545,0.17121187,0.76796585,0.91181034,0.21642879,1.0961045,0.7079405,0.09044669,1.1405573,1.057562,0.6988627,0.46280417,1.138735,0.95585257,1.1075054,0.61386,0.8789955,0.76895505,0.925475,0.54042834,0.67380035,791.3553,818.3516,796.5934,807.8755,793.36993,-0.3363037109375,0.1380615234375,0.9246826171875,2.743988037109375,-2.7813720703125,0.366363525390625,1.0,1.0,1.0,1.0,1.0,95.0,event
14:22:33.546,0.17121187,0.76796585,0.91181034,0.21642879,1.0961045,0.7079405,0.09044669,1.1405573,1.057562,0.6988627,0.46280417,1.138735,0.95585257,1.1075054,0.61386,0.8789955,0.76895505,0.925475,0.54042834,0.67380035,817.1429,810.293,805.4579,816.337,805.05493,-0.3363037109375,0.1380615234375,0.9246826171875,2.743988037109375,-2.7813720703125,0.366363525390625,1.0,1.0,1.0,1.0,1.0,95.0,event
14:22:33.547,0.17121187,0.76796585,0.91181034,0.21642879,1.0961045,0.7079405,0.09044669,1.1405573,1.057562,0.6988627,0.46280417,1.138735,0.95585257,1.1075054,0.61386,0.8789955,0.76895505,0.925475,0.54042834,0.67380035,809.89014,793.36993,803.0403,791.3553,774.0293,-0.3363037109375,0.1380615234375,0.9246826171875,2.743988037109375,-2.7813720703125,0.366363525390625,1.0,1.0,1.0,1.0,1.0,95.0,event
14:22:33.547,0.17121187,0.76796585,0.91181034,0.21642879,1.0961045,0.7079405,0.09044669,1.1405573,1.057562,0.6988627,0.46280417,1.138735,0.95585257,1.1075054,0.61386,0.8789955,0.76895505,0.925475,0.54042834,0.67380035,803.8461,794.17584,808.2784,792.5641,939.6337,-0.3363037109375,0.1380615234375,0.9246826171875,2.743988037109375,-2.7813720703125,0.366363525390625,1.0,1.0,1.0,1.0,1.0,95.0,event
14:22:33.548,0.17121187,0.76796585,0.91181034,0.21642879,1.0961045,0.7079405,0.09044669,1.1405573,1.057562,0.6988627,0.46280417,1.138735,0.95585257,1.1075054,0.61386,0.8789955,0.76895505,0.925475,0.54042834,0.67380035,816.7399,822.381,816.7399,818.3516,1055.2748,-0.3363037109375,0.1380615234375,0.9246826171875,2.743988037109375,-2.7813720703125,0.366363525390625,1.0,1.0,1.0,1.0,1.0,95.0,event
14:22:33.548,0.17121187,0.76796585,0.91181034,0.21642879,1.0961045,0.7079405,0.09044669,1.1405573,1.057562,0.6988627,0.46280417,1.138735,0.95585257,1.1075054,0.61386,0.8789955,0.76895505,0.925475,0.54042834,0.67380035,819.5604,811.9048,794.9817,816.7399,824.7985,-0.3363037109375,0.1380615234375,0.9246826171875,2.743988037109375,-2.7813720703125,0.366363525390625,1.0,1.0,1.0,1.0,1.0,95.0,event
14:22:33.549,0.17121187,0.76796585,0.91181034,0.21642879,1.0961045,0.7079405,0.09044669,1.1405573,1.057562,0.6988627,0.46280417,1.138735,0.95585257,1.1075054,0.61386,0.8789955,0.76895505,0.925475,0.54042834,0.67380035,809.4872,806.6667,778.46155,801.8315,693.0403,-0.3363037109375,0.1380615234375,0.9246826171875,2.743988037109375,-2.7813720703125,0.366363525390625,1.0,1.0,1.0,1.0,1.0,95.0,event
14:22:33.550,0.17121187,0.76796585,0.91181034,0.21642879,1.0961045,0.7079405,0.09044669,1.1405573,1.057562,0.6988627,0.46280417,1.138735,0.95585257,1.1075054,0.61386,0.8789955,0.76895505,0.925475,0.54042834,0.67380035,805.05493,822.381,789.34064,790.9524,845.34796,-0.3363037109375,0.1380615234375,0.9246826171875,2.743988037109375,-2.7813720703125,0.366363525390625,1.0,1.0,1.0,1.0,1.0,95.0,event
14:22:33.551,0.17121187,0.76796585,0.91181034,0.21642879,1.0961045,0.7079405,0.09044669,1.1405573,1.057562,0.6988627,0.46280417,1.138735,0.95585257,1.1075054,0.61386,0.8789955,0.76895505,0.925475,0.54042834,0.67380035,800.2198,811.50183,799.81683,780.4762,863.0769,-0.3363037109375,0.1380615234375,0.9246826171875,2.743988037109375,-2.7813720703125,0.366363525390625,1.0,1.0,1.0,1.0,1.0,95.0,event
14:22:33.552,0.17121187,0.76796585,0.91181034,0.21642879,1.0961045,0.7079405,0.09044669,1.1405573,1.057562,0.6988627,0.46280417,1.138735,0.95585257,1.1075054,0.61386,0.8789955,0.76895505,0.925475,0.54042834,0.67380035,802.23444,811.50183,796.1905,782.49084,729.707,-0.3363037109375,0.1380615234375,0.9246826171875,2.743988037109375,-2.7813720703125,0.366363525390625,1.0,1.0,1.0,1.0,1.0,95.0,event
14:22:33.577,0.17121187,0.76796585,0.91181034,0.21642879,1.0961045,0.7079405,0.09044669,1.1405573,1.057562,0.6988627,0.46280417,1.138735,0.95585257,1.1075054,0.61386,0.8789955,0.76895505,0.925475,0.54042834,0.67380035,799.41394,817.9487,801.4286,802.23444,751.4652,-0.33917236328125,0.1383056640625,0.92584228515625,2.79632568359375,-3.013153076171875,-0.6280517578125,1.0,1.0,1.0,1.0,1.0,95.0,event
14:22:33.578,0.17121187,0.76796585,0.91181034,0.21642879,1.0961045,0.7079405,0.09044669,1.1405573,1.057562,0.6988627,0.46280417,1.138735,0.95585257,1.1075054,0.61386,0.8789955,0.76895505,0.925475,0.54042834,0.67380035,793.7729,807.8755,806.26373,803.8461,794.17584,-0.33917236328125,0.1383056640625,0.92584228515625,2.79632568359375,-3.013153076171875,-0.6280517578125,1.0,1.0,1.0,1.0,1.0,95.0,event
14:22:33.579,0.17121187,0.76796585,0.91181034,0.21642879,1.0961045,0.7079405,0.09044669,1.1405573,1.057562,0.6988627,0.46280417,1.138735,0.95585257,1.1075054,0.61386,0.8789955,0.76895505,0.925475,0.54042834,0.67380035,792.1612,803.8461,799.81683,799.011,718.8278,-0.33917236328125,0.1383056640625,0.92584228515625,2.79632568359375,-3.013153076171875,-0.6280517578125,1.0,1.0,1.0,1.0,1.0,95.0,event
14:22:33.580,0.17121187,0.76796585,0.91181034,0.21642879,1.0961045,0.7079405,0.09044669,1.1405573,1.057562,0.6988627,0.46280417,1.138735,0.95585257,1.1075054,0.61386,0.8789955,0.76895505,0.925475,0.54042834,0.67380035,792.1612,802.23444,803.8461,803.0403,635.42126,-0.33917236328125,0.1383056640625,0.92584228515625,2.79632568359375,-3.013153076171875,-0.6280517578125,1.0,1.0,1.0,1.0,1.0,95.0,event
14:22:33.581,0.17121187,0.7453833,0.9354974,0.21642879,1.0961045,0.68778384,0.13008168,1.1405573,1.057562,0.7117284,0.4438572,1.138735,0.95585257,1.1018832,0.61395615,0.8789955,0.76895505,0.9283625,0.5464892,0.67380035,815.12823,817.9487,809.4872,810.696,836.08057,-0.33917236328125,0.1383056640625,0.92584228515625,2.79632568359375,-3.013153076171875,-0.6280517578125,1.0,1.0,1.0,1.0,1.0,95.0,event
14:22:33.581,0.17121187,0.76796585,0.91181034,0.21642879,1.0961045,0.7079405,0.09044669,1.1405573,1.057562,0.6988627,0.46280417,1.138735,0.95585257,1.1075054,0.61386,0.8789955,0.76895505,0.925475,0.54042834,0.67380035,801.4286,811.9048,814.3223,808.2784,684.17584,-0.33917236328125,0.1383056640625,0.92584228515625,2.79632568359375,-3.013153076171875,-0.6280517578125,1.0,1.0,1.0,1.0,1.0,95.0,event
14:22:33.586,0.17121187,0.7453833,0.9354974,0.21642879,1.0961045,0.68778384,0.13008168,1.1405573,1.057562,0.7117284,0.4438572,1.138735,0.95585257,1.1018832,0.61395615,0.8789955,0.76895505,0.9283625,0.5464892,0.67380035,807.47253,802.6374,803.0403,800.6227,838.0952,-0.33917236328125,0.1383056640625,0.92584228515625,2.79632568359375,-3.013153076171875,-0.6280517578125,1.0,1.0,1.0,1.0,1.0,95.0,event
14:22:33.586,0.17121187,0.7453833,0.9354974,0.21642879,1.0961045,0.68778384,0.13008168,1.1405573,1.057562,0.7117284,0.4438572,1.138735,0.95585257,1.1018832,0.61395615,0.8789955,0.76895505,0.9283625,0.5464892,0.67380035,800.2198,792.96704,800.2198,799.81683,737.76556,-0.33917236328125,0.1383056640625,0.92584228515625,2.79632568359375,-3.013153076171875,-0.6280517578125,1.0,1.0,1.0,1.0,1.0,95.0,event
14:22:33.587,0.17121187,0.7453833,0.9354974,0.21642879,1.0961045,0.68778384,0.13008168,1.1405573,1.057562,0.7117284,0.4438572,1.138735,0.95585257,1.1018832,0.61395615,0.8789955,0.76895505,0.9283625,0.5464892,0.67380035,805.4579,794.9817,795.78754,807.0696,803.44324,-0.33917236328125,0.1383056640625,0.92584228515625,2.79632568359375,-3.013153076171875,-0.6280517578125,1.0,1.0,1.0,1.0,1.0,95.0,event
14:22:33.588,0.17121187,0.7453833,0.9354974,0.21642879,1.0961045,0.68778384,0.13008168,1.1405573,1.057562,0.7117284,0.4438572,1.138735,0.95585257,1.1018832,0.61395615,0.8789955,0.76895505,0.9283625,0.5464892,0.67380035,815.5311,815.5311,796.1905,808.2784,1057.2894,-0.33917236328125,0.1383056640625,0.92584228515625,2.79632568359375,-3.013153076171875,-0.6280517578125,1.0,1.0,1.0,1.0,1.0,95.0,event
14:22:33.588,0.17121187,0.7453833,0.9354974,0.21642879,1.0961045,0.68778384,0.13008168,1.1405573,1.057562,0.7117284,0.4438572,1.138735,0.95585257,1.1018832,0.61395615,0.8789955,0.76895505,0.9283625,0.5464892,0.67380035,806.26373,822.381,796.99634,800.6227,919.4872,-0.33917236328125,0.1383056640625,0.92584228515625,2.79632568359375,-3.013153076171875,-0.6280517578125,1.0,1.0,1.0,1.0,1.0,95.0,event
14:22:33.589,0.17121187,0.7453833,0.9354974,0.21642879,1.0961045,0.68778384,0.13008168,1.1405573,1.057562,0.7117284,0.4438572,1.138735,0.95585257,1.1018832,0.61395615,0.8789955,0.76895505,0.9283625,0.5464892,0.67380035,788.5348,804.65204,794.17584,790.14655,648.315,-0.33917236328125,0.1383056640625,0.92584228515625,2.79632568359375,-3.013153076171875,-0.6280517578125,1.0,1.0,1.0,1.0,1.0,95.0,event
14:22:33.614,0.17121187,0.7453833,0.9354974,0.21642879,1.0961045,0.68778384,0.13008168,1.1405573,1.057562,0.7117284,0.4438572,1.138735,0.95585257,1.1018832,0.61395615,0.8789955,0.76895505,0.9283625,0.5464892,0.67380035,796.5934,797.3993,787.326,794.17584,682.96704,-0.33306884765625,0.141357421875,0.9112548828125,2.818756103515625,-5.570220947265625,-1.218719482421875,1.0,1.0,1.0,1.0,1.0,95.0,event
14:22:33.615,0.17121187,0.7453833,0.9354974,0.21642879,1.0961045,0.68778384,0.13008168,1.1405573,1.057562,0.7117284,0.4438572,1.138735,0.95585257,1.1018832,0.61395615,0.8789955,0.76895505,0.9283625,0.5464892,0.67380035,808.68134,803.0403,785.7143,801.8315,748.6447,-0.33306884765625,0.141357421875,0.9112548828125,2.818756103515625,-5.570220947265625,-1.218719482421875,1.0,1.0,1.0,1.0,1.0,95.0,event
14:22:33.616,0.17121187,0.7453833,0.9354974,0.21642879,1.0961045,0.68778384,0.13008168,1.1405573,1.057562,0.7117284,0.4438572,1.138735,0.95585257,1.1018832,0.61395615,0.8789955,0.76895505,0.9283625,0.5464892,0.67380035,798.60803,797.3993,794.17584,796.1905,701.0989,-0.33306884765625,0.141357421875,0.9112548828125,2.818756103515625,-5.570220947265625,-1.218719482421875,1.0,1.0,1.0,1.0,1.0,95.0,event
14:22:33.617,0.17121187,0.7453833,0.9354974,0.21642879,1.0961045,0.68778384,0.13008168,1.1405573,1.057562,0.7117284,0.4438572,1.138735,0.95585257,1.1018832,0.61395615,0.8789955,0.76895505,0.9283625,0.5464892,0.67380035,788.1319,793.36993,801.8315,797.8022,635.42126,-0.33306884765625,0.141357421875,0.9112548828125,2.818756103515625,-5.570220947265625,-1.218719482421875,1.0,1.0,1.0,1.0,1.0,95.0,event
14:22:33.618,0.17121187,0.7453833,0.9354974,0.21642879,1.0961045,0.68778384,0.13008168,1.1405573,1.057562,0.7117284,0.4438572,1.138735,0.95585257,1.1018832,0.61395615,0.8789955,0.76895505,0.9283625,0.5464892,0.67380035,790.9524,813.1135,807.0696,802.23444,716.0073,-0.33306884765625,0.141357421875,0.9112548828125,2.818756103515625,-5.570220947265625,-1.218719482421875,1.0,1.0,1.0,1.0,1.0,95.0,event
14:22:33.618,0.17121187,0.7453833,0.9354974,0.21642879,1.0961045,0.68778384,0.13008168,1.1405573,1.057562,0.7117284,0.4438572,1.138735,0.95585257,1.1018832,0.61395615,0.8789955,0.76895505,0.9283625,0.5464892,0.67380035,802.6374,810.293,807.0696,805.05493,817.1429,-0.33306884765625,0.141357421875,0.9112548828125,2.818756103515625,-5.570220947265625,-1.218719482421875,1.0,1.0,1.0,1.0,1.0,95.0,event
14:22:33.619,0.17121187,0.7453833,0.9354974,0.21642879,1.0961045,0.68778384,0.13008168,1.1405573,1.057562,0.7117284,0.4438572,1.138735,0.95585257,1.1018832,0.61395615,0.8789955,0.76895505,0.9283625,0.5464892,0.67380035,804.65204,799.011,796.1905,808.68134,814.7253,-0.33306884765625,0.141357421875,0.9112548828125,2.818756103515625,-5.570220947265625,-1.218719482421875,1.0,1.0,1.0,1.0,1.0,95.0,event
14:22:33.620,0.17121187,0.7453833,0.9354974,0.21642879,1.0961045,0.68778384,0.13008168,1.1405573,1.057562,0.7117284,0.4438572,1.138735,0.95585257,1.1018832,0.61395615,0.8789955,0.76895505,0.9283625,0.5464892,0.67380035,808.68134,792.96704,799.81683,805.8608,768.3883,-0.33306884765625,0.141357421875,0.9112548828125,2.818756103515625,-5.570220947265625,-1.218719482421875,1.0,1.0,1.0,1.0,1.0,95.0,event
14:22:33.621,0.17121187,0.7453833,0.9354974,0.21642879,1.0961045,0.68778384,0.13008168,1.1405573,1.057562,0.7117284,0.4438572,1.138735,0.95585257,1.1018832,0.61395615,0.8789955,0.76895505,0.9283625,0.5464892,0.67380035,811.50183,773.22345,808.68134,816.7399,880.0,-0.33306884765625,0.141357421875,0.9112548828125,2.818756103515625,-5.570220947265625,-1.218719482421875,1.0,1.0,1.0,1.0,1.0,95.0,event
14:22:33.622,0.17121187,0.7453833,0.9354974,0.21642879,1.0961045,0.68778384,0.13008168,1.1405573,1.057562,0.7117284,0.4438572,1.138735,0.95585257,1.1018832,0.61395615,0.8789955,0.76895505,0.9283625,0.5464892,0.67380035,800.6227,782.8938,813.5165,819.5604,987.1795,-0.33306884765625,0.141357421875,0.9112548828125,2.818756103515625,-5.570220947265625,-1.218719482421875,1.0,1.0,1.0,1.0,1.0,95.0,event
14:22:33.622,0.17121187,0.7453833,0.9354974,0.21642879,1.0961045,0.68778384,0.13008168,1.1405573,1.057562,0.7117284,0.4438572,1.138735,0.95585257,1.1018832,0.61395615,0.8789955,0.76895505,0.9283625,0.5464892,0.67380035,795.38464,819.9634,799.81683,800.2198,770.80585,-0.33306884765625,0.141357421875,0.9112548828125,2.818756103515625,-5.570220947265625,-1.218719482421875,1.0,1.0,1.0,1.0,1.0,95.0,event
14:22:33.623,0.17121187,0.7453833,0.9354974,0.21642879,1.0961045,0.68778384,0.13008168,1.1405573,1.057562,0.7117284,0.4438572,1.138735,0.95585257,1.1018832,0.61395615,0.8789955,0.76895505,0.9283625,0.5464892,0.67380035,796.5934,826.0073,776.04395,786.9231,726.4835,-0.33306884765625,0.141357421875,0.9112548828125,2.818756103515625,-5.570220947265625,-1.218719482421875,1.0,1.0,1.0,1.0,1.0,95.0,event
14:22:33.657,0.17121187,0.7453833,0.9354974,0.21642879,1.0961045,0.68778384,0.13008168,1.1405573,1.057562,0.7117284,0.4438572,1.138735,0.95585257,1.1018832,0.61395615,0.8789955,0.76895505,0.9283625,0.5464892,0.67380035,808.2784,821.978,781.28204,786.52014,895.31134,-0.325439453125,0.13958740234375,0.9296875,2.25799560546875,-4.47113037109375,0.01495361328125,1.0,1.0,1.0,1.0,1.0,95.0,event
14:22:33.658,0.17121187,0.7453833,0.9354974,0.21642879,1.0961045,0.68778384,0.13008168,1.1405573,1.057562,0.7117284,0.4438572,1.138735,0.95585257,1.1018832,0.61395615,0.8789955,0.76895505,0.9283625,0.5464892,0.67380035,806.6667,816.337,801.4286,790.14655,901.3553,-0.325439453125,0.13958740234375,0.9296875,2.25799560546875,-4.47113037109375,0.01495361328125,1.0,1.0,1.0,1.0,1.0,95.0,event
14:22:33.659,0.17121187,0.7453833,0.9354974,0.21642879,1.0961045,0.68778384,0.13008168,1.1405573,1.057562,0.7117284,0.4438572,1.138735,0.95585257,1.1018832,0.61395615,0.8789955,0.76895505,0.9283625,0.5464892,0.67380035,794.9817,813.91943,801.4286,797.3993,790.54944,-0.325439453125,0.13958740234375,0.9296875,2.25799560546875,-4.47113037109375,0.01495361328125,1.0,1.0,1.0,1.0,1.0,95.0,event
14:22:33.660,0.17121187,0.7453833,0.9354974,0.21642879,1.0961045,0.68778384,0.13008168,1.1405573,1.057562,0.7117284,0.4438572,1.138735,0.95585257,1.1018832,0.61395615,0.8789955,0.76895505,0.9283625,0.5464892,0.67380035,802.6374,815.9341,803.0403,812.3077,750.2564,-0.325439453125,0.13958740234375,0.9296875,2.25799560546875,-4.47113037109375,0.01495361328125,1.0,1.0,1.0,1.0,1.0,95.0,event
14:22:33.661,0.17121187,0.7453833,0.9354974,0.21642879,1.0961045,0.68778384,0.13008168,1.1405573,1.057562,0.7117284,0.4438572,1.138735,0.95585257,1.1018832,0.61395615,0.8789955,0.76895505,0.9283625,0.5464892,0.67380035,812.3077,810.696,803.0403,817.1429,793.7729,-0.325439453125,0.13958740234375,0.9296875,2.25799560546875,-4.47113037109375,0.01495361328125,1.0,1.0,1.0,1.0,1.0,95.0,event
14:22:33.661,0.17121187,0.7453833,0.9354974,0.21642879,1.0961045,0.68778384,0.13008168,1.1405573,1.057562,0.7117284,0.4438572,1.138735,0.95585257,1.1018832,0.61395615,0.8789955,0.76895505,0.9283625,0.5464892,0.67380035,800.2198,801.8315,794.17584,803.8461,872.3443,-0.325439453125,0.13958740234375,0.9296875,2.25799560546875,-4.47113037109375,0.01495361328125,1.0,1.0,1.0,1.0,1.0,95.0,event
14:22:33.662,0.17121187,0.7453833,0.9354974,0.21642879,1.0961045,0.68778384,0.13008168,1.1405573,1.057562,0.7117284,0.4438572,1.138735,0.95585257,1.1018832,0.61395615,0.8789955,0.76895505,0.9283625,0.5464892,0.67380035,802.6374,791.75824,791.3553,801.02563,828.8278,-0.325439453125,0.13958740234375,0.9296875,2.25799560546875,-4.47113037109375,0.01495361328125,1.0,1.0,1.0,1.0,1.0,95.0,event
14:22:33.662,0.17121187,0.71398365,0.94784915,0.21642879,1.0961045,0.64895797,0.14901185,1.1405573,1.057562,0.7057287,0.4269208,1.138735,0.95585257,1.0909708,0.62745434,0.8789955,0.76895505,0.92927766,0.55118996,0.67380035,807.0696,784.5055,794.17584,802.6374,805.4579,-0.325439453125,0.13958740234375,0.9296875,2.25799560546875,-4.47113037109375,0.01495361328125,1.0,1.0,1.0,1.0,1.0,95.0,event
14:22:33.666,0.17121187,0.71398365,0.94784915,0.21642879,1.0961045,0.64895797,0.14901185,1.1405573,1.057562,0.7057287,0.4269208,1.138735,0.95585257,1.0909708,0.62745434,0.8789955,0.76895505,0.92927766,0.55118996,0.67380035,804.65204,779.2674,805.8608,815.12823,1029.0842,-0.325439453125,0.13958740234375,0.9296875,2.25799560546875,-4.47113037109375,0.01495361328125,1.0,1.0,1.0,1.0,1.0,95.0,event
14:22:33.667,0.17121187,0.71398365,0.94784915,0.21642879,1.0961045,0.64895797,0.14901185,1.1405573,1.057562,0.7057287,0.4269208,1.138735,0.95585257,1.0909708,0.62745434,0.8789955,0.76895505,0.92927766,0.55118996,0.67380035,806.26373,774.43225,806.26373,819.15753,910.6227,-0.325439453125,0.13958740234375,0.9296875,2.25799560546875,-4.47113037109375,0.01495361328125,1.0,1.0,1.0,1.0,1.0,95.0,event
14:22:33.668,0.17121187,0.71398365,0.94784915,0.21642879,1.0961045,0.64895797,0.14901185,1.1405573,1.057562,0.7057287,0.4269208,1.138735,0.95585257,1.0909708,0.62745434,0.8789955,0.76895505,0.92927766,0.55118996,0.67380035,802.23444,811.9048,793.36993,804.65204,745.82416,-0.325439453125,0.13958740234375,0.9296875,2.25799560546875,-4.47113037109375,0.01495361328125,1.0,1.0,1.0,1.0,1.0,95.0,event
14:22:33.668,0.17121187,0.71398365,0.94784915,0.21642879,1.0961045,0.64895797,0.14901185,1.1405573,1.057562,0.7057287,0.4269208,1.138735,0.95585257,1.0909708,0.62745434,0.8789955,0.76895505,0.92927766,0.55118996,0.67380035,798.60803,786.9231,790.9524,799.81683,716.0073,-0.325439453125,0.13958740234375,0.9296875,2.25799560546875,-4.47113037109375,0.01495361328125,1.0,1.0,1.0,1.0,1.0,95.0,event
14:22:33.705,0.17121187,0.71398365,0.94784915,0.21642879,1.0961045,0.64895797,0.14901185,1.1405573,1.057562,0.7057287,0.4269208,1.138735,0.95585257,1.0909708,0.62745434,0.8789955,0.76895505,0.92927766,0.55118996,0.67380035,809.4872,810.696,807.47253,812.3077,709.9634,-0.325439453125,0.13958740234375,0.9296875,2.25799560546875,-4.47113037109375,0.01495361328125,1.0,1.0,1.0,1.0,1.0,95.0,event
14:22:33.706,0.17121187,0.71398365,0.94784915,0.21642879,1.0961045,0.64895797,0.14901185,1.1405573,1.057562,0.7057287,0.4269208,1.138735,0.95585257,1.0909708,0.62745434,0.8789955,0.76895505,0.92927766,0.55118996,0.67380035,810.696,818.3516,802.23444,807.0696,703.1135,-0.325439453125,0.13958740234375,0.9296875,2.25799560546875,-4.47113037109375,0.01495361328125,1.0,1.0,1.0,1.0,1.0,95.0,event
14:22:33.707,0.17121187,0.71398365,0.94784915,0.21642879,1.0961045,0.64895797,0.14901185,1.1405573,1.057562,0.7057287,0.4269208,1.138735,0.95585257,1.0909708,0.62745434,0.8789955,0.76895505,0.92927766,0.55118996,0.67380035,817.5458,828.4249,812.3077,815.12823,719.2308,-0.325439453125,0.13958740234375,0.9296875,2.25799560546875,-4.47113037109375,0.01495361328125,1.0,1.0,1.0,1.0,1.0,95.0,event
14:22:33.707,0.17121187,0.71398365,0.94784915,0.21642879,1.0961045,0.64895797,0.14901185,1.1405573,1.057562,0.7057287,0.4269208,1.138735,0.95585257,1.0909708,0.62745434,0.8789955,0.76895505,0.92927766,0.55118996,0.67380035,809.0842,800.6227,815.12823,818.3516,784.90845,-0.325439453125,0.13958740234375,0.9296875,2.25799560546875,-4.47113037109375,0.01495361328125,1.0,1.0,1.0,1.0,1.0,95.0,event
14:22:33.708,0.17121187,0.71398365,0.94784915,0.21642879,1.0961045,0.64895797,0.14901185,1.1405573,1.057562,0.7057287,0.4269208,1.138735,0.95585257,1.0909708,0.62745434,0.8789955,0.76895505,0.92927766,0.55118996,0.67380035,803.8461,793.7729,800.6227,808.68134,844.94507,-0.325439453125,0.13958740234375,0.9296875,2.25799560546875,-4.47113037109375,0.01495361328125,1.0,1.0,1.0,1.0,1.0,95.0,event
14:22:33.708,0.17121187,0.71398365,0.94784915,0.21642879,1.0961045,0.64895797,0.14901185,1.1405573,1.057562,0.7057287,0.4269208,1.138735,0.95585257,1.0909708,0.62745434,0.8789955,0.76895505,0.92927766,0.55118996,0.67380035,808.2784,796.5934,802.23444,804.65204,875.9707,-0.325439453125,0.13958740234375,0.9296875,2.25799560546875,-4.47113037109375,0.01495361328125,1.0,1.0,1.0,1.0,1.0,95.0,event
14:22:33.709,0.17121187,0.71398365,0.94784915,0.21642879,1.0961045,0.64895797,0.14901185,1.1405573,1.057562,0.7057287,0.4269208,1.138735,0.95585257,1.0909708,0.62745434,0.8789955,0.76895505,0.92927766,0.55118996,0.67380035,810.696,796.1905,804.2491,805.8608,893.69965,-0.325439453125,0.13958740234375,0.9296875,2.25799560546875,-4.47113037109375,0.01495361328125,1.0,1.0,1.0,1.0,1.0,95.0,event
14:22:33.709,0.17121187,0.71398365,0.94784915,0.21642879,1.0961045,0.64895797,0.14901185,1.1405573,1.057562,0.7057287,0.4269208,1.138735,0.95585257,1.0909708,0.62745434,0.8789955,0.76895505,0.92927766,0.55118996,0.67380035,807.8755,801.4286,795.38464,806.26373,844.94507,-0.325439453125,0.13958740234375,0.9296875,2.25799560546875,-4.47113037109375,0.01495361328125,1.0,1.0,1.0,1.0,1.0,95.0,event
14:22:33.710,0.17121187,0.71398365,0.94784915,0.21642879,1.0961045,0.64895797,0.14901185,1.1405573,1.057562,0.7057287,0.4269208,1.138735,0.95585257,1.0909708,0.62745434,0.8789955,0.76895505,0.92927766,0.55118996,0.67380035,802.23444,800.2198,805.4579,802.6374,891.28204,-0.325439453125,0.13958740234375,0.9296875,2.25799560546875,-4.47113037109375,0.01495361328125,1.0,1.0,1.0,1.0,1.0,95.0,event
14:22:33.710,0.17121187,0.71398365,0.94784915,0.21642879,1.0961045,0.64895797,0.14901185,1.1405573,1.057562,0.7057287,0.4269208,1.138735,0.95585257,1.0909708,0.62745434,0.8789955,0.76895505,0.92927766,0.55118996,0.67380035,796.99634,803.44324,802.6374,805.4579,743.8095,-0.325439453125,0.13958740234375,0.9296875,2.25799560546875,-4.47113037109375,0.01495361328125,1.0,1.0,1.0,1.0,1.0,95.0,event
14:22:33.711,0.17121187,0.71398365,0.94784915,0.21642879,1.0961045,0.64895797,0.14901185,1.1405573,1.057562,0.7057287,0.4269208,1.138735,0.95585257,1.0909708,0.62745434,0.8789955,0.76895505,0.92927766,0.55118996,0.67380035,802.23444,801.02563,797.3993,811.50183,697.47253,-0.325439453125,0.13958740234375,0.9296875,2.25799560546875,-4.47113037109375,0.01495361328125,1.0,1.0,1.0,1.0,1.0,95.0,event
14:22:33.711,0.17121187,0.71398365,0.94784915,0.21642879,1.0961045,0.64895797,0.14901185,1.1405573,1.057562,0.7057287,0.4269208,1.138735,0.95585257,1.0909708,0.62745434,0.8789955,0.76895505,0.92927766,0.55118996,0.67380035,812.71063,815.9341,807.47253,814.7253,786.52014,-0.325439453125,0.13958740234375,0.9296875,2.25799560546875,-4.47113037109375,0.01495361328125,1.0,1.0,1.0,1.0,1.0,95.0,event
14:22:33.777,0.17121187,0.71398365,0.94784915,0.21642879,1.0961045,0.64895797,0.14901185,1.1405573,1.057562,0.7057287,0.4269208,1.138735,0.95585257,1.0909708,0.62745434,0.8789955,0.76895505,0.92927766,0.55118996,0.67380035,811.0989,822.381,809.89014,821.5751,770.80585,-0.31866455078125,0.13983154296875,0.9266357421875,1.951446533203125,-3.5888671875,1.143951416015625,1.0,1.0,1.0,1.0,1.0,95.0,event
14:22:33.778,0.17121187,0.71398365,0.94784915,0.21642879,1.0961045,0.64895797,0.14901185,1.1405573,1.057562,0.7057287,0.4269208,1.138735,0.95585257,1.0909708,0.62745434,0.8789955,0.76895505,0.92927766,0.55118996,0.67380035,800.6227,805.05493,808.2784,805.4579,696.6667,-0.31866455078125,0.13983154296875,0.9266357421875,1.951446533203125,-3.5888671875,1.143951416015625,1.0,1.0,1.0,1.0,1.0,95.0,event
14:22:33.779,0.17121187,0.71398365,0.94784915,0.21642879,1.0961045,0.64895797,0.14901185,1.1405573,1.057562,0.7057287,0.4269208,1.138735,0.95585257,1.0909708,0.62745434,0.8789955,0.76895505,0.92927766,0.55118996,0.67380035,795.78754,803.8461,801.4286,791.3553,728.0952,-0.31866455078125,0.13983154296875,0.9266357421875,1.951446533203125,-3.5888671875,1.143951416015625,1.0,1.0,1.0,1.0,1.0,95.0,event
14:22:33.780,0.17121187,0.71398365,0.94784915,0.21642879,1.0961045,0.64895797,0.14901185,1.1405573,1.057562,0.7057287,0.4269208,1.138735,0.95585257,1.0909708,0.62745434,0.8789955,0.76895505,0.92927766,0.55118996,0.67380035,804.2491,801.02563,806.26373,799.011,821.978,-0.31866455078125,0.13983154296875,0.9266357421875,1.951446533203125,-3.5888671875,1.143951416015625,1.0,1.0,1.0,1.0,1.0,95.0,event
14:22:33.781,0.17121187,0.71398365,0.94784915,0.21642879,1.0961045,0.64895797,0.14901185,1.1405573,1.057562,0.7057287,0.4269208,1.138735,0.95585257,1.0909708,0.62745434,0.8789955,0.76895505,0.92927766,0.55118996,0.67380035,810.696,805.8608,800.6227,796.99634,761.9414,-0.31866455078125,0.13983154296875,0.9266357421875,1.951446533203125,-3.5888671875,1.143951416015625,1.0,1.0,1.0,1.0,1.0,95.0,event
14:22:33.781,0.17121187,0.71398365,0.94784915,0.21642879,1.0961045,0.64895797,0.14901185,1.1405573,1.057562,0.7057287,0.4269208,1.138735,0.95585257,1.0909708,0.62745434,0.8789955,0.76895505,0.92927766,0.55118996,0.67380035,799.81683,810.696,783.2967,790.9524,739.7802,-0.31866455078125,0.13983154296875,0.9266357421875,1.951446533203125,-3.5888671875,1.143951416015625,1.0,1.0,1.0,1.0,1.0,95.0,event
14:22:33.782,0.17121187,0.71398365,0.94784915,0.21642879,1.0961045,0.64895797,0.14901185,1.1405573,1.057562,0.7057287,0.4269208,1.138735,0.95585257,1.0909708,0.62745434,0.8789955,0.76895505,0.92927766,0.55118996,0.67380035,792.1612,808.2784,790.54944,785.7143,860.65936,-0.31866455078125,0.13983154296875,0.9266357421875,1.951446533203125,-3.5888671875,1.143951416015625,1.0,1.0,1.0,1.0,1.0,95.0,event
14:22:33.783,0.17121187,0.71398365,0.94784915,0.21642879,1.0961045,0.64895797,0.14901185,1.1405573,1.057562,0.7057287,0.4269208,1.138735,0.95585257,1.0909708,0.62745434,0.8789955,0.76895505,0.92927766,0.55118996,0.67380035,796.99634,809.0842,800.2198,785.31134,1145.5311,-0.31866455078125,0.13983154296875,0.9266357421875,1.951446533203125,-3.5888671875,1.143951416015625,1.0,1.0,1.0,1.0,1.0,95.0,event
14:22:33.784,0.17121187,0.71398365,0.94784915,0.21642879,1.0961045,0.64895797,0.14901185,1.1405573,1.057562,0.7057287,0.4269208,1.138735,0.95585257,1.0909708,0.62745434,0.8789955,0.76895505,0.92927766,0.55118996,0.67380035,807.47253,805.8608,793.7729,787.72894,1050.0366,-0.31866455078125,0.13983154296875,0.9266357421875,1.951446533203125,-3.5888671875,1.143951416015625,1.0,1.0,1.0,1.0,1.0,95.0,event
14:22:33.784,0.17121187,0.6838052,0.95120865,0.21642879,1.0961045,0.60577565,0.15348826,1.1405573,1.057562,0.6933111,0.41877744,1.138735,0.95585257,1.0710425,0.6500126,0.8789955,0.76895505,0.92696404,0.5530903,0.67380035,801.02563,811.0989,797.3993,792.1612,727.6923,-0.31866455078125,0.13983154296875,0.9266357421875,1.951446533203125,-3.5888671875,1.143951416015625,1.0,1.0,1.0,1.0,1.0,95.0,event
14:22:33.789,0.17121187,0.6838052,0.95120865,0.21642879,1.0961045,0.60577565,0.15348826,1.1405573,1.057562,0.6933111,0.41877744,1.138735,0.95585257,1.0710425,0.6500126,0.8789955,0.76895505,0.92696404,0.5530903,0.67380035,788.93774,809.4872,789.34064,801.4286,703.91943,-0.31866455078125,0.13983154296875,0.9266357421875,1.951446533203125,-3.5888671875,1.143951416015625,1.0,1.0,1.0,1.0,1.0,95.0,event
14:22:33.790,0.17121187,0.6838052,0.95120865,0.21642879,1.0961045,0.60577565,0.15348826,1.1405573,1.057562,0.6933111,0.41877744,1.138735,0.95585257,1.0710425,0.6500126,0.8789955,0.76895505,0.92696404,0.5530903,0.67380035,795.78754,805.8608,780.87915,805.05493,719.2308,-0.31866455078125,0.13983154296875,0.9266357421875,1.951446533203125,-3.5888671875,1.143951416015625,1.0,1.0,1.0,1.0,1.0,95.0,event
14:22:33.818,0.17121187,0.6838052,0.95120865,0.21642879,1.0961045,0.60577565,0.15348826,1.1405573,1.057562,0.6933111,0.41877744,1.138735,0.95585257,1.0710425,0.6500126,0.8789955,0.76895505,0.92696404,0.5530903,0.67380035,792.1612,807.0696,801.02563,801.8315,688.20514,-0.34033203125,0.14068603515625,0.92449951171875,1.86920166015625,-2.55706787109375,0.5682373046875,1.0,1.0,1.0,1.0,1.0,95.0,event
14:22:33.819,0.17121187,0.6838052,0.95120865,0.21642879,1.0961045,0.60577565,0.15348826,1.1405573,1.057562,0.6933111,0.41877744,1.138735,0.95585257,1.0710425,0.6500126,0.8789955,0.76895505,0.92696404,0.5530903,0.67380035,775.2381,791.75824,807.0696,787.72894,661.6117,-0.34033203125,0.14068603515625,0.92449951171875,1.86920166015625,-2.55706787109375,0.5682373046875,1.0,1.0,1.0,1.0,1.0,95.0,event
14:22:33.819,0.17121187,0.6838052,0.95120865,0.21642879,1.0961045,0.60577565,0.15348826,1.1405573,1.057562,0.6933111,0.41877744,1.138735,0.95585257,1.0710425,0.6500126,0.8789955,0.76895505,0.92696404,0.5530903,0.67380035,787.326,792.5641,803.0403,789.7436,710.3663,-0.34033203125,0.14068603515625,0.92449951171875,1.86920166015625,-2.55706787109375,0.5682373046875,1.0,1.0,1.0,1.0,1.0,95.0,event
14:22:33.820,0.17121187,0.6838052,0.95120865,0.21642879,1.0961045,0.60577565,0.15348826,1.1405573,1.057562,0.6933111,0.41877744,1.138735,0.95585257,1.0710425,0.6500126,0.8789955,0.76895505,0.92696404,0.5530903,0.67380035,805.4579,797.3993,799.41394,798.60803,733.73627,-0.34033203125,0.14068603515625,0.92449951171875,1.86920166015625,-2.55706787109375,0.5682373046875,1.0,1.0,1.0,1.0,1.0,95.0,event
14:22:33.821,0.17121187,0.6838052,0.95120865,0.21642879,1.0961045,0.60577565,0.15348826,1.1405573,1.057562,0.6933111,0.41877744,1.138735,0.95585257,1.0710425,0.6500126,0.8789955,0.76895505,0.92696404,0.5530903,0.67380035,808.68134,803.0403,800.2198,796.1905,691.4286,-0.34033203125,0.14068603515625,0.92449951171875,1.86920166015625,-2.55706787109375,0.5682373046875,1.0,1.0,1.0,1.0,1.0,95.0,event
14:22:33.821,0.17121187,0.6838052,0.95120865,0.21642879,1.0961045,0.60577565,0.15348826,1.1405573,1.057562,0.6933111,0.41877744,1.138735,0.95585257,1.0710425,0.6500126,0.8789955,0.76895505,0.92696404,0.5530903,0.67380035,809.4872,797.3993,791.75824,794.57874,678.5348,-0.34033203125,0.14068603515625,0.92449951171875,1.86920166015625,-2.55706787109375,0.5682373046875,1.0,1.0,1.0,1.0,1.0,95.0,event
14:22:33.822,0.17121187,0.6838052,0.95120865,0.21642879,1.0961045,0.60577565,0.15348826,1.1405573,1.057562,0.6933111,0.41877744,1.138735,0.95585257,1.0710425,0.6500126,0.8789955,0.76895505,0.92696404,0.5530903,0.67380035,794.17584,790.9524,805.05493,794.57874,885.2381,-0.34033203125,0.14068603515625,0.92449951171875,1.86920166015625,-2.55706787109375,0.5682373046875,1.0,1.0,1.0,1.0,1.0,95.0,event
14:22:33.822,0.17121187,0.6838052,0.95120865,0.21642879,1.0961045,0.60577565,0.15348826,1.1405573,1.057562,0.6933111,0.41877744,1.138735,0.95585257,1.0710425,0.6500126,0.8789955,0.76895505,0.92696404,0.5530903,0.67380035,800.6227,797.8022,801.4286,800.2198,917.47253,-0.34033203125,0.14068603515625,0.92449951171875,1.86920166015625,-2.55706787109375,0.5682373046875,1.0,1.0,1.0,1.0,1.0,95.0,event
14:22:33.823,0.17121187,0.6838052,0.95120865,0.21642879,1.0961045,0.60577565,0.15348826,1.1405573,1.057562,0.6933111,0.41877744,1.138735,0.95585257,1.0710425,0.6500126,0.8789955,0.76895505,0.92696404,0.5530903,0.67380035,808.2784,808.2784,794.17584,799.41394,792.1612,-0.34033203125,0.14068603515625,0.92449951171875,1.86920166015625,-2.55706787109375,0.5682373046875,1.0,1.0,1.0,1.0,1.0,95.0,event
14:22:33.823,0.17121187,0.6838052,0.95120865,0.21642879,1.0961045,0.60577565,0.15348826,1.1405573,1.057562,0.6933111,0.41877744,1.138735,0.95585257,1.0710425,0.6500126,0.8789955,0.76895505,0.92696404,0.5530903,0.67380035,801.02563,809.4872,790.54944,798.60803,753.8828,-0.34033203125,0.14068603515625,0.92449951171875,1.86920166015625,-2.55706787109375,0.5682373046875,1.0,1.0,1.0,1.0,1.0,95.0,event
14:22:33.824,0.17121187,0.6838052,0.95120865,0.21642879,1.0961045,0.60577565,0.15348826,1.1405573,1.057562,0.6933111,0.41877744,1.138735,0.95585257,1.0710425,0.6500126,0.8789955,0.76895505,0.92696404,0.5530903,0.67380035,803.8461,812.71063,796.5934,810.293,912.6374,-0.34033203125,0.14068603515625,0.92449951171875,1.86920166015625,-2.55706787109375,0.5682373046875,1.0,1.0,1.0,1.0,1.0,95.0,event
14:22:33.825,0.17121187,0.6838052,0.95120865,0.21642879,1.0961045,0.60577565,0.15348826,1.1405573,1.057562,0.6933111,0.41877744,1.138735,0.95585257,1.0710425,0.6500126,0.8789955,0.76895505,0.92696404,0.5530903,0.67380035,805.8608,820.7692,799.81683,817.5458,1056.8865,-0.34033203125,0.14068603515625,0.92449951171875,1.86920166015625,-2.55706787109375,0.5682373046875,1.0,1.0,1.0,1.0,1.0,95.0,event
14:22:33.854,0.17121187,0.6838052,0.95120865,0.21642879,1.0961045,0.60577565,0.15348826,1.1405573,1.057562,0.6933111,0.41877744,1.138735,0.95585257,1.0710425,0.6500126,0.8789955,0.76895505,0.92696404,0.5530903,0.67380035,802.6374,808.68134,796.99634,805.4579,805.05493,-0.32696533203125,0.1407470703125,0.9195556640625,2.392578125,-3.2000732421875,-1.2261962890625,1.0,1.0,1.0,1.0,1.0,95.0,event
14:22:33.855,0.17121187,0.6838052,0.95120865,0.21642879,1.0961045,0.60577565,0.15348826,1.1405573,1.057562,0.6933111,0.41877744,1.138735,0.95585257,1.0710425,0.6500126,0.8789955,0.76895505,0.92696404,0.5530903,0.67380035,803.44324,795.38464,801.8315,804.65204,730.5128,-0.32696533203125,0.1407470703125,0.9195556640625,2.392578125,-3.2000732421875,-1.2261962890625,1.0,1.0,1.0,1.0,1.0,95.0,event
14:22:33.856,0.17121187,0.6838052,0.95120865,0.21642879,1.0961045,0.60577565,0.15348826,1.1405573,1.057562,0.6933111,0.41877744,1.138735,0.95585257,1.0710425,0.6500126,0.8789955,0.76895505,0.92696404,0.5530903,0.67380035,809.0842,799.011,796.5934,819.9634,818.7546,-0.32696533203125,0.1407470703125,0.9195556640625,2.392578125,-3.2000732421875,-1.2261962890625,1.0,1.0,1.0,1.0,1.0,95.0,event
14:22:33.857,0.17121187,0.6838052,0.95120865,0.21642879,1.0961045,0.60577565,0.15348826,1.1405573,1.057562,0.6933111,0.41877744,1.138735,0.95585257,1.0710425,0.6500126,0.8789955,0.76895505,0.92696404,0.5530903,0.67380035,815.5311,803.8461,788.1319,828.8278,766.3736,-0.32696533203125,0.1407470703125,0.9195556640625,2.392578125,-3.2000732421875,-1.2261962890625,1.0,1.0,1.0,1.0,1.0,95.0,event
14:22:33.859,0.17121187,0.6838052,0.95120865,0.21642879,1.0961045,0.60577565,0.15348826,1.1405573,1.057562,0.6933111,0.41877744,1.138735,0.95585257,1.0710425,0.6500126,0.8789955,0.76895505,0.92696404,0.5530903,0.67380035,821.5751,806.6667,806.26373,820.7692,715.6044,-0.32696533203125,0.1407470703125,0.9195556640625,2.392578125,-3.2000732421875,-1.2261962890625,1.0,1.0,1.0,1.0,1.0,95.0,event
14:22:33.859,0.17121187,0.6838052,0.95120865,0.21642879,1.0961045,0.60577565,0.15348826,1.1405573,1.057562,0.6933111,0.41877744,1.138735,0.95585257,1.0710425,0.6500126,0.8789955,0.76895505,0.92696404,0.5530903,0.67380035,818.3516,801.4286,811.50183,808.2784,864.68866,-0.32696533203125,0.1407470703125,0.9195556640625,2.392578125,-3.2000732421875,-1.2261962890625,1.0,1.0,1.0,1.0,1.0,95.0,event
14:22:33.860,0.17121187,0.6838052,0.95120865,0.21642879,1.0961045,0.60577565,0.15348826,1.1405573,1.057562,0.6933111,0.41877744,1.138735,0.95585257,1.0710425,0.6500126,0.8789955,0.76895505,0.92696404,0.5530903,0.67380035,802.23444,793.7729,801.02563,811.50183,1074.6154,-0.32696533203125,0.1407470703125,0.9195556640625,2.392578125,-3.2000732421875,-1.2261962890625,1.0,1.0,1.0,1.0,1.0,95.0,event
14:22:33.861,0.17121187,0.6838052,0.95120865,0.21642879,1.0961045,0.60577565,0.15348826,1.1405573,1.057562,0.6933111,0.41877744,1.138735,0.95585257,1.0710425,0.6500126,0.8789955,0.76895505,0.92696404,0.5530903,0.67380035,799.81683,811.0989,808.2784,813.1135,666.8498,-0.32696533203125,0.1407470703125,0.9195556640625,2.392578125,-3.2000732421875,-1.2261962890625,1.0,1.0,1.0,1.0,1.0,95.0,event
14:22:33.861,0.17121187,0.6838052,0.95120865,0.21642879,1.0961045,0.60577565,0.15348826,1.1405573,1.057562,0.6933111,0.41877744,1.138735,0.95585257,1.0710425,0.6500126,0.8789955,0.76895505,0.92696404,0.5530903,0.67380035,803.44324,803.0403,804.2491,817.9487,906.5934,-0.32696533203125,0.1407470703125,0.9195556640625,2.392578125,-3.2000732421875,-1.2261962890625,1.0,1.0,1.0,1.0,1.0,95.0,event
14:22:33.862,0.17121187,0.6838052,0.95120865,0.21642879,1.0961045,0.60577565,0.15348826,1.1405573,1.057562,0.6933111,0.41877744,1.138735,0.95585257,1.0710425,0.6500126,0.8789955,0.76895505,0.92696404,0.5530903,0.67380035,801.4286,809.89014,808.2784,810.293,728.9011,-0.32696533203125,0.1407470703125,0.9195556640625,2.392578125,-3.2000732421875,-1.2261962890625,1.0,1.0,1.0,1.0,1.0,95.0,event
14:22:33.863,0.17121187,0.6838052,0.95120865,0.21642879,1.0961045,0.60577565,0.15348826,1.1405573,1.057562,0.6933111,0.41877744,1.138735,0.95585257,1.0710425,0.6500126,0.8789955,0.76895505,0.92696404,0.5530903,0.67380035,819.15753,797.8022,803.44324,821.5751,840.9158,-0.32696533203125,0.1407470703125,0.9195556640625,2.392578125,-3.2000732421875,-1.2261962890625,1.0,1.0,1.0,1.0,1.0,95.0,event
14:22:33.864,0.17121187,0.66783625,0.94886625,0.21642879,1.0961045,0.57247436,0.15402113,1.1405573,1.057562,0.6806626,0.41757834,1.138735,0.95585257,1.0449386,0.67375153,0.8789955,0.76895505,0.9208126,0.55247736,0.67380035,832.4542,788.5348,796.1905,823.5897,821.5751,-0.32696533203125,0.1407470703125,0.9195556640625,2.392578125,-3.2000732421875,-1.2261962890625,1.0,1.0,1.0,1.0,1.0,95.0,event
14:22:33.922,0.17121187,0.66783625,0.94886625,0.21642879,1.0961045,0.57247436,0.15402113,1.1405573,1.057562,0.6806626,0.41757834,1.138735,0.95585257,1.0449386,0.67375153,0.8789955,0.76895505,0.9208126,0.55247736,0.67380035,837.6923,792.1612,800.2198,826.4103,794.57874,-0.329833984375,0.142578125,0.9244384765625,2.100982666015625,-3.050537109375,0.276641845703125,1.0,1.0,1.0,1.0,1.0,95.0,event
14:22:33.924,0.17121187,0.66783625,0.94886625,0.21642879,1.0961045,0.57247436,0.15402113,1.1405573,1.057562,0.6806626,0.41757834,1.138735,0.95585257,1.0449386,0.67375153,0.8789955,0.76895505,0.9208126,0.55247736,0.67380035,826.8132,802.23444,788.93774,829.6337,795.78754,-0.329833984375,0.142578125,0.9244384765625,2.100982666015625,-3.050537109375,0.276641845703125,1.0,1.0,1.0,1.0,1.0,95.0,event
14:22:33.924,0.17121187,0.66783625,0.94886625,0.21642879,1.0961045,0.57247436,0.15402113,1.1405573,1.057562,0.6806626,0.41757834,1.138735,0.95585257,1.0449386,0.67375153,0.8789955,0.76895505,0.9208126,0.55247736,0.67380035,816.337,815.5311,767.1795,819.5604,825.2015,-0.329833984375,0.142578125,0.9244384765625,2.100982666015625,-3.050537109375,0.276641845703125,1.0,1.0,1.0,1.0,1.0,95.0,event
14:22:33.925,0.17121187,0.66783625,0.94886625,0.21642879,1.0961045,0.57247436,0.15402113,1.1405573,1.057562,0.6806626,0.41757834,1.138735,0.95585257,1.0449386,0.67375153,0.8789955,0.76895505,0.9208126,0.55247736,0.67380035,821.1722,815.5311,783.69965,812.71063,713.1868,-0.329833984375,0.142578125,0.9244384765625,2.100982666015625,-3.050537109375,0.276641845703125,1.0,1.0,1.0,1.0,1.0,95.0,event
14:22:33.926,0.17121187,0.66783625,0.94886625,0.21642879,1.0961045,0.57247436,0.15402113,1.1405573,1.057562,0.6806626,0.41757834,1.138735,0.95585257,1.0449386,0.67375153,0.8789955,0.76895505,0.9208126,0.55247736,0.67380035,811.50183,818.7546,802.23444,811.0989,701.0989,-0.329833984375,0.142578125,0.9244384765625,2.100982666015625,-3.050537109375,0.276641845703125,1.0,1.0,1.0,1.0,1.0,95.0,event
14:22:33.927,0.17121187,0.66783625,0.94886625,0.21642879,1.0961045,0.57247436,0.15402113,1.1405573,1.057562,0.6806626,0.41757834,1.138735,0.95585257,1.0449386,0.67375153,0.8789955,0.76895505,0.9208126,0.55247736,0.67380035,798.20514,825.2015,803.8461,804.65204,841.31866,-0.329833984375,0.142578125,0.9244384765625,2.100982666015625,-3.050537109375,0.276641845703125,1.0,1.0,1.0,1.0,1.0,95.0,event
14:22:33.927,0.17121187,0.66783625,0.94886625,0.21642879,1.0961045,0.57247436,0.15402113,1.1405573,1.057562,0.6806626,0.41757834,1.138735,0.95585257,1.0449386,0.67375153,0.8789955,0.76895505,0.9208126,0.55247736,0.67380035,803.0403,823.9927,810.293,806.6667,899.34064,-0.329833984375,0.142578125,0.9244384765625,2.100982666015625,-3.050537109375,0.276641845703125,1.0,1.0,1.0,1.0,1.0,95.0,event
14:22:33.928,0.17121187,0.66783625,0.94886625,0.21642879,1.0961045,0.57247436,0.15402113,1.1405573,1.057562,0.6806626,0.41757834,1.138735,0.95585257,1.0449386,0.67375153,0.8789955,0.76895505,0.9208126,0.55247736,0.67380035,801.02563,824.3956,814.7253,809.89014,802.23444,-0.329833984375,0.142578125,0.9244384765625,2.100982666015625,-3.050537109375,0.276641845703125,1.0,1.0,1.0,1.0,1.0,95.0,event
14:22:33.929,0.17121187,0.66783625,0.94886625,0.21642879,1.0961045,0.57247436,0.15402113,1.1405573,1.057562,0.6806626,0.41757834,1.138735,0.95585257,1.0449386,0.67375153,0.8789955,0.76895505,0.9208126,0.55247736,0.67380035,807.0696,787.72894,804.2491,815.9341,834.4689,-0.329833984375,0.142578125,0.9244384765625,2.100982666015625,-3.050537109375,0.276641845703125,1.0,1.0,1.0,1.0,1.0,95.0,event
14:22:33.929,0.17121187,0.66783625,0.94886625,0.21642879,1.0961045,0.57247436,0.15402113,1.1405573,1.057562,0.6806626,0.41757834,1.138735,0.95585257,1.0449386,0.67375153,0.8789955,0.76895505,0.9208126,0.55247736,0.67380035,803.0403,816.7399,810.293,809.4872,701.9048,-0.329833984375,0.142578125,0.9244384765625,2.100982666015625,-3.050537109375,0.276641845703125,1.0,1.0,1.0,1.0,1.0,95.0,event
14:22:33.930,0.17121187,0.66783625,0.94886625,0.21642879,1.0961045,0.57247436,0.15402113,1.1405573,1.057562,0.6806626,0.41757834,1.138735,0.95585257,1.0449386,0.67375153,0.8789955,0.76895505,0.9208126,0.55247736,0.67380035,808.2784,777.25275,804.65204,808.2784,992.8205,-0.329833984375,0.142578125,0.9244384765625,2.100982666015625,-3.050537109375,0.276641845703125,1.0,1.0,1.0,1.0,1.0,95.0,event
14:22:33.931,0.17121187,0.66783625,0.94886625,0.21642879,1.0961045,0.57247436,0.15402113,1.1405573,1.057562,0.6806626,0.41757834,1.138735,0.95585257,1.0449386,0.67375153,0.8789955,0.76895505,0.9208126,0.55247736,0.67380035,805.05493,790.14655,803.8461,802.23444,783.69965,-0.329833984375,0.142578125,0.9244384765625,2.100982666015625,-3.050537109375,0.276641845703125,1.0,1.0,1.0,1.0,1.0,95.0,event
14:22:33.955,0.17121187,0.66783625,0.94886625,0.21642879,1.0961045,0.57247436,0.15402113,1.1405573,1.057562,0.6806626,0.41757834,1.138735,0.95585257,1.0449386,0.67375153,0.8789955,0.76895505,0.9208126,0.55247736,0.67380035,805.8608,797.3993,792.5641,815.5311,668.46155,-0.329833984375,0.142578125,0.9244384765625,2.100982666015625,-3.050537109375,0.276641845703125,1.0,1.0,1.0,1.0,1.0,95.0,event
14:22:33.956,0.17121187,0.66783625,0.94886625,0.21642879,1.0961045,0.57247436,0.15402113,1.1405573,1.057562,0.6806626,0.41757834,1.138735,0.95585257,1.0449386,0.67375153,0.8789955,0.76895505,0.9208126,0.55247736,0.67380035,808.68134,798.20514,790.9524,816.7399,747.8388,-0.329833984375,0.142578125,0.9244384765625,2.100982666015625,-3.050537109375,0.276641845703125,1.0,1.0,1.0,1.0,1.0,95.0,event
14:22:33.957,0.17121187,0.66783625,0.94886625,0.21642879,1.0961045,0.57247436,0.15402113,1.1405573,1.057562,0.6806626,0.41757834,1.138735,0.95585257,1.0449386,0.67375153,0.8789955,0.76895505,0.9208126,0.55247736,0.67380035,807.0696,789.7436,807.8755,815.12823,842.52747,-0.329833984375,0.142578125,0.9244384765625,2.100982666015625,-3.050537109375,0.276641845703125,1.0,1.0,1.0,1.0,1.0,95.0,event
14:22:33.957,0.17121187,0.66783625,0.94886625,0.21642879,1.0961045,0.57247436,0.15402113,1.1405573,1.057562,0.6806626,0.41757834,1.138735,0.95585257,1.0449386,0.67375153,0.8789955,0.76895505,0.9208126,0.55247736,0.67380035,813.1135,793.36993,811.0989,823.5897,836.08057,-0.329833984375,0.142578125,0.9244384765625,2.100982666015625,-3.050537109375,0.276641845703125,1.0,1.0,1.0,1.0,1.0,95.0,event
14:22:33.958,0.17121187,0.66783625,0.94886625,0.21642879,1.0961045,0.57247436,0.15402113,1.1405573,1.057562,0.6806626,0.41757834,1.138735,0.95585257,1.0449386,0.67375153,0.8789955,0.76895505,0.9208126,0.55247736,0.67380035,813.5165,813.91943,800.6227,817.5458,763.5531,-0.329833984375,0.142578125,0.9244384765625,2.100982666015625,-3.050537109375,0.276641845703125,1.0,1.0,1.0,1.0,1.0,95.0,event
14:22:33.959,0.17121187,0.66783625,0.94886625,0.21642879,1.0961045,0.57247436,0.15402113,1.1405573,1.057562,0.6806626,0.41757834,1.138735,0.95585257,1.0449386,0.67375153,0.8789955,0.76895505,0.9208126,0.55247736,0.67380035,812.71063,831.6484,803.0403,813.5165,1023.44324,-0.329833984375,0.142578125,0.9244384765625,2.100982666015625,-3.050537109375,0.276641845703125,1.0,1.0,1.0,1.0,1.0,95.0,event
14:22:33.959,0.17121187,0.66783625,0.94886625,0.21642879,1.0961045,0.57247436,0.15402113,1.1405573,1.057562,0.6806626,0.41757834,1.138735,0.95585257,1.0449386,0.67375153,0.8789955,0.76895505,0.9208126,0.55247736,0.67380035,798.20514,831.6484,795.78754,808.68134,994.0293,-0.329833984375,0.142578125,0.9244384765625,2.100982666015625,-3.050537109375,0.276641845703125,1.0,1.0,1.0,1.0,1.0,95.0,event
14:22:33.960,0.17121187,0.66783625,0.94886625,0.21642879,1.0961045,0.57247436,0.15402113,1.1405573,1.057562,0.6806626,0.41757834,1.138735,0.95585257,1.0449386,0.67375153,0.8789955,0.76895505,0.9208126,0.55247736,0.67380035,796.5934,816.7399,801.02563,805.8608,692.23444,-0.329833984375,0.142578125,0.9244384765625,2.100982666015625,-3.050537109375,0.276641845703125,1.0,1.0,1.0,1.0,1.0,95.0,event
14:22:33.961,0.17121187,0.66783625,0.94886625,0.21642879,1.0961045,0.57247436,0.15402113,1.1405573,1.057562,0.6806626,0.41757834,1.138735,0.95585257,1.0449386,0.67375153,0.8789955,0.76895505,0.9208126,0.55247736,0.67380035,804.2491,806.26373,804.2491,805.4579,700.696,-0.329833984375,0.142578125,0.9244384765625,2.100982666015625,-3.050537109375,0.276641845703125,1.0,1.0,1.0,1.0,1.0,95.0,event
14:22:33.961,0.17121187,0.66783625,0.94886625,0.21642879,1.0961045,0.57247436,0.15402113,1.1405573,1.057562,0.6806626,0.41757834,1.138735,0.95585257,1.0449386,0.67375153,0.8789955,0.76895505,0.9208126,0.55247736,0.67380035,808.2784,807.0696,796.99634,809.4872,835.2747,-0.329833984375,0.142578125,0.9244384765625,2.100982666015625,-3.050537109375,0.276641845703125,1.0,1.0,1.0,1.0,1.0,95.0,event
14:22:33.962,0.17121187,0.66783625,0.94886625,0.21642879,1.0961045,0.57247436,0.15402113,1.1405573,1.057562,0.6806626,0.41757834,1.138735,0.95585257,1.0449386,0.67375153,0.8789955,0.76895505,0.9208126,0.55247736,0.67380035,821.5751,807.0696,800.6227,818.7546,751.4652,-0.329833984375,0.142578125,0.9244384765625,2.100982666015625,-3.050537109375,0.276641845703125,1.0,1.0,1.0,1.0,1.0,95.0,event
14:22:33.963,0.17121187,0.66783625,0.94886625,0.21642879,1.0961045,0.57247436,0.15402113,1.1405573,1.057562,0.6806626,0.41757834,1.138735,0.95585257,1.0449386,0.67375153,0.8789955,0.76895505,0.9208126,0.55247736,0.67380035,818.7546,792.1612,794.9817,812.3077,729.304,-0.329833984375,0.142578125,0.9244384765625,2.100982666015625,-3.050537109375,0.276641845703125,1.0,1.0,1.0,1.0,1.0,95.0,event
14:22:33.990,0.17121187,0.66783625,0.94886625,0.21642879,1.0961045,0.57247436,0.15402113,1.1405573,1.057562,0.6806626,0.41757834,1.138735,0.95585257,1.0449386,0.67375153,0.8789955,0.76895505,0.9208126,0.55247736,0.67380035,809.0842,784.90845,790.9524,804.65204,764.7619,-0.33441162109375,0.13623046875,0.92022705078125,1.712188720703125,-3.087921142578125,0.231781005859375,1.0,1.0,1.0,1.0,1.0,95.0,event
14:22:33.991,0.17121187,0.6651321,0.94158167,0.21642879,1.0961045,0.545353,0.15314789,1.1405573,1.057562,0.66860026,0.41757834,1.138735,0.95585257,1.0211836,0.6938133,0.8789955,0.76895505,0.90884,0.54893214,0.67380035,815.12823,799.011,788.93774,799.81683,722.8571,-0.33441162109375,0.13623046875,0.92022705078125,1.712188720703125,-3.087921142578125,0.231781005859375,1.0,1.0,1.0,1.0,1.0,95.0,event
14:22:33.995,0.17121187,0.6651321,0.94158167,0.21642879,1.0961045,0.545353,0.15314789,1.1405573,1.057562,0.66860026,0.41757834,1.138735,0.95585257,1.0211836,0.6938133,0.8789955,0.76895505,0.90884,0.54893214,0.67380035,819.5604,809.89014,792.5641,801.4286,744.61536,-0.33441162109375,0.13623046875,0.92022705078125,1.712188720703125,-3.087921142578125,0.231781005859375,1.0,1.0,1.0,1.0,1.0,95.0,event
14:22:33.996,0.17121187,0.6651321,0.94158167,0.21642879,1.0961045,0.545353,0.15314789,1.1405573,1.057562,0.66860026,0.41757834,1.138735,0.95585257,1.0211836,0.6938133,0.8789955,0.76895505,0.90884,0.54893214,0.67380035,818.7546,817.5458,807.0696,816.7399,746.63007,-0.33441162109375,0.13623046875,0.92022705078125,1.712188720703125,-3.087921142578125,0.231781005859375,1.0,1.0,1.0,1.0,1.0,95.0,event
14:22:33.997,0.17121187,0.6651321,0.94158167,0.21642879,1.0961045,0.545353,0.15314789,1.1405573,1.057562,0.66860026,0.41757834,1.138735,0.95585257,1.0211836,0.6938133,0.8789955,0.76895505,0.90884,0.54893214,0.67380035,820.3663,813.1135,811.0989,821.978,706.337,-0.33441162109375,0.13623046875,0.92022705078125,1.712188720703125,-3.087921142578125,0.231781005859375,1.0,1.0,1.0,1.0,1.0,95.0,event
14:22:33.997,0.17121187,0.6651321,0.94158167,0.21642879,1.0961045,0.545353,0.15314789,1.1405573,1.057562,0.66860026,0.41757834,1.138735,0.95585257,1.0211836,0.6938133,0.8789955,0.76895505,0.90884,0.54893214,0.67380035,811.50183,816.337,812.71063,814.7253,803.44324,-0.33441162109375,0.13623046875,0.92022705078125,1.712188720703125,-3.087921142578125,0.231781005859375,1.0,1.0,1.0,1.0,1.0,95.0,event
14:22:33.998,0.17121187,0.6651321,0.94158167,0.21642879,1.0961045,0.545353,0.15314789,1.1405573,1.057562,0.66860026,0.41757834,1.138735,0.95585257,1.0211836,0.6938133,0.8789955,0.76895505,0.90884,0.54893214,0.67380035,803.44324,815.9341,803.0403,810.293,835.2747,-0.33441162109375,0.13623046875,0.92022705078125,1.712188720703125,-3.087921142578125,0.231781005859375,1.0,1.0,1.0,1.0,1.0,95.0,event
14:22:33.999,0.17121187,0.6651321,0.94158167,0.21642879,1.0961045,0.545353,0.15314789,1.1405573,1.057562,0.66860026,0.41757834,1.138735,0.95585257,1.0211836,0.6938133,0.8789955,0.76895505,0.90884,0.54893214,0.67380035,799.41394,788.93774,789.34064,804.65204,767.1795,-0.33441162109375,0.13623046875,0.92022705078125,1.712188720703125,-3.087921142578125,0.231781005859375,1.0,1.0,1.0,1.0,1.0,95.0,event
14:22:33.999,0.17121187,0.6651321,0.94158167,0.21642879,1.0961045,0.545353,0.15314789,1.1405573,1.057562,0.66860026,0.41757834,1.138735,0.95585257,1.0211836,0.6938133,0.8789955,0.76895505,0.90884,0.54893214,0.67380035,799.81683,795.38464,796.99634,799.41394,865.89746,-0.33441162109375,0.13623046875,0.92022705078125,1.712188720703125,-3.087921142578125,0.231781005859375,1.0,1.0,1.0,1.0,1.0,95.0,event
14:22:34.000,0.17121187,0.6651321,0.94158167,0.21642879,1.0961045,0.545353,0.15314789,1.1405573,1.057562,0.66860026,0.41757834,1.138735,0.95585257,1.0211836,0.6938133,0.8789955,0.76895505,0.90884,0.54893214,0.67380035,797.8022,815.5311,801.02563,794.9817,1060.5128,-0.33441162109375,0.13623046875,0.92022705078125,1.712188720703125,-3.087921142578125,0.231781005859375,1.0,1.0,1.0,1.0,1.0,95.0,event
14:22:34.001,0.17121187,0.6651321,0.94158167,0.21642879,1.0961045,0.545353,0.15314789,1.1405573,1.057562,0.66860026,0.41757834,1.138735,0.95585257,1.0211836,0.6938133,0.8789955,0.76895505,0.90884,0.54893214,0.67380035,795.38464,812.3077,791.3553,793.7729,848.5714,-0.33441162109375,0.13623046875,0.92022705078125,1.712188720703125,-3.087921142578125,0.231781005859375,1.0,1.0,1.0,1.0,1.0,95.0,event
14:22:34.001,0.17121187,0.6651321,0.94158167,0.21642879,1.0961045,0.545353,0.15314789,1.1405573,1.057562,0.66860026,0.41757834,1.138735,0.95585257,1.0211836,0.6938133,0.8789955,0.76895505,0.90884,0.54893214,0.67380035,802.23444,809.0842,791.3553,796.99634,636.2271,-0.33441162109375,0.13623046875,0.92022705078125,1.712188720703125,-3.087921142578125,0.231781005859375,1.0,1.0,1.0,1.0,1.0,95.0,event
14:22:34.031,0.17121187,0.6651321,0.94158167,0.21642879,1.0961045,0.545353,0.15314789,1.1405573,1.057562,0.66860026,0.41757834,1.138735,0.95585257,1.0211836,0.6938133,0.8789955,0.76895505,0.90884,0.54893214,0.67380035,807.8755,805.8608,803.0403,801.8315,725.2747,-0.33526611328125,0.13671875,0.920654296875,2.0037841796875,-2.983245849609375,0.059814453125,1.0,1.0,1.0,1.0,1.0,95.0,event
14:22:34.032,0.17121187,0.6651321,0.94158167,0.21642879,1.0961045,0.545353,0.15314789,1.1405573,1.057562,0.66860026,0.41757834,1.138735,0.95585257,1.0211836,0.6938133,0.8789955,0.76895505,0.90884,0.54893214,0.67380035,806.26373,794.9817,806.6667,808.68134,706.7399,-0.33526611328125,0.13671875,0.920654296875,2.0037841796875,-2.983245849609375,0.059814453125,1.0,1.0,1.0,1.0,1.0,95.0,event
14:22:34.033,0.17121187,0.6651321,0.94158167,0.21642879,1.0961045,0.545353,0.15314789,1.1405573,1.057562,0.66860026,0.41757834,1.138735,0.95585257,1.0211836,0.6938133,0.8789955,0.76895505,0.90884,0.54893214,0.67380035,804.2491,794.9817,807.0696,817.1429,646.30035,-0.33526611328125,0.13671875,0.920654296875,2.0037841796875,-2.983245849609375,0.059814453125,1.0,1.0,1.0,1.0,1.0,95.0,event
14:22:34.033,0.17121187,0.6651321,0.94158167,0.21642879,1.0961045,0.545353,0.15314789,1.1405573,1.057562,0.66860026,0.41757834,1.138735,0.95585257,1.0211836,0.6938133,0.8789955,0.76895505,0.90884,0.54893214,0.67380035,810.696,799.41394,800.2198,819.9634,740.58606,-0.33526611328125,0.13671875,0.920654296875,2.0037841796875,-2.983245849609375,0.059814453125,1.0,1.0,1.0,1.0,1.0,95.0,event
14:22:34.034,0.17121187,0.6651321,0.94158167,0.21642879,1.0961045,0.545353,0.15314789,1.1405573,1.057562,0.66860026,0.41757834,1.138735,0.95585257,1.0211836,0.6938133,0.8789955,0.76895505,0.90884,0.54893214,0.67380035,815.12823,816.337,796.99634,814.7253,801.02563,-0.33526611328125,0.13671875,0.920654296875,2.0037841796875,-2.983245849609375,0.059814453125,1.0,1.0,1.0,1.0,1.0,95.0,event
14:22:34.035,0.17121187,0.6651321,0.94158167,0.21642879,1.0961045,0.545353,0.15314789,1.1405573,1.057562,0.66860026,0.41757834,1.138735,0.95585257,1.0211836,0.6938133,0.8789955,0.76895505,0.90884,0.54893214,0.67380035,773.22345,811.50183,779.67035,777.6557,769.19415,-0.33526611328125,0.13671875,0.920654296875,2.0037841796875,-2.983245849609375,0.059814453125,1.0,1.0,1.0,1.0,1.0,95.0,event
14:22:34.035,0.17121187,0.6651321,0.94158167,0.21642879,1.0961045,0.545353,0.15314789,1.1405573,1.057562,0.66860026,0.41757834,1.138735,0.95585257,1.0211836,0.6938133,0.8789955,0.76895505,0.90884,0.54893214,0.67380035,786.1172,821.1722,776.04395,792.96704,786.1172,-0.33526611328125,0.13671875,0.920654296875,2.0037841796875,-2.983245849609375,0.059814453125,1.0,1.0,1.0,1.0,1.0,95.0,event
14:22:34.036,0.17121187,0.6651321,0.94158167,0.21642879,1.0961045,0.545353,0.15314789,1.1405573,1.057562,0.66860026,0.41757834,1.138735,0.95585257,1.0211836,0.6938133,0.8789955,0.76895505,0.90884,0.54893214,0.67380035,788.93774,802.6374,804.2491,784.90845,790.14655,-0.33526611328125,0.13671875,0.920654296875,2.0037841796875,-2.983245849609375,0.059814453125,1.0,1.0,1.0,1.0,1.0,95.0,event
14:22:34.036,0.17121187,0.6651321,0.94158167,0.21642879,1.0961045,0.545353,0.15314789,1.1405573,1.057562,0.66860026,0.41757834,1.138735,0.95585257,1.0211836,0.6938133,0.8789955,0.76895505,0.90884,0.54893214,0.67380035,803.8461,798.60803,810.293,809.0842,1012.1612,-0.33526611328125,0.13671875,0.920654296875,2.0037841796875,-2.983245849609375,0.059814453125,1.0,1.0,1.0,1.0,1.0,95.0,event
14:22:34.037,0.17121187,0.6651321,0.94158167,0.21642879,1.0961045,0.545353,0.15314789,1.1405573,1.057562,0.66860026,0.41757834,1.138735,0.95585257,1.0211836,0.6938133,0.8789955,0.76895505,0.90884,0.54893214,0.67380035,798.60803,802.23444,812.3077,813.5165,894.10254,-0.33526611328125,0.13671875,0.920654296875,2.0037841796875,-2.983245849609375,0.059814453125,1.0,1.0,1.0,1.0,1.0,95.0,event
14:22:34.038,0.17121187,0.6651321,0.94158167,0.21642879,1.0961045,0.545353,0.15314789,1.1405573,1.057562,0.66860026,0.41757834,1.138735,0.95585257,1.0211836,0.6938133,0.8789955,0.76895505,0.90884,0.54893214,0.67380035,794.17584,811.50183,815.12823,803.44324,595.9341,-0.33526611328125,0.13671875,0.920654296875,2.0037841796875,-2.983245849609375,0.059814453125,1.0,1.0,1.0,1.0,1.0,95.0,event
