TimeStamp,Delta_TP9,Delta_AF7,Delta_AF8,Delta_TP10,Theta_TP9,Theta_AF7,Theta_AF8,Theta_TP10,Alpha_TP9,Alpha_AF7,Alpha_AF8,Alpha_TP10,Beta_TP9,Beta_AF7,Beta_AF8,Beta_TP10,Gamma_TP9,Gamma_AF7,Gamma_AF8,Gamma_TP10,RAW_TP9,RAW_AF7,RAW_AF8,RAW_TP10,AUX_RIGHT,Accelerometer_X,Accelerometer_Y,Accelerometer_Z,Gyro_X,Gyro_Y,Gyro_Z,HeadBandOn,HSI_TP9,HSI_AF7,HSI_AF8,HSI_TP10,Battery,Elements
09:30:41.989,0.0,0.0,0.0,0.49021453,0.0,0.0,0.0,0.29953855,0.0,0.0,0.0,0.25695586,0.0,0.0,0.0,0.42602494,0.0,0.0,0.0,0.13467975,0.0,292.52747,458.13187,776.04395,671.685,-0.32635498046875,0.0394287109375,0.91937255859375,3.1103515625,-3.043060302734375,-0.186920166015625,1.0,4.0,4.0,4.0,1.0,100.0,event
09:30:41.990,0.0,0.0,0.0,0.49021453,0.0,0.0,0.0,0.29953855,0.0,0.0,0.0,0.25695586,0.0,0.0,0.0,0.42602494,0.0,0.0,0.0,0.13467975,38.68132,178.49817,377.54578,765.56775,680.9524,-0.32635498046875,0.0394287109375,0.91937255859375,3.1103515625,-3.043060302734375,-0.186920166015625,1.0,4.0,4.0,4.0,1.0,100.0,event
09:30:41.990,0.0,0.0,0.0,0.49021453,0.0,0.0,0.0,0.29953855,0.0,0.0,0.0,0.25695586,0.0,0.0,0.0,0.42602494,0.0,0.0,0.0,0.13467975,1183.8096,973.8828,850.989,789.7436,700.696,-0.32635498046875,0.0394287109375,0.91937255859375,3.1103515625,-3.043060302734375,-0.186920166015625,1.0,4.0,4.0,4.0,1.0,100.0,event
09:30:41.991,0.0,0.0,0.0,0.49021453,0.0,0.0,0.0,0.29953855,0.0,0.0,0.0,0.25695586,0.0,0.0,0.0,0.42602494,0.0,0.0,0.0,0.13467975,155.53113,1608.9011,1150.7693,826.0073,720.0366,-0.32635498046875,0.0394287109375,0.91937255859375,3.1103515625,-3.043060302734375,-0.186920166015625,1.0,4.0,4.0,4.0,1.0,100.0,event
09:30:41.992,0.0,0.0,0.0,0.49021453,0.0,0.0,0.0,0.29953855,0.0,0.0,0.0,0.25695586,0.0,0.0,0.0,0.42602494,0.0,0.0,0.0,0.13467975,50.76923,151.50183,324.7619,785.7143,796.5934,-0.32635498046875,0.0394287109375,0.91937255859375,3.1103515625,-3.043060302734375,-0.186920166015625,1.0,4.0,4.0,4.0,1.0,100.0,event
09:30:41.992,0.0,0.0,0.0,0.49021453,0.0,0.0,0.0,0.29953855,0.0,0.0,0.0,0.25695586,0.0,0.0,0.0,0.42602494,0.0,0.0,0.0,0.13467975,1068.1685,1085.0916,779.67035,806.26373,763.95605,-0.32635498046875,0.0394287109375,0.91937255859375,3.1103515625,-3.043060302734375,-0.186920166015625,1.0,4.0,4.0,4.0,1.0,100.0,event
09:30:41.993,0.0,0.0,0.0,0.49021453,0.0,0.0,0.0,0.29953855,0.0,0.0,0.0,0.25695586,0.0,0.0,0.0,0.42602494,0.0,0.0,0.0,0.13467975,977.50916,712.7839,706.7399,796.99634,792.5641,-0.32635498046875,0.0394287109375,0.91937255859375,3.1103515625,-3.043060302734375,-0.186920166015625,1.0,4.0,4.0,4.0,1.0,100.0,event
09:30:41.993,0.0,0.0,0.0,0.49021453,0.0,0.0,0.0,0.29953855,0.0,0.0,0.0,0.25695586,0.0,0.0,0.0,0.42602494,0.0,0.0,0.0,0.13467975,0.0,0.0,288.09525,788.1319,856.2271,-0.32635498046875,0.0394287109375,0.91937255859375,3.1103515625,-3.043060302734375,-0.186920166015625,1.0,4.0,4.0,4.0,1.0,100.0,event
09:30:41.994,0.0,0.0,0.0,0.49021453,0.0,0.0,0.0,0.29953855,0.0,0.0,0.0,0.25695586,0.0,0.0,0.0,0.42602494,0.0,0.0,0.0,0.13467975,133.77289,1069.3773,716.0073,809.0842,870.7326,-0.32635498046875,0.0394287109375,0.91937255859375,3.1103515625,-3.043060302734375,-0.186920166015625,1.0,4.0,4.0,4.0,1.0,100.0,event
09:30:41.995,0.0,0.0,0.0,0.49021453,0.0,0.0,0.0,0.29953855,0.0,0.0,0.0,0.25695586,0.0,0.0,0.0,0.42602494,0.0,0.0,0.0,0.13467975,1335.3114,497.21613,320.7326,799.81683,936.4103,-0.32635498046875,0.0394287109375,0.91937255859375,3.1103515625,-3.043060302734375,-0.186920166015625,1.0,4.0,4.0,4.0,1.0,100.0,event
09:30:41.995,0.0,0.0,0.0,0.49021453,0.0,0.0,0.0,0.29953855,0.0,0.0,0.0,0.25695586,0.0,0.0,0.0,0.42602494,0.0,0.0,0.0,0.13467975,232.89377,454.5055,594.3223,786.1172,742.6007,-0.32635498046875,0.0394287109375,0.91937255859375,3.1103515625,-3.043060302734375,-0.186920166015625,1.0,4.0,4.0,4.0,1.0,100.0,event
09:30:41.996,0.0,0.0,0.0,0.49021453,0.0,0.0,0.0,0.29953855,0.0,0.0,0.0,0.25695586,0.0,0.0,0.0,0.42602494,0.0,0.0,0.0,0.13467975,0.0,389.23077,686.99634,781.685,780.87915,-0.32635498046875,0.0394287109375,0.91937255859375,3.1103515625,-3.043060302734375,-0.186920166015625,1.0,4.0,4.0,4.0,1.0,100.0,event
09:30:42.023,0.0,0.0,0.0,0.49021453,0.0,0.0,0.0,0.29953855,0.0,0.0,0.0,0.25695586,0.0,0.0,0.0,0.42602494,0.0,0.0,0.0,0.13467975,697.0696,475.4579,581.8315,792.1612,922.71063,-0.3330078125,0.03643798828125,0.94873046875,2.863616943359375,-5.12908935546875,0.9869384765625,1.0,4.0,4.0,4.0,1.0,100.0,event
09:30:42.024,0.0,0.0,0.0,0.49021453,0.0,0.0,0.0,0.29953855,0.0,0.0,0.0,0.25695586,0.0,0.0,0.0,0.42602494,0.0,0.0,0.0,0.13467975,47.142857,1336.5201,942.8571,828.022,851.39197,-0.3330078125,0.03643798828125,0.94873046875,2.863616943359375,-5.12908935546875,0.9869384765625,1.0,4.0,4.0,4.0,1.0,100.0,event
09:30:42.025,0.0,0.0,0.0,0.49021453,0.0,0.0,0.0,0.29953855,0.0,0.0,0.0,0.25695586,0.0,0.0,0.0,0.42602494,0.0,0.0,0.0,0.13467975,1461.4286,1534.762,1122.1611,824.7985,721.2454,-0.3330078125,0.03643798828125,0.94873046875,2.863616943359375,-5.12908935546875,0.9869384765625,1.0,4.0,4.0,4.0,1.0,100.0,event
09:30:42.026,0.0,0.0,0.0,0.49021453,0.0,0.0,0.0,0.29953855,0.0,0.0,0.0,0.25695586,0.0,0.0,0.0,0.42602494,0.0,0.0,0.0,0.13467975,288.09525,660.0,687.8022,786.1172,719.6337,-0.3330078125,0.03643798828125,0.94873046875,2.863616943359375,-5.12908935546875,0.9869384765625,1.0,4.0,4.0,4.0,1.0,100.0,event
09:30:42.029,0.0,0.0,0.0,0.49021453,0.0,0.0,0.0,0.29953855,0.0,0.0,0.0,0.25695586,0.0,0.0,0.0,0.42602494,0.0,0.0,0.0,0.13467975,0.0,46.739925,148.68132,764.7619,762.3443,-0.3330078125,0.03643798828125,0.94873046875,2.863616943359375,-5.12908935546875,0.9869384765625,1.0,4.0,4.0,4.0,1.0,100.0,event
09:30:42.030,0.0,0.0,0.0,0.49021453,0.0,0.0,0.0,0.29953855,0.0,0.0,0.0,0.25695586,0.0,0.0,0.0,0.42602494,0.0,0.0,0.0,0.13467975,529.85345,366.66666,375.53113,788.5348,774.83514,-0.3330078125,0.03643798828125,0.94873046875,2.863616943359375,-5.12908935546875,0.9869384765625,1.0,4.0,4.0,4.0,1.0,100.0,event
09:30:42.030,0.0,0.0,0.0,0.49021453,0.0,0.0,0.0,0.29953855,0.0,0.0,0.0,0.25695586,0.0,0.0,0.0,0.42602494,0.0,0.0,0.0,0.13467975,1626.63,1182.1978,837.6923,817.5458,802.23444,-0.3330078125,0.03643798828125,0.94873046875,2.863616943359375,-5.12908935546875,0.9869384765625,1.0,4.0,4.0,4.0,1.0,100.0,event
09:30:42.031,0.0,0.0,0.0,0.49021453,0.0,0.0,0.0,0.29953855,0.0,0.0,0.0,0.25695586,0.0,0.0,0.0,0.42602494,0.0,0.0,0.0,0.13467975,1522.2711,1141.9048,701.9048,806.26373,786.9231,-0.3330078125,0.03643798828125,0.94873046875,2.863616943359375,-5.12908935546875,0.9869384765625,1.0,4.0,4.0,4.0,1.0,100.0,event
09:30:42.032,0.0,0.0,0.0,0.49021453,0.0,0.0,0.0,0.29953855,0.0,0.0,0.0,0.25695586,0.0,0.0,0.0,0.42602494,0.0,0.0,0.0,0.13467975,321.9414,177.6923,141.02563,795.38464,957.3626,-0.3330078125,0.03643798828125,0.94873046875,2.863616943359375,-5.12908935546875,0.9869384765625,1.0,4.0,4.0,4.0,1.0,100.0,event
09:30:42.032,0.0,0.0,0.0,0.49021453,0.0,0.0,0.0,0.29953855,0.0,0.0,0.0,0.25695586,0.0,0.0,0.0,0.42602494,0.0,0.0,0.0,0.13467975,0.0,69.30403,326.37363,808.68134,882.4176,-0.3330078125,0.03643798828125,0.94873046875,2.863616943359375,-5.12908935546875,0.9869384765625,1.0,4.0,4.0,4.0,1.0,100.0,event
09:30:42.033,0.0,0.0,0.0,0.49021453,0.0,0.0,0.0,0.29953855,0.0,0.0,0.0,0.25695586,0.0,0.0,0.0,0.42602494,0.0,0.0,0.0,0.13467975,1532.3444,1304.6886,981.53845,817.1429,744.61536,-0.3330078125,0.03643798828125,0.94873046875,2.863616943359375,-5.12908935546875,0.9869384765625,1.0,4.0,4.0,4.0,1.0,100.0,event
09:30:42.033,0.0,0.0,0.0,0.49021453,0.0,0.0,0.0,0.29953855,0.0,0.0,0.0,0.25695586,0.0,0.0,0.0,0.42602494,0.0,0.0,0.0,0.13467975,392.85715,690.6227,815.5311,805.4579,670.4762,-0.3330078125,0.03643798828125,0.94873046875,2.863616943359375,-5.12908935546875,0.9869384765625,1.0,4.0,4.0,4.0,1.0,100.0,event
09:30:42.056,0.0,0.0,0.0,0.49021453,0.0,0.0,0.0,0.29953855,0.0,0.0,0.0,0.25695586,0.0,0.0,0.0,0.42602494,0.0,0.0,0.0,0.13467975,1604.0659,1474.7252,1017.8022,813.91943,806.6667,-0.3330078125,0.03643798828125,0.94873046875,2.863616943359375,-5.12908935546875,0.9869384765625,1.0,4.0,4.0,4.0,1.0,100.0,event
09:30:42.057,0.0,0.0,0.0,0.49021453,0.0,0.0,0.0,0.29953855,0.0,0.0,0.0,0.25695586,0.0,0.0,0.0,0.42602494,0.0,0.0,0.0,0.13467975,407.36264,916.26373,837.28937,790.54944,718.8278,-0.3330078125,0.03643798828125,0.94873046875,2.863616943359375,-5.12908935546875,0.9869384765625,1.0,4.0,4.0,4.0,1.0,100.0,event
09:30:42.057,0.0,0.0,0.0,0.49021453,0.0,0.0,0.0,0.29953855,0.0,0.0,0.0,0.25695586,0.0,0.0,0.0,0.42602494,0.0,0.0,0.0,0.13467975,0.0,353.7729,643.47986,784.10254,664.0293,-0.3330078125,0.03643798828125,0.94873046875,2.863616943359375,-5.12908935546875,0.9869384765625,1.0,4.0,4.0,4.0,1.0,100.0,event
09:30:42.058,0.0,0.0,0.0,0.49021453,0.0,0.0,0.0,0.29953855,0.0,0.0,0.0,0.25695586,0.0,0.0,0.0,0.42602494,0.0,0.0,0.0,0.13467975,160.3663,325.9707,550.80585,792.1612,799.81683,-0.3330078125,0.03643798828125,0.94873046875,2.863616943359375,-5.12908935546875,0.9869384765625,1.0,4.0,4.0,4.0,1.0,100.0,event
09:30:42.058,0.0,0.0,0.0,0.49021453,0.0,0.0,0.0,0.29953855,0.0,0.0,0.0,0.25695586,0.0,0.0,0.0,0.42602494,0.0,0.0,0.0,0.13467975,1348.608,947.6923,743.00366,811.9048,931.978,-0.3330078125,0.03643798828125,0.94873046875,2.863616943359375,-5.12908935546875,0.9869384765625,1.0,4.0,4.0,4.0,1.0,100.0,event
09:30:42.059,0.0,0.0,0.0,0.49021453,0.0,0.0,0.0,0.29953855,0.0,0.0,0.0,0.25695586,0.0,0.0,0.0,0.42602494,0.0,0.0,0.0,0.13467975,34.652016,1391.7216,925.12823,796.1905,950.9158,-0.3330078125,0.03643798828125,0.94873046875,2.863616943359375,-5.12908935546875,0.9869384765625,1.0,4.0,4.0,4.0,1.0,100.0,event
09:30:42.060,0.0,0.0,0.0,0.49021453,0.0,0.0,0.0,0.29953855,0.0,0.0,0.0,0.25695586,0.0,0.0,0.0,0.42602494,0.0,0.0,0.0,0.13467975,470.6227,776.04395,688.20514,794.17584,932.7839,-0.3330078125,0.03643798828125,0.94873046875,2.863616943359375,-5.12908935546875,0.9869384765625,1.0,4.0,4.0,4.0,1.0,100.0,event
09:30:42.060,0.0,0.0,0.0,0.49021453,0.0,0.0,0.0,0.29953855,0.0,0.0,0.0,0.25695586,0.0,0.0,0.0,0.42602494,0.0,0.0,0.0,0.13467975,0.0,62.857143,239.34065,810.293,936.8132,-0.3330078125,0.03643798828125,0.94873046875,2.863616943359375,-5.12908935546875,0.9869384765625,1.0,4.0,4.0,4.0,1.0,100.0,event
09:30:42.061,0.0,0.0,0.0,0.49021453,0.0,0.0,0.0,0.29953855,0.0,0.0,0.0,0.25695586,0.0,0.0,0.0,0.42602494,0.0,0.0,0.0,0.13467975,145.86081,5.6410255,7.252747,797.8022,1071.392,-0.3330078125,0.03643798828125,0.94873046875,2.863616943359375,-5.12908935546875,0.9869384765625,1.0,4.0,4.0,4.0,1.0,100.0,event
09:30:42.062,0.0,0.0,0.0,0.49021453,0.0,0.0,0.0,0.29953855,0.0,0.0,0.0,0.25695586,0.0,0.0,0.0,0.42602494,0.0,0.0,0.0,0.13467975,1319.597,1048.8279,798.60803,793.7729,866.30035,-0.3330078125,0.03643798828125,0.94873046875,2.863616943359375,-5.12908935546875,0.9869384765625,1.0,4.0,4.0,4.0,1.0,100.0,event
09:30:42.062,0.0,0.0,0.0,0.49021453,0.0,0.0,0.0,0.29953855,0.0,0.0,0.0,0.25695586,0.0,0.0,0.0,0.42602494,0.0,0.0,0.0,0.13467975,74.13919,10.07326,1252.7106,794.57874,768.7912,-0.3330078125,0.03643798828125,0.94873046875,2.863616943359375,-5.12908935546875,0.9869384765625,1.0,4.0,4.0,4.0,1.0,100.0,event
09:30:42.063,0.0,0.0,0.0,0.49021453,0.0,0.0,0.0,0.29953855,0.0,0.0,0.0,0.25695586,0.0,0.0,0.0,0.42602494,0.0,0.0,0.0,0.13467975,577.3993,914.2491,743.8095,785.31134,833.663,-0.3330078125,0.03643798828125,0.94873046875,2.863616943359375,-5.12908935546875,0.9869384765625,1.0,4.0,4.0,4.0,1.0,100.0,event
09:30:42.131,0.0,0.0,0.0,0.49021453,0.0,0.0,0.0,0.29953855,0.0,0.0,0.0,0.25695586,0.0,0.0,0.0,0.42602494,0.0,0.0,0.0,0.13467975,0.0,337.25275,560.4762,788.5348,749.0476,-0.321533203125,0.0284423828125,0.9320068359375,1.83929443359375,-3.48419189453125,-0.067291259765625,1.0,4.0,4.0,4.0,1.0,100.0,event
09:30:42.132,0.0,0.0,0.0,0.49021453,0.0,0.0,0.0,0.29953855,0.0,0.0,0.0,0.25695586,0.0,0.0,0.0,0.42602494,0.0,0.0,0.0,0.13467975,132.96703,531.06226,737.76556,810.293,698.68134,-0.321533203125,0.0284423828125,0.9320068359375,1.83929443359375,-3.48419189453125,-0.067291259765625,1.0,4.0,4.0,4.0,1.0,100.0,event
09:30:42.133,0.0,0.0,0.0,0.49021453,0.0,0.0,0.0,0.29953855,0.0,0.0,0.0,0.25695586,0.0,0.0,0.0,0.42602494,0.0,0.0,0.0,0.13467975,1263.5897,1120.9524,915.8608,825.2015,729.707,-0.321533203125,0.0284423828125,0.9320068359375,1.83929443359375,-3.48419189453125,-0.067291259765625,1.0,4.0,4.0,4.0,1.0,100.0,event
09:30:42.134,0.0,0.0,0.0,0.49021453,0.0,0.0,0.0,0.29953855,0.0,0.0,0.0,0.25695586,0.0,0.0,0.0,0.42602494,0.0,0.0,0.0,0.13467975,132.16118,1470.2931,970.65936,813.1135,820.7692,-0.321533203125,0.0284423828125,0.9320068359375,1.83929443359375,-3.48419189453125,-0.067291259765625,1.0,4.0,4.0,4.0,1.0,100.0,event
09:30:42.134,0.0,0.0,0.0,0.49021453,0.0,0.0,0.0,0.29953855,0.0,0.0,0.0,0.25695586,0.0,0.0,0.0,0.42602494,0.0,0.0,0.0,0.13467975,864.68866,1144.7252,872.3443,795.78754,802.6374,-0.321533203125,0.0284423828125,0.9320068359375,1.83929443359375,-3.48419189453125,-0.067291259765625,1.0,4.0,4.0,4.0,1.0,100.0,event
09:30:42.135,0.0,0.0,0.0,0.49021453,0.0,0.0,0.0,0.29953855,0.0,0.0,0.0,0.25695586,0.0,0.0,0.0,0.42602494,0.0,0.0,0.0,0.13467975,0.0,279.23077,452.49084,798.20514,790.54944,-0.321533203125,0.0284423828125,0.9320068359375,1.83929443359375,-3.48419189453125,-0.067291259765625,1.0,4.0,4.0,4.0,1.0,100.0,event
09:30:42.139,0.0,0.0,0.0,0.49021453,0.0,0.0,0.0,0.29953855,0.0,0.0,0.0,0.25695586,0.0,0.0,0.0,0.42602494,0.0,0.0,0.0,0.13467975,6.0439563,29.010988,286.48352,803.8461,905.38464,-0.321533203125,0.0284423828125,0.9320068359375,1.83929443359375,-3.48419189453125,-0.067291259765625,1.0,4.0,4.0,4.0,1.0,100.0,event
09:30:42.140,0.0,0.0,0.0,0.49021453,0.0,0.0,0.0,0.29953855,0.0,0.0,0.0,0.25695586,0.0,0.0,0.0,0.42602494,0.0,0.0,0.0,0.13467975,1072.6007,45.128204,111.611725,824.3956,1139.0842,-0.321533203125,0.0284423828125,0.9320068359375,1.83929443359375,-3.48419189453125,-0.067291259765625,1.0,4.0,4.0,4.0,1.0,100.0,event
09:30:42.141,0.0,0.0,0.0,0.49021453,0.0,0.0,0.0,0.29953855,0.0,0.0,0.0,0.25695586,0.0,0.0,0.0,0.42602494,0.0,0.0,0.0,0.13467975,154.72528,712.381,397.28937,821.5751,981.53845,-0.321533203125,0.0284423828125,0.9320068359375,1.83929443359375,-3.48419189453125,-0.067291259765625,1.0,4.0,4.0,4.0,1.0,100.0,event
09:30:42.141,0.0,0.0,0.0,0.49021453,0.0,0.0,0.0,0.29953855,0.0,0.0,0.0,0.25695586,0.0,0.0,0.0,0.42602494,0.0,0.0,0.0,0.13467975,1108.0586,1215.238,880.40295,810.696,667.6557,-0.321533203125,0.0284423828125,0.9320068359375,1.83929443359375,-3.48419189453125,-0.067291259765625,1.0,4.0,4.0,4.0,1.0,100.0,event
09:30:42.142,0.0,0.0,0.0,0.49021453,0.0,0.0,0.0,0.29953855,0.0,0.0,0.0,0.25695586,0.0,0.0,0.0,0.42602494,0.0,0.0,0.0,0.13467975,58.021976,433.95605,568.1319,794.9817,697.47253,-0.321533203125,0.0284423828125,0.9320068359375,1.83929443359375,-3.48419189453125,-0.067291259765625,1.0,4.0,4.0,4.0,1.0,100.0,event
09:30:42.143,0.0,0.0,0.0,0.49021453,0.0,0.0,0.0,0.29953855,0.0,0.0,0.0,0.25695586,0.0,0.0,0.0,0.42602494,0.0,0.0,0.0,0.13467975,0.0,209.12088,449.67032,796.1905,738.97437,-0.321533203125,0.0284423828125,0.9320068359375,1.83929443359375,-3.48419189453125,-0.067291259765625,1.0,4.0,4.0,4.0,1.0,100.0,event
09:30:42.174,0.0,0.0,0.0,0.49021453,0.0,0.0,0.0,0.29953855,0.0,0.0,0.0,0.25695586,0.0,0.0,0.0,0.42602494,0.0,0.0,0.0,0.13467975,1069.3773,989.59705,904.17584,824.7985,724.87177,-0.31976318359375,0.04071044921875,0.9415283203125,1.981353759765625,-4.209442138671875,0.07476806640625,1.0,4.0,4.0,4.0,1.0,100.0,event
09:30:42.175,0.0,0.0,0.0,0.49021453,0.0,0.0,0.0,0.29953855,0.0,0.0,0.0,0.25695586,0.0,0.0,0.0,0.42602494,0.0,0.0,0.0,0.13467975,151.50183,1624.2124,1226.9231,812.3077,776.8498,-0.31976318359375,0.04071044921875,0.9415283203125,1.981353759765625,-4.209442138671875,0.07476806640625,1.0,4.0,4.0,4.0,1.0,100.0,event
09:30:42.176,0.0,0.0,0.0,0.49021453,0.0,0.0,0.0,0.29953855,0.0,0.0,0.0,0.25695586,0.0,0.0,0.0,0.42602494,0.0,0.0,0.0,0.13467975,1224.5055,1251.5018,909.011,801.02563,823.5897,-0.31976318359375,0.04071044921875,0.9415283203125,1.981353759765625,-4.209442138671875,0.07476806640625,1.0,4.0,4.0,4.0,1.0,100.0,event
09:30:42.177,0.0,0.0,0.0,0.49021453,0.0,0.0,0.0,0.29953855,0.0,0.0,0.0,0.25695586,0.0,0.0,0.0,0.42602494,0.0,0.0,0.0,0.13467975,0.0,314.68866,573.36993,780.4762,757.50916,-0.31976318359375,0.04071044921875,0.9415283203125,1.981353759765625,-4.209442138671875,0.07476806640625,1.0,4.0,4.0,4.0,1.0,100.0,event
09:30:42.177,0.0,0.0,0.0,0.49021453,0.0,0.0,0.0,0.29953855,0.0,0.0,0.0,0.25695586,0.0,0.0,0.0,0.42602494,0.0,0.0,0.0,0.13467975,147.87546,483.51648,563.2967,801.02563,782.8938,-0.31976318359375,0.04071044921875,0.9415283203125,1.981353759765625,-4.209442138671875,0.07476806640625,1.0,4.0,4.0,4.0,1.0,100.0,event
09:30:42.178,0.0,0.0,0.0,0.49021453,0.0,0.0,0.0,0.29953855,0.0,0.0,0.0,0.25695586,0.0,0.0,0.0,0.42602494,0.0,0.0,0.0,0.13467975,773.22345,698.2784,668.0586,792.96704,753.0769,-0.31976318359375,0.04071044921875,0.9415283203125,1.981353759765625,-4.209442138671875,0.07476806640625,1.0,4.0,4.0,4.0,1.0,100.0,event
09:30:42.178,0.0,0.0,0.0,0.49021453,0.0,0.0,0.0,0.29953855,0.0,0.0,0.0,0.25695586,0.0,0.0,0.0,0.42602494,0.0,0.0,0.0,0.13467975,80.58608,949.304,582.6374,819.5604,932.7839,-0.31976318359375,0.04071044921875,0.9415283203125,1.981353759765625,-4.209442138671875,0.07476806640625,1.0,4.0,4.0,4.0,1.0,100.0,event
09:30:42.179,0.0,0.0,0.0,0.49021453,0.0,0.0,0.0,0.29953855,0.0,0.0,0.0,0.25695586,0.0,0.0,0.0,0.42602494,0.0,0.0,0.0,0.13467975,1423.5531,531.4652,288.49817,803.44324,1008.93774,-0.31976318359375,0.04071044921875,0.9415283203125,1.981353759765625,-4.209442138671875,0.07476806640625,1.0,4.0,4.0,4.0,1.0,100.0,event
09:30:42.180,0.0,0.0,0.0,0.49021453,0.0,0.0,0.0,0.29953855,0.0,0.0,0.0,0.25695586,0.0,0.0,0.0,0.42602494,0.0,0.0,0.0,0.13467975,289.30402,479.48718,539.92676,795.78754,740.989,-0.31976318359375,0.04071044921875,0.9415283203125,1.981353759765625,-4.209442138671875,0.07476806640625,1.0,4.0,4.0,4.0,1.0,100.0,event
09:30:42.181,0.0,0.0,0.0,0.49021453,0.0,0.0,0.0,0.29953855,0.0,0.0,0.0,0.25695586,0.0,0.0,0.0,0.42602494,0.0,0.0,0.0,0.13467975,0.0,328.38828,566.1172,796.1905,706.337,-0.31976318359375,0.04071044921875,0.9415283203125,1.981353759765625,-4.209442138671875,0.07476806640625,1.0,4.0,4.0,4.0,1.0,100.0,event
09:30:42.181,0.0,0.0,0.0,0.49021453,0.0,0.0,0.0,0.29953855,0.0,0.0,0.0,0.25695586,0.0,0.0,0.0,0.42602494,0.0,0.0,0.0,0.13467975,400.51282,189.37729,318.31503,785.31134,820.3663,-0.31976318359375,0.04071044921875,0.9415283203125,1.981353759765625,-4.209442138671875,0.07476806640625,1.0,4.0,4.0,4.0,1.0,100.0,event
09:30:42.182,0.0,0.0,0.0,0.49021453,0.0,0.0,0.0,0.29953855,0.0,0.0,0.0,0.25695586,0.0,0.0,0.0,0.42602494,0.0,0.0,0.0,0.13467975,1575.0549,1151.1721,795.38464,804.2491,765.16486,-0.31976318359375,0.04071044921875,0.9415283203125,1.981353759765625,-4.209442138671875,0.07476806640625,1.0,4.0,4.0,4.0,1.0,100.0,event
09:30:42.214,0.0,0.0,0.0,0.49021453,0.0,0.0,0.0,0.29953855,0.0,0.0,0.0,0.25695586,0.0,0.0,0.0,0.42602494,0.0,0.0,0.0,0.13467975,1548.8645,8.461538,1156.0073,802.6374,722.4542,-0.30706787109375,0.0184326171875,0.90814208984375,1.55517578125,-2.056121826171875,0.157012939453125,1.0,4.0,4.0,4.0,1.0,100.0,event
09:30:42.215,0.0,0.0,0.0,0.49021453,0.0,0.0,0.0,0.29953855,0.0,0.0,0.0,0.25695586,0.0,0.0,0.0,0.42602494,0.0,0.0,0.0,0.13467975,315.4945,801.02563,738.5714,786.9231,726.08057,-0.30706787109375,0.0184326171875,0.90814208984375,1.55517578125,-2.056121826171875,0.157012939453125,1.0,4.0,4.0,4.0,1.0,100.0,event
09:30:42.216,0.0,0.0,0.0,0.49021453,0.0,0.0,0.0,0.29953855,0.0,0.0,0.0,0.25695586,0.0,0.0,0.0,0.42602494,0.0,0.0,0.0,0.13467975,0.0,116.04395,356.99634,776.4469,746.63007,-0.30706787109375,0.0184326171875,0.90814208984375,1.55517578125,-2.056121826171875,0.157012939453125,1.0,4.0,4.0,4.0,1.0,100.0,event
09:30:42.217,0.0,0.0,0.0,0.49021453,0.0,0.0,0.0,0.29953855,0.0,0.0,0.0,0.25695586,0.0,0.0,0.0,0.42602494,0.0,0.0,0.0,0.13467975,463.7729,635.0183,690.6227,781.685,731.31866,-0.30706787109375,0.0184326171875,0.90814208984375,1.55517578125,-2.056121826171875,0.157012939453125,1.0,4.0,4.0,4.0,1.0,100.0,event
09:30:42.217,0.0,0.0,0.0,0.49021453,0.0,0.0,0.0,0.29953855,0.0,0.0,0.0,0.25695586,0.0,0.0,0.0,0.42602494,0.0,0.0,0.0,0.13467975,1584.3224,1520.2565,1146.7399,823.9927,765.56775,-0.30706787109375,0.0184326171875,0.90814208984375,1.55517578125,-2.056121826171875,0.157012939453125,1.0,4.0,4.0,4.0,1.0,100.0,event
09:30:42.218,0.0,0.0,0.0,0.49021453,0.0,0.0,0.0,0.29953855,0.0,0.0,0.0,0.25695586,0.0,0.0,0.0,0.42602494,0.0,0.0,0.0,0.13467975,353.7729,420.2564,379.1575,782.0879,914.65204,-0.30706787109375,0.0184326171875,0.90814208984375,1.55517578125,-2.056121826171875,0.157012939453125,1.0,4.0,4.0,4.0,1.0,100.0,event
09:30:42.218,0.0,0.0,0.0,0.49021453,0.0,0.0,0.0,0.29953855,0.0,0.0,0.0,0.25695586,0.0,0.0,0.0,0.42602494,0.0,0.0,0.0,0.13467975,1558.9377,1351.4286,890.07324,812.71063,861.8681,-0.30706787109375,0.0184326171875,0.90814208984375,1.55517578125,-2.056121826171875,0.157012939453125,1.0,4.0,4.0,4.0,1.0,100.0,event
09:30:42.219,0.0,0.0,0.0,0.49021453,0.0,0.0,0.0,0.29953855,0.0,0.0,0.0,0.25695586,0.0,0.0,0.0,0.42602494,0.0,0.0,0.0,0.13467975,0.0,72.12454,363.44324,774.43225,787.72894,-0.30706787109375,0.0184326171875,0.90814208984375,1.55517578125,-2.056121826171875,0.157012939453125,1.0,4.0,4.0,4.0,1.0,100.0,event
09:30:42.223,0.0,0.0,0.0,0.49021453,0.0,0.0,0.0,0.29953855,0.0,0.0,0.0,0.25695586,0.0,0.0,0.0,0.42602494,0.0,0.0,0.0,0.13467975,288.09525,673.69965,776.4469,782.8938,693.0403,-0.30706787109375,0.0184326171875,0.90814208984375,1.55517578125,-2.056121826171875,0.157012939453125,1.0,4.0,4.0,4.0,1.0,100.0,event
09:30:42.224,0.0,0.0,0.0,0.49021453,0.0,0.0,0.0,0.29953855,0.0,0.0,0.0,0.25695586,0.0,0.0,0.0,0.42602494,0.0,0.0,0.0,0.13467975,1444.5055,1253.5165,921.9048,784.10254,765.16486,-0.30706787109375,0.0184326171875,0.90814208984375,1.55517578125,-2.056121826171875,0.157012939453125,1.0,4.0,4.0,4.0,1.0,100.0,event
09:30:42.224,0.0,0.0,0.0,0.49021453,0.0,0.0,0.0,0.29953855,0.0,0.0,0.0,0.25695586,0.0,0.0,0.0,0.42602494,0.0,0.0,0.0,0.13467975,11.684981,708.7546,367.47253,761.13556,980.7326,-0.30706787109375,0.0184326171875,0.90814208984375,1.55517578125,-2.056121826171875,0.157012939453125,1.0,4.0,4.0,4.0,1.0,100.0,event
09:30:42.225,0.0,0.0,0.0,0.49021453,0.0,0.0,0.0,0.29953855,0.0,0.0,0.0,0.25695586,0.0,0.0,0.0,0.42602494,0.0,0.0,0.0,0.13467975,485.1282,474.24908,426.7033,753.47986,823.1868,-0.30706787109375,0.0184326171875,0.90814208984375,1.55517578125,-2.056121826171875,0.157012939453125,1.0,4.0,4.0,4.0,1.0,100.0,event
09:30:42.299,0.0,0.0,0.0,0.49021453,0.0,0.0,0.0,0.29953855,0.0,0.0,0.0,0.25695586,0.0,0.0,0.0,0.42602494,0.0,0.0,0.0,0.13467975,0.0,392.85715,613.2601,759.92676,703.5165,-0.31536865234375,0.04351806640625,0.9422607421875,2.130889892578125,-5.375823974609375,0.306549072265625,1.0,4.0,4.0,4.0,1.0,100.0,event
09:30:42.301,0.0,0.0,0.0,0.49021453,0.0,0.0,0.0,0.29953855,0.0,0.0,0.0,0.25695586,0.0,0.0,0.0,0.42602494,0.0,0.0,0.0,0.13467975,146.26373,193.80952,393.663,765.16486,857.8388,-0.31536865234375,0.04351806640625,0.9422607421875,2.130889892578125,-5.375823974609375,0.306549072265625,1.0,4.0,4.0,4.0,1.0,100.0,event
09:30:42.301,0.0,0.0,0.0,0.49021453,0.0,0.0,0.0,0.29953855,0.0,0.0,0.0,0.25695586,0.0,0.0,0.0,0.42602494,0.0,0.0,0.0,0.13467975,1311.9414,882.01465,684.17584,781.685,866.7033,-0.31536865234375,0.04351806640625,0.9422607421875,2.130889892578125,-5.375823974609375,0.306549072265625,1.0,4.0,4.0,4.0,1.0,100.0,event
09:30:42.302,0.0,0.0,0.0,0.49021453,0.0,0.0,0.0,0.29953855,0.0,0.0,0.0,0.25695586,0.0,0.0,0.0,0.42602494,0.0,0.0,0.0,0.13467975,77.765564,1616.5568,1082.2711,791.75824,743.4066,-0.31536865234375,0.04351806640625,0.9422607421875,2.130889892578125,-5.375823974609375,0.306549072265625,1.0,4.0,4.0,4.0,1.0,100.0,event
09:30:42.303,0.0,0.0,0.0,0.49021453,0.0,0.0,0.0,0.29953855,0.0,0.0,0.0,0.25695586,0.0,0.0,0.0,0.42602494,0.0,0.0,0.0,0.13467975,610.0366,1108.4615,845.7509,782.0879,667.6557,-0.31536865234375,0.04351806640625,0.9422607421875,2.130889892578125,-5.375823974609375,0.306549072265625,1.0,4.0,4.0,4.0,1.0,100.0,event
09:30:42.304,0.0,0.0,0.0,0.49021453,0.0,0.0,0.0,0.29953855,0.0,0.0,0.0,0.25695586,0.0,0.0,0.0,0.42602494,0.0,0.0,0.0,0.13467975,0.0,164.79854,319.92673,771.6117,809.4872,-0.31536865234375,0.04351806640625,0.9422607421875,2.130889892578125,-5.375823974609375,0.306549072265625,1.0,4.0,4.0,4.0,1.0,100.0,event
09:30:42.304,0.0,0.0,0.0,0.49021453,0.0,0.0,0.0,0.29953855,0.0,0.0,0.0,0.25695586,0.0,0.0,0.0,0.42602494,0.0,0.0,0.0,0.13467975,121.28205,114.83517,242.96703,791.75824,882.4176,-0.31536865234375,0.04351806640625,0.9422607421875,2.130889892578125,-5.375823974609375,0.306549072265625,1.0,4.0,4.0,4.0,1.0,100.0,event
09:30:42.305,0.0,0.0,0.0,0.49021453,0.0,0.0,0.0,0.29953855,0.0,0.0,0.0,0.25695586,0.0,0.0,0.0,0.42602494,0.0,0.0,0.0,0.13467975,1282.1245,967.03296,759.12085,820.3663,827.619,-0.31536865234375,0.04351806640625,0.9422607421875,2.130889892578125,-5.375823974609375,0.306549072265625,1.0,4.0,4.0,4.0,1.0,100.0,event
09:30:42.306,0.0,0.0,0.0,0.49021453,0.0,0.0,0.0,0.29953855,0.0,0.0,0.0,0.25695586,0.0,0.0,0.0,0.42602494,0.0,0.0,0.0,0.13467975,113.22344,1647.5824,1188.6447,811.9048,788.93774,-0.31536865234375,0.04351806640625,0.9422607421875,2.130889892578125,-5.375823974609375,0.306549072265625,1.0,4.0,4.0,4.0,1.0,100.0,event
09:30:42.306,0.0,0.0,0.0,0.49021453,0.0,0.0,0.0,0.29953855,0.0,0.0,0.0,0.25695586,0.0,0.0,0.0,0.42602494,0.0,0.0,0.0,0.13467975,712.381,809.89014,577.8022,811.50183,958.1685,-0.31536865234375,0.04351806640625,0.9422607421875,2.130889892578125,-5.375823974609375,0.306549072265625,1.0,4.0,4.0,4.0,1.0,100.0,event
09:30:42.307,0.0,0.0,0.0,0.49021453,0.0,0.0,0.0,0.29953855,0.0,0.0,0.0,0.25695586,0.0,0.0,0.0,0.42602494,0.0,0.0,0.0,0.13467975,0.0,0.0,61.64835,823.9927,988.7912,-0.31536865234375,0.04351806640625,0.9422607421875,2.130889892578125,-5.375823974609375,0.306549072265625,1.0,4.0,4.0,4.0,1.0,100.0,event
09:30:42.308,0.0,0.0,0.0,0.49021453,0.0,0.0,0.0,0.29953855,0.0,0.0,0.0,0.25695586,0.0,0.0,0.0,0.42602494,0.0,0.0,0.0,0.13467975,99.12088,417.03296,568.5348,817.1429,705.5311,-0.31536865234375,0.04351806640625,0.9422607421875,2.130889892578125,-5.375823974609375,0.306549072265625,1.0,4.0,4.0,4.0,1.0,100.0,event
09:30:42.340,0.0,0.0,0.0,0.49021453,0.0,0.0,0.0,0.29953855,0.0,0.0,0.0,0.25695586,0.0,0.0,0.0,0.42602494,0.0,0.0,0.0,0.13467975,1210.403,1102.4176,913.8461,814.7253,695.05493,-0.31536865234375,0.04351806640625,0.9422607421875,2.130889892578125,-5.375823974609375,0.306549072265625,1.0,4.0,4.0,4.0,1.0,100.0,event
09:30:42.342,0.0,0.0,0.0,0.49021453,0.0,0.0,0.0,0.29953855,0.0,0.0,0.0,0.25695586,0.0,0.0,0.0,0.42602494,0.0,0.0,0.0,0.13467975,152.3077,1442.4908,904.17584,820.3663,807.0696,-0.31536865234375,0.04351806640625,0.9422607421875,2.130889892578125,-5.375823974609375,0.306549072265625,1.0,4.0,4.0,4.0,1.0,100.0,event
09:30:42.342,0.0,0.0,0.0,0.49021453,0.0,0.0,0.0,0.29953855,0.0,0.0,0.0,0.25695586,0.0,0.0,0.0,0.42602494,0.0,0.0,0.0,0.13467975,1038.7546,1167.6923,790.9524,811.9048,709.9634,-0.31536865234375,0.04351806640625,0.9422607421875,2.130889892578125,-5.375823974609375,0.306549072265625,1.0,4.0,4.0,4.0,1.0,100.0,event
09:30:42.343,0.0,0.0,0.0,0.49021453,0.0,0.0,0.0,0.29953855,0.0,0.0,0.0,0.25695586,0.0,0.0,0.0,0.42602494,0.0,0.0,0.0,0.13467975,60.03663,507.69232,563.69965,807.47253,653.5531,-0.31536865234375,0.04351806640625,0.9422607421875,2.130889892578125,-5.375823974609375,0.306549072265625,1.0,4.0,4.0,4.0,1.0,100.0,event
09:30:42.344,0.0,0.0,0.0,0.49021453,0.0,0.0,0.0,0.29953855,0.0,0.0,0.0,0.25695586,0.0,0.0,0.0,0.42602494,0.0,0.0,0.0,0.13467975,0.0,146.26373,356.5934,811.9048,807.0696,-0.31536865234375,0.04351806640625,0.9422607421875,2.130889892578125,-5.375823974609375,0.306549072265625,1.0,4.0,4.0,4.0,1.0,100.0,event
09:30:42.345,0.0,0.0,0.0,0.49021453,0.0,0.0,0.0,0.29953855,0.0,0.0,0.0,0.25695586,0.0,0.0,0.0,0.42602494,0.0,0.0,0.0,0.13467975,917.0696,97.106224,114.83517,817.1429,1031.5018,-0.31536865234375,0.04351806640625,0.9422607421875,2.130889892578125,-5.375823974609375,0.306549072265625,1.0,4.0,4.0,4.0,1.0,100.0,event
09:30:42.346,0.0,0.0,0.0,0.49021453,0.0,0.0,0.0,0.29953855,0.0,0.0,0.0,0.25695586,0.0,0.0,0.0,0.42602494,0.0,0.0,0.0,0.13467975,131.35532,915.05493,473.44324,826.4103,981.9414,-0.31536865234375,0.04351806640625,0.9422607421875,2.130889892578125,-5.375823974609375,0.306549072265625,1.0,4.0,4.0,4.0,1.0,100.0,event
09:30:42.348,0.0,0.0,0.0,0.49021453,0.0,0.0,0.0,0.29953855,0.0,0.0,0.0,0.25695586,0.0,0.0,0.0,0.42602494,0.0,0.0,0.0,0.13467975,1265.6044,1307.1062,890.07324,826.0073,736.55676,-0.31536865234375,0.04351806640625,0.9422607421875,2.130889892578125,-5.375823974609375,0.306549072265625,1.0,4.0,4.0,4.0,1.0,100.0,event
09:30:42.349,0.0,0.0,0.0,0.49021453,0.0,0.0,0.0,0.29953855,0.0,0.0,0.0,0.25695586,0.0,0.0,0.0,0.42602494,0.0,0.0,0.0,0.13467975,140.62271,461.75824,490.3663,807.8755,712.7839,-0.31536865234375,0.04351806640625,0.9422607421875,2.130889892578125,-5.375823974609375,0.306549072265625,1.0,4.0,4.0,4.0,1.0,100.0,event
09:30:42.350,0.0,0.0,0.0,1.312534,0.0,0.0,0.0,0.6278138,0.0,0.0,0.0,0.46426982,0.0,0.0,0.0,0.5687511,0.0,0.0,0.0,0.41727483,0.0,60.03663,133.77289,806.6667,874.35895,-0.31536865234375,0.04351806640625,0.9422607421875,2.130889892578125,-5.375823974609375,0.306549072265625,1.0,4.0,4.0,4.0,1.0,100.0,event
09:30:42.354,0.0,0.0,0.0,1.312534,0.0,0.0,0.0,0.6278138,0.0,0.0,0.0,0.46426982,0.0,0.0,0.0,0.5687511,0.0,0.0,0.0,0.41727483,959.3773,830.0366,676.52014,830.4396,763.95605,-0.31536865234375,0.04351806640625,0.9422607421875,2.130889892578125,-5.375823974609375,0.306549072265625,1.0,4.0,4.0,4.0,1.0,100.0,event
09:30:42.354,0.0,0.0,0.0,1.312534,0.0,0.0,0.0,0.6278138,0.0,0.0,0.0,0.46426982,0.0,0.0,0.0,0.5687511,0.0,0.0,0.0,0.41727483,122.490845,1627.033,1184.6154,842.1245,734.94507,-0.31536865234375,0.04351806640625,0.9422607421875,2.130889892578125,-5.375823974609375,0.306549072265625,1.0,4.0,4.0,4.0,1.0,100.0,event
09:30:42.381,0.0,0.0,0.0,1.312534,0.0,0.0,0.0,0.6278138,0.0,0.0,0.0,0.46426982,0.0,0.0,0.0,0.5687511,0.0,0.0,0.0,0.41727483,1360.6959,1339.3407,909.011,814.7253,817.5458,-0.31744384765625,0.0301513671875,0.92767333984375,1.562652587890625,-3.24493408203125,0.740203857421875,1.0,4.0,4.0,4.0,1.0,100.0,event
09:30:42.382,0.0,0.0,0.0,1.312534,0.0,0.0,0.0,0.6278138,0.0,0.0,0.0,0.46426982,0.0,0.0,0.0,0.5687511,0.0,0.0,0.0,0.41727483,228.05861,488.75458,473.04028,774.0293,795.78754,-0.31744384765625,0.0301513671875,0.92767333984375,1.562652587890625,-3.24493408203125,0.740203857421875,1.0,4.0,4.0,4.0,1.0,100.0,event
09:30:42.382,0.0,0.0,0.0,1.312534,0.0,0.0,0.0,0.6278138,0.0,0.0,0.0,0.46426982,0.0,0.0,0.0,0.5687511,0.0,0.0,0.0,0.41727483,0.0,321.9414,522.1978,782.8938,699.0842,-0.31744384765625,0.0301513671875,0.92767333984375,1.562652587890625,-3.24493408203125,0.740203857421875,1.0,4.0,4.0,4.0,1.0,100.0,event
09:30:42.383,0.0,0.0,0.0,1.312534,0.0,0.0,0.0,0.6278138,0.0,0.0,0.0,0.46426982,0.0,0.0,0.0,0.5687511,0.0,0.0,0.0,0.41727483,49.96337,1325.238,836.08057,843.73627,733.3333,-0.31744384765625,0.0301513671875,0.92767333984375,1.562652587890625,-3.24493408203125,0.740203857421875,1.0,4.0,4.0,4.0,1.0,100.0,event
09:30:42.383,0.0,0.0,0.0,1.312534,0.0,0.0,0.0,0.6278138,0.0,0.0,0.0,0.46426982,0.0,0.0,0.0,0.5687511,0.0,0.0,0.0,0.41727483,718.4249,840.5128,782.49084,821.5751,662.8205,-0.31744384765625,0.0301513671875,0.92767333984375,1.562652587890625,-3.24493408203125,0.740203857421875,1.0,4.0,4.0,4.0,1.0,100.0,event
09:30:42.384,0.0,0.0,0.0,1.312534,0.0,0.0,0.0,0.6278138,0.0,0.0,0.0,0.46426982,0.0,0.0,0.0,0.5687511,0.0,0.0,0.0,0.41727483,1464.249,1148.7546,637.4359,814.3223,844.94507,-0.31744384765625,0.0301513671875,0.92767333984375,1.562652587890625,-3.24493408203125,0.740203857421875,1.0,4.0,4.0,4.0,1.0,100.0,event
09:30:42.384,0.0,0.0,0.0,1.312534,0.0,0.0,0.0,0.6278138,0.0,0.0,0.0,0.46426982,0.0,0.0,0.0,0.5687511,0.0,0.0,0.0,0.41727483,310.2564,369.08426,338.86447,794.9817,836.4835,-0.31744384765625,0.0301513671875,0.92767333984375,1.562652587890625,-3.24493408203125,0.740203857421875,1.0,4.0,4.0,4.0,1.0,100.0,event
09:30:42.385,0.0,0.0,0.0,1.312534,0.0,0.0,0.0,0.6278138,0.0,0.0,0.0,0.46426982,0.0,0.0,0.0,0.5687511,0.0,0.0,0.0,0.41727483,0.0,66.886444,303.00366,793.7729,786.9231,-0.31744384765625,0.0301513671875,0.92767333984375,1.562652587890625,-3.24493408203125,0.740203857421875,1.0,4.0,4.0,4.0,1.0,100.0,event
09:30:42.385,0.0,0.0,0.0,1.312534,0.0,0.0,0.0,0.6278138,0.0,0.0,0.0,0.46426982,0.0,0.0,0.0,0.5687511,0.0,0.0,0.0,0.41727483,285.27472,155.53113,268.75458,787.72894,948.49817,-0.31744384765625,0.0301513671875,0.92767333984375,1.562652587890625,-3.24493408203125,0.740203857421875,1.0,4.0,4.0,4.0,1.0,100.0,event
09:30:42.385,0.0,0.0,0.0,1.312534,0.0,0.0,0.0,0.6278138,0.0,0.0,0.0,0.46426982,0.0,0.0,0.0,0.5687511,0.0,0.0,0.0,0.41727483,1485.2014,342.89377,170.03664,799.41394,1133.8462,-0.31744384765625,0.0301513671875,0.92767333984375,1.562652587890625,-3.24493408203125,0.740203857421875,1.0,4.0,4.0,4.0,1.0,100.0,event
09:30:42.386,0.0,0.0,0.0,1.312534,0.0,0.0,0.0,0.6278138,0.0,0.0,0.0,0.46426982,0.0,0.0,0.0,0.5687511,0.0,0.0,0.0,0.41727483,1598.4249,1238.608,778.86444,794.17584,859.0476,-0.31744384765625,0.0301513671875,0.92767333984375,1.562652587890625,-3.24493408203125,0.740203857421875,1.0,4.0,4.0,4.0,1.0,100.0,event
09:30:42.387,0.0,0.0,0.0,1.312534,0.0,0.0,0.0,0.6278138,0.0,0.0,0.0,0.46426982,0.0,0.0,0.0,0.5687511,0.0,0.0,0.0,0.41727483,354.1758,928.7546,757.1062,784.90845,678.5348,-0.31744384765625,0.0301513671875,0.92767333984375,1.562652587890625,-3.24493408203125,0.740203857421875,1.0,4.0,4.0,4.0,1.0,100.0,event
09:30:42.412,0.0,0.0,0.0,1.312534,0.0,0.0,0.0,0.6278138,0.0,0.0,0.0,0.46426982,0.0,0.0,0.0,0.5687511,0.0,0.0,0.0,0.41727483,0.0,114.83517,350.54944,765.56775,760.32965,-0.32879638671875,0.031982421875,0.9454345703125,2.265472412109375,-3.90289306640625,-1.383209228515625,1.0,4.0,4.0,4.0,1.0,100.0,event
09:30:42.413,0.0,0.0,0.0,1.312534,0.0,0.0,0.0,0.6278138,0.0,0.0,0.0,0.46426982,0.0,0.0,0.0,0.5687511,0.0,0.0,0.0,0.41727483,313.47986,656.3736,707.5458,770.80585,759.5238,-0.32879638671875,0.031982421875,0.9454345703125,2.265472412109375,-3.90289306640625,-1.383209228515625,1.0,4.0,4.0,4.0,1.0,100.0,event
09:30:42.414,0.0,0.0,0.0,1.312534,0.0,0.0,0.0,0.6278138,0.0,0.0,0.0,0.46426982,0.0,0.0,0.0,0.5687511,0.0,0.0,0.0,0.41727483,1486.0073,1521.8682,1151.1721,792.5641,771.2088,-0.32879638671875,0.031982421875,0.9454345703125,2.265472412109375,-3.90289306640625,-1.383209228515625,1.0,4.0,4.0,4.0,1.0,100.0,event
09:30:42.415,0.0,0.0,0.0,1.312534,0.0,0.0,0.0,0.6278138,0.0,0.0,0.0,0.46426982,0.0,0.0,0.0,0.5687511,0.0,0.0,0.0,0.41727483,1610.9158,1592.381,1117.326,782.49084,822.7839,-0.32879638671875,0.031982421875,0.9454345703125,2.265472412109375,-3.90289306640625,-1.383209228515625,1.0,4.0,4.0,4.0,1.0,100.0,event
09:30:42.416,0.0,0.0,0.0,1.312534,0.0,0.0,0.0,0.6278138,0.0,0.0,0.0,0.46426982,0.0,0.0,0.0,0.5687511,0.0,0.0,0.0,0.41727483,387.21613,762.74725,573.36993,784.10254,786.9231,-0.32879638671875,0.031982421875,0.9454345703125,2.265472412109375,-3.90289306640625,-1.383209228515625,1.0,4.0,4.0,4.0,1.0,100.0,event
09:30:42.416,0.0,0.0,0.0,1.312534,0.0,0.0,0.0,0.6278138,0.0,0.0,0.0,0.46426982,0.0,0.0,0.0,0.5687511,0.0,0.0,0.0,0.41727483,0.0,45.128204,238.93773,790.54944,747.4359,-0.32879638671875,0.031982421875,0.9454345703125,2.265472412109375,-3.90289306640625,-1.383209228515625,1.0,4.0,4.0,4.0,1.0,100.0,event
09:30:42.417,0.0,0.0,0.0,1.312534,0.0,0.0,0.0,0.6278138,0.0,0.0,0.0,0.46426982,0.0,0.0,0.0,0.5687511,0.0,0.0,0.0,0.41727483,167.61905,302.1978,411.79486,774.43225,827.619,-0.32879638671875,0.031982421875,0.9454345703125,2.265472412109375,-3.90289306640625,-1.383209228515625,1.0,4.0,4.0,4.0,1.0,100.0,event
09:30:42.418,0.0,0.0,0.0,1.312534,0.0,0.0,0.0,0.6278138,0.0,0.0,0.0,0.46426982,0.0,0.0,0.0,0.5687511,0.0,0.0,0.0,0.41727483,1336.9231,1006.9231,666.4469,776.4469,852.1978,-0.32879638671875,0.031982421875,0.9454345703125,2.265472412109375,-3.90289306640625,-1.383209228515625,1.0,4.0,4.0,4.0,1.0,100.0,event
09:30:42.419,0.0,0.0,0.0,1.312534,0.0,0.0,0.0,0.6278138,0.0,0.0,0.0,0.46426982,0.0,0.0,0.0,0.5687511,0.0,0.0,0.0,0.41727483,66.886444,810.293,385.20148,799.81683,1022.23444,-0.32879638671875,0.031982421875,0.9454345703125,2.265472412109375,-3.90289306640625,-1.383209228515625,1.0,4.0,4.0,4.0,1.0,100.0,event
09:30:42.420,0.0,0.0,0.0,1.312534,0.0,0.0,0.0,0.6278138,0.0,0.0,0.0,0.46426982,0.0,0.0,0.0,0.5687511,0.0,0.0,0.0,0.41727483,559.2674,560.87915,408.1685,794.9817,934.7985,-0.32879638671875,0.031982421875,0.9454345703125,2.265472412109375,-3.90289306640625,-1.383209228515625,1.0,4.0,4.0,4.0,1.0,100.0,event
09:30:42.421,0.0,0.0,0.0,1.312534,0.0,0.0,0.0,0.6278138,0.0,0.0,0.0,0.46426982,0.0,0.0,0.0,0.5687511,0.0,0.0,0.0,0.41727483,0.0,318.71796,467.8022,778.86444,737.3626,-0.32879638671875,0.031982421875,0.9454345703125,2.265472412109375,-3.90289306640625,-1.383209228515625,1.0,4.0,4.0,4.0,1.0,100.0,event
09:30:42.422,0.0,0.0,0.0,1.2755439,0.0,0.0,0.0,0.68527687,0.0,0.0,0.0,0.51180756,0.0,0.0,0.0,0.584765,0.0,0.0,0.0,0.42778462,130.14651,162.38095,296.15384,773.22345,718.4249,-0.32879638671875,0.031982421875,0.9454345703125,2.265472412109375,-3.90289306640625,-1.383209228515625,1.0,4.0,4.0,4.0,1.0,100.0,event
09:30:42.462,0.0,0.0,0.0,1.2755439,0.0,0.0,0.0,0.68527687,0.0,0.0,0.0,0.51180756,0.0,0.0,0.0,0.584765,0.0,0.0,0.0,0.42778462,1266.4103,850.18317,616.08057,791.75824,782.0879,-0.3211669921875,0.0377197265625,0.9481201171875,2.878570556640625,-2.9010009765625,-0.336456298828125,1.0,4.0,4.0,4.0,1.0,100.0,event
09:30:42.463,0.0,0.0,0.0,1.2755439,0.0,0.0,0.0,0.68527687,0.0,0.0,0.0,0.51180756,0.0,0.0,0.0,0.584765,0.0,0.0,0.0,0.42778462,119.67033,1612.5275,1092.7472,796.99634,743.4066,-0.3211669921875,0.0377197265625,0.9481201171875,2.878570556640625,-2.9010009765625,-0.336456298828125,1.0,4.0,4.0,4.0,1.0,100.0,event
09:30:42.464,0.0,0.0,0.0,1.2755439,0.0,0.0,0.0,0.68527687,0.0,0.0,0.0,0.51180756,0.0,0.0,0.0,0.584765,0.0,0.0,0.0,0.42778462,810.293,1236.9963,876.3736,783.69965,652.74725,-0.3211669921875,0.0377197265625,0.9481201171875,2.878570556640625,-2.9010009765625,-0.336456298828125,1.0,4.0,4.0,4.0,1.0,100.0,event
09:30:42.465,0.0,0.0,0.0,1.2755439,0.0,0.0,0.0,0.68527687,0.0,0.0,0.0,0.51180756,0.0,0.0,0.0,0.584765,0.0,0.0,0.0,0.42778462,0.0,320.7326,398.09525,782.8938,669.2674,-0.3211669921875,0.0377197265625,0.9481201171875,2.878570556640625,-2.9010009765625,-0.336456298828125,1.0,4.0,4.0,4.0,1.0,100.0,event
09:30:42.466,0.0,0.0,0.0,1.2755439,0.0,0.0,0.0,0.68527687,0.0,0.0,0.0,0.51180756,0.0,0.0,0.0,0.584765,0.0,0.0,0.0,0.42778462,84.212456,385.6044,525.82416,794.17584,740.18317,-0.3211669921875,0.0377197265625,0.9481201171875,2.878570556640625,-2.9010009765625,-0.336456298828125,1.0,4.0,4.0,4.0,1.0,100.0,event
09:30:42.467,0.0,0.0,0.0,1.2755439,0.0,0.0,0.0,0.68527687,0.0,0.0,0.0,0.51180756,0.0,0.0,0.0,0.584765,0.0,0.0,0.0,0.42778462,1238.2051,1052.4542,793.7729,798.20514,887.6557,-0.3211669921875,0.0377197265625,0.9481201171875,2.878570556640625,-2.9010009765625,-0.336456298828125,1.0,4.0,4.0,4.0,1.0,100.0,event
09:30:42.468,0.0,0.0,0.0,1.2755439,0.0,0.0,0.0,0.68527687,0.0,0.0,0.0,0.51180756,0.0,0.0,0.0,0.584765,0.0,0.0,0.0,0.42778462,140.62271,1468.6813,860.65936,805.8608,942.8571,-0.3211669921875,0.0377197265625,0.9481201171875,2.878570556640625,-2.9010009765625,-0.336456298828125,1.0,4.0,4.0,4.0,1.0,100.0,event
09:30:42.468,0.0,0.0,0.0,1.2755439,0.0,0.0,0.0,0.68527687,0.0,0.0,0.0,0.51180756,0.0,0.0,0.0,0.584765,0.0,0.0,0.0,0.42778462,889.67035,820.7692,470.2198,816.337,951.7216,-0.3211669921875,0.0377197265625,0.9481201171875,2.878570556640625,-2.9010009765625,-0.336456298828125,1.0,4.0,4.0,4.0,1.0,100.0,event
09:30:42.469,0.0,0.0,0.0,1.2755439,0.0,0.0,0.0,0.68527687,0.0,0.0,0.0,0.51180756,0.0,0.0,0.0,0.584765,0.0,0.0,0.0,0.42778462,0.0,14.505494,77.36264,802.6374,925.9341,-0.3211669921875,0.0377197265625,0.9481201171875,2.878570556640625,-2.9010009765625,-0.336456298828125,1.0,4.0,4.0,4.0,1.0,100.0,event
09:30:42.469,0.0,0.0,0.0,1.2755439,0.0,0.0,0.0,0.68527687,0.0,0.0,0.0,0.51180756,0.0,0.0,0.0,0.584765,0.0,0.0,0.0,0.42778462,45.531136,425.4945,541.53845,793.36993,688.60803,-0.3211669921875,0.0377197265625,0.9481201171875,2.878570556640625,-2.9010009765625,-0.336456298828125,1.0,4.0,4.0,4.0,1.0,100.0,event
09:30:42.470,0.0,0.0,0.0,1.2755439,0.0,0.0,0.0,0.68527687,0.0,0.0,0.0,0.51180756,0.0,0.0,0.0,0.584765,0.0,0.0,0.0,0.42778462,154.72528,1471.0989,909.011,826.4103,762.74725,-0.3211669921875,0.0377197265625,0.9481201171875,2.878570556640625,-2.9010009765625,-0.336456298828125,1.0,4.0,4.0,4.0,1.0,100.0,event
09:30:42.470,0.0,0.0,0.0,1.2755439,0.0,0.0,0.0,0.68527687,0.0,0.0,0.0,0.51180756,0.0,0.0,0.0,0.584765,0.0,0.0,0.0,0.42778462,1143.9194,1101.6117,898.93774,816.337,636.2271,-0.3211669921875,0.0377197265625,0.9481201171875,2.878570556640625,-2.9010009765625,-0.336456298828125,1.0,4.0,4.0,4.0,1.0,100.0,event
09:30:42.509,0.0,0.0,0.0,1.2755439,0.0,0.0,0.0,0.68527687,0.0,0.0,0.0,0.51180756,0.0,0.0,0.0,0.584765,0.0,0.0,0.0,0.42778462,1189.4506,1324.8352,884.83514,799.81683,752.674,-0.32305908203125,0.03076171875,0.92913818359375,2.3626708984375,-3.701019287109375,-0.11962890625,1.0,4.0,4.0,4.0,1.0,100.0,event
09:30:42.510,0.0,0.0,0.0,1.2755439,0.0,0.0,0.0,0.68527687,0.0,0.0,0.0,0.51180756,0.0,0.0,0.0,0.584765,0.0,0.0,0.0,0.42778462,146.26373,623.3333,649.12085,792.96704,763.95605,-0.32305908203125,0.03076171875,0.92913818359375,2.3626708984375,-3.701019287109375,-0.11962890625,1.0,4.0,4.0,4.0,1.0,100.0,event
09:30:42.510,0.0,0.0,0.0,1.2755439,0.0,0.0,0.0,0.68527687,0.0,0.0,0.0,0.51180756,0.0,0.0,0.0,0.584765,0.0,0.0,0.0,0.42778462,0.0,158.35165,360.2198,813.1135,820.3663,-0.32305908203125,0.03076171875,0.92913818359375,2.3626708984375,-3.701019287109375,-0.11962890625,1.0,4.0,4.0,4.0,1.0,100.0,event
09:30:42.511,0.0,0.0,0.0,1.2755439,0.0,0.0,0.0,0.68527687,0.0,0.0,0.0,0.51180756,0.0,0.0,0.0,0.584765,0.0,0.0,0.0,0.42778462,787.72894,430.32968,383.58975,838.49817,961.79486,-0.32305908203125,0.03076171875,0.92913818359375,2.3626708984375,-3.701019287109375,-0.11962890625,1.0,4.0,4.0,4.0,1.0,100.0,event
09:30:42.511,0.0,0.0,0.0,1.2755439,0.0,0.0,0.0,0.68527687,0.0,0.0,0.0,0.51180756,0.0,0.0,0.0,0.584765,0.0,0.0,0.0,0.42778462,95.49451,1420.3297,954.1392,823.5897,917.0696,-0.32305908203125,0.03076171875,0.92913818359375,2.3626708984375,-3.701019287109375,-0.11962890625,1.0,4.0,4.0,4.0,1.0,100.0,event
09:30:42.512,0.0,0.0,0.0,1.2755439,0.0,0.0,0.0,0.68527687,0.0,0.0,0.0,0.51180756,0.0,0.0,0.0,0.584765,0.0,0.0,0.0,0.42778462,1341.3553,1332.8938,899.7436,803.44324,826.0073,-0.32305908203125,0.03076171875,0.92913818359375,2.3626708984375,-3.701019287109375,-0.11962890625,1.0,4.0,4.0,4.0,1.0,100.0,event
09:30:42.512,0.0,0.0,0.0,1.2755439,0.0,0.0,0.0,0.68527687,0.0,0.0,0.0,0.51180756,0.0,0.0,0.0,0.584765,0.0,0.0,0.0,0.42778462,186.15384,355.3846,331.61172,832.4542,817.1429,-0.32305908203125,0.03076171875,0.92913818359375,2.3626708984375,-3.701019287109375,-0.11962890625,1.0,4.0,4.0,4.0,1.0,100.0,event
09:30:42.513,0.0,0.0,0.0,1.2755439,0.0,0.0,0.0,0.68527687,0.0,0.0,0.0,0.51180756,0.0,0.0,0.0,0.584765,0.0,0.0,0.0,0.42778462,0.0,0.0,36.263737,838.9011,1043.5897,-0.32305908203125,0.03076171875,0.92913818359375,2.3626708984375,-3.701019287109375,-0.11962890625,1.0,4.0,4.0,4.0,1.0,100.0,event
09:30:42.514,0.0,0.0,0.0,1.2755439,0.0,0.0,0.0,0.68527687,0.0,0.0,0.0,0.51180756,0.0,0.0,0.0,0.584765,0.0,0.0,0.0,0.42778462,790.14655,596.337,446.4469,802.6374,953.3333,-0.32305908203125,0.03076171875,0.92913818359375,2.3626708984375,-3.701019287109375,-0.11962890625,1.0,4.0,4.0,4.0,1.0,100.0,event
09:30:42.514,0.0,0.0,0.0,1.2755439,0.0,0.0,0.0,0.68527687,0.0,0.0,0.0,0.51180756,0.0,0.0,0.0,0.584765,0.0,0.0,0.0,0.42778462,72.930405,1573.0403,1143.9194,814.7253,700.293,-0.32305908203125,0.03076171875,0.92913818359375,2.3626708984375,-3.701019287109375,-0.11962890625,1.0,4.0,4.0,4.0,1.0,100.0,event
09:30:42.515,0.0,0.0,0.0,1.2755439,0.0,0.0,0.0,0.68527687,0.0,0.0,0.0,0.51180756,0.0,0.0,0.0,0.584765,0.0,0.0,0.0,0.42778462,1450.9524,1473.9194,1034.3224,820.3663,775.64105,-0.32305908203125,0.03076171875,0.92913818359375,2.3626708984375,-3.701019287109375,-0.11962890625,1.0,4.0,4.0,4.0,1.0,100.0,event
09:30:42.516,0.0,0.0,0.0,1.2755439,0.0,0.0,0.0,0.68527687,0.0,0.0,0.0,0.51180756,0.0,0.0,0.0,0.584765,0.0,0.0,0.0,0.42778462,291.72162,678.93774,619.707,801.4286,740.18317,-0.32305908203125,0.03076171875,0.92913818359375,2.3626708984375,-3.701019287109375,-0.11962890625,1.0,4.0,4.0,4.0,1.0,100.0,event
09:30:42.540,0.0,0.0,0.0,1.2416749,0.0,0.0,0.0,0.7621892,0.0,0.0,0.0,0.5689292,0.0,0.0,0.0,0.6114541,0.0,0.0,0.0,0.44043186,547.98535,882.01465,820.3663,813.5165,643.47986,-0.32305908203125,0.03076171875,0.92913818359375,2.3626708984375,-3.701019287109375,-0.11962890625,1.0,4.0,4.0,4.0,1.0,100.0,event
09:30:42.540,0.0,0.0,0.0,1.2755439,0.0,0.0,0.0,0.68527687,0.0,0.0,0.0,0.51180756,0.0,0.0,0.0,0.584765,0.0,0.0,0.0,0.42778462,0.0,437.58243,622.9304,812.71063,653.95605,-0.32305908203125,0.03076171875,0.92913818359375,2.3626708984375,-3.701019287109375,-0.11962890625,1.0,4.0,4.0,4.0,1.0,100.0,event
09:30:42.545,0.0,0.0,0.0,1.2416749,0.0,0.0,0.0,0.7621892,0.0,0.0,0.0,0.5689292,0.0,0.0,0.0,0.6114541,0.0,0.0,0.0,0.44043186,1624.2124,1429.597,931.1722,825.6044,735.7509,-0.32305908203125,0.03076171875,0.92913818359375,2.3626708984375,-3.701019287109375,-0.11962890625,1.0,4.0,4.0,4.0,1.0,100.0,event
09:30:42.546,0.0,0.0,0.0,1.2416749,0.0,0.0,0.0,0.7621892,0.0,0.0,0.0,0.5689292,0.0,0.0,0.0,0.6114541,0.0,0.0,0.0,0.44043186,1536.3737,1499.7069,904.57874,832.0513,745.42126,-0.32305908203125,0.03076171875,0.92913818359375,2.3626708984375,-3.701019287109375,-0.11962890625,1.0,4.0,4.0,4.0,1.0,100.0,event
09:30:42.547,0.0,0.0,0.0,1.2416749,0.0,0.0,0.0,0.7621892,0.0,0.0,0.0,0.5689292,0.0,0.0,0.0,0.6114541,0.0,0.0,0.0,0.44043186,352.16116,750.65936,576.99634,807.0696,715.6044,-0.32305908203125,0.03076171875,0.92913818359375,2.3626708984375,-3.701019287109375,-0.11962890625,1.0,4.0,4.0,4.0,1.0,100.0,event
09:30:42.547,0.0,0.0,0.0,1.2416749,0.0,0.0,0.0,0.7621892,0.0,0.0,0.0,0.5689292,0.0,0.0,0.0,0.6114541,0.0,0.0,0.0,0.44043186,0.0,139.41393,319.92673,806.6667,735.7509,-0.32305908203125,0.03076171875,0.92913818359375,2.3626708984375,-3.701019287109375,-0.11962890625,1.0,4.0,4.0,4.0,1.0,100.0,event
09:30:42.549,0.0,0.0,0.0,1.2416749,0.0,0.0,0.0,0.7621892,0.0,0.0,0.0,0.5689292,0.0,0.0,0.0,0.6114541,0.0,0.0,0.0,0.44043186,200.25641,118.46154,228.05861,805.05493,866.30035,-0.32305908203125,0.03076171875,0.92913818359375,2.3626708984375,-3.701019287109375,-0.11962890625,1.0,4.0,4.0,4.0,1.0,100.0,event
09:30:42.550,0.0,0.0,0.0,1.2416749,0.0,0.0,0.0,0.7621892,0.0,0.0,0.0,0.5689292,0.0,0.0,0.0,0.6114541,0.0,0.0,0.0,0.44043186,1393.3334,285.27472,122.08791,831.6484,1129.414,-0.32305908203125,0.03076171875,0.92913818359375,2.3626708984375,-3.701019287109375,-0.11962890625,1.0,4.0,4.0,4.0,1.0,100.0,event
09:30:42.550,0.0,0.0,0.0,1.2416749,0.0,0.0,0.0,0.7621892,0.0,0.0,0.0,0.5689292,0.0,0.0,0.0,0.6114541,0.0,0.0,0.0,0.44043186,6.849817,1238.2051,743.8095,842.9304,886.04395,-0.32305908203125,0.03076171875,0.92913818359375,2.3626708984375,-3.701019287109375,-0.11962890625,1.0,4.0,4.0,4.0,1.0,100.0,event
09:30:42.551,0.0,0.0,0.0,1.2416749,0.0,0.0,0.0,0.7621892,0.0,0.0,0.0,0.5689292,0.0,0.0,0.0,0.6114541,0.0,0.0,0.0,0.44043186,425.89743,1103.2234,852.1978,814.3223,688.60803,-0.32305908203125,0.03076171875,0.92913818359375,2.3626708984375,-3.701019287109375,-0.11962890625,1.0,4.0,4.0,4.0,1.0,100.0,event
09:30:42.552,0.0,0.0,0.0,1.2416749,0.0,0.0,0.0,0.7621892,0.0,0.0,0.0,0.5689292,0.0,0.0,0.0,0.6114541,0.0,0.0,0.0,0.44043186,0.0,192.60074,394.06595,784.10254,747.8388,-0.32305908203125,0.03076171875,0.92913818359375,2.3626708984375,-3.701019287109375,-0.11962890625,1.0,4.0,4.0,4.0,1.0,100.0,event
09:30:42.553,0.0,0.0,0.0,1.2416749,0.0,0.0,0.0,0.7621892,0.0,0.0,0.0,0.5689292,0.0,0.0,0.0,0.6114541,0.0,0.0,0.0,0.44043186,233.69963,635.82416,672.8938,792.5641,757.50916,-0.32305908203125,0.03076171875,0.92913818359375,2.3626708984375,-3.701019287109375,-0.11962890625,1.0,4.0,4.0,4.0,1.0,100.0,event
09:30:42.593,0.0,0.0,0.0,1.2416749,0.0,0.0,0.0,0.7621892,0.0,0.0,0.0,0.5689292,0.0,0.0,0.0,0.6114541,0.0,0.0,0.0,0.44043186,1413.0769,1517.4359,1159.2307,813.5165,745.82416,-0.31451416015625,0.02435302734375,0.93304443359375,1.502838134765625,-2.811279296875,-0.560760498046875,1.0,4.0,4.0,4.0,1.0,100.0,event
09:30:42.594,0.0,0.0,0.0,1.2416749,0.0,0.0,0.0,0.7621892,0.0,0.0,0.0,0.5689292,0.0,0.0,0.0,0.6114541,0.0,0.0,0.0,0.44043186,14.102564,1609.7069,1145.9341,815.9341,803.8461,-0.31451416015625,0.02435302734375,0.93304443359375,1.502838134765625,-2.811279296875,-0.560760498046875,1.0,4.0,4.0,4.0,1.0,100.0,event
09:30:42.595,0.0,0.0,0.0,1.2416749,0.0,0.0,0.0,0.7621892,0.0,0.0,0.0,0.5689292,0.0,0.0,0.0,0.6114541,0.0,0.0,0.0,0.44043186,466.1905,923.1135,685.38464,786.9231,880.0,-0.31451416015625,0.02435302734375,0.93304443359375,1.502838134765625,-2.811279296875,-0.560760498046875,1.0,4.0,4.0,4.0,1.0,100.0,event
09:30:42.595,0.0,0.0,0.0,1.2416749,0.0,0.0,0.0,0.7621892,0.0,0.0,0.0,0.5689292,0.0,0.0,0.0,0.6114541,0.0,0.0,0.0,0.44043186,0.0,371.90475,490.3663,776.04395,708.3516,-0.31451416015625,0.02435302734375,0.93304443359375,1.502838134765625,-2.811279296875,-0.560760498046875,1.0,4.0,4.0,4.0,1.0,100.0,event
09:30:42.596,0.0,0.0,0.0,1.2416749,0.0,0.0,0.0,0.7621892,0.0,0.0,0.0,0.5689292,0.0,0.0,0.0,0.6114541,0.0,0.0,0.0,0.44043186,1314.359,1045.2014,718.8278,780.07324,823.9927,-0.31451416015625,0.02435302734375,0.93304443359375,1.502838134765625,-2.811279296875,-0.560760498046875,1.0,4.0,4.0,4.0,1.0,100.0,event
09:30:42.596,0.0,0.0,0.0,1.2416749,0.0,0.0,0.0,0.7621892,0.0,0.0,0.0,0.5689292,0.0,0.0,0.0,0.6114541,0.0,0.0,0.0,0.44043186,166.00732,615.2747,684.9817,771.6117,626.9597,-0.31451416015625,0.02435302734375,0.93304443359375,1.502838134765625,-2.811279296875,-0.560760498046875,1.0,4.0,4.0,4.0,1.0,100.0,event
09:30:42.597,0.0,0.0,0.0,1.2416749,0.0,0.0,0.0,0.7621892,0.0,0.0,0.0,0.5689292,0.0,0.0,0.0,0.6114541,0.0,0.0,0.0,0.44043186,705.5311,572.5641,338.46155,774.83514,898.1319,-0.31451416015625,0.02435302734375,0.93304443359375,1.502838134765625,-2.811279296875,-0.560760498046875,1.0,4.0,4.0,4.0,1.0,100.0,event
09:30:42.597,0.0,0.0,0.0,1.2416749,0.0,0.0,0.0,0.7621892,0.0,0.0,0.0,0.5689292,0.0,0.0,0.0,0.6114541,0.0,0.0,0.0,0.44043186,98.71795,832.0513,372.30768,789.34064,1005.31134,-0.31451416015625,0.02435302734375,0.93304443359375,1.502838134765625,-2.811279296875,-0.560760498046875,1.0,4.0,4.0,4.0,1.0,100.0,event
09:30:42.598,0.0,0.0,0.0,1.2416749,0.0,0.0,0.0,0.7621892,0.0,0.0,0.0,0.5689292,0.0,0.0,0.0,0.6114541,0.0,0.0,0.0,0.44043186,0.0,404.94507,502.85715,786.1172,747.8388,-0.31451416015625,0.02435302734375,0.93304443359375,1.502838134765625,-2.811279296875,-0.560760498046875,1.0,4.0,4.0,4.0,1.0,100.0,event
09:30:42.598,0.0,0.0,0.0,1.2416749,0.0,0.0,0.0,0.7621892,0.0,0.0,0.0,0.5689292,0.0,0.0,0.0,0.6114541,0.0,0.0,0.0,0.44043186,73.333336,338.46155,488.35165,788.1319,728.0952,-0.31451416015625,0.02435302734375,0.93304443359375,1.502838134765625,-2.811279296875,-0.560760498046875,1.0,4.0,4.0,4.0,1.0,100.0,event
09:30:42.599,0.0,0.0,0.0,1.2416749,0.0,0.0,0.0,0.7621892,0.0,0.0,0.0,0.5689292,0.0,0.0,0.0,0.6114541,0.0,0.0,0.0,0.44043186,1178.9744,610.84247,469.81686,804.65204,901.75824,-0.31451416015625,0.02435302734375,0.93304443359375,1.502838134765625,-2.811279296875,-0.560760498046875,1.0,4.0,4.0,4.0,1.0,100.0,event
09:30:42.599,0.0,0.0,0.0,1.2416749,0.0,0.0,0.0,0.7621892,0.0,0.0,0.0,0.5689292,0.0,0.0,0.0,0.6114541,0.0,0.0,0.0,0.44043186,145.86081,1492.0513,1016.99634,817.9487,891.28204,-0.31451416015625,0.02435302734375,0.93304443359375,1.502838134765625,-2.811279296875,-0.560760498046875,1.0,4.0,4.0,4.0,1.0,100.0,event
09:30:42.641,0.0,0.0,0.0,1.2416749,0.0,0.0,0.0,0.7621892,0.0,0.0,0.0,0.5689292,0.0,0.0,0.0,0.6114541,0.0,0.0,0.0,0.44043186,985.9707,1452.967,1044.3956,791.3553,817.5458,-0.32843017578125,0.02947998046875,0.92315673828125,0.6280517578125,-6.44500732421875,1.682281494140625,1.0,4.0,4.0,4.0,1.0,100.0,event
09:30:42.642,0.0,0.0,0.0,1.2416749,0.0,0.0,0.0,0.7621892,0.0,0.0,0.0,0.5689292,0.0,0.0,0.0,0.6114541,0.0,0.0,0.0,0.44043186,0.0,485.1282,535.89746,772.01465,774.43225,-0.32843017578125,0.02947998046875,0.92315673828125,0.6280517578125,-6.44500732421875,1.682281494140625,1.0,4.0,4.0,4.0,1.0,100.0,event
09:30:42.642,0.0,0.0,0.0,1.2416749,0.0,0.0,0.0,0.7621892,0.0,0.0,0.0,0.5689292,0.0,0.0,0.0,0.6114541,0.0,0.0,0.0,0.44043186,35.054947,359.81686,519.3773,754.68866,755.4945,-0.32843017578125,0.02947998046875,0.92315673828125,0.6280517578125,-6.44500732421875,1.682281494140625,1.0,4.0,4.0,4.0,1.0,100.0,event
09:30:42.643,0.0,0.0,0.0,1.203113,0.0,0.0,0.0,0.87601596,0.0,0.0,0.0,0.6134973,0.0,0.0,0.0,0.6489683,0.0,0.0,0.0,0.4506784,1176.9597,1172.1245,946.08057,795.38464,778.0586,-0.32843017578125,0.02947998046875,0.92315673828125,0.6280517578125,-6.44500732421875,1.682281494140625,1.0,4.0,4.0,4.0,1.0,100.0,event
09:30:42.646,0.0,0.0,0.0,1.203113,0.0,0.0,0.0,0.87601596,0.0,0.0,0.0,0.6134973,0.0,0.0,0.0,0.6489683,0.0,0.0,0.0,0.4506784,155.53113,1641.1355,1135.8608,829.6337,736.1539,-0.32843017578125,0.02947998046875,0.92315673828125,0.6280517578125,-6.44500732421875,1.682281494140625,1.0,4.0,4.0,4.0,1.0,100.0,event
09:30:42.647,0.0,0.0,0.0,1.203113,0.0,0.0,0.0,0.87601596,0.0,0.0,0.0,0.6134973,0.0,0.0,0.0,0.6489683,0.0,0.0,0.0,0.4506784,1058.0952,949.707,599.15753,796.5934,743.4066,-0.32843017578125,0.02947998046875,0.92315673828125,0.6280517578125,-6.44500732421875,1.682281494140625,1.0,4.0,4.0,4.0,1.0,100.0,event
09:30:42.647,0.0,0.0,0.0,1.203113,0.0,0.0,0.0,0.87601596,0.0,0.0,0.0,0.6134973,0.0,0.0,0.0,0.6489683,0.0,0.0,0.0,0.4506784,28.205128,75.750916,128.5348,786.9231,784.90845,-0.32843017578125,0.02947998046875,0.92315673828125,0.6280517578125,-6.44500732421875,1.682281494140625,1.0,4.0,4.0,4.0,1.0,100.0,event
09:30:42.648,0.0,0.0,0.0,1.203113,0.0,0.0,0.0,0.87601596,0.0,0.0,0.0,0.6134973,0.0,0.0,0.0,0.6489683,0.0,0.0,0.0,0.4506784,0.0,240.95238,374.32236,784.90845,699.4872,-0.32843017578125,0.02947998046875,0.92315673828125,0.6280517578125,-6.44500732421875,1.682281494140625,1.0,4.0,4.0,4.0,1.0,100.0,event
09:30:42.648,0.0,0.0,0.0,1.203113,0.0,0.0,0.0,0.87601596,0.0,0.0,0.0,0.6134973,0.0,0.0,0.0,0.6489683,0.0,0.0,0.0,0.4506784,1058.4982,1019.41394,808.68134,800.6227,655.9707,-0.32843017578125,0.02947998046875,0.92315673828125,0.6280517578125,-6.44500732421875,1.682281494140625,1.0,4.0,4.0,4.0,1.0,100.0,event
09:30:42.649,0.0,0.0,0.0,1.203113,0.0,0.0,0.0,0.87601596,0.0,0.0,0.0,0.6134973,0.0,0.0,0.0,0.6489683,0.0,0.0,0.0,0.4506784,1304.6886,739.3773,358.20514,789.7436,965.42126,-0.32843017578125,0.02947998046875,0.92315673828125,0.6280517578125,-6.44500732421875,1.682281494140625,1.0,4.0,4.0,4.0,1.0,100.0,event
09:30:42.649,0.0,0.0,0.0,1.203113,0.0,0.0,0.0,0.87601596,0.0,0.0,0.0,0.6134973,0.0,0.0,0.0,0.6489683,0.0,0.0,0.0,0.4506784,141.42857,1237.3993,691.4286,815.5311,858.24176,-0.32843017578125,0.02947998046875,0.92315673828125,0.6280517578125,-6.44500732421875,1.682281494140625,1.0,4.0,4.0,4.0,1.0,100.0,event
09:30:42.650,0.0,0.0,0.0,1.203113,0.0,0.0,0.0,0.87601596,0.0,0.0,0.0,0.6134973,0.0,0.0,0.0,0.6489683,0.0,0.0,0.0,0.4506784,222.82051,452.89377,439.59708,773.22345,792.5641,-0.32843017578125,0.02947998046875,0.92315673828125,0.6280517578125,-6.44500732421875,1.682281494140625,1.0,4.0,4.0,4.0,1.0,100.0,event
09:30:42.674,0.0,0.0,0.0,1.203113,0.0,0.0,0.0,0.87601596,0.0,0.0,0.0,0.6134973,0.0,0.0,0.0,0.6489683,0.0,0.0,0.0,0.4506784,0.0,380.3663,522.6007,759.5238,679.34064,-0.3299560546875,0.03076171875,0.94818115234375,1.772003173828125,-4.5758056640625,0.186920166015625,1.0,4.0,4.0,4.0,1.0,100.0,event
09:30:42.675,0.0,0.0,0.0,1.203113,0.0,0.0,0.0,0.87601596,0.0,0.0,0.0,0.6134973,0.0,0.0,0.0,0.6489683,0.0,0.0,0.0,0.4506784,641.06226,462.56412,433.95605,764.35895,857.03296,-0.3299560546875,0.03076171875,0.94818115234375,1.772003173828125,-4.5758056640625,0.186920166015625,1.0,4.0,4.0,4.0,1.0,100.0,event
09:30:42.676,0.0,0.0,0.0,1.203113,0.0,0.0,0.0,0.87601596,0.0,0.0,0.0,0.6134973,0.0,0.0,0.0,0.6489683,0.0,0.0,0.0,0.4506784,29.010988,1343.37,884.83514,776.8498,877.1795,-0.3299560546875,0.03076171875,0.94818115234375,1.772003173828125,-4.5758056640625,0.186920166015625,1.0,4.0,4.0,4.0,1.0,100.0,event
09:30:42.677,0.0,0.0,0.0,1.203113,0.0,0.0,0.0,0.87601596,0.0,0.0,0.0,0.6134973,0.0,0.0,0.0,0.6489683,0.0,0.0,0.0,0.4506784,1481.5751,1598.8279,1035.5311,761.9414,707.9487,-0.3299560546875,0.03076171875,0.94818115234375,1.772003173828125,-4.5758056640625,0.186920166015625,1.0,4.0,4.0,4.0,1.0,100.0,event
09:30:42.677,0.0,0.0,0.0,1.203113,0.0,0.0,0.0,0.87601596,0.0,0.0,0.0,0.6134973,0.0,0.0,0.0,0.6489683,0.0,0.0,0.0,0.4506784,298.57144,778.0586,640.2564,757.9121,747.4359,-0.3299560546875,0.03076171875,0.94818115234375,1.772003173828125,-4.5758056640625,0.186920166015625,1.0,4.0,4.0,4.0,1.0,100.0,event
09:30:42.678,0.0,0.0,0.0,1.203113,0.0,0.0,0.0,0.87601596,0.0,0.0,0.0,0.6134973,0.0,0.0,0.0,0.6489683,0.0,0.0,0.0,0.4506784,0.0,91.06227,242.96703,771.2088,915.8608,-0.3299560546875,0.03076171875,0.94818115234375,1.772003173828125,-4.5758056640625,0.186920166015625,1.0,4.0,4.0,4.0,1.0,100.0,event
09:30:42.678,0.0,0.0,0.0,1.203113,0.0,0.0,0.0,0.87601596,0.0,0.0,0.0,0.6134973,0.0,0.0,0.0,0.6489683,0.0,0.0,0.0,0.4506784,510.1099,394.06595,354.57877,778.46155,853.00366,-0.3299560546875,0.03076171875,0.94818115234375,1.772003173828125,-4.5758056640625,0.186920166015625,1.0,4.0,4.0,4.0,1.0,100.0,event
09:30:42.679,0.0,0.0,0.0,1.203113,0.0,0.0,0.0,0.87601596,0.0,0.0,0.0,0.6134973,0.0,0.0,0.0,0.6489683,0.0,0.0,0.0,0.4506784,1620.1831,1474.3224,974.68866,784.10254,768.3883,-0.3299560546875,0.03076171875,0.94818115234375,1.772003173828125,-4.5758056640625,0.186920166015625,1.0,4.0,4.0,4.0,1.0,100.0,event
09:30:42.679,0.0,0.0,0.0,1.203113,0.0,0.0,0.0,0.87601596,0.0,0.0,0.0,0.6134973,0.0,0.0,0.0,0.6489683,0.0,0.0,0.0,0.4506784,1522.2711,1482.381,905.38464,786.52014,804.65204,-0.3299560546875,0.03076171875,0.94818115234375,1.772003173828125,-4.5758056640625,0.186920166015625,1.0,4.0,4.0,4.0,1.0,100.0,event
09:30:42.680,0.0,0.0,0.0,1.203113,0.0,0.0,0.0,0.87601596,0.0,0.0,0.0,0.6134973,0.0,0.0,0.0,0.6489683,0.0,0.0,0.0,0.4506784,319.12088,242.5641,151.90475,784.5055,942.0513,-0.3299560546875,0.03076171875,0.94818115234375,1.772003173828125,-4.5758056640625,0.186920166015625,1.0,4.0,4.0,4.0,1.0,100.0,event
09:30:42.680,0.0,0.0,0.0,1.203113,0.0,0.0,0.0,0.87601596,0.0,0.0,0.0,0.6134973,0.0,0.0,0.0,0.6489683,0.0,0.0,0.0,0.4506784,0.0,109.19414,293.73627,774.0293,776.8498,-0.3299560546875,0.03076171875,0.94818115234375,1.772003173828125,-4.5758056640625,0.186920166015625,1.0,4.0,4.0,4.0,1.0,100.0,event
09:30:42.681,0.0,0.0,0.0,1.203113,0.0,0.0,0.0,0.87601596,0.0,0.0,0.0,0.6134973,0.0,0.0,0.0,0.6489683,0.0,0.0,0.0,0.4506784,352.96704,802.23444,765.56775,782.0879,649.92676,-0.3299560546875,0.03076171875,0.94818115234375,1.772003173828125,-4.5758056640625,0.186920166015625,1.0,4.0,4.0,4.0,1.0,100.0,event
09:30:42.752,0.0,0.0,0.0,1.203113,0.0,0.0,0.0,0.87601596,0.0,0.0,0.0,0.6134973,0.0,0.0,0.0,0.6489683,0.0,0.0,0.0,0.4506784,1521.0623,1309.5238,851.79486,795.78754,693.0403,-0.315185546875,0.03228759765625,0.9371337890625,2.564544677734375,-2.87109375,-1.009368896484375,1.0,4.0,4.0,4.0,1.0,100.0,event
09:30:42.753,0.0,0.0,0.0,1.203113,0.0,0.0,0.0,0.87601596,0.0,0.0,0.0,0.6134973,0.0,0.0,0.0,0.6489683,0.0,0.0,0.0,0.4506784,355.78754,684.57874,510.51282,807.47253,821.5751,-0.315185546875,0.03228759765625,0.9371337890625,2.564544677734375,-2.87109375,-1.009368896484375,1.0,4.0,4.0,4.0,1.0,100.0,event
09:30:42.753,0.0,0.0,0.0,1.203113,0.0,0.0,0.0,0.87601596,0.0,0.0,0.0,0.6134973,0.0,0.0,0.0,0.6489683,0.0,0.0,0.0,0.4506784,1584.3224,1295.0183,726.4835,794.9817,765.9707,-0.315185546875,0.03228759765625,0.9371337890625,2.564544677734375,-2.87109375,-1.009368896484375,1.0,4.0,4.0,4.0,1.0,100.0,event
09:30:42.754,0.0,0.0,0.0,1.203113,0.0,0.0,0.0,0.87601596,0.0,0.0,0.0,0.6134973,0.0,0.0,0.0,0.6489683,0.0,0.0,0.0,0.4506784,0.0,360.6227,551.6117,809.0842,707.1429,-0.315185546875,0.03228759765625,0.9371337890625,2.564544677734375,-2.87109375,-1.009368896484375,1.0,4.0,4.0,4.0,1.0,100.0,event
09:30:42.755,0.0,0.0,0.0,1.203113,0.0,0.0,0.0,0.87601596,0.0,0.0,0.0,0.6134973,0.0,0.0,0.0,0.6489683,0.0,0.0,0.0,0.4506784,122.08791,418.24176,533.0769,811.50183,767.5824,-0.315185546875,0.03228759765625,0.9371337890625,2.564544677734375,-2.87109375,-1.009368896484375,1.0,4.0,4.0,4.0,1.0,100.0,event
09:30:42.755,0.0,0.0,0.0,1.1647165,0.0,0.0,0.0,0.99844354,0.0,0.0,0.0,0.6481852,0.0,0.0,0.0,0.68648213,0.0,0.0,0.0,0.45547524,1315.5677,816.337,524.61536,838.9011,906.99634,-0.315185546875,0.03228759765625,0.9371337890625,2.564544677734375,-2.87109375,-1.009368896484375,1.0,4.0,4.0,4.0,1.0,100.0,event
09:30:42.759,0.0,0.0,0.0,1.1647165,0.0,0.0,0.0,0.99844354,0.0,0.0,0.0,0.6481852,0.0,0.0,0.0,0.68648213,0.0,0.0,0.0,0.45547524,30.622711,1290.989,735.34796,834.4689,931.978,-0.315185546875,0.03228759765625,0.9371337890625,2.564544677734375,-2.87109375,-1.009368896484375,1.0,4.0,4.0,4.0,1.0,100.0,event
09:30:42.760,0.0,0.0,0.0,1.1647165,0.0,0.0,0.0,0.99844354,0.0,0.0,0.0,0.6481852,0.0,0.0,0.0,0.68648213,0.0,0.0,0.0,0.45547524,439.19415,975.09155,736.55676,815.12823,809.4872,-0.315185546875,0.03228759765625,0.9371337890625,2.564544677734375,-2.87109375,-1.009368896484375,1.0,4.0,4.0,4.0,1.0,100.0,event
09:30:42.761,0.0,0.0,0.0,1.1647165,0.0,0.0,0.0,0.99844354,0.0,0.0,0.0,0.6481852,0.0,0.0,0.0,0.68648213,0.0,0.0,0.0,0.45547524,0.0,146.26373,248.20512,806.26373,817.9487,-0.315185546875,0.03228759765625,0.9371337890625,2.564544677734375,-2.87109375,-1.009368896484375,1.0,4.0,4.0,4.0,1.0,100.0,event
09:30:42.761,0.0,0.0,0.0,1.1647165,0.0,0.0,0.0,0.99844354,0.0,0.0,0.0,0.6481852,0.0,0.0,0.0,0.68648213,0.0,0.0,0.0,0.45547524,150.29305,168.82784,156.33699,823.1868,948.49817,-0.315185546875,0.03228759765625,0.9371337890625,2.564544677734375,-2.87109375,-1.009368896484375,1.0,4.0,4.0,4.0,1.0,100.0,event
09:30:42.762,0.0,0.0,0.0,1.1647165,0.0,0.0,0.0,0.99844354,0.0,0.0,0.0,0.6481852,0.0,0.0,0.0,0.68648213,0.0,0.0,0.0,0.45547524,1331.6849,1276.8865,938.8278,836.8865,777.6557,-0.315185546875,0.03228759765625,0.9371337890625,2.564544677734375,-2.87109375,-1.009368896484375,1.0,4.0,4.0,4.0,1.0,100.0,event
09:30:42.762,0.0,0.0,0.0,1.1647165,0.0,0.0,0.0,0.99844354,0.0,0.0,0.0,0.6481852,0.0,0.0,0.0,0.68648213,0.0,0.0,0.0,0.45547524,58.424908,4.029304,1125.7876,813.91943,773.6264,-0.315185546875,0.03228759765625,0.9371337890625,2.564544677734375,-2.87109375,-1.009368896484375,1.0,4.0,4.0,4.0,1.0,100.0,event
09:30:42.789,0.0,0.0,0.0,1.1647165,0.0,0.0,0.0,0.99844354,0.0,0.0,0.0,0.6481852,0.0,0.0,0.0,0.68648213,0.0,0.0,0.0,0.45547524,522.1978,952.52747,662.01465,809.0842,841.31866,-0.315185546875,0.03228759765625,0.9371337890625,2.564544677734375,-2.87109375,-1.009368896484375,1.0,4.0,4.0,4.0,1.0,100.0,event
09:30:42.790,0.0,0.0,0.0,1.1647165,0.0,0.0,0.0,0.99844354,0.0,0.0,0.0,0.6481852,0.0,0.0,0.0,0.68648213,0.0,0.0,0.0,0.45547524,0.0,442.01465,563.2967,796.1905,772.4176,-0.315185546875,0.03228759765625,0.9371337890625,2.564544677734375,-2.87109375,-1.009368896484375,1.0,4.0,4.0,4.0,1.0,100.0,event
09:30:42.791,0.0,0.0,0.0,1.1647165,0.0,0.0,0.0,0.99844354,0.0,0.0,0.0,0.6481852,0.0,0.0,0.0,0.68648213,0.0,0.0,0.0,0.45547524,112.41758,620.10986,735.7509,807.47253,706.7399,-0.315185546875,0.03228759765625,0.9371337890625,2.564544677734375,-2.87109375,-1.009368896484375,1.0,4.0,4.0,4.0,1.0,100.0,event
09:30:42.791,0.0,0.0,0.0,1.1647165,0.0,0.0,0.0,0.99844354,0.0,0.0,0.0,0.6481852,0.0,0.0,0.0,0.68648213,0.0,0.0,0.0,0.45547524,1245.8608,1196.7032,911.8315,833.663,758.71796,-0.315185546875,0.03228759765625,0.9371337890625,2.564544677734375,-2.87109375,-1.009368896484375,1.0,4.0,4.0,4.0,1.0,100.0,event
09:30:42.792,0.0,0.0,0.0,1.1647165,0.0,0.0,0.0,0.99844354,0.0,0.0,0.0,0.6481852,0.0,0.0,0.0,0.68648213,0.0,0.0,0.0,0.45547524,690.2198,899.34064,574.9817,807.8755,846.1539,-0.315185546875,0.03228759765625,0.9371337890625,2.564544677734375,-2.87109375,-1.009368896484375,1.0,4.0,4.0,4.0,1.0,100.0,event
09:30:42.792,0.0,0.0,0.0,1.1647165,0.0,0.0,0.0,0.99844354,0.0,0.0,0.0,0.6481852,0.0,0.0,0.0,0.68648213,0.0,0.0,0.0,0.45547524,74.94505,1430.8059,867.9121,821.1722,875.56775,-0.315185546875,0.03228759765625,0.9371337890625,2.564544677734375,-2.87109375,-1.009368896484375,1.0,4.0,4.0,4.0,1.0,100.0,event
09:30:42.793,0.0,0.0,0.0,1.1647165,0.0,0.0,0.0,0.99844354,0.0,0.0,0.0,0.6481852,0.0,0.0,0.0,0.68648213,0.0,0.0,0.0,0.45547524,0.0,211.13553,339.2674,806.6667,809.0842,-0.315185546875,0.03228759765625,0.9371337890625,2.564544677734375,-2.87109375,-1.009368896484375,1.0,4.0,4.0,4.0,1.0,100.0,event
09:30:42.793,0.0,0.0,0.0,1.1647165,0.0,0.0,0.0,0.99844354,0.0,0.0,0.0,0.6481852,0.0,0.0,0.0,0.68648213,0.0,0.0,0.0,0.45547524,5.2380953,114.432236,322.74725,798.60803,833.663,-0.315185546875,0.03228759765625,0.9371337890625,2.564544677734375,-2.87109375,-1.009368896484375,1.0,4.0,4.0,4.0,1.0,100.0,event
09:30:42.794,0.0,0.0,0.0,1.1647165,0.0,0.0,0.0,0.99844354,0.0,0.0,0.0,0.6481852,0.0,0.0,0.0,0.68648213,0.0,0.0,0.0,0.45547524,1018.60803,155.53113,169.6337,817.5458,1106.8499,-0.315185546875,0.03228759765625,0.9371337890625,2.564544677734375,-2.87109375,-1.009368896484375,1.0,4.0,4.0,4.0,1.0,100.0,event
09:30:42.795,0.0,0.0,0.0,1.1647165,0.0,0.0,0.0,0.99844354,0.0,0.0,0.0,0.6481852,0.0,0.0,0.0,0.68648213,0.0,0.0,0.0,0.45547524,156.33699,838.0952,455.7143,830.84247,1038.3517,-0.315185546875,0.03228759765625,0.9371337890625,2.564544677734375,-2.87109375,-1.009368896484375,1.0,4.0,4.0,4.0,1.0,100.0,event
09:30:42.795,0.0,0.0,0.0,1.1647165,0.0,0.0,0.0,0.99844354,0.0,0.0,0.0,0.6481852,0.0,0.0,0.0,0.68648213,0.0,0.0,0.0,0.45547524,1055.6776,1278.4982,877.98535,805.4579,687.3993,-0.315185546875,0.03228759765625,0.9371337890625,2.564544677734375,-2.87109375,-1.009368896484375,1.0,4.0,4.0,4.0,1.0,100.0,event
09:30:42.796,0.0,0.0,0.0,1.1647165,0.0,0.0,0.0,0.99844354,0.0,0.0,0.0,0.6481852,0.0,0.0,0.0,0.68648213,0.0,0.0,0.0,0.45547524,34.652016,493.58975,578.60803,785.7143,669.67035,-0.315185546875,0.03228759765625,0.9371337890625,2.564544677734375,-2.87109375,-1.009368896484375,1.0,4.0,4.0,4.0,1.0,100.0,event
09:30:42.834,0.0,0.0,0.0,1.1647165,0.0,0.0,0.0,0.99844354,0.0,0.0,0.0,0.6481852,0.0,0.0,0.0,0.68648213,0.0,0.0,0.0,0.45547524,0.0,286.0806,493.1868,782.8938,698.2784,-0.31890869140625,0.0289306640625,0.93353271484375,2.295379638671875,-2.848663330078125,-0.37384033203125,1.0,4.0,4.0,4.0,1.0,100.0,event
09:30:42.835,0.0,0.0,0.0,1.1647165,0.0,0.0,0.0,0.99844354,0.0,0.0,0.0,0.6481852,0.0,0.0,0.0,0.68648213,0.0,0.0,0.0,0.45547524,1030.6959,1046.4103,898.93774,790.14655,704.3223,-0.31890869140625,0.0289306640625,0.93353271484375,2.295379638671875,-2.848663330078125,-0.37384033203125,1.0,4.0,4.0,4.0,1.0,100.0,event
09:30:42.836,0.0,0.0,0.0,1.1647165,0.0,0.0,0.0,0.99844354,0.0,0.0,0.0,0.6481852,0.0,0.0,0.0,0.68648213,0.0,0.0,0.0,0.45547524,151.90475,1622.6007,1139.4872,804.2491,760.7326,-0.31890869140625,0.0289306640625,0.93353271484375,2.295379638671875,-2.848663330078125,-0.37384033203125,1.0,4.0,4.0,4.0,1.0,100.0,event
09:30:42.837,0.0,0.0,0.0,1.1647165,0.0,0.0,0.0,0.99844354,0.0,0.0,0.0,0.6481852,0.0,0.0,0.0,0.68648213,0.0,0.0,0.0,0.45547524,1211.6117,1290.989,874.35895,804.2491,819.5604,-0.31890869140625,0.0289306640625,0.93353271484375,2.295379638671875,-2.848663330078125,-0.37384033203125,1.0,4.0,4.0,4.0,1.0,100.0,event
09:30:42.837,0.0,0.0,0.0,1.1647165,0.0,0.0,0.0,0.99844354,0.0,0.0,0.0,0.6481852,0.0,0.0,0.0,0.68648213,0.0,0.0,0.0,0.45547524,136.99634,549.19415,585.05493,794.57874,761.9414,-0.31890869140625,0.0289306640625,0.93353271484375,2.295379638671875,-2.848663330078125,-0.37384033203125,1.0,4.0,4.0,4.0,1.0,100.0,event
09:30:42.838,0.0,0.0,0.0,1.1647165,0.0,0.0,0.0,0.99844354,0.0,0.0,0.0,0.6481852,0.0,0.0,0.0,0.68648213,0.0,0.0,0.0,0.45547524,0.0,139.41393,392.45422,799.011,734.5421,-0.31890869140625,0.0289306640625,0.93353271484375,2.295379638671875,-2.848663330078125,-0.37384033203125,1.0,4.0,4.0,4.0,1.0,100.0,event
09:30:42.838,0.0,0.0,0.0,1.1647165,0.0,0.0,0.0,0.99844354,0.0,0.0,0.0,0.6481852,0.0,0.0,0.0,0.68648213,0.0,0.0,0.0,0.45547524,763.5531,618.0952,539.5238,800.6227,775.64105,-0.31890869140625,0.0289306640625,0.93353271484375,2.295379638671875,-2.848663330078125,-0.37384033203125,1.0,4.0,4.0,4.0,1.0,100.0,event
09:30:42.839,0.0,0.0,0.0,1.1355063,0.0,0.0,0.0,1.0968679,0.0,0.0,0.0,0.7016279,0.0,0.0,0.0,0.71326387,0.0,0.0,0.0,0.45814022,79.37729,1048.022,630.989,828.8278,933.1868,-0.31890869140625,0.0289306640625,0.93353271484375,2.295379638671875,-2.848663330078125,-0.37384033203125,1.0,4.0,4.0,4.0,1.0,100.0,event
09:30:42.844,0.0,0.0,0.0,1.1355063,0.0,0.0,0.0,1.0968679,0.0,0.0,0.0,0.7016279,0.0,0.0,0.0,0.71326387,0.0,0.0,0.0,0.45814022,277.61905,486.73993,532.674,813.91943,896.52014,-0.31890869140625,0.0289306640625,0.93353271484375,2.295379638671875,-2.848663330078125,-0.37384033203125,1.0,4.0,4.0,4.0,1.0,100.0,event
09:30:42.844,0.0,0.0,0.0,1.1355063,0.0,0.0,0.0,1.0968679,0.0,0.0,0.0,0.7016279,0.0,0.0,0.0,0.71326387,0.0,0.0,0.0,0.45814022,1410.2565,456.92307,221.61172,835.2747,1189.0476,-0.31890869140625,0.0289306640625,0.93353271484375,2.295379638671875,-2.848663330078125,-0.37384033203125,1.0,4.0,4.0,4.0,1.0,100.0,event
09:30:42.845,0.0,0.0,0.0,1.1355063,0.0,0.0,0.0,1.0968679,0.0,0.0,0.0,0.7016279,0.0,0.0,0.0,0.71326387,0.0,0.0,0.0,0.45814022,0.0,508.09525,715.2015,815.5311,668.86444,-0.31890869140625,0.0289306640625,0.93353271484375,2.295379638671875,-2.848663330078125,-0.37384033203125,1.0,4.0,4.0,4.0,1.0,100.0,event
09:30:42.845,0.0,0.0,0.0,1.1355063,0.0,0.0,0.0,1.0968679,0.0,0.0,0.0,0.7016279,0.0,0.0,0.0,0.71326387,0.0,0.0,0.0,0.45814022,424.68866,498.82785,527.8388,836.08057,754.2857,-0.31890869140625,0.0289306640625,0.93353271484375,2.295379638671875,-2.848663330078125,-0.37384033203125,1.0,4.0,4.0,4.0,1.0,100.0,event
09:30:42.876,0.0,0.0,0.0,1.1355063,0.0,0.0,0.0,1.0968679,0.0,0.0,0.0,0.7016279,0.0,0.0,0.0,0.71326387,0.0,0.0,0.0,0.45814022,1599.2307,1366.7399,936.8132,837.28937,784.10254,-0.31878662109375,0.03424072265625,0.94384765625,2.355194091796875,-3.043060302734375,-0.515899658203125,1.0,4.0,4.0,4.0,1.0,100.0,event
09:30:42.877,0.0,0.0,0.0,1.1355063,0.0,0.0,0.0,1.0968679,0.0,0.0,0.0,0.7016279,0.0,0.0,0.0,0.71326387,0.0,0.0,0.0,0.45814022,1531.1355,33.846153,1171.3187,817.9487,740.989,-0.31878662109375,0.03424072265625,0.94384765625,2.355194091796875,-3.043060302734375,-0.515899658203125,1.0,4.0,4.0,4.0,1.0,100.0,event
09:30:42.878,0.0,0.0,0.0,1.1355063,0.0,0.0,0.0,1.0968679,0.0,0.0,0.0,0.7016279,0.0,0.0,0.0,0.71326387,0.0,0.0,0.0,0.45814022,309.0476,848.97437,747.8388,804.2491,713.9927,-0.31878662109375,0.03424072265625,0.94384765625,2.355194091796875,-3.043060302734375,-0.515899658203125,1.0,4.0,4.0,4.0,1.0,100.0,event
09:30:42.879,0.0,0.0,0.0,1.1355063,0.0,0.0,0.0,1.0968679,0.0,0.0,0.0,0.7016279,0.0,0.0,0.0,0.71326387,0.0,0.0,0.0,0.45814022,0.0,180.1099,416.63004,802.23444,737.3626,-0.31878662109375,0.03424072265625,0.94384765625,2.355194091796875,-3.043060302734375,-0.515899658203125,1.0,4.0,4.0,4.0,1.0,100.0,event
09:30:42.879,0.0,0.0,0.0,1.1355063,0.0,0.0,0.0,1.0968679,0.0,0.0,0.0,0.7016279,0.0,0.0,0.0,0.71326387,0.0,0.0,0.0,0.45814022,383.1868,644.68866,682.96704,810.696,731.7216,-0.31878662109375,0.03424072265625,0.94384765625,2.355194091796875,-3.043060302734375,-0.515899658203125,1.0,4.0,4.0,4.0,1.0,100.0,event
09:30:42.880,0.0,0.0,0.0,1.1355063,0.0,0.0,0.0,1.0968679,0.0,0.0,0.0,0.7016279,0.0,0.0,0.0,0.71326387,0.0,0.0,0.0,0.45814022,1546.4469,1316.3737,889.2674,825.2015,793.36993,-0.31878662109375,0.03424072265625,0.94384765625,2.355194091796875,-3.043060302734375,-0.515899658203125,1.0,4.0,4.0,4.0,1.0,100.0,event
09:30:42.880,0.0,0.0,0.0,1.1355063,0.0,0.0,0.0,1.0968679,0.0,0.0,0.0,0.7016279,0.0,0.0,0.0,0.71326387,0.0,0.0,0.0,0.45814022,1562.5641,1278.4982,778.46155,821.5751,905.38464,-0.31878662109375,0.03424072265625,0.94384765625,2.355194091796875,-3.043060302734375,-0.515899658203125,1.0,4.0,4.0,4.0,1.0,100.0,event
09:30:42.881,0.0,0.0,0.0,1.1355063,0.0,0.0,0.0,1.0968679,0.0,0.0,0.0,0.7016279,0.0,0.0,0.0,0.71326387,0.0,0.0,0.0,0.45814022,333.22345,269.56042,201.4652,815.5311,1052.8572,-0.31878662109375,0.03424072265625,0.94384765625,2.355194091796875,-3.043060302734375,-0.515899658203125,1.0,4.0,4.0,4.0,1.0,100.0,event
09:30:42.881,0.0,0.0,0.0,1.1355063,0.0,0.0,0.0,1.0968679,0.0,0.0,0.0,0.7016279,0.0,0.0,0.0,0.71326387,0.0,0.0,0.0,0.45814022,0.0,53.186813,262.71063,805.8608,858.6447,-0.31878662109375,0.03424072265625,0.94384765625,2.355194091796875,-3.043060302734375,-0.515899658203125,1.0,4.0,4.0,4.0,1.0,100.0,event
09:30:42.882,0.0,0.0,0.0,1.1355063,0.0,0.0,0.0,1.0968679,0.0,0.0,0.0,0.7016279,0.0,0.0,0.0,0.71326387,0.0,0.0,0.0,0.45814022,265.93405,778.46155,822.7839,818.7546,664.83514,-0.31878662109375,0.03424072265625,0.94384765625,2.355194091796875,-3.043060302734375,-0.515899658203125,1.0,4.0,4.0,4.0,1.0,100.0,event
09:30:42.882,0.0,0.0,0.0,1.1355063,0.0,0.0,0.0,1.0968679,0.0,0.0,0.0,0.7016279,0.0,0.0,0.0,0.71326387,0.0,0.0,0.0,0.45814022,1434.8352,1359.0842,1004.10254,834.87177,807.47253,-0.31878662109375,0.03424072265625,0.94384765625,2.355194091796875,-3.043060302734375,-0.515899658203125,1.0,4.0,4.0,4.0,1.0,100.0,event
09:30:42.883,0.0,0.0,0.0,1.1355063,0.0,0.0,0.0,1.0968679,0.0,0.0,0.0,0.7016279,0.0,0.0,0.0,0.71326387,0.0,0.0,0.0,0.45814022,4.835165,1408.2417,886.8498,820.7692,919.4872,-0.31878662109375,0.03424072265625,0.94384765625,2.355194091796875,-3.043060302734375,-0.515899658203125,1.0,4.0,4.0,4.0,1.0,100.0,event
09:30:42.914,0.0,0.0,0.0,1.1355063,0.0,0.0,0.0,1.0968679,0.0,0.0,0.0,0.7016279,0.0,0.0,0.0,0.71326387,0.0,0.0,0.0,0.45814022,453.69965,960.989,745.42126,805.4579,758.71796,-0.33294677734375,0.0338134765625,0.93682861328125,2.70660400390625,-3.476715087890625,-0.231781005859375,1.0,4.0,4.0,4.0,1.0,100.0,event
09:30:42.915,0.0,0.0,0.0,1.1355063,0.0,0.0,0.0,1.0968679,0.0,0.0,0.0,0.7016279,0.0,0.0,0.0,0.71326387,0.0,0.0,0.0,0.45814022,0.0,519.3773,694.65204,803.44324,650.7326,-0.33294677734375,0.0338134765625,0.93682861328125,2.70660400390625,-3.476715087890625,-0.231781005859375,1.0,4.0,4.0,4.0,1.0,100.0,event
09:30:42.915,0.0,0.0,0.0,1.1355063,0.0,0.0,0.0,1.0968679,0.0,0.0,0.0,0.7016279,0.0,0.0,0.0,0.71326387,0.0,0.0,0.0,0.45814022,123.2967,471.8315,617.28937,806.26373,789.34064,-0.33294677734375,0.0338134765625,0.93682861328125,2.70660400390625,-3.476715087890625,-0.231781005859375,1.0,4.0,4.0,4.0,1.0,100.0,event
09:30:42.916,0.0,0.0,0.0,1.1355063,0.0,0.0,0.0,1.0968679,0.0,0.0,0.0,0.7016279,0.0,0.0,0.0,0.71326387,0.0,0.0,0.0,0.45814022,1301.4652,906.99634,657.98535,817.9487,862.27106,-0.33294677734375,0.0338134765625,0.93682861328125,2.70660400390625,-3.476715087890625,-0.231781005859375,1.0,4.0,4.0,4.0,1.0,100.0,event
09:30:42.916,0.0,0.0,0.0,1.1355063,0.0,0.0,0.0,1.0968679,0.0,0.0,0.0,0.7016279,0.0,0.0,0.0,0.71326387,0.0,0.0,0.0,0.45814022,62.857143,1526.3004,958.97437,828.4249,772.8205,-0.33294677734375,0.0338134765625,0.93682861328125,2.70660400390625,-3.476715087890625,-0.231781005859375,1.0,4.0,4.0,4.0,1.0,100.0,event
09:30:42.917,0.0,0.0,0.0,1.1355063,0.0,0.0,0.0,1.0968679,0.0,0.0,0.0,0.7016279,0.0,0.0,0.0,0.71326387,0.0,0.0,0.0,0.45814022,533.47986,985.16486,741.79486,799.41394,802.23444,-0.33294677734375,0.0338134765625,0.93682861328125,2.70660400390625,-3.476715087890625,-0.231781005859375,1.0,4.0,4.0,4.0,1.0,100.0,event
09:30:42.917,0.0,0.0,0.0,1.1355063,0.0,0.0,0.0,1.0968679,0.0,0.0,0.0,0.7016279,0.0,0.0,0.0,0.71326387,0.0,0.0,0.0,0.45814022,0.0,69.70696,179.30403,792.96704,921.0989,-0.33294677734375,0.0338134765625,0.93682861328125,2.70660400390625,-3.476715087890625,-0.231781005859375,1.0,4.0,4.0,4.0,1.0,100.0,event
09:30:42.918,0.0,0.0,0.0,1.1355063,0.0,0.0,0.0,1.0968679,0.0,0.0,0.0,0.7016279,0.0,0.0,0.0,0.71326387,0.0,0.0,0.0,0.45814022,130.95238,35.860806,32.637363,817.1429,1012.5641,-0.33294677734375,0.0338134765625,0.93682861328125,2.70660400390625,-3.476715087890625,-0.231781005859375,1.0,4.0,4.0,4.0,1.0,100.0,event
09:30:42.918,0.0,0.0,0.0,1.1355063,0.0,0.0,0.0,1.0968679,0.0,0.0,0.0,0.7016279,0.0,0.0,0.0,0.71326387,0.0,0.0,0.0,0.45814022,1286.9597,1030.6959,723.663,817.1429,774.43225,-0.33294677734375,0.0338134765625,0.93682861328125,2.70660400390625,-3.476715087890625,-0.231781005859375,1.0,4.0,4.0,4.0,1.0,100.0,event
09:30:42.919,0.0,0.0,0.0,1.1257099,0.0,0.0,0.0,1.1589226,0.0,0.0,0.0,0.81887984,0.0,0.0,0.0,0.7298896,0.0,0.0,0.0,0.46060127,105.567764,1641.9414,1136.2638,815.9341,669.67035,-0.33294677734375,0.0338134765625,0.93682861328125,2.70660400390625,-3.476715087890625,-0.231781005859375,1.0,4.0,4.0,4.0,1.0,100.0,event
09:30:42.922,0.0,0.0,0.0,1.1257099,0.0,0.0,0.0,1.1589226,0.0,0.0,0.0,0.81887984,0.0,0.0,0.0,0.7298896,0.0,0.0,0.0,0.46060127,688.60803,996.4469,707.9487,805.4579,751.8681,-0.33294677734375,0.0338134765625,0.93682861328125,2.70660400390625,-3.476715087890625,-0.231781005859375,1.0,4.0,4.0,4.0,1.0,100.0,event
09:30:42.922,0.0,0.0,0.0,1.1257099,0.0,0.0,0.0,1.1589226,0.0,0.0,0.0,0.81887984,0.0,0.0,0.0,0.7298896,0.0,0.0,0.0,0.46060127,0.0,434.35898,550.80585,796.99634,709.5604,-0.33294677734375,0.0338134765625,0.93682861328125,2.70660400390625,-3.476715087890625,-0.231781005859375,1.0,4.0,4.0,4.0,1.0,100.0,event
09:30:42.975,0.0,0.0,0.0,1.1257099,0.0,0.0,0.0,1.1589226,0.0,0.0,0.0,0.81887984,0.0,0.0,0.0,0.7298896,0.0,0.0,0.0,0.46060127,93.07692,629.3773,767.5824,803.44324,675.31134,-0.33294677734375,0.0338134765625,0.93682861328125,2.70660400390625,-3.476715087890625,-0.231781005859375,1.0,4.0,4.0,4.0,1.0,100.0,event
09:30:42.976,0.0,0.0,0.0,1.1257099,0.0,0.0,0.0,1.1589226,0.0,0.0,0.0,0.81887984,0.0,0.0,0.0,0.7298896,0.0,0.0,0.0,0.46060127,1194.6886,1187.8389,948.0952,806.26373,793.36993,-0.33294677734375,0.0338134765625,0.93682861328125,2.70660400390625,-3.476715087890625,-0.231781005859375,1.0,4.0,4.0,4.0,1.0,100.0,event
09:30:42.977,0.0,0.0,0.0,1.1257099,0.0,0.0,0.0,1.1589226,0.0,0.0,0.0,0.81887984,0.0,0.0,0.0,0.7298896,0.0,0.0,0.0,0.46060127,1039.5604,1186.63,809.89014,797.8022,888.46155,-0.33294677734375,0.0338134765625,0.93682861328125,2.70660400390625,-3.476715087890625,-0.231781005859375,1.0,4.0,4.0,4.0,1.0,100.0,event
09:30:42.977,0.0,0.0,0.0,1.1257099,0.0,0.0,0.0,1.1589226,0.0,0.0,0.0,0.81887984,0.0,0.0,0.0,0.7298896,0.0,0.0,0.0,0.46060127,154.32234,1387.6923,863.47986,811.50183,1025.8608,-0.33294677734375,0.0338134765625,0.93682861328125,2.70660400390625,-3.476715087890625,-0.231781005859375,1.0,4.0,4.0,4.0,1.0,100.0,event
09:30:42.978,0.0,0.0,0.0,1.1257099,0.0,0.0,0.0,1.1589226,0.0,0.0,0.0,0.81887984,0.0,0.0,0.0,0.7298896,0.0,0.0,0.0,0.46060127,66.08059,666.4469,704.3223,784.5055,658.3883,-0.33294677734375,0.0338134765625,0.93682861328125,2.70660400390625,-3.476715087890625,-0.231781005859375,1.0,4.0,4.0,4.0,1.0,100.0,event
09:30:42.978,0.0,0.0,0.0,1.1257099,0.0,0.0,0.0,1.1589226,0.0,0.0,0.0,0.81887984,0.0,0.0,0.0,0.7298896,0.0,0.0,0.0,0.46060127,0.0,251.02563,440.80585,772.01465,784.5055,-0.33294677734375,0.0338134765625,0.93682861328125,2.70660400390625,-3.476715087890625,-0.231781005859375,1.0,4.0,4.0,4.0,1.0,100.0,event
09:30:42.979,0.0,0.0,0.0,1.1257099,0.0,0.0,0.0,1.1589226,0.0,0.0,0.0,0.81887984,0.0,0.0,0.0,0.7298896,0.0,0.0,0.0,0.46060127,875.56775,120.87912,162.78389,761.13556,1104.0293,-0.33294677734375,0.0338134765625,0.93682861328125,2.70660400390625,-3.476715087890625,-0.231781005859375,1.0,4.0,4.0,4.0,1.0,100.0,event
09:30:42.980,0.0,0.0,0.0,1.1257099,0.0,0.0,0.0,1.1589226,0.0,0.0,0.0,0.81887984,0.0,0.0,0.0,0.7298896,0.0,0.0,0.0,0.46060127,128.13187,1066.1538,640.2564,765.16486,973.8828,-0.33294677734375,0.0338134765625,0.93682861328125,2.70660400390625,-3.476715087890625,-0.231781005859375,1.0,4.0,4.0,4.0,1.0,100.0,event
09:30:42.980,0.0,0.0,0.0,1.1257099,0.0,0.0,0.0,1.1589226,0.0,0.0,0.0,0.81887984,0.0,0.0,0.0,0.7298896,0.0,0.0,0.0,0.46060127,1239.011,1495.2748,1039.5604,764.7619,708.3516,-0.33294677734375,0.0338134765625,0.93682861328125,2.70660400390625,-3.476715087890625,-0.231781005859375,1.0,4.0,4.0,4.0,1.0,100.0,event
09:30:42.981,0.0,0.0,0.0,1.1257099,0.0,0.0,0.0,1.1589226,0.0,0.0,0.0,0.81887984,0.0,0.0,0.0,0.7298896,0.0,0.0,0.0,0.46060127,134.98169,549.59705,601.5751,746.2271,671.28204,-0.33294677734375,0.0338134765625,0.93682861328125,2.70660400390625,-3.476715087890625,-0.231781005859375,1.0,4.0,4.0,4.0,1.0,100.0,event
09:30:42.981,0.0,0.0,0.0,1.1257099,0.0,0.0,0.0,1.1589226,0.0,0.0,0.0,0.81887984,0.0,0.0,0.0,0.7298896,0.0,0.0,0.0,0.46060127,0.0,210.32967,397.69232,752.27106,660.40295,-0.33294677734375,0.0338134765625,0.93682861328125,2.70660400390625,-3.476715087890625,-0.231781005859375,1.0,4.0,4.0,4.0,1.0,100.0,event
09:30:42.982,0.0,0.0,0.0,1.1257099,0.0,0.0,0.0,1.1589226,0.0,0.0,0.0,0.81887984,0.0,0.0,0.0,0.7298896,0.0,0.0,0.0,0.46060127,855.0183,917.0696,808.68134,775.2381,714.3956,-0.33294677734375,0.0338134765625,0.93682861328125,2.70660400390625,-3.476715087890625,-0.231781005859375,1.0,4.0,4.0,4.0,1.0,100.0,event
09:30:43.008,0.0,0.0,0.0,1.1257099,0.0,0.0,0.0,1.1589226,0.0,0.0,0.0,0.81887984,0.0,0.0,0.0,0.7298896,0.0,0.0,0.0,0.46060127,111.611725,1596.8132,1145.1282,782.0879,730.5128,-0.3087158203125,0.0277099609375,0.941650390625,2.011260986328125,-3.93280029296875,-0.40374755859375,1.0,4.0,4.0,4.0,1.0,100.0,event
09:30:43.009,0.0,0.0,0.0,1.1257099,0.0,0.0,0.0,1.1589226,0.0,0.0,0.0,0.81887984,0.0,0.0,0.0,0.7298896,0.0,0.0,0.0,0.46060127,1322.8206,1317.1794,904.57874,768.3883,751.8681,-0.3087158203125,0.0277099609375,0.941650390625,2.011260986328125,-3.93280029296875,-0.40374755859375,1.0,4.0,4.0,4.0,1.0,100.0,event
09:30:43.010,0.0,0.0,0.0,1.1257099,0.0,0.0,0.0,1.1589226,0.0,0.0,0.0,0.81887984,0.0,0.0,0.0,0.7298896,0.0,0.0,0.0,0.46060127,199.85349,558.46155,588.2784,765.56775,770.80585,-0.3087158203125,0.0277099609375,0.941650390625,2.011260986328125,-3.93280029296875,-0.40374755859375,1.0,4.0,4.0,4.0,1.0,100.0,event
09:30:43.011,0.0,0.0,0.0,1.1257099,0.0,0.0,0.0,1.1589226,0.0,0.0,0.0,0.81887984,0.0,0.0,0.0,0.7298896,0.0,0.0,0.0,0.46060127,0.0,356.1905,616.8865,767.5824,668.86444,-0.3087158203125,0.0277099609375,0.941650390625,2.011260986328125,-3.93280029296875,-0.40374755859375,1.0,4.0,4.0,4.0,1.0,100.0,event
09:30:43.011,0.0,0.0,0.0,1.1257099,0.0,0.0,0.0,1.1589226,0.0,0.0,0.0,0.81887984,0.0,0.0,0.0,0.7298896,0.0,0.0,0.0,0.46060127,579.41394,790.9524,770.80585,782.0879,652.3443,-0.3087158203125,0.0277099609375,0.941650390625,2.011260986328125,-3.93280029296875,-0.40374755859375,1.0,4.0,4.0,4.0,1.0,100.0,event
09:30:43.012,0.0,0.0,0.0,1.1257099,0.0,0.0,0.0,1.1589226,0.0,0.0,0.0,0.81887984,0.0,0.0,0.0,0.7298896,0.0,0.0,0.0,0.46060127,1473.5165,1111.2821,676.9231,800.6227,952.52747,-0.3087158203125,0.0277099609375,0.941650390625,2.011260986328125,-3.93280029296875,-0.40374755859375,1.0,4.0,4.0,4.0,1.0,100.0,event
09:30:43.012,0.0,0.0,0.0,1.1257099,0.0,0.0,0.0,1.1589226,0.0,0.0,0.0,0.81887984,0.0,0.0,0.0,0.7298896,0.0,0.0,0.0,0.46060127,10.879121,1231.3553,807.8755,804.65204,854.61536,-0.3087158203125,0.0277099609375,0.941650390625,2.011260986328125,-3.93280029296875,-0.40374755859375,1.0,4.0,4.0,4.0,1.0,100.0,event
09:30:43.013,0.0,0.0,0.0,1.1257099,0.0,0.0,0.0,1.1589226,0.0,0.0,0.0,0.81887984,0.0,0.0,0.0,0.7298896,0.0,0.0,0.0,0.46060127,294.1392,441.2088,443.62637,787.72894,876.3736,-0.3087158203125,0.0277099609375,0.941650390625,2.011260986328125,-3.93280029296875,-0.40374755859375,1.0,4.0,4.0,4.0,1.0,100.0,event
09:30:43.014,0.0,0.0,0.0,1.1257099,0.0,0.0,0.0,1.1589226,0.0,0.0,0.0,0.81887984,0.0,0.0,0.0,0.7298896,0.0,0.0,0.0,0.46060127,0.0,298.57144,552.4176,799.011,759.5238,-0.3087158203125,0.0277099609375,0.941650390625,2.011260986328125,-3.93280029296875,-0.40374755859375,1.0,4.0,4.0,4.0,1.0,100.0,event
09:30:43.014,0.0,0.0,0.0,1.1257099,0.0,0.0,0.0,1.1589226,0.0,0.0,0.0,0.81887984,0.0,0.0,0.0,0.7298896,0.0,0.0,0.0,0.46060127,218.79121,262.30768,421.06226,817.5458,882.4176,-0.3087158203125,0.0277099609375,0.941650390625,2.011260986328125,-3.93280029296875,-0.40374755859375,1.0,4.0,4.0,4.0,1.0,100.0,event
09:30:43.015,0.0,0.0,0.0,1.1257099,0.0,0.0,0.0,1.1589226,0.0,0.0,0.0,0.81887984,0.0,0.0,0.0,0.7298896,0.0,0.0,0.0,0.46060127,1444.5055,423.07693,273.99268,825.2015,1033.5165,-0.3087158203125,0.0277099609375,0.941650390625,2.011260986328125,-3.93280029296875,-0.40374755859375,1.0,4.0,4.0,4.0,1.0,100.0,event
09:30:43.017,0.0,0.0,0.0,1.1385313,0.0,0.0,0.0,1.1890211,0.0,0.0,0.0,0.98762286,0.0,0.0,0.0,0.74273694,0.0,0.0,0.0,0.4629408,1606.4835,1408.6447,960.58606,812.3077,812.3077,-0.3087158203125,0.0277099609375,0.941650390625,2.011260986328125,-3.93280029296875,-0.40374755859375,1.0,4.0,4.0,4.0,1.0,100.0,event
09:30:43.044,0.0,0.0,0.0,1.1385313,0.0,0.0,0.0,1.1890211,0.0,0.0,0.0,0.98762286,0.0,0.0,0.0,0.74273694,0.0,0.0,0.0,0.4629408,345.7143,954.1392,839.304,799.41394,652.3443,-0.31500244140625,0.02947998046875,0.93902587890625,2.400054931640625,-2.99072265625,0.85235595703125,1.0,4.0,4.0,4.0,1.0,100.0,event
09:30:43.044,0.0,0.0,0.0,1.1385313,0.0,0.0,0.0,1.1890211,0.0,0.0,0.0,0.98762286,0.0,0.0,0.0,0.74273694,0.0,0.0,0.0,0.4629408,0.0,124.908424,394.8718,794.9817,686.1905,-0.31500244140625,0.02947998046875,0.93902587890625,2.400054931640625,-2.99072265625,0.85235595703125,1.0,4.0,4.0,4.0,1.0,100.0,event
09:30:43.045,0.0,0.0,0.0,1.1385313,0.0,0.0,0.0,1.1890211,0.0,0.0,0.0,0.98762286,0.0,0.0,0.0,0.74273694,0.0,0.0,0.0,0.4629408,266.73993,563.69965,656.3736,792.5641,663.22345,-0.31500244140625,0.02947998046875,0.93902587890625,2.400054931640625,-2.99072265625,0.85235595703125,1.0,4.0,4.0,4.0,1.0,100.0,event
09:30:43.046,0.0,0.0,0.0,1.1385313,0.0,0.0,0.0,1.1890211,0.0,0.0,0.0,0.98762286,0.0,0.0,0.0,0.74273694,0.0,0.0,0.0,0.4629408,1458.608,1420.7325,1068.9744,809.4872,636.63007,-0.31500244140625,0.02947998046875,0.93902587890625,2.400054931640625,-2.99072265625,0.85235595703125,1.0,4.0,4.0,4.0,1.0,100.0,event
09:30:43.046,0.0,0.0,0.0,1.1385313,0.0,0.0,0.0,1.1890211,0.0,0.0,0.0,0.98762286,0.0,0.0,0.0,0.74273694,0.0,0.0,0.0,0.4629408,1610.1099,1568.608,1106.8499,812.71063,749.45056,-0.31500244140625,0.02947998046875,0.93902587890625,2.400054931640625,-2.99072265625,0.85235595703125,1.0,4.0,4.0,4.0,1.0,100.0,event
09:30:43.047,0.0,0.0,0.0,1.1385313,0.0,0.0,0.0,1.1890211,0.0,0.0,0.0,0.98762286,0.0,0.0,0.0,0.74273694,0.0,0.0,0.0,0.4629408,365.8608,585.05493,526.63007,793.36993,870.7326,-0.31500244140625,0.02947998046875,0.93902587890625,2.400054931640625,-2.99072265625,0.85235595703125,1.0,4.0,4.0,4.0,1.0,100.0,event
09:30:43.047,0.0,0.0,0.0,1.1385313,0.0,0.0,0.0,1.1890211,0.0,0.0,0.0,0.98762286,0.0,0.0,0.0,0.74273694,0.0,0.0,0.0,0.4629408,0.0,0.0,299.3773,790.9524,843.73627,-0.31500244140625,0.02947998046875,0.93902587890625,2.400054931640625,-2.99072265625,0.85235595703125,1.0,4.0,4.0,4.0,1.0,100.0,event
09:30:43.048,0.0,0.0,0.0,1.1385313,0.0,0.0,0.0,1.1890211,0.0,0.0,0.0,0.98762286,0.0,0.0,0.0,0.74273694,0.0,0.0,0.0,0.4629408,187.36264,575.38464,740.989,796.5934,738.97437,-0.31500244140625,0.02947998046875,0.93902587890625,2.400054931640625,-2.99072265625,0.85235595703125,1.0,4.0,4.0,4.0,1.0,100.0,event
09:30:43.049,0.0,0.0,0.0,1.1385313,0.0,0.0,0.0,1.1890211,0.0,0.0,0.0,0.98762286,0.0,0.0,0.0,0.74273694,0.0,0.0,0.0,0.4629408,1354.652,1221.2821,949.304,804.2491,765.16486,-0.31500244140625,0.02947998046875,0.93902587890625,2.400054931640625,-2.99072265625,0.85235595703125,1.0,4.0,4.0,4.0,1.0,100.0,event
09:30:43.049,0.0,0.0,0.0,1.1385313,0.0,0.0,0.0,1.1890211,0.0,0.0,0.0,0.98762286,0.0,0.0,0.0,0.74273694,0.0,0.0,0.0,0.4629408,55.604397,783.2967,462.56412,811.50183,1097.9854,-0.31500244140625,0.02947998046875,0.93902587890625,2.400054931640625,-2.99072265625,0.85235595703125,1.0,4.0,4.0,4.0,1.0,100.0,event
09:30:43.050,0.0,0.0,0.0,1.1385313,0.0,0.0,0.0,1.1890211,0.0,0.0,0.0,0.98762286,0.0,0.0,0.0,0.74273694,0.0,0.0,0.0,0.4629408,0.0,483.9194,698.2784,786.52014,645.89746,-0.31500244140625,0.02947998046875,0.93902587890625,2.400054931640625,-2.99072265625,0.85235595703125,1.0,4.0,4.0,4.0,1.0,100.0,event
09:30:43.050,0.0,0.0,0.0,1.1385313,0.0,0.0,0.0,1.1890211,0.0,0.0,0.0,0.98762286,0.0,0.0,0.0,0.74273694,0.0,0.0,0.0,0.4629408,558.0586,504.46887,445.2381,792.1612,960.18317,-0.31500244140625,0.02947998046875,0.93902587890625,2.400054931640625,-2.99072265625,0.85235595703125,1.0,4.0,4.0,4.0,1.0,100.0,event
09:30:43.114,0.0,0.0,0.0,1.1385313,0.0,0.0,0.0,1.1890211,0.0,0.0,0.0,0.98762286,0.0,0.0,0.0,0.74273694,0.0,0.0,0.0,0.4629408,116.04395,427.91208,639.45056,801.8315,685.38464,-0.3189697265625,0.0328369140625,0.9334716796875,2.6617431640625,-0.351409912109375,-0.366363525390625,1.0,4.0,4.0,4.0,1.0,100.0,event
09:30:43.116,0.0,0.0,0.0,1.1385313,0.0,0.0,0.0,1.1890211,0.0,0.0,0.0,0.98762286,0.0,0.0,0.0,0.74273694,0.0,0.0,0.0,0.4629408,1266.0073,1080.2565,905.38464,803.0403,777.25275,-0.3189697265625,0.0328369140625,0.9334716796875,2.6617431640625,-0.351409912109375,-0.366363525390625,1.0,4.0,4.0,4.0,1.0,100.0,event
09:30:43.116,0.0,0.0,0.0,1.1385313,0.0,0.0,0.0,1.1890211,0.0,0.0,0.0,0.98762286,0.0,0.0,0.0,0.74273694,0.0,0.0,0.0,0.4629408,110.80586,1645.9707,1232.5641,796.1905,776.04395,-0.3189697265625,0.0328369140625,0.9334716796875,2.6617431640625,-0.351409912109375,-0.366363525390625,1.0,4.0,4.0,4.0,1.0,100.0,event
09:30:43.117,0.0,0.0,0.0,1.1385313,0.0,0.0,0.0,1.1890211,0.0,0.0,0.0,0.98762286,0.0,0.0,0.0,0.74273694,0.0,0.0,0.0,0.4629408,732.9304,1295.4213,1061.7216,796.1905,764.7619,-0.3189697265625,0.0328369140625,0.9334716796875,2.6617431640625,-0.351409912109375,-0.366363525390625,1.0,4.0,4.0,4.0,1.0,100.0,event
09:30:43.118,0.0,0.0,0.0,1.1385313,0.0,0.0,0.0,1.1890211,0.0,0.0,0.0,0.98762286,0.0,0.0,0.0,0.74273694,0.0,0.0,0.0,0.4629408,0.0,421.06226,640.65936,797.8022,830.0366,-0.3189697265625,0.0328369140625,0.9334716796875,2.6617431640625,-0.351409912109375,-0.366363525390625,1.0,4.0,4.0,4.0,1.0,100.0,event
09:30:43.118,0.0,0.0,0.0,1.1385313,0.0,0.0,0.0,1.1890211,0.0,0.0,0.0,0.98762286,0.0,0.0,0.0,0.74273694,0.0,0.0,0.0,0.4629408,64.468864,157.94872,468.20514,788.1319,925.9341,-0.3189697265625,0.0328369140625,0.9334716796875,2.6617431640625,-0.351409912109375,-0.366363525390625,1.0,4.0,4.0,4.0,1.0,100.0,event
09:30:43.119,0.0,0.0,0.0,1.1385313,0.0,0.0,0.0,1.1890211,0.0,0.0,0.0,0.98762286,0.0,0.0,0.0,0.74273694,0.0,0.0,0.0,0.4629408,1193.4799,879.19415,764.7619,804.65204,974.68866,-0.3189697265625,0.0328369140625,0.9334716796875,2.6617431640625,-0.351409912109375,-0.366363525390625,1.0,4.0,4.0,4.0,1.0,100.0,event
09:30:43.119,0.0,0.0,0.0,1.1385313,0.0,0.0,0.0,1.1890211,0.0,0.0,0.0,0.98762286,0.0,0.0,0.0,0.74273694,0.0,0.0,0.0,0.4629408,142.63736,1619.7803,1164.8718,814.3223,823.5897,-0.3189697265625,0.0328369140625,0.9334716796875,2.6617431640625,-0.351409912109375,-0.366363525390625,1.0,4.0,4.0,4.0,1.0,100.0,event
09:30:43.120,0.0,0.0,0.0,1.1385313,0.0,0.0,0.0,1.1890211,0.0,0.0,0.0,0.98762286,0.0,0.0,0.0,0.74273694,0.0,0.0,0.0,0.4629408,833.2601,933.5897,695.4579,805.4579,856.2271,-0.3189697265625,0.0328369140625,0.9334716796875,2.6617431640625,-0.351409912109375,-0.366363525390625,1.0,4.0,4.0,4.0,1.0,100.0,event
09:30:43.121,0.0,0.0,0.0,1.1385313,0.0,0.0,0.0,1.1890211,0.0,0.0,0.0,0.98762286,0.0,0.0,0.0,0.74273694,0.0,0.0,0.0,0.4629408,0.0,0.0,76.55678,816.7399,961.39197,-0.3189697265625,0.0328369140625,0.9334716796875,2.6617431640625,-0.351409912109375,-0.366363525390625,1.0,4.0,4.0,4.0,1.0,100.0,event
09:30:43.121,0.0,0.0,0.0,1.1385313,0.0,0.0,0.0,1.1890211,0.0,0.0,0.0,0.98762286,0.0,0.0,0.0,0.74273694,0.0,0.0,0.0,0.4629408,33.040295,384.79852,592.71063,804.65204,716.4103,-0.3189697265625,0.0328369140625,0.9334716796875,2.6617431640625,-0.351409912109375,-0.366363525390625,1.0,4.0,4.0,4.0,1.0,100.0,event
09:30:43.122,0.0,0.0,0.0,1.1385313,0.0,0.0,0.0,1.1890211,0.0,0.0,0.0,0.98762286,0.0,0.0,0.0,0.74273694,0.0,0.0,0.0,0.4629408,1098.7913,1024.249,969.45056,780.87915,710.7692,-0.3189697265625,0.0328369140625,0.9334716796875,2.6617431640625,-0.351409912109375,-0.366363525390625,1.0,4.0,4.0,4.0,1.0,100.0,event
09:30:43.151,0.0,0.0,0.0,1.1385313,0.0,0.0,0.0,1.1890211,0.0,0.0,0.0,0.98762286,0.0,0.0,0.0,0.74273694,0.0,0.0,0.0,0.4629408,158.75458,1094.359,762.3443,803.8461,972.27106,-0.32244873046875,0.0330810546875,0.9364013671875,2.64678955078125,-0.04486083984375,-0.052337646484375,1.0,4.0,4.0,4.0,1.0,100.0,event
09:30:43.152,0.0,0.0,0.0,1.1635195,0.0,0.0,0.0,1.1981972,0.0,0.0,0.0,1.1359525,0.0,0.0,0.0,0.75615436,0.0,0.0,0.0,0.46285337,1165.2748,1002.0879,798.20514,798.20514,865.89746,-0.32244873046875,0.0330810546875,0.9364013671875,2.64678955078125,-0.04486083984375,-0.052337646484375,1.0,4.0,4.0,4.0,1.0,100.0,event
09:30:43.156,0.0,0.0,0.0,1.1635195,0.0,0.0,0.0,1.1981972,0.0,0.0,0.0,1.1359525,0.0,0.0,0.0,0.75615436,0.0,0.0,0.0,0.46285337,124.50549,729.707,875.56775,766.3736,666.04395,-0.32244873046875,0.0330810546875,0.9364013671875,2.64678955078125,-0.04486083984375,-0.052337646484375,1.0,4.0,4.0,4.0,1.0,100.0,event
09:30:43.157,0.0,0.0,0.0,1.1635195,0.0,0.0,0.0,1.1981972,0.0,0.0,0.0,1.1359525,0.0,0.0,0.0,0.75615436,0.0,0.0,0.0,0.46285337,0.0,468.60806,803.44324,769.59705,747.4359,-0.32244873046875,0.0330810546875,0.9364013671875,2.64678955078125,-0.04486083984375,-0.052337646484375,1.0,4.0,4.0,4.0,1.0,100.0,event
09:30:43.157,0.0,0.0,0.0,1.1635195,0.0,0.0,0.0,1.1981972,0.0,0.0,0.0,1.1359525,0.0,0.0,0.0,0.75615436,0.0,0.0,0.0,0.46285337,838.49817,792.5641,873.1502,784.90845,841.31866,-0.32244873046875,0.0330810546875,0.9364013671875,2.64678955078125,-0.04486083984375,-0.052337646484375,1.0,4.0,4.0,4.0,1.0,100.0,event
09:30:43.158,0.0,0.0,0.0,1.1635195,0.0,0.0,0.0,1.1981972,0.0,0.0,0.0,1.1359525,0.0,0.0,0.0,0.75615436,0.0,0.0,0.0,0.46285337,114.83517,1411.4652,1033.9194,801.4286,865.09155,-0.32244873046875,0.0330810546875,0.9364013671875,2.64678955078125,-0.04486083984375,-0.052337646484375,1.0,4.0,4.0,4.0,1.0,100.0,event
09:30:43.158,0.0,0.0,0.0,1.1635195,0.0,0.0,0.0,1.1981972,0.0,0.0,0.0,1.1359525,0.0,0.0,0.0,0.75615436,0.0,0.0,0.0,0.46285337,1330.4762,1195.4945,905.38464,802.23444,794.9817,-0.32244873046875,0.0330810546875,0.9364013671875,2.64678955078125,-0.04486083984375,-0.052337646484375,1.0,4.0,4.0,4.0,1.0,100.0,event
09:30:43.159,0.0,0.0,0.0,1.1635195,0.0,0.0,0.0,1.1981972,0.0,0.0,0.0,1.1359525,0.0,0.0,0.0,0.75615436,0.0,0.0,0.0,0.46285337,194.21245,409.3773,533.47986,780.4762,728.0952,-0.32244873046875,0.0330810546875,0.9364013671875,2.64678955078125,-0.04486083984375,-0.052337646484375,1.0,4.0,4.0,4.0,1.0,100.0,event
09:30:43.159,0.0,0.0,0.0,1.1635195,0.0,0.0,0.0,1.1981972,0.0,0.0,0.0,1.1359525,0.0,0.0,0.0,0.75615436,0.0,0.0,0.0,0.46285337,0.0,8.461538,102.74725,773.22345,913.8461,-0.32244873046875,0.0330810546875,0.9364013671875,2.64678955078125,-0.04486083984375,-0.052337646484375,1.0,4.0,4.0,4.0,1.0,100.0,event
09:30:43.160,0.0,0.0,0.0,1.1635195,0.0,0.0,0.0,1.1981972,0.0,0.0,0.0,1.1359525,0.0,0.0,0.0,0.75615436,0.0,0.0,0.0,0.46285337,738.97437,666.8498,595.5311,790.9524,868.315,-0.32244873046875,0.0330810546875,0.9364013671875,2.64678955078125,-0.04486083984375,-0.052337646484375,1.0,4.0,4.0,4.0,1.0,100.0,event
09:30:43.160,0.0,0.0,0.0,1.1635195,0.0,0.0,0.0,1.1981972,0.0,0.0,0.0,1.1359525,0.0,0.0,0.0,0.75615436,0.0,0.0,0.0,0.46285337,62.05128,1593.9927,1349.8169,813.5165,738.1685,-0.32244873046875,0.0330810546875,0.9364013671875,2.64678955078125,-0.04486083984375,-0.052337646484375,1.0,4.0,4.0,4.0,1.0,100.0,event
09:30:43.161,0.0,0.0,0.0,1.1635195,0.0,0.0,0.0,1.1981972,0.0,0.0,0.0,1.1359525,0.0,0.0,0.0,0.75615436,0.0,0.0,0.0,0.46285337,1448.5348,1471.0989,1210.403,800.2198,817.9487,-0.32244873046875,0.0330810546875,0.9364013671875,2.64678955078125,-0.04486083984375,-0.052337646484375,1.0,4.0,4.0,4.0,1.0,100.0,event
09:30:43.189,0.0,0.0,0.0,1.1635195,0.0,0.0,0.0,1.1981972,0.0,0.0,0.0,1.1359525,0.0,0.0,0.0,0.75615436,0.0,0.0,0.0,0.46285337,286.48352,783.69965,888.0586,783.69965,856.2271,-0.32244873046875,0.0330810546875,0.9364013671875,2.64678955078125,-0.04486083984375,-0.052337646484375,1.0,4.0,4.0,4.0,1.0,100.0,event
09:30:43.190,0.0,0.0,0.0,1.1635195,0.0,0.0,0.0,1.1981972,0.0,0.0,0.0,1.1359525,0.0,0.0,0.0,0.75615436,0.0,0.0,0.0,0.46285337,0.0,502.85715,864.2857,791.75824,743.00366,-0.32244873046875,0.0330810546875,0.9364013671875,2.64678955078125,-0.04486083984375,-0.052337646484375,1.0,4.0,4.0,4.0,1.0,100.0,event
09:30:43.190,0.0,0.0,0.0,1.1635195,0.0,0.0,0.0,1.1981972,0.0,0.0,0.0,1.1359525,0.0,0.0,0.0,0.75615436,0.0,0.0,0.0,0.46285337,472.23444,843.3333,983.5531,799.011,732.9304,-0.32244873046875,0.0330810546875,0.9364013671875,2.64678955078125,-0.04486083984375,-0.052337646484375,1.0,4.0,4.0,4.0,1.0,100.0,event
09:30:43.191,0.0,0.0,0.0,1.1635195,0.0,0.0,0.0,1.1981972,0.0,0.0,0.0,1.1359525,0.0,0.0,0.0,0.75615436,0.0,0.0,0.0,0.46285337,1593.9927,1269.2307,1027.4725,807.8755,900.9524,-0.32244873046875,0.0330810546875,0.9364013671875,2.64678955078125,-0.04486083984375,-0.052337646484375,1.0,4.0,4.0,4.0,1.0,100.0,event
09:30:43.191,0.0,0.0,0.0,1.1635195,0.0,0.0,0.0,1.1981972,0.0,0.0,0.0,1.1359525,0.0,0.0,0.0,0.75615436,0.0,0.0,0.0,0.46285337,1542.4176,1338.1318,1020.6227,801.4286,911.02563,-0.32244873046875,0.0330810546875,0.9364013671875,2.64678955078125,-0.04486083984375,-0.052337646484375,1.0,4.0,4.0,4.0,1.0,100.0,event
09:30:43.192,0.0,0.0,0.0,1.1635195,0.0,0.0,0.0,1.1981972,0.0,0.0,0.0,1.1359525,0.0,0.0,0.0,0.75615436,0.0,0.0,0.0,0.46285337,0.0,141.42857,523.4066,790.54944,745.0183,-0.32244873046875,0.0330810546875,0.9364013671875,2.64678955078125,-0.04486083984375,-0.052337646484375,1.0,4.0,4.0,4.0,1.0,100.0,event
09:30:43.192,0.0,0.0,0.0,1.1635195,0.0,0.0,0.0,1.1981972,0.0,0.0,0.0,1.1359525,0.0,0.0,0.0,0.75615436,0.0,0.0,0.0,0.46285337,337.65567,698.2784,772.8205,797.3993,792.96704,-0.32244873046875,0.0330810546875,0.9364013671875,2.64678955078125,-0.04486083984375,-0.052337646484375,1.0,4.0,4.0,4.0,1.0,100.0,event
09:30:43.193,0.0,0.0,0.0,1.1635195,0.0,0.0,0.0,1.1981972,0.0,0.0,0.0,1.1359525,0.0,0.0,0.0,0.75615436,0.0,0.0,0.0,0.46285337,169.6337,146.26373,459.7436,794.9817,877.98535,-0.32244873046875,0.0330810546875,0.9364013671875,2.64678955078125,-0.04486083984375,-0.052337646484375,1.0,4.0,4.0,4.0,1.0,100.0,event
09:30:43.193,0.0,0.0,0.0,1.1635195,0.0,0.0,0.0,1.1981972,0.0,0.0,0.0,1.1359525,0.0,0.0,0.0,0.75615436,0.0,0.0,0.0,0.46285337,1376.8132,630.989,611.2454,818.3516,992.8205,-0.32244873046875,0.0330810546875,0.9364013671875,2.64678955078125,-0.04486083984375,-0.052337646484375,1.0,4.0,4.0,4.0,1.0,100.0,event
09:30:43.194,0.0,0.0,0.0,1.1635195,0.0,0.0,0.0,1.1981972,0.0,0.0,0.0,1.1359525,0.0,0.0,0.0,0.75615436,0.0,0.0,0.0,0.46285337,0.8058608,1568.2051,1210.8059,803.44324,794.9817,-0.32244873046875,0.0330810546875,0.9364013671875,2.64678955078125,-0.04486083984375,-0.052337646484375,1.0,4.0,4.0,4.0,1.0,100.0,event
09:30:43.194,0.0,0.0,0.0,1.1635195,0.0,0.0,0.0,1.1981972,0.0,0.0,0.0,1.1359525,0.0,0.0,0.0,0.75615436,0.0,0.0,0.0,0.46285337,400.51282,1142.7106,1074.6154,778.46155,680.9524,-0.32244873046875,0.0330810546875,0.9364013671875,2.64678955078125,-0.04486083984375,-0.052337646484375,1.0,4.0,4.0,4.0,1.0,100.0,event
09:30:43.195,0.0,0.0,0.0,1.1635195,0.0,0.0,0.0,1.1981972,0.0,0.0,0.0,1.1359525,0.0,0.0,0.0,0.75615436,0.0,0.0,0.0,0.46285337,0.0,198.64468,576.99634,782.49084,717.619,-0.32244873046875,0.0330810546875,0.9364013671875,2.64678955078125,-0.04486083984375,-0.052337646484375,1.0,4.0,4.0,4.0,1.0,100.0,event
09:30:43.263,0.0,0.0,0.0,1.1635195,0.0,0.0,0.0,1.1981972,0.0,0.0,0.0,1.1359525,0.0,0.0,0.0,0.75615436,0.0,0.0,0.0,0.46285337,202.27106,552.4176,778.86444,794.17584,694.2491,-0.3291015625,0.03399658203125,0.93865966796875,2.280426025390625,-1.83929443359375,1.136474609375,1.0,4.0,4.0,4.0,1.0,100.0,event
09:30:43.265,0.0,0.0,0.0,1.1635195,0.0,0.0,0.0,1.1981972,0.0,0.0,0.0,1.1359525,0.0,0.0,0.0,0.75615436,0.0,0.0,0.0,0.46285337,1382.8572,1462.2344,1272.0513,816.337,678.1319,-0.3291015625,0.03399658203125,0.93865966796875,2.280426025390625,-1.83929443359375,1.136474609375,1.0,4.0,4.0,4.0,1.0,100.0,event
09:30:43.265,0.0,0.0,0.0,1.1635195,0.0,0.0,0.0,1.1981972,0.0,0.0,0.0,1.1359525,0.0,0.0,0.0,0.75615436,0.0,0.0,0.0,0.46285337,30.622711,1589.1575,1272.4542,816.7399,720.84247,-0.3291015625,0.03399658203125,0.93865966796875,2.280426025390625,-1.83929443359375,1.136474609375,1.0,4.0,4.0,4.0,1.0,100.0,event
09:30:43.266,0.0,0.0,0.0,1.1891452,0.0,0.0,0.0,1.1997983,0.0,0.0,0.0,1.20839,0.0,0.0,0.0,0.7686993,0.0,0.0,0.0,0.458321,489.1575,930.3663,873.5531,789.7436,787.326,-0.3291015625,0.03399658203125,0.93865966796875,2.280426025390625,-1.83929443359375,1.136474609375,1.0,4.0,4.0,4.0,1.0,100.0,event
09:30:43.269,,,,,,,,,,,,,,,,,,,,,,,,,,,,,,,,,,,,,,blink
09:30:43.270,0.0,0.0,0.0,1.1891452,0.0,0.0,0.0,1.1997983,0.0,0.0,0.0,1.20839,0.0,0.0,0.0,0.7686993,0.0,0.0,0.0,0.458321,0.0,382.78387,722.8571,795.78754,755.4945,-0.3291015625,0.03399658203125,0.93865966796875,2.280426025390625,-1.83929443359375,1.136474609375,1.0,4.0,4.0,4.0,1.0,100.0,event
09:30:43.271,0.0,0.0,0.0,1.1891452,0.0,0.0,0.0,1.1997983,0.0,0.0,0.0,1.20839,0.0,0.0,0.0,0.7686993,0.0,0.0,0.0,0.458321,136.19048,313.07693,658.3883,811.9048,703.1135,-0.3291015625,0.03399658203125,0.93865966796875,2.280426025390625,-1.83929443359375,1.136474609375,1.0,4.0,4.0,4.0,1.0,100.0,event
09:30:43.272,0.0,0.0,0.0,1.1891452,0.0,0.0,0.0,1.1997983,0.0,0.0,0.0,1.20839,0.0,0.0,0.0,0.7686993,0.0,0.0,0.0,0.458321,1283.7362,927.9487,832.0513,824.3956,829.6337,-0.3291015625,0.03399658203125,0.93865966796875,2.280426025390625,-1.83929443359375,1.136474609375,1.0,4.0,4.0,4.0,1.0,100.0,event
09:30:43.273,0.0,0.0,0.0,1.1891452,0.0,0.0,0.0,1.1997983,0.0,0.0,0.0,1.20839,0.0,0.0,0.0,0.7686993,0.0,0.0,0.0,0.458321,746.63007,320.7326,373.11356,821.978,1037.5458,-0.3291015625,0.03399658203125,0.93865966796875,2.280426025390625,-1.83929443359375,1.136474609375,1.0,4.0,4.0,4.0,1.0,100.0,event
09:30:43.273,0.0,0.0,0.0,1.1891452,0.0,0.0,0.0,1.1997983,0.0,0.0,0.0,1.20839,0.0,0.0,0.0,0.7686993,0.0,0.0,0.0,0.458321,97.91209,749.85345,534.2857,846.1539,1150.3663,-0.3291015625,0.03399658203125,0.93865966796875,2.280426025390625,-1.83929443359375,1.136474609375,1.0,4.0,4.0,4.0,1.0,100.0,event
09:30:43.274,0.0,0.0,0.0,1.1891452,0.0,0.0,0.0,1.1997983,0.0,0.0,0.0,1.20839,0.0,0.0,0.0,0.7686993,0.0,0.0,0.0,0.458321,0.0,437.58243,750.65936,795.78754,679.34064,-0.3291015625,0.03399658203125,0.93865966796875,2.280426025390625,-1.83929443359375,1.136474609375,1.0,4.0,4.0,4.0,1.0,100.0,event
09:30:43.274,0.0,0.0,0.0,1.1891452,0.0,0.0,0.0,1.1997983,0.0,0.0,0.0,1.20839,0.0,0.0,0.0,0.7686993,0.0,0.0,0.0,0.458321,90.25641,441.61172,754.2857,809.4872,698.2784,-0.3291015625,0.03399658203125,0.93865966796875,2.280426025390625,-1.83929443359375,1.136474609375,1.0,4.0,4.0,4.0,1.0,100.0,event
09:30:43.275,0.0,0.0,0.0,1.1891452,0.0,0.0,0.0,1.1997983,0.0,0.0,0.0,1.20839,0.0,0.0,0.0,0.7686993,0.0,0.0,0.0,0.458321,1213.2234,1060.9158,1028.2784,832.4542,801.02563,-0.3291015625,0.03399658203125,0.93865966796875,2.280426025390625,-1.83929443359375,1.136474609375,1.0,4.0,4.0,4.0,1.0,100.0,event
09:30:43.301,0.0,0.0,0.0,1.1891452,0.0,0.0,0.0,1.1997983,0.0,0.0,0.0,1.20839,0.0,0.0,0.0,0.7686993,0.0,0.0,0.0,0.458321,147.0696,1646.3737,1430.403,836.4835,809.0842,-0.333251953125,0.0335693359375,0.9327392578125,2.7813720703125,-3.566436767578125,1.48040771484375,1.0,4.0,4.0,4.0,1.0,100.0,event
09:30:43.302,0.0,0.0,0.0,1.1891452,0.0,0.0,0.0,1.1997983,0.0,0.0,0.0,1.20839,0.0,0.0,0.0,0.7686993,0.0,0.0,0.0,0.458321,1094.359,1411.4652,1269.2307,826.8132,770.40295,-0.333251953125,0.0335693359375,0.9327392578125,2.7813720703125,-3.566436767578125,1.48040771484375,1.0,4.0,4.0,4.0,1.0,100.0,event
09:30:43.303,0.0,0.0,0.0,1.1891452,0.0,0.0,0.0,1.1997983,0.0,0.0,0.0,1.20839,0.0,0.0,0.0,0.7686993,0.0,0.0,0.0,0.458321,39.084248,512.1245,761.9414,809.0842,759.92676,-0.333251953125,0.0335693359375,0.9327392578125,2.7813720703125,-3.566436767578125,1.48040771484375,1.0,4.0,4.0,4.0,1.0,100.0,event
09:30:43.303,0.0,0.0,0.0,1.1891452,0.0,0.0,0.0,1.1997983,0.0,0.0,0.0,1.20839,0.0,0.0,0.0,0.7686993,0.0,0.0,0.0,0.458321,14.102564,265.93405,663.6264,797.8022,745.82416,-0.333251953125,0.0335693359375,0.9327392578125,2.7813720703125,-3.566436767578125,1.48040771484375,1.0,4.0,4.0,4.0,1.0,100.0,event
09:30:43.304,0.0,0.0,0.0,1.1891452,0.0,0.0,0.0,1.1997983,0.0,0.0,0.0,1.20839,0.0,0.0,0.0,0.7686993,0.0,0.0,0.0,0.458321,1164.4689,1093.5531,1075.8242,814.3223,733.3333,-0.333251953125,0.0335693359375,0.9327392578125,2.7813720703125,-3.566436767578125,1.48040771484375,1.0,4.0,4.0,4.0,1.0,100.0,event
09:30:43.306,0.0,0.0,0.0,1.1891452,0.0,0.0,0.0,1.1997983,0.0,0.0,0.0,1.20839,0.0,0.0,0.0,0.7686993,0.0,0.0,0.0,0.458321,157.54579,1600.0366,1245.4579,830.0366,799.81683,-0.333251953125,0.0335693359375,0.9327392578125,2.7813720703125,-3.566436767578125,1.48040771484375,1.0,4.0,4.0,4.0,1.0,100.0,event
09:30:43.307,0.0,0.0,0.0,1.1891452,0.0,0.0,0.0,1.1997983,0.0,0.0,0.0,1.20839,0.0,0.0,0.0,0.7686993,0.0,0.0,0.0,0.458321,1131.0256,914.65204,740.18317,818.3516,985.9707,-0.333251953125,0.0335693359375,0.9327392578125,2.7813720703125,-3.566436767578125,1.48040771484375,1.0,4.0,4.0,4.0,1.0,100.0,event
09:30:43.308,0.0,0.0,0.0,1.1891452,0.0,0.0,0.0,1.1997983,0.0,0.0,0.0,1.20839,0.0,0.0,0.0,0.7686993,0.0,0.0,0.0,0.458321,78.168495,47.94872,181.31868,806.6667,971.06226,-0.333251953125,0.0335693359375,0.9327392578125,2.7813720703125,-3.566436767578125,1.48040771484375,1.0,4.0,4.0,4.0,1.0,100.0,event
09:30:43.309,0.0,0.0,0.0,1.1891452,0.0,0.0,0.0,1.1997983,0.0,0.0,0.0,1.20839,0.0,0.0,0.0,0.7686993,0.0,0.0,0.0,0.458321,0.0,266.73993,591.9048,808.68134,715.6044,-0.333251953125,0.0335693359375,0.9327392578125,2.7813720703125,-3.566436767578125,1.48040771484375,1.0,4.0,4.0,4.0,1.0,100.0,event
09:30:43.310,0.0,0.0,0.0,1.1891452,0.0,0.0,0.0,1.1997983,0.0,0.0,0.0,1.20839,0.0,0.0,0.0,0.7686993,0.0,0.0,0.0,0.458321,943.663,827.619,944.0659,818.7546,732.52747,-0.333251953125,0.0335693359375,0.9327392578125,2.7813720703125,-3.566436767578125,1.48040771484375,1.0,4.0,4.0,4.0,1.0,100.0,event
09:30:43.311,0.0,0.0,0.0,1.1891452,0.0,0.0,0.0,1.1997983,0.0,0.0,0.0,1.20839,0.0,0.0,0.0,0.7686993,0.0,0.0,0.0,0.458321,119.67033,1168.4982,913.44324,830.4396,876.77655,-0.333251953125,0.0335693359375,0.9327392578125,2.7813720703125,-3.566436767578125,1.48040771484375,1.0,4.0,4.0,4.0,1.0,100.0,event
09:30:43.312,0.0,0.0,0.0,1.1891452,0.0,0.0,0.0,1.1997983,0.0,0.0,0.0,1.20839,0.0,0.0,0.0,0.7686993,0.0,0.0,0.0,0.458321,1391.7216,1235.7876,1035.1282,810.293,805.05493,-0.333251953125,0.0335693359375,0.9327392578125,2.7813720703125,-3.566436767578125,1.48040771484375,1.0,4.0,4.0,4.0,1.0,100.0,event
09:30:43.334,0.0,0.0,0.0,1.1891452,0.0,0.0,0.0,1.1997983,0.0,0.0,0.0,1.20839,0.0,0.0,0.0,0.7686993,0.0,0.0,0.0,0.458321,269.56042,844.5421,1060.9158,802.23444,697.8755,-0.323974609375,0.0401611328125,0.9356689453125,2.684173583984375,-4.08233642578125,0.770111083984375,1.0,4.0,4.0,4.0,1.0,100.0,event
09:30:43.335,0.0,0.0,0.0,1.1891452,0.0,0.0,0.0,1.1997983,0.0,0.0,0.0,1.20839,0.0,0.0,0.0,0.7686993,0.0,0.0,0.0,0.458321,0.0,423.47986,886.04395,805.8608,753.47986,-0.323974609375,0.0401611328125,0.9356689453125,2.684173583984375,-4.08233642578125,0.770111083984375,1.0,4.0,4.0,4.0,1.0,100.0,event
09:30:43.336,0.0,0.0,0.0,1.1891452,0.0,0.0,0.0,1.1997983,0.0,0.0,0.0,1.20839,0.0,0.0,0.0,0.7686993,0.0,0.0,0.0,0.458321,676.9231,665.64105,892.8938,799.81683,773.6264,-0.323974609375,0.0401611328125,0.9356689453125,2.684173583984375,-4.08233642578125,0.770111083984375,1.0,4.0,4.0,4.0,1.0,100.0,event
09:30:43.337,0.0,0.0,0.0,1.1891452,0.0,0.0,0.0,1.1997983,0.0,0.0,0.0,1.20839,0.0,0.0,0.0,0.7686993,0.0,0.0,0.0,0.458321,42.71062,1467.4725,1202.7472,817.9487,767.1795,-0.323974609375,0.0401611328125,0.9356689453125,2.684173583984375,-4.08233642578125,0.770111083984375,1.0,4.0,4.0,4.0,1.0,100.0,event
09:30:43.338,0.0,0.0,0.0,1.1891452,0.0,0.0,0.0,1.1997983,0.0,0.0,0.0,1.20839,0.0,0.0,0.0,0.7686993,0.0,0.0,0.0,0.458321,1495.6776,1567.3993,1288.5714,811.0989,741.39197,-0.323974609375,0.0401611328125,0.9356689453125,2.684173583984375,-4.08233642578125,0.770111083984375,1.0,4.0,4.0,4.0,1.0,100.0,event
09:30:43.339,0.0,0.0,0.0,1.2065365,0.0,0.0,0.0,1.2035567,0.0,0.0,0.0,1.2320994,0.0,0.0,0.0,0.7771985,0.0,0.0,0.0,0.44900835,313.88278,603.5897,778.86444,805.4579,791.3553,-0.323974609375,0.0401611328125,0.9356689453125,2.684173583984375,-4.08233642578125,0.770111083984375,1.0,4.0,4.0,4.0,1.0,100.0,event
09:30:43.342,0.0,0.0,0.0,1.2065365,0.0,0.0,0.0,1.2035567,0.0,0.0,0.0,1.2320994,0.0,0.0,0.0,0.7771985,0.0,0.0,0.0,0.44900835,0.0,0.0,83.809525,815.5311,1011.75824,-0.323974609375,0.0401611328125,0.9356689453125,2.684173583984375,-4.08233642578125,0.770111083984375,1.0,4.0,4.0,4.0,1.0,100.0,event
09:30:43.342,0.0,0.0,0.0,1.2065365,0.0,0.0,0.0,1.2035567,0.0,0.0,0.0,1.2320994,0.0,0.0,0.0,0.7771985,0.0,0.0,0.0,0.44900835,596.7399,494.79852,480.29303,803.44324,894.5055,-0.323974609375,0.0401611328125,0.9356689453125,2.684173583984375,-4.08233642578125,0.770111083984375,1.0,4.0,4.0,4.0,1.0,100.0,event
09:30:43.343,0.0,0.0,0.0,1.2065365,0.0,0.0,0.0,1.2035567,0.0,0.0,0.0,1.2320994,0.0,0.0,0.0,0.7771985,0.0,0.0,0.0,0.44900835,1644.359,1518.2417,1384.8718,804.2491,719.6337,-0.323974609375,0.0401611328125,0.9356689453125,2.684173583984375,-4.08233642578125,0.770111083984375,1.0,4.0,4.0,4.0,1.0,100.0,event
09:30:43.344,0.0,0.0,0.0,1.2065365,0.0,0.0,0.0,1.2035567,0.0,0.0,0.0,1.2320994,0.0,0.0,0.0,0.7771985,0.0,0.0,0.0,0.44900835,1533.1501,1540.403,1352.6373,799.41394,748.24176,-0.323974609375,0.0401611328125,0.9356689453125,2.684173583984375,-4.08233642578125,0.770111083984375,1.0,4.0,4.0,4.0,1.0,100.0,event
09:30:43.345,0.0,0.0,0.0,1.2065365,0.0,0.0,0.0,1.2035567,0.0,0.0,0.0,1.2320994,0.0,0.0,0.0,0.7771985,0.0,0.0,0.0,0.44900835,359.4139,790.9524,943.2601,789.34064,717.619,-0.323974609375,0.0401611328125,0.9356689453125,2.684173583984375,-4.08233642578125,0.770111083984375,1.0,4.0,4.0,4.0,1.0,100.0,event
09:30:43.346,0.0,0.0,0.0,1.2065365,0.0,0.0,0.0,1.2035567,0.0,0.0,0.0,1.2320994,0.0,0.0,0.0,0.7771985,0.0,0.0,0.0,0.44900835,0.0,355.78754,826.8132,784.5055,693.44324,-0.323974609375,0.0401611328125,0.9356689453125,2.684173583984375,-4.08233642578125,0.770111083984375,1.0,4.0,4.0,4.0,1.0,100.0,event
09:30:43.378,0.0,0.0,0.0,1.2065365,0.0,0.0,0.0,1.2035567,0.0,0.0,0.0,1.2320994,0.0,0.0,0.0,0.7771985,0.0,0.0,0.0,0.44900835,306.2271,568.1319,874.35895,792.96704,732.52747,-0.3282470703125,0.0406494140625,0.9345703125,2.16827392578125,-3.701019287109375,0.680389404296875,1.0,4.0,4.0,4.0,1.0,100.0,event
09:30:43.379,0.0,0.0,0.0,1.2065365,0.0,0.0,0.0,1.2035567,0.0,0.0,0.0,1.2320994,0.0,0.0,0.0,0.7771985,0.0,0.0,0.0,0.44900835,1471.0989,1196.3004,1070.1831,812.3077,853.8095,-0.3282470703125,0.0406494140625,0.9345703125,2.16827392578125,-3.701019287109375,0.680389404296875,1.0,4.0,4.0,4.0,1.0,100.0,event
09:30:43.379,0.0,0.0,0.0,1.2065365,0.0,0.0,0.0,1.2035567,0.0,0.0,0.0,1.2320994,0.0,0.0,0.0,0.7771985,0.0,0.0,0.0,0.44900835,1643.1501,1394.5421,1159.2307,806.6667,900.9524,-0.3282470703125,0.0406494140625,0.9345703125,2.16827392578125,-3.701019287109375,0.680389404296875,1.0,4.0,4.0,4.0,1.0,100.0,event
09:30:43.380,0.0,0.0,0.0,1.2065365,0.0,0.0,0.0,1.2035567,0.0,0.0,0.0,1.2320994,0.0,0.0,0.0,0.7771985,0.0,0.0,0.0,0.44900835,446.4469,993.22345,1086.3004,789.34064,722.8571,-0.3282470703125,0.0406494140625,0.9345703125,2.16827392578125,-3.701019287109375,0.680389404296875,1.0,4.0,4.0,4.0,1.0,100.0,event
09:30:43.381,0.0,0.0,0.0,1.2065365,0.0,0.0,0.0,1.2035567,0.0,0.0,0.0,1.2320994,0.0,0.0,0.0,0.7771985,0.0,0.0,0.0,0.44900835,0.0,502.05127,954.5421,784.10254,743.00366,-0.3282470703125,0.0406494140625,0.9345703125,2.16827392578125,-3.701019287109375,0.680389404296875,1.0,4.0,4.0,4.0,1.0,100.0,event
09:30:43.382,0.0,0.0,0.0,1.2065365,0.0,0.0,0.0,1.2035567,0.0,0.0,0.0,1.2320994,0.0,0.0,0.0,0.7771985,0.0,0.0,0.0,0.44900835,147.0696,407.76556,829.6337,778.0586,893.2967,-0.3282470703125,0.0406494140625,0.9345703125,2.16827392578125,-3.701019287109375,0.680389404296875,1.0,4.0,4.0,4.0,1.0,100.0,event
09:30:43.383,0.0,0.0,0.0,1.2065365,0.0,0.0,0.0,1.2035567,0.0,0.0,0.0,1.2320994,0.0,0.0,0.0,0.7771985,0.0,0.0,0.0,0.44900835,1317.5824,961.39197,965.42126,814.3223,908.20514,-0.3282470703125,0.0406494140625,0.9345703125,2.16827392578125,-3.701019287109375,0.680389404296875,1.0,4.0,4.0,4.0,1.0,100.0,event
09:30:43.384,0.0,0.0,0.0,1.2065365,0.0,0.0,0.0,1.2035567,0.0,0.0,0.0,1.2320994,0.0,0.0,0.0,0.7771985,0.0,0.0,0.0,0.44900835,72.930405,1584.7252,1293.0037,817.1429,821.978,-0.3282470703125,0.0406494140625,0.9345703125,2.16827392578125,-3.701019287109375,0.680389404296875,1.0,4.0,4.0,4.0,1.0,100.0,event
09:30:43.385,0.0,0.0,0.0,1.2065365,0.0,0.0,0.0,1.2035567,0.0,0.0,0.0,1.2320994,0.0,0.0,0.0,0.7771985,0.0,0.0,0.0,0.44900835,583.8461,1211.6117,1277.2894,797.3993,733.73627,-0.3282470703125,0.0406494140625,0.9345703125,2.16827392578125,-3.701019287109375,0.680389404296875,1.0,4.0,4.0,4.0,1.0,100.0,event
09:30:43.386,0.0,0.0,0.0,1.2065365,0.0,0.0,0.0,1.2035567,0.0,0.0,0.0,1.2320994,0.0,0.0,0.0,0.7771985,0.0,0.0,0.0,0.44900835,0.0,177.28938,548.3883,790.9524,829.2308,-0.3282470703125,0.0406494140625,0.9345703125,2.16827392578125,-3.701019287109375,0.680389404296875,1.0,4.0,4.0,4.0,1.0,100.0,event
09:30:43.387,0.0,0.0,0.0,1.2065365,0.0,0.0,0.0,1.2035567,0.0,0.0,0.0,1.2320994,0.0,0.0,0.0,0.7771985,0.0,0.0,0.0,0.44900835,154.72528,166.81319,329.19415,794.9817,869.12085,-0.3282470703125,0.0406494140625,0.9345703125,2.16827392578125,-3.701019287109375,0.680389404296875,1.0,4.0,4.0,4.0,1.0,100.0,event
09:30:43.388,0.0,0.0,0.0,1.2065365,0.0,0.0,0.0,1.2035567,0.0,0.0,0.0,1.2320994,0.0,0.0,0.0,0.7771985,0.0,0.0,0.0,0.44900835,1327.2528,1297.8389,1270.0366,810.696,751.8681,-0.3282470703125,0.0406494140625,0.9345703125,2.16827392578125,-3.701019287109375,0.680389404296875,1.0,4.0,4.0,4.0,1.0,100.0,event
09:30:43.455,0.0,0.0,0.0,1.2065365,0.0,0.0,0.0,1.2035567,0.0,0.0,0.0,1.2320994,0.0,0.0,0.0,0.7771985,0.0,0.0,0.0,0.44900835,88.24176,1643.1501,1518.6447,809.0842,771.2088,-0.3282470703125,0.0406494140625,0.9345703125,2.16827392578125,-3.701019287109375,0.680389404296875,1.0,4.0,4.0,4.0,1.0,100.0,event
09:30:43.455,0.0,0.0,0.0,1.2065365,0.0,0.0,0.0,1.2035567,0.0,0.0,0.0,1.2320994,0.0,0.0,0.0,0.7771985,0.0,0.0,0.0,0.44900835,671.685,977.9121,1040.3663,795.38464,775.64105,-0.3282470703125,0.0406494140625,0.9345703125,2.16827392578125,-3.701019287109375,0.680389404296875,1.0,4.0,4.0,4.0,1.0,100.0,event
09:30:43.456,0.0,0.0,0.0,1.2065365,0.0,0.0,0.0,1.2035567,0.0,0.0,0.0,1.2320994,0.0,0.0,0.0,0.7771985,0.0,0.0,0.0,0.44900835,0.0,375.53113,829.6337,781.685,748.24176,-0.3282470703125,0.0406494140625,0.9345703125,2.16827392578125,-3.701019287109375,0.680389404296875,1.0,4.0,4.0,4.0,1.0,100.0,event
09:30:43.457,0.0,0.0,0.0,1.2065365,0.0,0.0,0.0,1.2035567,0.0,0.0,0.0,1.2320994,0.0,0.0,0.0,0.7771985,0.0,0.0,0.0,0.44900835,116.849815,361.02563,849.7802,784.10254,755.89746,-0.3282470703125,0.0406494140625,0.9345703125,2.16827392578125,-3.701019287109375,0.680389404296875,1.0,4.0,4.0,4.0,1.0,100.0,event
09:30:43.457,0.0,0.0,0.0,1.2065365,0.0,0.0,0.0,1.2035567,0.0,0.0,0.0,1.2320994,0.0,0.0,0.0,0.7771985,0.0,0.0,0.0,0.44900835,1246.2638,1066.1538,1141.0989,815.12823,767.98535,-0.3282470703125,0.0406494140625,0.9345703125,2.16827392578125,-3.701019287109375,0.680389404296875,1.0,4.0,4.0,4.0,1.0,100.0,event
09:30:43.458,0.0,0.0,0.0,1.2065365,0.0,0.0,0.0,1.2035567,0.0,0.0,0.0,1.2320994,0.0,0.0,0.0,0.7771985,0.0,0.0,0.0,0.44900835,141.8315,1075.4213,953.73627,816.337,979.92676,-0.3282470703125,0.0406494140625,0.9345703125,2.16827392578125,-3.701019287109375,0.680389404296875,1.0,4.0,4.0,4.0,1.0,100.0,event
09:30:43.458,0.0,0.0,0.0,1.2065365,0.0,0.0,0.0,1.2035567,0.0,0.0,0.0,1.2320994,0.0,0.0,0.0,0.7771985,0.0,0.0,0.0,0.44900835,977.50916,700.696,777.25275,780.4762,962.1978,-0.3282470703125,0.0406494140625,0.9345703125,2.16827392578125,-3.701019287109375,0.680389404296875,1.0,4.0,4.0,4.0,1.0,100.0,event
09:30:43.459,0.0,0.0,0.0,1.212781,0.0,0.0,0.0,1.2100227,0.0,0.0,0.0,1.2536755,0.0,0.0,0.0,0.78022635,0.0,0.0,0.0,0.4372081,8.864469,502.45422,891.28204,775.64105,689.41394,-0.3282470703125,0.0406494140625,0.9345703125,2.16827392578125,-3.701019287109375,0.680389404296875,1.0,4.0,4.0,4.0,1.0,100.0,event
09:30:43.461,0.0,0.0,0.0,1.212781,0.0,0.0,0.0,1.2100227,0.0,0.0,0.0,1.2536755,0.0,0.0,0.0,0.78022635,0.0,0.0,0.0,0.4372081,1088.3151,359.011,660.40295,810.696,947.6923,-0.3282470703125,0.0406494140625,0.9345703125,2.16827392578125,-3.701019287109375,0.680389404296875,1.0,4.0,4.0,4.0,1.0,100.0,event
09:30:43.461,0.0,0.0,0.0,1.212781,0.0,0.0,0.0,1.2100227,0.0,0.0,0.0,1.2536755,0.0,0.0,0.0,0.78022635,0.0,0.0,0.0,0.4372081,2.014652,323.5531,828.022,790.9524,681.3553,-0.3282470703125,0.0406494140625,0.9345703125,2.16827392578125,-3.701019287109375,0.680389404296875,1.0,4.0,4.0,4.0,1.0,100.0,event
09:30:43.462,0.0,0.0,0.0,1.212781,0.0,0.0,0.0,1.2100227,0.0,0.0,0.0,1.2536755,0.0,0.0,0.0,0.78022635,0.0,0.0,0.0,0.4372081,149.48718,1349.8169,1202.7472,805.4579,834.0659,-0.3282470703125,0.0406494140625,0.9345703125,2.16827392578125,-3.701019287109375,0.680389404296875,1.0,4.0,4.0,4.0,1.0,100.0,event
09:30:43.462,0.0,0.0,0.0,1.212781,0.0,0.0,0.0,1.2100227,0.0,0.0,0.0,1.2536755,0.0,0.0,0.0,0.78022635,0.0,0.0,0.0,0.4372081,1259.5604,1526.7032,1389.3041,795.78754,655.16486,-0.3282470703125,0.0406494140625,0.9345703125,2.16827392578125,-3.701019287109375,0.680389404296875,1.0,4.0,4.0,4.0,1.0,100.0,event
09:30:43.485,0.0,0.0,0.0,1.212781,0.0,0.0,0.0,1.2100227,0.0,0.0,0.0,1.2536755,0.0,0.0,0.0,0.78022635,0.0,0.0,0.0,0.4372081,135.38461,478.6813,852.1978,776.8498,684.57874,-0.3233642578125,0.039306640625,0.9385986328125,1.816864013671875,-3.252410888671875,-0.35888671875,1.0,4.0,4.0,4.0,1.0,100.0,event
09:30:43.486,0.0,0.0,0.0,1.212781,0.0,0.0,0.0,1.2100227,0.0,0.0,0.0,1.2536755,0.0,0.0,0.0,0.78022635,0.0,0.0,0.0,0.4372081,0.0,216.37363,767.5824,771.2088,649.92676,-0.3233642578125,0.039306640625,0.9385986328125,1.816864013671875,-3.252410888671875,-0.35888671875,1.0,4.0,4.0,4.0,1.0,100.0,event
09:30:43.487,0.0,0.0,0.0,1.212781,0.0,0.0,0.0,1.2100227,0.0,0.0,0.0,1.2536755,0.0,0.0,0.0,0.78022635,0.0,0.0,0.0,0.4372081,1082.674,1003.69965,1209.1941,802.23444,673.69965,-0.3233642578125,0.039306640625,0.9385986328125,1.816864013671875,-3.252410888671875,-0.35888671875,1.0,4.0,4.0,4.0,1.0,100.0,event
09:30:43.487,0.0,0.0,0.0,1.212781,0.0,0.0,0.0,1.2100227,0.0,0.0,0.0,1.2536755,0.0,0.0,0.0,0.78022635,0.0,0.0,0.0,0.4372081,141.42857,1633.4799,1545.238,822.381,768.3883,-0.3233642578125,0.039306640625,0.9385986328125,1.816864013671875,-3.252410888671875,-0.35888671875,1.0,4.0,4.0,4.0,1.0,100.0,event
09:30:43.488,0.0,0.0,0.0,1.212781,0.0,0.0,0.0,1.2100227,0.0,0.0,0.0,1.2536755,0.0,0.0,0.0,0.78022635,0.0,0.0,0.0,0.4372081,1309.9268,1267.619,1232.967,806.26373,817.1429,-0.3233642578125,0.039306640625,0.9385986328125,1.816864013671875,-3.252410888671875,-0.35888671875,1.0,4.0,4.0,4.0,1.0,100.0,event
09:30:43.489,0.0,0.0,0.0,1.212781,0.0,0.0,0.0,1.2100227,0.0,0.0,0.0,1.2536755,0.0,0.0,0.0,0.78022635,0.0,0.0,0.0,0.4372081,207.9121,321.13553,693.8461,776.8498,825.6044,-0.3233642578125,0.039306640625,0.9385986328125,1.816864013671875,-3.252410888671875,-0.35888671875,1.0,4.0,4.0,4.0,1.0,100.0,event
09:30:43.489,0.0,0.0,0.0,1.212781,0.0,0.0,0.0,1.2100227,0.0,0.0,0.0,1.2536755,0.0,0.0,0.0,0.78022635,0.0,0.0,0.0,0.4372081,0.0,10.476191,620.9158,790.14655,824.7985,-0.3233642578125,0.039306640625,0.9385986328125,1.816864013671875,-3.252410888671875,-0.35888671875,1.0,4.0,4.0,4.0,1.0,100.0,event
