TimeStamp,Delta_TP9,Delta_AF7,Delta_AF8,Delta_TP10,Theta_TP9,Theta_AF7,Theta_AF8,Theta_TP10,Alpha_TP9,Alpha_AF7,Alpha_AF8,Alpha_TP10,Beta_TP9,Beta_AF7,Beta_AF8,Beta_TP10,Gamma_TP9,Gamma_AF7,Gamma_AF8,Gamma_TP10,RAW_TP9,RAW_AF7,RAW_AF8,RAW_TP10,AUX_RIGHT,Accelerometer_X,Accelerometer_Y,Accelerometer_Z,Gyro_X,Gyro_Y,Gyro_Z,HeadBandOn,HSI_TP9,HSI_AF7,HSI_AF8,HSI_TP10,Battery,Elements
11:37:13.878,1.2673765,0.95152843,0.32111618,1.2819777,0.8345706,0.16921955,-0.32545477,0.7233186,0.6256245,0.31318545,-0.048124056,0.71886903,0.6652312,0.39221594,0.009781671,0.89218247,0.47759005,0.1868932,-0.1645585,0.6153706,848.97437,797.8022,790.9524,858.24176,645.89746,-0.0545654296875,0.07586669921875,0.98431396484375,1.846771240234375,-3.386993408203125,0.725250244140625,1.0,1.0,1.0,1.0,1.0,95.0,event
11:37:13.879,1.2673765,0.95152843,0.32111618,1.2819777,0.8345706,0.16921955,-0.32545477,0.7233186,0.6256245,0.31318545,-0.048124056,0.71886903,0.6652312,0.39221594,0.009781671,0.89218247,0.47759005,0.1868932,-0.1645585,0.6153706,863.47986,802.23444,793.36993,864.2857,674.5055,-0.0545654296875,0.07586669921875,0.98431396484375,1.846771240234375,-3.386993408203125,0.725250244140625,1.0,1.0,1.0,1.0,1.0,95.0,event
11:37:13.880,1.2673765,0.95152843,0.32111618,1.2819777,0.8345706,0.16921955,-0.32545477,0.7233186,0.6256245,0.31318545,-0.048124056,0.71886903,0.6652312,0.39221594,0.009781671,0.89218247,0.47759005,0.1868932,-0.1645585,0.6153706,868.71796,812.3077,800.2198,865.89746,815.5311,-0.0545654296875,0.07586669921875,0.98431396484375,1.846771240234375,-3.386993408203125,0.725250244140625,1.0,1.0,1.0,1.0,1.0,95.0,event
11:37:13.880,1.2673765,0.9940963,0.43877578,1.2819777,0.8345706,0.17746972,-0.15909122,0.7233186,0.6256245,0.31318545,0.030459605,0.71886903,0.6652312,0.42656305,0.0243355,0.89218247,0.47759005,0.13986573,-0.19705164,0.6153706,856.63007,812.3077,798.60803,852.6007,775.64105,-0.0545654296875,0.07586669921875,0.98431396484375,1.846771240234375,-3.386993408203125,0.725250244140625,1.0,1.0,1.0,1.0,1.0,95.0,event
11:37:13.883,,,,,,,,,,,,,,,,,,,,,,,,,,,,,,,,,,,,,,blink
11:37:13.885,1.2673765,0.9940963,0.43877578,1.2819777,0.8345706,0.17746972,-0.15909122,0.7233186,0.6256245,0.31318545,0.030459605,0.71886903,0.6652312,0.42656305,0.0243355,0.89218247,0.47759005,0.13986573,-0.19705164,0.6153706,839.707,807.47253,799.41394,841.31866,684.57874,-0.0545654296875,0.07586669921875,0.98431396484375,1.846771240234375,-3.386993408203125,0.725250244140625,1.0,1.0,1.0,1.0,1.0,95.0,event
11:37:13.885,1.2673765,0.9940963,0.43877578,1.2819777,0.8345706,0.17746972,-0.15909122,0.7233186,0.6256245,0.31318545,0.030459605,0.71886903,0.6652312,0.42656305,0.0243355,0.89218247,0.47759005,0.13986573,-0.19705164,0.6153706,839.304,807.0696,804.2491,839.304,726.8865,-0.0545654296875,0.07586669921875,0.98431396484375,1.846771240234375,-3.386993408203125,0.725250244140625,1.0,1.0,1.0,1.0,1.0,95.0,event
11:37:13.886,1.2673765,0.9940963,0.43877578,1.2819777,0.8345706,0.17746972,-0.15909122,0.7233186,0.6256245,0.31318545,0.030459605,0.71886903,0.6652312,0.42656305,0.0243355,0.89218247,0.47759005,0.13986573,-0.19705164,0.6153706,850.989,810.696,806.26373,853.8095,1031.9048,-0.0545654296875,0.07586669921875,0.98431396484375,1.846771240234375,-3.386993408203125,0.725250244140625,1.0,1.0,1.0,1.0,1.0,95.0,event
11:37:13.887,1.2673765,0.9940963,0.43877578,1.2819777,0.8345706,0.17746972,-0.15909122,0.7233186,0.6256245,0.31318545,0.030459605,0.71886903,0.6652312,0.42656305,0.0243355,0.89218247,0.47759005,0.13986573,-0.19705164,0.6153706,833.663,808.68134,799.41394,836.08057,761.13556,-0.0545654296875,0.07586669921875,0.98431396484375,1.846771240234375,-3.386993408203125,0.725250244140625,1.0,1.0,1.0,1.0,1.0,95.0,event
11:37:13.887,1.2673765,0.9940963,0.43877578,1.2819777,0.8345706,0.17746972,-0.15909122,0.7233186,0.6256245,0.31318545,0.030459605,0.71886903,0.6652312,0.42656305,0.0243355,0.89218247,0.47759005,0.13986573,-0.19705164,0.6153706,846.1539,812.71063,803.8461,850.58606,1116.1172,-0.0545654296875,0.07586669921875,0.98431396484375,1.846771240234375,-3.386993408203125,0.725250244140625,1.0,1.0,1.0,1.0,1.0,95.0,event
11:37:13.888,1.2673765,0.9940963,0.43877578,1.2819777,0.8345706,0.17746972,-0.15909122,0.7233186,0.6256245,0.31318545,0.030459605,0.71886903,0.6652312,0.42656305,0.0243355,0.89218247,0.47759005,0.13986573,-0.19705164,0.6153706,835.2747,802.6374,805.05493,850.989,751.4652,-0.0545654296875,0.07586669921875,0.98431396484375,1.846771240234375,-3.386993408203125,0.725250244140625,1.0,1.0,1.0,1.0,1.0,95.0,event
11:37:13.889,1.2673765,0.9940963,0.43877578,1.2819777,0.8345706,0.17746972,-0.15909122,0.7233186,0.6256245,0.31318545,0.030459605,0.71886903,0.6652312,0.42656305,0.0243355,0.89218247,0.47759005,0.13986573,-0.19705164,0.6153706,841.31866,806.6667,804.65204,858.6447,954.1392,-0.0545654296875,0.07586669921875,0.98431396484375,1.846771240234375,-3.386993408203125,0.725250244140625,1.0,1.0,1.0,1.0,1.0,95.0,event
11:37:13.890,1.2673765,0.9940963,0.43877578,1.2819777,0.8345706,0.17746972,-0.15909122,0.7233186,0.6256245,0.31318545,0.030459605,0.71886903,0.6652312,0.42656305,0.0243355,0.89218247,0.47759005,0.13986573,-0.19705164,0.6153706,851.79486,815.12823,797.8022,837.6923,807.8755,-0.0545654296875,0.07586669921875,0.98431396484375,1.846771240234375,-3.386993408203125,0.725250244140625,1.0,1.0,1.0,1.0,1.0,95.0,event
11:37:13.923,1.2673765,0.9940963,0.43877578,1.2819777,0.8345706,0.17746972,-0.15909122,0.7233186,0.6256245,0.31318545,0.030459605,0.71886903,0.6652312,0.42656305,0.0243355,0.89218247,0.47759005,0.13986573,-0.19705164,0.6153706,862.27106,813.5165,800.2198,845.7509,708.7546,-0.05755615234375,0.074462890625,0.98779296875,1.278533935546875,-3.4991455078125,0.366363525390625,1.0,1.0,1.0,1.0,1.0,95.0,event
11:37:13.924,1.2673765,0.9940963,0.43877578,1.2819777,0.8345706,0.17746972,-0.15909122,0.7233186,0.6256245,0.31318545,0.030459605,0.71886903,0.6652312,0.42656305,0.0243355,0.89218247,0.47759005,0.13986573,-0.19705164,0.6153706,848.5714,807.47253,801.8315,844.94507,726.08057,-0.05755615234375,0.074462890625,0.98779296875,1.278533935546875,-3.4991455078125,0.366363525390625,1.0,1.0,1.0,1.0,1.0,95.0,event
11:37:13.925,1.2673765,0.9940963,0.43877578,1.2819777,0.8345706,0.17746972,-0.15909122,0.7233186,0.6256245,0.31318545,0.030459605,0.71886903,0.6652312,0.42656305,0.0243355,0.89218247,0.47759005,0.13986573,-0.19705164,0.6153706,835.2747,811.50183,801.8315,825.6044,700.293,-0.05755615234375,0.074462890625,0.98779296875,1.278533935546875,-3.4991455078125,0.366363525390625,1.0,1.0,1.0,1.0,1.0,95.0,event
11:37:13.926,1.2673765,0.9940963,0.43877578,1.2819777,0.8345706,0.17746972,-0.15909122,0.7233186,0.6256245,0.31318545,0.030459605,0.71886903,0.6652312,0.42656305,0.0243355,0.89218247,0.47759005,0.13986573,-0.19705164,0.6153706,863.0769,809.0842,809.89014,841.31866,695.05493,-0.05755615234375,0.074462890625,0.98779296875,1.278533935546875,-3.4991455078125,0.366363525390625,1.0,1.0,1.0,1.0,1.0,95.0,event
11:37:13.926,1.2673765,0.9940963,0.43877578,1.2819777,0.8345706,0.17746972,-0.15909122,0.7233186,0.6256245,0.31318545,0.030459605,0.71886903,0.6652312,0.42656305,0.0243355,0.89218247,0.47759005,0.13986573,-0.19705164,0.6153706,854.61536,819.15753,805.8608,836.08057,681.75824,-0.05755615234375,0.074462890625,0.98779296875,1.278533935546875,-3.4991455078125,0.366363525390625,1.0,1.0,1.0,1.0,1.0,95.0,event
11:37:13.927,1.2673765,0.9940963,0.43877578,1.2819777,0.8345706,0.17746972,-0.15909122,0.7233186,0.6256245,0.31318545,0.030459605,0.71886903,0.6652312,0.42656305,0.0243355,0.89218247,0.47759005,0.13986573,-0.19705164,0.6153706,853.00366,814.3223,807.0696,838.0952,857.8388,-0.05755615234375,0.074462890625,0.98779296875,1.278533935546875,-3.4991455078125,0.366363525390625,1.0,1.0,1.0,1.0,1.0,95.0,event
11:37:13.928,1.2673765,0.9940963,0.43877578,1.2819777,0.8345706,0.17746972,-0.15909122,0.7233186,0.6256245,0.31318545,0.030459605,0.71886903,0.6652312,0.42656305,0.0243355,0.89218247,0.47759005,0.13986573,-0.19705164,0.6153706,823.5897,809.0842,799.011,836.08057,834.87177,-0.05755615234375,0.074462890625,0.98779296875,1.278533935546875,-3.4991455078125,0.366363525390625,1.0,1.0,1.0,1.0,1.0,95.0,event
11:37:13.928,1.2673765,0.9940963,0.43877578,1.2819777,0.8345706,0.17746972,-0.15909122,0.7233186,0.6256245,0.31318545,0.030459605,0.71886903,0.6652312,0.42656305,0.0243355,0.89218247,0.47759005,0.13986573,-0.19705164,0.6153706,841.31866,819.15753,800.6227,840.5128,1053.663,-0.05755615234375,0.074462890625,0.98779296875,1.278533935546875,-3.4991455078125,0.366363525390625,1.0,1.0,1.0,1.0,1.0,95.0,event
11:37:13.929,1.2673765,0.9940963,0.43877578,1.2819777,0.8345706,0.17746972,-0.15909122,0.7233186,0.6256245,0.31318545,0.030459605,0.71886903,0.6652312,0.42656305,0.0243355,0.89218247,0.47759005,0.13986573,-0.19705164,0.6153706,825.2015,804.65204,800.2198,828.8278,719.6337,-0.05755615234375,0.074462890625,0.98779296875,1.278533935546875,-3.4991455078125,0.366363525390625,1.0,1.0,1.0,1.0,1.0,95.0,event
11:37:13.930,1.2673765,0.9940963,0.43877578,1.2819777,0.8345706,0.17746972,-0.15909122,0.7233186,0.6256245,0.31318545,0.030459605,0.71886903,0.6652312,0.42656305,0.0243355,0.89218247,0.47759005,0.13986573,-0.19705164,0.6153706,831.6484,805.4579,795.78754,824.7985,877.5824,-0.05755615234375,0.074462890625,0.98779296875,1.278533935546875,-3.4991455078125,0.366363525390625,1.0,1.0,1.0,1.0,1.0,95.0,event
11:37:13.930,1.2673765,0.9940963,0.43877578,1.2819777,0.8345706,0.17746972,-0.15909122,0.7233186,0.6256245,0.31318545,0.030459605,0.71886903,0.6652312,0.42656305,0.0243355,0.89218247,0.47759005,0.13986573,-0.19705164,0.6153706,836.4835,810.696,794.17584,830.84247,952.52747,-0.05755615234375,0.074462890625,0.98779296875,1.278533935546875,-3.4991455078125,0.366363525390625,1.0,1.0,1.0,1.0,1.0,95.0,event
11:37:13.931,1.2673765,0.9940963,0.43877578,1.2819777,0.8345706,0.17746972,-0.15909122,0.7233186,0.6256245,0.31318545,0.030459605,0.71886903,0.6652312,0.42656305,0.0243355,0.89218247,0.47759005,0.13986573,-0.19705164,0.6153706,848.5714,821.5751,794.17584,838.49817,774.43225,-0.05755615234375,0.074462890625,0.98779296875,1.278533935546875,-3.4991455078125,0.366363525390625,1.0,1.0,1.0,1.0,1.0,95.0,event
11:37:13.970,1.2673765,0.9940963,0.43877578,1.2819777,0.8345706,0.17746972,-0.15909122,0.7233186,0.6256245,0.31318545,0.030459605,0.71886903,0.6652312,0.42656305,0.0243355,0.89218247,0.47759005,0.13986573,-0.19705164,0.6153706,836.08057,812.3077,796.5934,834.4689,725.2747,-0.0631103515625,0.078369140625,0.9903564453125,0.0299072265625,-2.67669677734375,-1.457977294921875,1.0,1.0,1.0,1.0,1.0,95.0,event
11:37:13.972,1.2673765,0.9940963,0.43877578,1.2819777,0.8345706,0.17746972,-0.15909122,0.7233186,0.6256245,0.31318545,0.030459605,0.71886903,0.6652312,0.42656305,0.0243355,0.89218247,0.47759005,0.13986573,-0.19705164,0.6153706,822.7839,802.6374,801.02563,821.1722,768.3883,-0.0631103515625,0.078369140625,0.9903564453125,0.0299072265625,-2.67669677734375,-1.457977294921875,1.0,1.0,1.0,1.0,1.0,95.0,event
11:37:13.973,1.2673765,0.9940963,0.43877578,1.2819777,0.8345706,0.17746972,-0.15909122,0.7233186,0.6256245,0.31318545,0.030459605,0.71886903,0.6652312,0.42656305,0.0243355,0.89218247,0.47759005,0.13986573,-0.19705164,0.6153706,827.619,816.337,803.44324,822.381,699.0842,-0.0631103515625,0.078369140625,0.9903564453125,0.0299072265625,-2.67669677734375,-1.457977294921875,1.0,1.0,1.0,1.0,1.0,95.0,event
11:37:13.974,1.2673765,0.9940963,0.43877578,1.2819777,0.8345706,0.17746972,-0.15909122,0.7233186,0.6256245,0.31318545,0.030459605,0.71886903,0.6652312,0.42656305,0.0243355,0.89218247,0.47759005,0.13986573,-0.19705164,0.6153706,836.8865,821.1722,807.0696,829.6337,718.4249,-0.0631103515625,0.078369140625,0.9903564453125,0.0299072265625,-2.67669677734375,-1.457977294921875,1.0,1.0,1.0,1.0,1.0,95.0,event
11:37:13.974,1.2673765,0.9940963,0.43877578,1.2819777,0.8345706,0.17746972,-0.15909122,0.7233186,0.6256245,0.31318545,0.030459605,0.71886903,0.6652312,0.42656305,0.0243355,0.89218247,0.47759005,0.13986573,-0.19705164,0.6153706,835.6777,815.9341,799.81683,819.15753,813.5165,-0.0631103515625,0.078369140625,0.9903564453125,0.0299072265625,-2.67669677734375,-1.457977294921875,1.0,1.0,1.0,1.0,1.0,95.0,event
11:37:13.975,1.2862293,1.0064886,0.45290115,1.2819777,0.8352987,0.19056642,-0.14328617,0.7233186,0.5831359,0.31318545,0.030459605,0.71886903,0.6759889,0.4654057,0.027548203,0.89218247,0.5008402,0.09510132,-0.21939977,0.6153706,817.1429,814.7253,802.6374,814.7253,952.9304,-0.0631103515625,0.078369140625,0.9903564453125,0.0299072265625,-2.67669677734375,-1.457977294921875,1.0,1.0,1.0,1.0,1.0,95.0,event
11:37:13.980,1.2862293,1.0064886,0.45290115,1.2819777,0.8352987,0.19056642,-0.14328617,0.7233186,0.5831359,0.31318545,0.030459605,0.71886903,0.6759889,0.4654057,0.027548203,0.89218247,0.5008402,0.09510132,-0.21939977,0.6153706,815.5311,809.4872,805.4579,809.89014,867.9121,-0.0631103515625,0.078369140625,0.9903564453125,0.0299072265625,-2.67669677734375,-1.457977294921875,1.0,1.0,1.0,1.0,1.0,95.0,event
11:37:13.981,1.2862293,1.0064886,0.45290115,1.2819777,0.8352987,0.19056642,-0.14328617,0.7233186,0.5831359,0.31318545,0.030459605,0.71886903,0.6759889,0.4654057,0.027548203,0.89218247,0.5008402,0.09510132,-0.21939977,0.6153706,831.6484,806.6667,796.99634,817.1429,693.44324,-0.0631103515625,0.078369140625,0.9903564453125,0.0299072265625,-2.67669677734375,-1.457977294921875,1.0,1.0,1.0,1.0,1.0,95.0,event
11:37:13.982,1.2862293,1.0064886,0.45290115,1.2819777,0.8352987,0.19056642,-0.14328617,0.7233186,0.5831359,0.31318545,0.030459605,0.71886903,0.6759889,0.4654057,0.027548203,0.89218247,0.5008402,0.09510132,-0.21939977,0.6153706,828.8278,811.0989,797.8022,831.6484,755.09155,-0.0631103515625,0.078369140625,0.9903564453125,0.0299072265625,-2.67669677734375,-1.457977294921875,1.0,1.0,1.0,1.0,1.0,95.0,event
11:37:13.983,1.2862293,1.0064886,0.45290115,1.2819777,0.8352987,0.19056642,-0.14328617,0.7233186,0.5831359,0.31318545,0.030459605,0.71886903,0.6759889,0.4654057,0.027548203,0.89218247,0.5008402,0.09510132,-0.21939977,0.6153706,828.4249,817.1429,804.65204,835.6777,995.64105,-0.0631103515625,0.078369140625,0.9903564453125,0.0299072265625,-2.67669677734375,-1.457977294921875,1.0,1.0,1.0,1.0,1.0,95.0,event
11:37:13.984,1.2862293,1.0064886,0.45290115,1.2819777,0.8352987,0.19056642,-0.14328617,0.7233186,0.5831359,0.31318545,0.030459605,0.71886903,0.6759889,0.4654057,0.027548203,0.89218247,0.5008402,0.09510132,-0.21939977,0.6153706,817.9487,824.7985,808.68134,828.4249,850.989,-0.0631103515625,0.078369140625,0.9903564453125,0.0299072265625,-2.67669677734375,-1.457977294921875,1.0,1.0,1.0,1.0,1.0,95.0,event
11:37:13.984,1.2862293,1.0064886,0.45290115,1.2819777,0.8352987,0.19056642,-0.14328617,0.7233186,0.5831359,0.31318545,0.030459605,0.71886903,0.6759889,0.4654057,0.027548203,0.89218247,0.5008402,0.09510132,-0.21939977,0.6153706,801.8315,824.7985,805.8608,815.9341,691.8315,-0.0631103515625,0.078369140625,0.9903564453125,0.0299072265625,-2.67669677734375,-1.457977294921875,1.0,1.0,1.0,1.0,1.0,95.0,event
11:37:14.006,1.2862293,1.0064886,0.45290115,1.2819777,0.8352987,0.19056642,-0.14328617,0.7233186,0.5831359,0.31318545,0.030459605,0.71886903,0.6759889,0.4654057,0.027548203,0.89218247,0.5008402,0.09510132,-0.21939977,0.6153706,826.8132,824.3956,805.4579,818.7546,842.52747,-0.0526123046875,0.0755615234375,0.9854736328125,-2.392578125,-2.4224853515625,-3.970184326171875,1.0,1.0,1.0,1.0,1.0,95.0,event
11:37:14.007,1.2862293,1.0064886,0.45290115,1.2819777,0.8352987,0.19056642,-0.14328617,0.7233186,0.5831359,0.31318545,0.030459605,0.71886903,0.6759889,0.4654057,0.027548203,0.89218247,0.5008402,0.09510132,-0.21939977,0.6153706,826.4103,826.0073,807.8755,823.5897,808.2784,-0.0526123046875,0.0755615234375,0.9854736328125,-2.392578125,-2.4224853515625,-3.970184326171875,1.0,1.0,1.0,1.0,1.0,95.0,event
11:37:14.007,1.2862293,1.0064886,0.45290115,1.2819777,0.8352987,0.19056642,-0.14328617,0.7233186,0.5831359,0.31318545,0.030459605,0.71886903,0.6759889,0.4654057,0.027548203,0.89218247,0.5008402,0.09510132,-0.21939977,0.6153706,838.49817,828.8278,810.696,824.7985,905.78754,-0.0526123046875,0.0755615234375,0.9854736328125,-2.392578125,-2.4224853515625,-3.970184326171875,1.0,1.0,1.0,1.0,1.0,95.0,event
11:37:14.008,1.2862293,1.0064886,0.45290115,1.2819777,0.8352987,0.19056642,-0.14328617,0.7233186,0.5831359,0.31318545,0.030459605,0.71886903,0.6759889,0.4654057,0.027548203,0.89218247,0.5008402,0.09510132,-0.21939977,0.6153706,812.71063,829.6337,812.71063,825.6044,791.3553,-0.0526123046875,0.0755615234375,0.9854736328125,-2.392578125,-2.4224853515625,-3.970184326171875,1.0,1.0,1.0,1.0,1.0,95.0,event
11:37:14.008,1.2862293,1.0064886,0.45290115,1.2819777,0.8352987,0.19056642,-0.14328617,0.7233186,0.5831359,0.31318545,0.030459605,0.71886903,0.6759889,0.4654057,0.027548203,0.89218247,0.5008402,0.09510132,-0.21939977,0.6153706,820.7692,821.5751,803.44324,827.619,734.94507,-0.0526123046875,0.0755615234375,0.9854736328125,-2.392578125,-2.4224853515625,-3.970184326171875,1.0,1.0,1.0,1.0,1.0,95.0,event
11:37:14.009,1.2862293,1.0064886,0.45290115,1.2819777,0.8352987,0.19056642,-0.14328617,0.7233186,0.5831359,0.31318545,0.030459605,0.71886903,0.6759889,0.4654057,0.027548203,0.89218247,0.5008402,0.09510132,-0.21939977,0.6153706,817.5458,823.1868,812.71063,815.12823,880.0,-0.0526123046875,0.0755615234375,0.9854736328125,-2.392578125,-2.4224853515625,-3.970184326171875,1.0,1.0,1.0,1.0,1.0,95.0,event
11:37:14.009,1.2862293,1.0064886,0.45290115,1.2819777,0.8352987,0.19056642,-0.14328617,0.7233186,0.5831359,0.31318545,0.030459605,0.71886903,0.6759889,0.4654057,0.027548203,0.89218247,0.5008402,0.09510132,-0.21939977,0.6153706,832.4542,824.7985,805.05493,817.1429,873.1502,-0.0526123046875,0.0755615234375,0.9854736328125,-2.392578125,-2.4224853515625,-3.970184326171875,1.0,1.0,1.0,1.0,1.0,95.0,event
11:37:14.010,1.2862293,1.0064886,0.45290115,1.2819777,0.8352987,0.19056642,-0.14328617,0.7233186,0.5831359,0.31318545,0.030459605,0.71886903,0.6759889,0.4654057,0.027548203,0.89218247,0.5008402,0.09510132,-0.21939977,0.6153706,823.5897,831.6484,809.89014,822.7839,774.43225,-0.0526123046875,0.0755615234375,0.9854736328125,-2.392578125,-2.4224853515625,-3.970184326171875,1.0,1.0,1.0,1.0,1.0,95.0,event
11:37:14.010,1.2862293,1.0064886,0.45290115,1.2819777,0.8352987,0.19056642,-0.14328617,0.7233186,0.5831359,0.31318545,0.030459605,0.71886903,0.6759889,0.4654057,0.027548203,0.89218247,0.5008402,0.09510132,-0.21939977,0.6153706,801.4286,825.2015,808.68134,809.89014,814.7253,-0.0526123046875,0.0755615234375,0.9854736328125,-2.392578125,-2.4224853515625,-3.970184326171875,1.0,1.0,1.0,1.0,1.0,95.0,event
11:37:14.011,1.2862293,1.0064886,0.45290115,1.2819777,0.8352987,0.19056642,-0.14328617,0.7233186,0.5831359,0.31318545,0.030459605,0.71886903,0.6759889,0.4654057,0.027548203,0.89218247,0.5008402,0.09510132,-0.21939977,0.6153706,788.5348,825.2015,799.011,791.75824,986.3736,-0.0526123046875,0.0755615234375,0.9854736328125,-2.392578125,-2.4224853515625,-3.970184326171875,1.0,1.0,1.0,1.0,1.0,95.0,event
11:37:14.012,1.2862293,1.0064886,0.45290115,1.2819777,0.8352987,0.19056642,-0.14328617,0.7233186,0.5831359,0.31318545,0.030459605,0.71886903,0.6759889,0.4654057,0.027548203,0.89218247,0.5008402,0.09510132,-0.21939977,0.6153706,802.23444,821.978,796.5934,800.6227,806.26373,-0.0526123046875,0.0755615234375,0.9854736328125,-2.392578125,-2.4224853515625,-3.970184326171875,1.0,1.0,1.0,1.0,1.0,95.0,event
11:37:14.012,1.2862293,1.0064886,0.45290115,1.2819777,0.8352987,0.19056642,-0.14328617,0.7233186,0.5831359,0.31318545,0.030459605,0.71886903,0.6759889,0.4654057,0.027548203,0.89218247,0.5008402,0.09510132,-0.21939977,0.6153706,823.9927,818.3516,800.2198,809.4872,710.7692,-0.0526123046875,0.0755615234375,0.9854736328125,-2.392578125,-2.4224853515625,-3.970184326171875,1.0,1.0,1.0,1.0,1.0,95.0,event
11:37:14.038,1.2862293,1.0064886,0.45290115,1.2819777,0.8352987,0.19056642,-0.14328617,0.7233186,0.5831359,0.31318545,0.030459605,0.71886903,0.6759889,0.4654057,0.027548203,0.89218247,0.5008402,0.09510132,-0.21939977,0.6153706,826.4103,821.1722,801.02563,807.8755,826.8132,-0.0526123046875,0.0755615234375,0.9854736328125,-2.392578125,-2.4224853515625,-3.970184326171875,1.0,1.0,1.0,1.0,1.0,95.0,event
11:37:14.039,1.2862293,1.0064886,0.45290115,1.2819777,0.8352987,0.19056642,-0.14328617,0.7233186,0.5831359,0.31318545,0.030459605,0.71886903,0.6759889,0.4654057,0.027548203,0.89218247,0.5008402,0.09510132,-0.21939977,0.6153706,811.9048,826.4103,803.44324,810.696,761.53845,-0.0526123046875,0.0755615234375,0.9854736328125,-2.392578125,-2.4224853515625,-3.970184326171875,1.0,1.0,1.0,1.0,1.0,95.0,event
11:37:14.040,1.2862293,1.0064886,0.45290115,1.2819777,0.8352987,0.19056642,-0.14328617,0.7233186,0.5831359,0.31318545,0.030459605,0.71886903,0.6759889,0.4654057,0.027548203,0.89218247,0.5008402,0.09510132,-0.21939977,0.6153706,812.71063,826.0073,804.65204,803.0403,756.30035,-0.0526123046875,0.0755615234375,0.9854736328125,-2.392578125,-2.4224853515625,-3.970184326171875,1.0,1.0,1.0,1.0,1.0,95.0,event
11:37:14.040,1.2862293,1.0064886,0.45290115,1.2819777,0.8352987,0.19056642,-0.14328617,0.7233186,0.5831359,0.31318545,0.030459605,0.71886903,0.6759889,0.4654057,0.027548203,0.89218247,0.5008402,0.09510132,-0.21939977,0.6153706,804.2491,828.022,803.8461,803.44324,684.17584,-0.0526123046875,0.0755615234375,0.9854736328125,-2.392578125,-2.4224853515625,-3.970184326171875,1.0,1.0,1.0,1.0,1.0,95.0,event
11:37:14.041,1.2862293,1.0064886,0.45290115,1.2819777,0.8352987,0.19056642,-0.14328617,0.7233186,0.5831359,0.31318545,0.030459605,0.71886903,0.6759889,0.4654057,0.027548203,0.89218247,0.5008402,0.09510132,-0.21939977,0.6153706,821.5751,821.5751,809.4872,820.7692,855.82416,-0.0526123046875,0.0755615234375,0.9854736328125,-2.392578125,-2.4224853515625,-3.970184326171875,1.0,1.0,1.0,1.0,1.0,95.0,event
11:37:14.042,1.2862293,1.0064886,0.45290115,1.2819777,0.8352987,0.19056642,-0.14328617,0.7233186,0.5831359,0.31318545,0.030459605,0.71886903,0.6759889,0.4654057,0.027548203,0.89218247,0.5008402,0.09510132,-0.21939977,0.6153706,830.4396,825.2015,807.8755,829.2308,873.5531,-0.0526123046875,0.0755615234375,0.9854736328125,-2.392578125,-2.4224853515625,-3.970184326171875,1.0,1.0,1.0,1.0,1.0,95.0,event
11:37:14.044,1.2862293,1.0064886,0.45290115,1.2819777,0.8352987,0.19056642,-0.14328617,0.7233186,0.5831359,0.31318545,0.030459605,0.71886903,0.6759889,0.4654057,0.027548203,0.89218247,0.5008402,0.09510132,-0.21939977,0.6153706,818.3516,826.4103,803.0403,819.5604,821.1722,-0.0526123046875,0.0755615234375,0.9854736328125,-2.392578125,-2.4224853515625,-3.970184326171875,1.0,1.0,1.0,1.0,1.0,95.0,event
11:37:14.045,1.2997969,1.0064886,0.4563244,1.320344,0.8304152,0.19056642,-0.1377463,0.7427821,0.5779841,0.31318545,0.030140433,0.71886903,0.6955013,0.4654057,0.028806753,0.9183088,0.5340382,0.09510132,-0.24128345,0.62243813,809.4872,817.9487,811.0989,813.1135,713.5897,-0.0526123046875,0.0755615234375,0.9854736328125,-2.392578125,-2.4224853515625,-3.970184326171875,1.0,1.0,1.0,1.0,1.0,95.0,event
11:37:14.050,1.2997969,1.0064886,0.4563244,1.320344,0.8304152,0.19056642,-0.1377463,0.7427821,0.5779841,0.31318545,0.030140433,0.71886903,0.6955013,0.4654057,0.028806753,0.9183088,0.5340382,0.09510132,-0.24128345,0.62243813,817.5458,823.9927,814.3223,815.12823,888.86444,-0.0526123046875,0.0755615234375,0.9854736328125,-2.392578125,-2.4224853515625,-3.970184326171875,1.0,1.0,1.0,1.0,1.0,95.0,event
11:37:14.051,1.2997969,1.0064886,0.4563244,1.320344,0.8304152,0.19056642,-0.1377463,0.7427821,0.5779841,0.31318545,0.030140433,0.71886903,0.6955013,0.4654057,0.028806753,0.9183088,0.5340382,0.09510132,-0.24128345,0.62243813,811.9048,832.4542,811.9048,821.978,935.2015,-0.0526123046875,0.0755615234375,0.9854736328125,-2.392578125,-2.4224853515625,-3.970184326171875,1.0,1.0,1.0,1.0,1.0,95.0,event
11:37:14.051,1.2997969,1.0064886,0.4563244,1.320344,0.8304152,0.19056642,-0.1377463,0.7427821,0.5779841,0.31318545,0.030140433,0.71886903,0.6955013,0.4654057,0.028806753,0.9183088,0.5340382,0.09510132,-0.24128345,0.62243813,810.696,834.0659,805.8608,820.3663,711.1722,-0.0526123046875,0.0755615234375,0.9854736328125,-2.392578125,-2.4224853515625,-3.970184326171875,1.0,1.0,1.0,1.0,1.0,95.0,event
11:37:14.052,1.2997969,1.0064886,0.4563244,1.320344,0.8304152,0.19056642,-0.1377463,0.7427821,0.5779841,0.31318545,0.030140433,0.71886903,0.6955013,0.4654057,0.028806753,0.9183088,0.5340382,0.09510132,-0.24128345,0.62243813,800.2198,817.9487,803.8461,815.9341,699.0842,-0.0526123046875,0.0755615234375,0.9854736328125,-2.392578125,-2.4224853515625,-3.970184326171875,1.0,1.0,1.0,1.0,1.0,95.0,event
11:37:14.144,1.2997969,1.0064886,0.4563244,1.320344,0.8304152,0.19056642,-0.1377463,0.7427821,0.5779841,0.31318545,0.030140433,0.71886903,0.6955013,0.4654057,0.028806753,0.9183088,0.5340382,0.09510132,-0.24128345,0.62243813,785.7143,805.4579,805.4579,810.696,742.6007,-0.06195068359375,0.05889892578125,0.97906494140625,-2.03369140625,-2.310333251953125,-2.639312744140625,1.0,1.0,1.0,1.0,1.0,95.0,event
11:37:14.145,1.2997969,1.0064886,0.4563244,1.320344,0.8304152,0.19056642,-0.1377463,0.7427821,0.5779841,0.31318545,0.030140433,0.71886903,0.6955013,0.4654057,0.028806753,0.9183088,0.5340382,0.09510132,-0.24128345,0.62243813,788.1319,815.12823,799.81683,802.6374,697.0696,-0.06195068359375,0.05889892578125,0.97906494140625,-2.03369140625,-2.310333251953125,-2.639312744140625,1.0,1.0,1.0,1.0,1.0,95.0,event
11:37:14.146,1.2997969,1.0064886,0.4563244,1.320344,0.8304152,0.19056642,-0.1377463,0.7427821,0.5779841,0.31318545,0.030140433,0.71886903,0.6955013,0.4654057,0.028806753,0.9183088,0.5340382,0.09510132,-0.24128345,0.62243813,797.3993,814.3223,804.65204,806.6667,734.1392,-0.06195068359375,0.05889892578125,0.97906494140625,-2.03369140625,-2.310333251953125,-2.639312744140625,1.0,1.0,1.0,1.0,1.0,95.0,event
11:37:14.146,1.2997969,1.0064886,0.4563244,1.320344,0.8304152,0.19056642,-0.1377463,0.7427821,0.5779841,0.31318545,0.030140433,0.71886903,0.6955013,0.4654057,0.028806753,0.9183088,0.5340382,0.09510132,-0.24128345,0.62243813,805.4579,811.9048,811.50183,823.1868,863.0769,-0.06195068359375,0.05889892578125,0.97906494140625,-2.03369140625,-2.310333251953125,-2.639312744140625,1.0,1.0,1.0,1.0,1.0,95.0,event
11:37:14.147,1.2997969,1.0064886,0.4563244,1.320344,0.8304152,0.19056642,-0.1377463,0.7427821,0.5779841,0.31318545,0.030140433,0.71886903,0.6955013,0.4654057,0.028806753,0.9183088,0.5340382,0.09510132,-0.24128345,0.62243813,796.99634,815.5311,805.4579,820.7692,845.7509,-0.06195068359375,0.05889892578125,0.97906494140625,-2.03369140625,-2.310333251953125,-2.639312744140625,1.0,1.0,1.0,1.0,1.0,95.0,event
11:37:14.148,1.2997969,1.0064886,0.4563244,1.320344,0.8304152,0.19056642,-0.1377463,0.7427821,0.5779841,0.31318545,0.030140433,0.71886903,0.6955013,0.4654057,0.028806753,0.9183088,0.5340382,0.09510132,-0.24128345,0.62243813,782.8938,812.3077,801.4286,799.011,832.0513,-0.06195068359375,0.05889892578125,0.97906494140625,-2.03369140625,-2.310333251953125,-2.639312744140625,1.0,1.0,1.0,1.0,1.0,95.0,event
11:37:14.148,1.2997969,1.0064886,0.4563244,1.320344,0.8304152,0.19056642,-0.1377463,0.7427821,0.5779841,0.31318545,0.030140433,0.71886903,0.6955013,0.4654057,0.028806753,0.9183088,0.5340382,0.09510132,-0.24128345,0.62243813,782.8938,815.5311,805.4579,793.7729,813.91943,-0.06195068359375,0.05889892578125,0.97906494140625,-2.03369140625,-2.310333251953125,-2.639312744140625,1.0,1.0,1.0,1.0,1.0,95.0,event
11:37:14.149,1.2997969,1.0064886,0.4563244,1.320344,0.8304152,0.19056642,-0.1377463,0.7427821,0.5779841,0.31318545,0.030140433,0.71886903,0.6955013,0.4654057,0.028806753,0.9183088,0.5340382,0.09510132,-0.24128345,0.62243813,800.2198,817.5458,812.71063,822.7839,892.0879,-0.06195068359375,0.05889892578125,0.97906494140625,-2.03369140625,-2.310333251953125,-2.639312744140625,1.0,1.0,1.0,1.0,1.0,95.0,event
11:37:14.150,1.2997969,1.0064886,0.4563244,1.320344,0.8304152,0.19056642,-0.1377463,0.7427821,0.5779841,0.31318545,0.030140433,0.71886903,0.6955013,0.4654057,0.028806753,0.9183088,0.5340382,0.09510132,-0.24128345,0.62243813,812.71063,815.9341,811.9048,844.1392,1099.1941,-0.06195068359375,0.05889892578125,0.97906494140625,-2.03369140625,-2.310333251953125,-2.639312744140625,1.0,1.0,1.0,1.0,1.0,95.0,event
11:37:14.151,1.2997969,1.0064886,0.4563244,1.320344,0.8304152,0.19056642,-0.1377463,0.7427821,0.5779841,0.31318545,0.030140433,0.71886903,0.6955013,0.4654057,0.028806753,0.9183088,0.5340382,0.09510132,-0.24128345,0.62243813,794.9817,824.7985,805.8608,805.05493,718.4249,-0.06195068359375,0.05889892578125,0.97906494140625,-2.03369140625,-2.310333251953125,-2.639312744140625,1.0,1.0,1.0,1.0,1.0,95.0,event
11:37:14.151,1.2997969,1.0064886,0.4563244,1.320344,0.8304152,0.19056642,-0.1377463,0.7427821,0.5779841,0.31318545,0.030140433,0.71886903,0.6955013,0.4654057,0.028806753,0.9183088,0.5340382,0.09510132,-0.24128345,0.62243813,805.8608,826.8132,800.6227,822.7839,912.23444,-0.06195068359375,0.05889892578125,0.97906494140625,-2.03369140625,-2.310333251953125,-2.639312744140625,1.0,1.0,1.0,1.0,1.0,95.0,event
11:37:14.152,1.2997969,1.0064886,0.4563244,1.320344,0.8304152,0.19056642,-0.1377463,0.7427821,0.5779841,0.31318545,0.030140433,0.71886903,0.6955013,0.4654057,0.028806753,0.9183088,0.5340382,0.09510132,-0.24128345,0.62243813,794.9817,815.5311,810.293,812.71063,800.6227,-0.06195068359375,0.05889892578125,0.97906494140625,-2.03369140625,-2.310333251953125,-2.639312744140625,1.0,1.0,1.0,1.0,1.0,95.0,event
11:37:14.180,1.2997969,1.0064886,0.4563244,1.320344,0.8304152,0.19056642,-0.1377463,0.7427821,0.5779841,0.31318545,0.030140433,0.71886903,0.6955013,0.4654057,0.028806753,0.9183088,0.5340382,0.09510132,-0.24128345,0.62243813,807.0696,819.5604,803.0403,819.9634,751.06226,-0.06854248046875,0.05267333984375,0.9791259765625,1.024322509765625,-2.2430419921875,-3.028106689453125,1.0,1.0,1.0,1.0,1.0,95.0,event
11:37:14.181,1.2997969,1.0064886,0.4563244,1.320344,0.8304152,0.19056642,-0.1377463,0.7427821,0.5779841,0.31318545,0.030140433,0.71886903,0.6955013,0.4654057,0.028806753,0.9183088,0.5340382,0.09510132,-0.24128345,0.62243813,818.7546,823.5897,805.8608,817.9487,672.0879,-0.06854248046875,0.05267333984375,0.9791259765625,1.024322509765625,-2.2430419921875,-3.028106689453125,1.0,1.0,1.0,1.0,1.0,95.0,event
11:37:14.182,1.2997969,1.0064886,0.4563244,1.320344,0.8304152,0.19056642,-0.1377463,0.7427821,0.5779841,0.31318545,0.030140433,0.71886903,0.6955013,0.4654057,0.028806753,0.9183088,0.5340382,0.09510132,-0.24128345,0.62243813,818.3516,814.7253,809.4872,813.1135,719.6337,-0.06854248046875,0.05267333984375,0.9791259765625,1.024322509765625,-2.2430419921875,-3.028106689453125,1.0,1.0,1.0,1.0,1.0,95.0,event
11:37:14.183,1.2997969,1.0064886,0.4563244,1.320344,0.8304152,0.19056642,-0.1377463,0.7427821,0.5779841,0.31318545,0.030140433,0.71886903,0.6955013,0.4654057,0.028806753,0.9183088,0.5340382,0.09510132,-0.24128345,0.62243813,803.0403,811.9048,810.696,805.05493,757.9121,-0.06854248046875,0.05267333984375,0.9791259765625,1.024322509765625,-2.2430419921875,-3.028106689453125,1.0,1.0,1.0,1.0,1.0,95.0,event
11:37:14.183,1.2997969,1.0064886,0.4563244,1.320344,0.8304152,0.19056642,-0.1377463,0.7427821,0.5779841,0.31318545,0.030140433,0.71886903,0.6955013,0.4654057,0.028806753,0.9183088,0.5340382,0.09510132,-0.24128345,0.62243813,796.99634,813.1135,808.2784,803.8461,706.337,-0.06854248046875,0.05267333984375,0.9791259765625,1.024322509765625,-2.2430419921875,-3.028106689453125,1.0,1.0,1.0,1.0,1.0,95.0,event
11:37:14.184,1.2997969,1.0064886,0.4563244,1.320344,0.8304152,0.19056642,-0.1377463,0.7427821,0.5779841,0.31318545,0.030140433,0.71886903,0.6955013,0.4654057,0.028806753,0.9183088,0.5340382,0.09510132,-0.24128345,0.62243813,809.4872,809.4872,808.68134,811.50183,808.68134,-0.06854248046875,0.05267333984375,0.9791259765625,1.024322509765625,-2.2430419921875,-3.028106689453125,1.0,1.0,1.0,1.0,1.0,95.0,event
11:37:14.185,1.2997969,1.0064886,0.4563244,1.320344,0.8304152,0.19056642,-0.1377463,0.7427821,0.5779841,0.31318545,0.030140433,0.71886903,0.6955013,0.4654057,0.028806753,0.9183088,0.5340382,0.09510132,-0.24128345,0.62243813,807.0696,808.2784,805.05493,823.5897,963.4066,-0.06854248046875,0.05267333984375,0.9791259765625,1.024322509765625,-2.2430419921875,-3.028106689453125,1.0,1.0,1.0,1.0,1.0,95.0,event
11:37:14.185,1.2997969,1.0064886,0.4563244,1.320344,0.8304152,0.19056642,-0.1377463,0.7427821,0.5779841,0.31318545,0.030140433,0.71886903,0.6955013,0.4654057,0.028806753,0.9183088,0.5340382,0.09510132,-0.24128345,0.62243813,817.1429,808.2784,810.293,816.7399,931.5751,-0.06854248046875,0.05267333984375,0.9791259765625,1.024322509765625,-2.2430419921875,-3.028106689453125,1.0,1.0,1.0,1.0,1.0,95.0,event
11:37:14.186,1.2997969,1.0064886,0.4563244,1.320344,0.8304152,0.19056642,-0.1377463,0.7427821,0.5779841,0.31318545,0.030140433,0.71886903,0.6955013,0.4654057,0.028806753,0.9183088,0.5340382,0.09510132,-0.24128345,0.62243813,792.96704,814.3223,803.8461,805.8608,856.63007,-0.06854248046875,0.05267333984375,0.9791259765625,1.024322509765625,-2.2430419921875,-3.028106689453125,1.0,1.0,1.0,1.0,1.0,95.0,event
11:37:14.187,1.2997969,1.0064886,0.4458511,1.3596529,0.8304152,0.19056642,-0.14234297,0.76833516,0.5779841,0.31318545,0.02883034,0.71886903,0.6955013,0.4654057,0.03206408,0.9388581,0.5340382,0.09510132,-0.26051113,0.62655497,783.69965,808.68134,801.8315,791.3553,704.7253,-0.06854248046875,0.05267333984375,0.9791259765625,1.024322509765625,-2.2430419921875,-3.028106689453125,1.0,1.0,1.0,1.0,1.0,95.0,event
11:37:14.192,1.2997969,1.0064886,0.4458511,1.3596529,0.8304152,0.19056642,-0.14234297,0.76833516,0.5779841,0.31318545,0.02883034,0.71886903,0.6955013,0.4654057,0.03206408,0.9388581,0.5340382,0.09510132,-0.26051113,0.62655497,801.8315,807.47253,803.8461,807.47253,712.381,-0.06854248046875,0.05267333984375,0.9791259765625,1.024322509765625,-2.2430419921875,-3.028106689453125,1.0,1.0,1.0,1.0,1.0,95.0,event
11:37:14.192,1.2997969,1.0064886,0.4458511,1.3596529,0.8304152,0.19056642,-0.14234297,0.76833516,0.5779841,0.31318545,0.02883034,0.71886903,0.6955013,0.4654057,0.03206408,0.9388581,0.5340382,0.09510132,-0.26051113,0.62655497,813.5165,811.50183,808.2784,815.12823,827.619,-0.06854248046875,0.05267333984375,0.9791259765625,1.024322509765625,-2.2430419921875,-3.028106689453125,1.0,1.0,1.0,1.0,1.0,95.0,event
11:37:14.219,1.2997969,1.0064886,0.4458511,1.3596529,0.8304152,0.19056642,-0.14234297,0.76833516,0.5779841,0.31318545,0.02883034,0.71886903,0.6955013,0.4654057,0.03206408,0.9388581,0.5340382,0.09510132,-0.26051113,0.62655497,805.8608,809.0842,804.65204,815.5311,778.0586,-0.05670166015625,0.06109619140625,0.9757080078125,4.029998779296875,-2.923431396484375,-3.416900634765625,1.0,1.0,1.0,1.0,1.0,95.0,event
11:37:14.220,1.2997969,1.0064886,0.4458511,1.3596529,0.8304152,0.19056642,-0.14234297,0.76833516,0.5779841,0.31318545,0.02883034,0.71886903,0.6955013,0.4654057,0.03206408,0.9388581,0.5340382,0.09510132,-0.26051113,0.62655497,800.2198,803.8461,798.20514,792.5641,671.28204,-0.05670166015625,0.06109619140625,0.9757080078125,4.029998779296875,-2.923431396484375,-3.416900634765625,1.0,1.0,1.0,1.0,1.0,95.0,event
11:37:14.221,1.2997969,1.0064886,0.4458511,1.3596529,0.8304152,0.19056642,-0.14234297,0.76833516,0.5779841,0.31318545,0.02883034,0.71886903,0.6955013,0.4654057,0.03206408,0.9388581,0.5340382,0.09510132,-0.26051113,0.62655497,782.49084,801.8315,801.4286,787.326,710.7692,-0.05670166015625,0.06109619140625,0.9757080078125,4.029998779296875,-2.923431396484375,-3.416900634765625,1.0,1.0,1.0,1.0,1.0,95.0,event
11:37:14.221,1.2997969,1.0064886,0.4458511,1.3596529,0.8304152,0.19056642,-0.14234297,0.76833516,0.5779841,0.31318545,0.02883034,0.71886903,0.6955013,0.4654057,0.03206408,0.9388581,0.5340382,0.09510132,-0.26051113,0.62655497,790.54944,809.89014,811.50183,807.47253,736.55676,-0.05670166015625,0.06109619140625,0.9757080078125,4.029998779296875,-2.923431396484375,-3.416900634765625,1.0,1.0,1.0,1.0,1.0,95.0,event
11:37:14.222,1.2997969,1.0064886,0.4458511,1.3596529,0.8304152,0.19056642,-0.14234297,0.76833516,0.5779841,0.31318545,0.02883034,0.71886903,0.6955013,0.4654057,0.03206408,0.9388581,0.5340382,0.09510132,-0.26051113,0.62655497,804.65204,813.1135,814.3223,816.337,704.7253,-0.05670166015625,0.06109619140625,0.9757080078125,4.029998779296875,-2.923431396484375,-3.416900634765625,1.0,1.0,1.0,1.0,1.0,95.0,event
11:37:14.222,1.2997969,1.0064886,0.4458511,1.3596529,0.8304152,0.19056642,-0.14234297,0.76833516,0.5779841,0.31318545,0.02883034,0.71886903,0.6955013,0.4654057,0.03206408,0.9388581,0.5340382,0.09510132,-0.26051113,0.62655497,799.011,804.2491,809.4872,821.1722,831.2454,-0.05670166015625,0.06109619140625,0.9757080078125,4.029998779296875,-2.923431396484375,-3.416900634765625,1.0,1.0,1.0,1.0,1.0,95.0,event
11:37:14.223,1.2997969,1.0064886,0.4458511,1.3596529,0.8304152,0.19056642,-0.14234297,0.76833516,0.5779841,0.31318545,0.02883034,0.71886903,0.6955013,0.4654057,0.03206408,0.9388581,0.5340382,0.09510132,-0.26051113,0.62655497,780.4762,805.05493,796.1905,802.23444,1017.3993,-0.05670166015625,0.06109619140625,0.9757080078125,4.029998779296875,-2.923431396484375,-3.416900634765625,1.0,1.0,1.0,1.0,1.0,95.0,event
11:37:14.223,1.2997969,1.0064886,0.4458511,1.3596529,0.8304152,0.19056642,-0.14234297,0.76833516,0.5779841,0.31318545,0.02883034,0.71886903,0.6955013,0.4654057,0.03206408,0.9388581,0.5340382,0.09510132,-0.26051113,0.62655497,786.9231,800.6227,803.0403,815.9341,956.9597,-0.05670166015625,0.06109619140625,0.9757080078125,4.029998779296875,-2.923431396484375,-3.416900634765625,1.0,1.0,1.0,1.0,1.0,95.0,event
11:37:14.224,1.2997969,1.0064886,0.4458511,1.3596529,0.8304152,0.19056642,-0.14234297,0.76833516,0.5779841,0.31318545,0.02883034,0.71886903,0.6955013,0.4654057,0.03206408,0.9388581,0.5340382,0.09510132,-0.26051113,0.62655497,792.5641,811.9048,798.60803,792.1612,781.685,-0.05670166015625,0.06109619140625,0.9757080078125,4.029998779296875,-2.923431396484375,-3.416900634765625,1.0,1.0,1.0,1.0,1.0,95.0,event
11:37:14.224,1.2997969,1.0064886,0.4458511,1.3596529,0.8304152,0.19056642,-0.14234297,0.76833516,0.5779841,0.31318545,0.02883034,0.71886903,0.6955013,0.4654057,0.03206408,0.9388581,0.5340382,0.09510132,-0.26051113,0.62655497,812.71063,817.1429,808.2784,800.2198,675.7143,-0.05670166015625,0.06109619140625,0.9757080078125,4.029998779296875,-2.923431396484375,-3.416900634765625,1.0,1.0,1.0,1.0,1.0,95.0,event
11:37:14.225,1.2997969,1.0064886,0.4458511,1.3596529,0.8304152,0.19056642,-0.14234297,0.76833516,0.5779841,0.31318545,0.02883034,0.71886903,0.6955013,0.4654057,0.03206408,0.9388581,0.5340382,0.09510132,-0.26051113,0.62655497,823.5897,810.293,813.1135,818.7546,814.3223,-0.05670166015625,0.06109619140625,0.9757080078125,4.029998779296875,-2.923431396484375,-3.416900634765625,1.0,1.0,1.0,1.0,1.0,95.0,event
11:37:14.226,1.2997969,1.0064886,0.4458511,1.3596529,0.8304152,0.19056642,-0.14234297,0.76833516,0.5779841,0.31318545,0.02883034,0.71886903,0.6955013,0.4654057,0.03206408,0.9388581,0.5340382,0.09510132,-0.26051113,0.62655497,805.8608,808.2784,806.6667,806.26373,848.5714,-0.05670166015625,0.06109619140625,0.9757080078125,4.029998779296875,-2.923431396484375,-3.416900634765625,1.0,1.0,1.0,1.0,1.0,95.0,event
11:37:14.262,1.2997969,1.0064886,0.4458511,1.3596529,0.8304152,0.19056642,-0.14234297,0.76833516,0.5779841,0.31318545,0.02883034,0.71886903,0.6955013,0.4654057,0.03206408,0.9388581,0.5340382,0.09510132,-0.26051113,0.62655497,794.9817,811.9048,805.8608,791.3553,790.9524,-0.0517578125,0.0693359375,0.98638916015625,3.641204833984375,-2.863616943359375,0.635528564453125,1.0,1.0,1.0,1.0,1.0,95.0,event
11:37:14.263,1.2997969,1.0064886,0.4458511,1.3596529,0.8304152,0.19056642,-0.14234297,0.76833516,0.5779841,0.31318545,0.02883034,0.71886903,0.6955013,0.4654057,0.03206408,0.9388581,0.5340382,0.09510132,-0.26051113,0.62655497,804.2491,808.68134,811.9048,796.1905,687.3993,-0.0517578125,0.0693359375,0.98638916015625,3.641204833984375,-2.863616943359375,0.635528564453125,1.0,1.0,1.0,1.0,1.0,95.0,event
11:37:14.263,1.2997969,1.0064886,0.4458511,1.3596529,0.8304152,0.19056642,-0.14234297,0.76833516,0.5779841,0.31318545,0.02883034,0.71886903,0.6955013,0.4654057,0.03206408,0.9388581,0.5340382,0.09510132,-0.26051113,0.62655497,809.0842,801.4286,811.0989,804.2491,813.91943,-0.0517578125,0.0693359375,0.98638916015625,3.641204833984375,-2.863616943359375,0.635528564453125,1.0,1.0,1.0,1.0,1.0,95.0,event
11:37:14.264,1.2997969,1.0064886,0.4458511,1.3596529,0.8304152,0.19056642,-0.14234297,0.76833516,0.5779841,0.31318545,0.02883034,0.71886903,0.6955013,0.4654057,0.03206408,0.9388581,0.5340382,0.09510132,-0.26051113,0.62655497,815.12823,806.6667,809.4872,814.7253,796.99634,-0.0517578125,0.0693359375,0.98638916015625,3.641204833984375,-2.863616943359375,0.635528564453125,1.0,1.0,1.0,1.0,1.0,95.0,event
11:37:14.265,1.2997969,1.0064886,0.4458511,1.3596529,0.8304152,0.19056642,-0.14234297,0.76833516,0.5779841,0.31318545,0.02883034,0.71886903,0.6955013,0.4654057,0.03206408,0.9388581,0.5340382,0.09510132,-0.26051113,0.62655497,811.50183,815.5311,810.696,815.9341,726.8865,-0.0517578125,0.0693359375,0.98638916015625,3.641204833984375,-2.863616943359375,0.635528564453125,1.0,1.0,1.0,1.0,1.0,95.0,event
11:37:14.267,1.2997969,1.0064886,0.4458511,1.3596529,0.8304152,0.19056642,-0.14234297,0.76833516,0.5779841,0.31318545,0.02883034,0.71886903,0.6955013,0.4654057,0.03206408,0.9388581,0.5340382,0.09510132,-0.26051113,0.62655497,807.0696,813.1135,806.26373,807.8755,814.7253,-0.0517578125,0.0693359375,0.98638916015625,3.641204833984375,-2.863616943359375,0.635528564453125,1.0,1.0,1.0,1.0,1.0,95.0,event
11:37:14.268,1.2997969,1.0064886,0.4458511,1.3596529,0.8304152,0.19056642,-0.14234297,0.76833516,0.5779841,0.31318545,0.02883034,0.71886903,0.6955013,0.4654057,0.03206408,0.9388581,0.5340382,0.09510132,-0.26051113,0.62655497,805.8608,803.44324,799.81683,810.293,1004.5055,-0.0517578125,0.0693359375,0.98638916015625,3.641204833984375,-2.863616943359375,0.635528564453125,1.0,1.0,1.0,1.0,1.0,95.0,event
11:37:14.269,1.2997969,1.0064886,0.4458511,1.3596529,0.8304152,0.19056642,-0.14234297,0.76833516,0.5779841,0.31318545,0.02883034,0.71886903,0.6955013,0.4654057,0.03206408,0.9388581,0.5340382,0.09510132,-0.26051113,0.62655497,815.12823,808.2784,802.6374,809.4872,909.81683,-0.0517578125,0.0693359375,0.98638916015625,3.641204833984375,-2.863616943359375,0.635528564453125,1.0,1.0,1.0,1.0,1.0,95.0,event
11:37:14.270,1.2997969,1.0064886,0.4458511,1.3596529,0.8304152,0.19056642,-0.14234297,0.76833516,0.5779841,0.31318545,0.02883034,0.71886903,0.6955013,0.4654057,0.03206408,0.9388581,0.5340382,0.09510132,-0.26051113,0.62655497,824.7985,813.1135,802.6374,813.5165,715.6044,-0.0517578125,0.0693359375,0.98638916015625,3.641204833984375,-2.863616943359375,0.635528564453125,1.0,1.0,1.0,1.0,1.0,95.0,event
11:37:14.271,1.2997969,1.0064886,0.4458511,1.3596529,0.8304152,0.19056642,-0.14234297,0.76833516,0.5779841,0.31318545,0.02883034,0.71886903,0.6955013,0.4654057,0.03206408,0.9388581,0.5340382,0.09510132,-0.26051113,0.62655497,817.5458,806.26373,803.44324,832.0513,767.5824,-0.0517578125,0.0693359375,0.98638916015625,3.641204833984375,-2.863616943359375,0.635528564453125,1.0,1.0,1.0,1.0,1.0,95.0,event
11:37:14.272,1.2997969,1.0064886,0.4458511,1.3596529,0.8304152,0.19056642,-0.14234297,0.76833516,0.5779841,0.31318545,0.02883034,0.71886903,0.6955013,0.4654057,0.03206408,0.9388581,0.5340382,0.09510132,-0.26051113,0.62655497,809.0842,808.68134,809.0842,822.381,815.5311,-0.0517578125,0.0693359375,0.98638916015625,3.641204833984375,-2.863616943359375,0.635528564453125,1.0,1.0,1.0,1.0,1.0,95.0,event
11:37:14.273,1.2997969,1.0064886,0.42803314,1.39977,0.8304152,0.19056642,-0.14782882,0.801125,0.5779841,0.31318545,0.02883034,0.7167239,0.6955013,0.4654057,0.03844834,0.95258826,0.5340382,0.09510132,-0.27656993,0.6357568,811.0989,805.05493,810.293,814.7253,748.6447,-0.0517578125,0.0693359375,0.98638916015625,3.641204833984375,-2.863616943359375,0.635528564453125,1.0,1.0,1.0,1.0,1.0,95.0,event
11:37:14.303,1.2997969,1.0064886,0.42803314,1.39977,0.8304152,0.19056642,-0.14782882,0.801125,0.5779841,0.31318545,0.02883034,0.7167239,0.6955013,0.4654057,0.03844834,0.95258826,0.5340382,0.09510132,-0.27656993,0.6357568,818.7546,802.6374,808.68134,819.9634,685.38464,-0.0517578125,0.0693359375,0.98638916015625,3.641204833984375,-2.863616943359375,0.635528564453125,1.0,1.0,1.0,1.0,1.0,95.0,event
11:37:14.304,1.2997969,1.0064886,0.42803314,1.39977,0.8304152,0.19056642,-0.14782882,0.801125,0.5779841,0.31318545,0.02883034,0.7167239,0.6955013,0.4654057,0.03844834,0.95258826,0.5340382,0.09510132,-0.27656993,0.6357568,824.3956,801.8315,811.9048,819.15753,740.18317,-0.0517578125,0.0693359375,0.98638916015625,3.641204833984375,-2.863616943359375,0.635528564453125,1.0,1.0,1.0,1.0,1.0,95.0,event
11:37:14.305,1.2997969,1.0064886,0.42803314,1.39977,0.8304152,0.19056642,-0.14782882,0.801125,0.5779841,0.31318545,0.02883034,0.7167239,0.6955013,0.4654057,0.03844834,0.95258826,0.5340382,0.09510132,-0.27656993,0.6357568,811.9048,804.2491,815.9341,814.3223,750.65936,-0.0517578125,0.0693359375,0.98638916015625,3.641204833984375,-2.863616943359375,0.635528564453125,1.0,1.0,1.0,1.0,1.0,95.0,event
11:37:14.306,1.2997969,1.0064886,0.42803314,1.39977,0.8304152,0.19056642,-0.14782882,0.801125,0.5779841,0.31318545,0.02883034,0.7167239,0.6955013,0.4654057,0.03844834,0.95258826,0.5340382,0.09510132,-0.27656993,0.6357568,810.293,809.0842,811.50183,806.6667,740.58606,-0.0517578125,0.0693359375,0.98638916015625,3.641204833984375,-2.863616943359375,0.635528564453125,1.0,1.0,1.0,1.0,1.0,95.0,event
11:37:14.306,1.2997969,1.0064886,0.42803314,1.39977,0.8304152,0.19056642,-0.14782882,0.801125,0.5779841,0.31318545,0.02883034,0.7167239,0.6955013,0.4654057,0.03844834,0.95258826,0.5340382,0.09510132,-0.27656993,0.6357568,797.8022,803.8461,815.5311,806.26373,796.99634,-0.0517578125,0.0693359375,0.98638916015625,3.641204833984375,-2.863616943359375,0.635528564453125,1.0,1.0,1.0,1.0,1.0,95.0,event
11:37:14.307,1.2997969,1.0064886,0.42803314,1.39977,0.8304152,0.19056642,-0.14782882,0.801125,0.5779841,0.31318545,0.02883034,0.7167239,0.6955013,0.4654057,0.03844834,0.95258826,0.5340382,0.09510132,-0.27656993,0.6357568,813.5165,809.89014,813.1135,817.5458,804.2491,-0.0517578125,0.0693359375,0.98638916015625,3.641204833984375,-2.863616943359375,0.635528564453125,1.0,1.0,1.0,1.0,1.0,95.0,event
11:37:14.307,1.2997969,1.0064886,0.42803314,1.39977,0.8304152,0.19056642,-0.14782882,0.801125,0.5779841,0.31318545,0.02883034,0.7167239,0.6955013,0.4654057,0.03844834,0.95258826,0.5340382,0.09510132,-0.27656993,0.6357568,807.47253,796.99634,809.0842,814.7253,966.63007,-0.0517578125,0.0693359375,0.98638916015625,3.641204833984375,-2.863616943359375,0.635528564453125,1.0,1.0,1.0,1.0,1.0,95.0,event
11:37:14.308,1.2997969,1.0064886,0.42803314,1.39977,0.8304152,0.19056642,-0.14782882,0.801125,0.5779841,0.31318545,0.02883034,0.7167239,0.6955013,0.4654057,0.03844834,0.95258826,0.5340382,0.09510132,-0.27656993,0.6357568,808.68134,795.78754,802.23444,809.89014,813.1135,-0.0517578125,0.0693359375,0.98638916015625,3.641204833984375,-2.863616943359375,0.635528564453125,1.0,1.0,1.0,1.0,1.0,95.0,event
11:37:14.309,1.2997969,1.0064886,0.42803314,1.39977,0.8304152,0.19056642,-0.14782882,0.801125,0.5779841,0.31318545,0.02883034,0.7167239,0.6955013,0.4654057,0.03844834,0.95258826,0.5340382,0.09510132,-0.27656993,0.6357568,795.38464,802.23444,806.6667,806.6667,748.6447,-0.0517578125,0.0693359375,0.98638916015625,3.641204833984375,-2.863616943359375,0.635528564453125,1.0,1.0,1.0,1.0,1.0,95.0,event
11:37:14.309,1.2997969,1.0064886,0.42803314,1.39977,0.8304152,0.19056642,-0.14782882,0.801125,0.5779841,0.31318545,0.02883034,0.7167239,0.6955013,0.4654057,0.03844834,0.95258826,0.5340382,0.09510132,-0.27656993,0.6357568,794.17584,779.67035,811.50183,807.8755,933.9927,-0.0517578125,0.0693359375,0.98638916015625,3.641204833984375,-2.863616943359375,0.635528564453125,1.0,1.0,1.0,1.0,1.0,95.0,event
11:37:14.310,1.2997969,1.0064886,0.42803314,1.39977,0.8304152,0.19056642,-0.14782882,0.801125,0.5779841,0.31318545,0.02883034,0.7167239,0.6955013,0.4654057,0.03844834,0.95258826,0.5340382,0.09510132,-0.27656993,0.6357568,826.4103,772.8205,803.44324,840.10986,1151.5751,-0.0517578125,0.0693359375,0.98638916015625,3.641204833984375,-2.863616943359375,0.635528564453125,1.0,1.0,1.0,1.0,1.0,95.0,event
11:37:14.310,1.2997969,1.0064886,0.42803314,1.39977,0.8304152,0.19056642,-0.14782882,0.801125,0.5779841,0.31318545,0.02883034,0.7167239,0.6955013,0.4654057,0.03844834,0.95258826,0.5340382,0.09510132,-0.27656993,0.6357568,820.3663,812.3077,799.011,832.4542,927.5458,-0.0517578125,0.0693359375,0.98638916015625,3.641204833984375,-2.863616943359375,0.635528564453125,1.0,1.0,1.0,1.0,1.0,95.0,event
11:37:14.345,1.2997969,1.0064886,0.42803314,1.39977,0.8304152,0.19056642,-0.14782882,0.801125,0.5779841,0.31318545,0.02883034,0.7167239,0.6955013,0.4654057,0.03844834,0.95258826,0.5340382,0.09510132,-0.27656993,0.6357568,790.14655,818.7546,800.6227,803.8461,783.2967,-0.07537841796875,0.06854248046875,0.99224853515625,1.51031494140625,-2.758941650390625,1.375732421875,1.0,1.0,1.0,1.0,1.0,95.0,event
11:37:14.346,1.2997969,1.0064886,0.42803314,1.39977,0.8304152,0.19056642,-0.14782882,0.801125,0.5779841,0.31318545,0.02883034,0.7167239,0.6955013,0.4654057,0.03844834,0.95258826,0.5340382,0.09510132,-0.27656993,0.6357568,807.0696,792.1612,800.2198,813.91943,889.67035,-0.07537841796875,0.06854248046875,0.99224853515625,1.51031494140625,-2.758941650390625,1.375732421875,1.0,1.0,1.0,1.0,1.0,95.0,event
11:37:14.346,1.2997969,1.0064886,0.42803314,1.39977,0.8304152,0.19056642,-0.14782882,0.801125,0.5779841,0.31318545,0.02883034,0.7167239,0.6955013,0.4654057,0.03844834,0.95258826,0.5340382,0.09510132,-0.27656993,0.6357568,832.8571,792.1612,797.8022,823.5897,762.3443,-0.07537841796875,0.06854248046875,0.99224853515625,1.51031494140625,-2.758941650390625,1.375732421875,1.0,1.0,1.0,1.0,1.0,95.0,event
11:37:14.347,1.2997969,1.0064886,0.42803314,1.39977,0.8304152,0.19056642,-0.14782882,0.801125,0.5779841,0.31318545,0.02883034,0.7167239,0.6955013,0.4654057,0.03844834,0.95258826,0.5340382,0.09510132,-0.27656993,0.6357568,839.707,799.41394,790.9524,839.304,647.9121,-0.07537841796875,0.06854248046875,0.99224853515625,1.51031494140625,-2.758941650390625,1.375732421875,1.0,1.0,1.0,1.0,1.0,95.0,event
11:37:14.348,1.2997969,1.0064886,0.42803314,1.39977,0.8304152,0.19056642,-0.14782882,0.801125,0.5779841,0.31318545,0.02883034,0.7167239,0.6955013,0.4654057,0.03844834,0.95258826,0.5340382,0.09510132,-0.27656993,0.6357568,854.61536,789.7436,797.3993,859.0476,893.69965,-0.07537841796875,0.06854248046875,0.99224853515625,1.51031494140625,-2.758941650390625,1.375732421875,1.0,1.0,1.0,1.0,1.0,95.0,event
11:37:14.348,1.2997969,1.0064886,0.42803314,1.39977,0.8304152,0.19056642,-0.14782882,0.801125,0.5779841,0.31318545,0.02883034,0.7167239,0.6955013,0.4654057,0.03844834,0.95258826,0.5340382,0.09510132,-0.27656993,0.6357568,850.989,793.36993,790.54944,857.8388,748.24176,-0.07537841796875,0.06854248046875,0.99224853515625,1.51031494140625,-2.758941650390625,1.375732421875,1.0,1.0,1.0,1.0,1.0,95.0,event
11:37:14.349,1.2997969,1.0064886,0.42803314,1.39977,0.8304152,0.19056642,-0.14782882,0.801125,0.5779841,0.31318545,0.02883034,0.7167239,0.6955013,0.4654057,0.03844834,0.95258826,0.5340382,0.09510132,-0.27656993,0.6357568,847.3626,790.14655,797.3993,846.1539,822.7839,-0.07537841796875,0.06854248046875,0.99224853515625,1.51031494140625,-2.758941650390625,1.375732421875,1.0,1.0,1.0,1.0,1.0,95.0,event
11:37:14.350,1.2997969,1.0064886,0.42803314,1.39977,0.8304152,0.19056642,-0.14782882,0.801125,0.5779841,0.31318545,0.02883034,0.7167239,0.6955013,0.4654057,0.03844834,0.95258826,0.5340382,0.09510132,-0.27656993,0.6357568,844.1392,800.2198,797.8022,832.4542,740.18317,-0.07537841796875,0.06854248046875,0.99224853515625,1.51031494140625,-2.758941650390625,1.375732421875,1.0,1.0,1.0,1.0,1.0,95.0,event
11:37:14.351,1.2997969,1.0064886,0.42803314,1.39977,0.8304152,0.19056642,-0.14782882,0.801125,0.5779841,0.31318545,0.02883034,0.7167239,0.6955013,0.4654057,0.03844834,0.95258826,0.5340382,0.09510132,-0.27656993,0.6357568,842.52747,800.2198,800.6227,835.2747,711.1722,-0.07537841796875,0.06854248046875,0.99224853515625,1.51031494140625,-2.758941650390625,1.375732421875,1.0,1.0,1.0,1.0,1.0,95.0,event
11:37:14.351,1.2997969,1.0064886,0.42803314,1.39977,0.8304152,0.19056642,-0.14782882,0.801125,0.5779841,0.31318545,0.02883034,0.7167239,0.6955013,0.4654057,0.03844834,0.95258826,0.5340382,0.09510132,-0.27656993,0.6357568,846.9597,791.75824,800.6227,849.7802,939.2308,-0.07537841796875,0.06854248046875,0.99224853515625,1.51031494140625,-2.758941650390625,1.375732421875,1.0,1.0,1.0,1.0,1.0,95.0,event
11:37:14.352,1.2997969,1.0064886,0.42803314,1.39977,0.8304152,0.19056642,-0.14782882,0.801125,0.5779841,0.31318545,0.02883034,0.7167239,0.6955013,0.4654057,0.03844834,0.95258826,0.5340382,0.09510132,-0.27656993,0.6357568,846.55676,800.2198,792.1612,848.1685,969.45056,-0.07537841796875,0.06854248046875,0.99224853515625,1.51031494140625,-2.758941650390625,1.375732421875,1.0,1.0,1.0,1.0,1.0,95.0,event
11:37:14.353,1.2997969,1.0064886,0.42803314,1.39977,0.8304152,0.19056642,-0.14782882,0.801125,0.5779841,0.31318545,0.02883034,0.7167239,0.6955013,0.4654057,0.03844834,0.95258826,0.5340382,0.09510132,-0.27656993,0.6357568,849.3773,810.696,789.34064,836.4835,718.022,-0.07537841796875,0.06854248046875,0.99224853515625,1.51031494140625,-2.758941650390625,1.375732421875,1.0,1.0,1.0,1.0,1.0,95.0,event
11:37:14.380,1.2997969,1.0064886,0.42803314,1.39977,0.8304152,0.19056642,-0.14782882,0.801125,0.5779841,0.31318545,0.02883034,0.7167239,0.6955013,0.4654057,0.03844834,0.95258826,0.5340382,0.09510132,-0.27656993,0.6357568,840.5128,806.6667,790.14655,826.8132,699.4872,-0.07232666015625,0.05615234375,0.98162841796875,0.64300537109375,-2.758941650390625,-1.846771240234375,1.0,1.0,1.0,1.0,1.0,95.0,event
11:37:14.382,1.2997969,1.0064886,0.41988397,1.4443462,0.8304152,0.19056642,-0.14427362,0.8446965,0.5779841,0.31318545,0.02883034,0.7159804,0.6955013,0.4654057,0.045423124,0.960049,0.5340382,0.09510132,-0.29014507,0.6578412,836.4835,803.0403,793.36993,834.0659,706.7399,-0.07232666015625,0.05615234375,0.98162841796875,0.64300537109375,-2.758941650390625,-1.846771240234375,1.0,1.0,1.0,1.0,1.0,95.0,event
11:37:14.386,1.2997969,1.0064886,0.41988397,1.4443462,0.8304152,0.19056642,-0.14427362,0.8446965,0.5779841,0.31318545,0.02883034,0.7159804,0.6955013,0.4654057,0.045423124,0.960049,0.5340382,0.09510132,-0.29014507,0.6578412,853.00366,810.293,799.41394,847.76556,702.71063,-0.07232666015625,0.05615234375,0.98162841796875,0.64300537109375,-2.758941650390625,-1.846771240234375,1.0,1.0,1.0,1.0,1.0,95.0,event
11:37:14.387,1.2997969,1.0064886,0.41988397,1.4443462,0.8304152,0.19056642,-0.14427362,0.8446965,0.5779841,0.31318545,0.02883034,0.7159804,0.6955013,0.4654057,0.045423124,0.960049,0.5340382,0.09510132,-0.29014507,0.6578412,852.6007,801.8315,796.99634,846.1539,753.8828,-0.07232666015625,0.05615234375,0.98162841796875,0.64300537109375,-2.758941650390625,-1.846771240234375,1.0,1.0,1.0,1.0,1.0,95.0,event
11:37:14.388,1.2997969,1.0064886,0.41988397,1.4443462,0.8304152,0.19056642,-0.14427362,0.8446965,0.5779841,0.31318545,0.02883034,0.7159804,0.6955013,0.4654057,0.045423124,0.960049,0.5340382,0.09510132,-0.29014507,0.6578412,829.6337,800.6227,794.17584,834.0659,791.3553,-0.07232666015625,0.05615234375,0.98162841796875,0.64300537109375,-2.758941650390625,-1.846771240234375,1.0,1.0,1.0,1.0,1.0,95.0,event
11:37:14.389,1.2997969,1.0064886,0.41988397,1.4443462,0.8304152,0.19056642,-0.14427362,0.8446965,0.5779841,0.31318545,0.02883034,0.7159804,0.6955013,0.4654057,0.045423124,0.960049,0.5340382,0.09510132,-0.29014507,0.6578412,817.9487,810.293,801.02563,829.2308,816.7399,-0.07232666015625,0.05615234375,0.98162841796875,0.64300537109375,-2.758941650390625,-1.846771240234375,1.0,1.0,1.0,1.0,1.0,95.0,event
11:37:14.390,1.2997969,1.0064886,0.41988397,1.4443462,0.8304152,0.19056642,-0.14427362,0.8446965,0.5779841,0.31318545,0.02883034,0.7159804,0.6955013,0.4654057,0.045423124,0.960049,0.5340382,0.09510132,-0.29014507,0.6578412,829.6337,804.65204,806.26373,838.49817,747.8388,-0.07232666015625,0.05615234375,0.98162841796875,0.64300537109375,-2.758941650390625,-1.846771240234375,1.0,1.0,1.0,1.0,1.0,95.0,event
11:37:14.390,1.2997969,1.0064886,0.41988397,1.4443462,0.8304152,0.19056642,-0.14427362,0.8446965,0.5779841,0.31318545,0.02883034,0.7159804,0.6955013,0.4654057,0.045423124,0.960049,0.5340382,0.09510132,-0.29014507,0.6578412,828.022,798.60803,802.23444,830.84247,666.04395,-0.07232666015625,0.05615234375,0.98162841796875,0.64300537109375,-2.758941650390625,-1.846771240234375,1.0,1.0,1.0,1.0,1.0,95.0,event
11:37:14.391,1.2997969,1.0064886,0.41988397,1.4443462,0.8304152,0.19056642,-0.14427362,0.8446965,0.5779841,0.31318545,0.02883034,0.7159804,0.6955013,0.4654057,0.045423124,0.960049,0.5340382,0.09510132,-0.29014507,0.6578412,824.3956,792.96704,796.1905,837.28937,783.2967,-0.07232666015625,0.05615234375,0.98162841796875,0.64300537109375,-2.758941650390625,-1.846771240234375,1.0,1.0,1.0,1.0,1.0,95.0,event
11:37:14.392,1.2997969,1.0064886,0.41988397,1.4443462,0.8304152,0.19056642,-0.14427362,0.8446965,0.5779841,0.31318545,0.02883034,0.7159804,0.6955013,0.4654057,0.045423124,0.960049,0.5340382,0.09510132,-0.29014507,0.6578412,821.5751,794.17584,801.02563,840.9158,1147.5458,-0.07232666015625,0.05615234375,0.98162841796875,0.64300537109375,-2.758941650390625,-1.846771240234375,1.0,1.0,1.0,1.0,1.0,95.0,event
11:37:14.392,1.2997969,1.0064886,0.41988397,1.4443462,0.8304152,0.19056642,-0.14427362,0.8446965,0.5779841,0.31318545,0.02883034,0.7159804,0.6955013,0.4654057,0.045423124,0.960049,0.5340382,0.09510132,-0.29014507,0.6578412,811.0989,809.4872,806.26373,824.3956,951.31866,-0.07232666015625,0.05615234375,0.98162841796875,0.64300537109375,-2.758941650390625,-1.846771240234375,1.0,1.0,1.0,1.0,1.0,95.0,event
11:37:14.393,1.2997969,1.0064886,0.41988397,1.4443462,0.8304152,0.19056642,-0.14427362,0.8446965,0.5779841,0.31318545,0.02883034,0.7159804,0.6955013,0.4654057,0.045423124,0.960049,0.5340382,0.09510132,-0.29014507,0.6578412,810.696,810.696,807.47253,825.6044,658.7912,-0.07232666015625,0.05615234375,0.98162841796875,0.64300537109375,-2.758941650390625,-1.846771240234375,1.0,1.0,1.0,1.0,1.0,95.0,event
11:37:14.420,1.2997969,1.0064886,0.41988397,1.4443462,0.8304152,0.19056642,-0.14427362,0.8446965,0.5779841,0.31318545,0.02883034,0.7159804,0.6955013,0.4654057,0.045423124,0.960049,0.5340382,0.09510132,-0.29014507,0.6578412,824.7985,805.05493,810.696,832.4542,767.98535,-0.06292724609375,0.055908203125,0.98681640625,1.831817626953125,-2.968292236328125,-1.80938720703125,1.0,1.0,1.0,1.0,1.0,95.0,event
11:37:14.422,1.2997969,1.0064886,0.41988397,1.4443462,0.8304152,0.19056642,-0.14427362,0.8446965,0.5779841,0.31318545,0.02883034,0.7159804,0.6955013,0.4654057,0.045423124,0.960049,0.5340382,0.09510132,-0.29014507,0.6578412,813.1135,802.6374,804.65204,823.9927,666.8498,-0.06292724609375,0.055908203125,0.98681640625,1.831817626953125,-2.968292236328125,-1.80938720703125,1.0,1.0,1.0,1.0,1.0,95.0,event
11:37:14.422,1.2997969,1.0064886,0.41988397,1.4443462,0.8304152,0.19056642,-0.14427362,0.8446965,0.5779841,0.31318545,0.02883034,0.7159804,0.6955013,0.4654057,0.045423124,0.960049,0.5340382,0.09510132,-0.29014507,0.6578412,830.4396,802.6374,808.68134,833.663,746.2271,-0.06292724609375,0.055908203125,0.98681640625,1.831817626953125,-2.968292236328125,-1.80938720703125,1.0,1.0,1.0,1.0,1.0,95.0,event
11:37:14.423,1.2997969,1.0064886,0.41988397,1.4443462,0.8304152,0.19056642,-0.14427362,0.8446965,0.5779841,0.31318545,0.02883034,0.7159804,0.6955013,0.4654057,0.045423124,0.960049,0.5340382,0.09510132,-0.29014507,0.6578412,798.60803,805.8608,804.65204,812.3077,693.8461,-0.06292724609375,0.055908203125,0.98681640625,1.831817626953125,-2.968292236328125,-1.80938720703125,1.0,1.0,1.0,1.0,1.0,95.0,event
11:37:14.424,1.2997969,1.0064886,0.41988397,1.4443462,0.8304152,0.19056642,-0.14427362,0.8446965,0.5779841,0.31318545,0.02883034,0.7159804,0.6955013,0.4654057,0.045423124,0.960049,0.5340382,0.09510132,-0.29014507,0.6578412,805.4579,810.293,808.68134,813.5165,762.3443,-0.06292724609375,0.055908203125,0.98681640625,1.831817626953125,-2.968292236328125,-1.80938720703125,1.0,1.0,1.0,1.0,1.0,95.0,event
11:37:14.425,1.2997969,1.0064886,0.41988397,1.4443462,0.8304152,0.19056642,-0.14427362,0.8446965,0.5779841,0.31318545,0.02883034,0.7159804,0.6955013,0.4654057,0.045423124,0.960049,0.5340382,0.09510132,-0.29014507,0.6578412,826.4103,811.9048,809.89014,824.3956,794.9817,-0.06292724609375,0.055908203125,0.98681640625,1.831817626953125,-2.968292236328125,-1.80938720703125,1.0,1.0,1.0,1.0,1.0,95.0,event
11:37:14.425,1.2997969,1.0064886,0.41988397,1.4443462,0.8304152,0.19056642,-0.14427362,0.8446965,0.5779841,0.31318545,0.02883034,0.7159804,0.6955013,0.4654057,0.045423124,0.960049,0.5340382,0.09510132,-0.29014507,0.6578412,836.8865,811.50183,805.05493,830.0366,745.42126,-0.06292724609375,0.055908203125,0.98681640625,1.831817626953125,-2.968292236328125,-1.80938720703125,1.0,1.0,1.0,1.0,1.0,95.0,event
11:37:14.426,1.2997969,1.0064886,0.41988397,1.4443462,0.8304152,0.19056642,-0.14427362,0.8446965,0.5779841,0.31318545,0.02883034,0.7159804,0.6955013,0.4654057,0.045423124,0.960049,0.5340382,0.09510132,-0.29014507,0.6578412,821.5751,803.8461,799.81683,821.5751,746.2271,-0.06292724609375,0.055908203125,0.98681640625,1.831817626953125,-2.968292236328125,-1.80938720703125,1.0,1.0,1.0,1.0,1.0,95.0,event
11:37:14.427,1.2997969,1.0064886,0.41988397,1.4443462,0.8304152,0.19056642,-0.14427362,0.8446965,0.5779841,0.31318545,0.02883034,0.7159804,0.6955013,0.4654057,0.045423124,0.960049,0.5340382,0.09510132,-0.29014507,0.6578412,814.7253,794.9817,803.8461,820.3663,941.6484,-0.06292724609375,0.055908203125,0.98681640625,1.831817626953125,-2.968292236328125,-1.80938720703125,1.0,1.0,1.0,1.0,1.0,95.0,event
11:37:14.428,1.2997969,1.0064886,0.41988397,1.4443462,0.8304152,0.19056642,-0.14427362,0.8446965,0.5779841,0.31318545,0.02883034,0.7159804,0.6955013,0.4654057,0.045423124,0.960049,0.5340382,0.09510132,-0.29014507,0.6578412,811.0989,810.293,808.2784,823.5897,914.2491,-0.06292724609375,0.055908203125,0.98681640625,1.831817626953125,-2.968292236328125,-1.80938720703125,1.0,1.0,1.0,1.0,1.0,95.0,event
11:37:14.429,1.2997969,1.0064886,0.41988397,1.4443462,0.8304152,0.19056642,-0.14427362,0.8446965,0.5779841,0.31318545,0.02883034,0.7159804,0.6955013,0.4654057,0.045423124,0.960049,0.5340382,0.09510132,-0.29014507,0.6578412,818.3516,816.337,805.05493,826.0073,717.619,-0.06292724609375,0.055908203125,0.98681640625,1.831817626953125,-2.968292236328125,-1.80938720703125,1.0,1.0,1.0,1.0,1.0,95.0,event
11:37:14.430,1.2997969,1.0064886,0.41988397,1.4443462,0.8304152,0.19056642,-0.14427362,0.8446965,0.5779841,0.31318545,0.02883034,0.7159804,0.6955013,0.4654057,0.045423124,0.960049,0.5340382,0.09510132,-0.29014507,0.6578412,833.2601,812.71063,808.2784,838.9011,766.3736,-0.06292724609375,0.055908203125,0.98681640625,1.831817626953125,-2.968292236328125,-1.80938720703125,1.0,1.0,1.0,1.0,1.0,95.0,event
11:37:14.489,1.2997969,1.0064886,0.41988397,1.4443462,0.8304152,0.19056642,-0.14427362,0.8446965,0.5779841,0.31318545,0.02883034,0.7159804,0.6955013,0.4654057,0.045423124,0.960049,0.5340382,0.09510132,-0.29014507,0.6578412,831.2454,819.9634,812.3077,833.2601,817.5458,-0.068359375,0.057861328125,0.98388671875,1.667327880859375,-2.489776611328125,-1.188812255859375,1.0,1.0,1.0,1.0,1.0,95.0,event
11:37:14.490,1.2997969,1.0064886,0.41988397,1.4443462,0.8304152,0.19056642,-0.14427362,0.8446965,0.5779841,0.31318545,0.02883034,0.7159804,0.6955013,0.4654057,0.045423124,0.960049,0.5340382,0.09510132,-0.29014507,0.6578412,813.91943,823.5897,805.05493,818.7546,747.4359,-0.068359375,0.057861328125,0.98388671875,1.667327880859375,-2.489776611328125,-1.188812255859375,1.0,1.0,1.0,1.0,1.0,95.0,event
11:37:14.491,1.2997969,1.0064886,0.41988397,1.4443462,0.8304152,0.19056642,-0.14427362,0.8446965,0.5779841,0.31318545,0.02883034,0.7159804,0.6955013,0.4654057,0.045423124,0.960049,0.5340382,0.09510132,-0.29014507,0.6578412,801.8315,813.1135,799.011,812.71063,703.91943,-0.068359375,0.057861328125,0.98388671875,1.667327880859375,-2.489776611328125,-1.188812255859375,1.0,1.0,1.0,1.0,1.0,95.0,event
11:37:14.491,1.2997969,1.0064886,0.43433544,1.5038853,0.8304152,0.19056642,-0.12904704,0.90232515,0.5779841,0.31318545,0.02883034,0.7159804,0.6955013,0.4654057,0.05143207,0.9582101,0.5340382,0.09510132,-0.3032557,0.6863756,817.1429,813.1135,803.44324,809.4872,765.16486,-0.068359375,0.057861328125,0.98388671875,1.667327880859375,-2.489776611328125,-1.188812255859375,1.0,1.0,1.0,1.0,1.0,95.0,event
11:37:14.494,1.2997969,1.0064886,0.43433544,1.5038853,0.8304152,0.19056642,-0.12904704,0.90232515,0.5779841,0.31318545,0.02883034,0.7159804,0.6955013,0.4654057,0.05143207,0.9582101,0.5340382,0.09510132,-0.3032557,0.6863756,823.9927,814.3223,805.05493,813.91943,872.3443,-0.068359375,0.057861328125,0.98388671875,1.667327880859375,-2.489776611328125,-1.188812255859375,1.0,1.0,1.0,1.0,1.0,95.0,event
11:37:14.494,1.2997969,1.0064886,0.43433544,1.5038853,0.8304152,0.19056642,-0.12904704,0.90232515,0.5779841,0.31318545,0.02883034,0.7159804,0.6955013,0.4654057,0.05143207,0.9582101,0.5340382,0.09510132,-0.3032557,0.6863756,818.7546,803.8461,801.02563,811.50183,876.3736,-0.068359375,0.057861328125,0.98388671875,1.667327880859375,-2.489776611328125,-1.188812255859375,1.0,1.0,1.0,1.0,1.0,95.0,event
11:37:14.495,1.2997969,1.0064886,0.43433544,1.5038853,0.8304152,0.19056642,-0.12904704,0.90232515,0.5779841,0.31318545,0.02883034,0.7159804,0.6955013,0.4654057,0.05143207,0.9582101,0.5340382,0.09510132,-0.3032557,0.6863756,805.05493,804.65204,796.5934,799.81683,832.4542,-0.068359375,0.057861328125,0.98388671875,1.667327880859375,-2.489776611328125,-1.188812255859375,1.0,1.0,1.0,1.0,1.0,95.0,event
11:37:14.495,1.2997969,1.0064886,0.43433544,1.5038853,0.8304152,0.19056642,-0.12904704,0.90232515,0.5779841,0.31318545,0.02883034,0.7159804,0.6955013,0.4654057,0.05143207,0.9582101,0.5340382,0.09510132,-0.3032557,0.6863756,799.41394,805.8608,798.60803,795.78754,860.65936,-0.068359375,0.057861328125,0.98388671875,1.667327880859375,-2.489776611328125,-1.188812255859375,1.0,1.0,1.0,1.0,1.0,95.0,event
11:37:14.495,1.2997969,1.0064886,0.43433544,1.5038853,0.8304152,0.19056642,-0.12904704,0.90232515,0.5779841,0.31318545,0.02883034,0.7159804,0.6955013,0.4654057,0.05143207,0.9582101,0.5340382,0.09510132,-0.3032557,0.6863756,809.4872,809.0842,805.05493,800.2198,1012.1612,-0.068359375,0.057861328125,0.98388671875,1.667327880859375,-2.489776611328125,-1.188812255859375,1.0,1.0,1.0,1.0,1.0,95.0,event
11:37:14.496,1.2997969,1.0064886,0.43433544,1.5038853,0.8304152,0.19056642,-0.12904704,0.90232515,0.5779841,0.31318545,0.02883034,0.7159804,0.6955013,0.4654057,0.05143207,0.9582101,0.5340382,0.09510132,-0.3032557,0.6863756,847.76556,812.71063,807.8755,853.8095,677.72894,-0.068359375,0.057861328125,0.98388671875,1.667327880859375,-2.489776611328125,-1.188812255859375,1.0,1.0,1.0,1.0,1.0,95.0,event
11:37:14.496,1.2997969,1.0064886,0.43433544,1.5038853,0.8304152,0.19056642,-0.12904704,0.90232515,0.5779841,0.31318545,0.02883034,0.7159804,0.6955013,0.4654057,0.05143207,0.9582101,0.5340382,0.09510132,-0.3032557,0.6863756,828.4249,822.7839,805.4579,836.08057,800.6227,-0.068359375,0.057861328125,0.98388671875,1.667327880859375,-2.489776611328125,-1.188812255859375,1.0,1.0,1.0,1.0,1.0,95.0,event
11:37:14.496,1.2997969,1.0064886,0.43433544,1.5038853,0.8304152,0.19056642,-0.12904704,0.90232515,0.5779841,0.31318545,0.02883034,0.7159804,0.6955013,0.4654057,0.05143207,0.9582101,0.5340382,0.09510132,-0.3032557,0.6863756,826.4103,815.12823,807.47253,818.3516,789.34064,-0.068359375,0.057861328125,0.98388671875,1.667327880859375,-2.489776611328125,-1.188812255859375,1.0,1.0,1.0,1.0,1.0,95.0,event
11:37:14.518,1.2997969,1.0064886,0.43433544,1.5038853,0.8304152,0.19056642,-0.12904704,0.90232515,0.5779841,0.31318545,0.02883034,0.7159804,0.6955013,0.4654057,0.05143207,0.9582101,0.5340382,0.09510132,-0.3032557,0.6863756,776.4469,828.4249,807.8755,776.4469,735.34796,-0.068359375,0.057861328125,0.98388671875,1.667327880859375,-2.489776611328125,-1.188812255859375,1.0,1.0,1.0,1.0,1.0,95.0,event
11:37:14.519,1.2997969,1.0064886,0.43433544,1.5038853,0.8304152,0.19056642,-0.12904704,0.90232515,0.5779841,0.31318545,0.02883034,0.7159804,0.6955013,0.4654057,0.05143207,0.9582101,0.5340382,0.09510132,-0.3032557,0.6863756,766.3736,821.5751,804.2491,763.1502,672.49084,-0.068359375,0.057861328125,0.98388671875,1.667327880859375,-2.489776611328125,-1.188812255859375,1.0,1.0,1.0,1.0,1.0,95.0,event
11:37:14.519,1.2997969,1.0064886,0.43433544,1.5038853,0.8304152,0.19056642,-0.12904704,0.90232515,0.5779841,0.31318545,0.02883034,0.7159804,0.6955013,0.4654057,0.05143207,0.9582101,0.5340382,0.09510132,-0.3032557,0.6863756,782.8938,813.91943,803.8461,780.4762,701.9048,-0.068359375,0.057861328125,0.98388671875,1.667327880859375,-2.489776611328125,-1.188812255859375,1.0,1.0,1.0,1.0,1.0,95.0,event
11:37:14.520,1.2997969,1.0064886,0.43433544,1.5038853,0.8304152,0.19056642,-0.12904704,0.90232515,0.5779841,0.31318545,0.02883034,0.7159804,0.6955013,0.4654057,0.05143207,0.9582101,0.5340382,0.09510132,-0.3032557,0.6863756,782.0879,807.0696,803.0403,774.83514,865.89746,-0.068359375,0.057861328125,0.98388671875,1.667327880859375,-2.489776611328125,-1.188812255859375,1.0,1.0,1.0,1.0,1.0,95.0,event
11:37:14.520,1.2997969,1.0064886,0.43433544,1.5038853,0.8304152,0.19056642,-0.12904704,0.90232515,0.5779841,0.31318545,0.02883034,0.7159804,0.6955013,0.4654057,0.05143207,0.9582101,0.5340382,0.09510132,-0.3032557,0.6863756,768.7912,812.71063,802.6374,755.09155,895.7143,-0.068359375,0.057861328125,0.98388671875,1.667327880859375,-2.489776611328125,-1.188812255859375,1.0,1.0,1.0,1.0,1.0,95.0,event
11:37:14.521,1.2997969,1.0064886,0.43433544,1.5038853,0.8304152,0.19056642,-0.12904704,0.90232515,0.5779841,0.31318545,0.02883034,0.7159804,0.6955013,0.4654057,0.05143207,0.9582101,0.5340382,0.09510132,-0.3032557,0.6863756,752.674,822.7839,803.44324,746.63007,855.42126,-0.068359375,0.057861328125,0.98388671875,1.667327880859375,-2.489776611328125,-1.188812255859375,1.0,1.0,1.0,1.0,1.0,95.0,event
11:37:14.521,1.2997969,1.0064886,0.43433544,1.5038853,0.8304152,0.19056642,-0.12904704,0.90232515,0.5779841,0.31318545,0.02883034,0.7159804,0.6955013,0.4654057,0.05143207,0.9582101,0.5340382,0.09510132,-0.3032557,0.6863756,770.80585,820.7692,801.4286,752.674,884.0293,-0.068359375,0.057861328125,0.98388671875,1.667327880859375,-2.489776611328125,-1.188812255859375,1.0,1.0,1.0,1.0,1.0,95.0,event
11:37:14.521,1.2997969,1.0064886,0.43433544,1.5038853,0.8304152,0.19056642,-0.12904704,0.90232515,0.5779841,0.31318545,0.02883034,0.7159804,0.6955013,0.4654057,0.05143207,0.9582101,0.5340382,0.09510132,-0.3032557,0.6863756,788.5348,807.47253,797.8022,772.4176,938.8278,-0.068359375,0.057861328125,0.98388671875,1.667327880859375,-2.489776611328125,-1.188812255859375,1.0,1.0,1.0,1.0,1.0,95.0,event
11:37:14.522,1.2997969,1.0064886,0.43433544,1.5038853,0.8304152,0.19056642,-0.12904704,0.90232515,0.5779841,0.31318545,0.02883034,0.7159804,0.6955013,0.4654057,0.05143207,0.9582101,0.5340382,0.09510132,-0.3032557,0.6863756,784.5055,810.293,799.81683,779.67035,777.25275,-0.068359375,0.057861328125,0.98388671875,1.667327880859375,-2.489776611328125,-1.188812255859375,1.0,1.0,1.0,1.0,1.0,95.0,event
11:37:14.522,1.2997969,1.0064886,0.43433544,1.5038853,0.8304152,0.19056642,-0.12904704,0.90232515,0.5779841,0.31318545,0.02883034,0.7159804,0.6955013,0.4654057,0.05143207,0.9582101,0.5340382,0.09510132,-0.3032557,0.6863756,790.9524,806.26373,795.78754,780.4762,863.8828,-0.068359375,0.057861328125,0.98388671875,1.667327880859375,-2.489776611328125,-1.188812255859375,1.0,1.0,1.0,1.0,1.0,95.0,event
11:37:14.523,1.2997969,1.0064886,0.43433544,1.5038853,0.8304152,0.19056642,-0.12904704,0.90232515,0.5779841,0.31318545,0.02883034,0.7159804,0.6955013,0.4654057,0.05143207,0.9582101,0.5340382,0.09510132,-0.3032557,0.6863756,781.28204,815.5311,805.05493,784.10254,777.25275,-0.068359375,0.057861328125,0.98388671875,1.667327880859375,-2.489776611328125,-1.188812255859375,1.0,1.0,1.0,1.0,1.0,95.0,event
11:37:14.523,1.2997969,1.0064886,0.43433544,1.5038853,0.8304152,0.19056642,-0.12904704,0.90232515,0.5779841,0.31318545,0.02883034,0.7159804,0.6955013,0.4654057,0.05143207,0.9582101,0.5340382,0.09510132,-0.3032557,0.6863756,785.7143,807.47253,801.8315,784.90845,938.4249,-0.068359375,0.057861328125,0.98388671875,1.667327880859375,-2.489776611328125,-1.188812255859375,1.0,1.0,1.0,1.0,1.0,95.0,event
11:37:14.593,1.2997969,1.0064886,0.43433544,1.5038853,0.8304152,0.19056642,-0.12904704,0.90232515,0.5779841,0.31318545,0.02883034,0.7159804,0.6955013,0.4654057,0.05143207,0.9582101,0.5340382,0.09510132,-0.3032557,0.6863756,796.99634,803.0403,798.60803,787.326,890.4762,-0.0706787109375,0.06396484375,0.98291015625,2.444915771484375,-1.375732421875,-1.188812255859375,1.0,1.0,1.0,1.0,1.0,95.0,event
11:37:14.594,1.2997969,1.0064886,0.43433544,1.5038853,0.8304152,0.19056642,-0.12904704,0.90232515,0.5779841,0.31318545,0.02883034,0.7159804,0.6955013,0.4654057,0.05143207,0.9582101,0.5340382,0.09510132,-0.3032557,0.6863756,804.2491,808.2784,805.4579,797.3993,733.73627,-0.0706787109375,0.06396484375,0.98291015625,2.444915771484375,-1.375732421875,-1.188812255859375,1.0,1.0,1.0,1.0,1.0,95.0,event
11:37:14.594,1.2997969,1.0064886,0.43433544,1.5038853,0.8304152,0.19056642,-0.12904704,0.90232515,0.5779841,0.31318545,0.02883034,0.7159804,0.6955013,0.4654057,0.05143207,0.9582101,0.5340382,0.09510132,-0.3032557,0.6863756,796.5934,807.47253,812.3077,796.99634,719.6337,-0.0706787109375,0.06396484375,0.98291015625,2.444915771484375,-1.375732421875,-1.188812255859375,1.0,1.0,1.0,1.0,1.0,95.0,event
11:37:14.595,1.2997969,1.0064886,0.43433544,1.5038853,0.8304152,0.19056642,-0.12904704,0.90232515,0.5779841,0.31318545,0.02883034,0.7159804,0.6955013,0.4654057,0.05143207,0.9582101,0.5340382,0.09510132,-0.3032557,0.6863756,785.7143,805.05493,803.8461,788.1319,718.022,-0.0706787109375,0.06396484375,0.98291015625,2.444915771484375,-1.375732421875,-1.188812255859375,1.0,1.0,1.0,1.0,1.0,95.0,event
11:37:14.596,1.2997969,1.0064886,0.43433544,1.5038853,0.8304152,0.19056642,-0.12904704,0.90232515,0.5779841,0.31318545,0.02883034,0.7159804,0.6955013,0.4654057,0.05143207,0.9582101,0.5340382,0.09510132,-0.3032557,0.6863756,790.54944,811.50183,802.23444,788.93774,716.8132,-0.0706787109375,0.06396484375,0.98291015625,2.444915771484375,-1.375732421875,-1.188812255859375,1.0,1.0,1.0,1.0,1.0,95.0,event
11:37:14.596,1.2997969,1.0098175,0.46743423,1.5804234,0.8304152,0.21310362,-0.10776503,0.9696928,0.5779841,0.3112932,0.02883034,0.7104908,0.6955013,0.4899638,0.058511667,0.93848825,0.5340382,0.12163402,-0.3190683,0.70341325,804.2491,815.5311,810.696,803.44324,669.2674,-0.0706787109375,0.06396484375,0.98291015625,2.444915771484375,-1.375732421875,-1.188812255859375,1.0,1.0,1.0,1.0,1.0,95.0,event
11:37:14.601,1.2997969,1.0098175,0.46743423,1.5804234,0.8304152,0.21310362,-0.10776503,0.9696928,0.5779841,0.3112932,0.02883034,0.7104908,0.6955013,0.4899638,0.058511667,0.93848825,0.5340382,0.12163402,-0.3190683,0.70341325,811.50183,814.7253,810.696,810.696,858.24176,-0.0706787109375,0.06396484375,0.98291015625,2.444915771484375,-1.375732421875,-1.188812255859375,1.0,1.0,1.0,1.0,1.0,95.0,event
11:37:14.601,1.2997969,1.0098175,0.46743423,1.5804234,0.8304152,0.21310362,-0.10776503,0.9696928,0.5779841,0.3112932,0.02883034,0.7104908,0.6955013,0.4899638,0.058511667,0.93848825,0.5340382,0.12163402,-0.3190683,0.70341325,801.02563,813.5165,801.02563,809.4872,1163.663,-0.0706787109375,0.06396484375,0.98291015625,2.444915771484375,-1.375732421875,-1.188812255859375,1.0,1.0,1.0,1.0,1.0,95.0,event
11:37:14.602,1.2997969,1.0098175,0.46743423,1.5804234,0.8304152,0.21310362,-0.10776503,0.9696928,0.5779841,0.3112932,0.02883034,0.7104908,0.6955013,0.4899638,0.058511667,0.93848825,0.5340382,0.12163402,-0.3190683,0.70341325,790.9524,813.5165,801.02563,786.1172,707.5458,-0.0706787109375,0.06396484375,0.98291015625,2.444915771484375,-1.375732421875,-1.188812255859375,1.0,1.0,1.0,1.0,1.0,95.0,event
11:37:14.602,1.2997969,1.0098175,0.46743423,1.5804234,0.8304152,0.21310362,-0.10776503,0.9696928,0.5779841,0.3112932,0.02883034,0.7104908,0.6955013,0.4899638,0.058511667,0.93848825,0.5340382,0.12163402,-0.3190683,0.70341325,789.34064,813.1135,797.3993,798.20514,923.1135,-0.0706787109375,0.06396484375,0.98291015625,2.444915771484375,-1.375732421875,-1.188812255859375,1.0,1.0,1.0,1.0,1.0,95.0,event
11:37:14.603,1.2997969,1.0098175,0.46743423,1.5804234,0.8304152,0.21310362,-0.10776503,0.9696928,0.5779841,0.3112932,0.02883034,0.7104908,0.6955013,0.4899638,0.058511667,0.93848825,0.5340382,0.12163402,-0.3190683,0.70341325,796.99634,807.8755,801.8315,793.7729,777.6557,-0.0706787109375,0.06396484375,0.98291015625,2.444915771484375,-1.375732421875,-1.188812255859375,1.0,1.0,1.0,1.0,1.0,95.0,event
11:37:14.604,1.2997969,1.0098175,0.46743423,1.5804234,0.8304152,0.21310362,-0.10776503,0.9696928,0.5779841,0.3112932,0.02883034,0.7104908,0.6955013,0.4899638,0.058511667,0.93848825,0.5340382,0.12163402,-0.3190683,0.70341325,806.26373,808.68134,805.05493,803.44324,823.5897,-0.0706787109375,0.06396484375,0.98291015625,2.444915771484375,-1.375732421875,-1.188812255859375,1.0,1.0,1.0,1.0,1.0,95.0,event
11:37:14.629,1.2997969,1.0098175,0.46743423,1.5804234,0.8304152,0.21310362,-0.10776503,0.9696928,0.5779841,0.3112932,0.02883034,0.7104908,0.6955013,0.4899638,0.058511667,0.93848825,0.5340382,0.12163402,-0.3190683,0.70341325,796.99634,811.9048,812.3077,796.1905,713.1868,-0.0743408203125,0.0650634765625,0.98663330078125,2.310333251953125,-1.45050048828125,-0.755157470703125,1.0,1.0,1.0,1.0,1.0,95.0,event
11:37:14.630,1.2997969,1.0098175,0.46743423,1.5804234,0.8304152,0.21310362,-0.10776503,0.9696928,0.5779841,0.3112932,0.02883034,0.7104908,0.6955013,0.4899638,0.058511667,0.93848825,0.5340382,0.12163402,-0.3190683,0.70341325,780.4762,810.293,811.9048,789.34064,665.2381,-0.0743408203125,0.0650634765625,0.98663330078125,2.310333251953125,-1.45050048828125,-0.755157470703125,1.0,1.0,1.0,1.0,1.0,95.0,event
11:37:14.631,1.2997969,1.0098175,0.46743423,1.5804234,0.8304152,0.21310362,-0.10776503,0.9696928,0.5779841,0.3112932,0.02883034,0.7104908,0.6955013,0.4899638,0.058511667,0.93848825,0.5340382,0.12163402,-0.3190683,0.70341325,780.87915,808.68134,806.26373,783.2967,825.2015,-0.0743408203125,0.0650634765625,0.98663330078125,2.310333251953125,-1.45050048828125,-0.755157470703125,1.0,1.0,1.0,1.0,1.0,95.0,event
11:37:14.631,1.2997969,1.0098175,0.46743423,1.5804234,0.8304152,0.21310362,-0.10776503,0.9696928,0.5779841,0.3112932,0.02883034,0.7104908,0.6955013,0.4899638,0.058511667,0.93848825,0.5340382,0.12163402,-0.3190683,0.70341325,793.36993,815.5311,803.0403,791.75824,848.1685,-0.0743408203125,0.0650634765625,0.98663330078125,2.310333251953125,-1.45050048828125,-0.755157470703125,1.0,1.0,1.0,1.0,1.0,95.0,event
11:37:14.632,1.2997969,1.0098175,0.46743423,1.5804234,0.8304152,0.21310362,-0.10776503,0.9696928,0.5779841,0.3112932,0.02883034,0.7104908,0.6955013,0.4899638,0.058511667,0.93848825,0.5340382,0.12163402,-0.3190683,0.70341325,802.6374,818.3516,801.4286,815.12823,792.96704,-0.0743408203125,0.0650634765625,0.98663330078125,2.310333251953125,-1.45050048828125,-0.755157470703125,1.0,1.0,1.0,1.0,1.0,95.0,event
11:37:14.633,1.2997969,1.0098175,0.46743423,1.5804234,0.8304152,0.21310362,-0.10776503,0.9696928,0.5779841,0.3112932,0.02883034,0.7104908,0.6955013,0.4899638,0.058511667,0.93848825,0.5340382,0.12163402,-0.3190683,0.70341325,788.5348,806.26373,798.20514,797.3993,1083.4799,-0.0743408203125,0.0650634765625,0.98663330078125,2.310333251953125,-1.45050048828125,-0.755157470703125,1.0,1.0,1.0,1.0,1.0,95.0,event
11:37:14.633,1.2997969,1.0098175,0.46743423,1.5804234,0.8304152,0.21310362,-0.10776503,0.9696928,0.5779841,0.3112932,0.02883034,0.7104908,0.6955013,0.4899638,0.058511667,0.93848825,0.5340382,0.12163402,-0.3190683,0.70341325,795.38464,813.5165,797.8022,808.68134,883.22345,-0.0743408203125,0.0650634765625,0.98663330078125,2.310333251953125,-1.45050048828125,-0.755157470703125,1.0,1.0,1.0,1.0,1.0,95.0,event
11:37:14.634,1.2997969,1.0098175,0.46743423,1.5804234,0.8304152,0.21310362,-0.10776503,0.9696928,0.5779841,0.3112932,0.02883034,0.7104908,0.6955013,0.4899638,0.058511667,0.93848825,0.5340382,0.12163402,-0.3190683,0.70341325,787.326,814.3223,808.68134,798.20514,935.2015,-0.0743408203125,0.0650634765625,0.98663330078125,2.310333251953125,-1.45050048828125,-0.755157470703125,1.0,1.0,1.0,1.0,1.0,95.0,event
11:37:14.634,1.2997969,1.0098175,0.46743423,1.5804234,0.8304152,0.21310362,-0.10776503,0.9696928,0.5779841,0.3112932,0.02883034,0.7104908,0.6955013,0.4899638,0.058511667,0.93848825,0.5340382,0.12163402,-0.3190683,0.70341325,795.38464,818.7546,811.50183,802.23444,618.0952,-0.0743408203125,0.0650634765625,0.98663330078125,2.310333251953125,-1.45050048828125,-0.755157470703125,1.0,1.0,1.0,1.0,1.0,95.0,event
11:37:14.635,1.2997969,1.0098175,0.46743423,1.5804234,0.8304152,0.21310362,-0.10776503,0.9696928,0.5779841,0.3112932,0.02883034,0.7104908,0.6955013,0.4899638,0.058511667,0.93848825,0.5340382,0.12163402,-0.3190683,0.70341325,801.8315,809.4872,803.44324,809.0842,682.96704,-0.0743408203125,0.0650634765625,0.98663330078125,2.310333251953125,-1.45050048828125,-0.755157470703125,1.0,1.0,1.0,1.0,1.0,95.0,event
11:37:14.636,1.2997969,1.0098175,0.46743423,1.5804234,0.8304152,0.21310362,-0.10776503,0.9696928,0.5779841,0.3112932,0.02883034,0.7104908,0.6955013,0.4899638,0.058511667,0.93848825,0.5340382,0.12163402,-0.3190683,0.70341325,792.1612,802.23444,801.4286,813.91943,1004.5055,-0.0743408203125,0.0650634765625,0.98663330078125,2.310333251953125,-1.45050048828125,-0.755157470703125,1.0,1.0,1.0,1.0,1.0,95.0,event
11:37:14.636,1.2997969,1.0098175,0.46743423,1.5804234,0.8304152,0.21310362,-0.10776503,0.9696928,0.5779841,0.3112932,0.02883034,0.7104908,0.6955013,0.4899638,0.058511667,0.93848825,0.5340382,0.12163402,-0.3190683,0.70341325,784.10254,806.6667,803.44324,802.23444,894.10254,-0.0743408203125,0.0650634765625,0.98663330078125,2.310333251953125,-1.45050048828125,-0.755157470703125,1.0,1.0,1.0,1.0,1.0,95.0,event
11:37:14.675,1.2997969,1.0098175,0.46743423,1.5804234,0.8304152,0.21310362,-0.10776503,0.9696928,0.5779841,0.3112932,0.02883034,0.7104908,0.6955013,0.4899638,0.058511667,0.93848825,0.5340382,0.12163402,-0.3190683,0.70341325,785.7143,805.05493,809.0842,791.3553,648.315,-0.07745361328125,0.0618896484375,0.98291015625,1.9140625,-2.76641845703125,-1.218719482421875,1.0,1.0,1.0,1.0,1.0,95.0,event
11:37:14.676,1.2997969,1.0098175,0.46743423,1.5804234,0.8304152,0.21310362,-0.10776503,0.9696928,0.5779841,0.3112932,0.02883034,0.7104908,0.6955013,0.4899638,0.058511667,0.93848825,0.5340382,0.12163402,-0.3190683,0.70341325,799.011,799.81683,805.05493,794.9817,698.68134,-0.07745361328125,0.0618896484375,0.98291015625,1.9140625,-2.76641845703125,-1.218719482421875,1.0,1.0,1.0,1.0,1.0,95.0,event
11:37:14.677,1.2997969,1.0098175,0.46743423,1.5804234,0.8304152,0.21310362,-0.10776503,0.9696928,0.5779841,0.3112932,0.02883034,0.7104908,0.6955013,0.4899638,0.058511667,0.93848825,0.5340382,0.12163402,-0.3190683,0.70341325,810.293,795.78754,799.41394,798.60803,745.42126,-0.07745361328125,0.0618896484375,0.98291015625,1.9140625,-2.76641845703125,-1.218719482421875,1.0,1.0,1.0,1.0,1.0,95.0,event
11:37:14.677,1.2997969,1.0098175,0.46743423,1.5804234,0.8304152,0.21310362,-0.10776503,0.9696928,0.5779841,0.3112932,0.02883034,0.7104908,0.6955013,0.4899638,0.058511667,0.93848825,0.5340382,0.12163402,-0.3190683,0.70341325,797.3993,800.6227,797.8022,794.57874,712.7839,-0.07745361328125,0.0618896484375,0.98291015625,1.9140625,-2.76641845703125,-1.218719482421875,1.0,1.0,1.0,1.0,1.0,95.0,event
11:37:14.678,1.2997969,1.0098175,0.46743423,1.5804234,0.8304152,0.21310362,-0.10776503,0.9696928,0.5779841,0.3112932,0.02883034,0.7104908,0.6955013,0.4899638,0.058511667,0.93848825,0.5340382,0.12163402,-0.3190683,0.70341325,788.5348,807.47253,802.23444,788.93774,697.8755,-0.07745361328125,0.0618896484375,0.98291015625,1.9140625,-2.76641845703125,-1.218719482421875,1.0,1.0,1.0,1.0,1.0,95.0,event
11:37:14.679,1.2997969,1.0098175,0.46743423,1.5804234,0.8304152,0.21310362,-0.10776503,0.9696928,0.5779841,0.3112932,0.02883034,0.7104908,0.6955013,0.4899638,0.058511667,0.93848825,0.5340382,0.12163402,-0.3190683,0.70341325,794.17584,811.0989,794.9817,802.6374,941.2454,-0.07745361328125,0.0618896484375,0.98291015625,1.9140625,-2.76641845703125,-1.218719482421875,1.0,1.0,1.0,1.0,1.0,95.0,event
11:37:14.679,1.2997969,1.0098175,0.46743423,1.5804234,0.8304152,0.21310362,-0.10776503,0.9696928,0.5779841,0.3112932,0.02883034,0.7104908,0.6955013,0.4899638,0.058511667,0.93848825,0.5340382,0.12163402,-0.3190683,0.70341325,791.3553,807.47253,803.44324,796.1905,832.0513,-0.07745361328125,0.0618896484375,0.98291015625,1.9140625,-2.76641845703125,-1.218719482421875,1.0,1.0,1.0,1.0,1.0,95.0,event
11:37:14.680,1.2997969,1.0288885,0.51018375,1.5804234,0.8304152,0.23417634,-0.080320306,0.9696928,0.5779841,0.21654834,0.02883034,0.7104908,0.6955013,0.5060968,0.069745846,0.93848825,0.5340382,0.14011832,-0.33519554,0.70341325,805.8608,815.9341,798.20514,811.0989,778.46155,-0.07745361328125,0.0618896484375,0.98291015625,1.9140625,-2.76641845703125,-1.218719482421875,1.0,1.0,1.0,1.0,1.0,95.0,event
11:37:14.684,1.2997969,1.0288885,0.51018375,1.5804234,0.8304152,0.23417634,-0.080320306,0.9696928,0.5779841,0.21654834,0.02883034,0.7104908,0.6955013,0.5060968,0.069745846,0.93848825,0.5340382,0.14011832,-0.33519554,0.70341325,807.8755,813.1135,803.44324,813.91943,678.5348,-0.07745361328125,0.0618896484375,0.98291015625,1.9140625,-2.76641845703125,-1.218719482421875,1.0,1.0,1.0,1.0,1.0,95.0,event
11:37:14.685,1.2997969,1.0288885,0.51018375,1.5804234,0.8304152,0.23417634,-0.080320306,0.9696928,0.5779841,0.21654834,0.02883034,0.7104908,0.6955013,0.5060968,0.069745846,0.93848825,0.5340382,0.14011832,-0.33519554,0.70341325,791.75824,811.0989,799.81683,796.99634,774.0293,-0.07745361328125,0.0618896484375,0.98291015625,1.9140625,-2.76641845703125,-1.218719482421875,1.0,1.0,1.0,1.0,1.0,95.0,event
11:37:14.685,1.2997969,1.0288885,0.51018375,1.5804234,0.8304152,0.23417634,-0.080320306,0.9696928,0.5779841,0.21654834,0.02883034,0.7104908,0.6955013,0.5060968,0.069745846,0.93848825,0.5340382,0.14011832,-0.33519554,0.70341325,784.10254,805.8608,798.60803,792.1612,747.8388,-0.07745361328125,0.0618896484375,0.98291015625,1.9140625,-2.76641845703125,-1.218719482421875,1.0,1.0,1.0,1.0,1.0,95.0,event
11:37:14.686,1.2997969,1.0288885,0.51018375,1.5804234,0.8304152,0.23417634,-0.080320306,0.9696928,0.5779841,0.21654834,0.02883034,0.7104908,0.6955013,0.5060968,0.069745846,0.93848825,0.5340382,0.14011832,-0.33519554,0.70341325,788.93774,802.6374,805.4579,799.41394,637.8388,-0.07745361328125,0.0618896484375,0.98291015625,1.9140625,-2.76641845703125,-1.218719482421875,1.0,1.0,1.0,1.0,1.0,95.0,event
11:37:14.741,1.2997969,1.0288885,0.51018375,1.5804234,0.8304152,0.23417634,-0.080320306,0.9696928,0.5779841,0.21654834,0.02883034,0.7104908,0.6955013,0.5060968,0.069745846,0.93848825,0.5340382,0.14011832,-0.33519554,0.70341325,802.23444,802.6374,807.0696,805.8608,730.9158,-0.07086181640625,0.06146240234375,0.9849853515625,1.577606201171875,-3.013153076171875,-1.27105712890625,1.0,1.0,1.0,1.0,1.0,95.0,event
11:37:14.742,1.2997969,1.0288885,0.51018375,1.5804234,0.8304152,0.23417634,-0.080320306,0.9696928,0.5779841,0.21654834,0.02883034,0.7104908,0.6955013,0.5060968,0.069745846,0.93848825,0.5340382,0.14011832,-0.33519554,0.70341325,810.293,801.8315,801.8315,809.89014,869.92676,-0.07086181640625,0.06146240234375,0.9849853515625,1.577606201171875,-3.013153076171875,-1.27105712890625,1.0,1.0,1.0,1.0,1.0,95.0,event
11:37:14.743,1.2997969,1.0288885,0.51018375,1.5804234,0.8304152,0.23417634,-0.080320306,0.9696928,0.5779841,0.21654834,0.02883034,0.7104908,0.6955013,0.5060968,0.069745846,0.93848825,0.5340382,0.14011832,-0.33519554,0.70341325,789.34064,807.47253,798.20514,805.05493,798.20514,-0.07086181640625,0.06146240234375,0.9849853515625,1.577606201171875,-3.013153076171875,-1.27105712890625,1.0,1.0,1.0,1.0,1.0,95.0,event
11:37:14.743,1.2997969,1.0288885,0.51018375,1.5804234,0.8304152,0.23417634,-0.080320306,0.9696928,0.5779841,0.21654834,0.02883034,0.7104908,0.6955013,0.5060968,0.069745846,0.93848825,0.5340382,0.14011832,-0.33519554,0.70341325,767.98535,807.0696,801.8315,790.54944,689.011,-0.07086181640625,0.06146240234375,0.9849853515625,1.577606201171875,-3.013153076171875,-1.27105712890625,1.0,1.0,1.0,1.0,1.0,95.0,event
11:37:14.744,1.2997969,1.0288885,0.51018375,1.5804234,0.8304152,0.23417634,-0.080320306,0.9696928,0.5779841,0.21654834,0.02883034,0.7104908,0.6955013,0.5060968,0.069745846,0.93848825,0.5340382,0.14011832,-0.33519554,0.70341325,785.7143,804.65204,806.6667,797.8022,731.7216,-0.07086181640625,0.06146240234375,0.9849853515625,1.577606201171875,-3.013153076171875,-1.27105712890625,1.0,1.0,1.0,1.0,1.0,95.0,event
11:37:14.745,1.2997969,1.0288885,0.51018375,1.5804234,0.8304152,0.23417634,-0.080320306,0.9696928,0.5779841,0.21654834,0.02883034,0.7104908,0.6955013,0.5060968,0.069745846,0.93848825,0.5340382,0.14011832,-0.33519554,0.70341325,801.02563,806.26373,803.8461,805.8608,930.7692,-0.07086181640625,0.06146240234375,0.9849853515625,1.577606201171875,-3.013153076171875,-1.27105712890625,1.0,1.0,1.0,1.0,1.0,95.0,event
11:37:14.746,1.2997969,1.0288885,0.51018375,1.5804234,0.8304152,0.23417634,-0.080320306,0.9696928,0.5779841,0.21654834,0.02883034,0.7104908,0.6955013,0.5060968,0.069745846,0.93848825,0.5340382,0.14011832,-0.33519554,0.70341325,794.57874,815.12823,803.44324,793.36993,924.7253,-0.07086181640625,0.06146240234375,0.9849853515625,1.577606201171875,-3.013153076171875,-1.27105712890625,1.0,1.0,1.0,1.0,1.0,95.0,event
11:37:14.746,1.2997969,1.0288885,0.51018375,1.5804234,0.8304152,0.23417634,-0.080320306,0.9696928,0.5779841,0.21654834,0.02883034,0.7104908,0.6955013,0.5060968,0.069745846,0.93848825,0.5340382,0.14011832,-0.33519554,0.70341325,780.4762,815.12823,806.26373,788.5348,803.8461,-0.07086181640625,0.06146240234375,0.9849853515625,1.577606201171875,-3.013153076171875,-1.27105712890625,1.0,1.0,1.0,1.0,1.0,95.0,event
11:37:14.747,1.2997969,1.0288885,0.51018375,1.5804234,0.8304152,0.23417634,-0.080320306,0.9696928,0.5779841,0.21654834,0.02883034,0.7104908,0.6955013,0.5060968,0.069745846,0.93848825,0.5340382,0.14011832,-0.33519554,0.70341325,772.4176,809.89014,806.6667,790.14655,785.31134,-0.07086181640625,0.06146240234375,0.9849853515625,1.577606201171875,-3.013153076171875,-1.27105712890625,1.0,1.0,1.0,1.0,1.0,95.0,event
11:37:14.748,1.2997969,1.0288885,0.51018375,1.5804234,0.8304152,0.23417634,-0.080320306,0.9696928,0.5779841,0.21654834,0.02883034,0.7104908,0.6955013,0.5060968,0.069745846,0.93848825,0.5340382,0.14011832,-0.33519554,0.70341325,777.6557,802.6374,807.0696,796.5934,1017.3993,-0.07086181640625,0.06146240234375,0.9849853515625,1.577606201171875,-3.013153076171875,-1.27105712890625,1.0,1.0,1.0,1.0,1.0,95.0,event
11:37:14.749,1.2997969,1.0288885,0.51018375,1.5804234,0.8304152,0.23417634,-0.080320306,0.9696928,0.5779841,0.21654834,0.02883034,0.7104908,0.6955013,0.5060968,0.069745846,0.93848825,0.5340382,0.14011832,-0.33519554,0.70341325,790.54944,807.8755,801.8315,801.02563,932.381,-0.07086181640625,0.06146240234375,0.9849853515625,1.577606201171875,-3.013153076171875,-1.27105712890625,1.0,1.0,1.0,1.0,1.0,95.0,event
11:37:14.749,1.2997969,1.0288885,0.51018375,1.5804234,0.8304152,0.23417634,-0.080320306,0.9696928,0.5779841,0.21654834,0.02883034,0.7104908,0.6955013,0.5060968,0.069745846,0.93848825,0.5340382,0.14011832,-0.33519554,0.70341325,803.44324,811.50183,800.6227,801.4286,692.23444,-0.07086181640625,0.06146240234375,0.9849853515625,1.577606201171875,-3.013153076171875,-1.27105712890625,1.0,1.0,1.0,1.0,1.0,95.0,event
11:37:14.773,1.2997969,1.0288885,0.51018375,1.5804234,0.8304152,0.23417634,-0.080320306,0.9696928,0.5779841,0.21654834,0.02883034,0.7104908,0.6955013,0.5060968,0.069745846,0.93848825,0.5340382,0.14011832,-0.33519554,0.70341325,790.14655,799.81683,798.60803,797.8022,730.5128,-0.07086181640625,0.06146240234375,0.9849853515625,1.577606201171875,-3.013153076171875,-1.27105712890625,1.0,1.0,1.0,1.0,1.0,95.0,event
11:37:14.774,1.2997969,1.0288885,0.51018375,1.5804234,0.8304152,0.23417634,-0.080320306,0.9696928,0.5779841,0.21654834,0.02883034,0.7104908,0.6955013,0.5060968,0.069745846,0.93848825,0.5340382,0.14011832,-0.33519554,0.70341325,775.2381,799.011,796.1905,790.14655,688.60803,-0.07086181640625,0.06146240234375,0.9849853515625,1.577606201171875,-3.013153076171875,-1.27105712890625,1.0,1.0,1.0,1.0,1.0,95.0,event
11:37:14.775,1.2997969,1.0288885,0.51018375,1.5804234,0.8304152,0.23417634,-0.080320306,0.9696928,0.5779841,0.21654834,0.02883034,0.7104908,0.6955013,0.5060968,0.069745846,0.93848825,0.5340382,0.14011832,-0.33519554,0.70341325,787.326,813.5165,805.4579,791.75824,616.08057,-0.07086181640625,0.06146240234375,0.9849853515625,1.577606201171875,-3.013153076171875,-1.27105712890625,1.0,1.0,1.0,1.0,1.0,95.0,event
11:37:14.776,1.2997969,1.0288885,0.51018375,1.5804234,0.8304152,0.23417634,-0.080320306,0.9696928,0.5779841,0.21654834,0.02883034,0.7104908,0.6955013,0.5060968,0.069745846,0.93848825,0.5340382,0.14011832,-0.33519554,0.70341325,796.1905,816.7399,808.68134,801.02563,625.34796,-0.07086181640625,0.06146240234375,0.9849853515625,1.577606201171875,-3.013153076171875,-1.27105712890625,1.0,1.0,1.0,1.0,1.0,95.0,event
11:37:14.777,1.2997969,1.0288885,0.51018375,1.5804234,0.8304152,0.23417634,-0.080320306,0.9696928,0.5779841,0.21654834,0.02883034,0.7104908,0.6955013,0.5060968,0.069745846,0.93848825,0.5340382,0.14011832,-0.33519554,0.70341325,793.7729,816.7399,801.02563,797.3993,746.63007,-0.07086181640625,0.06146240234375,0.9849853515625,1.577606201171875,-3.013153076171875,-1.27105712890625,1.0,1.0,1.0,1.0,1.0,95.0,event
11:37:14.779,1.2997969,1.0288885,0.51018375,1.5804234,0.8304152,0.23417634,-0.080320306,0.9696928,0.5779841,0.21654834,0.02883034,0.7104908,0.6955013,0.5060968,0.069745846,0.93848825,0.5340382,0.14011832,-0.33519554,0.70341325,784.5055,807.8755,797.8022,789.34064,927.5458,-0.07086181640625,0.06146240234375,0.9849853515625,1.577606201171875,-3.013153076171875,-1.27105712890625,1.0,1.0,1.0,1.0,1.0,95.0,event
11:37:14.780,1.2997969,1.0288885,0.51018375,1.5804234,0.8304152,0.23417634,-0.080320306,0.9696928,0.5779841,0.21654834,0.02883034,0.7104908,0.6955013,0.5060968,0.069745846,0.93848825,0.5340382,0.14011832,-0.33519554,0.70341325,779.67035,800.6227,803.0403,796.1905,817.5458,-0.07086181640625,0.06146240234375,0.9849853515625,1.577606201171875,-3.013153076171875,-1.27105712890625,1.0,1.0,1.0,1.0,1.0,95.0,event
11:37:14.781,1.2997969,1.0288885,0.51018375,1.5804234,0.8304152,0.23417634,-0.080320306,0.9696928,0.5779841,0.21654834,0.02883034,0.7104908,0.6955013,0.5060968,0.069745846,0.93848825,0.5340382,0.14011832,-0.33519554,0.70341325,782.0879,810.696,807.8755,800.2198,688.20514,-0.07086181640625,0.06146240234375,0.9849853515625,1.577606201171875,-3.013153076171875,-1.27105712890625,1.0,1.0,1.0,1.0,1.0,95.0,event
11:37:14.781,1.2997969,1.0288885,0.51018375,1.5804234,0.8304152,0.23417634,-0.080320306,0.9696928,0.5779841,0.21654834,0.02883034,0.7104908,0.6955013,0.5060968,0.069745846,0.93848825,0.5340382,0.14011832,-0.33519554,0.70341325,801.4286,810.696,807.8755,814.7253,836.08057,-0.07086181640625,0.06146240234375,0.9849853515625,1.577606201171875,-3.013153076171875,-1.27105712890625,1.0,1.0,1.0,1.0,1.0,95.0,event
11:37:14.782,1.2997969,1.0288885,0.5597192,1.5804234,0.8304152,0.23417634,-0.03855651,0.9696928,0.5779841,0.21654834,0.02883034,0.7104908,0.6955013,0.5060968,0.08570885,0.93848825,0.5340382,0.14011832,-0.34360915,0.70341325,815.5311,810.696,806.6667,826.8132,1045.6044,-0.07086181640625,0.06146240234375,0.9849853515625,1.577606201171875,-3.013153076171875,-1.27105712890625,1.0,1.0,1.0,1.0,1.0,95.0,event
11:37:14.786,1.2997969,1.0288885,0.5597192,1.5804234,0.8304152,0.23417634,-0.03855651,0.9696928,0.5779841,0.21654834,0.02883034,0.7104908,0.6955013,0.5060968,0.08570885,0.93848825,0.5340382,0.14011832,-0.34360915,0.70341325,818.3516,819.9634,806.6667,809.89014,848.1685,-0.07086181640625,0.06146240234375,0.9849853515625,1.577606201171875,-3.013153076171875,-1.27105712890625,1.0,1.0,1.0,1.0,1.0,95.0,event
11:37:14.787,1.2997969,1.0288885,0.5597192,1.5804234,0.8304152,0.23417634,-0.03855651,0.9696928,0.5779841,0.21654834,0.02883034,0.7104908,0.6955013,0.5060968,0.08570885,0.93848825,0.5340382,0.14011832,-0.34360915,0.70341325,803.8461,818.3516,807.8755,800.6227,744.21246,-0.07086181640625,0.06146240234375,0.9849853515625,1.577606201171875,-3.013153076171875,-1.27105712890625,1.0,1.0,1.0,1.0,1.0,95.0,event
11:37:14.814,1.2997969,1.0288885,0.5597192,1.5804234,0.8304152,0.23417634,-0.03855651,0.9696928,0.5779841,0.21654834,0.02883034,0.7104908,0.6955013,0.5060968,0.08570885,0.93848825,0.5340382,0.14011832,-0.34360915,0.70341325,783.69965,810.696,809.89014,799.41394,794.57874,-0.06689453125,0.05792236328125,0.985107421875,1.4056396484375,-2.91595458984375,0.007476806640625,1.0,1.0,1.0,1.0,1.0,95.0,event
11:37:14.815,1.2997969,1.0288885,0.5597192,1.5804234,0.8304152,0.23417634,-0.03855651,0.9696928,0.5779841,0.21654834,0.02883034,0.7104908,0.6955013,0.5060968,0.08570885,0.93848825,0.5340382,0.14011832,-0.34360915,0.70341325,795.78754,808.2784,805.05493,803.0403,710.3663,-0.06689453125,0.05792236328125,0.985107421875,1.4056396484375,-2.91595458984375,0.007476806640625,1.0,1.0,1.0,1.0,1.0,95.0,event
11:37:14.816,1.2997969,1.0288885,0.5597192,1.5804234,0.8304152,0.23417634,-0.03855651,0.9696928,0.5779841,0.21654834,0.02883034,0.7104908,0.6955013,0.5060968,0.08570885,0.93848825,0.5340382,0.14011832,-0.34360915,0.70341325,811.0989,818.7546,804.2491,810.293,666.04395,-0.06689453125,0.05792236328125,0.985107421875,1.4056396484375,-2.91595458984375,0.007476806640625,1.0,1.0,1.0,1.0,1.0,95.0,event
11:37:14.817,1.2997969,1.0288885,0.5597192,1.5804234,0.8304152,0.23417634,-0.03855651,0.9696928,0.5779841,0.21654834,0.02883034,0.7104908,0.6955013,0.5060968,0.08570885,0.93848825,0.5340382,0.14011832,-0.34360915,0.70341325,808.2784,823.1868,810.293,809.89014,707.1429,-0.06689453125,0.05792236328125,0.985107421875,1.4056396484375,-2.91595458984375,0.007476806640625,1.0,1.0,1.0,1.0,1.0,95.0,event
11:37:14.818,1.2997969,1.0288885,0.5597192,1.5804234,0.8304152,0.23417634,-0.03855651,0.9696928,0.5779841,0.21654834,0.02883034,0.7104908,0.6955013,0.5060968,0.08570885,0.93848825,0.5340382,0.14011832,-0.34360915,0.70341325,792.96704,806.6667,807.0696,803.44324,809.89014,-0.06689453125,0.05792236328125,0.985107421875,1.4056396484375,-2.91595458984375,0.007476806640625,1.0,1.0,1.0,1.0,1.0,95.0,event
11:37:14.819,1.2997969,1.0288885,0.5597192,1.5804234,0.8304152,0.23417634,-0.03855651,0.9696928,0.5779841,0.21654834,0.02883034,0.7104908,0.6955013,0.5060968,0.08570885,0.93848825,0.5340382,0.14011832,-0.34360915,0.70341325,788.5348,800.6227,801.4286,799.81683,864.2857,-0.06689453125,0.05792236328125,0.985107421875,1.4056396484375,-2.91595458984375,0.007476806640625,1.0,1.0,1.0,1.0,1.0,95.0,event
11:37:14.820,1.2997969,1.0288885,0.5597192,1.5804234,0.8304152,0.23417634,-0.03855651,0.9696928,0.5779841,0.21654834,0.02883034,0.7104908,0.6955013,0.5060968,0.08570885,0.93848825,0.5340382,0.14011832,-0.34360915,0.70341325,798.60803,806.26373,803.8461,801.02563,882.8205,-0.06689453125,0.05792236328125,0.985107421875,1.4056396484375,-2.91595458984375,0.007476806640625,1.0,1.0,1.0,1.0,1.0,95.0,event
11:37:14.821,1.2997969,1.0288885,0.5597192,1.5804234,0.8304152,0.23417634,-0.03855651,0.9696928,0.5779841,0.21654834,0.02883034,0.7104908,0.6955013,0.5060968,0.08570885,0.93848825,0.5340382,0.14011832,-0.34360915,0.70341325,809.4872,805.05493,805.8608,805.4579,844.5421,-0.06689453125,0.05792236328125,0.985107421875,1.4056396484375,-2.91595458984375,0.007476806640625,1.0,1.0,1.0,1.0,1.0,95.0,event
11:37:14.822,1.2997969,1.0288885,0.5597192,1.5804234,0.8304152,0.23417634,-0.03855651,0.9696928,0.5779841,0.21654834,0.02883034,0.7104908,0.6955013,0.5060968,0.08570885,0.93848825,0.5340382,0.14011832,-0.34360915,0.70341325,803.0403,798.20514,802.23444,800.2198,991.6117,-0.06689453125,0.05792236328125,0.985107421875,1.4056396484375,-2.91595458984375,0.007476806640625,1.0,1.0,1.0,1.0,1.0,95.0,event
11:37:14.823,1.2997969,1.0288885,0.5597192,1.5804234,0.8304152,0.23417634,-0.03855651,0.9696928,0.5779841,0.21654834,0.02883034,0.7104908,0.6955013,0.5060968,0.08570885,0.93848825,0.5340382,0.14011832,-0.34360915,0.70341325,793.7729,811.0989,798.60803,796.5934,1048.8279,-0.06689453125,0.05792236328125,0.985107421875,1.4056396484375,-2.91595458984375,0.007476806640625,1.0,1.0,1.0,1.0,1.0,95.0,event
11:37:14.823,1.2997969,1.0288885,0.5597192,1.5804234,0.8304152,0.23417634,-0.03855651,0.9696928,0.5779841,0.21654834,0.02883034,0.7104908,0.6955013,0.5060968,0.08570885,0.93848825,0.5340382,0.14011832,-0.34360915,0.70341325,797.3993,823.5897,798.20514,791.75824,801.8315,-0.06689453125,0.05792236328125,0.985107421875,1.4056396484375,-2.91595458984375,0.007476806640625,1.0,1.0,1.0,1.0,1.0,95.0,event
11:37:14.824,1.2997969,1.0288885,0.5597192,1.5804234,0.8304152,0.23417634,-0.03855651,0.9696928,0.5779841,0.21654834,0.02883034,0.7104908,0.6955013,0.5060968,0.08570885,0.93848825,0.5340382,0.14011832,-0.34360915,0.70341325,805.8608,817.1429,797.8022,793.7729,744.21246,-0.06689453125,0.05792236328125,0.985107421875,1.4056396484375,-2.91595458984375,0.007476806640625,1.0,1.0,1.0,1.0,1.0,95.0,event
11:37:14.848,1.2997969,1.0288885,0.5597192,1.5804234,0.8304152,0.23417634,-0.03855651,0.9696928,0.5779841,0.21654834,0.02883034,0.7104908,0.6955013,0.5060968,0.08570885,0.93848825,0.5340382,0.14011832,-0.34360915,0.70341325,817.5458,813.91943,798.20514,803.8461,753.47986,-0.07598876953125,0.054443359375,0.98333740234375,1.92901611328125,-2.953338623046875,1.15142822265625,1.0,1.0,1.0,1.0,1.0,95.0,event
11:37:14.849,1.2997969,1.0288885,0.5597192,1.5804234,0.8304152,0.23417634,-0.03855651,0.9696928,0.5779841,0.21654834,0.02883034,0.7104908,0.6955013,0.5060968,0.08570885,0.93848825,0.5340382,0.14011832,-0.34360915,0.70341325,820.7692,813.5165,797.8022,804.65204,713.9927,-0.07598876953125,0.054443359375,0.98333740234375,1.92901611328125,-2.953338623046875,1.15142822265625,1.0,1.0,1.0,1.0,1.0,95.0,event
11:37:14.850,1.2997969,1.0288885,0.5597192,1.5804234,0.8304152,0.23417634,-0.03855651,0.9696928,0.5779841,0.21654834,0.02883034,0.7104908,0.6955013,0.5060968,0.08570885,0.93848825,0.5340382,0.14011832,-0.34360915,0.70341325,809.0842,812.71063,801.8315,794.17584,719.2308,-0.07598876953125,0.054443359375,0.98333740234375,1.92901611328125,-2.953338623046875,1.15142822265625,1.0,1.0,1.0,1.0,1.0,95.0,event
11:37:14.850,1.2997969,1.0288885,0.5597192,1.5804234,0.8304152,0.23417634,-0.03855651,0.9696928,0.5779841,0.21654834,0.02883034,0.7104908,0.6955013,0.5060968,0.08570885,0.93848825,0.5340382,0.14011832,-0.34360915,0.70341325,796.1905,805.05493,807.8755,789.7436,757.1062,-0.07598876953125,0.054443359375,0.98333740234375,1.92901611328125,-2.953338623046875,1.15142822265625,1.0,1.0,1.0,1.0,1.0,95.0,event
11:37:14.851,1.2997969,1.0288885,0.5597192,1.5804234,0.8304152,0.23417634,-0.03855651,0.9696928,0.5779841,0.21654834,0.02883034,0.7104908,0.6955013,0.5060968,0.08570885,0.93848825,0.5340382,0.14011832,-0.34360915,0.70341325,805.05493,806.6667,805.4579,794.17584,812.3077,-0.07598876953125,0.054443359375,0.98333740234375,1.92901611328125,-2.953338623046875,1.15142822265625,1.0,1.0,1.0,1.0,1.0,95.0,event
11:37:14.851,1.2997969,1.0288885,0.5597192,1.5804234,0.8304152,0.23417634,-0.03855651,0.9696928,0.5779841,0.21654834,0.02883034,0.7104908,0.6955013,0.5060968,0.08570885,0.93848825,0.5340382,0.14011832,-0.34360915,0.70341325,811.0989,813.1135,800.2198,799.41394,805.8608,-0.07598876953125,0.054443359375,0.98333740234375,1.92901611328125,-2.953338623046875,1.15142822265625,1.0,1.0,1.0,1.0,1.0,95.0,event
11:37:14.852,1.2997969,1.0288885,0.5597192,1.5804234,0.8304152,0.23417634,-0.03855651,0.9696928,0.5779841,0.21654834,0.02883034,0.7104908,0.6955013,0.5060968,0.08570885,0.93848825,0.5340382,0.14011832,-0.34360915,0.70341325,807.47253,808.68134,797.8022,797.8022,748.24176,-0.07598876953125,0.054443359375,0.98333740234375,1.92901611328125,-2.953338623046875,1.15142822265625,1.0,1.0,1.0,1.0,1.0,95.0,event
11:37:14.853,1.2997969,1.0288885,0.5597192,1.5804234,0.8304152,0.23417634,-0.03855651,0.9696928,0.5779841,0.21654834,0.02883034,0.7104908,0.6955013,0.5060968,0.08570885,0.93848825,0.5340382,0.14011832,-0.34360915,0.70341325,801.8315,805.8608,797.3993,794.17584,817.1429,-0.07598876953125,0.054443359375,0.98333740234375,1.92901611328125,-2.953338623046875,1.15142822265625,1.0,1.0,1.0,1.0,1.0,95.0,event
11:37:14.853,1.2997969,1.0288885,0.5597192,1.5804234,0.8304152,0.23417634,-0.03855651,0.9696928,0.5779841,0.21654834,0.02883034,0.7104908,0.6955013,0.5060968,0.08570885,0.93848825,0.5340382,0.14011832,-0.34360915,0.70341325,798.60803,810.696,799.81683,792.1612,1006.52014,-0.07598876953125,0.054443359375,0.98333740234375,1.92901611328125,-2.953338623046875,1.15142822265625,1.0,1.0,1.0,1.0,1.0,95.0,event
11:37:14.854,1.2997969,1.0288885,0.5597192,1.5804234,0.8304152,0.23417634,-0.03855651,0.9696928,0.5779841,0.21654834,0.02883034,0.7104908,0.6955013,0.5060968,0.08570885,0.93848825,0.5340382,0.14011832,-0.34360915,0.70341325,804.2491,809.4872,802.23444,790.14655,726.8865,-0.07598876953125,0.054443359375,0.98333740234375,1.92901611328125,-2.953338623046875,1.15142822265625,1.0,1.0,1.0,1.0,1.0,95.0,event
11:37:14.854,1.2997969,1.0288885,0.5597192,1.5804234,0.8304152,0.23417634,-0.03855651,0.9696928,0.5779841,0.21654834,0.02883034,0.7104908,0.6955013,0.5060968,0.08570885,0.93848825,0.5340382,0.14011832,-0.34360915,0.70341325,802.23444,813.5165,799.41394,786.1172,819.15753,-0.07598876953125,0.054443359375,0.98333740234375,1.92901611328125,-2.953338623046875,1.15142822265625,1.0,1.0,1.0,1.0,1.0,95.0,event
11:37:14.855,1.2997969,1.0288885,0.6122819,1.5804234,0.8304152,0.23417634,0.021645034,0.9696928,0.5779841,0.21654834,0.02883034,0.7104908,0.6955013,0.5060968,0.103647985,0.93848825,0.5340382,0.14011832,-0.34021324,0.70341325,803.8461,810.696,807.47253,796.99634,880.80585,-0.07598876953125,0.054443359375,0.98333740234375,1.92901611328125,-2.953338623046875,1.15142822265625,1.0,1.0,1.0,1.0,1.0,95.0,event
11:37:14.891,1.2997969,1.0288885,0.6122819,1.5804234,0.8304152,0.23417634,0.021645034,0.9696928,0.5779841,0.21654834,0.02883034,0.7104908,0.6955013,0.5060968,0.103647985,0.93848825,0.5340382,0.14011832,-0.34021324,0.70341325,801.4286,812.71063,799.011,791.3553,827.2161,-0.07232666015625,0.06463623046875,0.98455810546875,2.684173583984375,-4.127197265625,2.07855224609375,1.0,1.0,1.0,1.0,1.0,95.0,event
11:37:14.892,1.2997969,1.0288885,0.6122819,1.5804234,0.8304152,0.23417634,0.021645034,0.9696928,0.5779841,0.21654834,0.02883034,0.7104908,0.6955013,0.5060968,0.103647985,0.93848825,0.5340382,0.14011832,-0.34021324,0.70341325,792.5641,807.0696,792.1612,783.69965,672.8938,-0.07232666015625,0.06463623046875,0.98455810546875,2.684173583984375,-4.127197265625,2.07855224609375,1.0,1.0,1.0,1.0,1.0,95.0,event
11:37:14.893,1.2997969,1.0288885,0.6122819,1.5804234,0.8304152,0.23417634,0.021645034,0.9696928,0.5779841,0.21654834,0.02883034,0.7104908,0.6955013,0.5060968,0.103647985,0.93848825,0.5340382,0.14011832,-0.34021324,0.70341325,801.02563,808.68134,805.05493,793.36993,653.1502,-0.07232666015625,0.06463623046875,0.98455810546875,2.684173583984375,-4.127197265625,2.07855224609375,1.0,1.0,1.0,1.0,1.0,95.0,event
11:37:14.893,1.2997969,1.0288885,0.6122819,1.5804234,0.8304152,0.23417634,0.021645034,0.9696928,0.5779841,0.21654834,0.02883034,0.7104908,0.6955013,0.5060968,0.103647985,0.93848825,0.5340382,0.14011832,-0.34021324,0.70341325,817.5458,811.50183,807.0696,805.4579,831.2454,-0.07232666015625,0.06463623046875,0.98455810546875,2.684173583984375,-4.127197265625,2.07855224609375,1.0,1.0,1.0,1.0,1.0,95.0,event
11:37:14.894,1.2997969,1.0288885,0.6122819,1.5804234,0.8304152,0.23417634,0.021645034,0.9696928,0.5779841,0.21654834,0.02883034,0.7104908,0.6955013,0.5060968,0.103647985,0.93848825,0.5340382,0.14011832,-0.34021324,0.70341325,828.8278,810.293,797.8022,813.91943,854.61536,-0.07232666015625,0.06463623046875,0.98455810546875,2.684173583984375,-4.127197265625,2.07855224609375,1.0,1.0,1.0,1.0,1.0,95.0,event
11:37:14.894,1.2997969,1.0288885,0.6122819,1.5804234,0.8304152,0.23417634,0.021645034,0.9696928,0.5779841,0.21654834,0.02883034,0.7104908,0.6955013,0.5060968,0.103647985,0.93848825,0.5340382,0.14011832,-0.34021324,0.70341325,822.381,805.05493,809.89014,819.5604,792.5641,-0.07232666015625,0.06463623046875,0.98455810546875,2.684173583984375,-4.127197265625,2.07855224609375,1.0,1.0,1.0,1.0,1.0,95.0,event
11:37:14.895,1.2997969,1.0288885,0.6122819,1.5804234,0.8304152,0.23417634,0.021645034,0.9696928,0.5779841,0.21654834,0.02883034,0.7104908,0.6955013,0.5060968,0.103647985,0.93848825,0.5340382,0.14011832,-0.34021324,0.70341325,793.7729,811.50183,813.5165,794.57874,800.2198,-0.07232666015625,0.06463623046875,0.98455810546875,2.684173583984375,-4.127197265625,2.07855224609375,1.0,1.0,1.0,1.0,1.0,95.0,event
11:37:14.896,1.2997969,1.0288885,0.6122819,1.5804234,0.8304152,0.23417634,0.021645034,0.9696928,0.5779841,0.21654834,0.02883034,0.7104908,0.6955013,0.5060968,0.103647985,0.93848825,0.5340382,0.14011832,-0.34021324,0.70341325,774.0293,814.3223,811.9048,793.36993,849.7802,-0.07232666015625,0.06463623046875,0.98455810546875,2.684173583984375,-4.127197265625,2.07855224609375,1.0,1.0,1.0,1.0,1.0,95.0,event
11:37:14.896,1.2997969,1.0288885,0.6122819,1.5804234,0.8304152,0.23417634,0.021645034,0.9696928,0.5779841,0.21654834,0.02883034,0.7104908,0.6955013,0.5060968,0.103647985,0.93848825,0.5340382,0.14011832,-0.34021324,0.70341325,768.7912,813.1135,813.91943,784.5055,909.011,-0.07232666015625,0.06463623046875,0.98455810546875,2.684173583984375,-4.127197265625,2.07855224609375,1.0,1.0,1.0,1.0,1.0,95.0,event
11:37:14.897,1.2997969,1.0288885,0.6122819,1.5804234,0.8304152,0.23417634,0.021645034,0.9696928,0.5779841,0.21654834,0.02883034,0.7104908,0.6955013,0.5060968,0.103647985,0.93848825,0.5340382,0.14011832,-0.34021324,0.70341325,780.07324,799.41394,794.9817,786.9231,680.14655,-0.07232666015625,0.06463623046875,0.98455810546875,2.684173583984375,-4.127197265625,2.07855224609375,1.0,1.0,1.0,1.0,1.0,95.0,event
11:37:14.898,1.2997969,1.0288885,0.6122819,1.5804234,0.8304152,0.23417634,0.021645034,0.9696928,0.5779841,0.21654834,0.02883034,0.7104908,0.6955013,0.5060968,0.103647985,0.93848825,0.5340382,0.14011832,-0.34021324,0.70341325,773.22345,786.9231,793.7729,786.9231,730.5128,-0.07232666015625,0.06463623046875,0.98455810546875,2.684173583984375,-4.127197265625,2.07855224609375,1.0,1.0,1.0,1.0,1.0,95.0,event
11:37:14.898,1.2997969,1.0288885,0.6122819,1.5804234,0.8304152,0.23417634,0.021645034,0.9696928,0.5779841,0.21654834,0.02883034,0.7104908,0.6955013,0.5060968,0.103647985,0.93848825,0.5340382,0.14011832,-0.34021324,0.70341325,776.8498,803.44324,805.4579,788.1319,739.3773,-0.07232666015625,0.06463623046875,0.98455810546875,2.684173583984375,-4.127197265625,2.07855224609375,1.0,1.0,1.0,1.0,1.0,95.0,event
11:37:14.974,1.2997969,1.0288885,0.6122819,1.5804234,0.8304152,0.23417634,0.021645034,0.9696928,0.5779841,0.21654834,0.02883034,0.7104908,0.6955013,0.5060968,0.103647985,0.93848825,0.5340382,0.14011832,-0.34021324,0.70341325,780.87915,806.6667,809.89014,789.7436,634.21246,-0.07330322265625,0.05828857421875,0.982421875,1.712188720703125,-4.164581298828125,1.368255615234375,1.0,1.0,1.0,1.0,1.0,95.0,event
11:37:14.975,1.2997969,1.0288885,0.6122819,1.5804234,0.8304152,0.23417634,0.021645034,0.9696928,0.5779841,0.21654834,0.02883034,0.7104908,0.6955013,0.5060968,0.103647985,0.93848825,0.5340382,0.14011832,-0.34021324,0.70341325,797.8022,802.23444,804.65204,794.17584,653.1502,-0.07330322265625,0.05828857421875,0.982421875,1.712188720703125,-4.164581298828125,1.368255615234375,1.0,1.0,1.0,1.0,1.0,95.0,event
11:37:14.976,1.2997969,1.0288885,0.6122819,1.5804234,0.8304152,0.23417634,0.021645034,0.9696928,0.5779841,0.21654834,0.02883034,0.7104908,0.6955013,0.5060968,0.103647985,0.93848825,0.5340382,0.14011832,-0.34021324,0.70341325,808.2784,806.26373,808.2784,811.0989,774.0293,-0.07330322265625,0.05828857421875,0.982421875,1.712188720703125,-4.164581298828125,1.368255615234375,1.0,1.0,1.0,1.0,1.0,95.0,event
11:37:14.978,1.2997969,1.0288885,0.6122819,1.5804234,0.8304152,0.23417634,0.021645034,0.9696928,0.5779841,0.21654834,0.02883034,0.7104908,0.6955013,0.5060968,0.103647985,0.93848825,0.5340382,0.14011832,-0.34021324,0.70341325,787.72894,809.4872,807.0696,810.293,892.0879,-0.07330322265625,0.05828857421875,0.982421875,1.712188720703125,-4.164581298828125,1.368255615234375,1.0,1.0,1.0,1.0,1.0,95.0,event
11:37:14.979,1.2997969,1.0288885,0.6122819,1.5804234,0.8304152,0.23417634,0.021645034,0.9696928,0.5779841,0.21654834,0.02883034,0.7104908,0.6955013,0.5060968,0.103647985,0.93848825,0.5340382,0.14011832,-0.34021324,0.70341325,776.04395,808.2784,803.44324,800.2198,824.7985,-0.07330322265625,0.05828857421875,0.982421875,1.712188720703125,-4.164581298828125,1.368255615234375,1.0,1.0,1.0,1.0,1.0,95.0,event
11:37:14.980,1.2997969,1.0288885,0.6122819,1.5804234,0.8304152,0.23417634,0.021645034,0.9696928,0.5779841,0.21654834,0.02883034,0.7104908,0.6955013,0.5060968,0.103647985,0.93848825,0.5340382,0.14011832,-0.34021324,0.70341325,778.46155,808.68134,809.4872,797.3993,790.14655,-0.07330322265625,0.05828857421875,0.982421875,1.712188720703125,-4.164581298828125,1.368255615234375,1.0,1.0,1.0,1.0,1.0,95.0,event
11:37:14.981,1.2997969,1.0288885,0.6122819,1.5804234,0.8304152,0.23417634,0.021645034,0.9696928,0.5779841,0.21654834,0.02883034,0.7104908,0.6955013,0.5060968,0.103647985,0.93848825,0.5340382,0.14011832,-0.34021324,0.70341325,785.31134,806.6667,807.8755,796.1905,894.10254,-0.07330322265625,0.05828857421875,0.982421875,1.712188720703125,-4.164581298828125,1.368255615234375,1.0,1.0,1.0,1.0,1.0,95.0,event
11:37:14.982,1.2997969,1.0288885,0.6122819,1.5804234,0.8304152,0.23417634,0.021645034,0.9696928,0.5779841,0.21654834,0.02883034,0.7104908,0.6955013,0.5060968,0.103647985,0.93848825,0.5340382,0.14011832,-0.34021324,0.70341325,799.011,805.05493,798.60803,815.9341,1114.9084,-0.07330322265625,0.05828857421875,0.982421875,1.712188720703125,-4.164581298828125,1.368255615234375,1.0,1.0,1.0,1.0,1.0,95.0,event
11:37:14.983,1.2997969,1.0288885,0.6122819,1.5804234,0.8304152,0.23417634,0.021645034,0.9696928,0.5779841,0.21654834,0.02883034,0.7104908,0.6955013,0.5060968,0.103647985,0.93848825,0.5340382,0.14011832,-0.34021324,0.70341325,802.23444,817.9487,802.23444,818.3516,947.6923,-0.07330322265625,0.05828857421875,0.982421875,1.712188720703125,-4.164581298828125,1.368255615234375,1.0,1.0,1.0,1.0,1.0,95.0,event
11:37:14.984,1.2997969,1.0288885,0.6122819,1.5804234,0.8304152,0.23417634,0.021645034,0.9696928,0.5779841,0.21654834,0.02883034,0.7104908,0.6955013,0.5060968,0.103647985,0.93848825,0.5340382,0.14011832,-0.34021324,0.70341325,790.54944,807.0696,800.2198,803.44324,702.71063,-0.07330322265625,0.05828857421875,0.982421875,1.712188720703125,-4.164581298828125,1.368255615234375,1.0,1.0,1.0,1.0,1.0,95.0,event
11:37:14.986,1.2997969,1.0288885,0.6122819,1.5804234,0.8304152,0.23417634,0.021645034,0.9696928,0.5779841,0.21654834,0.02883034,0.7104908,0.6955013,0.5060968,0.103647985,0.93848825,0.5340382,0.14011832,-0.34021324,0.70341325,784.5055,789.7436,797.3993,798.60803,756.7033,-0.07330322265625,0.05828857421875,0.982421875,1.712188720703125,-4.164581298828125,1.368255615234375,1.0,1.0,1.0,1.0,1.0,95.0,event
11:37:14.988,1.2997969,1.0288885,0.6122819,1.5804234,0.8304152,0.23417634,0.021645034,0.9696928,0.5779841,0.21654834,0.02883034,0.7104908,0.6955013,0.5060968,0.103647985,0.93848825,0.5340382,0.14011832,-0.34021324,0.70341325,799.81683,803.0403,803.0403,809.89014,748.6447,-0.07330322265625,0.05828857421875,0.982421875,1.712188720703125,-4.164581298828125,1.368255615234375,1.0,1.0,1.0,1.0,1.0,95.0,event
11:37:15.009,1.2997969,1.0288885,0.6122819,1.5804234,0.8304152,0.23417634,0.021645034,0.9696928,0.5779841,0.21654834,0.02883034,0.7104908,0.6955013,0.5060968,0.103647985,0.93848825,0.5340382,0.14011832,-0.34021324,0.70341325,815.9341,810.293,806.26373,824.7985,682.96704,-0.07330322265625,0.05828857421875,0.982421875,1.712188720703125,-4.164581298828125,1.368255615234375,1.0,1.0,1.0,1.0,1.0,95.0,event
11:37:15.010,1.2997969,1.0288885,0.5889456,1.5804234,0.8304152,0.23417634,0.12374473,0.9696928,0.5779841,0.21654834,0.037676226,0.7104908,0.6955013,0.5060968,0.107834764,0.93848825,0.5340382,0.14011832,-0.33819714,0.70341325,810.696,801.8315,805.4579,816.337,702.71063,-0.07330322265625,0.05828857421875,0.982421875,1.712188720703125,-4.164581298828125,1.368255615234375,1.0,1.0,1.0,1.0,1.0,95.0,event
11:37:15.013,1.2997969,1.0288885,0.5889456,1.5804234,0.8304152,0.23417634,0.12374473,0.9696928,0.5779841,0.21654834,0.037676226,0.7104908,0.6955013,0.5060968,0.107834764,0.93848825,0.5340382,0.14011832,-0.33819714,0.70341325,799.81683,804.65204,803.8461,805.8608,805.8608,-0.07330322265625,0.05828857421875,0.982421875,1.712188720703125,-4.164581298828125,1.368255615234375,1.0,1.0,1.0,1.0,1.0,95.0,event
11:37:15.014,1.2997969,1.0288885,0.5889456,1.5804234,0.8304152,0.23417634,0.12374473,0.9696928,0.5779841,0.21654834,0.037676226,0.7104908,0.6955013,0.5060968,0.107834764,0.93848825,0.5340382,0.14011832,-0.33819714,0.70341325,798.60803,812.3077,809.0842,810.293,770.80585,-0.07330322265625,0.05828857421875,0.982421875,1.712188720703125,-4.164581298828125,1.368255615234375,1.0,1.0,1.0,1.0,1.0,95.0,event
11:37:15.015,1.2997969,1.0288885,0.5889456,1.5804234,0.8304152,0.23417634,0.12374473,0.9696928,0.5779841,0.21654834,0.037676226,0.7104908,0.6955013,0.5060968,0.107834764,0.93848825,0.5340382,0.14011832,-0.33819714,0.70341325,811.9048,803.44324,804.2491,808.68134,819.15753,-0.07330322265625,0.05828857421875,0.982421875,1.712188720703125,-4.164581298828125,1.368255615234375,1.0,1.0,1.0,1.0,1.0,95.0,event
11:37:15.015,1.2997969,1.0288885,0.5889456,1.5804234,0.8304152,0.23417634,0.12374473,0.9696928,0.5779841,0.21654834,0.037676226,0.7104908,0.6955013,0.5060968,0.107834764,0.93848825,0.5340382,0.14011832,-0.33819714,0.70341325,803.8461,814.7253,816.7399,813.5165,735.34796,-0.07330322265625,0.05828857421875,0.982421875,1.712188720703125,-4.164581298828125,1.368255615234375,1.0,1.0,1.0,1.0,1.0,95.0,event
11:37:15.016,1.2997969,1.0288885,0.5889456,1.5804234,0.8304152,0.23417634,0.12374473,0.9696928,0.5779841,0.21654834,0.037676226,0.7104908,0.6955013,0.5060968,0.107834764,0.93848825,0.5340382,0.14011832,-0.33819714,0.70341325,809.4872,800.2198,797.3993,814.7253,1058.9011,-0.07330322265625,0.05828857421875,0.982421875,1.712188720703125,-4.164581298828125,1.368255615234375,1.0,1.0,1.0,1.0,1.0,95.0,event
11:37:15.017,1.2997969,1.0288885,0.5889456,1.5804234,0.8304152,0.23417634,0.12374473,0.9696928,0.5779841,0.21654834,0.037676226,0.7104908,0.6955013,0.5060968,0.107834764,0.93848825,0.5340382,0.14011832,-0.33819714,0.70341325,790.54944,812.3077,801.02563,813.1135,1103.2234,-0.07330322265625,0.05828857421875,0.982421875,1.712188720703125,-4.164581298828125,1.368255615234375,1.0,1.0,1.0,1.0,1.0,95.0,event
