TimeStamp,Delta_TP9,Delta_AF7,Delta_AF8,Delta_TP10,Theta_TP9,Theta_AF7,Theta_AF8,Theta_TP10,Alpha_TP9,Alpha_AF7,Alpha_AF8,Alpha_TP10,Beta_TP9,Beta_AF7,Beta_AF8,Beta_TP10,Gamma_TP9,Gamma_AF7,Gamma_AF8,Gamma_TP10,RAW_TP9,RAW_AF7,RAW_AF8,RAW_TP10,AUX_RIGHT,Accelerometer_X,Accelerometer_Y,Accelerometer_Z,Gyro_X,Gyro_Y,Gyro_Z,HeadBandOn,HSI_TP9,HSI_AF7,HSI_AF8,HSI_TP10,Battery,Elements
09:27:31.842,1.0468962,0.6613333,0.20903572,0.6237854,0.59747976,0.19642664,-0.2661362,0.099162854,0.6164455,0.100255005,0.25396028,0.52749354,0.5918182,0.12396284,0.14885513,0.66193604,0.08222063,-0.19970979,-0.13662228,0.18841144,830.84247,799.81683,804.65204,803.8461,742.6007,-0.03192138671875,0.090576171875,0.9833984375,1.607513427734375,-3.349609375,0.16448974609375,1.0,1.0,1.0,1.0,1.0,85.0,event
09:27:31.845,1.0468962,0.6613333,0.20903572,0.6237854,0.59747976,0.19642664,-0.2661362,0.099162854,0.6164455,0.100255005,0.25396028,0.52749354,0.5918182,0.12396284,0.14885513,0.66193604,0.08222063,-0.19970979,-0.13662228,0.18841144,830.4396,792.1612,804.65204,796.1905,887.6557,-0.03192138671875,0.090576171875,0.9833984375,1.607513427734375,-3.349609375,0.16448974609375,1.0,1.0,1.0,1.0,1.0,85.0,event
09:27:31.847,1.0468962,0.6613333,0.20903572,0.6237854,0.59747976,0.19642664,-0.2661362,0.099162854,0.6164455,0.100255005,0.25396028,0.52749354,0.5918182,0.12396284,0.14885513,0.66193604,0.08222063,-0.19970979,-0.13662228,0.18841144,845.34796,796.5934,798.60803,808.2784,818.3516,-0.03192138671875,0.090576171875,0.9833984375,1.607513427734375,-3.349609375,0.16448974609375,1.0,1.0,1.0,1.0,1.0,85.0,event
09:27:31.848,1.0468962,0.6613333,0.20903572,0.6237854,0.59747976,0.19642664,-0.2661362,0.099162854,0.6164455,0.100255005,0.25396028,0.52749354,0.5918182,0.12396284,0.14885513,0.66193604,0.08222063,-0.19970979,-0.13662228,0.18841144,842.9304,797.8022,794.57874,809.0842,759.12085,-0.03192138671875,0.090576171875,0.9833984375,1.607513427734375,-3.349609375,0.16448974609375,1.0,1.0,1.0,1.0,1.0,85.0,event
09:27:31.849,1.0468962,0.6613333,0.20903572,0.6237854,0.59747976,0.19642664,-0.2661362,0.099162854,0.6164455,0.100255005,0.25396028,0.52749354,0.5918182,0.12396284,0.14885513,0.66193604,0.08222063,-0.19970979,-0.13662228,0.18841144,829.2308,791.75824,799.011,807.8755,778.0586,-0.03192138671875,0.090576171875,0.9833984375,1.607513427734375,-3.349609375,0.16448974609375,1.0,1.0,1.0,1.0,1.0,85.0,event
09:27:31.851,1.0468962,0.6613333,0.20903572,0.6237854,0.59747976,0.19642664,-0.2661362,0.099162854,0.6164455,0.100255005,0.25396028,0.52749354,0.5918182,0.12396284,0.14885513,0.66193604,0.08222063,-0.19970979,-0.13662228,0.18841144,832.4542,793.36993,807.47253,815.5311,778.0586,-0.03192138671875,0.090576171875,0.9833984375,1.607513427734375,-3.349609375,0.16448974609375,1.0,1.0,1.0,1.0,1.0,85.0,event
09:27:31.852,1.0468962,0.6613333,0.20903572,0.6237854,0.59747976,0.19642664,-0.2661362,0.099162854,0.6164455,0.100255005,0.25396028,0.52749354,0.5918182,0.12396284,0.14885513,0.66193604,0.08222063,-0.19970979,-0.13662228,0.18841144,836.4835,792.96704,805.8608,805.8608,767.1795,-0.03192138671875,0.090576171875,0.9833984375,1.607513427734375,-3.349609375,0.16448974609375,1.0,1.0,1.0,1.0,1.0,85.0,event
09:27:31.853,1.0468962,0.6613333,0.20903572,0.6237854,0.59747976,0.19642664,-0.2661362,0.099162854,0.6164455,0.100255005,0.25396028,0.52749354,0.5918182,0.12396284,0.14885513,0.66193604,0.08222063,-0.19970979,-0.13662228,0.18841144,833.663,797.3993,799.41394,801.02563,697.0696,-0.03192138671875,0.090576171875,0.9833984375,1.607513427734375,-3.349609375,0.16448974609375,1.0,1.0,1.0,1.0,1.0,85.0,event
09:27:31.853,1.0468962,0.6613333,0.20903572,0.6237854,0.59747976,0.19642664,-0.2661362,0.099162854,0.6164455,0.100255005,0.25396028,0.52749354,0.5918182,0.12396284,0.14885513,0.66193604,0.08222063,-0.19970979,-0.13662228,0.18841144,836.4835,801.4286,797.3993,814.3223,715.6044,-0.03192138671875,0.090576171875,0.9833984375,1.607513427734375,-3.349609375,0.16448974609375,1.0,1.0,1.0,1.0,1.0,85.0,event
09:27:31.854,1.0468962,0.6613333,0.20903572,0.6237854,0.59747976,0.19642664,-0.2661362,0.099162854,0.6164455,0.100255005,0.25396028,0.52749354,0.5918182,0.12396284,0.14885513,0.66193604,0.08222063,-0.19970979,-0.13662228,0.18841144,833.663,799.011,797.3993,821.5751,906.5934,-0.03192138671875,0.090576171875,0.9833984375,1.607513427734375,-3.349609375,0.16448974609375,1.0,1.0,1.0,1.0,1.0,85.0,event
09:27:31.854,1.0468962,0.6613333,0.20903572,0.6237854,0.59747976,0.19642664,-0.2661362,0.099162854,0.6164455,0.100255005,0.25396028,0.52749354,0.5918182,0.12396284,0.14885513,0.66193604,0.08222063,-0.19970979,-0.13662228,0.18841144,827.619,803.44324,800.6227,813.91943,812.71063,-0.03192138671875,0.090576171875,0.9833984375,1.607513427734375,-3.349609375,0.16448974609375,1.0,1.0,1.0,1.0,1.0,85.0,event
09:27:31.855,1.0468962,0.6613333,0.20903572,0.6237854,0.59747976,0.19642664,-0.2661362,0.099162854,0.6164455,0.100255005,0.25396028,0.52749354,0.5918182,0.12396284,0.14885513,0.66193604,0.08222063,-0.19970979,-0.13662228,0.18841144,827.619,802.6374,803.0403,803.44324,651.53845,-0.03192138671875,0.090576171875,0.9833984375,1.607513427734375,-3.349609375,0.16448974609375,1.0,1.0,1.0,1.0,1.0,85.0,event
09:27:31.917,1.0468962,0.6613333,0.20903572,0.6237854,0.59747976,0.19642664,-0.2661362,0.099162854,0.6164455,0.100255005,0.25396028,0.52749354,0.5918182,0.12396284,0.14885513,0.66193604,0.08222063,-0.19970979,-0.13662228,0.18841144,829.2308,801.02563,799.41394,807.47253,743.4066,-0.03192138671875,0.090576171875,0.9833984375,1.607513427734375,-3.349609375,0.16448974609375,1.0,1.0,1.0,1.0,1.0,85.0,event
09:27:31.919,1.0468962,0.6613333,0.20903572,0.6237854,0.59747976,0.19642664,-0.2661362,0.099162854,0.6164455,0.100255005,0.25396028,0.52749354,0.5918182,0.12396284,0.14885513,0.66193604,0.08222063,-0.19970979,-0.13662228,0.18841144,830.4396,811.9048,809.4872,819.5604,729.304,-0.03192138671875,0.090576171875,0.9833984375,1.607513427734375,-3.349609375,0.16448974609375,1.0,1.0,1.0,1.0,1.0,85.0,event
09:27:31.919,1.0468962,0.6613333,0.20903572,0.6237854,0.59747976,0.19642664,-0.2661362,0.099162854,0.6164455,0.100255005,0.25396028,0.52749354,0.5918182,0.12396284,0.14885513,0.66193604,0.08222063,-0.19970979,-0.13662228,0.18841144,835.6777,812.71063,805.4579,822.7839,764.7619,-0.03192138671875,0.090576171875,0.9833984375,1.607513427734375,-3.349609375,0.16448974609375,1.0,1.0,1.0,1.0,1.0,85.0,event
09:27:31.920,1.0468962,0.6613333,0.20903572,0.6237854,0.59747976,0.19642664,-0.2661362,0.099162854,0.6164455,0.100255005,0.25396028,0.52749354,0.5918182,0.12396284,0.14885513,0.66193604,0.08222063,-0.19970979,-0.13662228,0.18841144,817.9487,803.44324,804.2491,795.38464,708.7546,-0.03192138671875,0.090576171875,0.9833984375,1.607513427734375,-3.349609375,0.16448974609375,1.0,1.0,1.0,1.0,1.0,85.0,event
09:27:31.921,1.0468962,0.6613333,0.20903572,0.6237854,0.59747976,0.19642664,-0.2661362,0.099162854,0.6164455,0.100255005,0.25396028,0.52749354,0.5918182,0.12396284,0.14885513,0.66193604,0.08222063,-0.19970979,-0.13662228,0.18841144,820.7692,807.8755,809.0842,792.1612,872.3443,-0.03192138671875,0.090576171875,0.9833984375,1.607513427734375,-3.349609375,0.16448974609375,1.0,1.0,1.0,1.0,1.0,85.0,event
09:27:31.921,1.0468962,0.73960567,0.22391534,0.6897874,0.59747976,0.2780089,-0.22205855,0.13455556,0.6164455,0.10294347,0.25396028,0.52749354,0.5918182,0.1282925,0.16011561,0.6410809,0.08222063,-0.2090907,-0.13174227,0.187474,822.381,811.0989,809.4872,799.41394,969.85345,-0.03192138671875,0.090576171875,0.9833984375,1.607513427734375,-3.349609375,0.16448974609375,1.0,1.0,1.0,1.0,1.0,85.0,event
09:27:31.926,1.0468962,0.73960567,0.22391534,0.6897874,0.59747976,0.2780089,-0.22205855,0.13455556,0.6164455,0.10294347,0.25396028,0.52749354,0.5918182,0.1282925,0.16011561,0.6410809,0.08222063,-0.2090907,-0.13174227,0.187474,807.47253,803.8461,807.47253,789.7436,851.39197,-0.03192138671875,0.090576171875,0.9833984375,1.607513427734375,-3.349609375,0.16448974609375,1.0,1.0,1.0,1.0,1.0,85.0,event
09:27:31.927,1.0468962,0.73960567,0.22391534,0.6897874,0.59747976,0.2780089,-0.22205855,0.13455556,0.6164455,0.10294347,0.25396028,0.52749354,0.5918182,0.1282925,0.16011561,0.6410809,0.08222063,-0.2090907,-0.13174227,0.187474,794.57874,805.8608,805.05493,773.6264,768.3883,-0.03192138671875,0.090576171875,0.9833984375,1.607513427734375,-3.349609375,0.16448974609375,1.0,1.0,1.0,1.0,1.0,85.0,event
09:27:31.927,1.0468962,0.73960567,0.22391534,0.6897874,0.59747976,0.2780089,-0.22205855,0.13455556,0.6164455,0.10294347,0.25396028,0.52749354,0.5918182,0.1282925,0.16011561,0.6410809,0.08222063,-0.2090907,-0.13174227,0.187474,784.90845,808.2784,806.6667,765.16486,870.32965,-0.03192138671875,0.090576171875,0.9833984375,1.607513427734375,-3.349609375,0.16448974609375,1.0,1.0,1.0,1.0,1.0,85.0,event
09:27:31.928,1.0468962,0.73960567,0.22391534,0.6897874,0.59747976,0.2780089,-0.22205855,0.13455556,0.6164455,0.10294347,0.25396028,0.52749354,0.5918182,0.1282925,0.16011561,0.6410809,0.08222063,-0.2090907,-0.13174227,0.187474,764.7619,804.2491,809.0842,750.65936,953.73627,-0.03192138671875,0.090576171875,0.9833984375,1.607513427734375,-3.349609375,0.16448974609375,1.0,1.0,1.0,1.0,1.0,85.0,event
09:27:31.929,1.0468962,0.73960567,0.22391534,0.6897874,0.59747976,0.2780089,-0.22205855,0.13455556,0.6164455,0.10294347,0.25396028,0.52749354,0.5918182,0.1282925,0.16011561,0.6410809,0.08222063,-0.2090907,-0.13174227,0.187474,730.9158,805.8608,808.68134,719.2308,825.6044,-0.03192138671875,0.090576171875,0.9833984375,1.607513427734375,-3.349609375,0.16448974609375,1.0,1.0,1.0,1.0,1.0,85.0,event
09:27:31.929,1.0468962,0.73960567,0.22391534,0.6897874,0.59747976,0.2780089,-0.22205855,0.13455556,0.6164455,0.10294347,0.25396028,0.52749354,0.5918182,0.1282925,0.16011561,0.6410809,0.08222063,-0.2090907,-0.13174227,0.187474,750.65936,805.05493,812.71063,735.34796,807.0696,-0.03192138671875,0.090576171875,0.9833984375,1.607513427734375,-3.349609375,0.16448974609375,1.0,1.0,1.0,1.0,1.0,85.0,event
09:27:31.957,1.0468962,0.73960567,0.22391534,0.6897874,0.59747976,0.2780089,-0.22205855,0.13455556,0.6164455,0.10294347,0.25396028,0.52749354,0.5918182,0.1282925,0.16011561,0.6410809,0.08222063,-0.2090907,-0.13174227,0.187474,703.1135,805.8608,800.6227,680.14655,783.69965,-0.042724609375,0.0850830078125,0.97784423828125,1.95892333984375,-3.207550048828125,-0.01495361328125,1.0,1.0,1.0,1.0,1.0,85.0,event
09:27:31.958,1.0468962,0.73960567,0.22391534,0.6897874,0.59747976,0.2780089,-0.22205855,0.13455556,0.6164455,0.10294347,0.25396028,0.52749354,0.5918182,0.1282925,0.16011561,0.6410809,0.08222063,-0.2090907,-0.13174227,0.187474,682.96704,812.3077,803.44324,657.98535,753.8828,-0.042724609375,0.0850830078125,0.97784423828125,1.95892333984375,-3.207550048828125,-0.01495361328125,1.0,1.0,1.0,1.0,1.0,85.0,event
09:27:31.959,1.0468962,0.73960567,0.22391534,0.6897874,0.59747976,0.2780089,-0.22205855,0.13455556,0.6164455,0.10294347,0.25396028,0.52749354,0.5918182,0.1282925,0.16011561,0.6410809,0.08222063,-0.2090907,-0.13174227,0.187474,669.67035,814.7253,805.4579,645.09155,726.8865,-0.042724609375,0.0850830078125,0.97784423828125,1.95892333984375,-3.207550048828125,-0.01495361328125,1.0,1.0,1.0,1.0,1.0,85.0,event
09:27:31.960,1.0468962,0.73960567,0.22391534,0.6897874,0.59747976,0.2780089,-0.22205855,0.13455556,0.6164455,0.10294347,0.25396028,0.52749354,0.5918182,0.1282925,0.16011561,0.6410809,0.08222063,-0.2090907,-0.13174227,0.187474,665.2381,813.5165,805.8608,639.85345,709.15753,-0.042724609375,0.0850830078125,0.97784423828125,1.95892333984375,-3.207550048828125,-0.01495361328125,1.0,1.0,1.0,1.0,1.0,85.0,event
09:27:31.961,1.0468962,0.73960567,0.22391534,0.6897874,0.59747976,0.2780089,-0.22205855,0.13455556,0.6164455,0.10294347,0.25396028,0.52749354,0.5918182,0.1282925,0.16011561,0.6410809,0.08222063,-0.2090907,-0.13174227,0.187474,678.5348,819.15753,805.8608,660.80585,792.5641,-0.042724609375,0.0850830078125,0.97784423828125,1.95892333984375,-3.207550048828125,-0.01495361328125,1.0,1.0,1.0,1.0,1.0,85.0,event
09:27:31.961,1.0468962,0.73960567,0.22391534,0.6897874,0.59747976,0.2780089,-0.22205855,0.13455556,0.6164455,0.10294347,0.25396028,0.52749354,0.5918182,0.1282925,0.16011561,0.6410809,0.08222063,-0.2090907,-0.13174227,0.187474,695.05493,821.1722,808.68134,679.34064,857.4359,-0.042724609375,0.0850830078125,0.97784423828125,1.95892333984375,-3.207550048828125,-0.01495361328125,1.0,1.0,1.0,1.0,1.0,85.0,event
09:27:31.962,1.0468962,0.73960567,0.22391534,0.6897874,0.59747976,0.2780089,-0.22205855,0.13455556,0.6164455,0.10294347,0.25396028,0.52749354,0.5918182,0.1282925,0.16011561,0.6410809,0.08222063,-0.2090907,-0.13174227,0.187474,694.65204,815.5311,811.0989,675.31134,853.4066,-0.042724609375,0.0850830078125,0.97784423828125,1.95892333984375,-3.207550048828125,-0.01495361328125,1.0,1.0,1.0,1.0,1.0,85.0,event
09:27:31.963,1.0468962,0.73960567,0.22391534,0.6897874,0.59747976,0.2780089,-0.22205855,0.13455556,0.6164455,0.10294347,0.25396028,0.52749354,0.5918182,0.1282925,0.16011561,0.6410809,0.08222063,-0.2090907,-0.13174227,0.187474,714.7985,819.5604,811.0989,689.011,945.2747,-0.042724609375,0.0850830078125,0.97784423828125,1.95892333984375,-3.207550048828125,-0.01495361328125,1.0,1.0,1.0,1.0,1.0,85.0,event
09:27:31.963,1.0468962,0.73960567,0.22391534,0.6897874,0.59747976,0.2780089,-0.22205855,0.13455556,0.6164455,0.10294347,0.25396028,0.52749354,0.5918182,0.1282925,0.16011561,0.6410809,0.08222063,-0.2090907,-0.13174227,0.187474,698.2784,814.7253,811.50183,673.69965,800.6227,-0.042724609375,0.0850830078125,0.97784423828125,1.95892333984375,-3.207550048828125,-0.01495361328125,1.0,1.0,1.0,1.0,1.0,85.0,event
09:27:31.964,1.0468962,0.73960567,0.22391534,0.6897874,0.59747976,0.2780089,-0.22205855,0.13455556,0.6164455,0.10294347,0.25396028,0.52749354,0.5918182,0.1282925,0.16011561,0.6410809,0.08222063,-0.2090907,-0.13174227,0.187474,726.08057,812.71063,812.71063,701.0989,938.8278,-0.042724609375,0.0850830078125,0.97784423828125,1.95892333984375,-3.207550048828125,-0.01495361328125,1.0,1.0,1.0,1.0,1.0,85.0,event
09:27:31.964,1.0468962,0.73960567,0.22391534,0.6897874,0.59747976,0.2780089,-0.22205855,0.13455556,0.6164455,0.10294347,0.25396028,0.52749354,0.5918182,0.1282925,0.16011561,0.6410809,0.08222063,-0.2090907,-0.13174227,0.187474,735.34796,804.65204,811.50183,697.47253,729.707,-0.042724609375,0.0850830078125,0.97784423828125,1.95892333984375,-3.207550048828125,-0.01495361328125,1.0,1.0,1.0,1.0,1.0,85.0,event
09:27:31.965,1.0468962,0.73960567,0.22391534,0.6897874,0.59747976,0.2780089,-0.22205855,0.13455556,0.6164455,0.10294347,0.25396028,0.52749354,0.5918182,0.1282925,0.16011561,0.6410809,0.08222063,-0.2090907,-0.13174227,0.187474,743.8095,809.4872,803.8461,702.71063,790.54944,-0.042724609375,0.0850830078125,0.97784423828125,1.95892333984375,-3.207550048828125,-0.01495361328125,1.0,1.0,1.0,1.0,1.0,85.0,event
09:27:32.004,1.0468962,0.73960567,0.22391534,0.6897874,0.59747976,0.2780089,-0.22205855,0.13455556,0.6164455,0.10294347,0.25396028,0.52749354,0.5918182,0.1282925,0.16011561,0.6410809,0.08222063,-0.2090907,-0.13174227,0.187474,751.4652,812.3077,805.8608,726.08057,911.02563,-0.0380859375,0.08758544921875,0.9881591796875,2.474822998046875,-3.90289306640625,0.560760498046875,1.0,1.0,1.0,1.0,1.0,85.0,event
09:27:32.006,1.0468962,0.73960567,0.22391534,0.6897874,0.59747976,0.2780089,-0.22205855,0.13455556,0.6164455,0.10294347,0.25396028,0.52749354,0.5918182,0.1282925,0.16011561,0.6410809,0.08222063,-0.2090907,-0.13174227,0.187474,761.9414,799.81683,811.0989,738.97437,792.1612,-0.0380859375,0.08758544921875,0.9881591796875,2.474822998046875,-3.90289306640625,0.560760498046875,1.0,1.0,1.0,1.0,1.0,85.0,event
09:27:32.007,1.0468962,0.73960567,0.22391534,0.6897874,0.59747976,0.2780089,-0.22205855,0.13455556,0.6164455,0.10294347,0.25396028,0.52749354,0.5918182,0.1282925,0.16011561,0.6410809,0.08222063,-0.2090907,-0.13174227,0.187474,773.6264,795.78754,805.05493,755.09155,695.05493,-0.0380859375,0.08758544921875,0.9881591796875,2.474822998046875,-3.90289306640625,0.560760498046875,1.0,1.0,1.0,1.0,1.0,85.0,event
09:27:32.009,1.0468962,0.73960567,0.22391534,0.6897874,0.59747976,0.2780089,-0.22205855,0.13455556,0.6164455,0.10294347,0.25396028,0.52749354,0.5918182,0.1282925,0.16011561,0.6410809,0.08222063,-0.2090907,-0.13174227,0.187474,790.54944,804.2491,798.60803,767.98535,739.7802,-0.0380859375,0.08758544921875,0.9881591796875,2.474822998046875,-3.90289306640625,0.560760498046875,1.0,1.0,1.0,1.0,1.0,85.0,event
09:27:32.011,1.0468962,0.73960567,0.22391534,0.6897874,0.59747976,0.2780089,-0.22205855,0.13455556,0.6164455,0.10294347,0.25396028,0.52749354,0.5918182,0.1282925,0.16011561,0.6410809,0.08222063,-0.2090907,-0.13174227,0.187474,803.44324,808.2784,799.81683,782.0879,718.022,-0.0380859375,0.08758544921875,0.9881591796875,2.474822998046875,-3.90289306640625,0.560760498046875,1.0,1.0,1.0,1.0,1.0,85.0,event
09:27:32.012,1.0468962,0.73960567,0.22391534,0.6897874,0.59747976,0.2780089,-0.22205855,0.13455556,0.6164455,0.10294347,0.25396028,0.52749354,0.5918182,0.1282925,0.16011561,0.6410809,0.08222063,-0.2090907,-0.13174227,0.187474,809.89014,807.0696,801.02563,792.5641,759.92676,-0.0380859375,0.08758544921875,0.9881591796875,2.474822998046875,-3.90289306640625,0.560760498046875,1.0,1.0,1.0,1.0,1.0,85.0,event
09:27:32.013,1.0468962,0.73960567,0.22391534,0.6897874,0.59747976,0.2780089,-0.22205855,0.13455556,0.6164455,0.10294347,0.25396028,0.52749354,0.5918182,0.1282925,0.16011561,0.6410809,0.08222063,-0.2090907,-0.13174227,0.187474,817.1429,800.2198,801.8315,791.3553,799.41394,-0.0380859375,0.08758544921875,0.9881591796875,2.474822998046875,-3.90289306640625,0.560760498046875,1.0,1.0,1.0,1.0,1.0,85.0,event
09:27:32.015,1.0468962,0.7796645,0.22607973,0.6897874,0.59747976,0.32399222,-0.1865914,0.13455556,0.6164455,0.10294347,0.25396028,0.52749354,0.5918182,0.1202774,0.16645874,0.6410809,0.08222063,-0.21877922,-0.13125704,0.187474,826.4103,801.4286,803.44324,808.68134,877.5824,-0.0380859375,0.08758544921875,0.9881591796875,2.474822998046875,-3.90289306640625,0.560760498046875,1.0,1.0,1.0,1.0,1.0,85.0,event
09:27:32.018,,,,,,,,,,,,,,,,,,,,,,,,,,,,,,,,,,,,,,blink
09:27:32.019,1.0468962,0.7796645,0.22607973,0.6897874,0.59747976,0.32399222,-0.1865914,0.13455556,0.6164455,0.10294347,0.25396028,0.52749354,0.5918182,0.1202774,0.16645874,0.6410809,0.08222063,-0.21877922,-0.13125704,0.187474,832.8571,805.8608,805.4579,833.663,1071.392,-0.0380859375,0.08758544921875,0.9881591796875,2.474822998046875,-3.90289306640625,0.560760498046875,1.0,1.0,1.0,1.0,1.0,85.0,event
09:27:32.020,1.0468962,0.7796645,0.22607973,0.6897874,0.59747976,0.32399222,-0.1865914,0.13455556,0.6164455,0.10294347,0.25396028,0.52749354,0.5918182,0.1202774,0.16645874,0.6410809,0.08222063,-0.21877922,-0.13125704,0.187474,840.5128,803.8461,805.8608,828.022,875.16486,-0.0380859375,0.08758544921875,0.9881591796875,2.474822998046875,-3.90289306640625,0.560760498046875,1.0,1.0,1.0,1.0,1.0,85.0,event
09:27:32.020,1.0468962,0.7796645,0.22607973,0.6897874,0.59747976,0.32399222,-0.1865914,0.13455556,0.6164455,0.10294347,0.25396028,0.52749354,0.5918182,0.1202774,0.16645874,0.6410809,0.08222063,-0.21877922,-0.13125704,0.187474,853.00366,798.20514,801.8315,817.9487,747.8388,-0.0380859375,0.08758544921875,0.9881591796875,2.474822998046875,-3.90289306640625,0.560760498046875,1.0,1.0,1.0,1.0,1.0,85.0,event
09:27:32.021,1.0468962,0.7796645,0.22607973,0.6897874,0.59747976,0.32399222,-0.1865914,0.13455556,0.6164455,0.10294347,0.25396028,0.52749354,0.5918182,0.1202774,0.16645874,0.6410809,0.08222063,-0.21877922,-0.13125704,0.187474,844.1392,792.1612,803.0403,826.4103,858.24176,-0.0380859375,0.08758544921875,0.9881591796875,2.474822998046875,-3.90289306640625,0.560760498046875,1.0,1.0,1.0,1.0,1.0,85.0,event
09:27:32.049,1.0468962,0.7796645,0.22607973,0.6897874,0.59747976,0.32399222,-0.1865914,0.13455556,0.6164455,0.10294347,0.25396028,0.52749354,0.5918182,0.1202774,0.16645874,0.6410809,0.08222063,-0.21877922,-0.13125704,0.187474,839.304,796.99634,794.9817,831.2454,793.36993,-0.0379638671875,0.0875244140625,0.9815673828125,1.65985107421875,-3.39447021484375,0.91217041015625,1.0,1.0,1.0,1.0,1.0,85.0,event
09:27:32.050,1.0468962,0.7796645,0.22607973,0.6897874,0.59747976,0.32399222,-0.1865914,0.13455556,0.6164455,0.10294347,0.25396028,0.52749354,0.5918182,0.1202774,0.16645874,0.6410809,0.08222063,-0.21877922,-0.13125704,0.187474,855.82416,805.4579,793.7729,840.9158,709.5604,-0.0379638671875,0.0875244140625,0.9815673828125,1.65985107421875,-3.39447021484375,0.91217041015625,1.0,1.0,1.0,1.0,1.0,85.0,event
09:27:32.050,1.0468962,0.7796645,0.22607973,0.6897874,0.59747976,0.32399222,-0.1865914,0.13455556,0.6164455,0.10294347,0.25396028,0.52749354,0.5918182,0.1202774,0.16645874,0.6410809,0.08222063,-0.21877922,-0.13125704,0.187474,853.8095,803.8461,812.71063,844.5421,709.5604,-0.0379638671875,0.0875244140625,0.9815673828125,1.65985107421875,-3.39447021484375,0.91217041015625,1.0,1.0,1.0,1.0,1.0,85.0,event
09:27:32.051,1.0468962,0.7796645,0.22607973,0.6897874,0.59747976,0.32399222,-0.1865914,0.13455556,0.6164455,0.10294347,0.25396028,0.52749354,0.5918182,0.1202774,0.16645874,0.6410809,0.08222063,-0.21877922,-0.13125704,0.187474,851.79486,796.99634,815.5311,839.304,756.30035,-0.0379638671875,0.0875244140625,0.9815673828125,1.65985107421875,-3.39447021484375,0.91217041015625,1.0,1.0,1.0,1.0,1.0,85.0,event
09:27:32.052,1.0468962,0.7796645,0.22607973,0.6897874,0.59747976,0.32399222,-0.1865914,0.13455556,0.6164455,0.10294347,0.25396028,0.52749354,0.5918182,0.1202774,0.16645874,0.6410809,0.08222063,-0.21877922,-0.13125704,0.187474,850.18317,795.38464,808.2784,835.6777,761.9414,-0.0379638671875,0.0875244140625,0.9815673828125,1.65985107421875,-3.39447021484375,0.91217041015625,1.0,1.0,1.0,1.0,1.0,85.0,event
09:27:32.052,1.0468962,0.7796645,0.22607973,0.6897874,0.59747976,0.32399222,-0.1865914,0.13455556,0.6164455,0.10294347,0.25396028,0.52749354,0.5918182,0.1202774,0.16645874,0.6410809,0.08222063,-0.21877922,-0.13125704,0.187474,850.989,799.81683,803.8461,841.31866,830.84247,-0.0379638671875,0.0875244140625,0.9815673828125,1.65985107421875,-3.39447021484375,0.91217041015625,1.0,1.0,1.0,1.0,1.0,85.0,event
09:27:32.053,1.0468962,0.7796645,0.22607973,0.6897874,0.59747976,0.32399222,-0.1865914,0.13455556,0.6164455,0.10294347,0.25396028,0.52749354,0.5918182,0.1202774,0.16645874,0.6410809,0.08222063,-0.21877922,-0.13125704,0.187474,860.2564,798.60803,801.4286,855.42126,834.87177,-0.0379638671875,0.0875244140625,0.9815673828125,1.65985107421875,-3.39447021484375,0.91217041015625,1.0,1.0,1.0,1.0,1.0,85.0,event
09:27:32.054,1.0468962,0.7796645,0.22607973,0.6897874,0.59747976,0.32399222,-0.1865914,0.13455556,0.6164455,0.10294347,0.25396028,0.52749354,0.5918182,0.1202774,0.16645874,0.6410809,0.08222063,-0.21877922,-0.13125704,0.187474,863.47986,794.17584,802.6374,850.58606,965.82416,-0.0379638671875,0.0875244140625,0.9815673828125,1.65985107421875,-3.39447021484375,0.91217041015625,1.0,1.0,1.0,1.0,1.0,85.0,event
09:27:32.054,1.0468962,0.7796645,0.22607973,0.6897874,0.59747976,0.32399222,-0.1865914,0.13455556,0.6164455,0.10294347,0.25396028,0.52749354,0.5918182,0.1202774,0.16645874,0.6410809,0.08222063,-0.21877922,-0.13125704,0.187474,867.1062,800.2198,813.1135,845.7509,936.4103,-0.0379638671875,0.0875244140625,0.9815673828125,1.65985107421875,-3.39447021484375,0.91217041015625,1.0,1.0,1.0,1.0,1.0,85.0,event
09:27:32.055,1.0468962,0.7796645,0.22607973,0.6897874,0.59747976,0.32399222,-0.1865914,0.13455556,0.6164455,0.10294347,0.25396028,0.52749354,0.5918182,0.1202774,0.16645874,0.6410809,0.08222063,-0.21877922,-0.13125704,0.187474,864.68866,799.011,811.9048,842.52747,653.95605,-0.0379638671875,0.0875244140625,0.9815673828125,1.65985107421875,-3.39447021484375,0.91217041015625,1.0,1.0,1.0,1.0,1.0,85.0,event
09:27:32.055,1.0468962,0.7796645,0.22607973,0.6897874,0.59747976,0.32399222,-0.1865914,0.13455556,0.6164455,0.10294347,0.25396028,0.52749354,0.5918182,0.1202774,0.16645874,0.6410809,0.08222063,-0.21877922,-0.13125704,0.187474,857.4359,794.57874,807.0696,847.3626,749.45056,-0.0379638671875,0.0875244140625,0.9815673828125,1.65985107421875,-3.39447021484375,0.91217041015625,1.0,1.0,1.0,1.0,1.0,85.0,event
09:27:32.056,1.0468962,0.7796645,0.22607973,0.6897874,0.59747976,0.32399222,-0.1865914,0.13455556,0.6164455,0.10294347,0.25396028,0.52749354,0.5918182,0.1202774,0.16645874,0.6410809,0.08222063,-0.21877922,-0.13125704,0.187474,856.2271,799.011,800.6227,850.58606,828.022,-0.0379638671875,0.0875244140625,0.9815673828125,1.65985107421875,-3.39447021484375,0.91217041015625,1.0,1.0,1.0,1.0,1.0,85.0,event
09:27:32.081,1.0468962,0.7796645,0.22607973,0.6897874,0.59747976,0.32399222,-0.1865914,0.13455556,0.6164455,0.10294347,0.25396028,0.52749354,0.5918182,0.1202774,0.16645874,0.6410809,0.08222063,-0.21877922,-0.13125704,0.187474,858.6447,807.0696,790.9524,843.3333,781.685,-0.02740478515625,0.08453369140625,0.9833984375,1.7047119140625,-4.29168701171875,0.082244873046875,1.0,1.0,1.0,1.0,1.0,85.0,event
09:27:32.082,1.0468962,0.7796645,0.22607973,0.6897874,0.59747976,0.32399222,-0.1865914,0.13455556,0.6164455,0.10294347,0.25396028,0.52749354,0.5918182,0.1202774,0.16645874,0.6410809,0.08222063,-0.21877922,-0.13125704,0.187474,853.00366,806.6667,799.81683,833.663,712.381,-0.02740478515625,0.08453369140625,0.9833984375,1.7047119140625,-4.29168701171875,0.082244873046875,1.0,1.0,1.0,1.0,1.0,85.0,event
09:27:32.082,1.0468962,0.7796645,0.22607973,0.6897874,0.59747976,0.32399222,-0.1865914,0.13455556,0.6164455,0.10294347,0.25396028,0.52749354,0.5918182,0.1202774,0.16645874,0.6410809,0.08222063,-0.21877922,-0.13125704,0.187474,839.304,798.20514,809.4872,828.022,824.7985,-0.02740478515625,0.08453369140625,0.9833984375,1.7047119140625,-4.29168701171875,0.082244873046875,1.0,1.0,1.0,1.0,1.0,85.0,event
09:27:32.083,1.0468962,0.7796645,0.22607973,0.6897874,0.59747976,0.32399222,-0.1865914,0.13455556,0.6164455,0.10294347,0.25396028,0.52749354,0.5918182,0.1202774,0.16645874,0.6410809,0.08222063,-0.21877922,-0.13125704,0.187474,833.663,797.3993,804.65204,833.2601,813.5165,-0.02740478515625,0.08453369140625,0.9833984375,1.7047119140625,-4.29168701171875,0.082244873046875,1.0,1.0,1.0,1.0,1.0,85.0,event
09:27:32.083,1.0468962,0.7796645,0.22607973,0.6897874,0.59747976,0.32399222,-0.1865914,0.13455556,0.6164455,0.10294347,0.25396028,0.52749354,0.5918182,0.1202774,0.16645874,0.6410809,0.08222063,-0.21877922,-0.13125704,0.187474,836.8865,793.7729,806.6667,836.4835,936.4103,-0.02740478515625,0.08453369140625,0.9833984375,1.7047119140625,-4.29168701171875,0.082244873046875,1.0,1.0,1.0,1.0,1.0,85.0,event
09:27:32.084,1.0468962,0.7796645,0.22607973,0.6897874,0.59747976,0.32399222,-0.1865914,0.13455556,0.6164455,0.10294347,0.25396028,0.52749354,0.5918182,0.1202774,0.16645874,0.6410809,0.08222063,-0.21877922,-0.13125704,0.187474,832.8571,800.6227,804.2491,826.0073,814.3223,-0.02740478515625,0.08453369140625,0.9833984375,1.7047119140625,-4.29168701171875,0.082244873046875,1.0,1.0,1.0,1.0,1.0,85.0,event
09:27:32.085,1.0468962,0.7796645,0.22607973,0.6897874,0.59747976,0.32399222,-0.1865914,0.13455556,0.6164455,0.10294347,0.25396028,0.52749354,0.5918182,0.1202774,0.16645874,0.6410809,0.08222063,-0.21877922,-0.13125704,0.187474,832.8571,795.38464,804.65204,825.2015,1005.31134,-0.02740478515625,0.08453369140625,0.9833984375,1.7047119140625,-4.29168701171875,0.082244873046875,1.0,1.0,1.0,1.0,1.0,85.0,event
09:27:32.085,1.0468962,0.7796645,0.22607973,0.6897874,0.59747976,0.32399222,-0.1865914,0.13455556,0.6164455,0.10294347,0.25396028,0.52749354,0.5918182,0.1202774,0.16645874,0.6410809,0.08222063,-0.21877922,-0.13125704,0.187474,830.84247,798.20514,805.05493,823.5897,1075.0183,-0.02740478515625,0.08453369140625,0.9833984375,1.7047119140625,-4.29168701171875,0.082244873046875,1.0,1.0,1.0,1.0,1.0,85.0,event
09:27:32.086,1.0468962,0.7796645,0.22607973,0.6897874,0.59747976,0.32399222,-0.1865914,0.13455556,0.6164455,0.10294347,0.25396028,0.52749354,0.5918182,0.1202774,0.16645874,0.6410809,0.08222063,-0.21877922,-0.13125704,0.187474,833.2601,800.6227,803.8461,818.3516,758.315,-0.02740478515625,0.08453369140625,0.9833984375,1.7047119140625,-4.29168701171875,0.082244873046875,1.0,1.0,1.0,1.0,1.0,85.0,event
09:27:32.086,1.0468962,0.7933637,0.21608745,0.6897874,0.59747976,0.3487498,-0.14782415,0.13455556,0.6164455,0.10294347,0.25396028,0.52749354,0.5918182,0.103782825,0.17380635,0.6410809,0.08222063,-0.22860554,-0.13246259,0.187474,832.8571,795.38464,805.4579,822.7839,650.7326,-0.02740478515625,0.08453369140625,0.9833984375,1.7047119140625,-4.29168701171875,0.082244873046875,1.0,1.0,1.0,1.0,1.0,85.0,event
09:27:32.090,1.0468962,0.7933637,0.21608745,0.6897874,0.59747976,0.3487498,-0.14782415,0.13455556,0.6164455,0.10294347,0.25396028,0.52749354,0.5918182,0.103782825,0.17380635,0.6410809,0.08222063,-0.22860554,-0.13246259,0.187474,830.84247,797.8022,804.2491,830.4396,746.63007,-0.02740478515625,0.08453369140625,0.9833984375,1.7047119140625,-4.29168701171875,0.082244873046875,1.0,1.0,1.0,1.0,1.0,85.0,event
09:27:32.091,1.0468962,0.7933637,0.21608745,0.6897874,0.59747976,0.3487498,-0.14782415,0.13455556,0.6164455,0.10294347,0.25396028,0.52749354,0.5918182,0.103782825,0.17380635,0.6410809,0.08222063,-0.22860554,-0.13246259,0.187474,831.6484,801.8315,804.2491,830.84247,767.1795,-0.02740478515625,0.08453369140625,0.9833984375,1.7047119140625,-4.29168701171875,0.082244873046875,1.0,1.0,1.0,1.0,1.0,85.0,event
09:27:32.117,1.0468962,0.7933637,0.21608745,0.6897874,0.59747976,0.3487498,-0.14782415,0.13455556,0.6164455,0.10294347,0.25396028,0.52749354,0.5918182,0.103782825,0.17380635,0.6410809,0.08222063,-0.22860554,-0.13246259,0.187474,834.4689,794.57874,804.65204,823.1868,682.5641,-0.02740478515625,0.08453369140625,0.9833984375,1.7047119140625,-4.29168701171875,0.082244873046875,1.0,1.0,1.0,1.0,1.0,85.0,event
09:27:32.118,1.0468962,0.7933637,0.21608745,0.6897874,0.59747976,0.3487498,-0.14782415,0.13455556,0.6164455,0.10294347,0.25396028,0.52749354,0.5918182,0.103782825,0.17380635,0.6410809,0.08222063,-0.22860554,-0.13246259,0.187474,824.7985,797.3993,801.02563,822.381,660.0,-0.02740478515625,0.08453369140625,0.9833984375,1.7047119140625,-4.29168701171875,0.082244873046875,1.0,1.0,1.0,1.0,1.0,85.0,event
09:27:32.118,1.0468962,0.7933637,0.21608745,0.6897874,0.59747976,0.3487498,-0.14782415,0.13455556,0.6164455,0.10294347,0.25396028,0.52749354,0.5918182,0.103782825,0.17380635,0.6410809,0.08222063,-0.22860554,-0.13246259,0.187474,835.6777,804.2491,805.05493,826.0073,748.24176,-0.02740478515625,0.08453369140625,0.9833984375,1.7047119140625,-4.29168701171875,0.082244873046875,1.0,1.0,1.0,1.0,1.0,85.0,event
09:27:32.119,1.0468962,0.7933637,0.21608745,0.6897874,0.59747976,0.3487498,-0.14782415,0.13455556,0.6164455,0.10294347,0.25396028,0.52749354,0.5918182,0.103782825,0.17380635,0.6410809,0.08222063,-0.22860554,-0.13246259,0.187474,844.5421,799.81683,810.696,824.3956,773.6264,-0.02740478515625,0.08453369140625,0.9833984375,1.7047119140625,-4.29168701171875,0.082244873046875,1.0,1.0,1.0,1.0,1.0,85.0,event
09:27:32.120,1.0468962,0.7933637,0.21608745,0.6897874,0.59747976,0.3487498,-0.14782415,0.13455556,0.6164455,0.10294347,0.25396028,0.52749354,0.5918182,0.103782825,0.17380635,0.6410809,0.08222063,-0.22860554,-0.13246259,0.187474,828.8278,797.8022,801.02563,827.2161,765.9707,-0.02740478515625,0.08453369140625,0.9833984375,1.7047119140625,-4.29168701171875,0.082244873046875,1.0,1.0,1.0,1.0,1.0,85.0,event
09:27:32.120,1.0468962,0.7933637,0.21608745,0.6897874,0.59747976,0.3487498,-0.14782415,0.13455556,0.6164455,0.10294347,0.25396028,0.52749354,0.5918182,0.103782825,0.17380635,0.6410809,0.08222063,-0.22860554,-0.13246259,0.187474,830.84247,805.4579,796.5934,822.381,716.4103,-0.02740478515625,0.08453369140625,0.9833984375,1.7047119140625,-4.29168701171875,0.082244873046875,1.0,1.0,1.0,1.0,1.0,85.0,event
09:27:32.121,1.0468962,0.7933637,0.21608745,0.6897874,0.59747976,0.3487498,-0.14782415,0.13455556,0.6164455,0.10294347,0.25396028,0.52749354,0.5918182,0.103782825,0.17380635,0.6410809,0.08222063,-0.22860554,-0.13246259,0.187474,839.707,807.8755,806.26373,818.3516,949.304,-0.02740478515625,0.08453369140625,0.9833984375,1.7047119140625,-4.29168701171875,0.082244873046875,1.0,1.0,1.0,1.0,1.0,85.0,event
09:27:32.121,1.0468962,0.7933637,0.21608745,0.6897874,0.59747976,0.3487498,-0.14782415,0.13455556,0.6164455,0.10294347,0.25396028,0.52749354,0.5918182,0.103782825,0.17380635,0.6410809,0.08222063,-0.22860554,-0.13246259,0.187474,835.2747,800.2198,803.0403,818.3516,1115.7142,-0.02740478515625,0.08453369140625,0.9833984375,1.7047119140625,-4.29168701171875,0.082244873046875,1.0,1.0,1.0,1.0,1.0,85.0,event
09:27:32.122,1.0468962,0.7933637,0.21608745,0.6897874,0.59747976,0.3487498,-0.14782415,0.13455556,0.6164455,0.10294347,0.25396028,0.52749354,0.5918182,0.103782825,0.17380635,0.6410809,0.08222063,-0.22860554,-0.13246259,0.187474,844.1392,803.8461,794.57874,822.7839,738.97437,-0.02740478515625,0.08453369140625,0.9833984375,1.7047119140625,-4.29168701171875,0.082244873046875,1.0,1.0,1.0,1.0,1.0,85.0,event
09:27:32.122,1.0468962,0.7933637,0.21608745,0.6897874,0.59747976,0.3487498,-0.14782415,0.13455556,0.6164455,0.10294347,0.25396028,0.52749354,0.5918182,0.103782825,0.17380635,0.6410809,0.08222063,-0.22860554,-0.13246259,0.187474,836.8865,800.2198,795.78754,821.978,804.2491,-0.02740478515625,0.08453369140625,0.9833984375,1.7047119140625,-4.29168701171875,0.082244873046875,1.0,1.0,1.0,1.0,1.0,85.0,event
09:27:32.123,1.0468962,0.7933637,0.21608745,0.6897874,0.59747976,0.3487498,-0.14782415,0.13455556,0.6164455,0.10294347,0.25396028,0.52749354,0.5918182,0.103782825,0.17380635,0.6410809,0.08222063,-0.22860554,-0.13246259,0.187474,841.31866,808.68134,801.4286,816.7399,819.15753,-0.02740478515625,0.08453369140625,0.9833984375,1.7047119140625,-4.29168701171875,0.082244873046875,1.0,1.0,1.0,1.0,1.0,85.0,event
09:27:32.125,1.0468962,0.7933637,0.21608745,0.6897874,0.59747976,0.3487498,-0.14782415,0.13455556,0.6164455,0.10294347,0.25396028,0.52749354,0.5918182,0.103782825,0.17380635,0.6410809,0.08222063,-0.22860554,-0.13246259,0.187474,840.5128,807.8755,806.6667,814.3223,724.87177,-0.02740478515625,0.08453369140625,0.9833984375,1.7047119140625,-4.29168701171875,0.082244873046875,1.0,1.0,1.0,1.0,1.0,85.0,event
09:27:32.183,1.0468962,0.7933637,0.21608745,0.6897874,0.59747976,0.3487498,-0.14782415,0.13455556,0.6164455,0.10294347,0.25396028,0.52749354,0.5918182,0.103782825,0.17380635,0.6410809,0.08222063,-0.22860554,-0.13246259,0.187474,831.6484,799.81683,802.6374,812.71063,689.81683,-0.02557373046875,0.0830078125,0.98370361328125,1.816864013671875,-3.715972900390625,0.3887939453125,1.0,1.0,1.0,1.0,1.0,85.0,event
09:27:32.184,1.0468962,0.7933637,0.21608745,0.6897874,0.59747976,0.3487498,-0.14782415,0.13455556,0.6164455,0.10294347,0.25396028,0.52749354,0.5918182,0.103782825,0.17380635,0.6410809,0.08222063,-0.22860554,-0.13246259,0.187474,823.9927,800.2198,791.75824,816.7399,814.3223,-0.02557373046875,0.0830078125,0.98370361328125,1.816864013671875,-3.715972900390625,0.3887939453125,1.0,1.0,1.0,1.0,1.0,85.0,event
09:27:32.184,1.0468962,0.7933637,0.21608745,0.6897874,0.59747976,0.3487498,-0.14782415,0.13455556,0.6164455,0.10294347,0.25396028,0.52749354,0.5918182,0.103782825,0.17380635,0.6410809,0.08222063,-0.22860554,-0.13246259,0.187474,823.9927,803.8461,794.57874,814.3223,829.6337,-0.02557373046875,0.0830078125,0.98370361328125,1.816864013671875,-3.715972900390625,0.3887939453125,1.0,1.0,1.0,1.0,1.0,85.0,event
09:27:32.185,1.0468962,0.7933637,0.21608745,0.6897874,0.59747976,0.3487498,-0.14782415,0.13455556,0.6164455,0.10294347,0.25396028,0.52749354,0.5918182,0.103782825,0.17380635,0.6410809,0.08222063,-0.22860554,-0.13246259,0.187474,830.84247,800.2198,805.8608,804.65204,707.5458,-0.02557373046875,0.0830078125,0.98370361328125,1.816864013671875,-3.715972900390625,0.3887939453125,1.0,1.0,1.0,1.0,1.0,85.0,event
09:27:32.186,1.0468962,0.7933637,0.21608745,0.6897874,0.59747976,0.3487498,-0.14782415,0.13455556,0.6164455,0.10294347,0.25396028,0.52749354,0.5918182,0.103782825,0.17380635,0.6410809,0.08222063,-0.22860554,-0.13246259,0.187474,826.0073,799.41394,805.05493,803.8461,702.71063,-0.02557373046875,0.0830078125,0.98370361328125,1.816864013671875,-3.715972900390625,0.3887939453125,1.0,1.0,1.0,1.0,1.0,85.0,event
09:27:32.186,1.0468962,0.7933637,0.21608745,0.6897874,0.59747976,0.3487498,-0.14782415,0.13455556,0.6164455,0.10294347,0.25396028,0.52749354,0.5918182,0.103782825,0.17380635,0.6410809,0.08222063,-0.22860554,-0.13246259,0.187474,813.5165,794.17584,795.38464,809.0842,900.9524,-0.02557373046875,0.0830078125,0.98370361328125,1.816864013671875,-3.715972900390625,0.3887939453125,1.0,1.0,1.0,1.0,1.0,85.0,event
09:27:32.187,1.0468962,0.7933637,0.21608745,0.6897874,0.59747976,0.3487498,-0.14782415,0.13455556,0.6164455,0.10294347,0.25396028,0.52749354,0.5918182,0.103782825,0.17380635,0.6410809,0.08222063,-0.22860554,-0.13246259,0.187474,815.5311,793.7729,792.1612,811.9048,1008.5348,-0.02557373046875,0.0830078125,0.98370361328125,1.816864013671875,-3.715972900390625,0.3887939453125,1.0,1.0,1.0,1.0,1.0,85.0,event
09:27:32.187,1.0468962,0.7933637,0.21608745,0.6897874,0.59747976,0.3487498,-0.14782415,0.13455556,0.6164455,0.10294347,0.25396028,0.52749354,0.5918182,0.103782825,0.17380635,0.6410809,0.08222063,-0.22860554,-0.13246259,0.187474,826.8132,806.6667,794.57874,808.68134,853.8095,-0.02557373046875,0.0830078125,0.98370361328125,1.816864013671875,-3.715972900390625,0.3887939453125,1.0,1.0,1.0,1.0,1.0,85.0,event
09:27:32.188,1.0468962,0.7933637,0.21608745,0.6897874,0.59747976,0.3487498,-0.14782415,0.13455556,0.6164455,0.10294347,0.25396028,0.52749354,0.5918182,0.103782825,0.17380635,0.6410809,0.08222063,-0.22860554,-0.13246259,0.187474,830.0366,807.0696,798.60803,805.8608,685.78754,-0.02557373046875,0.0830078125,0.98370361328125,1.816864013671875,-3.715972900390625,0.3887939453125,1.0,1.0,1.0,1.0,1.0,85.0,event
09:27:32.188,1.0468962,0.7933637,0.21608745,0.6897874,0.59747976,0.3487498,-0.14782415,0.13455556,0.6164455,0.10294347,0.25396028,0.52749354,0.5918182,0.103782825,0.17380635,0.6410809,0.08222063,-0.22860554,-0.13246259,0.187474,822.381,803.0403,803.8461,808.2784,851.39197,-0.02557373046875,0.0830078125,0.98370361328125,1.816864013671875,-3.715972900390625,0.3887939453125,1.0,1.0,1.0,1.0,1.0,85.0,event
09:27:32.189,1.0468962,0.7933637,0.21608745,0.6897874,0.59747976,0.3487498,-0.14782415,0.13455556,0.6164455,0.10294347,0.25396028,0.52749354,0.5918182,0.103782825,0.17380635,0.6410809,0.08222063,-0.22860554,-0.13246259,0.187474,815.12823,805.8608,805.05493,813.91943,1037.1428,-0.02557373046875,0.0830078125,0.98370361328125,1.816864013671875,-3.715972900390625,0.3887939453125,1.0,1.0,1.0,1.0,1.0,85.0,event
09:27:32.189,1.0468962,0.79554623,0.19124526,0.6897874,0.59747976,0.37229323,-0.1007222,0.13455556,0.6164455,0.10294347,0.24374239,0.52749354,0.5918182,0.0864657,0.18099141,0.6410809,0.08222063,-0.24482808,-0.13552213,0.187474,819.9634,806.26373,804.2491,816.7399,840.9158,-0.02557373046875,0.0830078125,0.98370361328125,1.816864013671875,-3.715972900390625,0.3887939453125,1.0,1.0,1.0,1.0,1.0,85.0,event
09:27:32.219,1.0468962,0.79554623,0.19124526,0.6897874,0.59747976,0.37229323,-0.1007222,0.13455556,0.6164455,0.10294347,0.24374239,0.52749354,0.5918182,0.0864657,0.18099141,0.6410809,0.08222063,-0.24482808,-0.13552213,0.187474,824.7985,806.26373,804.65204,811.9048,802.23444,-0.03839111328125,0.0830078125,0.9840087890625,1.891632080078125,-3.252410888671875,0.85235595703125,1.0,1.0,1.0,1.0,1.0,85.0,event
09:27:32.220,1.0468962,0.79554623,0.19124526,0.6897874,0.59747976,0.37229323,-0.1007222,0.13455556,0.6164455,0.10294347,0.24374239,0.52749354,0.5918182,0.0864657,0.18099141,0.6410809,0.08222063,-0.24482808,-0.13552213,0.187474,817.5458,802.6374,802.23444,804.2491,793.7729,-0.03839111328125,0.0830078125,0.9840087890625,1.891632080078125,-3.252410888671875,0.85235595703125,1.0,1.0,1.0,1.0,1.0,85.0,event
09:27:32.221,1.0468962,0.79554623,0.19124526,0.6897874,0.59747976,0.37229323,-0.1007222,0.13455556,0.6164455,0.10294347,0.24374239,0.52749354,0.5918182,0.0864657,0.18099141,0.6410809,0.08222063,-0.24482808,-0.13552213,0.187474,815.12823,798.60803,799.41394,811.0989,754.2857,-0.03839111328125,0.0830078125,0.9840087890625,1.891632080078125,-3.252410888671875,0.85235595703125,1.0,1.0,1.0,1.0,1.0,85.0,event
09:27:32.222,1.0468962,0.79554623,0.19124526,0.6897874,0.59747976,0.37229323,-0.1007222,0.13455556,0.6164455,0.10294347,0.24374239,0.52749354,0.5918182,0.0864657,0.18099141,0.6410809,0.08222063,-0.24482808,-0.13552213,0.187474,816.337,803.0403,798.20514,820.7692,722.4542,-0.03839111328125,0.0830078125,0.9840087890625,1.891632080078125,-3.252410888671875,0.85235595703125,1.0,1.0,1.0,1.0,1.0,85.0,event
09:27:32.222,1.0468962,0.79554623,0.19124526,0.6897874,0.59747976,0.37229323,-0.1007222,0.13455556,0.6164455,0.10294347,0.24374239,0.52749354,0.5918182,0.0864657,0.18099141,0.6410809,0.08222063,-0.24482808,-0.13552213,0.187474,809.4872,801.8315,797.3993,814.3223,782.8938,-0.03839111328125,0.0830078125,0.9840087890625,1.891632080078125,-3.252410888671875,0.85235595703125,1.0,1.0,1.0,1.0,1.0,85.0,event
09:27:32.223,1.0468962,0.79554623,0.19124526,0.6897874,0.59747976,0.37229323,-0.1007222,0.13455556,0.6164455,0.10294347,0.24374239,0.52749354,0.5918182,0.0864657,0.18099141,0.6410809,0.08222063,-0.24482808,-0.13552213,0.187474,805.4579,797.3993,808.2784,803.44324,925.12823,-0.03839111328125,0.0830078125,0.9840087890625,1.891632080078125,-3.252410888671875,0.85235595703125,1.0,1.0,1.0,1.0,1.0,85.0,event
09:27:32.223,1.0468962,0.79554623,0.19124526,0.6897874,0.59747976,0.37229323,-0.1007222,0.13455556,0.6164455,0.10294347,0.24374239,0.52749354,0.5918182,0.0864657,0.18099141,0.6410809,0.08222063,-0.24482808,-0.13552213,0.187474,802.23444,801.02563,808.2784,801.02563,927.1429,-0.03839111328125,0.0830078125,0.9840087890625,1.891632080078125,-3.252410888671875,0.85235595703125,1.0,1.0,1.0,1.0,1.0,85.0,event
09:27:32.224,1.0468962,0.79554623,0.19124526,0.6897874,0.59747976,0.37229323,-0.1007222,0.13455556,0.6164455,0.10294347,0.24374239,0.52749354,0.5918182,0.0864657,0.18099141,0.6410809,0.08222063,-0.24482808,-0.13552213,0.187474,793.7729,800.2198,801.8315,790.14655,813.5165,-0.03839111328125,0.0830078125,0.9840087890625,1.891632080078125,-3.252410888671875,0.85235595703125,1.0,1.0,1.0,1.0,1.0,85.0,event
09:27:32.224,1.0468962,0.79554623,0.19124526,0.6897874,0.59747976,0.37229323,-0.1007222,0.13455556,0.6164455,0.10294347,0.24374239,0.52749354,0.5918182,0.0864657,0.18099141,0.6410809,0.08222063,-0.24482808,-0.13552213,0.187474,796.99634,797.8022,806.6667,794.9817,775.64105,-0.03839111328125,0.0830078125,0.9840087890625,1.891632080078125,-3.252410888671875,0.85235595703125,1.0,1.0,1.0,1.0,1.0,85.0,event
09:27:32.225,1.0468962,0.79554623,0.19124526,0.6897874,0.59747976,0.37229323,-0.1007222,0.13455556,0.6164455,0.10294347,0.24374239,0.52749354,0.5918182,0.0864657,0.18099141,0.6410809,0.08222063,-0.24482808,-0.13552213,0.187474,810.293,800.6227,809.89014,817.1429,973.47986,-0.03839111328125,0.0830078125,0.9840087890625,1.891632080078125,-3.252410888671875,0.85235595703125,1.0,1.0,1.0,1.0,1.0,85.0,event
09:27:32.225,1.0468962,0.79554623,0.19124526,0.6897874,0.59747976,0.37229323,-0.1007222,0.13455556,0.6164455,0.10294347,0.24374239,0.52749354,0.5918182,0.0864657,0.18099141,0.6410809,0.08222063,-0.24482808,-0.13552213,0.187474,812.71063,799.011,806.6667,811.0989,907.3993,-0.03839111328125,0.0830078125,0.9840087890625,1.891632080078125,-3.252410888671875,0.85235595703125,1.0,1.0,1.0,1.0,1.0,85.0,event
09:27:32.226,1.0468962,0.79554623,0.19124526,0.6897874,0.59747976,0.37229323,-0.1007222,0.13455556,0.6164455,0.10294347,0.24374239,0.52749354,0.5918182,0.0864657,0.18099141,0.6410809,0.08222063,-0.24482808,-0.13552213,0.187474,807.47253,799.011,799.81683,795.78754,670.07324,-0.03839111328125,0.0830078125,0.9840087890625,1.891632080078125,-3.252410888671875,0.85235595703125,1.0,1.0,1.0,1.0,1.0,85.0,event
09:27:32.286,1.0468962,0.79554623,0.19124526,0.6897874,0.59747976,0.37229323,-0.1007222,0.13455556,0.6164455,0.10294347,0.24374239,0.52749354,0.5918182,0.0864657,0.18099141,0.6410809,0.08222063,-0.24482808,-0.13552213,0.187474,803.8461,792.1612,797.3993,796.1905,716.8132,-0.03448486328125,0.0892333984375,0.98577880859375,1.936492919921875,-3.357086181640625,1.0467529296875,1.0,1.0,1.0,1.0,1.0,85.0,event
09:27:32.287,1.0468962,0.79554623,0.19124526,0.6897874,0.59747976,0.37229323,-0.1007222,0.13455556,0.6164455,0.10294347,0.24374239,0.52749354,0.5918182,0.0864657,0.18099141,0.6410809,0.08222063,-0.24482808,-0.13552213,0.187474,805.4579,789.7436,803.8461,798.20514,826.0073,-0.03448486328125,0.0892333984375,0.98577880859375,1.936492919921875,-3.357086181640625,1.0467529296875,1.0,1.0,1.0,1.0,1.0,85.0,event
09:27:32.288,1.0468962,0.79554623,0.19124526,0.6897874,0.59747976,0.37229323,-0.1007222,0.13455556,0.6164455,0.10294347,0.24374239,0.52749354,0.5918182,0.0864657,0.18099141,0.6410809,0.08222063,-0.24482808,-0.13552213,0.187474,811.50183,800.2198,800.6227,807.0696,724.0659,-0.03448486328125,0.0892333984375,0.98577880859375,1.936492919921875,-3.357086181640625,1.0467529296875,1.0,1.0,1.0,1.0,1.0,85.0,event
09:27:32.288,1.0468962,0.79554623,0.19124526,0.6897874,0.59747976,0.37229323,-0.1007222,0.13455556,0.6164455,0.10294347,0.24374239,0.52749354,0.5918182,0.0864657,0.18099141,0.6410809,0.08222063,-0.24482808,-0.13552213,0.187474,805.4579,802.23444,801.02563,811.9048,667.6557,-0.03448486328125,0.0892333984375,0.98577880859375,1.936492919921875,-3.357086181640625,1.0467529296875,1.0,1.0,1.0,1.0,1.0,85.0,event
09:27:32.289,1.0468962,0.79554623,0.19124526,0.6897874,0.59747976,0.37229323,-0.1007222,0.13455556,0.6164455,0.10294347,0.24374239,0.52749354,0.5918182,0.0864657,0.18099141,0.6410809,0.08222063,-0.24482808,-0.13552213,0.187474,807.8755,798.60803,806.6667,796.99634,881.6117,-0.03448486328125,0.0892333984375,0.98577880859375,1.936492919921875,-3.357086181640625,1.0467529296875,1.0,1.0,1.0,1.0,1.0,85.0,event
09:27:32.289,1.0468962,0.79554623,0.19124526,0.6897874,0.59747976,0.37229323,-0.1007222,0.13455556,0.6164455,0.10294347,0.24374239,0.52749354,0.5918182,0.0864657,0.18099141,0.6410809,0.08222063,-0.24482808,-0.13552213,0.187474,806.6667,799.41394,807.8755,803.44324,819.15753,-0.03448486328125,0.0892333984375,0.98577880859375,1.936492919921875,-3.357086181640625,1.0467529296875,1.0,1.0,1.0,1.0,1.0,85.0,event
09:27:32.290,1.0468962,0.79554623,0.19124526,0.6897874,0.59747976,0.37229323,-0.1007222,0.13455556,0.6164455,0.10294347,0.24374239,0.52749354,0.5918182,0.0864657,0.18099141,0.6410809,0.08222063,-0.24482808,-0.13552213,0.187474,803.44324,801.8315,802.6374,805.05493,812.71063,-0.03448486328125,0.0892333984375,0.98577880859375,1.936492919921875,-3.357086181640625,1.0467529296875,1.0,1.0,1.0,1.0,1.0,85.0,event
09:27:32.291,1.0468962,0.79554623,0.19124526,0.6897874,0.59747976,0.37229323,-0.1007222,0.13455556,0.6164455,0.10294347,0.24374239,0.52749354,0.5918182,0.0864657,0.18099141,0.6410809,0.08222063,-0.24482808,-0.13552213,0.187474,802.23444,803.8461,796.99634,805.05493,767.1795,-0.03448486328125,0.0892333984375,0.98577880859375,1.936492919921875,-3.357086181640625,1.0467529296875,1.0,1.0,1.0,1.0,1.0,85.0,event
09:27:32.291,1.0468962,0.79554623,0.19124526,0.6897874,0.59747976,0.37229323,-0.1007222,0.13455556,0.6164455,0.10294347,0.24374239,0.52749354,0.5918182,0.0864657,0.18099141,0.6410809,0.08222063,-0.24482808,-0.13552213,0.187474,801.02563,794.17584,798.60803,807.0696,871.53845,-0.03448486328125,0.0892333984375,0.98577880859375,1.936492919921875,-3.357086181640625,1.0467529296875,1.0,1.0,1.0,1.0,1.0,85.0,event
09:27:32.292,1.0468962,0.79554623,0.19124526,0.6897874,0.59747976,0.37229323,-0.1007222,0.13455556,0.6164455,0.10294347,0.24374239,0.52749354,0.5918182,0.0864657,0.18099141,0.6410809,0.08222063,-0.24482808,-0.13552213,0.187474,797.3993,795.78754,809.4872,809.89014,996.4469,-0.03448486328125,0.0892333984375,0.98577880859375,1.936492919921875,-3.357086181640625,1.0467529296875,1.0,1.0,1.0,1.0,1.0,85.0,event
09:27:32.293,1.0468962,0.79554623,0.19124526,0.6897874,0.59747976,0.37229323,-0.1007222,0.13455556,0.6164455,0.10294347,0.24374239,0.52749354,0.5918182,0.0864657,0.18099141,0.6410809,0.08222063,-0.24482808,-0.13552213,0.187474,803.0403,805.8608,807.8755,801.4286,693.0403,-0.03448486328125,0.0892333984375,0.98577880859375,1.936492919921875,-3.357086181640625,1.0467529296875,1.0,1.0,1.0,1.0,1.0,85.0,event
09:27:32.293,1.0468962,0.79554623,0.19124526,0.6897874,0.59747976,0.37229323,-0.1007222,0.13455556,0.6164455,0.10294347,0.24374239,0.52749354,0.5918182,0.0864657,0.18099141,0.6410809,0.08222063,-0.24482808,-0.13552213,0.187474,801.4286,807.47253,814.7253,801.02563,788.1319,-0.03448486328125,0.0892333984375,0.98577880859375,1.936492919921875,-3.357086181640625,1.0467529296875,1.0,1.0,1.0,1.0,1.0,85.0,event
09:27:32.332,1.0468962,0.79554623,0.19124526,0.6897874,0.59747976,0.37229323,-0.1007222,0.13455556,0.6164455,0.10294347,0.24374239,0.52749354,0.5918182,0.0864657,0.18099141,0.6410809,0.08222063,-0.24482808,-0.13552213,0.187474,811.0989,801.02563,805.4579,803.44324,738.5714,-0.0445556640625,0.08843994140625,0.98211669921875,0.94207763671875,-3.2000732421875,1.5850830078125,1.0,1.0,1.0,1.0,1.0,85.0,event
09:27:32.333,1.0468962,0.7954139,0.15101093,0.6897874,0.59747976,0.4023698,-0.054312702,0.13455556,0.6164455,0.10467368,0.21434979,0.52749354,0.5918182,0.07363579,0.1845148,0.6410809,0.08222063,-0.27243376,-0.14047684,0.187474,803.0403,796.1905,806.6667,803.0403,752.27106,-0.0445556640625,0.08843994140625,0.98211669921875,0.94207763671875,-3.2000732421875,1.5850830078125,1.0,1.0,1.0,1.0,1.0,85.0,event
09:27:32.336,1.0468962,0.7954139,0.15101093,0.6897874,0.59747976,0.4023698,-0.054312702,0.13455556,0.6164455,0.10467368,0.21434979,0.52749354,0.5918182,0.07363579,0.1845148,0.6410809,0.08222063,-0.27243376,-0.14047684,0.187474,793.36993,798.60803,805.05493,797.3993,756.30035,-0.0445556640625,0.08843994140625,0.98211669921875,0.94207763671875,-3.2000732421875,1.5850830078125,1.0,1.0,1.0,1.0,1.0,85.0,event
09:27:32.337,1.0468962,0.7954139,0.15101093,0.6897874,0.59747976,0.4023698,-0.054312702,0.13455556,0.6164455,0.10467368,0.21434979,0.52749354,0.5918182,0.07363579,0.1845148,0.6410809,0.08222063,-0.27243376,-0.14047684,0.187474,798.60803,801.02563,805.05493,790.9524,682.1612,-0.0445556640625,0.08843994140625,0.98211669921875,0.94207763671875,-3.2000732421875,1.5850830078125,1.0,1.0,1.0,1.0,1.0,85.0,event
09:27:32.338,1.0468962,0.7954139,0.15101093,0.6897874,0.59747976,0.4023698,-0.054312702,0.13455556,0.6164455,0.10467368,0.21434979,0.52749354,0.5918182,0.07363579,0.1845148,0.6410809,0.08222063,-0.27243376,-0.14047684,0.187474,805.4579,805.05493,801.8315,796.5934,755.09155,-0.0445556640625,0.08843994140625,0.98211669921875,0.94207763671875,-3.2000732421875,1.5850830078125,1.0,1.0,1.0,1.0,1.0,85.0,event
09:27:32.339,1.0468962,0.7954139,0.15101093,0.6897874,0.59747976,0.4023698,-0.054312702,0.13455556,0.6164455,0.10467368,0.21434979,0.52749354,0.5918182,0.07363579,0.1845148,0.6410809,0.08222063,-0.27243376,-0.14047684,0.187474,809.0842,802.6374,795.78754,799.41394,920.293,-0.0445556640625,0.08843994140625,0.98211669921875,0.94207763671875,-3.2000732421875,1.5850830078125,1.0,1.0,1.0,1.0,1.0,85.0,event
09:27:32.340,1.0468962,0.7954139,0.15101093,0.6897874,0.59747976,0.4023698,-0.054312702,0.13455556,0.6164455,0.10467368,0.21434979,0.52749354,0.5918182,0.07363579,0.1845148,0.6410809,0.08222063,-0.27243376,-0.14047684,0.187474,805.05493,795.38464,800.6227,801.4286,882.01465,-0.0445556640625,0.08843994140625,0.98211669921875,0.94207763671875,-3.2000732421875,1.5850830078125,1.0,1.0,1.0,1.0,1.0,85.0,event
09:27:32.341,1.0468962,0.7954139,0.15101093,0.6897874,0.59747976,0.4023698,-0.054312702,0.13455556,0.6164455,0.10467368,0.21434979,0.52749354,0.5918182,0.07363579,0.1845148,0.6410809,0.08222063,-0.27243376,-0.14047684,0.187474,812.3077,803.0403,798.20514,794.57874,975.89746,-0.0445556640625,0.08843994140625,0.98211669921875,0.94207763671875,-3.2000732421875,1.5850830078125,1.0,1.0,1.0,1.0,1.0,85.0,event
09:27:32.341,1.0468962,0.7954139,0.15101093,0.6897874,0.59747976,0.4023698,-0.054312702,0.13455556,0.6164455,0.10467368,0.21434979,0.52749354,0.5918182,0.07363579,0.1845148,0.6410809,0.08222063,-0.27243376,-0.14047684,0.187474,809.4872,797.8022,803.8461,802.23444,786.9231,-0.0445556640625,0.08843994140625,0.98211669921875,0.94207763671875,-3.2000732421875,1.5850830078125,1.0,1.0,1.0,1.0,1.0,85.0,event
09:27:32.342,1.0468962,0.7954139,0.15101093,0.6897874,0.59747976,0.4023698,-0.054312702,0.13455556,0.6164455,0.10467368,0.21434979,0.52749354,0.5918182,0.07363579,0.1845148,0.6410809,0.08222063,-0.27243376,-0.14047684,0.187474,801.02563,798.20514,799.81683,791.75824,900.14655,-0.0445556640625,0.08843994140625,0.98211669921875,0.94207763671875,-3.2000732421875,1.5850830078125,1.0,1.0,1.0,1.0,1.0,85.0,event
09:27:32.343,1.0468962,0.7954139,0.15101093,0.6897874,0.59747976,0.4023698,-0.054312702,0.13455556,0.6164455,0.10467368,0.21434979,0.52749354,0.5918182,0.07363579,0.1845148,0.6410809,0.08222063,-0.27243376,-0.14047684,0.187474,796.1905,792.5641,806.6667,793.36993,668.46155,-0.0445556640625,0.08843994140625,0.98211669921875,0.94207763671875,-3.2000732421875,1.5850830078125,1.0,1.0,1.0,1.0,1.0,85.0,event
09:27:32.344,1.0468962,0.7954139,0.15101093,0.6897874,0.59747976,0.4023698,-0.054312702,0.13455556,0.6164455,0.10467368,0.21434979,0.52749354,0.5918182,0.07363579,0.1845148,0.6410809,0.08222063,-0.27243376,-0.14047684,0.187474,802.6374,797.3993,805.8608,794.9817,844.1392,-0.0445556640625,0.08843994140625,0.98211669921875,0.94207763671875,-3.2000732421875,1.5850830078125,1.0,1.0,1.0,1.0,1.0,85.0,event
09:27:32.396,1.0468962,0.7954139,0.15101093,0.6897874,0.59747976,0.4023698,-0.054312702,0.13455556,0.6164455,0.10467368,0.21434979,0.52749354,0.5918182,0.07363579,0.1845148,0.6410809,0.08222063,-0.27243376,-0.14047684,0.187474,804.2491,800.6227,799.011,789.7436,845.7509,-0.0445556640625,0.08843994140625,0.98211669921875,0.94207763671875,-3.2000732421875,1.5850830078125,1.0,1.0,1.0,1.0,1.0,85.0,event
09:27:32.397,1.0468962,0.7954139,0.15101093,0.6897874,0.59747976,0.4023698,-0.054312702,0.13455556,0.6164455,0.10467368,0.21434979,0.52749354,0.5918182,0.07363579,0.1845148,0.6410809,0.08222063,-0.27243376,-0.14047684,0.187474,797.3993,796.1905,798.60803,780.87915,714.3956,-0.0445556640625,0.08843994140625,0.98211669921875,0.94207763671875,-3.2000732421875,1.5850830078125,1.0,1.0,1.0,1.0,1.0,85.0,event
09:27:32.398,1.0468962,0.7954139,0.15101093,0.6897874,0.59747976,0.4023698,-0.054312702,0.13455556,0.6164455,0.10467368,0.21434979,0.52749354,0.5918182,0.07363579,0.1845148,0.6410809,0.08222063,-0.27243376,-0.14047684,0.187474,800.2198,795.38464,804.2491,787.326,701.9048,-0.0445556640625,0.08843994140625,0.98211669921875,0.94207763671875,-3.2000732421875,1.5850830078125,1.0,1.0,1.0,1.0,1.0,85.0,event
09:27:32.399,1.0468962,0.7954139,0.15101093,0.6897874,0.59747976,0.4023698,-0.054312702,0.13455556,0.6164455,0.10467368,0.21434979,0.52749354,0.5918182,0.07363579,0.1845148,0.6410809,0.08222063,-0.27243376,-0.14047684,0.187474,806.6667,796.5934,804.65204,797.8022,806.6667,-0.0445556640625,0.08843994140625,0.98211669921875,0.94207763671875,-3.2000732421875,1.5850830078125,1.0,1.0,1.0,1.0,1.0,85.0,event
09:27:32.400,1.0468962,0.7954139,0.15101093,0.6897874,0.59747976,0.4023698,-0.054312702,0.13455556,0.6164455,0.10467368,0.21434979,0.52749354,0.5918182,0.07363579,0.1845148,0.6410809,0.08222063,-0.27243376,-0.14047684,0.187474,802.6374,801.4286,794.9817,802.6374,878.7912,-0.0445556640625,0.08843994140625,0.98211669921875,0.94207763671875,-3.2000732421875,1.5850830078125,1.0,1.0,1.0,1.0,1.0,85.0,event
09:27:32.400,1.0468962,0.7954139,0.15101093,0.6897874,0.59747976,0.4023698,-0.054312702,0.13455556,0.6164455,0.10467368,0.21434979,0.52749354,0.5918182,0.07363579,0.1845148,0.6410809,0.08222063,-0.27243376,-0.14047684,0.187474,802.6374,797.3993,794.57874,803.8461,911.4286,-0.0445556640625,0.08843994140625,0.98211669921875,0.94207763671875,-3.2000732421875,1.5850830078125,1.0,1.0,1.0,1.0,1.0,85.0,event
09:27:32.401,1.0468962,0.7954139,0.15101093,0.6897874,0.59747976,0.4023698,-0.054312702,0.13455556,0.6164455,0.10467368,0.21434979,0.52749354,0.5918182,0.07363579,0.1845148,0.6410809,0.08222063,-0.27243376,-0.14047684,0.187474,801.8315,799.41394,810.696,796.5934,817.1429,-0.0445556640625,0.08843994140625,0.98211669921875,0.94207763671875,-3.2000732421875,1.5850830078125,1.0,1.0,1.0,1.0,1.0,85.0,event
09:27:32.402,1.0468962,0.7954139,0.15101093,0.6897874,0.59747976,0.4023698,-0.054312702,0.13455556,0.6164455,0.10467368,0.21434979,0.52749354,0.5918182,0.07363579,0.1845148,0.6410809,0.08222063,-0.27243376,-0.14047684,0.187474,801.02563,797.8022,805.05493,794.17584,930.3663,-0.0445556640625,0.08843994140625,0.98211669921875,0.94207763671875,-3.2000732421875,1.5850830078125,1.0,1.0,1.0,1.0,1.0,85.0,event
09:27:32.402,1.0468962,0.7954139,0.15101093,0.6897874,0.59747976,0.4023698,-0.054312702,0.13455556,0.6164455,0.10467368,0.21434979,0.52749354,0.5918182,0.07363579,0.1845148,0.6410809,0.08222063,-0.27243376,-0.14047684,0.187474,812.3077,796.1905,801.4286,800.2198,1073.0037,-0.0445556640625,0.08843994140625,0.98211669921875,0.94207763671875,-3.2000732421875,1.5850830078125,1.0,1.0,1.0,1.0,1.0,85.0,event
09:27:32.403,1.0468962,0.7954139,0.15101093,0.6897874,0.59747976,0.4023698,-0.054312702,0.13455556,0.6164455,0.10467368,0.21434979,0.52749354,0.5918182,0.07363579,0.1845148,0.6410809,0.08222063,-0.27243376,-0.14047684,0.187474,805.8608,794.17584,812.3077,804.65204,840.5128,-0.0445556640625,0.08843994140625,0.98211669921875,0.94207763671875,-3.2000732421875,1.5850830078125,1.0,1.0,1.0,1.0,1.0,85.0,event
09:27:32.404,1.0468962,0.7954139,0.15101093,0.6897874,0.59747976,0.4023698,-0.054312702,0.13455556,0.6164455,0.10467368,0.21434979,0.52749354,0.5918182,0.07363579,0.1845148,0.6410809,0.08222063,-0.27243376,-0.14047684,0.187474,797.3993,797.3993,817.5458,801.4286,648.71796,-0.0445556640625,0.08843994140625,0.98211669921875,0.94207763671875,-3.2000732421875,1.5850830078125,1.0,1.0,1.0,1.0,1.0,85.0,event
09:27:32.404,1.0468962,0.7954139,0.15101093,0.6897874,0.59747976,0.4023698,-0.054312702,0.13455556,0.6164455,0.10467368,0.21434979,0.52749354,0.5918182,0.07363579,0.1845148,0.6410809,0.08222063,-0.27243376,-0.14047684,0.187474,807.0696,798.60803,812.71063,799.41394,729.707,-0.0445556640625,0.08843994140625,0.98211669921875,0.94207763671875,-3.2000732421875,1.5850830078125,1.0,1.0,1.0,1.0,1.0,85.0,event
09:27:32.430,1.0468962,0.7954139,0.15101093,0.6897874,0.59747976,0.4023698,-0.054312702,0.13455556,0.6164455,0.10467368,0.21434979,0.52749354,0.5918182,0.07363579,0.1845148,0.6410809,0.08222063,-0.27243376,-0.14047684,0.187474,805.8608,793.36993,804.2491,793.36993,681.75824,-0.02911376953125,0.0860595703125,0.98162841796875,1.966400146484375,-4.134674072265625,-0.04486083984375,1.0,1.0,1.0,1.0,1.0,85.0,event
09:27:32.431,1.0468962,0.7954139,0.15101093,0.6897874,0.59747976,0.4023698,-0.054312702,0.13455556,0.6164455,0.10467368,0.21434979,0.52749354,0.5918182,0.07363579,0.1845148,0.6410809,0.08222063,-0.27243376,-0.14047684,0.187474,805.05493,794.17584,807.47253,800.6227,639.0476,-0.02911376953125,0.0860595703125,0.98162841796875,1.966400146484375,-4.134674072265625,-0.04486083984375,1.0,1.0,1.0,1.0,1.0,85.0,event
09:27:32.432,1.0468962,0.7954139,0.15101093,0.6897874,0.59747976,0.4023698,-0.054312702,0.13455556,0.6164455,0.10467368,0.21434979,0.52749354,0.5918182,0.07363579,0.1845148,0.6410809,0.08222063,-0.27243376,-0.14047684,0.187474,809.89014,800.6227,812.3077,809.89014,719.6337,-0.02911376953125,0.0860595703125,0.98162841796875,1.966400146484375,-4.134674072265625,-0.04486083984375,1.0,1.0,1.0,1.0,1.0,85.0,event
09:27:32.433,1.0468962,0.79911965,0.10147147,0.6897874,0.59747976,0.43277693,-0.018793881,0.13455556,0.6164455,0.10634782,0.2011056,0.52749354,0.5918182,0.06506715,0.18312547,0.6410809,0.08222063,-0.30961746,-0.14393511,0.187474,810.293,803.0403,808.68134,798.60803,744.61536,-0.02911376953125,0.0860595703125,0.98162841796875,1.966400146484375,-4.134674072265625,-0.04486083984375,1.0,1.0,1.0,1.0,1.0,85.0,event
09:27:32.436,1.0468962,0.79911965,0.10147147,0.6897874,0.59747976,0.43277693,-0.018793881,0.13455556,0.6164455,0.10634782,0.2011056,0.52749354,0.5918182,0.06506715,0.18312547,0.6410809,0.08222063,-0.30961746,-0.14393511,0.187474,807.8755,804.65204,805.05493,790.14655,697.47253,-0.02911376953125,0.0860595703125,0.98162841796875,1.966400146484375,-4.134674072265625,-0.04486083984375,1.0,1.0,1.0,1.0,1.0,85.0,event
09:27:32.437,1.0468962,0.79911965,0.10147147,0.6897874,0.59747976,0.43277693,-0.018793881,0.13455556,0.6164455,0.10634782,0.2011056,0.52749354,0.5918182,0.06506715,0.18312547,0.6410809,0.08222063,-0.30961746,-0.14393511,0.187474,809.89014,804.2491,803.8461,789.7436,751.8681,-0.02911376953125,0.0860595703125,0.98162841796875,1.966400146484375,-4.134674072265625,-0.04486083984375,1.0,1.0,1.0,1.0,1.0,85.0,event
09:27:32.437,1.0468962,0.79911965,0.10147147,0.6897874,0.59747976,0.43277693,-0.018793881,0.13455556,0.6164455,0.10634782,0.2011056,0.52749354,0.5918182,0.06506715,0.18312547,0.6410809,0.08222063,-0.30961746,-0.14393511,0.187474,809.4872,805.05493,799.81683,788.5348,838.0952,-0.02911376953125,0.0860595703125,0.98162841796875,1.966400146484375,-4.134674072265625,-0.04486083984375,1.0,1.0,1.0,1.0,1.0,85.0,event
09:27:32.438,1.0468962,0.79911965,0.10147147,0.6897874,0.59747976,0.43277693,-0.018793881,0.13455556,0.6164455,0.10634782,0.2011056,0.52749354,0.5918182,0.06506715,0.18312547,0.6410809,0.08222063,-0.30961746,-0.14393511,0.187474,810.293,804.65204,794.9817,795.38464,1054.0659,-0.02911376953125,0.0860595703125,0.98162841796875,1.966400146484375,-4.134674072265625,-0.04486083984375,1.0,1.0,1.0,1.0,1.0,85.0,event
09:27:32.438,1.0468962,0.79911965,0.10147147,0.6897874,0.59747976,0.43277693,-0.018793881,0.13455556,0.6164455,0.10634782,0.2011056,0.52749354,0.5918182,0.06506715,0.18312547,0.6410809,0.08222063,-0.30961746,-0.14393511,0.187474,808.2784,801.02563,806.26373,800.2198,1093.5531,-0.02911376953125,0.0860595703125,0.98162841796875,1.966400146484375,-4.134674072265625,-0.04486083984375,1.0,1.0,1.0,1.0,1.0,85.0,event
09:27:32.439,1.0468962,0.79911965,0.10147147,0.6897874,0.59747976,0.43277693,-0.018793881,0.13455556,0.6164455,0.10634782,0.2011056,0.52749354,0.5918182,0.06506715,0.18312547,0.6410809,0.08222063,-0.30961746,-0.14393511,0.187474,805.8608,805.8608,809.0842,781.28204,742.6007,-0.02911376953125,0.0860595703125,0.98162841796875,1.966400146484375,-4.134674072265625,-0.04486083984375,1.0,1.0,1.0,1.0,1.0,85.0,event
09:27:32.439,1.0468962,0.79911965,0.10147147,0.6897874,0.59747976,0.43277693,-0.018793881,0.13455556,0.6164455,0.10634782,0.2011056,0.52749354,0.5918182,0.06506715,0.18312547,0.6410809,0.08222063,-0.30961746,-0.14393511,0.187474,801.02563,799.81683,813.5165,783.2967,776.8498,-0.02911376953125,0.0860595703125,0.98162841796875,1.966400146484375,-4.134674072265625,-0.04486083984375,1.0,1.0,1.0,1.0,1.0,85.0,event
09:27:32.440,1.0468962,0.79911965,0.10147147,0.6897874,0.59747976,0.43277693,-0.018793881,0.13455556,0.6164455,0.10634782,0.2011056,0.52749354,0.5918182,0.06506715,0.18312547,0.6410809,0.08222063,-0.30961746,-0.14393511,0.187474,806.6667,806.6667,806.6667,790.9524,797.3993,-0.02911376953125,0.0860595703125,0.98162841796875,1.966400146484375,-4.134674072265625,-0.04486083984375,1.0,1.0,1.0,1.0,1.0,85.0,event
09:27:32.462,1.0468962,0.79911965,0.10147147,0.6897874,0.59747976,0.43277693,-0.018793881,0.13455556,0.6164455,0.10634782,0.2011056,0.52749354,0.5918182,0.06506715,0.18312547,0.6410809,0.08222063,-0.30961746,-0.14393511,0.187474,802.23444,801.02563,807.0696,792.1612,709.15753,-0.02972412109375,0.0833740234375,0.9881591796875,1.218719482421875,-3.386993408203125,0.844879150390625,1.0,1.0,1.0,1.0,1.0,85.0,event
09:27:32.463,1.0468962,0.79911965,0.10147147,0.6897874,0.59747976,0.43277693,-0.018793881,0.13455556,0.6164455,0.10634782,0.2011056,0.52749354,0.5918182,0.06506715,0.18312547,0.6410809,0.08222063,-0.30961746,-0.14393511,0.187474,803.0403,802.23444,801.8315,795.38464,672.0879,-0.02972412109375,0.0833740234375,0.9881591796875,1.218719482421875,-3.386993408203125,0.844879150390625,1.0,1.0,1.0,1.0,1.0,85.0,event
09:27:32.464,1.0468962,0.79911965,0.10147147,0.6897874,0.59747976,0.43277693,-0.018793881,0.13455556,0.6164455,0.10634782,0.2011056,0.52749354,0.5918182,0.06506715,0.18312547,0.6410809,0.08222063,-0.30961746,-0.14393511,0.187474,804.2491,801.02563,801.4286,792.5641,720.0366,-0.02972412109375,0.0833740234375,0.9881591796875,1.218719482421875,-3.386993408203125,0.844879150390625,1.0,1.0,1.0,1.0,1.0,85.0,event
09:27:32.464,1.0468962,0.79911965,0.10147147,0.6897874,0.59747976,0.43277693,-0.018793881,0.13455556,0.6164455,0.10634782,0.2011056,0.52749354,0.5918182,0.06506715,0.18312547,0.6410809,0.08222063,-0.30961746,-0.14393511,0.187474,805.8608,799.011,804.2491,788.93774,724.4689,-0.02972412109375,0.0833740234375,0.9881591796875,1.218719482421875,-3.386993408203125,0.844879150390625,1.0,1.0,1.0,1.0,1.0,85.0,event
09:27:32.465,1.0468962,0.79911965,0.10147147,0.6897874,0.59747976,0.43277693,-0.018793881,0.13455556,0.6164455,0.10634782,0.2011056,0.52749354,0.5918182,0.06506715,0.18312547,0.6410809,0.08222063,-0.30961746,-0.14393511,0.187474,804.65204,801.02563,805.05493,790.9524,713.1868,-0.02972412109375,0.0833740234375,0.9881591796875,1.218719482421875,-3.386993408203125,0.844879150390625,1.0,1.0,1.0,1.0,1.0,85.0,event
09:27:32.465,1.0468962,0.79911965,0.10147147,0.6897874,0.59747976,0.43277693,-0.018793881,0.13455556,0.6164455,0.10634782,0.2011056,0.52749354,0.5918182,0.06506715,0.18312547,0.6410809,0.08222063,-0.30961746,-0.14393511,0.187474,810.696,804.2491,810.696,796.5934,760.7326,-0.02972412109375,0.0833740234375,0.9881591796875,1.218719482421875,-3.386993408203125,0.844879150390625,1.0,1.0,1.0,1.0,1.0,85.0,event
09:27:32.466,1.0468962,0.79911965,0.10147147,0.6897874,0.59747976,0.43277693,-0.018793881,0.13455556,0.6164455,0.10634782,0.2011056,0.52749354,0.5918182,0.06506715,0.18312547,0.6410809,0.08222063,-0.30961746,-0.14393511,0.187474,813.5165,796.99634,803.0403,795.38464,1039.5604,-0.02972412109375,0.0833740234375,0.9881591796875,1.218719482421875,-3.386993408203125,0.844879150390625,1.0,1.0,1.0,1.0,1.0,85.0,event
09:27:32.466,1.0468962,0.79911965,0.10147147,0.6897874,0.59747976,0.43277693,-0.018793881,0.13455556,0.6164455,0.10634782,0.2011056,0.52749354,0.5918182,0.06506715,0.18312547,0.6410809,0.08222063,-0.30961746,-0.14393511,0.187474,813.1135,798.60803,805.8608,797.8022,952.52747,-0.02972412109375,0.0833740234375,0.9881591796875,1.218719482421875,-3.386993408203125,0.844879150390625,1.0,1.0,1.0,1.0,1.0,85.0,event
09:27:32.467,1.0468962,0.79911965,0.10147147,0.6897874,0.59747976,0.43277693,-0.018793881,0.13455556,0.6164455,0.10634782,0.2011056,0.52749354,0.5918182,0.06506715,0.18312547,0.6410809,0.08222063,-0.30961746,-0.14393511,0.187474,809.0842,803.44324,806.6667,783.2967,829.2308,-0.02972412109375,0.0833740234375,0.9881591796875,1.218719482421875,-3.386993408203125,0.844879150390625,1.0,1.0,1.0,1.0,1.0,85.0,event
09:27:32.467,1.0468962,0.79911965,0.10147147,0.6897874,0.59747976,0.43277693,-0.018793881,0.13455556,0.6164455,0.10634782,0.2011056,0.52749354,0.5918182,0.06506715,0.18312547,0.6410809,0.08222063,-0.30961746,-0.14393511,0.187474,801.8315,796.5934,807.0696,782.49084,730.9158,-0.02972412109375,0.0833740234375,0.9881591796875,1.218719482421875,-3.386993408203125,0.844879150390625,1.0,1.0,1.0,1.0,1.0,85.0,event
09:27:32.468,1.0468962,0.79911965,0.10147147,0.6897874,0.59747976,0.43277693,-0.018793881,0.13455556,0.6164455,0.10634782,0.2011056,0.52749354,0.5918182,0.06506715,0.18312547,0.6410809,0.08222063,-0.30961746,-0.14393511,0.187474,802.23444,794.9817,805.4579,790.14655,722.8571,-0.02972412109375,0.0833740234375,0.9881591796875,1.218719482421875,-3.386993408203125,0.844879150390625,1.0,1.0,1.0,1.0,1.0,85.0,event
09:27:32.468,1.0468962,0.79911965,0.10147147,0.6897874,0.59747976,0.43277693,-0.018793881,0.13455556,0.6164455,0.10634782,0.2011056,0.52749354,0.5918182,0.06506715,0.18312547,0.6410809,0.08222063,-0.30961746,-0.14393511,0.187474,808.68134,803.44324,807.8755,796.5934,780.07324,-0.02972412109375,0.0833740234375,0.9881591796875,1.218719482421875,-3.386993408203125,0.844879150390625,1.0,1.0,1.0,1.0,1.0,85.0,event
09:27:32.500,1.0468962,0.79911965,0.10147147,0.6897874,0.59747976,0.43277693,-0.018793881,0.13455556,0.6164455,0.10634782,0.2011056,0.52749354,0.5918182,0.06506715,0.18312547,0.6410809,0.08222063,-0.30961746,-0.14393511,0.187474,809.4872,804.65204,807.47253,790.9524,721.6484,-0.03607177734375,0.077392578125,0.98004150390625,1.487884521484375,-3.043060302734375,-0.0,1.0,1.0,1.0,1.0,1.0,85.0,event
09:27:32.502,1.0468962,0.79911965,0.10147147,0.6897874,0.59747976,0.43277693,-0.018793881,0.13455556,0.6164455,0.10634782,0.2011056,0.52749354,0.5918182,0.06506715,0.18312547,0.6410809,0.08222063,-0.30961746,-0.14393511,0.187474,812.3077,803.8461,804.65204,783.69965,635.0183,-0.03607177734375,0.077392578125,0.98004150390625,1.487884521484375,-3.043060302734375,-0.0,1.0,1.0,1.0,1.0,1.0,85.0,event
09:27:32.502,1.0468962,0.79911965,0.10147147,0.6897874,0.59747976,0.43277693,-0.018793881,0.13455556,0.6164455,0.10634782,0.2011056,0.52749354,0.5918182,0.06506715,0.18312547,0.6410809,0.08222063,-0.30961746,-0.14393511,0.187474,817.1429,805.8608,805.05493,788.93774,756.30035,-0.03607177734375,0.077392578125,0.98004150390625,1.487884521484375,-3.043060302734375,-0.0,1.0,1.0,1.0,1.0,1.0,85.0,event
09:27:32.504,1.0468962,0.79911965,0.10147147,0.6897874,0.59747976,0.43277693,-0.018793881,0.13455556,0.6164455,0.10634782,0.2011056,0.52749354,0.5918182,0.06506715,0.18312547,0.6410809,0.08222063,-0.30961746,-0.14393511,0.187474,811.0989,803.0403,805.05493,791.75824,792.5641,-0.03607177734375,0.077392578125,0.98004150390625,1.487884521484375,-3.043060302734375,-0.0,1.0,1.0,1.0,1.0,1.0,85.0,event
09:27:32.505,1.0468962,0.79911965,0.10147147,0.6897874,0.59747976,0.43277693,-0.018793881,0.13455556,0.6164455,0.10634782,0.2011056,0.52749354,0.5918182,0.06506715,0.18312547,0.6410809,0.08222063,-0.30961746,-0.14393511,0.187474,812.71063,803.44324,806.6667,793.36993,759.92676,-0.03607177734375,0.077392578125,0.98004150390625,1.487884521484375,-3.043060302734375,-0.0,1.0,1.0,1.0,1.0,1.0,85.0,event
09:27:32.506,1.0468962,0.8023141,0.061027218,0.6897874,0.59747976,0.45408735,0.002500609,0.13455556,0.6164455,0.11263273,0.19448984,0.52749354,0.5918182,0.058338854,0.17686635,0.6410809,0.08222063,-0.3478569,-0.14028308,0.187474,810.696,805.4579,807.8755,790.9524,857.4359,-0.03607177734375,0.077392578125,0.98004150390625,1.487884521484375,-3.043060302734375,-0.0,1.0,1.0,1.0,1.0,1.0,85.0,event
09:27:32.511,1.0468962,0.8023141,0.061027218,0.6897874,0.59747976,0.45408735,0.002500609,0.13455556,0.6164455,0.11263273,0.19448984,0.52749354,0.5918182,0.058338854,0.17686635,0.6410809,0.08222063,-0.3478569,-0.14028308,0.187474,808.68134,805.05493,799.81683,791.75824,1016.5934,-0.03607177734375,0.077392578125,0.98004150390625,1.487884521484375,-3.043060302734375,-0.0,1.0,1.0,1.0,1.0,1.0,85.0,event
09:27:32.512,1.0468962,0.8023141,0.061027218,0.6897874,0.59747976,0.45408735,0.002500609,0.13455556,0.6164455,0.11263273,0.19448984,0.52749354,0.5918182,0.058338854,0.17686635,0.6410809,0.08222063,-0.3478569,-0.14028308,0.187474,813.1135,801.8315,796.99634,794.57874,892.8938,-0.03607177734375,0.077392578125,0.98004150390625,1.487884521484375,-3.043060302734375,-0.0,1.0,1.0,1.0,1.0,1.0,85.0,event
09:27:32.512,1.0468962,0.8023141,0.061027218,0.6897874,0.59747976,0.45408735,0.002500609,0.13455556,0.6164455,0.11263273,0.19448984,0.52749354,0.5918182,0.058338854,0.17686635,0.6410809,0.08222063,-0.3478569,-0.14028308,0.187474,807.0696,798.20514,802.23444,798.60803,635.42126,-0.03607177734375,0.077392578125,0.98004150390625,1.487884521484375,-3.043060302734375,-0.0,1.0,1.0,1.0,1.0,1.0,85.0,event
09:27:32.513,1.0468962,0.8023141,0.061027218,0.6897874,0.59747976,0.45408735,0.002500609,0.13455556,0.6164455,0.11263273,0.19448984,0.52749354,0.5918182,0.058338854,0.17686635,0.6410809,0.08222063,-0.3478569,-0.14028308,0.187474,802.23444,798.20514,803.8461,798.60803,713.9927,-0.03607177734375,0.077392578125,0.98004150390625,1.487884521484375,-3.043060302734375,-0.0,1.0,1.0,1.0,1.0,1.0,85.0,event
09:27:32.514,1.0468962,0.8023141,0.061027218,0.6897874,0.59747976,0.45408735,0.002500609,0.13455556,0.6164455,0.11263273,0.19448984,0.52749354,0.5918182,0.058338854,0.17686635,0.6410809,0.08222063,-0.3478569,-0.14028308,0.187474,806.26373,797.3993,799.81683,792.5641,751.8681,-0.03607177734375,0.077392578125,0.98004150390625,1.487884521484375,-3.043060302734375,-0.0,1.0,1.0,1.0,1.0,1.0,85.0,event
09:27:32.515,1.0468962,0.8023141,0.061027218,0.6897874,0.59747976,0.45408735,0.002500609,0.13455556,0.6164455,0.11263273,0.19448984,0.52749354,0.5918182,0.058338854,0.17686635,0.6410809,0.08222063,-0.3478569,-0.14028308,0.187474,805.4579,795.78754,799.41394,795.38464,696.6667,-0.03607177734375,0.077392578125,0.98004150390625,1.487884521484375,-3.043060302734375,-0.0,1.0,1.0,1.0,1.0,1.0,85.0,event
09:27:32.588,1.0468962,0.8023141,0.061027218,0.6897874,0.59747976,0.45408735,0.002500609,0.13455556,0.6164455,0.11263273,0.19448984,0.52749354,0.5918182,0.058338854,0.17686635,0.6410809,0.08222063,-0.3478569,-0.14028308,0.187474,801.02563,788.93774,794.9817,785.31134,692.23444,-0.03607177734375,0.077392578125,0.98004150390625,1.487884521484375,-3.043060302734375,-0.0,1.0,1.0,1.0,1.0,1.0,85.0,event
09:27:32.590,1.0468962,0.8023141,0.061027218,0.6897874,0.59747976,0.45408735,0.002500609,0.13455556,0.6164455,0.11263273,0.19448984,0.52749354,0.5918182,0.058338854,0.17686635,0.6410809,0.08222063,-0.3478569,-0.14028308,0.187474,803.0403,788.5348,794.57874,787.72894,810.696,-0.03607177734375,0.077392578125,0.98004150390625,1.487884521484375,-3.043060302734375,-0.0,1.0,1.0,1.0,1.0,1.0,85.0,event
09:27:32.590,1.0468962,0.8023141,0.061027218,0.6897874,0.59747976,0.45408735,0.002500609,0.13455556,0.6164455,0.11263273,0.19448984,0.52749354,0.5918182,0.058338854,0.17686635,0.6410809,0.08222063,-0.3478569,-0.14028308,0.187474,801.8315,803.0403,801.02563,801.02563,972.674,-0.03607177734375,0.077392578125,0.98004150390625,1.487884521484375,-3.043060302734375,-0.0,1.0,1.0,1.0,1.0,1.0,85.0,event
09:27:32.591,1.0468962,0.8023141,0.061027218,0.6897874,0.59747976,0.45408735,0.002500609,0.13455556,0.6164455,0.11263273,0.19448984,0.52749354,0.5918182,0.058338854,0.17686635,0.6410809,0.08222063,-0.3478569,-0.14028308,0.187474,799.41394,804.2491,800.2198,792.96704,877.5824,-0.03607177734375,0.077392578125,0.98004150390625,1.487884521484375,-3.043060302734375,-0.0,1.0,1.0,1.0,1.0,1.0,85.0,event
09:27:32.592,1.0468962,0.8023141,0.061027218,0.6897874,0.59747976,0.45408735,0.002500609,0.13455556,0.6164455,0.11263273,0.19448984,0.52749354,0.5918182,0.058338854,0.17686635,0.6410809,0.08222063,-0.3478569,-0.14028308,0.187474,805.05493,800.6227,797.8022,780.87915,728.0952,-0.03607177734375,0.077392578125,0.98004150390625,1.487884521484375,-3.043060302734375,-0.0,1.0,1.0,1.0,1.0,1.0,85.0,event
09:27:32.593,1.0468962,0.8023141,0.061027218,0.6897874,0.59747976,0.45408735,0.002500609,0.13455556,0.6164455,0.11263273,0.19448984,0.52749354,0.5918182,0.058338854,0.17686635,0.6410809,0.08222063,-0.3478569,-0.14028308,0.187474,803.0403,801.02563,792.1612,780.4762,909.011,-0.03607177734375,0.077392578125,0.98004150390625,1.487884521484375,-3.043060302734375,-0.0,1.0,1.0,1.0,1.0,1.0,85.0,event
09:27:32.594,1.0468962,0.8023141,0.061027218,0.6897874,0.59747976,0.45408735,0.002500609,0.13455556,0.6164455,0.11263273,0.19448984,0.52749354,0.5918182,0.058338854,0.17686635,0.6410809,0.08222063,-0.3478569,-0.14028308,0.187474,797.8022,799.011,795.78754,794.17584,1177.3627,-0.03607177734375,0.077392578125,0.98004150390625,1.487884521484375,-3.043060302734375,-0.0,1.0,1.0,1.0,1.0,1.0,85.0,event
09:27:32.595,1.0468962,0.8023141,0.061027218,0.6897874,0.59747976,0.45408735,0.002500609,0.13455556,0.6164455,0.11263273,0.19448984,0.52749354,0.5918182,0.058338854,0.17686635,0.6410809,0.08222063,-0.3478569,-0.14028308,0.187474,799.41394,797.8022,807.0696,802.23444,919.4872,-0.03607177734375,0.077392578125,0.98004150390625,1.487884521484375,-3.043060302734375,-0.0,1.0,1.0,1.0,1.0,1.0,85.0,event
09:27:32.596,1.0468962,0.8023141,0.061027218,0.6897874,0.59747976,0.45408735,0.002500609,0.13455556,0.6164455,0.11263273,0.19448984,0.52749354,0.5918182,0.058338854,0.17686635,0.6410809,0.08222063,-0.3478569,-0.14028308,0.187474,797.3993,797.3993,807.47253,789.7436,815.5311,-0.03607177734375,0.077392578125,0.98004150390625,1.487884521484375,-3.043060302734375,-0.0,1.0,1.0,1.0,1.0,1.0,85.0,event
09:27:32.596,1.0468962,0.8023141,0.061027218,0.6897874,0.59747976,0.45408735,0.002500609,0.13455556,0.6164455,0.11263273,0.19448984,0.52749354,0.5918182,0.058338854,0.17686635,0.6410809,0.08222063,-0.3478569,-0.14028308,0.187474,794.17584,796.5934,808.2784,793.7729,684.9817,-0.03607177734375,0.077392578125,0.98004150390625,1.487884521484375,-3.043060302734375,-0.0,1.0,1.0,1.0,1.0,1.0,85.0,event
09:27:32.597,1.0468962,0.8023141,0.061027218,0.6897874,0.59747976,0.45408735,0.002500609,0.13455556,0.6164455,0.11263273,0.19448984,0.52749354,0.5918182,0.058338854,0.17686635,0.6410809,0.08222063,-0.3478569,-0.14028308,0.187474,801.8315,801.8315,807.8755,790.9524,807.0696,-0.03607177734375,0.077392578125,0.98004150390625,1.487884521484375,-3.043060302734375,-0.0,1.0,1.0,1.0,1.0,1.0,85.0,event
09:27:32.598,1.0468962,0.8023141,0.061027218,0.6897874,0.59747976,0.45408735,0.002500609,0.13455556,0.6164455,0.11263273,0.19448984,0.52749354,0.5918182,0.058338854,0.17686635,0.6410809,0.08222063,-0.3478569,-0.14028308,0.187474,799.41394,804.2491,801.8315,790.14655,705.5311,-0.03607177734375,0.077392578125,0.98004150390625,1.487884521484375,-3.043060302734375,-0.0,1.0,1.0,1.0,1.0,1.0,85.0,event
09:27:32.632,1.0468962,0.8023141,0.061027218,0.6897874,0.59747976,0.45408735,0.002500609,0.13455556,0.6164455,0.11263273,0.19448984,0.52749354,0.5918182,0.058338854,0.17686635,0.6410809,0.08222063,-0.3478569,-0.14028308,0.187474,805.4579,803.8461,798.60803,803.0403,792.1612,-0.03070068359375,0.080078125,0.985595703125,1.682281494140625,-2.743988037109375,-0.059814453125,1.0,1.0,1.0,1.0,1.0,85.0,event
09:27:32.633,1.0468962,0.8023141,0.061027218,0.6897874,0.59747976,0.45408735,0.002500609,0.13455556,0.6164455,0.11263273,0.19448984,0.52749354,0.5918182,0.058338854,0.17686635,0.6410809,0.08222063,-0.3478569,-0.14028308,0.187474,811.50183,800.6227,798.20514,804.2491,822.7839,-0.03070068359375,0.080078125,0.985595703125,1.682281494140625,-2.743988037109375,-0.059814453125,1.0,1.0,1.0,1.0,1.0,85.0,event
09:27:32.634,1.0468962,0.8023141,0.061027218,0.6897874,0.59747976,0.45408735,0.002500609,0.13455556,0.6164455,0.11263273,0.19448984,0.52749354,0.5918182,0.058338854,0.17686635,0.6410809,0.08222063,-0.3478569,-0.14028308,0.187474,816.337,802.23444,799.41394,801.02563,761.53845,-0.03070068359375,0.080078125,0.985595703125,1.682281494140625,-2.743988037109375,-0.059814453125,1.0,1.0,1.0,1.0,1.0,85.0,event
09:27:32.634,1.0468962,0.8023141,0.061027218,0.6897874,0.59747976,0.45408735,0.002500609,0.13455556,0.6164455,0.11263273,0.19448984,0.52749354,0.5918182,0.058338854,0.17686635,0.6410809,0.08222063,-0.3478569,-0.14028308,0.187474,812.71063,801.02563,808.68134,803.8461,696.6667,-0.03070068359375,0.080078125,0.985595703125,1.682281494140625,-2.743988037109375,-0.059814453125,1.0,1.0,1.0,1.0,1.0,85.0,event
09:27:32.635,1.0468962,0.8023141,0.061027218,0.6897874,0.59747976,0.45408735,0.002500609,0.13455556,0.6164455,0.11263273,0.19448984,0.52749354,0.5918182,0.058338854,0.17686635,0.6410809,0.08222063,-0.3478569,-0.14028308,0.187474,807.0696,800.2198,812.71063,791.3553,714.7985,-0.03070068359375,0.080078125,0.985595703125,1.682281494140625,-2.743988037109375,-0.059814453125,1.0,1.0,1.0,1.0,1.0,85.0,event
09:27:32.636,1.0468962,0.8023141,0.061027218,0.6897874,0.59747976,0.45408735,0.002500609,0.13455556,0.6164455,0.11263273,0.19448984,0.52749354,0.5918182,0.058338854,0.17686635,0.6410809,0.08222063,-0.3478569,-0.14028308,0.187474,817.9487,805.4579,808.68134,797.8022,829.2308,-0.03070068359375,0.080078125,0.985595703125,1.682281494140625,-2.743988037109375,-0.059814453125,1.0,1.0,1.0,1.0,1.0,85.0,event
09:27:32.637,1.0468962,0.8023141,0.061027218,0.6897874,0.59747976,0.45408735,0.002500609,0.13455556,0.6164455,0.11263273,0.19448984,0.52749354,0.5918182,0.058338854,0.17686635,0.6410809,0.08222063,-0.3478569,-0.14028308,0.187474,815.5311,801.02563,805.4579,802.23444,839.304,-0.03070068359375,0.080078125,0.985595703125,1.682281494140625,-2.743988037109375,-0.059814453125,1.0,1.0,1.0,1.0,1.0,85.0,event
09:27:32.637,1.0468962,0.80124825,0.0377897,0.6897874,0.59747976,0.46266213,0.013281733,0.13455556,0.6164455,0.114544526,0.18282582,0.52749354,0.5918182,0.052331865,0.16613673,0.6410809,0.08222063,-0.37808934,-0.126723,0.187474,802.6374,796.99634,808.68134,784.10254,788.1319,-0.03070068359375,0.080078125,0.985595703125,1.682281494140625,-2.743988037109375,-0.059814453125,1.0,1.0,1.0,1.0,1.0,85.0,event
09:27:32.642,1.0468962,0.80124825,0.0377897,0.6897874,0.59747976,0.46266213,0.013281733,0.13455556,0.6164455,0.114544526,0.18282582,0.52749354,0.5918182,0.052331865,0.16613673,0.6410809,0.08222063,-0.37808934,-0.126723,0.187474,807.0696,801.8315,808.68134,784.5055,763.95605,-0.03070068359375,0.080078125,0.985595703125,1.682281494140625,-2.743988037109375,-0.059814453125,1.0,1.0,1.0,1.0,1.0,85.0,event
09:27:32.643,1.0468962,0.80124825,0.0377897,0.6897874,0.59747976,0.46266213,0.013281733,0.13455556,0.6164455,0.114544526,0.18282582,0.52749354,0.5918182,0.052331865,0.16613673,0.6410809,0.08222063,-0.37808934,-0.126723,0.187474,805.05493,801.02563,808.68134,796.5934,806.6667,-0.03070068359375,0.080078125,0.985595703125,1.682281494140625,-2.743988037109375,-0.059814453125,1.0,1.0,1.0,1.0,1.0,85.0,event
09:27:32.644,1.0468962,0.80124825,0.0377897,0.6897874,0.59747976,0.46266213,0.013281733,0.13455556,0.6164455,0.114544526,0.18282582,0.52749354,0.5918182,0.052331865,0.16613673,0.6410809,0.08222063,-0.37808934,-0.126723,0.187474,807.47253,799.011,812.71063,803.8461,840.10986,-0.03070068359375,0.080078125,0.985595703125,1.682281494140625,-2.743988037109375,-0.059814453125,1.0,1.0,1.0,1.0,1.0,85.0,event
09:27:32.644,1.0468962,0.80124825,0.0377897,0.6897874,0.59747976,0.46266213,0.013281733,0.13455556,0.6164455,0.114544526,0.18282582,0.52749354,0.5918182,0.052331865,0.16613673,0.6410809,0.08222063,-0.37808934,-0.126723,0.187474,812.71063,797.3993,812.3077,801.4286,848.5714,-0.03070068359375,0.080078125,0.985595703125,1.682281494140625,-2.743988037109375,-0.059814453125,1.0,1.0,1.0,1.0,1.0,85.0,event
09:27:32.673,1.0468962,0.80124825,0.0377897,0.6897874,0.59747976,0.46266213,0.013281733,0.13455556,0.6164455,0.114544526,0.18282582,0.52749354,0.5918182,0.052331865,0.16613673,0.6410809,0.08222063,-0.37808934,-0.126723,0.187474,808.2784,799.81683,808.2784,786.52014,765.56775,-0.0364990234375,0.08258056640625,0.97998046875,1.712188720703125,-2.684173583984375,1.6748046875,1.0,1.0,1.0,1.0,1.0,85.0,event
09:27:32.675,1.0468962,0.80124825,0.0377897,0.6897874,0.59747976,0.46266213,0.013281733,0.13455556,0.6164455,0.114544526,0.18282582,0.52749354,0.5918182,0.052331865,0.16613673,0.6410809,0.08222063,-0.37808934,-0.126723,0.187474,803.44324,800.6227,802.23444,782.49084,940.4396,-0.0364990234375,0.08258056640625,0.97998046875,1.712188720703125,-2.684173583984375,1.6748046875,1.0,1.0,1.0,1.0,1.0,85.0,event
09:27:32.676,1.0468962,0.80124825,0.0377897,0.6897874,0.59747976,0.46266213,0.013281733,0.13455556,0.6164455,0.114544526,0.18282582,0.52749354,0.5918182,0.052331865,0.16613673,0.6410809,0.08222063,-0.37808934,-0.126723,0.187474,807.0696,800.6227,806.6667,786.1172,906.1905,-0.0364990234375,0.08258056640625,0.97998046875,1.712188720703125,-2.684173583984375,1.6748046875,1.0,1.0,1.0,1.0,1.0,85.0,event
09:27:32.677,1.0468962,0.80124825,0.0377897,0.6897874,0.59747976,0.46266213,0.013281733,0.13455556,0.6164455,0.114544526,0.18282582,0.52749354,0.5918182,0.052331865,0.16613673,0.6410809,0.08222063,-0.37808934,-0.126723,0.187474,809.89014,799.81683,807.8755,787.72894,667.25275,-0.0364990234375,0.08258056640625,0.97998046875,1.712188720703125,-2.684173583984375,1.6748046875,1.0,1.0,1.0,1.0,1.0,85.0,event
09:27:32.678,1.0468962,0.80124825,0.0377897,0.6897874,0.59747976,0.46266213,0.013281733,0.13455556,0.6164455,0.114544526,0.18282582,0.52749354,0.5918182,0.052331865,0.16613673,0.6410809,0.08222063,-0.37808934,-0.126723,0.187474,814.7253,797.3993,802.23444,796.99634,721.6484,-0.0364990234375,0.08258056640625,0.97998046875,1.712188720703125,-2.684173583984375,1.6748046875,1.0,1.0,1.0,1.0,1.0,85.0,event
09:27:32.679,1.0468962,0.80124825,0.0377897,0.6897874,0.59747976,0.46266213,0.013281733,0.13455556,0.6164455,0.114544526,0.18282582,0.52749354,0.5918182,0.052331865,0.16613673,0.6410809,0.08222063,-0.37808934,-0.126723,0.187474,821.5751,803.44324,801.4286,796.1905,819.9634,-0.0364990234375,0.08258056640625,0.97998046875,1.712188720703125,-2.684173583984375,1.6748046875,1.0,1.0,1.0,1.0,1.0,85.0,event
09:27:32.680,1.0468962,0.80124825,0.0377897,0.6897874,0.59747976,0.46266213,0.013281733,0.13455556,0.6164455,0.114544526,0.18282582,0.52749354,0.5918182,0.052331865,0.16613673,0.6410809,0.08222063,-0.37808934,-0.126723,0.187474,821.5751,807.8755,803.0403,784.10254,823.5897,-0.0364990234375,0.08258056640625,0.97998046875,1.712188720703125,-2.684173583984375,1.6748046875,1.0,1.0,1.0,1.0,1.0,85.0,event
09:27:32.684,1.0468962,0.80124825,0.0377897,0.6897874,0.59747976,0.46266213,0.013281733,0.13455556,0.6164455,0.114544526,0.18282582,0.52749354,0.5918182,0.052331865,0.16613673,0.6410809,0.08222063,-0.37808934,-0.126723,0.187474,817.1429,805.8608,809.0842,785.7143,720.0366,-0.0364990234375,0.08258056640625,0.97998046875,1.712188720703125,-2.684173583984375,1.6748046875,1.0,1.0,1.0,1.0,1.0,85.0,event
09:27:32.685,1.0468962,0.80124825,0.0377897,0.6897874,0.59747976,0.46266213,0.013281733,0.13455556,0.6164455,0.114544526,0.18282582,0.52749354,0.5918182,0.052331865,0.16613673,0.6410809,0.08222063,-0.37808934,-0.126723,0.187474,821.978,811.0989,809.0842,795.78754,818.7546,-0.0364990234375,0.08258056640625,0.97998046875,1.712188720703125,-2.684173583984375,1.6748046875,1.0,1.0,1.0,1.0,1.0,85.0,event
09:27:32.686,1.0468962,0.80124825,0.0377897,0.6897874,0.59747976,0.46266213,0.013281733,0.13455556,0.6164455,0.114544526,0.18282582,0.52749354,0.5918182,0.052331865,0.16613673,0.6410809,0.08222063,-0.37808934,-0.126723,0.187474,820.7692,810.696,803.44324,792.96704,848.1685,-0.0364990234375,0.08258056640625,0.97998046875,1.712188720703125,-2.684173583984375,1.6748046875,1.0,1.0,1.0,1.0,1.0,85.0,event
09:27:32.686,1.0468962,0.80124825,0.0377897,0.6897874,0.59747976,0.46266213,0.013281733,0.13455556,0.6164455,0.114544526,0.18282582,0.52749354,0.5918182,0.052331865,0.16613673,0.6410809,0.08222063,-0.37808934,-0.126723,0.187474,809.0842,804.65204,807.0696,786.52014,734.1392,-0.0364990234375,0.08258056640625,0.97998046875,1.712188720703125,-2.684173583984375,1.6748046875,1.0,1.0,1.0,1.0,1.0,85.0,event
09:27:32.688,1.0468962,0.80124825,0.0377897,0.6897874,0.59747976,0.46266213,0.013281733,0.13455556,0.6164455,0.114544526,0.18282582,0.52749354,0.5918182,0.052331865,0.16613673,0.6410809,0.08222063,-0.37808934,-0.126723,0.187474,805.4579,809.4872,810.696,781.28204,692.23444,-0.0364990234375,0.08258056640625,0.97998046875,1.712188720703125,-2.684173583984375,1.6748046875,1.0,1.0,1.0,1.0,1.0,85.0,event
09:27:32.714,1.0468962,0.80124825,0.0377897,0.6897874,0.59747976,0.46266213,0.013281733,0.13455556,0.6164455,0.114544526,0.18282582,0.52749354,0.5918182,0.052331865,0.16613673,0.6410809,0.08222063,-0.37808934,-0.126723,0.187474,807.8755,809.0842,795.38464,776.04395,817.5458,-0.04833984375,0.0816650390625,0.98046875,2.684173583984375,-2.474822998046875,0.88226318359375,1.0,1.0,1.0,1.0,1.0,85.0,event
09:27:32.715,1.0468962,0.80124825,0.0377897,0.6897874,0.59747976,0.46266213,0.013281733,0.13455556,0.6164455,0.114544526,0.18282582,0.52749354,0.5918182,0.052331865,0.16613673,0.6410809,0.08222063,-0.37808934,-0.126723,0.187474,815.9341,805.8608,794.17584,791.75824,985.56775,-0.04833984375,0.0816650390625,0.98046875,2.684173583984375,-2.474822998046875,0.88226318359375,1.0,1.0,1.0,1.0,1.0,85.0,event
09:27:32.716,1.0468962,0.80124825,0.0377897,0.6897874,0.59747976,0.46266213,0.013281733,0.13455556,0.6164455,0.114544526,0.18282582,0.52749354,0.5918182,0.052331865,0.16613673,0.6410809,0.08222063,-0.37808934,-0.126723,0.187474,816.337,812.3077,805.4579,798.60803,782.49084,-0.04833984375,0.0816650390625,0.98046875,2.684173583984375,-2.474822998046875,0.88226318359375,1.0,1.0,1.0,1.0,1.0,85.0,event
09:27:32.717,1.0468962,0.80124825,0.0377897,0.6897874,0.59747976,0.46266213,0.013281733,0.13455556,0.6164455,0.114544526,0.18282582,0.52749354,0.5918182,0.052331865,0.16613673,0.6410809,0.08222063,-0.37808934,-0.126723,0.187474,810.293,813.91943,805.05493,788.93774,740.989,-0.04833984375,0.0816650390625,0.98046875,2.684173583984375,-2.474822998046875,0.88226318359375,1.0,1.0,1.0,1.0,1.0,85.0,event
09:27:32.718,1.0468962,0.80124825,0.0377897,0.6897874,0.59747976,0.46266213,0.013281733,0.13455556,0.6164455,0.114544526,0.18282582,0.52749354,0.5918182,0.052331865,0.16613673,0.6410809,0.08222063,-0.37808934,-0.126723,0.187474,809.89014,813.1135,805.05493,780.07324,845.34796,-0.04833984375,0.0816650390625,0.98046875,2.684173583984375,-2.474822998046875,0.88226318359375,1.0,1.0,1.0,1.0,1.0,85.0,event
09:27:32.718,1.0468962,0.80124825,0.0377897,0.6897874,0.59747976,0.46266213,0.013281733,0.13455556,0.6164455,0.114544526,0.18282582,0.52749354,0.5918182,0.052331865,0.16613673,0.6410809,0.08222063,-0.37808934,-0.126723,0.187474,809.4872,812.71063,801.8315,776.4469,863.8828,-0.04833984375,0.0816650390625,0.98046875,2.684173583984375,-2.474822998046875,0.88226318359375,1.0,1.0,1.0,1.0,1.0,85.0,event
09:27:32.719,1.0468962,0.80124825,0.0377897,0.6897874,0.59747976,0.46266213,0.013281733,0.13455556,0.6164455,0.114544526,0.18282582,0.52749354,0.5918182,0.052331865,0.16613673,0.6410809,0.08222063,-0.37808934,-0.126723,0.187474,805.4579,806.6667,799.41394,779.2674,826.4103,-0.04833984375,0.0816650390625,0.98046875,2.684173583984375,-2.474822998046875,0.88226318359375,1.0,1.0,1.0,1.0,1.0,85.0,event
09:27:32.720,1.0468962,0.80124825,0.0377897,0.6897874,0.59747976,0.46266213,0.013281733,0.13455556,0.6164455,0.114544526,0.18282582,0.52749354,0.5918182,0.052331865,0.16613673,0.6410809,0.08222063,-0.37808934,-0.126723,0.187474,803.8461,805.05493,796.99634,775.2381,933.1868,-0.04833984375,0.0816650390625,0.98046875,2.684173583984375,-2.474822998046875,0.88226318359375,1.0,1.0,1.0,1.0,1.0,85.0,event
09:27:32.720,1.0468962,0.80124825,0.0377897,0.6897874,0.59747976,0.46266213,0.013281733,0.13455556,0.6164455,0.114544526,0.18282582,0.52749354,0.5918182,0.052331865,0.16613673,0.6410809,0.08222063,-0.37808934,-0.126723,0.187474,801.4286,803.0403,796.99634,774.0293,768.3883,-0.04833984375,0.0816650390625,0.98046875,2.684173583984375,-2.474822998046875,0.88226318359375,1.0,1.0,1.0,1.0,1.0,85.0,event
09:27:32.721,1.0468962,0.7962417,0.020807968,0.6897874,0.59747976,0.4604955,0.01564013,0.13455556,0.6164455,0.102296546,0.1899215,0.52749354,0.5918182,0.046011183,0.15233518,0.6410809,0.08222063,-0.39689276,-0.10589523,0.187474,810.696,805.4579,799.81683,778.0586,961.39197,-0.04833984375,0.0816650390625,0.98046875,2.684173583984375,-2.474822998046875,0.88226318359375,1.0,1.0,1.0,1.0,1.0,85.0,event
09:27:32.725,1.0468962,0.7962417,0.020807968,0.6897874,0.59747976,0.4604955,0.01564013,0.13455556,0.6164455,0.102296546,0.1899215,0.52749354,0.5918182,0.046011183,0.15233518,0.6410809,0.08222063,-0.39689276,-0.10589523,0.187474,813.5165,801.02563,791.75824,771.6117,763.95605,-0.04833984375,0.0816650390625,0.98046875,2.684173583984375,-2.474822998046875,0.88226318359375,1.0,1.0,1.0,1.0,1.0,85.0,event
09:27:32.725,1.0468962,0.7962417,0.020807968,0.6897874,0.59747976,0.4604955,0.01564013,0.13455556,0.6164455,0.102296546,0.1899215,0.52749354,0.5918182,0.046011183,0.15233518,0.6410809,0.08222063,-0.39689276,-0.10589523,0.187474,805.05493,795.38464,792.96704,774.0293,797.8022,-0.04833984375,0.0816650390625,0.98046875,2.684173583984375,-2.474822998046875,0.88226318359375,1.0,1.0,1.0,1.0,1.0,85.0,event
09:27:32.752,1.0468962,0.7962417,0.020807968,0.6897874,0.59747976,0.4604955,0.01564013,0.13455556,0.6164455,0.102296546,0.1899215,0.52749354,0.5918182,0.046011183,0.15233518,0.6410809,0.08222063,-0.39689276,-0.10589523,0.187474,805.4579,799.81683,800.2198,778.46155,868.315,-0.042236328125,0.08062744140625,0.98663330078125,2.205657958984375,-4.314117431640625,0.381317138671875,1.0,1.0,1.0,1.0,1.0,85.0,event
09:27:32.753,1.0468962,0.7962417,0.020807968,0.6897874,0.59747976,0.4604955,0.01564013,0.13455556,0.6164455,0.102296546,0.1899215,0.52749354,0.5918182,0.046011183,0.15233518,0.6410809,0.08222063,-0.39689276,-0.10589523,0.187474,813.5165,806.26373,798.60803,780.87915,735.34796,-0.042236328125,0.08062744140625,0.98663330078125,2.205657958984375,-4.314117431640625,0.381317138671875,1.0,1.0,1.0,1.0,1.0,85.0,event
09:27:32.754,1.0468962,0.7962417,0.020807968,0.6897874,0.59747976,0.4604955,0.01564013,0.13455556,0.6164455,0.102296546,0.1899215,0.52749354,0.5918182,0.046011183,0.15233518,0.6410809,0.08222063,-0.39689276,-0.10589523,0.187474,805.8608,803.0403,799.41394,775.64105,651.13556,-0.042236328125,0.08062744140625,0.98663330078125,2.205657958984375,-4.314117431640625,0.381317138671875,1.0,1.0,1.0,1.0,1.0,85.0,event
09:27:32.754,1.0468962,0.7962417,0.020807968,0.6897874,0.59747976,0.4604955,0.01564013,0.13455556,0.6164455,0.102296546,0.1899215,0.52749354,0.5918182,0.046011183,0.15233518,0.6410809,0.08222063,-0.39689276,-0.10589523,0.187474,810.293,805.8608,807.0696,774.83514,743.4066,-0.042236328125,0.08062744140625,0.98663330078125,2.205657958984375,-4.314117431640625,0.381317138671875,1.0,1.0,1.0,1.0,1.0,85.0,event
09:27:32.755,1.0468962,0.7962417,0.020807968,0.6897874,0.59747976,0.4604955,0.01564013,0.13455556,0.6164455,0.102296546,0.1899215,0.52749354,0.5918182,0.046011183,0.15233518,0.6410809,0.08222063,-0.39689276,-0.10589523,0.187474,813.5165,810.293,805.05493,792.5641,817.9487,-0.042236328125,0.08062744140625,0.98663330078125,2.205657958984375,-4.314117431640625,0.381317138671875,1.0,1.0,1.0,1.0,1.0,85.0,event
09:27:32.756,1.0468962,0.7962417,0.020807968,0.6897874,0.59747976,0.4604955,0.01564013,0.13455556,0.6164455,0.102296546,0.1899215,0.52749354,0.5918182,0.046011183,0.15233518,0.6410809,0.08222063,-0.39689276,-0.10589523,0.187474,810.696,810.293,798.20514,799.011,855.42126,-0.042236328125,0.08062744140625,0.98663330078125,2.205657958984375,-4.314117431640625,0.381317138671875,1.0,1.0,1.0,1.0,1.0,85.0,event
09:27:32.756,1.0468962,0.7962417,0.020807968,0.6897874,0.59747976,0.4604955,0.01564013,0.13455556,0.6164455,0.102296546,0.1899215,0.52749354,0.5918182,0.046011183,0.15233518,0.6410809,0.08222063,-0.39689276,-0.10589523,0.187474,814.7253,809.4872,801.8315,792.96704,804.2491,-0.042236328125,0.08062744140625,0.98663330078125,2.205657958984375,-4.314117431640625,0.381317138671875,1.0,1.0,1.0,1.0,1.0,85.0,event
09:27:32.757,1.0468962,0.7962417,0.020807968,0.6897874,0.59747976,0.4604955,0.01564013,0.13455556,0.6164455,0.102296546,0.1899215,0.52749354,0.5918182,0.046011183,0.15233518,0.6410809,0.08222063,-0.39689276,-0.10589523,0.187474,819.15753,803.0403,806.6667,794.17584,820.3663,-0.042236328125,0.08062744140625,0.98663330078125,2.205657958984375,-4.314117431640625,0.381317138671875,1.0,1.0,1.0,1.0,1.0,85.0,event
09:27:32.757,1.0468962,0.7962417,0.020807968,0.6897874,0.59747976,0.4604955,0.01564013,0.13455556,0.6164455,0.102296546,0.1899215,0.52749354,0.5918182,0.046011183,0.15233518,0.6410809,0.08222063,-0.39689276,-0.10589523,0.187474,817.5458,805.05493,805.8608,788.93774,955.7509,-0.042236328125,0.08062744140625,0.98663330078125,2.205657958984375,-4.314117431640625,0.381317138671875,1.0,1.0,1.0,1.0,1.0,85.0,event
09:27:32.758,1.0468962,0.7962417,0.020807968,0.6897874,0.59747976,0.4604955,0.01564013,0.13455556,0.6164455,0.102296546,0.1899215,0.52749354,0.5918182,0.046011183,0.15233518,0.6410809,0.08222063,-0.39689276,-0.10589523,0.187474,803.44324,807.8755,804.2491,783.2967,751.4652,-0.042236328125,0.08062744140625,0.98663330078125,2.205657958984375,-4.314117431640625,0.381317138671875,1.0,1.0,1.0,1.0,1.0,85.0,event
09:27:32.758,1.0468962,0.7962417,0.020807968,0.6897874,0.59747976,0.4604955,0.01564013,0.13455556,0.6164455,0.102296546,0.1899215,0.52749354,0.5918182,0.046011183,0.15233518,0.6410809,0.08222063,-0.39689276,-0.10589523,0.187474,799.81683,803.8461,796.99634,798.20514,682.96704,-0.042236328125,0.08062744140625,0.98663330078125,2.205657958984375,-4.314117431640625,0.381317138671875,1.0,1.0,1.0,1.0,1.0,85.0,event
09:27:32.759,1.0468962,0.7962417,0.020807968,0.6897874,0.59747976,0.4604955,0.01564013,0.13455556,0.6164455,0.102296546,0.1899215,0.52749354,0.5918182,0.046011183,0.15233518,0.6410809,0.08222063,-0.39689276,-0.10589523,0.187474,803.0403,805.4579,803.0403,797.8022,840.9158,-0.042236328125,0.08062744140625,0.98663330078125,2.205657958984375,-4.314117431640625,0.381317138671875,1.0,1.0,1.0,1.0,1.0,85.0,event
09:27:32.780,1.0468962,0.7962417,0.020807968,0.6897874,0.59747976,0.4604955,0.01564013,0.13455556,0.6164455,0.102296546,0.1899215,0.52749354,0.5918182,0.046011183,0.15233518,0.6410809,0.08222063,-0.39689276,-0.10589523,0.187474,802.23444,809.0842,814.3223,780.07324,856.63007,-0.042236328125,0.08062744140625,0.98663330078125,2.205657958984375,-4.314117431640625,0.381317138671875,1.0,1.0,1.0,1.0,1.0,85.0,event
09:27:32.781,1.0468962,0.7962417,0.020807968,0.6897874,0.59747976,0.4604955,0.01564013,0.13455556,0.6164455,0.102296546,0.1899215,0.52749354,0.5918182,0.046011183,0.15233518,0.6410809,0.08222063,-0.39689276,-0.10589523,0.187474,805.4579,806.6667,809.89014,780.4762,723.2601,-0.042236328125,0.08062744140625,0.98663330078125,2.205657958984375,-4.314117431640625,0.381317138671875,1.0,1.0,1.0,1.0,1.0,85.0,event
09:27:32.782,1.0468962,0.7962417,0.020807968,0.6897874,0.59747976,0.4604955,0.01564013,0.13455556,0.6164455,0.102296546,0.1899215,0.52749354,0.5918182,0.046011183,0.15233518,0.6410809,0.08222063,-0.39689276,-0.10589523,0.187474,810.293,807.47253,798.60803,788.1319,733.73627,-0.042236328125,0.08062744140625,0.98663330078125,2.205657958984375,-4.314117431640625,0.381317138671875,1.0,1.0,1.0,1.0,1.0,85.0,event
09:27:32.782,1.0468962,0.7962417,0.020807968,0.6897874,0.59747976,0.4604955,0.01564013,0.13455556,0.6164455,0.102296546,0.1899215,0.52749354,0.5918182,0.046011183,0.15233518,0.6410809,0.08222063,-0.39689276,-0.10589523,0.187474,805.4579,807.47253,801.8315,790.54944,888.86444,-0.042236328125,0.08062744140625,0.98663330078125,2.205657958984375,-4.314117431640625,0.381317138671875,1.0,1.0,1.0,1.0,1.0,85.0,event
09:27:32.783,1.0468962,0.7962417,0.020807968,0.6897874,0.59747976,0.4604955,0.01564013,0.13455556,0.6164455,0.102296546,0.1899215,0.52749354,0.5918182,0.046011183,0.15233518,0.6410809,0.08222063,-0.39689276,-0.10589523,0.187474,799.011,801.8315,803.8461,785.7143,807.0696,-0.042236328125,0.08062744140625,0.98663330078125,2.205657958984375,-4.314117431640625,0.381317138671875,1.0,1.0,1.0,1.0,1.0,85.0,event
09:27:32.784,1.0468962,0.7962417,0.020807968,0.6897874,0.59747976,0.4604955,0.01564013,0.13455556,0.6164455,0.102296546,0.1899215,0.52749354,0.5918182,0.046011183,0.15233518,0.6410809,0.08222063,-0.39689276,-0.10589523,0.187474,797.8022,799.41394,798.60803,780.87915,793.36993,-0.042236328125,0.08062744140625,0.98663330078125,2.205657958984375,-4.314117431640625,0.381317138671875,1.0,1.0,1.0,1.0,1.0,85.0,event
09:27:32.784,1.0468962,0.7962417,0.020807968,0.6897874,0.59747976,0.4604955,0.01564013,0.13455556,0.6164455,0.102296546,0.1899215,0.52749354,0.5918182,0.046011183,0.15233518,0.6410809,0.08222063,-0.39689276,-0.10589523,0.187474,802.6374,805.8608,795.38464,781.685,853.8095,-0.042236328125,0.08062744140625,0.98663330078125,2.205657958984375,-4.314117431640625,0.381317138671875,1.0,1.0,1.0,1.0,1.0,85.0,event
09:27:32.785,1.0468962,0.7962417,0.020807968,0.6897874,0.59747976,0.4604955,0.01564013,0.13455556,0.6164455,0.102296546,0.1899215,0.52749354,0.5918182,0.046011183,0.15233518,0.6410809,0.08222063,-0.39689276,-0.10589523,0.187474,809.0842,811.50183,795.78754,784.90845,958.1685,-0.042236328125,0.08062744140625,0.98663330078125,2.205657958984375,-4.314117431640625,0.381317138671875,1.0,1.0,1.0,1.0,1.0,85.0,event
09:27:32.785,1.0468962,0.7962417,0.020807968,0.6897874,0.59747976,0.4604955,0.01564013,0.13455556,0.6164455,0.102296546,0.1899215,0.52749354,0.5918182,0.046011183,0.15233518,0.6410809,0.08222063,-0.39689276,-0.10589523,0.187474,807.8755,808.2784,806.26373,788.93774,901.3553,-0.042236328125,0.08062744140625,0.98663330078125,2.205657958984375,-4.314117431640625,0.381317138671875,1.0,1.0,1.0,1.0,1.0,85.0,event
09:27:32.786,1.0468962,0.7962417,0.020807968,0.6897874,0.59747976,0.4604955,0.01564013,0.13455556,0.6164455,0.102296546,0.1899215,0.52749354,0.5918182,0.046011183,0.15233518,0.6410809,0.08222063,-0.39689276,-0.10589523,0.187474,807.47253,806.6667,803.44324,795.78754,700.696,-0.042236328125,0.08062744140625,0.98663330078125,2.205657958984375,-4.314117431640625,0.381317138671875,1.0,1.0,1.0,1.0,1.0,85.0,event
09:27:32.786,1.0468962,0.7962417,0.020807968,0.6897874,0.59747976,0.4604955,0.01564013,0.13455556,0.6164455,0.102296546,0.1899215,0.52749354,0.5918182,0.046011183,0.15233518,0.6410809,0.08222063,-0.39689276,-0.10589523,0.187474,805.4579,810.696,803.0403,792.5641,803.8461,-0.042236328125,0.08062744140625,0.98663330078125,2.205657958984375,-4.314117431640625,0.381317138671875,1.0,1.0,1.0,1.0,1.0,85.0,event
09:27:32.787,1.0468962,0.7886259,-0.003363227,0.6897874,0.59747976,0.45093912,0.010596728,0.13455556,0.6164455,0.09654201,0.1900321,0.52749354,0.5918182,0.0370587,0.13762385,0.6410809,0.08222063,-0.40555093,-0.08358604,0.187474,805.05493,809.89014,815.12823,776.8498,818.7546,-0.042236328125,0.08062744140625,0.98663330078125,2.205657958984375,-4.314117431640625,0.381317138671875,1.0,1.0,1.0,1.0,1.0,85.0,event
09:27:32.811,1.0468962,0.7886259,-0.003363227,0.6897874,0.59747976,0.45093912,0.010596728,0.13455556,0.6164455,0.09654201,0.1900321,0.52749354,0.5918182,0.0370587,0.13762385,0.6410809,0.08222063,-0.40555093,-0.08358604,0.187474,812.3077,801.8315,810.293,782.8938,707.1429,-0.04486083984375,0.078125,0.97998046875,2.01873779296875,-2.773895263671875,-0.777587890625,1.0,1.0,1.0,1.0,1.0,85.0,event
09:27:32.812,1.0468962,0.7886259,-0.003363227,0.6897874,0.59747976,0.45093912,0.010596728,0.13455556,0.6164455,0.09654201,0.1900321,0.52749354,0.5918182,0.0370587,0.13762385,0.6410809,0.08222063,-0.40555093,-0.08358604,0.187474,811.50183,799.81683,804.65204,795.38464,701.50183,-0.04486083984375,0.078125,0.97998046875,2.01873779296875,-2.773895263671875,-0.777587890625,1.0,1.0,1.0,1.0,1.0,85.0,event
09:27:32.812,1.0468962,0.7886259,-0.003363227,0.6897874,0.59747976,0.45093912,0.010596728,0.13455556,0.6164455,0.09654201,0.1900321,0.52749354,0.5918182,0.0370587,0.13762385,0.6410809,0.08222063,-0.40555093,-0.08358604,0.187474,796.99634,801.02563,801.4286,790.9524,838.9011,-0.04486083984375,0.078125,0.97998046875,2.01873779296875,-2.773895263671875,-0.777587890625,1.0,1.0,1.0,1.0,1.0,85.0,event
09:27:32.813,1.0468962,0.7886259,-0.003363227,0.6897874,0.59747976,0.45093912,0.010596728,0.13455556,0.6164455,0.09654201,0.1900321,0.52749354,0.5918182,0.0370587,0.13762385,0.6410809,0.08222063,-0.40555093,-0.08358604,0.187474,792.96704,799.011,799.81683,786.1172,829.2308,-0.04486083984375,0.078125,0.97998046875,2.01873779296875,-2.773895263671875,-0.777587890625,1.0,1.0,1.0,1.0,1.0,85.0,event
09:27:32.813,1.0468962,0.7886259,-0.003363227,0.6897874,0.59747976,0.45093912,0.010596728,0.13455556,0.6164455,0.09654201,0.1900321,0.52749354,0.5918182,0.0370587,0.13762385,0.6410809,0.08222063,-0.40555093,-0.08358604,0.187474,803.8461,803.44324,799.41394,786.9231,696.6667,-0.04486083984375,0.078125,0.97998046875,2.01873779296875,-2.773895263671875,-0.777587890625,1.0,1.0,1.0,1.0,1.0,85.0,event
09:27:32.814,1.0468962,0.7886259,-0.003363227,0.6897874,0.59747976,0.45093912,0.010596728,0.13455556,0.6164455,0.09654201,0.1900321,0.52749354,0.5918182,0.0370587,0.13762385,0.6410809,0.08222063,-0.40555093,-0.08358604,0.187474,803.8461,802.6374,801.4286,783.2967,740.58606,-0.04486083984375,0.078125,0.97998046875,2.01873779296875,-2.773895263671875,-0.777587890625,1.0,1.0,1.0,1.0,1.0,85.0,event
09:27:32.815,1.0468962,0.7886259,-0.003363227,0.6897874,0.59747976,0.45093912,0.010596728,0.13455556,0.6164455,0.09654201,0.1900321,0.52749354,0.5918182,0.0370587,0.13762385,0.6410809,0.08222063,-0.40555093,-0.08358604,0.187474,803.8461,801.02563,799.81683,790.14655,907.3993,-0.04486083984375,0.078125,0.97998046875,2.01873779296875,-2.773895263671875,-0.777587890625,1.0,1.0,1.0,1.0,1.0,85.0,event
09:27:32.815,1.0468962,0.7886259,-0.003363227,0.6897874,0.59747976,0.45093912,0.010596728,0.13455556,0.6164455,0.09654201,0.1900321,0.52749354,0.5918182,0.0370587,0.13762385,0.6410809,0.08222063,-0.40555093,-0.08358604,0.187474,807.0696,805.8608,791.3553,797.8022,1073.0037,-0.04486083984375,0.078125,0.97998046875,2.01873779296875,-2.773895263671875,-0.777587890625,1.0,1.0,1.0,1.0,1.0,85.0,event
09:27:32.816,1.0468962,0.7886259,-0.003363227,0.6897874,0.59747976,0.45093912,0.010596728,0.13455556,0.6164455,0.09654201,0.1900321,0.52749354,0.5918182,0.0370587,0.13762385,0.6410809,0.08222063,-0.40555093,-0.08358604,0.187474,803.8461,805.8608,798.60803,785.7143,866.30035,-0.04486083984375,0.078125,0.97998046875,2.01873779296875,-2.773895263671875,-0.777587890625,1.0,1.0,1.0,1.0,1.0,85.0,event
09:27:32.816,1.0468962,0.7886259,-0.003363227,0.6897874,0.59747976,0.45093912,0.010596728,0.13455556,0.6164455,0.09654201,0.1900321,0.52749354,0.5918182,0.0370587,0.13762385,0.6410809,0.08222063,-0.40555093,-0.08358604,0.187474,798.20514,803.44324,803.8461,774.0293,692.23444,-0.04486083984375,0.078125,0.97998046875,2.01873779296875,-2.773895263671875,-0.777587890625,1.0,1.0,1.0,1.0,1.0,85.0,event
09:27:32.817,1.0468962,0.7886259,-0.003363227,0.6897874,0.59747976,0.45093912,0.010596728,0.13455556,0.6164455,0.09654201,0.1900321,0.52749354,0.5918182,0.0370587,0.13762385,0.6410809,0.08222063,-0.40555093,-0.08358604,0.187474,795.38464,802.23444,802.23444,778.86444,750.65936,-0.04486083984375,0.078125,0.97998046875,2.01873779296875,-2.773895263671875,-0.777587890625,1.0,1.0,1.0,1.0,1.0,85.0,event
09:27:32.818,1.0468962,0.7886259,-0.003363227,0.6897874,0.59747976,0.45093912,0.010596728,0.13455556,0.6164455,0.09654201,0.1900321,0.52749354,0.5918182,0.0370587,0.13762385,0.6410809,0.08222063,-0.40555093,-0.08358604,0.187474,794.57874,801.02563,806.26373,781.685,734.5421,-0.04486083984375,0.078125,0.97998046875,2.01873779296875,-2.773895263671875,-0.777587890625,1.0,1.0,1.0,1.0,1.0,85.0,event
09:27:32.879,1.0468962,0.7886259,-0.003363227,0.6897874,0.59747976,0.45093912,0.010596728,0.13455556,0.6164455,0.09654201,0.1900321,0.52749354,0.5918182,0.0370587,0.13762385,0.6410809,0.08222063,-0.40555093,-0.08358604,0.187474,799.81683,808.2784,809.4872,790.54944,731.31866,-0.03387451171875,0.08026123046875,0.9923095703125,2.415008544921875,-4.0972900390625,0.306549072265625,1.0,1.0,1.0,1.0,1.0,85.0,event
09:27:32.880,1.0468962,0.7886259,-0.003363227,0.6897874,0.59747976,0.45093912,0.010596728,0.13455556,0.6164455,0.09654201,0.1900321,0.52749354,0.5918182,0.0370587,0.13762385,0.6410809,0.08222063,-0.40555093,-0.08358604,0.187474,801.8315,811.50183,809.4872,789.34064,785.31134,-0.03387451171875,0.08026123046875,0.9923095703125,2.415008544921875,-4.0972900390625,0.306549072265625,1.0,1.0,1.0,1.0,1.0,85.0,event
09:27:32.881,1.0468962,0.7886259,-0.003363227,0.6897874,0.59747976,0.45093912,0.010596728,0.13455556,0.6164455,0.09654201,0.1900321,0.52749354,0.5918182,0.0370587,0.13762385,0.6410809,0.08222063,-0.40555093,-0.08358604,0.187474,800.6227,809.0842,811.0989,775.64105,788.1319,-0.03387451171875,0.08026123046875,0.9923095703125,2.415008544921875,-4.0972900390625,0.306549072265625,1.0,1.0,1.0,1.0,1.0,85.0,event
09:27:32.881,1.0468962,0.7886259,-0.003363227,0.6897874,0.59747976,0.45093912,0.010596728,0.13455556,0.6164455,0.09654201,0.1900321,0.52749354,0.5918182,0.0370587,0.13762385,0.6410809,0.08222063,-0.40555093,-0.08358604,0.187474,806.26373,809.0842,808.2784,774.83514,779.67035,-0.03387451171875,0.08026123046875,0.9923095703125,2.415008544921875,-4.0972900390625,0.306549072265625,1.0,1.0,1.0,1.0,1.0,85.0,event
09:27:32.882,1.0468962,0.7886259,-0.003363227,0.6897874,0.59747976,0.45093912,0.010596728,0.13455556,0.6164455,0.09654201,0.1900321,0.52749354,0.5918182,0.0370587,0.13762385,0.6410809,0.08222063,-0.40555093,-0.08358604,0.187474,823.1868,817.1429,805.4579,793.7729,761.13556,-0.03387451171875,0.08026123046875,0.9923095703125,2.415008544921875,-4.0972900390625,0.306549072265625,1.0,1.0,1.0,1.0,1.0,85.0,event
09:27:32.882,1.0468962,0.7886259,-0.003363227,0.6897874,0.59747976,0.45093912,0.010596728,0.13455556,0.6164455,0.09654201,0.1900321,0.52749354,0.5918182,0.0370587,0.13762385,0.6410809,0.08222063,-0.40555093,-0.08358604,0.187474,820.3663,812.3077,805.05493,798.60803,799.41394,-0.03387451171875,0.08026123046875,0.9923095703125,2.415008544921875,-4.0972900390625,0.306549072265625,1.0,1.0,1.0,1.0,1.0,85.0,event
09:27:32.883,1.0468962,0.7886259,-0.003363227,0.6897874,0.59747976,0.45093912,0.010596728,0.13455556,0.6164455,0.09654201,0.1900321,0.52749354,0.5918182,0.0370587,0.13762385,0.6410809,0.08222063,-0.40555093,-0.08358604,0.187474,803.0403,804.65204,803.44324,785.31134,1077.4359,-0.03387451171875,0.08026123046875,0.9923095703125,2.415008544921875,-4.0972900390625,0.306549072265625,1.0,1.0,1.0,1.0,1.0,85.0,event
09:27:32.884,1.0468962,0.7886259,-0.003363227,0.6897874,0.59747976,0.45093912,0.010596728,0.13455556,0.6164455,0.09654201,0.1900321,0.52749354,0.5918182,0.0370587,0.13762385,0.6410809,0.08222063,-0.40555093,-0.08358604,0.187474,805.05493,809.89014,810.696,782.49084,1030.2931,-0.03387451171875,0.08026123046875,0.9923095703125,2.415008544921875,-4.0972900390625,0.306549072265625,1.0,1.0,1.0,1.0,1.0,85.0,event
09:27:32.884,1.0468962,0.7886259,-0.003363227,0.6897874,0.59747976,0.45093912,0.010596728,0.13455556,0.6164455,0.09654201,0.1900321,0.52749354,0.5918182,0.0370587,0.13762385,0.6410809,0.08222063,-0.40555093,-0.08358604,0.187474,801.02563,809.0842,811.50183,778.0586,752.27106,-0.03387451171875,0.08026123046875,0.9923095703125,2.415008544921875,-4.0972900390625,0.306549072265625,1.0,1.0,1.0,1.0,1.0,85.0,event
09:27:32.885,1.0468962,0.7886259,-0.003363227,0.6897874,0.59747976,0.45093912,0.010596728,0.13455556,0.6164455,0.09654201,0.1900321,0.52749354,0.5918182,0.0370587,0.13762385,0.6410809,0.08222063,-0.40555093,-0.08358604,0.187474,802.23444,802.6374,808.2784,802.23444,946.4835,-0.03387451171875,0.08026123046875,0.9923095703125,2.415008544921875,-4.0972900390625,0.306549072265625,1.0,1.0,1.0,1.0,1.0,85.0,event
09:27:32.885,1.0468962,0.7886259,-0.003363227,0.6897874,0.59747976,0.45093912,0.010596728,0.13455556,0.6164455,0.09654201,0.1900321,0.52749354,0.5918182,0.0370587,0.13762385,0.6410809,0.08222063,-0.40555093,-0.08358604,0.187474,800.2198,807.0696,805.05493,789.7436,850.989,-0.03387451171875,0.08026123046875,0.9923095703125,2.415008544921875,-4.0972900390625,0.306549072265625,1.0,1.0,1.0,1.0,1.0,85.0,event
09:27:32.886,1.0468962,0.7886259,-0.003363227,0.6897874,0.59747976,0.45093912,0.010596728,0.13455556,0.6164455,0.09654201,0.1900321,0.52749354,0.5918182,0.0370587,0.13762385,0.6410809,0.08222063,-0.40555093,-0.08358604,0.187474,794.9817,802.6374,806.6667,793.7729,836.08057,-0.03387451171875,0.08026123046875,0.9923095703125,2.415008544921875,-4.0972900390625,0.306549072265625,1.0,1.0,1.0,1.0,1.0,85.0,event
09:27:32.950,1.0468962,0.7886259,-0.003363227,0.6897874,0.59747976,0.45093912,0.010596728,0.13455556,0.6164455,0.09654201,0.1900321,0.52749354,0.5918182,0.0370587,0.13762385,0.6410809,0.08222063,-0.40555093,-0.08358604,0.187474,794.17584,812.71063,807.0696,779.2674,657.1795,-0.04638671875,0.076416015625,0.98992919921875,2.280426025390625,-3.3197021484375,0.5682373046875,1.0,1.0,1.0,1.0,1.0,85.0,event
09:27:32.952,1.0468962,0.777427,-0.04116452,0.6897874,0.59747976,0.43713364,0.0036345008,0.13455556,0.6164455,0.12168993,0.19467428,0.52749354,0.5918182,0.023777783,0.120855264,0.6410809,0.08222063,-0.40887567,-0.06528796,0.187474,795.78754,813.5165,804.65204,780.4762,677.72894,-0.04638671875,0.076416015625,0.98992919921875,2.280426025390625,-3.3197021484375,0.5682373046875,1.0,1.0,1.0,1.0,1.0,85.0,event
09:27:32.957,1.0468962,0.777427,-0.04116452,0.6897874,0.59747976,0.43713364,0.0036345008,0.13455556,0.6164455,0.12168993,0.19467428,0.52749354,0.5918182,0.023777783,0.120855264,0.6410809,0.08222063,-0.40887567,-0.06528796,0.187474,797.3993,812.3077,810.293,787.326,720.84247,-0.04638671875,0.076416015625,0.98992919921875,2.280426025390625,-3.3197021484375,0.5682373046875,1.0,1.0,1.0,1.0,1.0,85.0,event
09:27:32.958,1.0468962,0.777427,-0.04116452,0.6897874,0.59747976,0.43713364,0.0036345008,0.13455556,0.6164455,0.12168993,0.19467428,0.52749354,0.5918182,0.023777783,0.120855264,0.6410809,0.08222063,-0.40887567,-0.06528796,0.187474,794.57874,812.3077,822.381,794.57874,705.12823,-0.04638671875,0.076416015625,0.98992919921875,2.280426025390625,-3.3197021484375,0.5682373046875,1.0,1.0,1.0,1.0,1.0,85.0,event
09:27:32.959,1.0468962,0.777427,-0.04116452,0.6897874,0.59747976,0.43713364,0.0036345008,0.13455556,0.6164455,0.12168993,0.19467428,0.52749354,0.5918182,0.023777783,0.120855264,0.6410809,0.08222063,-0.40887567,-0.06528796,0.187474,791.3553,803.0403,813.1135,786.9231,689.81683,-0.04638671875,0.076416015625,0.98992919921875,2.280426025390625,-3.3197021484375,0.5682373046875,1.0,1.0,1.0,1.0,1.0,85.0,event
09:27:32.960,1.0468962,0.777427,-0.04116452,0.6897874,0.59747976,0.43713364,0.0036345008,0.13455556,0.6164455,0.12168993,0.19467428,0.52749354,0.5918182,0.023777783,0.120855264,0.6410809,0.08222063,-0.40887567,-0.06528796,0.187474,790.54944,794.17584,808.68134,784.90845,838.49817,-0.04638671875,0.076416015625,0.98992919921875,2.280426025390625,-3.3197021484375,0.5682373046875,1.0,1.0,1.0,1.0,1.0,85.0,event
09:27:32.961,1.0468962,0.777427,-0.04116452,0.6897874,0.59747976,0.43713364,0.0036345008,0.13455556,0.6164455,0.12168993,0.19467428,0.52749354,0.5918182,0.023777783,0.120855264,0.6410809,0.08222063,-0.40887567,-0.06528796,0.187474,791.3553,796.5934,808.2784,788.1319,952.9304,-0.04638671875,0.076416015625,0.98992919921875,2.280426025390625,-3.3197021484375,0.5682373046875,1.0,1.0,1.0,1.0,1.0,85.0,event
09:27:32.961,1.0468962,0.777427,-0.04116452,0.6897874,0.59747976,0.43713364,0.0036345008,0.13455556,0.6164455,0.12168993,0.19467428,0.52749354,0.5918182,0.023777783,0.120855264,0.6410809,0.08222063,-0.40887567,-0.06528796,0.187474,769.19415,804.2491,802.6374,758.71796,756.7033,-0.04638671875,0.076416015625,0.98992919921875,2.280426025390625,-3.3197021484375,0.5682373046875,1.0,1.0,1.0,1.0,1.0,85.0,event
09:27:32.962,1.0468962,0.777427,-0.04116452,0.6897874,0.59747976,0.43713364,0.0036345008,0.13455556,0.6164455,0.12168993,0.19467428,0.52749354,0.5918182,0.023777783,0.120855264,0.6410809,0.08222063,-0.40887567,-0.06528796,0.187474,759.5238,809.4872,801.02563,753.8828,684.9817,-0.04638671875,0.076416015625,0.98992919921875,2.280426025390625,-3.3197021484375,0.5682373046875,1.0,1.0,1.0,1.0,1.0,85.0,event
09:27:32.963,1.0468962,0.777427,-0.04116452,0.6897874,0.59747976,0.43713364,0.0036345008,0.13455556,0.6164455,0.12168993,0.19467428,0.52749354,0.5918182,0.023777783,0.120855264,0.6410809,0.08222063,-0.40887567,-0.06528796,0.187474,761.9414,805.05493,799.81683,755.89746,828.4249,-0.04638671875,0.076416015625,0.98992919921875,2.280426025390625,-3.3197021484375,0.5682373046875,1.0,1.0,1.0,1.0,1.0,85.0,event
09:27:32.964,1.0468962,0.777427,-0.04116452,0.6897874,0.59747976,0.43713364,0.0036345008,0.13455556,0.6164455,0.12168993,0.19467428,0.52749354,0.5918182,0.023777783,0.120855264,0.6410809,0.08222063,-0.40887567,-0.06528796,0.187474,755.89746,806.26373,796.5934,747.4359,850.989,-0.04638671875,0.076416015625,0.98992919921875,2.280426025390625,-3.3197021484375,0.5682373046875,1.0,1.0,1.0,1.0,1.0,85.0,event
09:27:32.964,1.0468962,0.777427,-0.04116452,0.6897874,0.59747976,0.43713364,0.0036345008,0.13455556,0.6164455,0.12168993,0.19467428,0.52749354,0.5918182,0.023777783,0.120855264,0.6410809,0.08222063,-0.40887567,-0.06528796,0.187474,757.50916,809.89014,796.5934,747.03296,710.7692,-0.04638671875,0.076416015625,0.98992919921875,2.280426025390625,-3.3197021484375,0.5682373046875,1.0,1.0,1.0,1.0,1.0,85.0,event
09:27:32.996,1.0468962,0.777427,-0.04116452,0.6897874,0.59747976,0.43713364,0.0036345008,0.13455556,0.6164455,0.12168993,0.19467428,0.52749354,0.5918182,0.023777783,0.120855264,0.6410809,0.08222063,-0.40887567,-0.06528796,0.187474,757.50916,809.0842,804.65204,745.42126,761.13556,-0.0404052734375,0.0782470703125,0.987060546875,2.97576904296875,-3.5888671875,-0.515899658203125,1.0,1.0,1.0,1.0,1.0,85.0,event
09:27:32.998,1.0468962,0.777427,-0.04116452,0.6897874,0.59747976,0.43713364,0.0036345008,0.13455556,0.6164455,0.12168993,0.19467428,0.52749354,0.5918182,0.023777783,0.120855264,0.6410809,0.08222063,-0.40887567,-0.06528796,0.187474,754.2857,815.5311,802.23444,756.7033,920.696,-0.0404052734375,0.0782470703125,0.987060546875,2.97576904296875,-3.5888671875,-0.515899658203125,1.0,1.0,1.0,1.0,1.0,85.0,event
09:27:32.999,1.0468962,0.777427,-0.04116452,0.6897874,0.59747976,0.43713364,0.0036345008,0.13455556,0.6164455,0.12168993,0.19467428,0.52749354,0.5918182,0.023777783,0.120855264,0.6410809,0.08222063,-0.40887567,-0.06528796,0.187474,754.2857,812.71063,803.8461,760.7326,902.5641,-0.0404052734375,0.0782470703125,0.987060546875,2.97576904296875,-3.5888671875,-0.515899658203125,1.0,1.0,1.0,1.0,1.0,85.0,event
09:27:33.000,1.0468962,0.777427,-0.04116452,0.6897874,0.59747976,0.43713364,0.0036345008,0.13455556,0.6164455,0.12168993,0.19467428,0.52749354,0.5918182,0.023777783,0.120855264,0.6410809,0.08222063,-0.40887567,-0.06528796,0.187474,755.89746,805.05493,811.0989,755.4945,766.77655,-0.0404052734375,0.0782470703125,0.987060546875,2.97576904296875,-3.5888671875,-0.515899658203125,1.0,1.0,1.0,1.0,1.0,85.0,event
09:27:33.001,1.0468962,0.777427,-0.04116452,0.6897874,0.59747976,0.43713364,0.0036345008,0.13455556,0.6164455,0.12168993,0.19467428,0.52749354,0.5918182,0.023777783,0.120855264,0.6410809,0.08222063,-0.40887567,-0.06528796,0.187474,756.30035,808.68134,811.9048,747.03296,729.304,-0.0404052734375,0.0782470703125,0.987060546875,2.97576904296875,-3.5888671875,-0.515899658203125,1.0,1.0,1.0,1.0,1.0,85.0,event
09:27:33.002,1.0468962,0.777427,-0.04116452,0.6897874,0.59747976,0.43713364,0.0036345008,0.13455556,0.6164455,0.12168993,0.19467428,0.52749354,0.5918182,0.023777783,0.120855264,0.6410809,0.08222063,-0.40887567,-0.06528796,0.187474,753.47986,812.3077,809.89014,745.42126,789.34064,-0.0404052734375,0.0782470703125,0.987060546875,2.97576904296875,-3.5888671875,-0.515899658203125,1.0,1.0,1.0,1.0,1.0,85.0,event
