TimeStamp,Delta_TP9,Delta_AF7,Delta_AF8,Delta_TP10,Theta_TP9,Theta_AF7,Theta_AF8,Theta_TP10,Alpha_TP9,Alpha_AF7,Alpha_AF8,Alpha_TP10,Beta_TP9,Beta_AF7,Beta_AF8,Beta_TP10,Gamma_TP9,Gamma_AF7,Gamma_AF8,Gamma_TP10,RAW_TP9,RAW_AF7,RAW_AF8,RAW_TP10,AUX_RIGHT,Accelerometer_X,Accelerometer_Y,Accelerometer_Z,Gyro_X,Gyro_Y,Gyro_Z,HeadBandOn,HSI_TP9,HSI_AF7,HSI_AF8,HSI_TP10,Battery,Elements
12:25:37.835,1.6132703,-0.2636582,-0.7638819,1.3470463,0.9947686,-0.43052703,-0.68625486,1.1977222,0.86780035,-0.25521478,-0.39749697,1.1150109,0.7061495,-0.3743354,-0.45517218,1.1327038,0.35431522,-0.52189046,-0.43242437,0.5167279,832.4542,809.0842,803.44324,880.0,831.2454,-0.18841552734375,-0.01409912109375,0.97601318359375,1.951446533203125,-4.224395751953125,0.082244873046875,1.0,2.0,1.0,1.0,2.0,100.0,event
12:25:37.836,1.6132703,-0.2636582,-0.7638819,1.3470463,0.9947686,-0.43052703,-0.68625486,1.1977222,0.86780035,-0.25521478,-0.39749697,1.1150109,0.7061495,-0.3743354,-0.45517218,1.1327038,0.35431522,-0.52189046,-0.43242437,0.5167279,844.94507,803.8461,802.23444,887.6557,949.707,-0.18841552734375,-0.01409912109375,0.97601318359375,1.951446533203125,-4.224395751953125,0.082244873046875,1.0,2.0,1.0,1.0,2.0,100.0,event
12:25:37.837,1.6132703,-0.2636582,-0.7638819,1.3470463,0.9947686,-0.43052703,-0.68625486,1.1977222,0.86780035,-0.25521478,-0.39749697,1.1150109,0.7061495,-0.3743354,-0.45517218,1.1327038,0.35431522,-0.52189046,-0.43242437,0.5167279,817.1429,805.4579,801.4286,876.3736,979.12085,-0.18841552734375,-0.01409912109375,0.97601318359375,1.951446533203125,-4.224395751953125,0.082244873046875,1.0,2.0,1.0,1.0,2.0,100.0,event
12:25:37.838,1.6132703,-0.2636582,-0.7638819,1.3470463,0.9947686,-0.43052703,-0.68625486,1.1977222,0.86780035,-0.25521478,-0.39749697,1.1150109,0.7061495,-0.3743354,-0.45517218,1.1327038,0.35431522,-0.52189046,-0.43242437,0.5167279,791.75824,804.2491,805.05493,868.71796,728.0952,-0.18841552734375,-0.01409912109375,0.97601318359375,1.951446533203125,-4.224395751953125,0.082244873046875,1.0,2.0,1.0,1.0,2.0,100.0,event
12:25:37.838,1.6132703,-0.2636582,-0.7638819,1.3470463,0.9947686,-0.43052703,-0.68625486,1.1977222,0.86780035,-0.25521478,-0.39749697,1.1150109,0.7061495,-0.3743354,-0.45517218,1.1327038,0.35431522,-0.52189046,-0.43242437,0.5167279,813.1135,801.8315,806.6667,843.3333,652.3443,-0.18841552734375,-0.01409912109375,0.97601318359375,1.951446533203125,-4.224395751953125,0.082244873046875,1.0,2.0,1.0,1.0,2.0,100.0,event
12:25:37.839,1.6132703,-0.2636582,-0.7638819,1.3470463,0.9947686,-0.43052703,-0.68625486,1.1977222,0.86780035,-0.25521478,-0.39749697,1.1150109,0.7061495,-0.3743354,-0.45517218,1.1327038,0.35431522,-0.52189046,-0.43242437,0.5167279,838.0952,806.6667,805.05493,842.52747,740.989,-0.18841552734375,-0.01409912109375,0.97601318359375,1.951446533203125,-4.224395751953125,0.082244873046875,1.0,2.0,1.0,1.0,2.0,100.0,event
12:25:37.866,1.6132703,-0.2636582,-0.7638819,1.3470463,0.9947686,-0.43052703,-0.68625486,1.1977222,0.86780035,-0.25521478,-0.39749697,1.1150109,0.7061495,-0.3743354,-0.45517218,1.1327038,0.35431522,-0.52189046,-0.43242437,0.5167279,838.0952,809.4872,807.47253,867.9121,798.60803,-0.16558837890625,-0.01666259765625,0.9720458984375,2.429962158203125,-4.882354736328125,0.157012939453125,1.0,2.0,1.0,1.0,2.0,100.0,event
12:25:37.867,1.6132703,-0.2636582,-0.7638819,1.3470463,0.9947686,-0.43052703,-0.68625486,1.1977222,0.86780035,-0.25521478,-0.39749697,1.1150109,0.7061495,-0.3743354,-0.45517218,1.1327038,0.35431522,-0.52189046,-0.43242437,0.5167279,842.1245,808.2784,809.0842,862.674,760.7326,-0.16558837890625,-0.01666259765625,0.9720458984375,2.429962158203125,-4.882354736328125,0.157012939453125,1.0,2.0,1.0,1.0,2.0,100.0,event
12:25:37.867,1.6132703,-0.2636582,-0.7638819,1.3470463,0.9947686,-0.43052703,-0.68625486,1.1977222,0.86780035,-0.25521478,-0.39749697,1.1150109,0.7061495,-0.3743354,-0.45517218,1.1327038,0.35431522,-0.52189046,-0.43242437,0.5167279,810.696,809.89014,806.6667,860.65936,748.6447,-0.16558837890625,-0.01666259765625,0.9720458984375,2.429962158203125,-4.882354736328125,0.157012939453125,1.0,2.0,1.0,1.0,2.0,100.0,event
12:25:37.868,1.6132703,-0.2636582,-0.7638819,1.3470463,0.9947686,-0.43052703,-0.68625486,1.1977222,0.86780035,-0.25521478,-0.39749697,1.1150109,0.7061495,-0.3743354,-0.45517218,1.1327038,0.35431522,-0.52189046,-0.43242437,0.5167279,789.7436,809.4872,808.68134,853.4066,798.60803,-0.16558837890625,-0.01666259765625,0.9720458984375,2.429962158203125,-4.882354736328125,0.157012939453125,1.0,2.0,1.0,1.0,2.0,100.0,event
12:25:37.869,1.6132703,-0.2636582,-0.7638819,1.3470463,0.9947686,-0.43052703,-0.68625486,1.1977222,0.86780035,-0.25521478,-0.39749697,1.1150109,0.7061495,-0.3743354,-0.45517218,1.1327038,0.35431522,-0.52189046,-0.43242437,0.5167279,808.68134,807.8755,807.47253,866.30035,807.0696,-0.16558837890625,-0.01666259765625,0.9720458984375,2.429962158203125,-4.882354736328125,0.157012939453125,1.0,2.0,1.0,1.0,2.0,100.0,event
12:25:37.869,1.6132703,-0.2636582,-0.7638819,1.3470463,0.9947686,-0.43052703,-0.68625486,1.1977222,0.86780035,-0.25521478,-0.39749697,1.1150109,0.7061495,-0.3743354,-0.45517218,1.1327038,0.35431522,-0.52189046,-0.43242437,0.5167279,828.8278,809.4872,801.4286,890.4762,837.6923,-0.16558837890625,-0.01666259765625,0.9720458984375,2.429962158203125,-4.882354736328125,0.157012939453125,1.0,2.0,1.0,1.0,2.0,100.0,event
12:25:37.870,1.6132703,-0.2636582,-0.7638819,1.3470463,0.9947686,-0.43052703,-0.68625486,1.1977222,0.86780035,-0.25521478,-0.39749697,1.1150109,0.7061495,-0.3743354,-0.45517218,1.1327038,0.35431522,-0.52189046,-0.43242437,0.5167279,829.6337,806.26373,804.65204,888.46155,915.4579,-0.16558837890625,-0.01666259765625,0.9720458984375,2.429962158203125,-4.882354736328125,0.157012939453125,1.0,2.0,1.0,1.0,2.0,100.0,event
12:25:37.870,1.6132703,-0.2636582,-0.7638819,1.3470463,0.9947686,-0.43052703,-0.68625486,1.1977222,0.86780035,-0.25521478,-0.39749697,1.1150109,0.7061495,-0.3743354,-0.45517218,1.1327038,0.35431522,-0.52189046,-0.43242437,0.5167279,803.8461,800.6227,804.2491,882.8205,1147.1428,-0.16558837890625,-0.01666259765625,0.9720458984375,2.429962158203125,-4.882354736328125,0.157012939453125,1.0,2.0,1.0,1.0,2.0,100.0,event
12:25:37.871,1.6132703,-0.2636582,-0.7638819,1.3470463,0.9947686,-0.43052703,-0.68625486,1.1977222,0.86780035,-0.25521478,-0.39749697,1.1150109,0.7061495,-0.3743354,-0.45517218,1.1327038,0.35431522,-0.52189046,-0.43242437,0.5167279,793.7729,805.4579,805.05493,859.85345,1064.5421,-0.16558837890625,-0.01666259765625,0.9720458984375,2.429962158203125,-4.882354736328125,0.157012939453125,1.0,2.0,1.0,1.0,2.0,100.0,event
12:25:37.872,1.6132703,-0.2636582,-0.7638819,1.3470463,0.9947686,-0.43052703,-0.68625486,1.1977222,0.86780035,-0.25521478,-0.39749697,1.1150109,0.7061495,-0.3743354,-0.45517218,1.1327038,0.35431522,-0.52189046,-0.43242437,0.5167279,850.58606,810.696,801.4286,884.0293,724.4689,-0.16558837890625,-0.01666259765625,0.9720458984375,2.429962158203125,-4.882354736328125,0.157012939453125,1.0,2.0,1.0,1.0,2.0,100.0,event
12:25:37.872,1.6132703,-0.2636582,-0.7638819,1.3470463,0.9947686,-0.43052703,-0.68625486,1.1977222,0.86780035,-0.25521478,-0.39749697,1.1150109,0.7061495,-0.3743354,-0.45517218,1.1327038,0.35431522,-0.52189046,-0.43242437,0.5167279,823.5897,808.68134,802.23444,859.45056,721.2454,-0.16558837890625,-0.01666259765625,0.9720458984375,2.429962158203125,-4.882354736328125,0.157012939453125,1.0,2.0,1.0,1.0,2.0,100.0,event
12:25:37.873,1.6132703,-0.2636582,-0.7638819,1.3470463,0.9947686,-0.43052703,-0.68625486,1.1977222,0.86780035,-0.25521478,-0.39749697,1.1150109,0.7061495,-0.3743354,-0.45517218,1.1327038,0.35431522,-0.52189046,-0.43242437,0.5167279,844.1392,809.89014,807.0696,887.25275,784.10254,-0.16558837890625,-0.01666259765625,0.9720458984375,2.429962158203125,-4.882354736328125,0.157012939453125,1.0,2.0,1.0,1.0,2.0,100.0,event
12:25:37.909,1.6132703,-0.2636582,-0.7638819,1.3470463,0.9947686,-0.43052703,-0.68625486,1.1977222,0.86780035,-0.25521478,-0.39749697,1.1150109,0.7061495,-0.3743354,-0.45517218,1.1327038,0.35431522,-0.52189046,-0.43242437,0.5167279,828.022,804.2491,808.2784,885.64105,743.4066,-0.1768798828125,-0.013916015625,0.975830078125,2.13836669921875,-3.476715087890625,2.34771728515625,1.0,2.0,1.0,1.0,2.0,100.0,event
12:25:37.910,1.6132703,-0.2636582,-0.7638819,1.3470463,0.9947686,-0.43052703,-0.68625486,1.1977222,0.86780035,-0.25521478,-0.39749697,1.1150109,0.7061495,-0.3743354,-0.45517218,1.1327038,0.35431522,-0.52189046,-0.43242437,0.5167279,813.5165,803.0403,804.65204,848.97437,698.68134,-0.1768798828125,-0.013916015625,0.975830078125,2.13836669921875,-3.476715087890625,2.34771728515625,1.0,2.0,1.0,1.0,2.0,100.0,event
12:25:37.910,1.6132703,-0.2636582,-0.7638819,1.3470463,0.9947686,-0.43052703,-0.68625486,1.1977222,0.86780035,-0.25521478,-0.39749697,1.1150109,0.7061495,-0.3743354,-0.45517218,1.1327038,0.35431522,-0.52189046,-0.43242437,0.5167279,831.2454,802.6374,801.4286,815.5311,801.02563,-0.1768798828125,-0.013916015625,0.975830078125,2.13836669921875,-3.476715087890625,2.34771728515625,1.0,2.0,1.0,1.0,2.0,100.0,event
12:25:37.911,1.6132703,-0.2636582,-0.7638819,1.3470463,0.9947686,-0.43052703,-0.68625486,1.1977222,0.86780035,-0.25521478,-0.39749697,1.1150109,0.7061495,-0.3743354,-0.45517218,1.1327038,0.35431522,-0.52189046,-0.43242437,0.5167279,864.68866,803.0403,803.8461,861.4652,834.4689,-0.1768798828125,-0.013916015625,0.975830078125,2.13836669921875,-3.476715087890625,2.34771728515625,1.0,2.0,1.0,1.0,2.0,100.0,event
12:25:37.911,1.6132703,-0.2636582,-0.7638819,1.3470463,0.9947686,-0.43052703,-0.68625486,1.1977222,0.86780035,-0.25521478,-0.39749697,1.1150109,0.7061495,-0.3743354,-0.45517218,1.1327038,0.35431522,-0.52189046,-0.43242437,0.5167279,864.2857,804.65204,806.26373,888.86444,746.2271,-0.1768798828125,-0.013916015625,0.975830078125,2.13836669921875,-3.476715087890625,2.34771728515625,1.0,2.0,1.0,1.0,2.0,100.0,event
12:25:37.912,1.6132703,-0.2636582,-0.7638819,1.3470463,0.9947686,-0.43052703,-0.68625486,1.1977222,0.86780035,-0.25521478,-0.39749697,1.1150109,0.7061495,-0.3743354,-0.45517218,1.1327038,0.35431522,-0.52189046,-0.43242437,0.5167279,832.8571,805.05493,805.8608,857.4359,773.6264,-0.1768798828125,-0.013916015625,0.975830078125,2.13836669921875,-3.476715087890625,2.34771728515625,1.0,2.0,1.0,1.0,2.0,100.0,event
12:25:37.913,1.6132703,-0.2636582,-0.7638819,1.3470463,0.9947686,-0.43052703,-0.68625486,1.1977222,0.86780035,-0.25521478,-0.39749697,1.1150109,0.7061495,-0.3743354,-0.45517218,1.1327038,0.35431522,-0.52189046,-0.43242437,0.5167279,811.50183,803.8461,805.4579,836.4835,919.4872,-0.1768798828125,-0.013916015625,0.975830078125,2.13836669921875,-3.476715087890625,2.34771728515625,1.0,2.0,1.0,1.0,2.0,100.0,event
12:25:37.913,1.6091577,-0.31471485,-0.7399272,1.3470463,0.90281475,-0.41837135,-0.6663618,1.1977222,0.94058084,-0.25193003,-0.40571535,1.1150109,0.60127366,-0.38196456,-0.4622792,1.1327038,0.51676357,-0.53152376,-0.43443277,0.5167279,816.337,805.4579,807.0696,840.10986,1042.7839,-0.1768798828125,-0.013916015625,0.975830078125,2.13836669921875,-3.476715087890625,2.34771728515625,1.0,2.0,1.0,1.0,2.0,100.0,event
12:25:37.918,1.6091577,-0.31471485,-0.7399272,1.3470463,0.90281475,-0.41837135,-0.6663618,1.1977222,0.94058084,-0.25193003,-0.40571535,1.1150109,0.60127366,-0.38196456,-0.4622792,1.1327038,0.51676357,-0.53152376,-0.43443277,0.5167279,848.5714,807.8755,802.6374,855.42126,854.61536,-0.1768798828125,-0.013916015625,0.975830078125,2.13836669921875,-3.476715087890625,2.34771728515625,1.0,2.0,1.0,1.0,2.0,100.0,event
12:25:37.919,1.6091577,-0.31471485,-0.7399272,1.3470463,0.90281475,-0.41837135,-0.6663618,1.1977222,0.94058084,-0.25193003,-0.40571535,1.1150109,0.60127366,-0.38196456,-0.4622792,1.1327038,0.51676357,-0.53152376,-0.43443277,0.5167279,864.2857,801.02563,802.6374,863.47986,709.15753,-0.1768798828125,-0.013916015625,0.975830078125,2.13836669921875,-3.476715087890625,2.34771728515625,1.0,2.0,1.0,1.0,2.0,100.0,event
12:25:37.920,1.6091577,-0.31471485,-0.7399272,1.3470463,0.90281475,-0.41837135,-0.6663618,1.1977222,0.94058084,-0.25193003,-0.40571535,1.1150109,0.60127366,-0.38196456,-0.4622792,1.1327038,0.51676357,-0.53152376,-0.43443277,0.5167279,837.6923,804.65204,803.44324,855.42126,779.2674,-0.1768798828125,-0.013916015625,0.975830078125,2.13836669921875,-3.476715087890625,2.34771728515625,1.0,2.0,1.0,1.0,2.0,100.0,event
12:25:37.920,1.6091577,-0.31471485,-0.7399272,1.3470463,0.90281475,-0.41837135,-0.6663618,1.1977222,0.94058084,-0.25193003,-0.40571535,1.1150109,0.60127366,-0.38196456,-0.4622792,1.1327038,0.51676357,-0.53152376,-0.43443277,0.5167279,815.12823,803.0403,803.0403,833.663,766.77655,-0.1768798828125,-0.013916015625,0.975830078125,2.13836669921875,-3.476715087890625,2.34771728515625,1.0,2.0,1.0,1.0,2.0,100.0,event
12:25:37.946,1.6091577,-0.31471485,-0.7399272,1.3470463,0.90281475,-0.41837135,-0.6663618,1.1977222,0.94058084,-0.25193003,-0.40571535,1.1150109,0.60127366,-0.38196456,-0.4622792,1.1327038,0.51676357,-0.53152376,-0.43443277,0.5167279,833.663,799.41394,805.4579,850.18317,683.36993,-0.1680908203125,-0.02001953125,0.97137451171875,1.607513427734375,-3.760833740234375,-0.25421142578125,1.0,2.0,1.0,1.0,2.0,100.0,event
12:25:37.947,1.6091577,-0.31471485,-0.7399272,1.3470463,0.90281475,-0.41837135,-0.6663618,1.1977222,0.94058084,-0.25193003,-0.40571535,1.1150109,0.60127366,-0.38196456,-0.4622792,1.1327038,0.51676357,-0.53152376,-0.43443277,0.5167279,838.49817,808.2784,807.8755,886.04395,718.022,-0.1680908203125,-0.02001953125,0.97137451171875,1.607513427734375,-3.760833740234375,-0.25421142578125,1.0,2.0,1.0,1.0,2.0,100.0,event
12:25:37.948,1.6091577,-0.31471485,-0.7399272,1.3470463,0.90281475,-0.41837135,-0.6663618,1.1977222,0.94058084,-0.25193003,-0.40571535,1.1150109,0.60127366,-0.38196456,-0.4622792,1.1327038,0.51676357,-0.53152376,-0.43443277,0.5167279,839.304,808.68134,810.293,877.98535,763.5531,-0.1680908203125,-0.02001953125,0.97137451171875,1.607513427734375,-3.760833740234375,-0.25421142578125,1.0,2.0,1.0,1.0,2.0,100.0,event
12:25:37.949,1.6091577,-0.31471485,-0.7399272,1.3470463,0.90281475,-0.41837135,-0.6663618,1.1977222,0.94058084,-0.25193003,-0.40571535,1.1150109,0.60127366,-0.38196456,-0.4622792,1.1327038,0.51676357,-0.53152376,-0.43443277,0.5167279,845.7509,806.26373,806.26373,851.79486,687.8022,-0.1680908203125,-0.02001953125,0.97137451171875,1.607513427734375,-3.760833740234375,-0.25421142578125,1.0,2.0,1.0,1.0,2.0,100.0,event
12:25:37.950,1.6091577,-0.31471485,-0.7399272,1.3470463,0.90281475,-0.41837135,-0.6663618,1.1977222,0.94058084,-0.25193003,-0.40571535,1.1150109,0.60127366,-0.38196456,-0.4622792,1.1327038,0.51676357,-0.53152376,-0.43443277,0.5167279,832.4542,806.6667,803.44324,800.2198,645.09155,-0.1680908203125,-0.02001953125,0.97137451171875,1.607513427734375,-3.760833740234375,-0.25421142578125,1.0,2.0,1.0,1.0,2.0,100.0,event
12:25:37.950,1.6091577,-0.31471485,-0.7399272,1.3470463,0.90281475,-0.41837135,-0.6663618,1.1977222,0.94058084,-0.25193003,-0.40571535,1.1150109,0.60127366,-0.38196456,-0.4622792,1.1327038,0.51676357,-0.53152376,-0.43443277,0.5167279,821.5751,805.05493,800.6227,800.6227,818.3516,-0.1680908203125,-0.02001953125,0.97137451171875,1.607513427734375,-3.760833740234375,-0.25421142578125,1.0,2.0,1.0,1.0,2.0,100.0,event
12:25:37.951,1.6091577,-0.31471485,-0.7399272,1.3470463,0.90281475,-0.41837135,-0.6663618,1.1977222,0.94058084,-0.25193003,-0.40571535,1.1150109,0.60127366,-0.38196456,-0.4622792,1.1327038,0.51676357,-0.53152376,-0.43443277,0.5167279,806.6667,805.4579,805.4579,845.34796,977.50916,-0.1680908203125,-0.02001953125,0.97137451171875,1.607513427734375,-3.760833740234375,-0.25421142578125,1.0,2.0,1.0,1.0,2.0,100.0,event
12:25:37.951,1.6091577,-0.31471485,-0.7399272,1.3470463,0.90281475,-0.41837135,-0.6663618,1.1977222,0.94058084,-0.25193003,-0.40571535,1.1150109,0.60127366,-0.38196456,-0.4622792,1.1327038,0.51676357,-0.53152376,-0.43443277,0.5167279,800.2198,802.23444,802.6374,833.663,1079.8535,-0.1680908203125,-0.02001953125,0.97137451171875,1.607513427734375,-3.760833740234375,-0.25421142578125,1.0,2.0,1.0,1.0,2.0,100.0,event
12:25:37.952,1.6091577,-0.31471485,-0.7399272,1.3470463,0.90281475,-0.41837135,-0.6663618,1.1977222,0.94058084,-0.25193003,-0.40571535,1.1150109,0.60127366,-0.38196456,-0.4622792,1.1327038,0.51676357,-0.53152376,-0.43443277,0.5167279,834.87177,809.0842,802.6374,847.76556,699.0842,-0.1680908203125,-0.02001953125,0.97137451171875,1.607513427734375,-3.760833740234375,-0.25421142578125,1.0,2.0,1.0,1.0,2.0,100.0,event
12:25:37.952,1.6091577,-0.31471485,-0.7399272,1.3470463,0.90281475,-0.41837135,-0.6663618,1.1977222,0.94058084,-0.25193003,-0.40571535,1.1150109,0.60127366,-0.38196456,-0.4622792,1.1327038,0.51676357,-0.53152376,-0.43443277,0.5167279,824.7985,809.4872,804.2491,840.10986,723.2601,-0.1680908203125,-0.02001953125,0.97137451171875,1.607513427734375,-3.760833740234375,-0.25421142578125,1.0,2.0,1.0,1.0,2.0,100.0,event
12:25:37.953,1.6091577,-0.31471485,-0.7399272,1.3470463,0.90281475,-0.41837135,-0.6663618,1.1977222,0.94058084,-0.25193003,-0.40571535,1.1150109,0.60127366,-0.38196456,-0.4622792,1.1327038,0.51676357,-0.53152376,-0.43443277,0.5167279,805.8608,803.44324,804.65204,819.15753,735.7509,-0.1680908203125,-0.02001953125,0.97137451171875,1.607513427734375,-3.760833740234375,-0.25421142578125,1.0,2.0,1.0,1.0,2.0,100.0,event
12:25:37.953,1.6091577,-0.31471485,-0.7399272,1.3470463,0.90281475,-0.41837135,-0.6663618,1.1977222,0.94058084,-0.25193003,-0.40571535,1.1150109,0.60127366,-0.38196456,-0.4622792,1.1327038,0.51676357,-0.53152376,-0.43443277,0.5167279,801.02563,800.2198,800.6227,804.65204,757.9121,-0.1680908203125,-0.02001953125,0.97137451171875,1.607513427734375,-3.760833740234375,-0.25421142578125,1.0,2.0,1.0,1.0,2.0,100.0,event
12:25:38.007,1.6091577,-0.31471485,-0.7399272,1.3470463,0.90281475,-0.41837135,-0.6663618,1.1977222,0.94058084,-0.25193003,-0.40571535,1.1150109,0.60127366,-0.38196456,-0.4622792,1.1327038,0.51676357,-0.53152376,-0.43443277,0.5167279,805.4579,805.8608,797.3993,835.2747,736.9597,-0.16729736328125,-0.0211181640625,0.9659423828125,2.28790283203125,-1.547698974609375,0.16448974609375,1.0,2.0,1.0,1.0,2.0,100.0,event
12:25:38.008,1.6091577,-0.31471485,-0.7399272,1.3470463,0.90281475,-0.41837135,-0.6663618,1.1977222,0.94058084,-0.25193003,-0.40571535,1.1150109,0.60127366,-0.38196456,-0.4622792,1.1327038,0.51676357,-0.53152376,-0.43443277,0.5167279,815.5311,803.8461,796.5934,819.15753,753.47986,-0.16729736328125,-0.0211181640625,0.9659423828125,2.28790283203125,-1.547698974609375,0.16448974609375,1.0,2.0,1.0,1.0,2.0,100.0,event
12:25:38.009,1.6091577,-0.31471485,-0.7399272,1.3470463,0.90281475,-0.41837135,-0.6663618,1.1977222,0.94058084,-0.25193003,-0.40571535,1.1150109,0.60127366,-0.38196456,-0.4622792,1.1327038,0.51676357,-0.53152376,-0.43443277,0.5167279,792.96704,799.81683,797.8022,790.54944,857.8388,-0.16729736328125,-0.0211181640625,0.9659423828125,2.28790283203125,-1.547698974609375,0.16448974609375,1.0,2.0,1.0,1.0,2.0,100.0,event
12:25:38.009,1.6091577,-0.31471485,-0.7399272,1.3470463,0.90281475,-0.41837135,-0.6663618,1.1977222,0.94058084,-0.25193003,-0.40571535,1.1150109,0.60127366,-0.38196456,-0.4622792,1.1327038,0.51676357,-0.53152376,-0.43443277,0.5167279,812.71063,801.8315,799.41394,819.9634,731.31866,-0.16729736328125,-0.0211181640625,0.9659423828125,2.28790283203125,-1.547698974609375,0.16448974609375,1.0,2.0,1.0,1.0,2.0,100.0,event
12:25:38.010,1.6091577,-0.31471485,-0.7399272,1.3470463,0.90281475,-0.41837135,-0.6663618,1.1977222,0.94058084,-0.25193003,-0.40571535,1.1150109,0.60127366,-0.38196456,-0.4622792,1.1327038,0.51676357,-0.53152376,-0.43443277,0.5167279,815.5311,805.8608,799.81683,860.2564,873.95605,-0.16729736328125,-0.0211181640625,0.9659423828125,2.28790283203125,-1.547698974609375,0.16448974609375,1.0,2.0,1.0,1.0,2.0,100.0,event
12:25:38.010,1.6091577,-0.31471485,-0.7399272,1.3470463,0.90281475,-0.41837135,-0.6663618,1.1977222,0.94058084,-0.25193003,-0.40571535,1.1150109,0.60127366,-0.38196456,-0.4622792,1.1327038,0.51676357,-0.53152376,-0.43443277,0.5167279,826.4103,808.68134,799.81683,854.21246,649.92676,-0.16729736328125,-0.0211181640625,0.9659423828125,2.28790283203125,-1.547698974609375,0.16448974609375,1.0,2.0,1.0,1.0,2.0,100.0,event
12:25:38.011,1.6091577,-0.31471485,-0.7399272,1.3470463,0.90281475,-0.41837135,-0.6663618,1.1977222,0.94058084,-0.25193003,-0.40571535,1.1150109,0.60127366,-0.38196456,-0.4622792,1.1327038,0.51676357,-0.53152376,-0.43443277,0.5167279,804.2491,802.23444,802.6374,792.96704,1008.93774,-0.16729736328125,-0.0211181640625,0.9659423828125,2.28790283203125,-1.547698974609375,0.16448974609375,1.0,2.0,1.0,1.0,2.0,100.0,event
12:25:38.012,1.6091577,-0.31471485,-0.7399272,1.3470463,0.90281475,-0.41837135,-0.6663618,1.1977222,0.94058084,-0.25193003,-0.40571535,1.1150109,0.60127366,-0.38196456,-0.4622792,1.1327038,0.51676357,-0.53152376,-0.43443277,0.5167279,778.86444,807.47253,797.3993,725.6777,766.3736,-0.16729736328125,-0.0211181640625,0.9659423828125,2.28790283203125,-1.547698974609375,0.16448974609375,1.0,2.0,1.0,1.0,2.0,100.0,event
12:25:38.013,1.6091577,-0.31471485,-0.7399272,1.3470463,0.90281475,-0.41837135,-0.6663618,1.1977222,0.94058084,-0.25193003,-0.40571535,1.1150109,0.60127366,-0.38196456,-0.4622792,1.1327038,0.51676357,-0.53152376,-0.43443277,0.5167279,781.28204,803.44324,795.38464,786.1172,681.3553,-0.16729736328125,-0.0211181640625,0.9659423828125,2.28790283203125,-1.547698974609375,0.16448974609375,1.0,2.0,1.0,1.0,2.0,100.0,event
12:25:38.014,1.5850246,-0.34789395,-0.7280338,1.3470463,0.95425266,-0.39048052,-0.63937986,1.1977222,0.9819929,-0.23302843,-0.40590602,1.1150109,0.63889784,-0.38876376,-0.4626204,1.1327038,0.47885427,-0.5431271,-0.43534774,0.5167279,785.31134,803.44324,801.8315,853.4066,802.6374,-0.16729736328125,-0.0211181640625,0.9659423828125,2.28790283203125,-1.547698974609375,0.16448974609375,1.0,1.0,1.0,1.0,1.0,100.0,event
12:25:38.019,1.5850246,-0.34789395,-0.7280338,1.3470463,0.95425266,-0.39048052,-0.63937986,1.1977222,0.9819929,-0.23302843,-0.40590602,1.1150109,0.63889784,-0.38876376,-0.4626204,1.1327038,0.47885427,-0.5431271,-0.43534774,0.5167279,797.8022,804.2491,803.0403,843.3333,803.8461,-0.16729736328125,-0.0211181640625,0.9659423828125,2.28790283203125,-1.547698974609375,0.16448974609375,1.0,1.0,1.0,1.0,1.0,100.0,event
12:25:38.020,1.5850246,-0.34789395,-0.7280338,1.3470463,0.95425266,-0.39048052,-0.63937986,1.1977222,0.9819929,-0.23302843,-0.40590602,1.1150109,0.63889784,-0.38876376,-0.4626204,1.1327038,0.47885427,-0.5431271,-0.43534774,0.5167279,847.76556,804.2491,799.81683,804.2491,698.68134,-0.16729736328125,-0.0211181640625,0.9659423828125,2.28790283203125,-1.547698974609375,0.16448974609375,1.0,1.0,1.0,1.0,1.0,100.0,event
12:25:38.048,1.5850246,-0.34789395,-0.7280338,1.3470463,0.95425266,-0.39048052,-0.63937986,1.1977222,0.9819929,-0.23302843,-0.40590602,1.1150109,0.63889784,-0.38876376,-0.4626204,1.1327038,0.47885427,-0.5431271,-0.43534774,0.5167279,799.81683,807.8755,798.60803,791.3553,740.989,-0.16729736328125,-0.0211181640625,0.9659423828125,2.28790283203125,-1.547698974609375,0.16448974609375,1.0,1.0,1.0,1.0,1.0,100.0,event
12:25:38.052,1.5850246,-0.34789395,-0.7280338,1.3470463,0.95425266,-0.39048052,-0.63937986,1.1977222,0.9819929,-0.23302843,-0.40590602,1.1150109,0.63889784,-0.38876376,-0.4626204,1.1327038,0.47885427,-0.5431271,-0.43534774,0.5167279,781.685,804.65204,801.4286,819.9634,727.6923,-0.16729736328125,-0.0211181640625,0.9659423828125,2.28790283203125,-1.547698974609375,0.16448974609375,1.0,1.0,1.0,1.0,1.0,100.0,event
12:25:38.053,1.5850246,-0.34789395,-0.7280338,1.3470463,0.95425266,-0.39048052,-0.63937986,1.1977222,0.9819929,-0.23302843,-0.40590602,1.1150109,0.63889784,-0.38876376,-0.4626204,1.1327038,0.47885427,-0.5431271,-0.43534774,0.5167279,830.0366,805.05493,807.8755,840.5128,761.13556,-0.16729736328125,-0.0211181640625,0.9659423828125,2.28790283203125,-1.547698974609375,0.16448974609375,1.0,1.0,1.0,1.0,1.0,100.0,event
12:25:38.054,1.5850246,-0.34789395,-0.7280338,1.3470463,0.95425266,-0.39048052,-0.63937986,1.1977222,0.9819929,-0.23302843,-0.40590602,1.1150109,0.63889784,-0.38876376,-0.4626204,1.1327038,0.47885427,-0.5431271,-0.43534774,0.5167279,786.9231,807.47253,805.8608,807.8755,735.7509,-0.16729736328125,-0.0211181640625,0.9659423828125,2.28790283203125,-1.547698974609375,0.16448974609375,1.0,1.0,1.0,1.0,1.0,100.0,event
12:25:38.054,1.5850246,-0.34789395,-0.7280338,1.3470463,0.95425266,-0.39048052,-0.63937986,1.1977222,0.9819929,-0.23302843,-0.40590602,1.1150109,0.63889784,-0.38876376,-0.4626204,1.1327038,0.47885427,-0.5431271,-0.43534774,0.5167279,808.68134,807.47253,809.4872,827.2161,796.1905,-0.16729736328125,-0.0211181640625,0.9659423828125,2.28790283203125,-1.547698974609375,0.16448974609375,1.0,1.0,1.0,1.0,1.0,100.0,event
12:25:38.056,1.5850246,-0.34789395,-0.7280338,1.3470463,0.95425266,-0.39048052,-0.63937986,1.1977222,0.9819929,-0.23302843,-0.40590602,1.1150109,0.63889784,-0.38876376,-0.4626204,1.1327038,0.47885427,-0.5431271,-0.43534774,0.5167279,732.9304,804.65204,804.2491,784.5055,969.85345,-0.16729736328125,-0.0211181640625,0.9659423828125,2.28790283203125,-1.547698974609375,0.16448974609375,1.0,1.0,1.0,1.0,1.0,100.0,event
12:25:38.057,1.5850246,-0.34789395,-0.7280338,1.3470463,0.95425266,-0.39048052,-0.63937986,1.1977222,0.9819929,-0.23302843,-0.40590602,1.1150109,0.63889784,-0.38876376,-0.4626204,1.1327038,0.47885427,-0.5431271,-0.43534774,0.5167279,756.7033,805.8608,802.6374,778.46155,987.1795,-0.16729736328125,-0.0211181640625,0.9659423828125,2.28790283203125,-1.547698974609375,0.16448974609375,1.0,1.0,1.0,1.0,1.0,100.0,event
12:25:38.058,1.5850246,-0.34789395,-0.7280338,1.3470463,0.95425266,-0.39048052,-0.63937986,1.1977222,0.9819929,-0.23302843,-0.40590602,1.1150109,0.63889784,-0.38876376,-0.4626204,1.1327038,0.47885427,-0.5431271,-0.43534774,0.5167279,811.50183,810.696,802.6374,790.54944,724.87177,-0.16729736328125,-0.0211181640625,0.9659423828125,2.28790283203125,-1.547698974609375,0.16448974609375,1.0,1.0,1.0,1.0,1.0,100.0,event
12:25:38.059,1.5850246,-0.34789395,-0.7280338,1.3470463,0.95425266,-0.39048052,-0.63937986,1.1977222,0.9819929,-0.23302843,-0.40590602,1.1150109,0.63889784,-0.38876376,-0.4626204,1.1327038,0.47885427,-0.5431271,-0.43534774,0.5167279,788.5348,809.4872,800.2198,818.7546,776.8498,-0.16729736328125,-0.0211181640625,0.9659423828125,2.28790283203125,-1.547698974609375,0.16448974609375,1.0,1.0,1.0,1.0,1.0,100.0,event
12:25:38.060,1.5850246,-0.34789395,-0.7280338,1.3470463,0.95425266,-0.39048052,-0.63937986,1.1977222,0.9819929,-0.23302843,-0.40590602,1.1150109,0.63889784,-0.38876376,-0.4626204,1.1327038,0.47885427,-0.5431271,-0.43534774,0.5167279,803.8461,804.65204,805.4579,806.26373,886.04395,-0.16729736328125,-0.0211181640625,0.9659423828125,2.28790283203125,-1.547698974609375,0.16448974609375,1.0,1.0,1.0,1.0,1.0,100.0,event
12:25:38.061,1.5850246,-0.34789395,-0.7280338,1.3470463,0.95425266,-0.39048052,-0.63937986,1.1977222,0.9819929,-0.23302843,-0.40590602,1.1150109,0.63889784,-0.38876376,-0.4626204,1.1327038,0.47885427,-0.5431271,-0.43534774,0.5167279,801.4286,806.26373,809.4872,810.293,786.9231,-0.16729736328125,-0.0211181640625,0.9659423828125,2.28790283203125,-1.547698974609375,0.16448974609375,1.0,1.0,1.0,1.0,1.0,100.0,event
12:25:38.061,1.5850246,-0.34789395,-0.7280338,1.3470463,0.95425266,-0.39048052,-0.63937986,1.1977222,0.9819929,-0.23302843,-0.40590602,1.1150109,0.63889784,-0.38876376,-0.4626204,1.1327038,0.47885427,-0.5431271,-0.43534774,0.5167279,773.6264,803.8461,810.293,824.3956,717.619,-0.16729736328125,-0.0211181640625,0.9659423828125,2.28790283203125,-1.547698974609375,0.16448974609375,1.0,1.0,1.0,1.0,1.0,100.0,event
12:25:38.089,1.5850246,-0.34789395,-0.7280338,1.3470463,0.95425266,-0.39048052,-0.63937986,1.1977222,0.9819929,-0.23302843,-0.40590602,1.1150109,0.63889784,-0.38876376,-0.4626204,1.1327038,0.47885427,-0.5431271,-0.43534774,0.5167279,784.5055,808.2784,812.71063,816.337,759.5238,-0.171875,-0.02099609375,0.9656982421875,2.415008544921875,-2.5421142578125,1.637420654296875,1.0,1.0,1.0,1.0,1.0,100.0,event
12:25:38.090,1.5850246,-0.34789395,-0.7280338,1.3470463,0.95425266,-0.39048052,-0.63937986,1.1977222,0.9819929,-0.23302843,-0.40590602,1.1150109,0.63889784,-0.38876376,-0.4626204,1.1327038,0.47885427,-0.5431271,-0.43534774,0.5167279,790.54944,804.2491,801.02563,831.6484,679.7436,-0.171875,-0.02099609375,0.9656982421875,2.415008544921875,-2.5421142578125,1.637420654296875,1.0,1.0,1.0,1.0,1.0,100.0,event
12:25:38.090,1.5850246,-0.34789395,-0.7280338,1.3470463,0.95425266,-0.39048052,-0.63937986,1.1977222,0.9819929,-0.23302843,-0.40590602,1.1150109,0.63889784,-0.38876376,-0.4626204,1.1327038,0.47885427,-0.5431271,-0.43534774,0.5167279,786.9231,811.9048,807.8755,802.23444,729.707,-0.171875,-0.02099609375,0.9656982421875,2.415008544921875,-2.5421142578125,1.637420654296875,1.0,1.0,1.0,1.0,1.0,100.0,event
12:25:38.091,1.5850246,-0.34789395,-0.7280338,1.3470463,0.95425266,-0.39048052,-0.63937986,1.1977222,0.9819929,-0.23302843,-0.40590602,1.1150109,0.63889784,-0.38876376,-0.4626204,1.1327038,0.47885427,-0.5431271,-0.43534774,0.5167279,780.4762,799.41394,805.4579,840.9158,700.293,-0.171875,-0.02099609375,0.9656982421875,2.415008544921875,-2.5421142578125,1.637420654296875,1.0,1.0,1.0,1.0,1.0,100.0,event
12:25:38.091,1.5850246,-0.34789395,-0.7280338,1.3470463,0.95425266,-0.39048052,-0.63937986,1.1977222,0.9819929,-0.23302843,-0.40590602,1.1150109,0.63889784,-0.38876376,-0.4626204,1.1327038,0.47885427,-0.5431271,-0.43534774,0.5167279,755.4945,801.4286,804.65204,794.17584,766.77655,-0.171875,-0.02099609375,0.9656982421875,2.415008544921875,-2.5421142578125,1.637420654296875,1.0,1.0,1.0,1.0,1.0,100.0,event
12:25:38.092,1.5850246,-0.34789395,-0.7280338,1.3470463,0.95425266,-0.39048052,-0.63937986,1.1977222,0.9819929,-0.23302843,-0.40590602,1.1150109,0.63889784,-0.38876376,-0.4626204,1.1327038,0.47885427,-0.5431271,-0.43534774,0.5167279,682.96704,809.0842,801.4286,748.6447,802.6374,-0.171875,-0.02099609375,0.9656982421875,2.415008544921875,-2.5421142578125,1.637420654296875,1.0,1.0,1.0,1.0,1.0,100.0,event
12:25:38.092,1.5850246,-0.34789395,-0.7280338,1.3470463,0.95425266,-0.39048052,-0.63937986,1.1977222,0.9819929,-0.23302843,-0.40590602,1.1150109,0.63889784,-0.38876376,-0.4626204,1.1327038,0.47885427,-0.5431271,-0.43534774,0.5167279,718.022,801.02563,798.20514,750.2564,842.1245,-0.171875,-0.02099609375,0.9656982421875,2.415008544921875,-2.5421142578125,1.637420654296875,1.0,1.0,1.0,1.0,1.0,100.0,event
12:25:38.093,1.5850246,-0.34789395,-0.7280338,1.3470463,0.95425266,-0.39048052,-0.63937986,1.1977222,0.9819929,-0.23302843,-0.40590602,1.1150109,0.63889784,-0.38876376,-0.4626204,1.1327038,0.47885427,-0.5431271,-0.43534774,0.5167279,747.4359,790.54944,811.9048,787.326,838.0952,-0.171875,-0.02099609375,0.9656982421875,2.415008544921875,-2.5421142578125,1.637420654296875,1.0,1.0,1.0,1.0,1.0,100.0,event
12:25:38.094,1.5850246,-0.34789395,-0.7280338,1.3470463,0.95425266,-0.39048052,-0.63937986,1.1977222,0.9819929,-0.23302843,-0.40590602,1.1150109,0.63889784,-0.38876376,-0.4626204,1.1327038,0.47885427,-0.5431271,-0.43534774,0.5167279,719.6337,794.17584,809.0842,792.96704,886.8498,-0.171875,-0.02099609375,0.9656982421875,2.415008544921875,-2.5421142578125,1.637420654296875,1.0,1.0,1.0,1.0,1.0,100.0,event
12:25:38.094,1.5850246,-0.34789395,-0.7280338,1.3470463,0.95425266,-0.39048052,-0.63937986,1.1977222,0.9819929,-0.23302843,-0.40590602,1.1150109,0.63889784,-0.38876376,-0.4626204,1.1327038,0.47885427,-0.5431271,-0.43534774,0.5167279,772.01465,796.99634,796.5934,811.9048,1028.2784,-0.171875,-0.02099609375,0.9656982421875,2.415008544921875,-2.5421142578125,1.637420654296875,1.0,1.0,1.0,1.0,1.0,100.0,event
12:25:38.095,1.5850246,-0.34789395,-0.7280338,1.3470463,0.95425266,-0.39048052,-0.63937986,1.1977222,0.9819929,-0.23302843,-0.40590602,1.1150109,0.63889784,-0.38876376,-0.4626204,1.1327038,0.47885427,-0.5431271,-0.43534774,0.5167279,795.78754,801.02563,804.65204,805.4579,822.7839,-0.171875,-0.02099609375,0.9656982421875,2.415008544921875,-2.5421142578125,1.637420654296875,1.0,1.0,1.0,1.0,1.0,100.0,event
12:25:38.095,1.5850246,-0.36488903,-0.7380664,1.3470463,0.95425266,-0.35546014,-0.60748357,1.1977222,0.9819929,-0.20771201,-0.41988352,1.1150109,0.63889784,-0.39529577,-0.4596238,1.1327038,0.47885427,-0.554533,-0.43669236,0.5167279,784.5055,803.44324,801.02563,828.8278,688.20514,-0.171875,-0.02099609375,0.9656982421875,2.415008544921875,-2.5421142578125,1.637420654296875,1.0,1.0,1.0,1.0,1.0,100.0,event
12:25:38.156,1.5850246,-0.36488903,-0.7380664,1.3470463,0.95425266,-0.35546014,-0.60748357,1.1977222,0.9819929,-0.20771201,-0.41988352,1.1150109,0.63889784,-0.39529577,-0.4596238,1.1327038,0.47885427,-0.554533,-0.43669236,0.5167279,773.22345,793.7729,807.0696,867.9121,750.65936,-0.1732177734375,-0.01513671875,0.9691162109375,2.848663330078125,-2.370147705078125,1.31591796875,1.0,1.0,1.0,1.0,1.0,100.0,event
12:25:38.157,1.5850246,-0.36488903,-0.7380664,1.3470463,0.95425266,-0.35546014,-0.60748357,1.1977222,0.9819929,-0.20771201,-0.41988352,1.1150109,0.63889784,-0.39529577,-0.4596238,1.1327038,0.47885427,-0.554533,-0.43669236,0.5167279,799.41394,798.60803,808.68134,831.6484,738.97437,-0.1732177734375,-0.01513671875,0.9691162109375,2.848663330078125,-2.370147705078125,1.31591796875,1.0,1.0,1.0,1.0,1.0,100.0,event
12:25:38.158,1.5850246,-0.36488903,-0.7380664,1.3470463,0.95425266,-0.35546014,-0.60748357,1.1977222,0.9819929,-0.20771201,-0.41988352,1.1150109,0.63889784,-0.39529577,-0.4596238,1.1327038,0.47885427,-0.554533,-0.43669236,0.5167279,754.68866,809.0842,799.41394,784.90845,684.9817,-0.1732177734375,-0.01513671875,0.9691162109375,2.848663330078125,-2.370147705078125,1.31591796875,1.0,1.0,1.0,1.0,1.0,100.0,event
12:25:38.159,1.5850246,-0.36488903,-0.7380664,1.3470463,0.95425266,-0.35546014,-0.60748357,1.1977222,0.9819929,-0.20771201,-0.41988352,1.1150109,0.63889784,-0.39529577,-0.4596238,1.1327038,0.47885427,-0.554533,-0.43669236,0.5167279,705.5311,807.0696,798.20514,743.8095,675.31134,-0.1732177734375,-0.01513671875,0.9691162109375,2.848663330078125,-2.370147705078125,1.31591796875,1.0,1.0,1.0,1.0,1.0,100.0,event
12:25:38.159,1.5850246,-0.36488903,-0.7380664,1.3470463,0.95425266,-0.35546014,-0.60748357,1.1977222,0.9819929,-0.20771201,-0.41988352,1.1150109,0.63889784,-0.39529577,-0.4596238,1.1327038,0.47885427,-0.554533,-0.43669236,0.5167279,765.56775,809.89014,802.23444,826.0073,707.9487,-0.1732177734375,-0.01513671875,0.9691162109375,2.848663330078125,-2.370147705078125,1.31591796875,1.0,1.0,1.0,1.0,1.0,100.0,event
12:25:38.160,1.5850246,-0.36488903,-0.7380664,1.3470463,0.95425266,-0.35546014,-0.60748357,1.1977222,0.9819929,-0.20771201,-0.41988352,1.1150109,0.63889784,-0.39529577,-0.4596238,1.1327038,0.47885427,-0.554533,-0.43669236,0.5167279,832.4542,805.4579,805.8608,892.0879,855.42126,-0.1732177734375,-0.01513671875,0.9691162109375,2.848663330078125,-2.370147705078125,1.31591796875,1.0,1.0,1.0,1.0,1.0,100.0,event
12:25:38.161,1.5850246,-0.36488903,-0.7380664,1.3470463,0.95425266,-0.35546014,-0.60748357,1.1977222,0.9819929,-0.20771201,-0.41988352,1.1150109,0.63889784,-0.39529577,-0.4596238,1.1327038,0.47885427,-0.554533,-0.43669236,0.5167279,830.4396,795.78754,806.26373,811.9048,842.52747,-0.1732177734375,-0.01513671875,0.9691162109375,2.848663330078125,-2.370147705078125,1.31591796875,1.0,1.0,1.0,1.0,1.0,100.0,event
12:25:38.161,1.5850246,-0.36488903,-0.7380664,1.3470463,0.95425266,-0.35546014,-0.60748357,1.1977222,0.9819929,-0.20771201,-0.41988352,1.1150109,0.63889784,-0.39529577,-0.4596238,1.1327038,0.47885427,-0.554533,-0.43669236,0.5167279,718.4249,808.68134,797.8022,748.24176,666.8498,-0.1732177734375,-0.01513671875,0.9691162109375,2.848663330078125,-2.370147705078125,1.31591796875,1.0,1.0,1.0,1.0,1.0,100.0,event
12:25:38.162,1.5850246,-0.36488903,-0.7380664,1.3470463,0.95425266,-0.35546014,-0.60748357,1.1977222,0.9819929,-0.20771201,-0.41988352,1.1150109,0.63889784,-0.39529577,-0.4596238,1.1327038,0.47885427,-0.554533,-0.43669236,0.5167279,696.6667,793.36993,807.0696,808.68134,947.28937,-0.1732177734375,-0.01513671875,0.9691162109375,2.848663330078125,-2.370147705078125,1.31591796875,1.0,1.0,1.0,1.0,1.0,100.0,event
12:25:38.163,1.5850246,-0.36488903,-0.7380664,1.3470463,0.95425266,-0.35546014,-0.60748357,1.1977222,0.9819929,-0.20771201,-0.41988352,1.1150109,0.63889784,-0.39529577,-0.4596238,1.1327038,0.47885427,-0.554533,-0.43669236,0.5167279,834.87177,784.10254,814.7253,925.5311,1017.8022,-0.1732177734375,-0.01513671875,0.9691162109375,2.848663330078125,-2.370147705078125,1.31591796875,1.0,1.0,1.0,1.0,1.0,100.0,event
12:25:38.163,1.5850246,-0.36488903,-0.7380664,1.3470463,0.95425266,-0.35546014,-0.60748357,1.1977222,0.9819929,-0.20771201,-0.41988352,1.1150109,0.63889784,-0.39529577,-0.4596238,1.1327038,0.47885427,-0.554533,-0.43669236,0.5167279,872.3443,806.6667,804.2491,896.1172,724.4689,-0.1732177734375,-0.01513671875,0.9691162109375,2.848663330078125,-2.370147705078125,1.31591796875,1.0,1.0,1.0,1.0,1.0,100.0,event
12:25:38.164,1.5850246,-0.36488903,-0.7380664,1.3470463,0.95425266,-0.35546014,-0.60748357,1.1977222,0.9819929,-0.20771201,-0.41988352,1.1150109,0.63889784,-0.39529577,-0.4596238,1.1327038,0.47885427,-0.554533,-0.43669236,0.5167279,807.47253,805.05493,805.4579,850.58606,824.3956,-0.1732177734375,-0.01513671875,0.9691162109375,2.848663330078125,-2.370147705078125,1.31591796875,1.0,1.0,1.0,1.0,1.0,100.0,event
12:25:38.191,1.5850246,-0.36488903,-0.7380664,1.3470463,0.95425266,-0.35546014,-0.60748357,1.1977222,0.9819929,-0.20771201,-0.41988352,1.1150109,0.63889784,-0.39529577,-0.4596238,1.1327038,0.47885427,-0.554533,-0.43669236,0.5167279,742.6007,800.2198,807.47253,837.28937,827.2161,-0.18536376953125,-0.01153564453125,0.9720458984375,2.639312744140625,-3.342132568359375,0.5682373046875,1.0,1.0,1.0,1.0,1.0,100.0,event
12:25:38.192,1.5850246,-0.36488903,-0.7380664,1.3470463,0.95425266,-0.35546014,-0.60748357,1.1977222,0.9819929,-0.20771201,-0.41988352,1.1150109,0.63889784,-0.39529577,-0.4596238,1.1327038,0.47885427,-0.554533,-0.43669236,0.5167279,762.74725,811.9048,798.60803,790.9524,684.17584,-0.18536376953125,-0.01153564453125,0.9720458984375,2.639312744140625,-3.342132568359375,0.5682373046875,1.0,1.0,1.0,1.0,1.0,100.0,event
12:25:38.192,1.5850246,-0.36488903,-0.7380664,1.3470463,0.95425266,-0.35546014,-0.60748357,1.1977222,0.9819929,-0.20771201,-0.41988352,1.1150109,0.63889784,-0.39529577,-0.4596238,1.1327038,0.47885427,-0.554533,-0.43669236,0.5167279,787.326,818.7546,799.011,822.7839,659.19415,-0.18536376953125,-0.01153564453125,0.9720458984375,2.639312744140625,-3.342132568359375,0.5682373046875,1.0,1.0,1.0,1.0,1.0,100.0,event
12:25:38.193,1.5850246,-0.36488903,-0.7380664,1.3470463,0.95425266,-0.35546014,-0.60748357,1.1977222,0.9819929,-0.20771201,-0.41988352,1.1150109,0.63889784,-0.39529577,-0.4596238,1.1327038,0.47885427,-0.554533,-0.43669236,0.5167279,798.20514,813.5165,805.4579,876.77655,738.1685,-0.18536376953125,-0.01153564453125,0.9720458984375,2.639312744140625,-3.342132568359375,0.5682373046875,1.0,1.0,1.0,1.0,1.0,100.0,event
12:25:38.194,1.5850246,-0.36488903,-0.7380664,1.3470463,0.95425266,-0.35546014,-0.60748357,1.1977222,0.9819929,-0.20771201,-0.41988352,1.1150109,0.63889784,-0.39529577,-0.4596238,1.1327038,0.47885427,-0.554533,-0.43669236,0.5167279,774.43225,810.696,797.3993,835.6777,779.2674,-0.18536376953125,-0.01153564453125,0.9720458984375,2.639312744140625,-3.342132568359375,0.5682373046875,1.0,1.0,1.0,1.0,1.0,100.0,event
12:25:38.194,1.5850246,-0.36488903,-0.7380664,1.3470463,0.95425266,-0.35546014,-0.60748357,1.1977222,0.9819929,-0.20771201,-0.41988352,1.1150109,0.63889784,-0.39529577,-0.4596238,1.1327038,0.47885427,-0.554533,-0.43669236,0.5167279,746.63007,792.1612,812.71063,790.54944,809.0842,-0.18536376953125,-0.01153564453125,0.9720458984375,2.639312744140625,-3.342132568359375,0.5682373046875,1.0,1.0,1.0,1.0,1.0,100.0,event
12:25:38.195,1.5850246,-0.36488903,-0.7380664,1.3470463,0.95425266,-0.35546014,-0.60748357,1.1977222,0.9819929,-0.20771201,-0.41988352,1.1150109,0.63889784,-0.39529577,-0.4596238,1.1327038,0.47885427,-0.554533,-0.43669236,0.5167279,772.01465,795.78754,813.91943,805.05493,780.4762,-0.18536376953125,-0.01153564453125,0.9720458984375,2.639312744140625,-3.342132568359375,0.5682373046875,1.0,1.0,1.0,1.0,1.0,100.0,event
12:25:38.195,1.5850246,-0.36488903,-0.7380664,1.3470463,0.95425266,-0.35546014,-0.60748357,1.1977222,0.9819929,-0.20771201,-0.41988352,1.1150109,0.63889784,-0.39529577,-0.4596238,1.1327038,0.47885427,-0.554533,-0.43669236,0.5167279,819.5604,811.50183,794.17584,902.1612,899.7436,-0.18536376953125,-0.01153564453125,0.9720458984375,2.639312744140625,-3.342132568359375,0.5682373046875,1.0,1.0,1.0,1.0,1.0,100.0,event
12:25:38.196,1.5850246,-0.36488903,-0.7380664,1.3470463,0.95425266,-0.35546014,-0.60748357,1.1977222,0.9819929,-0.20771201,-0.41988352,1.1150109,0.63889784,-0.39529577,-0.4596238,1.1327038,0.47885427,-0.554533,-0.43669236,0.5167279,823.9927,799.81683,801.8315,909.41394,983.1502,-0.18536376953125,-0.01153564453125,0.9720458984375,2.639312744140625,-3.342132568359375,0.5682373046875,1.0,1.0,1.0,1.0,1.0,100.0,event
12:25:38.197,1.5850246,-0.36488903,-0.7380664,1.3470463,0.95425266,-0.35546014,-0.60748357,1.1977222,0.9819929,-0.20771201,-0.41988352,1.1150109,0.63889784,-0.39529577,-0.4596238,1.1327038,0.47885427,-0.554533,-0.43669236,0.5167279,792.5641,805.05493,805.05493,833.2601,722.8571,-0.18536376953125,-0.01153564453125,0.9720458984375,2.639312744140625,-3.342132568359375,0.5682373046875,1.0,1.0,1.0,1.0,1.0,100.0,event
12:25:38.197,1.5850246,-0.36488903,-0.7380664,1.3470463,0.95425266,-0.35546014,-0.60748357,1.1977222,0.9819929,-0.20771201,-0.41988352,1.1150109,0.63889784,-0.39529577,-0.4596238,1.1327038,0.47885427,-0.554533,-0.43669236,0.5167279,823.9927,801.02563,808.68134,884.43225,774.43225,-0.18536376953125,-0.01153564453125,0.9720458984375,2.639312744140625,-3.342132568359375,0.5682373046875,1.0,1.0,1.0,1.0,1.0,100.0,event
12:25:38.198,1.5850246,-0.36488903,-0.7380664,1.3470463,0.95425266,-0.35546014,-0.60748357,1.1977222,0.9819929,-0.20771201,-0.41988352,1.1150109,0.63889784,-0.39529577,-0.4596238,1.1327038,0.47885427,-0.554533,-0.43669236,0.5167279,743.00366,802.6374,804.65204,796.5934,875.16486,-0.18536376953125,-0.01153564453125,0.9720458984375,2.639312744140625,-3.342132568359375,0.5682373046875,1.0,1.0,1.0,1.0,1.0,100.0,event
12:25:38.220,1.5850246,-0.36488903,-0.7380664,1.3470463,0.95425266,-0.35546014,-0.60748357,1.1977222,0.9819929,-0.20771201,-0.41988352,1.1150109,0.63889784,-0.39529577,-0.4596238,1.1327038,0.47885427,-0.554533,-0.43669236,0.5167279,770.40295,805.05493,805.05493,855.42126,880.40295,-0.1787109375,-0.0181884765625,0.97076416015625,2.594451904296875,-4.269256591796875,-0.949554443359375,1.0,1.0,1.0,1.0,1.0,100.0,event
12:25:38.222,1.5850246,-0.37689188,-0.7666343,1.3470463,0.95425266,-0.33040777,-0.57487774,1.1977222,0.9819929,-0.20541003,-0.4547379,1.1150109,0.63889784,-0.40116856,-0.45552528,1.1327038,0.47885427,-0.558632,-0.4382492,0.5167279,847.3626,796.99634,808.2784,921.9048,691.4286,-0.1787109375,-0.0181884765625,0.97076416015625,2.594451904296875,-4.269256591796875,-0.949554443359375,1.0,1.0,1.0,1.0,1.0,100.0,event
12:25:38.226,1.5850246,-0.37689188,-0.7666343,1.3470463,0.95425266,-0.33040777,-0.57487774,1.1977222,0.9819929,-0.20541003,-0.4547379,1.1150109,0.63889784,-0.40116856,-0.45552528,1.1327038,0.47885427,-0.558632,-0.4382492,0.5167279,859.0476,799.81683,803.44324,924.7253,715.6044,-0.1787109375,-0.0181884765625,0.97076416015625,2.594451904296875,-4.269256591796875,-0.949554443359375,1.0,1.0,1.0,1.0,1.0,100.0,event
12:25:38.227,1.5850246,-0.37689188,-0.7666343,1.3470463,0.95425266,-0.33040777,-0.57487774,1.1977222,0.9819929,-0.20541003,-0.4547379,1.1150109,0.63889784,-0.40116856,-0.45552528,1.1327038,0.47885427,-0.558632,-0.4382492,0.5167279,788.5348,802.23444,793.36993,825.6044,825.6044,-0.1787109375,-0.0181884765625,0.97076416015625,2.594451904296875,-4.269256591796875,-0.949554443359375,1.0,1.0,1.0,1.0,1.0,100.0,event
12:25:38.228,1.5850246,-0.37689188,-0.7666343,1.3470463,0.95425266,-0.33040777,-0.57487774,1.1977222,0.9819929,-0.20541003,-0.4547379,1.1150109,0.63889784,-0.40116856,-0.45552528,1.1327038,0.47885427,-0.558632,-0.4382492,0.5167279,785.7143,801.02563,799.011,815.9341,813.91943,-0.1787109375,-0.0181884765625,0.97076416015625,2.594451904296875,-4.269256591796875,-0.949554443359375,1.0,1.0,1.0,1.0,1.0,100.0,event
12:25:38.228,1.5850246,-0.37689188,-0.7666343,1.3470463,0.95425266,-0.33040777,-0.57487774,1.1977222,0.9819929,-0.20541003,-0.4547379,1.1150109,0.63889784,-0.40116856,-0.45552528,1.1327038,0.47885427,-0.558632,-0.4382492,0.5167279,797.8022,801.4286,803.8461,909.41394,836.8865,-0.1787109375,-0.0181884765625,0.97076416015625,2.594451904296875,-4.269256591796875,-0.949554443359375,1.0,1.0,1.0,1.0,1.0,100.0,event
12:25:38.229,1.5850246,-0.37689188,-0.7666343,1.3470463,0.95425266,-0.33040777,-0.57487774,1.1977222,0.9819929,-0.20541003,-0.4547379,1.1150109,0.63889784,-0.40116856,-0.45552528,1.1327038,0.47885427,-0.558632,-0.4382492,0.5167279,813.1135,805.05493,798.60803,906.1905,844.94507,-0.1787109375,-0.0181884765625,0.97076416015625,2.594451904296875,-4.269256591796875,-0.949554443359375,1.0,1.0,1.0,1.0,1.0,100.0,event
12:25:38.230,1.5850246,-0.37689188,-0.7666343,1.3470463,0.95425266,-0.33040777,-0.57487774,1.1977222,0.9819929,-0.20541003,-0.4547379,1.1150109,0.63889784,-0.40116856,-0.45552528,1.1327038,0.47885427,-0.558632,-0.4382492,0.5167279,747.03296,811.0989,809.4872,823.5897,954.5421,-0.1787109375,-0.0181884765625,0.97076416015625,2.594451904296875,-4.269256591796875,-0.949554443359375,1.0,1.0,1.0,1.0,1.0,100.0,event
12:25:38.230,1.5850246,-0.37689188,-0.7666343,1.3470463,0.95425266,-0.33040777,-0.57487774,1.1977222,0.9819929,-0.20541003,-0.4547379,1.1150109,0.63889784,-0.40116856,-0.45552528,1.1327038,0.47885427,-0.558632,-0.4382492,0.5167279,825.6044,812.3077,799.41394,863.8828,1004.10254,-0.1787109375,-0.0181884765625,0.97076416015625,2.594451904296875,-4.269256591796875,-0.949554443359375,1.0,1.0,1.0,1.0,1.0,100.0,event
12:25:38.231,1.5850246,-0.37689188,-0.7666343,1.3470463,0.95425266,-0.33040777,-0.57487774,1.1977222,0.9819929,-0.20541003,-0.4547379,1.1150109,0.63889784,-0.40116856,-0.45552528,1.1327038,0.47885427,-0.558632,-0.4382492,0.5167279,697.47253,798.20514,806.26373,852.1978,697.0696,-0.1787109375,-0.0181884765625,0.97076416015625,2.594451904296875,-4.269256591796875,-0.949554443359375,1.0,1.0,1.0,1.0,1.0,100.0,event
12:25:38.231,1.5850246,-0.37689188,-0.7666343,1.3470463,0.95425266,-0.33040777,-0.57487774,1.1977222,0.9819929,-0.20541003,-0.4547379,1.1150109,0.63889784,-0.40116856,-0.45552528,1.1327038,0.47885427,-0.558632,-0.4382492,0.5167279,807.8755,805.4579,801.8315,925.9341,768.7912,-0.1787109375,-0.0181884765625,0.97076416015625,2.594451904296875,-4.269256591796875,-0.949554443359375,1.0,1.0,1.0,1.0,1.0,100.0,event
12:25:38.232,1.5850246,-0.37689188,-0.7666343,1.3470463,0.95425266,-0.33040777,-0.57487774,1.1977222,0.9819929,-0.20541003,-0.4547379,1.1150109,0.63889784,-0.40116856,-0.45552528,1.1327038,0.47885427,-0.558632,-0.4382492,0.5167279,842.9304,803.8461,813.1135,930.7692,790.54944,-0.1787109375,-0.0181884765625,0.97076416015625,2.594451904296875,-4.269256591796875,-0.949554443359375,1.0,1.0,1.0,1.0,1.0,100.0,event
12:25:38.321,1.5850246,-0.37689188,-0.7666343,1.3470463,0.95425266,-0.33040777,-0.57487774,1.1977222,0.9819929,-0.20541003,-0.4547379,1.1150109,0.63889784,-0.40116856,-0.45552528,1.1327038,0.47885427,-0.558632,-0.4382492,0.5167279,762.3443,819.9634,794.9817,838.49817,728.49817,-0.1787109375,-0.0181884765625,0.97076416015625,2.594451904296875,-4.269256591796875,-0.949554443359375,1.0,1.0,1.0,1.0,1.0,100.0,event
12:25:38.322,1.5850246,-0.37689188,-0.7666343,1.3470463,0.95425266,-0.33040777,-0.57487774,1.1977222,0.9819929,-0.20541003,-0.4547379,1.1150109,0.63889784,-0.40116856,-0.45552528,1.1327038,0.47885427,-0.558632,-0.4382492,0.5167279,778.0586,818.7546,795.38464,827.619,726.08057,-0.1787109375,-0.0181884765625,0.97076416015625,2.594451904296875,-4.269256591796875,-0.949554443359375,1.0,1.0,1.0,1.0,1.0,100.0,event
12:25:38.322,1.5850246,-0.37689188,-0.7666343,1.3470463,0.95425266,-0.33040777,-0.57487774,1.1977222,0.9819929,-0.20541003,-0.4547379,1.1150109,0.63889784,-0.40116856,-0.45552528,1.1327038,0.47885427,-0.558632,-0.4382492,0.5167279,846.55676,797.8022,810.696,874.35895,799.41394,-0.1787109375,-0.0181884765625,0.97076416015625,2.594451904296875,-4.269256591796875,-0.949554443359375,1.0,1.0,1.0,1.0,1.0,100.0,event
12:25:38.323,1.5850246,-0.37689188,-0.7666343,1.3470463,0.95425266,-0.33040777,-0.57487774,1.1977222,0.9819929,-0.20541003,-0.4547379,1.1150109,0.63889784,-0.40116856,-0.45552528,1.1327038,0.47885427,-0.558632,-0.4382492,0.5167279,828.8278,801.4286,801.4286,866.7033,889.2674,-0.1787109375,-0.0181884765625,0.97076416015625,2.594451904296875,-4.269256591796875,-0.949554443359375,1.0,1.0,1.0,1.0,1.0,100.0,event
12:25:38.324,1.5850246,-0.37689188,-0.7666343,1.3470463,0.95425266,-0.33040777,-0.57487774,1.1977222,0.9819929,-0.20541003,-0.4547379,1.1150109,0.63889784,-0.40116856,-0.45552528,1.1327038,0.47885427,-0.558632,-0.4382492,0.5167279,740.989,810.696,792.1612,758.71796,847.76556,-0.1787109375,-0.0181884765625,0.97076416015625,2.594451904296875,-4.269256591796875,-0.949554443359375,1.0,1.0,1.0,1.0,1.0,100.0,event
12:25:38.325,1.5850246,-0.37689188,-0.7666343,1.3470463,0.95425266,-0.33040777,-0.57487774,1.1977222,0.9819929,-0.20541003,-0.4547379,1.1150109,0.63889784,-0.40116856,-0.45552528,1.1327038,0.47885427,-0.558632,-0.4382492,0.5167279,865.4945,797.3993,811.0989,946.8865,947.28937,-0.1787109375,-0.0181884765625,0.97076416015625,2.594451904296875,-4.269256591796875,-0.949554443359375,1.0,1.0,1.0,1.0,1.0,100.0,event
12:25:38.325,1.5850246,-0.37689188,-0.7666343,1.3470463,0.95425266,-0.33040777,-0.57487774,1.1977222,0.9819929,-0.20541003,-0.4547379,1.1150109,0.63889784,-0.40116856,-0.45552528,1.1327038,0.47885427,-0.558632,-0.4382492,0.5167279,773.22345,809.0842,793.36993,785.31134,812.3077,-0.1787109375,-0.0181884765625,0.97076416015625,2.594451904296875,-4.269256591796875,-0.949554443359375,1.0,1.0,1.0,1.0,1.0,100.0,event
12:25:38.326,1.5850246,-0.37689188,-0.7666343,1.3470463,0.95425266,-0.33040777,-0.57487774,1.1977222,0.9819929,-0.20541003,-0.4547379,1.1150109,0.63889784,-0.40116856,-0.45552528,1.1327038,0.47885427,-0.558632,-0.4382492,0.5167279,800.6227,798.60803,814.3223,888.0586,1079.0476,-0.1787109375,-0.0181884765625,0.97076416015625,2.594451904296875,-4.269256591796875,-0.949554443359375,1.0,1.0,1.0,1.0,1.0,100.0,event
12:25:38.327,1.5850246,-0.37689188,-0.7666343,1.3470463,0.95425266,-0.33040777,-0.57487774,1.1977222,0.9819929,-0.20541003,-0.4547379,1.1150109,0.63889784,-0.40116856,-0.45552528,1.1327038,0.47885427,-0.558632,-0.4382492,0.5167279,788.93774,801.02563,806.26373,855.42126,808.68134,-0.1787109375,-0.0181884765625,0.97076416015625,2.594451904296875,-4.269256591796875,-0.949554443359375,1.0,1.0,1.0,1.0,1.0,100.0,event
12:25:38.327,1.5850246,-0.37689188,-0.7666343,1.3470463,0.95425266,-0.33040777,-0.57487774,1.1977222,0.9819929,-0.20541003,-0.4547379,1.1150109,0.63889784,-0.40116856,-0.45552528,1.1327038,0.47885427,-0.558632,-0.4382492,0.5167279,800.6227,811.0989,799.41394,901.3553,697.8755,-0.1787109375,-0.0181884765625,0.97076416015625,2.594451904296875,-4.269256591796875,-0.949554443359375,1.0,1.0,1.0,1.0,1.0,100.0,event
12:25:38.328,1.5850246,-0.37689188,-0.7666343,1.3470463,0.95425266,-0.33040777,-0.57487774,1.1977222,0.9819929,-0.20541003,-0.4547379,1.1150109,0.63889784,-0.40116856,-0.45552528,1.1327038,0.47885427,-0.558632,-0.4382492,0.5167279,778.86444,802.23444,805.4579,882.8205,822.381,-0.1787109375,-0.0181884765625,0.97076416015625,2.594451904296875,-4.269256591796875,-0.949554443359375,1.0,1.0,1.0,1.0,1.0,100.0,event
12:25:38.329,1.5850246,-0.37689188,-0.7666343,1.3470463,0.95425266,-0.33040777,-0.57487774,1.1977222,0.9819929,-0.20541003,-0.4547379,1.1150109,0.63889784,-0.40116856,-0.45552528,1.1327038,0.47885427,-0.558632,-0.4382492,0.5167279,791.75824,800.2198,802.6374,865.89746,770.0,-0.1787109375,-0.0181884765625,0.97076416015625,2.594451904296875,-4.269256591796875,-0.949554443359375,1.0,1.0,1.0,1.0,1.0,100.0,event
12:25:38.354,1.5850246,-0.37689188,-0.7666343,1.3470463,0.95425266,-0.33040777,-0.57487774,1.1977222,0.9819929,-0.20541003,-0.4547379,1.1150109,0.63889784,-0.40116856,-0.45552528,1.1327038,0.47885427,-0.558632,-0.4382492,0.5167279,784.90845,806.6667,807.8755,836.08057,735.7509,-0.17059326171875,-0.01068115234375,0.97698974609375,1.966400146484375,-5.57769775390625,0.46356201171875,1.0,1.0,1.0,1.0,1.0,100.0,event
12:25:38.355,1.5850246,-0.37689188,-0.7666343,1.3470463,0.95425266,-0.33040777,-0.57487774,1.1977222,0.9819929,-0.20541003,-0.4547379,1.1150109,0.63889784,-0.40116856,-0.45552528,1.1327038,0.47885427,-0.558632,-0.4382492,0.5167279,751.4652,803.0403,802.6374,809.0842,759.5238,-0.17059326171875,-0.01068115234375,0.97698974609375,1.966400146484375,-5.57769775390625,0.46356201171875,1.0,1.0,1.0,1.0,1.0,100.0,event
12:25:38.356,1.5850246,-0.38648194,-0.7944967,1.3470463,0.95425266,-0.3237992,-0.54556483,1.1977222,0.9819929,-0.19192636,-0.39628735,1.1150109,0.63889784,-0.39915338,-0.44990626,1.1327038,0.47885427,-0.5510306,-0.43784243,0.5167279,809.89014,800.2198,800.6227,882.4176,858.6447,-0.17059326171875,-0.01068115234375,0.97698974609375,1.966400146484375,-5.57769775390625,0.46356201171875,1.0,1.0,1.0,1.0,1.0,100.0,event
12:25:38.356,1.5850246,-0.37689188,-0.7666343,1.3470463,0.95425266,-0.33040777,-0.57487774,1.1977222,0.9819929,-0.20541003,-0.4547379,1.1150109,0.63889784,-0.40116856,-0.45552528,1.1327038,0.47885427,-0.558632,-0.4382492,0.5167279,773.6264,800.2198,792.5641,837.28937,823.5897,-0.17059326171875,-0.01068115234375,0.97698974609375,1.966400146484375,-5.57769775390625,0.46356201171875,1.0,1.0,1.0,1.0,1.0,100.0,event
12:25:38.361,1.5850246,-0.38648194,-0.7944967,1.3470463,0.95425266,-0.3237992,-0.54556483,1.1977222,0.9819929,-0.19192636,-0.39628735,1.1150109,0.63889784,-0.39915338,-0.44990626,1.1327038,0.47885427,-0.5510306,-0.43784243,0.5167279,833.2601,807.47253,799.011,892.8938,826.8132,-0.17059326171875,-0.01068115234375,0.97698974609375,1.966400146484375,-5.57769775390625,0.46356201171875,1.0,1.0,1.0,1.0,1.0,100.0,event
12:25:38.362,1.5850246,-0.38648194,-0.7944967,1.3470463,0.95425266,-0.3237992,-0.54556483,1.1977222,0.9819929,-0.19192636,-0.39628735,1.1150109,0.63889784,-0.39915338,-0.44990626,1.1327038,0.47885427,-0.5510306,-0.43784243,0.5167279,801.8315,805.05493,800.6227,860.2564,834.0659,-0.17059326171875,-0.01068115234375,0.97698974609375,1.966400146484375,-5.57769775390625,0.46356201171875,1.0,1.0,1.0,1.0,1.0,100.0,event
12:25:38.362,1.5850246,-0.38648194,-0.7944967,1.3470463,0.95425266,-0.3237992,-0.54556483,1.1977222,0.9819929,-0.19192636,-0.39628735,1.1150109,0.63889784,-0.39915338,-0.44990626,1.1327038,0.47885427,-0.5510306,-0.43784243,0.5167279,756.30035,806.26373,799.41394,868.71796,998.46155,-0.17059326171875,-0.01068115234375,0.97698974609375,1.966400146484375,-5.57769775390625,0.46356201171875,1.0,1.0,1.0,1.0,1.0,100.0,event
12:25:38.363,1.5850246,-0.38648194,-0.7944967,1.3470463,0.95425266,-0.3237992,-0.54556483,1.1977222,0.9819929,-0.19192636,-0.39628735,1.1150109,0.63889784,-0.39915338,-0.44990626,1.1327038,0.47885427,-0.5510306,-0.43784243,0.5167279,772.8205,815.5311,793.7729,847.76556,992.4176,-0.17059326171875,-0.01068115234375,0.97698974609375,1.966400146484375,-5.57769775390625,0.46356201171875,1.0,1.0,1.0,1.0,1.0,100.0,event
12:25:38.363,1.5850246,-0.38648194,-0.7944967,1.3470463,0.95425266,-0.3237992,-0.54556483,1.1977222,0.9819929,-0.19192636,-0.39628735,1.1150109,0.63889784,-0.39915338,-0.44990626,1.1327038,0.47885427,-0.5510306,-0.43784243,0.5167279,771.6117,803.0403,807.47253,844.1392,755.89746,-0.17059326171875,-0.01068115234375,0.97698974609375,1.966400146484375,-5.57769775390625,0.46356201171875,1.0,1.0,1.0,1.0,1.0,100.0,event
12:25:38.364,1.5850246,-0.38648194,-0.7944967,1.3470463,0.95425266,-0.3237992,-0.54556483,1.1977222,0.9819929,-0.19192636,-0.39628735,1.1150109,0.63889784,-0.39915338,-0.44990626,1.1327038,0.47885427,-0.5510306,-0.43784243,0.5167279,756.30035,806.26373,812.71063,839.707,776.8498,-0.17059326171875,-0.01068115234375,0.97698974609375,1.966400146484375,-5.57769775390625,0.46356201171875,1.0,1.0,1.0,1.0,1.0,100.0,event
12:25:38.365,1.5850246,-0.38648194,-0.7944967,1.3470463,0.95425266,-0.3237992,-0.54556483,1.1977222,0.9819929,-0.19192636,-0.39628735,1.1150109,0.63889784,-0.39915338,-0.44990626,1.1327038,0.47885427,-0.5510306,-0.43784243,0.5167279,763.1502,813.5165,800.6227,811.0989,916.6667,-0.17059326171875,-0.01068115234375,0.97698974609375,1.966400146484375,-5.57769775390625,0.46356201171875,1.0,1.0,1.0,1.0,1.0,100.0,event
12:25:38.365,1.5850246,-0.38648194,-0.7944967,1.3470463,0.95425266,-0.3237992,-0.54556483,1.1977222,0.9819929,-0.19192636,-0.39628735,1.1150109,0.63889784,-0.39915338,-0.44990626,1.1327038,0.47885427,-0.5510306,-0.43784243,0.5167279,769.59705,813.5165,803.0403,825.6044,807.47253,-0.17059326171875,-0.01068115234375,0.97698974609375,1.966400146484375,-5.57769775390625,0.46356201171875,1.0,1.0,1.0,1.0,1.0,100.0,event
12:25:38.387,1.5850246,-0.38648194,-0.7944967,1.3470463,0.95425266,-0.3237992,-0.54556483,1.1977222,0.9819929,-0.19192636,-0.39628735,1.1150109,0.63889784,-0.39915338,-0.44990626,1.1327038,0.47885427,-0.5510306,-0.43784243,0.5167279,770.80585,805.05493,804.65204,830.84247,718.8278,-0.17138671875,-0.015869140625,0.9725341796875,1.532745361328125,-4.388885498046875,-0.0299072265625,1.0,1.0,1.0,1.0,1.0,100.0,event
12:25:38.389,1.5850246,-0.38648194,-0.7944967,1.3470463,0.95425266,-0.3237992,-0.54556483,1.1977222,0.9819929,-0.19192636,-0.39628735,1.1150109,0.63889784,-0.39915338,-0.44990626,1.1327038,0.47885427,-0.5510306,-0.43784243,0.5167279,783.2967,789.7436,806.6667,870.32965,751.8681,-0.17138671875,-0.015869140625,0.9725341796875,1.532745361328125,-4.388885498046875,-0.0299072265625,1.0,1.0,1.0,1.0,1.0,100.0,event
12:25:38.389,1.5850246,-0.38648194,-0.7944967,1.3470463,0.95425266,-0.3237992,-0.54556483,1.1977222,0.9819929,-0.19192636,-0.39628735,1.1150109,0.63889784,-0.39915338,-0.44990626,1.1327038,0.47885427,-0.5510306,-0.43784243,0.5167279,777.25275,803.0403,807.47253,872.74725,700.293,-0.17138671875,-0.015869140625,0.9725341796875,1.532745361328125,-4.388885498046875,-0.0299072265625,1.0,1.0,1.0,1.0,1.0,100.0,event
12:25:38.390,1.5850246,-0.38648194,-0.7944967,1.3470463,0.95425266,-0.3237992,-0.54556483,1.1977222,0.9819929,-0.19192636,-0.39628735,1.1150109,0.63889784,-0.39915338,-0.44990626,1.1327038,0.47885427,-0.5510306,-0.43784243,0.5167279,770.80585,798.20514,819.15753,815.5311,658.3883,-0.17138671875,-0.015869140625,0.9725341796875,1.532745361328125,-4.388885498046875,-0.0299072265625,1.0,1.0,1.0,1.0,1.0,100.0,event
12:25:38.391,1.5850246,-0.38648194,-0.7944967,1.3470463,0.95425266,-0.3237992,-0.54556483,1.1977222,0.9819929,-0.19192636,-0.39628735,1.1150109,0.63889784,-0.39915338,-0.44990626,1.1327038,0.47885427,-0.5510306,-0.43784243,0.5167279,744.61536,801.4286,801.8315,770.0,636.2271,-0.17138671875,-0.015869140625,0.9725341796875,1.532745361328125,-4.388885498046875,-0.0299072265625,1.0,1.0,1.0,1.0,1.0,100.0,event
12:25:38.391,1.5850246,-0.38648194,-0.7944967,1.3470463,0.95425266,-0.3237992,-0.54556483,1.1977222,0.9819929,-0.19192636,-0.39628735,1.1150109,0.63889784,-0.39915338,-0.44990626,1.1327038,0.47885427,-0.5510306,-0.43784243,0.5167279,740.18317,796.99634,790.9524,820.3663,852.1978,-0.17138671875,-0.015869140625,0.9725341796875,1.532745361328125,-4.388885498046875,-0.0299072265625,1.0,1.0,1.0,1.0,1.0,100.0,event
12:25:38.392,1.5850246,-0.38648194,-0.7944967,1.3470463,0.95425266,-0.3237992,-0.54556483,1.1977222,0.9819929,-0.19192636,-0.39628735,1.1150109,0.63889784,-0.39915338,-0.44990626,1.1327038,0.47885427,-0.5510306,-0.43784243,0.5167279,762.3443,800.6227,805.05493,840.9158,974.68866,-0.17138671875,-0.015869140625,0.9725341796875,1.532745361328125,-4.388885498046875,-0.0299072265625,1.0,1.0,1.0,1.0,1.0,100.0,event
12:25:38.392,1.5850246,-0.38648194,-0.7944967,1.3470463,0.95425266,-0.3237992,-0.54556483,1.1977222,0.9819929,-0.19192636,-0.39628735,1.1150109,0.63889784,-0.39915338,-0.44990626,1.1327038,0.47885427,-0.5510306,-0.43784243,0.5167279,751.06226,806.26373,806.26373,792.5641,751.06226,-0.17138671875,-0.015869140625,0.9725341796875,1.532745361328125,-4.388885498046875,-0.0299072265625,1.0,1.0,1.0,1.0,1.0,100.0,event
12:25:38.393,1.5850246,-0.38648194,-0.7944967,1.3470463,0.95425266,-0.3237992,-0.54556483,1.1977222,0.9819929,-0.19192636,-0.39628735,1.1150109,0.63889784,-0.39915338,-0.44990626,1.1327038,0.47885427,-0.5510306,-0.43784243,0.5167279,743.4066,786.52014,819.15753,746.2271,649.12085,-0.17138671875,-0.015869140625,0.9725341796875,1.532745361328125,-4.388885498046875,-0.0299072265625,1.0,1.0,1.0,1.0,1.0,100.0,event
12:25:38.394,1.5850246,-0.38648194,-0.7944967,1.3470463,0.95425266,-0.3237992,-0.54556483,1.1977222,0.9819929,-0.19192636,-0.39628735,1.1150109,0.63889784,-0.39915338,-0.44990626,1.1327038,0.47885427,-0.5510306,-0.43784243,0.5167279,727.6923,805.05493,806.6667,768.3883,820.3663,-0.17138671875,-0.015869140625,0.9725341796875,1.532745361328125,-4.388885498046875,-0.0299072265625,1.0,1.0,1.0,1.0,1.0,100.0,event
12:25:38.394,1.5850246,-0.38648194,-0.7944967,1.3470463,0.95425266,-0.3237992,-0.54556483,1.1977222,0.9819929,-0.19192636,-0.39628735,1.1150109,0.63889784,-0.39915338,-0.44990626,1.1327038,0.47885427,-0.5510306,-0.43784243,0.5167279,766.77655,808.68134,801.02563,826.0073,911.8315,-0.17138671875,-0.015869140625,0.9725341796875,1.532745361328125,-4.388885498046875,-0.0299072265625,1.0,1.0,1.0,1.0,1.0,100.0,event
12:25:38.395,1.5850246,-0.38648194,-0.7944967,1.3470463,0.95425266,-0.3237992,-0.54556483,1.1977222,0.9819929,-0.19192636,-0.39628735,1.1150109,0.63889784,-0.39915338,-0.44990626,1.1327038,0.47885427,-0.5510306,-0.43784243,0.5167279,822.7839,801.02563,814.7253,880.0,686.99634,-0.17138671875,-0.015869140625,0.9725341796875,1.532745361328125,-4.388885498046875,-0.0299072265625,1.0,1.0,1.0,1.0,1.0,100.0,event
12:25:38.421,1.5850246,-0.38648194,-0.7944967,1.3470463,0.95425266,-0.3237992,-0.54556483,1.1977222,0.9819929,-0.19192636,-0.39628735,1.1150109,0.63889784,-0.39915338,-0.44990626,1.1327038,0.47885427,-0.5510306,-0.43784243,0.5167279,768.3883,805.4579,811.50183,865.09155,714.7985,-0.162841796875,-0.01177978515625,0.973876953125,1.1962890625,-5.809478759765625,0.201873779296875,1.0,1.0,1.0,1.0,1.0,100.0,event
12:25:38.422,1.5850246,-0.38648194,-0.7944967,1.3470463,0.95425266,-0.3237992,-0.54556483,1.1977222,0.9819929,-0.19192636,-0.39628735,1.1150109,0.63889784,-0.39915338,-0.44990626,1.1327038,0.47885427,-0.5510306,-0.43784243,0.5167279,746.2271,810.293,806.6667,833.2601,804.2491,-0.162841796875,-0.01177978515625,0.973876953125,1.1962890625,-5.809478759765625,0.201873779296875,1.0,1.0,1.0,1.0,1.0,100.0,event
12:25:38.423,1.5850246,-0.38648194,-0.7944967,1.3470463,0.95425266,-0.3237992,-0.54556483,1.1977222,0.9819929,-0.19192636,-0.39628735,1.1150109,0.63889784,-0.39915338,-0.44990626,1.1327038,0.47885427,-0.5510306,-0.43784243,0.5167279,737.76556,810.696,809.4872,819.5604,721.6484,-0.162841796875,-0.01177978515625,0.973876953125,1.1962890625,-5.809478759765625,0.201873779296875,1.0,1.0,1.0,1.0,1.0,100.0,event
12:25:38.423,1.5850246,-0.38648194,-0.7944967,1.3470463,0.95425266,-0.3237992,-0.54556483,1.1977222,0.9819929,-0.19192636,-0.39628735,1.1150109,0.63889784,-0.39915338,-0.44990626,1.1327038,0.47885427,-0.5510306,-0.43784243,0.5167279,730.10986,807.47253,809.4872,801.4286,665.2381,-0.162841796875,-0.01177978515625,0.973876953125,1.1962890625,-5.809478759765625,0.201873779296875,1.0,1.0,1.0,1.0,1.0,100.0,event
12:25:38.424,1.5850246,-0.38648194,-0.7944967,1.3470463,0.95425266,-0.3237992,-0.54556483,1.1977222,0.9819929,-0.19192636,-0.39628735,1.1150109,0.63889784,-0.39915338,-0.44990626,1.1327038,0.47885427,-0.5510306,-0.43784243,0.5167279,823.1868,807.0696,807.8755,873.5531,756.7033,-0.162841796875,-0.01177978515625,0.973876953125,1.1962890625,-5.809478759765625,0.201873779296875,1.0,1.0,1.0,1.0,1.0,100.0,event
12:25:38.425,1.5850246,-0.39102527,-0.80158085,1.3470463,0.95425266,-0.33115894,-0.5215263,1.1977222,0.9819929,-0.14733204,-0.34033608,1.1150109,0.63889784,-0.37348032,-0.4408544,1.1327038,0.47885427,-0.53360057,-0.433636,0.5167279,818.3516,809.0842,806.6667,865.09155,845.34796,-0.162841796875,-0.01177978515625,0.973876953125,1.1962890625,-5.809478759765625,0.201873779296875,1.0,1.0,1.0,1.0,1.0,100.0,event
12:25:38.428,,,,,,,,,,,,,,,,,,,,,,,,,,,,,,,,,,,,,,jaw_clench
12:25:38.430,1.5850246,-0.39102527,-0.80158085,1.3470463,0.95425266,-0.33115894,-0.5215263,1.1977222,0.9819929,-0.14733204,-0.34033608,1.1150109,0.63889784,-0.37348032,-0.4408544,1.1327038,0.47885427,-0.53360057,-0.433636,0.5167279,770.0,799.81683,810.293,853.8095,862.674,-0.162841796875,-0.01177978515625,0.973876953125,1.1962890625,-5.809478759765625,0.201873779296875,1.0,1.0,1.0,1.0,1.0,100.0,event
12:25:38.431,1.5850246,-0.39102527,-0.80158085,1.3470463,0.95425266,-0.33115894,-0.5215263,1.1977222,0.9819929,-0.14733204,-0.34033608,1.1150109,0.63889784,-0.37348032,-0.4408544,1.1327038,0.47885427,-0.53360057,-0.433636,0.5167279,769.59705,796.5934,807.47253,826.0073,779.67035,-0.162841796875,-0.01177978515625,0.973876953125,1.1962890625,-5.809478759765625,0.201873779296875,1.0,1.0,1.0,1.0,1.0,100.0,event
12:25:38.431,1.5850246,-0.39102527,-0.80158085,1.3470463,0.95425266,-0.33115894,-0.5215263,1.1977222,0.9819929,-0.14733204,-0.34033608,1.1150109,0.63889784,-0.37348032,-0.4408544,1.1327038,0.47885427,-0.53360057,-0.433636,0.5167279,787.72894,797.8022,798.60803,823.5897,755.89746,-0.162841796875,-0.01177978515625,0.973876953125,1.1962890625,-5.809478759765625,0.201873779296875,1.0,1.0,1.0,1.0,1.0,100.0,event
12:25:38.432,1.5850246,-0.39102527,-0.80158085,1.3470463,0.95425266,-0.33115894,-0.5215263,1.1977222,0.9819929,-0.14733204,-0.34033608,1.1150109,0.63889784,-0.37348032,-0.4408544,1.1327038,0.47885427,-0.53360057,-0.433636,0.5167279,790.54944,796.99634,798.60803,846.9597,965.82416,-0.162841796875,-0.01177978515625,0.973876953125,1.1962890625,-5.809478759765625,0.201873779296875,1.0,1.0,1.0,1.0,1.0,100.0,event
12:25:38.433,1.5850246,-0.39102527,-0.80158085,1.3470463,0.95425266,-0.33115894,-0.5215263,1.1977222,0.9819929,-0.14733204,-0.34033608,1.1150109,0.63889784,-0.37348032,-0.4408544,1.1327038,0.47885427,-0.53360057,-0.433636,0.5167279,728.9011,811.50183,808.2784,793.36993,935.6044,-0.162841796875,-0.01177978515625,0.973876953125,1.1962890625,-5.809478759765625,0.201873779296875,1.0,1.0,1.0,1.0,1.0,100.0,event
12:25:38.437,1.5850246,-0.39102527,-0.80158085,1.3470463,0.95425266,-0.33115894,-0.5215263,1.1977222,0.9819929,-0.14733204,-0.34033608,1.1150109,0.63889784,-0.37348032,-0.4408544,1.1327038,0.47885427,-0.53360057,-0.433636,0.5167279,728.0952,818.3516,797.8022,753.8828,736.55676,-0.162841796875,-0.01177978515625,0.973876953125,1.1962890625,-5.809478759765625,0.201873779296875,1.0,1.0,1.0,1.0,1.0,100.0,event
12:25:38.458,1.5850246,-0.39102527,-0.80158085,1.3470463,0.95425266,-0.33115894,-0.5215263,1.1977222,0.9819929,-0.14733204,-0.34033608,1.1150109,0.63889784,-0.37348032,-0.4408544,1.1327038,0.47885427,-0.53360057,-0.433636,0.5167279,789.7436,793.7729,797.8022,773.22345,784.10254,-0.16766357421875,-0.02215576171875,0.96240234375,1.31591796875,-4.4561767578125,0.904693603515625,1.0,1.0,1.0,1.0,1.0,100.0,event
12:25:38.460,1.5850246,-0.39102527,-0.80158085,1.3470463,0.95425266,-0.33115894,-0.5215263,1.1977222,0.9819929,-0.14733204,-0.34033608,1.1150109,0.63889784,-0.37348032,-0.4408544,1.1327038,0.47885427,-0.53360057,-0.433636,0.5167279,776.4469,799.41394,808.68134,808.2784,840.5128,-0.16766357421875,-0.02215576171875,0.96240234375,1.31591796875,-4.4561767578125,0.904693603515625,1.0,1.0,1.0,1.0,1.0,100.0,event
12:25:38.461,1.5850246,-0.39102527,-0.80158085,1.3470463,0.95425266,-0.33115894,-0.5215263,1.1977222,0.9819929,-0.14733204,-0.34033608,1.1150109,0.63889784,-0.37348032,-0.4408544,1.1327038,0.47885427,-0.53360057,-0.433636,0.5167279,784.90845,805.05493,802.6374,871.13556,705.5311,-0.16766357421875,-0.02215576171875,0.96240234375,1.31591796875,-4.4561767578125,0.904693603515625,1.0,1.0,1.0,1.0,1.0,100.0,event
12:25:38.462,1.5850246,-0.39102527,-0.80158085,1.3470463,0.95425266,-0.33115894,-0.5215263,1.1977222,0.9819929,-0.14733204,-0.34033608,1.1150109,0.63889784,-0.37348032,-0.4408544,1.1327038,0.47885427,-0.53360057,-0.433636,0.5167279,801.02563,803.0403,801.02563,848.1685,684.9817,-0.16766357421875,-0.02215576171875,0.96240234375,1.31591796875,-4.4561767578125,0.904693603515625,1.0,1.0,1.0,1.0,1.0,100.0,event
12:25:38.463,1.5850246,-0.39102527,-0.80158085,1.3470463,0.95425266,-0.33115894,-0.5215263,1.1977222,0.9819929,-0.14733204,-0.34033608,1.1150109,0.63889784,-0.37348032,-0.4408544,1.1327038,0.47885427,-0.53360057,-0.433636,0.5167279,782.0879,802.23444,809.4872,822.7839,826.4103,-0.16766357421875,-0.02215576171875,0.96240234375,1.31591796875,-4.4561767578125,0.904693603515625,1.0,1.0,1.0,1.0,1.0,100.0,event
12:25:38.464,1.5850246,-0.39102527,-0.80158085,1.3470463,0.95425266,-0.33115894,-0.5215263,1.1977222,0.9819929,-0.14733204,-0.34033608,1.1150109,0.63889784,-0.37348032,-0.4408544,1.1327038,0.47885427,-0.53360057,-0.433636,0.5167279,764.35895,803.44324,815.9341,838.0952,914.2491,-0.16766357421875,-0.02215576171875,0.96240234375,1.31591796875,-4.4561767578125,0.904693603515625,1.0,1.0,1.0,1.0,1.0,100.0,event
12:25:38.464,1.5850246,-0.39102527,-0.80158085,1.3470463,0.95425266,-0.33115894,-0.5215263,1.1977222,0.9819929,-0.14733204,-0.34033608,1.1150109,0.63889784,-0.37348032,-0.4408544,1.1327038,0.47885427,-0.53360057,-0.433636,0.5167279,784.10254,808.68134,804.2491,864.2857,862.674,-0.16766357421875,-0.02215576171875,0.96240234375,1.31591796875,-4.4561767578125,0.904693603515625,1.0,1.0,1.0,1.0,1.0,100.0,event
12:25:38.465,1.5850246,-0.39102527,-0.80158085,1.3470463,0.95425266,-0.33115894,-0.5215263,1.1977222,0.9819929,-0.14733204,-0.34033608,1.1150109,0.63889784,-0.37348032,-0.4408544,1.1327038,0.47885427,-0.53360057,-0.433636,0.5167279,778.0586,807.8755,805.05493,826.0073,815.12823,-0.16766357421875,-0.02215576171875,0.96240234375,1.31591796875,-4.4561767578125,0.904693603515625,1.0,1.0,1.0,1.0,1.0,100.0,event
12:25:38.465,1.5850246,-0.39102527,-0.80158085,1.3470463,0.95425266,-0.33115894,-0.5215263,1.1977222,0.9819929,-0.14733204,-0.34033608,1.1150109,0.63889784,-0.37348032,-0.4408544,1.1327038,0.47885427,-0.53360057,-0.433636,0.5167279,803.8461,807.0696,805.4579,860.2564,733.73627,-0.16766357421875,-0.02215576171875,0.96240234375,1.31591796875,-4.4561767578125,0.904693603515625,1.0,1.0,1.0,1.0,1.0,100.0,event
12:25:38.466,1.5850246,-0.39102527,-0.80158085,1.3470463,0.95425266,-0.33115894,-0.5215263,1.1977222,0.9819929,-0.14733204,-0.34033608,1.1150109,0.63889784,-0.37348032,-0.4408544,1.1327038,0.47885427,-0.53360057,-0.433636,0.5167279,747.4359,804.2491,802.6374,801.02563,986.77655,-0.16766357421875,-0.02215576171875,0.96240234375,1.31591796875,-4.4561767578125,0.904693603515625,1.0,1.0,1.0,1.0,1.0,100.0,event
12:25:38.466,1.5850246,-0.39102527,-0.80158085,1.3470463,0.95425266,-0.33115894,-0.5215263,1.1977222,0.9819929,-0.14733204,-0.34033608,1.1150109,0.63889784,-0.37348032,-0.4408544,1.1327038,0.47885427,-0.53360057,-0.433636,0.5167279,726.08057,809.0842,799.41394,772.8205,823.9927,-0.16766357421875,-0.02215576171875,0.96240234375,1.31591796875,-4.4561767578125,0.904693603515625,1.0,1.0,1.0,1.0,1.0,100.0,event
12:25:38.466,1.5850246,-0.39102527,-0.80158085,1.3470463,0.95425266,-0.33115894,-0.5215263,1.1977222,0.9819929,-0.14733204,-0.34033608,1.1150109,0.63889784,-0.37348032,-0.4408544,1.1327038,0.47885427,-0.53360057,-0.433636,0.5167279,744.21246,803.8461,805.05493,808.2784,760.7326,-0.16766357421875,-0.02215576171875,0.96240234375,1.31591796875,-4.4561767578125,0.904693603515625,1.0,1.0,1.0,1.0,1.0,100.0,event
12:25:38.539,1.5850246,-0.39102527,-0.80158085,1.3470463,0.95425266,-0.33115894,-0.5215263,1.1977222,0.9819929,-0.14733204,-0.34033608,1.1150109,0.63889784,-0.37348032,-0.4408544,1.1327038,0.47885427,-0.53360057,-0.433636,0.5167279,783.69965,801.02563,807.8755,852.1978,745.82416,-0.16766357421875,-0.02215576171875,0.96240234375,1.31591796875,-4.4561767578125,0.904693603515625,1.0,1.0,1.0,1.0,1.0,100.0,event
12:25:38.540,1.5850246,-0.39102527,-0.80158085,1.3470463,0.95425266,-0.33115894,-0.5215263,1.1977222,0.9819929,-0.14733204,-0.34033608,1.1150109,0.63889784,-0.37348032,-0.4408544,1.1327038,0.47885427,-0.53360057,-0.433636,0.5167279,794.9817,808.2784,804.65204,839.304,758.71796,-0.16766357421875,-0.02215576171875,0.96240234375,1.31591796875,-4.4561767578125,0.904693603515625,1.0,1.0,1.0,1.0,1.0,100.0,event
12:25:38.540,1.5850246,-0.39102527,-0.80158085,1.3470463,0.95425266,-0.33115894,-0.5215263,1.1977222,0.9819929,-0.14733204,-0.34033608,1.1150109,0.63889784,-0.37348032,-0.4408544,1.1327038,0.47885427,-0.53360057,-0.433636,0.5167279,780.87915,806.26373,803.44324,826.0073,745.82416,-0.16766357421875,-0.02215576171875,0.96240234375,1.31591796875,-4.4561767578125,0.904693603515625,1.0,1.0,1.0,1.0,1.0,100.0,event
12:25:38.541,1.5850246,-0.39102527,-0.80158085,1.3470463,0.95425266,-0.33115894,-0.5215263,1.1977222,0.9819929,-0.14733204,-0.34033608,1.1150109,0.63889784,-0.37348032,-0.4408544,1.1327038,0.47885427,-0.53360057,-0.433636,0.5167279,762.74725,806.6667,801.8315,791.3553,763.5531,-0.16766357421875,-0.02215576171875,0.96240234375,1.31591796875,-4.4561767578125,0.904693603515625,1.0,1.0,1.0,1.0,1.0,100.0,event
12:25:38.542,1.5850246,-0.39102527,-0.80158085,1.3470463,0.95425266,-0.33115894,-0.5215263,1.1977222,0.9819929,-0.14733204,-0.34033608,1.1150109,0.63889784,-0.37348032,-0.4408544,1.1327038,0.47885427,-0.53360057,-0.433636,0.5167279,734.5421,807.47253,808.68134,778.0586,835.6777,-0.16766357421875,-0.02215576171875,0.96240234375,1.31591796875,-4.4561767578125,0.904693603515625,1.0,1.0,1.0,1.0,1.0,100.0,event
12:25:38.542,1.5850246,-0.39102527,-0.80158085,1.3470463,0.95425266,-0.33115894,-0.5215263,1.1977222,0.9819929,-0.14733204,-0.34033608,1.1150109,0.63889784,-0.37348032,-0.4408544,1.1327038,0.47885427,-0.53360057,-0.433636,0.5167279,750.65936,805.8608,803.8461,784.90845,826.8132,-0.16766357421875,-0.02215576171875,0.96240234375,1.31591796875,-4.4561767578125,0.904693603515625,1.0,1.0,1.0,1.0,1.0,100.0,event
12:25:38.543,1.5850246,-0.39236423,-0.78881454,1.3470463,0.95425266,-0.34004033,-0.50376636,1.1977222,0.9819929,-0.095219575,-0.31591934,1.1150109,0.63889784,-0.3178002,-0.4250095,1.1327038,0.47885427,-0.51110905,-0.4257452,0.5167279,760.7326,809.0842,799.81683,822.7839,803.8461,-0.16766357421875,-0.02215576171875,0.96240234375,1.31591796875,-4.4561767578125,0.904693603515625,1.0,1.0,1.0,1.0,1.0,100.0,event
12:25:38.543,1.5850246,-0.39102527,-0.80158085,1.3470463,0.95425266,-0.33115894,-0.5215263,1.1977222,0.9819929,-0.14733204,-0.34033608,1.1150109,0.63889784,-0.37348032,-0.4408544,1.1327038,0.47885427,-0.53360057,-0.433636,0.5167279,786.1172,807.0696,794.57874,814.3223,876.77655,-0.16766357421875,-0.02215576171875,0.96240234375,1.31591796875,-4.4561767578125,0.904693603515625,1.0,1.0,1.0,1.0,1.0,100.0,event
12:25:38.547,1.5850246,-0.39236423,-0.78881454,1.3470463,0.95425266,-0.34004033,-0.50376636,1.1977222,0.9819929,-0.095219575,-0.31591934,1.1150109,0.63889784,-0.3178002,-0.4250095,1.1327038,0.47885427,-0.51110905,-0.4257452,0.5167279,753.0769,807.0696,801.02563,795.38464,966.63007,-0.16766357421875,-0.02215576171875,0.96240234375,1.31591796875,-4.4561767578125,0.904693603515625,1.0,1.0,1.0,1.0,1.0,100.0,event
12:25:38.548,1.5850246,-0.39236423,-0.78881454,1.3470463,0.95425266,-0.34004033,-0.50376636,1.1977222,0.9819929,-0.095219575,-0.31591934,1.1150109,0.63889784,-0.3178002,-0.4250095,1.1327038,0.47885427,-0.51110905,-0.4257452,0.5167279,732.1245,808.68134,800.6227,755.89746,1017.8022,-0.16766357421875,-0.02215576171875,0.96240234375,1.31591796875,-4.4561767578125,0.904693603515625,1.0,1.0,1.0,1.0,1.0,100.0,event
12:25:38.548,1.5850246,-0.39236423,-0.78881454,1.3470463,0.95425266,-0.34004033,-0.50376636,1.1977222,0.9819929,-0.095219575,-0.31591934,1.1150109,0.63889784,-0.3178002,-0.4250095,1.1327038,0.47885427,-0.51110905,-0.4257452,0.5167279,729.304,801.4286,807.47253,777.25275,735.7509,-0.16766357421875,-0.02215576171875,0.96240234375,1.31591796875,-4.4561767578125,0.904693603515625,1.0,1.0,1.0,1.0,1.0,100.0,event
12:25:38.549,1.5850246,-0.39236423,-0.78881454,1.3470463,0.95425266,-0.34004033,-0.50376636,1.1977222,0.9819929,-0.095219575,-0.31591934,1.1150109,0.63889784,-0.3178002,-0.4250095,1.1327038,0.47885427,-0.51110905,-0.4257452,0.5167279,782.0879,801.8315,805.4579,833.2601,783.2967,-0.16766357421875,-0.02215576171875,0.96240234375,1.31591796875,-4.4561767578125,0.904693603515625,1.0,1.0,1.0,1.0,1.0,100.0,event
12:25:38.571,1.5850246,-0.39236423,-0.78881454,1.3470463,0.95425266,-0.34004033,-0.50376636,1.1977222,0.9819929,-0.095219575,-0.31591934,1.1150109,0.63889784,-0.3178002,-0.4250095,1.1327038,0.47885427,-0.51110905,-0.4257452,0.5167279,733.73627,822.381,801.02563,742.1978,809.0842,-0.16595458984375,-0.0118408203125,0.9810791015625,1.57012939453125,-3.551483154296875,-1.016845703125,1.0,1.0,1.0,1.0,1.0,100.0,event
12:25:38.572,1.5850246,-0.39236423,-0.78881454,1.3470463,0.95425266,-0.34004033,-0.50376636,1.1977222,0.9819929,-0.095219575,-0.31591934,1.1150109,0.63889784,-0.3178002,-0.4250095,1.1327038,0.47885427,-0.51110905,-0.4257452,0.5167279,721.2454,819.9634,797.3993,718.4249,737.3626,-0.16595458984375,-0.0118408203125,0.9810791015625,1.57012939453125,-3.551483154296875,-1.016845703125,1.0,1.0,1.0,1.0,1.0,100.0,event
12:25:38.573,1.5850246,-0.39236423,-0.78881454,1.3470463,0.95425266,-0.34004033,-0.50376636,1.1977222,0.9819929,-0.095219575,-0.31591934,1.1150109,0.63889784,-0.3178002,-0.4250095,1.1327038,0.47885427,-0.51110905,-0.4257452,0.5167279,778.46155,796.5934,802.6374,836.08057,712.7839,-0.16595458984375,-0.0118408203125,0.9810791015625,1.57012939453125,-3.551483154296875,-1.016845703125,1.0,1.0,1.0,1.0,1.0,100.0,event
12:25:38.573,1.5850246,-0.39236423,-0.78881454,1.3470463,0.95425266,-0.34004033,-0.50376636,1.1977222,0.9819929,-0.095219575,-0.31591934,1.1150109,0.63889784,-0.3178002,-0.4250095,1.1327038,0.47885427,-0.51110905,-0.4257452,0.5167279,770.0,798.60803,806.26373,834.4689,759.5238,-0.16595458984375,-0.0118408203125,0.9810791015625,1.57012939453125,-3.551483154296875,-1.016845703125,1.0,1.0,1.0,1.0,1.0,100.0,event
12:25:38.574,1.5850246,-0.39236423,-0.78881454,1.3470463,0.95425266,-0.34004033,-0.50376636,1.1977222,0.9819929,-0.095219575,-0.31591934,1.1150109,0.63889784,-0.3178002,-0.4250095,1.1327038,0.47885427,-0.51110905,-0.4257452,0.5167279,779.67035,803.0403,796.1905,772.01465,788.93774,-0.16595458984375,-0.0118408203125,0.9810791015625,1.57012939453125,-3.551483154296875,-1.016845703125,1.0,1.0,1.0,1.0,1.0,100.0,event
12:25:38.574,1.5850246,-0.39236423,-0.78881454,1.3470463,0.95425266,-0.34004033,-0.50376636,1.1977222,0.9819929,-0.095219575,-0.31591934,1.1150109,0.63889784,-0.3178002,-0.4250095,1.1327038,0.47885427,-0.51110905,-0.4257452,0.5167279,786.1172,803.8461,799.41394,811.50183,745.82416,-0.16595458984375,-0.0118408203125,0.9810791015625,1.57012939453125,-3.551483154296875,-1.016845703125,1.0,1.0,1.0,1.0,1.0,100.0,event
12:25:38.575,1.5850246,-0.39236423,-0.78881454,1.3470463,0.95425266,-0.34004033,-0.50376636,1.1977222,0.9819929,-0.095219575,-0.31591934,1.1150109,0.63889784,-0.3178002,-0.4250095,1.1327038,0.47885427,-0.51110905,-0.4257452,0.5167279,749.85345,809.89014,800.6227,737.3626,806.26373,-0.16595458984375,-0.0118408203125,0.9810791015625,1.57012939453125,-3.551483154296875,-1.016845703125,1.0,1.0,1.0,1.0,1.0,100.0,event
12:25:38.575,1.5850246,-0.39236423,-0.78881454,1.3470463,0.95425266,-0.34004033,-0.50376636,1.1977222,0.9819929,-0.095219575,-0.31591934,1.1150109,0.63889784,-0.3178002,-0.4250095,1.1327038,0.47885427,-0.51110905,-0.4257452,0.5167279,733.73627,809.4872,803.8461,746.2271,880.40295,-0.16595458984375,-0.0118408203125,0.9810791015625,1.57012939453125,-3.551483154296875,-1.016845703125,1.0,1.0,1.0,1.0,1.0,100.0,event
12:25:38.576,1.5850246,-0.39236423,-0.78881454,1.3470463,0.95425266,-0.34004033,-0.50376636,1.1977222,0.9819929,-0.095219575,-0.31591934,1.1150109,0.63889784,-0.3178002,-0.4250095,1.1327038,0.47885427,-0.51110905,-0.4257452,0.5167279,735.34796,802.6374,808.2784,743.4066,1065.751,-0.16595458984375,-0.0118408203125,0.9810791015625,1.57012939453125,-3.551483154296875,-1.016845703125,1.0,1.0,1.0,1.0,1.0,100.0,event
12:25:38.577,1.5850246,-0.39236423,-0.78881454,1.3470463,0.95425266,-0.34004033,-0.50376636,1.1977222,0.9819929,-0.095219575,-0.31591934,1.1150109,0.63889784,-0.3178002,-0.4250095,1.1327038,0.47885427,-0.51110905,-0.4257452,0.5167279,767.98535,807.47253,803.8461,751.06226,868.315,-0.16595458984375,-0.0118408203125,0.9810791015625,1.57012939453125,-3.551483154296875,-1.016845703125,1.0,1.0,1.0,1.0,1.0,100.0,event
12:25:38.577,1.5850246,-0.39236423,-0.78881454,1.3470463,0.95425266,-0.34004033,-0.50376636,1.1977222,0.9819929,-0.095219575,-0.31591934,1.1150109,0.63889784,-0.3178002,-0.4250095,1.1327038,0.47885427,-0.51110905,-0.4257452,0.5167279,779.67035,808.68134,804.2491,784.10254,725.2747,-0.16595458984375,-0.0118408203125,0.9810791015625,1.57012939453125,-3.551483154296875,-1.016845703125,1.0,1.0,1.0,1.0,1.0,100.0,event
12:25:38.578,1.5850246,-0.39236423,-0.78881454,1.3470463,0.95425266,-0.34004033,-0.50376636,1.1977222,0.9819929,-0.095219575,-0.31591934,1.1150109,0.63889784,-0.3178002,-0.4250095,1.1327038,0.47885427,-0.51110905,-0.4257452,0.5167279,749.0476,804.65204,806.6667,747.4359,770.80585,-0.16595458984375,-0.0118408203125,0.9810791015625,1.57012939453125,-3.551483154296875,-1.016845703125,1.0,1.0,1.0,1.0,1.0,100.0,event
12:25:38.607,1.5850246,-0.39236423,-0.78881454,1.3470463,0.95425266,-0.34004033,-0.50376636,1.1977222,0.9819929,-0.095219575,-0.31591934,1.1150109,0.63889784,-0.3178002,-0.4250095,1.1327038,0.47885427,-0.51110905,-0.4257452,0.5167279,728.9011,803.8461,803.8461,707.1429,743.8095,-0.166748046875,-0.02496337890625,0.97100830078125,1.4654541015625,-5.87677001953125,-0.665435791015625,1.0,1.0,1.0,1.0,1.0,100.0,event
12:25:38.608,1.5850246,-0.39236423,-0.78881454,1.3470463,0.95425266,-0.34004033,-0.50376636,1.1977222,0.9819929,-0.095219575,-0.31591934,1.1150109,0.63889784,-0.3178002,-0.4250095,1.1327038,0.47885427,-0.51110905,-0.4257452,0.5167279,756.7033,802.6374,804.2491,733.73627,711.1722,-0.166748046875,-0.02496337890625,0.97100830078125,1.4654541015625,-5.87677001953125,-0.665435791015625,1.0,1.0,1.0,1.0,1.0,100.0,event
12:25:38.609,1.5850246,-0.39236423,-0.78881454,1.3470463,0.95425266,-0.34004033,-0.50376636,1.1977222,0.9819929,-0.095219575,-0.31591934,1.1150109,0.63889784,-0.3178002,-0.4250095,1.1327038,0.47885427,-0.51110905,-0.4257452,0.5167279,771.2088,808.2784,804.2491,779.67035,811.50183,-0.166748046875,-0.02496337890625,0.97100830078125,1.4654541015625,-5.87677001953125,-0.665435791015625,1.0,1.0,1.0,1.0,1.0,100.0,event
12:25:38.610,1.5850246,-0.39236423,-0.78881454,1.3470463,0.95425266,-0.34004033,-0.50376636,1.1977222,0.9819929,-0.095219575,-0.31591934,1.1150109,0.63889784,-0.3178002,-0.4250095,1.1327038,0.47885427,-0.51110905,-0.4257452,0.5167279,765.56775,809.4872,806.6667,763.95605,808.68134,-0.166748046875,-0.02496337890625,0.97100830078125,1.4654541015625,-5.87677001953125,-0.665435791015625,1.0,1.0,1.0,1.0,1.0,100.0,event
12:25:38.611,1.5850246,-0.39236423,-0.78881454,1.3470463,0.95425266,-0.34004033,-0.50376636,1.1977222,0.9819929,-0.095219575,-0.31591934,1.1150109,0.63889784,-0.3178002,-0.4250095,1.1327038,0.47885427,-0.51110905,-0.4257452,0.5167279,721.2454,802.23444,805.8608,706.7399,666.8498,-0.166748046875,-0.02496337890625,0.97100830078125,1.4654541015625,-5.87677001953125,-0.665435791015625,1.0,1.0,1.0,1.0,1.0,100.0,event
12:25:38.612,1.5850246,-0.39236423,-0.78881454,1.3470463,0.95425266,-0.34004033,-0.50376636,1.1977222,0.9819929,-0.095219575,-0.31591934,1.1150109,0.63889784,-0.3178002,-0.4250095,1.1327038,0.47885427,-0.51110905,-0.4257452,0.5167279,720.84247,803.0403,802.23444,681.3553,699.89014,-0.166748046875,-0.02496337890625,0.97100830078125,1.4654541015625,-5.87677001953125,-0.665435791015625,1.0,1.0,1.0,1.0,1.0,100.0,event
12:25:38.613,1.5850246,-0.39236423,-0.78881454,1.3470463,0.95425266,-0.34004033,-0.50376636,1.1977222,0.9819929,-0.095219575,-0.31591934,1.1150109,0.63889784,-0.3178002,-0.4250095,1.1327038,0.47885427,-0.51110905,-0.4257452,0.5167279,732.52747,807.0696,794.9817,719.6337,839.707,-0.166748046875,-0.02496337890625,0.97100830078125,1.4654541015625,-5.87677001953125,-0.665435791015625,1.0,1.0,1.0,1.0,1.0,100.0,event
12:25:38.613,1.5850246,-0.39236423,-0.78881454,1.3470463,0.95425266,-0.34004033,-0.50376636,1.1977222,0.9819929,-0.095219575,-0.31591934,1.1150109,0.63889784,-0.3178002,-0.4250095,1.1327038,0.47885427,-0.51110905,-0.4257452,0.5167279,751.4652,806.6667,798.60803,759.5238,1041.5751,-0.166748046875,-0.02496337890625,0.97100830078125,1.4654541015625,-5.87677001953125,-0.665435791015625,1.0,1.0,1.0,1.0,1.0,100.0,event
12:25:38.614,1.5850246,-0.39236423,-0.78881454,1.3470463,0.95425266,-0.34004033,-0.50376636,1.1977222,0.9819929,-0.095219575,-0.31591934,1.1150109,0.63889784,-0.3178002,-0.4250095,1.1327038,0.47885427,-0.51110905,-0.4257452,0.5167279,747.03296,807.47253,803.44324,746.2271,990.0,-0.166748046875,-0.02496337890625,0.97100830078125,1.4654541015625,-5.87677001953125,-0.665435791015625,1.0,1.0,1.0,1.0,1.0,100.0,event
12:25:38.614,1.5850246,-0.38643846,-0.7612963,1.3470463,0.95425266,-0.34241772,-0.49264234,1.1977222,0.9819929,-0.06620866,-0.30076262,1.1150109,0.63889784,-0.24456543,-0.3992147,1.1327038,0.47885427,-0.4868823,-0.4166707,0.5167279,704.7253,806.26373,807.8755,698.68134,828.4249,-0.166748046875,-0.02496337890625,0.97100830078125,1.4654541015625,-5.87677001953125,-0.665435791015625,1.0,1.0,1.0,1.0,1.0,100.0,event
12:25:38.619,1.5850246,-0.38643846,-0.7612963,1.3470463,0.95425266,-0.34241772,-0.49264234,1.1977222,0.9819929,-0.06620866,-0.30076262,1.1150109,0.63889784,-0.24456543,-0.3992147,1.1327038,0.47885427,-0.4868823,-0.4166707,0.5167279,721.6484,804.65204,799.81683,704.7253,882.01465,-0.166748046875,-0.02496337890625,0.97100830078125,1.4654541015625,-5.87677001953125,-0.665435791015625,1.0,1.0,1.0,1.0,1.0,100.0,event
12:25:38.619,1.5850246,-0.38643846,-0.7612963,1.3470463,0.95425266,-0.34241772,-0.49264234,1.1977222,0.9819929,-0.06620866,-0.30076262,1.1150109,0.63889784,-0.24456543,-0.3992147,1.1327038,0.47885427,-0.4868823,-0.4166707,0.5167279,742.6007,813.91943,792.1612,731.7216,852.1978,-0.166748046875,-0.02496337890625,0.97100830078125,1.4654541015625,-5.87677001953125,-0.665435791015625,1.0,1.0,1.0,1.0,1.0,100.0,event
12:25:38.643,1.5850246,-0.38643846,-0.7612963,1.3470463,0.95425266,-0.34241772,-0.49264234,1.1977222,0.9819929,-0.06620866,-0.30076262,1.1150109,0.63889784,-0.24456543,-0.3992147,1.1327038,0.47885427,-0.4868823,-0.4166707,0.5167279,753.8828,811.50183,799.41394,730.5128,749.0476,-0.15301513671875,-0.00982666015625,0.97607421875,1.592559814453125,-5.48797607421875,0.665435791015625,1.0,1.0,1.0,1.0,1.0,100.0,event
12:25:38.644,1.5850246,-0.38643846,-0.7612963,1.3470463,0.95425266,-0.34241772,-0.49264234,1.1977222,0.9819929,-0.06620866,-0.30076262,1.1150109,0.63889784,-0.24456543,-0.3992147,1.1327038,0.47885427,-0.4868823,-0.4166707,0.5167279,759.5238,799.011,800.2198,712.7839,699.89014,-0.15301513671875,-0.00982666015625,0.97607421875,1.592559814453125,-5.48797607421875,0.665435791015625,1.0,1.0,1.0,1.0,1.0,100.0,event
12:25:38.645,1.5850246,-0.38643846,-0.7612963,1.3470463,0.95425266,-0.34241772,-0.49264234,1.1977222,0.9819929,-0.06620866,-0.30076262,1.1150109,0.63889784,-0.24456543,-0.3992147,1.1327038,0.47885427,-0.4868823,-0.4166707,0.5167279,753.8828,803.8461,806.6667,723.2601,798.20514,-0.15301513671875,-0.00982666015625,0.97607421875,1.592559814453125,-5.48797607421875,0.665435791015625,1.0,1.0,1.0,1.0,1.0,100.0,event
12:25:38.645,1.5850246,-0.38643846,-0.7612963,1.3470463,0.95425266,-0.34241772,-0.49264234,1.1977222,0.9819929,-0.06620866,-0.30076262,1.1150109,0.63889784,-0.24456543,-0.3992147,1.1327038,0.47885427,-0.4868823,-0.4166707,0.5167279,701.0989,813.91943,805.4579,672.0879,808.68134,-0.15301513671875,-0.00982666015625,0.97607421875,1.592559814453125,-5.48797607421875,0.665435791015625,1.0,1.0,1.0,1.0,1.0,100.0,event
12:25:38.646,1.5850246,-0.38643846,-0.7612963,1.3470463,0.95425266,-0.34241772,-0.49264234,1.1977222,0.9819929,-0.06620866,-0.30076262,1.1150109,0.63889784,-0.24456543,-0.3992147,1.1327038,0.47885427,-0.4868823,-0.4166707,0.5167279,697.8755,810.293,806.26373,672.8938,744.61536,-0.15301513671875,-0.00982666015625,0.97607421875,1.592559814453125,-5.48797607421875,0.665435791015625,1.0,1.0,1.0,1.0,1.0,100.0,event
12:25:38.646,1.5850246,-0.38643846,-0.7612963,1.3470463,0.95425266,-0.34241772,-0.49264234,1.1977222,0.9819929,-0.06620866,-0.30076262,1.1150109,0.63889784,-0.24456543,-0.3992147,1.1327038,0.47885427,-0.4868823,-0.4166707,0.5167279,743.00366,811.50183,811.0989,670.87915,803.44324,-0.15301513671875,-0.00982666015625,0.97607421875,1.592559814453125,-5.48797607421875,0.665435791015625,1.0,1.0,1.0,1.0,1.0,100.0,event
12:25:38.647,1.5850246,-0.38643846,-0.7612963,1.3470463,0.95425266,-0.34241772,-0.49264234,1.1977222,0.9819929,-0.06620866,-0.30076262,1.1150109,0.63889784,-0.24456543,-0.3992147,1.1327038,0.47885427,-0.4868823,-0.4166707,0.5167279,739.7802,807.8755,809.4872,670.87915,1031.9048,-0.15301513671875,-0.00982666015625,0.97607421875,1.592559814453125,-5.48797607421875,0.665435791015625,1.0,1.0,1.0,1.0,1.0,100.0,event
12:25:38.647,1.5850246,-0.38643846,-0.7612963,1.3470463,0.95425266,-0.34241772,-0.49264234,1.1977222,0.9819929,-0.06620866,-0.30076262,1.1150109,0.63889784,-0.24456543,-0.3992147,1.1327038,0.47885427,-0.4868823,-0.4166707,0.5167279,759.12085,799.81683,809.4872,783.69965,1047.619,-0.15301513671875,-0.00982666015625,0.97607421875,1.592559814453125,-5.48797607421875,0.665435791015625,1.0,1.0,1.0,1.0,1.0,100.0,event
12:25:38.648,1.5850246,-0.38643846,-0.7612963,1.3470463,0.95425266,-0.34241772,-0.49264234,1.1977222,0.9819929,-0.06620866,-0.30076262,1.1150109,0.63889784,-0.24456543,-0.3992147,1.1327038,0.47885427,-0.4868823,-0.4166707,0.5167279,758.315,815.5311,801.4286,766.3736,720.0366,-0.15301513671875,-0.00982666015625,0.97607421875,1.592559814453125,-5.48797607421875,0.665435791015625,1.0,1.0,1.0,1.0,1.0,100.0,event
12:25:38.648,1.5850246,-0.38643846,-0.7612963,1.3470463,0.95425266,-0.34241772,-0.49264234,1.1977222,0.9819929,-0.06620866,-0.30076262,1.1150109,0.63889784,-0.24456543,-0.3992147,1.1327038,0.47885427,-0.4868823,-0.4166707,0.5167279,757.9121,809.4872,806.26373,720.4396,669.67035,-0.15301513671875,-0.00982666015625,0.97607421875,1.592559814453125,-5.48797607421875,0.665435791015625,1.0,1.0,1.0,1.0,1.0,100.0,event
12:25:38.649,1.5850246,-0.38643846,-0.7612963,1.3470463,0.95425266,-0.34241772,-0.49264234,1.1977222,0.9819929,-0.06620866,-0.30076262,1.1150109,0.63889784,-0.24456543,-0.3992147,1.1327038,0.47885427,-0.4868823,-0.4166707,0.5167279,770.80585,808.2784,808.68134,753.47986,738.5714,-0.15301513671875,-0.00982666015625,0.97607421875,1.592559814453125,-5.48797607421875,0.665435791015625,1.0,1.0,1.0,1.0,1.0,100.0,event
12:25:38.649,1.5850246,-0.38643846,-0.7612963,1.3470463,0.95425266,-0.34241772,-0.49264234,1.1977222,0.9819929,-0.06620866,-0.30076262,1.1150109,0.63889784,-0.24456543,-0.3992147,1.1327038,0.47885427,-0.4868823,-0.4166707,0.5167279,755.09155,809.89014,806.6667,755.4945,700.696,-0.15301513671875,-0.00982666015625,0.97607421875,1.592559814453125,-5.48797607421875,0.665435791015625,1.0,1.0,1.0,1.0,1.0,100.0,event
12:25:38.744,1.5850246,-0.38643846,-0.7612963,1.3470463,0.95425266,-0.34241772,-0.49264234,1.1977222,0.9819929,-0.06620866,-0.30076262,1.1150109,0.63889784,-0.24456543,-0.3992147,1.1327038,0.47885427,-0.4868823,-0.4166707,0.5167279,727.28937,809.0842,805.8608,708.3516,711.5751,-0.15655517578125,-0.02105712890625,0.97308349609375,1.495361328125,-2.878570556640625,0.19439697265625,1.0,1.0,1.0,1.0,1.0,100.0,event
12:25:38.745,1.5850246,-0.38643846,-0.7612963,1.3470463,0.95425266,-0.34241772,-0.49264234,1.1977222,0.9819929,-0.06620866,-0.30076262,1.1150109,0.63889784,-0.24456543,-0.3992147,1.1327038,0.47885427,-0.4868823,-0.4166707,0.5167279,712.7839,803.0403,796.1905,695.4579,759.5238,-0.15655517578125,-0.02105712890625,0.97308349609375,1.495361328125,-2.878570556640625,0.19439697265625,1.0,1.0,1.0,1.0,1.0,100.0,event
12:25:38.746,1.5850246,-0.38643846,-0.7612963,1.3470463,0.95425266,-0.34241772,-0.49264234,1.1977222,0.9819929,-0.06620866,-0.30076262,1.1150109,0.63889784,-0.24456543,-0.3992147,1.1327038,0.47885427,-0.4868823,-0.4166707,0.5167279,695.05493,794.57874,801.02563,749.0476,809.4872,-0.15655517578125,-0.02105712890625,0.97308349609375,1.495361328125,-2.878570556640625,0.19439697265625,1.0,1.0,1.0,1.0,1.0,100.0,event
12:25:38.747,1.5850246,-0.38643846,-0.7612963,1.3470463,0.95425266,-0.34241772,-0.49264234,1.1977222,0.9819929,-0.06620866,-0.30076262,1.1150109,0.63889784,-0.24456543,-0.3992147,1.1327038,0.47885427,-0.4868823,-0.4166707,0.5167279,728.9011,799.011,801.8315,749.85345,793.7729,-0.15655517578125,-0.02105712890625,0.97308349609375,1.495361328125,-2.878570556640625,0.19439697265625,1.0,1.0,1.0,1.0,1.0,100.0,event
12:25:38.748,1.5850246,-0.38643846,-0.7612963,1.3470463,0.95425266,-0.34241772,-0.49264234,1.1977222,0.9819929,-0.06620866,-0.30076262,1.1150109,0.63889784,-0.24456543,-0.3992147,1.1327038,0.47885427,-0.4868823,-0.4166707,0.5167279,763.95605,808.2784,800.2198,698.68134,721.6484,-0.15655517578125,-0.02105712890625,0.97308349609375,1.495361328125,-2.878570556640625,0.19439697265625,1.0,1.0,1.0,1.0,1.0,100.0,event
12:25:38.749,1.5850246,-0.38643846,-0.7612963,1.3470463,0.95425266,-0.34241772,-0.49264234,1.1977222,0.9819929,-0.06620866,-0.30076262,1.1150109,0.63889784,-0.24456543,-0.3992147,1.1327038,0.47885427,-0.4868823,-0.4166707,0.5167279,749.45056,804.2491,806.26373,706.7399,771.2088,-0.15655517578125,-0.02105712890625,0.97308349609375,1.495361328125,-2.878570556640625,0.19439697265625,1.0,1.0,1.0,1.0,1.0,100.0,event
12:25:38.750,1.5850246,-0.38643846,-0.7612963,1.3470463,0.95425266,-0.34241772,-0.49264234,1.1977222,0.9819929,-0.06620866,-0.30076262,1.1150109,0.63889784,-0.24456543,-0.3992147,1.1327038,0.47885427,-0.4868823,-0.4166707,0.5167279,732.1245,801.4286,802.23444,717.2161,974.2857,-0.15655517578125,-0.02105712890625,0.97308349609375,1.495361328125,-2.878570556640625,0.19439697265625,1.0,1.0,1.0,1.0,1.0,100.0,event
12:25:38.750,1.5850246,-0.38643846,-0.7612963,1.3470463,0.95425266,-0.34241772,-0.49264234,1.1977222,0.9819929,-0.06620866,-0.30076262,1.1150109,0.63889784,-0.24456543,-0.3992147,1.1327038,0.47885427,-0.4868823,-0.4166707,0.5167279,715.6044,801.4286,798.20514,722.0513,892.49084,-0.15655517578125,-0.02105712890625,0.97308349609375,1.495361328125,-2.878570556640625,0.19439697265625,1.0,1.0,1.0,1.0,1.0,100.0,event
12:25:38.751,1.5850246,-0.38643846,-0.7612963,1.3470463,0.95425266,-0.34241772,-0.49264234,1.1977222,0.9819929,-0.06620866,-0.30076262,1.1150109,0.63889784,-0.24456543,-0.3992147,1.1327038,0.47885427,-0.4868823,-0.4166707,0.5167279,699.0842,796.99634,804.2491,712.381,651.9414,-0.15655517578125,-0.02105712890625,0.97308349609375,1.495361328125,-2.878570556640625,0.19439697265625,1.0,1.0,1.0,1.0,1.0,100.0,event
12:25:38.751,1.5850246,-0.38643846,-0.7612963,1.3470463,0.95425266,-0.34241772,-0.49264234,1.1977222,0.9819929,-0.06620866,-0.30076262,1.1150109,0.63889784,-0.24456543,-0.3992147,1.1327038,0.47885427,-0.4868823,-0.4166707,0.5167279,660.0,803.0403,794.57874,657.5824,737.76556,-0.15655517578125,-0.02105712890625,0.97308349609375,1.495361328125,-2.878570556640625,0.19439697265625,1.0,1.0,1.0,1.0,1.0,100.0,event
12:25:38.752,1.5850246,-0.38643846,-0.7612963,1.3470463,0.95425266,-0.34241772,-0.49264234,1.1977222,0.9819929,-0.06620866,-0.30076262,1.1150109,0.63889784,-0.24456543,-0.3992147,1.1327038,0.47885427,-0.4868823,-0.4166707,0.5167279,705.12823,807.8755,792.5641,670.07324,760.32965,-0.15655517578125,-0.02105712890625,0.97308349609375,1.495361328125,-2.878570556640625,0.19439697265625,1.0,1.0,1.0,1.0,1.0,100.0,event
12:25:38.753,1.5850246,-0.3806017,-0.72651196,1.3470463,0.95425266,-0.342649,-0.48675743,1.1977222,0.9819929,-0.03336846,-0.27282,1.1150109,0.63889784,-0.17472781,-0.36397958,1.1327038,0.47885427,-0.46110243,-0.41074648,0.5167279,729.304,802.23444,805.05493,711.1722,659.19415,-0.15655517578125,-0.02105712890625,0.97308349609375,1.495361328125,-2.878570556640625,0.19439697265625,1.0,1.0,1.0,1.0,1.0,100.0,event
12:25:38.781,1.5850246,-0.3806017,-0.72651196,1.3470463,0.95425266,-0.342649,-0.48675743,1.1977222,0.9819929,-0.03336846,-0.27282,1.1150109,0.63889784,-0.17472781,-0.36397958,1.1327038,0.47885427,-0.46110243,-0.41074648,0.5167279,736.55676,806.26373,799.81683,720.0366,672.49084,-0.15655517578125,-0.02105712890625,0.97308349609375,1.495361328125,-2.878570556640625,0.19439697265625,1.0,1.0,1.0,1.0,1.0,100.0,event
12:25:38.783,1.5850246,-0.3806017,-0.72651196,1.3470463,0.95425266,-0.342649,-0.48675743,1.1977222,0.9819929,-0.03336846,-0.27282,1.1150109,0.63889784,-0.17472781,-0.36397958,1.1327038,0.47885427,-0.46110243,-0.41074648,0.5167279,749.45056,803.8461,795.78754,724.0659,737.3626,-0.15655517578125,-0.02105712890625,0.97308349609375,1.495361328125,-2.878570556640625,0.19439697265625,1.0,1.0,1.0,1.0,1.0,100.0,event
12:25:38.783,1.5850246,-0.3806017,-0.72651196,1.3470463,0.95425266,-0.342649,-0.48675743,1.1977222,0.9819929,-0.03336846,-0.27282,1.1150109,0.63889784,-0.17472781,-0.36397958,1.1327038,0.47885427,-0.46110243,-0.41074648,0.5167279,758.71796,803.44324,802.6374,745.82416,714.3956,-0.15655517578125,-0.02105712890625,0.97308349609375,1.495361328125,-2.878570556640625,0.19439697265625,1.0,1.0,1.0,1.0,1.0,100.0,event
12:25:38.784,1.5850246,-0.3806017,-0.72651196,1.3470463,0.95425266,-0.342649,-0.48675743,1.1977222,0.9819929,-0.03336846,-0.27282,1.1150109,0.63889784,-0.17472781,-0.36397958,1.1327038,0.47885427,-0.46110243,-0.41074648,0.5167279,713.5897,803.8461,803.44324,718.022,672.8938,-0.15655517578125,-0.02105712890625,0.97308349609375,1.495361328125,-2.878570556640625,0.19439697265625,1.0,1.0,1.0,1.0,1.0,100.0,event
12:25:38.785,1.5850246,-0.3806017,-0.72651196,1.3470463,0.95425266,-0.342649,-0.48675743,1.1977222,0.9819929,-0.03336846,-0.27282,1.1150109,0.63889784,-0.17472781,-0.36397958,1.1327038,0.47885427,-0.46110243,-0.41074648,0.5167279,706.7399,795.78754,803.8461,695.8608,730.9158,-0.15655517578125,-0.02105712890625,0.97308349609375,1.495361328125,-2.878570556640625,0.19439697265625,1.0,1.0,1.0,1.0,1.0,100.0,event
12:25:38.786,1.5850246,-0.3806017,-0.72651196,1.3470463,0.95425266,-0.342649,-0.48675743,1.1977222,0.9819929,-0.03336846,-0.27282,1.1150109,0.63889784,-0.17472781,-0.36397958,1.1327038,0.47885427,-0.46110243,-0.41074648,0.5167279,774.0293,801.02563,800.6227,761.53845,865.09155,-0.15655517578125,-0.02105712890625,0.97308349609375,1.495361328125,-2.878570556640625,0.19439697265625,1.0,1.0,1.0,1.0,1.0,100.0,event
12:25:38.787,1.5850246,-0.3806017,-0.72651196,1.3470463,0.95425266,-0.342649,-0.48675743,1.1977222,0.9819929,-0.03336846,-0.27282,1.1150109,0.63889784,-0.17472781,-0.36397958,1.1327038,0.47885427,-0.46110243,-0.41074648,0.5167279,697.8755,812.71063,794.57874,730.10986,1093.5531,-0.15655517578125,-0.02105712890625,0.97308349609375,1.495361328125,-2.878570556640625,0.19439697265625,1.0,1.0,1.0,1.0,1.0,100.0,event
12:25:38.788,1.5850246,-0.3806017,-0.72651196,1.3470463,0.95425266,-0.342649,-0.48675743,1.1977222,0.9819929,-0.03336846,-0.27282,1.1150109,0.63889784,-0.17472781,-0.36397958,1.1327038,0.47885427,-0.46110243,-0.41074648,0.5167279,693.0403,803.44324,797.3993,714.3956,918.2784,-0.15655517578125,-0.02105712890625,0.97308349609375,1.495361328125,-2.878570556640625,0.19439697265625,1.0,1.0,1.0,1.0,1.0,100.0,event
12:25:38.789,1.5850246,-0.3806017,-0.72651196,1.3470463,0.95425266,-0.342649,-0.48675743,1.1977222,0.9819929,-0.03336846,-0.27282,1.1150109,0.63889784,-0.17472781,-0.36397958,1.1327038,0.47885427,-0.46110243,-0.41074648,0.5167279,761.9414,795.78754,799.011,744.21246,699.4872,-0.15655517578125,-0.02105712890625,0.97308349609375,1.495361328125,-2.878570556640625,0.19439697265625,1.0,1.0,1.0,1.0,1.0,100.0,event
12:25:38.789,1.5850246,-0.3806017,-0.72651196,1.3470463,0.95425266,-0.342649,-0.48675743,1.1977222,0.9819929,-0.03336846,-0.27282,1.1150109,0.63889784,-0.17472781,-0.36397958,1.1327038,0.47885427,-0.46110243,-0.41074648,0.5167279,740.18317,810.696,800.2198,694.2491,802.23444,-0.15655517578125,-0.02105712890625,0.97308349609375,1.495361328125,-2.878570556640625,0.19439697265625,1.0,1.0,1.0,1.0,1.0,100.0,event
12:25:38.790,1.5850246,-0.3806017,-0.72651196,1.3470463,0.95425266,-0.342649,-0.48675743,1.1977222,0.9819929,-0.03336846,-0.27282,1.1150109,0.63889784,-0.17472781,-0.36397958,1.1327038,0.47885427,-0.46110243,-0.41074648,0.5167279,724.0659,800.6227,804.2491,758.71796,746.63007,-0.15655517578125,-0.02105712890625,0.97308349609375,1.495361328125,-2.878570556640625,0.19439697265625,1.0,1.0,1.0,1.0,1.0,100.0,event
12:25:38.791,1.5850246,-0.3806017,-0.72651196,1.3470463,0.95425266,-0.342649,-0.48675743,1.1977222,0.9819929,-0.03336846,-0.27282,1.1150109,0.63889784,-0.17472781,-0.36397958,1.1327038,0.47885427,-0.46110243,-0.41074648,0.5167279,760.32965,797.8022,799.41394,769.59705,639.45056,-0.15655517578125,-0.02105712890625,0.97308349609375,1.495361328125,-2.878570556640625,0.19439697265625,1.0,1.0,1.0,1.0,1.0,100.0,event
12:25:38.815,1.5850246,-0.3806017,-0.72651196,1.3470463,0.95425266,-0.342649,-0.48675743,1.1977222,0.9819929,-0.03336846,-0.27282,1.1150109,0.63889784,-0.17472781,-0.36397958,1.1327038,0.47885427,-0.46110243,-0.41074648,0.5167279,788.93774,801.4286,799.011,763.1502,691.02563,-0.1510009765625,-0.0228271484375,0.96942138671875,2.76641845703125,-1.816864013671875,-1.084136962890625,1.0,1.0,1.0,1.0,1.0,100.0,event
12:25:38.819,1.5850246,-0.3806017,-0.72651196,1.3470463,0.95425266,-0.342649,-0.48675743,1.1977222,0.9819929,-0.03336846,-0.27282,1.1150109,0.63889784,-0.17472781,-0.36397958,1.1327038,0.47885427,-0.46110243,-0.41074648,0.5167279,792.1612,796.5934,799.011,815.12823,811.9048,-0.1510009765625,-0.0228271484375,0.96942138671875,2.76641845703125,-1.816864013671875,-1.084136962890625,1.0,1.0,1.0,1.0,1.0,100.0,event
12:25:38.820,1.5850246,-0.3806017,-0.72651196,1.3470463,0.95425266,-0.342649,-0.48675743,1.1977222,0.9819929,-0.03336846,-0.27282,1.1150109,0.63889784,-0.17472781,-0.36397958,1.1327038,0.47885427,-0.46110243,-0.41074648,0.5167279,726.8865,799.81683,792.5641,740.18317,799.011,-0.1510009765625,-0.0228271484375,0.96942138671875,2.76641845703125,-1.816864013671875,-1.084136962890625,1.0,1.0,1.0,1.0,1.0,100.0,event
12:25:38.820,1.5850246,-0.3806017,-0.72651196,1.3470463,0.95425266,-0.342649,-0.48675743,1.1977222,0.9819929,-0.03336846,-0.27282,1.1150109,0.63889784,-0.17472781,-0.36397958,1.1327038,0.47885427,-0.46110243,-0.41074648,0.5167279,715.6044,798.20514,788.93774,729.304,720.0366,-0.1510009765625,-0.0228271484375,0.96942138671875,2.76641845703125,-1.816864013671875,-1.084136962890625,1.0,1.0,1.0,1.0,1.0,100.0,event
12:25:38.822,1.5850246,-0.3806017,-0.72651196,1.3470463,0.95425266,-0.342649,-0.48675743,1.1977222,0.9819929,-0.03336846,-0.27282,1.1150109,0.63889784,-0.17472781,-0.36397958,1.1327038,0.47885427,-0.46110243,-0.41074648,0.5167279,798.20514,798.20514,797.3993,772.4176,721.2454,-0.1510009765625,-0.0228271484375,0.96942138671875,2.76641845703125,-1.816864013671875,-1.084136962890625,1.0,1.0,1.0,1.0,1.0,100.0,event
12:25:38.823,1.5850246,-0.3806017,-0.72651196,1.3470463,0.95425266,-0.342649,-0.48675743,1.1977222,0.9819929,-0.03336846,-0.27282,1.1150109,0.63889784,-0.17472781,-0.36397958,1.1327038,0.47885427,-0.46110243,-0.41074648,0.5167279,802.6374,799.41394,798.60803,772.8205,862.27106,-0.1510009765625,-0.0228271484375,0.96942138671875,2.76641845703125,-1.816864013671875,-1.084136962890625,1.0,1.0,1.0,1.0,1.0,100.0,event
12:25:38.824,1.5850246,-0.3806017,-0.72651196,1.3470463,0.95425266,-0.342649,-0.48675743,1.1977222,0.9819929,-0.03336846,-0.27282,1.1150109,0.63889784,-0.17472781,-0.36397958,1.1327038,0.47885427,-0.46110243,-0.41074648,0.5167279,766.3736,804.2491,800.2198,772.8205,920.293,-0.1510009765625,-0.0228271484375,0.96942138671875,2.76641845703125,-1.816864013671875,-1.084136962890625,1.0,1.0,1.0,1.0,1.0,100.0,event
12:25:38.825,1.5850246,-0.3806017,-0.72651196,1.3470463,0.95425266,-0.342649,-0.48675743,1.1977222,0.9819929,-0.03336846,-0.27282,1.1150109,0.63889784,-0.17472781,-0.36397958,1.1327038,0.47885427,-0.46110243,-0.41074648,0.5167279,755.4945,807.0696,802.23444,764.7619,885.2381,-0.1510009765625,-0.0228271484375,0.96942138671875,2.76641845703125,-1.816864013671875,-1.084136962890625,1.0,1.0,1.0,1.0,1.0,100.0,event
12:25:38.826,1.5850246,-0.3806017,-0.72651196,1.3470463,0.95425266,-0.342649,-0.48675743,1.1977222,0.9819929,-0.03336846,-0.27282,1.1150109,0.63889784,-0.17472781,-0.36397958,1.1327038,0.47885427,-0.46110243,-0.41074648,0.5167279,756.30035,792.96704,809.0842,793.7729,1021.4286,-0.1510009765625,-0.0228271484375,0.96942138671875,2.76641845703125,-1.816864013671875,-1.084136962890625,1.0,1.0,1.0,1.0,1.0,100.0,event
12:25:38.826,1.5850246,-0.3806017,-0.72651196,1.3470463,0.95425266,-0.342649,-0.48675743,1.1977222,0.9819929,-0.03336846,-0.27282,1.1150109,0.63889784,-0.17472781,-0.36397958,1.1327038,0.47885427,-0.46110243,-0.41074648,0.5167279,770.40295,794.9817,804.65204,780.4762,803.8461,-0.1510009765625,-0.0228271484375,0.96942138671875,2.76641845703125,-1.816864013671875,-1.084136962890625,1.0,1.0,1.0,1.0,1.0,100.0,event
12:25:38.827,1.5850246,-0.3806017,-0.72651196,1.3470463,0.95425266,-0.342649,-0.48675743,1.1977222,0.9819929,-0.03336846,-0.27282,1.1150109,0.63889784,-0.17472781,-0.36397958,1.1327038,0.47885427,-0.46110243,-0.41074648,0.5167279,763.5531,804.65204,813.1135,780.87915,1053.663,-0.1510009765625,-0.0228271484375,0.96942138671875,2.76641845703125,-1.816864013671875,-1.084136962890625,1.0,1.0,1.0,1.0,1.0,100.0,event
12:25:38.827,1.5850246,-0.3806017,-0.72651196,1.3470463,0.95425266,-0.342649,-0.48675743,1.1977222,0.9819929,-0.03336846,-0.27282,1.1150109,0.63889784,-0.17472781,-0.36397958,1.1327038,0.47885427,-0.46110243,-0.41074648,0.5167279,778.86444,807.0696,808.2784,768.7912,721.2454,-0.1510009765625,-0.0228271484375,0.96942138671875,2.76641845703125,-1.816864013671875,-1.084136962890625,1.0,1.0,1.0,1.0,1.0,100.0,event
12:25:38.855,1.5850246,-0.3806017,-0.72651196,1.3470463,0.95425266,-0.342649,-0.48675743,1.1977222,0.9819929,-0.03336846,-0.27282,1.1150109,0.63889784,-0.17472781,-0.36397958,1.1327038,0.47885427,-0.46110243,-0.41074648,0.5167279,782.49084,800.6227,803.8461,774.43225,765.56775,-0.16387939453125,-0.02581787109375,0.97882080078125,1.55517578125,-3.043060302734375,0.538330078125,1.0,1.0,1.0,1.0,1.0,100.0,event
12:25:38.856,1.5850246,-0.37605056,-0.68359274,1.3470463,0.95425266,-0.34886178,-0.48162407,1.1977222,0.9819929,-0.0077321157,-0.21732213,1.1150109,0.63889784,-0.12332973,-0.32523888,1.1327038,0.47885427,-0.43289813,-0.4111783,0.5167279,777.6557,805.8608,805.4579,770.40295,782.8938,-0.16387939453125,-0.02581787109375,0.97882080078125,1.55517578125,-3.043060302734375,0.538330078125,1.0,1.0,1.0,1.0,1.0,100.0,event
12:25:38.860,1.5850246,-0.37605056,-0.68359274,1.3470463,0.95425266,-0.34886178,-0.48162407,1.1977222,0.9819929,-0.0077321157,-0.21732213,1.1150109,0.63889784,-0.12332973,-0.32523888,1.1327038,0.47885427,-0.43289813,-0.4111783,0.5167279,745.82416,799.41394,805.4579,744.61536,672.49084,-0.16387939453125,-0.02581787109375,0.97882080078125,1.55517578125,-3.043060302734375,0.538330078125,1.0,1.0,1.0,1.0,1.0,100.0,event
12:25:38.860,1.5850246,-0.37605056,-0.68359274,1.3470463,0.95425266,-0.34886178,-0.48162407,1.1977222,0.9819929,-0.0077321157,-0.21732213,1.1150109,0.63889784,-0.12332973,-0.32523888,1.1327038,0.47885427,-0.43289813,-0.4111783,0.5167279,774.43225,801.02563,807.8755,790.9524,701.0989,-0.16387939453125,-0.02581787109375,0.97882080078125,1.55517578125,-3.043060302734375,0.538330078125,1.0,1.0,1.0,1.0,1.0,100.0,event
12:25:38.861,1.5850246,-0.37605056,-0.68359274,1.3470463,0.95425266,-0.34886178,-0.48162407,1.1977222,0.9819929,-0.0077321157,-0.21732213,1.1150109,0.63889784,-0.12332973,-0.32523888,1.1327038,0.47885427,-0.43289813,-0.4111783,0.5167279,805.05493,808.2784,807.47253,797.8022,801.4286,-0.16387939453125,-0.02581787109375,0.97882080078125,1.55517578125,-3.043060302734375,0.538330078125,1.0,1.0,1.0,1.0,1.0,100.0,event
12:25:38.861,1.5850246,-0.37605056,-0.68359274,1.3470463,0.95425266,-0.34886178,-0.48162407,1.1977222,0.9819929,-0.0077321157,-0.21732213,1.1150109,0.63889784,-0.12332973,-0.32523888,1.1327038,0.47885427,-0.43289813,-0.4111783,0.5167279,767.5824,803.0403,801.8315,759.12085,891.28204,-0.16387939453125,-0.02581787109375,0.97882080078125,1.55517578125,-3.043060302734375,0.538330078125,1.0,1.0,1.0,1.0,1.0,100.0,event
12:25:38.862,1.5850246,-0.37605056,-0.68359274,1.3470463,0.95425266,-0.34886178,-0.48162407,1.1977222,0.9819929,-0.0077321157,-0.21732213,1.1150109,0.63889784,-0.12332973,-0.32523888,1.1327038,0.47885427,-0.43289813,-0.4111783,0.5167279,770.80585,804.2491,805.8608,738.97437,757.9121,-0.16387939453125,-0.02581787109375,0.97882080078125,1.55517578125,-3.043060302734375,0.538330078125,1.0,1.0,1.0,1.0,1.0,100.0,event
12:25:38.862,1.5850246,-0.37605056,-0.68359274,1.3470463,0.95425266,-0.34886178,-0.48162407,1.1977222,0.9819929,-0.0077321157,-0.21732213,1.1150109,0.63889784,-0.12332973,-0.32523888,1.1327038,0.47885427,-0.43289813,-0.4111783,0.5167279,770.80585,803.8461,802.23444,788.5348,870.7326,-0.16387939453125,-0.02581787109375,0.97882080078125,1.55517578125,-3.043060302734375,0.538330078125,1.0,1.0,1.0,1.0,1.0,100.0,event
12:25:38.863,1.5850246,-0.37605056,-0.68359274,1.3470463,0.95425266,-0.34886178,-0.48162407,1.1977222,0.9819929,-0.0077321157,-0.21732213,1.1150109,0.63889784,-0.12332973,-0.32523888,1.1327038,0.47885427,-0.43289813,-0.4111783,0.5167279,753.47986,802.6374,802.6374,733.3333,830.4396,-0.16387939453125,-0.02581787109375,0.97882080078125,1.55517578125,-3.043060302734375,0.538330078125,1.0,1.0,1.0,1.0,1.0,100.0,event
12:25:38.863,1.5850246,-0.37605056,-0.68359274,1.3470463,0.95425266,-0.34886178,-0.48162407,1.1977222,0.9819929,-0.0077321157,-0.21732213,1.1150109,0.63889784,-0.12332973,-0.32523888,1.1327038,0.47885427,-0.43289813,-0.4111783,0.5167279,779.67035,800.6227,806.26373,847.3626,868.315,-0.16387939453125,-0.02581787109375,0.97882080078125,1.55517578125,-3.043060302734375,0.538330078125,1.0,1.0,1.0,1.0,1.0,100.0,event
12:25:38.864,1.5850246,-0.37605056,-0.68359274,1.3470463,0.95425266,-0.34886178,-0.48162407,1.1977222,0.9819929,-0.0077321157,-0.21732213,1.1150109,0.63889784,-0.12332973,-0.32523888,1.1327038,0.47885427,-0.43289813,-0.4111783,0.5167279,761.9414,801.8315,804.2491,822.7839,829.6337,-0.16387939453125,-0.02581787109375,0.97882080078125,1.55517578125,-3.043060302734375,0.538330078125,1.0,1.0,1.0,1.0,1.0,100.0,event
12:25:38.864,1.5850246,-0.37605056,-0.68359274,1.3470463,0.95425266,-0.34886178,-0.48162407,1.1977222,0.9819929,-0.0077321157,-0.21732213,1.1150109,0.63889784,-0.12332973,-0.32523888,1.1327038,0.47885427,-0.43289813,-0.4111783,0.5167279,758.315,807.0696,802.6374,745.82416,778.0586,-0.16387939453125,-0.02581787109375,0.97882080078125,1.55517578125,-3.043060302734375,0.538330078125,1.0,1.0,1.0,1.0,1.0,100.0,event
12:25:38.887,1.5850246,-0.37605056,-0.68359274,1.3470463,0.95425266,-0.34886178,-0.48162407,1.1977222,0.9819929,-0.0077321157,-0.21732213,1.1150109,0.63889784,-0.12332973,-0.32523888,1.1327038,0.47885427,-0.43289813,-0.4111783,0.5167279,786.1172,807.47253,801.02563,728.49817,875.56775,-0.16387939453125,-0.0194091796875,0.97808837890625,2.639312744140625,-4.822540283203125,-0.680389404296875,1.0,1.0,1.0,1.0,1.0,100.0,event
12:25:38.888,1.5850246,-0.37605056,-0.68359274,1.3470463,0.95425266,-0.34886178,-0.48162407,1.1977222,0.9819929,-0.0077321157,-0.21732213,1.1150109,0.63889784,-0.12332973,-0.32523888,1.1327038,0.47885427,-0.43289813,-0.4111783,0.5167279,807.47253,805.8608,800.2198,761.13556,1065.348,-0.16387939453125,-0.0194091796875,0.97808837890625,2.639312744140625,-4.822540283203125,-0.680389404296875,1.0,1.0,1.0,1.0,1.0,100.0,event
12:25:38.889,1.5850246,-0.37605056,-0.68359274,1.3470463,0.95425266,-0.34886178,-0.48162407,1.1977222,0.9819929,-0.0077321157,-0.21732213,1.1150109,0.63889784,-0.12332973,-0.32523888,1.1327038,0.47885427,-0.43289813,-0.4111783,0.5167279,800.2198,807.0696,804.2491,779.67035,894.90845,-0.16387939453125,-0.0194091796875,0.97808837890625,2.639312744140625,-4.822540283203125,-0.680389404296875,1.0,1.0,1.0,1.0,1.0,100.0,event
12:25:38.889,1.5850246,-0.37605056,-0.68359274,1.3470463,0.95425266,-0.34886178,-0.48162407,1.1977222,0.9819929,-0.0077321157,-0.21732213,1.1150109,0.63889784,-0.12332973,-0.32523888,1.1327038,0.47885427,-0.43289813,-0.4111783,0.5167279,775.2381,805.8608,801.8315,770.80585,793.7729,-0.16387939453125,-0.0194091796875,0.97808837890625,2.639312744140625,-4.822540283203125,-0.680389404296875,1.0,1.0,1.0,1.0,1.0,100.0,event
12:25:38.890,1.5850246,-0.37605056,-0.68359274,1.3470463,0.95425266,-0.34886178,-0.48162407,1.1977222,0.9819929,-0.0077321157,-0.21732213,1.1150109,0.63889784,-0.12332973,-0.32523888,1.1327038,0.47885427,-0.43289813,-0.4111783,0.5167279,786.1172,804.2491,802.23444,755.4945,819.5604,-0.16387939453125,-0.0194091796875,0.97808837890625,2.639312744140625,-4.822540283203125,-0.680389404296875,1.0,1.0,1.0,1.0,1.0,100.0,event
12:25:38.890,1.5850246,-0.37605056,-0.68359274,1.3470463,0.95425266,-0.34886178,-0.48162407,1.1977222,0.9819929,-0.0077321157,-0.21732213,1.1150109,0.63889784,-0.12332973,-0.32523888,1.1327038,0.47885427,-0.43289813,-0.4111783,0.5167279,776.8498,803.8461,803.0403,745.82416,814.3223,-0.16387939453125,-0.0194091796875,0.97808837890625,2.639312744140625,-4.822540283203125,-0.680389404296875,1.0,1.0,1.0,1.0,1.0,100.0,event
12:25:38.891,1.5850246,-0.37605056,-0.68359274,1.3470463,0.95425266,-0.34886178,-0.48162407,1.1977222,0.9819929,-0.0077321157,-0.21732213,1.1150109,0.63889784,-0.12332973,-0.32523888,1.1327038,0.47885427,-0.43289813,-0.4111783,0.5167279,806.26373,803.8461,805.05493,793.7729,841.7216,-0.16387939453125,-0.0194091796875,0.97808837890625,2.639312744140625,-4.822540283203125,-0.680389404296875,1.0,1.0,1.0,1.0,1.0,100.0,event
12:25:38.891,1.5850246,-0.37605056,-0.68359274,1.3470463,0.95425266,-0.34886178,-0.48162407,1.1977222,0.9819929,-0.0077321157,-0.21732213,1.1150109,0.63889784,-0.12332973,-0.32523888,1.1327038,0.47885427,-0.43289813,-0.4111783,0.5167279,771.2088,799.81683,804.65204,805.8608,822.381,-0.16387939453125,-0.0194091796875,0.97808837890625,2.639312744140625,-4.822540283203125,-0.680389404296875,1.0,1.0,1.0,1.0,1.0,100.0,event
12:25:38.892,1.5850246,-0.37605056,-0.68359274,1.3470463,0.95425266,-0.34886178,-0.48162407,1.1977222,0.9819929,-0.0077321157,-0.21732213,1.1150109,0.63889784,-0.12332973,-0.32523888,1.1327038,0.47885427,-0.43289813,-0.4111783,0.5167279,762.74725,801.02563,799.41394,804.2491,1019.011,-0.16387939453125,-0.0194091796875,0.97808837890625,2.639312744140625,-4.822540283203125,-0.680389404296875,1.0,1.0,1.0,1.0,1.0,100.0,event
12:25:38.892,1.5850246,-0.37605056,-0.68359274,1.3470463,0.95425266,-0.34886178,-0.48162407,1.1977222,0.9819929,-0.0077321157,-0.21732213,1.1150109,0.63889784,-0.12332973,-0.32523888,1.1327038,0.47885427,-0.43289813,-0.4111783,0.5167279,799.41394,805.8608,804.2491,796.5934,942.8571,-0.16387939453125,-0.0194091796875,0.97808837890625,2.639312744140625,-4.822540283203125,-0.680389404296875,1.0,1.0,1.0,1.0,1.0,100.0,event
12:25:38.893,1.5850246,-0.37605056,-0.68359274,1.3470463,0.95425266,-0.34886178,-0.48162407,1.1977222,0.9819929,-0.0077321157,-0.21732213,1.1150109,0.63889784,-0.12332973,-0.32523888,1.1327038,0.47885427,-0.43289813,-0.4111783,0.5167279,783.2967,801.4286,804.2491,759.12085,652.74725,-0.16387939453125,-0.0194091796875,0.97808837890625,2.639312744140625,-4.822540283203125,-0.680389404296875,1.0,1.0,1.0,1.0,1.0,100.0,event
12:25:38.893,1.5850246,-0.37605056,-0.68359274,1.3470463,0.95425266,-0.34886178,-0.48162407,1.1977222,0.9819929,-0.0077321157,-0.21732213,1.1150109,0.63889784,-0.12332973,-0.32523888,1.1327038,0.47885427,-0.43289813,-0.4111783,0.5167279,789.7436,801.8315,801.4286,782.0879,738.1685,-0.16387939453125,-0.0194091796875,0.97808837890625,2.639312744140625,-4.822540283203125,-0.680389404296875,1.0,1.0,1.0,1.0,1.0,100.0,event
12:25:38.959,1.5850246,-0.37605056,-0.68359274,1.3470463,0.95425266,-0.34886178,-0.48162407,1.1977222,0.9819929,-0.0077321157,-0.21732213,1.1150109,0.63889784,-0.12332973,-0.32523888,1.1327038,0.47885427,-0.43289813,-0.4111783,0.5167279,792.96704,811.9048,806.6667,801.02563,784.10254,-0.1561279296875,-0.02197265625,0.9720458984375,1.308441162109375,-2.49725341796875,0.829925537109375,1.0,1.0,1.0,1.0,1.0,100.0,event
12:25:38.961,1.5850246,-0.37605056,-0.68359274,1.3470463,0.95425266,-0.34886178,-0.48162407,1.1977222,0.9819929,-0.0077321157,-0.21732213,1.1150109,0.63889784,-0.12332973,-0.32523888,1.1327038,0.47885427,-0.43289813,-0.4111783,0.5167279,795.38464,805.05493,812.3077,778.0586,841.31866,-0.1561279296875,-0.02197265625,0.9720458984375,1.308441162109375,-2.49725341796875,0.829925537109375,1.0,1.0,1.0,1.0,1.0,100.0,event
12:25:38.961,1.5850246,-0.37605056,-0.68359274,1.3470463,0.95425266,-0.34886178,-0.48162407,1.1977222,0.9819929,-0.0077321157,-0.21732213,1.1150109,0.63889784,-0.12332973,-0.32523888,1.1327038,0.47885427,-0.43289813,-0.4111783,0.5167279,790.9524,801.4286,808.68134,754.2857,788.5348,-0.1561279296875,-0.02197265625,0.9720458984375,1.308441162109375,-2.49725341796875,0.829925537109375,1.0,1.0,1.0,1.0,1.0,100.0,event
12:25:38.962,1.5850246,-0.366211,-0.6374997,1.3470463,0.95425266,-0.36313504,-0.4729582,1.1977222,0.9819929,-0.0077321157,-0.15250458,1.1150109,0.63889784,-0.09493477,-0.2899621,1.1327038,0.47885427,-0.40171772,-0.4162094,0.5167279,769.59705,806.6667,804.65204,740.58606,748.24176,-0.1561279296875,-0.02197265625,0.9720458984375,1.308441162109375,-2.49725341796875,0.829925537109375,1.0,1.0,1.0,1.0,1.0,100.0,event
12:25:38.966,1.5850246,-0.366211,-0.6374997,1.3470463,0.95425266,-0.36313504,-0.4729582,1.1977222,0.9819929,-0.0077321157,-0.15250458,1.1150109,0.63889784,-0.09493477,-0.2899621,1.1327038,0.47885427,-0.40171772,-0.4162094,0.5167279,780.07324,807.47253,807.47253,766.3736,815.12823,-0.1561279296875,-0.02197265625,0.9720458984375,1.308441162109375,-2.49725341796875,0.829925537109375,1.0,1.0,1.0,1.0,1.0,100.0,event
12:25:38.967,1.5850246,-0.366211,-0.6374997,1.3470463,0.95425266,-0.36313504,-0.4729582,1.1977222,0.9819929,-0.0077321157,-0.15250458,1.1150109,0.63889784,-0.09493477,-0.2899621,1.1327038,0.47885427,-0.40171772,-0.4162094,0.5167279,796.1905,804.2491,808.68134,774.83514,823.9927,-0.1561279296875,-0.02197265625,0.9720458984375,1.308441162109375,-2.49725341796875,0.829925537109375,1.0,1.0,1.0,1.0,1.0,100.0,event
