TimeStamp,Delta_TP9,Delta_AF7,Delta_AF8,Delta_TP10,Theta_TP9,Theta_AF7,Theta_AF8,Theta_TP10,Alpha_TP9,Alpha_AF7,Alpha_AF8,Alpha_TP10,Beta_TP9,Beta_AF7,Beta_AF8,Beta_TP10,Gamma_TP9,Gamma_AF7,Gamma_AF8,Gamma_TP10,RAW_TP9,RAW_AF7,RAW_AF8,RAW_TP10,AUX_RIGHT,Accelerometer_X,Accelerometer_Y,Accelerometer_Z,Gyro_X,Gyro_Y,Gyro_Z,HeadBandOn,HSI_TP9,HSI_AF7,HSI_AF8,HSI_TP10,Battery,Elements
14:16:22.286,1.0425831,0.64634705,0.30693853,1.1835363,0.6425763,0.68815374,0.37996197,1.0590973,0.59190726,0.8372244,0.6379553,1.0223147,1.0554792,1.0908461,0.7473803,1.2227546,0.97042775,1.0552125,0.8279115,1.0299182,918.68134,793.36993,776.04395,1071.392,819.5604,-0.18927001953125,0.191162109375,0.952392578125,2.093505859375,-1.8243408203125,-0.037384033203125,1.0,1.0,1.0,1.0,1.0,85.0,event
14:16:22.287,1.0425831,0.64634705,0.30693853,1.1835363,0.6425763,0.68815374,0.37996197,1.0590973,0.59190726,0.8372244,0.6379553,1.0223147,1.0554792,1.0908461,0.7473803,1.2227546,0.97042775,1.0552125,0.8279115,1.0299182,864.68866,796.99634,790.14655,727.28937,797.3993,-0.18927001953125,0.191162109375,0.952392578125,2.093505859375,-1.8243408203125,-0.037384033203125,1.0,1.0,1.0,1.0,1.0,85.0,event
14:16:22.287,1.0425831,0.64634705,0.30693853,1.1835363,0.6425763,0.68815374,0.37996197,1.0590973,0.59190726,0.8372244,0.6379553,1.0223147,1.0554792,1.0908461,0.7473803,1.2227546,0.97042775,1.0552125,0.8279115,1.0299182,882.8205,803.0403,802.23444,622.9304,737.3626,-0.18927001953125,0.191162109375,0.952392578125,2.093505859375,-1.8243408203125,-0.037384033203125,1.0,1.0,1.0,1.0,1.0,85.0,event
14:16:22.288,1.0425831,0.64634705,0.30693853,1.1835363,0.6425763,0.68815374,0.37996197,1.0590973,0.59190726,0.8372244,0.6379553,1.0223147,1.0554792,1.0908461,0.7473803,1.2227546,0.97042775,1.0552125,0.8279115,1.0299182,917.47253,819.5604,792.5641,837.6923,714.3956,-0.18927001953125,0.191162109375,0.952392578125,2.093505859375,-1.8243408203125,-0.037384033203125,1.0,1.0,1.0,1.0,1.0,85.0,event
14:16:22.289,1.0425831,0.64634705,0.30693853,1.1835363,0.6425763,0.68815374,0.37996197,1.0590973,0.59190726,0.8372244,0.6379553,1.0223147,1.0554792,1.0908461,0.7473803,1.2227546,0.97042775,1.0552125,0.8279115,1.0299182,917.47253,840.10986,802.6374,1135.8608,860.65936,-0.18927001953125,0.191162109375,0.952392578125,2.093505859375,-1.8243408203125,-0.037384033203125,1.0,1.0,1.0,1.0,1.0,85.0,event
14:16:22.289,1.0425831,0.66384,0.31067193,1.1835363,0.6425763,0.6872208,0.33697447,1.0590973,0.59190726,0.83000547,0.64005077,1.0223147,1.0554792,1.0877701,0.7646359,1.2227546,0.97042775,1.0688707,0.85039955,1.0299182,869.92676,836.4835,799.41394,1087.9121,922.71063,-0.18927001953125,0.191162109375,0.952392578125,2.093505859375,-1.8243408203125,-0.037384033203125,1.0,1.0,1.0,1.0,1.0,85.0,event
14:16:22.292,,,,,,,,,,,,,,,,,,,,,,,,,,,,,,,,,,,,,,blink
14:16:22.293,1.0425831,0.66384,0.31067193,1.1835363,0.6425763,0.6872208,0.33697447,1.0590973,0.59190726,0.83000547,0.64005077,1.0223147,1.0554792,1.0877701,0.7646359,1.2227546,0.97042775,1.0688707,0.85039955,1.0299182,821.978,834.87177,796.1905,740.989,789.7436,-0.18927001953125,0.191162109375,0.952392578125,2.093505859375,-1.8243408203125,-0.037384033203125,1.0,1.0,1.0,1.0,1.0,85.0,event
14:16:22.294,1.0425831,0.66384,0.31067193,1.1835363,0.6425763,0.6872208,0.33697447,1.0590973,0.59190726,0.83000547,0.64005077,1.0223147,1.0554792,1.0877701,0.7646359,1.2227546,0.97042775,1.0688707,0.85039955,1.0299182,853.4066,790.9524,778.86444,793.7729,945.2747,-0.18927001953125,0.191162109375,0.952392578125,2.093505859375,-1.8243408203125,-0.037384033203125,1.0,1.0,1.0,1.0,1.0,85.0,event
14:16:22.294,1.0425831,0.66384,0.31067193,1.1835363,0.6425763,0.6872208,0.33697447,1.0590973,0.59190726,0.83000547,0.64005077,1.0223147,1.0554792,1.0877701,0.7646359,1.2227546,0.97042775,1.0688707,0.85039955,1.0299182,813.1135,816.7399,791.75824,581.02563,729.707,-0.18927001953125,0.191162109375,0.952392578125,2.093505859375,-1.8243408203125,-0.037384033203125,1.0,1.0,1.0,1.0,1.0,85.0,event
14:16:22.295,1.0425831,0.66384,0.31067193,1.1835363,0.6425763,0.6872208,0.33697447,1.0590973,0.59190726,0.83000547,0.64005077,1.0223147,1.0554792,1.0877701,0.7646359,1.2227546,0.97042775,1.0688707,0.85039955,1.0299182,909.81683,793.36993,774.43225,1132.6373,1071.392,-0.18927001953125,0.191162109375,0.952392578125,2.093505859375,-1.8243408203125,-0.037384033203125,1.0,1.0,1.0,1.0,1.0,85.0,event
14:16:22.296,1.0425831,0.66384,0.31067193,1.1835363,0.6425763,0.6872208,0.33697447,1.0590973,0.59190726,0.83000547,0.64005077,1.0223147,1.0554792,1.0877701,0.7646359,1.2227546,0.97042775,1.0688707,0.85039955,1.0299182,905.38464,813.1135,774.43225,1130.6227,800.6227,-0.18927001953125,0.191162109375,0.952392578125,2.093505859375,-1.8243408203125,-0.037384033203125,1.0,1.0,1.0,1.0,1.0,85.0,event
14:16:22.296,1.0425831,0.66384,0.31067193,1.1835363,0.6425763,0.6872208,0.33697447,1.0590973,0.59190726,0.83000547,0.64005077,1.0223147,1.0554792,1.0877701,0.7646359,1.2227546,0.97042775,1.0688707,0.85039955,1.0299182,843.3333,819.9634,788.93774,783.69965,718.4249,-0.18927001953125,0.191162109375,0.952392578125,2.093505859375,-1.8243408203125,-0.037384033203125,1.0,1.0,1.0,1.0,1.0,85.0,event
14:16:22.319,1.0425831,0.66384,0.31067193,1.1835363,0.6425763,0.6872208,0.33697447,1.0590973,0.59190726,0.83000547,0.64005077,1.0223147,1.0554792,1.0877701,0.7646359,1.2227546,0.97042775,1.0688707,0.85039955,1.0299182,823.5897,824.7985,792.96704,584.2491,767.98535,-0.18731689453125,0.18951416015625,0.94940185546875,2.22808837890625,-2.9608154296875,0.179443359375,1.0,1.0,1.0,1.0,1.0,85.0,event
14:16:22.322,1.0425831,0.66384,0.31067193,1.1835363,0.6425763,0.6872208,0.33697447,1.0590973,0.59190726,0.83000547,0.64005077,1.0223147,1.0554792,1.0877701,0.7646359,1.2227546,0.97042775,1.0688707,0.85039955,1.0299182,875.56775,820.7692,767.1795,760.7326,662.4176,-0.18731689453125,0.18951416015625,0.94940185546875,2.22808837890625,-2.9608154296875,0.179443359375,1.0,1.0,1.0,1.0,1.0,85.0,event
14:16:22.323,1.0425831,0.66384,0.31067193,1.1835363,0.6425763,0.6872208,0.33697447,1.0590973,0.59190726,0.83000547,0.64005077,1.0223147,1.0554792,1.0877701,0.7646359,1.2227546,0.97042775,1.0688707,0.85039955,1.0299182,922.71063,826.8132,783.69965,1093.956,717.2161,-0.18731689453125,0.18951416015625,0.94940185546875,2.22808837890625,-2.9608154296875,0.179443359375,1.0,1.0,1.0,1.0,1.0,85.0,event
14:16:22.325,1.0425831,0.66384,0.31067193,1.1835363,0.6425763,0.6872208,0.33697447,1.0590973,0.59190726,0.83000547,0.64005077,1.0223147,1.0554792,1.0877701,0.7646359,1.2227546,0.97042775,1.0688707,0.85039955,1.0299182,898.1319,819.5604,801.02563,1130.6227,837.6923,-0.18731689453125,0.18951416015625,0.94940185546875,2.22808837890625,-2.9608154296875,0.179443359375,1.0,1.0,1.0,1.0,1.0,85.0,event
14:16:22.327,1.0425831,0.66384,0.31067193,1.1835363,0.6425763,0.6872208,0.33697447,1.0590973,0.59190726,0.83000547,0.64005077,1.0223147,1.0554792,1.0877701,0.7646359,1.2227546,0.97042775,1.0688707,0.85039955,1.0299182,832.8571,813.1135,794.57874,809.4872,813.5165,-0.18731689453125,0.18951416015625,0.94940185546875,2.22808837890625,-2.9608154296875,0.179443359375,1.0,1.0,1.0,1.0,1.0,85.0,event
14:16:22.327,1.0425831,0.66384,0.31067193,1.1835363,0.6425763,0.6872208,0.33697447,1.0590973,0.59190726,0.83000547,0.64005077,1.0223147,1.0554792,1.0877701,0.7646359,1.2227546,0.97042775,1.0688707,0.85039955,1.0299182,828.8278,840.10986,787.326,574.9817,745.82416,-0.18731689453125,0.18951416015625,0.94940185546875,2.22808837890625,-2.9608154296875,0.179443359375,1.0,1.0,1.0,1.0,1.0,85.0,event
14:16:22.328,1.0425831,0.66384,0.31067193,1.1835363,0.6425763,0.6872208,0.33697447,1.0590973,0.59190726,0.83000547,0.64005077,1.0223147,1.0554792,1.0877701,0.7646359,1.2227546,0.97042775,1.0688707,0.85039955,1.0299182,889.67035,834.0659,784.10254,694.65204,727.28937,-0.18731689453125,0.18951416015625,0.94940185546875,2.22808837890625,-2.9608154296875,0.179443359375,1.0,1.0,1.0,1.0,1.0,85.0,event
14:16:22.329,1.0425831,0.66384,0.31067193,1.1835363,0.6425763,0.6872208,0.33697447,1.0590973,0.59190726,0.83000547,0.64005077,1.0223147,1.0554792,1.0877701,0.7646359,1.2227546,0.97042775,1.0688707,0.85039955,1.0299182,899.34064,816.7399,788.93774,1027.4725,830.84247,-0.18731689453125,0.18951416015625,0.94940185546875,2.22808837890625,-2.9608154296875,0.179443359375,1.0,1.0,1.0,1.0,1.0,85.0,event
14:16:22.329,1.0425831,0.66384,0.31067193,1.1835363,0.6425763,0.6872208,0.33697447,1.0590973,0.59190726,0.83000547,0.64005077,1.0223147,1.0554792,1.0877701,0.7646359,1.2227546,0.97042775,1.0688707,0.85039955,1.0299182,831.6484,815.5311,785.7143,1133.4432,1025.4579,-0.18731689453125,0.18951416015625,0.94940185546875,2.22808837890625,-2.9608154296875,0.179443359375,1.0,1.0,1.0,1.0,1.0,85.0,event
14:16:22.330,1.0425831,0.66384,0.31067193,1.1835363,0.6425763,0.6872208,0.33697447,1.0590973,0.59190726,0.83000547,0.64005077,1.0223147,1.0554792,1.0877701,0.7646359,1.2227546,0.97042775,1.0688707,0.85039955,1.0299182,784.10254,807.0696,791.3553,825.2015,805.4579,-0.18731689453125,0.18951416015625,0.94940185546875,2.22808837890625,-2.9608154296875,0.179443359375,1.0,1.0,1.0,1.0,1.0,85.0,event
14:16:22.330,1.0425831,0.66384,0.31067193,1.1835363,0.6425763,0.6872208,0.33697447,1.0590973,0.59190726,0.83000547,0.64005077,1.0223147,1.0554792,1.0877701,0.7646359,1.2227546,0.97042775,1.0688707,0.85039955,1.0299182,790.9524,807.47253,795.78754,578.60803,622.1245,-0.18731689453125,0.18951416015625,0.94940185546875,2.22808837890625,-2.9608154296875,0.179443359375,1.0,1.0,1.0,1.0,1.0,85.0,event
14:16:22.331,1.0425831,0.66384,0.31067193,1.1835363,0.6425763,0.6872208,0.33697447,1.0590973,0.59190726,0.83000547,0.64005077,1.0223147,1.0554792,1.0877701,0.7646359,1.2227546,0.97042775,1.0688707,0.85039955,1.0299182,822.7839,802.23444,765.56775,674.90845,746.2271,-0.18731689453125,0.18951416015625,0.94940185546875,2.22808837890625,-2.9608154296875,0.179443359375,1.0,1.0,1.0,1.0,1.0,85.0,event
14:16:22.387,1.0425831,0.66384,0.31067193,1.1835363,0.6425763,0.6872208,0.33697447,1.0590973,0.59190726,0.83000547,0.64005077,1.0223147,1.0554792,1.0877701,0.7646359,1.2227546,0.97042775,1.0688707,0.85039955,1.0299182,890.87915,810.293,777.25275,985.9707,777.25275,-0.1885986328125,0.19110107421875,0.949951171875,1.86920166015625,-3.349609375,0.43365478515625,1.0,1.0,1.0,1.0,1.0,85.0,event
14:16:22.388,1.0425831,0.66384,0.31067193,1.1835363,0.6425763,0.6872208,0.33697447,1.0590973,0.59190726,0.83000547,0.64005077,1.0223147,1.0554792,1.0877701,0.7646359,1.2227546,0.97042775,1.0688707,0.85039955,1.0299182,921.0989,806.6667,819.15753,1169.3041,745.0183,-0.1885986328125,0.19110107421875,0.949951171875,1.86920166015625,-3.349609375,0.43365478515625,1.0,1.0,1.0,1.0,1.0,85.0,event
14:16:22.388,1.0425831,0.66384,0.31067193,1.1835363,0.6425763,0.6872208,0.33697447,1.0590973,0.59190726,0.83000547,0.64005077,1.0223147,1.0554792,1.0877701,0.7646359,1.2227546,0.97042775,1.0688707,0.85039955,1.0299182,849.7802,776.4469,805.05493,899.7436,718.022,-0.1885986328125,0.19110107421875,0.949951171875,1.86920166015625,-3.349609375,0.43365478515625,1.0,1.0,1.0,1.0,1.0,85.0,event
14:16:22.389,1.0425831,0.66384,0.31067193,1.1835363,0.6425763,0.6872208,0.33697447,1.0590973,0.59190726,0.83000547,0.64005077,1.0223147,1.0554792,1.0877701,0.7646359,1.2227546,0.97042775,1.0688707,0.85039955,1.0299182,794.9817,811.0989,789.34064,589.4872,713.5897,-0.1885986328125,0.19110107421875,0.949951171875,1.86920166015625,-3.349609375,0.43365478515625,1.0,1.0,1.0,1.0,1.0,85.0,event
14:16:22.390,1.0425831,0.66384,0.31067193,1.1835363,0.6425763,0.6872208,0.33697447,1.0590973,0.59190726,0.83000547,0.64005077,1.0223147,1.0554792,1.0877701,0.7646359,1.2227546,0.97042775,1.0688707,0.85039955,1.0299182,883.6264,828.8278,803.0403,946.4835,764.7619,-0.1885986328125,0.19110107421875,0.949951171875,1.86920166015625,-3.349609375,0.43365478515625,1.0,1.0,1.0,1.0,1.0,85.0,event
14:16:22.390,1.0425831,0.66384,0.31067193,1.1835363,0.6425763,0.6872208,0.33697447,1.0590973,0.59190726,0.83000547,0.64005077,1.0223147,1.0554792,1.0877701,0.7646359,1.2227546,0.97042775,1.0688707,0.85039955,1.0299182,834.0659,857.03296,813.5165,657.1795,674.5055,-0.1885986328125,0.19110107421875,0.949951171875,1.86920166015625,-3.349609375,0.43365478515625,1.0,1.0,1.0,1.0,1.0,85.0,event
14:16:22.391,1.0425831,0.66384,0.31067193,1.1835363,0.6425763,0.6872208,0.33697447,1.0590973,0.59190726,0.83000547,0.64005077,1.0223147,1.0554792,1.0877701,0.7646359,1.2227546,0.97042775,1.0688707,0.85039955,1.0299182,882.4176,804.65204,778.86444,1140.6959,882.4176,-0.1885986328125,0.19110107421875,0.949951171875,1.86920166015625,-3.349609375,0.43365478515625,1.0,1.0,1.0,1.0,1.0,85.0,event
14:16:22.392,1.0425831,0.68424547,0.32686982,1.1835363,0.6425763,0.6730934,0.33592582,1.0590973,0.59190726,0.82303303,0.6500354,1.0223147,1.0554792,1.0723331,0.7723507,1.2227546,0.97042775,1.0725296,0.8628565,1.0299182,826.0073,811.0989,794.57874,919.0842,965.0183,-0.1885986328125,0.19110107421875,0.949951171875,1.86920166015625,-3.349609375,0.43365478515625,1.0,1.0,1.0,1.0,1.0,85.0,event
14:16:22.396,1.0425831,0.68424547,0.32686982,1.1835363,0.6425763,0.6730934,0.33592582,1.0590973,0.59190726,0.82303303,0.6500354,1.0223147,1.0554792,1.0723331,0.7723507,1.2227546,0.97042775,1.0725296,0.8628565,1.0299182,770.80585,810.293,797.8022,595.5311,924.7253,-0.1885986328125,0.19110107421875,0.949951171875,1.86920166015625,-3.349609375,0.43365478515625,1.0,1.0,1.0,1.0,1.0,85.0,event
14:16:22.397,1.0425831,0.68424547,0.32686982,1.1835363,0.6425763,0.6730934,0.33592582,1.0590973,0.59190726,0.82303303,0.6500354,1.0223147,1.0554792,1.0723331,0.7723507,1.2227546,0.97042775,1.0725296,0.8628565,1.0299182,808.2784,828.022,805.8608,604.7985,714.3956,-0.1885986328125,0.19110107421875,0.949951171875,1.86920166015625,-3.349609375,0.43365478515625,1.0,1.0,1.0,1.0,1.0,85.0,event
14:16:22.398,1.0425831,0.68424547,0.32686982,1.1835363,0.6425763,0.6730934,0.33592582,1.0590973,0.59190726,0.82303303,0.6500354,1.0223147,1.0554792,1.0723331,0.7723507,1.2227546,0.97042775,1.0725296,0.8628565,1.0299182,873.5531,827.2161,799.81683,892.49084,732.1245,-0.1885986328125,0.19110107421875,0.949951171875,1.86920166015625,-3.349609375,0.43365478515625,1.0,1.0,1.0,1.0,1.0,85.0,event
14:16:22.398,1.0425831,0.68424547,0.32686982,1.1835363,0.6425763,0.6730934,0.33592582,1.0590973,0.59190726,0.82303303,0.6500354,1.0223147,1.0554792,1.0723331,0.7723507,1.2227546,0.97042775,1.0725296,0.8628565,1.0299182,878.3883,790.54944,769.19415,1124.9817,823.9927,-0.1885986328125,0.19110107421875,0.949951171875,1.86920166015625,-3.349609375,0.43365478515625,1.0,1.0,1.0,1.0,1.0,85.0,event
14:16:22.427,1.0425831,0.68424547,0.32686982,1.1835363,0.6425763,0.6730934,0.33592582,1.0590973,0.59190726,0.82303303,0.6500354,1.0223147,1.0554792,1.0723331,0.7723507,1.2227546,0.97042775,1.0725296,0.8628565,1.0299182,819.9634,783.2967,772.01465,935.2015,744.61536,-0.18890380859375,0.1864013671875,0.9501953125,1.786956787109375,-3.147735595703125,-0.261688232421875,1.0,1.0,1.0,1.0,1.0,85.0,event
14:16:22.428,1.0425831,0.68424547,0.32686982,1.1835363,0.6425763,0.6730934,0.33592582,1.0590973,0.59190726,0.82303303,0.6500354,1.0223147,1.0554792,1.0723331,0.7723507,1.2227546,0.97042775,1.0725296,0.8628565,1.0299182,787.72894,786.9231,773.22345,641.8681,753.8828,-0.18890380859375,0.1864013671875,0.9501953125,1.786956787109375,-3.147735595703125,-0.261688232421875,1.0,1.0,1.0,1.0,1.0,85.0,event
14:16:22.429,1.0425831,0.68424547,0.32686982,1.1835363,0.6425763,0.6730934,0.33592582,1.0590973,0.59190726,0.82303303,0.6500354,1.0223147,1.0554792,1.0723331,0.7723507,1.2227546,0.97042775,1.0725296,0.8628565,1.0299182,810.293,774.0293,773.22345,630.58606,858.24176,-0.18890380859375,0.1864013671875,0.9501953125,1.786956787109375,-3.147735595703125,-0.261688232421875,1.0,1.0,1.0,1.0,1.0,85.0,event
14:16:22.430,1.0425831,0.68424547,0.32686982,1.1835363,0.6425763,0.6730934,0.33592582,1.0590973,0.59190726,0.82303303,0.6500354,1.0223147,1.0554792,1.0723331,0.7723507,1.2227546,0.97042775,1.0725296,0.8628565,1.0299182,861.06226,777.25275,800.2198,851.39197,945.6777,-0.18890380859375,0.1864013671875,0.9501953125,1.786956787109375,-3.147735595703125,-0.261688232421875,1.0,1.0,1.0,1.0,1.0,85.0,event
14:16:22.431,1.0425831,0.68424547,0.32686982,1.1835363,0.6425763,0.6730934,0.33592582,1.0590973,0.59190726,0.82303303,0.6500354,1.0223147,1.0554792,1.0723331,0.7723507,1.2227546,0.97042775,1.0725296,0.8628565,1.0299182,868.315,797.3993,804.2491,1077.4359,819.5604,-0.18890380859375,0.1864013671875,0.9501953125,1.786956787109375,-3.147735595703125,-0.261688232421875,1.0,1.0,1.0,1.0,1.0,85.0,event
14:16:22.432,1.0425831,0.68424547,0.32686982,1.1835363,0.6425763,0.6730934,0.33592582,1.0590973,0.59190726,0.82303303,0.6500354,1.0223147,1.0554792,1.0723331,0.7723507,1.2227546,0.97042775,1.0725296,0.8628565,1.0299182,796.1905,813.91943,784.10254,929.5604,774.0293,-0.18890380859375,0.1864013671875,0.9501953125,1.786956787109375,-3.147735595703125,-0.261688232421875,1.0,1.0,1.0,1.0,1.0,85.0,event
14:16:22.433,1.0425831,0.68424547,0.32686982,1.1835363,0.6425763,0.6730934,0.33592582,1.0590973,0.59190726,0.82303303,0.6500354,1.0223147,1.0554792,1.0723331,0.7723507,1.2227546,0.97042775,1.0725296,0.8628565,1.0299182,759.12085,817.5458,768.3883,614.87177,867.50916,-0.18890380859375,0.1864013671875,0.9501953125,1.786956787109375,-3.147735595703125,-0.261688232421875,1.0,1.0,1.0,1.0,1.0,85.0,event
14:16:22.434,1.0425831,0.68424547,0.32686982,1.1835363,0.6425763,0.6730934,0.33592582,1.0590973,0.59190726,0.82303303,0.6500354,1.0223147,1.0554792,1.0723331,0.7723507,1.2227546,0.97042775,1.0725296,0.8628565,1.0299182,765.56775,800.2198,761.9414,554.0293,985.9707,-0.18890380859375,0.1864013671875,0.9501953125,1.786956787109375,-3.147735595703125,-0.261688232421875,1.0,1.0,1.0,1.0,1.0,85.0,event
14:16:22.435,1.0425831,0.68424547,0.32686982,1.1835363,0.6425763,0.6730934,0.33592582,1.0590973,0.59190726,0.82303303,0.6500354,1.0223147,1.0554792,1.0723331,0.7723507,1.2227546,0.97042775,1.0725296,0.8628565,1.0299182,828.4249,797.3993,787.326,786.52014,850.18317,-0.18890380859375,0.1864013671875,0.9501953125,1.786956787109375,-3.147735595703125,-0.261688232421875,1.0,1.0,1.0,1.0,1.0,85.0,event
14:16:22.436,1.0425831,0.68424547,0.32686982,1.1835363,0.6425763,0.6730934,0.33592582,1.0590973,0.59190726,0.82303303,0.6500354,1.0223147,1.0554792,1.0723331,0.7723507,1.2227546,0.97042775,1.0725296,0.8628565,1.0299182,880.40295,791.75824,791.75824,1052.0513,712.381,-0.18890380859375,0.1864013671875,0.9501953125,1.786956787109375,-3.147735595703125,-0.261688232421875,1.0,1.0,1.0,1.0,1.0,85.0,event
14:16:22.437,1.0425831,0.68424547,0.32686982,1.1835363,0.6425763,0.6730934,0.33592582,1.0590973,0.59190726,0.82303303,0.6500354,1.0223147,1.0554792,1.0723331,0.7723507,1.2227546,0.97042775,1.0725296,0.8628565,1.0299182,835.2747,787.326,773.6264,993.6264,805.8608,-0.18890380859375,0.1864013671875,0.9501953125,1.786956787109375,-3.147735595703125,-0.261688232421875,1.0,1.0,1.0,1.0,1.0,85.0,event
14:16:22.438,1.0425831,0.68424547,0.32686982,1.1835363,0.6425763,0.6730934,0.33592582,1.0590973,0.59190726,0.82303303,0.6500354,1.0223147,1.0554792,1.0723331,0.7723507,1.2227546,0.97042775,1.0725296,0.8628565,1.0299182,826.8132,829.6337,794.9817,692.6374,815.12823,-0.18890380859375,0.1864013671875,0.9501953125,1.786956787109375,-3.147735595703125,-0.261688232421875,1.0,1.0,1.0,1.0,1.0,85.0,event
14:16:22.485,1.0425831,0.68424547,0.32686982,1.1835363,0.6425763,0.6730934,0.33592582,1.0590973,0.59190726,0.82303303,0.6500354,1.0223147,1.0554792,1.0723331,0.7723507,1.2227546,0.97042775,1.0725296,0.8628565,1.0299182,796.5934,815.5311,790.9524,543.1502,654.7619,-0.18890380859375,0.1864013671875,0.9501953125,1.786956787109375,-3.147735595703125,-0.261688232421875,1.0,1.0,1.0,1.0,1.0,85.0,event
14:16:22.486,1.0425831,0.68424547,0.32686982,1.1835363,0.6425763,0.6730934,0.33592582,1.0590973,0.59190726,0.82303303,0.6500354,1.0223147,1.0554792,1.0723331,0.7723507,1.2227546,0.97042775,1.0725296,0.8628565,1.0299182,766.77655,756.7033,772.8205,729.707,651.9414,-0.18890380859375,0.1864013671875,0.9501953125,1.786956787109375,-3.147735595703125,-0.261688232421875,1.0,1.0,1.0,1.0,1.0,85.0,event
14:16:22.486,1.0425831,0.68424547,0.32686982,1.1835363,0.6425763,0.6730934,0.33592582,1.0590973,0.59190726,0.82303303,0.6500354,1.0223147,1.0554792,1.0723331,0.7723507,1.2227546,0.97042775,1.0725296,0.8628565,1.0299182,817.1429,767.98535,774.43225,1018.60803,788.93774,-0.18890380859375,0.1864013671875,0.9501953125,1.786956787109375,-3.147735595703125,-0.261688232421875,1.0,1.0,1.0,1.0,1.0,85.0,event
14:16:22.487,1.0425831,0.68424547,0.32686982,1.1835363,0.6425763,0.6730934,0.33592582,1.0590973,0.59190726,0.82303303,0.6500354,1.0223147,1.0554792,1.0723331,0.7723507,1.2227546,0.97042775,1.0725296,0.8628565,1.0299182,755.4945,799.81683,792.96704,684.57874,733.3333,-0.18890380859375,0.1864013671875,0.9501953125,1.786956787109375,-3.147735595703125,-0.261688232421875,1.0,1.0,1.0,1.0,1.0,85.0,event
14:16:22.487,1.0425831,0.68424547,0.32686982,1.1835363,0.6425763,0.6730934,0.33592582,1.0590973,0.59190726,0.82303303,0.6500354,1.0223147,1.0554792,1.0723331,0.7723507,1.2227546,0.97042775,1.0725296,0.8628565,1.0299182,806.26373,800.6227,780.87915,1000.4762,792.1612,-0.18890380859375,0.1864013671875,0.9501953125,1.786956787109375,-3.147735595703125,-0.261688232421875,1.0,1.0,1.0,1.0,1.0,85.0,event
14:16:22.488,1.0425831,0.68424547,0.32686982,1.1835363,0.6425763,0.6730934,0.33592582,1.0590973,0.59190726,0.82303303,0.6500354,1.0223147,1.0554792,1.0723331,0.7723507,1.2227546,0.97042775,1.0725296,0.8628565,1.0299182,765.16486,795.78754,788.93774,534.68866,758.71796,-0.18890380859375,0.1864013671875,0.9501953125,1.786956787109375,-3.147735595703125,-0.261688232421875,1.0,1.0,1.0,1.0,1.0,85.0,event
14:16:22.488,1.0425831,0.68424547,0.32686982,1.1835363,0.6425763,0.6730934,0.33592582,1.0590973,0.59190726,0.82303303,0.6500354,1.0223147,1.0554792,1.0723331,0.7723507,1.2227546,0.97042775,1.0725296,0.8628565,1.0299182,805.4579,801.4286,771.2088,725.6777,976.30035,-0.18890380859375,0.1864013671875,0.9501953125,1.786956787109375,-3.147735595703125,-0.261688232421875,1.0,1.0,1.0,1.0,1.0,85.0,event
14:16:22.489,1.0425831,0.68424547,0.32686982,1.1835363,0.6425763,0.6730934,0.33592582,1.0590973,0.59190726,0.82303303,0.6500354,1.0223147,1.0554792,1.0723331,0.7723507,1.2227546,0.97042775,1.0725296,0.8628565,1.0299182,830.4396,792.5641,772.01465,1029.0842,1120.9524,-0.18890380859375,0.1864013671875,0.9501953125,1.786956787109375,-3.147735595703125,-0.261688232421875,1.0,1.0,1.0,1.0,1.0,85.0,event
14:16:22.490,1.0425831,0.68424547,0.32686982,1.1835363,0.6425763,0.6730934,0.33592582,1.0590973,0.59190726,0.82303303,0.6500354,1.0223147,1.0554792,1.0723331,0.7723507,1.2227546,0.97042775,1.0725296,0.8628565,1.0299182,822.7839,785.31134,780.07324,1047.619,844.94507,-0.18890380859375,0.1864013671875,0.9501953125,1.786956787109375,-3.147735595703125,-0.261688232421875,1.0,1.0,1.0,1.0,1.0,85.0,event
14:16:22.490,1.0425831,0.7268127,0.39571923,1.1835363,0.6425763,0.6388471,0.41339633,1.0590973,0.59190726,0.7978802,0.6742413,1.0223147,1.0554792,1.048147,0.7681001,1.2227546,0.97042775,1.0742147,0.8694515,1.0299182,763.95605,823.9927,796.1905,742.6007,758.315,-0.18890380859375,0.1864013671875,0.9501953125,1.786956787109375,-3.147735595703125,-0.261688232421875,1.0,1.0,1.0,1.0,1.0,85.0,event
14:16:22.494,1.0425831,0.7268127,0.39571923,1.1835363,0.6425763,0.6388471,0.41339633,1.0590973,0.59190726,0.7978802,0.6742413,1.0223147,1.0554792,1.048147,0.7681001,1.2227546,0.97042775,1.0742147,0.8694515,1.0299182,752.674,841.31866,811.9048,538.315,829.6337,-0.18890380859375,0.1864013671875,0.9501953125,1.786956787109375,-3.147735595703125,-0.261688232421875,1.0,1.0,1.0,1.0,1.0,85.0,event
14:16:22.495,1.0425831,0.7268127,0.39571923,1.1835363,0.6425763,0.6388471,0.41339633,1.0590973,0.59190726,0.7978802,0.6742413,1.0223147,1.0554792,1.048147,0.7681001,1.2227546,0.97042775,1.0742147,0.8694515,1.0299182,823.1868,837.28937,813.1135,670.4762,663.22345,-0.18890380859375,0.1864013671875,0.9501953125,1.786956787109375,-3.147735595703125,-0.261688232421875,1.0,1.0,1.0,1.0,1.0,85.0,event
14:16:22.517,1.0425831,0.7268127,0.39571923,1.1835363,0.6425763,0.6388471,0.41339633,1.0590973,0.59190726,0.7978802,0.6742413,1.0223147,1.0554792,1.048147,0.7681001,1.2227546,0.97042775,1.0742147,0.8694515,1.0299182,868.71796,824.7985,798.60803,999.2674,614.87177,-0.184814453125,0.1949462890625,0.95452880859375,2.549591064453125,-2.788848876953125,0.2093505859375,1.0,1.0,1.0,1.0,1.0,85.0,event
14:16:22.518,1.0425831,0.7268127,0.39571923,1.1835363,0.6425763,0.6388471,0.41339633,1.0590973,0.59190726,0.7978802,0.6742413,1.0223147,1.0554792,1.048147,0.7681001,1.2227546,0.97042775,1.0742147,0.8694515,1.0299182,825.6044,792.5641,784.10254,1077.8389,713.5897,-0.184814453125,0.1949462890625,0.95452880859375,2.549591064453125,-2.788848876953125,0.2093505859375,1.0,1.0,1.0,1.0,1.0,85.0,event
14:16:22.519,1.0425831,0.7268127,0.39571923,1.1835363,0.6425763,0.6388471,0.41339633,1.0590973,0.59190726,0.7978802,0.6742413,1.0223147,1.0554792,1.048147,0.7681001,1.2227546,0.97042775,1.0742147,0.8694515,1.0299182,772.01465,795.78754,800.2198,781.28204,772.4176,-0.184814453125,0.1949462890625,0.95452880859375,2.549591064453125,-2.788848876953125,0.2093505859375,1.0,1.0,1.0,1.0,1.0,85.0,event
14:16:22.520,1.0425831,0.7268127,0.39571923,1.1835363,0.6425763,0.6388471,0.41339633,1.0590973,0.59190726,0.7978802,0.6742413,1.0223147,1.0554792,1.048147,0.7681001,1.2227546,0.97042775,1.0742147,0.8694515,1.0299182,758.71796,799.81683,809.89014,548.7912,760.7326,-0.184814453125,0.1949462890625,0.95452880859375,2.549591064453125,-2.788848876953125,0.2093505859375,1.0,1.0,1.0,1.0,1.0,85.0,event
14:16:22.520,1.0425831,0.7268127,0.39571923,1.1835363,0.6425763,0.6388471,0.41339633,1.0590973,0.59190726,0.7978802,0.6742413,1.0223147,1.0554792,1.048147,0.7681001,1.2227546,0.97042775,1.0742147,0.8694515,1.0299182,788.5348,796.1905,805.05493,650.32965,707.1429,-0.184814453125,0.1949462890625,0.95452880859375,2.549591064453125,-2.788848876953125,0.2093505859375,1.0,1.0,1.0,1.0,1.0,85.0,event
14:16:22.521,1.0425831,0.7268127,0.39571923,1.1835363,0.6425763,0.6388471,0.41339633,1.0590973,0.59190726,0.7978802,0.6742413,1.0223147,1.0554792,1.048147,0.7681001,1.2227546,0.97042775,1.0742147,0.8694515,1.0299182,848.5714,799.81683,784.5055,953.73627,828.022,-0.184814453125,0.1949462890625,0.95452880859375,2.549591064453125,-2.788848876953125,0.2093505859375,1.0,1.0,1.0,1.0,1.0,85.0,event
14:16:22.522,1.0425831,0.7268127,0.39571923,1.1835363,0.6425763,0.6388471,0.41339633,1.0590973,0.59190726,0.7978802,0.6742413,1.0223147,1.0554792,1.048147,0.7681001,1.2227546,0.97042775,1.0742147,0.8694515,1.0299182,854.61536,821.978,776.8498,1118.9377,978.315,-0.184814453125,0.1949462890625,0.95452880859375,2.549591064453125,-2.788848876953125,0.2093505859375,1.0,1.0,1.0,1.0,1.0,85.0,event
14:16:22.523,1.0425831,0.7268127,0.39571923,1.1835363,0.6425763,0.6388471,0.41339633,1.0590973,0.59190726,0.7978802,0.6742413,1.0223147,1.0554792,1.048147,0.7681001,1.2227546,0.97042775,1.0742147,0.8694515,1.0299182,786.1172,840.10986,809.0842,844.1392,807.0696,-0.184814453125,0.1949462890625,0.95452880859375,2.549591064453125,-2.788848876953125,0.2093505859375,1.0,1.0,1.0,1.0,1.0,85.0,event
14:16:22.523,1.0425831,0.7268127,0.39571923,1.1835363,0.6425763,0.6388471,0.41339633,1.0590973,0.59190726,0.7978802,0.6742413,1.0223147,1.0554792,1.048147,0.7681001,1.2227546,0.97042775,1.0742147,0.8694515,1.0299182,755.4945,826.0073,804.65204,540.32965,667.6557,-0.184814453125,0.1949462890625,0.95452880859375,2.549591064453125,-2.788848876953125,0.2093505859375,1.0,1.0,1.0,1.0,1.0,85.0,event
14:16:22.524,1.0425831,0.7268127,0.39571923,1.1835363,0.6425763,0.6388471,0.41339633,1.0590973,0.59190726,0.7978802,0.6742413,1.0223147,1.0554792,1.048147,0.7681001,1.2227546,0.97042775,1.0742147,0.8694515,1.0299182,797.3993,815.5311,770.0,611.2454,734.1392,-0.184814453125,0.1949462890625,0.95452880859375,2.549591064453125,-2.788848876953125,0.2093505859375,1.0,1.0,1.0,1.0,1.0,85.0,event
14:16:22.524,1.0425831,0.7268127,0.39571923,1.1835363,0.6425763,0.6388471,0.41339633,1.0590973,0.59190726,0.7978802,0.6742413,1.0223147,1.0554792,1.048147,0.7681001,1.2227546,0.97042775,1.0742147,0.8694515,1.0299182,848.1685,810.293,777.25275,912.23444,871.9414,-0.184814453125,0.1949462890625,0.95452880859375,2.549591064453125,-2.788848876953125,0.2093505859375,1.0,1.0,1.0,1.0,1.0,85.0,event
14:16:22.525,1.0425831,0.7268127,0.39571923,1.1835363,0.6425763,0.6388471,0.41339633,1.0590973,0.59190726,0.7978802,0.6742413,1.0223147,1.0554792,1.048147,0.7681001,1.2227546,0.97042775,1.0742147,0.8694515,1.0299182,878.7912,835.6777,791.3553,1113.6996,802.6374,-0.184814453125,0.1949462890625,0.95452880859375,2.549591064453125,-2.788848876953125,0.2093505859375,1.0,1.0,1.0,1.0,1.0,85.0,event
14:16:22.584,1.0425831,0.7268127,0.39571923,1.1835363,0.6425763,0.6388471,0.41339633,1.0590973,0.59190726,0.7978802,0.6742413,1.0223147,1.0554792,1.048147,0.7681001,1.2227546,0.97042775,1.0742147,0.8694515,1.0299182,822.381,831.6484,779.2674,872.3443,703.1135,-0.187744140625,0.18695068359375,0.94525146484375,1.846771240234375,-2.34771728515625,0.11962890625,1.0,1.0,1.0,1.0,1.0,85.0,event
14:16:22.585,1.0425831,0.7268127,0.39571923,1.1835363,0.6425763,0.6388471,0.41339633,1.0590973,0.59190726,0.7978802,0.6742413,1.0223147,1.0554792,1.048147,0.7681001,1.2227546,0.97042775,1.0742147,0.8694515,1.0299182,765.9707,801.4286,788.1319,557.25275,779.67035,-0.187744140625,0.18695068359375,0.94525146484375,1.846771240234375,-2.34771728515625,0.11962890625,1.0,1.0,1.0,1.0,1.0,85.0,event
14:16:22.586,1.0425831,0.7268127,0.39571923,1.1835363,0.6425763,0.6388471,0.41339633,1.0590973,0.59190726,0.7978802,0.6742413,1.0223147,1.0554792,1.048147,0.7681001,1.2227546,0.97042775,1.0742147,0.8694515,1.0299182,792.5641,810.696,796.1905,577.8022,797.8022,-0.187744140625,0.18695068359375,0.94525146484375,1.846771240234375,-2.34771728515625,0.11962890625,1.0,1.0,1.0,1.0,1.0,85.0,event
14:16:22.587,1.0425831,0.7268127,0.39571923,1.1835363,0.6425763,0.6388471,0.41339633,1.0590973,0.59190726,0.7978802,0.6742413,1.0223147,1.0554792,1.048147,0.7681001,1.2227546,0.97042775,1.0742147,0.8694515,1.0299182,867.9121,817.9487,813.1135,865.09155,749.45056,-0.187744140625,0.18695068359375,0.94525146484375,1.846771240234375,-2.34771728515625,0.11962890625,1.0,1.0,1.0,1.0,1.0,85.0,event
14:16:22.587,1.0425831,0.7268127,0.39571923,1.1835363,0.6425763,0.6388471,0.41339633,1.0590973,0.59190726,0.7978802,0.6742413,1.0223147,1.0554792,1.048147,0.7681001,1.2227546,0.97042775,1.0742147,0.8694515,1.0299182,875.9707,800.2198,819.9634,1106.8499,788.93774,-0.187744140625,0.18695068359375,0.94525146484375,1.846771240234375,-2.34771728515625,0.11962890625,1.0,1.0,1.0,1.0,1.0,85.0,event
14:16:22.588,1.0425831,0.7268127,0.39571923,1.1835363,0.6425763,0.6388471,0.41339633,1.0590973,0.59190726,0.7978802,0.6742413,1.0223147,1.0554792,1.048147,0.7681001,1.2227546,0.97042775,1.0742147,0.8694515,1.0299182,793.7729,807.8755,787.326,921.50183,900.54944,-0.187744140625,0.18695068359375,0.94525146484375,1.846771240234375,-2.34771728515625,0.11962890625,1.0,1.0,1.0,1.0,1.0,85.0,event
14:16:22.588,1.0425831,0.7268127,0.39571923,1.1835363,0.6425763,0.6388471,0.41339633,1.0590973,0.59190726,0.7978802,0.6742413,1.0223147,1.0554792,1.048147,0.7681001,1.2227546,0.97042775,1.0742147,0.8694515,1.0299182,752.674,813.5165,769.19415,597.1429,872.74725,-0.187744140625,0.18695068359375,0.94525146484375,1.846771240234375,-2.34771728515625,0.11962890625,1.0,1.0,1.0,1.0,1.0,85.0,event
14:16:22.589,1.0425831,0.7268127,0.39571923,1.1835363,0.6425763,0.6388471,0.41339633,1.0590973,0.59190726,0.7978802,0.6742413,1.0223147,1.0554792,1.048147,0.7681001,1.2227546,0.97042775,1.0742147,0.8694515,1.0299182,788.1319,828.8278,796.99634,587.0696,673.2967,-0.187744140625,0.18695068359375,0.94525146484375,1.846771240234375,-2.34771728515625,0.11962890625,1.0,1.0,1.0,1.0,1.0,85.0,event
14:16:22.589,1.0425831,0.7268127,0.39571923,1.1835363,0.6425763,0.6388471,0.41339633,1.0590973,0.59190726,0.7978802,0.6742413,1.0223147,1.0554792,1.048147,0.7681001,1.2227546,0.97042775,1.0742147,0.8694515,1.0299182,841.31866,821.1722,808.2784,822.7839,674.5055,-0.187744140625,0.18695068359375,0.94525146484375,1.846771240234375,-2.34771728515625,0.11962890625,1.0,1.0,1.0,1.0,1.0,85.0,event
14:16:22.590,1.0425831,0.7268127,0.39571923,1.1835363,0.6425763,0.6388471,0.41339633,1.0590973,0.59190726,0.7978802,0.6742413,1.0223147,1.0554792,1.048147,0.7681001,1.2227546,0.97042775,1.0742147,0.8694515,1.0299182,871.53845,790.14655,801.8315,1095.5677,922.71063,-0.187744140625,0.18695068359375,0.94525146484375,1.846771240234375,-2.34771728515625,0.11962890625,1.0,1.0,1.0,1.0,1.0,85.0,event
14:16:22.591,1.0425831,0.7268127,0.39571923,1.1835363,0.6425763,0.6388471,0.41339633,1.0590973,0.59190726,0.7978802,0.6742413,1.0223147,1.0554792,1.048147,0.7681001,1.2227546,0.97042775,1.0742147,0.8694515,1.0299182,824.7985,796.99634,810.293,985.56775,900.54944,-0.187744140625,0.18695068359375,0.94525146484375,1.846771240234375,-2.34771728515625,0.11962890625,1.0,1.0,1.0,1.0,1.0,85.0,event
14:16:22.591,1.0425831,0.73692644,0.4544413,1.1835363,0.6425763,0.61563694,0.52959347,1.0590973,0.59190726,0.7882582,0.70638525,1.0223147,1.0554792,1.046775,0.75695634,1.2227546,0.97042775,1.0677518,0.8777875,1.0299182,772.4176,799.41394,793.36993,641.4652,767.98535,-0.187744140625,0.18695068359375,0.94525146484375,1.846771240234375,-2.34771728515625,0.11962890625,1.0,1.0,1.0,1.0,1.0,85.0,event
14:16:22.618,1.0425831,0.73692644,0.4544413,1.1835363,0.6425763,0.61563694,0.52959347,1.0590973,0.59190726,0.7882582,0.70638525,1.0223147,1.0554792,1.046775,0.75695634,1.2227546,0.97042775,1.0677518,0.8777875,1.0299182,803.0403,807.47253,789.34064,588.68134,786.1172,-0.19244384765625,0.19134521484375,0.9510498046875,2.31781005859375,-3.207550048828125,0.186920166015625,1.0,1.0,1.0,1.0,1.0,85.0,event
14:16:22.619,1.0425831,0.73692644,0.4544413,1.1835363,0.6425763,0.61563694,0.52959347,1.0590973,0.59190726,0.7882582,0.70638525,1.0223147,1.0554792,1.046775,0.75695634,1.2227546,0.97042775,1.0677518,0.8777875,1.0299182,854.61536,800.2198,793.7729,809.89014,894.5055,-0.19244384765625,0.19134521484375,0.9510498046875,2.31781005859375,-3.207550048828125,0.186920166015625,1.0,1.0,1.0,1.0,1.0,85.0,event
14:16:22.620,1.0425831,0.73692644,0.4544413,1.1835363,0.6425763,0.61563694,0.52959347,1.0590973,0.59190726,0.7882582,0.70638525,1.0223147,1.0554792,1.046775,0.75695634,1.2227546,0.97042775,1.0677518,0.8777875,1.0299182,857.8388,798.60803,792.5641,1085.4945,827.2161,-0.19244384765625,0.19134521484375,0.9510498046875,2.31781005859375,-3.207550048828125,0.186920166015625,1.0,1.0,1.0,1.0,1.0,85.0,event
14:16:22.621,1.0425831,0.73692644,0.4544413,1.1835363,0.6425763,0.61563694,0.52959347,1.0590973,0.59190726,0.7882582,0.70638525,1.0223147,1.0554792,1.046775,0.75695634,1.2227546,0.97042775,1.0677518,0.8777875,1.0299182,807.0696,795.38464,784.10254,995.2381,730.10986,-0.19244384765625,0.19134521484375,0.9510498046875,2.31781005859375,-3.207550048828125,0.186920166015625,1.0,1.0,1.0,1.0,1.0,85.0,event
14:16:22.621,1.0425831,0.73692644,0.4544413,1.1835363,0.6425763,0.61563694,0.52959347,1.0590973,0.59190726,0.7882582,0.70638525,1.0223147,1.0554792,1.046775,0.75695634,1.2227546,0.97042775,1.0677518,0.8777875,1.0299182,746.63007,791.75824,783.2967,650.32965,727.6923,-0.19244384765625,0.19134521484375,0.9510498046875,2.31781005859375,-3.207550048828125,0.186920166015625,1.0,1.0,1.0,1.0,1.0,85.0,event
14:16:22.622,1.0425831,0.73692644,0.4544413,1.1835363,0.6425763,0.61563694,0.52959347,1.0590973,0.59190726,0.7882582,0.70638525,1.0223147,1.0554792,1.046775,0.75695634,1.2227546,0.97042775,1.0677518,0.8777875,1.0299182,762.74725,812.71063,782.0879,555.64105,844.5421,-0.19244384765625,0.19134521484375,0.9510498046875,2.31781005859375,-3.207550048828125,0.186920166015625,1.0,1.0,1.0,1.0,1.0,85.0,event
14:16:22.622,1.0425831,0.73692644,0.4544413,1.1835363,0.6425763,0.61563694,0.52959347,1.0590973,0.59190726,0.7882582,0.70638525,1.0223147,1.0554792,1.046775,0.75695634,1.2227546,0.97042775,1.0677518,0.8777875,1.0299182,806.26373,800.2198,774.0293,747.4359,859.85345,-0.19244384765625,0.19134521484375,0.9510498046875,2.31781005859375,-3.207550048828125,0.186920166015625,1.0,1.0,1.0,1.0,1.0,85.0,event
14:16:22.623,1.0425831,0.73692644,0.4544413,1.1835363,0.6425763,0.61563694,0.52959347,1.0590973,0.59190726,0.7882582,0.70638525,1.0223147,1.0554792,1.046775,0.75695634,1.2227546,0.97042775,1.0677518,0.8777875,1.0299182,850.58606,797.3993,804.65204,1049.6337,777.6557,-0.19244384765625,0.19134521484375,0.9510498046875,2.31781005859375,-3.207550048828125,0.186920166015625,1.0,1.0,1.0,1.0,1.0,85.0,event
14:16:22.624,1.0425831,0.73692644,0.4544413,1.1835363,0.6425763,0.61563694,0.52959347,1.0590973,0.59190726,0.7882582,0.70638525,1.0223147,1.0554792,1.046775,0.75695634,1.2227546,0.97042775,1.0677518,0.8777875,1.0299182,828.8278,802.23444,803.44324,1022.6374,823.9927,-0.19244384765625,0.19134521484375,0.9510498046875,2.31781005859375,-3.207550048828125,0.186920166015625,1.0,1.0,1.0,1.0,1.0,85.0,event
14:16:22.624,1.0425831,0.73692644,0.4544413,1.1835363,0.6425763,0.61563694,0.52959347,1.0590973,0.59190726,0.7882582,0.70638525,1.0223147,1.0554792,1.046775,0.75695634,1.2227546,0.97042775,1.0677518,0.8777875,1.0299182,784.10254,817.5458,788.1319,700.696,1025.8608,-0.19244384765625,0.19134521484375,0.9510498046875,2.31781005859375,-3.207550048828125,0.186920166015625,1.0,1.0,1.0,1.0,1.0,85.0,event
14:16:22.625,1.0425831,0.73692644,0.4544413,1.1835363,0.6425763,0.61563694,0.52959347,1.0590973,0.59190726,0.7882582,0.70638525,1.0223147,1.0554792,1.046775,0.75695634,1.2227546,0.97042775,1.0677518,0.8777875,1.0299182,775.64105,847.76556,795.38464,536.30035,797.3993,-0.19244384765625,0.19134521484375,0.9510498046875,2.31781005859375,-3.207550048828125,0.186920166015625,1.0,1.0,1.0,1.0,1.0,85.0,event
14:16:22.626,1.0425831,0.73692644,0.4544413,1.1835363,0.6425763,0.61563694,0.52959347,1.0590973,0.59190726,0.7882582,0.70638525,1.0223147,1.0554792,1.046775,0.75695634,1.2227546,0.97042775,1.0677518,0.8777875,1.0299182,806.6667,819.15753,792.96704,714.3956,594.3223,-0.19244384765625,0.19134521484375,0.9510498046875,2.31781005859375,-3.207550048828125,0.186920166015625,1.0,1.0,1.0,1.0,1.0,85.0,event
14:16:22.651,1.0425831,0.73692644,0.4544413,1.1835363,0.6425763,0.61563694,0.52959347,1.0590973,0.59190726,0.7882582,0.70638525,1.0223147,1.0554792,1.046775,0.75695634,1.2227546,0.97042775,1.0677518,0.8777875,1.0299182,844.5421,781.28204,790.14655,1019.011,745.0183,-0.19244384765625,0.19134521484375,0.9510498046875,2.31781005859375,-3.207550048828125,0.186920166015625,1.0,1.0,1.0,1.0,1.0,85.0,event
14:16:22.652,1.0425831,0.73692644,0.4544413,1.1835363,0.6425763,0.61563694,0.52959347,1.0590973,0.59190726,0.7882582,0.70638525,1.0223147,1.0554792,1.046775,0.75695634,1.2227546,0.97042775,1.0677518,0.8777875,1.0299182,820.7692,797.3993,788.1319,1007.72894,808.68134,-0.19244384765625,0.19134521484375,0.9510498046875,2.31781005859375,-3.207550048828125,0.186920166015625,1.0,1.0,1.0,1.0,1.0,85.0,event
14:16:22.653,1.0425831,0.73692644,0.4544413,1.1835363,0.6425763,0.61563694,0.52959347,1.0590973,0.59190726,0.7882582,0.70638525,1.0223147,1.0554792,1.046775,0.75695634,1.2227546,0.97042775,1.0677518,0.8777875,1.0299182,767.5824,816.337,789.34064,723.663,806.26373,-0.19244384765625,0.19134521484375,0.9510498046875,2.31781005859375,-3.207550048828125,0.186920166015625,1.0,1.0,1.0,1.0,1.0,85.0,event
14:16:22.654,1.0425831,0.73692644,0.4544413,1.1835363,0.6425763,0.61563694,0.52959347,1.0590973,0.59190726,0.7882582,0.70638525,1.0223147,1.0554792,1.046775,0.75695634,1.2227546,0.97042775,1.0677518,0.8777875,1.0299182,756.7033,821.5751,783.69965,519.3773,693.44324,-0.19244384765625,0.19134521484375,0.9510498046875,2.31781005859375,-3.207550048828125,0.186920166015625,1.0,1.0,1.0,1.0,1.0,85.0,event
14:16:22.655,1.0425831,0.73692644,0.4544413,1.1835363,0.6425763,0.61563694,0.52959347,1.0590973,0.59190726,0.7882582,0.70638525,1.0223147,1.0554792,1.046775,0.75695634,1.2227546,0.97042775,1.0677518,0.8777875,1.0299182,806.6667,808.68134,780.07324,663.6264,801.02563,-0.19244384765625,0.19134521484375,0.9510498046875,2.31781005859375,-3.207550048828125,0.186920166015625,1.0,1.0,1.0,1.0,1.0,85.0,event
14:16:22.656,1.0425831,0.73692644,0.4544413,1.1835363,0.6425763,0.61563694,0.52959347,1.0590973,0.59190726,0.7882582,0.70638525,1.0223147,1.0554792,1.046775,0.75695634,1.2227546,0.97042775,1.0677518,0.8777875,1.0299182,854.61536,792.5641,772.8205,1003.69965,921.50183,-0.19244384765625,0.19134521484375,0.9510498046875,2.31781005859375,-3.207550048828125,0.186920166015625,1.0,1.0,1.0,1.0,1.0,85.0,event
14:16:22.657,1.0425831,0.73692644,0.4544413,1.1835363,0.6425763,0.61563694,0.52959347,1.0590973,0.59190726,0.7882582,0.70638525,1.0223147,1.0554792,1.046775,0.75695634,1.2227546,0.97042775,1.0677518,0.8777875,1.0299182,834.87177,791.75824,776.8498,1087.1062,872.74725,-0.19244384765625,0.19134521484375,0.9510498046875,2.31781005859375,-3.207550048828125,0.186920166015625,1.0,1.0,1.0,1.0,1.0,85.0,event
14:16:22.658,1.0425831,0.73692644,0.4544413,1.1835363,0.6425763,0.61563694,0.52959347,1.0590973,0.59190726,0.7882582,0.70638525,1.0223147,1.0554792,1.046775,0.75695634,1.2227546,0.97042775,1.0677518,0.8777875,1.0299182,778.86444,799.011,809.4872,781.28204,758.315,-0.19244384765625,0.19134521484375,0.9510498046875,2.31781005859375,-3.207550048828125,0.186920166015625,1.0,1.0,1.0,1.0,1.0,85.0,event
14:16:22.658,1.0425831,0.73692644,0.4544413,1.1835363,0.6425763,0.61563694,0.52959347,1.0590973,0.59190726,0.7882582,0.70638525,1.0223147,1.0554792,1.046775,0.75695634,1.2227546,0.97042775,1.0677518,0.8777875,1.0299182,787.326,814.7253,820.7692,558.86444,850.989,-0.19244384765625,0.19134521484375,0.9510498046875,2.31781005859375,-3.207550048828125,0.186920166015625,1.0,1.0,1.0,1.0,1.0,85.0,event
14:16:22.659,1.0425831,0.73692644,0.4544413,1.1835363,0.6425763,0.61563694,0.52959347,1.0590973,0.59190726,0.7882582,0.70638525,1.0223147,1.0554792,1.046775,0.75695634,1.2227546,0.97042775,1.0677518,0.8777875,1.0299182,834.0659,823.1868,788.1319,669.2674,931.5751,-0.19244384765625,0.19134521484375,0.9510498046875,2.31781005859375,-3.207550048828125,0.186920166015625,1.0,1.0,1.0,1.0,1.0,85.0,event
14:16:22.660,1.0425831,0.73692644,0.4544413,1.1835363,0.6425763,0.61563694,0.52959347,1.0590973,0.59190726,0.7882582,0.70638525,1.0223147,1.0554792,1.046775,0.75695634,1.2227546,0.97042775,1.0677518,0.8777875,1.0299182,886.4469,811.50183,767.98535,956.9597,743.4066,-0.19244384765625,0.19134521484375,0.9510498046875,2.31781005859375,-3.207550048828125,0.186920166015625,1.0,1.0,1.0,1.0,1.0,85.0,event
14:16:22.661,1.0425831,0.73692644,0.4544413,1.1835363,0.6425763,0.61563694,0.52959347,1.0590973,0.59190726,0.7882582,0.70638525,1.0223147,1.0554792,1.046775,0.75695634,1.2227546,0.97042775,1.0677518,0.8777875,1.0299182,893.2967,815.12823,788.93774,1102.8206,777.25275,-0.19244384765625,0.19134521484375,0.9510498046875,2.31781005859375,-3.207550048828125,0.186920166015625,1.0,1.0,1.0,1.0,1.0,85.0,event
14:16:22.717,1.0425831,0.73692644,0.4544413,1.1835363,0.6425763,0.61563694,0.52959347,1.0590973,0.59190726,0.7882582,0.70638525,1.0223147,1.0554792,1.046775,0.75695634,1.2227546,0.97042775,1.0677518,0.8777875,1.0299182,794.57874,800.2198,792.1612,794.57874,830.0366,-0.190185546875,0.19195556640625,0.9466552734375,2.1533203125,-3.431854248046875,0.94207763671875,1.0,1.0,1.0,1.0,1.0,85.0,event
14:16:22.718,1.0425831,0.7336723,0.4544413,1.1835363,0.6425763,0.52514416,0.52959347,1.0590973,0.59190726,0.7882582,0.70638525,1.0223147,1.0554792,1.0540516,0.75695634,1.2227546,0.97042775,1.0649816,0.8777875,1.0299182,713.9927,787.72894,781.685,486.337,711.978,-0.190185546875,0.19195556640625,0.9466552734375,2.1533203125,-3.431854248046875,0.94207763671875,1.0,1.0,1.0,1.0,1.0,85.0,event
14:16:22.721,1.0425831,0.7336723,0.4544413,1.1835363,0.6425763,0.52514416,0.52959347,1.0590973,0.59190726,0.7882582,0.70638525,1.0223147,1.0554792,1.0540516,0.75695634,1.2227546,0.97042775,1.0649816,0.8777875,1.0299182,753.47986,811.9048,780.4762,585.8608,652.74725,-0.190185546875,0.19195556640625,0.9466552734375,2.1533203125,-3.431854248046875,0.94207763671875,1.0,1.0,1.0,1.0,1.0,85.0,event
14:16:22.721,1.0425831,0.7336723,0.4544413,1.1835363,0.6425763,0.52514416,0.52959347,1.0590973,0.59190726,0.7882582,0.70638525,1.0223147,1.0554792,1.0540516,0.75695634,1.2227546,0.97042775,1.0649816,0.8777875,1.0299182,844.5421,822.7839,784.90845,921.0989,720.4396,-0.190185546875,0.19195556640625,0.9466552734375,2.1533203125,-3.431854248046875,0.94207763671875,1.0,1.0,1.0,1.0,1.0,85.0,event
14:16:22.722,1.0425831,0.7336723,0.4544413,1.1835363,0.6425763,0.52514416,0.52959347,1.0590973,0.59190726,0.7882582,0.70638525,1.0223147,1.0554792,1.0540516,0.75695634,1.2227546,0.97042775,1.0649816,0.8777875,1.0299182,864.2857,817.9487,780.4762,1121.3553,826.4103,-0.190185546875,0.19195556640625,0.9466552734375,2.1533203125,-3.431854248046875,0.94207763671875,1.0,1.0,1.0,1.0,1.0,85.0,event
14:16:22.723,1.0425831,0.7336723,0.4544413,1.1835363,0.6425763,0.52514416,0.52959347,1.0590973,0.59190726,0.7882582,0.70638525,1.0223147,1.0554792,1.0540516,0.75695634,1.2227546,0.97042775,1.0649816,0.8777875,1.0299182,790.54944,804.65204,765.56775,893.2967,844.94507,-0.190185546875,0.19195556640625,0.9466552734375,2.1533203125,-3.431854248046875,0.94207763671875,1.0,1.0,1.0,1.0,1.0,85.0,event
14:16:22.723,1.0425831,0.7336723,0.4544413,1.1835363,0.6425763,0.52514416,0.52959347,1.0590973,0.59190726,0.7882582,0.70638525,1.0223147,1.0554792,1.0540516,0.75695634,1.2227546,0.97042775,1.0649816,0.8777875,1.0299182,748.24176,786.9231,753.0769,589.4872,848.5714,-0.190185546875,0.19195556640625,0.9466552734375,2.1533203125,-3.431854248046875,0.94207763671875,1.0,1.0,1.0,1.0,1.0,85.0,event
14:16:22.724,1.0425831,0.7336723,0.4544413,1.1835363,0.6425763,0.52514416,0.52959347,1.0590973,0.59190726,0.7882582,0.70638525,1.0223147,1.0554792,1.0540516,0.75695634,1.2227546,0.97042775,1.0649816,0.8777875,1.0299182,789.34064,802.23444,748.6447,612.4542,916.26373,-0.190185546875,0.19195556640625,0.9466552734375,2.1533203125,-3.431854248046875,0.94207763671875,1.0,1.0,1.0,1.0,1.0,85.0,event
14:16:22.724,1.0425831,0.7336723,0.4544413,1.1835363,0.6425763,0.52514416,0.52959347,1.0590973,0.59190726,0.7882582,0.70638525,1.0223147,1.0554792,1.0540516,0.75695634,1.2227546,0.97042775,1.0649816,0.8777875,1.0299182,864.68866,829.6337,786.1172,909.81683,1156.0073,-0.190185546875,0.19195556640625,0.9466552734375,2.1533203125,-3.431854248046875,0.94207763671875,1.0,1.0,1.0,1.0,1.0,85.0,event
14:16:22.725,1.0425831,0.7336723,0.4544413,1.1835363,0.6425763,0.52514416,0.52959347,1.0590973,0.59190726,0.7882582,0.70638525,1.0223147,1.0554792,1.0540516,0.75695634,1.2227546,0.97042775,1.0649816,0.8777875,1.0299182,843.73627,822.7839,786.1172,917.47253,762.74725,-0.190185546875,0.19195556640625,0.9466552734375,2.1533203125,-3.431854248046875,0.94207763671875,1.0,1.0,1.0,1.0,1.0,85.0,event
14:16:22.725,1.0425831,0.7336723,0.4544413,1.1835363,0.6425763,0.52514416,0.52959347,1.0590973,0.59190726,0.7882582,0.70638525,1.0223147,1.0554792,1.0540516,0.75695634,1.2227546,0.97042775,1.0649816,0.8777875,1.0299182,772.8205,811.50183,789.7436,588.2784,788.1319,-0.190185546875,0.19195556640625,0.9466552734375,2.1533203125,-3.431854248046875,0.94207763671875,1.0,1.0,1.0,1.0,1.0,85.0,event
14:16:22.725,1.0425831,0.7336723,0.4544413,1.1835363,0.6425763,0.52514416,0.52959347,1.0590973,0.59190726,0.7882582,0.70638525,1.0223147,1.0554792,1.0540516,0.75695634,1.2227546,0.97042775,1.0649816,0.8777875,1.0299182,898.1319,824.7985,796.99634,1129.414,1039.9634,-0.190185546875,0.19195556640625,0.9466552734375,2.1533203125,-3.431854248046875,0.94207763671875,1.0,1.0,1.0,1.0,1.0,85.0,event
14:16:22.759,1.0425831,0.7336723,0.4544413,1.1835363,0.6425763,0.52514416,0.52959347,1.0590973,0.59190726,0.7882582,0.70638525,1.0223147,1.0554792,1.0540516,0.75695634,1.2227546,0.97042775,1.0649816,0.8777875,1.0299182,771.2088,780.07324,768.3883,560.4762,743.00366,-0.19488525390625,0.187744140625,0.94537353515625,2.9010009765625,-2.811279296875,1.09161376953125,1.0,1.0,1.0,1.0,1.0,85.0,event
14:16:22.760,1.0425831,0.7336723,0.4544413,1.1835363,0.6425763,0.52514416,0.52959347,1.0590973,0.59190726,0.7882582,0.70638525,1.0223147,1.0554792,1.0540516,0.75695634,1.2227546,0.97042775,1.0649816,0.8777875,1.0299182,857.03296,787.326,780.4762,844.94507,686.5934,-0.19488525390625,0.187744140625,0.94537353515625,2.9010009765625,-2.811279296875,1.09161376953125,1.0,1.0,1.0,1.0,1.0,85.0,event
14:16:22.761,1.0425831,0.7336723,0.4544413,1.1835363,0.6425763,0.52514416,0.52959347,1.0590973,0.59190726,0.7882582,0.70638525,1.0223147,1.0554792,1.0540516,0.75695634,1.2227546,0.97042775,1.0649816,0.8777875,1.0299182,878.3883,774.0293,781.28204,1116.9231,749.45056,-0.19488525390625,0.187744140625,0.94537353515625,2.9010009765625,-2.811279296875,1.09161376953125,1.0,1.0,1.0,1.0,1.0,85.0,event
14:16:22.761,1.0425831,0.7336723,0.4544413,1.1835363,0.6425763,0.52514416,0.52959347,1.0590973,0.59190726,0.7882582,0.70638525,1.0223147,1.0554792,1.0540516,0.75695634,1.2227546,0.97042775,1.0649816,0.8777875,1.0299182,789.34064,781.685,760.32965,944.0659,846.1539,-0.19488525390625,0.187744140625,0.94537353515625,2.9010009765625,-2.811279296875,1.09161376953125,1.0,1.0,1.0,1.0,1.0,85.0,event
14:16:22.762,1.0425831,0.7336723,0.4544413,1.1835363,0.6425763,0.52514416,0.52959347,1.0590973,0.59190726,0.7882582,0.70638525,1.0223147,1.0554792,1.0540516,0.75695634,1.2227546,0.97042775,1.0649816,0.8777875,1.0299182,751.06226,830.0366,787.72894,604.7985,756.7033,-0.19488525390625,0.187744140625,0.94537353515625,2.9010009765625,-2.811279296875,1.09161376953125,1.0,1.0,1.0,1.0,1.0,85.0,event
14:16:22.762,1.0425831,0.7336723,0.4544413,1.1835363,0.6425763,0.52514416,0.52959347,1.0590973,0.59190726,0.7882582,0.70638525,1.0223147,1.0554792,1.0540516,0.75695634,1.2227546,0.97042775,1.0649816,0.8777875,1.0299182,779.67035,820.7692,807.47253,553.6264,703.91943,-0.19488525390625,0.187744140625,0.94537353515625,2.9010009765625,-2.811279296875,1.09161376953125,1.0,1.0,1.0,1.0,1.0,85.0,event
14:16:22.763,1.0425831,0.7336723,0.4544413,1.1835363,0.6425763,0.52514416,0.52959347,1.0590973,0.59190726,0.7882582,0.70638525,1.0223147,1.0554792,1.0540516,0.75695634,1.2227546,0.97042775,1.0649816,0.8777875,1.0299182,837.6923,799.41394,777.25275,788.5348,771.6117,-0.19488525390625,0.187744140625,0.94537353515625,2.9010009765625,-2.811279296875,1.09161376953125,1.0,1.0,1.0,1.0,1.0,85.0,event
14:16:22.763,1.0425831,0.7336723,0.4544413,1.1835363,0.6425763,0.52514416,0.52959347,1.0590973,0.59190726,0.7882582,0.70638525,1.0223147,1.0554792,1.0540516,0.75695634,1.2227546,0.97042775,1.0649816,0.8777875,1.0299182,879.19415,807.0696,784.10254,1092.3444,974.2857,-0.19488525390625,0.187744140625,0.94537353515625,2.9010009765625,-2.811279296875,1.09161376953125,1.0,1.0,1.0,1.0,1.0,85.0,event
14:16:22.764,1.0425831,0.7336723,0.4544413,1.1835363,0.6425763,0.52514416,0.52959347,1.0590973,0.59190726,0.7882582,0.70638525,1.0223147,1.0554792,1.0540516,0.75695634,1.2227546,0.97042775,1.0649816,0.8777875,1.0299182,814.7253,819.5604,805.8608,1009.34064,1024.249,-0.19488525390625,0.187744140625,0.94537353515625,2.9010009765625,-2.811279296875,1.09161376953125,1.0,1.0,1.0,1.0,1.0,85.0,event
14:16:22.765,1.0425831,0.7336723,0.4544413,1.1835363,0.6425763,0.52514416,0.52959347,1.0590973,0.59190726,0.7882582,0.70638525,1.0223147,1.0554792,1.0540516,0.75695634,1.2227546,0.97042775,1.0649816,0.8777875,1.0299182,739.7802,805.8608,789.7436,625.34796,751.06226,-0.19488525390625,0.187744140625,0.94537353515625,2.9010009765625,-2.811279296875,1.09161376953125,1.0,1.0,1.0,1.0,1.0,85.0,event
14:16:22.765,1.0425831,0.7336723,0.4544413,1.1835363,0.6425763,0.52514416,0.52959347,1.0590973,0.59190726,0.7882582,0.70638525,1.0223147,1.0554792,1.0540516,0.75695634,1.2227546,0.97042775,1.0649816,0.8777875,1.0299182,749.45056,801.02563,793.36993,505.27472,656.3736,-0.19488525390625,0.187744140625,0.94537353515625,2.9010009765625,-2.811279296875,1.09161376953125,1.0,1.0,1.0,1.0,1.0,85.0,event
14:16:22.766,1.0425831,0.7336723,0.4544413,1.1835363,0.6425763,0.52514416,0.52959347,1.0590973,0.59190726,0.7882582,0.70638525,1.0223147,1.0554792,1.0540516,0.75695634,1.2227546,0.97042775,1.0649816,0.8777875,1.0299182,803.44324,820.3663,800.2198,735.34796,855.82416,-0.19488525390625,0.187744140625,0.94537353515625,2.9010009765625,-2.811279296875,1.09161376953125,1.0,1.0,1.0,1.0,1.0,85.0,event
14:16:22.792,1.0425831,0.7336723,0.4544413,1.1835363,0.6425763,0.52514416,0.52959347,1.0590973,0.59190726,0.7882582,0.70638525,1.0223147,1.0554792,1.0540516,0.75695634,1.2227546,0.97042775,1.0649816,0.8777875,1.0299182,854.21246,841.31866,810.293,1057.6923,830.84247,-0.2008056640625,0.1976318359375,0.94415283203125,3.177642822265625,-2.3028564453125,1.42059326171875,1.0,1.0,1.0,1.0,1.0,85.0,event
14:16:22.793,1.0425831,0.7336723,0.4544413,1.1835363,0.6425763,0.52514416,0.52959347,1.0590973,0.59190726,0.7882582,0.70638525,1.0223147,1.0554792,1.0540516,0.75695634,1.2227546,0.97042775,1.0649816,0.8777875,1.0299182,828.4249,828.4249,800.2198,1030.2931,728.49817,-0.2008056640625,0.1976318359375,0.94415283203125,3.177642822265625,-2.3028564453125,1.42059326171875,1.0,1.0,1.0,1.0,1.0,85.0,event
14:16:22.794,1.0425831,0.7336723,0.4544413,1.1835363,0.6425763,0.52514416,0.52959347,1.0590973,0.59190726,0.7882582,0.70638525,1.0223147,1.0554792,1.0540516,0.75695634,1.2227546,0.97042775,1.0649816,0.8777875,1.0299182,777.25275,798.20514,800.6227,690.2198,728.49817,-0.2008056640625,0.1976318359375,0.94415283203125,3.177642822265625,-2.3028564453125,1.42059326171875,1.0,1.0,1.0,1.0,1.0,85.0,event
14:16:22.794,1.0425831,0.7336723,0.4544413,1.1835363,0.6425763,0.52514416,0.52959347,1.0590973,0.59190726,0.7882582,0.70638525,1.0223147,1.0554792,1.0540516,0.75695634,1.2227546,0.97042775,1.0649816,0.8777875,1.0299182,775.64105,791.75824,797.8022,534.68866,705.12823,-0.2008056640625,0.1976318359375,0.94415283203125,3.177642822265625,-2.3028564453125,1.42059326171875,1.0,1.0,1.0,1.0,1.0,85.0,event
14:16:22.798,1.0425831,0.7336723,0.4544413,1.1835363,0.6425763,0.52514416,0.52959347,1.0590973,0.59190726,0.7882582,0.70638525,1.0223147,1.0554792,1.0540516,0.75695634,1.2227546,0.97042775,1.0649816,0.8777875,1.0299182,819.15753,803.0403,789.7436,720.4396,732.1245,-0.2008056640625,0.1976318359375,0.94415283203125,3.177642822265625,-2.3028564453125,1.42059326171875,1.0,1.0,1.0,1.0,1.0,85.0,event
14:16:22.798,1.0425831,0.7336723,0.4544413,1.1835363,0.6425763,0.52514416,0.52959347,1.0590973,0.59190726,0.7882582,0.70638525,1.0223147,1.0554792,1.0540516,0.75695634,1.2227546,0.97042775,1.0649816,0.8777875,1.0299182,867.50916,811.9048,803.8461,1034.7252,876.77655,-0.2008056640625,0.1976318359375,0.94415283203125,3.177642822265625,-2.3028564453125,1.42059326171875,1.0,1.0,1.0,1.0,1.0,85.0,event
14:16:22.799,1.0425831,0.7336723,0.4544413,1.1835363,0.6425763,0.52514416,0.52959347,1.0590973,0.59190726,0.7882582,0.70638525,1.0223147,1.0554792,1.0540516,0.75695634,1.2227546,0.97042775,1.0649816,0.8777875,1.0299182,843.73627,813.5165,813.5165,1074.2124,979.92676,-0.2008056640625,0.1976318359375,0.94415283203125,3.177642822265625,-2.3028564453125,1.42059326171875,1.0,1.0,1.0,1.0,1.0,85.0,event
14:16:22.800,1.0425831,0.7336723,0.4544413,1.1835363,0.6425763,0.52514416,0.52959347,1.0590973,0.59190726,0.7882582,0.70638525,1.0223147,1.0554792,1.0540516,0.75695634,1.2227546,0.97042775,1.0649816,0.8777875,1.0299182,781.28204,821.1722,810.696,765.9707,1104.0293,-0.2008056640625,0.1976318359375,0.94415283203125,3.177642822265625,-2.3028564453125,1.42059326171875,1.0,1.0,1.0,1.0,1.0,85.0,event
14:16:22.801,1.0425831,0.7336723,0.4544413,1.1835363,0.6425763,0.52514416,0.52959347,1.0590973,0.59190726,0.7882582,0.70638525,1.0223147,1.0554792,1.0540516,0.75695634,1.2227546,0.97042775,1.0649816,0.8777875,1.0299182,772.8205,825.2015,826.0073,528.24176,892.8938,-0.2008056640625,0.1976318359375,0.94415283203125,3.177642822265625,-2.3028564453125,1.42059326171875,1.0,1.0,1.0,1.0,1.0,85.0,event
14:16:22.801,1.0425831,0.7336723,0.4544413,1.1835363,0.6425763,0.52514416,0.52959347,1.0590973,0.59190726,0.7882582,0.70638525,1.0223147,1.0554792,1.0540516,0.75695634,1.2227546,0.97042775,1.0649816,0.8777875,1.0299182,804.2491,811.50183,814.3223,666.4469,657.1795,-0.2008056640625,0.1976318359375,0.94415283203125,3.177642822265625,-2.3028564453125,1.42059326171875,1.0,1.0,1.0,1.0,1.0,85.0,event
14:16:22.802,1.0425831,0.7336723,0.4544413,1.1835363,0.6425763,0.52514416,0.52959347,1.0590973,0.59190726,0.7882582,0.70638525,1.0223147,1.0554792,1.0540516,0.75695634,1.2227546,0.97042775,1.0649816,0.8777875,1.0299182,847.3626,801.4286,794.9817,1089.5238,871.53845,-0.2008056640625,0.1976318359375,0.94415283203125,3.177642822265625,-2.3028564453125,1.42059326171875,1.0,1.0,1.0,1.0,1.0,85.0,event
14:16:22.802,1.0425831,0.7336723,0.4544413,1.1835363,0.6425763,0.52514416,0.52959347,1.0590973,0.59190726,0.7882582,0.70638525,1.0223147,1.0554792,1.0540516,0.75695634,1.2227546,0.97042775,1.0649816,0.8777875,1.0299182,847.3626,803.0403,793.36993,997.6557,759.5238,-0.2008056640625,0.1976318359375,0.94415283203125,3.177642822265625,-2.3028564453125,1.42059326171875,1.0,1.0,1.0,1.0,1.0,85.0,event
14:16:22.853,1.0425831,0.7336723,0.4544413,1.1835363,0.6425763,0.52514416,0.52959347,1.0590973,0.59190726,0.7882582,0.70638525,1.0223147,1.0554792,1.0540516,0.75695634,1.2227546,0.97042775,1.0649816,0.8777875,1.0299182,812.3077,812.71063,807.8755,805.05493,813.1135,-0.200439453125,0.19677734375,0.9510498046875,1.89910888671875,-3.6187744140625,1.353302001953125,1.0,1.0,1.0,1.0,1.0,85.0,event
14:16:22.854,1.0425831,0.7336723,0.4544413,1.1835363,0.6425763,0.52514416,0.52959347,1.0590973,0.59190726,0.7882582,0.70638525,1.0223147,1.0554792,1.0540516,0.75695634,1.2227546,0.97042775,1.0649816,0.8777875,1.0299182,801.4286,812.71063,811.0989,576.5934,721.6484,-0.200439453125,0.19677734375,0.9510498046875,1.89910888671875,-3.6187744140625,1.353302001953125,1.0,1.0,1.0,1.0,1.0,85.0,event
14:16:22.855,1.0425831,0.7336723,0.4544413,1.1835363,0.6425763,0.52514416,0.52959347,1.0590973,0.59190726,0.7882582,0.70638525,1.0223147,1.0554792,1.0540516,0.75695634,1.2227546,0.97042775,1.0649816,0.8777875,1.0299182,813.5165,788.93774,805.05493,699.89014,824.3956,-0.200439453125,0.19677734375,0.9510498046875,1.89910888671875,-3.6187744140625,1.353302001953125,1.0,1.0,1.0,1.0,1.0,85.0,event
14:16:22.856,1.0425831,0.7336723,0.4544413,1.1835363,0.6425763,0.52514416,0.52959347,1.0590973,0.59190726,0.7882582,0.70638525,1.0223147,1.0554792,1.0540516,0.75695634,1.2227546,0.97042775,1.0649816,0.8777875,1.0299182,872.3443,803.8461,811.9048,1016.99634,846.55676,-0.200439453125,0.19677734375,0.9510498046875,1.89910888671875,-3.6187744140625,1.353302001953125,1.0,1.0,1.0,1.0,1.0,85.0,event
14:16:22.856,1.0425831,0.7336723,0.4544413,1.1835363,0.6425763,0.52514416,0.52959347,1.0590973,0.59190726,0.7882582,0.70638525,1.0223147,1.0554792,1.0540516,0.75695634,1.2227546,0.97042775,1.0649816,0.8777875,1.0299182,861.06226,807.0696,804.65204,1124.1758,767.5824,-0.200439453125,0.19677734375,0.9510498046875,1.89910888671875,-3.6187744140625,1.353302001953125,1.0,1.0,1.0,1.0,1.0,85.0,event
14:16:22.858,1.0425831,0.7336723,0.4544413,1.1835363,0.6425763,0.52514416,0.52959347,1.0590973,0.59190726,0.7882582,0.70638525,1.0223147,1.0554792,1.0540516,0.75695634,1.2227546,0.97042775,1.0649816,0.8777875,1.0299182,783.2967,784.5055,787.326,864.2857,848.97437,-0.200439453125,0.19677734375,0.9510498046875,1.89910888671875,-3.6187744140625,1.353302001953125,1.0,1.0,1.0,1.0,1.0,85.0,event
14:16:22.858,1.0425831,0.7336723,0.4544413,1.1835363,0.6425763,0.52514416,0.52959347,1.0590973,0.59190726,0.7882582,0.70638525,1.0223147,1.0554792,1.0540516,0.75695634,1.2227546,0.97042775,1.0649816,0.8777875,1.0299182,764.7619,797.8022,802.23444,595.5311,1024.652,-0.200439453125,0.19677734375,0.9510498046875,1.89910888671875,-3.6187744140625,1.353302001953125,1.0,1.0,1.0,1.0,1.0,85.0,event
14:16:22.859,1.0425831,0.7336723,0.4544413,1.1835363,0.6425763,0.52514416,0.52959347,1.0590973,0.59190726,0.7882582,0.70638525,1.0223147,1.0554792,1.0540516,0.75695634,1.2227546,0.97042775,1.0649816,0.8777875,1.0299182,785.7143,797.8022,811.0989,613.2601,934.3956,-0.200439453125,0.19677734375,0.9510498046875,1.89910888671875,-3.6187744140625,1.353302001953125,1.0,1.0,1.0,1.0,1.0,85.0,event
14:16:22.860,1.0425831,0.7336723,0.4544413,1.1835363,0.6425763,0.52514416,0.52959347,1.0590973,0.59190726,0.7882582,0.70638525,1.0223147,1.0554792,1.0540516,0.75695634,1.2227546,0.97042775,1.0649816,0.8777875,1.0299182,839.304,778.46155,787.72894,890.87915,725.2747,-0.200439453125,0.19677734375,0.9510498046875,1.89910888671875,-3.6187744140625,1.353302001953125,1.0,1.0,1.0,1.0,1.0,85.0,event
14:16:22.861,1.0425831,0.7336723,0.4544413,1.1835363,0.6425763,0.52514416,0.52959347,1.0590973,0.59190726,0.7882582,0.70638525,1.0223147,1.0554792,1.0540516,0.75695634,1.2227546,0.97042775,1.0649816,0.8777875,1.0299182,855.0183,804.65204,780.07324,1101.6117,789.7436,-0.200439453125,0.19677734375,0.9510498046875,1.89910888671875,-3.6187744140625,1.353302001953125,1.0,1.0,1.0,1.0,1.0,85.0,event
14:16:22.862,1.0425831,0.7336723,0.4544413,1.1835363,0.6425763,0.52514416,0.52959347,1.0590973,0.59190726,0.7882582,0.70638525,1.0223147,1.0554792,1.0540516,0.75695634,1.2227546,0.97042775,1.0649816,0.8777875,1.0299182,745.42126,811.50183,809.4872,538.71796,671.28204,-0.200439453125,0.19677734375,0.9510498046875,1.89910888671875,-3.6187744140625,1.353302001953125,1.0,1.0,1.0,1.0,1.0,85.0,event
14:16:22.862,1.0425831,0.7336723,0.4544413,1.1835363,0.6425763,0.52514416,0.52959347,1.0590973,0.59190726,0.7882582,0.70638525,1.0223147,1.0554792,1.0540516,0.75695634,1.2227546,0.97042775,1.0649816,0.8777875,1.0299182,782.49084,821.978,791.75824,855.0183,800.2198,-0.200439453125,0.19677734375,0.9510498046875,1.89910888671875,-3.6187744140625,1.353302001953125,1.0,1.0,1.0,1.0,1.0,85.0,event
14:16:22.925,1.0425831,0.7336723,0.4544413,1.1835363,0.6425763,0.52514416,0.52959347,1.0590973,0.59190726,0.7882582,0.70638525,1.0223147,1.0554792,1.0540516,0.75695634,1.2227546,0.97042775,1.0649816,0.8777875,1.0299182,779.2674,819.9634,823.9927,584.65204,667.25275,-0.200439453125,0.19677734375,0.9510498046875,1.89910888671875,-3.6187744140625,1.353302001953125,1.0,1.0,1.0,1.0,1.0,85.0,event
14:16:22.926,1.0425831,0.7336723,0.4544413,1.1835363,0.6425763,0.52514416,0.52959347,1.0590973,0.59190726,0.7882582,0.70638525,1.0223147,1.0554792,1.0540516,0.75695634,1.2227546,0.97042775,1.0649816,0.8777875,1.0299182,856.63007,832.4542,834.87177,902.5641,749.0476,-0.200439453125,0.19677734375,0.9510498046875,1.89910888671875,-3.6187744140625,1.353302001953125,1.0,1.0,1.0,1.0,1.0,85.0,event
14:16:22.927,1.0425831,0.7336723,0.4544413,1.1835363,0.6425763,0.52514416,0.52959347,1.0590973,0.59190726,0.7882582,0.70638525,1.0223147,1.0554792,1.0540516,0.75695634,1.2227546,0.97042775,1.0649816,0.8777875,1.0299182,886.8498,805.05493,817.5458,1144.7252,896.9231,-0.200439453125,0.19677734375,0.9510498046875,1.89910888671875,-3.6187744140625,1.353302001953125,1.0,1.0,1.0,1.0,1.0,85.0,event
14:16:22.927,1.0425831,0.7336723,0.4544413,1.1835363,0.6425763,0.52514416,0.52959347,1.0590973,0.59190726,0.7882582,0.70638525,1.0223147,1.0554792,1.0540516,0.75695634,1.2227546,0.97042775,1.0649816,0.8777875,1.0299182,789.34064,753.8828,787.326,913.8461,823.1868,-0.200439453125,0.19677734375,0.9510498046875,1.89910888671875,-3.6187744140625,1.353302001953125,1.0,1.0,1.0,1.0,1.0,85.0,event
14:16:22.928,1.0425831,0.7336723,0.4544413,1.1835363,0.6425763,0.52514416,0.52959347,1.0590973,0.59190726,0.7882582,0.70638525,1.0223147,1.0554792,1.0540516,0.75695634,1.2227546,0.97042775,1.0649816,0.8777875,1.0299182,745.0183,744.21246,788.93774,571.75824,610.84247,-0.200439453125,0.19677734375,0.9510498046875,1.89910888671875,-3.6187744140625,1.353302001953125,1.0,1.0,1.0,1.0,1.0,85.0,event
14:16:22.928,1.0425831,0.7336723,0.4544413,1.1835363,0.6425763,0.52514416,0.52959347,1.0590973,0.59190726,0.7882582,0.70638525,1.0223147,1.0554792,1.0540516,0.75695634,1.2227546,0.97042775,1.0649816,0.8777875,1.0299182,798.60803,789.34064,803.8461,561.685,758.71796,-0.200439453125,0.19677734375,0.9510498046875,1.89910888671875,-3.6187744140625,1.353302001953125,1.0,1.0,1.0,1.0,1.0,85.0,event
14:16:22.932,1.0425831,0.7336723,0.4544413,1.1835363,0.6425763,0.52514416,0.52959347,1.0590973,0.59190726,0.7882582,0.70638525,1.0223147,1.0554792,1.0540516,0.75695634,1.2227546,0.97042775,1.0649816,0.8777875,1.0299182,844.5421,811.9048,805.8608,814.7253,1042.381,-0.200439453125,0.19677734375,0.9510498046875,1.89910888671875,-3.6187744140625,1.353302001953125,1.0,1.0,1.0,1.0,1.0,85.0,event
14:16:22.933,1.0425831,0.7336723,0.4544413,1.1835363,0.6425763,0.52514416,0.52959347,1.0590973,0.59190726,0.7882582,0.70638525,1.0223147,1.0554792,1.0540516,0.75695634,1.2227546,0.97042775,1.0649816,0.8777875,1.0299182,854.21246,787.72894,802.6374,1063.7362,981.53845,-0.200439453125,0.19677734375,0.9510498046875,1.89910888671875,-3.6187744140625,1.353302001953125,1.0,1.0,1.0,1.0,1.0,85.0,event
14:16:22.933,1.0425831,0.7336723,0.4544413,1.1835363,0.6425763,0.52514416,0.52959347,1.0590973,0.59190726,0.7882582,0.70638525,1.0223147,1.0554792,1.0540516,0.75695634,1.2227546,0.97042775,1.0649816,0.8777875,1.0299182,761.53845,784.10254,790.9524,900.9524,738.97437,-0.200439453125,0.19677734375,0.9510498046875,1.89910888671875,-3.6187744140625,1.353302001953125,1.0,1.0,1.0,1.0,1.0,85.0,event
14:16:22.934,1.0425831,0.7336723,0.4544413,1.1835363,0.6425763,0.52514416,0.52959347,1.0590973,0.59190726,0.7882582,0.70638525,1.0223147,1.0554792,1.0540516,0.75695634,1.2227546,0.97042775,1.0649816,0.8777875,1.0299182,756.30035,781.685,810.293,536.30035,719.2308,-0.200439453125,0.19677734375,0.9510498046875,1.89910888671875,-3.6187744140625,1.353302001953125,1.0,1.0,1.0,1.0,1.0,85.0,event
14:16:22.934,1.0425831,0.7336723,0.4544413,1.1835363,0.6425763,0.52514416,0.52959347,1.0590973,0.59190726,0.7882582,0.70638525,1.0223147,1.0554792,1.0540516,0.75695634,1.2227546,0.97042775,1.0649816,0.8777875,1.0299182,706.337,770.40295,792.96704,568.5348,724.0659,-0.200439453125,0.19677734375,0.9510498046875,1.89910888671875,-3.6187744140625,1.353302001953125,1.0,1.0,1.0,1.0,1.0,85.0,event
14:16:22.935,1.0425831,0.7336723,0.4544413,1.1835363,0.6425763,0.52514416,0.52959347,1.0590973,0.59190726,0.7882582,0.70638525,1.0223147,1.0554792,1.0540516,0.75695634,1.2227546,0.97042775,1.0649816,0.8777875,1.0299182,822.7839,819.15753,821.5751,802.6374,682.96704,-0.200439453125,0.19677734375,0.9510498046875,1.89910888671875,-3.6187744140625,1.353302001953125,1.0,1.0,1.0,1.0,1.0,85.0,event
14:16:22.956,1.0425831,0.7336723,0.4544413,1.1835363,0.6425763,0.52514416,0.52959347,1.0590973,0.59190726,0.7882582,0.70638525,1.0223147,1.0554792,1.0540516,0.75695634,1.2227546,0.97042775,1.0649816,0.8777875,1.0299182,840.9158,791.3553,806.6667,1092.7472,761.13556,-0.19525146484375,0.19287109375,0.949462890625,1.4654541015625,-4.56085205078125,0.16448974609375,1.0,1.0,1.0,1.0,1.0,85.0,event
14:16:22.957,1.0425831,0.7336723,0.4544413,1.1835363,0.6425763,0.52514416,0.52959347,1.0590973,0.59190726,0.7882582,0.70638525,1.0223147,1.0554792,1.0540516,0.75695634,1.2227546,0.97042775,1.0649816,0.8777875,1.0299182,789.34064,787.326,801.8315,984.7619,855.82416,-0.19525146484375,0.19287109375,0.949462890625,1.4654541015625,-4.56085205078125,0.16448974609375,1.0,1.0,1.0,1.0,1.0,85.0,event
14:16:22.957,1.0425831,0.7336723,0.4544413,1.1835363,0.6425763,0.52514416,0.52959347,1.0590973,0.59190726,0.7882582,0.70638525,1.0223147,1.0554792,1.0540516,0.75695634,1.2227546,0.97042775,1.0649816,0.8777875,1.0299182,721.6484,784.10254,808.2784,618.9011,795.78754,-0.19525146484375,0.19287109375,0.949462890625,1.4654541015625,-4.56085205078125,0.16448974609375,1.0,1.0,1.0,1.0,1.0,85.0,event
14:16:22.958,1.0425831,0.7336723,0.4544413,1.1835363,0.6425763,0.52514416,0.52959347,1.0590973,0.59190726,0.7882582,0.70638525,1.0223147,1.0554792,1.0540516,0.75695634,1.2227546,0.97042775,1.0649816,0.8777875,1.0299182,738.5714,786.1172,801.4286,505.67764,680.54944,-0.19525146484375,0.19287109375,0.949462890625,1.4654541015625,-4.56085205078125,0.16448974609375,1.0,1.0,1.0,1.0,1.0,85.0,event
14:16:22.958,1.0425831,0.7336723,0.4544413,1.1835363,0.6425763,0.52514416,0.52959347,1.0590973,0.59190726,0.7882582,0.70638525,1.0223147,1.0554792,1.0540516,0.75695634,1.2227546,0.97042775,1.0649816,0.8777875,1.0299182,819.15753,812.71063,800.2198,739.3773,713.5897,-0.19525146484375,0.19287109375,0.949462890625,1.4654541015625,-4.56085205078125,0.16448974609375,1.0,1.0,1.0,1.0,1.0,85.0,event
14:16:22.959,1.0425831,0.7336723,0.4544413,1.1835363,0.6425763,0.52514416,0.52959347,1.0590973,0.59190726,0.7882582,0.70638525,1.0223147,1.0554792,1.0540516,0.75695634,1.2227546,0.97042775,1.0649816,0.8777875,1.0299182,841.31866,788.1319,803.8461,1039.1575,873.1502,-0.19525146484375,0.19287109375,0.949462890625,1.4654541015625,-4.56085205078125,0.16448974609375,1.0,1.0,1.0,1.0,1.0,85.0,event
14:16:22.960,1.0425831,0.7336723,0.4544413,1.1835363,0.6425763,0.52514416,0.52959347,1.0590973,0.59190726,0.7882582,0.70638525,1.0223147,1.0554792,1.0540516,0.75695634,1.2227546,0.97042775,1.0649816,0.8777875,1.0299182,751.06226,797.3993,801.8315,676.52014,801.8315,-0.19525146484375,0.19287109375,0.949462890625,1.4654541015625,-4.56085205078125,0.16448974609375,1.0,1.0,1.0,1.0,1.0,85.0,event
14:16:22.960,1.0425831,0.7336723,0.4544413,1.1835363,0.6425763,0.52514416,0.52959347,1.0590973,0.59190726,0.7882582,0.70638525,1.0223147,1.0554792,1.0540516,0.75695634,1.2227546,0.97042775,1.0649816,0.8777875,1.0299182,801.4286,790.14655,809.89014,992.4176,903.7729,-0.19525146484375,0.19287109375,0.949462890625,1.4654541015625,-4.56085205078125,0.16448974609375,1.0,1.0,1.0,1.0,1.0,85.0,event
14:16:22.961,1.0425831,0.7336723,0.4544413,1.1835363,0.6425763,0.52514416,0.52959347,1.0590973,0.59190726,0.7882582,0.70638525,1.0223147,1.0554792,1.0540516,0.75695634,1.2227546,0.97042775,1.0649816,0.8777875,1.0299182,805.05493,807.0696,814.3223,695.05493,909.41394,-0.19525146484375,0.19287109375,0.949462890625,1.4654541015625,-4.56085205078125,0.16448974609375,1.0,1.0,1.0,1.0,1.0,85.0,event
14:16:22.961,1.0425831,0.7336723,0.4544413,1.1835363,0.6425763,0.52514416,0.52959347,1.0590973,0.59190726,0.7882582,0.70638525,1.0223147,1.0554792,1.0540516,0.75695634,1.2227546,0.97042775,1.0649816,0.8777875,1.0299182,740.989,784.5055,800.2198,504.8718,724.4689,-0.19525146484375,0.19287109375,0.949462890625,1.4654541015625,-4.56085205078125,0.16448974609375,1.0,1.0,1.0,1.0,1.0,85.0,event
14:16:22.962,1.0425831,0.7336723,0.4544413,1.1835363,0.6425763,0.52514416,0.52959347,1.0590973,0.59190726,0.7882582,0.70638525,1.0223147,1.0554792,1.0540516,0.75695634,1.2227546,0.97042775,1.0649816,0.8777875,1.0299182,858.6447,816.7399,821.5751,1028.2784,971.06226,-0.19525146484375,0.19287109375,0.949462890625,1.4654541015625,-4.56085205078125,0.16448974609375,1.0,1.0,1.0,1.0,1.0,85.0,event
14:16:22.962,1.0425831,0.7336723,0.4544413,1.1835363,0.6425763,0.52514416,0.52959347,1.0590973,0.59190726,0.7882582,0.70638525,1.0223147,1.0554792,1.0540516,0.75695634,1.2227546,0.97042775,1.0649816,0.8777875,1.0299182,817.1429,815.9341,808.2784,1020.6227,749.85345,-0.19525146484375,0.19287109375,0.949462890625,1.4654541015625,-4.56085205078125,0.16448974609375,1.0,1.0,1.0,1.0,1.0,85.0,event
14:16:22.987,1.0425831,0.7336723,0.4544413,1.1835363,0.6425763,0.52514416,0.52959347,1.0590973,0.59190726,0.7882582,0.70638525,1.0223147,1.0554792,1.0540516,0.75695634,1.2227546,0.97042775,1.0649816,0.8777875,1.0299182,767.98535,843.3333,817.5458,713.5897,676.1172,-0.184814453125,0.18951416015625,0.9534912109375,1.682281494140625,-4.486083984375,-0.43365478515625,1.0,1.0,1.0,1.0,1.0,85.0,event
14:16:22.988,1.0425831,0.7336723,0.4544413,1.1835363,0.6425763,0.52514416,0.52959347,1.0590973,0.59190726,0.7882582,0.70638525,1.0223147,1.0554792,1.0540516,0.75695634,1.2227546,0.97042775,1.0649816,0.8777875,1.0299182,762.74725,853.00366,828.8278,533.8828,677.326,-0.184814453125,0.18951416015625,0.9534912109375,1.682281494140625,-4.486083984375,-0.43365478515625,1.0,1.0,1.0,1.0,1.0,85.0,event
14:16:22.989,1.0425831,0.7336723,0.4544413,1.1835363,0.6425763,0.52514416,0.52959347,1.0590973,0.59190726,0.7882582,0.70638525,1.0223147,1.0554792,1.0540516,0.75695634,1.2227546,0.97042775,1.0649816,0.8777875,1.0299182,800.6227,831.6484,807.8755,678.5348,670.87915,-0.184814453125,0.18951416015625,0.9534912109375,1.682281494140625,-4.486083984375,-0.43365478515625,1.0,1.0,1.0,1.0,1.0,85.0,event
14:16:22.990,1.0425831,0.7336723,0.4544413,1.1835363,0.6425763,0.52514416,0.52959347,1.0590973,0.59190726,0.7882582,0.70638525,1.0223147,1.0554792,1.0540516,0.75695634,1.2227546,0.97042775,1.0649816,0.8777875,1.0299182,832.4542,828.022,795.38464,997.6557,656.3736,-0.184814453125,0.18951416015625,0.9534912109375,1.682281494140625,-4.486083984375,-0.43365478515625,1.0,1.0,1.0,1.0,1.0,85.0,event
14:16:22.991,1.0425831,0.7336723,0.4544413,1.1835363,0.6425763,0.52514416,0.52959347,1.0590973,0.59190726,0.7882582,0.70638525,1.0223147,1.0554792,1.0540516,0.75695634,1.2227546,0.97042775,1.0649816,0.8777875,1.0299182,815.9341,810.293,770.80585,1056.0806,738.97437,-0.184814453125,0.18951416015625,0.9534912109375,1.682281494140625,-4.486083984375,-0.43365478515625,1.0,1.0,1.0,1.0,1.0,85.0,event
14:16:22.991,1.0425831,0.7336723,0.4544413,1.1835363,0.6425763,0.52514416,0.52959347,1.0590973,0.59190726,0.7882582,0.70638525,1.0223147,1.0554792,1.0540516,0.75695634,1.2227546,0.97042775,1.0649816,0.8777875,1.0299182,759.92676,806.26373,766.3736,743.8095,852.6007,-0.184814453125,0.18951416015625,0.9534912109375,1.682281494140625,-4.486083984375,-0.43365478515625,1.0,1.0,1.0,1.0,1.0,85.0,event
14:16:22.992,1.0425831,0.7336723,0.4544413,1.1835363,0.6425763,0.52514416,0.52959347,1.0590973,0.59190726,0.7882582,0.70638525,1.0223147,1.0554792,1.0540516,0.75695634,1.2227546,0.97042775,1.0649816,0.8777875,1.0299182,738.5714,811.50183,801.02563,520.18317,785.7143,-0.184814453125,0.18951416015625,0.9534912109375,1.682281494140625,-4.486083984375,-0.43365478515625,1.0,1.0,1.0,1.0,1.0,85.0,event
14:16:22.993,1.0425831,0.7336723,0.4544413,1.1835363,0.6425763,0.52514416,0.52959347,1.0590973,0.59190726,0.7882582,0.70638525,1.0223147,1.0554792,1.0540516,0.75695634,1.2227546,0.97042775,1.0649816,0.8777875,1.0299182,792.96704,810.293,813.5165,637.4359,693.44324,-0.184814453125,0.18951416015625,0.9534912109375,1.682281494140625,-4.486083984375,-0.43365478515625,1.0,1.0,1.0,1.0,1.0,85.0,event
14:16:22.996,1.0425831,0.7336723,0.4544413,1.1835363,0.6425763,0.52514416,0.52959347,1.0590973,0.59190726,0.7882582,0.70638525,1.0223147,1.0554792,1.0540516,0.75695634,1.2227546,0.97042775,1.0649816,0.8777875,1.0299182,842.9304,798.20514,797.3993,954.5421,830.84247,-0.184814453125,0.18951416015625,0.9534912109375,1.682281494140625,-4.486083984375,-0.43365478515625,1.0,1.0,1.0,1.0,1.0,85.0,event
14:16:22.997,1.0425831,0.7336723,0.4544413,1.1835363,0.6425763,0.52514416,0.52959347,1.0590973,0.59190726,0.7882582,0.70638525,1.0223147,1.0554792,1.0540516,0.75695634,1.2227546,0.97042775,1.0649816,0.8777875,1.0299182,817.5458,784.10254,784.10254,1077.033,1133.8462,-0.184814453125,0.18951416015625,0.9534912109375,1.682281494140625,-4.486083984375,-0.43365478515625,1.0,1.0,1.0,1.0,1.0,85.0,event
14:16:23.000,1.0425831,0.7336723,0.4544413,1.1835363,0.6425763,0.52514416,0.52959347,1.0590973,0.59190726,0.7882582,0.70638525,1.0223147,1.0554792,1.0540516,0.75695634,1.2227546,0.97042775,1.0649816,0.8777875,1.0299182,765.56775,816.337,800.2198,778.46155,891.685,-0.184814453125,0.18951416015625,0.9534912109375,1.682281494140625,-4.486083984375,-0.43365478515625,1.0,1.0,1.0,1.0,1.0,85.0,event
14:16:23.001,1.0425831,0.7336723,0.4544413,1.1835363,0.6425763,0.52514416,0.52959347,1.0590973,0.59190726,0.7882582,0.70638525,1.0223147,1.0554792,1.0540516,0.75695634,1.2227546,0.97042775,1.0649816,0.8777875,1.0299182,756.7033,827.2161,813.91943,512.52747,587.8755,-0.184814453125,0.18951416015625,0.9534912109375,1.682281494140625,-4.486083984375,-0.43365478515625,1.0,1.0,1.0,1.0,1.0,85.0,event
14:16:23.026,1.0425831,0.7336723,0.4544413,1.1835363,0.6425763,0.52514416,0.52959347,1.0590973,0.59190726,0.7882582,0.70638525,1.0223147,1.0554792,1.0540516,0.75695634,1.2227546,0.97042775,1.0649816,0.8777875,1.0299182,800.6227,801.8315,823.1868,596.337,691.4286,-0.183837890625,0.19061279296875,0.9501953125,2.130889892578125,-3.050537109375,0.411224365234375,1.0,1.0,1.0,1.0,1.0,85.0,event
14:16:23.027,1.0425831,0.7336723,0.4544413,1.1835363,0.6425763,0.52514416,0.52959347,1.0590973,0.59190726,0.7882582,0.70638525,1.0223147,1.0554792,1.0540516,0.75695634,1.2227546,0.97042775,1.0649816,0.8777875,1.0299182,860.65936,817.1429,830.4396,901.3553,768.3883,-0.183837890625,0.19061279296875,0.9501953125,2.130889892578125,-3.050537109375,0.411224365234375,1.0,1.0,1.0,1.0,1.0,85.0,event
14:16:23.028,1.0425831,0.7336723,0.4544413,1.1835363,0.6425763,0.52514416,0.52959347,1.0590973,0.59190726,0.7882582,0.70638525,1.0223147,1.0554792,1.0540516,0.75695634,1.2227546,0.97042775,1.0649816,0.8777875,1.0299182,840.5128,811.50183,807.8755,1070.1831,756.7033,-0.183837890625,0.19061279296875,0.9501953125,2.130889892578125,-3.050537109375,0.411224365234375,1.0,1.0,1.0,1.0,1.0,85.0,event
14:16:23.029,1.0425831,0.7336723,0.4544413,1.1835363,0.6425763,0.52514416,0.52959347,1.0590973,0.59190726,0.7882582,0.70638525,1.0223147,1.0554792,1.0540516,0.75695634,1.2227546,0.97042775,1.0649816,0.8777875,1.0299182,786.9231,823.9927,794.17584,836.4835,755.4945,-0.183837890625,0.19061279296875,0.9501953125,2.130889892578125,-3.050537109375,0.411224365234375,1.0,1.0,1.0,1.0,1.0,85.0,event
14:16:23.030,1.0425831,0.7336723,0.4544413,1.1835363,0.6425763,0.52514416,0.52959347,1.0590973,0.59190726,0.7882582,0.70638525,1.0223147,1.0554792,1.0540516,0.75695634,1.2227546,0.97042775,1.0649816,0.8777875,1.0299182,763.95605,835.2747,784.5055,553.6264,763.1502,-0.183837890625,0.19061279296875,0.9501953125,2.130889892578125,-3.050537109375,0.411224365234375,1.0,1.0,1.0,1.0,1.0,85.0,event
14:16:23.030,1.0425831,0.7336723,0.4544413,1.1835363,0.6425763,0.52514416,0.52959347,1.0590973,0.59190726,0.7882582,0.70638525,1.0223147,1.0554792,1.0540516,0.75695634,1.2227546,0.97042775,1.0649816,0.8777875,1.0299182,779.2674,795.38464,778.86444,578.60803,720.0366,-0.183837890625,0.19061279296875,0.9501953125,2.130889892578125,-3.050537109375,0.411224365234375,1.0,1.0,1.0,1.0,1.0,85.0,event
14:16:23.031,1.0425831,0.7336723,0.4544413,1.1835363,0.6425763,0.52514416,0.52959347,1.0590973,0.59190726,0.7882582,0.70638525,1.0223147,1.0554792,1.0540516,0.75695634,1.2227546,0.97042775,1.0649816,0.8777875,1.0299182,867.50916,849.3773,812.71063,1075.8242,936.0073,-0.183837890625,0.19061279296875,0.9501953125,2.130889892578125,-3.050537109375,0.411224365234375,1.0,1.0,1.0,1.0,1.0,85.0,event
14:16:23.031,1.0425831,0.7336723,0.4544413,1.1835363,0.6425763,0.52514416,0.52959347,1.0590973,0.59190726,0.7882582,0.70638525,1.0223147,1.0554792,1.0540516,0.75695634,1.2227546,0.97042775,1.0649816,0.8777875,1.0299182,841.7216,813.1135,794.57874,855.0183,800.6227,-0.183837890625,0.19061279296875,0.9501953125,2.130889892578125,-3.050537109375,0.411224365234375,1.0,1.0,1.0,1.0,1.0,85.0,event
14:16:23.032,1.0425831,0.7336723,0.4544413,1.1835363,0.6425763,0.52514416,0.52959347,1.0590973,0.59190726,0.7882582,0.70638525,1.0223147,1.0554792,1.0540516,0.75695634,1.2227546,0.97042775,1.0649816,0.8777875,1.0299182,798.20514,813.5165,803.44324,855.0183,970.2564,-0.183837890625,0.19061279296875,0.9501953125,2.130889892578125,-3.050537109375,0.411224365234375,1.0,1.0,1.0,1.0,1.0,85.0,event
14:16:23.032,1.0425831,0.7336723,0.4544413,1.1835363,0.6425763,0.52514416,0.52959347,1.0590973,0.59190726,0.7882582,0.70638525,1.0223147,1.0554792,1.0540516,0.75695634,1.2227546,0.97042775,1.0649816,0.8777875,1.0299182,765.56775,811.0989,811.0989,553.6264,927.9487,-0.183837890625,0.19061279296875,0.9501953125,2.130889892578125,-3.050537109375,0.411224365234375,1.0,1.0,1.0,1.0,1.0,85.0,event
14:16:23.033,1.0425831,0.7336723,0.4544413,1.1835363,0.6425763,0.52514416,0.52959347,1.0590973,0.59190726,0.7882582,0.70638525,1.0223147,1.0554792,1.0540516,0.75695634,1.2227546,0.97042775,1.0649816,0.8777875,1.0299182,784.10254,815.12823,817.5458,560.87915,670.07324,-0.183837890625,0.19061279296875,0.9501953125,2.130889892578125,-3.050537109375,0.411224365234375,1.0,1.0,1.0,1.0,1.0,85.0,event
14:16:23.034,1.0425831,0.7336723,0.4544413,1.1835363,0.6425763,0.52514416,0.52959347,1.0590973,0.59190726,0.7882582,0.70638525,1.0223147,1.0554792,1.0540516,0.75695634,1.2227546,0.97042775,1.0649816,0.8777875,1.0299182,836.08057,770.80585,810.696,819.9634,682.1612,-0.183837890625,0.19061279296875,0.9501953125,2.130889892578125,-3.050537109375,0.411224365234375,1.0,1.0,1.0,1.0,1.0,85.0,event
14:16:23.089,1.0425831,0.7336723,0.4544413,1.1835363,0.6425763,0.52514416,0.52959347,1.0590973,0.59190726,0.7882582,0.70638525,1.0223147,1.0554792,1.0540516,0.75695634,1.2227546,0.97042775,1.0649816,0.8777875,1.0299182,887.6557,785.31134,812.3077,1100.8059,868.315,-0.19635009765625,0.19384765625,0.9486083984375,1.801910400390625,-3.386993408203125,0.785064697265625,1.0,1.0,1.0,1.0,1.0,85.0,event
14:16:23.090,1.0425831,0.7336723,0.4544413,1.1835363,0.6425763,0.52514416,0.52959347,1.0590973,0.59190726,0.7882582,0.70638525,1.0223147,1.0554792,1.0540516,0.75695634,1.2227546,0.97042775,1.0649816,0.8777875,1.0299182,808.2784,824.3956,806.26373,919.89014,735.34796,-0.19635009765625,0.19384765625,0.9486083984375,1.801910400390625,-3.386993408203125,0.785064697265625,1.0,1.0,1.0,1.0,1.0,85.0,event
14:16:23.091,1.0425831,0.7336723,0.4544413,1.1835363,0.6425763,0.52514416,0.52959347,1.0590973,0.59190726,0.7882582,0.70638525,1.0223147,1.0554792,1.0540516,0.75695634,1.2227546,0.97042775,1.0649816,0.8777875,1.0299182,738.97437,823.9927,798.60803,554.43225,673.2967,-0.19635009765625,0.19384765625,0.9486083984375,1.801910400390625,-3.386993408203125,0.785064697265625,1.0,1.0,1.0,1.0,1.0,85.0,event
14:16:23.092,1.0425831,0.7336723,0.4544413,1.1835363,0.6425763,0.52514416,0.52959347,1.0590973,0.59190726,0.7882582,0.70638525,1.0223147,1.0554792,1.0540516,0.75695634,1.2227546,0.97042775,1.0649816,0.8777875,1.0299182,778.0586,823.1868,798.20514,522.6007,743.8095,-0.19635009765625,0.19384765625,0.9486083984375,1.801910400390625,-3.386993408203125,0.785064697265625,1.0,1.0,1.0,1.0,1.0,85.0,event
14:16:23.093,1.0425831,0.7336723,0.4544413,1.1835363,0.6425763,0.52514416,0.52959347,1.0590973,0.59190726,0.7882582,0.70638525,1.0223147,1.0554792,1.0540516,0.75695634,1.2227546,0.97042775,1.0649816,0.8777875,1.0299182,883.22345,818.3516,801.02563,1086.7032,835.6777,-0.19635009765625,0.19384765625,0.9486083984375,1.801910400390625,-3.386993408203125,0.785064697265625,1.0,1.0,1.0,1.0,1.0,85.0,event
14:16:23.093,1.0425831,0.7336723,0.4544413,1.1835363,0.6425763,0.52514416,0.52959347,1.0590973,0.59190726,0.7882582,0.70638525,1.0223147,1.0554792,1.0540516,0.75695634,1.2227546,0.97042775,1.0649816,0.8777875,1.0299182,826.0073,817.1429,796.5934,787.326,789.34064,-0.19635009765625,0.19384765625,0.9486083984375,1.801910400390625,-3.386993408203125,0.785064697265625,1.0,1.0,1.0,1.0,1.0,85.0,event
14:16:23.094,1.0425831,0.7336723,0.4544413,1.1835363,0.6425763,0.52514416,0.52959347,1.0590973,0.59190726,0.7882582,0.70638525,1.0223147,1.0554792,1.0540516,0.75695634,1.2227546,0.97042775,1.0649816,0.8777875,1.0299182,854.21246,790.54944,794.57874,1006.1172,870.7326,-0.19635009765625,0.19384765625,0.9486083984375,1.801910400390625,-3.386993408203125,0.785064697265625,1.0,1.0,1.0,1.0,1.0,85.0,event
14:16:23.095,1.0425831,0.7336723,0.4544413,1.1835363,0.6425763,0.52514416,0.52959347,1.0590973,0.59190726,0.7882582,0.70638525,1.0223147,1.0554792,1.0540516,0.75695634,1.2227546,0.97042775,1.0649816,0.8777875,1.0299182,753.47986,754.68866,786.9231,642.27106,853.8095,-0.19635009765625,0.19384765625,0.9486083984375,1.801910400390625,-3.386993408203125,0.785064697265625,1.0,1.0,1.0,1.0,1.0,85.0,event
14:16:23.096,1.0425831,0.7336723,0.4544413,1.1835363,0.6425763,0.52514416,0.52959347,1.0590973,0.59190726,0.7882582,0.70638525,1.0223147,1.0554792,1.0540516,0.75695634,1.2227546,0.97042775,1.0649816,0.8777875,1.0299182,745.0183,796.1905,815.5311,540.7326,971.8681,-0.19635009765625,0.19384765625,0.9486083984375,1.801910400390625,-3.386993408203125,0.785064697265625,1.0,1.0,1.0,1.0,1.0,85.0,event
14:16:23.096,1.0425831,0.7336723,0.4544413,1.1835363,0.6425763,0.52514416,0.52959347,1.0590973,0.59190726,0.7882582,0.70638525,1.0223147,1.0554792,1.0540516,0.75695634,1.2227546,0.97042775,1.0649816,0.8777875,1.0299182,800.2198,819.5604,815.5311,762.74725,865.89746,-0.19635009765625,0.19384765625,0.9486083984375,1.801910400390625,-3.386993408203125,0.785064697265625,1.0,1.0,1.0,1.0,1.0,85.0,event
14:16:23.100,1.0425831,0.7336723,0.4544413,1.1835363,0.6425763,0.52514416,0.52959347,1.0590973,0.59190726,0.7882582,0.70638525,1.0223147,1.0554792,1.0540516,0.75695634,1.2227546,0.97042775,1.0649816,0.8777875,1.0299182,843.73627,828.4249,795.38464,1049.6337,774.43225,-0.19635009765625,0.19384765625,0.9486083984375,1.801910400390625,-3.386993408203125,0.785064697265625,1.0,1.0,1.0,1.0,1.0,85.0,event
14:16:23.100,1.0425831,0.7336723,0.4544413,1.1835363,0.6425763,0.52514416,0.52959347,1.0590973,0.59190726,0.7882582,0.70638525,1.0223147,1.0554792,1.0540516,0.75695634,1.2227546,0.97042775,1.0649816,0.8777875,1.0299182,838.9011,835.6777,800.2198,1011.75824,826.4103,-0.19635009765625,0.19384765625,0.9486083984375,1.801910400390625,-3.386993408203125,0.785064697265625,1.0,1.0,1.0,1.0,1.0,85.0,event
14:16:23.124,1.0425831,0.7336723,0.4544413,1.1835363,0.6425763,0.52514416,0.52959347,1.0590973,0.59190726,0.7882582,0.70638525,1.0223147,1.0554792,1.0540516,0.75695634,1.2227546,0.97042775,1.0649816,0.8777875,1.0299182,788.93774,809.0842,805.05493,668.0586,735.34796,-0.19635009765625,0.19384765625,0.9486083984375,1.801910400390625,-3.386993408203125,0.785064697265625,1.0,1.0,1.0,1.0,1.0,85.0,event
14:16:23.125,1.0425831,0.7336723,0.4544413,1.1835363,0.6425763,0.52514416,0.52959347,1.0590973,0.59190726,0.7882582,0.70638525,1.0223147,1.0554792,1.0540516,0.75695634,1.2227546,0.97042775,1.0649816,0.8777875,1.0299182,777.6557,784.5055,780.87915,524.21246,649.5238,-0.19635009765625,0.19384765625,0.9486083984375,1.801910400390625,-3.386993408203125,0.785064697265625,1.0,1.0,1.0,1.0,1.0,85.0,event
14:16:23.126,1.0425831,0.7336723,0.4544413,1.1835363,0.6425763,0.52514416,0.52959347,1.0590973,0.59190726,0.7882582,0.70638525,1.0223147,1.0554792,1.0540516,0.75695634,1.2227546,0.97042775,1.0649816,0.8777875,1.0299182,803.0403,784.90845,782.49084,722.8571,767.5824,-0.19635009765625,0.19384765625,0.9486083984375,1.801910400390625,-3.386993408203125,0.785064697265625,1.0,1.0,1.0,1.0,1.0,85.0,event
14:16:23.126,1.0425831,0.7336723,0.4544413,1.1835363,0.6425763,0.52514416,0.52959347,1.0590973,0.59190726,0.7882582,0.70638525,1.0223147,1.0554792,1.0540516,0.75695634,1.2227546,0.97042775,1.0649816,0.8777875,1.0299182,822.381,797.3993,785.7143,1023.8461,964.21246,-0.19635009765625,0.19384765625,0.9486083984375,1.801910400390625,-3.386993408203125,0.785064697265625,1.0,1.0,1.0,1.0,1.0,85.0,event
14:16:23.127,1.0425831,0.7336723,0.4544413,1.1835363,0.6425763,0.52514416,0.52959347,1.0590973,0.59190726,0.7882582,0.70638525,1.0223147,1.0554792,1.0540516,0.75695634,1.2227546,0.97042775,1.0649816,0.8777875,1.0299182,815.9341,817.5458,784.5055,1024.249,866.30035,-0.19635009765625,0.19384765625,0.9486083984375,1.801910400390625,-3.386993408203125,0.785064697265625,1.0,1.0,1.0,1.0,1.0,85.0,event
14:16:23.128,1.0425831,0.7336723,0.4544413,1.1835363,0.6425763,0.52514416,0.52959347,1.0590973,0.59190726,0.7882582,0.70638525,1.0223147,1.0554792,1.0540516,0.75695634,1.2227546,0.97042775,1.0649816,0.8777875,1.0299182,772.4176,789.7436,784.10254,513.3333,798.20514,-0.19635009765625,0.19384765625,0.9486083984375,1.801910400390625,-3.386993408203125,0.785064697265625,1.0,1.0,1.0,1.0,1.0,85.0,event
14:16:23.128,1.0425831,0.7336723,0.4544413,1.1835363,0.6425763,0.52514416,0.52959347,1.0590973,0.59190726,0.7882582,0.70638525,1.0223147,1.0554792,1.0540516,0.75695634,1.2227546,0.97042775,1.0649816,0.8777875,1.0299182,767.98535,809.89014,790.9524,693.0403,819.5604,-0.19635009765625,0.19384765625,0.9486083984375,1.801910400390625,-3.386993408203125,0.785064697265625,1.0,1.0,1.0,1.0,1.0,85.0,event
14:16:23.129,1.0425831,0.7336723,0.4544413,1.1835363,0.6425763,0.52514416,0.52959347,1.0590973,0.59190726,0.7882582,0.70638525,1.0223147,1.0554792,1.0540516,0.75695634,1.2227546,0.97042775,1.0649816,0.8777875,1.0299182,832.8571,803.44324,799.011,705.9341,922.71063,-0.19635009765625,0.19384765625,0.9486083984375,1.801910400390625,-3.386993408203125,0.785064697265625,1.0,1.0,1.0,1.0,1.0,85.0,event
14:16:23.129,1.0425831,0.7336723,0.4544413,1.1835363,0.6425763,0.52514416,0.52959347,1.0590973,0.59190726,0.7882582,0.70638525,1.0223147,1.0554792,1.0540516,0.75695634,1.2227546,0.97042775,1.0649816,0.8777875,1.0299182,867.50916,798.20514,823.1868,1030.2931,1040.7693,-0.19635009765625,0.19384765625,0.9486083984375,1.801910400390625,-3.386993408203125,0.785064697265625,1.0,1.0,1.0,1.0,1.0,85.0,event
14:16:23.130,1.0425831,0.7336723,0.4544413,1.1835363,0.6425763,0.52514416,0.52959347,1.0590973,0.59190726,0.7882582,0.70638525,1.0223147,1.0554792,1.0540516,0.75695634,1.2227546,0.97042775,1.0649816,0.8777875,1.0299182,837.6923,774.0293,824.3956,1063.3334,837.28937,-0.19635009765625,0.19384765625,0.9486083984375,1.801910400390625,-3.386993408203125,0.785064697265625,1.0,1.0,1.0,1.0,1.0,85.0,event
14:16:23.130,1.0425831,0.7336723,0.4544413,1.1835363,0.6425763,0.52514416,0.52959347,1.0590973,0.59190726,0.7882582,0.70638525,1.0223147,1.0554792,1.0540516,0.75695634,1.2227546,0.97042775,1.0649816,0.8777875,1.0299182,760.7326,784.10254,806.26373,737.3626,740.18317,-0.19635009765625,0.19384765625,0.9486083984375,1.801910400390625,-3.386993408203125,0.785064697265625,1.0,1.0,1.0,1.0,1.0,85.0,event
14:16:23.131,1.0425831,0.7336723,0.4544413,1.1835363,0.6425763,0.52514416,0.52959347,1.0590973,0.59190726,0.7882582,0.70638525,1.0223147,1.0554792,1.0540516,0.75695634,1.2227546,0.97042775,1.0649816,0.8777875,1.0299182,736.1539,800.6227,793.36993,514.1392,774.43225,-0.19635009765625,0.19384765625,0.9486083984375,1.801910400390625,-3.386993408203125,0.785064697265625,1.0,1.0,1.0,1.0,1.0,85.0,event
14:16:23.193,1.0425831,0.7336723,0.4544413,1.1835363,0.6425763,0.52514416,0.52959347,1.0590973,0.59190726,0.7882582,0.70638525,1.0223147,1.0554792,1.0540516,0.75695634,1.2227546,0.97042775,1.0649816,0.8777875,1.0299182,788.1319,813.91943,792.1612,657.5824,730.10986,-0.19500732421875,0.188232421875,0.94573974609375,2.100982666015625,-2.729034423828125,-0.007476806640625,1.0,1.0,1.0,1.0,1.0,85.0,event
14:16:23.194,1.0425831,0.7336723,0.4544413,1.1835363,0.6425763,0.52514416,0.52959347,1.0590973,0.59190726,0.7882582,0.70638525,1.0223147,1.0554792,1.0540516,0.75695634,1.2227546,0.97042775,1.0649816,0.8777875,1.0299182,838.49817,792.96704,793.36993,977.1062,699.89014,-0.19500732421875,0.188232421875,0.94573974609375,2.100982666015625,-2.729034423828125,-0.007476806640625,1.0,1.0,1.0,1.0,1.0,85.0,event
14:16:23.194,1.0425831,0.7336723,0.4544413,1.1835363,0.6425763,0.52514416,0.52959347,1.0590973,0.59190726,0.7882582,0.70638525,1.0223147,1.0554792,1.0540516,0.75695634,1.2227546,0.97042775,1.0649816,0.8777875,1.0299182,832.8571,796.5934,791.3553,1088.7179,846.55676,-0.19500732421875,0.188232421875,0.94573974609375,2.100982666015625,-2.729034423828125,-0.007476806640625,1.0,1.0,1.0,1.0,1.0,85.0,event
14:16:23.195,1.0425831,0.7336723,0.4544413,1.1835363,0.6425763,0.52514416,0.52959347,1.0590973,0.59190726,0.7882582,0.70638525,1.0223147,1.0554792,1.0540516,0.75695634,1.2227546,0.97042775,1.0649816,0.8777875,1.0299182,764.7619,801.02563,793.7729,796.99634,879.19415,-0.19500732421875,0.188232421875,0.94573974609375,2.100982666015625,-2.729034423828125,-0.007476806640625,1.0,1.0,1.0,1.0,1.0,85.0,event
14:16:23.196,1.0425831,0.7336723,0.4544413,1.1835363,0.6425763,0.52514416,0.52959347,1.0590973,0.59190726,0.7882582,0.70638525,1.0223147,1.0554792,1.0540516,0.75695634,1.2227546,0.97042775,1.0649816,0.8777875,1.0299182,818.7546,788.1319,771.2088,698.2784,765.9707,-0.19500732421875,0.188232421875,0.94573974609375,2.100982666015625,-2.729034423828125,-0.007476806640625,1.0,1.0,1.0,1.0,1.0,85.0,event
14:16:23.196,1.0425831,0.7336723,0.4544413,1.1835363,0.6425763,0.52514416,0.52959347,1.0590973,0.59190726,0.7882582,0.70638525,1.0223147,1.0554792,1.0540516,0.75695634,1.2227546,0.97042775,1.0649816,0.8777875,1.0299182,753.8828,784.5055,778.0586,534.2857,715.6044,-0.19500732421875,0.188232421875,0.94573974609375,2.100982666015625,-2.729034423828125,-0.007476806640625,1.0,1.0,1.0,1.0,1.0,85.0,event
14:16:23.197,1.0425831,0.7336723,0.4544413,1.1835363,0.6425763,0.52514416,0.52959347,1.0590973,0.59190726,0.7882582,0.70638525,1.0223147,1.0554792,1.0540516,0.75695634,1.2227546,0.97042775,1.0649816,0.8777875,1.0299182,844.5421,777.25275,789.34064,990.80585,897.72894,-0.19500732421875,0.188232421875,0.94573974609375,2.100982666015625,-2.729034423828125,-0.007476806640625,1.0,1.0,1.0,1.0,1.0,85.0,event
14:16:23.197,1.0425831,0.7336723,0.4544413,1.1835363,0.6425763,0.52514416,0.52959347,1.0590973,0.59190726,0.7882582,0.70638525,1.0223147,1.0554792,1.0540516,0.75695634,1.2227546,0.97042775,1.0649816,0.8777875,1.0299182,849.3773,796.99634,810.696,1139.0842,1162.8572,-0.19500732421875,0.188232421875,0.94573974609375,2.100982666015625,-2.729034423828125,-0.007476806640625,1.0,1.0,1.0,1.0,1.0,85.0,event
14:16:23.198,1.0425831,0.7336723,0.4544413,1.1835363,0.6425763,0.52514416,0.52959347,1.0590973,0.59190726,0.7882582,0.70638525,1.0223147,1.0554792,1.0540516,0.75695634,1.2227546,0.97042775,1.0649816,0.8777875,1.0299182,792.1612,809.0842,797.8022,875.56775,1002.0879,-0.19500732421875,0.188232421875,0.94573974609375,2.100982666015625,-2.729034423828125,-0.007476806640625,1.0,1.0,1.0,1.0,1.0,85.0,event
14:16:23.199,1.0425831,0.7336723,0.4544413,1.1835363,0.6425763,0.52514416,0.52959347,1.0590973,0.59190726,0.7882582,0.70638525,1.0223147,1.0554792,1.0540516,0.75695634,1.2227546,0.97042775,1.0649816,0.8777875,1.0299182,747.03296,788.5348,802.23444,517.3626,615.2747,-0.19500732421875,0.188232421875,0.94573974609375,2.100982666015625,-2.729034423828125,-0.007476806640625,1.0,1.0,1.0,1.0,1.0,85.0,event
14:16:23.199,1.0425831,0.7336723,0.4544413,1.1835363,0.6425763,0.52514416,0.52959347,1.0590973,0.59190726,0.7882582,0.70638525,1.0223147,1.0554792,1.0540516,0.75695634,1.2227546,0.97042775,1.0649816,0.8777875,1.0299182,791.3553,781.28204,799.81683,554.43225,630.58606,-0.19500732421875,0.188232421875,0.94573974609375,2.100982666015625,-2.729034423828125,-0.007476806640625,1.0,1.0,1.0,1.0,1.0,85.0,event
14:16:23.200,1.0425831,0.7336723,0.4544413,1.1835363,0.6425763,0.52514416,0.52959347,1.0590973,0.59190726,0.7882582,0.70638525,1.0223147,1.0554792,1.0540516,0.75695634,1.2227546,0.97042775,1.0649816,0.8777875,1.0299182,852.1978,774.0293,794.9817,879.19415,741.79486,-0.19500732421875,0.188232421875,0.94573974609375,2.100982666015625,-2.729034423828125,-0.007476806640625,1.0,1.0,1.0,1.0,1.0,85.0,event
14:16:23.230,1.0425831,0.7336723,0.4544413,1.1835363,0.6425763,0.52514416,0.52959347,1.0590973,0.59190726,0.7882582,0.70638525,1.0223147,1.0554792,1.0540516,0.75695634,1.2227546,0.97042775,1.0649816,0.8777875,1.0299182,869.12085,793.36993,807.8755,1107.2528,728.49817,-0.19171142578125,0.19268798828125,0.95361328125,2.1533203125,-3.30474853515625,0.710296630859375,1.0,1.0,1.0,1.0,1.0,85.0,event
14:16:23.232,1.0425831,0.7336723,0.4544413,1.1835363,0.6425763,0.52514416,0.52959347,1.0590973,0.59190726,0.7882582,0.70638525,1.0223147,1.0554792,1.0540516,0.75695634,1.2227546,0.97042775,1.0649816,0.8777875,1.0299182,763.5531,808.2784,784.5055,568.1319,756.7033,-0.19171142578125,0.19268798828125,0.95361328125,2.1533203125,-3.30474853515625,0.710296630859375,1.0,1.0,1.0,1.0,1.0,85.0,event
14:16:23.232,1.0425831,0.7336723,0.4544413,1.1835363,0.6425763,0.52514416,0.52959347,1.0590973,0.59190726,0.7882582,0.70638525,1.0223147,1.0554792,1.0540516,0.75695634,1.2227546,0.97042775,1.0649816,0.8777875,1.0299182,792.1612,812.71063,796.5934,873.95605,711.978,-0.19171142578125,0.19268798828125,0.95361328125,2.1533203125,-3.30474853515625,0.710296630859375,1.0,1.0,1.0,1.0,1.0,85.0,event
14:16:23.233,1.0425831,0.7336723,0.4544413,1.1835363,0.6425763,0.52514416,0.52959347,1.0590973,0.59190726,0.7882582,0.70638525,1.0223147,1.0554792,1.0540516,0.75695634,1.2227546,0.97042775,1.0649816,0.8777875,1.0299182,795.78754,816.7399,788.1319,597.1429,740.18317,-0.19171142578125,0.19268798828125,0.95361328125,2.1533203125,-3.30474853515625,0.710296630859375,1.0,1.0,1.0,1.0,1.0,85.0,event
14:16:23.234,1.0425831,0.7336723,0.4544413,1.1835363,0.6425763,0.52514416,0.52959347,1.0590973,0.59190726,0.7882582,0.70638525,1.0223147,1.0554792,1.0540516,0.75695634,1.2227546,0.97042775,1.0649816,0.8777875,1.0299182,867.9121,804.2491,825.2015,1146.337,906.99634,-0.19171142578125,0.19268798828125,0.95361328125,2.1533203125,-3.30474853515625,0.710296630859375,1.0,1.0,1.0,1.0,1.0,85.0,event
14:16:23.234,1.0425831,0.7336723,0.4544413,1.1835363,0.6425763,0.52514416,0.52959347,1.0590973,0.59190726,0.7882582,0.70638525,1.0223147,1.0554792,1.0540516,0.75695634,1.2227546,0.97042775,1.0649816,0.8777875,1.0299182,838.49817,823.5897,816.7399,868.71796,750.65936,-0.19171142578125,0.19268798828125,0.95361328125,2.1533203125,-3.30474853515625,0.710296630859375,1.0,1.0,1.0,1.0,1.0,85.0,event
14:16:23.235,1.0425831,0.7336723,0.4544413,1.1835363,0.6425763,0.52514416,0.52959347,1.0590973,0.59190726,0.7882582,0.70638525,1.0223147,1.0554792,1.0540516,0.75695634,1.2227546,0.97042775,1.0649816,0.8777875,1.0299182,799.011,797.3993,808.2784,988.7912,1175.751,-0.19171142578125,0.19268798828125,0.95361328125,2.1533203125,-3.30474853515625,0.710296630859375,1.0,1.0,1.0,1.0,1.0,85.0,event
14:16:23.235,1.0425831,0.7336723,0.4544413,1.1835363,0.6425763,0.52514416,0.52959347,1.0590973,0.59190726,0.7882582,0.70638525,1.0223147,1.0554792,1.0540516,0.75695634,1.2227546,0.97042775,1.0649816,0.8777875,1.0299182,749.85345,809.0842,802.23444,614.87177,1051.2454,-0.19171142578125,0.19268798828125,0.95361328125,2.1533203125,-3.30474853515625,0.710296630859375,1.0,1.0,1.0,1.0,1.0,85.0,event
14:16:23.236,1.0425831,0.7336723,0.4544413,1.1835363,0.6425763,0.52514416,0.52959347,1.0590973,0.59190726,0.7882582,0.70638525,1.0223147,1.0554792,1.0540516,0.75695634,1.2227546,0.97042775,1.0649816,0.8777875,1.0299182,807.47253,817.1429,821.1722,575.78754,677.72894,-0.19171142578125,0.19268798828125,0.95361328125,2.1533203125,-3.30474853515625,0.710296630859375,1.0,1.0,1.0,1.0,1.0,85.0,event
14:16:23.237,1.0425831,0.7336723,0.4544413,1.1835363,0.6425763,0.52514416,0.52959347,1.0590973,0.59190726,0.7882582,0.70638525,1.0223147,1.0554792,1.0540516,0.75695634,1.2227546,0.97042775,1.0649816,0.8777875,1.0299182,848.97437,804.2491,809.89014,849.3773,783.69965,-0.19171142578125,0.19268798828125,0.95361328125,2.1533203125,-3.30474853515625,0.710296630859375,1.0,1.0,1.0,1.0,1.0,85.0,event
14:16:23.237,1.0425831,0.7336723,0.4544413,1.1835363,0.6425763,0.52514416,0.52959347,1.0590973,0.59190726,0.7882582,0.70638525,1.0223147,1.0554792,1.0540516,0.75695634,1.2227546,0.97042775,1.0649816,0.8777875,1.0299182,837.28937,783.2967,780.87915,1102.0146,1017.8022,-0.19171142578125,0.19268798828125,0.95361328125,2.1533203125,-3.30474853515625,0.710296630859375,1.0,1.0,1.0,1.0,1.0,85.0,event
14:16:23.238,1.0425831,0.7336723,0.4544413,1.1835363,0.6425763,0.52514416,0.52959347,1.0590973,0.59190726,0.7882582,0.70638525,1.0223147,1.0554792,1.0540516,0.75695634,1.2227546,0.97042775,1.0649816,0.8777875,1.0299182,792.1612,790.9524,795.38464,963.4066,818.7546,-0.19171142578125,0.19268798828125,0.95361328125,2.1533203125,-3.30474853515625,0.710296630859375,1.0,1.0,1.0,1.0,1.0,85.0,event
14:16:23.292,1.0425831,0.7336723,0.4544413,1.1835363,0.6425763,0.52514416,0.52959347,1.0590973,0.59190726,0.7882582,0.70638525,1.0223147,1.0554792,1.0540516,0.75695634,1.2227546,0.97042775,1.0649816,0.8777875,1.0299182,755.09155,804.2491,803.0403,632.6007,666.8498,-0.1942138671875,0.19622802734375,0.9544677734375,1.831817626953125,-2.863616943359375,0.426177978515625,1.0,1.0,1.0,1.0,1.0,85.0,event
14:16:23.294,1.0425831,0.7336723,0.4544413,1.1835363,0.6425763,0.52514416,0.52959347,1.0590973,0.59190726,0.7882582,0.70638525,1.0223147,1.0554792,1.0540516,0.75695634,1.2227546,0.97042775,1.0649816,0.8777875,1.0299182,791.3553,811.9048,803.8461,569.34064,748.24176,-0.1942138671875,0.19622802734375,0.9544677734375,1.831817626953125,-2.863616943359375,0.426177978515625,1.0,1.0,1.0,1.0,1.0,85.0,event
14:16:23.294,1.0425831,0.7336723,0.4544413,1.1835363,0.6425763,0.52514416,0.52959347,1.0590973,0.59190726,0.7882582,0.70638525,1.0223147,1.0554792,1.0540516,0.75695634,1.2227546,0.97042775,1.0649816,0.8777875,1.0299182,827.619,797.8022,791.3553,792.96704,781.28204,-0.1942138671875,0.19622802734375,0.9544677734375,1.831817626953125,-2.863616943359375,0.426177978515625,1.0,1.0,1.0,1.0,1.0,85.0,event
14:16:23.295,1.0425831,0.7336723,0.4544413,1.1835363,0.6425763,0.52514416,0.52959347,1.0590973,0.59190726,0.7882582,0.70638525,1.0223147,1.0554792,1.0540516,0.75695634,1.2227546,0.97042775,1.0649816,0.8777875,1.0299182,844.94507,799.81683,794.57874,1087.1062,761.53845,-0.1942138671875,0.19622802734375,0.9544677734375,1.831817626953125,-2.863616943359375,0.426177978515625,1.0,1.0,1.0,1.0,1.0,85.0,event
14:16:23.296,1.0425831,0.7336723,0.4544413,1.1835363,0.6425763,0.52514416,0.52959347,1.0590973,0.59190726,0.7882582,0.70638525,1.0223147,1.0554792,1.0540516,0.75695634,1.2227546,0.97042775,1.0649816,0.8777875,1.0299182,758.315,811.9048,819.15753,681.3553,832.4542,-0.1942138671875,0.19622802734375,0.9544677734375,1.831817626953125,-2.863616943359375,0.426177978515625,1.0,1.0,1.0,1.0,1.0,85.0,event
14:16:23.296,1.0425831,0.7336723,0.4544413,1.1835363,0.6425763,0.52514416,0.52959347,1.0590973,0.59190726,0.7882582,0.70638525,1.0223147,1.0554792,1.0540516,0.75695634,1.2227546,0.97042775,1.0649816,0.8777875,1.0299182,819.9634,824.7985,819.5604,1023.44324,750.65936,-0.1942138671875,0.19622802734375,0.9544677734375,1.831817626953125,-2.863616943359375,0.426177978515625,1.0,1.0,1.0,1.0,1.0,85.0,event
14:16:23.297,1.0425831,0.7336723,0.4544413,1.1835363,0.6425763,0.52514416,0.52959347,1.0590973,0.59190726,0.7882582,0.70638525,1.0223147,1.0554792,1.0540516,0.75695634,1.2227546,0.97042775,1.0649816,0.8777875,1.0299182,774.43225,806.26373,815.12823,552.01465,852.6007,-0.1942138671875,0.19622802734375,0.9544677734375,1.831817626953125,-2.863616943359375,0.426177978515625,1.0,1.0,1.0,1.0,1.0,85.0,event
14:16:23.297,1.0425831,0.7336723,0.4544413,1.1835363,0.6425763,0.52514416,0.52959347,1.0590973,0.59190726,0.7882582,0.70638525,1.0223147,1.0554792,1.0540516,0.75695634,1.2227546,0.97042775,1.0649816,0.8777875,1.0299182,842.9304,806.26373,824.3956,767.1795,733.73627,-0.1942138671875,0.19622802734375,0.9544677734375,1.831817626953125,-2.863616943359375,0.426177978515625,1.0,1.0,1.0,1.0,1.0,85.0,event
14:16:23.298,1.0425831,0.7336723,0.4544413,1.1835363,0.6425763,0.52514416,0.52959347,1.0590973,0.59190726,0.7882582,0.70638525,1.0223147,1.0554792,1.0540516,0.75695634,1.2227546,0.97042775,1.0649816,0.8777875,1.0299182,883.22345,807.0696,814.7253,1076.227,718.8278,-0.1942138671875,0.19622802734375,0.9544677734375,1.831817626953125,-2.863616943359375,0.426177978515625,1.0,1.0,1.0,1.0,1.0,85.0,event
14:16:23.298,1.0425831,0.7336723,0.4544413,1.1835363,0.6425763,0.52514416,0.52959347,1.0590973,0.59190726,0.7882582,0.70638525,1.0223147,1.0554792,1.0540516,0.75695634,1.2227546,0.97042775,1.0649816,0.8777875,1.0299182,828.022,823.5897,787.326,1051.6483,879.59705,-0.1942138671875,0.19622802734375,0.9544677734375,1.831817626953125,-2.863616943359375,0.426177978515625,1.0,1.0,1.0,1.0,1.0,85.0,event
14:16:23.299,1.0425831,0.7336723,0.4544413,1.1835363,0.6425763,0.52514416,0.52959347,1.0590973,0.59190726,0.7882582,0.70638525,1.0223147,1.0554792,1.0540516,0.75695634,1.2227546,0.97042775,1.0649816,0.8777875,1.0299182,765.9707,830.4396,787.326,725.2747,1045.2014,-0.1942138671875,0.19622802734375,0.9544677734375,1.831817626953125,-2.863616943359375,0.426177978515625,1.0,1.0,1.0,1.0,1.0,85.0,event
14:16:23.300,1.0425831,0.7336723,0.4544413,1.1835363,0.6425763,0.52514416,0.52959347,1.0590973,0.59190726,0.7882582,0.70638525,1.0223147,1.0554792,1.0540516,0.75695634,1.2227546,0.97042775,1.0649816,0.8777875,1.0299182,757.50916,785.31134,799.011,498.4249,793.7729,-0.1942138671875,0.19622802734375,0.9544677734375,1.831817626953125,-2.863616943359375,0.426177978515625,1.0,1.0,1.0,1.0,1.0,85.0,event
14:16:23.328,1.0425831,0.7336723,0.4544413,1.1835363,0.6425763,0.52514416,0.52959347,1.0590973,0.59190726,0.7882582,0.70638525,1.0223147,1.0554792,1.0540516,0.75695634,1.2227546,0.97042775,1.0649816,0.8777875,1.0299182,794.17584,757.1062,810.696,672.8938,747.4359,-0.19952392578125,0.1845703125,0.94451904296875,1.7047119140625,-2.16827392578125,-0.31402587890625,1.0,1.0,1.0,1.0,1.0,85.0,event
14:16:23.329,1.0425831,0.7336723,0.4544413,1.1835363,0.6425763,0.52514416,0.52959347,1.0590973,0.59190726,0.7882582,0.70638525,1.0223147,1.0554792,1.0540516,0.75695634,1.2227546,0.97042775,1.0649816,0.8777875,1.0299182,832.8571,784.90845,820.7692,1032.7106,937.619,-0.19952392578125,0.1845703125,0.94451904296875,1.7047119140625,-2.16827392578125,-0.31402587890625,1.0,1.0,1.0,1.0,1.0,85.0,event
14:16:23.333,1.0425831,0.7336723,0.4544413,1.1835363,0.6425763,0.52514416,0.52959347,1.0590973,0.59190726,0.7882582,0.70638525,1.0223147,1.0554792,1.0540516,0.75695634,1.2227546,0.97042775,1.0649816,0.8777875,1.0299182,814.3223,831.2454,811.9048,1056.4835,891.685,-0.19952392578125,0.1845703125,0.94451904296875,1.7047119140625,-2.16827392578125,-0.31402587890625,1.0,1.0,1.0,1.0,1.0,85.0,event
14:16:23.334,1.0425831,0.7336723,0.4544413,1.1835363,0.6425763,0.52514416,0.52959347,1.0590973,0.59190726,0.7882582,0.70638525,1.0223147,1.0554792,1.0540516,0.75695634,1.2227546,0.97042775,1.0649816,0.8777875,1.0299182,757.50916,801.02563,790.54944,537.9121,698.2784,-0.19952392578125,0.1845703125,0.94451904296875,1.7047119140625,-2.16827392578125,-0.31402587890625,1.0,1.0,1.0,1.0,1.0,85.0,event
14:16:23.334,1.0425831,0.7336723,0.4544413,1.1835363,0.6425763,0.52514416,0.52959347,1.0590973,0.59190726,0.7882582,0.70638525,1.0223147,1.0554792,1.0540516,0.75695634,1.2227546,0.97042775,1.0649816,0.8777875,1.0299182,762.3443,824.3956,792.96704,737.76556,752.27106,-0.19952392578125,0.1845703125,0.94451904296875,1.7047119140625,-2.16827392578125,-0.31402587890625,1.0,1.0,1.0,1.0,1.0,85.0,event
14:16:23.335,1.0425831,0.7336723,0.4544413,1.1835363,0.6425763,0.52514416,0.52959347,1.0590973,0.59190726,0.7882582,0.70638525,1.0223147,1.0554792,1.0540516,0.75695634,1.2227546,0.97042775,1.0649816,0.8777875,1.0299182,819.15753,809.0842,796.5934,707.1429,852.6007,-0.19952392578125,0.1845703125,0.94451904296875,1.7047119140625,-2.16827392578125,-0.31402587890625,1.0,1.0,1.0,1.0,1.0,85.0,event
14:16:23.336,1.0425831,0.7336723,0.4544413,1.1835363,0.6425763,0.52514416,0.52959347,1.0590973,0.59190726,0.7882582,0.70638525,1.0223147,1.0554792,1.0540516,0.75695634,1.2227546,0.97042775,1.0649816,0.8777875,1.0299182,865.89746,809.0842,807.0696,1034.3224,935.2015,-0.19952392578125,0.1845703125,0.94451904296875,1.7047119140625,-2.16827392578125,-0.31402587890625,1.0,1.0,1.0,1.0,1.0,85.0,event
14:16:23.337,1.0425831,0.7336723,0.4544413,1.1835363,0.6425763,0.52514416,0.52959347,1.0590973,0.59190726,0.7882582,0.70638525,1.0223147,1.0554792,1.0540516,0.75695634,1.2227546,0.97042775,1.0649816,0.8777875,1.0299182,865.4945,832.0513,828.8278,1123.37,840.5128,-0.19952392578125,0.1845703125,0.94451904296875,1.7047119140625,-2.16827392578125,-0.31402587890625,1.0,1.0,1.0,1.0,1.0,85.0,event
14:16:23.338,1.0425831,0.7336723,0.4544413,1.1835363,0.6425763,0.52514416,0.52959347,1.0590973,0.59190726,0.7882582,0.70638525,1.0223147,1.0554792,1.0540516,0.75695634,1.2227546,0.97042775,1.0649816,0.8777875,1.0299182,806.26373,829.6337,819.9634,817.9487,716.4103,-0.19952392578125,0.1845703125,0.94451904296875,1.7047119140625,-2.16827392578125,-0.31402587890625,1.0,1.0,1.0,1.0,1.0,85.0,event
14:16:23.338,1.0425831,0.7336723,0.4544413,1.1835363,0.6425763,0.52514416,0.52959347,1.0590973,0.59190726,0.7882582,0.70638525,1.0223147,1.0554792,1.0540516,0.75695634,1.2227546,0.97042775,1.0649816,0.8777875,1.0299182,752.674,807.8755,800.6227,556.04395,837.6923,-0.19952392578125,0.1845703125,0.94451904296875,1.7047119140625,-2.16827392578125,-0.31402587890625,1.0,1.0,1.0,1.0,1.0,85.0,event
14:16:23.339,1.0425831,0.7336723,0.4544413,1.1835363,0.6425763,0.52514416,0.52959347,1.0590973,0.59190726,0.7882582,0.70638525,1.0223147,1.0554792,1.0540516,0.75695634,1.2227546,0.97042775,1.0649816,0.8777875,1.0299182,789.34064,799.011,815.5311,661.6117,852.1978,-0.19952392578125,0.1845703125,0.94451904296875,1.7047119140625,-2.16827392578125,-0.31402587890625,1.0,1.0,1.0,1.0,1.0,85.0,event
14:16:23.339,1.0425831,0.7336723,0.4544413,1.1835363,0.6425763,0.52514416,0.52959347,1.0590973,0.59190726,0.7882582,0.70638525,1.0223147,1.0554792,1.0540516,0.75695634,1.2227546,0.97042775,1.0649816,0.8777875,1.0299182,850.18317,798.20514,824.3956,974.2857,734.94507,-0.19952392578125,0.1845703125,0.94451904296875,1.7047119140625,-2.16827392578125,-0.31402587890625,1.0,1.0,1.0,1.0,1.0,85.0,event
14:16:23.364,1.0425831,0.7336723,0.4544413,1.1835363,0.6425763,0.52514416,0.52959347,1.0590973,0.59190726,0.7882582,0.70638525,1.0223147,1.0554792,1.0540516,0.75695634,1.2227546,0.97042775,1.0649816,0.8777875,1.0299182,845.34796,819.5604,820.3663,1108.8645,765.56775,-0.19952392578125,0.1845703125,0.94451904296875,1.7047119140625,-2.16827392578125,-0.31402587890625,1.0,1.0,1.0,1.0,1.0,85.0,event
14:16:23.365,1.0425831,0.7336723,0.4544413,1.1835363,0.6425763,0.52514416,0.52959347,1.0590973,0.59190726,0.7882582,0.70638525,1.0223147,1.0554792,1.0540516,0.75695634,1.2227546,0.97042775,1.0649816,0.8777875,1.0299182,787.72894,818.7546,821.1722,830.0366,716.8132,-0.19952392578125,0.1845703125,0.94451904296875,1.7047119140625,-2.16827392578125,-0.31402587890625,1.0,1.0,1.0,1.0,1.0,85.0,event
14:16:23.368,1.0425831,0.7336723,0.4544413,1.1835363,0.6425763,0.52514416,0.52959347,1.0590973,0.59190726,0.7882582,0.70638525,1.0223147,1.0554792,1.0540516,0.75695634,1.2227546,0.97042775,1.0649816,0.8777875,1.0299182,770.0,806.26373,803.8461,554.83514,638.6447,-0.19952392578125,0.1845703125,0.94451904296875,1.7047119140625,-2.16827392578125,-0.31402587890625,1.0,1.0,1.0,1.0,1.0,85.0,event
14:16:23.369,1.0425831,0.7336723,0.4544413,1.1835363,0.6425763,0.52514416,0.52959347,1.0590973,0.59190726,0.7882582,0.70638525,1.0223147,1.0554792,1.0540516,0.75695634,1.2227546,0.97042775,1.0649816,0.8777875,1.0299182,819.5604,819.5604,788.93774,626.9597,647.50916,-0.19952392578125,0.1845703125,0.94451904296875,1.7047119140625,-2.16827392578125,-0.31402587890625,1.0,1.0,1.0,1.0,1.0,85.0,event
14:16:23.370,1.0425831,0.7336723,0.4544413,1.1835363,0.6425763,0.52514416,0.52959347,1.0590973,0.59190726,0.7882582,0.70638525,1.0223147,1.0554792,1.0540516,0.75695634,1.2227546,0.97042775,1.0649816,0.8777875,1.0299182,878.3883,811.50183,800.6227,936.8132,780.87915,-0.19952392578125,0.1845703125,0.94451904296875,1.7047119140625,-2.16827392578125,-0.31402587890625,1.0,1.0,1.0,1.0,1.0,85.0,event
14:16:23.371,1.0425831,0.7336723,0.4544413,1.1835363,0.6425763,0.52514416,0.52959347,1.0590973,0.59190726,0.7882582,0.70638525,1.0223147,1.0554792,1.0540516,0.75695634,1.2227546,0.97042775,1.0649816,0.8777875,1.0299182,863.8828,802.6374,801.02563,1124.9817,973.47986,-0.19952392578125,0.1845703125,0.94451904296875,1.7047119140625,-2.16827392578125,-0.31402587890625,1.0,1.0,1.0,1.0,1.0,85.0,event
14:16:23.373,1.0425831,0.7336723,0.4544413,1.1835363,0.6425763,0.52514416,0.52959347,1.0590973,0.59190726,0.7882582,0.70638525,1.0223147,1.0554792,1.0540516,0.75695634,1.2227546,0.97042775,1.0649816,0.8777875,1.0299182,790.54944,791.3553,796.5934,858.24176,933.5897,-0.19952392578125,0.1845703125,0.94451904296875,1.7047119140625,-2.16827392578125,-0.31402587890625,1.0,1.0,1.0,1.0,1.0,85.0,event
14:16:23.374,1.0425831,0.7336723,0.4544413,1.1835363,0.6425763,0.52514416,0.52959347,1.0590973,0.59190726,0.7882582,0.70638525,1.0223147,1.0554792,1.0540516,0.75695634,1.2227546,0.97042775,1.0649816,0.8777875,1.0299182,765.9707,780.87915,799.81683,541.9414,675.31134,-0.19952392578125,0.1845703125,0.94451904296875,1.7047119140625,-2.16827392578125,-0.31402587890625,1.0,1.0,1.0,1.0,1.0,85.0,event
14:16:23.375,1.0425831,0.7336723,0.4544413,1.1835363,0.6425763,0.52514416,0.52959347,1.0590973,0.59190726,0.7882582,0.70638525,1.0223147,1.0554792,1.0540516,0.75695634,1.2227546,0.97042775,1.0649816,0.8777875,1.0299182,789.7436,802.6374,813.91943,583.0403,659.59705,-0.19952392578125,0.1845703125,0.94451904296875,1.7047119140625,-2.16827392578125,-0.31402587890625,1.0,1.0,1.0,1.0,1.0,85.0,event
14:16:23.376,1.0425831,0.7336723,0.4544413,1.1835363,0.6425763,0.52514416,0.52959347,1.0590973,0.59190726,0.7882582,0.70638525,1.0223147,1.0554792,1.0540516,0.75695634,1.2227546,0.97042775,1.0649816,0.8777875,1.0299182,815.12823,799.41394,809.4872,855.82416,938.8278,-0.19952392578125,0.1845703125,0.94451904296875,1.7047119140625,-2.16827392578125,-0.31402587890625,1.0,1.0,1.0,1.0,1.0,85.0,event
14:16:23.377,1.0425831,0.7336723,0.4544413,1.1835363,0.6425763,0.52514416,0.52959347,1.0590973,0.59190726,0.7882582,0.70638525,1.0223147,1.0554792,1.0540516,0.75695634,1.2227546,0.97042775,1.0649816,0.8777875,1.0299182,829.2308,803.44324,788.5348,1088.7179,848.97437,-0.19952392578125,0.1845703125,0.94451904296875,1.7047119140625,-2.16827392578125,-0.31402587890625,1.0,1.0,1.0,1.0,1.0,85.0,event
14:16:23.378,1.0425831,0.7336723,0.4544413,1.1835363,0.6425763,0.52514416,0.52959347,1.0590973,0.59190726,0.7882582,0.70638525,1.0223147,1.0554792,1.0540516,0.75695634,1.2227546,0.97042775,1.0649816,0.8777875,1.0299182,781.685,817.9487,783.69965,916.6667,702.71063,-0.19952392578125,0.1845703125,0.94451904296875,1.7047119140625,-2.16827392578125,-0.31402587890625,1.0,1.0,1.0,1.0,1.0,85.0,event
14:16:23.443,1.0425831,0.7336723,0.4544413,1.1835363,0.6425763,0.52514416,0.52959347,1.0590973,0.59190726,0.7882582,0.70638525,1.0223147,1.0554792,1.0540516,0.75695634,1.2227546,0.97042775,1.0649816,0.8777875,1.0299182,740.18317,811.50183,797.3993,582.6374,711.1722,-0.199462890625,0.1893310546875,0.95098876953125,2.10845947265625,-2.1234130859375,-0.25421142578125,1.0,1.0,1.0,1.0,1.0,85.0,event
14:16:23.444,1.0425831,0.7336723,0.4544413,1.1835363,0.6425763,0.52514416,0.52959347,1.0590973,0.59190726,0.7882582,0.70638525,1.0223147,1.0554792,1.0540516,0.75695634,1.2227546,0.97042775,1.0649816,0.8777875,1.0299182,786.1172,815.9341,824.7985,582.23444,720.4396,-0.199462890625,0.1893310546875,0.95098876953125,2.10845947265625,-2.1234130859375,-0.25421142578125,1.0,1.0,1.0,1.0,1.0,85.0,event
14:16:23.445,1.0425831,0.7465572,0.4924832,1.1835363,0.6425763,0.5361295,0.55860335,1.0590973,0.59190726,0.7836885,0.70638525,1.0223147,1.0554792,1.0803856,0.7602257,1.2227546,0.97042775,1.1166296,0.8994393,1.0299182,841.7216,808.2784,792.1612,1095.9707,716.0073,-0.199462890625,0.1893310546875,0.95098876953125,2.10845947265625,-2.1234130859375,-0.25421142578125,1.0,2.0,1.0,1.0,2.0,85.0,event
14:16:23.445,1.0425831,0.7336723,0.4544413,1.1835363,0.6425763,0.52514416,0.52959347,1.0590973,0.59190726,0.7882582,0.70638525,1.0223147,1.0554792,1.0540516,0.75695634,1.2227546,0.97042775,1.0649816,0.8777875,1.0299182,833.663,817.9487,826.4103,846.55676,699.89014,-0.199462890625,0.1893310546875,0.95098876953125,2.10845947265625,-2.1234130859375,-0.25421142578125,1.0,1.0,1.0,1.0,1.0,85.0,event
14:16:23.450,1.0425831,0.7465572,0.4924832,1.1835363,0.6425763,0.5361295,0.55860335,1.0590973,0.59190726,0.7836885,0.70638525,1.0223147,1.0554792,1.0803856,0.7602257,1.2227546,0.97042775,1.1166296,0.8994393,1.0299182,805.05493,807.0696,777.25275,957.76556,787.326,-0.199462890625,0.1893310546875,0.95098876953125,2.10845947265625,-2.1234130859375,-0.25421142578125,1.0,2.0,1.0,1.0,2.0,85.0,event
14:16:23.450,1.0425831,0.7465572,0.4924832,1.1835363,0.6425763,0.5361295,0.55860335,1.0590973,0.59190726,0.7836885,0.70638525,1.0223147,1.0554792,1.0803856,0.7602257,1.2227546,0.97042775,1.1166296,0.8994393,1.0299182,772.01465,816.337,783.69965,628.97437,863.47986,-0.199462890625,0.1893310546875,0.95098876953125,2.10845947265625,-2.1234130859375,-0.25421142578125,1.0,2.0,1.0,1.0,2.0,85.0,event
14:16:23.451,1.0425831,0.7465572,0.4924832,1.1835363,0.6425763,0.5361295,0.55860335,1.0590973,0.59190726,0.7836885,0.70638525,1.0223147,1.0554792,1.0803856,0.7602257,1.2227546,0.97042775,1.1166296,0.8994393,1.0299182,785.7143,800.2198,798.20514,572.5641,797.3993,-0.199462890625,0.1893310546875,0.95098876953125,2.10845947265625,-2.1234130859375,-0.25421142578125,1.0,2.0,1.0,1.0,2.0,85.0,event
14:16:23.452,1.0425831,0.7465572,0.4924832,1.1835363,0.6425763,0.5361295,0.55860335,1.0590973,0.59190726,0.7836885,0.70638525,1.0223147,1.0554792,1.0803856,0.7602257,1.2227546,0.97042775,1.1166296,0.8994393,1.0299182,804.65204,794.57874,809.4872,796.5934,766.77655,-0.199462890625,0.1893310546875,0.95098876953125,2.10845947265625,-2.1234130859375,-0.25421142578125,1.0,2.0,1.0,1.0,2.0,85.0,event
14:16:23.452,1.0425831,0.7465572,0.4924832,1.1835363,0.6425763,0.5361295,0.55860335,1.0590973,0.59190726,0.7836885,0.70638525,1.0223147,1.0554792,1.0803856,0.7602257,1.2227546,0.97042775,1.1166296,0.8994393,1.0299182,830.4396,815.9341,798.60803,1071.392,993.22345,-0.199462890625,0.1893310546875,0.95098876953125,2.10845947265625,-2.1234130859375,-0.25421142578125,1.0,2.0,1.0,1.0,2.0,85.0,event
14:16:23.453,1.0425831,0.7465572,0.4924832,1.1835363,0.6425763,0.5361295,0.55860335,1.0590973,0.59190726,0.7836885,0.70638525,1.0223147,1.0554792,1.0803856,0.7602257,1.2227546,0.97042775,1.1166296,0.8994393,1.0299182,794.9817,818.3516,803.44324,993.22345,1071.392,-0.199462890625,0.1893310546875,0.95098876953125,2.10845947265625,-2.1234130859375,-0.25421142578125,1.0,2.0,1.0,1.0,2.0,85.0,event
14:16:23.454,1.0425831,0.7465572,0.4924832,1.1835363,0.6425763,0.5361295,0.55860335,1.0590973,0.59190726,0.7836885,0.70638525,1.0223147,1.0554792,1.0803856,0.7602257,1.2227546,0.97042775,1.1166296,0.8994393,1.0299182,728.0952,816.7399,810.293,638.6447,726.08057,-0.199462890625,0.1893310546875,0.95098876953125,2.10845947265625,-2.1234130859375,-0.25421142578125,1.0,2.0,1.0,1.0,2.0,85.0,event
14:16:23.454,1.0425831,0.7465572,0.4924832,1.1835363,0.6425763,0.5361295,0.55860335,1.0590973,0.59190726,0.7836885,0.70638525,1.0223147,1.0554792,1.0803856,0.7602257,1.2227546,0.97042775,1.1166296,0.8994393,1.0299182,747.4359,824.7985,809.0842,506.0806,608.8278,-0.199462890625,0.1893310546875,0.95098876953125,2.10845947265625,-2.1234130859375,-0.25421142578125,1.0,2.0,1.0,1.0,2.0,85.0,event
