TimeStamp,Delta_TP9,Delta_AF7,Delta_AF8,Delta_TP10,Theta_TP9,Theta_AF7,Theta_AF8,Theta_TP10,Alpha_TP9,Alpha_AF7,Alpha_AF8,Alpha_TP10,Beta_TP9,Beta_AF7,Beta_AF8,Beta_TP10,Gamma_TP9,Gamma_AF7,Gamma_AF8,Gamma_TP10,RAW_TP9,RAW_AF7,RAW_AF8,RAW_TP10,AUX_RIGHT,Accelerometer_X,Accelerometer_Y,Accelerometer_Z,Gyro_X,Gyro_Y,Gyro_Z,HeadBandOn,HSI_TP9,HSI_AF7,HSI_AF8,HSI_TP10,Battery,Elements
11:46:43.541,1.58893,0.5394523,0.0,0.80796534,1.4143519,0.39488906,0.0,0.69994354,0.93582773,0.34598473,0.0,-0.02815264,0.8244695,0.57862645,0.0,0.57287014,0.30364436,0.2185196,0.0,0.3301482,857.8388,858.24176,737.3626,950.5128,697.0696,0.0186767578125,-0.0693359375,0.99066162109375,1.532745361328125,-2.998199462890625,0.157012939453125,1.0,2.0,2.0,4.0,2.0,80.0,event
11:46:43.544,1.58893,0.5394523,0.0,0.80796534,1.4143519,0.39488906,0.0,0.69994354,0.93582773,0.34598473,0.0,-0.02815264,0.8244695,0.57862645,0.0,0.57287014,0.30364436,0.2185196,0.0,0.3301482,992.8205,883.6264,933.5897,972.674,759.92676,0.0186767578125,-0.0693359375,0.99066162109375,1.532745361328125,-2.998199462890625,0.157012939453125,1.0,2.0,2.0,4.0,2.0,80.0,event
11:46:43.545,1.58893,0.5394523,0.0,0.80796534,1.4143519,0.39488906,0.0,0.69994354,0.93582773,0.34598473,0.0,-0.02815264,0.8244695,0.57862645,0.0,0.57287014,0.30364436,0.2185196,0.0,0.3301482,1083.4799,906.99634,1026.6666,977.50916,749.45056,0.0186767578125,-0.0693359375,0.99066162109375,1.532745361328125,-2.998199462890625,0.157012939453125,1.0,2.0,2.0,4.0,2.0,80.0,event
11:46:43.547,1.58893,0.5394523,0.0,0.80796534,1.4143519,0.39488906,0.0,0.69994354,0.93582773,0.34598473,0.0,-0.02815264,0.8244695,0.57862645,0.0,0.57287014,0.30364436,0.2185196,0.0,0.3301482,998.46155,919.89014,803.8461,956.9597,689.011,0.0186767578125,-0.0693359375,0.99066162109375,1.532745361328125,-2.998199462890625,0.157012939453125,1.0,2.0,2.0,4.0,2.0,80.0,event
11:46:43.548,1.58893,0.5394523,0.0,0.80796534,1.4143519,0.39488906,0.0,0.69994354,0.93582773,0.34598473,0.0,-0.02815264,0.8244695,0.57862645,0.0,0.57287014,0.30364436,0.2185196,0.0,0.3301482,869.12085,934.3956,657.5824,947.28937,738.1685,0.0186767578125,-0.0693359375,0.99066162109375,1.532745361328125,-2.998199462890625,0.157012939453125,1.0,2.0,2.0,4.0,2.0,80.0,event
11:46:43.549,1.58893,0.5394523,0.0,0.80796534,1.4143519,0.39488906,0.0,0.69994354,0.93582773,0.34598473,0.0,-0.02815264,0.8244695,0.57862645,0.0,0.57287014,0.30364436,0.2185196,0.0,0.3301482,860.2564,952.1245,614.0659,953.73627,837.6923,0.0186767578125,-0.0693359375,0.99066162109375,1.532745361328125,-2.998199462890625,0.157012939453125,1.0,2.0,2.0,4.0,2.0,80.0,event
11:46:43.549,1.58893,0.5394523,0.0,0.80796534,1.4143519,0.39488906,0.0,0.69994354,0.93582773,0.34598473,0.0,-0.02815264,0.8244695,0.57862645,0.0,0.57287014,0.30364436,0.2185196,0.0,0.3301482,979.92676,975.4945,676.9231,967.8388,898.5348,0.0186767578125,-0.0693359375,0.99066162109375,1.532745361328125,-2.998199462890625,0.157012939453125,1.0,2.0,2.0,4.0,2.0,80.0,event
11:46:43.550,1.58893,0.5394523,0.0,0.80796534,1.4143519,0.39488906,0.0,0.69994354,0.93582773,0.34598473,0.0,-0.02815264,0.8244695,0.57862645,0.0,0.57287014,0.30364436,0.2185196,0.0,0.3301482,1070.1831,994.83514,830.84247,973.8828,842.1245,0.0186767578125,-0.0693359375,0.99066162109375,1.532745361328125,-2.998199462890625,0.157012939453125,1.0,2.0,2.0,4.0,2.0,80.0,event
11:46:43.551,1.58893,0.5394523,0.0,0.80796534,1.4143519,0.39488906,0.0,0.69994354,0.93582773,0.34598473,0.0,-0.02815264,0.8244695,0.57862645,0.0,0.57287014,0.30364436,0.2185196,0.0,0.3301482,854.21246,1049.2307,181.31868,951.7216,1019.41394,0.0186767578125,-0.0693359375,0.99066162109375,1.532745361328125,-2.998199462890625,0.157012939453125,1.0,2.0,2.0,4.0,2.0,80.0,event
11:46:43.551,1.58893,0.5394523,0.0,0.80796534,1.4143519,0.39488906,0.0,0.69994354,0.93582773,0.34598473,0.0,-0.02815264,0.8244695,0.57862645,0.0,0.57287014,0.30364436,0.2185196,0.0,0.3301482,989.19415,994.83514,287.69232,967.03296,1052.4542,0.0186767578125,-0.0693359375,0.99066162109375,1.532745361328125,-2.998199462890625,0.157012939453125,1.0,2.0,2.0,4.0,2.0,80.0,event
11:46:43.552,1.58893,0.5394523,0.0,0.80796534,1.4143519,0.39488906,0.0,0.69994354,0.93582773,0.34598473,0.0,-0.02815264,0.8244695,0.57862645,0.0,0.57287014,0.30364436,0.2185196,0.0,0.3301482,843.73627,1108.0586,828.4249,947.6923,628.5714,0.0186767578125,-0.0693359375,0.99066162109375,1.532745361328125,-2.998199462890625,0.157012939453125,1.0,2.0,2.0,4.0,2.0,80.0,event
11:46:43.553,1.58893,0.5394523,0.0,0.80796534,1.4143519,0.39488906,0.0,0.69994354,0.93582773,0.34598473,0.0,-0.02815264,0.8244695,0.57862645,0.0,0.57287014,0.30364436,0.2185196,0.0,0.3301482,955.34796,1114.5055,817.1429,960.58606,657.98535,0.0186767578125,-0.0693359375,0.99066162109375,1.532745361328125,-2.998199462890625,0.157012939453125,1.0,2.0,2.0,4.0,2.0,80.0,event
11:46:43.611,1.58893,0.5394523,0.0,0.80796534,1.4143519,0.39488906,0.0,0.69994354,0.93582773,0.34598473,0.0,-0.02815264,0.8244695,0.57862645,0.0,0.57287014,0.30364436,0.2185196,0.0,0.3301482,1047.619,1138.6813,755.89746,969.0476,797.3993,0.018798828125,-0.0775146484375,0.9766845703125,2.026214599609375,-3.46923828125,-0.9271240234375,1.0,2.0,2.0,4.0,2.0,80.0,event
11:46:43.612,1.58893,0.5394523,0.0,0.80796534,1.4143519,0.39488906,0.0,0.69994354,0.93582773,0.34598473,0.0,-0.02815264,0.8244695,0.57862645,0.0,0.57287014,0.30364436,0.2185196,0.0,0.3301482,996.8498,1172.5275,891.28204,950.10986,740.58606,0.018798828125,-0.0775146484375,0.9766845703125,2.026214599609375,-3.46923828125,-0.9271240234375,1.0,2.0,2.0,4.0,2.0,80.0,event
11:46:43.613,1.58893,0.5394523,0.0,0.80796534,1.4143519,0.39488906,0.0,0.69994354,0.93582773,0.34598473,0.0,-0.02815264,0.8244695,0.57862645,0.0,0.57287014,0.30364436,0.2185196,0.0,0.3301482,864.68866,1191.0623,851.79486,931.1722,693.44324,0.018798828125,-0.0775146484375,0.9766845703125,2.026214599609375,-3.46923828125,-0.9271240234375,1.0,2.0,2.0,4.0,2.0,80.0,event
11:46:43.614,1.58893,0.5394523,0.0,0.80796534,1.4143519,0.39488906,0.0,0.69994354,0.93582773,0.34598473,0.0,-0.02815264,0.8244695,0.57862645,0.0,0.57287014,0.30364436,0.2185196,0.0,0.3301482,815.12823,1205.1648,619.707,926.337,810.696,0.018798828125,-0.0775146484375,0.9766845703125,2.026214599609375,-3.46923828125,-0.9271240234375,1.0,2.0,2.0,4.0,2.0,80.0,event
11:46:43.617,,,,,,,,,,,,,,,,,,,,,,,,,,,,,,,,,,,,,,blink
11:46:43.618,1.58893,0.5394523,0.0,0.80796534,1.4143519,0.39488906,0.0,0.69994354,0.93582773,0.34598473,0.0,-0.02815264,0.8244695,0.57862645,0.0,0.57287014,0.30364436,0.2185196,0.0,0.3301482,916.6667,1234.5787,702.3077,928.3516,783.2967,0.018798828125,-0.0775146484375,0.9766845703125,2.026214599609375,-3.46923828125,-0.9271240234375,1.0,2.0,2.0,4.0,2.0,80.0,event
11:46:43.619,1.58893,0.5394523,0.0,0.80796534,1.4143519,0.39488906,0.0,0.69994354,0.93582773,0.34598473,0.0,-0.02815264,0.8244695,0.57862645,0.0,0.57287014,0.30364436,0.2185196,0.0,0.3301482,1031.9048,1254.3224,782.8938,935.2015,772.01465,0.018798828125,-0.0775146484375,0.9766845703125,2.026214599609375,-3.46923828125,-0.9271240234375,1.0,2.0,2.0,4.0,2.0,80.0,event
11:46:43.620,1.58893,0.5394523,0.0,0.80796534,1.4143519,0.39488906,0.0,0.69994354,0.93582773,0.34598473,0.0,-0.02815264,0.8244695,0.57862645,0.0,0.57287014,0.30364436,0.2185196,0.0,0.3301482,994.43225,1271.2454,637.4359,924.3223,808.2784,0.018798828125,-0.0775146484375,0.9766845703125,2.026214599609375,-3.46923828125,-0.9271240234375,1.0,2.0,2.0,4.0,2.0,80.0,event
11:46:43.620,1.58893,0.5394523,0.0,0.80796534,1.4143519,0.39488906,0.0,0.69994354,0.93582773,0.34598473,0.0,-0.02815264,0.8244695,0.57862645,0.0,0.57287014,0.30364436,0.2185196,0.0,0.3301482,850.58606,1277.2894,331.2088,905.78754,905.38464,0.018798828125,-0.0775146484375,0.9766845703125,2.026214599609375,-3.46923828125,-0.9271240234375,1.0,2.0,2.0,4.0,2.0,80.0,event
11:46:43.621,1.58893,0.5394523,0.0,0.80796534,1.4143519,0.39488906,0.0,0.69994354,0.93582773,0.34598473,0.0,-0.02815264,0.8244695,0.57862645,0.0,0.57287014,0.30364436,0.2185196,0.0,0.3301482,790.14655,1295.0183,186.55678,903.7729,913.8461,0.018798828125,-0.0775146484375,0.9766845703125,2.026214599609375,-3.46923828125,-0.9271240234375,1.0,2.0,2.0,4.0,2.0,80.0,event
11:46:43.622,1.58893,0.5394523,0.0,0.80796534,1.4143519,0.39488906,0.0,0.69994354,0.93582773,0.34598473,0.0,-0.02815264,0.8244695,0.57862645,0.0,0.57287014,0.30364436,0.2185196,0.0,0.3301482,1007.72894,1324.0293,999.67035,918.68134,706.337,0.018798828125,-0.0775146484375,0.9766845703125,2.026214599609375,-3.46923828125,-0.9271240234375,1.0,2.0,2.0,4.0,2.0,80.0,event
11:46:43.622,1.58893,0.5394523,0.0,0.80796534,1.4143519,0.39488906,0.0,0.69994354,0.93582773,0.34598473,0.0,-0.02815264,0.8244695,0.57862645,0.0,0.57287014,0.30364436,0.2185196,0.0,0.3301482,886.4469,1334.5055,763.95605,910.6227,681.75824,0.018798828125,-0.0775146484375,0.9766845703125,2.026214599609375,-3.46923828125,-0.9271240234375,1.0,2.0,2.0,4.0,2.0,80.0,event
11:46:43.623,1.58893,0.5394523,0.0,0.80796534,1.4143519,0.39488906,0.0,0.69994354,0.93582773,0.34598473,0.0,-0.02815264,0.8244695,0.57862645,0.0,0.57287014,0.30364436,0.2185196,0.0,0.3301482,991.2088,1308.3151,731.31866,910.2198,834.4689,0.018798828125,-0.0775146484375,0.9766845703125,2.026214599609375,-3.46923828125,-0.9271240234375,1.0,2.0,2.0,4.0,2.0,80.0,event
11:46:43.645,1.58893,0.5394523,0.0,0.80796534,1.4143519,0.39488906,0.0,0.69994354,0.93582773,0.34598473,0.0,-0.02815264,0.8244695,0.57862645,0.0,0.57287014,0.30364436,0.2185196,0.0,0.3301482,856.63007,1305.4945,677.326,889.67035,788.93774,0.028564453125,-0.064697265625,0.99139404296875,2.340240478515625,-4.38140869140625,0.35888671875,1.0,2.0,2.0,4.0,2.0,80.0,event
11:46:43.646,1.58893,0.5394523,0.0,0.80796534,1.4143519,0.39488906,0.0,0.69994354,0.93582773,0.34598473,0.0,-0.02815264,0.8244695,0.57862645,0.0,0.57287014,0.30364436,0.2185196,0.0,0.3301482,781.685,1289.3773,937.619,883.6264,732.1245,0.028564453125,-0.064697265625,0.99139404296875,2.340240478515625,-4.38140869140625,0.35888671875,1.0,2.0,2.0,4.0,2.0,80.0,event
11:46:43.647,1.58893,0.5394523,0.0,0.80796534,1.4143519,0.39488906,0.0,0.69994354,0.93582773,0.34598473,0.0,-0.02815264,0.8244695,0.57862645,0.0,0.57287014,0.30364436,0.2185196,0.0,0.3301482,853.00366,1264.7986,974.2857,897.72894,769.59705,0.028564453125,-0.064697265625,0.99139404296875,2.340240478515625,-4.38140869140625,0.35888671875,1.0,2.0,2.0,4.0,2.0,80.0,event
11:46:43.648,1.58893,0.5394523,0.0,0.80796534,1.4143519,0.39488906,0.0,0.69994354,0.93582773,0.34598473,0.0,-0.02815264,0.8244695,0.57862645,0.0,0.57287014,0.30364436,0.2185196,0.0,0.3301482,977.9121,1242.2344,725.2747,909.81683,866.30035,0.028564453125,-0.064697265625,0.99139404296875,2.340240478515625,-4.38140869140625,0.35888671875,1.0,2.0,2.0,4.0,2.0,80.0,event
11:46:43.649,1.58893,0.5394523,0.0,0.80796534,1.4143519,0.39488906,0.0,0.69994354,0.93582773,0.34598473,0.0,-0.02815264,0.8244695,0.57862645,0.0,0.57287014,0.30364436,0.2185196,0.0,0.3301482,984.35895,1224.5055,730.9158,898.1319,852.6007,0.028564453125,-0.064697265625,0.99139404296875,2.340240478515625,-4.38140869140625,0.35888671875,1.0,2.0,2.0,4.0,2.0,80.0,event
11:46:43.650,1.58893,0.5394523,0.0,0.80796534,1.4143519,0.39488906,0.0,0.69994354,0.93582773,0.34598473,0.0,-0.02815264,0.8244695,0.57862645,0.0,0.57287014,0.30364436,0.2185196,0.0,0.3301482,856.2271,1191.8682,731.7216,877.98535,821.978,0.028564453125,-0.064697265625,0.99139404296875,2.340240478515625,-4.38140869140625,0.35888671875,1.0,2.0,2.0,4.0,2.0,80.0,event
11:46:43.650,1.58893,0.5394523,0.0,0.80796534,1.4143519,0.39488906,0.0,0.69994354,0.93582773,0.34598473,0.0,-0.02815264,0.8244695,0.57862645,0.0,0.57287014,0.30364436,0.2185196,0.0,0.3301482,770.80585,1152.381,610.4396,873.95605,889.2674,0.028564453125,-0.064697265625,0.99139404296875,2.340240478515625,-4.38140869140625,0.35888671875,1.0,2.0,2.0,4.0,2.0,80.0,event
11:46:43.651,1.58893,0.5394523,0.0,0.80796534,1.4143519,0.39488906,0.0,0.69994354,0.93582773,0.34598473,0.0,-0.02815264,0.8244695,0.57862645,0.0,0.57287014,0.30364436,0.2185196,0.0,0.3301482,819.15753,1118.5348,360.6227,884.43225,1067.7656,0.028564453125,-0.064697265625,0.99139404296875,2.340240478515625,-4.38140869140625,0.35888671875,1.0,2.0,2.0,4.0,2.0,80.0,event
11:46:43.652,1.58893,0.5394523,0.0,0.80796534,1.4143519,0.39488906,0.0,0.69994354,0.93582773,0.34598473,0.0,-0.02815264,0.8244695,0.57862645,0.0,0.57287014,0.30364436,0.2185196,0.0,0.3301482,952.9304,1110.4762,547.1795,894.90845,978.71796,0.028564453125,-0.064697265625,0.99139404296875,2.340240478515625,-4.38140869140625,0.35888671875,1.0,2.0,2.0,4.0,2.0,80.0,event
11:46:43.653,1.58893,0.5394523,0.0,0.80796534,1.4143519,0.39488906,0.0,0.69994354,0.93582773,0.34598473,0.0,-0.02815264,0.8244695,0.57862645,0.0,0.57287014,0.30364436,0.2185196,0.0,0.3301482,869.92676,1041.978,805.4579,877.1795,751.4652,0.028564453125,-0.064697265625,0.99139404296875,2.340240478515625,-4.38140869140625,0.35888671875,1.0,2.0,2.0,4.0,2.0,80.0,event
11:46:43.653,1.58893,0.5394523,0.0,0.80796534,1.4143519,0.39488906,0.0,0.69994354,0.93582773,0.34598473,0.0,-0.02815264,0.8244695,0.57862645,0.0,0.57287014,0.30364436,0.2185196,0.0,0.3301482,993.22345,1088.7179,1034.3224,891.685,764.7619,0.028564453125,-0.064697265625,0.99139404296875,2.340240478515625,-4.38140869140625,0.35888671875,1.0,2.0,2.0,4.0,2.0,80.0,event
11:46:43.654,1.58893,0.5394523,0.0,0.80796534,1.4143519,0.39488906,0.0,0.69994354,0.93582773,0.34598473,0.0,-0.02815264,0.8244695,0.57862645,0.0,0.57287014,0.30364436,0.2185196,0.0,0.3301482,766.77655,1013.7729,678.93774,870.7326,732.52747,0.028564453125,-0.064697265625,0.99139404296875,2.340240478515625,-4.38140869140625,0.35888671875,1.0,2.0,2.0,4.0,2.0,80.0,event
11:46:43.683,1.58893,0.5394523,0.0,0.80796534,1.4143519,0.39488906,0.0,0.69994354,0.93582773,0.34598473,0.0,-0.02815264,0.8244695,0.57862645,0.0,0.57287014,0.30364436,0.2185196,0.0,0.3301482,802.6374,994.83514,954.1392,873.1502,717.619,0.028564453125,-0.064697265625,0.99139404296875,2.340240478515625,-4.38140869140625,0.35888671875,1.0,2.0,2.0,4.0,2.0,80.0,event
11:46:43.684,1.58893,0.5394523,0.0,0.80796534,1.4143519,0.39488906,0.0,0.69994354,0.93582773,0.34598473,0.0,-0.02815264,0.8244695,0.57862645,0.0,0.57287014,0.30364436,0.2185196,0.0,0.3301482,935.6044,963.4066,1093.5531,885.2381,720.0366,0.028564453125,-0.064697265625,0.99139404296875,2.340240478515625,-4.38140869140625,0.35888671875,1.0,2.0,2.0,4.0,2.0,80.0,event
11:46:43.685,1.58893,0.5394523,0.0,0.80796534,1.4143519,0.39488906,0.0,0.69994354,0.93582773,0.34598473,0.0,-0.02815264,0.8244695,0.57862645,0.0,0.57287014,0.30364436,0.2185196,0.0,0.3301482,977.1062,919.89014,777.6557,882.01465,842.1245,0.028564453125,-0.064697265625,0.99139404296875,2.340240478515625,-4.38140869140625,0.35888671875,1.0,2.0,2.0,4.0,2.0,80.0,event
11:46:43.686,1.58893,0.5394523,0.0,0.80796534,1.4143519,0.39488906,0.0,0.69994354,0.93582773,0.34598473,0.0,-0.02815264,0.8244695,0.57862645,0.0,0.57287014,0.30364436,0.2185196,0.0,0.3301482,856.2271,899.34064,564.10254,856.63007,831.6484,0.028564453125,-0.064697265625,0.99139404296875,2.340240478515625,-4.38140869140625,0.35888671875,1.0,2.0,2.0,4.0,2.0,80.0,event
11:46:43.686,1.58893,0.5394523,0.0,0.80796534,1.4143519,0.39488906,0.0,0.69994354,0.93582773,0.34598473,0.0,-0.02815264,0.8244695,0.57862645,0.0,0.57287014,0.30364436,0.2185196,0.0,0.3301482,751.4652,886.04395,806.26373,846.55676,707.9487,0.028564453125,-0.064697265625,0.99139404296875,2.340240478515625,-4.38140869140625,0.35888671875,1.0,2.0,2.0,4.0,2.0,80.0,event
11:46:43.687,1.58893,0.5394523,0.0,0.80796534,1.4143519,0.39488906,0.0,0.69994354,0.93582773,0.34598473,0.0,-0.02815264,0.8244695,0.57862645,0.0,0.57287014,0.30364436,0.2185196,0.0,0.3301482,764.7619,852.6007,796.99634,845.34796,774.83514,0.028564453125,-0.064697265625,0.99139404296875,2.340240478515625,-4.38140869140625,0.35888671875,1.0,2.0,2.0,4.0,2.0,80.0,event
11:46:43.690,1.58893,0.5394523,0.0,0.80796534,1.4143519,0.39488906,0.0,0.69994354,0.93582773,0.34598473,0.0,-0.02815264,0.8244695,0.57862645,0.0,0.57287014,0.30364436,0.2185196,0.0,0.3301482,883.6264,811.50183,473.44324,861.06226,965.0183,0.028564453125,-0.064697265625,0.99139404296875,2.340240478515625,-4.38140869140625,0.35888671875,1.0,2.0,2.0,4.0,2.0,80.0,event
11:46:43.690,1.58893,0.5394523,0.0,0.80796534,1.4143519,0.39488906,0.0,0.69994354,0.93582773,0.34598473,0.0,-0.02815264,0.8244695,0.57862645,0.0,0.57287014,0.30364436,0.2185196,0.0,0.3301482,951.7216,799.011,225.2381,869.12085,1060.5128,0.028564453125,-0.064697265625,0.99139404296875,2.340240478515625,-4.38140869140625,0.35888671875,1.0,2.0,2.0,4.0,2.0,80.0,event
11:46:43.691,1.58893,0.5394523,0.0,0.80796534,1.4143519,0.39488906,0.0,0.69994354,0.93582773,0.34598473,0.0,-0.02815264,0.8244695,0.57862645,0.0,0.57287014,0.30364436,0.2185196,0.0,0.3301482,869.5238,813.1135,654.35895,844.5421,772.4176,0.028564453125,-0.064697265625,0.99139404296875,2.340240478515625,-4.38140869140625,0.35888671875,1.0,2.0,2.0,4.0,2.0,80.0,event
11:46:43.691,1.58893,0.5394523,0.0,0.80796534,1.4143519,0.39488906,0.0,0.69994354,0.93582773,0.34598473,0.0,-0.02815264,0.8244695,0.57862645,0.0,0.57287014,0.30364436,0.2185196,0.0,0.3301482,750.2564,777.6557,904.17584,834.0659,647.9121,0.028564453125,-0.064697265625,0.99139404296875,2.340240478515625,-4.38140869140625,0.35888671875,1.0,2.0,2.0,4.0,2.0,80.0,event
11:46:43.692,1.58893,0.5394523,0.0,0.80796534,1.4143519,0.39488906,0.0,0.69994354,0.93582773,0.34598473,0.0,-0.02815264,0.8244695,0.57862645,0.0,0.57287014,0.30364436,0.2185196,0.0,0.3301482,742.6007,750.2564,800.2198,842.52747,699.4872,0.028564453125,-0.064697265625,0.99139404296875,2.340240478515625,-4.38140869140625,0.35888671875,1.0,2.0,2.0,4.0,2.0,80.0,event
11:46:43.693,1.58893,0.5394523,0.0,0.80796534,1.4143519,0.39488906,0.0,0.69994354,0.93582773,0.34598473,0.0,-0.02815264,0.8244695,0.57862645,0.0,0.57287014,0.30364436,0.2185196,0.0,0.3301482,868.315,741.79486,909.011,857.8388,742.6007,0.028564453125,-0.064697265625,0.99139404296875,2.340240478515625,-4.38140869140625,0.35888671875,1.0,2.0,2.0,4.0,2.0,80.0,event
11:46:43.751,1.58893,0.5394523,0.0,0.80796534,1.4143519,0.39488906,0.0,0.69994354,0.93582773,0.34598473,0.0,-0.02815264,0.8244695,0.57862645,0.0,0.57287014,0.30364436,0.2185196,0.0,0.3301482,956.9597,723.2601,1073.4066,852.6007,807.47253,0.0157470703125,-0.0689697265625,0.97357177734375,2.22808837890625,-2.519683837890625,0.785064697265625,1.0,2.0,2.0,4.0,2.0,80.0,event
11:46:43.751,1.58893,0.5394523,0.0,0.80796534,1.4143519,0.39488906,0.0,0.69994354,0.93582773,0.34598473,0.0,-0.02815264,0.8244695,0.57862645,0.0,0.57287014,0.30364436,0.2185196,0.0,0.3301482,878.3883,694.2491,963.4066,834.0659,791.3553,0.0157470703125,-0.0689697265625,0.97357177734375,2.22808837890625,-2.519683837890625,0.785064697265625,1.0,2.0,2.0,4.0,2.0,80.0,event
11:46:43.752,1.58893,0.5394523,0.0,0.80796534,1.4143519,0.39488906,0.0,0.69994354,0.93582773,0.34598473,0.0,-0.02815264,0.8244695,0.57862645,0.0,0.57287014,0.30364436,0.2185196,0.0,0.3301482,756.30035,669.2674,728.9011,838.49817,757.1062,0.0157470703125,-0.0689697265625,0.97357177734375,2.22808837890625,-2.519683837890625,0.785064697265625,1.0,2.0,2.0,4.0,2.0,80.0,event
11:46:43.752,1.58893,0.5394523,0.0,0.80796534,1.4143519,0.39488906,0.0,0.69994354,0.93582773,0.34598473,0.0,-0.02815264,0.8244695,0.57862645,0.0,0.57287014,0.30364436,0.2185196,0.0,0.3301482,742.1978,668.0586,877.1795,851.79486,764.7619,0.0157470703125,-0.0689697265625,0.97357177734375,2.22808837890625,-2.519683837890625,0.785064697265625,1.0,2.0,2.0,4.0,2.0,80.0,event
11:46:43.752,1.58893,0.5394523,0.0,0.80796534,1.4143519,0.39488906,0.0,0.69994354,0.93582773,0.34598473,0.0,-0.02815264,0.8244695,0.57862645,0.0,0.57287014,0.30364436,0.2185196,0.0,0.3301482,838.0952,662.01465,1033.9194,840.10986,799.81683,0.0157470703125,-0.0689697265625,0.97357177734375,2.22808837890625,-2.519683837890625,0.785064697265625,1.0,2.0,2.0,4.0,2.0,80.0,event
11:46:43.752,1.58893,0.5394523,0.0,0.80796534,1.4143519,0.39488906,0.0,0.69994354,0.93582773,0.34598473,0.0,-0.02815264,0.8244695,0.57862645,0.0,0.57287014,0.30364436,0.2185196,0.0,0.3301482,918.68134,629.3773,815.5311,833.663,864.2857,0.0157470703125,-0.0689697265625,0.97357177734375,2.22808837890625,-2.519683837890625,0.785064697265625,1.0,2.0,2.0,4.0,2.0,80.0,event
11:46:43.753,1.58893,0.5394523,0.0,0.80796534,1.4143519,0.39488906,0.0,0.69994354,0.93582773,0.34598473,0.0,-0.02815264,0.8244695,0.57862645,0.0,0.57287014,0.30364436,0.2185196,0.0,0.3301482,856.2271,600.3663,325.56778,836.08057,1050.8425,0.0157470703125,-0.0689697265625,0.97357177734375,2.22808837890625,-2.519683837890625,0.785064697265625,1.0,2.0,2.0,4.0,2.0,80.0,event
11:46:43.753,1.58893,0.5394523,0.0,0.80796534,1.4143519,0.39488906,0.0,0.69994354,0.93582773,0.34598473,0.0,-0.02815264,0.8244695,0.57862645,0.0,0.57287014,0.30364436,0.2185196,0.0,0.3301482,721.2454,621.31866,275.6044,811.50183,976.7033,0.0157470703125,-0.0689697265625,0.97357177734375,2.22808837890625,-2.519683837890625,0.785064697265625,1.0,2.0,2.0,4.0,2.0,80.0,event
11:46:43.753,1.58893,0.5394523,0.0,0.80796534,1.4143519,0.39488906,0.0,0.69994354,0.93582773,0.34598473,0.0,-0.02815264,0.8244695,0.57862645,0.0,0.57287014,0.30364436,0.2185196,0.0,0.3301482,688.20514,630.989,835.2747,806.26373,734.94507,0.0157470703125,-0.0689697265625,0.97357177734375,2.22808837890625,-2.519683837890625,0.785064697265625,1.0,2.0,2.0,4.0,2.0,80.0,event
11:46:43.754,1.58893,0.5394523,0.0,0.80796534,1.4143519,0.39488906,0.0,0.69994354,0.93582773,0.34598473,0.0,-0.02815264,0.8244695,0.57862645,0.0,0.57287014,0.30364436,0.2185196,0.0,0.3301482,913.44324,575.38464,589.4872,838.0952,898.1319,0.0157470703125,-0.0689697265625,0.97357177734375,2.22808837890625,-2.519683837890625,0.785064697265625,1.0,2.0,2.0,4.0,2.0,80.0,event
11:46:43.754,1.58893,0.5394523,0.0,0.80796534,1.4143519,0.39488906,0.0,0.69994354,0.93582773,0.34598473,0.0,-0.02815264,0.8244695,0.57862645,0.0,0.57287014,0.30364436,0.2185196,0.0,0.3301482,797.8022,590.293,894.10254,829.6337,782.8938,0.0157470703125,-0.0689697265625,0.97357177734375,2.22808837890625,-2.519683837890625,0.785064697265625,1.0,2.0,2.0,4.0,2.0,80.0,event
11:46:43.755,1.58893,0.5394523,0.0,0.80796534,1.4143519,0.39488906,0.0,0.69994354,0.93582773,0.34598473,0.0,-0.02815264,0.8244695,0.57862645,0.0,0.57287014,0.30364436,0.2185196,0.0,0.3301482,885.2381,599.9634,828.4249,827.2161,818.7546,0.0157470703125,-0.0689697265625,0.97357177734375,2.22808837890625,-2.519683837890625,0.785064697265625,1.0,2.0,2.0,4.0,2.0,80.0,event
11:46:43.786,1.58893,0.5394523,0.0,0.80796534,1.4143519,0.39488906,0.0,0.69994354,0.93582773,0.34598473,0.0,-0.02815264,0.8244695,0.57862645,0.0,0.57287014,0.30364436,0.2185196,0.0,0.3301482,753.8828,593.1135,974.68866,810.293,682.96704,0.0208740234375,-0.05694580078125,0.9957275390625,3.050537109375,-3.33465576171875,0.58319091796875,1.0,2.0,2.0,4.0,2.0,80.0,event
11:46:43.787,1.58893,0.5394523,0.0,0.80796534,1.4143519,0.39488906,0.0,0.69994354,0.93582773,0.34598473,0.0,-0.02815264,0.8244695,0.57862645,0.0,0.57287014,0.30364436,0.2185196,0.0,0.3301482,697.8755,585.05493,795.38464,809.4872,729.304,0.0208740234375,-0.05694580078125,0.9957275390625,3.050537109375,-3.33465576171875,0.58319091796875,1.0,2.0,2.0,4.0,2.0,80.0,event
11:46:43.787,1.58893,0.5394523,0.0,0.80796534,1.4143519,0.39488906,0.0,0.69994354,0.93582773,0.34598473,0.0,-0.02815264,0.8244695,0.57862645,0.0,0.57287014,0.30364436,0.2185196,0.0,0.3301482,792.96704,591.0989,813.91943,826.8132,772.01465,0.0208740234375,-0.05694580078125,0.9957275390625,3.050537109375,-3.33465576171875,0.58319091796875,1.0,2.0,2.0,4.0,2.0,80.0,event
11:46:43.788,1.58893,0.5394523,0.0,0.80796534,1.4143519,0.39488906,0.0,0.69994354,0.93582773,0.34598473,0.0,-0.02815264,0.8244695,0.57862645,0.0,0.57287014,0.30364436,0.2185196,0.0,0.3301482,922.3077,599.15753,953.3333,831.6484,699.4872,0.0208740234375,-0.05694580078125,0.9957275390625,3.050537109375,-3.33465576171875,0.58319091796875,1.0,2.0,2.0,4.0,2.0,80.0,event
11:46:43.788,1.58893,0.5394523,0.0,0.80796534,1.4143519,0.39488906,0.0,0.69994354,0.93582773,0.34598473,0.0,-0.02815264,0.8244695,0.57862645,0.0,0.57287014,0.30364436,0.2185196,0.0,0.3301482,911.4286,600.3663,986.3736,823.1868,684.9817,0.0208740234375,-0.05694580078125,0.9957275390625,3.050537109375,-3.33465576171875,0.58319091796875,1.0,2.0,2.0,4.0,2.0,80.0,event
11:46:43.789,1.58893,0.5394523,0.0,0.80796534,1.4143519,0.39488906,0.0,0.69994354,0.93582773,0.34598473,0.0,-0.02815264,0.8244695,0.57862645,0.0,0.57287014,0.30364436,0.2185196,0.0,0.3301482,773.6264,580.2198,607.2161,805.4579,898.5348,0.0208740234375,-0.05694580078125,0.9957275390625,3.050537109375,-3.33465576171875,0.58319091796875,1.0,2.0,2.0,4.0,2.0,80.0,event
11:46:43.789,1.58893,0.5394523,0.0,0.80796534,1.4143519,0.39488906,0.0,0.69994354,0.93582773,0.34598473,0.0,-0.02815264,0.8244695,0.57862645,0.0,0.57287014,0.30364436,0.2185196,0.0,0.3301482,697.8755,586.26373,382.78387,799.011,1010.9524,0.0208740234375,-0.05694580078125,0.9957275390625,3.050537109375,-3.33465576171875,0.58319091796875,1.0,2.0,2.0,4.0,2.0,80.0,event
11:46:43.789,1.58893,0.5394523,0.0,0.80796534,1.4143519,0.39488906,0.0,0.69994354,0.93582773,0.34598473,0.0,-0.02815264,0.8244695,0.57862645,0.0,0.57287014,0.30364436,0.2185196,0.0,0.3301482,790.14655,612.0513,813.91943,816.337,816.337,0.0208740234375,-0.05694580078125,0.9957275390625,3.050537109375,-3.33465576171875,0.58319091796875,1.0,2.0,4.0,4.0,2.0,80.0,event
11:46:43.792,1.58893,0.5394523,0.0,0.80796534,1.4143519,0.39488906,0.0,0.69994354,0.93582773,0.34598473,0.0,-0.02815264,0.8244695,0.57862645,0.0,0.57287014,0.30364436,0.2185196,0.0,0.3301482,910.6227,582.23444,483.51648,825.6044,931.1722,0.0208740234375,-0.05694580078125,0.9957275390625,3.050537109375,-3.33465576171875,0.58319091796875,1.0,2.0,4.0,4.0,2.0,80.0,event
11:46:43.792,1.58893,0.5394523,0.0,0.80796534,1.4143519,0.39488906,0.0,0.69994354,0.93582773,0.34598473,0.0,-0.02815264,0.8244695,0.57862645,0.0,0.57287014,0.30364436,0.2185196,0.0,0.3301482,926.7399,609.6337,1023.0403,830.84247,733.73627,0.0208740234375,-0.05694580078125,0.9957275390625,3.050537109375,-3.33465576171875,0.58319091796875,1.0,2.0,4.0,4.0,2.0,80.0,event
11:46:43.792,1.58893,0.5394523,0.0,0.80796534,1.4143519,0.39488906,0.0,0.69994354,0.93582773,0.34598473,0.0,-0.02815264,0.8244695,0.57862645,0.0,0.57287014,0.30364436,0.2185196,0.0,0.3301482,779.67035,593.91943,130.95238,820.3663,1040.3663,0.0208740234375,-0.05694580078125,0.9957275390625,3.050537109375,-3.33465576171875,0.58319091796875,1.0,2.0,4.0,4.0,2.0,80.0,event
11:46:43.793,1.58893,0.5394523,0.0,0.80796534,1.4143519,0.39488906,0.0,0.69994354,0.93582773,0.34598473,0.0,-0.02815264,0.8244695,0.57862645,0.0,0.57287014,0.30364436,0.2185196,0.0,0.3301482,707.1429,633.00366,693.44324,812.3077,706.7399,0.0208740234375,-0.05694580078125,0.9957275390625,3.050537109375,-3.33465576171875,0.58319091796875,1.0,2.0,4.0,4.0,2.0,80.0,event
11:46:43.817,1.58893,0.5394523,0.0,0.80796534,1.4143519,0.39488906,0.0,0.69994354,0.93582773,0.34598473,0.0,-0.02815264,0.8244695,0.57862645,0.0,0.57287014,0.30364436,0.2185196,0.0,0.3301482,761.13556,623.3333,923.5165,817.1429,626.9597,0.02459716796875,-0.06829833984375,0.972900390625,2.6019287109375,-3.342132568359375,1.158905029296875,1.0,2.0,4.0,4.0,2.0,80.0,event
11:46:43.818,1.58893,0.5394523,0.0,0.80796534,1.4143519,0.39488906,0.0,0.69994354,0.93582773,0.34598473,0.0,-0.02815264,0.8244695,0.57862645,0.0,0.57287014,0.30364436,0.2185196,0.0,0.3301482,890.07324,620.10986,833.663,833.2601,759.5238,0.02459716796875,-0.06829833984375,0.972900390625,2.6019287109375,-3.342132568359375,1.158905029296875,1.0,2.0,4.0,4.0,2.0,80.0,event
11:46:43.819,1.58893,0.5394523,0.0,0.80796534,1.4143519,0.39488906,0.0,0.69994354,0.93582773,0.34598473,0.0,-0.02815264,0.8244695,0.57862645,0.0,0.57287014,0.30364436,0.2185196,0.0,0.3301482,914.65204,624.5421,889.2674,821.1722,736.9597,0.02459716796875,-0.06829833984375,0.972900390625,2.6019287109375,-3.342132568359375,1.158905029296875,1.0,2.0,4.0,4.0,2.0,80.0,event
11:46:43.820,1.58893,0.5394523,0.0,0.80796534,1.4143519,0.39488906,0.0,0.69994354,0.93582773,0.34598473,0.0,-0.02815264,0.8244695,0.57862645,0.0,0.57287014,0.30364436,0.2185196,0.0,0.3301482,794.57874,624.1392,892.0879,799.41394,640.65936,0.02459716796875,-0.06829833984375,0.972900390625,2.6019287109375,-3.342132568359375,1.158905029296875,1.0,2.0,4.0,4.0,2.0,80.0,event
11:46:43.821,1.58893,0.5394523,0.0,0.80796534,1.4143519,0.39488906,0.0,0.69994354,0.93582773,0.34598473,0.0,-0.02815264,0.8244695,0.57862645,0.0,0.57287014,0.30364436,0.2185196,0.0,0.3301482,702.71063,618.0952,776.8498,797.8022,610.4396,0.02459716796875,-0.06829833984375,0.972900390625,2.6019287109375,-3.342132568359375,1.158905029296875,1.0,2.0,4.0,4.0,2.0,80.0,event
11:46:43.821,1.58893,0.5394523,0.0,0.80796534,1.4143519,0.39488906,0.0,0.69994354,0.93582773,0.34598473,0.0,-0.02815264,0.8244695,0.57862645,0.0,0.57287014,0.30364436,0.2185196,0.0,0.3301482,734.1392,614.4689,589.0842,810.293,794.17584,0.02459716796875,-0.06829833984375,0.972900390625,2.6019287109375,-3.342132568359375,1.158905029296875,1.0,2.0,4.0,4.0,2.0,80.0,event
11:46:43.821,1.58893,0.5394523,0.0,0.80796534,1.4143519,0.39488906,0.0,0.69994354,0.93582773,0.34598473,0.0,-0.02815264,0.8244695,0.57862645,0.0,0.57287014,0.30364436,0.2185196,0.0,0.3301482,862.27106,630.18317,646.30035,821.978,932.7839,0.02459716796875,-0.06829833984375,0.972900390625,2.6019287109375,-3.342132568359375,1.158905029296875,1.0,2.0,4.0,4.0,2.0,80.0,event
11:46:43.822,1.58893,0.5394523,0.0,0.80796534,1.4143519,0.39488906,0.0,0.69994354,0.93582773,0.34598473,0.0,-0.02815264,0.8244695,0.57862645,0.0,0.57287014,0.30364436,0.2185196,0.0,0.3301482,918.68134,639.0476,945.2747,820.7692,820.7692,0.02459716796875,-0.06829833984375,0.972900390625,2.6019287109375,-3.342132568359375,1.158905029296875,1.0,2.0,4.0,4.0,2.0,80.0,event
11:46:43.822,1.58893,0.5394523,0.0,0.80796534,1.4143519,0.39488906,0.0,0.69994354,0.93582773,0.34598473,0.0,-0.02815264,0.8244695,0.57862645,0.0,0.57287014,0.30364436,0.2185196,0.0,0.3301482,809.89014,621.31866,851.79486,806.26373,779.2674,0.02459716796875,-0.06829833984375,0.972900390625,2.6019287109375,-3.342132568359375,1.158905029296875,1.0,2.0,4.0,4.0,2.0,80.0,event
11:46:43.823,1.58893,0.5394523,0.0,0.80796534,1.4143519,0.39488906,0.0,0.69994354,0.93582773,0.34598473,0.0,-0.02815264,0.8244695,0.57862645,0.0,0.57287014,0.30364436,0.2185196,0.0,0.3301482,838.0952,640.65936,975.89746,810.293,662.8205,0.02459716796875,-0.06829833984375,0.972900390625,2.6019287109375,-3.342132568359375,1.158905029296875,1.0,2.0,4.0,4.0,2.0,80.0,event
11:46:43.823,1.58893,0.5394523,0.0,0.80796534,1.4143519,0.39488906,0.0,0.69994354,0.93582773,0.34598473,0.0,-0.02815264,0.8244695,0.57862645,0.0,0.57287014,0.30364436,0.2185196,0.0,0.3301482,703.91943,636.2271,583.44324,792.1612,764.7619,0.02459716796875,-0.06829833984375,0.972900390625,2.6019287109375,-3.342132568359375,1.158905029296875,1.0,2.0,4.0,4.0,2.0,80.0,event
11:46:43.823,1.58893,0.5394523,0.0,0.80796534,1.4143519,0.39488906,0.0,0.69994354,0.93582773,0.34598473,0.0,-0.02815264,0.8244695,0.57862645,0.0,0.57287014,0.30364436,0.2185196,0.0,0.3301482,688.20514,612.4542,375.53113,791.75824,906.1905,0.02459716796875,-0.06829833984375,0.972900390625,2.6019287109375,-3.342132568359375,1.158905029296875,1.0,2.0,4.0,4.0,2.0,80.0,event
11:46:43.885,1.58893,0.5394523,0.0,0.80796534,1.4143519,0.39488906,0.0,0.69994354,0.93582773,0.34598473,0.0,-0.02815264,0.8244695,0.57862645,0.0,0.57287014,0.30364436,0.2185196,0.0,0.3301482,896.1172,616.4835,690.2198,815.5311,885.2381,0.01422119140625,-0.06072998046875,0.9945068359375,3.24493408203125,-4.224395751953125,1.128997802734375,1.0,2.0,4.0,4.0,2.0,80.0,event
11:46:43.886,1.58893,0.5394523,0.0,0.80796534,1.4143519,0.39488906,0.0,0.69994354,0.93582773,0.34598473,0.0,-0.02815264,0.8244695,0.57862645,0.0,0.57287014,0.30364436,0.2185196,0.0,0.3301482,797.8022,619.304,482.71063,801.8315,880.40295,0.01422119140625,-0.06072998046875,0.9945068359375,3.24493408203125,-4.224395751953125,1.128997802734375,1.0,2.0,4.0,4.0,2.0,80.0,event
11:46:43.887,1.58893,0.5394523,0.0,0.80796534,1.4143519,0.39488906,0.0,0.69994354,0.93582773,0.34598473,0.0,-0.02815264,0.8244695,0.57862645,0.0,0.57287014,0.30364436,0.2185196,0.0,0.3301482,695.05493,641.4652,792.1612,799.41394,703.91943,0.01422119140625,-0.06072998046875,0.9945068359375,3.24493408203125,-4.224395751953125,1.128997802734375,1.0,2.0,4.0,4.0,2.0,80.0,event
11:46:43.887,1.58893,0.5394523,0.0,0.80796534,1.4143519,0.39488906,0.0,0.69994354,0.93582773,0.34598473,0.0,-0.02815264,0.8244695,0.57862645,0.0,0.57287014,0.30364436,0.2185196,0.0,0.3301482,716.0073,633.8095,967.03296,815.5311,673.69965,0.01422119140625,-0.06072998046875,0.9945068359375,3.24493408203125,-4.224395751953125,1.128997802734375,1.0,2.0,4.0,4.0,2.0,80.0,event
11:46:43.888,1.58893,0.5394523,0.0,0.80796534,1.4143519,0.39488906,0.0,0.69994354,0.93582773,0.34598473,0.0,-0.02815264,0.8244695,0.57862645,0.0,0.57287014,0.30364436,0.2185196,0.0,0.3301482,843.3333,621.31866,825.6044,837.6923,796.99634,0.01422119140625,-0.06072998046875,0.9945068359375,3.24493408203125,-4.224395751953125,1.128997802734375,1.0,2.0,4.0,4.0,2.0,80.0,event
11:46:43.888,1.58893,0.5394523,0.0,0.80796534,1.4143519,0.39488906,0.0,0.69994354,0.93582773,0.34598473,0.0,-0.02815264,0.8244695,0.57862645,0.0,0.57287014,0.30364436,0.2185196,0.0,0.3301482,912.6374,617.28937,668.46155,841.31866,917.47253,0.01422119140625,-0.06072998046875,0.9945068359375,3.24493408203125,-4.224395751953125,1.128997802734375,1.0,2.0,4.0,4.0,2.0,80.0,event
11:46:43.889,1.58893,0.5394523,0.0,0.80796534,1.4143519,0.39488906,0.0,0.69994354,0.93582773,0.34598473,0.0,-0.02815264,0.8244695,0.57862645,0.0,0.57287014,0.30364436,0.2185196,0.0,0.3301482,837.6923,619.707,573.7729,829.2308,830.84247,0.01422119140625,-0.06072998046875,0.9945068359375,3.24493408203125,-4.224395751953125,1.128997802734375,1.0,2.0,4.0,4.0,2.0,80.0,event
11:46:43.889,1.58893,0.5394523,0.0,0.80796534,1.4143519,0.39488906,0.0,0.69994354,0.93582773,0.34598473,0.0,-0.02815264,0.8244695,0.57862645,0.0,0.57287014,0.30364436,0.2185196,0.0,0.3301482,725.2747,618.0952,732.9304,828.8278,676.9231,0.01422119140625,-0.06072998046875,0.9945068359375,3.24493408203125,-4.224395751953125,1.128997802734375,1.0,2.0,4.0,4.0,2.0,80.0,event
11:46:43.890,1.58893,0.5394523,0.0,0.80796534,1.4143519,0.39488906,0.0,0.69994354,0.93582773,0.34598473,0.0,-0.02815264,0.8244695,0.57862645,0.0,0.57287014,0.30364436,0.2185196,0.0,0.3301482,709.9634,581.8315,550.40295,838.49817,832.0513,0.01422119140625,-0.06072998046875,0.9945068359375,3.24493408203125,-4.224395751953125,1.128997802734375,1.0,2.0,4.0,4.0,2.0,80.0,event
11:46:43.891,1.58893,0.5394523,0.0,0.80796534,1.4143519,0.39488906,0.0,0.69994354,0.93582773,0.34598473,0.0,-0.02815264,0.8244695,0.57862645,0.0,0.57287014,0.30364436,0.2185196,0.0,0.3301482,828.022,570.9524,293.33334,856.63007,1002.49084,0.01422119140625,-0.06072998046875,0.9945068359375,3.24493408203125,-4.224395751953125,1.128997802734375,1.0,2.0,4.0,4.0,2.0,80.0,event
11:46:43.894,1.58893,0.5394523,0.0,0.80796534,1.4143519,0.39488906,0.0,0.69994354,0.93582773,0.34598473,0.0,-0.02815264,0.8244695,0.57862645,0.0,0.57287014,0.30364436,0.2185196,0.0,0.3301482,871.13556,574.17584,959.3773,839.304,716.0073,0.01422119140625,-0.06072998046875,0.9945068359375,3.24493408203125,-4.224395751953125,1.128997802734375,1.0,2.0,4.0,4.0,2.0,80.0,event
11:46:43.894,1.58893,0.5394523,0.0,0.80796534,1.4143519,0.39488906,0.0,0.69994354,0.93582773,0.34598473,0.0,-0.02815264,0.8244695,0.57862645,0.0,0.57287014,0.30364436,0.2185196,0.0,0.3301482,927.9487,594.3223,869.5238,859.0476,786.1172,0.01422119140625,-0.06072998046875,0.9945068359375,3.24493408203125,-4.224395751953125,1.128997802734375,1.0,2.0,4.0,4.0,2.0,80.0,event
11:46:43.917,1.58893,0.5394523,0.0,0.80796534,1.4143519,0.39488906,0.0,0.69994354,0.93582773,0.34598473,0.0,-0.02815264,0.8244695,0.57862645,0.0,0.57287014,0.30364436,0.2185196,0.0,0.3301482,729.707,564.10254,671.28204,825.2015,699.0842,0.01422119140625,-0.06072998046875,0.9945068359375,3.24493408203125,-4.224395751953125,1.128997802734375,1.0,2.0,4.0,4.0,2.0,80.0,event
11:46:43.918,1.58893,0.5394523,0.0,0.80796534,1.4143519,0.39488906,0.0,0.69994354,0.93582773,0.34598473,0.0,-0.02815264,0.8244695,0.57862645,0.0,0.57287014,0.30364436,0.2185196,0.0,0.3301482,682.5641,583.8461,805.05493,825.2015,691.4286,0.01422119140625,-0.06072998046875,0.9945068359375,3.24493408203125,-4.224395751953125,1.128997802734375,1.0,2.0,4.0,4.0,2.0,80.0,event
11:46:43.919,1.58893,0.5394523,0.0,0.80796534,1.4143519,0.39488906,0.0,0.69994354,0.93582773,0.34598473,0.0,-0.02815264,0.8244695,0.57862645,0.0,0.57287014,0.30364436,0.2185196,0.0,0.3301482,806.6667,589.89014,956.1539,842.52747,699.89014,0.01422119140625,-0.06072998046875,0.9945068359375,3.24493408203125,-4.224395751953125,1.128997802734375,1.0,2.0,4.0,4.0,2.0,80.0,event
11:46:43.919,1.58893,0.5394523,0.0,0.80796534,1.4143519,0.39488906,0.0,0.69994354,0.93582773,0.34598473,0.0,-0.02815264,0.8244695,0.57862645,0.0,0.57287014,0.30364436,0.2185196,0.0,0.3301482,920.293,585.4579,767.5824,851.39197,744.61536,0.01422119140625,-0.06072998046875,0.9945068359375,3.24493408203125,-4.224395751953125,1.128997802734375,1.0,2.0,4.0,4.0,2.0,80.0,event
11:46:43.919,1.58893,0.5394523,0.0,0.80796534,1.4143519,0.39488906,0.0,0.69994354,0.93582773,0.34598473,0.0,-0.02815264,0.8244695,0.57862645,0.0,0.57287014,0.30364436,0.2185196,0.0,0.3301482,870.7326,591.50183,525.82416,831.6484,832.0513,0.01422119140625,-0.06072998046875,0.9945068359375,3.24493408203125,-4.224395751953125,1.128997802734375,1.0,2.0,4.0,4.0,2.0,80.0,event
11:46:43.920,1.58893,0.5394523,0.0,0.80796534,1.4143519,0.39488906,0.0,0.69994354,0.93582773,0.34598473,0.0,-0.02815264,0.8244695,0.57862645,0.0,0.57287014,0.30364436,0.2185196,0.0,0.3301482,745.82416,601.1722,468.20514,812.3077,857.03296,0.01422119140625,-0.06072998046875,0.9945068359375,3.24493408203125,-4.224395751953125,1.128997802734375,1.0,2.0,4.0,4.0,2.0,80.0,event
11:46:43.921,1.58893,0.5394523,0.0,0.80796534,1.4143519,0.39488906,0.0,0.69994354,0.93582773,0.34598473,0.0,-0.02815264,0.8244695,0.57862645,0.0,0.57287014,0.30364436,0.2185196,0.0,0.3301482,702.71063,614.4689,574.57874,817.5458,784.90845,0.01422119140625,-0.06072998046875,0.9945068359375,3.24493408203125,-4.224395751953125,1.128997802734375,1.0,2.0,4.0,4.0,2.0,80.0,event
11:46:43.922,1.58893,0.5394523,0.0,0.80796534,1.4143519,0.39488906,0.0,0.69994354,0.93582773,0.34598473,0.0,-0.02815264,0.8244695,0.57862645,0.0,0.57287014,0.30364436,0.2185196,0.0,0.3301482,796.1905,618.9011,755.4945,832.8571,780.87915,0.01422119140625,-0.06072998046875,0.9945068359375,3.24493408203125,-4.224395751953125,1.128997802734375,1.0,2.0,4.0,4.0,2.0,80.0,event
11:46:43.922,1.58893,0.5394523,0.0,0.80796534,1.4143519,0.39488906,0.0,0.69994354,0.93582773,0.34598473,0.0,-0.02815264,0.8244695,0.57862645,0.0,0.57287014,0.30364436,0.2185196,0.0,0.3301482,907.8022,606.4103,450.07327,843.3333,989.59705,0.01422119140625,-0.06072998046875,0.9945068359375,3.24493408203125,-4.224395751953125,1.128997802734375,1.0,2.0,4.0,4.0,2.0,80.0,event
11:46:43.923,1.58893,0.5394523,0.0,0.80796534,1.4143519,0.39488906,0.0,0.69994354,0.93582773,0.34598473,0.0,-0.02815264,0.8244695,0.57862645,0.0,0.57287014,0.30364436,0.2185196,0.0,0.3301482,888.86444,640.65936,498.02197,831.6484,903.36993,0.01422119140625,-0.06072998046875,0.9945068359375,3.24493408203125,-4.224395751953125,1.128997802734375,1.0,2.0,4.0,4.0,2.0,80.0,event
11:46:43.923,1.58893,0.5394523,0.0,0.80796534,1.4143519,0.39488906,0.0,0.69994354,0.93582773,0.34598473,0.0,-0.02815264,0.8244695,0.57862645,0.0,0.57287014,0.30364436,0.2185196,0.0,0.3301482,764.7619,658.7912,933.1868,811.50183,646.7033,0.01422119140625,-0.06072998046875,0.9945068359375,3.24493408203125,-4.224395751953125,1.128997802734375,1.0,2.0,4.0,4.0,2.0,80.0,event
11:46:43.924,1.58893,0.5394523,0.0,0.80796534,1.4143519,0.39488906,0.0,0.69994354,0.93582773,0.34598473,0.0,-0.02815264,0.8244695,0.57862645,0.0,0.57287014,0.30364436,0.2185196,0.0,0.3301482,695.05493,637.8388,807.0696,811.0989,727.28937,0.01422119140625,-0.06072998046875,0.9945068359375,3.24493408203125,-4.224395751953125,1.128997802734375,1.0,2.0,4.0,4.0,2.0,80.0,event
11:46:43.951,1.58893,0.5394523,0.0,0.80796534,1.4143519,0.39488906,0.0,0.69994354,0.93582773,0.34598473,0.0,-0.02815264,0.8244695,0.57862645,0.0,0.57287014,0.30364436,0.2185196,0.0,0.3301482,775.2381,643.0769,762.3443,826.8132,809.0842,0.02313232421875,-0.06378173828125,0.9793701171875,2.325286865234375,-2.51220703125,-0.366363525390625,1.0,2.0,4.0,4.0,2.0,80.0,event
11:46:43.952,1.58893,0.5394523,0.0,0.80796534,1.4143519,0.39488906,0.0,0.69994354,0.93582773,0.34598473,0.0,-0.02815264,0.8244695,0.57862645,0.0,0.57287014,0.30364436,0.2185196,0.0,0.3301482,910.2198,661.2088,1023.0403,834.87177,781.685,0.02313232421875,-0.06378173828125,0.9793701171875,2.325286865234375,-2.51220703125,-0.366363525390625,1.0,2.0,4.0,4.0,2.0,80.0,event
11:46:43.952,1.58893,0.5394523,0.0,0.80796534,1.4143519,0.39488906,0.0,0.69994354,0.93582773,0.34598473,0.0,-0.02815264,0.8244695,0.57862645,0.0,0.57287014,0.30364436,0.2185196,0.0,0.3301482,910.6227,662.01465,1083.0769,828.8278,781.28204,0.02313232421875,-0.06378173828125,0.9793701171875,2.325286865234375,-2.51220703125,-0.366363525390625,1.0,2.0,4.0,4.0,2.0,80.0,event
11:46:43.952,1.58893,0.5394523,0.0,0.80796534,1.4143519,0.39488906,0.0,0.69994354,0.93582773,0.34598473,0.0,-0.02815264,0.8244695,0.57862645,0.0,0.57287014,0.30364436,0.2185196,0.0,0.3301482,778.0586,659.19415,788.93774,813.5165,786.52014,0.02313232421875,-0.06378173828125,0.9793701171875,2.325286865234375,-2.51220703125,-0.366363525390625,1.0,2.0,4.0,4.0,2.0,80.0,event
11:46:43.953,1.58893,0.5394523,0.0,0.80796534,1.4143519,0.39488906,0.0,0.69994354,0.93582773,0.34598473,0.0,-0.02815264,0.8244695,0.57862645,0.0,0.57287014,0.30364436,0.2185196,0.0,0.3301482,693.44324,670.87915,695.05493,804.65204,755.89746,0.02313232421875,-0.06378173828125,0.9793701171875,2.325286865234375,-2.51220703125,-0.366363525390625,1.0,2.0,4.0,4.0,2.0,80.0,event
11:46:43.953,1.58893,0.5394523,0.0,0.80796534,1.4143519,0.39488906,0.0,0.69994354,0.93582773,0.34598473,0.0,-0.02815264,0.8244695,0.57862645,0.0,0.57287014,0.30364436,0.2185196,0.0,0.3301482,758.71796,678.1319,719.6337,814.7253,807.8755,0.02313232421875,-0.06378173828125,0.9793701171875,2.325286865234375,-2.51220703125,-0.366363525390625,1.0,2.0,4.0,4.0,2.0,80.0,event
11:46:43.953,1.58893,0.5394523,0.0,0.80796534,1.4143519,0.39488906,0.0,0.69994354,0.93582773,0.34598473,0.0,-0.02815264,0.8244695,0.57862645,0.0,0.57287014,0.30364436,0.2185196,0.0,0.3301482,902.96704,682.1612,741.79486,827.2161,864.2857,0.02313232421875,-0.06378173828125,0.9793701171875,2.325286865234375,-2.51220703125,-0.366363525390625,1.0,2.0,4.0,4.0,2.0,80.0,event
11:46:43.954,1.58893,0.5394523,0.0,0.80796534,1.4143519,0.39488906,0.0,0.69994354,0.93582773,0.34598473,0.0,-0.02815264,0.8244695,0.57862645,0.0,0.57287014,0.30364436,0.2185196,0.0,0.3301482,913.44324,666.04395,536.30035,821.1722,996.04395,0.02313232421875,-0.06378173828125,0.9793701171875,2.325286865234375,-2.51220703125,-0.366363525390625,1.0,2.0,4.0,4.0,2.0,80.0,event
11:46:43.954,1.58893,0.5394523,0.0,0.80796534,1.4143519,0.39488906,0.0,0.69994354,0.93582773,0.34598473,0.0,-0.02815264,0.8244695,0.57862645,0.0,0.57287014,0.30364436,0.2185196,0.0,0.3301482,778.46155,671.685,93.88278,810.293,1071.7949,0.02313232421875,-0.06378173828125,0.9793701171875,2.325286865234375,-2.51220703125,-0.366363525390625,1.0,2.0,4.0,4.0,2.0,80.0,event
11:46:43.955,1.58893,0.5394523,0.0,0.80796534,1.4143519,0.39488906,0.0,0.69994354,0.93582773,0.34598473,0.0,-0.02815264,0.8244695,0.57862645,0.0,0.57287014,0.30364436,0.2185196,0.0,0.3301482,761.9414,709.5604,950.5128,826.4103,648.315,0.02313232421875,-0.06378173828125,0.9793701171875,2.325286865234375,-2.51220703125,-0.366363525390625,1.0,2.0,4.0,4.0,2.0,80.0,event
11:46:43.955,1.58893,0.5394523,0.0,0.80796534,1.4143519,0.39488906,0.0,0.69994354,0.93582773,0.34598473,0.0,-0.02815264,0.8244695,0.57862645,0.0,0.57287014,0.30364436,0.2185196,0.0,0.3301482,706.7399,717.619,539.5238,813.1135,773.22345,0.02313232421875,-0.06378173828125,0.9793701171875,2.325286865234375,-2.51220703125,-0.366363525390625,1.0,2.0,4.0,4.0,2.0,80.0,event
11:46:43.955,1.58893,0.5394523,0.0,0.80796534,1.4143519,0.39488906,0.0,0.69994354,0.93582773,0.34598473,0.0,-0.02815264,0.8244695,0.57862645,0.0,0.57287014,0.30364436,0.2185196,0.0,0.3301482,902.5641,699.4872,875.16486,847.3626,750.2564,0.02313232421875,-0.06378173828125,0.9793701171875,2.325286865234375,-2.51220703125,-0.366363525390625,1.0,2.0,4.0,4.0,2.0,80.0,event
11:46:44.014,1.58893,0.5394523,0.0,0.80796534,1.4143519,0.39488906,0.0,0.69994354,0.93582773,0.34598473,0.0,-0.02815264,0.8244695,0.57862645,0.0,0.57287014,0.30364436,0.2185196,0.0,0.3301482,948.0952,704.7253,948.49817,846.55676,757.9121,0.01458740234375,-0.06268310546875,0.98406982421875,2.67669677734375,-2.504730224609375,-0.007476806640625,1.0,2.0,4.0,4.0,2.0,80.0,event
11:46:44.015,1.58893,0.5394523,0.0,0.80796534,1.4143519,0.39488906,0.0,0.69994354,0.93582773,0.34598473,0.0,-0.02815264,0.8244695,0.57862645,0.0,0.57287014,0.30364436,0.2185196,0.0,0.3301482,823.1868,702.71063,958.1685,823.1868,670.87915,0.01458740234375,-0.06268310546875,0.98406982421875,2.67669677734375,-2.504730224609375,-0.007476806640625,1.0,2.0,4.0,4.0,2.0,80.0,event
11:46:44.016,1.58893,0.5394523,0.0,0.80796534,1.4143519,0.39488906,0.0,0.69994354,0.93582773,0.34598473,0.0,-0.02815264,0.8244695,0.57862645,0.0,0.57287014,0.30364436,0.2185196,0.0,0.3301482,716.4103,699.4872,859.85345,819.15753,716.8132,0.01458740234375,-0.06268310546875,0.98406982421875,2.67669677734375,-2.504730224609375,-0.007476806640625,1.0,2.0,4.0,4.0,2.0,80.0,event
11:46:44.017,1.58893,0.5394523,0.0,0.80796534,1.4143519,0.39488906,0.0,0.69994354,0.93582773,0.34598473,0.0,-0.02815264,0.8244695,0.57862645,0.0,0.57287014,0.30364436,0.2185196,0.0,0.3301482,744.61536,699.0842,769.59705,833.2601,855.0183,0.01458740234375,-0.06268310546875,0.98406982421875,2.67669677734375,-2.504730224609375,-0.007476806640625,1.0,2.0,4.0,4.0,2.0,80.0,event
11:46:44.017,1.58893,0.5394523,0.0,0.80796534,1.4143519,0.39488906,0.0,0.69994354,0.93582773,0.34598473,0.0,-0.02815264,0.8244695,0.57862645,0.0,0.57287014,0.30364436,0.2185196,0.0,0.3301482,879.19415,711.1722,916.26373,842.1245,811.0989,0.01458740234375,-0.06268310546875,0.98406982421875,2.67669677734375,-2.504730224609375,-0.007476806640625,1.0,2.0,4.0,4.0,2.0,80.0,event
11:46:44.018,1.58893,0.5394523,0.0,0.80796534,1.4143519,0.39488906,0.0,0.69994354,0.93582773,0.34598473,0.0,-0.02815264,0.8244695,0.57862645,0.0,0.57287014,0.30364436,0.2185196,0.0,0.3301482,935.6044,713.9927,855.82416,839.707,766.77655,0.01458740234375,-0.06268310546875,0.98406982421875,2.67669677734375,-2.504730224609375,-0.007476806640625,1.0,2.0,4.0,4.0,2.0,80.0,event
11:46:44.018,1.58893,0.5394523,0.0,0.80796534,1.4143519,0.39488906,0.0,0.69994354,0.93582773,0.34598473,0.0,-0.02815264,0.8244695,0.57862645,0.0,0.57287014,0.30364436,0.2185196,0.0,0.3301482,830.4396,714.3956,637.8388,820.7692,799.011,0.01458740234375,-0.06268310546875,0.98406982421875,2.67669677734375,-2.504730224609375,-0.007476806640625,1.0,2.0,4.0,4.0,2.0,80.0,event
11:46:44.019,1.58893,0.5394523,0.0,0.80796534,1.4143519,0.39488906,0.0,0.69994354,0.93582773,0.34598473,0.0,-0.02815264,0.8244695,0.57862645,0.0,0.57287014,0.30364436,0.2185196,0.0,0.3301482,703.91943,706.337,267.14285,811.0989,960.989,0.01458740234375,-0.06268310546875,0.98406982421875,2.67669677734375,-2.504730224609375,-0.007476806640625,1.0,2.0,4.0,4.0,2.0,80.0,event
11:46:44.019,1.58893,0.5394523,0.0,0.80796534,1.4143519,0.39488906,0.0,0.69994354,0.93582773,0.34598473,0.0,-0.02815264,0.8244695,0.57862645,0.0,0.57287014,0.30364436,0.2185196,0.0,0.3301482,712.7839,730.9158,432.74725,817.5458,896.1172,0.01458740234375,-0.06268310546875,0.98406982421875,2.67669677734375,-2.504730224609375,-0.007476806640625,1.0,2.0,4.0,4.0,2.0,80.0,event
11:46:44.020,1.58893,0.5394523,0.0,0.80796534,1.4143519,0.39488906,0.0,0.69994354,0.93582773,0.34598473,0.0,-0.02815264,0.8244695,0.57862645,0.0,0.57287014,0.30364436,0.2185196,0.0,0.3301482,852.1978,744.61536,867.1062,828.022,763.1502,0.01458740234375,-0.06268310546875,0.98406982421875,2.67669677734375,-2.504730224609375,-0.007476806640625,1.0,2.0,4.0,4.0,2.0,80.0,event
11:46:44.020,1.58893,0.5394523,0.0,0.80796534,1.4143519,0.39488906,0.0,0.69994354,0.93582773,0.34598473,0.0,-0.02815264,0.8244695,0.57862645,0.0,0.57287014,0.30364436,0.2185196,0.0,0.3301482,923.5165,726.4835,703.5165,826.8132,888.0586,0.01458740234375,-0.06268310546875,0.98406982421875,2.67669677734375,-2.504730224609375,-0.007476806640625,1.0,2.0,4.0,4.0,2.0,80.0,event
11:46:44.021,1.58893,0.5394523,0.0,0.80796534,1.4143519,0.39488906,0.0,0.69994354,0.93582773,0.34598473,0.0,-0.02815264,0.8244695,0.57862645,0.0,0.57287014,0.30364436,0.2185196,0.0,0.3301482,835.2747,726.8865,568.93774,810.293,850.989,0.01458740234375,-0.06268310546875,0.98406982421875,2.67669677734375,-2.504730224609375,-0.007476806640625,1.0,2.0,4.0,4.0,2.0,80.0,event
11:46:44.083,1.58893,0.5394523,0.0,0.80796534,1.4143519,0.39488906,0.0,0.69994354,0.93582773,0.34598473,0.0,-0.02815264,0.8244695,0.57862645,0.0,0.57287014,0.30364436,0.2185196,0.0,0.3301482,717.2161,745.82416,847.76556,799.011,749.45056,0.023193359375,-0.05694580078125,0.97991943359375,2.998199462890625,-4.089813232421875,0.28411865234375,1.0,2.0,4.0,4.0,2.0,80.0,event
11:46:44.084,1.58893,0.5394523,0.0,0.80796534,1.4143519,0.39488906,0.0,0.69994354,0.93582773,0.34598473,0.0,-0.02815264,0.8244695,0.57862645,0.0,0.57287014,0.30364436,0.2185196,0.0,0.3301482,707.5458,741.79486,1040.7693,798.20514,764.7619,0.023193359375,-0.05694580078125,0.97991943359375,2.998199462890625,-4.089813232421875,0.28411865234375,1.0,2.0,4.0,4.0,2.0,80.0,event
11:46:44.084,1.58893,0.5394523,0.0,0.80796534,1.4143519,0.39488906,0.0,0.69994354,0.93582773,0.34598473,0.0,-0.02815264,0.8244695,0.57862645,0.0,0.57287014,0.30364436,0.2185196,0.0,0.3301482,829.6337,732.52747,862.674,816.7399,783.2967,0.023193359375,-0.05694580078125,0.97991943359375,2.998199462890625,-4.089813232421875,0.28411865234375,1.0,2.0,4.0,4.0,2.0,80.0,event
11:46:44.085,1.58893,0.5394523,0.0,0.80796534,1.4143519,0.39488906,0.0,0.69994354,0.93582773,0.34598473,0.0,-0.02815264,0.8244695,0.57862645,0.0,0.57287014,0.30364436,0.2185196,0.0,0.3301482,928.7546,742.1978,874.35895,823.5897,782.0879,0.023193359375,-0.05694580078125,0.97991943359375,2.998199462890625,-4.089813232421875,0.28411865234375,1.0,2.0,4.0,4.0,2.0,80.0,event
11:46:44.085,1.58893,0.5394523,0.0,0.80796534,1.4143519,0.39488906,0.0,0.69994354,0.93582773,0.34598473,0.0,-0.02815264,0.8244695,0.57862645,0.0,0.57287014,0.30364436,0.2185196,0.0,0.3301482,865.89746,743.8095,918.68134,806.6667,721.2454,0.023193359375,-0.05694580078125,0.97991943359375,2.998199462890625,-4.089813232421875,0.28411865234375,1.0,2.0,4.0,4.0,2.0,80.0,event
11:46:44.086,1.58893,0.5394523,0.0,0.80796534,1.4143519,0.39488906,0.0,0.69994354,0.93582773,0.34598473,0.0,-0.02815264,0.8244695,0.57862645,0.0,0.57287014,0.30364436,0.2185196,0.0,0.3301482,728.49817,740.58606,722.8571,797.3993,732.9304,0.023193359375,-0.05694580078125,0.97991943359375,2.998199462890625,-4.089813232421875,0.28411865234375,1.0,2.0,4.0,4.0,2.0,80.0,event
11:46:44.087,1.58893,0.5394523,0.0,0.80796534,1.4143519,0.39488906,0.0,0.69994354,0.93582773,0.34598473,0.0,-0.02815264,0.8244695,0.57862645,0.0,0.57287014,0.30364436,0.2185196,0.0,0.3301482,695.05493,722.0513,400.51282,805.4579,933.9927,0.023193359375,-0.05694580078125,0.97991943359375,2.998199462890625,-4.089813232421875,0.28411865234375,1.0,2.0,4.0,4.0,2.0,80.0,event
11:46:44.087,1.58893,0.5394523,0.0,0.80796534,1.4143519,0.39488906,0.0,0.69994354,0.93582773,0.34598473,0.0,-0.02815264,0.8244695,0.57862645,0.0,0.57287014,0.30364436,0.2185196,0.0,0.3301482,806.26373,725.2747,307.03296,821.1722,997.6557,0.023193359375,-0.05694580078125,0.97991943359375,2.998199462890625,-4.089813232421875,0.28411865234375,1.0,2.0,4.0,4.0,2.0,80.0,event
11:46:44.088,1.58893,0.5394523,0.0,0.80796534,1.4143519,0.39488906,0.0,0.69994354,0.93582773,0.34598473,0.0,-0.02815264,0.8244695,0.57862645,0.0,0.57287014,0.30364436,0.2185196,0.0,0.3301482,919.89014,752.674,888.46155,826.4103,800.2198,0.023193359375,-0.05694580078125,0.97991943359375,2.998199462890625,-4.089813232421875,0.28411865234375,1.0,2.0,4.0,4.0,2.0,80.0,event
11:46:44.088,1.58893,0.5394523,0.0,0.80796534,1.4143519,0.39488906,0.0,0.69994354,0.93582773,0.34598473,0.0,-0.02815264,0.8244695,0.57862645,0.0,0.57287014,0.30364436,0.2185196,0.0,0.3301482,878.7912,732.9304,1058.4982,818.3516,785.31134,0.023193359375,-0.05694580078125,0.97991943359375,2.998199462890625,-4.089813232421875,0.28411865234375,1.0,2.0,4.0,4.0,2.0,80.0,event
11:46:44.089,1.58893,0.5394523,0.0,0.80796534,1.4143519,0.39488906,0.0,0.69994354,0.93582773,0.34598473,0.0,-0.02815264,0.8244695,0.57862645,0.0,0.57287014,0.30364436,0.2185196,0.0,0.3301482,734.5421,716.8132,798.20514,800.6227,765.16486,0.023193359375,-0.05694580078125,0.97991943359375,2.998199462890625,-4.089813232421875,0.28411865234375,1.0,2.0,4.0,4.0,2.0,80.0,event
11:46:44.089,1.58893,0.5394523,0.0,0.80796534,1.4143519,0.39488906,0.0,0.69994354,0.93582773,0.34598473,0.0,-0.02815264,0.8244695,0.57862645,0.0,0.57287014,0.30364436,0.2185196,0.0,0.3301482,677.72894,711.978,824.7985,797.8022,699.89014,0.023193359375,-0.05694580078125,0.97991943359375,2.998199462890625,-4.089813232421875,0.28411865234375,1.0,2.0,4.0,4.0,2.0,80.0,event
11:46:44.125,1.58893,0.5394523,0.0,0.80796534,1.4143519,0.39488906,0.0,0.69994354,0.93582773,0.34598473,0.0,-0.02815264,0.8244695,0.57862645,0.0,0.57287014,0.30364436,0.2185196,0.0,0.3301482,786.52014,703.1135,886.8498,819.9634,778.86444,0.013916015625,-0.0528564453125,0.99591064453125,2.03369140625,-4.134674072265625,-0.61309814453125,1.0,2.0,4.0,4.0,2.0,80.0,event
11:46:44.126,1.58893,0.5394523,0.0,0.80796534,1.4143519,0.39488906,0.0,0.69994354,0.93582773,0.34598473,0.0,-0.02815264,0.8244695,0.57862645,0.0,0.57287014,0.30364436,0.2185196,0.0,0.3301482,910.2198,689.011,915.05493,824.3956,840.10986,0.013916015625,-0.0528564453125,0.99591064453125,2.03369140625,-4.134674072265625,-0.61309814453125,1.0,2.0,4.0,4.0,2.0,80.0,event
11:46:44.130,1.58893,0.5394523,0.0,0.80796534,1.4143519,0.39488906,0.0,0.69994354,0.93582773,0.34598473,0.0,-0.02815264,0.8244695,0.57862645,0.0,0.57287014,0.30364436,0.2185196,0.0,0.3301482,871.9414,665.2381,727.6923,799.41394,845.34796,0.013916015625,-0.0528564453125,0.99591064453125,2.03369140625,-4.134674072265625,-0.61309814453125,1.0,2.0,4.0,4.0,2.0,80.0,event
11:46:44.131,1.58893,0.5394523,0.0,0.80796534,1.4143519,0.39488906,0.0,0.69994354,0.93582773,0.34598473,0.0,-0.02815264,0.8244695,0.57862645,0.0,0.57287014,0.30364436,0.2185196,0.0,0.3301482,726.8865,659.19415,686.1905,776.8498,758.315,0.013916015625,-0.0528564453125,0.99591064453125,2.03369140625,-4.134674072265625,-0.61309814453125,1.0,2.0,4.0,4.0,2.0,80.0,event
11:46:44.131,1.58893,0.5394523,0.0,0.80796534,1.4143519,0.39488906,0.0,0.69994354,0.93582773,0.34598473,0.0,-0.02815264,0.8244695,0.57862645,0.0,0.57287014,0.30364436,0.2185196,0.0,0.3301482,662.8205,646.7033,842.52747,774.0293,628.97437,0.013916015625,-0.0528564453125,0.99591064453125,2.03369140625,-4.134674072265625,-0.61309814453125,1.0,2.0,4.0,4.0,2.0,80.0,event
11:46:44.132,1.58893,0.5394523,0.0,0.80796534,1.4143519,0.39488906,0.0,0.69994354,0.93582773,0.34598473,0.0,-0.02815264,0.8244695,0.57862645,0.0,0.57287014,0.30364436,0.2185196,0.0,0.3301482,750.65936,631.79486,745.42126,784.10254,722.4542,0.013916015625,-0.0528564453125,0.99591064453125,2.03369140625,-4.134674072265625,-0.61309814453125,1.0,2.0,4.0,4.0,2.0,80.0,event
11:46:44.133,1.58893,0.5394523,0.0,0.80796534,1.4143519,0.39488906,0.0,0.69994354,0.93582773,0.34598473,0.0,-0.02815264,0.8244695,0.57862645,0.0,0.57287014,0.30364436,0.2185196,0.0,0.3301482,861.4652,614.87177,471.02563,786.52014,1041.5751,0.013916015625,-0.0528564453125,0.99591064453125,2.03369140625,-4.134674072265625,-0.61309814453125,1.0,2.0,4.0,4.0,2.0,80.0,event
11:46:44.133,1.58893,0.5394523,0.0,0.80796534,1.4143519,0.39488906,0.0,0.69994354,0.93582773,0.34598473,0.0,-0.02815264,0.8244695,0.57862645,0.0,0.57287014,0.30364436,0.2185196,0.0,0.3301482,848.5714,602.381,604.3956,773.22345,960.989,0.013916015625,-0.0528564453125,0.99591064453125,2.03369140625,-4.134674072265625,-0.61309814453125,1.0,2.0,4.0,4.0,2.0,80.0,event
11:46:44.134,1.58893,0.5394523,0.0,0.80796534,1.4143519,0.39488906,0.0,0.69994354,0.93582773,0.34598473,0.0,-0.02815264,0.8244695,0.57862645,0.0,0.57287014,0.30364436,0.2185196,0.0,0.3301482,709.9634,578.60803,953.3333,747.03296,641.06226,0.013916015625,-0.0528564453125,0.99591064453125,2.03369140625,-4.134674072265625,-0.61309814453125,1.0,2.0,4.0,4.0,2.0,80.0,event
11:46:44.135,1.58893,0.5394523,0.0,0.80796534,1.4143519,0.39488906,0.0,0.69994354,0.93582773,0.34598473,0.0,-0.02815264,0.8244695,0.57862645,0.0,0.57287014,0.30364436,0.2185196,0.0,0.3301482,611.2454,526.2271,747.8388,724.0659,680.54944,0.013916015625,-0.0528564453125,0.99591064453125,2.03369140625,-4.134674072265625,-0.61309814453125,1.0,2.0,4.0,4.0,2.0,80.0,event
11:46:44.136,1.58893,0.5394523,0.0,0.80796534,1.4143519,0.39488906,0.0,0.69994354,0.93582773,0.34598473,0.0,-0.02815264,0.8244695,0.57862645,0.0,0.57287014,0.30364436,0.2185196,0.0,0.3301482,657.98535,498.4249,685.78754,708.3516,745.82416,0.013916015625,-0.0528564453125,0.99591064453125,2.03369140625,-4.134674072265625,-0.61309814453125,1.0,2.0,4.0,4.0,2.0,80.0,event
11:46:44.136,1.58893,0.5394523,0.0,0.80796534,1.4143519,0.39488906,0.0,0.69994354,0.93582773,0.34598473,0.0,-0.02815264,0.8244695,0.57862645,0.0,0.57287014,0.30364436,0.2185196,0.0,0.3301482,772.01465,481.0989,966.2271,698.68134,670.87915,0.013916015625,-0.0528564453125,0.99591064453125,2.03369140625,-4.134674072265625,-0.61309814453125,1.0,2.0,4.0,4.0,2.0,80.0,event
11:46:44.175,1.58893,0.5394523,0.0,0.80796534,1.4143519,0.39488906,0.0,0.69994354,0.93582773,0.34598473,0.0,-0.02815264,0.8244695,0.57862645,0.0,0.57287014,0.30364436,0.2185196,0.0,0.3301482,766.77655,460.1465,1031.9048,671.685,674.5055,0.013916015625,-0.0528564453125,0.99591064453125,2.03369140625,-4.134674072265625,-0.61309814453125,1.0,2.0,4.0,4.0,2.0,80.0,event
11:46:44.176,1.58893,0.5394523,0.0,0.80796534,1.4143519,0.39488906,0.0,0.69994354,0.93582773,0.34598473,0.0,-0.02815264,0.8244695,0.57862645,0.0,0.57287014,0.30364436,0.2185196,0.0,0.3301482,498.02197,509.70697,777.6557,597.9487,866.30035,0.013916015625,-0.0528564453125,0.99591064453125,2.03369140625,-4.134674072265625,-0.61309814453125,1.0,2.0,4.0,4.0,2.0,80.0,event
11:46:44.176,1.58893,0.5394523,0.0,0.80796534,1.4143519,0.39488906,0.0,0.69994354,0.93582773,0.34598473,0.0,-0.02815264,0.8244695,0.57862645,0.0,0.57287014,0.30364436,0.2185196,0.0,0.3301482,608.8278,468.60806,857.4359,626.55676,866.7033,0.013916015625,-0.0528564453125,0.99591064453125,2.03369140625,-4.134674072265625,-0.61309814453125,1.0,2.0,4.0,4.0,2.0,80.0,event
11:46:44.177,1.58893,0.5394523,0.0,0.80796534,1.4143519,0.39488906,0.0,0.69994354,0.93582773,0.34598473,0.0,-0.02815264,0.8244695,0.57862645,0.0,0.57287014,0.30364436,0.2185196,0.0,0.3301482,525.42126,549.59705,809.89014,591.0989,788.93774,0.013916015625,-0.0528564453125,0.99591064453125,2.03369140625,-4.134674072265625,-0.61309814453125,1.0,2.0,4.0,4.0,2.0,80.0,event
11:46:44.178,1.58893,0.5394523,0.0,0.80796534,1.4143519,0.39488906,0.0,0.69994354,0.93582773,0.34598473,0.0,-0.02815264,0.8244695,0.57862645,0.0,0.57287014,0.30364436,0.2185196,0.0,0.3301482,642.674,603.1868,906.99634,582.6374,836.4835,0.013916015625,-0.0528564453125,0.99591064453125,2.03369140625,-4.134674072265625,-0.61309814453125,1.0,2.0,4.0,4.0,2.0,80.0,event
11:46:44.179,1.58893,0.5394523,0.0,0.80796534,1.4143519,0.39488906,0.0,0.69994354,0.93582773,0.34598473,0.0,-0.02815264,0.8244695,0.57862645,0.0,0.57287014,0.30364436,0.2185196,0.0,0.3301482,642.27106,643.0769,682.1612,537.1062,989.59705,0.013916015625,-0.0528564453125,0.99591064453125,2.03369140625,-4.134674072265625,-0.61309814453125,1.0,2.0,4.0,4.0,2.0,80.0,event
11:46:44.179,1.58893,0.5394523,0.0,0.80796534,1.4143519,0.39488906,0.0,0.69994354,0.93582773,0.34598473,0.0,-0.02815264,0.8244695,0.57862645,0.0,0.57287014,0.30364436,0.2185196,0.0,0.3301482,495.20148,669.67035,156.73993,496.00732,1140.6959,0.013916015625,-0.0528564453125,0.99591064453125,2.03369140625,-4.134674072265625,-0.61309814453125,1.0,2.0,4.0,4.0,2.0,80.0,event
11:46:44.180,1.58893,0.5394523,0.0,0.80796534,1.4143519,0.39488906,0.0,0.69994354,0.93582773,0.34598473,0.0,-0.02815264,0.8244695,0.57862645,0.0,0.57287014,0.30364436,0.2185196,0.0,0.3301482,400.91574,731.7216,534.68866,487.94873,845.7509,0.013916015625,-0.0528564453125,0.99591064453125,2.03369140625,-4.134674072265625,-0.61309814453125,1.0,2.0,4.0,4.0,2.0,80.0,event
11:46:44.181,1.58893,0.5394523,0.0,0.80796534,1.4143519,0.39488906,0.0,0.69994354,0.93582773,0.34598473,0.0,-0.02815264,0.8244695,0.57862645,0.0,0.57287014,0.30364436,0.2185196,0.0,0.3301482,428.71796,756.7033,967.03296,495.20148,705.12823,0.013916015625,-0.0528564453125,0.99591064453125,2.03369140625,-4.134674072265625,-0.61309814453125,1.0,2.0,4.0,4.0,2.0,80.0,event
11:46:44.182,1.58893,0.5394523,0.0,0.80796534,1.4143519,0.39488906,0.0,0.69994354,0.93582773,0.34598473,0.0,-0.02815264,0.8244695,0.57862645,0.0,0.57287014,0.30364436,0.2185196,0.0,0.3301482,558.46155,757.1062,876.77655,515.34796,813.91943,0.013916015625,-0.0528564453125,0.99591064453125,2.03369140625,-4.134674072265625,-0.61309814453125,1.0,2.0,4.0,4.0,2.0,80.0,event
11:46:44.183,1.58893,0.5394523,0.0,0.80796534,1.4143519,0.39488906,0.0,0.69994354,0.93582773,0.34598473,0.0,-0.02815264,0.8244695,0.57862645,0.0,0.57287014,0.30364436,0.2185196,0.0,0.3301482,627.76556,778.46155,906.5934,521.79486,827.2161,0.013916015625,-0.0528564453125,0.99591064453125,2.03369140625,-4.134674072265625,-0.61309814453125,1.0,2.0,4.0,4.0,2.0,80.0,event
11:46:44.184,1.58893,0.5394523,0.0,0.80796534,1.4143519,0.39488906,0.0,0.69994354,0.93582773,0.34598473,0.0,-0.02815264,0.8244695,0.57862645,0.0,0.57287014,0.30364436,0.2185196,0.0,0.3301482,530.65936,805.05493,1030.2931,511.3187,806.6667,0.013916015625,-0.0528564453125,0.99591064453125,2.03369140625,-4.134674072265625,-0.61309814453125,1.0,2.0,4.0,4.0,2.0,80.0,event
11:46:44.227,1.58893,0.5394523,0.0,0.80796534,1.4143519,0.39488906,0.0,0.69994354,0.93582773,0.34598473,0.0,-0.02815264,0.8244695,0.57862645,0.0,0.57287014,0.30364436,0.2185196,0.0,0.3301482,418.64468,801.02563,911.02563,515.7509,790.9524,0.024658203125,-0.0595703125,0.9818115234375,1.906585693359375,-4.9346923828125,-0.8074951171875,1.0,2.0,4.0,4.0,2.0,80.0,event
11:46:44.229,1.58893,0.5394523,0.0,0.80796534,1.4143519,0.39488906,0.0,0.69994354,0.93582773,0.34598473,0.0,-0.02815264,0.8244695,0.57862645,0.0,0.57287014,0.30364436,0.2185196,0.0,0.3301482,443.62637,813.5165,778.0586,537.1062,755.09155,0.024658203125,-0.0595703125,0.9818115234375,1.906585693359375,-4.9346923828125,-0.8074951171875,1.0,2.0,4.0,4.0,2.0,80.0,event
11:46:44.230,1.58893,0.5394523,0.0,0.80796534,1.4143519,0.39488906,0.0,0.69994354,0.93582773,0.34598473,0.0,-0.02815264,0.8244695,0.57862645,0.0,0.57287014,0.30364436,0.2185196,0.0,0.3301482,598.3516,838.0952,922.3077,568.1319,749.85345,0.024658203125,-0.0595703125,0.9818115234375,1.906585693359375,-4.9346923828125,-0.8074951171875,1.0,2.0,4.0,4.0,2.0,80.0,event
11:46:44.231,1.58893,0.5394523,0.0,0.80796534,1.4143519,0.39488906,0.0,0.69994354,0.93582773,0.34598473,0.0,-0.02815264,0.8244695,0.57862645,0.0,0.57287014,0.30364436,0.2185196,0.0,0.3301482,695.8608,842.1245,1066.1538,584.2491,754.68866,0.024658203125,-0.0595703125,0.9818115234375,1.906585693359375,-4.9346923828125,-0.8074951171875,1.0,2.0,4.0,4.0,2.0,80.0,event
11:46:44.235,1.58893,0.5394523,0.0,0.80796534,1.4143519,0.39488906,0.0,0.69994354,0.93582773,0.34598473,0.0,-0.02815264,0.8244695,0.57862645,0.0,0.57287014,0.30364436,0.2185196,0.0,0.3301482,617.28937,838.49817,923.91943,576.5934,804.65204,0.024658203125,-0.0595703125,0.9818115234375,1.906585693359375,-4.9346923828125,-0.8074951171875,1.0,2.0,4.0,4.0,2.0,80.0,event
11:46:44.236,1.58893,0.5394523,0.0,0.80796534,1.4143519,0.39488906,0.0,0.69994354,0.93582773,0.34598473,0.0,-0.02815264,0.8244695,0.57862645,0.0,0.57287014,0.30364436,0.2185196,0.0,0.3301482,498.4249,825.6044,564.90845,575.78754,935.2015,0.024658203125,-0.0595703125,0.9818115234375,1.906585693359375,-4.9346923828125,-0.8074951171875,1.0,2.0,4.0,4.0,2.0,80.0,event
11:46:44.237,1.58893,0.5394523,0.0,0.80796534,1.4143519,0.39488906,0.0,0.69994354,0.93582773,0.34598473,0.0,-0.02815264,0.8244695,0.57862645,0.0,0.57287014,0.30364436,0.2185196,0.0,0.3301482,506.0806,836.4835,539.12085,595.12823,900.9524,0.024658203125,-0.0595703125,0.9818115234375,1.906585693359375,-4.9346923828125,-0.8074951171875,1.0,2.0,4.0,4.0,2.0,80.0,event
11:46:44.238,1.58893,0.5394523,0.0,0.80796534,1.4143519,0.39488906,0.0,0.69994354,0.93582773,0.34598473,0.0,-0.02815264,0.8244695,0.57862645,0.0,0.57287014,0.30364436,0.2185196,0.0,0.3301482,645.09155,849.3773,738.97437,619.707,807.47253,0.024658203125,-0.0595703125,0.9818115234375,1.906585693359375,-4.9346923828125,-0.8074951171875,1.0,2.0,4.0,4.0,2.0,80.0,event
11:46:44.239,1.58893,0.5394523,0.0,0.80796534,1.4143519,0.39488906,0.0,0.69994354,0.93582773,0.34598473,0.0,-0.02815264,0.8244695,0.57862645,0.0,0.57287014,0.30364436,0.2185196,0.0,0.3301482,751.4652,851.79486,880.0,642.674,859.45056,0.024658203125,-0.0595703125,0.9818115234375,1.906585693359375,-4.9346923828125,-0.8074951171875,1.0,2.0,4.0,4.0,2.0,80.0,event
11:46:44.240,1.58893,0.5394523,0.0,0.80796534,1.4143519,0.39488906,0.0,0.69994354,0.93582773,0.34598473,0.0,-0.02815264,0.8244695,0.57862645,0.0,0.57287014,0.30364436,0.2185196,0.0,0.3301482,680.54944,825.2015,336.84982,651.13556,1115.7142,0.024658203125,-0.0595703125,0.9818115234375,1.906585693359375,-4.9346923828125,-0.8074951171875,1.0,2.0,4.0,4.0,2.0,80.0,event
11:46:44.240,1.58893,0.5394523,0.0,0.80796534,1.4143519,0.39488906,0.0,0.69994354,0.93582773,0.34598473,0.0,-0.02815264,0.8244695,0.57862645,0.0,0.57287014,0.30364436,0.2185196,0.0,0.3301482,573.36993,857.03296,211.53847,653.95605,1023.44324,0.024658203125,-0.0595703125,0.9818115234375,1.906585693359375,-4.9346923828125,-0.8074951171875,1.0,2.0,4.0,4.0,2.0,80.0,event
11:46:44.241,1.58893,0.5394523,0.0,0.80796534,1.4143519,0.39488906,0.0,0.69994354,0.93582773,0.34598473,0.0,-0.02815264,0.8244695,0.57862645,0.0,0.57287014,0.30364436,0.2185196,0.0,0.3301482,576.1905,907.8022,881.2088,661.6117,686.5934,0.024658203125,-0.0595703125,0.9818115234375,1.906585693359375,-4.9346923828125,-0.8074951171875,1.0,2.0,4.0,4.0,2.0,80.0,event
11:46:44.264,1.58893,0.5394523,0.0,0.80796534,1.4143519,0.39488906,0.0,0.69994354,0.93582773,0.34598473,0.0,-0.02815264,0.8244695,0.57862645,0.0,0.57287014,0.30364436,0.2185196,0.0,0.3301482,701.9048,885.64105,902.5641,693.44324,744.21246,0.0174560546875,-0.0528564453125,0.993408203125,2.415008544921875,-4.314117431640625,-0.097198486328125,1.0,2.0,4.0,4.0,2.0,80.0,event
11:46:44.265,1.58893,0.5394523,0.0,0.80796534,1.4143519,0.39488906,0.0,0.69994354,0.93582773,0.34598473,0.0,-0.02815264,0.8244695,0.57862645,0.0,0.57287014,0.30364436,0.2185196,0.0,0.3301482,829.6337,869.92676,865.89746,730.5128,817.1429,0.0174560546875,-0.0528564453125,0.993408203125,2.415008544921875,-4.314117431640625,-0.097198486328125,1.0,2.0,4.0,4.0,2.0,80.0,event
11:46:44.266,1.58893,0.5394523,0.0,0.80796534,1.4143519,0.39488906,0.0,0.69994354,0.93582773,0.34598473,0.0,-0.02815264,0.8244695,0.57862645,0.0,0.57287014,0.30364436,0.2185196,0.0,0.3301482,653.1502,875.56775,929.5604,706.337,713.5897,0.0174560546875,-0.0528564453125,0.993408203125,2.415008544921875,-4.314117431640625,-0.097198486328125,1.0,2.0,4.0,4.0,2.0,80.0,event
11:46:44.266,1.58893,0.5394523,0.0,0.80796534,1.4143519,0.39488906,0.0,0.69994354,0.93582773,0.34598473,0.0,-0.02815264,0.8244695,0.57862645,0.0,0.57287014,0.30364436,0.2185196,0.0,0.3301482,786.9231,875.16486,974.68866,723.2601,737.76556,0.0174560546875,-0.0528564453125,0.993408203125,2.415008544921875,-4.314117431640625,-0.097198486328125,1.0,2.0,4.0,4.0,2.0,80.0,event
11:46:44.267,1.58893,0.5394523,0.0,0.80796534,1.4143519,0.39488906,0.0,0.69994354,0.93582773,0.34598473,0.0,-0.02815264,0.8244695,0.57862645,0.0,0.57287014,0.30364436,0.2185196,0.0,0.3301482,628.5714,856.2271,749.0476,728.9011,770.0,0.0174560546875,-0.0528564453125,0.993408203125,2.415008544921875,-4.314117431640625,-0.097198486328125,1.0,2.0,4.0,4.0,2.0,80.0,event
11:46:44.268,1.58893,0.5394523,0.0,0.80796534,1.4143519,0.39488906,0.0,0.69994354,0.93582773,0.34598473,0.0,-0.02815264,0.8244695,0.57862645,0.0,0.57287014,0.30364436,0.2185196,0.0,0.3301482,761.53845,847.3626,653.1502,782.49084,844.1392,0.0174560546875,-0.0528564453125,0.993408203125,2.415008544921875,-4.314117431640625,-0.097198486328125,1.0,2.0,4.0,4.0,2.0,80.0,event
11:46:44.268,1.58893,0.5394523,0.0,0.80796534,1.4143519,0.39488906,0.0,0.69994354,0.93582773,0.34598473,0.0,-0.02815264,0.8244695,0.57862645,0.0,0.57287014,0.30364436,0.2185196,0.0,0.3301482,890.4762,859.0476,711.1722,801.4286,877.1795,0.0174560546875,-0.0528564453125,0.993408203125,2.415008544921875,-4.314117431640625,-0.097198486328125,1.0,2.0,4.0,4.0,2.0,80.0,event
11:46:44.269,1.58893,0.5394523,0.0,0.80796534,1.4143519,0.39488906,0.0,0.69994354,0.93582773,0.34598473,0.0,-0.02815264,0.8244695,0.57862645,0.0,0.57287014,0.30364436,0.2185196,0.0,0.3301482,863.8828,863.47986,887.25275,786.9231,788.93774,0.0174560546875,-0.0528564453125,0.993408203125,2.415008544921875,-4.314117431640625,-0.097198486328125,1.0,2.0,4.0,4.0,2.0,80.0,event
11:46:44.269,1.58893,0.5394523,0.0,0.80796534,1.4143519,0.39488906,0.0,0.69994354,0.93582773,0.34598473,0.0,-0.02815264,0.8244695,0.57862645,0.0,0.57287014,0.30364436,0.2185196,0.0,0.3301482,736.1539,830.84247,589.0842,798.20514,895.31134,0.0174560546875,-0.0528564453125,0.993408203125,2.415008544921875,-4.314117431640625,-0.097198486328125,1.0,2.0,4.0,4.0,2.0,80.0,event
11:46:44.270,1.58893,0.5394523,0.0,0.80796534,1.4143519,0.39488906,0.0,0.69994354,0.93582773,0.34598473,0.0,-0.02815264,0.8244695,0.57862645,0.0,0.57287014,0.30364436,0.2185196,0.0,0.3301482,683.7729,818.3516,139.01099,817.9487,1017.3993,0.0174560546875,-0.0528564453125,0.993408203125,2.415008544921875,-4.314117431640625,-0.097198486328125,1.0,2.0,4.0,4.0,2.0,80.0,event
11:46:44.270,1.58893,0.5394523,0.0,0.80796534,1.4143519,0.39488906,0.0,0.69994354,0.93582773,0.34598473,0.0,-0.02815264,0.8244695,0.57862645,0.0,0.57287014,0.30364436,0.2185196,0.0,0.3301482,799.011,851.79486,684.57874,834.4689,852.1978,0.0174560546875,-0.0528564453125,0.993408203125,2.415008544921875,-4.314117431640625,-0.097198486328125,1.0,2.0,4.0,4.0,2.0,80.0,event
11:46:44.271,1.58893,0.5394523,0.0,0.80796534,1.4143519,0.39488906,0.0,0.69994354,0.93582773,0.34598473,0.0,-0.02815264,0.8244695,0.57862645,0.0,0.57287014,0.30364436,0.2185196,0.0,0.3301482,955.7509,840.9158,1068.9744,861.06226,771.6117,0.0174560546875,-0.0528564453125,0.993408203125,2.415008544921875,-4.314117431640625,-0.097198486328125,1.0,2.0,4.0,4.0,2.0,80.0,event
11:46:44.300,1.58893,0.5394523,0.0,0.80796534,1.4143519,0.39488906,0.0,0.69994354,0.93582773,0.34598473,0.0,-0.02815264,0.8244695,0.57862645,0.0,0.57287014,0.30364436,0.2185196,0.0,0.3301482,952.52747,811.9048,759.92676,863.0769,856.63007,0.0296630859375,-0.06109619140625,0.991943359375,0.515899658203125,-4.269256591796875,-1.98883056640625,1.0,2.0,4.0,4.0,2.0,80.0,event
11:46:44.301,1.58893,0.5394523,0.0,0.80796534,1.4143519,0.39488906,0.0,0.69994354,0.93582773,0.34598473,0.0,-0.02815264,0.8244695,0.57862645,0.0,0.57287014,0.30364436,0.2185196,0.0,0.3301482,828.8278,811.9048,716.4103,850.989,865.09155,0.0296630859375,-0.06109619140625,0.991943359375,0.515899658203125,-4.269256591796875,-1.98883056640625,1.0,2.0,4.0,4.0,2.0,80.0,event
11:46:44.302,1.58893,0.5394523,0.0,0.80796534,1.4143519,0.39488906,0.0,0.69994354,0.93582773,0.34598473,0.0,-0.02815264,0.8244695,0.57862645,0.0,0.57287014,0.30364436,0.2185196,0.0,0.3301482,772.8205,813.91943,906.5934,862.27106,703.5165,0.0296630859375,-0.06109619140625,0.991943359375,0.515899658203125,-4.269256591796875,-1.98883056640625,1.0,2.0,4.0,4.0,2.0,80.0,event
11:46:44.303,1.58893,0.5394523,0.0,0.80796534,1.4143519,0.39488906,0.0,0.69994354,0.93582773,0.34598473,0.0,-0.02815264,0.8244695,0.57862645,0.0,0.57287014,0.30364436,0.2185196,0.0,0.3301482,854.61536,804.65204,904.9817,888.0586,686.1905,0.0296630859375,-0.06109619140625,0.991943359375,0.515899658203125,-4.269256591796875,-1.98883056640625,1.0,2.0,4.0,4.0,2.0,80.0,event
11:46:44.304,1.58893,0.5394523,0.0,0.80796534,1.4143519,0.39488906,0.0,0.69994354,0.93582773,0.34598473,0.0,-0.02815264,0.8244695,0.57862645,0.0,0.57287014,0.30364436,0.2185196,0.0,0.3301482,1007.326,800.6227,857.4359,921.50183,787.72894,0.0296630859375,-0.06109619140625,0.991943359375,0.515899658203125,-4.269256591796875,-1.98883056640625,1.0,2.0,4.0,4.0,2.0,80.0,event
11:46:44.304,1.58893,0.5394523,0.0,0.80796534,1.4143519,0.39488906,0.0,0.69994354,0.93582773,0.34598473,0.0,-0.02815264,0.8244695,0.57862645,0.0,0.57287014,0.30364436,0.2185196,0.0,0.3301482,1027.8755,795.78754,732.1245,927.5458,859.0476,0.0296630859375,-0.06109619140625,0.991943359375,0.515899658203125,-4.269256591796875,-1.98883056640625,1.0,2.0,2.0,4.0,2.0,80.0,event
11:46:44.308,1.58893,0.5394523,0.0,0.80796534,1.4143519,0.39488906,0.0,0.69994354,0.93582773,0.34598473,0.0,-0.02815264,0.8244695,0.57862645,0.0,0.57287014,0.30364436,0.2185196,0.0,0.3301482,900.54944,801.8315,577.3993,914.65204,831.2454,0.0296630859375,-0.06109619140625,0.991943359375,0.515899658203125,-4.269256591796875,-1.98883056640625,1.0,2.0,2.0,4.0,2.0,80.0,event
11:46:44.309,1.58893,0.5394523,0.0,0.80796534,1.4143519,0.39488906,0.0,0.69994354,0.93582773,0.34598473,0.0,-0.02815264,0.8244695,0.57862645,0.0,0.57287014,0.30364436,0.2185196,0.0,0.3301482,821.1722,801.4286,635.42126,919.0842,751.06226,0.0296630859375,-0.06109619140625,0.991943359375,0.515899658203125,-4.269256591796875,-1.98883056640625,1.0,2.0,2.0,4.0,2.0,80.0,event
11:46:44.309,1.58893,0.5394523,0.0,0.80796534,1.4143519,0.39488906,0.0,0.69994354,0.93582773,0.34598473,0.0,-0.02815264,0.8244695,0.57862645,0.0,0.57287014,0.30364436,0.2185196,0.0,0.3301482,873.5531,781.685,384.79852,938.022,942.0513,0.0296630859375,-0.06109619140625,0.991943359375,0.515899658203125,-4.269256591796875,-1.98883056640625,1.0,2.0,2.0,4.0,2.0,80.0,event
11:46:44.310,1.58893,0.5394523,0.0,0.80796534,1.4143519,0.39488906,0.0,0.69994354,0.93582773,0.34598473,0.0,-0.02815264,0.8244695,0.57862645,0.0,0.57287014,0.30364436,0.2185196,0.0,0.3301482,1015.38464,802.6374,570.54944,952.9304,936.8132,0.0296630859375,-0.06109619140625,0.991943359375,0.515899658203125,-4.269256591796875,-1.98883056640625,1.0,2.0,2.0,4.0,2.0,80.0,event
11:46:44.311,1.58893,0.5394523,0.0,0.80796534,1.4143519,0.39488906,0.0,0.69994354,0.93582773,0.34598473,0.0,-0.02815264,0.8244695,0.57862645,0.0,0.57287014,0.30364436,0.2185196,0.0,0.3301482,1057.6923,811.9048,1090.3297,951.7216,761.53845,0.0296630859375,-0.06109619140625,0.991943359375,0.515899658203125,-4.269256591796875,-1.98883056640625,1.0,2.0,2.0,4.0,2.0,80.0,event
11:46:44.311,1.58893,0.5394523,0.0,0.80796534,1.4143519,0.39488906,0.0,0.69994354,0.93582773,0.34598473,0.0,-0.02815264,0.8244695,0.57862645,0.0,0.57287014,0.30364436,0.2185196,0.0,0.3301482,932.381,791.75824,807.0696,937.619,769.19415,0.0296630859375,-0.06109619140625,0.991943359375,0.515899658203125,-4.269256591796875,-1.98883056640625,1.0,2.0,2.0,4.0,2.0,80.0,event
11:46:44.340,1.58893,0.5394523,0.0,0.80796534,1.4143519,0.39488906,0.0,0.69994354,0.93582773,0.34598473,0.0,-0.02815264,0.8244695,0.57862645,0.0,0.57287014,0.30364436,0.2185196,0.0,0.3301482,827.2161,789.7436,533.8828,930.3663,740.18317,0.02716064453125,-0.068603515625,0.9833984375,1.39068603515625,-3.0804443359375,-1.218719482421875,1.0,2.0,2.0,4.0,2.0,80.0,event
11:46:44.341,1.58893,0.5394523,0.0,0.80796534,1.4143519,0.39488906,0.0,0.69994354,0.93582773,0.34598473,0.0,-0.02815264,0.8244695,0.57862645,0.0,0.57287014,0.30364436,0.2185196,0.0,0.3301482,859.85345,808.68134,697.0696,945.2747,704.7253,0.02716064453125,-0.068603515625,0.9833984375,1.39068603515625,-3.0804443359375,-1.218719482421875,1.0,2.0,2.0,4.0,2.0,80.0,event
11:46:44.342,1.58893,0.5394523,0.0,0.80796534,1.4143519,0.39488906,0.0,0.69994354,0.93582773,0.34598473,0.0,-0.02815264,0.8244695,0.57862645,0.0,0.57287014,0.30364436,0.2185196,0.0,0.3301482,1006.1172,822.381,1000.4762,967.03296,687.3993,0.02716064453125,-0.068603515625,0.9833984375,1.39068603515625,-3.0804443359375,-1.218719482421875,1.0,2.0,2.0,4.0,2.0,80.0,event
11:46:44.343,1.58893,0.5394523,0.0,0.80796534,1.4143519,0.39488906,0.0,0.69994354,0.93582773,0.34598473,0.0,-0.02815264,0.8244695,0.57862645,0.0,0.57287014,0.30364436,0.2185196,0.0,0.3301482,1064.1392,810.293,799.011,969.85345,832.8571,0.02716064453125,-0.068603515625,0.9833984375,1.39068603515625,-3.0804443359375,-1.218719482421875,1.0,2.0,2.0,4.0,2.0,80.0,event
11:46:44.344,1.58893,0.5394523,0.0,0.80796534,1.4143519,0.39488906,0.0,0.69994354,0.93582773,0.34598473,0.0,-0.02815264,0.8244695,0.57862645,0.0,0.57287014,0.30364436,0.2185196,0.0,0.3301482,936.4103,814.7253,483.11356,944.4689,855.82416,0.02716064453125,-0.068603515625,0.9833984375,1.39068603515625,-3.0804443359375,-1.218719482421875,1.0,2.0,2.0,4.0,2.0,80.0,event
11:46:44.345,1.58893,0.5394523,0.0,0.80796534,1.4143519,0.39488906,0.0,0.69994354,0.93582773,0.34598473,0.0,-0.02815264,0.8244695,0.57862645,0.0,0.57287014,0.30364436,0.2185196,0.0,0.3301482,826.4103,832.4542,561.685,934.3956,731.31866,0.02716064453125,-0.068603515625,0.9833984375,1.39068603515625,-3.0804443359375,-1.218719482421875,1.0,2.0,2.0,4.0,2.0,80.0,event
11:46:44.345,1.58893,0.5394523,0.0,0.80796534,1.4143519,0.39488906,0.0,0.69994354,0.93582773,0.34598473,0.0,-0.02815264,0.8244695,0.57862645,0.0,0.57287014,0.30364436,0.2185196,0.0,0.3301482,853.8095,849.3773,666.8498,936.4103,778.86444,0.02716064453125,-0.068603515625,0.9833984375,1.39068603515625,-3.0804443359375,-1.218719482421875,1.0,2.0,2.0,4.0,2.0,80.0,event
11:46:44.346,1.58893,0.5394523,0.0,0.80796534,1.4143519,0.39488906,0.0,0.69994354,0.93582773,0.34598473,0.0,-0.02815264,0.8244695,0.57862645,0.0,0.57287014,0.30364436,0.2185196,0.0,0.3301482,970.65936,841.31866,536.30035,944.87177,979.12085,0.02716064453125,-0.068603515625,0.9833984375,1.39068603515625,-3.0804443359375,-1.218719482421875,1.0,2.0,2.0,4.0,2.0,80.0,event
11:46:44.346,1.58893,0.5394523,0.0,0.80796534,1.4143519,0.39488906,0.0,0.69994354,0.93582773,0.34598473,0.0,-0.02815264,0.8244695,0.57862645,0.0,0.57287014,0.30364436,0.2185196,0.0,0.3301482,1045.2014,851.39197,379.56042,958.97437,1013.7729,0.02716064453125,-0.068603515625,0.9833984375,1.39068603515625,-3.0804443359375,-1.218719482421875,1.0,2.0,2.0,4.0,2.0,80.0,event
11:46:44.347,1.58893,0.5394523,0.0,0.80796534,1.4143519,0.39488906,0.0,0.69994354,0.93582773,0.34598473,0.0,-0.02815264,0.8244695,0.57862645,0.0,0.57287014,0.30364436,0.2185196,0.0,0.3301482,959.3773,894.90845,769.19415,941.6484,717.619,0.02716064453125,-0.068603515625,0.9833984375,1.39068603515625,-3.0804443359375,-1.218719482421875,1.0,2.0,2.0,4.0,2.0,80.0,event
11:46:44.348,1.58893,0.5394523,0.0,0.80796534,1.4143519,0.39488906,0.0,0.69994354,0.93582773,0.34598473,0.0,-0.02815264,0.8244695,0.57862645,0.0,0.57287014,0.30364436,0.2185196,0.0,0.3301482,828.8278,897.326,851.79486,922.3077,621.31866,0.02716064453125,-0.068603515625,0.9833984375,1.39068603515625,-3.0804443359375,-1.218719482421875,1.0,2.0,2.0,4.0,2.0,80.0,event
11:46:44.348,1.58893,0.5394523,0.0,0.80796534,1.4143519,0.39488906,0.0,0.69994354,0.93582773,0.34598473,0.0,-0.02815264,0.8244695,0.57862645,0.0,0.57287014,0.30364436,0.2185196,0.0,0.3301482,825.2015,906.99634,773.6264,933.1868,705.9341,0.02716064453125,-0.068603515625,0.9833984375,1.39068603515625,-3.0804443359375,-1.218719482421875,1.0,2.0,2.0,4.0,2.0,80.0,event
11:46:44.392,1.58893,0.5394523,0.0,0.80796534,1.4143519,0.39488906,0.0,0.69994354,0.93582773,0.34598473,0.0,-0.02815264,0.8244695,0.57862645,0.0,0.57287014,0.30364436,0.2185196,0.0,0.3301482,954.94507,927.5458,954.5421,948.0952,752.27106,0.02716064453125,-0.068603515625,0.9833984375,1.39068603515625,-3.0804443359375,-1.218719482421875,1.0,2.0,2.0,4.0,2.0,80.0,event
11:46:44.393,1.58893,0.5394523,0.0,0.80796534,1.4143519,0.39488906,0.0,0.69994354,0.93582773,0.34598473,0.0,-0.02815264,0.8244695,0.57862645,0.0,0.57287014,0.30364436,0.2185196,0.0,0.3301482,1042.381,934.3956,1102.0146,945.6777,757.50916,0.02716064453125,-0.068603515625,0.9833984375,1.39068603515625,-3.0804443359375,-1.218719482421875,1.0,2.0,2.0,4.0,2.0,80.0,event
11:46:44.394,1.58893,0.5394523,0.0,0.80796534,1.4143519,0.39488906,0.0,0.69994354,0.93582773,0.34598473,0.0,-0.02815264,0.8244695,0.57862645,0.0,0.57287014,0.30364436,0.2185196,0.0,0.3301482,820.7692,938.022,655.16486,912.23444,747.03296,0.02716064453125,-0.068603515625,0.9833984375,1.39068603515625,-3.0804443359375,-1.218719482421875,1.0,2.0,2.0,4.0,2.0,80.0,event
11:46:44.394,1.58893,0.5394523,0.0,0.80796534,1.4143519,0.39488906,0.0,0.69994354,0.93582773,0.34598473,0.0,-0.02815264,0.8244695,0.57862645,0.0,0.57287014,0.30364436,0.2185196,0.0,0.3301482,962.6007,930.7692,936.8132,928.7546,729.304,0.02716064453125,-0.068603515625,0.9833984375,1.39068603515625,-3.0804443359375,-1.218719482421875,1.0,2.0,2.0,4.0,2.0,80.0,event
11:46:44.395,1.58893,0.5394523,0.0,0.80796534,1.4143519,0.39488906,0.0,0.69994354,0.93582773,0.34598473,0.0,-0.02815264,0.8244695,0.57862645,0.0,0.57287014,0.30364436,0.2185196,0.0,0.3301482,796.5934,954.5421,686.99634,906.5934,790.9524,0.02716064453125,-0.068603515625,0.9833984375,1.39068603515625,-3.0804443359375,-1.218719482421875,1.0,2.0,2.0,4.0,2.0,80.0,event
11:46:44.396,1.58893,0.5394523,0.0,0.80796534,1.4143519,0.39488906,0.0,0.69994354,0.93582773,0.34598473,0.0,-0.02815264,0.8244695,0.57862645,0.0,0.57287014,0.30364436,0.2185196,0.0,0.3301482,917.0696,960.18317,740.58606,920.293,718.4249,0.02716064453125,-0.068603515625,0.9833984375,1.39068603515625,-3.0804443359375,-1.218719482421875,1.0,2.0,2.0,4.0,2.0,80.0,event
11:46:44.396,1.58893,0.5394523,0.0,0.80796534,1.4143519,0.39488906,0.0,0.69994354,0.93582773,0.34598473,0.0,-0.02815264,0.8244695,0.57862645,0.0,0.57287014,0.30364436,0.2185196,0.0,0.3301482,1013.7729,963.8095,681.75824,926.337,725.6777,0.02716064453125,-0.068603515625,0.9833984375,1.39068603515625,-3.0804443359375,-1.218719482421875,1.0,2.0,2.0,4.0,2.0,80.0,event
11:46:44.397,1.58893,0.5394523,0.0,0.80796534,1.4143519,0.39488906,0.0,0.69994354,0.93582773,0.34598473,0.0,-0.02815264,0.8244695,0.57862645,0.0,0.57287014,0.30364436,0.2185196,0.0,0.3301482,947.6923,948.9011,245.78755,914.2491,953.73627,0.02716064453125,-0.068603515625,0.9833984375,1.39068603515625,-3.0804443359375,-1.218719482421875,1.0,2.0,2.0,4.0,2.0,80.0,event
11:46:44.399,,,,,,,,,,,,,,,,,,,,,,,,,,,,,,,,,,,,,,blink
11:46:44.400,1.58893,0.5394523,0.0,0.80796534,1.4143519,0.39488906,0.0,0.69994354,0.93582773,0.34598473,0.0,-0.02815264,0.8244695,0.57862645,0.0,0.57287014,0.30364436,0.2185196,0.0,0.3301482,813.1135,974.68866,167.21611,896.9231,933.5897,0.02716064453125,-0.068603515625,0.9833984375,1.39068603515625,-3.0804443359375,-1.218719482421875,1.0,2.0,2.0,4.0,2.0,80.0,event
11:46:44.401,1.58893,0.5394523,0.0,0.80796534,1.4143519,0.39488906,0.0,0.69994354,0.93582773,0.34598473,0.0,-0.02815264,0.8244695,0.57862645,0.0,0.57287014,0.30364436,0.2185196,0.0,0.3301482,783.2967,1010.54944,851.39197,887.6557,657.98535,0.02716064453125,-0.068603515625,0.9833984375,1.39068603515625,-3.0804443359375,-1.218719482421875,1.0,2.0,2.0,4.0,2.0,80.0,event
11:46:44.402,1.58893,0.5394523,0.0,0.80796534,1.4143519,0.39488906,0.0,0.69994354,0.93582773,0.34598473,0.0,-0.02815264,0.8244695,0.57862645,0.0,0.57287014,0.30364436,0.2185196,0.0,0.3301482,890.4762,985.56775,914.2491,904.9817,689.81683,0.02716064453125,-0.068603515625,0.9833984375,1.39068603515625,-3.0804443359375,-1.218719482421875,1.0,2.0,2.0,4.0,2.0,80.0,event
11:46:44.402,1.58893,0.5394523,0.0,0.80796534,1.4143519,0.39488906,0.0,0.69994354,0.93582773,0.34598473,0.0,-0.02815264,0.8244695,0.57862645,0.0,0.57287014,0.30364436,0.2185196,0.0,0.3301482,996.4469,979.12085,846.55676,909.81683,803.44324,0.02716064453125,-0.068603515625,0.9833984375,1.39068603515625,-3.0804443359375,-1.218719482421875,1.0,2.0,2.0,4.0,2.0,80.0,event
11:46:44.443,1.58893,0.5394523,0.0,0.80796534,1.4143519,0.39488906,0.0,0.69994354,0.93582773,0.34598473,0.0,-0.02815264,0.8244695,0.57862645,0.0,0.57287014,0.30364436,0.2185196,0.0,0.3301482,954.1392,983.5531,983.5531,891.28204,760.32965,0.0250244140625,-0.0653076171875,0.98101806640625,2.49725341796875,-2.833709716796875,0.31402587890625,1.0,2.0,2.0,4.0,2.0,80.0,event
11:46:44.444,1.58893,0.5394523,0.0,0.80796534,1.4143519,0.39488906,0.0,0.69994354,0.93582773,0.34598473,0.0,-0.02815264,0.8244695,0.57862645,0.0,0.57287014,0.30364436,0.2185196,0.0,0.3301482,811.0989,977.9121,925.5311,873.5531,689.81683,0.0250244140625,-0.0653076171875,0.98101806640625,2.49725341796875,-2.833709716796875,0.31402587890625,1.0,2.0,2.0,4.0,2.0,80.0,event
11:46:44.445,1.58893,0.5394523,0.0,0.80796534,1.4143519,0.39488906,0.0,0.69994354,0.93582773,0.34598473,0.0,-0.02815264,0.8244695,0.57862645,0.0,0.57287014,0.30364436,0.2185196,0.0,0.3301482,746.63007,962.6007,759.5238,870.32965,799.81683,0.0250244140625,-0.0653076171875,0.98101806640625,2.49725341796875,-2.833709716796875,0.31402587890625,1.0,2.0,2.0,4.0,2.0,80.0,event
11:46:44.446,1.58893,0.5394523,0.0,0.80796534,1.4143519,0.39488906,0.0,0.69994354,0.93582773,0.34598473,0.0,-0.02815264,0.8244695,0.57862645,0.0,0.57287014,0.30364436,0.2185196,0.0,0.3301482,837.6923,956.1539,778.86444,882.8205,848.5714,0.0250244140625,-0.0653076171875,0.98101806640625,2.49725341796875,-2.833709716796875,0.31402587890625,1.0,2.0,2.0,4.0,2.0,80.0,event
11:46:44.447,1.58893,0.5394523,0.0,0.80796534,1.4143519,0.39488906,0.0,0.69994354,0.93582773,0.34598473,0.0,-0.02815264,0.8244695,0.57862645,0.0,0.57287014,0.30364436,0.2185196,0.0,0.3301482,971.4652,968.24176,1000.87915,897.326,770.0,0.0250244140625,-0.0653076171875,0.98101806640625,2.49725341796875,-2.833709716796875,0.31402587890625,1.0,2.0,2.0,4.0,2.0,80.0,event
11:46:44.447,1.58893,0.5394523,0.0,0.80796534,1.4143519,0.39488906,0.0,0.69994354,0.93582773,0.34598473,0.0,-0.02815264,0.8244695,0.57862645,0.0,0.57287014,0.30364436,0.2185196,0.0,0.3301482,951.7216,958.1685,862.27106,890.87915,841.31866,0.0250244140625,-0.0653076171875,0.98101806640625,2.49725341796875,-2.833709716796875,0.31402587890625,1.0,2.0,2.0,4.0,2.0,80.0,event
11:46:44.448,1.58893,0.5394523,0.0,0.80796534,1.4143519,0.39488906,0.0,0.69994354,0.93582773,0.34598473,0.0,-0.02815264,0.8244695,0.57862645,0.0,0.57287014,0.30364436,0.2185196,0.0,0.3301482,802.6374,929.15753,433.95605,875.9707,977.9121,0.0250244140625,-0.0653076171875,0.98101806640625,2.49725341796875,-2.833709716796875,0.31402587890625,1.0,2.0,2.0,4.0,2.0,80.0,event
11:46:44.449,1.58893,0.5394523,0.0,0.80796534,1.4143519,0.39488906,0.0,0.69994354,0.93582773,0.34598473,0.0,-0.02815264,0.8244695,0.57862645,0.0,0.57287014,0.30364436,0.2185196,0.0,0.3301482,729.707,917.47253,0.0,884.0293,1171.7216,0.0250244140625,-0.0653076171875,0.98101806640625,2.49725341796875,-2.833709716796875,0.31402587890625,1.0,2.0,2.0,4.0,2.0,80.0,event
11:46:44.449,1.58893,0.5394523,0.0,0.80796534,1.4143519,0.39488906,0.0,0.69994354,0.93582773,0.34598473,0.0,-0.02815264,0.8244695,0.57862645,0.0,0.57287014,0.30364436,0.2185196,0.0,0.3301482,817.9487,957.76556,468.20514,893.69965,985.9707,0.0250244140625,-0.0653076171875,0.98101806640625,2.49725341796875,-2.833709716796875,0.31402587890625,1.0,2.0,2.0,4.0,2.0,80.0,event
11:46:44.450,1.58893,0.5394523,0.0,0.80796534,1.4143519,0.39488906,0.0,0.69994354,0.93582773,0.34598473,0.0,-0.02815264,0.8244695,0.57862645,0.0,0.57287014,0.30364436,0.2185196,0.0,0.3301482,960.58606,956.9597,1085.8975,897.326,735.34796,0.0250244140625,-0.0653076171875,0.98101806640625,2.49725341796875,-2.833709716796875,0.31402587890625,1.0,2.0,2.0,4.0,2.0,80.0,event
11:46:44.451,1.58893,0.5394523,0.0,0.80796534,1.4143519,0.39488906,0.0,0.69994354,0.93582773,0.34598473,0.0,-0.02815264,0.8244695,0.57862645,0.0,0.57287014,0.30364436,0.2185196,0.0,0.3301482,961.79486,931.5751,910.6227,894.90845,799.011,0.0250244140625,-0.0653076171875,0.98101806640625,2.49725341796875,-2.833709716796875,0.31402587890625,1.0,2.0,2.0,4.0,2.0,80.0,event
11:46:44.452,1.58893,0.5394523,0.0,0.80796534,1.4143519,0.39488906,0.0,0.69994354,0.93582773,0.34598473,0.0,-0.02815264,0.8244695,0.57862645,0.0,0.57287014,0.30364436,0.2185196,0.0,0.3301482,826.0073,930.7692,857.4359,874.35895,850.18317,0.0250244140625,-0.0653076171875,0.98101806640625,2.49725341796875,-2.833709716796875,0.31402587890625,1.0,2.0,2.0,4.0,2.0,80.0,event
11:46:44.494,1.58893,0.5394523,0.0,0.80796534,1.4143519,0.39488906,0.0,0.69994354,0.93582773,0.34598473,0.0,-0.02815264,0.8244695,0.57862645,0.0,0.57287014,0.30364436,0.2185196,0.0,0.3301482,736.1539,917.47253,983.5531,857.03296,776.8498,0.03485107421875,-0.0638427734375,0.983642578125,2.452392578125,-4.007568359375,0.3887939453125,1.0,2.0,2.0,4.0,2.0,80.0,event
11:46:44.496,1.58893,0.5394523,0.0,0.80796534,1.4143519,0.39488906,0.0,0.69994354,0.93582773,0.34598473,0.0,-0.02815264,0.8244695,0.57862645,0.0,0.57287014,0.30364436,0.2185196,0.0,0.3301482,790.9524,903.36993,1005.7143,867.9121,755.09155,0.03485107421875,-0.0638427734375,0.983642578125,2.452392578125,-4.007568359375,0.3887939453125,1.0,2.0,2.0,4.0,2.0,80.0,event
11:46:44.497,1.58893,0.5394523,0.0,0.80796534,1.4143519,0.39488906,0.0,0.69994354,0.93582773,0.34598473,0.0,-0.02815264,0.8244695,0.57862645,0.0,0.57287014,0.30364436,0.2185196,0.0,0.3301482,932.7839,898.93774,924.7253,887.6557,830.4396,0.03485107421875,-0.0638427734375,0.983642578125,2.452392578125,-4.007568359375,0.3887939453125,1.0,2.0,2.0,4.0,2.0,80.0,event
11:46:44.498,1.58893,0.5394523,0.0,0.80796534,1.4143519,0.39488906,0.0,0.69994354,0.93582773,0.34598473,0.0,-0.02815264,0.8244695,0.57862645,0.0,0.57287014,0.30364436,0.2185196,0.0,0.3301482,965.82416,896.52014,950.10986,877.1795,803.8461,0.03485107421875,-0.0638427734375,0.983642578125,2.452392578125,-4.007568359375,0.3887939453125,1.0,2.0,2.0,4.0,2.0,80.0,event
11:46:44.499,1.58893,0.5394523,0.0,0.80796534,1.4143519,0.39488906,0.0,0.69994354,0.93582773,0.34598473,0.0,-0.02815264,0.8244695,0.57862645,0.0,0.57287014,0.30364436,0.2185196,0.0,0.3301482,833.2601,887.6557,897.326,854.21246,740.989,0.03485107421875,-0.0638427734375,0.983642578125,2.452392578125,-4.007568359375,0.3887939453125,1.0,2.0,2.0,4.0,2.0,80.0,event
11:46:44.499,1.58893,0.5394523,0.0,0.80796534,1.4143519,0.39488906,0.0,0.69994354,0.93582773,0.34598473,0.0,-0.02815264,0.8244695,0.57862645,0.0,0.57287014,0.30364436,0.2185196,0.0,0.3301482,725.6777,871.13556,666.04395,848.5714,732.1245,0.03485107421875,-0.0638427734375,0.983642578125,2.452392578125,-4.007568359375,0.3887939453125,1.0,2.0,2.0,4.0,2.0,80.0,event
11:46:44.500,1.58893,0.5394523,0.0,0.80796534,1.4143519,0.39488906,0.0,0.69994354,0.93582773,0.34598473,0.0,-0.02815264,0.8244695,0.57862645,0.0,0.57287014,0.30364436,0.2185196,0.0,0.3301482,758.71796,859.85345,332.01465,855.42126,942.0513,0.03485107421875,-0.0638427734375,0.983642578125,2.452392578125,-4.007568359375,0.3887939453125,1.0,2.0,2.0,4.0,2.0,80.0,event
11:46:44.501,1.58893,0.5394523,0.0,0.80796534,1.4143519,0.39488906,0.0,0.69994354,0.93582773,0.34598473,0.0,-0.02815264,0.8244695,0.57862645,0.0,0.57287014,0.30364436,0.2185196,0.0,0.3301482,901.3553,879.59705,540.7326,866.7033,871.53845,0.03485107421875,-0.0638427734375,0.983642578125,2.452392578125,-4.007568359375,0.3887939453125,1.0,2.0,2.0,4.0,2.0,80.0,event
11:46:44.501,1.58893,0.5394523,0.0,0.80796534,1.4143519,0.39488906,0.0,0.69994354,0.93582773,0.34598473,0.0,-0.02815264,0.8244695,0.57862645,0.0,0.57287014,0.30364436,0.2185196,0.0,0.3301482,965.82416,883.22345,1013.7729,861.4652,684.57874,0.03485107421875,-0.0638427734375,0.983642578125,2.452392578125,-4.007568359375,0.3887939453125,1.0,2.0,2.0,4.0,2.0,80.0,event
11:46:44.502,1.58893,0.5394523,0.0,0.80796534,1.4143519,0.39488906,0.0,0.69994354,0.93582773,0.34598473,0.0,-0.02815264,0.8244695,0.57862645,0.0,0.57287014,0.30364436,0.2185196,0.0,0.3301482,842.9304,856.2271,774.43225,839.304,771.6117,0.03485107421875,-0.0638427734375,0.983642578125,2.452392578125,-4.007568359375,0.3887939453125,1.0,2.0,2.0,4.0,2.0,80.0,event
11:46:44.507,1.58893,0.5394523,0.0,0.80796534,1.4143519,0.39488906,0.0,0.69994354,0.93582773,0.34598473,0.0,-0.02815264,0.8244695,0.57862645,0.0,0.57287014,0.30364436,0.2185196,0.0,0.3301482,720.4396,845.7509,519.7802,824.7985,834.4689,0.03485107421875,-0.0638427734375,0.983642578125,2.452392578125,-4.007568359375,0.3887939453125,1.0,2.0,2.0,4.0,2.0,80.0,event
11:46:44.507,1.58893,0.5394523,0.0,0.80796534,1.4143519,0.39488906,0.0,0.69994354,0.93582773,0.34598473,0.0,-0.02815264,0.8244695,0.57862645,0.0,0.57287014,0.30364436,0.2185196,0.0,0.3301482,746.63007,856.63007,819.9634,832.8571,771.2088,0.03485107421875,-0.0638427734375,0.983642578125,2.452392578125,-4.007568359375,0.3887939453125,1.0,2.0,2.0,4.0,2.0,80.0,event
11:46:44.531,1.58893,0.5394523,0.0,0.80796534,1.4143519,0.39488906,0.0,0.69994354,0.93582773,0.34598473,0.0,-0.02815264,0.8244695,0.57862645,0.0,0.57287014,0.30364436,0.2185196,0.0,0.3301482,882.4176,855.0183,1084.2858,846.9597,705.9341,0.014404296875,-0.06048583984375,0.99169921875,1.757049560546875,-2.953338623046875,1.31591796875,1.0,2.0,2.0,4.0,2.0,80.0,event
11:46:44.532,1.58893,0.5394523,0.0,0.80796534,1.4143519,0.39488906,0.0,0.69994354,0.93582773,0.34598473,0.0,-0.02815264,0.8244695,0.57862645,0.0,0.57287014,0.30364436,0.2185196,0.0,0.3301482,950.10986,831.2454,810.293,840.9158,820.3663,0.014404296875,-0.06048583984375,0.99169921875,1.757049560546875,-2.953338623046875,1.31591796875,1.0,2.0,2.0,4.0,2.0,80.0,event
11:46:44.533,1.58893,0.5394523,0.0,0.80796534,1.4143519,0.39488906,0.0,0.69994354,0.93582773,0.34598473,0.0,-0.02815264,0.8244695,0.57862645,0.0,0.57287014,0.30364436,0.2185196,0.0,0.3301482,850.989,823.5897,443.62637,824.7985,836.08057,0.014404296875,-0.06048583984375,0.99169921875,1.757049560546875,-2.953338623046875,1.31591796875,1.0,2.0,2.0,4.0,2.0,80.0,event
11:46:44.534,1.58893,0.5394523,0.0,0.80796534,1.4143519,0.39488906,0.0,0.69994354,0.93582773,0.34598473,0.0,-0.02815264,0.8244695,0.57862645,0.0,0.57287014,0.30364436,0.2185196,0.0,0.3301482,734.5421,838.0952,713.5897,817.1429,681.75824,0.014404296875,-0.06048583984375,0.99169921875,1.757049560546875,-2.953338623046875,1.31591796875,1.0,2.0,2.0,4.0,2.0,80.0,event
11:46:44.535,1.58893,0.5394523,0.0,0.80796534,1.4143519,0.39488906,0.0,0.69994354,0.93582773,0.34598473,0.0,-0.02815264,0.8244695,0.57862645,0.0,0.57287014,0.30364436,0.2185196,0.0,0.3301482,728.9011,831.2454,990.80585,818.7546,710.3663,0.014404296875,-0.06048583984375,0.99169921875,1.757049560546875,-2.953338623046875,1.31591796875,1.0,2.0,2.0,4.0,2.0,80.0,event
11:46:44.535,1.58893,0.5394523,0.0,0.80796534,1.4143519,0.39488906,0.0,0.69994354,0.93582773,0.34598473,0.0,-0.02815264,0.8244695,0.57862645,0.0,0.57287014,0.30364436,0.2185196,0.0,0.3301482,841.31866,800.6227,639.85345,834.87177,1001.685,0.014404296875,-0.06048583984375,0.99169921875,1.757049560546875,-2.953338623046875,1.31591796875,1.0,2.0,2.0,4.0,2.0,80.0,event
11:46:44.536,1.58893,0.5394523,0.0,0.80796534,1.4143519,0.39488906,0.0,0.69994354,0.93582773,0.34598473,0.0,-0.02815264,0.8244695,0.57862645,0.0,0.57287014,0.30364436,0.2185196,0.0,0.3301482,925.5311,799.81683,377.54578,840.5128,1077.4359,0.014404296875,-0.06048583984375,0.99169921875,1.757049560546875,-2.953338623046875,1.31591796875,1.0,2.0,2.0,4.0,2.0,80.0,event
11:46:44.536,1.58893,0.5394523,0.0,0.80796534,1.4143519,0.39488906,0.0,0.69994354,0.93582773,0.34598473,0.0,-0.02815264,0.8244695,0.57862645,0.0,0.57287014,0.30364436,0.2185196,0.0,0.3301482,851.39197,821.1722,735.34796,825.2015,779.2674,0.014404296875,-0.06048583984375,0.99169921875,1.757049560546875,-2.953338623046875,1.31591796875,1.0,2.0,2.0,4.0,2.0,80.0,event
11:46:44.537,1.58893,0.5394523,0.0,0.80796534,1.4143519,0.39488906,0.0,0.69994354,0.93582773,0.34598473,0.0,-0.02815264,0.8244695,0.57862645,0.0,0.57287014,0.30364436,0.2185196,0.0,0.3301482,729.304,807.47253,868.315,824.3956,670.87915,0.014404296875,-0.06048583984375,0.99169921875,1.757049560546875,-2.953338623046875,1.31591796875,1.0,2.0,2.0,4.0,2.0,80.0,event
11:46:44.538,1.58893,0.5394523,0.0,0.80796534,1.4143519,0.39488906,0.0,0.69994354,0.93582773,0.34598473,0.0,-0.02815264,0.8244695,0.57862645,0.0,0.57287014,0.30364436,0.2185196,0.0,0.3301482,715.2015,790.54944,628.1685,833.2601,801.02563,0.014404296875,-0.06048583984375,0.99169921875,1.757049560546875,-2.953338623046875,1.31591796875,1.0,2.0,2.0,4.0,2.0,80.0,event
11:46:44.538,1.58893,0.5394523,0.0,0.80796534,1.4143519,0.39488906,0.0,0.69994354,0.93582773,0.34598473,0.0,-0.02815264,0.8244695,0.57862645,0.0,0.57287014,0.30364436,0.2185196,0.0,0.3301482,830.0366,795.78754,678.5348,844.5421,817.5458,0.014404296875,-0.06048583984375,0.99169921875,1.757049560546875,-2.953338623046875,1.31591796875,1.0,2.0,2.0,4.0,2.0,80.0,event
11:46:44.539,1.58893,0.5394523,0.0,0.80796534,1.4143519,0.39488906,0.0,0.69994354,0.93582773,0.34598473,0.0,-0.02815264,0.8244695,0.57862645,0.0,0.57287014,0.30364436,0.2185196,0.0,0.3301482,929.9634,805.05493,1014.57874,846.1539,692.6374,0.014404296875,-0.06048583984375,0.99169921875,1.757049560546875,-2.953338623046875,1.31591796875,1.0,2.0,2.0,4.0,2.0,80.0,event
11:46:44.604,1.58893,0.5394523,0.0,0.80796534,1.4143519,0.39488906,0.0,0.69994354,0.93582773,0.34598473,0.0,-0.02815264,0.8244695,0.57862645,0.0,0.57287014,0.30364436,0.2185196,0.0,0.3301482,872.3443,790.54944,861.06226,834.0659,708.7546,0.02947998046875,-0.06280517578125,0.9794921875,2.40753173828125,-3.043060302734375,-0.34393310546875,1.0,2.0,2.0,4.0,2.0,80.0,event
11:46:44.605,1.58893,0.5394523,0.0,0.80796534,1.4143519,0.39488906,0.0,0.69994354,0.93582773,0.34598473,0.0,-0.02815264,0.8244695,0.57862645,0.0,0.57287014,0.30364436,0.2185196,0.0,0.3301482,732.52747,784.10254,547.98535,818.3516,774.83514,0.02947998046875,-0.06280517578125,0.9794921875,2.40753173828125,-3.043060302734375,-0.34393310546875,1.0,2.0,2.0,4.0,2.0,80.0,event
11:46:44.607,1.58893,0.5394523,0.0,0.80796534,1.4143519,0.39488906,0.0,0.69994354,0.93582773,0.34598473,0.0,-0.02815264,0.8244695,0.57862645,0.0,0.57287014,0.30364436,0.2185196,0.0,0.3301482,695.4579,793.36993,685.38464,822.7839,752.674,0.02947998046875,-0.06280517578125,0.9794921875,2.40753173828125,-3.043060302734375,-0.34393310546875,1.0,2.0,2.0,4.0,2.0,80.0,event
11:46:44.609,1.58893,0.5394523,0.0,0.80796534,1.4143519,0.39488906,0.0,0.69994354,0.93582773,0.34598473,0.0,-0.02815264,0.8244695,0.57862645,0.0,0.57287014,0.30364436,0.2185196,0.0,0.3301482,818.7546,801.4286,978.315,841.31866,715.6044,0.02947998046875,-0.06280517578125,0.9794921875,2.40753173828125,-3.043060302734375,-0.34393310546875,1.0,2.0,2.0,4.0,2.0,80.0,event
11:46:44.610,1.58893,0.5394523,0.0,0.80796534,1.4143519,0.39488906,0.0,0.69994354,0.93582773,0.34598473,0.0,-0.02815264,0.8244695,0.57862645,0.0,0.57287014,0.30364436,0.2185196,0.0,0.3301482,932.381,790.54944,960.58606,841.7216,780.4762,0.02947998046875,-0.06280517578125,0.9794921875,2.40753173828125,-3.043060302734375,-0.34393310546875,1.0,2.0,2.0,4.0,2.0,80.0,event
11:46:44.611,1.58893,0.5394523,0.0,0.80796534,1.4143519,0.39488906,0.0,0.69994354,0.93582773,0.34598473,0.0,-0.02815264,0.8244695,0.57862645,0.0,0.57287014,0.30364436,0.2185196,0.0,0.3301482,881.2088,769.59705,545.16486,820.3663,884.43225,0.02947998046875,-0.06280517578125,0.9794921875,2.40753173828125,-3.043060302734375,-0.34393310546875,1.0,2.0,2.0,4.0,2.0,80.0,event
11:46:44.612,1.58893,0.5394523,0.0,0.80796534,1.4143519,0.39488906,0.0,0.69994354,0.93582773,0.34598473,0.0,-0.02815264,0.8244695,0.57862645,0.0,0.57287014,0.30364436,0.2185196,0.0,0.3301482,741.79486,778.0586,394.8718,804.65204,906.1905,0.02947998046875,-0.06280517578125,0.9794921875,2.40753173828125,-3.043060302734375,-0.34393310546875,1.0,2.0,2.0,4.0,2.0,80.0,event
11:46:44.613,1.58893,0.5394523,0.0,0.80796534,1.4143519,0.39488906,0.0,0.69994354,0.93582773,0.34598473,0.0,-0.02815264,0.8244695,0.57862645,0.0,0.57287014,0.30364436,0.2185196,0.0,0.3301482,692.23444,789.7436,736.55676,807.8755,759.92676,0.02947998046875,-0.06280517578125,0.9794921875,2.40753173828125,-3.043060302734375,-0.34393310546875,1.0,2.0,2.0,4.0,2.0,80.0,event
11:46:44.614,1.58893,0.5394523,0.0,0.80796534,1.4143519,0.39488906,0.0,0.69994354,0.93582773,0.34598473,0.0,-0.02815264,0.8244695,0.57862645,0.0,0.57287014,0.30364436,0.2185196,0.0,0.3301482,794.57874,774.83514,842.9304,827.619,703.1135,0.02947998046875,-0.06280517578125,0.9794921875,2.40753173828125,-3.043060302734375,-0.34393310546875,1.0,2.0,2.0,4.0,2.0,80.0,event
11:46:44.614,1.58893,0.5394523,0.0,0.80796534,1.4143519,0.39488906,0.0,0.69994354,0.93582773,0.34598473,0.0,-0.02815264,0.8244695,0.57862645,0.0,0.57287014,0.30364436,0.2185196,0.0,0.3301482,910.2198,766.77655,523.00366,836.8865,948.49817,0.02947998046875,-0.06280517578125,0.9794921875,2.40753173828125,-3.043060302734375,-0.34393310546875,1.0,2.0,2.0,4.0,2.0,80.0,event
11:46:44.615,1.58893,0.5394523,0.0,0.80796534,1.4143519,0.39488906,0.0,0.69994354,0.93582773,0.34598473,0.0,-0.02815264,0.8244695,0.57862645,0.0,0.57287014,0.30364436,0.2185196,0.0,0.3301482,889.67035,786.52014,586.6667,822.7839,828.022,0.02947998046875,-0.06280517578125,0.9794921875,2.40753173828125,-3.043060302734375,-0.34393310546875,1.0,2.0,2.0,4.0,2.0,80.0,event
11:46:44.616,1.58893,0.5394523,0.0,0.80796534,1.4143519,0.39488906,0.0,0.69994354,0.93582773,0.34598473,0.0,-0.02815264,0.8244695,0.57862645,0.0,0.57287014,0.30364436,0.2185196,0.0,0.3301482,769.19415,786.52014,819.5604,808.68134,618.49817,0.02947998046875,-0.06280517578125,0.9794921875,2.40753173828125,-3.043060302734375,-0.34393310546875,1.0,2.0,2.0,4.0,2.0,80.0,event
11:46:44.656,1.58893,0.5394523,0.0,0.80796534,1.4143519,0.39488906,0.0,0.69994354,0.93582773,0.34598473,0.0,-0.02815264,0.8244695,0.57862645,0.0,0.57287014,0.30364436,0.2185196,0.0,0.3301482,701.9048,779.67035,713.5897,810.696,708.3516,0.02947998046875,-0.06280517578125,0.9794921875,2.40753173828125,-3.043060302734375,-0.34393310546875,1.0,2.0,2.0,4.0,2.0,80.0,event
11:46:44.657,1.58893,0.5394523,0.0,0.80796534,1.4143519,0.39488906,0.0,0.69994354,0.93582773,0.34598473,0.0,-0.02815264,0.8244695,0.57862645,0.0,0.57287014,0.30364436,0.2185196,0.0,0.3301482,775.2381,781.28204,721.2454,821.1722,748.6447,0.02947998046875,-0.06280517578125,0.9794921875,2.40753173828125,-3.043060302734375,-0.34393310546875,1.0,2.0,2.0,4.0,2.0,80.0,event
11:46:44.658,1.58893,0.5394523,0.0,0.80796534,1.4143519,0.39488906,0.0,0.69994354,0.93582773,0.34598473,0.0,-0.02815264,0.8244695,0.57862645,0.0,0.57287014,0.30364436,0.2185196,0.0,0.3301482,917.0696,784.90845,968.24176,839.304,713.1868,0.02947998046875,-0.06280517578125,0.9794921875,2.40753173828125,-3.043060302734375,-0.34393310546875,1.0,2.0,2.0,4.0,2.0,80.0,event
11:46:44.658,1.58893,0.5394523,0.0,0.80796534,1.4143519,0.39488906,0.0,0.69994354,0.93582773,0.34598473,0.0,-0.02815264,0.8244695,0.57862645,0.0,0.57287014,0.30364436,0.2185196,0.0,0.3301482,922.3077,779.67035,967.4359,838.9011,716.0073,0.02947998046875,-0.06280517578125,0.9794921875,2.40753173828125,-3.043060302734375,-0.34393310546875,1.0,2.0,2.0,4.0,2.0,80.0,event
11:46:44.659,1.58893,0.5394523,0.0,0.80796534,1.4143519,0.39488906,0.0,0.69994354,0.93582773,0.34598473,0.0,-0.02815264,0.8244695,0.57862645,0.0,0.57287014,0.30364436,0.2185196,0.0,0.3301482,780.87915,766.77655,622.52747,817.9487,800.2198,0.02947998046875,-0.06280517578125,0.9794921875,2.40753173828125,-3.043060302734375,-0.34393310546875,1.0,2.0,2.0,4.0,2.0,80.0,event
11:46:44.660,1.58893,0.5394523,0.0,0.80796534,1.4143519,0.39488906,0.0,0.69994354,0.93582773,0.34598473,0.0,-0.02815264,0.8244695,0.57862645,0.0,0.57287014,0.30364436,0.2185196,0.0,0.3301482,699.89014,767.98535,448.0586,818.3516,842.9304,0.02947998046875,-0.06280517578125,0.9794921875,2.40753173828125,-3.043060302734375,-0.34393310546875,1.0,2.0,2.0,4.0,2.0,80.0,event
11:46:44.660,1.58893,0.5394523,0.0,0.80796534,1.4143519,0.39488906,0.0,0.69994354,0.93582773,0.34598473,0.0,-0.02815264,0.8244695,0.57862645,0.0,0.57287014,0.30364436,0.2185196,0.0,0.3301482,767.98535,776.04395,614.87177,830.84247,861.8681,0.02947998046875,-0.06280517578125,0.9794921875,2.40753173828125,-3.043060302734375,-0.34393310546875,1.0,2.0,2.0,4.0,2.0,80.0,event
11:46:44.661,1.58893,0.5394523,0.0,0.80796534,1.4143519,0.39488906,0.0,0.69994354,0.93582773,0.34598473,0.0,-0.02815264,0.8244695,0.57862645,0.0,0.57287014,0.30364436,0.2185196,0.0,0.3301482,903.7729,780.87915,859.45056,832.8571,783.2967,0.02947998046875,-0.06280517578125,0.9794921875,2.40753173828125,-3.043060302734375,-0.34393310546875,1.0,2.0,2.0,4.0,2.0,80.0,event
11:46:44.662,1.58893,0.5394523,0.0,0.80796534,1.4143519,0.39488906,0.0,0.69994354,0.93582773,0.34598473,0.0,-0.02815264,0.8244695,0.57862645,0.0,0.57287014,0.30364436,0.2185196,0.0,0.3301482,916.26373,757.1062,591.0989,826.0073,881.2088,0.02947998046875,-0.06280517578125,0.9794921875,2.40753173828125,-3.043060302734375,-0.34393310546875,1.0,2.0,2.0,4.0,2.0,80.0,event
11:46:44.663,1.58893,0.5394523,0.0,0.80796534,1.4143519,0.39488906,0.0,0.69994354,0.93582773,0.34598473,0.0,-0.02815264,0.8244695,0.57862645,0.0,0.57287014,0.30364436,0.2185196,0.0,0.3301482,781.685,756.30035,43.919415,817.9487,1085.4945,0.02947998046875,-0.06280517578125,0.9794921875,2.40753173828125,-3.043060302734375,-0.34393310546875,1.0,2.0,2.0,4.0,2.0,80.0,event
11:46:44.664,1.58893,0.5394523,0.0,0.80796534,1.4143519,0.39488906,0.0,0.69994354,0.93582773,0.34598473,0.0,-0.02815264,0.8244695,0.57862645,0.0,0.57287014,0.30364436,0.2185196,0.0,0.3301482,700.696,804.65204,571.3553,805.05493,830.0366,0.02947998046875,-0.06280517578125,0.9794921875,2.40753173828125,-3.043060302734375,-0.34393310546875,1.0,2.0,2.0,4.0,2.0,80.0,event
11:46:44.664,1.58893,0.5394523,0.0,0.80796534,1.4143519,0.39488906,0.0,0.69994354,0.93582773,0.34598473,0.0,-0.02815264,0.8244695,0.57862645,0.0,0.57287014,0.30364436,0.2185196,0.0,0.3301482,749.85345,798.20514,1011.75824,811.9048,741.79486,0.02947998046875,-0.06280517578125,0.9794921875,2.40753173828125,-3.043060302734375,-0.34393310546875,1.0,2.0,2.0,4.0,2.0,80.0,event
11:46:44.697,1.58893,0.5394523,0.0,0.80796534,1.4143519,0.39488906,0.0,0.69994354,0.93582773,0.34598473,0.0,-0.02815264,0.8244695,0.57862645,0.0,0.57287014,0.30364436,0.2185196,0.0,0.3301482,885.64105,783.69965,901.3553,829.6337,794.9817,0.01483154296875,-0.06011962890625,0.9849853515625,2.444915771484375,-2.041168212890625,1.114044189453125,1.0,2.0,2.0,4.0,2.0,80.0,event
11:46:44.697,1.58893,0.5394523,0.0,0.80796534,1.4143519,0.39488906,0.0,0.69994354,0.93582773,0.34598473,0.0,-0.02815264,0.8244695,0.57862645,0.0,0.57287014,0.30364436,0.2185196,0.0,0.3301482,933.5897,786.1172,887.6557,822.7839,752.27106,0.01483154296875,-0.06011962890625,0.9849853515625,2.444915771484375,-2.041168212890625,1.114044189453125,1.0,2.0,2.0,4.0,2.0,80.0,event
11:46:44.698,1.58893,0.5394523,0.0,0.80796534,1.4143519,0.39488906,0.0,0.69994354,0.93582773,0.34598473,0.0,-0.02815264,0.8244695,0.57862645,0.0,0.57287014,0.30364436,0.2185196,0.0,0.3301482,816.337,789.34064,882.8205,802.23444,699.89014,0.01483154296875,-0.06011962890625,0.9849853515625,2.444915771484375,-2.041168212890625,1.114044189453125,1.0,2.0,2.0,4.0,2.0,80.0,event
11:46:44.698,1.58893,0.5394523,0.0,0.80796534,1.4143519,0.39488906,0.0,0.69994354,0.93582773,0.34598473,0.0,-0.02815264,0.8244695,0.57862645,0.0,0.57287014,0.30364436,0.2185196,0.0,0.3301482,709.5604,783.69965,820.7692,802.6374,675.31134,0.01483154296875,-0.06011962890625,0.9849853515625,2.444915771484375,-2.041168212890625,1.114044189453125,1.0,2.0,2.0,4.0,2.0,80.0,event
11:46:44.699,1.58893,0.5394523,0.0,0.80796534,1.4143519,0.39488906,0.0,0.69994354,0.93582773,0.34598473,0.0,-0.02815264,0.8244695,0.57862645,0.0,0.57287014,0.30364436,0.2185196,0.0,0.3301482,857.8388,785.7143,737.3626,830.84247,877.98535,0.01483154296875,-0.06011962890625,0.9849853515625,2.444915771484375,-2.041168212890625,1.114044189453125,1.0,2.0,2.0,4.0,2.0,80.0,event
11:46:44.699,1.58893,0.5394523,0.0,0.80796534,1.4143519,0.39488906,0.0,0.69994354,0.93582773,0.34598473,0.0,-0.02815264,0.8244695,0.57862645,0.0,0.57287014,0.30364436,0.2185196,0.0,0.3301482,726.08057,780.07324,740.18317,819.15753,732.52747,0.01483154296875,-0.06011962890625,0.9849853515625,2.444915771484375,-2.041168212890625,1.114044189453125,1.0,2.0,2.0,4.0,2.0,80.0,event
11:46:44.700,1.58893,0.5394523,0.0,0.80796534,1.4143519,0.39488906,0.0,0.69994354,0.93582773,0.34598473,0.0,-0.02815264,0.8244695,0.57862645,0.0,0.57287014,0.30364436,0.2185196,0.0,0.3301482,928.7546,788.93774,715.2015,822.381,904.9817,0.01483154296875,-0.06011962890625,0.9849853515625,2.444915771484375,-2.041168212890625,1.114044189453125,1.0,2.0,2.0,4.0,2.0,80.0,event
11:46:44.700,1.58893,0.5394523,0.0,0.80796534,1.4143519,0.39488906,0.0,0.69994354,0.93582773,0.34598473,0.0,-0.02815264,0.8244695,0.57862645,0.0,0.57287014,0.30364436,0.2185196,0.0,0.3301482,823.1868,786.9231,583.0403,801.8315,855.0183,0.01483154296875,-0.06011962890625,0.9849853515625,2.444915771484375,-2.041168212890625,1.114044189453125,1.0,2.0,2.0,4.0,2.0,80.0,event
11:46:44.701,1.58893,0.5394523,0.0,0.80796534,1.4143519,0.39488906,0.0,0.69994354,0.93582773,0.34598473,0.0,-0.02815264,0.8244695,0.57862645,0.0,0.57287014,0.30364436,0.2185196,0.0,0.3301482,705.9341,782.8938,565.7143,796.5934,845.7509,0.01483154296875,-0.06011962890625,0.9849853515625,2.444915771484375,-2.041168212890625,1.114044189453125,1.0,2.0,2.0,4.0,2.0,80.0,event
11:46:44.702,1.58893,0.5394523,0.0,0.80796534,1.4143519,0.39488906,0.0,0.69994354,0.93582773,0.34598473,0.0,-0.02815264,0.8244695,0.57862645,0.0,0.57287014,0.30364436,0.2185196,0.0,0.3301482,715.6044,785.7143,821.978,799.41394,713.9927,0.01483154296875,-0.06011962890625,0.9849853515625,2.444915771484375,-2.041168212890625,1.114044189453125,1.0,2.0,2.0,4.0,2.0,80.0,event
11:46:44.703,1.58893,0.5394523,0.0,0.80796534,1.4143519,0.39488906,0.0,0.69994354,0.93582773,0.34598473,0.0,-0.02815264,0.8244695,0.57862645,0.0,0.57287014,0.30364436,0.2185196,0.0,0.3301482,847.76556,784.10254,1033.5165,812.3077,695.05493,0.01483154296875,-0.06011962890625,0.9849853515625,2.444915771484375,-2.041168212890625,1.114044189453125,1.0,2.0,2.0,4.0,2.0,80.0,event
11:46:44.703,1.58893,0.5394523,0.0,0.80796534,1.4143519,0.39488906,0.0,0.69994354,0.93582773,0.34598473,0.0,-0.02815264,0.8244695,0.57862645,0.0,0.57287014,0.30364436,0.2185196,0.0,0.3301482,926.337,764.7619,930.7692,817.9487,828.8278,0.01483154296875,-0.06011962890625,0.9849853515625,2.444915771484375,-2.041168212890625,1.114044189453125,1.0,2.0,2.0,4.0,2.0,80.0,event
11:46:44.731,1.58893,0.5394523,0.0,0.80796534,1.4143519,0.39488906,0.0,0.69994354,0.93582773,0.34598473,0.0,-0.02815264,0.8244695,0.57862645,0.0,0.57287014,0.30364436,0.2185196,0.0,0.3301482,827.619,734.94507,209.5238,807.0696,1108.8645,0.02490234375,-0.0631103515625,0.988525390625,1.861724853515625,-4.59075927734375,0.575714111328125,1.0,2.0,2.0,4.0,2.0,80.0,event
11:46:44.732,1.58893,0.5394523,0.0,0.80796534,1.4143519,0.39488906,0.0,0.69994354,0.93582773,0.34598473,0.0,-0.02815264,0.8244695,0.57862645,0.0,0.57287014,0.30364436,0.2185196,0.0,0.3301482,711.1722,769.59705,262.30768,798.60803,986.3736,0.02490234375,-0.0631103515625,0.988525390625,1.861724853515625,-4.59075927734375,0.575714111328125,1.0,2.0,2.0,4.0,2.0,80.0,event
11:46:44.739,1.58893,0.5394523,0.0,0.80796534,1.4143519,0.39488906,0.0,0.69994354,0.93582773,0.34598473,0.0,-0.02815264,0.8244695,0.57862645,0.0,0.57287014,0.30364436,0.2185196,0.0,0.3301482,713.5897,791.3553,900.9524,800.6227,682.1612,0.02490234375,-0.0631103515625,0.988525390625,1.861724853515625,-4.59075927734375,0.575714111328125,1.0,2.0,2.0,4.0,2.0,80.0,event
11:46:44.741,1.58893,0.5394523,0.0,0.80796534,1.4143519,0.39488906,0.0,0.69994354,0.93582773,0.34598473,0.0,-0.02815264,0.8244695,0.57862645,0.0,0.57287014,0.30364436,0.2185196,0.0,0.3301482,834.0659,770.40295,840.10986,817.1429,719.6337,0.02490234375,-0.0631103515625,0.988525390625,1.861724853515625,-4.59075927734375,0.575714111328125,1.0,2.0,2.0,4.0,2.0,80.0,event
11:46:44.742,1.58893,0.5394523,0.0,0.80796534,1.4143519,0.39488906,0.0,0.69994354,0.93582773,0.34598473,0.0,-0.02815264,0.8244695,0.57862645,0.0,0.57287014,0.30364436,0.2185196,0.0,0.3301482,932.381,763.1502,819.15753,824.3956,803.0403,0.02490234375,-0.0631103515625,0.988525390625,1.861724853515625,-4.59075927734375,0.575714111328125,1.0,2.0,2.0,4.0,2.0,80.0,event
11:46:44.744,1.58893,0.5394523,0.0,0.80796534,1.4143519,0.39488906,0.0,0.69994354,0.93582773,0.34598473,0.0,-0.02815264,0.8244695,0.57862645,0.0,0.57287014,0.30364436,0.2185196,0.0,0.3301482,867.9121,754.68866,727.28937,808.68134,786.52014,0.02490234375,-0.0631103515625,0.988525390625,1.861724853515625,-4.59075927734375,0.575714111328125,1.0,2.0,2.0,4.0,2.0,80.0,event
11:46:44.745,1.58893,0.5394523,0.0,0.80796534,1.4143519,0.39488906,0.0,0.69994354,0.93582773,0.34598473,0.0,-0.02815264,0.8244695,0.57862645,0.0,0.57287014,0.30364436,0.2185196,0.0,0.3301482,730.5128,770.0,611.6484,799.41394,759.12085,0.02490234375,-0.0631103515625,0.988525390625,1.861724853515625,-4.59075927734375,0.575714111328125,1.0,2.0,2.0,4.0,2.0,80.0,event
11:46:44.747,1.58893,0.5394523,0.0,0.80796534,1.4143519,0.39488906,0.0,0.69994354,0.93582773,0.34598473,0.0,-0.02815264,0.8244695,0.57862645,0.0,0.57287014,0.30364436,0.2185196,0.0,0.3301482,695.8608,755.09155,413.00366,808.68134,893.2967,0.02490234375,-0.0631103515625,0.988525390625,1.861724853515625,-4.59075927734375,0.575714111328125,1.0,2.0,2.0,4.0,2.0,80.0,event
11:46:44.748,1.58893,0.5394523,0.0,0.80796534,1.4143519,0.39488906,0.0,0.69994354,0.93582773,0.34598473,0.0,-0.02815264,0.8244695,0.57862645,0.0,0.57287014,0.30364436,0.2185196,0.0,0.3301482,808.2784,747.8388,340.87912,821.978,959.3773,0.02490234375,-0.0631103515625,0.988525390625,1.861724853515625,-4.59075927734375,0.575714111328125,1.0,2.0,2.0,4.0,2.0,80.0,event
11:46:44.749,1.58893,0.5394523,0.0,0.80796534,1.4143519,0.39488906,0.0,0.69994354,0.93582773,0.34598473,0.0,-0.02815264,0.8244695,0.57862645,0.0,0.57287014,0.30364436,0.2185196,0.0,0.3301482,927.9487,781.28204,892.8938,822.7839,765.9707,0.02490234375,-0.0631103515625,0.988525390625,1.861724853515625,-4.59075927734375,0.575714111328125,1.0,2.0,2.0,4.0,2.0,80.0,event
11:46:44.750,1.58893,0.5394523,0.0,0.80796534,1.4143519,0.39488906,0.0,0.69994354,0.93582773,0.34598473,0.0,-0.02815264,0.8244695,0.57862645,0.0,0.57287014,0.30364436,0.2185196,0.0,0.3301482,888.46155,761.13556,923.5165,806.26373,779.67035,0.02490234375,-0.0631103515625,0.988525390625,1.861724853515625,-4.59075927734375,0.575714111328125,1.0,2.0,2.0,4.0,2.0,80.0,event
11:46:44.750,1.58893,0.5394523,0.0,0.80796534,1.4143519,0.39488906,0.0,0.69994354,0.93582773,0.34598473,0.0,-0.02815264,0.8244695,0.57862645,0.0,0.57287014,0.30364436,0.2185196,0.0,0.3301482,741.79486,744.61536,562.49084,792.1612,894.5055,0.02490234375,-0.0631103515625,0.988525390625,1.861724853515625,-4.59075927734375,0.575714111328125,1.0,2.0,2.0,4.0,2.0,80.0,event
11:46:44.798,1.58893,0.5394523,0.0,0.80796534,1.4143519,0.39488906,0.0,0.69994354,0.93582773,0.34598473,0.0,-0.02815264,0.8244695,0.57862645,0.0,0.57287014,0.30364436,0.2185196,0.0,0.3301482,693.0403,761.13556,718.4249,792.1612,798.60803,0.01544189453125,-0.06219482421875,0.9837646484375,1.966400146484375,-1.936492919921875,0.657958984375,1.0,2.0,2.0,4.0,2.0,80.0,event
11:46:44.799,1.58893,0.5394523,0.0,0.80796534,1.4143519,0.39488906,0.0,0.69994354,0.93582773,0.34598473,0.0,-0.02815264,0.8244695,0.57862645,0.0,0.57287014,0.30364436,0.2185196,0.0,0.3301482,792.5641,764.7619,1046.4103,802.6374,643.8828,0.01544189453125,-0.06219482421875,0.9837646484375,1.966400146484375,-1.936492919921875,0.657958984375,1.0,2.0,2.0,4.0,2.0,80.0,event
11:46:44.800,1.58893,0.5394523,0.0,0.80796534,1.4143519,0.39488906,0.0,0.69994354,0.93582773,0.34598473,0.0,-0.02815264,0.8244695,0.57862645,0.0,0.57287014,0.30364436,0.2185196,0.0,0.3301482,915.05493,754.68866,1012.1612,822.7839,698.2784,0.01544189453125,-0.06219482421875,0.9837646484375,1.966400146484375,-1.936492919921875,0.657958984375,1.0,2.0,2.0,4.0,2.0,80.0,event
11:46:44.800,1.58893,0.5394523,0.0,0.80796534,1.4143519,0.39488906,0.0,0.69994354,0.93582773,0.34598473,0.0,-0.02815264,0.8244695,0.57862645,0.0,0.57287014,0.30364436,0.2185196,0.0,0.3301482,894.5055,753.0769,805.8608,820.3663,833.663,0.01544189453125,-0.06219482421875,0.9837646484375,1.966400146484375,-1.936492919921875,0.657958984375,1.0,2.0,2.0,4.0,2.0,80.0,event
11:46:44.801,1.58893,0.5394523,0.0,0.80796534,1.4143519,0.39488906,0.0,0.69994354,0.93582773,0.34598473,0.0,-0.02815264,0.8244695,0.57862645,0.0,0.57287014,0.30364436,0.2185196,0.0,0.3301482,756.30035,762.3443,825.6044,799.81683,788.1319,0.01544189453125,-0.06219482421875,0.9837646484375,1.966400146484375,-1.936492919921875,0.657958984375,1.0,2.0,2.0,4.0,2.0,80.0,event
11:46:44.801,1.58893,0.5394523,0.0,0.80796534,1.4143519,0.39488906,0.0,0.69994354,0.93582773,0.34598473,0.0,-0.02815264,0.8244695,0.57862645,0.0,0.57287014,0.30364436,0.2185196,0.0,0.3301482,689.011,762.74725,790.54944,798.20514,718.8278,0.01544189453125,-0.06219482421875,0.9837646484375,1.966400146484375,-1.936492919921875,0.657958984375,1.0,2.0,2.0,4.0,2.0,80.0,event
11:46:44.802,1.58893,0.5394523,0.0,0.80796534,1.4143519,0.39488906,0.0,0.69994354,0.93582773,0.34598473,0.0,-0.02815264,0.8244695,0.57862645,0.0,0.57287014,0.30364436,0.2185196,0.0,0.3301482,765.16486,757.50916,651.13556,814.7253,809.4872,0.01544189453125,-0.06219482421875,0.9837646484375,1.966400146484375,-1.936492919921875,0.657958984375,1.0,2.0,2.0,4.0,2.0,80.0,event
11:46:44.803,1.58893,0.5394523,0.0,0.80796534,1.4143519,0.39488906,0.0,0.69994354,0.93582773,0.34598473,0.0,-0.02815264,0.8244695,0.57862645,0.0,0.57287014,0.30364436,0.2185196,0.0,0.3301482,892.0879,757.50916,640.2564,831.2454,946.4835,0.01544189453125,-0.06219482421875,0.9837646484375,1.966400146484375,-1.936492919921875,0.657958984375,1.0,2.0,2.0,4.0,2.0,80.0,event
11:46:44.803,1.58893,0.5394523,0.0,0.80796534,1.4143519,0.39488906,0.0,0.69994354,0.93582773,0.34598473,0.0,-0.02815264,0.8244695,0.57862645,0.0,0.57287014,0.30364436,0.2185196,0.0,0.3301482,895.7143,775.64105,765.16486,823.5897,813.5165,0.01544189453125,-0.06219482421875,0.9837646484375,1.966400146484375,-1.936492919921875,0.657958984375,1.0,2.0,2.0,4.0,2.0,80.0,event
11:46:44.804,1.58893,0.5394523,0.0,0.80796534,1.4143519,0.39488906,0.0,0.69994354,0.93582773,0.34598473,0.0,-0.02815264,0.8244695,0.57862645,0.0,0.57287014,0.30364436,0.2185196,0.0,0.3301482,761.53845,783.69965,927.1429,797.8022,653.5531,0.01544189453125,-0.06219482421875,0.9837646484375,1.966400146484375,-1.936492919921875,0.657958984375,1.0,2.0,2.0,4.0,2.0,80.0,event
