TimeStamp,Delta_TP9,Delta_AF7,Delta_AF8,Delta_TP10,Theta_TP9,Theta_AF7,Theta_AF8,Theta_TP10,Alpha_TP9,Alpha_AF7,Alpha_AF8,Alpha_TP10,Beta_TP9,Beta_AF7,Beta_AF8,Beta_TP10,Gamma_TP9,Gamma_AF7,Gamma_AF8,Gamma_TP10,RAW_TP9,RAW_AF7,RAW_AF8,RAW_TP10,AUX_RIGHT,Accelerometer_X,Accelerometer_Y,Accelerometer_Z,Gyro_X,Gyro_Y,Gyro_Z,HeadBandOn,HSI_TP9,HSI_AF7,HSI_AF8,HSI_TP10,Battery,Elements
09:49:07.136,0.32964298,0.0,0.0134040015,0.0849446,-0.023485348,0.0,0.09750599,-0.052507747,0.05052146,0.0,0.13172744,-0.13588245,0.32029256,0.0,0.27060157,0.18598104,-0.043411978,0.0,-0.21058203,-0.3997908,733.3333,975.4945,967.8388,696.26373,674.10254,-0.24761962890625,0.06170654296875,0.96954345703125,-3.887939453125,-1.323394775390625,-9.40582275390625,1.0,1.0,4.0,4.0,1.0,75.0,event
09:49:07.137,0.32964298,0.0,0.0134040015,0.0849446,-0.023485348,0.0,0.09750599,-0.052507747,0.05052146,0.0,0.13172744,-0.13588245,0.32029256,0.0,0.27060157,0.18598104,-0.043411978,0.0,-0.21058203,-0.3997908,823.9927,1138.6813,1121.7583,700.696,725.6777,-0.24761962890625,0.06170654296875,0.96954345703125,-3.887939453125,-1.323394775390625,-9.40582275390625,1.0,1.0,4.0,4.0,1.0,75.0,event
09:49:07.138,0.32964298,0.0,0.0134040015,0.0849446,-0.023485348,0.0,0.09750599,-0.052507747,0.05052146,0.0,0.13172744,-0.13588245,0.32029256,0.0,0.27060157,0.18598104,-0.043411978,0.0,-0.21058203,-0.3997908,801.02563,910.2198,931.1722,697.8755,813.1135,-0.24761962890625,0.06170654296875,0.96954345703125,-3.887939453125,-1.323394775390625,-9.40582275390625,1.0,1.0,4.0,4.0,1.0,75.0,event
09:49:07.139,0.32964298,0.0,0.0134040015,0.0849446,-0.023485348,0.0,0.09750599,-0.052507747,0.05052146,0.0,0.13172744,-0.13588245,0.32029256,0.0,0.27060157,0.18598104,-0.043411978,0.0,-0.21058203,-0.3997908,688.20514,844.5421,844.94507,688.20514,765.56775,-0.24761962890625,0.06170654296875,0.96954345703125,-3.887939453125,-1.323394775390625,-9.40582275390625,1.0,1.0,4.0,4.0,1.0,75.0,event
09:49:07.139,0.32964298,0.0,0.0134040015,0.0849446,-0.023485348,0.0,0.09750599,-0.052507747,0.05052146,0.0,0.13172744,-0.13588245,0.32029256,0.0,0.27060157,0.18598104,-0.043411978,0.0,-0.21058203,-0.3997908,664.83514,920.293,877.1795,691.02563,711.5751,-0.24761962890625,0.06170654296875,0.96954345703125,-3.887939453125,-1.323394775390625,-9.40582275390625,1.0,1.0,4.0,4.0,1.0,75.0,event
09:49:07.140,0.32964298,0.0,0.0134040015,0.0849446,-0.023485348,0.0,0.09750599,-0.052507747,0.05052146,0.0,0.13172744,-0.13588245,0.32029256,0.0,0.27060157,0.18598104,-0.043411978,0.0,-0.21058203,-0.3997908,758.315,867.9121,848.1685,711.978,779.2674,-0.24761962890625,0.06170654296875,0.96954345703125,-3.887939453125,-1.323394775390625,-9.40582275390625,1.0,1.0,4.0,4.0,1.0,75.0,event
09:49:07.141,0.32964298,0.0,0.0134040015,0.0849446,-0.023485348,0.0,0.09750599,-0.052507747,0.05052146,0.0,0.13172744,-0.13588245,0.32029256,0.0,0.27060157,0.18598104,-0.043411978,0.0,-0.21058203,-0.3997908,870.7326,393.26007,496.41025,730.5128,1058.4982,-0.24761962890625,0.06170654296875,0.96954345703125,-3.887939453125,-1.323394775390625,-9.40582275390625,1.0,1.0,4.0,4.0,1.0,75.0,event
09:49:07.142,0.32964298,0.0,0.0134040015,0.0849446,-0.023485348,0.0,0.09750599,-0.052507747,0.05052146,0.0,0.13172744,-0.13588245,0.32029256,0.0,0.27060157,0.18598104,-0.043411978,0.0,-0.21058203,-0.3997908,871.13556,259.8901,392.05127,742.1978,1084.2858,-0.24761962890625,0.06170654296875,0.96954345703125,-3.887939453125,-1.323394775390625,-9.40582275390625,1.0,1.0,4.0,4.0,1.0,75.0,event
09:49:07.144,0.32964298,0.0,0.0134040015,0.0849446,-0.023485348,0.0,0.09750599,-0.052507747,0.05052146,0.0,0.13172744,-0.13588245,0.32029256,0.0,0.27060157,0.18598104,-0.043411978,0.0,-0.21058203,-0.3997908,757.9121,921.0989,919.0842,736.9597,760.7326,-0.24761962890625,0.06170654296875,0.96954345703125,-3.887939453125,-1.323394775390625,-9.40582275390625,1.0,1.0,4.0,4.0,1.0,75.0,event
09:49:07.145,0.32964298,0.0,0.0134040015,0.0849446,-0.023485348,0.0,0.09750599,-0.052507747,0.05052146,0.0,0.13172744,-0.13588245,0.32029256,0.0,0.27060157,0.18598104,-0.043411978,0.0,-0.21058203,-0.3997908,716.8132,945.2747,917.0696,738.97437,707.5458,-0.24761962890625,0.06170654296875,0.96954345703125,-3.887939453125,-1.323394775390625,-9.40582275390625,1.0,1.0,4.0,4.0,1.0,75.0,event
09:49:07.146,0.32964298,0.0,0.0134040015,0.0849446,-0.023485348,0.0,0.09750599,-0.052507747,0.05052146,0.0,0.13172744,-0.13588245,0.32029256,0.0,0.27060157,0.18598104,-0.043411978,0.0,-0.21058203,-0.3997908,795.38464,775.2381,786.9231,747.8388,750.65936,-0.24761962890625,0.06170654296875,0.96954345703125,-3.887939453125,-1.323394775390625,-9.40582275390625,1.0,1.0,4.0,4.0,1.0,75.0,event
09:49:07.147,0.32964298,0.0,0.0134040015,0.0849446,-0.023485348,0.0,0.09750599,-0.052507747,0.05052146,0.0,0.13172744,-0.13588245,0.32029256,0.0,0.27060157,0.18598104,-0.043411978,0.0,-0.21058203,-0.3997908,921.9048,1000.4762,994.43225,771.6117,749.0476,-0.24761962890625,0.06170654296875,0.96954345703125,-3.887939453125,-1.323394775390625,-9.40582275390625,1.0,1.0,4.0,4.0,1.0,75.0,event
09:49:07.230,0.32964298,0.0,0.0134040015,0.0849446,-0.023485348,0.0,0.09750599,-0.052507747,0.05052146,0.0,0.13172744,-0.13588245,0.32029256,0.0,0.27060157,0.18598104,-0.043411978,0.0,-0.21058203,-0.3997908,947.28937,1034.7252,1017.8022,796.99634,783.2967,-0.226318359375,0.0419921875,0.92608642578125,-2.893524169921875,-0.4486083984375,-12.045135498046877,1.0,1.0,4.0,4.0,1.0,75.0,event
09:49:07.231,0.32964298,0.0,0.0134040015,0.0849446,-0.023485348,0.0,0.09750599,-0.052507747,0.05052146,0.0,0.13172744,-0.13588245,0.32029256,0.0,0.27060157,0.18598104,-0.043411978,0.0,-0.21058203,-0.3997908,825.2015,711.5751,713.5897,782.8938,831.2454,-0.226318359375,0.0419921875,0.92608642578125,-2.893524169921875,-0.4486083984375,-12.045135498046877,1.0,1.0,4.0,4.0,1.0,75.0,event
09:49:07.233,0.32964298,0.0,0.0134040015,0.0849446,-0.023485348,0.0,0.09750599,-0.052507747,0.05052146,0.0,0.13172744,-0.13588245,0.32029256,0.0,0.27060157,0.18598104,-0.043411978,0.0,-0.21058203,-0.3997908,761.9414,501.64835,539.5238,778.46155,841.31866,-0.226318359375,0.0419921875,0.92608642578125,-2.893524169921875,-0.4486083984375,-12.045135498046877,1.0,1.0,4.0,4.0,1.0,75.0,event
09:49:07.234,0.32964298,0.0,0.0134040015,0.0849446,-0.023485348,0.0,0.09750599,-0.052507747,0.05052146,0.0,0.13172744,-0.13588245,0.32029256,0.0,0.27060157,0.18598104,-0.043411978,0.0,-0.21058203,-0.3997908,836.08057,785.7143,796.5934,801.02563,754.68866,-0.226318359375,0.0419921875,0.92608642578125,-2.893524169921875,-0.4486083984375,-12.045135498046877,1.0,1.0,4.0,4.0,1.0,75.0,event
09:49:07.235,0.32964298,0.0,0.0134040015,0.0849446,-0.023485348,0.0,0.09750599,-0.052507747,0.05052146,0.0,0.13172744,-0.13588245,0.32029256,0.0,0.27060157,0.18598104,-0.043411978,0.0,-0.21058203,-0.3997908,970.65936,1062.5275,1027.4725,817.9487,691.02563,-0.226318359375,0.0419921875,0.92608642578125,-2.893524169921875,-0.4486083984375,-12.045135498046877,1.0,1.0,4.0,4.0,1.0,75.0,event
09:49:07.237,0.32964298,0.0,0.0134040015,0.0849446,-0.023485348,0.0,0.09750599,-0.052507747,0.05052146,0.0,0.13172744,-0.13588245,0.32029256,0.0,0.27060157,0.18598104,-0.043411978,0.0,-0.21058203,-0.3997908,993.6264,765.9707,802.23444,825.6044,866.30035,-0.226318359375,0.0419921875,0.92608642578125,-2.893524169921875,-0.4486083984375,-12.045135498046877,1.0,1.0,4.0,4.0,1.0,75.0,event
09:49:07.241,0.32964298,0.0,0.0134040015,0.0849446,-0.023485348,0.0,0.09750599,-0.052507747,0.05052146,0.0,0.13172744,-0.13588245,0.32029256,0.0,0.27060157,0.18598104,-0.043411978,0.0,-0.21058203,-0.3997908,863.8828,293.73627,405.348,815.9341,1031.0989,-0.226318359375,0.0419921875,0.92608642578125,-2.893524169921875,-0.4486083984375,-12.045135498046877,1.0,1.0,4.0,4.0,1.0,75.0,event
09:49:07.242,0.32964298,0.0,0.0134040015,0.0849446,-0.023485348,0.0,0.09750599,-0.052507747,0.05052146,0.0,0.13172744,-0.13588245,0.32029256,0.0,0.27060157,0.18598104,-0.043411978,0.0,-0.21058203,-0.3997908,794.17584,564.5055,608.022,810.293,839.304,-0.226318359375,0.0419921875,0.92608642578125,-2.893524169921875,-0.4486083984375,-12.045135498046877,1.0,1.0,4.0,4.0,1.0,75.0,event
09:49:07.243,0.32964298,0.0,0.0134040015,0.0849446,-0.023485348,0.0,0.09750599,-0.052507747,0.05052146,0.0,0.13172744,-0.13588245,0.32029256,0.0,0.27060157,0.18598104,-0.043411978,0.0,-0.21058203,-0.3997908,974.2857,828.8278,893.69965,842.52747,868.315,-0.226318359375,0.0419921875,0.92608642578125,-2.893524169921875,-0.4486083984375,-12.045135498046877,1.0,1.0,4.0,4.0,1.0,75.0,event
09:49:07.243,0.32964298,0.0,0.0134040015,0.0849446,-0.023485348,0.0,0.09750599,-0.052507747,0.05052146,0.0,0.13172744,-0.13588245,0.32029256,0.0,0.27060157,0.18598104,-0.043411978,0.0,-0.21058203,-0.3997908,857.03296,1112.0879,1077.033,823.1868,716.8132,-0.226318359375,0.0419921875,0.92608642578125,-2.893524169921875,-0.4486083984375,-12.045135498046877,1.0,1.0,4.0,4.0,1.0,75.0,event
09:49:07.244,0.32964298,0.0,0.0134040015,0.0849446,-0.023485348,0.0,0.09750599,-0.052507747,0.05052146,0.0,0.13172744,-0.13588245,0.32029256,0.0,0.27060157,0.18598104,-0.043411978,0.0,-0.21058203,-0.3997908,1018.20514,573.7729,691.8315,857.03296,887.6557,-0.226318359375,0.0419921875,0.92608642578125,-2.893524169921875,-0.4486083984375,-12.045135498046877,1.0,1.0,4.0,4.0,1.0,75.0,event
09:49:07.245,0.32964298,0.0,0.0134040015,0.0849446,-0.023485348,0.0,0.09750599,-0.052507747,0.05052146,0.0,0.13172744,-0.13588245,0.32029256,0.0,0.27060157,0.18598104,-0.043411978,0.0,-0.21058203,-0.3997908,919.89014,941.6484,939.6337,838.0952,685.38464,-0.226318359375,0.0419921875,0.92608642578125,-2.893524169921875,-0.4486083984375,-12.045135498046877,1.0,1.0,4.0,4.0,1.0,75.0,event
09:49:07.285,0.32964298,0.0,0.0134040015,0.0849446,-0.023485348,0.0,0.09750599,-0.052507747,0.05052146,0.0,0.13172744,-0.13588245,0.32029256,0.0,0.27060157,0.18598104,-0.043411978,0.0,-0.21058203,-0.3997908,809.0842,972.27106,936.0073,826.0073,666.8498,-0.226318359375,0.0419921875,0.92608642578125,-2.893524169921875,-0.4486083984375,-12.045135498046877,1.0,1.0,4.0,4.0,1.0,75.0,event
09:49:07.287,0.32964298,0.0,0.0134040015,0.0849446,-0.023485348,0.0,0.09750599,-0.052507747,0.05052146,0.0,0.13172744,-0.13588245,0.32029256,0.0,0.27060157,0.18598104,-0.043411978,0.0,-0.21058203,-0.3997908,830.0366,750.2564,777.6557,841.7216,752.27106,-0.226318359375,0.0419921875,0.92608642578125,-2.893524169921875,-0.4486083984375,-12.045135498046877,1.0,1.0,4.0,4.0,1.0,75.0,event
09:49:07.287,0.32964298,0.0,0.0134040015,0.0849446,-0.023485348,0.0,0.09750599,-0.052507747,0.05052146,0.0,0.13172744,-0.13588245,0.32029256,0.0,0.27060157,0.18598104,-0.043411978,0.0,-0.21058203,-0.3997908,961.39197,823.9927,866.30035,849.7802,751.06226,-0.226318359375,0.0419921875,0.92608642578125,-2.893524169921875,-0.4486083984375,-12.045135498046877,1.0,1.0,4.0,4.0,1.0,75.0,event
09:49:07.288,0.32964298,0.0,0.0134040015,0.0849446,-0.023485348,0.0,0.09750599,-0.052507747,0.05052146,0.0,0.13172744,-0.13588245,0.32029256,0.0,0.27060157,0.18598104,-0.043411978,0.0,-0.21058203,-0.3997908,1015.38464,960.989,979.5238,849.7802,831.2454,-0.226318359375,0.0419921875,0.92608642578125,-2.893524169921875,-0.4486083984375,-12.045135498046877,1.0,1.0,4.0,4.0,1.0,75.0,event
09:49:07.289,0.32964298,0.0,0.0134040015,0.0849446,-0.023485348,0.0,0.09750599,-0.052507747,0.05052146,0.0,0.13172744,-0.13588245,0.32029256,0.0,0.27060157,0.18598104,-0.043411978,0.0,-0.21058203,-0.3997908,908.20514,858.6447,880.0,837.28937,844.94507,-0.226318359375,0.0419921875,0.92608642578125,-2.893524169921875,-0.4486083984375,-12.045135498046877,1.0,1.0,4.0,4.0,1.0,75.0,event
09:49:07.289,0.32964298,0.0,0.0134040015,0.0849446,-0.023485348,0.0,0.09750599,-0.052507747,0.05052146,0.0,0.13172744,-0.13588245,0.32029256,0.0,0.27060157,0.18598104,-0.043411978,0.0,-0.21058203,-0.3997908,789.34064,436.77655,516.1539,830.4396,901.75824,-0.226318359375,0.0419921875,0.92608642578125,-2.893524169921875,-0.4486083984375,-12.045135498046877,1.0,1.0,4.0,4.0,1.0,75.0,event
09:49:07.290,0.32964298,0.0,0.0134040015,0.0849446,-0.023485348,0.0,0.09750599,-0.052507747,0.05052146,0.0,0.13172744,-0.13588245,0.32029256,0.0,0.27060157,0.18598104,-0.043411978,0.0,-0.21058203,-0.3997908,795.38464,273.58975,387.61905,832.4542,990.80585,-0.226318359375,0.0419921875,0.92608642578125,-2.893524169921875,-0.4486083984375,-12.045135498046877,1.0,1.0,4.0,4.0,1.0,75.0,event
09:49:07.291,0.32964298,0.0,0.0134040015,0.0849446,-0.023485348,0.0,0.09750599,-0.052507747,0.05052146,0.0,0.13172744,-0.13588245,0.32029256,0.0,0.27060157,0.18598104,-0.043411978,0.0,-0.21058203,-0.3997908,918.2784,821.1722,855.0183,853.00366,806.26373,-0.226318359375,0.0419921875,0.92608642578125,-2.893524169921875,-0.4486083984375,-12.045135498046877,1.0,1.0,4.0,4.0,1.0,75.0,event
09:49:07.292,0.32964298,0.0,0.0134040015,0.0849446,-0.023485348,0.0,0.09750599,-0.052507747,0.05052146,0.0,0.13172744,-0.13588245,0.32029256,0.0,0.27060157,0.18598104,-0.043411978,0.0,-0.21058203,-0.3997908,919.89014,508.49817,603.1868,863.8828,957.3626,-0.226318359375,0.0419921875,0.92608642578125,-2.893524169921875,-0.4486083984375,-12.045135498046877,1.0,1.0,4.0,4.0,1.0,75.0,event
09:49:07.292,0.32964298,0.0,0.0134040015,0.0849446,-0.023485348,0.0,0.09750599,-0.052507747,0.05052146,0.0,0.13172744,-0.13588245,0.32029256,0.0,0.27060157,0.18598104,-0.043411978,0.0,-0.21058203,-0.3997908,998.0586,1124.1758,1135.4579,866.7033,719.2308,-0.226318359375,0.0419921875,0.92608642578125,-2.893524169921875,-0.4486083984375,-12.045135498046877,1.0,1.0,4.0,4.0,1.0,75.0,event
09:49:07.293,0.32964298,0.0,0.0134040015,0.0849446,-0.023485348,0.0,0.09750599,-0.052507747,0.05052146,0.0,0.13172744,-0.13588245,0.32029256,0.0,0.27060157,0.18598104,-0.043411978,0.0,-0.21058203,-0.3997908,792.1612,227.25275,309.45056,855.0183,967.4359,-0.226318359375,0.0419921875,0.92608642578125,-2.893524169921875,-0.4486083984375,-12.045135498046877,1.0,1.0,4.0,4.0,1.0,75.0,event
09:49:07.294,0.32964298,0.0,0.0134040015,0.0849446,-0.023485348,0.0,0.09750599,-0.052507747,0.05052146,0.0,0.13172744,-0.13588245,0.32029256,0.0,0.27060157,0.18598104,-0.043411978,0.0,-0.21058203,-0.3997908,794.9817,914.2491,891.685,844.1392,682.5641,-0.226318359375,0.0419921875,0.92608642578125,-2.893524169921875,-0.4486083984375,-12.045135498046877,1.0,1.0,4.0,4.0,1.0,75.0,event
09:49:07.295,0.32964298,0.0,0.0134040015,0.0849446,-0.023485348,0.0,0.09750599,-0.052507747,0.05052146,0.0,0.13172744,-0.13588245,0.32029256,0.0,0.27060157,0.18598104,-0.043411978,0.0,-0.21058203,-0.3997908,908.20514,998.86444,1012.5641,856.63007,767.98535,-0.25775146484375,0.03173828125,0.95660400390625,1.8841552734375,-4.47113037109375,-9.5703125,1.0,1.0,4.0,4.0,1.0,75.0,event
09:49:07.296,0.32964298,0.0,0.0134040015,0.0849446,-0.023485348,0.0,0.09750599,-0.052507747,0.05052146,0.0,0.13172744,-0.13588245,0.32029256,0.0,0.27060157,0.18598104,-0.043411978,0.0,-0.21058203,-0.3997908,987.1795,906.99634,965.82416,870.32965,870.32965,-0.25775146484375,0.03173828125,0.95660400390625,1.8841552734375,-4.47113037109375,-9.5703125,1.0,1.0,4.0,4.0,1.0,75.0,event
09:49:07.297,0.32964298,0.0,0.0134040015,0.0849446,-0.023485348,0.0,0.09750599,-0.052507747,0.05052146,0.0,0.13172744,-0.13588245,0.32029256,0.0,0.27060157,0.18598104,-0.043411978,0.0,-0.21058203,-0.3997908,922.71063,1055.6776,1048.022,854.61536,816.337,-0.25775146484375,0.03173828125,0.95660400390625,1.8841552734375,-4.47113037109375,-9.5703125,1.0,1.0,4.0,4.0,1.0,75.0,event
09:49:07.297,0.32964298,0.0,0.0134040015,0.0849446,-0.023485348,0.0,0.09750599,-0.052507747,0.05052146,0.0,0.13172744,-0.13588245,0.32029256,0.0,0.27060157,0.18598104,-0.043411978,0.0,-0.21058203,-0.3997908,793.7729,1086.3004,1037.9487,832.8571,750.2564,-0.25775146484375,0.03173828125,0.95660400390625,1.8841552734375,-4.47113037109375,-9.5703125,1.0,1.0,4.0,4.0,1.0,75.0,event
09:49:07.298,0.32964298,0.0,0.0134040015,0.0849446,-0.023485348,0.0,0.09750599,-0.052507747,0.05052146,0.0,0.13172744,-0.13588245,0.32029256,0.0,0.27060157,0.18598104,-0.043411978,0.0,-0.21058203,-0.3997908,774.83514,878.3883,858.24176,836.8865,787.326,-0.25775146484375,0.03173828125,0.95660400390625,1.8841552734375,-4.47113037109375,-9.5703125,1.0,1.0,4.0,4.0,1.0,75.0,event
09:49:07.298,0.32964298,0.0,0.0134040015,0.0849446,-0.023485348,0.0,0.09750599,-0.052507747,0.05052146,0.0,0.13172744,-0.13588245,0.32029256,0.0,0.27060157,0.18598104,-0.043411978,0.0,-0.21058203,-0.3997908,877.1795,621.7216,659.59705,862.674,953.3333,-0.25775146484375,0.03173828125,0.95660400390625,1.8841552734375,-4.47113037109375,-9.5703125,1.0,1.0,4.0,4.0,1.0,75.0,event
09:49:07.299,0.32964298,0.0,0.0134040015,0.0849446,-0.023485348,0.0,0.09750599,-0.052507747,0.05052146,0.0,0.13172744,-0.13588245,0.32029256,0.0,0.27060157,0.18598104,-0.043411978,0.0,-0.21058203,-0.3997908,974.2857,692.6374,745.82416,891.28204,924.7253,-0.25775146484375,0.03173828125,0.95660400390625,1.8841552734375,-4.47113037109375,-9.5703125,1.0,1.0,4.0,4.0,1.0,75.0,event
09:49:07.299,0.32964298,0.0,0.0134040015,0.0849446,-0.023485348,0.0,0.09750599,-0.052507747,0.05052146,0.0,0.13172744,-0.13588245,0.32029256,0.0,0.27060157,0.18598104,-0.043411978,0.0,-0.21058203,-0.3997908,921.50183,789.34064,813.91943,888.0586,810.293,-0.25775146484375,0.03173828125,0.95660400390625,1.8841552734375,-4.47113037109375,-9.5703125,1.0,1.0,4.0,4.0,1.0,75.0,event
09:49:07.301,,,,,,,,,,,,,,,,,,,,,,,,,,,,,,,,,,,,,,blink
09:49:07.303,0.32964298,0.0,0.0134040015,0.0849446,-0.023485348,0.0,0.09750599,-0.052507747,0.05052146,0.0,0.13172744,-0.13588245,0.32029256,0.0,0.27060157,0.18598104,-0.043411978,0.0,-0.21058203,-0.3997908,728.0952,40.29304,83.00366,842.1245,993.6264,-0.25775146484375,0.03173828125,0.95660400390625,1.8841552734375,-4.47113037109375,-9.5703125,1.0,1.0,4.0,4.0,1.0,75.0,event
09:49:07.303,0.32964298,0.0,0.0134040015,0.0849446,-0.023485348,0.0,0.09750599,-0.052507747,0.05052146,0.0,0.13172744,-0.13588245,0.32029256,0.0,0.27060157,0.18598104,-0.043411978,0.0,-0.21058203,-0.3997908,770.80585,554.0293,580.2198,849.3773,809.0842,-0.25775146484375,0.03173828125,0.95660400390625,1.8841552734375,-4.47113037109375,-9.5703125,1.0,1.0,4.0,4.0,1.0,75.0,event
09:49:07.304,0.32964298,0.0,0.0134040015,0.0849446,-0.023485348,0.0,0.09750599,-0.052507747,0.05052146,0.0,0.13172744,-0.13588245,0.32029256,0.0,0.27060157,0.18598104,-0.043411978,0.0,-0.21058203,-0.3997908,830.4396,348.93774,352.16116,867.1062,930.3663,-0.25775146484375,0.03173828125,0.95660400390625,1.8841552734375,-4.47113037109375,-9.5703125,1.0,1.0,4.0,4.0,1.0,75.0,event
09:49:07.305,0.32964298,0.0,0.0134040015,0.0849446,-0.023485348,0.0,0.09750599,-0.052507747,0.05052146,0.0,0.13172744,-0.13588245,0.32029256,0.0,0.27060157,0.18598104,-0.043411978,0.0,-0.21058203,-0.3997908,952.1245,1024.249,1021.02563,875.9707,757.50916,-0.25775146484375,0.03173828125,0.95660400390625,1.8841552734375,-4.47113037109375,-9.5703125,1.0,1.0,4.0,4.0,1.0,75.0,event
09:49:07.353,0.32964298,0.0,0.0134040015,0.0849446,-0.023485348,0.0,0.09750599,-0.052507747,0.05052146,0.0,0.13172744,-0.13588245,0.32029256,0.0,0.27060157,0.18598104,-0.043411978,0.0,-0.21058203,-0.3997908,920.293,913.44324,932.7839,855.0183,803.0403,-0.20098876953125,0.0570068359375,0.95977783203125,2.76641845703125,-0.485992431640625,2.115936279296875,1.0,1.0,4.0,4.0,1.0,75.0,event
09:49:07.355,0.32964298,0.0,0.0134040015,0.0849446,-0.023485348,0.0,0.09750599,-0.052507747,0.05052146,0.0,0.13172744,-0.13588245,0.32029256,0.0,0.27060157,0.18598104,-0.043411978,0.0,-0.21058203,-0.3997908,789.34064,796.99634,805.4579,840.9158,756.30035,-0.20098876953125,0.0570068359375,0.95977783203125,2.76641845703125,-0.485992431640625,2.115936279296875,1.0,1.0,4.0,4.0,1.0,75.0,event
09:49:07.356,0.32964298,0.0,0.0134040015,0.0849446,-0.023485348,0.0,0.09750599,-0.052507747,0.05052146,0.0,0.13172744,-0.13588245,0.32029256,0.0,0.27060157,0.18598104,-0.043411978,0.0,-0.21058203,-0.3997908,763.95605,984.35895,941.2454,845.34796,625.34796,-0.20098876953125,0.0570068359375,0.95977783203125,2.76641845703125,-0.485992431640625,2.115936279296875,1.0,1.0,4.0,4.0,1.0,75.0,event
09:49:07.358,0.32964298,0.0,0.0134040015,0.0849446,-0.023485348,0.0,0.09750599,-0.052507747,0.05052146,0.0,0.13172744,-0.13588245,0.32029256,0.0,0.27060157,0.18598104,-0.043411978,0.0,-0.21058203,-0.3997908,846.9597,965.0183,916.26373,865.89746,564.90845,-0.20098876953125,0.0570068359375,0.95977783203125,2.76641845703125,-0.485992431640625,2.115936279296875,1.0,1.0,4.0,4.0,1.0,75.0,event
09:49:07.360,0.32964298,0.0,0.0134040015,0.0849446,-0.023485348,0.0,0.09750599,-0.052507747,0.05052146,0.0,0.13172744,-0.13588245,0.32029256,0.0,0.27060157,0.18598104,-0.043411978,0.0,-0.21058203,-0.3997908,958.97437,825.2015,821.978,891.685,637.8388,-0.20098876953125,0.0570068359375,0.95977783203125,2.76641845703125,-0.485992431640625,2.115936279296875,1.0,1.0,4.0,4.0,1.0,75.0,event
09:49:07.361,0.32964298,0.0,0.0134040015,0.0849446,-0.023485348,0.0,0.09750599,-0.052507747,0.05052146,0.0,0.13172744,-0.13588245,0.32029256,0.0,0.27060157,0.18598104,-0.043411978,0.0,-0.21058203,-0.3997908,952.9304,780.07324,802.6374,886.4469,818.3516,-0.20098876953125,0.0570068359375,0.95977783203125,2.76641845703125,-0.485992431640625,2.115936279296875,1.0,1.0,4.0,4.0,1.0,75.0,event
09:49:07.362,0.32964298,0.0,0.0134040015,0.0849446,-0.023485348,0.0,0.09750599,-0.052507747,0.05052146,0.0,0.13172744,-0.13588245,0.32029256,0.0,0.27060157,0.18598104,-0.043411978,0.0,-0.21058203,-0.3997908,755.4945,779.67035,740.18317,846.9597,640.65936,-0.20098876953125,0.0570068359375,0.95977783203125,2.76641845703125,-0.485992431640625,2.115936279296875,1.0,1.0,4.0,4.0,1.0,75.0,event
09:49:07.362,0.32964298,0.0,0.0134040015,0.0849446,-0.023485348,0.0,0.09750599,-0.052507747,0.05052146,0.0,0.13172744,-0.13588245,0.32029256,0.0,0.27060157,0.18598104,-0.043411978,0.0,-0.21058203,-0.3997908,817.5458,677.326,676.52014,859.45056,828.022,-0.20098876953125,0.0570068359375,0.95977783203125,2.76641845703125,-0.485992431640625,2.115936279296875,1.0,1.0,4.0,4.0,1.0,75.0,event
09:49:07.363,0.32964298,0.0,0.0134040015,0.0849446,-0.023485348,0.0,0.09750599,-0.052507747,0.05052146,0.0,0.13172744,-0.13588245,0.32029256,0.0,0.27060157,0.18598104,-0.043411978,0.0,-0.21058203,-0.3997908,805.8608,459.7436,485.93405,864.68866,815.12823,-0.20098876953125,0.0570068359375,0.95977783203125,2.76641845703125,-0.485992431640625,2.115936279296875,1.0,1.0,4.0,4.0,1.0,75.0,event
09:49:07.364,0.32964298,0.0,0.0134040015,0.0849446,-0.023485348,0.0,0.09750599,-0.052507747,0.05052146,0.0,0.13172744,-0.13588245,0.32029256,0.0,0.27060157,0.18598104,-0.043411978,0.0,-0.21058203,-0.3997908,939.6337,891.685,909.41394,880.40295,853.00366,-0.20098876953125,0.0570068359375,0.95977783203125,2.76641845703125,-0.485992431640625,2.115936279296875,1.0,1.0,4.0,4.0,1.0,75.0,event
09:49:07.364,0.32964298,0.0,0.0134040015,0.0849446,-0.023485348,0.0,0.09750599,-0.052507747,0.05052146,0.0,0.13172744,-0.13588245,0.32029256,0.0,0.27060157,0.18598104,-0.043411978,0.0,-0.21058203,-0.3997908,915.05493,272.78387,371.0989,889.2674,1043.9927,-0.20098876953125,0.0570068359375,0.95977783203125,2.76641845703125,-0.485992431640625,2.115936279296875,1.0,1.0,4.0,4.0,1.0,75.0,event
09:49:07.365,0.32964298,0.0,0.0134040015,0.0849446,-0.023485348,0.0,0.09750599,-0.052507747,0.05052146,0.0,0.13172744,-0.13588245,0.32029256,0.0,0.27060157,0.18598104,-0.043411978,0.0,-0.21058203,-0.3997908,817.1429,955.34796,926.337,851.79486,711.5751,-0.20098876953125,0.0570068359375,0.95977783203125,2.76641845703125,-0.485992431640625,2.115936279296875,1.0,1.0,4.0,4.0,1.0,75.0,event
09:49:07.388,0.32964298,0.0,0.0134040015,0.0849446,-0.023485348,0.0,0.09750599,-0.052507747,0.05052146,0.0,0.13172744,-0.13588245,0.32029256,0.0,0.27060157,0.18598104,-0.043411978,0.0,-0.21058203,-0.3997908,732.52747,614.87177,630.989,844.1392,761.53845,-0.27667236328125,0.0328369140625,0.96319580078125,-0.478515625,0.31402587890625,11.08062744140625,1.0,1.0,4.0,4.0,1.0,75.0,event
09:49:07.390,0.32964298,0.0,0.0134040015,0.0849446,-0.023485348,0.0,0.09750599,-0.052507747,0.05052146,0.0,0.13172744,-0.13588245,0.32029256,0.0,0.27060157,0.18598104,-0.043411978,0.0,-0.21058203,-0.3997908,781.28204,760.32965,770.40295,846.9597,730.5128,-0.27667236328125,0.0328369140625,0.96319580078125,-0.478515625,0.31402587890625,11.08062744140625,1.0,1.0,4.0,4.0,1.0,75.0,event
09:49:07.390,0.32964298,0.0,0.0134040015,0.0849446,-0.023485348,0.0,0.09750599,-0.052507747,0.05052146,0.0,0.13172744,-0.13588245,0.32029256,0.0,0.27060157,0.18598104,-0.043411978,0.0,-0.21058203,-0.3997908,890.4762,1125.7876,1089.1208,853.00366,699.0842,-0.27667236328125,0.0328369140625,0.96319580078125,-0.478515625,0.31402587890625,11.08062744140625,1.0,1.0,4.0,4.0,1.0,75.0,event
09:49:07.391,0.32964298,0.0,0.0134040015,0.0849446,-0.023485348,0.0,0.09750599,-0.052507747,0.05052146,0.0,0.13172744,-0.13588245,0.32029256,0.0,0.27060157,0.18598104,-0.043411978,0.0,-0.21058203,-0.3997908,918.2784,1033.9194,1023.0403,853.4066,773.22345,-0.27667236328125,0.0328369140625,0.96319580078125,-0.478515625,0.31402587890625,11.08062744140625,1.0,1.0,4.0,4.0,1.0,75.0,event
09:49:07.392,0.32964298,0.0,0.0134040015,0.0849446,-0.023485348,0.0,0.09750599,-0.052507747,0.05052146,0.0,0.13172744,-0.13588245,0.32029256,0.0,0.27060157,0.18598104,-0.043411978,0.0,-0.21058203,-0.3997908,798.20514,790.9524,790.14655,837.28937,769.59705,-0.27667236328125,0.0328369140625,0.96319580078125,-0.478515625,0.31402587890625,11.08062744140625,1.0,1.0,4.0,4.0,1.0,75.0,event
09:49:07.393,0.32964298,0.0,0.0134040015,0.0849446,-0.023485348,0.0,0.09750599,-0.052507747,0.05052146,0.0,0.13172744,-0.13588245,0.32029256,0.0,0.27060157,0.18598104,-0.043411978,0.0,-0.21058203,-0.3997908,698.68134,667.25275,656.3736,820.7692,789.7436,-0.27667236328125,0.0328369140625,0.96319580078125,-0.478515625,0.31402587890625,11.08062744140625,1.0,1.0,4.0,4.0,1.0,75.0,event
09:49:07.394,0.32964298,0.0,0.0134040015,0.0849446,-0.023485348,0.0,0.09750599,-0.052507747,0.05052146,0.0,0.13172744,-0.13588245,0.32029256,0.0,0.27060157,0.18598104,-0.043411978,0.0,-0.21058203,-0.3997908,739.7802,653.5531,663.6264,811.9048,800.2198,-0.27667236328125,0.0328369140625,0.96319580078125,-0.478515625,0.31402587890625,11.08062744140625,1.0,1.0,4.0,4.0,1.0,75.0,event
09:49:07.395,0.32964298,0.0,0.0134040015,0.0849446,-0.023485348,0.0,0.09750599,-0.052507747,0.05052146,0.0,0.13172744,-0.13588245,0.32029256,0.0,0.27060157,0.18598104,-0.043411978,0.0,-0.21058203,-0.3997908,852.1978,622.1245,667.6557,818.7546,830.4396,-0.27667236328125,0.0328369140625,0.96319580078125,-0.478515625,0.31402587890625,11.08062744140625,1.0,1.0,4.0,4.0,1.0,75.0,event
09:49:07.396,0.32964298,0.0,0.0134040015,0.0849446,-0.023485348,0.0,0.09750599,-0.052507747,0.05052146,0.0,0.13172744,-0.13588245,0.32029256,0.0,0.27060157,0.18598104,-0.043411978,0.0,-0.21058203,-0.3997908,897.72894,280.43958,435.16483,829.6337,1000.07324,-0.27667236328125,0.0328369140625,0.96319580078125,-0.478515625,0.31402587890625,11.08062744140625,1.0,1.0,4.0,4.0,1.0,75.0,event
09:49:07.397,0.32964298,0.0,0.0134040015,0.0849446,-0.023485348,0.0,0.09750599,-0.052507747,0.05052146,0.0,0.13172744,-0.13588245,0.32029256,0.0,0.27060157,0.18598104,-0.043411978,0.0,-0.21058203,-0.3997908,787.326,589.0842,665.2381,803.44324,795.78754,-0.27667236328125,0.0328369140625,0.96319580078125,-0.478515625,0.31402587890625,11.08062744140625,1.0,1.0,4.0,4.0,1.0,75.0,event
09:49:07.401,0.32964298,0.0,0.0134040015,0.0849446,-0.023485348,0.0,0.09750599,-0.052507747,0.05052146,0.0,0.13172744,-0.13588245,0.32029256,0.0,0.27060157,0.18598104,-0.043411978,0.0,-0.21058203,-0.3997908,672.0879,985.16486,938.022,769.19415,614.4689,-0.27667236328125,0.0328369140625,0.96319580078125,-0.478515625,0.31402587890625,11.08062744140625,1.0,1.0,4.0,4.0,1.0,75.0,event
09:49:07.402,0.32964298,0.0,0.0134040015,0.0849446,-0.023485348,0.0,0.09750599,-0.052507747,0.05052146,0.0,0.13172744,-0.13588245,0.32029256,0.0,0.27060157,0.18598104,-0.043411978,0.0,-0.21058203,-0.3997908,703.5165,794.9817,793.7729,769.59705,728.49817,-0.27667236328125,0.0328369140625,0.96319580078125,-0.478515625,0.31402587890625,11.08062744140625,1.0,1.0,4.0,4.0,1.0,75.0,event
09:49:07.443,0.32964298,0.0,0.0134040015,0.0849446,-0.023485348,0.0,0.09750599,-0.052507747,0.05052146,0.0,0.13172744,-0.13588245,0.32029256,0.0,0.27060157,0.18598104,-0.043411978,0.0,-0.21058203,-0.3997908,825.6044,782.49084,794.57874,782.49084,752.27106,-0.30096435546875,0.03326416015625,0.9801025390625,1.65985107421875,-11.34979248046875,0.022430419921875,1.0,1.0,4.0,4.0,1.0,75.0,event
09:49:07.444,0.32964298,0.0,0.0134040015,0.0849446,-0.023485348,0.0,0.09750599,-0.052507747,0.05052146,0.0,0.13172744,-0.13588245,0.32029256,0.0,0.27060157,0.18598104,-0.043411978,0.0,-0.21058203,-0.3997908,886.4469,913.0403,904.17584,788.1319,783.69965,-0.30096435546875,0.03326416015625,0.9801025390625,1.65985107421875,-11.34979248046875,0.022430419921875,1.0,1.0,4.0,4.0,1.0,75.0,event
09:49:07.445,0.32964298,0.0,0.0134040015,0.0849446,-0.023485348,0.0,0.09750599,-0.052507747,0.05052146,0.0,0.13172744,-0.13588245,0.32029256,0.0,0.27060157,0.18598104,-0.043411978,0.0,-0.21058203,-0.3997908,807.8755,996.8498,973.0769,774.43225,733.3333,-0.30096435546875,0.03326416015625,0.9801025390625,1.65985107421875,-11.34979248046875,0.022430419921875,1.0,1.0,4.0,4.0,1.0,75.0,event
09:49:07.445,0.32964298,0.0,0.0134040015,0.0849446,-0.023485348,0.0,0.09750599,-0.052507747,0.05052146,0.0,0.13172744,-0.13588245,0.32029256,0.0,0.27060157,0.18598104,-0.043411978,0.0,-0.21058203,-0.3997908,675.7143,608.8278,648.315,761.53845,761.53845,-0.30096435546875,0.03326416015625,0.9801025390625,1.65985107421875,-11.34979248046875,0.022430419921875,1.0,1.0,4.0,4.0,1.0,75.0,event
09:49:07.446,0.32964298,0.0,0.0134040015,0.0849446,-0.023485348,0.0,0.09750599,-0.052507747,0.05052146,0.0,0.13172744,-0.13588245,0.32029256,0.0,0.27060157,0.18598104,-0.043411978,0.0,-0.21058203,-0.3997908,684.57874,453.69965,527.03296,765.9707,773.6264,-0.30096435546875,0.03326416015625,0.9801025390625,1.65985107421875,-11.34979248046875,0.022430419921875,1.0,1.0,4.0,4.0,1.0,75.0,event
09:49:07.447,0.32964298,0.0,0.0134040015,0.0849446,-0.023485348,0.0,0.09750599,-0.052507747,0.05052146,0.0,0.13172744,-0.13588245,0.32029256,0.0,0.27060157,0.18598104,-0.043411978,0.0,-0.21058203,-0.3997908,830.84247,678.1319,706.7399,768.3883,707.9487,-0.30096435546875,0.03326416015625,0.9801025390625,1.65985107421875,-11.34979248046875,0.022430419921875,1.0,1.0,4.0,4.0,1.0,75.0,event
09:49:07.447,0.32964298,0.0,0.0134040015,0.0849446,-0.023485348,0.0,0.09750599,-0.052507747,0.05052146,0.0,0.13172744,-0.13588245,0.32029256,0.0,0.27060157,0.18598104,-0.043411978,0.0,-0.21058203,-0.3997908,865.09155,774.0293,806.26373,755.89746,767.1795,-0.30096435546875,0.03326416015625,0.9801025390625,1.65985107421875,-11.34979248046875,0.022430419921875,1.0,1.0,4.0,4.0,1.0,75.0,event
09:49:07.448,0.32964298,0.0,0.0134040015,0.0849446,-0.023485348,0.0,0.09750599,-0.052507747,0.05052146,0.0,0.13172744,-0.13588245,0.32029256,0.0,0.27060157,0.18598104,-0.043411978,0.0,-0.21058203,-0.3997908,769.19415,425.89743,507.28937,790.14655,980.7326,-0.30096435546875,0.03326416015625,0.9801025390625,1.65985107421875,-11.34979248046875,0.022430419921875,1.0,1.0,4.0,4.0,1.0,75.0,event
09:49:07.448,0.32964298,0.0,0.0134040015,0.0849446,-0.023485348,0.0,0.09750599,-0.052507747,0.05052146,0.0,0.13172744,-0.13588245,0.32029256,0.0,0.27060157,0.18598104,-0.043411978,0.0,-0.21058203,-0.3997908,693.0403,231.28206,292.52747,777.6557,994.0293,-0.30096435546875,0.03326416015625,0.9801025390625,1.65985107421875,-11.34979248046875,0.022430419921875,1.0,1.0,4.0,4.0,1.0,75.0,event
09:49:07.449,0.32964298,0.0,0.0134040015,0.0849446,-0.023485348,0.0,0.09750599,-0.052507747,0.05052146,0.0,0.13172744,-0.13588245,0.32029256,0.0,0.27060157,0.18598104,-0.043411978,0.0,-0.21058203,-0.3997908,766.3736,985.16486,960.18317,794.9817,697.0696,-0.30096435546875,0.03326416015625,0.9801025390625,1.65985107421875,-11.34979248046875,0.022430419921875,1.0,1.0,4.0,4.0,1.0,75.0,event
09:49:07.449,0.32964298,0.0,0.0134040015,0.0849446,-0.023485348,0.0,0.09750599,-0.052507747,0.05052146,0.0,0.13172744,-0.13588245,0.32029256,0.0,0.27060157,0.18598104,-0.043411978,0.0,-0.21058203,-0.3997908,677.326,906.5934,874.7619,721.6484,722.8571,-0.30096435546875,0.03326416015625,0.9801025390625,1.65985107421875,-11.34979248046875,0.022430419921875,1.0,1.0,4.0,4.0,1.0,75.0,event
09:49:07.453,0.32964298,0.0,0.0134040015,0.0849446,-0.023485348,0.0,0.09750599,-0.052507747,0.05052146,0.0,0.13172744,-0.13588245,0.32029256,0.0,0.27060157,0.18598104,-0.043411978,0.0,-0.21058203,-0.3997908,904.17584,904.9817,912.23444,851.79486,794.57874,-0.30096435546875,0.03326416015625,0.9801025390625,1.65985107421875,-11.34979248046875,0.022430419921875,1.0,1.0,4.0,4.0,1.0,75.0,event
09:49:07.494,0.32964298,0.0,0.0134040015,0.0849446,-0.023485348,0.0,0.09750599,-0.052507747,0.05052146,0.0,0.13172744,-0.13588245,0.32029256,0.0,0.27060157,0.18598104,-0.043411978,0.0,-0.21058203,-0.3997908,884.83514,1067.7656,1049.2307,830.84247,786.1172,-0.30096435546875,0.03326416015625,0.9801025390625,1.65985107421875,-11.34979248046875,0.022430419921875,1.0,1.0,4.0,4.0,1.0,75.0,event
09:49:07.495,0.32964298,0.0,0.0134040015,0.0849446,-0.023485348,0.0,0.09750599,-0.052507747,0.05052146,0.0,0.13172744,-0.13588245,0.32029256,0.0,0.27060157,0.18598104,-0.043411978,0.0,-0.21058203,-0.3997908,765.56775,1055.6776,1005.31134,824.3956,675.31134,-0.30096435546875,0.03326416015625,0.9801025390625,1.65985107421875,-11.34979248046875,0.022430419921875,1.0,1.0,4.0,4.0,1.0,75.0,event
09:49:07.496,0.32964298,0.0,0.0134040015,0.0849446,-0.023485348,0.0,0.09750599,-0.052507747,0.05052146,0.0,0.13172744,-0.13588245,0.32029256,0.0,0.27060157,0.18598104,-0.043411978,0.0,-0.21058203,-0.3997908,736.1539,840.10986,822.381,819.5604,674.90845,-0.30096435546875,0.03326416015625,0.9801025390625,1.65985107421875,-11.34979248046875,0.022430419921875,1.0,1.0,4.0,4.0,1.0,75.0,event
09:49:07.496,0.32964298,0.0,0.0134040015,0.0849446,-0.023485348,0.0,0.09750599,-0.052507747,0.05052146,0.0,0.13172744,-0.13588245,0.32029256,0.0,0.27060157,0.18598104,-0.043411978,0.0,-0.21058203,-0.3997908,842.1245,723.663,729.707,824.3956,740.989,-0.30096435546875,0.03326416015625,0.9801025390625,1.65985107421875,-11.34979248046875,0.022430419921875,1.0,1.0,4.0,4.0,1.0,75.0,event
09:49:07.497,0.32964298,0.0,0.0134040015,0.0849446,-0.023485348,0.0,0.09750599,-0.052507747,0.05052146,0.0,0.13172744,-0.13588245,0.32029256,0.0,0.27060157,0.18598104,-0.043411978,0.0,-0.21058203,-0.3997908,963.4066,834.0659,820.7692,837.6923,821.1722,-0.30096435546875,0.03326416015625,0.9801025390625,1.65985107421875,-11.34979248046875,0.022430419921875,1.0,1.0,4.0,4.0,1.0,75.0,event
09:49:07.498,0.32964298,0.0,0.0134040015,0.0849446,-0.023485348,0.0,0.09750599,-0.052507747,0.05052146,0.0,0.13172744,-0.13588245,0.32029256,0.0,0.27060157,0.18598104,-0.043411978,0.0,-0.21058203,-0.3997908,931.978,862.27106,852.1978,838.49817,873.95605,-0.30096435546875,0.03326416015625,0.9801025390625,1.65985107421875,-11.34979248046875,0.022430419921875,1.0,1.0,4.0,4.0,1.0,75.0,event
09:49:07.499,0.32964298,0.0,0.0134040015,0.0849446,-0.023485348,0.0,0.09750599,-0.052507747,0.05052146,0.0,0.13172744,-0.13588245,0.32029256,0.0,0.27060157,0.18598104,-0.043411978,0.0,-0.21058203,-0.3997908,792.96704,647.50916,680.9524,819.15753,830.4396,-0.30096435546875,0.03326416015625,0.9801025390625,1.65985107421875,-11.34979248046875,0.022430419921875,1.0,1.0,4.0,4.0,1.0,75.0,event
09:49:07.500,0.32964298,0.0,0.0134040015,0.0849446,-0.023485348,0.0,0.09750599,-0.052507747,0.05052146,0.0,0.13172744,-0.13588245,0.32029256,0.0,0.27060157,0.18598104,-0.043411978,0.0,-0.21058203,-0.3997908,754.2857,55.201466,116.849815,819.5604,1010.9524,-0.30096435546875,0.03326416015625,0.9801025390625,1.65985107421875,-11.34979248046875,0.022430419921875,1.0,1.0,4.0,4.0,1.0,75.0,event
09:49:07.500,0.32964298,0.0,0.0134040015,0.0849446,-0.023485348,0.0,0.09750599,-0.052507747,0.05052146,0.0,0.13172744,-0.13588245,0.32029256,0.0,0.27060157,0.18598104,-0.043411978,0.0,-0.21058203,-0.3997908,841.31866,339.67032,330.0,830.84247,975.89746,-0.30096435546875,0.03326416015625,0.9801025390625,1.65985107421875,-11.34979248046875,0.022430419921875,1.0,1.0,4.0,4.0,1.0,75.0,event
09:49:07.501,0.32964298,0.0,0.0134040015,0.0849446,-0.023485348,0.0,0.09750599,-0.052507747,0.05052146,0.0,0.13172744,-0.13588245,0.32029256,0.0,0.27060157,0.18598104,-0.043411978,0.0,-0.21058203,-0.3997908,960.58606,1180.1831,1145.5311,838.0952,747.4359,-0.30096435546875,0.03326416015625,0.9801025390625,1.65985107421875,-11.34979248046875,0.022430419921875,1.0,1.0,4.0,4.0,1.0,75.0,event
09:49:07.502,0.32964298,0.0,0.0134040015,0.0849446,-0.023485348,0.0,0.09750599,-0.052507747,0.05052146,0.0,0.13172744,-0.13588245,0.32029256,0.0,0.27060157,0.18598104,-0.043411978,0.0,-0.21058203,-0.3997908,819.15753,917.0696,892.49084,826.4103,805.05493,-0.30096435546875,0.03326416015625,0.9801025390625,1.65985107421875,-11.34979248046875,0.022430419921875,1.0,1.0,4.0,4.0,1.0,75.0,event
09:49:07.502,0.32964298,0.0,0.0134040015,0.0849446,-0.023485348,0.0,0.09750599,-0.052507747,0.05052146,0.0,0.13172744,-0.13588245,0.32029256,0.0,0.27060157,0.18598104,-0.043411978,0.0,-0.21058203,-0.3997908,956.55676,1083.8828,1074.6154,837.28937,814.7253,-0.30096435546875,0.03326416015625,0.9801025390625,1.65985107421875,-11.34979248046875,0.022430419921875,1.0,1.0,4.0,4.0,1.0,75.0,event
09:49:07.543,0.32964298,0.0,0.0134040015,0.0849446,-0.023485348,0.0,0.09750599,-0.052507747,0.05052146,0.0,0.13172744,-0.13588245,0.32029256,0.0,0.27060157,0.18598104,-0.043411978,0.0,-0.21058203,-0.3997908,777.25275,1069.3773,1019.011,849.7802,693.0403,-0.2503662109375,0.0460205078125,0.95556640625,4.777679443359375,-5.78704833984375,-9.510498046875,1.0,1.0,4.0,4.0,1.0,75.0,event
09:49:07.544,0.32964298,0.0,0.0134040015,0.0849446,-0.023485348,0.0,0.09750599,-0.052507747,0.05052146,0.0,0.13172744,-0.13588245,0.32029256,0.0,0.27060157,0.18598104,-0.043411978,0.0,-0.21058203,-0.3997908,863.47986,1136.2638,1094.762,881.6117,751.4652,-0.2503662109375,0.0460205078125,0.95556640625,4.777679443359375,-5.78704833984375,-9.510498046875,1.0,1.0,4.0,4.0,1.0,75.0,event
09:49:07.545,0.32964298,0.0,0.0134040015,0.0849446,-0.023485348,0.0,0.09750599,-0.052507747,0.05052146,0.0,0.13172744,-0.13588245,0.32029256,0.0,0.27060157,0.18598104,-0.043411978,0.0,-0.21058203,-0.3997908,977.50916,1046.8132,1052.4542,896.1172,886.04395,-0.2503662109375,0.0460205078125,0.95556640625,4.777679443359375,-5.78704833984375,-9.510498046875,1.0,1.0,4.0,4.0,1.0,75.0,event
09:49:07.546,0.32964298,0.0,0.0134040015,0.0849446,-0.023485348,0.0,0.09750599,-0.052507747,0.05052146,0.0,0.13172744,-0.13588245,0.32029256,0.0,0.27060157,0.18598104,-0.043411978,0.0,-0.21058203,-0.3997908,981.9414,1037.1428,1047.619,888.86444,825.6044,-0.2503662109375,0.0460205078125,0.95556640625,4.777679443359375,-5.78704833984375,-9.510498046875,1.0,1.0,4.0,4.0,1.0,75.0,event
09:49:07.547,0.32964298,0.0,0.0134040015,0.0849446,-0.023485348,0.0,0.09750599,-0.052507747,0.05052146,0.0,0.13172744,-0.13588245,0.32029256,0.0,0.27060157,0.18598104,-0.043411978,0.0,-0.21058203,-0.3997908,854.21246,1035.5311,1009.7436,870.7326,692.6374,-0.2503662109375,0.0460205078125,0.95556640625,4.777679443359375,-5.78704833984375,-9.510498046875,1.0,1.0,4.0,4.0,1.0,75.0,event
09:49:07.547,0.32964298,0.0,0.0134040015,0.0849446,-0.023485348,0.0,0.09750599,-0.052507747,0.05052146,0.0,0.13172744,-0.13588245,0.32029256,0.0,0.27060157,0.18598104,-0.043411978,0.0,-0.21058203,-0.3997908,789.7436,806.26373,802.6374,858.24176,737.3626,-0.2503662109375,0.0460205078125,0.95556640625,4.777679443359375,-5.78704833984375,-9.510498046875,1.0,1.0,4.0,4.0,1.0,75.0,event
09:49:07.548,0.32964298,0.0,0.0134040015,0.0849446,-0.023485348,0.0,0.09750599,-0.052507747,0.05052146,0.0,0.13172744,-0.13588245,0.32029256,0.0,0.27060157,0.18598104,-0.043411978,0.0,-0.21058203,-0.3997908,822.7839,306.2271,343.69965,852.1978,970.2564,-0.2503662109375,0.0460205078125,0.95556640625,4.777679443359375,-5.78704833984375,-9.510498046875,1.0,1.0,4.0,4.0,1.0,75.0,event
09:49:07.549,0.32964298,0.0,0.0134040015,0.0849446,-0.023485348,0.0,0.09750599,-0.052507747,0.05052146,0.0,0.13172744,-0.13588245,0.32029256,0.0,0.27060157,0.18598104,-0.043411978,0.0,-0.21058203,-0.3997908,921.50183,170.43956,221.20879,859.45056,1062.5275,-0.2503662109375,0.0460205078125,0.95556640625,4.777679443359375,-5.78704833984375,-9.510498046875,1.0,1.0,4.0,4.0,1.0,75.0,event
09:49:07.549,0.32964298,0.0,0.0134040015,0.0849446,-0.023485348,0.0,0.09750599,-0.052507747,0.05052146,0.0,0.13172744,-0.13588245,0.32029256,0.0,0.27060157,0.18598104,-0.043411978,0.0,-0.21058203,-0.3997908,956.9597,816.7399,830.0366,850.58606,834.0659,-0.2503662109375,0.0460205078125,0.95556640625,4.777679443359375,-5.78704833984375,-9.510498046875,1.0,1.0,4.0,4.0,1.0,75.0,event
09:49:07.550,0.32964298,0.0,0.0134040015,0.0849446,-0.023485348,0.0,0.09750599,-0.052507747,0.05052146,0.0,0.13172744,-0.13588245,0.32029256,0.0,0.27060157,0.18598104,-0.043411978,0.0,-0.21058203,-0.3997908,835.2747,1032.7106,994.83514,819.9634,699.0842,-0.2503662109375,0.0460205078125,0.95556640625,4.777679443359375,-5.78704833984375,-9.510498046875,1.0,1.0,4.0,4.0,1.0,75.0,event
09:49:07.551,0.32964298,0.0,0.0134040015,0.0849446,-0.023485348,0.0,0.09750599,-0.052507747,0.05052146,0.0,0.13172744,-0.13588245,0.32029256,0.0,0.27060157,0.18598104,-0.043411978,0.0,-0.21058203,-0.3997908,728.9011,463.7729,508.09525,812.3077,781.685,-0.2503662109375,0.0460205078125,0.95556640625,4.777679443359375,-5.78704833984375,-9.510498046875,1.0,1.0,4.0,4.0,1.0,75.0,event
09:49:07.552,0.32964298,0.0,0.0134040015,0.0849446,-0.023485348,0.0,0.09750599,-0.052507747,0.05052146,0.0,0.13172744,-0.13588245,0.32029256,0.0,0.27060157,0.18598104,-0.043411978,0.0,-0.21058203,-0.3997908,764.35895,486.337,545.56775,820.3663,774.83514,-0.2503662109375,0.0460205078125,0.95556640625,4.777679443359375,-5.78704833984375,-9.510498046875,1.0,1.0,4.0,4.0,1.0,75.0,event
09:49:07.605,0.32964298,0.0,0.0134040015,0.0849446,-0.023485348,0.0,0.09750599,-0.052507747,0.05052146,0.0,0.13172744,-0.13588245,0.32029256,0.0,0.27060157,0.18598104,-0.043411978,0.0,-0.21058203,-0.3997908,888.0586,1068.9744,1040.3663,823.5897,674.5055,-0.23785400390625,0.0450439453125,0.97003173828125,3.985137939453125,-9.46563720703125,-11.0357666015625,1.0,1.0,4.0,4.0,1.0,75.0,event
09:49:07.607,0.32964298,0.0,0.0134040015,0.0849446,-0.023485348,0.0,0.09750599,-0.052507747,0.05052146,0.0,0.13172744,-0.13588245,0.32029256,0.0,0.27060157,0.18598104,-0.043411978,0.0,-0.21058203,-0.3997908,921.50183,1021.02563,1016.5934,834.87177,723.2601,-0.23785400390625,0.0450439453125,0.97003173828125,3.985137939453125,-9.46563720703125,-11.0357666015625,1.0,1.0,4.0,4.0,1.0,75.0,event
09:49:07.608,0.32964298,0.0,0.0134040015,0.0849446,-0.023485348,0.0,0.09750599,-0.052507747,0.05052146,0.0,0.13172744,-0.13588245,0.32029256,0.0,0.27060157,0.18598104,-0.043411978,0.0,-0.21058203,-0.3997908,802.6374,797.3993,798.20514,803.8461,768.3883,-0.23785400390625,0.0450439453125,0.97003173828125,3.985137939453125,-9.46563720703125,-11.0357666015625,1.0,1.0,4.0,4.0,1.0,75.0,event
09:49:07.609,0.32964298,0.0,0.0134040015,0.0849446,-0.023485348,0.0,0.09750599,-0.052507747,0.05052146,0.0,0.13172744,-0.13588245,0.32029256,0.0,0.27060157,0.18598104,-0.043411978,0.0,-0.21058203,-0.3997908,684.57874,834.4689,805.05493,774.43225,685.38464,-0.23785400390625,0.0450439453125,0.97003173828125,3.985137939453125,-9.46563720703125,-11.0357666015625,1.0,1.0,4.0,4.0,1.0,75.0,event
09:49:07.610,0.32964298,0.0,0.0134040015,0.0849446,-0.023485348,0.0,0.09750599,-0.052507747,0.05052146,0.0,0.13172744,-0.13588245,0.32029256,0.0,0.27060157,0.18598104,-0.043411978,0.0,-0.21058203,-0.3997908,727.6923,913.0403,870.7326,807.8755,603.9927,-0.23785400390625,0.0450439453125,0.97003173828125,3.985137939453125,-9.46563720703125,-11.0357666015625,1.0,1.0,4.0,4.0,1.0,75.0,event
09:49:07.611,0.32964298,0.0,0.0134040015,0.0849446,-0.023485348,0.0,0.09750599,-0.052507747,0.05052146,0.0,0.13172744,-0.13588245,0.32029256,0.0,0.27060157,0.18598104,-0.043411978,0.0,-0.21058203,-0.3997908,853.00366,729.304,749.0476,815.12823,787.326,-0.23785400390625,0.0450439453125,0.97003173828125,3.985137939453125,-9.46563720703125,-11.0357666015625,1.0,1.0,4.0,4.0,1.0,75.0,event
09:49:07.612,0.32964298,0.0,0.0134040015,0.0849446,-0.023485348,0.0,0.09750599,-0.052507747,0.05052146,0.0,0.13172744,-0.13588245,0.32029256,0.0,0.27060157,0.18598104,-0.043411978,0.0,-0.21058203,-0.3997908,890.4762,345.7143,481.90475,809.0842,1056.0806,-0.23785400390625,0.0450439453125,0.97003173828125,3.985137939453125,-9.46563720703125,-11.0357666015625,1.0,1.0,4.0,4.0,1.0,75.0,event
09:49:07.612,0.32964298,0.0,0.0134040015,0.0849446,-0.023485348,0.0,0.09750599,-0.052507747,0.05052146,0.0,0.13172744,-0.13588245,0.32029256,0.0,0.27060157,0.18598104,-0.043411978,0.0,-0.21058203,-0.3997908,802.6374,670.07324,728.49817,792.96704,931.1722,-0.23785400390625,0.0450439453125,0.97003173828125,3.985137939453125,-9.46563720703125,-11.0357666015625,1.0,1.0,4.0,4.0,1.0,75.0,event
09:49:07.613,0.32964298,0.0,0.0134040015,0.0849446,-0.023485348,0.0,0.09750599,-0.052507747,0.05052146,0.0,0.13172744,-0.13588245,0.32029256,0.0,0.27060157,0.18598104,-0.043411978,0.0,-0.21058203,-0.3997908,694.2491,1085.4945,1032.3077,767.98535,730.5128,-0.23785400390625,0.0450439453125,0.97003173828125,3.985137939453125,-9.46563720703125,-11.0357666015625,1.0,1.0,4.0,4.0,1.0,75.0,event
09:49:07.614,0.32964298,0.0,0.0134040015,0.0849446,-0.023485348,0.0,0.09750599,-0.052507747,0.05052146,0.0,0.13172744,-0.13588245,0.32029256,0.0,0.27060157,0.18598104,-0.043411978,0.0,-0.21058203,-0.3997908,703.91943,662.4176,698.68134,781.685,785.31134,-0.23785400390625,0.0450439453125,0.97003173828125,3.985137939453125,-9.46563720703125,-11.0357666015625,1.0,1.0,4.0,4.0,1.0,75.0,event
09:49:07.615,0.32964298,0.0,0.0134040015,0.0849446,-0.023485348,0.0,0.09750599,-0.052507747,0.05052146,0.0,0.13172744,-0.13588245,0.32029256,0.0,0.27060157,0.18598104,-0.043411978,0.0,-0.21058203,-0.3997908,816.7399,323.5531,436.77655,798.20514,880.80585,-0.23785400390625,0.0450439453125,0.97003173828125,3.985137939453125,-9.46563720703125,-11.0357666015625,1.0,1.0,4.0,4.0,1.0,75.0,event
09:49:07.616,0.32964298,0.0,0.0134040015,0.0849446,-0.023485348,0.0,0.09750599,-0.052507747,0.05052146,0.0,0.13172744,-0.13588245,0.32029256,0.0,0.27060157,0.18598104,-0.043411978,0.0,-0.21058203,-0.3997908,910.2198,861.06226,879.59705,813.1135,776.4469,-0.23785400390625,0.0450439453125,0.97003173828125,3.985137939453125,-9.46563720703125,-11.0357666015625,1.0,1.0,4.0,4.0,1.0,75.0,event
09:49:07.638,0.32964298,0.0,0.0134040015,0.0849446,-0.023485348,0.0,0.09750599,-0.052507747,0.05052146,0.0,0.13172744,-0.13588245,0.32029256,0.0,0.27060157,0.18598104,-0.043411978,0.0,-0.21058203,-0.3997908,842.1245,1155.6044,1123.773,813.5165,718.4249,-0.20306396484375,0.0518798828125,0.96240234375,3.671112060546875,-5.301055908203125,-6.44500732421875,1.0,1.0,4.0,4.0,1.0,75.0,event
09:49:07.639,0.32964298,0.0,0.0134040015,0.0849446,-0.023485348,0.0,0.09750599,-0.052507747,0.05052146,0.0,0.13172744,-0.13588245,0.32029256,0.0,0.27060157,0.18598104,-0.043411978,0.0,-0.21058203,-0.3997908,708.3516,626.55676,676.9231,789.7436,831.6484,-0.20306396484375,0.0518798828125,0.96240234375,3.671112060546875,-5.301055908203125,-6.44500732421875,1.0,1.0,4.0,4.0,1.0,75.0,event
09:49:07.642,,,,,,,,,,,,,,,,,,,,,,,,,,,,,,,,,,,,,,blink
09:49:07.644,0.32964298,0.0,0.0134040015,0.0849446,-0.023485348,0.0,0.09750599,-0.052507747,0.05052146,0.0,0.13172744,-0.13588245,0.32029256,0.0,0.27060157,0.18598104,-0.043411978,0.0,-0.21058203,-0.3997908,698.2784,413.00366,480.29303,780.87915,820.7692,-0.20306396484375,0.0518798828125,0.96240234375,3.671112060546875,-5.301055908203125,-6.44500732421875,1.0,1.0,4.0,4.0,1.0,75.0,event
09:49:07.644,0.32964298,0.0,0.0134040015,0.0849446,-0.023485348,0.0,0.09750599,-0.052507747,0.05052146,0.0,0.13172744,-0.13588245,0.32029256,0.0,0.27060157,0.18598104,-0.043411978,0.0,-0.21058203,-0.3997908,808.68134,904.9817,894.5055,808.68134,657.98535,-0.20306396484375,0.0518798828125,0.96240234375,3.671112060546875,-5.301055908203125,-6.44500732421875,1.0,1.0,4.0,4.0,1.0,75.0,event
09:49:07.645,0.32964298,0.0,0.0134040015,0.0849446,-0.023485348,0.0,0.09750599,-0.052507747,0.05052146,0.0,0.13172744,-0.13588245,0.32029256,0.0,0.27060157,0.18598104,-0.043411978,0.0,-0.21058203,-0.3997908,912.23444,1065.348,1076.227,830.84247,689.011,-0.20306396484375,0.0518798828125,0.96240234375,3.671112060546875,-5.301055908203125,-6.44500732421875,1.0,1.0,4.0,4.0,1.0,75.0,event
09:49:07.646,0.32964298,0.0,0.0134040015,0.0849446,-0.023485348,0.0,0.09750599,-0.052507747,0.05052146,0.0,0.13172744,-0.13588245,0.32029256,0.0,0.27060157,0.18598104,-0.043411978,0.0,-0.21058203,-0.3997908,850.18317,711.5751,777.6557,819.5604,861.06226,-0.20306396484375,0.0518798828125,0.96240234375,3.671112060546875,-5.301055908203125,-6.44500732421875,1.0,1.0,4.0,4.0,1.0,75.0,event
09:49:07.646,0.32964298,0.0,0.0134040015,0.0849446,-0.023485348,0.0,0.09750599,-0.052507747,0.05052146,0.0,0.13172744,-0.13588245,0.32029256,0.0,0.27060157,0.18598104,-0.043411978,0.0,-0.21058203,-0.3997908,722.0513,429.92673,479.48718,802.23444,887.6557,-0.20306396484375,0.0518798828125,0.96240234375,3.671112060546875,-5.301055908203125,-6.44500732421875,1.0,1.0,4.0,4.0,1.0,75.0,event
09:49:07.647,0.32964298,0.0,0.0134040015,0.0849446,-0.023485348,0.0,0.09750599,-0.052507747,0.05052146,0.0,0.13172744,-0.13588245,0.32029256,0.0,0.27060157,0.18598104,-0.043411978,0.0,-0.21058203,-0.3997908,710.7692,678.1319,655.56775,799.011,724.0659,-0.20306396484375,0.0518798828125,0.96240234375,3.671112060546875,-5.301055908203125,-6.44500732421875,1.0,1.0,4.0,4.0,1.0,75.0,event
09:49:07.648,0.32964298,0.0,0.0134040015,0.0849446,-0.023485348,0.0,0.09750599,-0.052507747,0.05052146,0.0,0.13172744,-0.13588245,0.32029256,0.0,0.27060157,0.18598104,-0.043411978,0.0,-0.21058203,-0.3997908,802.23444,983.95605,948.49817,813.5165,680.14655,-0.20306396484375,0.0518798828125,0.96240234375,3.671112060546875,-5.301055908203125,-6.44500732421875,1.0,1.0,4.0,4.0,1.0,75.0,event
09:49:07.649,0.32964298,0.0,0.0134040015,0.0849446,-0.023485348,0.0,0.09750599,-0.052507747,0.05052146,0.0,0.13172744,-0.13588245,0.32029256,0.0,0.27060157,0.18598104,-0.043411978,0.0,-0.21058203,-0.3997908,891.28204,517.3626,635.82416,828.4249,923.1135,-0.20306396484375,0.0518798828125,0.96240234375,3.671112060546875,-5.301055908203125,-6.44500732421875,1.0,1.0,4.0,4.0,1.0,75.0,event
09:49:07.650,0.32964298,0.0,0.0134040015,0.0849446,-0.023485348,0.0,0.09750599,-0.052507747,0.05052146,0.0,0.13172744,-0.13588245,0.32029256,0.0,0.27060157,0.18598104,-0.043411978,0.0,-0.21058203,-0.3997908,843.3333,379.1575,529.85345,812.3077,936.0073,-0.20306396484375,0.0518798828125,0.96240234375,3.671112060546875,-5.301055908203125,-6.44500732421875,1.0,1.0,4.0,4.0,1.0,75.0,event
09:49:07.651,0.32964298,0.0,0.0134040015,0.0849446,-0.023485348,0.0,0.09750599,-0.052507747,0.05052146,0.0,0.13172744,-0.13588245,0.32029256,0.0,0.27060157,0.18598104,-0.043411978,0.0,-0.21058203,-0.3997908,724.87177,960.18317,956.9597,789.34064,719.2308,-0.20306396484375,0.0518798828125,0.96240234375,3.671112060546875,-5.301055908203125,-6.44500732421875,1.0,1.0,4.0,4.0,1.0,75.0,event
09:49:07.688,0.32964298,0.0,0.0134040015,0.0849446,-0.023485348,0.0,0.09750599,-0.052507747,0.05052146,0.0,0.13172744,-0.13588245,0.32029256,0.0,0.27060157,0.18598104,-0.043411978,0.0,-0.21058203,-0.3997908,695.05493,799.011,793.7729,788.93774,674.90845,-0.21612548828125,0.04461669921875,0.96533203125,1.742095947265625,-4.747772216796875,0.478515625,1.0,1.0,4.0,4.0,1.0,75.0,event
09:49:07.689,0.32964298,0.0,0.0134040015,0.0849446,-0.023485348,0.0,0.09750599,-0.052507747,0.05052146,0.0,0.13172744,-0.13588245,0.32029256,0.0,0.27060157,0.18598104,-0.043411978,0.0,-0.21058203,-0.3997908,765.9707,506.88644,559.2674,792.96704,732.9304,-0.21612548828125,0.04461669921875,0.96533203125,1.742095947265625,-4.747772216796875,0.478515625,1.0,1.0,4.0,4.0,1.0,75.0,event
09:49:07.690,0.32964298,0.0,0.0134040015,0.0849446,-0.023485348,0.0,0.09750599,-0.052507747,0.05052146,0.0,0.13172744,-0.13588245,0.32029256,0.0,0.27060157,0.18598104,-0.043411978,0.0,-0.21058203,-0.3997908,880.40295,784.10254,827.619,801.4286,800.2198,-0.21612548828125,0.04461669921875,0.96533203125,1.742095947265625,-4.747772216796875,0.478515625,1.0,1.0,4.0,4.0,1.0,75.0,event
09:49:07.691,0.32964298,0.0,0.0134040015,0.0849446,-0.023485348,0.0,0.09750599,-0.052507747,0.05052146,0.0,0.13172744,-0.13588245,0.32029256,0.0,0.27060157,0.18598104,-0.043411978,0.0,-0.21058203,-0.3997908,874.35895,1070.586,1070.989,803.44324,715.2015,-0.21612548828125,0.04461669921875,0.96533203125,1.742095947265625,-4.747772216796875,0.478515625,1.0,1.0,4.0,4.0,1.0,75.0,event
09:49:07.692,0.32964298,0.0,0.0134040015,0.0849446,-0.023485348,0.0,0.09750599,-0.052507747,0.05052146,0.0,0.13172744,-0.13588245,0.32029256,0.0,0.27060157,0.18598104,-0.043411978,0.0,-0.21058203,-0.3997908,734.1392,783.69965,798.20514,785.7143,731.7216,-0.21612548828125,0.04461669921875,0.96533203125,1.742095947265625,-4.747772216796875,0.478515625,1.0,1.0,4.0,4.0,1.0,75.0,event
09:49:07.692,0.32964298,0.0,0.0134040015,0.0849446,-0.023485348,0.0,0.09750599,-0.052507747,0.05052146,0.0,0.13172744,-0.13588245,0.32029256,0.0,0.27060157,0.18598104,-0.043411978,0.0,-0.21058203,-0.3997908,676.52014,184.13919,233.2967,774.83514,990.0,-0.21612548828125,0.04461669921875,0.96533203125,1.742095947265625,-4.747772216796875,0.478515625,1.0,1.0,4.0,4.0,1.0,75.0,event
09:49:07.693,0.32964298,0.0,0.0134040015,0.0849446,-0.023485348,0.0,0.09750599,-0.052507747,0.05052146,0.0,0.13172744,-0.13588245,0.32029256,0.0,0.27060157,0.18598104,-0.043411978,0.0,-0.21058203,-0.3997908,761.53845,267.94873,313.07693,782.8938,959.7802,-0.21612548828125,0.04461669921875,0.96533203125,1.742095947265625,-4.747772216796875,0.478515625,1.0,1.0,4.0,4.0,1.0,75.0,event
09:49:07.693,0.32964298,0.0,0.0134040015,0.0849446,-0.023485348,0.0,0.09750599,-0.052507747,0.05052146,0.0,0.13172744,-0.13588245,0.32029256,0.0,0.27060157,0.18598104,-0.043411978,0.0,-0.21058203,-0.3997908,882.01465,930.3663,936.8132,801.02563,746.2271,-0.21612548828125,0.04461669921875,0.96533203125,1.742095947265625,-4.747772216796875,0.478515625,1.0,1.0,4.0,4.0,1.0,75.0,event
09:49:07.694,0.32964298,0.0,0.0134040015,0.0849446,-0.023485348,0.0,0.09750599,-0.052507747,0.05052146,0.0,0.13172744,-0.13588245,0.32029256,0.0,0.27060157,0.18598104,-0.043411978,0.0,-0.21058203,-0.3997908,878.3883,844.94507,892.8938,809.89014,848.5714,-0.21612548828125,0.04461669921875,0.96533203125,1.742095947265625,-4.747772216796875,0.478515625,1.0,1.0,4.0,4.0,1.0,75.0,event
09:49:07.694,0.32964298,0.0,0.0134040015,0.0849446,-0.023485348,0.0,0.09750599,-0.052507747,0.05052146,0.0,0.13172744,-0.13588245,0.32029256,0.0,0.27060157,0.18598104,-0.043411978,0.0,-0.21058203,-0.3997908,744.21246,351.75824,471.02563,799.41394,911.02563,-0.21612548828125,0.04461669921875,0.96533203125,1.742095947265625,-4.747772216796875,0.478515625,1.0,1.0,4.0,4.0,1.0,75.0,event
09:49:07.695,0.32964298,0.0,0.0134040015,0.0849446,-0.023485348,0.0,0.09750599,-0.052507747,0.05052146,0.0,0.13172744,-0.13588245,0.32029256,0.0,0.27060157,0.18598104,-0.043411978,0.0,-0.21058203,-0.3997908,681.75824,657.1795,672.8938,784.90845,685.78754,-0.21612548828125,0.04461669921875,0.96533203125,1.742095947265625,-4.747772216796875,0.478515625,1.0,1.0,4.0,4.0,1.0,75.0,event
09:49:07.696,0.32964298,0.0,0.0134040015,0.0849446,-0.023485348,0.0,0.09750599,-0.052507747,0.05052146,0.0,0.13172744,-0.13588245,0.32029256,0.0,0.27060157,0.18598104,-0.043411978,0.0,-0.21058203,-0.3997908,749.85345,906.5934,863.47986,787.326,636.63007,-0.21612548828125,0.04461669921875,0.96533203125,1.742095947265625,-4.747772216796875,0.478515625,1.0,1.0,4.0,4.0,1.0,75.0,event
09:49:07.732,0.32964298,0.0,0.0134040015,0.0849446,-0.023485348,0.0,0.09750599,-0.052507747,0.05052146,0.0,0.13172744,-0.13588245,0.32029256,0.0,0.27060157,0.18598104,-0.043411978,0.0,-0.21058203,-0.3997908,871.13556,850.18317,886.8498,805.4579,806.6667,-0.21612548828125,0.04461669921875,0.96533203125,1.742095947265625,-4.747772216796875,0.478515625,1.0,1.0,4.0,4.0,1.0,75.0,event
09:49:07.734,0.32964298,0.0,0.0134040015,0.0849446,-0.023485348,0.0,0.09750599,-0.052507747,0.05052146,0.0,0.13172744,-0.13588245,0.32029256,0.0,0.27060157,0.18598104,-0.043411978,0.0,-0.21058203,-0.3997908,887.6557,867.50916,921.9048,802.23444,814.7253,-0.21612548828125,0.04461669921875,0.96533203125,1.742095947265625,-4.747772216796875,0.478515625,1.0,1.0,4.0,4.0,1.0,75.0,event
09:49:07.734,0.32964298,0.0,0.0134040015,0.0849446,-0.023485348,0.0,0.09750599,-0.052507747,0.05052146,0.0,0.13172744,-0.13588245,0.32029256,0.0,0.27060157,0.18598104,-0.043411978,0.0,-0.21058203,-0.3997908,765.9707,926.7399,924.3223,789.34064,664.83514,-0.21612548828125,0.04461669921875,0.96533203125,1.742095947265625,-4.747772216796875,0.478515625,1.0,1.0,4.0,4.0,1.0,75.0,event
09:49:07.735,0.32964298,0.0,0.0134040015,0.0849446,-0.023485348,0.0,0.09750599,-0.052507747,0.05052146,0.0,0.13172744,-0.13588245,0.32029256,0.0,0.27060157,0.18598104,-0.043411978,0.0,-0.21058203,-0.3997908,699.0842,820.3663,827.2161,786.52014,654.7619,-0.21612548828125,0.04461669921875,0.96533203125,1.742095947265625,-4.747772216796875,0.478515625,1.0,1.0,4.0,4.0,1.0,75.0,event
09:49:07.740,0.32964298,0.0,0.0134040015,0.0849446,-0.023485348,0.0,0.09750599,-0.052507747,0.05052146,0.0,0.13172744,-0.13588245,0.32029256,0.0,0.27060157,0.18598104,-0.043411978,0.0,-0.21058203,-0.3997908,740.989,587.47253,637.8388,779.2674,759.5238,-0.21612548828125,0.04461669921875,0.96533203125,1.742095947265625,-4.747772216796875,0.478515625,1.0,1.0,4.0,4.0,1.0,75.0,event
09:49:07.741,0.32964298,0.0,0.0134040015,0.0849446,-0.023485348,0.0,0.09750599,-0.052507747,0.05052146,0.0,0.13172744,-0.13588245,0.32029256,0.0,0.27060157,0.18598104,-0.043411978,0.0,-0.21058203,-0.3997908,845.34796,537.50916,603.5897,801.8315,840.10986,-0.21612548828125,0.04461669921875,0.96533203125,1.742095947265625,-4.747772216796875,0.478515625,1.0,1.0,4.0,4.0,1.0,75.0,event
09:49:07.741,0.32964298,0.0,0.0134040015,0.0849446,-0.023485348,0.0,0.09750599,-0.052507747,0.05052146,0.0,0.13172744,-0.13588245,0.32029256,0.0,0.27060157,0.18598104,-0.043411978,0.0,-0.21058203,-0.3997908,888.86444,682.5641,728.49817,815.9341,861.4652,-0.21612548828125,0.04461669921875,0.96533203125,1.742095947265625,-4.747772216796875,0.478515625,1.0,1.0,4.0,4.0,1.0,75.0,event
09:49:07.742,0.32964298,0.0,0.0134040015,0.0849446,-0.023485348,0.0,0.09750599,-0.052507747,0.05052146,0.0,0.13172744,-0.13588245,0.32029256,0.0,0.27060157,0.18598104,-0.043411978,0.0,-0.21058203,-0.3997908,776.8498,666.04395,687.3993,786.1172,835.6777,-0.21612548828125,0.04461669921875,0.96533203125,1.742095947265625,-4.747772216796875,0.478515625,1.0,1.0,4.0,4.0,1.0,75.0,event
09:49:07.742,0.32964298,0.0,0.0134040015,0.0849446,-0.023485348,0.0,0.09750599,-0.052507747,0.05052146,0.0,0.13172744,-0.13588245,0.32029256,0.0,0.27060157,0.18598104,-0.043411978,0.0,-0.21058203,-0.3997908,674.90845,471.42856,497.61905,772.01465,824.7985,-0.21612548828125,0.04461669921875,0.96533203125,1.742095947265625,-4.747772216796875,0.478515625,1.0,1.0,4.0,4.0,1.0,75.0,event
09:49:07.743,0.32964298,0.0,0.0134040015,0.0849446,-0.023485348,0.0,0.09750599,-0.052507747,0.05052146,0.0,0.13172744,-0.13588245,0.32029256,0.0,0.27060157,0.18598104,-0.043411978,0.0,-0.21058203,-0.3997908,724.0659,621.31866,638.6447,782.49084,757.1062,-0.21612548828125,0.04461669921875,0.96533203125,1.742095947265625,-4.747772216796875,0.478515625,1.0,1.0,4.0,4.0,1.0,75.0,event
09:49:07.744,0.32964298,0.0,0.0134040015,0.0849446,-0.023485348,0.0,0.09750599,-0.052507747,0.05052146,0.0,0.13172744,-0.13588245,0.32029256,0.0,0.27060157,0.18598104,-0.043411978,0.0,-0.21058203,-0.3997908,854.21246,960.18317,973.47986,803.0403,759.5238,-0.21612548828125,0.04461669921875,0.96533203125,1.742095947265625,-4.747772216796875,0.478515625,1.0,1.0,4.0,4.0,1.0,75.0,event
09:49:07.745,0.32964298,0.0,0.0134040015,0.0849446,-0.023485348,0.0,0.09750599,-0.052507747,0.05052146,0.0,0.13172744,-0.13588245,0.32029256,0.0,0.27060157,0.18598104,-0.043411978,0.0,-0.21058203,-0.3997908,902.96704,916.26373,972.674,806.6667,817.9487,-0.21612548828125,0.04461669921875,0.96533203125,1.742095947265625,-4.747772216796875,0.478515625,1.0,1.0,4.0,4.0,1.0,75.0,event
09:49:07.767,0.32964298,0.0,0.0134040015,0.0849446,-0.023485348,0.0,0.09750599,-0.052507747,0.05052146,0.0,0.13172744,-0.13588245,0.32029256,0.0,0.27060157,0.18598104,-0.043411978,0.0,-0.21058203,-0.3997908,800.6227,349.7436,404.1392,790.14655,958.5714,-0.23779296875,0.04193115234375,0.95562744140625,1.562652587890625,-4.119720458984375,2.691650390625,1.0,1.0,4.0,4.0,1.0,75.0,event
09:49:07.768,0.32964298,0.0,0.0134040015,0.0849446,-0.023485348,0.0,0.09750599,-0.052507747,0.05052146,0.0,0.13172744,-0.13588245,0.32029256,0.0,0.27060157,0.18598104,-0.043411978,0.0,-0.21058203,-0.3997908,680.14655,62.454212,70.51282,774.0293,1043.5897,-0.23779296875,0.04193115234375,0.95562744140625,1.562652587890625,-4.119720458984375,2.691650390625,1.0,1.0,4.0,4.0,1.0,75.0,event
09:49:07.769,0.32964298,0.0,0.0134040015,0.0849446,-0.023485348,0.0,0.09750599,-0.052507747,0.05052146,0.0,0.13172744,-0.13588245,0.32029256,0.0,0.27060157,0.18598104,-0.043411978,0.0,-0.21058203,-0.3997908,718.4249,723.2601,711.1722,772.4176,801.02563,-0.23779296875,0.04193115234375,0.95562744140625,1.562652587890625,-4.119720458984375,2.691650390625,1.0,1.0,4.0,4.0,1.0,75.0,event
09:49:07.770,0.32964298,0.0,0.0134040015,0.0849446,-0.023485348,0.0,0.09750599,-0.052507747,0.05052146,0.0,0.13172744,-0.13588245,0.32029256,0.0,0.27060157,0.18598104,-0.043411978,0.0,-0.21058203,-0.3997908,856.63007,945.2747,962.6007,802.23444,747.4359,-0.23779296875,0.04193115234375,0.95562744140625,1.562652587890625,-4.119720458984375,2.691650390625,1.0,1.0,4.0,4.0,1.0,75.0,event
09:49:07.770,0.32964298,0.0,0.0134040015,0.0849446,-0.023485348,0.0,0.09750599,-0.052507747,0.05052146,0.0,0.13172744,-0.13588245,0.32029256,0.0,0.27060157,0.18598104,-0.043411978,0.0,-0.21058203,-0.3997908,916.6667,876.77655,909.011,811.50183,831.6484,-0.23779296875,0.04193115234375,0.95562744140625,1.562652587890625,-4.119720458984375,2.691650390625,1.0,1.0,4.0,4.0,1.0,75.0,event
09:49:07.771,0.32964298,0.0,0.0134040015,0.0849446,-0.023485348,0.0,0.09750599,-0.052507747,0.05052146,0.0,0.13172744,-0.13588245,0.32029256,0.0,0.27060157,0.18598104,-0.043411978,0.0,-0.21058203,-0.3997908,832.8571,879.59705,894.90845,791.75824,861.8681,-0.23779296875,0.04193115234375,0.95562744140625,1.562652587890625,-4.119720458984375,2.691650390625,1.0,1.0,4.0,4.0,1.0,75.0,event
09:49:07.772,0.32964298,0.0,0.0134040015,0.0849446,-0.023485348,0.0,0.09750599,-0.052507747,0.05052146,0.0,0.13172744,-0.13588245,0.32029256,0.0,0.27060157,0.18598104,-0.043411978,0.0,-0.21058203,-0.3997908,721.6484,692.6374,717.619,779.67035,859.0476,-0.23779296875,0.04193115234375,0.95562744140625,1.562652587890625,-4.119720458984375,2.691650390625,1.0,1.0,4.0,4.0,1.0,75.0,event
09:49:07.773,0.32964298,0.0,0.0134040015,0.0849446,-0.023485348,0.0,0.09750599,-0.052507747,0.05052146,0.0,0.13172744,-0.13588245,0.32029256,0.0,0.27060157,0.18598104,-0.043411978,0.0,-0.21058203,-0.3997908,721.2454,515.7509,593.91943,786.9231,882.4176,-0.23779296875,0.04193115234375,0.95562744140625,1.562652587890625,-4.119720458984375,2.691650390625,1.0,1.0,4.0,4.0,1.0,75.0,event
09:49:07.773,0.32964298,0.0,0.0134040015,0.0849446,-0.023485348,0.0,0.09750599,-0.052507747,0.05052146,0.0,0.13172744,-0.13588245,0.32029256,0.0,0.27060157,0.18598104,-0.043411978,0.0,-0.21058203,-0.3997908,829.6337,46.336998,161.57509,810.696,1090.7325,-0.23779296875,0.04193115234375,0.95562744140625,1.562652587890625,-4.119720458984375,2.691650390625,1.0,1.0,4.0,4.0,1.0,75.0,event
09:49:07.774,0.32964298,0.0,0.0134040015,0.0849446,-0.023485348,0.0,0.09750599,-0.052507747,0.05052146,0.0,0.13172744,-0.13588245,0.32029256,0.0,0.27060157,0.18598104,-0.043411978,0.0,-0.21058203,-0.3997908,936.0073,379.96338,429.12088,818.3516,941.2454,-0.23779296875,0.04193115234375,0.95562744140625,1.562652587890625,-4.119720458984375,2.691650390625,1.0,1.0,4.0,4.0,1.0,75.0,event
09:49:07.775,0.32964298,0.0,0.0134040015,0.0849446,-0.023485348,0.0,0.09750599,-0.052507747,0.05052146,0.0,0.13172744,-0.13588245,0.32029256,0.0,0.27060157,0.18598104,-0.043411978,0.0,-0.21058203,-0.3997908,881.6117,1060.9158,1050.8425,801.02563,623.3333,-0.23779296875,0.04193115234375,0.95562744140625,1.562652587890625,-4.119720458984375,2.691650390625,1.0,1.0,4.0,4.0,1.0,75.0,event
09:49:07.776,0.32964298,0.0,0.0134040015,0.0849446,-0.023485348,0.0,0.09750599,-0.052507747,0.05052146,0.0,0.13172744,-0.13588245,0.32029256,0.0,0.27060157,0.18598104,-0.043411978,0.0,-0.21058203,-0.3997908,766.3736,752.674,765.16486,786.1172,661.6117,-0.23779296875,0.04193115234375,0.95562744140625,1.562652587890625,-4.119720458984375,2.691650390625,1.0,1.0,4.0,4.0,1.0,75.0,event
09:49:07.800,0.32964298,0.0,0.0134040015,0.0849446,-0.023485348,0.0,0.09750599,-0.052507747,0.05052146,0.0,0.13172744,-0.13588245,0.32029256,0.0,0.27060157,0.18598104,-0.043411978,0.0,-0.21058203,-0.3997908,758.71796,657.1795,679.7436,776.4469,684.17584,-0.25225830078125,0.0347900390625,0.97100830078125,1.921539306640625,-5.69732666015625,-1.218719482421875,1.0,1.0,4.0,4.0,1.0,75.0,event
09:49:07.801,0.32964298,0.0,0.0134040015,0.0849446,-0.023485348,0.0,0.09750599,-0.052507747,0.05052146,0.0,0.13172744,-0.13588245,0.32029256,0.0,0.27060157,0.18598104,-0.043411978,0.0,-0.21058203,-0.3997908,861.4652,1022.6374,1016.1905,787.72894,665.64105,-0.25225830078125,0.0347900390625,0.97100830078125,1.921539306640625,-5.69732666015625,-1.218719482421875,1.0,1.0,4.0,4.0,1.0,75.0,event
09:49:07.802,0.32964298,0.0,0.0134040015,0.0849446,-0.023485348,0.0,0.09750599,-0.052507747,0.05052146,0.0,0.13172744,-0.13588245,0.32029256,0.0,0.27060157,0.18598104,-0.043411978,0.0,-0.21058203,-0.3997908,971.06226,1141.5018,1129.414,806.6667,733.73627,-0.25225830078125,0.0347900390625,0.97100830078125,1.921539306640625,-5.69732666015625,-1.218719482421875,1.0,1.0,4.0,4.0,1.0,75.0,event
09:49:07.803,0.32964298,0.0,0.0134040015,0.0849446,-0.023485348,0.0,0.09750599,-0.052507747,0.05052146,0.0,0.13172744,-0.13588245,0.32029256,0.0,0.27060157,0.18598104,-0.043411978,0.0,-0.21058203,-0.3997908,907.8022,934.3956,949.707,784.10254,788.1319,-0.25225830078125,0.0347900390625,0.97100830078125,1.921539306640625,-5.69732666015625,-1.218719482421875,1.0,1.0,4.0,4.0,1.0,75.0,event
09:49:07.803,0.32964298,0.0,0.0134040015,0.0849446,-0.023485348,0.0,0.09750599,-0.052507747,0.05052146,0.0,0.13172744,-0.13588245,0.32029256,0.0,0.27060157,0.18598104,-0.043411978,0.0,-0.21058203,-0.3997908,761.53845,776.8498,796.99634,760.32965,745.42126,-0.25225830078125,0.0347900390625,0.97100830078125,1.921539306640625,-5.69732666015625,-1.218719482421875,1.0,1.0,4.0,4.0,1.0,75.0,event
09:49:07.804,0.32964298,0.0,0.0134040015,0.0849446,-0.023485348,0.0,0.09750599,-0.052507747,0.05052146,0.0,0.13172744,-0.13588245,0.32029256,0.0,0.27060157,0.18598104,-0.043411978,0.0,-0.21058203,-0.3997908,735.7509,682.1612,716.8132,775.64105,807.8755,-0.25225830078125,0.0347900390625,0.97100830078125,1.921539306640625,-5.69732666015625,-1.218719482421875,1.0,2.0,4.0,4.0,2.0,75.0,event
09:49:07.809,0.32964298,0.0,0.0134040015,0.0849446,-0.023485348,0.0,0.09750599,-0.052507747,0.05052146,0.0,0.13172744,-0.13588245,0.32029256,0.0,0.27060157,0.18598104,-0.043411978,0.0,-0.21058203,-0.3997908,823.5897,715.2015,751.8681,786.52014,822.7839,-0.25225830078125,0.0347900390625,0.97100830078125,1.921539306640625,-5.69732666015625,-1.218719482421875,1.0,2.0,4.0,4.0,2.0,75.0,event
09:49:07.809,0.32964298,0.0,0.0134040015,0.0849446,-0.023485348,0.0,0.09750599,-0.052507747,0.05052146,0.0,0.13172744,-0.13588245,0.32029256,0.0,0.27060157,0.18598104,-0.043411978,0.0,-0.21058203,-0.3997908,924.7253,402.52747,525.42126,812.71063,995.64105,-0.25225830078125,0.0347900390625,0.97100830078125,1.921539306640625,-5.69732666015625,-1.218719482421875,1.0,2.0,4.0,4.0,2.0,75.0,event
09:49:07.810,0.32964298,0.0,0.0134040015,0.0849446,-0.023485348,0.0,0.09750599,-0.052507747,0.05052146,0.0,0.13172744,-0.13588245,0.32029256,0.0,0.27060157,0.18598104,-0.043411978,0.0,-0.21058203,-0.3997908,893.2967,261.50183,425.89743,813.1135,1038.7546,-0.25225830078125,0.0347900390625,0.97100830078125,1.921539306640625,-5.69732666015625,-1.218719482421875,1.0,2.0,4.0,4.0,2.0,75.0,event
09:49:07.811,0.32964298,0.0,0.0134040015,0.0849446,-0.023485348,0.0,0.09750599,-0.052507747,0.05052146,0.0,0.13172744,-0.13588245,0.32029256,0.0,0.27060157,0.18598104,-0.043411978,0.0,-0.21058203,-0.3997908,742.6007,841.31866,859.85345,770.40295,663.6264,-0.25225830078125,0.0347900390625,0.97100830078125,1.921539306640625,-5.69732666015625,-1.218719482421875,1.0,2.0,4.0,4.0,2.0,75.0,event
09:49:07.812,0.32964298,0.0,0.0134040015,0.0849446,-0.023485348,0.0,0.09750599,-0.052507747,0.05052146,0.0,0.13172744,-0.13588245,0.32029256,0.0,0.27060157,0.18598104,-0.043411978,0.0,-0.21058203,-0.3997908,682.96704,803.8461,805.8608,757.1062,713.9927,-0.25225830078125,0.0347900390625,0.97100830078125,1.921539306640625,-5.69732666015625,-1.218719482421875,1.0,2.0,4.0,4.0,2.0,75.0,event
09:49:07.813,0.32964298,0.0,0.0134040015,0.0849446,-0.023485348,0.0,0.09750599,-0.052507747,0.05052146,0.0,0.13172744,-0.13588245,0.32029256,0.0,0.27060157,0.18598104,-0.043411978,0.0,-0.21058203,-0.3997908,786.9231,668.0586,724.4689,782.49084,892.8938,-0.25225830078125,0.0347900390625,0.97100830078125,1.921539306640625,-5.69732666015625,-1.218719482421875,1.0,2.0,4.0,4.0,2.0,75.0,event
09:49:07.838,0.32964298,0.0,0.0134040015,0.0849446,-0.023485348,0.0,0.09750599,-0.052507747,0.05052146,0.0,0.13172744,-0.13588245,0.32029256,0.0,0.27060157,0.18598104,-0.043411978,0.0,-0.21058203,-0.3997908,922.71063,963.8095,1006.1172,820.3663,813.5165,-0.231201171875,0.0386962890625,0.95550537109375,1.57012939453125,-5.345916748046875,-3.476715087890625,1.0,2.0,4.0,4.0,2.0,75.0,event
09:49:07.839,0.32964298,0.0,0.0134040015,0.0849446,-0.023485348,0.0,0.09750599,-0.052507747,0.05052146,0.0,0.13172744,-0.13588245,0.32029256,0.0,0.27060157,0.18598104,-0.043411978,0.0,-0.21058203,-0.3997908,911.8315,1183.4066,1189.8535,826.4103,750.2564,-0.231201171875,0.0386962890625,0.95550537109375,1.57012939453125,-5.345916748046875,-3.476715087890625,1.0,2.0,4.0,4.0,2.0,75.0,event
09:49:07.839,0.32964298,0.0,0.0134040015,0.0849446,-0.023485348,0.0,0.09750599,-0.052507747,0.05052146,0.0,0.13172744,-0.13588245,0.32029256,0.0,0.27060157,0.18598104,-0.043411978,0.0,-0.21058203,-0.3997908,762.3443,908.60803,938.8278,803.8461,772.8205,-0.231201171875,0.0386962890625,0.95550537109375,1.57012939453125,-5.345916748046875,-3.476715087890625,1.0,2.0,4.0,4.0,2.0,75.0,event
09:49:07.840,0.32964298,0.0,0.0134040015,0.0849446,-0.023485348,0.0,0.09750599,-0.052507747,0.05052146,0.0,0.13172744,-0.13588245,0.32029256,0.0,0.27060157,0.18598104,-0.043411978,0.0,-0.21058203,-0.3997908,699.4872,497.61905,597.5458,794.17584,823.1868,-0.231201171875,0.0386962890625,0.95550537109375,1.57012939453125,-5.345916748046875,-3.476715087890625,1.0,2.0,4.0,4.0,2.0,75.0,event
09:49:07.841,0.32964298,0.0,0.0134040015,0.0849446,-0.023485348,0.0,0.09750599,-0.052507747,0.05052146,0.0,0.13172744,-0.13588245,0.32029256,0.0,0.27060157,0.18598104,-0.043411978,0.0,-0.21058203,-0.3997908,778.46155,703.5165,756.30035,799.011,724.87177,-0.231201171875,0.0386962890625,0.95550537109375,1.57012939453125,-5.345916748046875,-3.476715087890625,1.0,2.0,4.0,4.0,2.0,75.0,event
09:49:07.841,0.32964298,0.0,0.0134040015,0.0849446,-0.023485348,0.0,0.09750599,-0.052507747,0.05052146,0.0,0.13172744,-0.13588245,0.32029256,0.0,0.27060157,0.18598104,-0.043411978,0.0,-0.21058203,-0.3997908,896.52014,850.58606,873.95605,819.9634,691.8315,-0.231201171875,0.0386962890625,0.95550537109375,1.57012939453125,-5.345916748046875,-3.476715087890625,1.0,2.0,4.0,4.0,2.0,75.0,event
09:49:07.842,0.32964298,0.0,0.0134040015,0.0849446,-0.023485348,0.0,0.09750599,-0.052507747,0.05052146,0.0,0.13172744,-0.13588245,0.32029256,0.0,0.27060157,0.18598104,-0.043411978,0.0,-0.21058203,-0.3997908,917.8755,616.8865,701.0989,840.5128,829.2308,-0.231201171875,0.0386962890625,0.95550537109375,1.57012939453125,-5.345916748046875,-3.476715087890625,1.0,2.0,4.0,4.0,2.0,75.0,event
09:49:07.843,0.32964298,0.0,0.0134040015,0.0849446,-0.023485348,0.0,0.09750599,-0.052507747,0.05052146,0.0,0.13172744,-0.13588245,0.32029256,0.0,0.27060157,0.18598104,-0.043411978,0.0,-0.21058203,-0.3997908,790.54944,175.67766,288.09525,818.7546,985.16486,-0.231201171875,0.0386962890625,0.95550537109375,1.57012939453125,-5.345916748046875,-3.476715087890625,1.0,2.0,4.0,4.0,2.0,75.0,event
09:49:07.843,0.32964298,0.0,0.0134040015,0.0849446,-0.023485348,0.0,0.09750599,-0.052507747,0.05052146,0.0,0.13172744,-0.13588245,0.32029256,0.0,0.27060157,0.18598104,-0.043411978,0.0,-0.21058203,-0.3997908,722.8571,505.67764,545.9707,797.8022,872.74725,-0.231201171875,0.0386962890625,0.95550537109375,1.57012939453125,-5.345916748046875,-3.476715087890625,1.0,2.0,4.0,4.0,2.0,75.0,event
09:49:07.844,0.32964298,0.0,0.0134040015,0.0849446,-0.023485348,0.0,0.09750599,-0.052507747,0.05052146,0.0,0.13172744,-0.13588245,0.32029256,0.0,0.27060157,0.18598104,-0.043411978,0.0,-0.21058203,-0.3997908,792.5641,1042.7839,1047.2161,815.9341,686.5934,-0.231201171875,0.0386962890625,0.95550537109375,1.57012939453125,-5.345916748046875,-3.476715087890625,1.0,2.0,4.0,4.0,2.0,75.0,event
09:49:07.845,0.32964298,0.0,0.0134040015,0.0849446,-0.023485348,0.0,0.09750599,-0.052507747,0.05052146,0.0,0.13172744,-0.13588245,0.32029256,0.0,0.27060157,0.18598104,-0.043411978,0.0,-0.21058203,-0.3997908,916.26373,913.44324,957.3626,836.4835,767.98535,-0.231201171875,0.0386962890625,0.95550537109375,1.57012939453125,-5.345916748046875,-3.476715087890625,1.0,2.0,4.0,4.0,2.0,75.0,event
09:49:07.845,0.32964298,0.0,0.0134040015,0.0849446,-0.023485348,0.0,0.09750599,-0.052507747,0.05052146,0.0,0.13172744,-0.13588245,0.32029256,0.0,0.27060157,0.18598104,-0.043411978,0.0,-0.21058203,-0.3997908,959.7802,933.9927,988.3883,844.5421,836.08057,-0.231201171875,0.0386962890625,0.95550537109375,1.57012939453125,-5.345916748046875,-3.476715087890625,1.0,2.0,4.0,4.0,2.0,75.0,event
09:49:07.898,0.32964298,0.0,0.0134040015,0.0849446,-0.023485348,0.0,0.09750599,-0.052507747,0.05052146,0.0,0.13172744,-0.13588245,0.32029256,0.0,0.27060157,0.18598104,-0.043411978,0.0,-0.21058203,-0.3997908,856.63007,1061.3187,1056.8865,830.4396,739.7802,-0.2388916015625,0.03485107421875,0.96038818359375,2.071075439453125,-8.904876708984375,-1.652374267578125,1.0,2.0,4.0,4.0,2.0,75.0,event
09:49:07.900,0.32964298,0.0,0.0134040015,0.0849446,-0.023485348,0.0,0.09750599,-0.052507747,0.05052146,0.0,0.13172744,-0.13588245,0.32029256,0.0,0.27060157,0.18598104,-0.043411978,0.0,-0.21058203,-0.3997908,758.71796,891.685,875.9707,811.50183,722.0513,-0.2388916015625,0.03485107421875,0.96038818359375,2.071075439453125,-8.904876708984375,-1.652374267578125,1.0,2.0,4.0,4.0,2.0,75.0,event
09:49:07.900,0.32964298,0.0,0.0134040015,0.0849446,-0.023485348,0.0,0.09750599,-0.052507747,0.05052146,0.0,0.13172744,-0.13588245,0.32029256,0.0,0.27060157,0.18598104,-0.043411978,0.0,-0.21058203,-0.3997908,799.41394,420.2564,505.27472,819.9634,867.1062,-0.2388916015625,0.03485107421875,0.96038818359375,2.071075439453125,-8.904876708984375,-1.652374267578125,1.0,2.0,4.0,4.0,2.0,75.0,event
09:49:07.901,0.32964298,0.0,0.0134040015,0.0849446,-0.023485348,0.0,0.09750599,-0.052507747,0.05052146,0.0,0.13172744,-0.13588245,0.32029256,0.0,0.27060157,0.18598104,-0.043411978,0.0,-0.21058203,-0.3997908,948.49817,551.6117,649.12085,839.304,852.6007,-0.2388916015625,0.03485107421875,0.96038818359375,2.071075439453125,-8.904876708984375,-1.652374267578125,1.0,2.0,4.0,4.0,2.0,75.0,event
09:49:07.902,0.32964298,0.0,0.0134040015,0.0849446,-0.023485348,0.0,0.09750599,-0.052507747,0.05052146,0.0,0.13172744,-0.13588245,0.32029256,0.0,0.27060157,0.18598104,-0.043411978,0.0,-0.21058203,-0.3997908,1012.1612,1034.7252,1049.6337,844.1392,725.6777,-0.2388916015625,0.03485107421875,0.96038818359375,2.071075439453125,-8.904876708984375,-1.652374267578125,1.0,2.0,4.0,4.0,2.0,75.0,event
09:49:07.904,0.32964298,0.0,0.0134040015,0.0849446,-0.023485348,0.0,0.09750599,-0.052507747,0.05052146,0.0,0.13172744,-0.13588245,0.32029256,0.0,0.27060157,0.18598104,-0.043411978,0.0,-0.21058203,-0.3997908,892.0879,766.3736,797.8022,822.381,680.14655,-0.2388916015625,0.03485107421875,0.96038818359375,2.071075439453125,-8.904876708984375,-1.652374267578125,1.0,2.0,4.0,4.0,2.0,75.0,event
09:49:07.906,0.32964298,0.0,0.0134040015,0.0849446,-0.023485348,0.0,0.09750599,-0.052507747,0.05052146,0.0,0.13172744,-0.13588245,0.32029256,0.0,0.27060157,0.18598104,-0.043411978,0.0,-0.21058203,-0.3997908,765.56775,214.35898,242.16118,812.71063,886.8498,-0.2388916015625,0.03485107421875,0.96038818359375,2.071075439453125,-8.904876708984375,-1.652374267578125,1.0,2.0,4.0,4.0,2.0,75.0,event
09:49:07.906,0.32964298,0.0,0.0134040015,0.0849446,-0.023485348,0.0,0.09750599,-0.052507747,0.05052146,0.0,0.13172744,-0.13588245,0.32029256,0.0,0.27060157,0.18598104,-0.043411978,0.0,-0.21058203,-0.3997908,790.14655,213.55312,219.19414,808.2784,952.52747,-0.2388916015625,0.03485107421875,0.96038818359375,2.071075439453125,-8.904876708984375,-1.652374267578125,1.0,2.0,4.0,4.0,2.0,75.0,event
09:49:07.910,0.32964298,0.0,0.0134040015,0.0849446,-0.023485348,0.0,0.09750599,-0.052507747,0.05052146,0.0,0.13172744,-0.13588245,0.32029256,0.0,0.27060157,0.18598104,-0.043411978,0.0,-0.21058203,-0.3997908,922.3077,947.28937,936.8132,813.1135,759.12085,-0.2388916015625,0.03485107421875,0.96038818359375,2.071075439453125,-8.904876708984375,-1.652374267578125,1.0,2.0,4.0,4.0,2.0,75.0,event
09:49:07.911,0.32964298,0.0,0.0134040015,0.0849446,-0.023485348,0.0,0.09750599,-0.052507747,0.05052146,0.0,0.13172744,-0.13588245,0.32029256,0.0,0.27060157,0.18598104,-0.043411978,0.0,-0.21058203,-0.3997908,963.8095,1131.8315,1133.0403,824.3956,805.8608,-0.2388916015625,0.03485107421875,0.96038818359375,2.071075439453125,-8.904876708984375,-1.652374267578125,1.0,2.0,4.0,4.0,2.0,75.0,event
09:49:07.912,0.32964298,0.0,0.0134040015,0.0849446,-0.023485348,0.0,0.09750599,-0.052507747,0.05052146,0.0,0.13172744,-0.13588245,0.32029256,0.0,0.27060157,0.18598104,-0.043411978,0.0,-0.21058203,-0.3997908,848.97437,881.6117,919.4872,807.47253,841.31866,-0.2388916015625,0.03485107421875,0.96038818359375,2.071075439453125,-8.904876708984375,-1.652374267578125,1.0,2.0,4.0,4.0,2.0,75.0,event
09:49:07.913,0.32964298,0.0,0.0134040015,0.0849446,-0.023485348,0.0,0.09750599,-0.052507747,0.05052146,0.0,0.13172744,-0.13588245,0.32029256,0.0,0.27060157,0.18598104,-0.043411978,0.0,-0.21058203,-0.3997908,729.707,826.4103,817.1429,783.69965,756.7033,-0.2388916015625,0.03485107421875,0.96038818359375,2.071075439453125,-8.904876708984375,-1.652374267578125,1.0,2.0,4.0,4.0,2.0,75.0,event
09:49:07.937,0.32964298,0.0,0.0134040015,0.0849446,-0.023485348,0.0,0.09750599,-0.052507747,0.05052146,0.0,0.13172744,-0.13588245,0.32029256,0.0,0.27060157,0.18598104,-0.043411978,0.0,-0.21058203,-0.3997908,730.10986,887.6557,859.0476,775.2381,621.7216,-0.2388916015625,0.03485107421875,0.96038818359375,2.071075439453125,-8.904876708984375,-1.652374267578125,1.0,2.0,4.0,4.0,2.0,75.0,event
09:49:07.938,0.32964298,0.0,0.0134040015,0.0849446,-0.023485348,0.0,0.09750599,-0.052507747,0.05052146,0.0,0.13172744,-0.13588245,0.32029256,0.0,0.27060157,0.18598104,-0.043411978,0.0,-0.21058203,-0.3997908,823.5897,847.3626,873.5531,782.0879,668.0586,-0.2388916015625,0.03485107421875,0.96038818359375,2.071075439453125,-8.904876708984375,-1.652374267578125,1.0,2.0,4.0,4.0,2.0,75.0,event
09:49:07.940,0.32964298,0.0,0.0134040015,0.0849446,-0.023485348,0.0,0.09750599,-0.052507747,0.05052146,0.0,0.13172744,-0.13588245,0.32029256,0.0,0.27060157,0.18598104,-0.043411978,0.0,-0.21058203,-0.3997908,897.72894,786.9231,838.9011,792.1612,772.01465,-0.2388916015625,0.03485107421875,0.96038818359375,2.071075439453125,-8.904876708984375,-1.652374267578125,1.0,2.0,4.0,4.0,2.0,75.0,event
09:49:07.942,0.32964298,0.0,0.0134040015,0.0849446,-0.023485348,0.0,0.09750599,-0.052507747,0.05052146,0.0,0.13172744,-0.13588245,0.32029256,0.0,0.27060157,0.18598104,-0.043411978,0.0,-0.21058203,-0.3997908,828.4249,906.1905,939.2308,784.5055,737.76556,-0.2388916015625,0.03485107421875,0.96038818359375,2.071075439453125,-8.904876708984375,-1.652374267578125,1.0,2.0,4.0,4.0,2.0,75.0,event
09:49:07.943,0.32964298,0.0,0.0134040015,0.0849446,-0.023485348,0.0,0.09750599,-0.052507747,0.05052146,0.0,0.13172744,-0.13588245,0.32029256,0.0,0.27060157,0.18598104,-0.043411978,0.0,-0.21058203,-0.3997908,684.9817,887.25275,888.46155,763.1502,697.47253,-0.2388916015625,0.03485107421875,0.96038818359375,2.071075439453125,-8.904876708984375,-1.652374267578125,1.0,2.0,4.0,4.0,2.0,75.0,event
09:49:07.944,0.32964298,0.0,0.0134040015,0.0849446,-0.023485348,0.0,0.09750599,-0.052507747,0.05052146,0.0,0.13172744,-0.13588245,0.32029256,0.0,0.27060157,0.18598104,-0.043411978,0.0,-0.21058203,-0.3997908,669.2674,558.0586,606.8132,767.5824,869.92676,-0.2388916015625,0.03485107421875,0.96038818359375,2.071075439453125,-8.904876708984375,-1.652374267578125,1.0,2.0,4.0,4.0,2.0,75.0,event
09:49:07.945,0.32964298,0.0,0.0134040015,0.0849446,-0.023485348,0.0,0.09750599,-0.052507747,0.05052146,0.0,0.13172744,-0.13588245,0.32029256,0.0,0.27060157,0.18598104,-0.043411978,0.0,-0.21058203,-0.3997908,770.0,195.42125,317.10623,796.1905,1091.9414,-0.2388916015625,0.03485107421875,0.96038818359375,2.071075439453125,-8.904876708984375,-1.652374267578125,1.0,2.0,4.0,4.0,2.0,75.0,event
09:49:07.946,0.32964298,0.0,0.0134040015,0.0849446,-0.023485348,0.0,0.09750599,-0.052507747,0.05052146,0.0,0.13172744,-0.13588245,0.32029256,0.0,0.27060157,0.18598104,-0.043411978,0.0,-0.21058203,-0.3997908,855.82416,409.7802,515.34796,803.44324,967.8388,-0.2388916015625,0.03485107421875,0.96038818359375,2.071075439453125,-8.904876708984375,-1.652374267578125,1.0,2.0,4.0,4.0,2.0,75.0,event
09:49:07.947,0.32964298,0.0,0.0134040015,0.0849446,-0.023485348,0.0,0.09750599,-0.052507747,0.05052146,0.0,0.13172744,-0.13588245,0.32029256,0.0,0.27060157,0.18598104,-0.043411978,0.0,-0.21058203,-0.3997908,801.02563,809.4872,859.0476,781.28204,715.2015,-0.2388916015625,0.03485107421875,0.96038818359375,2.071075439453125,-8.904876708984375,-1.652374267578125,1.0,2.0,4.0,4.0,2.0,75.0,event
09:49:07.948,0.32964298,0.0,0.0134040015,0.0849446,-0.023485348,0.0,0.09750599,-0.052507747,0.05052146,0.0,0.13172744,-0.13588245,0.32029256,0.0,0.27060157,0.18598104,-0.043411978,0.0,-0.21058203,-0.3997908,652.74725,571.75824,644.2857,761.53845,750.65936,-0.2388916015625,0.03485107421875,0.96038818359375,2.071075439453125,-8.904876708984375,-1.652374267578125,1.0,2.0,4.0,4.0,2.0,75.0,event
09:49:07.948,0.32964298,0.0,0.0134040015,0.0849446,-0.023485348,0.0,0.09750599,-0.052507747,0.05052146,0.0,0.13172744,-0.13588245,0.32029256,0.0,0.27060157,0.18598104,-0.043411978,0.0,-0.21058203,-0.3997908,624.1392,201.4652,332.41757,759.5238,911.4286,-0.2388916015625,0.03485107421875,0.96038818359375,2.071075439453125,-8.904876708984375,-1.652374267578125,1.0,2.0,4.0,4.0,2.0,75.0,event
09:49:07.949,0.32964298,0.0,0.0134040015,0.0849446,-0.023485348,0.0,0.09750599,-0.052507747,0.05052146,0.0,0.13172744,-0.13588245,0.32029256,0.0,0.27060157,0.18598104,-0.043411978,0.0,-0.21058203,-0.3997908,734.5421,711.978,760.7326,765.16486,725.2747,-0.2388916015625,0.03485107421875,0.96038818359375,2.071075439453125,-8.904876708984375,-1.652374267578125,1.0,2.0,4.0,4.0,2.0,75.0,event
09:49:08.032,0.32964298,0.0,0.0134040015,0.0849446,-0.023485348,0.0,0.09750599,-0.052507747,0.05052146,0.0,0.13172744,-0.13588245,0.32029256,0.0,0.27060157,0.18598104,-0.043411978,0.0,-0.21058203,-0.3997908,852.1978,1075.0183,1090.3297,793.36993,664.0293,-0.23480224609375,0.03662109375,0.95037841796875,3.028106689453125,-10.33294677734375,-6.347808837890625,1.0,2.0,4.0,4.0,2.0,75.0,event
09:49:08.033,0.32964298,0.0,0.0134040015,0.0849446,-0.023485348,0.0,0.09750599,-0.052507747,0.05052146,0.0,0.13172744,-0.13588245,0.32029256,0.0,0.27060157,0.18598104,-0.043411978,0.0,-0.21058203,-0.3997908,819.9634,859.85345,914.2491,800.2198,786.1172,-0.23480224609375,0.03662109375,0.95037841796875,3.028106689453125,-10.33294677734375,-6.347808837890625,1.0,2.0,4.0,4.0,2.0,75.0,event
09:49:08.034,0.32964298,0.0,0.0134040015,0.0849446,-0.023485348,0.0,0.09750599,-0.052507747,0.05052146,0.0,0.13172744,-0.13588245,0.32029256,0.0,0.27060157,0.18598104,-0.043411978,0.0,-0.21058203,-0.3997908,677.72894,722.0513,775.64105,773.22345,780.4762,-0.23480224609375,0.03662109375,0.95037841796875,3.028106689453125,-10.33294677734375,-6.347808837890625,1.0,2.0,4.0,4.0,2.0,75.0,event
09:49:08.035,0.32964298,0.0,0.0134040015,0.0849446,-0.023485348,0.0,0.09750599,-0.052507747,0.05052146,0.0,0.13172744,-0.13588245,0.32029256,0.0,0.27060157,0.18598104,-0.043411978,0.0,-0.21058203,-0.3997908,641.8681,859.85345,879.19415,772.8205,686.5934,-0.23480224609375,0.03662109375,0.95037841796875,3.028106689453125,-10.33294677734375,-6.347808837890625,1.0,2.0,4.0,4.0,2.0,75.0,event
09:49:08.036,0.32964298,0.0,0.0134040015,0.0849446,-0.023485348,0.0,0.09750599,-0.052507747,0.05052146,0.0,0.13172744,-0.13588245,0.32029256,0.0,0.27060157,0.18598104,-0.043411978,0.0,-0.21058203,-0.3997908,731.31866,925.5311,950.5128,784.5055,703.1135,-0.23480224609375,0.03662109375,0.95037841796875,3.028106689453125,-10.33294677734375,-6.347808837890625,1.0,2.0,4.0,4.0,2.0,75.0,event
09:49:08.036,0.32964298,0.0,0.0134040015,0.0849446,-0.023485348,0.0,0.09750599,-0.052507747,0.05052146,0.0,0.13172744,-0.13588245,0.32029256,0.0,0.27060157,0.18598104,-0.043411978,0.0,-0.21058203,-0.3997908,838.49817,704.3223,799.41394,795.38464,919.0842,-0.23480224609375,0.03662109375,0.95037841796875,3.028106689453125,-10.33294677734375,-6.347808837890625,1.0,2.0,4.0,4.0,2.0,75.0,event
09:49:08.037,0.32964298,0.0,0.0134040015,0.0849446,-0.023485348,0.0,0.09750599,-0.052507747,0.05052146,0.0,0.13172744,-0.13588245,0.32029256,0.0,0.27060157,0.18598104,-0.043411978,0.0,-0.21058203,-0.3997908,829.2308,550.0,660.0,788.5348,925.12823,-0.23480224609375,0.03662109375,0.95037841796875,3.028106689453125,-10.33294677734375,-6.347808837890625,1.0,2.0,4.0,4.0,2.0,75.0,event
09:49:08.038,0.32964298,0.0,0.0134040015,0.0849446,-0.023485348,0.0,0.09750599,-0.052507747,0.05052146,0.0,0.13172744,-0.13588245,0.32029256,0.0,0.27060157,0.18598104,-0.043411978,0.0,-0.21058203,-0.3997908,700.293,698.68134,730.9158,771.6117,755.4945,-0.23480224609375,0.03662109375,0.95037841796875,3.028106689453125,-10.33294677734375,-6.347808837890625,1.0,2.0,4.0,4.0,2.0,75.0,event
09:49:08.039,0.32964298,0.0,0.0134040015,0.0849446,-0.023485348,0.0,0.09750599,-0.052507747,0.05052146,0.0,0.13172744,-0.13588245,0.32029256,0.0,0.27060157,0.18598104,-0.043411978,0.0,-0.21058203,-0.3997908,650.7326,717.619,739.7802,768.7912,763.5531,-0.23480224609375,0.03662109375,0.95037841796875,3.028106689453125,-10.33294677734375,-6.347808837890625,1.0,2.0,4.0,4.0,2.0,75.0,event
09:49:08.039,0.32964298,0.0,0.0134040015,0.0849446,-0.023485348,0.0,0.09750599,-0.052507747,0.05052146,0.0,0.13172744,-0.13588245,0.32029256,0.0,0.27060157,0.18598104,-0.043411978,0.0,-0.21058203,-0.3997908,724.0659,269.56042,356.1905,779.67035,970.65936,-0.23480224609375,0.03662109375,0.95037841796875,3.028106689453125,-10.33294677734375,-6.347808837890625,1.0,2.0,4.0,4.0,2.0,75.0,event
09:49:08.043,0.32964298,0.0,0.0134040015,0.0849446,-0.023485348,0.0,0.09750599,-0.052507747,0.05052146,0.0,0.13172744,-0.13588245,0.32029256,0.0,0.27060157,0.18598104,-0.043411978,0.0,-0.21058203,-0.3997908,848.1685,238.93773,338.46155,801.4286,1048.022,-0.23480224609375,0.03662109375,0.95037841796875,3.028106689453125,-10.33294677734375,-6.347808837890625,1.0,2.0,4.0,4.0,2.0,75.0,event
09:49:08.044,0.32964298,0.0,0.0134040015,0.0849446,-0.023485348,0.0,0.09750599,-0.052507747,0.05052146,0.0,0.13172744,-0.13588245,0.32029256,0.0,0.27060157,0.18598104,-0.043411978,0.0,-0.21058203,-0.3997908,867.50916,945.6777,1001.685,803.44324,772.01465,-0.23480224609375,0.03662109375,0.95037841796875,3.028106689453125,-10.33294677734375,-6.347808837890625,1.0,2.0,4.0,4.0,2.0,75.0,event
09:49:08.068,0.32964298,0.0,0.0134040015,0.0849446,-0.023485348,0.0,0.09750599,-0.052507747,0.05052146,0.0,0.13172744,-0.13588245,0.32029256,0.0,0.27060157,0.18598104,-0.043411978,0.0,-0.21058203,-0.3997908,742.6007,880.80585,918.2784,782.0879,690.2198,-0.22259521484375,0.037353515625,0.973876953125,3.15521240234375,-9.04693603515625,-9.667510986328123,1.0,2.0,4.0,4.0,2.0,75.0,event
09:49:08.069,0.32964298,0.0,0.0134040015,0.0849446,-0.023485348,0.0,0.09750599,-0.052507747,0.05052146,0.0,0.13172744,-0.13588245,0.32029256,0.0,0.27060157,0.18598104,-0.043411978,0.0,-0.21058203,-0.3997908,684.57874,618.0952,665.2381,780.4762,717.619,-0.22259521484375,0.037353515625,0.973876953125,3.15521240234375,-9.04693603515625,-9.667510986328123,1.0,2.0,4.0,4.0,2.0,75.0,event
09:49:08.070,0.32964298,0.0,0.0134040015,0.0849446,-0.023485348,0.0,0.09750599,-0.052507747,0.05052146,0.0,0.13172744,-0.13588245,0.32029256,0.0,0.27060157,0.18598104,-0.043411978,0.0,-0.21058203,-0.3997908,891.685,1077.8389,1095.1648,809.4872,707.1429,-0.22259521484375,0.037353515625,0.973876953125,3.15521240234375,-9.04693603515625,-9.667510986328123,1.0,2.0,4.0,4.0,2.0,75.0,event
09:49:08.070,0.32964298,0.0,0.0134040015,0.0849446,-0.023485348,0.0,0.09750599,-0.052507747,0.05052146,0.0,0.13172744,-0.13588245,0.32029256,0.0,0.27060157,0.18598104,-0.043411978,0.0,-0.21058203,-0.3997908,760.32965,823.5897,859.85345,796.1905,678.1319,-0.22259521484375,0.037353515625,0.973876953125,3.15521240234375,-9.04693603515625,-9.667510986328123,1.0,2.0,4.0,4.0,2.0,75.0,event
09:49:08.071,0.32964298,0.0,0.0134040015,0.0849446,-0.023485348,0.0,0.09750599,-0.052507747,0.05052146,0.0,0.13172744,-0.13588245,0.32029256,0.0,0.27060157,0.18598104,-0.043411978,0.0,-0.21058203,-0.3997908,913.8461,960.58606,1014.57874,810.696,796.5934,-0.22259521484375,0.037353515625,0.973876953125,3.15521240234375,-9.04693603515625,-9.667510986328123,1.0,2.0,4.0,4.0,2.0,75.0,event
09:49:08.072,0.32964298,0.0,0.0134040015,0.0849446,-0.023485348,0.0,0.09750599,-0.052507747,0.05052146,0.0,0.13172744,-0.13588245,0.32029256,0.0,0.27060157,0.18598104,-0.043411978,0.0,-0.21058203,-0.3997908,799.41394,533.8828,636.63007,790.54944,863.8828,-0.22259521484375,0.037353515625,0.973876953125,3.15521240234375,-9.04693603515625,-9.667510986328123,1.0,2.0,4.0,4.0,2.0,75.0,event
09:49:08.073,0.32964298,0.0,0.0134040015,0.0849446,-0.023485348,0.0,0.09750599,-0.052507747,0.05052146,0.0,0.13172744,-0.13588245,0.32029256,0.0,0.27060157,0.18598104,-0.043411978,0.0,-0.21058203,-0.3997908,743.8095,454.10257,548.3883,788.1319,852.1978,-0.22259521484375,0.037353515625,0.973876953125,3.15521240234375,-9.04693603515625,-9.667510986328123,1.0,2.0,4.0,4.0,2.0,75.0,event
09:49:08.073,0.32964298,0.0,0.0134040015,0.0849446,-0.023485348,0.0,0.09750599,-0.052507747,0.05052146,0.0,0.13172744,-0.13588245,0.32029256,0.0,0.27060157,0.18598104,-0.043411978,0.0,-0.21058203,-0.3997908,820.7692,753.0769,792.5641,798.60803,724.4689,-0.22259521484375,0.037353515625,0.973876953125,3.15521240234375,-9.04693603515625,-9.667510986328123,1.0,2.0,4.0,4.0,2.0,75.0,event
09:49:08.074,0.32964298,0.0,0.0134040015,0.0849446,-0.023485348,0.0,0.09750599,-0.052507747,0.05052146,0.0,0.13172744,-0.13588245,0.32029256,0.0,0.27060157,0.18598104,-0.043411978,0.0,-0.21058203,-0.3997908,973.8828,744.21246,819.15753,820.3663,786.1172,-0.22259521484375,0.037353515625,0.973876953125,3.15521240234375,-9.04693603515625,-9.667510986328123,1.0,2.0,4.0,4.0,2.0,75.0,event
09:49:08.075,0.32964298,0.0,0.0134040015,0.0849446,-0.023485348,0.0,0.09750599,-0.052507747,0.05052146,0.0,0.13172744,-0.13588245,0.32029256,0.0,0.27060157,0.18598104,-0.043411978,0.0,-0.21058203,-0.3997908,1039.1575,622.9304,749.85345,831.6484,871.53845,-0.22259521484375,0.037353515625,0.973876953125,3.15521240234375,-9.04693603515625,-9.667510986328123,1.0,2.0,4.0,4.0,2.0,75.0,event
09:49:08.076,0.32964298,0.0,0.0134040015,0.0849446,-0.023485348,0.0,0.09750599,-0.052507747,0.05052146,0.0,0.13172744,-0.13588245,0.32029256,0.0,0.27060157,0.18598104,-0.043411978,0.0,-0.21058203,-0.3997908,935.6044,892.8938,938.022,806.26373,778.86444,-0.22259521484375,0.037353515625,0.973876953125,3.15521240234375,-9.04693603515625,-9.667510986328123,1.0,2.0,4.0,4.0,2.0,75.0,event
09:49:08.076,0.32964298,0.0,0.0134040015,0.0849446,-0.023485348,0.0,0.09750599,-0.052507747,0.05052146,0.0,0.13172744,-0.13588245,0.32029256,0.0,0.27060157,0.18598104,-0.043411978,0.0,-0.21058203,-0.3997908,845.7509,762.74725,793.36993,785.31134,772.4176,-0.22259521484375,0.037353515625,0.973876953125,3.15521240234375,-9.04693603515625,-9.667510986328123,1.0,2.0,4.0,4.0,2.0,75.0,event
09:49:08.077,0.32964298,0.0,0.0134040015,0.0849446,-0.023485348,0.0,0.09750599,-0.052507747,0.05052146,0.0,0.13172744,-0.13588245,0.32029256,0.0,0.27060157,0.18598104,-0.043411978,0.0,-0.21058203,-0.3997908,884.43225,389.6337,501.24542,799.81683,866.30035,-0.198974609375,0.03863525390625,0.95587158203125,3.15521240234375,-9.9591064453125,-7.9254150390625,1.0,2.0,4.0,4.0,2.0,75.0,event
09:49:08.078,0.32964298,0.0,0.0134040015,0.0849446,-0.023485348,0.0,0.09750599,-0.052507747,0.05052146,0.0,0.13172744,-0.13588245,0.32029256,0.0,0.27060157,0.18598104,-0.043411978,0.0,-0.21058203,-0.3997908,1004.10254,17.326008,159.56044,828.4249,1086.7032,-0.198974609375,0.03863525390625,0.95587158203125,3.15521240234375,-9.9591064453125,-7.9254150390625,1.0,2.0,4.0,4.0,2.0,75.0,event
09:49:08.079,0.32964298,0.0,0.0134040015,0.0849446,-0.023485348,0.0,0.09750599,-0.052507747,0.05052146,0.0,0.13172744,-0.13588245,0.32029256,0.0,0.27060157,0.18598104,-0.043411978,0.0,-0.21058203,-0.3997908,1081.4652,501.64835,577.3993,831.6484,875.9707,-0.198974609375,0.03863525390625,0.95587158203125,3.15521240234375,-9.9591064453125,-7.9254150390625,1.0,2.0,4.0,4.0,2.0,75.0,event
09:49:08.080,0.32964298,0.0,0.0134040015,0.0849446,-0.023485348,0.0,0.09750599,-0.052507747,0.05052146,0.0,0.13172744,-0.13588245,0.32029256,0.0,0.27060157,0.18598104,-0.043411978,0.0,-0.21058203,-0.3997908,986.77655,952.52747,990.80585,806.26373,631.39197,-0.198974609375,0.03863525390625,0.95587158203125,3.15521240234375,-9.9591064453125,-7.9254150390625,1.0,2.0,4.0,4.0,2.0,75.0,event
09:49:08.081,0.32964298,0.0,0.0134040015,0.0849446,-0.023485348,0.0,0.09750599,-0.052507747,0.05052146,0.0,0.13172744,-0.13588245,0.32029256,0.0,0.27060157,0.18598104,-0.043411978,0.0,-0.21058203,-0.3997908,850.18317,655.56775,697.0696,790.14655,686.99634,-0.198974609375,0.03863525390625,0.95587158203125,3.15521240234375,-9.9591064453125,-7.9254150390625,1.0,2.0,4.0,4.0,2.0,75.0,event
09:49:08.081,0.32964298,0.0,0.0134040015,0.0849446,-0.023485348,0.0,0.09750599,-0.052507747,0.05052146,0.0,0.13172744,-0.13588245,0.32029256,0.0,0.27060157,0.18598104,-0.043411978,0.0,-0.21058203,-0.3997908,853.00366,525.82416,591.9048,799.81683,785.7143,-0.198974609375,0.03863525390625,0.95587158203125,3.15521240234375,-9.9591064453125,-7.9254150390625,1.0,2.0,4.0,4.0,2.0,75.0,event
09:49:08.082,0.32964298,0.0,0.0134040015,0.0849446,-0.023485348,0.0,0.09750599,-0.052507747,0.05052146,0.0,0.13172744,-0.13588245,0.32029256,0.0,0.27060157,0.18598104,-0.043411978,0.0,-0.21058203,-0.3997908,967.03296,655.16486,729.304,821.978,930.7692,-0.198974609375,0.03863525390625,0.95587158203125,3.15521240234375,-9.9591064453125,-7.9254150390625,1.0,2.0,4.0,4.0,2.0,75.0,event
09:49:08.083,0.32964298,0.0,0.0134040015,0.0849446,-0.023485348,0.0,0.09750599,-0.052507747,0.05052146,0.0,0.13172744,-0.13588245,0.32029256,0.0,0.27060157,0.18598104,-0.043411978,0.0,-0.21058203,-0.3997908,1026.2638,1012.96704,1063.7362,825.6044,869.5238,-0.198974609375,0.03863525390625,0.95587158203125,3.15521240234375,-9.9591064453125,-7.9254150390625,1.0,2.0,4.0,4.0,2.0,75.0,event
09:49:08.084,0.32964298,0.0,0.0134040015,0.0849446,-0.023485348,0.0,0.09750599,-0.052507747,0.05052146,0.0,0.13172744,-0.13588245,0.32029256,0.0,0.27060157,0.18598104,-0.043411978,0.0,-0.21058203,-0.3997908,922.3077,542.3443,601.978,816.337,913.8461,-0.198974609375,0.03863525390625,0.95587158203125,3.15521240234375,-9.9591064453125,-7.9254150390625,1.0,2.0,4.0,4.0,2.0,75.0,event
09:49:08.084,0.32964298,0.0,0.0134040015,0.0849446,-0.023485348,0.0,0.09750599,-0.052507747,0.05052146,0.0,0.13172744,-0.13588245,0.32029256,0.0,0.27060157,0.18598104,-0.043411978,0.0,-0.21058203,-0.3997908,799.81683,179.30403,228.46153,806.26373,924.3223,-0.198974609375,0.03863525390625,0.95587158203125,3.15521240234375,-9.9591064453125,-7.9254150390625,1.0,2.0,4.0,4.0,2.0,75.0,event
09:49:08.085,0.32964298,0.0,0.0134040015,0.0849446,-0.023485348,0.0,0.09750599,-0.052507747,0.05052146,0.0,0.13172744,-0.13588245,0.32029256,0.0,0.27060157,0.18598104,-0.043411978,0.0,-0.21058203,-0.3997908,799.81683,861.06226,883.6264,797.8022,675.31134,-0.198974609375,0.03863525390625,0.95587158203125,3.15521240234375,-9.9591064453125,-7.9254150390625,1.0,2.0,4.0,4.0,2.0,75.0,event
09:49:08.086,0.32964298,0.0,0.0134040015,0.0849446,-0.023485348,0.0,0.09750599,-0.052507747,0.05052146,0.0,0.13172744,-0.13588245,0.32029256,0.0,0.27060157,0.18598104,-0.043411978,0.0,-0.21058203,-0.3997908,912.23444,977.9121,1014.17584,813.91943,704.3223,-0.198974609375,0.03863525390625,0.95587158203125,3.15521240234375,-9.9591064453125,-7.9254150390625,1.0,2.0,4.0,4.0,2.0,75.0,event
09:49:08.112,0.32964298,0.0,0.0134040015,0.0849446,-0.023485348,0.0,0.09750599,-0.052507747,0.05052146,0.0,0.13172744,-0.13588245,0.32029256,0.0,0.27060157,0.18598104,-0.043411978,0.0,-0.21058203,-0.3997908,997.6557,863.0769,920.293,832.8571,772.01465,-0.198974609375,0.03863525390625,0.95587158203125,3.15521240234375,-9.9591064453125,-7.9254150390625,1.0,2.0,4.0,4.0,2.0,75.0,event
09:49:08.113,0.32964298,0.0,0.0134040015,0.0849446,-0.023485348,0.0,0.09750599,-0.052507747,0.05052146,0.0,0.13172744,-0.13588245,0.32029256,0.0,0.27060157,0.18598104,-0.043411978,0.0,-0.21058203,-0.3997908,907.8022,973.0769,1014.9817,818.3516,761.9414,-0.198974609375,0.03863525390625,0.95587158203125,3.15521240234375,-9.9591064453125,-7.9254150390625,1.0,2.0,4.0,4.0,2.0,75.0,event
09:49:08.115,0.32964298,0.0,0.0134040015,0.0849446,-0.023485348,0.0,0.09750599,-0.052507747,0.05052146,0.0,0.13172744,-0.13588245,0.32029256,0.0,0.27060157,0.18598104,-0.043411978,0.0,-0.21058203,-0.3997908,763.1502,836.8865,882.4176,794.9817,793.7729,-0.198974609375,0.03863525390625,0.95587158203125,3.15521240234375,-9.9591064453125,-7.9254150390625,1.0,2.0,4.0,4.0,2.0,75.0,event
09:49:08.117,0.32964298,0.0,0.0134040015,0.0849446,-0.023485348,0.0,0.09750599,-0.052507747,0.05052146,0.0,0.13172744,-0.13588245,0.32029256,0.0,0.27060157,0.18598104,-0.043411978,0.0,-0.21058203,-0.3997908,736.55676,587.8755,653.95605,799.81683,844.1392,-0.198974609375,0.03863525390625,0.95587158203125,3.15521240234375,-9.9591064453125,-7.9254150390625,1.0,2.0,4.0,4.0,2.0,75.0,event
09:49:08.118,0.32964298,0.0,0.0134040015,0.0849446,-0.023485348,0.0,0.09750599,-0.052507747,0.05052146,0.0,0.13172744,-0.13588245,0.32029256,0.0,0.27060157,0.18598104,-0.043411978,0.0,-0.21058203,-0.3997908,829.2308,500.8425,606.0073,822.381,839.304,-0.198974609375,0.03863525390625,0.95587158203125,3.15521240234375,-9.9591064453125,-7.9254150390625,1.0,2.0,4.0,4.0,2.0,75.0,event
09:49:08.119,0.32964298,0.0,0.0134040015,0.0849446,-0.023485348,0.0,0.09750599,-0.052507747,0.05052146,0.0,0.13172744,-0.13588245,0.32029256,0.0,0.27060157,0.18598104,-0.043411978,0.0,-0.21058203,-0.3997908,952.1245,694.65204,803.8461,843.73627,903.7729,-0.198974609375,0.03863525390625,0.95587158203125,3.15521240234375,-9.9591064453125,-7.9254150390625,1.0,2.0,4.0,4.0,2.0,75.0,event
09:49:08.120,0.32964298,0.0,0.0134040015,0.0849446,-0.023485348,0.0,0.09750599,-0.052507747,0.05052146,0.0,0.13172744,-0.13588245,0.32029256,0.0,0.27060157,0.18598104,-0.043411978,0.0,-0.21058203,-0.3997908,913.0403,786.9231,862.27106,834.0659,902.1612,-0.198974609375,0.03863525390625,0.95587158203125,3.15521240234375,-9.9591064453125,-7.9254150390625,1.0,2.0,4.0,4.0,2.0,75.0,event
09:49:08.121,0.32964298,0.0,0.0134040015,0.0849446,-0.023485348,0.0,0.09750599,-0.052507747,0.05052146,0.0,0.13172744,-0.13588245,0.32029256,0.0,0.27060157,0.18598104,-0.043411978,0.0,-0.21058203,-0.3997908,743.4066,512.9304,606.4103,794.57874,815.12823,-0.198974609375,0.03863525390625,0.95587158203125,3.15521240234375,-9.9591064453125,-7.9254150390625,1.0,2.0,4.0,4.0,2.0,75.0,event
09:49:08.122,0.32964298,0.0,0.0134040015,0.0849446,-0.023485348,0.0,0.09750599,-0.052507747,0.05052146,0.0,0.13172744,-0.13588245,0.32029256,0.0,0.27060157,0.18598104,-0.043411978,0.0,-0.21058203,-0.3997908,709.5604,143.0403,244.17583,790.9524,909.41394,-0.198974609375,0.03863525390625,0.95587158203125,3.15521240234375,-9.9591064453125,-7.9254150390625,1.0,2.0,4.0,4.0,2.0,75.0,event
09:49:08.123,0.32964298,0.0,0.0134040015,0.0849446,-0.023485348,0.0,0.09750599,-0.052507747,0.05052146,0.0,0.13172744,-0.13588245,0.32029256,0.0,0.27060157,0.18598104,-0.043411978,0.0,-0.21058203,-0.3997908,812.71063,585.4579,636.63007,815.9341,774.0293,-0.198974609375,0.03863525390625,0.95587158203125,3.15521240234375,-9.9591064453125,-7.9254150390625,1.0,2.0,4.0,4.0,2.0,75.0,event
09:49:08.124,0.32964298,0.0,0.0134040015,0.0849446,-0.023485348,0.0,0.09750599,-0.052507747,0.05052146,0.0,0.13172744,-0.13588245,0.32029256,0.0,0.27060157,0.18598104,-0.043411978,0.0,-0.21058203,-0.3997908,911.02563,1156.8132,1181.392,838.9011,703.1135,-0.198974609375,0.03863525390625,0.95587158203125,3.15521240234375,-9.9591064453125,-7.9254150390625,1.0,2.0,4.0,4.0,2.0,75.0,event
09:49:08.124,0.32964298,0.0,0.0134040015,0.0849446,-0.023485348,0.0,0.09750599,-0.052507747,0.05052146,0.0,0.13172744,-0.13588245,0.32029256,0.0,0.27060157,0.18598104,-0.043411978,0.0,-0.21058203,-0.3997908,863.8828,808.2784,889.67035,837.28937,882.4176,-0.198974609375,0.03863525390625,0.95587158203125,3.15521240234375,-9.9591064453125,-7.9254150390625,1.0,2.0,4.0,4.0,2.0,75.0,event
09:49:08.183,0.32964298,0.0,0.0134040015,0.0849446,-0.023485348,0.0,0.09750599,-0.052507747,0.05052146,0.0,0.13172744,-0.13588245,0.32029256,0.0,0.27060157,0.18598104,-0.043411978,0.0,-0.21058203,-0.3997908,713.9927,651.9414,751.4652,809.89014,825.6044,-0.16046142578125,0.0472412109375,0.95135498046875,3.013153076171875,-2.205657958984375,-0.934600830078125,1.0,2.0,4.0,4.0,2.0,75.0,event
09:49:08.184,0.32964298,0.0,0.0134040015,0.0849446,-0.023485348,0.0,0.09750599,-0.052507747,0.05052146,0.0,0.13172744,-0.13588245,0.32029256,0.0,0.27060157,0.18598104,-0.043411978,0.0,-0.21058203,-0.3997908,675.31134,976.30035,1000.87915,809.89014,724.0659,-0.16046142578125,0.0472412109375,0.95135498046875,3.013153076171875,-2.205657958984375,-0.934600830078125,1.0,2.0,4.0,4.0,2.0,75.0,event
09:49:08.185,0.32964298,0.0,0.0134040015,0.0849446,-0.023485348,0.0,0.09750599,-0.052507747,0.05052146,0.0,0.13172744,-0.13588245,0.32029256,0.0,0.27060157,0.18598104,-0.043411978,0.0,-0.21058203,-0.3997908,742.1978,1045.2014,1060.5128,823.1868,763.5531,-0.16046142578125,0.0472412109375,0.95135498046875,3.013153076171875,-2.205657958984375,-0.934600830078125,1.0,2.0,4.0,4.0,2.0,75.0,event
09:49:08.186,0.32964298,0.0,0.0134040015,0.0849446,-0.023485348,0.0,0.09750599,-0.052507747,0.05052146,0.0,0.13172744,-0.13588245,0.32029256,0.0,0.27060157,0.18598104,-0.043411978,0.0,-0.21058203,-0.3997908,830.84247,884.43225,958.97437,818.7546,826.0073,-0.16046142578125,0.0472412109375,0.95135498046875,3.013153076171875,-2.205657958984375,-0.934600830078125,1.0,2.0,4.0,4.0,2.0,75.0,event
09:49:08.186,0.32964298,0.0,0.0134040015,0.0849446,-0.023485348,0.0,0.09750599,-0.052507747,0.05052146,0.0,0.13172744,-0.13588245,0.32029256,0.0,0.27060157,0.18598104,-0.043411978,0.0,-0.21058203,-0.3997908,833.2601,939.2308,1003.69965,830.84247,824.3956,-0.16046142578125,0.0472412109375,0.95135498046875,3.013153076171875,-2.205657958984375,-0.934600830078125,1.0,2.0,4.0,4.0,2.0,75.0,event
09:49:08.187,0.32964298,0.0,0.0134040015,0.0849446,-0.023485348,0.0,0.09750599,-0.052507747,0.05052146,0.0,0.13172744,-0.13588245,0.32029256,0.0,0.27060157,0.18598104,-0.043411978,0.0,-0.21058203,-0.3997908,698.2784,722.4542,776.04395,783.2967,791.3553,-0.16046142578125,0.0472412109375,0.95135498046875,3.013153076171875,-2.205657958984375,-0.934600830078125,1.0,2.0,4.0,4.0,2.0,75.0,event
09:49:08.188,0.32964298,0.0,0.0134040015,0.0849446,-0.023485348,0.0,0.09750599,-0.052507747,0.05052146,0.0,0.13172744,-0.13588245,0.32029256,0.0,0.27060157,0.18598104,-0.043411978,0.0,-0.21058203,-0.3997908,627.3626,583.44324,645.4945,771.2088,720.4396,-0.16046142578125,0.0472412109375,0.95135498046875,3.013153076171875,-2.205657958984375,-0.934600830078125,1.0,2.0,4.0,4.0,2.0,75.0,event
09:49:08.189,0.32964298,0.0,0.0134040015,0.0849446,-0.023485348,0.0,0.09750599,-0.052507747,0.05052146,0.0,0.13172744,-0.13588245,0.32029256,0.0,0.27060157,0.18598104,-0.043411978,0.0,-0.21058203,-0.3997908,679.7436,257.0696,338.86447,779.67035,930.7692,-0.16046142578125,0.0472412109375,0.95135498046875,3.013153076171875,-2.205657958984375,-0.934600830078125,1.0,2.0,4.0,4.0,2.0,75.0,event
09:49:08.190,0.32964298,0.0,0.0134040015,0.0849446,-0.023485348,0.0,0.09750599,-0.052507747,0.05052146,0.0,0.13172744,-0.13588245,0.32029256,0.0,0.27060157,0.18598104,-0.043411978,0.0,-0.21058203,-0.3997908,785.31134,128.93773,219.19414,793.36993,1113.6996,-0.16046142578125,0.0472412109375,0.95135498046875,3.013153076171875,-2.205657958984375,-0.934600830078125,1.0,2.0,4.0,4.0,2.0,75.0,event
09:49:08.190,0.32964298,0.0,0.0134040015,0.0849446,-0.023485348,0.0,0.09750599,-0.052507747,0.05052146,0.0,0.13172744,-0.13588245,0.32029256,0.0,0.27060157,0.18598104,-0.043411978,0.0,-0.21058203,-0.3997908,805.05493,778.0586,838.0952,801.8315,785.31134,-0.16046142578125,0.0472412109375,0.95135498046875,3.013153076171875,-2.205657958984375,-0.934600830078125,1.0,2.0,4.0,4.0,2.0,75.0,event
09:49:08.191,0.32964298,0.0,0.0134040015,0.0849446,-0.023485348,0.0,0.09750599,-0.052507747,0.05052146,0.0,0.13172744,-0.13588245,0.32029256,0.0,0.27060157,0.18598104,-0.043411978,0.0,-0.21058203,-0.3997908,668.86444,919.0842,943.663,786.1172,664.83514,-0.16046142578125,0.0472412109375,0.95135498046875,3.013153076171875,-2.205657958984375,-0.934600830078125,1.0,2.0,4.0,4.0,2.0,75.0,event
09:49:08.192,0.32964298,0.0,0.0134040015,0.0849446,-0.023485348,0.0,0.09750599,-0.052507747,0.05052146,0.0,0.13172744,-0.13588245,0.32029256,0.0,0.27060157,0.18598104,-0.043411978,0.0,-0.21058203,-0.3997908,576.99634,746.63007,780.87915,767.5824,775.2381,-0.16046142578125,0.0472412109375,0.95135498046875,3.013153076171875,-2.205657958984375,-0.934600830078125,1.0,2.0,4.0,4.0,2.0,75.0,event
09:49:08.215,0.32964298,0.0,0.0134040015,0.0849446,-0.023485348,0.0,0.09750599,-0.052507747,0.05052146,0.0,0.13172744,-0.13588245,0.32029256,0.0,0.27060157,0.18598104,-0.043411978,0.0,-0.21058203,-0.3997908,628.97437,903.7729,926.7399,766.77655,749.85345,-0.1754150390625,0.03936767578125,0.98638916015625,2.55706787109375,6.26556396484375,9.981536865234377,1.0,2.0,4.0,4.0,2.0,75.0,event
09:49:08.217,0.32964298,0.0,0.0134040015,0.0849446,-0.023485348,0.0,0.09750599,-0.052507747,0.05052146,0.0,0.13172744,-0.13588245,0.32029256,0.0,0.27060157,0.18598104,-0.043411978,0.0,-0.21058203,-0.3997908,753.8828,1099.597,1110.4762,782.8938,682.1612,-0.1754150390625,0.03936767578125,0.98638916015625,2.55706787109375,6.26556396484375,9.981536865234377,1.0,2.0,4.0,4.0,2.0,75.0,event
09:49:08.221,0.32964298,0.0,0.0134040015,0.0849446,-0.023485348,0.0,0.09750599,-0.052507747,0.05052146,0.0,0.13172744,-0.13588245,0.32029256,0.0,0.27060157,0.18598104,-0.043411978,0.0,-0.21058203,-0.3997908,799.81683,969.45056,1015.38464,796.1905,767.5824,-0.1754150390625,0.03936767578125,0.98638916015625,2.55706787109375,6.26556396484375,9.981536865234377,1.0,2.0,4.0,4.0,2.0,75.0,event
09:49:08.222,0.32964298,0.0,0.0134040015,0.0849446,-0.023485348,0.0,0.09750599,-0.052507747,0.05052146,0.0,0.13172744,-0.13588245,0.32029256,0.0,0.27060157,0.18598104,-0.043411978,0.0,-0.21058203,-0.3997908,576.5934,771.6117,816.337,760.32965,696.26373,-0.1754150390625,0.03936767578125,0.98638916015625,2.55706787109375,6.26556396484375,9.981536865234377,1.0,2.0,4.0,4.0,2.0,75.0,event
09:49:08.222,0.32964298,0.0,0.0134040015,0.0849446,-0.023485348,0.0,0.09750599,-0.052507747,0.05052146,0.0,0.13172744,-0.13588245,0.32029256,0.0,0.27060157,0.18598104,-0.043411978,0.0,-0.21058203,-0.3997908,680.14655,694.2491,767.98535,772.8205,742.1978,-0.1754150390625,0.03936767578125,0.98638916015625,2.55706787109375,6.26556396484375,9.981536865234377,1.0,2.0,4.0,4.0,2.0,75.0,event
09:49:08.223,0.32964298,0.0,0.0134040015,0.0849446,-0.023485348,0.0,0.09750599,-0.052507747,0.05052146,0.0,0.13172744,-0.13588245,0.32029256,0.0,0.27060157,0.18598104,-0.043411978,0.0,-0.21058203,-0.3997908,621.31866,746.2271,801.8315,776.04395,828.022,-0.1754150390625,0.03936767578125,0.98638916015625,2.55706787109375,6.26556396484375,9.981536865234377,1.0,2.0,4.0,4.0,2.0,75.0,event
09:49:08.224,0.32964298,0.0,0.0134040015,0.0849446,-0.023485348,0.0,0.09750599,-0.052507747,0.05052146,0.0,0.13172744,-0.13588245,0.32029256,0.0,0.27060157,0.18598104,-0.043411978,0.0,-0.21058203,-0.3997908,743.8095,580.2198,674.5055,794.57874,914.2491,-0.1754150390625,0.03936767578125,0.98638916015625,2.55706787109375,6.26556396484375,9.981536865234377,1.0,2.0,4.0,4.0,2.0,75.0,event
09:49:08.225,0.32964298,0.0,0.0134040015,0.0849446,-0.023485348,0.0,0.09750599,-0.052507747,0.05052146,0.0,0.13172744,-0.13588245,0.32029256,0.0,0.27060157,0.18598104,-0.043411978,0.0,-0.21058203,-0.3997908,796.99634,260.29303,428.31503,798.20514,1050.0366,-0.1754150390625,0.03936767578125,0.98638916015625,2.55706787109375,6.26556396484375,9.981536865234377,1.0,2.0,4.0,4.0,2.0,75.0,event
09:49:08.225,0.32964298,0.0,0.0134040015,0.0849446,-0.023485348,0.0,0.09750599,-0.052507747,0.05052146,0.0,0.13172744,-0.13588245,0.32029256,0.0,0.27060157,0.18598104,-0.043411978,0.0,-0.21058203,-0.3997908,707.9487,408.1685,526.2271,790.54944,983.5531,-0.1754150390625,0.03936767578125,0.98638916015625,2.55706787109375,6.26556396484375,9.981536865234377,1.0,2.0,4.0,4.0,2.0,75.0,event
09:49:08.226,0.32964298,0.0,0.0134040015,0.0849446,-0.023485348,0.0,0.09750599,-0.052507747,0.05052146,0.0,0.13172744,-0.13588245,0.32029256,0.0,0.27060157,0.18598104,-0.043411978,0.0,-0.21058203,-0.3997908,612.4542,815.5311,823.9927,786.52014,776.04395,-0.1754150390625,0.03936767578125,0.98638916015625,2.55706787109375,6.26556396484375,9.981536865234377,1.0,2.0,4.0,4.0,2.0,75.0,event
09:49:08.227,0.32964298,0.0,0.0134040015,0.0849446,-0.023485348,0.0,0.09750599,-0.052507747,0.05052146,0.0,0.13172744,-0.13588245,0.32029256,0.0,0.27060157,0.18598104,-0.043411978,0.0,-0.21058203,-0.3997908,637.4359,579.81683,642.674,790.9524,767.1795,-0.1754150390625,0.03936767578125,0.98638916015625,2.55706787109375,6.26556396484375,9.981536865234377,1.0,2.0,4.0,4.0,2.0,75.0,event
09:49:08.228,0.32964298,0.0,0.0134040015,0.0849446,-0.023485348,0.0,0.09750599,-0.052507747,0.05052146,0.0,0.13172744,-0.13588245,0.32029256,0.0,0.27060157,0.18598104,-0.043411978,0.0,-0.21058203,-0.3997908,759.92676,514.5421,633.8095,807.0696,862.27106,-0.1754150390625,0.03936767578125,0.98638916015625,2.55706787109375,6.26556396484375,9.981536865234377,1.0,2.0,4.0,4.0,2.0,75.0,event
09:49:08.279,0.32964298,0.0,0.0134040015,0.0849446,-0.023485348,0.0,0.09750599,-0.052507747,0.05052146,0.0,0.13172744,-0.13588245,0.32029256,0.0,0.27060157,0.18598104,-0.043411978,0.0,-0.21058203,-0.3997908,831.6484,1041.5751,1090.3297,815.5311,792.1612,-0.2119140625,0.02630615234375,0.97088623046875,3.46923828125,0.7476806640625,14.078826904296877,1.0,2.0,4.0,4.0,2.0,75.0,event
09:49:08.281,0.32964298,0.0,0.0134040015,0.0849446,-0.023485348,0.0,0.09750599,-0.052507747,0.05052146,0.0,0.13172744,-0.13588245,0.32029256,0.0,0.27060157,0.18598104,-0.043411978,0.0,-0.21058203,-0.3997908,755.09155,1052.0513,1070.1831,796.99634,730.5128,-0.2119140625,0.02630615234375,0.97088623046875,3.46923828125,0.7476806640625,14.078826904296877,1.0,2.0,4.0,4.0,2.0,75.0,event
09:49:08.282,0.32964298,0.0,0.0134040015,0.0849446,-0.023485348,0.0,0.09750599,-0.052507747,0.05052146,0.0,0.13172744,-0.13588245,0.32029256,0.0,0.27060157,0.18598104,-0.043411978,0.0,-0.21058203,-0.3997908,639.0476,732.1245,773.6264,774.0293,753.47986,-0.2119140625,0.02630615234375,0.97088623046875,3.46923828125,0.7476806640625,14.078826904296877,1.0,2.0,4.0,4.0,2.0,75.0,event
09:49:08.283,0.32964298,0.0,0.0134040015,0.0849446,-0.023485348,0.0,0.09750599,-0.052507747,0.05052146,0.0,0.13172744,-0.13588245,0.32029256,0.0,0.27060157,0.18598104,-0.043411978,0.0,-0.21058203,-0.3997908,639.85345,738.1685,792.96704,782.49084,764.35895,-0.2119140625,0.02630615234375,0.97088623046875,3.46923828125,0.7476806640625,14.078826904296877,1.0,2.0,4.0,4.0,2.0,75.0,event
09:49:08.284,0.32964298,0.0,0.0134040015,0.0849446,-0.023485348,0.0,0.09750599,-0.052507747,0.05052146,0.0,0.13172744,-0.13588245,0.32029256,0.0,0.27060157,0.18598104,-0.043411978,0.0,-0.21058203,-0.3997908,871.13556,905.78754,980.32965,821.978,814.3223,-0.2119140625,0.02630615234375,0.97088623046875,3.46923828125,0.7476806640625,14.078826904296877,1.0,2.0,4.0,4.0,2.0,75.0,event
09:49:08.284,0.32964298,0.0,0.0134040015,0.0849446,-0.023485348,0.0,0.09750599,-0.052507747,0.05052146,0.0,0.13172744,-0.13588245,0.32029256,0.0,0.27060157,0.18598104,-0.043411978,0.0,-0.21058203,-0.3997908,774.43225,980.7326,1014.57874,808.2784,723.2601,-0.2119140625,0.02630615234375,0.97088623046875,3.46923828125,0.7476806640625,14.078826904296877,1.0,2.0,4.0,4.0,2.0,75.0,event
09:49:08.285,0.32964298,0.0,0.0134040015,0.0849446,-0.023485348,0.0,0.09750599,-0.052507747,0.05052146,0.0,0.13172744,-0.13588245,0.32029256,0.0,0.27060157,0.18598104,-0.043411978,0.0,-0.21058203,-0.3997908,780.87915,343.2967,431.13553,813.5165,1020.6227,-0.2119140625,0.02630615234375,0.97088623046875,3.46923828125,0.7476806640625,14.078826904296877,1.0,2.0,4.0,4.0,2.0,75.0,event
09:49:08.286,0.32964298,0.0,0.0134040015,0.0849446,-0.023485348,0.0,0.09750599,-0.052507747,0.05052146,0.0,0.13172744,-0.13588245,0.32029256,0.0,0.27060157,0.18598104,-0.043411978,0.0,-0.21058203,-0.3997908,644.68866,171.64835,193.80952,787.72894,959.7802,-0.2119140625,0.02630615234375,0.97088623046875,3.46923828125,0.7476806640625,14.078826904296877,1.0,2.0,4.0,4.0,2.0,75.0,event
09:49:08.286,0.32964298,0.0,0.0134040015,0.0849446,-0.023485348,0.0,0.09750599,-0.052507747,0.05052146,0.0,0.13172744,-0.13588245,0.32029256,0.0,0.27060157,0.18598104,-0.043411978,0.0,-0.21058203,-0.3997908,657.98535,791.75824,790.14655,784.5055,695.05493,-0.2119140625,0.02630615234375,0.97088623046875,3.46923828125,0.7476806640625,14.078826904296877,1.0,2.0,4.0,4.0,2.0,75.0,event
09:49:08.287,0.32964298,0.0,0.0134040015,0.0849446,-0.023485348,0.0,0.09750599,-0.052507747,0.05052146,0.0,0.13172744,-0.13588245,0.32029256,0.0,0.27060157,0.18598104,-0.043411978,0.0,-0.21058203,-0.3997908,769.59705,965.0183,981.53845,801.02563,718.8278,-0.2119140625,0.02630615234375,0.97088623046875,3.46923828125,0.7476806640625,14.078826904296877,1.0,2.0,4.0,4.0,2.0,75.0,event
09:49:08.288,0.32964298,0.0,0.0134040015,0.0849446,-0.023485348,0.0,0.09750599,-0.052507747,0.05052146,0.0,0.13172744,-0.13588245,0.32029256,0.0,0.27060157,0.18598104,-0.043411978,0.0,-0.21058203,-0.3997908,862.674,884.83514,929.15753,807.47253,784.90845,-0.2119140625,0.02630615234375,0.97088623046875,3.46923828125,0.7476806640625,14.078826904296877,1.0,2.0,4.0,4.0,2.0,75.0,event
09:49:08.288,0.32964298,0.0,0.0134040015,0.0849446,-0.023485348,0.0,0.09750599,-0.052507747,0.05052146,0.0,0.13172744,-0.13588245,0.32029256,0.0,0.27060157,0.18598104,-0.043411978,0.0,-0.21058203,-0.3997908,818.7546,821.5751,869.92676,801.4286,831.2454,-0.2119140625,0.02630615234375,0.97088623046875,3.46923828125,0.7476806640625,14.078826904296877,1.0,2.0,4.0,4.0,2.0,75.0,event
09:49:08.317,0.32964298,0.0,0.0134040015,0.0849446,-0.023485348,0.0,0.09750599,-0.052507747,0.05052146,0.0,0.13172744,-0.13588245,0.32029256,0.0,0.27060157,0.18598104,-0.043411978,0.0,-0.21058203,-0.3997908,690.2198,761.13556,783.2967,787.326,780.07324,-0.243408203125,0.03228759765625,0.96270751953125,4.643096923828125,-5.689849853515625,11.910552978515623,1.0,2.0,4.0,4.0,2.0,75.0,event
09:49:08.319,0.32964298,0.0,0.0134040015,0.0849446,-0.023485348,0.0,0.09750599,-0.052507747,0.05052146,0.0,0.13172744,-0.13588245,0.32029256,0.0,0.27060157,0.18598104,-0.043411978,0.0,-0.21058203,-0.3997908,658.7912,762.3443,783.69965,774.0293,688.20514,-0.243408203125,0.03228759765625,0.96270751953125,4.643096923828125,-5.689849853515625,11.910552978515623,1.0,2.0,4.0,4.0,2.0,75.0,event
09:49:08.319,0.32964298,0.0,0.0134040015,0.0849446,-0.023485348,0.0,0.09750599,-0.052507747,0.05052146,0.0,0.13172744,-0.13588245,0.32029256,0.0,0.27060157,0.18598104,-0.043411978,0.0,-0.21058203,-0.3997908,746.63007,577.8022,666.8498,788.93774,805.4579,-0.243408203125,0.03228759765625,0.96270751953125,4.643096923828125,-5.689849853515625,11.910552978515623,1.0,2.0,4.0,4.0,2.0,75.0,event
09:49:08.320,0.32964298,0.0,0.0134040015,0.0849446,-0.023485348,0.0,0.09750599,-0.052507747,0.05052146,0.0,0.13172744,-0.13588245,0.32029256,0.0,0.27060157,0.18598104,-0.043411978,0.0,-0.21058203,-0.3997908,869.5238,827.2161,890.87915,812.3077,808.2784,-0.243408203125,0.03228759765625,0.96270751953125,4.643096923828125,-5.689849853515625,11.910552978515623,1.0,2.0,4.0,4.0,2.0,75.0,event
09:49:08.324,0.32964298,0.0,0.0134040015,0.0849446,-0.023485348,0.0,0.09750599,-0.052507747,0.05052146,0.0,0.13172744,-0.13588245,0.32029256,0.0,0.27060157,0.18598104,-0.043411978,0.0,-0.21058203,-0.3997908,847.76556,1055.2748,1050.8425,804.65204,721.2454,-0.243408203125,0.03228759765625,0.96270751953125,4.643096923828125,-5.689849853515625,11.910552978515623,1.0,2.0,4.0,4.0,2.0,75.0,event
09:49:08.325,0.32964298,0.0,0.0134040015,0.0849446,-0.023485348,0.0,0.09750599,-0.052507747,0.05052146,0.0,0.13172744,-0.13588245,0.32029256,0.0,0.27060157,0.18598104,-0.043411978,0.0,-0.21058203,-0.3997908,651.13556,192.1978,267.54578,791.3553,953.73627,-0.243408203125,0.03228759765625,0.96270751953125,4.643096923828125,-5.689849853515625,11.910552978515623,1.0,2.0,4.0,4.0,2.0,75.0,event
09:49:08.325,0.32964298,0.0,0.0134040015,0.0849446,-0.023485348,0.0,0.09750599,-0.052507747,0.05052146,0.0,0.13172744,-0.13588245,0.32029256,0.0,0.27060157,0.18598104,-0.043411978,0.0,-0.21058203,-0.3997908,700.293,648.315,696.6667,786.52014,829.2308,-0.243408203125,0.03228759765625,0.96270751953125,4.643096923828125,-5.689849853515625,11.910552978515623,1.0,2.0,4.0,4.0,2.0,75.0,event
09:49:08.326,0.32964298,0.0,0.0134040015,0.0849446,-0.023485348,0.0,0.09750599,-0.052507747,0.05052146,0.0,0.13172744,-0.13588245,0.32029256,0.0,0.27060157,0.18598104,-0.043411978,0.0,-0.21058203,-0.3997908,758.315,567.72894,577.3993,805.8608,782.0879,-0.243408203125,0.03228759765625,0.96270751953125,4.643096923828125,-5.689849853515625,11.910552978515623,1.0,2.0,4.0,4.0,2.0,75.0,event
