TimeStamp,Delta_TP9,Delta_AF7,Delta_AF8,Delta_TP10,Theta_TP9,Theta_AF7,Theta_AF8,Theta_TP10,Alpha_TP9,Alpha_AF7,Alpha_AF8,Alpha_TP10,Beta_TP9,Beta_AF7,Beta_AF8,Beta_TP10,Gamma_TP9,Gamma_AF7,Gamma_AF8,Gamma_TP10,RAW_TP9,RAW_AF7,RAW_AF8,RAW_TP10,AUX_RIGHT,Accelerometer_X,Accelerometer_Y,Accelerometer_Z,Gyro_X,Gyro_Y,Gyro_Z,HeadBandOn,HSI_TP9,HSI_AF7,HSI_AF8,HSI_TP10,Battery,Elements
09:12:18.851,0.23997441,0.0,0.0,0.48989937,-0.29098704,0.0,0.0,0.55784005,0.49986663,0.0,0.0,0.48608395,0.9896064,0.0,0.0,1.0477948,0.7149294,0.0,0.0,0.7287427,818.7546,313.88278,452.49084,843.73627,978.315,-0.1121826171875,0.118408203125,0.97802734375,1.622467041015625,-4.015045166015625,-0.231781005859375,1.0,1.0,4.0,4.0,1.0,100.0,event
09:12:18.851,0.23997441,0.0,0.0,0.48989937,-0.29098704,0.0,0.0,0.55784005,0.49986663,0.0,0.0,0.48608395,0.9896064,0.0,0.0,1.0477948,0.7149294,0.0,0.0,0.7287427,775.64105,228.86447,335.64102,796.99634,949.304,-0.1121826171875,0.118408203125,0.97802734375,1.622467041015625,-4.015045166015625,-0.231781005859375,1.0,1.0,4.0,4.0,1.0,100.0,event
09:12:18.918,0.23997441,0.0,0.0,0.48989937,-0.29098704,0.0,0.0,0.55784005,0.49986663,0.0,0.0,0.48608395,0.9896064,0.0,0.0,1.0477948,0.7149294,0.0,0.0,0.7287427,780.07324,792.96704,933.9927,768.3883,650.32965,-0.11016845703125,0.11260986328125,0.9727783203125,1.55517578125,-4.306640625,0.142059326171875,1.0,1.0,4.0,4.0,1.0,100.0,event
09:12:18.920,0.23997441,0.0,0.0,0.48989937,-0.29098704,0.0,0.0,0.55784005,0.49986663,0.0,0.0,0.48608395,0.9896064,0.0,0.0,1.0477948,0.7149294,0.0,0.0,0.7287427,809.0842,698.2784,889.2674,799.011,795.38464,-0.11016845703125,0.11260986328125,0.9727783203125,1.55517578125,-4.306640625,0.142059326171875,1.0,1.0,4.0,4.0,1.0,100.0,event
09:12:18.921,0.23997441,0.0,0.0,0.48989937,-0.29098704,0.0,0.0,0.55784005,0.49986663,0.0,0.0,0.48608395,0.9896064,0.0,0.0,1.0477948,0.7149294,0.0,0.0,0.7287427,844.94507,588.2784,829.2308,841.31866,948.0952,-0.11016845703125,0.11260986328125,0.9727783203125,1.55517578125,-4.306640625,0.142059326171875,1.0,1.0,4.0,4.0,1.0,100.0,event
09:12:18.922,0.23997441,0.0,0.0,0.48989937,-0.29098704,0.0,0.0,0.55784005,0.49986663,0.0,0.0,0.48608395,0.9896064,0.0,0.0,1.0477948,0.7149294,0.0,0.0,0.7287427,836.8865,828.8278,965.82416,838.0952,819.15753,-0.11016845703125,0.11260986328125,0.9727783203125,1.55517578125,-4.306640625,0.142059326171875,1.0,1.0,4.0,4.0,1.0,100.0,event
09:12:18.922,0.23997441,0.0,0.0,0.48989937,-0.29098704,0.0,0.0,0.55784005,0.49986663,0.0,0.0,0.48608395,0.9896064,0.0,0.0,1.0477948,0.7149294,0.0,0.0,0.7287427,833.2601,840.9158,915.8608,807.47253,731.7216,-0.11016845703125,0.11260986328125,0.9727783203125,1.55517578125,-4.306640625,0.142059326171875,1.0,1.0,4.0,4.0,1.0,100.0,event
09:12:18.923,0.23997441,0.0,0.0,0.48989937,-0.29098704,0.0,0.0,0.55784005,0.49986663,0.0,0.0,0.48608395,0.9896064,0.0,0.0,1.0477948,0.7149294,0.0,0.0,0.7287427,812.71063,434.35898,595.12823,787.326,868.71796,-0.11016845703125,0.11260986328125,0.9727783203125,1.55517578125,-4.306640625,0.142059326171875,1.0,1.0,4.0,4.0,1.0,100.0,event
09:12:18.924,0.23997441,0.0,0.0,0.48989937,-0.29098704,0.0,0.0,0.55784005,0.49986663,0.0,0.0,0.48608395,0.9896064,0.0,0.0,1.0477948,0.7149294,0.0,0.0,0.7287427,775.64105,12.490843,139.81685,771.6117,1106.4469,-0.11016845703125,0.11260986328125,0.9727783203125,1.55517578125,-4.306640625,0.142059326171875,1.0,1.0,4.0,4.0,1.0,100.0,event
09:12:18.925,0.23997441,0.0,0.0,0.48989937,-0.29098704,0.0,0.0,0.55784005,0.49986663,0.0,0.0,0.48608395,0.9896064,0.0,0.0,1.0477948,0.7149294,0.0,0.0,0.7287427,816.337,469.4139,572.96704,806.6667,894.10254,-0.11016845703125,0.11260986328125,0.9727783203125,1.55517578125,-4.306640625,0.142059326171875,1.0,1.0,4.0,4.0,1.0,100.0,event
09:12:18.926,0.23997441,0.0,0.0,0.48989937,-0.29098704,0.0,0.0,0.55784005,0.49986663,0.0,0.0,0.48608395,0.9896064,0.0,0.0,1.0477948,0.7149294,0.0,0.0,0.7287427,793.36993,528.6447,695.4579,803.0403,864.2857,-0.11016845703125,0.11260986328125,0.9727783203125,1.55517578125,-4.306640625,0.142059326171875,1.0,1.0,4.0,4.0,1.0,100.0,event
09:12:18.926,0.23997441,0.0,0.0,0.48989937,-0.29098704,0.0,0.0,0.55784005,0.49986663,0.0,0.0,0.48608395,0.9896064,0.0,0.0,1.0477948,0.7149294,0.0,0.0,0.7287427,829.6337,1005.7143,1124.9817,841.7216,723.663,-0.11016845703125,0.11260986328125,0.9727783203125,1.55517578125,-4.306640625,0.142059326171875,1.0,1.0,4.0,4.0,1.0,100.0,event
09:12:18.927,0.23997441,0.0,0.0,0.48989937,-0.29098704,0.0,0.0,0.55784005,0.49986663,0.0,0.0,0.48608395,0.9896064,0.0,0.0,1.0477948,0.7149294,0.0,0.0,0.7287427,801.4286,333.62637,558.86444,783.69965,873.95605,-0.11016845703125,0.11260986328125,0.9727783203125,1.55517578125,-4.306640625,0.142059326171875,1.0,1.0,4.0,4.0,1.0,100.0,event
09:12:18.928,0.23997441,0.0,0.0,0.48989937,-0.29098704,0.0,0.0,0.55784005,0.49986663,0.0,0.0,0.48608395,0.9896064,0.0,0.0,1.0477948,0.7149294,0.0,0.0,0.7287427,812.3077,860.65936,1004.5055,790.54944,742.6007,-0.11016845703125,0.11260986328125,0.9727783203125,1.55517578125,-4.306640625,0.142059326171875,1.0,1.0,4.0,4.0,1.0,100.0,event
09:12:18.958,0.23997441,0.0,0.0,0.48989937,-0.29098704,0.0,0.0,0.55784005,0.49986663,0.0,0.0,0.48608395,0.9896064,0.0,0.0,1.0477948,0.7149294,0.0,0.0,0.7287427,798.60803,1031.0989,1161.6483,811.50183,803.44324,-0.11016845703125,0.11260986328125,0.9727783203125,1.55517578125,-4.306640625,0.142059326171875,1.0,1.0,4.0,4.0,1.0,100.0,event
09:12:18.959,0.23997441,0.0,0.0,0.48989937,-0.29098704,0.0,0.0,0.55784005,0.49986663,0.0,0.0,0.48608395,0.9896064,0.0,0.0,1.0477948,0.7149294,0.0,0.0,0.7287427,798.20514,798.20514,915.05493,825.2015,861.4652,-0.11016845703125,0.11260986328125,0.9727783203125,1.55517578125,-4.306640625,0.142059326171875,1.0,1.0,4.0,4.0,1.0,100.0,event
09:12:18.960,0.23997441,0.0,0.0,0.48989937,-0.29098704,0.0,0.0,0.55784005,0.49986663,0.0,0.0,0.48608395,0.9896064,0.0,0.0,1.0477948,0.7149294,0.0,0.0,0.7287427,805.4579,654.35895,740.58606,798.60803,789.34064,-0.11016845703125,0.11260986328125,0.9727783203125,1.55517578125,-4.306640625,0.142059326171875,1.0,1.0,4.0,4.0,1.0,100.0,event
09:12:18.960,0.23997441,0.0,0.0,0.48989937,-0.29098704,0.0,0.0,0.55784005,0.49986663,0.0,0.0,0.48608395,0.9896064,0.0,0.0,1.0477948,0.7149294,0.0,0.0,0.7287427,805.8608,814.7253,888.46155,786.52014,745.42126,-0.11016845703125,0.11260986328125,0.9727783203125,1.55517578125,-4.306640625,0.142059326171875,1.0,1.0,4.0,4.0,1.0,100.0,event
09:12:18.961,0.23997441,0.0,0.0,0.48989937,-0.29098704,0.0,0.0,0.55784005,0.49986663,0.0,0.0,0.48608395,0.9896064,0.0,0.0,1.0477948,0.7149294,0.0,0.0,0.7287427,803.44324,756.30035,851.39197,781.28204,747.4359,-0.11016845703125,0.11260986328125,0.9727783203125,1.55517578125,-4.306640625,0.142059326171875,1.0,1.0,4.0,4.0,1.0,100.0,event
09:12:18.961,0.23997441,0.0,0.0,0.48989937,-0.29098704,0.0,0.0,0.55784005,0.49986663,0.0,0.0,0.48608395,0.9896064,0.0,0.0,1.0477948,0.7149294,0.0,0.0,0.7287427,802.23444,433.95605,632.1978,799.81683,902.5641,-0.11016845703125,0.11260986328125,0.9727783203125,1.55517578125,-4.306640625,0.142059326171875,1.0,1.0,4.0,4.0,1.0,100.0,event
09:12:18.962,0.23997441,0.0,0.0,0.48989937,-0.29098704,0.0,0.0,0.55784005,0.49986663,0.0,0.0,0.48608395,0.9896064,0.0,0.0,1.0477948,0.7149294,0.0,0.0,0.7287427,803.44324,510.51282,622.52747,808.68134,826.4103,-0.11016845703125,0.11260986328125,0.9727783203125,1.55517578125,-4.306640625,0.142059326171875,1.0,1.0,4.0,4.0,1.0,100.0,event
09:12:18.962,0.23997441,0.0,0.0,0.48989937,-0.29098704,0.0,0.0,0.55784005,0.49986663,0.0,0.0,0.48608395,0.9896064,0.0,0.0,1.0477948,0.7149294,0.0,0.0,0.7287427,818.3516,334.0293,531.4652,838.0952,942.4542,-0.11016845703125,0.11260986328125,0.9727783203125,1.55517578125,-4.306640625,0.142059326171875,1.0,1.0,4.0,4.0,1.0,100.0,event
09:12:18.963,0.23997441,0.0,0.0,0.63302284,-0.29098704,0.0,0.0,0.71412444,0.49986663,0.0,0.0,0.60420454,0.9896064,0.0,0.0,1.0913953,0.7149294,0.0,0.0,0.75778866,780.4762,257.47253,438.38828,762.74725,904.17584,-0.11016845703125,0.11260986328125,0.9727783203125,1.55517578125,-4.306640625,0.142059326171875,1.0,1.0,4.0,4.0,1.0,100.0,event
09:12:18.963,0.23997441,0.0,0.0,0.48989937,-0.29098704,0.0,0.0,0.55784005,0.49986663,0.0,0.0,0.48608395,0.9896064,0.0,0.0,1.0477948,0.7149294,0.0,0.0,0.7287427,786.9231,691.4286,847.76556,770.40295,749.0476,-0.11016845703125,0.11260986328125,0.9727783203125,1.55517578125,-4.306640625,0.142059326171875,1.0,1.0,4.0,4.0,1.0,100.0,event
09:12:18.966,0.23997441,0.0,0.0,0.63302284,-0.29098704,0.0,0.0,0.71412444,0.49986663,0.0,0.0,0.60420454,0.9896064,0.0,0.0,1.0913953,0.7149294,0.0,0.0,0.75778866,799.81683,295.75092,462.96704,781.28204,914.65204,-0.11016845703125,0.11260986328125,0.9727783203125,1.55517578125,-4.306640625,0.142059326171875,1.0,1.0,4.0,4.0,1.0,100.0,event
09:12:18.967,0.23997441,0.0,0.0,0.63302284,-0.29098704,0.0,0.0,0.71412444,0.49986663,0.0,0.0,0.60420454,0.9896064,0.0,0.0,1.0913953,0.7149294,0.0,0.0,0.75778866,804.65204,950.10986,1115.3114,805.8608,739.3773,-0.11016845703125,0.11260986328125,0.9727783203125,1.55517578125,-4.306640625,0.142059326171875,1.0,1.0,4.0,4.0,1.0,100.0,event
09:12:18.994,0.23997441,0.0,0.0,0.63302284,-0.29098704,0.0,0.0,0.71412444,0.49986663,0.0,0.0,0.60420454,0.9896064,0.0,0.0,1.0913953,0.7149294,0.0,0.0,0.75778866,816.7399,726.8865,866.30035,814.7253,738.97437,-0.1072998046875,0.111572265625,0.972412109375,2.370147705078125,-4.044952392578125,0.216827392578125,1.0,1.0,4.0,4.0,1.0,100.0,event
09:12:18.995,0.23997441,0.0,0.0,0.63302284,-0.29098704,0.0,0.0,0.71412444,0.49986663,0.0,0.0,0.60420454,0.9896064,0.0,0.0,1.0913953,0.7149294,0.0,0.0,0.75778866,826.0073,402.12454,555.2381,789.7436,740.18317,-0.1072998046875,0.111572265625,0.972412109375,2.370147705078125,-4.044952392578125,0.216827392578125,1.0,1.0,4.0,4.0,1.0,100.0,event
09:12:18.996,0.23997441,0.0,0.0,0.63302284,-0.29098704,0.0,0.0,0.71412444,0.49986663,0.0,0.0,0.60420454,0.9896064,0.0,0.0,1.0913953,0.7149294,0.0,0.0,0.75778866,815.9341,614.87177,768.3883,785.31134,673.2967,-0.1072998046875,0.111572265625,0.972412109375,2.370147705078125,-4.044952392578125,0.216827392578125,1.0,1.0,4.0,4.0,1.0,100.0,event
09:12:18.996,0.23997441,0.0,0.0,0.63302284,-0.29098704,0.0,0.0,0.71412444,0.49986663,0.0,0.0,0.60420454,0.9896064,0.0,0.0,1.0913953,0.7149294,0.0,0.0,0.75778866,805.8608,923.91943,1059.3041,803.44324,644.2857,-0.1072998046875,0.111572265625,0.972412109375,2.370147705078125,-4.044952392578125,0.216827392578125,1.0,1.0,4.0,4.0,1.0,100.0,event
09:12:18.997,0.23997441,0.0,0.0,0.63302284,-0.29098704,0.0,0.0,0.71412444,0.49986663,0.0,0.0,0.60420454,0.9896064,0.0,0.0,1.0913953,0.7149294,0.0,0.0,0.75778866,819.5604,736.1539,897.72894,834.0659,765.16486,-0.1072998046875,0.111572265625,0.972412109375,2.370147705078125,-4.044952392578125,0.216827392578125,1.0,1.0,4.0,4.0,1.0,100.0,event
09:12:18.998,0.23997441,0.0,0.0,0.63302284,-0.29098704,0.0,0.0,0.71412444,0.49986663,0.0,0.0,0.60420454,0.9896064,0.0,0.0,1.0913953,0.7149294,0.0,0.0,0.75778866,824.7985,274.79852,475.05493,828.8278,857.03296,-0.1072998046875,0.111572265625,0.972412109375,2.370147705078125,-4.044952392578125,0.216827392578125,1.0,1.0,4.0,4.0,1.0,100.0,event
09:12:18.998,0.23997441,0.0,0.0,0.63302284,-0.29098704,0.0,0.0,0.71412444,0.49986663,0.0,0.0,0.60420454,0.9896064,0.0,0.0,1.0913953,0.7149294,0.0,0.0,0.75778866,822.381,307.43588,473.44324,795.38464,788.5348,-0.1072998046875,0.111572265625,0.972412109375,2.370147705078125,-4.044952392578125,0.216827392578125,1.0,1.0,4.0,4.0,1.0,100.0,event
09:12:18.999,0.23997441,0.0,0.0,0.63302284,-0.29098704,0.0,0.0,0.71412444,0.49986663,0.0,0.0,0.60420454,0.9896064,0.0,0.0,1.0913953,0.7149294,0.0,0.0,0.75778866,802.23444,440.40292,695.05493,826.8132,882.01465,-0.1072998046875,0.111572265625,0.972412109375,2.370147705078125,-4.044952392578125,0.216827392578125,1.0,1.0,4.0,4.0,1.0,100.0,event
09:12:18.999,0.23997441,0.0,0.0,0.63302284,-0.29098704,0.0,0.0,0.71412444,0.49986663,0.0,0.0,0.60420454,0.9896064,0.0,0.0,1.0913953,0.7149294,0.0,0.0,0.75778866,800.2198,572.96704,744.21246,792.5641,764.35895,-0.1072998046875,0.111572265625,0.972412109375,2.370147705078125,-4.044952392578125,0.216827392578125,1.0,1.0,4.0,4.0,1.0,100.0,event
09:12:19.000,0.23997441,0.0,0.0,0.63302284,-0.29098704,0.0,0.0,0.71412444,0.49986663,0.0,0.0,0.60420454,0.9896064,0.0,0.0,1.0913953,0.7149294,0.0,0.0,0.75778866,800.2198,768.7912,917.8755,793.36993,720.84247,-0.1072998046875,0.111572265625,0.972412109375,2.370147705078125,-4.044952392578125,0.216827392578125,1.0,1.0,4.0,4.0,1.0,100.0,event
09:12:19.000,0.23997441,0.0,0.0,0.63302284,-0.29098704,0.0,0.0,0.71412444,0.49986663,0.0,0.0,0.60420454,0.9896064,0.0,0.0,1.0913953,0.7149294,0.0,0.0,0.75778866,845.7509,500.43958,756.7033,837.6923,876.3736,-0.1072998046875,0.111572265625,0.972412109375,2.370147705078125,-4.044952392578125,0.216827392578125,1.0,1.0,4.0,4.0,1.0,100.0,event
09:12:19.001,0.23997441,0.0,0.0,0.63302284,-0.29098704,0.0,0.0,0.71412444,0.49986663,0.0,0.0,0.60420454,0.9896064,0.0,0.0,1.0913953,0.7149294,0.0,0.0,0.75778866,761.53845,785.7143,912.6374,759.92676,666.04395,-0.1072998046875,0.111572265625,0.972412109375,2.370147705078125,-4.044952392578125,0.216827392578125,1.0,1.0,4.0,4.0,1.0,100.0,event
09:12:19.030,0.23997441,0.0,0.0,0.63302284,-0.29098704,0.0,0.0,0.71412444,0.49986663,0.0,0.0,0.60420454,0.9896064,0.0,0.0,1.0913953,0.7149294,0.0,0.0,0.75778866,804.2491,413.00366,607.2161,786.9231,853.4066,-0.10296630859375,0.11724853515625,0.97607421875,1.921539306640625,-5.30853271484375,0.306549072265625,1.0,1.0,4.0,4.0,1.0,100.0,event
09:12:19.031,0.23997441,0.0,0.0,0.63302284,-0.29098704,0.0,0.0,0.71412444,0.49986663,0.0,0.0,0.60420454,0.9896064,0.0,0.0,1.0913953,0.7149294,0.0,0.0,0.75778866,813.91943,16.520147,209.12088,802.6374,1068.9744,-0.10296630859375,0.11724853515625,0.97607421875,1.921539306640625,-5.30853271484375,0.306549072265625,1.0,1.0,4.0,4.0,1.0,100.0,event
09:12:19.031,0.23997441,0.0,0.0,0.63302284,-0.29098704,0.0,0.0,0.71412444,0.49986663,0.0,0.0,0.60420454,0.9896064,0.0,0.0,1.0913953,0.7149294,0.0,0.0,0.75778866,780.07324,572.1612,767.1795,807.47253,860.2564,-0.10296630859375,0.11724853515625,0.97607421875,1.921539306640625,-5.30853271484375,0.306549072265625,1.0,1.0,4.0,4.0,1.0,100.0,event
09:12:19.032,0.23997441,0.0,0.0,0.63302284,-0.29098704,0.0,0.0,0.71412444,0.49986663,0.0,0.0,0.60420454,0.9896064,0.0,0.0,1.0913953,0.7149294,0.0,0.0,0.75778866,786.52014,859.0476,1042.381,816.7399,711.978,-0.10296630859375,0.11724853515625,0.97607421875,1.921539306640625,-5.30853271484375,0.306549072265625,1.0,1.0,4.0,4.0,1.0,100.0,event
09:12:19.033,0.23997441,0.0,0.0,0.63302284,-0.29098704,0.0,0.0,0.71412444,0.49986663,0.0,0.0,0.60420454,0.9896064,0.0,0.0,1.0913953,0.7149294,0.0,0.0,0.75778866,807.47253,569.34064,753.0769,789.34064,768.7912,-0.10296630859375,0.11724853515625,0.97607421875,1.921539306640625,-5.30853271484375,0.306549072265625,1.0,1.0,4.0,4.0,1.0,100.0,event
09:12:19.036,0.23997441,0.0,0.0,0.63302284,-0.29098704,0.0,0.0,0.71412444,0.49986663,0.0,0.0,0.60420454,0.9896064,0.0,0.0,1.0913953,0.7149294,0.0,0.0,0.75778866,798.60803,461.75824,698.68134,774.83514,824.3956,-0.10296630859375,0.11724853515625,0.97607421875,1.921539306640625,-5.30853271484375,0.306549072265625,1.0,1.0,4.0,4.0,1.0,100.0,event
09:12:19.037,0.23997441,0.0,0.0,0.63302284,-0.29098704,0.0,0.0,0.71412444,0.49986663,0.0,0.0,0.60420454,0.9896064,0.0,0.0,1.0913953,0.7149294,0.0,0.0,0.75778866,823.1868,553.22345,780.07324,803.44324,853.8095,-0.10296630859375,0.11724853515625,0.97607421875,1.921539306640625,-5.30853271484375,0.306549072265625,1.0,1.0,4.0,4.0,1.0,100.0,event
09:12:19.038,0.23997441,0.0,0.0,0.63302284,-0.29098704,0.0,0.0,0.71412444,0.49986663,0.0,0.0,0.60420454,0.9896064,0.0,0.0,1.0913953,0.7149294,0.0,0.0,0.75778866,803.44324,765.56775,959.3773,811.50183,807.8755,-0.10296630859375,0.11724853515625,0.97607421875,1.921539306640625,-5.30853271484375,0.306549072265625,1.0,1.0,4.0,4.0,1.0,100.0,event
09:12:19.039,0.23997441,0.0,0.0,0.63302284,-0.29098704,0.0,0.0,0.71412444,0.49986663,0.0,0.0,0.60420454,0.9896064,0.0,0.0,1.0913953,0.7149294,0.0,0.0,0.75778866,771.2088,361.8315,518.97437,788.93774,999.2674,-0.10296630859375,0.11724853515625,0.97607421875,1.921539306640625,-5.30853271484375,0.306549072265625,1.0,1.0,4.0,4.0,1.0,100.0,event
09:12:19.040,0.23997441,0.0,0.0,0.63302284,-0.29098704,0.0,0.0,0.71412444,0.49986663,0.0,0.0,0.60420454,0.9896064,0.0,0.0,1.0913953,0.7149294,0.0,0.0,0.75778866,790.54944,215.9707,362.63736,790.14655,1009.34064,-0.10296630859375,0.11724853515625,0.97607421875,1.921539306640625,-5.30853271484375,0.306549072265625,1.0,1.0,4.0,4.0,1.0,100.0,event
09:12:19.041,0.23997441,0.0,0.0,0.63302284,-0.29098704,0.0,0.0,0.71412444,0.49986663,0.0,0.0,0.60420454,0.9896064,0.0,0.0,1.0913953,0.7149294,0.0,0.0,0.75778866,822.7839,795.38464,943.2601,792.96704,744.61536,-0.10296630859375,0.11724853515625,0.97607421875,1.921539306640625,-5.30853271484375,0.306549072265625,1.0,1.0,4.0,4.0,1.0,100.0,event
09:12:19.042,0.23997441,0.0,0.0,0.63302284,-0.29098704,0.0,0.0,0.71412444,0.49986663,0.0,0.0,0.60420454,0.9896064,0.0,0.0,1.0913953,0.7149294,0.0,0.0,0.75778866,806.6667,686.1905,859.85345,780.4762,818.3516,-0.10296630859375,0.11724853515625,0.97607421875,1.921539306640625,-5.30853271484375,0.306549072265625,1.0,1.0,4.0,4.0,1.0,100.0,event
09:12:19.069,0.23997441,0.0,0.0,0.63302284,-0.29098704,0.0,0.0,0.71412444,0.49986663,0.0,0.0,0.60420454,0.9896064,0.0,0.0,1.0913953,0.7149294,0.0,0.0,0.75778866,782.49084,532.27106,785.31134,799.81683,933.1868,-0.1058349609375,0.1123046875,0.9722900390625,1.2860107421875,-3.835601806640625,0.201873779296875,1.0,1.0,4.0,4.0,1.0,100.0,event
09:12:19.069,0.23997441,0.0,0.0,0.63302284,-0.29098704,0.0,0.0,0.71412444,0.49986663,0.0,0.0,0.60420454,0.9896064,0.0,0.0,1.0913953,0.7149294,0.0,0.0,0.75778866,855.42126,776.04395,976.30035,834.87177,815.5311,-0.1058349609375,0.1123046875,0.9722900390625,1.2860107421875,-3.835601806640625,0.201873779296875,1.0,1.0,4.0,4.0,1.0,100.0,event
09:12:19.070,0.23997441,0.0,0.0,0.63302284,-0.29098704,0.0,0.0,0.71412444,0.49986663,0.0,0.0,0.60420454,0.9896064,0.0,0.0,1.0913953,0.7149294,0.0,0.0,0.75778866,832.0513,886.04395,1002.0879,796.1905,715.6044,-0.1058349609375,0.1123046875,0.9722900390625,1.2860107421875,-3.835601806640625,0.201873779296875,1.0,1.0,4.0,4.0,1.0,100.0,event
09:12:19.070,0.23997441,0.0,0.0,0.63302284,-0.29098704,0.0,0.0,0.71412444,0.49986663,0.0,0.0,0.60420454,0.9896064,0.0,0.0,1.0913953,0.7149294,0.0,0.0,0.75778866,795.38464,668.86444,817.9487,763.1502,781.685,-0.1058349609375,0.1123046875,0.9722900390625,1.2860107421875,-3.835601806640625,0.201873779296875,1.0,1.0,4.0,4.0,1.0,100.0,event
09:12:19.071,0.23997441,0.0,0.0,0.63302284,-0.29098704,0.0,0.0,0.71412444,0.49986663,0.0,0.0,0.60420454,0.9896064,0.0,0.0,1.0913953,0.7149294,0.0,0.0,0.75778866,785.7143,628.1685,811.9048,753.47986,817.9487,-0.1058349609375,0.1123046875,0.9722900390625,1.2860107421875,-3.835601806640625,0.201873779296875,1.0,1.0,4.0,4.0,1.0,100.0,event
09:12:19.072,0.23997441,0.0,0.0,0.63302284,-0.29098704,0.0,0.0,0.71412444,0.49986663,0.0,0.0,0.60420454,0.9896064,0.0,0.0,1.0913953,0.7149294,0.0,0.0,0.75778866,779.67035,700.696,873.5531,790.14655,841.7216,-0.1058349609375,0.1123046875,0.9722900390625,1.2860107421875,-3.835601806640625,0.201873779296875,1.0,1.0,4.0,4.0,1.0,100.0,event
09:12:19.072,0.23997441,0.0,0.0,0.63302284,-0.29098704,0.0,0.0,0.71412444,0.49986663,0.0,0.0,0.60420454,0.9896064,0.0,0.0,1.0913953,0.7149294,0.0,0.0,0.75778866,809.4872,622.52747,781.28204,830.0366,875.16486,-0.1058349609375,0.1123046875,0.9722900390625,1.2860107421875,-3.835601806640625,0.201873779296875,1.0,1.0,4.0,4.0,1.0,100.0,event
09:12:19.072,0.23997441,0.0,0.0,0.63302284,-0.29098704,0.0,0.0,0.71412444,0.49986663,0.0,0.0,0.60420454,0.9896064,0.0,0.0,1.0913953,0.7149294,0.0,0.0,0.75778866,800.2198,375.1282,540.7326,790.9524,960.58606,-0.1058349609375,0.1123046875,0.9722900390625,1.2860107421875,-3.835601806640625,0.201873779296875,1.0,1.0,4.0,4.0,1.0,100.0,event
09:12:19.073,0.23997441,0.0,0.0,0.63302284,-0.29098704,0.0,0.0,0.71412444,0.49986663,0.0,0.0,0.60420454,0.9896064,0.0,0.0,1.0913953,0.7149294,0.0,0.0,0.75778866,798.20514,97.509155,252.63736,773.6264,1003.69965,-0.1058349609375,0.1123046875,0.9722900390625,1.2860107421875,-3.835601806640625,0.201873779296875,1.0,1.0,4.0,4.0,1.0,100.0,event
09:12:19.074,0.23997441,0.0,0.0,0.63302284,-0.29098704,0.0,0.0,0.71412444,0.49986663,0.0,0.0,0.60420454,0.9896064,0.0,0.0,1.0913953,0.7149294,0.0,0.0,0.75778866,789.34064,1013.36993,1176.5568,785.7143,681.75824,-0.1058349609375,0.1123046875,0.9722900390625,1.2860107421875,-3.835601806640625,0.201873779296875,1.0,1.0,4.0,4.0,1.0,100.0,event
09:12:19.074,0.23997441,0.0,0.0,0.63302284,-0.29098704,0.0,0.0,0.71412444,0.49986663,0.0,0.0,0.60420454,0.9896064,0.0,0.0,1.0913953,0.7149294,0.0,0.0,0.75778866,780.07324,632.1978,781.685,764.7619,799.011,-0.1058349609375,0.1123046875,0.9722900390625,1.2860107421875,-3.835601806640625,0.201873779296875,1.0,1.0,4.0,4.0,1.0,100.0,event
09:12:19.075,0.23997441,0.0,0.0,0.63302284,-0.29098704,0.0,0.0,0.71412444,0.49986663,0.0,0.0,0.60420454,0.9896064,0.0,0.0,1.0913953,0.7149294,0.0,0.0,0.75778866,802.23444,738.5714,893.2967,799.011,752.674,-0.1058349609375,0.1123046875,0.9722900390625,1.2860107421875,-3.835601806640625,0.201873779296875,1.0,1.0,4.0,4.0,1.0,100.0,event
09:12:19.096,0.23997441,0.0,0.0,0.63302284,-0.29098704,0.0,0.0,0.71412444,0.49986663,0.0,0.0,0.60420454,0.9896064,0.0,0.0,1.0913953,0.7149294,0.0,0.0,0.75778866,802.23444,685.78754,821.5751,797.8022,789.7436,-0.1058349609375,0.1123046875,0.9722900390625,1.2860107421875,-3.835601806640625,0.201873779296875,1.0,1.0,4.0,4.0,1.0,100.0,event
09:12:19.097,0.23997441,0.0,0.0,0.63302284,-0.29098704,0.0,0.0,0.71412444,0.49986663,0.0,0.0,0.60420454,0.9896064,0.0,0.0,1.0913953,0.7149294,0.0,0.0,0.75778866,796.99634,791.3553,902.1612,784.90845,718.022,-0.1058349609375,0.1123046875,0.9722900390625,1.2860107421875,-3.835601806640625,0.201873779296875,1.0,1.0,4.0,4.0,1.0,100.0,event
09:12:19.098,0.23997441,0.0,0.0,0.63302284,-0.29098704,0.0,0.0,0.71412444,0.49986663,0.0,0.0,0.60420454,0.9896064,0.0,0.0,1.0913953,0.7149294,0.0,0.0,0.75778866,783.69965,645.4945,763.95605,766.77655,727.6923,-0.1058349609375,0.1123046875,0.9722900390625,1.2860107421875,-3.835601806640625,0.201873779296875,1.0,1.0,4.0,4.0,1.0,100.0,event
09:12:19.098,0.23997441,0.0,0.0,0.63302284,-0.29098704,0.0,0.0,0.71412444,0.49986663,0.0,0.0,0.60420454,0.9896064,0.0,0.0,1.0913953,0.7149294,0.0,0.0,0.75778866,810.293,431.13553,653.5531,807.8755,824.7985,-0.1058349609375,0.1123046875,0.9722900390625,1.2860107421875,-3.835601806640625,0.201873779296875,1.0,1.0,4.0,4.0,1.0,100.0,event
09:12:19.099,0.23997441,0.0,0.0,0.63302284,-0.29098704,0.0,0.0,0.71412444,0.49986663,0.0,0.0,0.60420454,0.9896064,0.0,0.0,1.0913953,0.7149294,0.0,0.0,0.75778866,806.6667,546.77655,762.3443,802.6374,811.0989,-0.1058349609375,0.1123046875,0.9722900390625,1.2860107421875,-3.835601806640625,0.201873779296875,1.0,1.0,4.0,4.0,1.0,100.0,event
09:12:19.099,0.23997441,0.0,0.0,0.63302284,-0.29098704,0.0,0.0,0.71412444,0.49986663,0.0,0.0,0.60420454,0.9896064,0.0,0.0,1.0913953,0.7149294,0.0,0.0,0.75778866,764.35895,563.2967,688.20514,768.3883,842.9304,-0.1058349609375,0.1123046875,0.9722900390625,1.2860107421875,-3.835601806640625,0.201873779296875,1.0,1.0,4.0,4.0,1.0,100.0,event
09:12:19.100,0.23997441,0.0,0.0,0.63302284,-0.29098704,0.0,0.0,0.71412444,0.49986663,0.0,0.0,0.60420454,0.9896064,0.0,0.0,1.0913953,0.7149294,0.0,0.0,0.75778866,778.46155,454.5055,597.5458,768.7912,861.8681,-0.1058349609375,0.1123046875,0.9722900390625,1.2860107421875,-3.835601806640625,0.201873779296875,1.0,1.0,4.0,4.0,1.0,100.0,event
09:12:19.100,0.23997441,0.0,0.0,0.63302284,-0.29098704,0.0,0.0,0.71412444,0.49986663,0.0,0.0,0.60420454,0.9896064,0.0,0.0,1.0913953,0.7149294,0.0,0.0,0.75778866,813.5165,200.25641,375.93405,784.10254,952.1245,-0.1058349609375,0.1123046875,0.9722900390625,1.2860107421875,-3.835601806640625,0.201873779296875,1.0,1.0,4.0,4.0,1.0,100.0,event
09:12:19.100,0.23997441,0.0,0.0,0.63302284,-0.29098704,0.0,0.0,0.71412444,0.49986663,0.0,0.0,0.60420454,0.9896064,0.0,0.0,1.0913953,0.7149294,0.0,0.0,0.75778866,810.293,328.7912,541.13556,801.02563,992.8205,-0.1058349609375,0.1123046875,0.9722900390625,1.2860107421875,-3.835601806640625,0.201873779296875,1.0,1.0,4.0,4.0,1.0,100.0,event
09:12:19.101,0.23997441,0.0,0.0,0.63302284,-0.29098704,0.0,0.0,0.71412444,0.49986663,0.0,0.0,0.60420454,0.9896064,0.0,0.0,1.0913953,0.7149294,0.0,0.0,0.75778866,827.2161,774.0293,900.9524,805.05493,689.011,-0.1058349609375,0.1123046875,0.9722900390625,1.2860107421875,-3.835601806640625,0.201873779296875,1.0,1.0,4.0,4.0,1.0,100.0,event
09:12:19.101,0.23997441,0.0,0.0,0.63302284,-0.29098704,0.0,0.0,0.71412444,0.49986663,0.0,0.0,0.60420454,0.9896064,0.0,0.0,1.0913953,0.7149294,0.0,0.0,0.75778866,817.9487,960.18317,1133.8462,818.3516,747.4359,-0.1058349609375,0.1123046875,0.9722900390625,1.2860107421875,-3.835601806640625,0.201873779296875,1.0,1.0,4.0,4.0,1.0,100.0,event
09:12:19.102,0.23997441,0.0,0.0,0.63302284,-0.29098704,0.0,0.0,0.71412444,0.49986663,0.0,0.0,0.60420454,0.9896064,0.0,0.0,1.0913953,0.7149294,0.0,0.0,0.75778866,789.34064,524.61536,662.01465,770.80585,744.61536,-0.1058349609375,0.1123046875,0.9722900390625,1.2860107421875,-3.835601806640625,0.201873779296875,1.0,1.0,4.0,4.0,1.0,100.0,event
09:12:19.165,0.23997441,0.0,0.0,0.63302284,-0.29098704,0.0,0.0,0.71412444,0.49986663,0.0,0.0,0.60420454,0.9896064,0.0,0.0,1.0913953,0.7149294,0.0,0.0,0.75778866,792.1612,737.3626,876.77655,771.6117,684.9817,-0.0985107421875,0.11309814453125,0.97259521484375,1.801910400390625,-4.29168701171875,0.19439697265625,1.0,1.0,4.0,4.0,1.0,100.0,event
09:12:19.166,0.23997441,0.0,0.0,0.63302284,-0.29098704,0.0,0.0,0.71412444,0.49986663,0.0,0.0,0.60420454,0.9896064,0.0,0.0,1.0913953,0.7149294,0.0,0.0,0.75778866,810.293,977.9121,1121.3553,794.17584,657.5824,-0.0985107421875,0.11309814453125,0.97259521484375,1.801910400390625,-4.29168701171875,0.19439697265625,1.0,1.0,4.0,4.0,1.0,100.0,event
09:12:19.171,0.23997441,0.0,0.0,0.63302284,-0.29098704,0.0,0.0,0.71412444,0.49986663,0.0,0.0,0.60420454,0.9896064,0.0,0.0,1.0913953,0.7149294,0.0,0.0,0.75778866,816.7399,812.71063,955.34796,822.7839,779.67035,-0.0985107421875,0.11309814453125,0.97259521484375,1.801910400390625,-4.29168701171875,0.19439697265625,1.0,1.0,4.0,4.0,1.0,100.0,event
09:12:19.171,0.23997441,0.0,0.0,0.63302284,-0.29098704,0.0,0.0,0.71412444,0.49986663,0.0,0.0,0.60420454,0.9896064,0.0,0.0,1.0913953,0.7149294,0.0,0.0,0.75778866,797.8022,580.6227,716.4103,802.6374,809.4872,-0.0985107421875,0.11309814453125,0.97259521484375,1.801910400390625,-4.29168701171875,0.19439697265625,1.0,1.0,4.0,4.0,1.0,100.0,event
09:12:19.172,0.23997441,0.0,0.0,0.63302284,-0.29098704,0.0,0.0,0.71412444,0.49986663,0.0,0.0,0.60420454,0.9896064,0.0,0.0,1.0913953,0.7149294,0.0,0.0,0.75778866,804.65204,691.02563,784.90845,790.54944,739.3773,-0.0985107421875,0.11309814453125,0.97259521484375,1.801910400390625,-4.29168701171875,0.19439697265625,1.0,1.0,4.0,4.0,1.0,100.0,event
09:12:19.172,0.23997441,0.0,0.0,0.63302284,-0.29098704,0.0,0.0,0.71412444,0.49986663,0.0,0.0,0.60420454,0.9896064,0.0,0.0,1.0913953,0.7149294,0.0,0.0,0.75778866,816.337,649.5238,757.9121,783.69965,798.60803,-0.0985107421875,0.11309814453125,0.97259521484375,1.801910400390625,-4.29168701171875,0.19439697265625,1.0,1.0,4.0,4.0,1.0,100.0,event
09:12:19.173,0.23997441,0.0,0.0,0.63302284,-0.29098704,0.0,0.0,0.71412444,0.49986663,0.0,0.0,0.60420454,0.9896064,0.0,0.0,1.0913953,0.7149294,0.0,0.0,0.75778866,800.6227,406.95972,610.4396,788.93774,921.50183,-0.0985107421875,0.11309814453125,0.97259521484375,1.801910400390625,-4.29168701171875,0.19439697265625,1.0,1.0,4.0,4.0,1.0,100.0,event
09:12:19.174,0.23997441,0.0,0.0,0.63302284,-0.29098704,0.0,0.0,0.71412444,0.49986663,0.0,0.0,0.60420454,0.9896064,0.0,0.0,1.0913953,0.7149294,0.0,0.0,0.75778866,815.12823,17.326008,184.54213,831.6484,1081.8682,-0.0985107421875,0.11309814453125,0.97259521484375,1.801910400390625,-4.29168701171875,0.19439697265625,1.0,1.0,4.0,4.0,1.0,100.0,event
09:12:19.175,0.23997441,0.0,0.0,0.63302284,-0.29098704,0.0,0.0,0.71412444,0.49986663,0.0,0.0,0.60420454,0.9896064,0.0,0.0,1.0913953,0.7149294,0.0,0.0,0.75778866,786.9231,309.45056,455.7143,803.0403,965.42126,-0.0985107421875,0.11309814453125,0.97259521484375,1.801910400390625,-4.29168701171875,0.19439697265625,1.0,1.0,4.0,4.0,1.0,100.0,event
09:12:19.176,0.23997441,0.0,0.0,0.63302284,-0.29098704,0.0,0.0,0.71412444,0.49986663,0.0,0.0,0.60420454,0.9896064,0.0,0.0,1.0913953,0.7149294,0.0,0.0,0.75778866,788.1319,846.55676,1001.28204,772.4176,757.50916,-0.0985107421875,0.11309814453125,0.97259521484375,1.801910400390625,-4.29168701171875,0.19439697265625,1.0,1.0,4.0,4.0,1.0,100.0,event
09:12:19.176,0.23997441,0.0,0.0,0.63302284,-0.29098704,0.0,0.0,0.71412444,0.49986663,0.0,0.0,0.60420454,0.9896064,0.0,0.0,1.0913953,0.7149294,0.0,0.0,0.75778866,809.89014,482.71063,681.75824,790.9524,815.5311,-0.0985107421875,0.11309814453125,0.97259521484375,1.801910400390625,-4.29168701171875,0.19439697265625,1.0,1.0,4.0,4.0,1.0,100.0,event
09:12:19.177,0.23997441,0.0,0.0,0.63302284,-0.29098704,0.0,0.0,0.71412444,0.49986663,0.0,0.0,0.60420454,0.9896064,0.0,0.0,1.0913953,0.7149294,0.0,0.0,0.75778866,817.9487,445.2381,706.7399,807.0696,818.7546,-0.0985107421875,0.11309814453125,0.97259521484375,1.801910400390625,-4.29168701171875,0.19439697265625,1.0,1.0,4.0,4.0,1.0,100.0,event
09:12:19.206,0.23997441,0.0,0.0,0.63302284,-0.29098704,0.0,0.0,0.71412444,0.49986663,0.0,0.0,0.60420454,0.9896064,0.0,0.0,1.0913953,0.7149294,0.0,0.0,0.75778866,801.4286,956.1539,1126.5934,804.65204,715.2015,-0.096435546875,0.1103515625,0.97467041015625,2.0037841796875,-3.42437744140625,0.186920166015625,1.0,1.0,4.0,4.0,1.0,100.0,event
09:12:19.207,0.23997441,0.0,0.0,0.63302284,-0.29098704,0.0,0.0,0.71412444,0.49986663,0.0,0.0,0.60420454,0.9896064,0.0,0.0,1.0913953,0.7149294,0.0,0.0,0.75778866,807.47253,882.8205,995.64105,815.12823,689.81683,-0.096435546875,0.1103515625,0.97467041015625,2.0037841796875,-3.42437744140625,0.186920166015625,1.0,1.0,4.0,4.0,1.0,100.0,event
09:12:19.208,0.23997441,0.0,0.0,0.63302284,-0.29098704,0.0,0.0,0.71412444,0.49986663,0.0,0.0,0.60420454,0.9896064,0.0,0.0,1.0913953,0.7149294,0.0,0.0,0.75778866,831.6484,531.4652,655.56775,811.0989,695.05493,-0.096435546875,0.1103515625,0.97467041015625,2.0037841796875,-3.42437744140625,0.186920166015625,1.0,1.0,4.0,4.0,1.0,100.0,event
09:12:19.208,0.23997441,0.0,0.0,0.63302284,-0.29098704,0.0,0.0,0.71412444,0.49986663,0.0,0.0,0.60420454,0.9896064,0.0,0.0,1.0913953,0.7149294,0.0,0.0,0.75778866,807.47253,595.5311,741.79486,769.19415,691.8315,-0.096435546875,0.1103515625,0.97467041015625,2.0037841796875,-3.42437744140625,0.186920166015625,1.0,1.0,4.0,4.0,1.0,100.0,event
09:12:19.208,0.23997441,0.0,0.0,0.63302284,-0.29098704,0.0,0.0,0.71412444,0.49986663,0.0,0.0,0.60420454,0.9896064,0.0,0.0,1.0913953,0.7149294,0.0,0.0,0.75778866,793.7729,901.3553,1026.6666,778.0586,741.79486,-0.096435546875,0.1103515625,0.97467041015625,2.0037841796875,-3.42437744140625,0.186920166015625,1.0,1.0,4.0,4.0,1.0,100.0,event
09:12:19.209,0.23997441,0.0,0.0,0.63302284,-0.29098704,0.0,0.0,0.71412444,0.49986663,0.0,0.0,0.60420454,0.9896064,0.0,0.0,1.0913953,0.7149294,0.0,0.0,0.75778866,801.4286,806.6667,970.65936,829.2308,871.13556,-0.096435546875,0.1103515625,0.97467041015625,2.0037841796875,-3.42437744140625,0.186920166015625,1.0,1.0,4.0,4.0,1.0,100.0,event
09:12:19.209,0.23997441,0.0,0.0,0.63302284,-0.29098704,0.0,0.0,0.71412444,0.49986663,0.0,0.0,0.60420454,0.9896064,0.0,0.0,1.0913953,0.7149294,0.0,0.0,0.75778866,807.0696,277.61905,378.75458,833.663,1058.9011,-0.096435546875,0.1103515625,0.97467041015625,2.0037841796875,-3.42437744140625,0.186920166015625,1.0,1.0,4.0,4.0,1.0,100.0,event
09:12:19.210,0.23997441,0.0,0.0,0.63302284,-0.29098704,0.0,0.0,0.71412444,0.49986663,0.0,0.0,0.60420454,0.9896064,0.0,0.0,1.0913953,0.7149294,0.0,0.0,0.75778866,801.8315,209.12088,249.81685,798.60803,1033.9194,-0.096435546875,0.1103515625,0.97467041015625,2.0037841796875,-3.42437744140625,0.186920166015625,1.0,1.0,4.0,4.0,1.0,100.0,event
09:12:19.210,0.23997441,0.0,0.0,0.63302284,-0.29098704,0.0,0.0,0.71412444,0.49986663,0.0,0.0,0.60420454,0.9896064,0.0,0.0,1.0913953,0.7149294,0.0,0.0,0.75778866,805.8608,633.4066,769.59705,784.10254,859.45056,-0.096435546875,0.1103515625,0.97467041015625,2.0037841796875,-3.42437744140625,0.186920166015625,1.0,1.0,4.0,4.0,1.0,100.0,event
09:12:19.210,0.23997441,0.0,0.0,0.63302284,-0.29098704,0.0,0.0,0.71412444,0.49986663,0.0,0.0,0.60420454,0.9896064,0.0,0.0,1.0913953,0.7149294,0.0,0.0,0.75778866,798.60803,724.4689,892.8938,783.2967,837.6923,-0.096435546875,0.1103515625,0.97467041015625,2.0037841796875,-3.42437744140625,0.186920166015625,1.0,1.0,4.0,4.0,1.0,100.0,event
09:12:19.211,0.23997441,0.0,0.0,0.63302284,-0.29098704,0.0,0.0,0.71412444,0.49986663,0.0,0.0,0.60420454,0.9896064,0.0,0.0,1.0913953,0.7149294,0.0,0.0,0.75778866,817.9487,765.9707,926.337,824.3956,855.42126,-0.096435546875,0.1103515625,0.97467041015625,2.0037841796875,-3.42437744140625,0.186920166015625,1.0,1.0,4.0,4.0,1.0,100.0,event
09:12:19.211,0.23997441,0.0,0.0,0.63302284,-0.29098704,0.0,0.0,0.71412444,0.49986663,0.0,0.0,0.60420454,0.9896064,0.0,0.0,1.0913953,0.7149294,0.0,0.0,0.75778866,799.011,641.4652,848.5714,803.0403,868.71796,-0.096435546875,0.1103515625,0.97467041015625,2.0037841796875,-3.42437744140625,0.186920166015625,1.0,1.0,4.0,4.0,1.0,100.0,event
09:12:19.267,0.23997441,0.0,0.0,0.63302284,-0.29098704,0.0,0.0,0.71412444,0.49986663,0.0,0.0,0.60420454,0.9896064,0.0,0.0,1.0913953,0.7149294,0.0,0.0,0.75778866,800.6227,907.8022,971.4652,795.78754,771.6117,-0.091552734375,0.11346435546875,0.98199462890625,1.906585693359375,-2.071075439453125,0.785064697265625,1.0,1.0,4.0,4.0,1.0,100.0,event
09:12:19.268,0.23997441,0.0,0.0,0.63302284,-0.29098704,0.0,0.0,0.71412444,0.49986663,0.0,0.0,0.60420454,0.9896064,0.0,0.0,1.0913953,0.7149294,0.0,0.0,0.75778866,790.9524,655.9707,739.7802,771.2088,759.12085,-0.091552734375,0.11346435546875,0.98199462890625,1.906585693359375,-2.071075439453125,0.785064697265625,1.0,1.0,4.0,4.0,1.0,100.0,event
09:12:19.268,0.23997441,0.0,0.0,0.63302284,-0.29098704,0.0,0.0,0.71412444,0.49986663,0.0,0.0,0.60420454,0.9896064,0.0,0.0,1.0913953,0.7149294,0.0,0.0,0.75778866,804.65204,639.85345,761.13556,782.8938,793.36993,-0.091552734375,0.11346435546875,0.98199462890625,1.906585693359375,-2.071075439453125,0.785064697265625,1.0,1.0,4.0,4.0,1.0,100.0,event
09:12:19.269,0.23997441,0.0,0.0,0.63302284,-0.29098704,0.0,0.0,0.71412444,0.49986663,0.0,0.0,0.60420454,0.9896064,0.0,0.0,1.0913953,0.7149294,0.0,0.0,0.75778866,818.7546,923.91943,996.8498,832.8571,769.19415,-0.091552734375,0.11346435546875,0.98199462890625,1.906585693359375,-2.071075439453125,0.785064697265625,1.0,1.0,4.0,4.0,1.0,100.0,event
09:12:19.271,0.23997441,0.0,0.0,0.63302284,-0.29098704,0.0,0.0,0.71412444,0.49986663,0.0,0.0,0.60420454,0.9896064,0.0,0.0,1.0913953,0.7149294,0.0,0.0,0.75778866,805.05493,951.31866,1000.4762,840.9158,753.8828,-0.091552734375,0.11346435546875,0.98199462890625,1.906585693359375,-2.071075439453125,0.785064697265625,1.0,1.0,4.0,4.0,1.0,100.0,event
09:12:19.272,0.23997441,0.0,0.0,0.63302284,-0.29098704,0.0,0.0,0.71412444,0.49986663,0.0,0.0,0.60420454,0.9896064,0.0,0.0,1.0913953,0.7149294,0.0,0.0,0.75778866,787.72894,425.89743,489.96338,801.8315,871.9414,-0.091552734375,0.11346435546875,0.98199462890625,1.906585693359375,-2.071075439453125,0.785064697265625,1.0,1.0,4.0,4.0,1.0,100.0,event
09:12:19.272,0.23997441,0.0,0.0,0.63302284,-0.29098704,0.0,0.0,0.71412444,0.49986663,0.0,0.0,0.60420454,0.9896064,0.0,0.0,1.0913953,0.7149294,0.0,0.0,0.75778866,792.5641,87.4359,163.99268,779.2674,991.6117,-0.091552734375,0.11346435546875,0.98199462890625,1.906585693359375,-2.071075439453125,0.785064697265625,1.0,1.0,4.0,4.0,1.0,100.0,event
09:12:19.272,0.23997441,0.0,0.0,0.63302284,-0.29098704,0.0,0.0,0.71412444,0.49986663,0.0,0.0,0.60420454,0.9896064,0.0,0.0,1.0913953,0.7149294,0.0,0.0,0.75778866,782.8938,604.3956,716.0073,768.3883,838.49817,-0.091552734375,0.11346435546875,0.98199462890625,1.906585693359375,-2.071075439453125,0.785064697265625,1.0,1.0,4.0,4.0,1.0,100.0,event
09:12:19.273,0.23997441,0.0,0.0,0.63302284,-0.29098704,0.0,0.0,0.71412444,0.49986663,0.0,0.0,0.60420454,0.9896064,0.0,0.0,1.0913953,0.7149294,0.0,0.0,0.75778866,807.8755,1044.3956,1117.326,805.05493,735.34796,-0.091552734375,0.11346435546875,0.98199462890625,1.906585693359375,-2.071075439453125,0.785064697265625,1.0,1.0,4.0,4.0,1.0,100.0,event
09:12:19.273,0.23997441,0.0,0.0,0.63302284,-0.29098704,0.0,0.0,0.71412444,0.49986663,0.0,0.0,0.60420454,0.9896064,0.0,0.0,1.0913953,0.7149294,0.0,0.0,0.75778866,810.696,652.3443,773.22345,832.8571,931.5751,-0.091552734375,0.11346435546875,0.98199462890625,1.906585693359375,-2.071075439453125,0.785064697265625,1.0,1.0,4.0,4.0,1.0,100.0,event
09:12:19.274,0.23997441,0.0,0.0,0.63302284,-0.29098704,0.0,0.0,0.71412444,0.49986663,0.0,0.0,0.60420454,0.9896064,0.0,0.0,1.0913953,0.7149294,0.0,0.0,0.75778866,809.4872,360.2198,481.90475,821.1722,925.5311,-0.091552734375,0.11346435546875,0.98199462890625,1.906585693359375,-2.071075439453125,0.785064697265625,1.0,1.0,4.0,4.0,1.0,100.0,event
09:12:19.274,0.23997441,0.0,0.0,0.63302284,-0.29098704,0.0,0.0,0.71412444,0.49986663,0.0,0.0,0.60420454,0.9896064,0.0,0.0,1.0913953,0.7149294,0.0,0.0,0.75778866,808.68134,529.45056,577.8022,795.78754,746.2271,-0.091552734375,0.11346435546875,0.98199462890625,1.906585693359375,-2.071075439453125,0.785064697265625,1.0,1.0,4.0,4.0,1.0,100.0,event
09:12:19.297,0.23997441,0.0,0.0,0.63302284,-0.29098704,0.0,0.0,0.71412444,0.49986663,0.0,0.0,0.60420454,0.9896064,0.0,0.0,1.0913953,0.7149294,0.0,0.0,0.75778866,776.04395,644.2857,724.4689,774.0293,757.9121,-0.09814453125,0.10748291015625,0.97540283203125,2.28790283203125,-0.575714111328125,0.3887939453125,1.0,1.0,4.0,4.0,1.0,100.0,event
09:12:19.298,0.23997441,0.0,0.0,0.63302284,-0.29098704,0.0,0.0,0.71412444,0.49986663,0.0,0.0,0.60420454,0.9896064,0.0,0.0,1.0913953,0.7149294,0.0,0.0,0.75778866,797.8022,540.7326,709.9634,802.6374,831.6484,-0.09814453125,0.10748291015625,0.97540283203125,2.28790283203125,-0.575714111328125,0.3887939453125,1.0,1.0,4.0,4.0,1.0,100.0,event
09:12:19.298,0.23997441,0.0,0.0,0.63302284,-0.29098704,0.0,0.0,0.71412444,0.49986663,0.0,0.0,0.60420454,0.9896064,0.0,0.0,1.0913953,0.7149294,0.0,0.0,0.75778866,820.7692,511.72162,689.011,840.5128,856.63007,-0.09814453125,0.10748291015625,0.97540283203125,2.28790283203125,-0.575714111328125,0.3887939453125,1.0,1.0,4.0,4.0,1.0,100.0,event
09:12:19.298,0.23997441,0.0,0.0,0.63302284,-0.29098704,0.0,0.0,0.71412444,0.49986663,0.0,0.0,0.60420454,0.9896064,0.0,0.0,1.0913953,0.7149294,0.0,0.0,0.75778866,813.91943,790.14655,851.79486,826.8132,750.65936,-0.09814453125,0.10748291015625,0.97540283203125,2.28790283203125,-0.575714111328125,0.3887939453125,1.0,1.0,4.0,4.0,1.0,100.0,event
09:12:19.299,0.23997441,0.0,0.0,0.63302284,-0.29098704,0.0,0.0,0.71412444,0.49986663,0.0,0.0,0.60420454,0.9896064,0.0,0.0,1.0913953,0.7149294,0.0,0.0,0.75778866,806.6667,699.89014,729.304,784.5055,699.4872,-0.09814453125,0.10748291015625,0.97540283203125,2.28790283203125,-0.575714111328125,0.3887939453125,1.0,1.0,4.0,4.0,1.0,100.0,event
09:12:19.299,0.23997441,0.0,0.0,0.63302284,-0.29098704,0.0,0.0,0.71412444,0.49986663,0.0,0.0,0.60420454,0.9896064,0.0,0.0,1.0913953,0.7149294,0.0,0.0,0.75778866,800.2198,456.92307,560.4762,772.8205,804.2491,-0.09814453125,0.10748291015625,0.97540283203125,2.28790283203125,-0.575714111328125,0.3887939453125,1.0,1.0,4.0,4.0,1.0,100.0,event
09:12:19.300,0.23997441,0.0,0.0,0.63302284,-0.29098704,0.0,0.0,0.71412444,0.49986663,0.0,0.0,0.60420454,0.9896064,0.0,0.0,1.0913953,0.7149294,0.0,0.0,0.75778866,807.0696,420.65933,566.1172,792.5641,866.30035,-0.09814453125,0.10748291015625,0.97540283203125,2.28790283203125,-0.575714111328125,0.3887939453125,1.0,1.0,4.0,4.0,1.0,100.0,event
09:12:19.300,0.23997441,0.0,0.0,0.63302284,-0.29098704,0.0,0.0,0.71412444,0.49986663,0.0,0.0,0.60420454,0.9896064,0.0,0.0,1.0913953,0.7149294,0.0,0.0,0.75778866,817.9487,748.24176,834.87177,824.3956,749.85345,-0.09814453125,0.10748291015625,0.97540283203125,2.28790283203125,-0.575714111328125,0.3887939453125,1.0,1.0,4.0,4.0,1.0,100.0,event
09:12:19.301,0.23997441,0.0,0.0,0.63302284,-0.29098704,0.0,0.0,0.71412444,0.49986663,0.0,0.0,0.60420454,0.9896064,0.0,0.0,1.0913953,0.7149294,0.0,0.0,0.75778866,808.2784,765.9707,840.10986,817.5458,733.3333,-0.09814453125,0.10748291015625,0.97540283203125,2.28790283203125,-0.575714111328125,0.3887939453125,1.0,1.0,4.0,4.0,1.0,100.0,event
09:12:19.301,0.23997441,0.0,0.0,0.63302284,-0.29098704,0.0,0.0,0.71412444,0.49986663,0.0,0.0,0.60420454,0.9896064,0.0,0.0,1.0913953,0.7149294,0.0,0.0,0.75778866,793.7729,219.59708,291.72162,783.2967,890.4762,-0.09814453125,0.10748291015625,0.97540283203125,2.28790283203125,-0.575714111328125,0.3887939453125,1.0,1.0,4.0,4.0,1.0,100.0,event
09:12:19.302,0.23997441,0.0,0.0,0.63302284,-0.29098704,0.0,0.0,0.71412444,0.49986663,0.0,0.0,0.60420454,0.9896064,0.0,0.0,1.0913953,0.7149294,0.0,0.0,0.75778866,781.685,334.83517,406.95972,769.59705,827.619,-0.09814453125,0.10748291015625,0.97540283203125,2.28790283203125,-0.575714111328125,0.3887939453125,1.0,1.0,4.0,4.0,1.0,100.0,event
09:12:19.302,0.23997441,0.0,0.0,0.63302284,-0.29098704,0.0,0.0,0.71412444,0.49986663,0.0,0.0,0.60420454,0.9896064,0.0,0.0,1.0913953,0.7149294,0.0,0.0,0.75778866,800.2198,952.1245,1039.5604,791.3553,716.8132,-0.09814453125,0.10748291015625,0.97540283203125,2.28790283203125,-0.575714111328125,0.3887939453125,1.0,1.0,4.0,4.0,1.0,100.0,event
09:12:19.365,0.23997441,0.0,0.0,0.63302284,-0.29098704,0.0,0.0,0.71412444,0.49986663,0.0,0.0,0.60420454,0.9896064,0.0,0.0,1.0913953,0.7149294,0.0,0.0,0.75778866,824.3956,841.7216,923.5165,829.6337,824.7985,-0.09814453125,0.10748291015625,0.97540283203125,2.28790283203125,-0.575714111328125,0.3887939453125,1.0,1.0,4.0,4.0,1.0,100.0,event
09:12:19.366,0.23997441,0.0,0.0,0.63302284,-0.29098704,0.0,0.0,0.71412444,0.49986663,0.0,0.0,0.60420454,0.9896064,0.0,0.0,1.0913953,0.7149294,0.0,0.0,0.75778866,816.7399,614.87177,678.93774,820.7692,853.8095,-0.09814453125,0.10748291015625,0.97540283203125,2.28790283203125,-0.575714111328125,0.3887939453125,1.0,1.0,4.0,4.0,1.0,100.0,event
09:12:19.367,0.23997441,0.0,0.0,0.63302284,-0.29098704,0.0,0.0,0.71412444,0.49986663,0.0,0.0,0.60420454,0.9896064,0.0,0.0,1.0913953,0.7149294,0.0,0.0,0.75778866,801.02563,572.96704,616.8865,787.326,847.76556,-0.09814453125,0.10748291015625,0.97540283203125,2.28790283203125,-0.575714111328125,0.3887939453125,1.0,1.0,4.0,4.0,1.0,100.0,event
09:12:19.367,0.23997441,0.0,0.0,0.63302284,-0.29098704,0.0,0.0,0.71412444,0.49986663,0.0,0.0,0.60420454,0.9896064,0.0,0.0,1.0913953,0.7149294,0.0,0.0,0.75778866,794.17584,629.7802,665.2381,757.50916,767.1795,-0.09814453125,0.10748291015625,0.97540283203125,2.28790283203125,-0.575714111328125,0.3887939453125,1.0,1.0,4.0,4.0,1.0,100.0,event
09:12:19.368,0.23997441,0.0,0.0,0.63302284,-0.29098704,0.0,0.0,0.71412444,0.49986663,0.0,0.0,0.60420454,0.9896064,0.0,0.0,1.0913953,0.7149294,0.0,0.0,0.75778866,808.2784,627.76556,703.5165,766.3736,786.52014,-0.09814453125,0.10748291015625,0.97540283203125,2.28790283203125,-0.575714111328125,0.3887939453125,1.0,1.0,4.0,4.0,1.0,100.0,event
09:12:19.368,0.23997441,0.0,0.0,0.63302284,-0.29098704,0.0,0.0,0.71412444,0.49986663,0.0,0.0,0.60420454,0.9896064,0.0,0.0,1.0913953,0.7149294,0.0,0.0,0.75778866,818.3516,225.64102,373.11356,813.5165,943.2601,-0.09814453125,0.10748291015625,0.97540283203125,2.28790283203125,-0.575714111328125,0.3887939453125,1.0,1.0,4.0,4.0,1.0,100.0,event
09:12:19.372,0.23997441,0.0,0.0,0.63302284,-0.29098704,0.0,0.0,0.71412444,0.49986663,0.0,0.0,0.60420454,0.9896064,0.0,0.0,1.0913953,0.7149294,0.0,0.0,0.75778866,806.6667,252.23444,348.93774,807.0696,881.2088,-0.09814453125,0.10748291015625,0.97540283203125,2.28790283203125,-0.575714111328125,0.3887939453125,1.0,1.0,4.0,4.0,1.0,100.0,event
09:12:19.373,0.23997441,0.0,0.0,0.63302284,-0.29098704,0.0,0.0,0.71412444,0.49986663,0.0,0.0,0.60420454,0.9896064,0.0,0.0,1.0913953,0.7149294,0.0,0.0,0.75778866,800.6227,633.8095,654.7619,770.0,757.9121,-0.09814453125,0.10748291015625,0.97540283203125,2.28790283203125,-0.575714111328125,0.3887939453125,1.0,1.0,4.0,4.0,1.0,100.0,event
09:12:19.373,0.23997441,0.0,0.0,0.63302284,-0.29098704,0.0,0.0,0.71412444,0.49986663,0.0,0.0,0.60420454,0.9896064,0.0,0.0,1.0913953,0.7149294,0.0,0.0,0.75778866,784.10254,478.27838,576.99634,762.74725,837.6923,-0.09814453125,0.10748291015625,0.97540283203125,2.28790283203125,-0.575714111328125,0.3887939453125,1.0,1.0,4.0,4.0,1.0,100.0,event
09:12:19.374,0.23997441,0.0,0.0,0.63302284,-0.29098704,0.0,0.0,0.71412444,0.49986663,0.0,0.0,0.60420454,0.9896064,0.0,0.0,1.0913953,0.7149294,0.0,0.0,0.75778866,799.81683,207.50916,387.61905,788.5348,971.4652,-0.09814453125,0.10748291015625,0.97540283203125,2.28790283203125,-0.575714111328125,0.3887939453125,1.0,1.0,4.0,4.0,1.0,100.0,event
09:12:19.375,0.23997441,0.0,0.0,0.63302284,-0.29098704,0.0,0.0,0.71412444,0.49986663,0.0,0.0,0.60420454,0.9896064,0.0,0.0,1.0913953,0.7149294,0.0,0.0,0.75778866,828.022,795.78754,903.36993,812.3077,830.84247,-0.09814453125,0.10748291015625,0.97540283203125,2.28790283203125,-0.575714111328125,0.3887939453125,1.0,1.0,4.0,4.0,1.0,100.0,event
09:12:19.375,0.23997441,0.0,0.0,0.63302284,-0.29098704,0.0,0.0,0.71412444,0.49986663,0.0,0.0,0.60420454,0.9896064,0.0,0.0,1.0913953,0.7149294,0.0,0.0,0.75778866,807.47253,929.15753,967.8388,809.89014,789.34064,-0.09814453125,0.10748291015625,0.97540283203125,2.28790283203125,-0.575714111328125,0.3887939453125,1.0,1.0,4.0,4.0,1.0,100.0,event
09:12:19.402,0.23997441,0.0,0.0,0.63302284,-0.29098704,0.0,0.0,0.71412444,0.49986663,0.0,0.0,0.60420454,0.9896064,0.0,0.0,1.0913953,0.7149294,0.0,0.0,0.75778866,785.7143,562.0879,584.65204,778.86444,801.02563,-0.1005859375,0.11248779296875,0.9698486328125,3.51409912109375,0.22430419921875,1.375732421875,1.0,1.0,4.0,4.0,1.0,100.0,event
09:12:19.403,0.23997441,0.0,0.0,0.63302284,-0.29098704,0.0,0.0,0.71412444,0.49986663,0.0,0.0,0.60420454,0.9896064,0.0,0.0,1.0913953,0.7149294,0.0,0.0,0.75778866,783.69965,505.67764,562.49084,753.0769,775.2381,-0.1005859375,0.11248779296875,0.9698486328125,3.51409912109375,0.22430419921875,1.375732421875,1.0,1.0,4.0,4.0,1.0,100.0,event
09:12:19.404,0.23997441,0.0,0.0,0.63302284,-0.29098704,0.0,0.0,0.71412444,0.49986663,0.0,0.0,0.60420454,0.9896064,0.0,0.0,1.0913953,0.7149294,0.0,0.0,0.75778866,807.0696,895.31134,908.60803,792.96704,723.663,-0.1005859375,0.11248779296875,0.9698486328125,3.51409912109375,0.22430419921875,1.375732421875,1.0,1.0,4.0,4.0,1.0,100.0,event
09:12:19.404,0.23997441,0.0,0.0,0.63302284,-0.29098704,0.0,0.0,0.71412444,0.49986663,0.0,0.0,0.60420454,0.9896064,0.0,0.0,1.0913953,0.7149294,0.0,0.0,0.75778866,790.54944,781.28204,832.8571,764.7619,736.55676,-0.1005859375,0.11248779296875,0.9698486328125,3.51409912109375,0.22430419921875,1.375732421875,1.0,1.0,4.0,4.0,1.0,100.0,event
09:12:19.405,0.23997441,0.0,0.0,0.63302284,-0.29098704,0.0,0.0,0.71412444,0.49986663,0.0,0.0,0.60420454,0.9896064,0.0,0.0,1.0913953,0.7149294,0.0,0.0,0.75778866,820.7692,577.3993,603.1868,813.91943,798.60803,-0.1005859375,0.11248779296875,0.9698486328125,3.51409912109375,0.22430419921875,1.375732421875,1.0,1.0,4.0,4.0,1.0,100.0,event
09:12:19.405,0.23997441,0.0,0.0,0.63302284,-0.29098704,0.0,0.0,0.71412444,0.49986663,0.0,0.0,0.60420454,0.9896064,0.0,0.0,1.0913953,0.7149294,0.0,0.0,0.75778866,803.8461,311.06226,356.1905,799.41394,812.71063,-0.1005859375,0.11248779296875,0.9698486328125,3.51409912109375,0.22430419921875,1.375732421875,1.0,1.0,4.0,4.0,1.0,100.0,event
09:12:19.406,0.23997441,0.0,0.0,0.63302284,-0.29098704,0.0,0.0,0.71412444,0.49986663,0.0,0.0,0.60420454,0.9896064,0.0,0.0,1.0913953,0.7149294,0.0,0.0,0.75778866,786.9231,367.87546,401.3187,766.3736,790.14655,-0.1005859375,0.11248779296875,0.9698486328125,3.51409912109375,0.22430419921875,1.375732421875,1.0,1.0,4.0,4.0,1.0,100.0,event
09:12:19.406,0.23997441,0.0,0.0,0.63302284,-0.29098704,0.0,0.0,0.71412444,0.49986663,0.0,0.0,0.60420454,0.9896064,0.0,0.0,1.0913953,0.7149294,0.0,0.0,0.75778866,794.57874,473.84616,543.95605,765.16486,761.53845,-0.1005859375,0.11248779296875,0.9698486328125,3.51409912109375,0.22430419921875,1.375732421875,1.0,1.0,4.0,4.0,1.0,100.0,event
09:12:19.407,0.23997441,0.0,0.0,0.63302284,-0.29098704,0.0,0.0,0.71412444,0.49986663,0.0,0.0,0.60420454,0.9896064,0.0,0.0,1.0913953,0.7149294,0.0,0.0,0.75778866,813.5165,201.86813,264.32236,808.2784,925.9341,-0.1005859375,0.11248779296875,0.9698486328125,3.51409912109375,0.22430419921875,1.375732421875,1.0,1.0,4.0,4.0,1.0,100.0,event
09:12:19.407,0.23997441,0.0,0.0,0.63302284,-0.29098704,0.0,0.0,0.71412444,0.49986663,0.0,0.0,0.60420454,0.9896064,0.0,0.0,1.0913953,0.7149294,0.0,0.0,0.75778866,811.0989,116.04395,133.36996,823.5897,1069.7803,-0.1005859375,0.11248779296875,0.9698486328125,3.51409912109375,0.22430419921875,1.375732421875,1.0,1.0,4.0,4.0,1.0,100.0,event
09:12:19.408,0.23997441,0.0,0.0,0.63302284,-0.29098704,0.0,0.0,0.71412444,0.49986663,0.0,0.0,0.60420454,0.9896064,0.0,0.0,1.0913953,0.7149294,0.0,0.0,0.75778866,801.02563,629.3773,653.1502,791.3553,804.2491,-0.1005859375,0.11248779296875,0.9698486328125,3.51409912109375,0.22430419921875,1.375732421875,1.0,1.0,4.0,4.0,1.0,100.0,event
09:12:19.408,0.23997441,0.0,0.0,0.63302284,-0.29098704,0.0,0.0,0.71412444,0.49986663,0.0,0.0,0.60420454,0.9896064,0.0,0.0,1.0913953,0.7149294,0.0,0.0,0.75778866,807.0696,670.07324,728.9011,764.7619,720.84247,-0.1005859375,0.11248779296875,0.9698486328125,3.51409912109375,0.22430419921875,1.375732421875,1.0,1.0,4.0,4.0,1.0,100.0,event
09:12:19.435,0.23997441,0.0,0.0,0.63302284,-0.29098704,0.0,0.0,0.71412444,0.49986663,0.0,0.0,0.60420454,0.9896064,0.0,0.0,1.0913953,0.7149294,0.0,0.0,0.75778866,804.2491,564.90845,668.46155,758.71796,730.5128,-0.11517333984375,0.1181640625,0.978759765625,4.074859619140625,2.549591064453125,3.566436767578125,1.0,1.0,4.0,4.0,1.0,100.0,event
09:12:19.436,0.23997441,0.0,0.0,0.63302284,-0.29098704,0.0,0.0,0.71412444,0.49986663,0.0,0.0,0.60420454,0.9896064,0.0,0.0,1.0913953,0.7149294,0.0,0.0,0.75778866,809.89014,853.00366,896.1172,805.8608,643.47986,-0.11517333984375,0.1181640625,0.978759765625,4.074859619140625,2.549591064453125,3.566436767578125,1.0,1.0,4.0,4.0,1.0,100.0,event
09:12:19.436,0.23997441,0.0,0.0,0.63302284,-0.29098704,0.0,0.0,0.71412444,0.49986663,0.0,0.0,0.60420454,0.9896064,0.0,0.0,1.0913953,0.7149294,0.0,0.0,0.75778866,794.17584,807.0696,897.326,789.7436,670.4762,-0.11517333984375,0.1181640625,0.978759765625,4.074859619140625,2.549591064453125,3.566436767578125,1.0,1.0,4.0,4.0,1.0,100.0,event
09:12:19.437,0.23997441,0.0,0.0,0.63302284,-0.29098704,0.0,0.0,0.71412444,0.49986663,0.0,0.0,0.60420454,0.9896064,0.0,0.0,1.0913953,0.7149294,0.0,0.0,0.75778866,814.3223,532.27106,556.4469,788.93774,706.7399,-0.11517333984375,0.1181640625,0.978759765625,4.074859619140625,2.549591064453125,3.566436767578125,1.0,1.0,4.0,4.0,1.0,100.0,event
09:12:19.437,0.23997441,0.0,0.0,0.63302284,-0.29098704,0.0,0.0,0.71412444,0.49986663,0.0,0.0,0.60420454,0.9896064,0.0,0.0,1.0913953,0.7149294,0.0,0.0,0.75778866,790.9524,423.07693,490.3663,761.13556,754.2857,-0.11517333984375,0.1181640625,0.978759765625,4.074859619140625,2.549591064453125,3.566436767578125,1.0,1.0,4.0,4.0,1.0,100.0,event
09:12:19.438,0.23997441,0.0,0.0,0.63302284,-0.29098704,0.0,0.0,0.71412444,0.49986663,0.0,0.0,0.60420454,0.9896064,0.0,0.0,1.0913953,0.7149294,0.0,0.0,0.75778866,779.67035,504.46887,606.8132,751.06226,780.07324,-0.11517333984375,0.1181640625,0.978759765625,4.074859619140625,2.549591064453125,3.566436767578125,1.0,1.0,4.0,4.0,1.0,100.0,event
09:12:19.438,0.23997441,0.0,0.0,0.63302284,-0.29098704,0.0,0.0,0.71412444,0.49986663,0.0,0.0,0.60420454,0.9896064,0.0,0.0,1.0913953,0.7149294,0.0,0.0,0.75778866,792.5641,500.8425,631.79486,770.80585,811.50183,-0.11517333984375,0.1181640625,0.978759765625,4.074859619140625,2.549591064453125,3.566436767578125,1.0,1.0,4.0,4.0,1.0,100.0,event
09:12:19.439,0.23997441,0.0,0.0,0.63302284,-0.29098704,0.0,0.0,0.71412444,0.49986663,0.0,0.0,0.60420454,0.9896064,0.0,0.0,1.0913953,0.7149294,0.0,0.0,0.75778866,807.47253,394.46887,535.4945,808.2784,874.35895,-0.11517333984375,0.1181640625,0.978759765625,4.074859619140625,2.549591064453125,3.566436767578125,1.0,1.0,4.0,4.0,1.0,100.0,event
09:12:19.442,0.23997441,0.0,0.0,0.63302284,-0.29098704,0.0,0.0,0.71412444,0.49986663,0.0,0.0,0.60420454,0.9896064,0.0,0.0,1.0913953,0.7149294,0.0,0.0,0.75778866,798.60803,6.4468865,83.40659,805.05493,1043.5897,-0.11517333984375,0.1181640625,0.978759765625,4.074859619140625,2.549591064453125,3.566436767578125,1.0,1.0,4.0,4.0,1.0,100.0,event
09:12:19.443,0.23997441,0.0,0.0,0.63302284,-0.29098704,0.0,0.0,0.71412444,0.49986663,0.0,0.0,0.60420454,0.9896064,0.0,0.0,1.0913953,0.7149294,0.0,0.0,0.75778866,791.3553,265.93405,352.96704,763.5531,874.7619,-0.11517333984375,0.1181640625,0.978759765625,4.074859619140625,2.549591064453125,3.566436767578125,1.0,1.0,4.0,4.0,1.0,100.0,event
09:12:19.443,0.23997441,0.0,0.0,0.63302284,-0.29098704,0.0,0.0,0.71412444,0.49986663,0.0,0.0,0.60420454,0.9896064,0.0,0.0,1.0913953,0.7149294,0.0,0.0,0.75778866,789.7436,800.2198,931.978,757.1062,599.9634,-0.11517333984375,0.1181640625,0.978759765625,4.074859619140625,2.549591064453125,3.566436767578125,1.0,1.0,4.0,4.0,1.0,100.0,event
09:12:19.444,0.23997441,0.0,0.0,0.63302284,-0.29098704,0.0,0.0,0.71412444,0.49986663,0.0,0.0,0.60420454,0.9896064,0.0,0.0,1.0913953,0.7149294,0.0,0.0,0.75778866,797.8022,505.67764,710.7692,776.8498,694.65204,-0.11517333984375,0.1181640625,0.978759765625,4.074859619140625,2.549591064453125,3.566436767578125,1.0,1.0,4.0,4.0,1.0,100.0,event
09:12:19.469,0.23997441,0.0,0.0,0.63302284,-0.29098704,0.0,0.0,0.71412444,0.49986663,0.0,0.0,0.60420454,0.9896064,0.0,0.0,1.0913953,0.7149294,0.0,0.0,0.75778866,815.5311,390.8425,608.8278,797.8022,760.7326,-0.1435546875,0.12286376953125,0.9737548828125,3.686065673828125,0.79254150390625,2.639312744140625,1.0,1.0,4.0,4.0,1.0,100.0,event
09:12:19.470,0.23997441,0.0,0.0,0.63302284,-0.29098704,0.0,0.0,0.71412444,0.49986663,0.0,0.0,0.60420454,0.9896064,0.0,0.0,1.0913953,0.7149294,0.0,0.0,0.75778866,811.0989,753.0769,859.85345,800.2198,660.0,-0.1435546875,0.12286376953125,0.9737548828125,3.686065673828125,0.79254150390625,2.639312744140625,1.0,1.0,4.0,4.0,1.0,100.0,event
09:12:19.471,0.23997441,0.0,0.0,0.63302284,-0.29098704,0.0,0.0,0.71412444,0.49986663,0.0,0.0,0.60420454,0.9896064,0.0,0.0,1.0913953,0.7149294,0.0,0.0,0.75778866,790.54944,655.9707,759.92676,744.61536,732.52747,-0.1435546875,0.12286376953125,0.9737548828125,3.686065673828125,0.79254150390625,2.639312744140625,1.0,1.0,4.0,4.0,1.0,100.0,event
09:12:19.471,0.23997441,0.0,0.0,0.63302284,-0.29098704,0.0,0.0,0.71412444,0.49986663,0.0,0.0,0.60420454,0.9896064,0.0,0.0,1.0913953,0.7149294,0.0,0.0,0.75778866,791.3553,749.45056,833.2601,763.1502,697.8755,-0.1435546875,0.12286376953125,0.9737548828125,3.686065673828125,0.79254150390625,2.639312744140625,1.0,1.0,4.0,4.0,1.0,100.0,event
09:12:19.472,0.23997441,0.0,0.0,0.63302284,-0.29098704,0.0,0.0,0.71412444,0.49986663,0.0,0.0,0.60420454,0.9896064,0.0,0.0,1.0913953,0.7149294,0.0,0.0,0.75778866,801.02563,724.4689,833.663,777.6557,713.1868,-0.1435546875,0.12286376953125,0.9737548828125,3.686065673828125,0.79254150390625,2.639312744140625,1.0,1.0,4.0,4.0,1.0,100.0,event
09:12:19.472,0.23997441,0.0,0.0,0.63302284,-0.29098704,0.0,0.0,0.71412444,0.49986663,0.0,0.0,0.60420454,0.9896064,0.0,0.0,1.0913953,0.7149294,0.0,0.0,0.75778866,796.99634,647.1062,728.9011,799.011,775.2381,-0.1435546875,0.12286376953125,0.9737548828125,3.686065673828125,0.79254150390625,2.639312744140625,1.0,1.0,4.0,4.0,1.0,100.0,event
09:12:19.473,0.23997441,0.0,0.0,0.63302284,-0.29098704,0.0,0.0,0.71412444,0.49986663,0.0,0.0,0.60420454,0.9896064,0.0,0.0,1.0913953,0.7149294,0.0,0.0,0.75778866,799.41394,459.7436,552.01465,791.75824,801.02563,-0.1435546875,0.12286376953125,0.9737548828125,3.686065673828125,0.79254150390625,2.639312744140625,1.0,1.0,4.0,4.0,1.0,100.0,event
09:12:19.473,0.23997441,0.0,0.0,0.63302284,-0.29098704,0.0,0.0,0.71412444,0.49986663,0.0,0.0,0.60420454,0.9896064,0.0,0.0,1.0913953,0.7149294,0.0,0.0,0.75778866,791.3553,161.17216,211.13553,774.83514,929.15753,-0.1435546875,0.12286376953125,0.9737548828125,3.686065673828125,0.79254150390625,2.639312744140625,1.0,1.0,4.0,4.0,1.0,100.0,event
09:12:19.474,0.23997441,0.0,0.0,0.63302284,-0.29098704,0.0,0.0,0.71412444,0.49986663,0.0,0.0,0.60420454,0.9896064,0.0,0.0,1.0913953,0.7149294,0.0,0.0,0.75778866,793.36993,233.2967,274.79852,771.6117,890.07324,-0.1435546875,0.12286376953125,0.9737548828125,3.686065673828125,0.79254150390625,2.639312744140625,1.0,1.0,4.0,4.0,1.0,100.0,event
09:12:19.474,0.23997441,0.0,0.0,0.63302284,-0.29098704,0.0,0.0,0.71412444,0.49986663,0.0,0.0,0.60420454,0.9896064,0.0,0.0,1.0913953,0.7149294,0.0,0.0,0.75778866,826.0073,849.3773,949.304,814.7253,660.0,-0.1435546875,0.12286376953125,0.9737548828125,3.686065673828125,0.79254150390625,2.639312744140625,1.0,1.0,4.0,4.0,1.0,100.0,event
09:12:19.476,0.23997441,0.0,0.0,0.63302284,-0.29098704,0.0,0.0,0.71412444,0.49986663,0.0,0.0,0.60420454,0.9896064,0.0,0.0,1.0913953,0.7149294,0.0,0.0,0.75778866,811.0989,903.36993,998.46155,845.7509,751.8681,-0.1435546875,0.12286376953125,0.9737548828125,3.686065673828125,0.79254150390625,2.639312744140625,1.0,1.0,4.0,4.0,1.0,100.0,event
09:12:19.477,0.23997441,0.0,0.0,0.63302284,-0.29098704,0.0,0.0,0.71412444,0.49986663,0.0,0.0,0.60420454,0.9896064,0.0,0.0,1.0913953,0.7149294,0.0,0.0,0.75778866,765.16486,585.05493,673.69965,801.8315,844.5421,-0.1435546875,0.12286376953125,0.9737548828125,3.686065673828125,0.79254150390625,2.639312744140625,1.0,1.0,4.0,4.0,1.0,100.0,event
09:12:19.527,0.23997441,0.0,0.0,0.63302284,-0.29098704,0.0,0.0,0.71412444,0.49986663,0.0,0.0,0.60420454,0.9896064,0.0,0.0,1.0913953,0.7149294,0.0,0.0,0.75778866,748.24176,502.85715,573.36993,748.6447,808.2784,-0.128173828125,0.12322998046875,0.97869873046875,1.83929443359375,-0.5682373046875,1.92901611328125,1.0,1.0,4.0,4.0,1.0,100.0,event
09:12:19.528,0.23997441,0.0,0.0,0.63302284,-0.29098704,0.0,0.0,0.71412444,0.49986663,0.0,0.0,0.60420454,0.9896064,0.0,0.0,1.0913953,0.7149294,0.0,0.0,0.75778866,758.315,742.1978,858.24176,737.76556,745.0183,-0.128173828125,0.12322998046875,0.97869873046875,1.83929443359375,-0.5682373046875,1.92901611328125,1.0,1.0,4.0,4.0,1.0,100.0,event
09:12:19.528,0.23997441,0.0,0.0,0.63302284,-0.29098704,0.0,0.0,0.71412444,0.49986663,0.0,0.0,0.60420454,0.9896064,0.0,0.0,1.0913953,0.7149294,0.0,0.0,0.75778866,741.79486,794.9817,857.03296,728.0952,698.2784,-0.128173828125,0.12322998046875,0.97869873046875,1.83929443359375,-0.5682373046875,1.92901611328125,1.0,1.0,4.0,4.0,1.0,100.0,event
09:12:19.529,0.23997441,0.0,0.0,0.63302284,-0.29098704,0.0,0.0,0.71412444,0.49986663,0.0,0.0,0.60420454,0.9896064,0.0,0.0,1.0913953,0.7149294,0.0,0.0,0.75778866,775.64105,431.9414,596.337,774.0293,821.5751,-0.128173828125,0.12322998046875,0.97869873046875,1.83929443359375,-0.5682373046875,1.92901611328125,1.0,1.0,4.0,4.0,1.0,100.0,event
09:12:19.529,0.23997441,0.0,0.0,0.63302284,-0.29098704,0.0,0.0,0.71412444,0.49986663,0.0,0.0,0.60420454,0.9896064,0.0,0.0,1.0913953,0.7149294,0.0,0.0,0.75778866,772.01465,640.65936,724.87177,776.04395,767.5824,-0.128173828125,0.12322998046875,0.97869873046875,1.83929443359375,-0.5682373046875,1.92901611328125,1.0,1.0,4.0,4.0,1.0,100.0,event
09:12:19.530,0.23997441,0.0,0.0,0.63302284,-0.29098704,0.0,0.0,0.71412444,0.49986663,0.0,0.0,0.60420454,0.9896064,0.0,0.0,1.0913953,0.7149294,0.0,0.0,0.75778866,766.77655,563.69965,622.52747,739.3773,740.58606,-0.128173828125,0.12322998046875,0.97869873046875,1.83929443359375,-0.5682373046875,1.92901611328125,1.0,1.0,4.0,4.0,1.0,100.0,event
09:12:19.530,0.23997441,0.0,0.0,0.63302284,-0.29098704,0.0,0.0,0.71412444,0.49986663,0.0,0.0,0.60420454,0.9896064,0.0,0.0,1.0913953,0.7149294,0.0,0.0,0.75778866,767.5824,237.72894,388.4249,718.022,873.1502,-0.128173828125,0.12322998046875,0.97869873046875,1.83929443359375,-0.5682373046875,1.92901611328125,1.0,1.0,4.0,4.0,1.0,100.0,event
09:12:19.531,0.23997441,0.0,0.0,0.63302284,-0.29098704,0.0,0.0,0.71412444,0.49986663,0.0,0.0,0.60420454,0.9896064,0.0,0.0,1.0913953,0.7149294,0.0,0.0,0.75778866,778.0586,116.849815,285.67764,734.5421,999.2674,-0.128173828125,0.12322998046875,0.97869873046875,1.83929443359375,-0.5682373046875,1.92901611328125,1.0,1.0,4.0,4.0,1.0,100.0,event
09:12:19.531,0.23997441,0.0,0.0,0.63302284,-0.29098704,0.0,0.0,0.71412444,0.49986663,0.0,0.0,0.60420454,0.9896064,0.0,0.0,1.0913953,0.7149294,0.0,0.0,0.75778866,788.93774,633.00366,766.77655,784.10254,834.0659,-0.128173828125,0.12322998046875,0.97869873046875,1.83929443359375,-0.5682373046875,1.92901611328125,1.0,1.0,4.0,4.0,1.0,100.0,event
09:12:19.531,0.23997441,0.0,0.0,0.63302284,-0.29098704,0.0,0.0,0.71412444,0.49986663,0.0,0.0,0.60420454,0.9896064,0.0,0.0,1.0913953,0.7149294,0.0,0.0,0.75778866,798.60803,904.57874,1000.07324,796.5934,729.707,-0.128173828125,0.12322998046875,0.97869873046875,1.83929443359375,-0.5682373046875,1.92901611328125,1.0,1.0,4.0,4.0,1.0,100.0,event
09:12:19.534,0.23997441,0.0,0.0,0.63302284,-0.29098704,0.0,0.0,0.71412444,0.49986663,0.0,0.0,0.60420454,0.9896064,0.0,0.0,1.0913953,0.7149294,0.0,0.0,0.75778866,795.38464,570.9524,682.96704,763.95605,776.04395,-0.128173828125,0.12322998046875,0.97869873046875,1.83929443359375,-0.5682373046875,1.92901611328125,1.0,1.0,4.0,4.0,1.0,100.0,event
09:12:19.535,0.23997441,0.0,0.0,0.63302284,-0.29098704,0.0,0.0,0.71412444,0.49986663,0.0,0.0,0.60420454,0.9896064,0.0,0.0,1.0913953,0.7149294,0.0,0.0,0.75778866,776.04395,570.9524,719.2308,745.42126,746.63007,-0.128173828125,0.12322998046875,0.97869873046875,1.83929443359375,-0.5682373046875,1.92901611328125,1.0,1.0,4.0,4.0,1.0,100.0,event
09:12:19.599,0.23997441,0.0,0.0,0.63302284,-0.29098704,0.0,0.0,0.71412444,0.49986663,0.0,0.0,0.60420454,0.9896064,0.0,0.0,1.0913953,0.7149294,0.0,0.0,0.75778866,770.0,877.98535,1000.87915,757.9121,736.9597,-0.128173828125,0.12322998046875,0.97869873046875,1.83929443359375,-0.5682373046875,1.92901611328125,1.0,1.0,4.0,4.0,1.0,100.0,event
09:12:19.600,0.23997441,0.0,0.0,0.63302284,-0.29098704,0.0,0.0,0.71412444,0.49986663,0.0,0.0,0.60420454,0.9896064,0.0,0.0,1.0913953,0.7149294,0.0,0.0,0.75778866,789.7436,959.7802,1075.4213,801.4286,793.36993,-0.128173828125,0.12322998046875,0.97869873046875,1.83929443359375,-0.5682373046875,1.92901611328125,1.0,1.0,4.0,4.0,1.0,100.0,event
09:12:19.601,0.23997441,0.0,0.0,0.63302284,-0.29098704,0.0,0.0,0.71412444,0.49986663,0.0,0.0,0.60420454,0.9896064,0.0,0.0,1.0913953,0.7149294,0.0,0.0,0.75778866,796.5934,619.304,749.45056,813.91943,774.43225,-0.128173828125,0.12322998046875,0.97869873046875,1.83929443359375,-0.5682373046875,1.92901611328125,1.0,1.0,4.0,4.0,1.0,100.0,event
09:12:19.602,0.23997441,0.0,0.0,0.63302284,-0.29098704,0.0,0.0,0.71412444,0.49986663,0.0,0.0,0.60420454,0.9896064,0.0,0.0,1.0913953,0.7149294,0.0,0.0,0.75778866,776.8498,572.96704,697.47253,756.7033,763.95605,-0.128173828125,0.12322998046875,0.97869873046875,1.83929443359375,-0.5682373046875,1.92901611328125,1.0,1.0,4.0,4.0,1.0,100.0,event
09:12:19.602,0.23997441,0.0,0.0,0.63302284,-0.29098704,0.0,0.0,0.71412444,0.49986663,0.0,0.0,0.60420454,0.9896064,0.0,0.0,1.0913953,0.7149294,0.0,0.0,0.75778866,784.10254,339.2674,485.53113,780.4762,772.4176,-0.128173828125,0.12322998046875,0.97869873046875,1.83929443359375,-0.5682373046875,1.92901611328125,1.0,1.0,4.0,4.0,1.0,100.0,event
09:12:19.603,0.23997441,0.0,0.0,0.63302284,-0.29098704,0.0,0.0,0.71412444,0.49986663,0.0,0.0,0.60420454,0.9896064,0.0,0.0,1.0913953,0.7149294,0.0,0.0,0.75778866,763.5531,625.7509,814.3223,763.95605,743.4066,-0.128173828125,0.12322998046875,0.97869873046875,1.83929443359375,-0.5682373046875,1.92901611328125,1.0,1.0,4.0,4.0,1.0,100.0,event
09:12:19.603,0.23997441,0.0,0.0,0.63302284,-0.29098704,0.0,0.0,0.71412444,0.49986663,0.0,0.0,0.60420454,0.9896064,0.0,0.0,1.0913953,0.7149294,0.0,0.0,0.75778866,785.7143,227.65567,394.46887,797.8022,998.86444,-0.128173828125,0.12322998046875,0.97869873046875,1.83929443359375,-0.5682373046875,1.92901611328125,1.0,1.0,4.0,4.0,1.0,100.0,event
09:12:19.604,0.23997441,0.0,0.0,0.63302284,-0.29098704,0.0,0.0,0.71412444,0.49986663,0.0,0.0,0.60420454,0.9896064,0.0,0.0,1.0913953,0.7149294,0.0,0.0,0.75778866,803.8461,38.27839,92.673996,826.0073,1123.773,-0.128173828125,0.12322998046875,0.97869873046875,1.83929443359375,-0.5682373046875,1.92901611328125,1.0,1.0,4.0,4.0,1.0,100.0,event
09:12:19.604,0.23997441,0.0,0.0,0.63302284,-0.29098704,0.0,0.0,0.71412444,0.49986663,0.0,0.0,0.60420454,0.9896064,0.0,0.0,1.0913953,0.7149294,0.0,0.0,0.75778866,777.25275,511.72162,654.7619,801.8315,812.3077,-0.128173828125,0.12322998046875,0.97869873046875,1.83929443359375,-0.5682373046875,1.92901611328125,1.0,1.0,4.0,4.0,1.0,100.0,event
09:12:19.605,0.23997441,0.0,0.0,0.63302284,-0.29098704,0.0,0.0,0.71412444,0.49986663,0.0,0.0,0.60420454,0.9896064,0.0,0.0,1.0913953,0.7149294,0.0,0.0,0.75778866,771.2088,710.7692,924.3223,755.4945,755.4945,-0.128173828125,0.12322998046875,0.97869873046875,1.83929443359375,-0.5682373046875,1.92901611328125,1.0,1.0,4.0,4.0,1.0,100.0,event
09:12:19.605,0.23997441,0.0,0.0,0.63302284,-0.29098704,0.0,0.0,0.71412444,0.49986663,0.0,0.0,0.60420454,0.9896064,0.0,0.0,1.0913953,0.7149294,0.0,0.0,0.75778866,780.4762,557.25275,821.978,749.0476,824.7985,-0.128173828125,0.12322998046875,0.97869873046875,1.83929443359375,-0.5682373046875,1.92901611328125,1.0,1.0,4.0,4.0,1.0,100.0,event
09:12:19.606,0.23997441,0.0,0.0,0.63302284,-0.29098704,0.0,0.0,0.71412444,0.49986663,0.0,0.0,0.60420454,0.9896064,0.0,0.0,1.0913953,0.7149294,0.0,0.0,0.75778866,772.8205,740.18317,993.22345,771.6117,742.6007,-0.128173828125,0.12322998046875,0.97869873046875,1.83929443359375,-0.5682373046875,1.92901611328125,1.0,1.0,4.0,4.0,1.0,100.0,event
09:12:19.631,0.23997441,0.0,0.0,0.63302284,-0.29098704,0.0,0.0,0.71412444,0.49986663,0.0,0.0,0.60420454,0.9896064,0.0,0.0,1.0913953,0.7149294,0.0,0.0,0.75778866,765.56775,890.4762,1075.0183,802.23444,760.32965,-0.13714599609375,0.11419677734375,0.96319580078125,0.97198486328125,-1.876678466796875,1.697235107421875,1.0,1.0,4.0,4.0,1.0,100.0,event
09:12:19.632,0.23997441,0.0,0.0,0.63302284,-0.29098704,0.0,0.0,0.71412444,0.49986663,0.0,0.0,0.60420454,0.9896064,0.0,0.0,1.0913953,0.7149294,0.0,0.0,0.75778866,773.22345,590.293,757.1062,786.52014,796.99634,-0.13714599609375,0.11419677734375,0.96319580078125,0.97198486328125,-1.876678466796875,1.697235107421875,1.0,1.0,4.0,4.0,1.0,100.0,event
09:12:19.633,0.23997441,0.0,0.0,0.63302284,-0.29098704,0.0,0.0,0.71412444,0.49986663,0.0,0.0,0.60420454,0.9896064,0.0,0.0,1.0913953,0.7149294,0.0,0.0,0.75778866,769.19415,401.72162,583.0403,743.00366,797.3993,-0.13714599609375,0.11419677734375,0.96319580078125,0.97198486328125,-1.876678466796875,1.697235107421875,1.0,1.0,4.0,4.0,1.0,100.0,event
09:12:19.633,0.23997441,0.0,0.0,0.63302284,-0.29098704,0.0,0.0,0.71412444,0.49986663,0.0,0.0,0.60420454,0.9896064,0.0,0.0,1.0913953,0.7149294,0.0,0.0,0.75778866,770.40295,687.3993,857.03296,732.9304,770.40295,-0.13714599609375,0.11419677734375,0.96319580078125,0.97198486328125,-1.876678466796875,1.697235107421875,1.0,1.0,4.0,4.0,1.0,100.0,event
09:12:19.634,0.23997441,0.0,0.0,0.63302284,-0.29098704,0.0,0.0,0.71412444,0.49986663,0.0,0.0,0.60420454,0.9896064,0.0,0.0,1.0913953,0.7149294,0.0,0.0,0.75778866,789.34064,412.60074,606.8132,786.1172,899.7436,-0.13714599609375,0.11419677734375,0.96319580078125,0.97198486328125,-1.876678466796875,1.697235107421875,1.0,1.0,4.0,4.0,1.0,100.0,event
09:12:19.634,0.23997441,0.0,0.0,0.63302284,-0.29098704,0.0,0.0,0.71412444,0.49986663,0.0,0.0,0.60420454,0.9896064,0.0,0.0,1.0913953,0.7149294,0.0,0.0,0.75778866,782.0879,807.47253,1001.685,754.68866,722.8571,-0.13714599609375,0.11419677734375,0.96319580078125,0.97198486328125,-1.876678466796875,1.697235107421875,1.0,1.0,4.0,4.0,1.0,100.0,event
09:12:19.635,0.23997441,0.0,0.0,0.63302284,-0.29098704,0.0,0.0,0.71412444,0.49986663,0.0,0.0,0.60420454,0.9896064,0.0,0.0,1.0913953,0.7149294,0.0,0.0,0.75778866,794.57874,14.908425,150.29305,787.72894,1046.8132,-0.13714599609375,0.11419677734375,0.96319580078125,0.97198486328125,-1.876678466796875,1.697235107421875,1.0,1.0,4.0,4.0,1.0,100.0,event
09:12:19.635,0.23997441,0.0,0.0,0.63302284,-0.29098704,0.0,0.0,0.71412444,0.49986663,0.0,0.0,0.60420454,0.9896064,0.0,0.0,1.0913953,0.7149294,0.0,0.0,0.75778866,786.9231,179.30403,381.5751,751.06226,963.00366,-0.13714599609375,0.11419677734375,0.96319580078125,0.97198486328125,-1.876678466796875,1.697235107421875,1.0,1.0,4.0,4.0,1.0,100.0,event
09:12:19.635,0.23997441,0.0,0.0,0.63302284,-0.29098704,0.0,0.0,0.71412444,0.49986663,0.0,0.0,0.60420454,0.9896064,0.0,0.0,1.0913953,0.7149294,0.0,0.0,0.75778866,776.4469,633.8095,896.52014,729.707,829.2308,-0.13714599609375,0.11419677734375,0.96319580078125,0.97198486328125,-1.876678466796875,1.697235107421875,1.0,1.0,4.0,4.0,1.0,100.0,event
09:12:19.636,0.23997441,0.0,0.0,0.63302284,-0.29098704,0.0,0.0,0.71412444,0.49986663,0.0,0.0,0.60420454,0.9896064,0.0,0.0,1.0913953,0.7149294,0.0,0.0,0.75778866,771.2088,444.83517,734.94507,758.315,830.4396,-0.13714599609375,0.11419677734375,0.96319580078125,0.97198486328125,-1.876678466796875,1.697235107421875,1.0,1.0,4.0,4.0,1.0,100.0,event
09:12:19.636,0.23997441,0.0,0.0,0.63302284,-0.29098704,0.0,0.0,0.71412444,0.49986663,0.0,0.0,0.60420454,0.9896064,0.0,0.0,1.0913953,0.7149294,0.0,0.0,0.75778866,776.04395,95.89744,373.11356,797.3993,926.7399,-0.13714599609375,0.11419677734375,0.96319580078125,0.97198486328125,-1.876678466796875,1.697235107421875,1.0,1.0,4.0,4.0,1.0,100.0,event
09:12:19.637,0.23997441,0.0,0.0,0.63302284,-0.29098704,0.0,0.0,0.71412444,0.49986663,0.0,0.0,0.60420454,0.9896064,0.0,0.0,1.0913953,0.7149294,0.0,0.0,0.75778866,765.9707,503.663,772.8205,769.59705,765.9707,-0.13714599609375,0.11419677734375,0.96319580078125,0.97198486328125,-1.876678466796875,1.697235107421875,1.0,1.0,4.0,4.0,1.0,100.0,event
09:12:19.661,0.23997441,0.0,0.0,0.63302284,-0.29098704,0.0,0.0,0.71412444,0.49986663,0.0,0.0,0.60420454,0.9896064,0.0,0.0,1.0913953,0.7149294,0.0,0.0,0.75778866,745.42126,627.3626,904.57874,720.84247,711.1722,-0.13543701171875,0.12152099609375,0.9825439453125,1.5252685546875,-2.34771728515625,1.83929443359375,1.0,1.0,4.0,4.0,1.0,100.0,event
09:12:19.662,0.23997441,0.0,0.0,0.63302284,-0.29098704,0.0,0.0,0.71412444,0.49986663,0.0,0.0,0.60420454,0.9896064,0.0,0.0,1.0913953,0.7149294,0.0,0.0,0.75778866,741.39197,449.2674,756.30035,711.5751,757.9121,-0.13543701171875,0.12152099609375,0.9825439453125,1.5252685546875,-2.34771728515625,1.83929443359375,1.0,1.0,4.0,4.0,1.0,100.0,event
09:12:19.663,0.23997441,0.0,0.0,0.63302284,-0.29098704,0.0,0.0,0.71412444,0.49986663,0.0,0.0,0.60420454,0.9896064,0.0,0.0,1.0913953,0.7149294,0.0,0.0,0.75778866,757.50916,567.326,903.36993,742.1978,776.8498,-0.13543701171875,0.12152099609375,0.9825439453125,1.5252685546875,-2.34771728515625,1.83929443359375,1.0,1.0,4.0,4.0,1.0,100.0,event
09:12:19.663,0.23997441,0.0,0.0,0.63302284,-0.29098704,0.0,0.0,0.71412444,0.49986663,0.0,0.0,0.60420454,0.9896064,0.0,0.0,1.0913953,0.7149294,0.0,0.0,0.75778866,758.71796,725.2747,1034.7252,769.59705,755.4945,-0.13543701171875,0.12152099609375,0.9825439453125,1.5252685546875,-2.34771728515625,1.83929443359375,1.0,1.0,4.0,4.0,1.0,100.0,event
09:12:19.664,0.23997441,0.0,0.0,0.63302284,-0.29098704,0.0,0.0,0.71412444,0.49986663,0.0,0.0,0.60420454,0.9896064,0.0,0.0,1.0913953,0.7149294,0.0,0.0,0.75778866,741.39197,162.38095,572.5641,719.2308,937.2161,-0.13543701171875,0.12152099609375,0.9825439453125,1.5252685546875,-2.34771728515625,1.83929443359375,1.0,1.0,4.0,4.0,1.0,100.0,event
09:12:19.664,0.23997441,0.0,0.0,0.63302284,-0.29098704,0.0,0.0,0.71412444,0.49986663,0.0,0.0,0.60420454,0.9896064,0.0,0.0,1.0913953,0.7149294,0.0,0.0,0.75778866,750.65936,578.20514,866.30035,765.16486,711.1722,-0.13543701171875,0.12152099609375,0.9825439453125,1.5252685546875,-2.34771728515625,1.83929443359375,1.0,1.0,4.0,4.0,1.0,100.0,event
09:12:19.664,0.23997441,0.0,0.0,0.63302284,-0.29098704,0.0,0.0,0.71412444,0.49986663,0.0,0.0,0.60420454,0.9896064,0.0,0.0,1.0913953,0.7149294,0.0,0.0,0.75778866,749.0476,247.8022,589.4872,736.55676,844.94507,-0.13543701171875,0.12152099609375,0.9825439453125,1.5252685546875,-2.34771728515625,1.83929443359375,1.0,1.0,4.0,4.0,1.0,100.0,event
09:12:19.665,0.23997441,0.0,0.0,0.63302284,-0.29098704,0.0,0.0,0.71412444,0.49986663,0.0,0.0,0.60420454,0.9896064,0.0,0.0,1.0913953,0.7149294,0.0,0.0,0.75778866,753.0769,548.7912,936.8132,744.21246,795.38464,-0.13543701171875,0.12152099609375,0.9825439453125,1.5252685546875,-2.34771728515625,1.83929443359375,1.0,1.0,4.0,4.0,1.0,100.0,event
09:12:19.665,0.23997441,0.0,0.0,0.63302284,-0.29098704,0.0,0.0,0.71412444,0.49986663,0.0,0.0,0.60420454,0.9896064,0.0,0.0,1.0913953,0.7149294,0.0,0.0,0.75778866,776.04395,660.80585,1089.9268,780.4762,693.8461,-0.13543701171875,0.12152099609375,0.9825439453125,1.5252685546875,-2.34771728515625,1.83929443359375,1.0,1.0,4.0,4.0,1.0,100.0,event
09:12:19.666,0.23997441,0.0,0.0,0.63302284,-0.29098704,0.0,0.0,0.71412444,0.49986663,0.0,0.0,0.60420454,0.9896064,0.0,0.0,1.0913953,0.7149294,0.0,0.0,0.75778866,775.2381,153.51648,378.35165,785.7143,922.71063,-0.13543701171875,0.12152099609375,0.9825439453125,1.5252685546875,-2.34771728515625,1.83929443359375,1.0,1.0,4.0,4.0,1.0,100.0,event
09:12:19.666,0.23997441,0.0,0.0,0.63302284,-0.29098704,0.0,0.0,0.71412444,0.49986663,0.0,0.0,0.60420454,0.9896064,0.0,0.0,1.0913953,0.7149294,0.0,0.0,0.75778866,765.16486,111.611725,241.35532,763.1502,1017.8022,-0.13543701171875,0.12152099609375,0.9825439453125,1.5252685546875,-2.34771728515625,1.83929443359375,1.0,1.0,4.0,4.0,1.0,100.0,event
09:12:19.667,0.23997441,0.0,0.0,0.63302284,-0.29098704,0.0,0.0,0.71412444,0.49986663,0.0,0.0,0.60420454,0.9896064,0.0,0.0,1.0913953,0.7149294,0.0,0.0,0.75778866,767.5824,583.0403,996.8498,739.7802,696.26373,-0.13543701171875,0.12152099609375,0.9825439453125,1.5252685546875,-2.34771728515625,1.83929443359375,1.0,1.0,4.0,4.0,1.0,100.0,event
09:12:19.738,0.23997441,0.0,0.0,0.63302284,-0.29098704,0.0,0.0,0.71412444,0.49986663,0.0,0.0,0.60420454,0.9896064,0.0,0.0,1.0913953,0.7149294,0.0,0.0,0.75778866,771.6117,595.9341,1073.4066,754.2857,689.41394,-0.13446044921875,0.12213134765625,0.96832275390625,1.816864013671875,-4.807586669921875,0.231781005859375,1.0,1.0,4.0,4.0,1.0,100.0,event
09:12:19.739,0.23997441,0.0,0.0,0.63302284,-0.29098704,0.0,0.0,0.71412444,0.49986663,0.0,0.0,0.60420454,0.9896064,0.0,0.0,1.0913953,0.7149294,0.0,0.0,0.75778866,774.0293,482.71063,938.8278,786.1172,797.8022,-0.13446044921875,0.12213134765625,0.96832275390625,1.816864013671875,-4.807586669921875,0.231781005859375,1.0,1.0,4.0,4.0,1.0,100.0,event
09:12:19.740,0.23997441,0.0,0.0,0.63302284,-0.29098704,0.0,0.0,0.71412444,0.49986663,0.0,0.0,0.60420454,0.9896064,0.0,0.0,1.0913953,0.7149294,0.0,0.0,0.75778866,772.4176,668.86444,1039.5604,751.8681,732.52747,-0.13446044921875,0.12213134765625,0.96832275390625,1.816864013671875,-4.807586669921875,0.231781005859375,1.0,1.0,4.0,4.0,1.0,100.0,event
09:12:19.740,0.23997441,0.0,0.0,0.63302284,-0.29098704,0.0,0.0,0.71412444,0.49986663,0.0,0.0,0.60420454,0.9896064,0.0,0.0,1.0913953,0.7149294,0.0,0.0,0.75778866,784.10254,611.6484,1010.9524,789.7436,771.6117,-0.13446044921875,0.12213134765625,0.96832275390625,1.816864013671875,-4.807586669921875,0.231781005859375,1.0,1.0,4.0,4.0,1.0,100.0,event
09:12:19.741,0.23997441,0.0,0.0,0.63302284,-0.29098704,0.0,0.0,0.71412444,0.49986663,0.0,0.0,0.60420454,0.9896064,0.0,0.0,1.0913953,0.7149294,0.0,0.0,0.75778866,781.28204,290.91574,780.87915,752.27106,883.22345,-0.13446044921875,0.12213134765625,0.96832275390625,1.816864013671875,-4.807586669921875,0.231781005859375,1.0,1.0,4.0,4.0,1.0,100.0,event
09:12:19.741,0.23997441,0.0,0.0,0.63302284,-0.29098704,0.0,0.0,0.71412444,0.49986663,0.0,0.0,0.60420454,0.9896064,0.0,0.0,1.0913953,0.7149294,0.0,0.0,0.75778866,758.71796,482.30768,909.81683,730.10986,776.8498,-0.13446044921875,0.12213134765625,0.96832275390625,1.816864013671875,-4.807586669921875,0.231781005859375,1.0,1.0,4.0,4.0,1.0,100.0,event
09:12:19.742,0.23997441,0.0,0.0,0.63302284,-0.29098704,0.0,0.0,0.71412444,0.49986663,0.0,0.0,0.60420454,0.9896064,0.0,0.0,1.0913953,0.7149294,0.0,0.0,0.75778866,804.2491,354.9817,814.7253,778.46155,881.2088,-0.13446044921875,0.12213134765625,0.96832275390625,1.816864013671875,-4.807586669921875,0.231781005859375,1.0,1.0,4.0,4.0,1.0,100.0,event
09:12:19.743,0.23997441,0.0,0.0,0.63302284,-0.29098704,0.0,0.0,0.71412444,0.49986663,0.0,0.0,0.60420454,0.9896064,0.0,0.0,1.0913953,0.7149294,0.0,0.0,0.75778866,803.44324,598.7546,1041.1721,786.1172,774.43225,-0.13446044921875,0.12213134765625,0.96832275390625,1.816864013671875,-4.807586669921875,0.231781005859375,1.0,1.0,4.0,4.0,1.0,100.0,event
09:12:19.743,0.23997441,0.0,0.0,0.63302284,-0.29098704,0.0,0.0,0.71412444,0.49986663,0.0,0.0,0.60420454,0.9896064,0.0,0.0,1.0913953,0.7149294,0.0,0.0,0.75778866,800.2198,383.1868,768.3883,770.40295,782.8938,-0.13446044921875,0.12213134765625,0.96832275390625,1.816864013671875,-4.807586669921875,0.231781005859375,1.0,1.0,4.0,4.0,1.0,100.0,event
09:12:19.744,0.23997441,0.0,0.0,0.63302284,-0.29098704,0.0,0.0,0.71412444,0.49986663,0.0,0.0,0.60420454,0.9896064,0.0,0.0,1.0913953,0.7149294,0.0,0.0,0.75778866,788.5348,42.307693,350.1465,753.47986,924.7253,-0.13446044921875,0.12213134765625,0.96832275390625,1.816864013671875,-4.807586669921875,0.231781005859375,1.0,1.0,4.0,4.0,1.0,100.0,event
09:12:19.745,0.23997441,0.0,0.0,0.63302284,-0.29098704,0.0,0.0,0.71412444,0.49986663,0.0,0.0,0.60420454,0.9896064,0.0,0.0,1.0913953,0.7149294,0.0,0.0,0.75778866,785.7143,554.83514,979.12085,761.13556,817.1429,-0.13446044921875,0.12213134765625,0.96832275390625,1.816864013671875,-4.807586669921875,0.231781005859375,1.0,1.0,4.0,4.0,1.0,100.0,event
09:12:19.746,0.23997441,0.0,0.0,0.63302284,-0.29098704,0.0,0.0,0.71412444,0.49986663,0.0,0.0,0.60420454,0.9896064,0.0,0.0,1.0913953,0.7149294,0.0,0.0,0.75778866,809.0842,860.65936,1316.3737,797.3993,720.4396,-0.13446044921875,0.12213134765625,0.96832275390625,1.816864013671875,-4.807586669921875,0.231781005859375,1.0,1.0,4.0,4.0,1.0,100.0,event
09:12:19.776,0.23997441,0.0,0.0,0.63302284,-0.29098704,0.0,0.0,0.71412444,0.49986663,0.0,0.0,0.60420454,0.9896064,0.0,0.0,1.0913953,0.7149294,0.0,0.0,0.75778866,805.05493,451.28204,926.7399,798.60803,857.4359,-0.13055419921875,0.11956787109375,0.97314453125,1.831817626953125,-3.641204833984375,-0.844879150390625,1.0,1.0,4.0,4.0,1.0,100.0,event
09:12:19.777,0.23997441,0.0,0.0,0.63302284,-0.29098704,0.0,0.0,0.71412444,0.49986663,0.0,0.0,0.60420454,0.9896064,0.0,0.0,1.0913953,0.7149294,0.0,0.0,0.75778866,778.86444,345.31134,836.08057,774.83514,821.978,-0.13055419921875,0.11956787109375,0.97314453125,1.831817626953125,-3.641204833984375,-0.844879150390625,1.0,1.0,4.0,4.0,1.0,100.0,event
09:12:19.781,0.23997441,0.0,0.0,0.63302284,-0.29098704,0.0,0.0,0.71412444,0.49986663,0.0,0.0,0.60420454,0.9896064,0.0,0.0,1.0913953,0.7149294,0.0,0.0,0.75778866,782.49084,633.8095,1068.9744,764.7619,652.3443,-0.13055419921875,0.11956787109375,0.97314453125,1.831817626953125,-3.641204833984375,-0.844879150390625,1.0,1.0,4.0,4.0,1.0,100.0,event
09:12:19.782,0.23997441,0.0,0.0,0.63302284,-0.29098704,0.0,0.0,0.71412444,0.49986663,0.0,0.0,0.60420454,0.9896064,0.0,0.0,1.0913953,0.7149294,0.0,0.0,0.75778866,794.17584,701.9048,1133.0403,776.4469,644.68866,-0.13055419921875,0.11956787109375,0.97314453125,1.831817626953125,-3.641204833984375,-0.844879150390625,1.0,1.0,4.0,4.0,1.0,100.0,event
09:12:19.783,0.23997441,0.0,0.0,0.63302284,-0.29098704,0.0,0.0,0.71412444,0.49986663,0.0,0.0,0.60420454,0.9896064,0.0,0.0,1.0913953,0.7149294,0.0,0.0,0.75778866,823.1868,553.22345,1031.5018,835.6777,761.9414,-0.13055419921875,0.11956787109375,0.97314453125,1.831817626953125,-3.641204833984375,-0.844879150390625,1.0,1.0,4.0,4.0,1.0,100.0,event
09:12:19.784,0.23997441,0.0,0.0,0.63302284,-0.29098704,0.0,0.0,0.71412444,0.49986663,0.0,0.0,0.60420454,0.9896064,0.0,0.0,1.0913953,0.7149294,0.0,0.0,0.75778866,821.5751,371.50183,828.022,819.5604,850.989,-0.13055419921875,0.11956787109375,0.97314453125,1.831817626953125,-3.641204833984375,-0.844879150390625,1.0,1.0,4.0,4.0,1.0,100.0,event
09:12:19.784,0.23997441,0.0,0.0,0.63302284,-0.29098704,0.0,0.0,0.71412444,0.49986663,0.0,0.0,0.60420454,0.9896064,0.0,0.0,1.0913953,0.7149294,0.0,0.0,0.75778866,855.0183,404.94507,894.10254,871.13556,878.7912,-0.13055419921875,0.11956787109375,0.97314453125,1.831817626953125,-3.641204833984375,-0.844879150390625,1.0,1.0,4.0,4.0,1.0,100.0,event
09:12:19.785,0.23997441,0.0,0.0,0.63302284,-0.29098704,0.0,0.0,0.71412444,0.49986663,0.0,0.0,0.60420454,0.9896064,0.0,0.0,1.0913953,0.7149294,0.0,0.0,0.75778866,758.71796,428.71796,911.4286,738.5714,799.41394,-0.13055419921875,0.11956787109375,0.97314453125,1.831817626953125,-3.641204833984375,-0.844879150390625,1.0,1.0,4.0,4.0,1.0,100.0,event
09:12:19.785,0.23997441,0.0,0.0,0.63302284,-0.29098704,0.0,0.0,0.71412444,0.49986663,0.0,0.0,0.60420454,0.9896064,0.0,0.0,1.0913953,0.7149294,0.0,0.0,0.75778866,759.5238,197.83882,619.707,733.73627,919.4872,-0.13055419921875,0.11956787109375,0.97314453125,1.831817626953125,-3.641204833984375,-0.844879150390625,1.0,1.0,4.0,4.0,1.0,100.0,event
09:12:19.786,0.23997441,0.0,0.0,0.63302284,-0.29098704,0.0,0.0,0.71412444,0.49986663,0.0,0.0,0.60420454,0.9896064,0.0,0.0,1.0913953,0.7149294,0.0,0.0,0.75778866,800.6227,236.52014,639.0476,799.41394,892.8938,-0.13055419921875,0.11956787109375,0.97314453125,1.831817626953125,-3.641204833984375,-0.844879150390625,1.0,1.0,4.0,4.0,1.0,100.0,event
09:12:19.787,0.23997441,0.0,0.0,0.63302284,-0.29098704,0.0,0.0,0.71412444,0.49986663,0.0,0.0,0.60420454,0.9896064,0.0,0.0,1.0913953,0.7149294,0.0,0.0,0.75778866,809.89014,783.69965,1249.8901,835.2747,691.4286,-0.13055419921875,0.11956787109375,0.97314453125,1.831817626953125,-3.641204833984375,-0.844879150390625,1.0,1.0,4.0,4.0,1.0,100.0,event
09:12:19.787,0.23997441,0.0,0.0,0.63302284,-0.29098704,0.0,0.0,0.71412444,0.49986663,0.0,0.0,0.60420454,0.9896064,0.0,0.0,1.0913953,0.7149294,0.0,0.0,0.75778866,792.5641,668.0586,1120.5494,801.8315,724.4689,-0.13055419921875,0.11956787109375,0.97314453125,1.831817626953125,-3.641204833984375,-0.844879150390625,1.0,1.0,4.0,4.0,1.0,100.0,event
09:12:19.821,0.23997441,0.0,0.0,0.63302284,-0.29098704,0.0,0.0,0.71412444,0.49986663,0.0,0.0,0.60420454,0.9896064,0.0,0.0,1.0913953,0.7149294,0.0,0.0,0.75778866,793.7729,518.5714,988.3883,788.1319,781.685,-0.13055419921875,0.11956787109375,0.97314453125,1.831817626953125,-3.641204833984375,-0.844879150390625,1.0,1.0,4.0,4.0,1.0,100.0,event
09:12:19.824,0.23997441,0.0,0.0,0.63302284,-0.29098704,0.0,0.0,0.71412444,0.49986663,0.0,0.0,0.60420454,0.9896064,0.0,0.0,1.0913953,0.7149294,0.0,0.0,0.75778866,798.60803,622.1245,1091.5385,789.7436,752.27106,-0.13055419921875,0.11956787109375,0.97314453125,1.831817626953125,-3.641204833984375,-0.844879150390625,1.0,1.0,4.0,4.0,1.0,100.0,event
09:12:19.825,0.23997441,0.0,0.0,0.63302284,-0.29098704,0.0,0.0,0.71412444,0.49986663,0.0,0.0,0.60420454,0.9896064,0.0,0.0,1.0913953,0.7149294,0.0,0.0,0.75778866,807.47253,812.71063,1243.8462,800.2198,743.00366,-0.13055419921875,0.11956787109375,0.97314453125,1.831817626953125,-3.641204833984375,-0.844879150390625,1.0,1.0,4.0,4.0,1.0,100.0,event
09:12:19.825,0.23997441,0.0,0.0,0.63302284,-0.29098704,0.0,0.0,0.71412444,0.49986663,0.0,0.0,0.60420454,0.9896064,0.0,0.0,1.0913953,0.7149294,0.0,0.0,0.75778866,816.7399,702.71063,1145.1282,836.08057,887.6557,-0.13055419921875,0.11956787109375,0.97314453125,1.831817626953125,-3.641204833984375,-0.844879150390625,1.0,1.0,4.0,4.0,1.0,100.0,event
09:12:19.827,0.23997441,0.0,0.0,0.63302284,-0.29098704,0.0,0.0,0.71412444,0.49986663,0.0,0.0,0.60420454,0.9896064,0.0,0.0,1.0913953,0.7149294,0.0,0.0,0.75778866,819.9634,309.45056,747.4359,788.1319,834.87177,-0.13055419921875,0.11956787109375,0.97314453125,1.831817626953125,-3.641204833984375,-0.844879150390625,1.0,1.0,4.0,4.0,1.0,100.0,event
09:12:19.827,0.23997441,0.0,0.0,0.63302284,-0.29098704,0.0,0.0,0.71412444,0.49986663,0.0,0.0,0.60420454,0.9896064,0.0,0.0,1.0913953,0.7149294,0.0,0.0,0.75778866,816.7399,246.99634,717.619,830.4396,980.7326,-0.13055419921875,0.11956787109375,0.97314453125,1.831817626953125,-3.641204833984375,-0.844879150390625,1.0,1.0,4.0,4.0,1.0,100.0,event
09:12:19.828,0.23997441,0.0,0.0,0.63302284,-0.29098704,0.0,0.0,0.71412444,0.49986663,0.0,0.0,0.60420454,0.9896064,0.0,0.0,1.0913953,0.7149294,0.0,0.0,0.75778866,823.5897,509.70697,945.6777,783.2967,790.54944,-0.13055419921875,0.11956787109375,0.97314453125,1.831817626953125,-3.641204833984375,-0.844879150390625,1.0,1.0,4.0,4.0,1.0,100.0,event
09:12:19.829,0.23997441,0.0,0.0,0.63302284,-0.29098704,0.0,0.0,0.71412444,0.49986663,0.0,0.0,0.60420454,0.9896064,0.0,0.0,1.0913953,0.7149294,0.0,0.0,0.75778866,823.5897,380.76923,865.09155,808.68134,833.2601,-0.13055419921875,0.11956787109375,0.97314453125,1.831817626953125,-3.641204833984375,-0.844879150390625,1.0,1.0,4.0,4.0,1.0,100.0,event
09:12:19.829,0.23997441,0.0,0.0,0.63302284,-0.29098704,0.0,0.0,0.71412444,0.49986663,0.0,0.0,0.60420454,0.9896064,0.0,0.0,1.0913953,0.7149294,0.0,0.0,0.75778866,832.0513,135.38461,618.0952,835.6777,960.989,-0.13055419921875,0.11956787109375,0.97314453125,1.831817626953125,-3.641204833984375,-0.844879150390625,1.0,1.0,4.0,4.0,1.0,100.0,event
09:12:19.830,0.23997441,0.0,0.0,0.63302284,-0.29098704,0.0,0.0,0.71412444,0.49986663,0.0,0.0,0.60420454,0.9896064,0.0,0.0,1.0913953,0.7149294,0.0,0.0,0.75778866,831.6484,595.12823,989.19415,828.8278,840.9158,-0.13055419921875,0.11956787109375,0.97314453125,1.831817626953125,-3.641204833984375,-0.844879150390625,1.0,1.0,4.0,4.0,1.0,100.0,event
09:12:19.830,0.23997441,0.0,0.0,0.63302284,-0.29098704,0.0,0.0,0.71412444,0.49986663,0.0,0.0,0.60420454,0.9896064,0.0,0.0,1.0913953,0.7149294,0.0,0.0,0.75778866,810.696,862.27106,1209.1941,790.9524,695.8608,-0.13055419921875,0.11956787109375,0.97314453125,1.831817626953125,-3.641204833984375,-0.844879150390625,1.0,1.0,4.0,4.0,1.0,100.0,event
09:12:19.831,0.23997441,0.0,0.0,0.63302284,-0.29098704,0.0,0.0,0.71412444,0.49986663,0.0,0.0,0.60420454,0.9896064,0.0,0.0,1.0913953,0.7149294,0.0,0.0,0.75778866,798.20514,658.3883,1033.5165,762.3443,728.49817,-0.13055419921875,0.11956787109375,0.97314453125,1.831817626953125,-3.641204833984375,-0.844879150390625,1.0,1.0,4.0,4.0,1.0,100.0,event
09:12:19.856,0.23997441,0.0,0.0,0.63302284,-0.29098704,0.0,0.0,0.71412444,0.49986663,0.0,0.0,0.60420454,0.9896064,0.0,0.0,1.0913953,0.7149294,0.0,0.0,0.75778866,809.89014,765.56775,1139.8901,782.8938,787.326,-0.14056396484375,0.11541748046875,0.96917724609375,2.100982666015625,-3.06549072265625,-1.495361328125,1.0,1.0,4.0,4.0,1.0,100.0,event
09:12:19.857,0.23997441,0.0,0.0,0.63302284,-0.29098704,0.0,0.0,0.71412444,0.49986663,0.0,0.0,0.60420454,0.9896064,0.0,0.0,1.0913953,0.7149294,0.0,0.0,0.75778866,817.1429,994.83514,1292.6007,834.4689,785.7143,-0.14056396484375,0.11541748046875,0.96917724609375,2.100982666015625,-3.06549072265625,-1.495361328125,1.0,1.0,4.0,4.0,1.0,100.0,event
09:12:19.858,0.23997441,0.0,0.0,0.6762084,-0.29098704,0.0,0.0,0.7649092,0.49986663,0.0,0.0,0.60420454,0.9896064,0.0,0.0,1.1138988,0.7149294,0.0,0.0,0.75503564,805.05493,603.5897,869.92676,797.8022,723.2601,-0.14056396484375,0.11541748046875,0.96917724609375,2.100982666015625,-3.06549072265625,-1.495361328125,1.0,1.0,4.0,4.0,1.0,100.0,event
09:12:19.858,0.23997441,0.0,0.0,0.63302284,-0.29098704,0.0,0.0,0.71412444,0.49986663,0.0,0.0,0.60420454,0.9896064,0.0,0.0,1.0913953,0.7149294,0.0,0.0,0.75778866,817.5458,884.83514,1144.3224,847.76556,747.03296,-0.14056396484375,0.11541748046875,0.96917724609375,2.100982666015625,-3.06549072265625,-1.495361328125,1.0,1.0,4.0,4.0,1.0,100.0,event
09:12:19.862,0.23997441,0.0,0.0,0.6762084,-0.29098704,0.0,0.0,0.7649092,0.49986663,0.0,0.0,0.60420454,0.9896064,0.0,0.0,1.1138988,0.7149294,0.0,0.0,0.75503564,794.57874,633.4066,909.81683,765.9707,689.81683,-0.14056396484375,0.11541748046875,0.96917724609375,2.100982666015625,-3.06549072265625,-1.495361328125,1.0,1.0,4.0,4.0,1.0,100.0,event
09:12:19.863,0.23997441,0.0,0.0,0.6762084,-0.29098704,0.0,0.0,0.7649092,0.49986663,0.0,0.0,0.60420454,0.9896064,0.0,0.0,1.1138988,0.7149294,0.0,0.0,0.75503564,817.9487,619.304,928.7546,833.663,898.93774,-0.14056396484375,0.11541748046875,0.96917724609375,2.100982666015625,-3.06549072265625,-1.495361328125,1.0,1.0,4.0,4.0,1.0,100.0,event
09:12:19.863,0.23997441,0.0,0.0,0.6762084,-0.29098704,0.0,0.0,0.7649092,0.49986663,0.0,0.0,0.60420454,0.9896064,0.0,0.0,1.1138988,0.7149294,0.0,0.0,0.75503564,800.2198,656.77655,933.1868,795.38464,800.2198,-0.14056396484375,0.11541748046875,0.96917724609375,2.100982666015625,-3.06549072265625,-1.495361328125,1.0,1.0,4.0,4.0,1.0,100.0,event
09:12:19.864,0.23997441,0.0,0.0,0.6762084,-0.29098704,0.0,0.0,0.7649092,0.49986663,0.0,0.0,0.60420454,0.9896064,0.0,0.0,1.1138988,0.7149294,0.0,0.0,0.75503564,825.6044,304.6154,542.3443,838.49817,1082.674,-0.14056396484375,0.11541748046875,0.96917724609375,2.100982666015625,-3.06549072265625,-1.495361328125,1.0,1.0,4.0,4.0,1.0,100.0,event
09:12:19.865,0.23997441,0.0,0.0,0.6762084,-0.29098704,0.0,0.0,0.7649092,0.49986663,0.0,0.0,0.60420454,0.9896064,0.0,0.0,1.1138988,0.7149294,0.0,0.0,0.75503564,805.05493,87.83883,228.05861,803.0403,1104.8352,-0.14056396484375,0.11541748046875,0.96917724609375,2.100982666015625,-3.06549072265625,-1.495361328125,1.0,1.0,4.0,4.0,1.0,100.0,event
09:12:19.865,0.23997441,0.0,0.0,0.6762084,-0.29098704,0.0,0.0,0.7649092,0.49986663,0.0,0.0,0.60420454,0.9896064,0.0,0.0,1.1138988,0.7149294,0.0,0.0,0.75503564,811.0989,715.2015,952.9304,799.81683,782.8938,-0.14056396484375,0.11541748046875,0.96917724609375,2.100982666015625,-3.06549072265625,-1.495361328125,1.0,1.0,4.0,4.0,1.0,100.0,event
09:12:19.866,0.23997441,0.0,0.0,0.6762084,-0.29098704,0.0,0.0,0.7649092,0.49986663,0.0,0.0,0.60420454,0.9896064,0.0,0.0,1.1138988,0.7149294,0.0,0.0,0.75503564,826.0073,911.8315,1199.5238,822.381,772.8205,-0.14056396484375,0.11541748046875,0.96917724609375,2.100982666015625,-3.06549072265625,-1.495361328125,1.0,1.0,4.0,4.0,1.0,100.0,event
09:12:19.867,0.23997441,0.0,0.0,0.6762084,-0.29098704,0.0,0.0,0.7649092,0.49986663,0.0,0.0,0.60420454,0.9896064,0.0,0.0,1.1138988,0.7149294,0.0,0.0,0.75503564,821.5751,768.3883,1054.8718,842.9304,857.03296,-0.14056396484375,0.11541748046875,0.96917724609375,2.100982666015625,-3.06549072265625,-1.495361328125,1.0,1.0,4.0,4.0,1.0,100.0,event
09:12:19.938,0.23997441,0.0,0.0,0.6762084,-0.29098704,0.0,0.0,0.7649092,0.49986663,0.0,0.0,0.60420454,0.9896064,0.0,0.0,1.1138988,0.7149294,0.0,0.0,0.75503564,819.5604,893.69965,1110.4762,846.55676,805.8608,-0.124755859375,0.12359619140625,0.9737548828125,2.250518798828125,-4.246826171875,-1.084136962890625,1.0,1.0,4.0,4.0,1.0,100.0,event
09:12:19.939,0.23997441,0.0,0.0,0.6762084,-0.29098704,0.0,0.0,0.7649092,0.49986663,0.0,0.0,0.60420454,0.9896064,0.0,0.0,1.1138988,0.7149294,0.0,0.0,0.75503564,809.0842,879.19415,1018.60803,814.7253,695.05493,-0.124755859375,0.12359619140625,0.9737548828125,2.250518798828125,-4.246826171875,-1.084136962890625,1.0,1.0,4.0,4.0,1.0,100.0,event
09:12:19.940,0.23997441,0.0,0.0,0.6762084,-0.29098704,0.0,0.0,0.7649092,0.49986663,0.0,0.0,0.60420454,0.9896064,0.0,0.0,1.1138988,0.7149294,0.0,0.0,0.75503564,811.0989,653.1502,796.1905,791.75824,705.9341,-0.124755859375,0.12359619140625,0.9737548828125,2.250518798828125,-4.246826171875,-1.084136962890625,1.0,1.0,4.0,4.0,1.0,100.0,event
09:12:19.941,0.23997441,0.0,0.0,0.6762084,-0.29098704,0.0,0.0,0.7649092,0.49986663,0.0,0.0,0.60420454,0.9896064,0.0,0.0,1.1138988,0.7149294,0.0,0.0,0.75503564,805.4579,621.31866,809.4872,793.36993,771.6117,-0.124755859375,0.12359619140625,0.9737548828125,2.250518798828125,-4.246826171875,-1.084136962890625,1.0,1.0,4.0,4.0,1.0,100.0,event
09:12:19.942,0.23997441,0.0,0.0,0.6762084,-0.29098704,0.0,0.0,0.7649092,0.49986663,0.0,0.0,0.60420454,0.9896064,0.0,0.0,1.1138988,0.7149294,0.0,0.0,0.75503564,815.9341,852.1978,973.0769,811.50183,762.3443,-0.124755859375,0.12359619140625,0.9737548828125,2.250518798828125,-4.246826171875,-1.084136962890625,1.0,1.0,4.0,4.0,1.0,100.0,event
09:12:19.943,0.23997441,0.0,0.0,0.6762084,-0.29098704,0.0,0.0,0.7649092,0.49986663,0.0,0.0,0.60420454,0.9896064,0.0,0.0,1.1138988,0.7149294,0.0,0.0,0.75503564,811.50183,280.8425,450.87912,818.7546,935.2015,-0.124755859375,0.12359619140625,0.9737548828125,2.250518798828125,-4.246826171875,-1.084136962890625,1.0,1.0,4.0,4.0,1.0,100.0,event
09:12:19.943,0.23997441,0.0,0.0,0.6762084,-0.29098704,0.0,0.0,0.7649092,0.49986663,0.0,0.0,0.60420454,0.9896064,0.0,0.0,1.1138988,0.7149294,0.0,0.0,0.75503564,834.87177,706.7399,821.5751,827.2161,807.8755,-0.124755859375,0.12359619140625,0.9737548828125,2.250518798828125,-4.246826171875,-1.084136962890625,1.0,1.0,4.0,4.0,1.0,100.0,event
09:12:19.944,0.23997441,0.0,0.0,0.6762084,-0.29098704,0.0,0.0,0.7649092,0.49986663,0.0,0.0,0.60420454,0.9896064,0.0,0.0,1.1138988,0.7149294,0.0,0.0,0.75503564,812.71063,73.333336,196.63004,797.3993,1009.7436,-0.124755859375,0.12359619140625,0.9737548828125,2.250518798828125,-4.246826171875,-1.084136962890625,1.0,1.0,4.0,4.0,1.0,100.0,event
09:12:19.945,0.23997441,0.0,0.0,0.6762084,-0.29098704,0.0,0.0,0.7649092,0.49986663,0.0,0.0,0.60420454,0.9896064,0.0,0.0,1.1138988,0.7149294,0.0,0.0,0.75503564,826.4103,599.9634,754.68866,784.5055,809.0842,-0.124755859375,0.12359619140625,0.9737548828125,2.250518798828125,-4.246826171875,-1.084136962890625,1.0,1.0,4.0,4.0,1.0,100.0,event
09:12:19.945,0.23997441,0.0,0.0,0.6762084,-0.29098704,0.0,0.0,0.7649092,0.49986663,0.0,0.0,0.60420454,0.9896064,0.0,0.0,1.1138988,0.7149294,0.0,0.0,0.75503564,812.71063,917.0696,1110.8792,805.4579,742.1978,-0.124755859375,0.12359619140625,0.9737548828125,2.250518798828125,-4.246826171875,-1.084136962890625,1.0,1.0,4.0,4.0,1.0,100.0,event
09:12:19.946,0.23997441,0.0,0.0,0.6762084,-0.29098704,0.0,0.0,0.7649092,0.49986663,0.0,0.0,0.60420454,0.9896064,0.0,0.0,1.1138988,0.7149294,0.0,0.0,0.75503564,809.4872,431.13553,683.36993,828.4249,929.15753,-0.124755859375,0.12359619140625,0.9737548828125,2.250518798828125,-4.246826171875,-1.084136962890625,1.0,1.0,4.0,4.0,1.0,100.0,event
09:12:19.946,0.23997441,0.0,0.0,0.6762084,-0.29098704,0.0,0.0,0.7649092,0.49986663,0.0,0.0,0.60420454,0.9896064,0.0,0.0,1.1138988,0.7149294,0.0,0.0,0.75503564,802.23444,363.84616,613.2601,803.8461,902.96704,-0.124755859375,0.12359619140625,0.9737548828125,2.250518798828125,-4.246826171875,-1.084136962890625,1.0,1.0,4.0,4.0,1.0,100.0,event
09:12:19.975,0.23997441,0.0,0.0,0.6762084,-0.29098704,0.0,0.0,0.7649092,0.49986663,0.0,0.0,0.60420454,0.9896064,0.0,0.0,1.1138988,0.7149294,0.0,0.0,0.75503564,791.3553,827.619,974.68866,773.22345,727.6923,-0.12451171875,0.1202392578125,0.97869873046875,1.218719482421875,-4.41131591796875,-0.538330078125,1.0,1.0,4.0,4.0,1.0,100.0,event
09:12:19.976,0.23997441,0.0,0.0,0.6762084,-0.29098704,0.0,0.0,0.7649092,0.49986663,0.0,0.0,0.60420454,0.9896064,0.0,0.0,1.1138988,0.7149294,0.0,0.0,0.75503564,794.57874,898.5348,1047.2161,773.6264,702.3077,-0.12451171875,0.1202392578125,0.97869873046875,1.218719482421875,-4.41131591796875,-0.538330078125,1.0,1.0,4.0,4.0,1.0,100.0,event
09:12:19.977,0.23997441,0.0,0.0,0.6762084,-0.29098704,0.0,0.0,0.7649092,0.49986663,0.0,0.0,0.60420454,0.9896064,0.0,0.0,1.1138988,0.7149294,0.0,0.0,0.75503564,809.0842,738.5714,923.1135,798.20514,756.30035,-0.12451171875,0.1202392578125,0.97869873046875,1.218719482421875,-4.41131591796875,-0.538330078125,1.0,1.0,4.0,4.0,1.0,100.0,event
09:12:19.977,0.23997441,0.0,0.0,0.6762084,-0.29098704,0.0,0.0,0.7649092,0.49986663,0.0,0.0,0.60420454,0.9896064,0.0,0.0,1.1138988,0.7149294,0.0,0.0,0.75503564,813.5165,776.8498,936.0073,827.2161,766.77655,-0.12451171875,0.1202392578125,0.97869873046875,1.218719482421875,-4.41131591796875,-0.538330078125,1.0,1.0,4.0,4.0,1.0,100.0,event
09:12:19.978,0.23997441,0.0,0.0,0.6762084,-0.29098704,0.0,0.0,0.7649092,0.49986663,0.0,0.0,0.60420454,0.9896064,0.0,0.0,1.1138988,0.7149294,0.0,0.0,0.75503564,789.34064,800.6227,905.38464,809.0842,692.6374,-0.12451171875,0.1202392578125,0.97869873046875,1.218719482421875,-4.41131591796875,-0.538330078125,1.0,1.0,4.0,4.0,1.0,100.0,event
09:12:19.978,0.23997441,0.0,0.0,0.7288244,-0.29098704,0.0,0.0,0.8229053,0.49986663,0.0,0.0,0.60420454,0.9896064,0.0,0.0,1.1368198,0.7149294,0.0,0.0,0.767649,782.8938,590.696,732.1245,781.28204,699.4872,-0.12451171875,0.1202392578125,0.97869873046875,1.218719482421875,-4.41131591796875,-0.538330078125,1.0,1.0,4.0,4.0,1.0,100.0,event
09:12:19.982,0.23997441,0.0,0.0,0.7288244,-0.29098704,0.0,0.0,0.8229053,0.49986663,0.0,0.0,0.60420454,0.9896064,0.0,0.0,1.1368198,0.7149294,0.0,0.0,0.767649,787.72894,196.22711,342.08792,776.4469,1038.3517,-0.12451171875,0.1202392578125,0.97869873046875,1.218719482421875,-4.41131591796875,-0.538330078125,1.0,1.0,4.0,4.0,1.0,100.0,event
09:12:19.983,0.23997441,0.0,0.0,0.7288244,-0.29098704,0.0,0.0,0.8229053,0.49986663,0.0,0.0,0.60420454,0.9896064,0.0,0.0,1.1368198,0.7149294,0.0,0.0,0.767649,829.6337,855.42126,1010.9524,827.619,697.8755,-0.12451171875,0.1202392578125,0.97869873046875,1.218719482421875,-4.41131591796875,-0.538330078125,1.0,1.0,4.0,4.0,1.0,100.0,event
09:12:19.983,0.23997441,0.0,0.0,0.7288244,-0.29098704,0.0,0.0,0.8229053,0.49986663,0.0,0.0,0.60420454,0.9896064,0.0,0.0,1.1368198,0.7149294,0.0,0.0,0.767649,800.6227,252.63736,390.43958,789.7436,1045.6044,-0.12451171875,0.1202392578125,0.97869873046875,1.218719482421875,-4.41131591796875,-0.538330078125,1.0,1.0,4.0,4.0,1.0,100.0,event
09:12:19.984,0.23997441,0.0,0.0,0.7288244,-0.29098704,0.0,0.0,0.8229053,0.49986663,0.0,0.0,0.60420454,0.9896064,0.0,0.0,1.1368198,0.7149294,0.0,0.0,0.767649,828.4249,775.2381,893.2967,827.619,694.65204,-0.12451171875,0.1202392578125,0.97869873046875,1.218719482421875,-4.41131591796875,-0.538330078125,1.0,1.0,4.0,4.0,1.0,100.0,event
09:12:19.985,0.23997441,0.0,0.0,0.7288244,-0.29098704,0.0,0.0,0.8229053,0.49986663,0.0,0.0,0.60420454,0.9896064,0.0,0.0,1.1368198,0.7149294,0.0,0.0,0.767649,814.7253,517.3626,659.59705,790.54944,781.685,-0.12451171875,0.1202392578125,0.97869873046875,1.218719482421875,-4.41131591796875,-0.538330078125,1.0,1.0,4.0,4.0,1.0,100.0,event
09:12:19.985,0.23997441,0.0,0.0,0.7288244,-0.29098704,0.0,0.0,0.8229053,0.49986663,0.0,0.0,0.60420454,0.9896064,0.0,0.0,1.1368198,0.7149294,0.0,0.0,0.767649,801.8315,762.74725,902.1612,773.6264,776.8498,-0.12451171875,0.1202392578125,0.97869873046875,1.218719482421875,-4.41131591796875,-0.538330078125,1.0,1.0,4.0,4.0,1.0,100.0,event
09:12:20.019,0.23997441,0.0,0.0,0.7288244,-0.29098704,0.0,0.0,0.8229053,0.49986663,0.0,0.0,0.60420454,0.9896064,0.0,0.0,1.1368198,0.7149294,0.0,0.0,0.767649,809.4872,879.59705,994.83514,797.3993,725.6777,-0.11993408203125,0.11468505859375,0.96728515625,1.18133544921875,-3.4991455078125,-0.859832763671875,1.0,1.0,4.0,4.0,1.0,100.0,event
09:12:20.020,0.23997441,0.0,0.0,0.7288244,-0.29098704,0.0,0.0,0.8229053,0.49986663,0.0,0.0,0.60420454,0.9896064,0.0,0.0,1.1368198,0.7149294,0.0,0.0,0.767649,829.2308,616.8865,763.5531,832.0513,861.06226,-0.11993408203125,0.11468505859375,0.96728515625,1.18133544921875,-3.4991455078125,-0.859832763671875,1.0,1.0,4.0,4.0,1.0,100.0,event
09:12:20.020,0.23997441,0.0,0.0,0.7288244,-0.29098704,0.0,0.0,0.8229053,0.49986663,0.0,0.0,0.60420454,0.9896064,0.0,0.0,1.1368198,0.7149294,0.0,0.0,0.767649,820.7692,377.94873,551.2088,823.9927,938.022,-0.11993408203125,0.11468505859375,0.96728515625,1.18133544921875,-3.4991455078125,-0.859832763671875,1.0,1.0,4.0,4.0,1.0,100.0,event
09:12:20.021,0.23997441,0.0,0.0,0.7288244,-0.29098704,0.0,0.0,0.8229053,0.49986663,0.0,0.0,0.60420454,0.9896064,0.0,0.0,1.1368198,0.7149294,0.0,0.0,0.767649,802.23444,601.5751,716.8132,779.2674,729.707,-0.11993408203125,0.11468505859375,0.96728515625,1.18133544921875,-3.4991455078125,-0.859832763671875,1.0,1.0,4.0,4.0,1.0,100.0,event
09:12:20.021,0.23997441,0.0,0.0,0.7288244,-0.29098704,0.0,0.0,0.8229053,0.49986663,0.0,0.0,0.60420454,0.9896064,0.0,0.0,1.1368198,0.7149294,0.0,0.0,0.767649,793.7729,837.6923,918.68134,761.13556,712.7839,-0.11993408203125,0.11468505859375,0.96728515625,1.18133544921875,-3.4991455078125,-0.859832763671875,1.0,1.0,4.0,4.0,1.0,100.0,event
09:12:20.022,0.23997441,0.0,0.0,0.7288244,-0.29098704,0.0,0.0,0.8229053,0.49986663,0.0,0.0,0.60420454,0.9896064,0.0,0.0,1.1368198,0.7149294,0.0,0.0,0.767649,808.2784,545.56775,711.5751,798.20514,925.5311,-0.11993408203125,0.11468505859375,0.96728515625,1.18133544921875,-3.4991455078125,-0.859832763671875,1.0,1.0,4.0,4.0,1.0,100.0,event
09:12:20.023,0.23997441,0.0,0.0,0.7288244,-0.29098704,0.0,0.0,0.8229053,0.49986663,0.0,0.0,0.60420454,0.9896064,0.0,0.0,1.1368198,0.7149294,0.0,0.0,0.767649,818.7546,511.3187,655.56775,840.5128,845.7509,-0.11993408203125,0.11468505859375,0.96728515625,1.18133544921875,-3.4991455078125,-0.859832763671875,1.0,1.0,4.0,4.0,1.0,100.0,event
09:12:20.023,0.23997441,0.0,0.0,0.7288244,-0.29098704,0.0,0.0,0.8229053,0.49986663,0.0,0.0,0.60420454,0.9896064,0.0,0.0,1.1368198,0.7149294,0.0,0.0,0.767649,827.2161,331.2088,555.64105,843.73627,989.19415,-0.11993408203125,0.11468505859375,0.96728515625,1.18133544921875,-3.4991455078125,-0.859832763671875,1.0,1.0,4.0,4.0,1.0,100.0,event
09:12:20.024,0.23997441,0.0,0.0,0.7288244,-0.29098704,0.0,0.0,0.8229053,0.49986663,0.0,0.0,0.60420454,0.9896064,0.0,0.0,1.1368198,0.7149294,0.0,0.0,0.767649,801.4286,788.93774,882.01465,806.26373,730.10986,-0.11993408203125,0.11468505859375,0.96728515625,1.18133544921875,-3.4991455078125,-0.859832763671875,1.0,1.0,4.0,4.0,1.0,100.0,event
09:12:20.024,0.23997441,0.0,0.0,0.7288244,-0.29098704,0.0,0.0,0.8229053,0.49986663,0.0,0.0,0.60420454,0.9896064,0.0,0.0,1.1368198,0.7149294,0.0,0.0,0.767649,798.60803,508.9011,675.7143,786.52014,830.84247,-0.11993408203125,0.11468505859375,0.96728515625,1.18133544921875,-3.4991455078125,-0.859832763671875,1.0,1.0,4.0,4.0,1.0,100.0,event
09:12:20.025,0.23997441,0.0,0.0,0.7288244,-0.29098704,0.0,0.0,0.8229053,0.49986663,0.0,0.0,0.60420454,0.9896064,0.0,0.0,1.1368198,0.7149294,0.0,0.0,0.767649,801.02563,162.78389,394.06595,801.02563,1049.6337,-0.11993408203125,0.11468505859375,0.96728515625,1.18133544921875,-3.4991455078125,-0.859832763671875,1.0,1.0,4.0,4.0,1.0,100.0,event
09:12:20.025,0.23997441,0.0,0.0,0.7288244,-0.29098704,0.0,0.0,0.8229053,0.49986663,0.0,0.0,0.60420454,0.9896064,0.0,0.0,1.1368198,0.7149294,0.0,0.0,0.767649,814.7253,767.1795,921.9048,835.6777,910.2198,-0.11993408203125,0.11468505859375,0.96728515625,1.18133544921875,-3.4991455078125,-0.859832763671875,1.0,1.0,4.0,4.0,1.0,100.0,event
09:12:20.054,0.23997441,0.0,0.0,0.7288244,-0.29098704,0.0,0.0,0.8229053,0.49986663,0.0,0.0,0.60420454,0.9896064,0.0,0.0,1.1368198,0.7149294,0.0,0.0,0.767649,815.12823,948.0952,1043.9927,826.0073,738.1685,-0.11993408203125,0.11468505859375,0.96728515625,1.18133544921875,-3.4991455078125,-0.859832763671875,1.0,1.0,4.0,4.0,1.0,100.0,event
09:12:20.054,0.23997441,0.0,0.0,0.7288244,-0.29098704,0.0,0.0,0.8229053,0.49986663,0.0,0.0,0.60420454,0.9896064,0.0,0.0,1.1368198,0.7149294,0.0,0.0,0.767649,801.8315,610.0366,698.68134,791.3553,770.0,-0.11993408203125,0.11468505859375,0.96728515625,1.18133544921875,-3.4991455078125,-0.859832763671875,1.0,1.0,4.0,4.0,1.0,100.0,event
09:12:20.055,0.23997441,0.0,0.0,0.7288244,-0.29098704,0.0,0.0,0.8229053,0.49986663,0.0,0.0,0.60420454,0.9896064,0.0,0.0,1.1368198,0.7149294,0.0,0.0,0.767649,797.3993,684.57874,774.83514,778.46155,777.25275,-0.11993408203125,0.11468505859375,0.96728515625,1.18133544921875,-3.4991455078125,-0.859832763671875,1.0,1.0,4.0,4.0,1.0,100.0,event
09:12:20.056,0.23997441,0.0,0.0,0.7288244,-0.29098704,0.0,0.0,0.8229053,0.49986663,0.0,0.0,0.60420454,0.9896064,0.0,0.0,1.1368198,0.7149294,0.0,0.0,0.767649,807.0696,887.25275,948.49817,788.5348,759.12085,-0.11993408203125,0.11468505859375,0.96728515625,1.18133544921875,-3.4991455078125,-0.859832763671875,1.0,1.0,4.0,4.0,1.0,100.0,event
09:12:20.056,0.23997441,0.0,0.0,0.7288244,-0.29098704,0.0,0.0,0.8229053,0.49986663,0.0,0.0,0.60420454,0.9896064,0.0,0.0,1.1368198,0.7149294,0.0,0.0,0.767649,810.696,747.4359,829.6337,826.4103,773.22345,-0.11993408203125,0.11468505859375,0.96728515625,1.18133544921875,-3.4991455078125,-0.859832763671875,1.0,1.0,4.0,4.0,1.0,100.0,event
09:12:20.057,0.23997441,0.0,0.0,0.7288244,-0.29098704,0.0,0.0,0.8229053,0.49986663,0.0,0.0,0.60420454,0.9896064,0.0,0.0,1.1368198,0.7149294,0.0,0.0,0.767649,805.4579,284.46887,374.32236,840.5128,1036.7399,-0.11993408203125,0.11468505859375,0.96728515625,1.18133544921875,-3.4991455078125,-0.859832763671875,1.0,1.0,4.0,4.0,1.0,100.0,event
09:12:20.057,0.23997441,0.0,0.0,0.7288244,-0.29098704,0.0,0.0,0.8229053,0.49986663,0.0,0.0,0.60420454,0.9896064,0.0,0.0,1.1368198,0.7149294,0.0,0.0,0.767649,795.38464,113.62637,192.1978,802.23444,1135.0549,-0.11993408203125,0.11468505859375,0.96728515625,1.18133544921875,-3.4991455078125,-0.859832763671875,1.0,1.0,4.0,4.0,1.0,100.0,event
09:12:20.058,0.23997441,0.0,0.0,0.7978637,-0.29098704,0.0,0.0,0.8934614,0.49986663,0.0,0.0,0.60420454,0.9896064,0.0,0.0,1.163979,0.7149294,0.0,0.0,0.7864772,780.87915,709.9634,830.4396,773.22345,823.9927,-0.11993408203125,0.11468505859375,0.96728515625,1.18133544921875,-3.4991455078125,-0.859832763671875,1.0,1.0,4.0,4.0,1.0,100.0,event
09:12:20.061,0.23997441,0.0,0.0,0.7978637,-0.29098704,0.0,0.0,0.8934614,0.49986663,0.0,0.0,0.60420454,0.9896064,0.0,0.0,1.163979,0.7149294,0.0,0.0,0.7864772,800.6227,915.05493,1027.4725,794.57874,755.89746,-0.11993408203125,0.11468505859375,0.96728515625,1.18133544921875,-3.4991455078125,-0.859832763671875,1.0,1.0,4.0,4.0,1.0,100.0,event
09:12:20.062,0.23997441,0.0,0.0,0.7978637,-0.29098704,0.0,0.0,0.8934614,0.49986663,0.0,0.0,0.60420454,0.9896064,0.0,0.0,1.163979,0.7149294,0.0,0.0,0.7864772,819.9634,633.4066,790.54944,842.52747,865.89746,-0.11993408203125,0.11468505859375,0.96728515625,1.18133544921875,-3.4991455078125,-0.859832763671875,1.0,1.0,4.0,4.0,1.0,100.0,event
09:12:20.062,0.23997441,0.0,0.0,0.7978637,-0.29098704,0.0,0.0,0.8934614,0.49986663,0.0,0.0,0.60420454,0.9896064,0.0,0.0,1.163979,0.7149294,0.0,0.0,0.7864772,816.337,725.6777,878.7912,844.1392,855.42126,-0.11993408203125,0.11468505859375,0.96728515625,1.18133544921875,-3.4991455078125,-0.859832763671875,1.0,1.0,4.0,4.0,1.0,100.0,event
09:12:20.063,0.23997441,0.0,0.0,0.7978637,-0.29098704,0.0,0.0,0.8934614,0.49986663,0.0,0.0,0.60420454,0.9896064,0.0,0.0,1.163979,0.7149294,0.0,0.0,0.7864772,799.011,913.8461,963.4066,808.68134,759.12085,-0.11993408203125,0.11468505859375,0.96728515625,1.18133544921875,-3.4991455078125,-0.859832763671875,1.0,1.0,4.0,4.0,1.0,100.0,event
09:12:20.116,0.23997441,0.0,0.0,0.7978637,-0.29098704,0.0,0.0,0.8934614,0.49986663,0.0,0.0,0.60420454,0.9896064,0.0,0.0,1.163979,0.7149294,0.0,0.0,0.7864772,792.5641,722.8571,765.16486,797.3993,763.1502,-0.127685546875,0.11480712890625,0.967041015625,1.757049560546875,-5.33843994140625,-0.1495361328125,1.0,1.0,4.0,4.0,1.0,100.0,event
09:12:20.117,0.23997441,0.0,0.0,0.7978637,-0.29098704,0.0,0.0,0.8934614,0.49986663,0.0,0.0,0.60420454,0.9896064,0.0,0.0,1.163979,0.7149294,0.0,0.0,0.7864772,799.81683,644.68866,744.21246,799.81683,824.7985,-0.127685546875,0.11480712890625,0.967041015625,1.757049560546875,-5.33843994140625,-0.1495361328125,1.0,1.0,4.0,4.0,1.0,100.0,event
09:12:20.118,0.23997441,0.0,0.0,0.7978637,-0.29098704,0.0,0.0,0.8934614,0.49986663,0.0,0.0,0.60420454,0.9896064,0.0,0.0,1.163979,0.7149294,0.0,0.0,0.7864772,805.4579,922.71063,1001.685,819.9634,841.7216,-0.127685546875,0.11480712890625,0.967041015625,1.757049560546875,-5.33843994140625,-0.1495361328125,1.0,1.0,4.0,4.0,1.0,100.0,event
09:12:20.119,0.23997441,0.0,0.0,0.7978637,-0.29098704,0.0,0.0,0.8934614,0.49986663,0.0,0.0,0.60420454,0.9896064,0.0,0.0,1.163979,0.7149294,0.0,0.0,0.7864772,816.337,996.04395,1048.4249,848.1685,782.49084,-0.127685546875,0.11480712890625,0.967041015625,1.757049560546875,-5.33843994140625,-0.1495361328125,1.0,1.0,4.0,4.0,1.0,100.0,event
09:12:20.119,0.23997441,0.0,0.0,0.7978637,-0.29098704,0.0,0.0,0.8934614,0.49986663,0.0,0.0,0.60420454,0.9896064,0.0,0.0,1.163979,0.7149294,0.0,0.0,0.7864772,815.12823,654.7619,702.3077,834.87177,811.9048,-0.127685546875,0.11480712890625,0.967041015625,1.757049560546875,-5.33843994140625,-0.1495361328125,1.0,1.0,4.0,4.0,1.0,100.0,event
09:12:20.120,0.23997441,0.0,0.0,0.7978637,-0.29098704,0.0,0.0,0.8934614,0.49986663,0.0,0.0,0.60420454,0.9896064,0.0,0.0,1.163979,0.7149294,0.0,0.0,0.7864772,799.81683,354.9817,443.62637,797.8022,962.6007,-0.127685546875,0.11480712890625,0.967041015625,1.757049560546875,-5.33843994140625,-0.1495361328125,1.0,1.0,4.0,4.0,1.0,100.0,event
09:12:20.120,0.23997441,0.0,0.0,0.7978637,-0.29098704,0.0,0.0,0.8934614,0.49986663,0.0,0.0,0.60420454,0.9896064,0.0,0.0,1.163979,0.7149294,0.0,0.0,0.7864772,801.8315,496.00732,620.9158,804.65204,940.0366,-0.127685546875,0.11480712890625,0.967041015625,1.757049560546875,-5.33843994140625,-0.1495361328125,1.0,1.0,4.0,4.0,1.0,100.0,event
09:12:20.121,0.23997441,0.0,0.0,0.7978637,-0.29098704,0.0,0.0,0.8934614,0.49986663,0.0,0.0,0.60420454,0.9896064,0.0,0.0,1.163979,0.7149294,0.0,0.0,0.7864772,820.7692,648.71796,783.2967,839.304,813.1135,-0.127685546875,0.11480712890625,0.967041015625,1.757049560546875,-5.33843994140625,-0.1495361328125,1.0,1.0,4.0,4.0,1.0,100.0,event
09:12:20.122,0.23997441,0.0,0.0,0.7978637,-0.29098704,0.0,0.0,0.8934614,0.49986663,0.0,0.0,0.60420454,0.9896064,0.0,0.0,1.163979,0.7149294,0.0,0.0,0.7864772,817.5458,429.92673,579.011,846.9597,845.34796,-0.127685546875,0.11480712890625,0.967041015625,1.757049560546875,-5.33843994140625,-0.1495361328125,1.0,1.0,4.0,4.0,1.0,100.0,event
09:12:20.122,0.23997441,0.0,0.0,0.7978637,-0.29098704,0.0,0.0,0.8934614,0.49986663,0.0,0.0,0.60420454,0.9896064,0.0,0.0,1.163979,0.7149294,0.0,0.0,0.7864772,787.326,0.0,51.575092,821.5751,1070.1831,-0.127685546875,0.11480712890625,0.967041015625,1.757049560546875,-5.33843994140625,-0.1495361328125,1.0,1.0,4.0,4.0,1.0,100.0,event
09:12:20.123,0.23997441,0.0,0.0,0.7978637,-0.29098704,0.0,0.0,0.8934614,0.49986663,0.0,0.0,0.60420454,0.9896064,0.0,0.0,1.163979,0.7149294,0.0,0.0,0.7864772,780.87915,366.66666,450.87912,791.75824,933.1868,-0.127685546875,0.11480712890625,0.967041015625,1.757049560546875,-5.33843994140625,-0.1495361328125,1.0,1.0,4.0,4.0,1.0,100.0,event
09:12:20.123,0.23997441,0.0,0.0,0.7978637,-0.29098704,0.0,0.0,0.8934614,0.49986663,0.0,0.0,0.60420454,0.9896064,0.0,0.0,1.163979,0.7149294,0.0,0.0,0.7864772,791.75824,935.2015,1110.8792,792.1612,770.40295,-0.127685546875,0.11480712890625,0.967041015625,1.757049560546875,-5.33843994140625,-0.1495361328125,1.0,1.0,4.0,4.0,1.0,100.0,event
09:12:20.151,0.23997441,0.0,0.0,0.7978637,-0.29098704,0.0,0.0,0.8934614,0.49986663,0.0,0.0,0.60420454,0.9896064,0.0,0.0,1.163979,0.7149294,0.0,0.0,0.7864772,801.8315,823.1868,998.0586,816.7399,843.3333,-0.120849609375,0.11334228515625,0.9735107421875,1.218719482421875,-4.246826171875,-0.82244873046875,1.0,1.0,4.0,4.0,1.0,100.0,event
09:12:20.152,0.23997441,0.0,0.0,0.7978637,-0.29098704,0.0,0.0,0.8934614,0.49986663,0.0,0.0,0.60420454,0.9896064,0.0,0.0,1.163979,0.7149294,0.0,0.0,0.7864772,804.2491,802.6374,940.84247,835.2747,812.3077,-0.120849609375,0.11334228515625,0.9735107421875,1.218719482421875,-4.246826171875,-0.82244873046875,1.0,1.0,4.0,4.0,1.0,100.0,event
09:12:20.152,0.23997441,0.0,0.0,0.7978637,-0.29098704,0.0,0.0,0.8934614,0.49986663,0.0,0.0,0.60420454,0.9896064,0.0,0.0,1.163979,0.7149294,0.0,0.0,0.7864772,809.4872,877.98535,950.9158,819.5604,750.2564,-0.120849609375,0.11334228515625,0.9735107421875,1.218719482421875,-4.246826171875,-0.82244873046875,1.0,1.0,4.0,4.0,1.0,100.0,event
09:12:20.153,0.23997441,0.0,0.0,0.7978637,-0.29098704,0.0,0.0,0.8934614,0.49986663,0.0,0.0,0.60420454,0.9896064,0.0,0.0,1.163979,0.7149294,0.0,0.0,0.7864772,791.75824,734.94507,789.34064,790.54944,660.0,-0.120849609375,0.11334228515625,0.9735107421875,1.218719482421875,-4.246826171875,-0.82244873046875,1.0,1.0,4.0,4.0,1.0,100.0,event
09:12:20.153,0.23997441,0.0,0.0,0.7978637,-0.29098704,0.0,0.0,0.8934614,0.49986663,0.0,0.0,0.60420454,0.9896064,0.0,0.0,1.163979,0.7149294,0.0,0.0,0.7864772,776.4469,611.6484,728.49817,780.87915,722.0513,-0.120849609375,0.11334228515625,0.9735107421875,1.218719482421875,-4.246826171875,-0.82244873046875,1.0,1.0,4.0,4.0,1.0,100.0,event
09:12:20.154,0.23997441,0.0,0.0,0.7978637,-0.29098704,0.0,0.0,0.8934614,0.49986663,0.0,0.0,0.60420454,0.9896064,0.0,0.0,1.163979,0.7149294,0.0,0.0,0.7864772,797.3993,596.337,748.6447,801.02563,863.8828,-0.120849609375,0.11334228515625,0.9735107421875,1.218719482421875,-4.246826171875,-0.82244873046875,1.0,1.0,4.0,4.0,1.0,100.0,event
09:12:20.154,0.23997441,0.0,0.0,0.7978637,-0.29098704,0.0,0.0,0.8934614,0.49986663,0.0,0.0,0.60420454,0.9896064,0.0,0.0,1.163979,0.7149294,0.0,0.0,0.7864772,805.05493,553.6264,664.0293,823.9927,893.69965,-0.120849609375,0.11334228515625,0.9735107421875,1.218719482421875,-4.246826171875,-0.82244873046875,1.0,1.0,4.0,4.0,1.0,100.0,event
09:12:20.155,0.23997441,0.0,0.0,0.7978637,-0.29098704,0.0,0.0,0.8934614,0.49986663,0.0,0.0,0.60420454,0.9896064,0.0,0.0,1.163979,0.7149294,0.0,0.0,0.7864772,775.2381,276.41025,338.86447,767.98535,822.381,-0.120849609375,0.11334228515625,0.9735107421875,1.218719482421875,-4.246826171875,-0.82244873046875,1.0,1.0,4.0,4.0,1.0,100.0,event
09:12:20.155,0.23997441,0.0,0.0,0.7978637,-0.29098704,0.0,0.0,0.8934614,0.49986663,0.0,0.0,0.60420454,0.9896064,0.0,0.0,1.163979,0.7149294,0.0,0.0,0.7864772,790.54944,570.54944,630.18317,808.2784,776.4469,-0.120849609375,0.11334228515625,0.9735107421875,1.218719482421875,-4.246826171875,-0.82244873046875,1.0,1.0,4.0,4.0,1.0,100.0,event
09:12:20.156,0.23997441,0.0,0.0,0.7978637,-0.29098704,0.0,0.0,0.8934614,0.49986663,0.0,0.0,0.60420454,0.9896064,0.0,0.0,1.163979,0.7149294,0.0,0.0,0.7864772,789.34064,332.01465,446.84982,767.5824,813.5165,-0.120849609375,0.11334228515625,0.9735107421875,1.218719482421875,-4.246826171875,-0.82244873046875,1.0,1.0,4.0,4.0,1.0,100.0,event
09:12:20.159,0.23997441,0.0,0.0,0.7978637,-0.29098704,0.0,0.0,0.8934614,0.49986663,0.0,0.0,0.60420454,0.9896064,0.0,0.0,1.163979,0.7149294,0.0,0.0,0.7864772,799.81683,691.02563,823.5897,784.5055,716.0073,-0.120849609375,0.11334228515625,0.9735107421875,1.218719482421875,-4.246826171875,-0.82244873046875,1.0,1.0,4.0,4.0,1.0,100.0,event
09:12:20.160,0.23997441,0.0,0.0,0.7978637,-0.29098704,0.0,0.0,0.8934614,0.49986663,0.0,0.0,0.60420454,0.9896064,0.0,0.0,1.163979,0.7149294,0.0,0.0,0.7864772,795.78754,734.5421,874.35895,813.91943,799.41394,-0.120849609375,0.11334228515625,0.9735107421875,1.218719482421875,-4.246826171875,-0.82244873046875,1.0,1.0,4.0,4.0,1.0,100.0,event
09:12:20.182,0.23997441,0.0,0.0,0.7978637,-0.29098704,0.0,0.0,0.8934614,0.49986663,0.0,0.0,0.60420454,0.9896064,0.0,0.0,1.163979,0.7149294,0.0,0.0,0.7864772,782.8938,278.02197,375.53113,813.91943,967.03296,-0.122314453125,0.11077880859375,0.97003173828125,1.495361328125,-3.90289306640625,-0.710296630859375,1.0,1.0,4.0,4.0,1.0,100.0,event
09:12:20.183,0.23997441,0.0,0.0,0.7978637,-0.29098704,0.0,0.0,0.8934614,0.49986663,0.0,0.0,0.60420454,0.9896064,0.0,0.0,1.163979,0.7149294,0.0,0.0,0.7864772,781.685,257.87546,330.40292,784.5055,891.685,-0.122314453125,0.11077880859375,0.97003173828125,1.495361328125,-3.90289306640625,-0.710296630859375,1.0,1.0,4.0,4.0,1.0,100.0,event
09:12:20.183,0.23997441,0.0,0.0,0.7978637,-0.29098704,0.0,0.0,0.8934614,0.49986663,0.0,0.0,0.60420454,0.9896064,0.0,0.0,1.163979,0.7149294,0.0,0.0,0.7864772,801.4286,803.8461,916.26373,783.2967,662.4176,-0.122314453125,0.11077880859375,0.97003173828125,1.495361328125,-3.90289306640625,-0.710296630859375,1.0,1.0,4.0,4.0,1.0,100.0,event
09:12:20.184,0.23997441,0.0,0.0,0.7978637,-0.29098704,0.0,0.0,0.8934614,0.49986663,0.0,0.0,0.60420454,0.9896064,0.0,0.0,1.163979,0.7149294,0.0,0.0,0.7864772,787.72894,778.86444,907.8022,787.72894,801.02563,-0.122314453125,0.11077880859375,0.97003173828125,1.495361328125,-3.90289306640625,-0.710296630859375,1.0,1.0,4.0,4.0,1.0,100.0,event
09:12:20.184,0.23997441,0.0,0.0,0.7978637,-0.29098704,0.0,0.0,0.8934614,0.49986663,0.0,0.0,0.60420454,0.9896064,0.0,0.0,1.163979,0.7149294,0.0,0.0,0.7864772,804.2491,713.9927,845.7509,811.50183,865.4945,-0.122314453125,0.11077880859375,0.97003173828125,1.495361328125,-3.90289306640625,-0.710296630859375,1.0,1.0,4.0,4.0,1.0,100.0,event
09:12:20.185,0.23997441,0.0,0.0,0.7978637,-0.29098704,0.0,0.0,0.8934614,0.49986663,0.0,0.0,0.60420454,0.9896064,0.0,0.0,1.163979,0.7149294,0.0,0.0,0.7864772,802.23444,582.23444,687.8022,818.7546,782.0879,-0.122314453125,0.11077880859375,0.97003173828125,1.495361328125,-3.90289306640625,-0.710296630859375,1.0,1.0,4.0,4.0,1.0,100.0,event
09:12:20.186,0.23997441,0.0,0.0,0.7978637,-0.29098704,0.0,0.0,0.8934614,0.49986663,0.0,0.0,0.60420454,0.9896064,0.0,0.0,1.163979,0.7149294,0.0,0.0,0.7864772,753.8828,428.31503,518.1685,770.80585,801.4286,-0.122314453125,0.11077880859375,0.97003173828125,1.495361328125,-3.90289306640625,-0.710296630859375,1.0,1.0,4.0,4.0,1.0,100.0,event
09:12:20.187,0.23997441,0.0,0.0,0.7978637,-0.29098704,0.0,0.0,0.8934614,0.49986663,0.0,0.0,0.60420454,0.9896064,0.0,0.0,1.163979,0.7149294,0.0,0.0,0.7864772,741.79486,275.20148,425.09158,730.5128,871.13556,-0.122314453125,0.11077880859375,0.97003173828125,1.495361328125,-3.90289306640625,-0.710296630859375,1.0,1.0,4.0,4.0,1.0,100.0,event
09:12:20.187,0.23997441,0.0,0.0,0.7978637,-0.29098704,0.0,0.0,0.8934614,0.49986663,0.0,0.0,0.60420454,0.9896064,0.0,0.0,1.163979,0.7149294,0.0,0.0,0.7864772,782.8938,121.28205,314.68866,753.47986,973.0769,-0.122314453125,0.11077880859375,0.97003173828125,1.495361328125,-3.90289306640625,-0.710296630859375,1.0,1.0,4.0,4.0,1.0,100.0,event
09:12:20.188,0.23997441,0.0,0.0,0.7978637,-0.29098704,0.0,0.0,0.8934614,0.49986663,0.0,0.0,0.60420454,0.9896064,0.0,0.0,1.163979,0.7149294,0.0,0.0,0.7864772,816.7399,625.7509,770.80585,807.47253,799.41394,-0.122314453125,0.11077880859375,0.97003173828125,1.495361328125,-3.90289306640625,-0.710296630859375,1.0,1.0,4.0,4.0,1.0,100.0,event
09:12:20.189,0.23997441,0.0,0.0,0.7978637,-0.29098704,0.0,0.0,0.8934614,0.49986663,0.0,0.0,0.60420454,0.9896064,0.0,0.0,1.163979,0.7149294,0.0,0.0,0.7864772,757.9121,558.0586,662.8205,757.50916,732.9304,-0.122314453125,0.11077880859375,0.97003173828125,1.495361328125,-3.90289306640625,-0.710296630859375,1.0,1.0,4.0,4.0,1.0,100.0,event
09:12:20.189,0.23997441,0.0,0.0,0.7978637,-0.29098704,0.0,0.0,0.8934614,0.49986663,0.0,0.0,0.60420454,0.9896064,0.0,0.0,1.163979,0.7149294,0.0,0.0,0.7864772,786.52014,892.49084,998.86444,796.1905,684.9817,-0.122314453125,0.11077880859375,0.97003173828125,1.495361328125,-3.90289306640625,-0.710296630859375,1.0,1.0,4.0,4.0,1.0,100.0,event
09:12:20.246,0.23997441,0.0,0.0,0.7978637,-0.29098704,0.0,0.0,0.8934614,0.49986663,0.0,0.0,0.60420454,0.9896064,0.0,0.0,1.163979,0.7149294,0.0,0.0,0.7864772,757.50916,517.76556,623.3333,754.68866,640.65936,-0.12493896484375,0.1038818359375,0.95892333984375,1.876678466796875,-2.49725341796875,-0.934600830078125,1.0,1.0,4.0,4.0,1.0,100.0,event
