TimeStamp,Delta_TP9,Delta_AF7,Delta_AF8,Delta_TP10,Theta_TP9,Theta_AF7,Theta_AF8,Theta_TP10,Alpha_TP9,Alpha_AF7,Alpha_AF8,Alpha_TP10,Beta_TP9,Beta_AF7,Beta_AF8,Beta_TP10,Gamma_TP9,Gamma_AF7,Gamma_AF8,Gamma_TP10,RAW_TP9,RAW_AF7,RAW_AF8,RAW_TP10,AUX_RIGHT,Accelerometer_X,Accelerometer_Y,Accelerometer_Z,Gyro_X,Gyro_Y,Gyro_Z,HeadBandOn,HSI_TP9,HSI_AF7,HSI_AF8,HSI_TP10,Battery,Elements
12:36:44.052,0.77409625,0.70925885,1.2000972,1.387118,0.3695197,0.43669018,0.5597575,0.9980173,0.97426546,0.5983674,0.13464153,0.9760089,1.2454555,0.18500416,-0.071648434,1.1596564,0.6943603,-0.24000514,-0.29298827,0.66403925,791.3553,811.9048,828.022,785.31134,806.6667,-0.2344970703125,0.13360595703125,0.9566650390625,2.699127197265625,-3.6785888671875,-1.48040771484375,1.0,2.0,1.0,1.0,2.0,100.0,event
12:36:44.053,0.77409625,0.70925885,1.2000972,1.387118,0.3695197,0.43669018,0.5597575,0.9980173,0.97426546,0.5983674,0.13464153,0.9760089,1.2454555,0.18500416,-0.071648434,1.1596564,0.6943603,-0.24000514,-0.29298827,0.66403925,787.72894,813.1135,823.5897,776.04395,834.4689,-0.2344970703125,0.13360595703125,0.9566650390625,2.699127197265625,-3.6785888671875,-1.48040771484375,1.0,2.0,1.0,1.0,2.0,100.0,event
12:36:44.054,0.77409625,0.70925885,1.2000972,1.387118,0.3695197,0.43669018,0.5597575,0.9980173,0.97426546,0.5983674,0.13464153,0.9760089,1.2454555,0.18500416,-0.071648434,1.1596564,0.6943603,-0.24000514,-0.29298827,0.66403925,788.5348,803.8461,825.2015,757.9121,726.4835,-0.2344970703125,0.13360595703125,0.9566650390625,2.699127197265625,-3.6785888671875,-1.48040771484375,1.0,2.0,1.0,1.0,2.0,100.0,event
12:36:44.054,0.77409625,0.70925885,1.2000972,1.387118,0.3695197,0.43669018,0.5597575,0.9980173,0.97426546,0.5983674,0.13464153,0.9760089,1.2454555,0.18500416,-0.071648434,1.1596564,0.6943603,-0.24000514,-0.29298827,0.66403925,774.43225,803.44324,826.8132,772.01465,653.95605,-0.2344970703125,0.13360595703125,0.9566650390625,2.699127197265625,-3.6785888671875,-1.48040771484375,1.0,2.0,1.0,1.0,2.0,100.0,event
12:36:44.055,0.77409625,0.70925885,1.2000972,1.387118,0.3695197,0.43669018,0.5597575,0.9980173,0.97426546,0.5983674,0.13464153,0.9760089,1.2454555,0.18500416,-0.071648434,1.1596564,0.6943603,-0.24000514,-0.29298827,0.66403925,784.10254,804.2491,829.6337,768.7912,714.3956,-0.2344970703125,0.13360595703125,0.9566650390625,2.699127197265625,-3.6785888671875,-1.48040771484375,1.0,2.0,1.0,1.0,2.0,100.0,event
12:36:44.056,0.77409625,0.70925885,1.2000972,1.387118,0.3695197,0.43669018,0.5597575,0.9980173,0.97426546,0.5983674,0.13464153,0.9760089,1.2454555,0.18500416,-0.071648434,1.1596564,0.6943603,-0.24000514,-0.29298827,0.66403925,805.05493,805.4579,826.8132,763.95605,797.8022,-0.2344970703125,0.13360595703125,0.9566650390625,2.699127197265625,-3.6785888671875,-1.48040771484375,1.0,2.0,1.0,1.0,2.0,100.0,event
12:36:44.056,0.77409625,0.70925885,1.2000972,1.387118,0.3695197,0.43669018,0.5597575,0.9980173,0.97426546,0.5983674,0.13464153,0.9760089,1.2454555,0.18500416,-0.071648434,1.1596564,0.6943603,-0.24000514,-0.29298827,0.66403925,799.41394,807.47253,826.0073,764.35895,815.12823,-0.2344970703125,0.13360595703125,0.9566650390625,2.699127197265625,-3.6785888671875,-1.48040771484375,1.0,2.0,1.0,1.0,2.0,100.0,event
12:36:44.057,0.77409625,0.70925885,1.2000972,1.387118,0.3695197,0.43669018,0.5597575,0.9980173,0.97426546,0.5983674,0.13464153,0.9760089,1.2454555,0.18500416,-0.071648434,1.1596564,0.6943603,-0.24000514,-0.29298827,0.66403925,801.8315,803.8461,825.6044,766.77655,657.98535,-0.2344970703125,0.13360595703125,0.9566650390625,2.699127197265625,-3.6785888671875,-1.48040771484375,1.0,2.0,1.0,1.0,2.0,100.0,event
12:36:44.058,0.77409625,0.70925885,1.2000972,1.387118,0.3695197,0.43669018,0.5597575,0.9980173,0.97426546,0.5983674,0.13464153,0.9760089,1.2454555,0.18500416,-0.071648434,1.1596564,0.6943603,-0.24000514,-0.29298827,0.66403925,804.2491,801.8315,825.6044,782.0879,728.49817,-0.2344970703125,0.13360595703125,0.9566650390625,2.699127197265625,-3.6785888671875,-1.48040771484375,1.0,2.0,1.0,1.0,2.0,100.0,event
12:36:44.059,0.77409625,0.70925885,1.2000972,1.387118,0.3695197,0.43669018,0.5597575,0.9980173,0.97426546,0.5983674,0.13464153,0.9760089,1.2454555,0.18500416,-0.071648434,1.1596564,0.6943603,-0.24000514,-0.29298827,0.66403925,798.20514,799.41394,827.2161,761.9414,973.8828,-0.2344970703125,0.13360595703125,0.9566650390625,2.699127197265625,-3.6785888671875,-1.48040771484375,1.0,2.0,1.0,1.0,2.0,100.0,event
12:36:44.060,0.77409625,0.70925885,1.2000972,1.387118,0.3695197,0.43669018,0.5597575,0.9980173,0.97426546,0.5983674,0.13464153,0.9760089,1.2454555,0.18500416,-0.071648434,1.1596564,0.6943603,-0.24000514,-0.29298827,0.66403925,813.5165,804.2491,826.4103,757.9121,804.65204,-0.2344970703125,0.13360595703125,0.9566650390625,2.699127197265625,-3.6785888671875,-1.48040771484375,1.0,2.0,1.0,1.0,2.0,100.0,event
12:36:44.061,0.77409625,0.70925885,1.2000972,1.387118,0.3695197,0.43669018,0.5597575,0.9980173,0.97426546,0.5983674,0.13464153,0.9760089,1.2454555,0.18500416,-0.071648434,1.1596564,0.6943603,-0.24000514,-0.29298827,0.66403925,820.3663,811.0989,823.1868,770.0,705.9341,-0.2344970703125,0.13360595703125,0.9566650390625,2.699127197265625,-3.6785888671875,-1.48040771484375,1.0,2.0,1.0,1.0,2.0,100.0,event
12:36:44.085,0.77409625,0.70925885,1.2000972,1.387118,0.3695197,0.43669018,0.5597575,0.9980173,0.97426546,0.5983674,0.13464153,0.9760089,1.2454555,0.18500416,-0.071648434,1.1596564,0.6943603,-0.24000514,-0.29298827,0.66403925,799.011,810.696,826.8132,771.6117,740.989,-0.2344970703125,0.13360595703125,0.9566650390625,2.699127197265625,-3.6785888671875,-1.48040771484375,1.0,2.0,1.0,1.0,2.0,100.0,event
12:36:44.086,0.77409625,0.70925885,1.2000972,1.387118,0.3695197,0.43669018,0.5597575,0.9980173,0.97426546,0.5983674,0.13464153,0.9760089,1.2454555,0.18500416,-0.071648434,1.1596564,0.6943603,-0.24000514,-0.29298827,0.66403925,794.17584,811.50183,829.6337,774.0293,707.9487,-0.2344970703125,0.13360595703125,0.9566650390625,2.699127197265625,-3.6785888671875,-1.48040771484375,1.0,2.0,1.0,1.0,2.0,100.0,event
12:36:44.087,0.77409625,0.70925885,1.2000972,1.387118,0.3695197,0.43669018,0.5597575,0.9980173,0.97426546,0.5983674,0.13464153,0.9760089,1.2454555,0.18500416,-0.071648434,1.1596564,0.6943603,-0.24000514,-0.29298827,0.66403925,786.1172,812.3077,826.4103,764.35895,755.89746,-0.2344970703125,0.13360595703125,0.9566650390625,2.699127197265625,-3.6785888671875,-1.48040771484375,1.0,2.0,1.0,1.0,2.0,100.0,event
12:36:44.087,0.77409625,0.7202911,1.2000972,1.387118,0.3695197,0.43702546,0.5597575,0.9980173,0.97426546,0.58196896,0.13464153,0.9760089,1.2454555,0.19396898,-0.071648434,1.1596564,0.6943603,-0.2238571,-0.29298827,0.66403925,774.83514,810.696,830.0366,782.8938,839.304,-0.2344970703125,0.13360595703125,0.9566650390625,2.699127197265625,-3.6785888671875,-1.48040771484375,1.0,2.0,1.0,1.0,2.0,100.0,event
12:36:44.090,0.77409625,0.7202911,1.2000972,1.387118,0.3695197,0.43702546,0.5597575,0.9980173,0.97426546,0.58196896,0.13464153,0.9760089,1.2454555,0.19396898,-0.071648434,1.1596564,0.6943603,-0.2238571,-0.29298827,0.66403925,775.64105,811.50183,827.2161,777.6557,930.7692,-0.2344970703125,0.13360595703125,0.9566650390625,2.699127197265625,-3.6785888671875,-1.48040771484375,1.0,2.0,1.0,1.0,2.0,100.0,event
12:36:44.091,0.77409625,0.7202911,1.2000972,1.387118,0.3695197,0.43702546,0.5597575,0.9980173,0.97426546,0.58196896,0.13464153,0.9760089,1.2454555,0.19396898,-0.071648434,1.1596564,0.6943603,-0.2238571,-0.29298827,0.66403925,782.0879,812.3077,824.7985,774.83514,929.15753,-0.2344970703125,0.13360595703125,0.9566650390625,2.699127197265625,-3.6785888671875,-1.48040771484375,1.0,2.0,1.0,1.0,2.0,100.0,event
12:36:44.091,0.77409625,0.7202911,1.2000972,1.387118,0.3695197,0.43702546,0.5597575,0.9980173,0.97426546,0.58196896,0.13464153,0.9760089,1.2454555,0.19396898,-0.071648434,1.1596564,0.6943603,-0.2238571,-0.29298827,0.66403925,780.4762,808.68134,826.8132,791.3553,814.7253,-0.2344970703125,0.13360595703125,0.9566650390625,2.699127197265625,-3.6785888671875,-1.48040771484375,1.0,2.0,1.0,1.0,2.0,100.0,event
12:36:44.092,0.77409625,0.7202911,1.2000972,1.387118,0.3695197,0.43702546,0.5597575,0.9980173,0.97426546,0.58196896,0.13464153,0.9760089,1.2454555,0.19396898,-0.071648434,1.1596564,0.6943603,-0.2238571,-0.29298827,0.66403925,777.25275,806.6667,826.4103,782.0879,814.3223,-0.2344970703125,0.13360595703125,0.9566650390625,2.699127197265625,-3.6785888671875,-1.48040771484375,1.0,2.0,1.0,1.0,2.0,100.0,event
12:36:44.093,0.77409625,0.7202911,1.2000972,1.387118,0.3695197,0.43702546,0.5597575,0.9980173,0.97426546,0.58196896,0.13464153,0.9760089,1.2454555,0.19396898,-0.071648434,1.1596564,0.6943603,-0.2238571,-0.29298827,0.66403925,790.14655,808.68134,827.619,776.8498,1031.5018,-0.2344970703125,0.13360595703125,0.9566650390625,2.699127197265625,-3.6785888671875,-1.48040771484375,1.0,2.0,1.0,1.0,2.0,100.0,event
12:36:44.093,0.77409625,0.7202911,1.2000972,1.387118,0.3695197,0.43702546,0.5597575,0.9980173,0.97426546,0.58196896,0.13464153,0.9760089,1.2454555,0.19396898,-0.071648434,1.1596564,0.6943603,-0.2238571,-0.29298827,0.66403925,803.44324,810.696,830.4396,774.83514,950.10986,-0.2344970703125,0.13360595703125,0.9566650390625,2.699127197265625,-3.6785888671875,-1.48040771484375,1.0,2.0,1.0,1.0,2.0,100.0,event
12:36:44.094,0.77409625,0.7202911,1.2000972,1.387118,0.3695197,0.43702546,0.5597575,0.9980173,0.97426546,0.58196896,0.13464153,0.9760089,1.2454555,0.19396898,-0.071648434,1.1596564,0.6943603,-0.2238571,-0.29298827,0.66403925,781.28204,805.05493,828.8278,767.98535,690.6227,-0.2344970703125,0.13360595703125,0.9566650390625,2.699127197265625,-3.6785888671875,-1.48040771484375,1.0,2.0,1.0,1.0,2.0,100.0,event
12:36:44.094,0.77409625,0.7202911,1.2000972,1.387118,0.3695197,0.43702546,0.5597575,0.9980173,0.97426546,0.58196896,0.13464153,0.9760089,1.2454555,0.19396898,-0.071648434,1.1596564,0.6943603,-0.2238571,-0.29298827,0.66403925,787.72894,805.4579,830.0366,772.4176,665.2381,-0.2344970703125,0.13360595703125,0.9566650390625,2.699127197265625,-3.6785888671875,-1.48040771484375,1.0,2.0,1.0,1.0,2.0,100.0,event
12:36:44.118,0.77409625,0.7202911,1.2000972,1.387118,0.3695197,0.43702546,0.5597575,0.9980173,0.97426546,0.58196896,0.13464153,0.9760089,1.2454555,0.19396898,-0.071648434,1.1596564,0.6943603,-0.2238571,-0.29298827,0.66403925,803.8461,808.68134,825.6044,786.52014,747.4359,-0.236083984375,0.1363525390625,0.95623779296875,1.55517578125,-3.887939453125,-0.299072265625,1.0,2.0,1.0,1.0,2.0,100.0,event
12:36:44.119,0.77409625,0.7202911,1.2000972,1.387118,0.3695197,0.43702546,0.5597575,0.9980173,0.97426546,0.58196896,0.13464153,0.9760089,1.2454555,0.19396898,-0.071648434,1.1596564,0.6943603,-0.2238571,-0.29298827,0.66403925,799.41394,807.47253,822.381,811.9048,726.08057,-0.236083984375,0.1363525390625,0.95623779296875,1.55517578125,-3.887939453125,-0.299072265625,1.0,2.0,1.0,1.0,2.0,100.0,event
12:36:44.120,0.77409625,0.7202911,1.2000972,1.387118,0.3695197,0.43702546,0.5597575,0.9980173,0.97426546,0.58196896,0.13464153,0.9760089,1.2454555,0.19396898,-0.071648434,1.1596564,0.6943603,-0.2238571,-0.29298827,0.66403925,807.8755,807.8755,826.4103,763.95605,736.9597,-0.236083984375,0.1363525390625,0.95623779296875,1.55517578125,-3.887939453125,-0.299072265625,1.0,2.0,1.0,1.0,2.0,100.0,event
12:36:44.121,0.77409625,0.7202911,1.2000972,1.387118,0.3695197,0.43702546,0.5597575,0.9980173,0.97426546,0.58196896,0.13464153,0.9760089,1.2454555,0.19396898,-0.071648434,1.1596564,0.6943603,-0.2238571,-0.29298827,0.66403925,822.7839,806.6667,825.6044,749.85345,757.9121,-0.236083984375,0.1363525390625,0.95623779296875,1.55517578125,-3.887939453125,-0.299072265625,1.0,2.0,1.0,1.0,2.0,100.0,event
12:36:44.122,0.77409625,0.7202911,1.2000972,1.387118,0.3695197,0.43702546,0.5597575,0.9980173,0.97426546,0.58196896,0.13464153,0.9760089,1.2454555,0.19396898,-0.071648434,1.1596564,0.6943603,-0.2238571,-0.29298827,0.66403925,808.2784,805.05493,823.9927,762.74725,766.77655,-0.236083984375,0.1363525390625,0.95623779296875,1.55517578125,-3.887939453125,-0.299072265625,1.0,2.0,1.0,1.0,2.0,100.0,event
12:36:44.122,0.77409625,0.7202911,1.2000972,1.387118,0.3695197,0.43702546,0.5597575,0.9980173,0.97426546,0.58196896,0.13464153,0.9760089,1.2454555,0.19396898,-0.071648434,1.1596564,0.6943603,-0.2238571,-0.29298827,0.66403925,805.4579,803.8461,830.4396,760.32965,767.1795,-0.236083984375,0.1363525390625,0.95623779296875,1.55517578125,-3.887939453125,-0.299072265625,1.0,2.0,1.0,1.0,2.0,100.0,event
12:36:44.123,0.77409625,0.7202911,1.2000972,1.387118,0.3695197,0.43702546,0.5597575,0.9980173,0.97426546,0.58196896,0.13464153,0.9760089,1.2454555,0.19396898,-0.071648434,1.1596564,0.6943603,-0.2238571,-0.29298827,0.66403925,800.2198,804.2491,828.022,786.9231,759.92676,-0.236083984375,0.1363525390625,0.95623779296875,1.55517578125,-3.887939453125,-0.299072265625,1.0,2.0,1.0,1.0,2.0,100.0,event
12:36:44.124,0.77409625,0.7202911,1.2000972,1.387118,0.3695197,0.43702546,0.5597575,0.9980173,0.97426546,0.58196896,0.13464153,0.9760089,1.2454555,0.19396898,-0.071648434,1.1596564,0.6943603,-0.2238571,-0.29298827,0.66403925,793.7729,807.47253,827.2161,781.685,852.1978,-0.236083984375,0.1363525390625,0.95623779296875,1.55517578125,-3.887939453125,-0.299072265625,1.0,2.0,1.0,1.0,2.0,100.0,event
12:36:44.125,0.77409625,0.7202911,1.2000972,1.387118,0.3695197,0.43702546,0.5597575,0.9980173,0.97426546,0.58196896,0.13464153,0.9760089,1.2454555,0.19396898,-0.071648434,1.1596564,0.6943603,-0.2238571,-0.29298827,0.66403925,786.52014,811.9048,830.84247,772.4176,1064.9451,-0.236083984375,0.1363525390625,0.95623779296875,1.55517578125,-3.887939453125,-0.299072265625,1.0,2.0,1.0,1.0,2.0,100.0,event
12:36:44.126,0.77409625,0.7202911,1.2000972,1.387118,0.3695197,0.43702546,0.5597575,0.9980173,0.97426546,0.58196896,0.13464153,0.9760089,1.2454555,0.19396898,-0.071648434,1.1596564,0.6943603,-0.2238571,-0.29298827,0.66403925,792.1612,816.337,829.6337,767.98535,863.8828,-0.236083984375,0.1363525390625,0.95623779296875,1.55517578125,-3.887939453125,-0.299072265625,1.0,2.0,1.0,1.0,2.0,100.0,event
12:36:44.126,0.77409625,0.7202911,1.2000972,1.387118,0.3695197,0.43702546,0.5597575,0.9980173,0.97426546,0.58196896,0.13464153,0.9760089,1.2454555,0.19396898,-0.071648434,1.1596564,0.6943603,-0.2238571,-0.29298827,0.66403925,788.1319,811.9048,825.2015,759.12085,690.6227,-0.236083984375,0.1363525390625,0.95623779296875,1.55517578125,-3.887939453125,-0.299072265625,1.0,2.0,1.0,1.0,2.0,100.0,event
12:36:44.127,0.77409625,0.7202911,1.2000972,1.387118,0.3695197,0.43702546,0.5597575,0.9980173,0.97426546,0.58196896,0.13464153,0.9760089,1.2454555,0.19396898,-0.071648434,1.1596564,0.6943603,-0.2238571,-0.29298827,0.66403925,786.9231,804.65204,820.3663,761.13556,811.9048,-0.236083984375,0.1363525390625,0.95623779296875,1.55517578125,-3.887939453125,-0.299072265625,1.0,2.0,1.0,1.0,2.0,100.0,event
12:36:44.189,0.77409625,0.7202911,1.2000972,1.387118,0.3695197,0.43702546,0.5597575,0.9980173,0.97426546,0.58196896,0.13464153,0.9760089,1.2454555,0.19396898,-0.071648434,1.1596564,0.6943603,-0.2238571,-0.29298827,0.66403925,801.02563,801.02563,823.1868,771.2088,819.15753,-0.2349853515625,0.12872314453125,0.94775390625,1.712188720703125,-4.14215087890625,-0.964508056640625,1.0,2.0,1.0,1.0,2.0,100.0,event
12:36:44.191,0.77409625,0.7202911,1.2000972,1.387118,0.3695197,0.43702546,0.5597575,0.9980173,0.97426546,0.58196896,0.13464153,0.9760089,1.2454555,0.19396898,-0.071648434,1.1596564,0.6943603,-0.2238571,-0.29298827,0.66403925,806.6667,797.8022,829.6337,802.6374,729.707,-0.2349853515625,0.12872314453125,0.94775390625,1.712188720703125,-4.14215087890625,-0.964508056640625,1.0,2.0,1.0,1.0,2.0,100.0,event
12:36:44.191,0.77409625,0.7202911,1.2000972,1.387118,0.3695197,0.43702546,0.5597575,0.9980173,0.97426546,0.58196896,0.13464153,0.9760089,1.2454555,0.19396898,-0.071648434,1.1596564,0.6943603,-0.2238571,-0.29298827,0.66403925,824.7985,800.2198,826.0073,810.293,761.53845,-0.2349853515625,0.12872314453125,0.94775390625,1.712188720703125,-4.14215087890625,-0.964508056640625,1.0,2.0,1.0,1.0,2.0,100.0,event
12:36:44.192,0.77409625,0.7202911,1.2000972,1.387118,0.3695197,0.43702546,0.5597575,0.9980173,0.97426546,0.58196896,0.13464153,0.9760089,1.2454555,0.19396898,-0.071648434,1.1596564,0.6943603,-0.2238571,-0.29298827,0.66403925,797.3993,806.26373,825.6044,773.6264,819.9634,-0.2349853515625,0.12872314453125,0.94775390625,1.712188720703125,-4.14215087890625,-0.964508056640625,1.0,2.0,1.0,1.0,2.0,100.0,event
12:36:44.193,0.77409625,0.7202911,1.2000972,1.387118,0.3695197,0.43702546,0.5597575,0.9980173,0.97426546,0.58196896,0.13464153,0.9760089,1.2454555,0.19396898,-0.071648434,1.1596564,0.6943603,-0.2238571,-0.29298827,0.66403925,781.685,802.6374,831.6484,753.47986,836.8865,-0.2349853515625,0.12872314453125,0.94775390625,1.712188720703125,-4.14215087890625,-0.964508056640625,1.0,2.0,1.0,1.0,2.0,100.0,event
12:36:44.193,0.77409625,0.7141884,1.2000972,1.387118,0.3695197,0.43209445,0.5597575,0.9980173,0.97426546,0.5764914,0.13464153,0.9760089,1.2454555,0.19403492,-0.071648434,1.1596564,0.6943603,-0.20668674,-0.29298827,0.66403925,789.7436,798.20514,832.4542,769.59705,888.46155,-0.2349853515625,0.12872314453125,0.94775390625,1.712188720703125,-4.14215087890625,-0.964508056640625,1.0,2.0,1.0,1.0,2.0,100.0,event
12:36:44.198,0.77409625,0.7141884,1.2000972,1.387118,0.3695197,0.43209445,0.5597575,0.9980173,0.97426546,0.5764914,0.13464153,0.9760089,1.2454555,0.19403492,-0.071648434,1.1596564,0.6943603,-0.20668674,-0.29298827,0.66403925,758.315,797.3993,830.0366,759.12085,960.18317,-0.2349853515625,0.12872314453125,0.94775390625,1.712188720703125,-4.14215087890625,-0.964508056640625,1.0,2.0,1.0,1.0,2.0,100.0,event
12:36:44.199,0.77409625,0.7141884,1.2000972,1.387118,0.3695197,0.43209445,0.5597575,0.9980173,0.97426546,0.5764914,0.13464153,0.9760089,1.2454555,0.19403492,-0.071648434,1.1596564,0.6943603,-0.20668674,-0.29298827,0.66403925,769.19415,796.5934,828.4249,733.73627,1065.348,-0.2349853515625,0.12872314453125,0.94775390625,1.712188720703125,-4.14215087890625,-0.964508056640625,1.0,2.0,1.0,1.0,2.0,100.0,event
12:36:44.200,0.77409625,0.7141884,1.2000972,1.387118,0.3695197,0.43209445,0.5597575,0.9980173,0.97426546,0.5764914,0.13464153,0.9760089,1.2454555,0.19403492,-0.071648434,1.1596564,0.6943603,-0.20668674,-0.29298827,0.66403925,788.1319,799.81683,825.6044,736.55676,937.2161,-0.2349853515625,0.12872314453125,0.94775390625,1.712188720703125,-4.14215087890625,-0.964508056640625,1.0,2.0,1.0,1.0,2.0,100.0,event
12:36:44.201,0.77409625,0.7141884,1.2000972,1.387118,0.3695197,0.43209445,0.5597575,0.9980173,0.97426546,0.5764914,0.13464153,0.9760089,1.2454555,0.19403492,-0.071648434,1.1596564,0.6943603,-0.20668674,-0.29298827,0.66403925,803.44324,803.0403,823.1868,748.6447,767.1795,-0.2349853515625,0.12872314453125,0.94775390625,1.712188720703125,-4.14215087890625,-0.964508056640625,1.0,2.0,1.0,1.0,2.0,100.0,event
12:36:44.202,0.77409625,0.7141884,1.2000972,1.387118,0.3695197,0.43209445,0.5597575,0.9980173,0.97426546,0.5764914,0.13464153,0.9760089,1.2454555,0.19403492,-0.071648434,1.1596564,0.6943603,-0.20668674,-0.29298827,0.66403925,821.1722,803.0403,829.2308,762.3443,826.8132,-0.2349853515625,0.12872314453125,0.94775390625,1.712188720703125,-4.14215087890625,-0.964508056640625,1.0,2.0,1.0,1.0,2.0,100.0,event
12:36:44.202,0.77409625,0.7141884,1.2000972,1.387118,0.3695197,0.43209445,0.5597575,0.9980173,0.97426546,0.5764914,0.13464153,0.9760089,1.2454555,0.19403492,-0.071648434,1.1596564,0.6943603,-0.20668674,-0.29298827,0.66403925,800.6227,801.02563,832.4542,767.98535,928.3516,-0.2349853515625,0.12872314453125,0.94775390625,1.712188720703125,-4.14215087890625,-0.964508056640625,1.0,2.0,1.0,1.0,2.0,100.0,event
12:36:44.228,0.77409625,0.7141884,1.2000972,1.387118,0.3695197,0.43209445,0.5597575,0.9980173,0.97426546,0.5764914,0.13464153,0.9760089,1.2454555,0.19403492,-0.071648434,1.1596564,0.6943603,-0.20668674,-0.29298827,0.66403925,786.52014,801.8315,830.4396,765.9707,803.0403,-0.23052978515625,0.12786865234375,0.94915771484375,2.43743896484375,-2.82623291015625,-1.4056396484375,1.0,2.0,1.0,1.0,2.0,100.0,event
12:36:44.229,0.77409625,0.7141884,1.2000972,1.387118,0.3695197,0.43209445,0.5597575,0.9980173,0.97426546,0.5764914,0.13464153,0.9760089,1.2454555,0.19403492,-0.071648434,1.1596564,0.6943603,-0.20668674,-0.29298827,0.66403925,788.5348,803.44324,831.2454,774.43225,730.5128,-0.23052978515625,0.12786865234375,0.94915771484375,2.43743896484375,-2.82623291015625,-1.4056396484375,1.0,2.0,1.0,1.0,2.0,100.0,event
12:36:44.230,0.77409625,0.7141884,1.2000972,1.387118,0.3695197,0.43209445,0.5597575,0.9980173,0.97426546,0.5764914,0.13464153,0.9760089,1.2454555,0.19403492,-0.071648434,1.1596564,0.6943603,-0.20668674,-0.29298827,0.66403925,784.90845,805.05493,829.2308,785.31134,736.55676,-0.23052978515625,0.12786865234375,0.94915771484375,2.43743896484375,-2.82623291015625,-1.4056396484375,1.0,2.0,1.0,1.0,2.0,100.0,event
12:36:44.232,0.77409625,0.7141884,1.2000972,1.387118,0.3695197,0.43209445,0.5597575,0.9980173,0.97426546,0.5764914,0.13464153,0.9760089,1.2454555,0.19403492,-0.071648434,1.1596564,0.6943603,-0.20668674,-0.29298827,0.66403925,792.1612,799.81683,828.4249,792.96704,752.27106,-0.23052978515625,0.12786865234375,0.94915771484375,2.43743896484375,-2.82623291015625,-1.4056396484375,1.0,2.0,1.0,1.0,2.0,100.0,event
12:36:44.233,0.77409625,0.7141884,1.2000972,1.387118,0.3695197,0.43209445,0.5597575,0.9980173,0.97426546,0.5764914,0.13464153,0.9760089,1.2454555,0.19403492,-0.071648434,1.1596564,0.6943603,-0.20668674,-0.29298827,0.66403925,811.9048,796.1905,833.2601,801.8315,796.99634,-0.23052978515625,0.12786865234375,0.94915771484375,2.43743896484375,-2.82623291015625,-1.4056396484375,1.0,2.0,1.0,1.0,2.0,100.0,event
12:36:44.234,0.77409625,0.7141884,1.2000972,1.387118,0.3695197,0.43209445,0.5597575,0.9980173,0.97426546,0.5764914,0.13464153,0.9760089,1.2454555,0.19403492,-0.071648434,1.1596564,0.6943603,-0.20668674,-0.29298827,0.66403925,809.0842,802.23444,831.6484,788.1319,756.30035,-0.23052978515625,0.12786865234375,0.94915771484375,2.43743896484375,-2.82623291015625,-1.4056396484375,1.0,2.0,1.0,1.0,2.0,100.0,event
12:36:44.235,0.77409625,0.7141884,1.2000972,1.387118,0.3695197,0.43209445,0.5597575,0.9980173,0.97426546,0.5764914,0.13464153,0.9760089,1.2454555,0.19403492,-0.071648434,1.1596564,0.6943603,-0.20668674,-0.29298827,0.66403925,778.0586,803.0403,830.0366,765.9707,819.5604,-0.23052978515625,0.12786865234375,0.94915771484375,2.43743896484375,-2.82623291015625,-1.4056396484375,1.0,2.0,1.0,1.0,2.0,100.0,event
12:36:44.236,0.77409625,0.7141884,1.2000972,1.387118,0.3695197,0.43209445,0.5597575,0.9980173,0.97426546,0.5764914,0.13464153,0.9760089,1.2454555,0.19403492,-0.071648434,1.1596564,0.6943603,-0.20668674,-0.29298827,0.66403925,782.0879,798.20514,833.2601,780.87915,1020.2198,-0.23052978515625,0.12786865234375,0.94915771484375,2.43743896484375,-2.82623291015625,-1.4056396484375,1.0,2.0,1.0,1.0,2.0,100.0,event
12:36:44.237,0.77409625,0.7141884,1.2000972,1.387118,0.3695197,0.43209445,0.5597575,0.9980173,0.97426546,0.5764914,0.13464153,0.9760089,1.2454555,0.19403492,-0.071648434,1.1596564,0.6943603,-0.20668674,-0.29298827,0.66403925,800.2198,799.011,832.8571,803.8461,842.1245,-0.23052978515625,0.12786865234375,0.94915771484375,2.43743896484375,-2.82623291015625,-1.4056396484375,1.0,2.0,1.0,1.0,2.0,100.0,event
12:36:44.238,0.77409625,0.7141884,1.2000972,1.387118,0.3695197,0.43209445,0.5597575,0.9980173,0.97426546,0.5764914,0.13464153,0.9760089,1.2454555,0.19403492,-0.071648434,1.1596564,0.6943603,-0.20668674,-0.29298827,0.66403925,793.36993,804.2491,831.6484,810.696,669.2674,-0.23052978515625,0.12786865234375,0.94915771484375,2.43743896484375,-2.82623291015625,-1.4056396484375,1.0,2.0,1.0,1.0,2.0,100.0,event
12:36:44.239,0.77409625,0.7141884,1.2000972,1.387118,0.3695197,0.43209445,0.5597575,0.9980173,0.97426546,0.5764914,0.13464153,0.9760089,1.2454555,0.19403492,-0.071648434,1.1596564,0.6943603,-0.20668674,-0.29298827,0.66403925,816.7399,808.2784,833.2601,775.2381,741.79486,-0.23052978515625,0.12786865234375,0.94915771484375,2.43743896484375,-2.82623291015625,-1.4056396484375,1.0,2.0,1.0,1.0,2.0,100.0,event
12:36:44.240,0.77409625,0.7141884,1.2000972,1.387118,0.3695197,0.43209445,0.5597575,0.9980173,0.97426546,0.5764914,0.13464153,0.9760089,1.2454555,0.19403492,-0.071648434,1.1596564,0.6943603,-0.20668674,-0.29298827,0.66403925,807.47253,805.4579,835.2747,754.68866,752.674,-0.23052978515625,0.12786865234375,0.94915771484375,2.43743896484375,-2.82623291015625,-1.4056396484375,1.0,2.0,1.0,1.0,2.0,100.0,event
12:36:44.269,0.77409625,0.7141884,1.2000972,1.387118,0.3695197,0.43209445,0.5597575,0.9980173,0.97426546,0.5764914,0.13464153,0.9760089,1.2454555,0.19403492,-0.071648434,1.1596564,0.6943603,-0.20668674,-0.29298827,0.66403925,798.20514,801.4286,831.6484,766.3736,794.9817,-0.23992919921875,0.125,0.95343017578125,2.459869384765625,-2.803802490234375,-0.740203857421875,1.0,2.0,1.0,1.0,2.0,100.0,event
12:36:44.270,0.77409625,0.7141884,1.2000972,1.387118,0.3695197,0.43209445,0.5597575,0.9980173,0.97426546,0.5764914,0.13464153,0.9760089,1.2454555,0.19403492,-0.071648434,1.1596564,0.6943603,-0.20668674,-0.29298827,0.66403925,804.2491,800.6227,827.619,777.6557,825.6044,-0.23992919921875,0.125,0.95343017578125,2.459869384765625,-2.803802490234375,-0.740203857421875,1.0,2.0,1.0,1.0,2.0,100.0,event
12:36:44.270,0.77409625,0.7141884,1.2000972,1.387118,0.3695197,0.43209445,0.5597575,0.9980173,0.97426546,0.5764914,0.13464153,0.9760089,1.2454555,0.19403492,-0.071648434,1.1596564,0.6943603,-0.20668674,-0.29298827,0.66403925,801.4286,800.6227,830.84247,782.8938,842.9304,-0.23992919921875,0.125,0.95343017578125,2.459869384765625,-2.803802490234375,-0.740203857421875,1.0,2.0,1.0,1.0,2.0,100.0,event
12:36:44.271,0.77409625,0.7141884,1.2000972,1.387118,0.3695197,0.43209445,0.5597575,0.9980173,0.97426546,0.5764914,0.13464153,0.9760089,1.2454555,0.19403492,-0.071648434,1.1596564,0.6943603,-0.20668674,-0.29298827,0.66403925,813.91943,801.4286,832.8571,783.2967,799.81683,-0.23992919921875,0.125,0.95343017578125,2.459869384765625,-2.803802490234375,-0.740203857421875,1.0,2.0,1.0,1.0,2.0,100.0,event
12:36:44.271,0.77409625,0.7141884,1.2000972,1.387118,0.3695197,0.43209445,0.5597575,0.9980173,0.97426546,0.5764914,0.13464153,0.9760089,1.2454555,0.19403492,-0.071648434,1.1596564,0.6943603,-0.20668674,-0.29298827,0.66403925,834.87177,804.65204,832.8571,770.40295,670.07324,-0.23992919921875,0.125,0.95343017578125,2.459869384765625,-2.803802490234375,-0.740203857421875,1.0,2.0,1.0,1.0,2.0,100.0,event
12:36:44.272,0.77409625,0.7141884,1.2000972,1.387118,0.3695197,0.43209445,0.5597575,0.9980173,0.97426546,0.5764914,0.13464153,0.9760089,1.2454555,0.19403492,-0.071648434,1.1596564,0.6943603,-0.20668674,-0.29298827,0.66403925,815.9341,798.20514,832.0513,796.5934,1117.326,-0.23992919921875,0.125,0.95343017578125,2.459869384765625,-2.803802490234375,-0.740203857421875,1.0,2.0,1.0,1.0,2.0,100.0,event
12:36:44.272,0.77409625,0.7141884,1.2000972,1.387118,0.3695197,0.43209445,0.5597575,0.9980173,0.97426546,0.5764914,0.13464153,0.9760089,1.2454555,0.19403492,-0.071648434,1.1596564,0.6943603,-0.20668674,-0.29298827,0.66403925,837.28937,804.2491,834.87177,782.8938,812.71063,-0.23992919921875,0.125,0.95343017578125,2.459869384765625,-2.803802490234375,-0.740203857421875,1.0,2.0,1.0,1.0,2.0,100.0,event
12:36:44.273,0.77409625,0.6960378,1.2000972,1.387118,0.3695197,0.42460665,0.5597575,0.9980173,0.97426546,0.5764914,0.13464153,0.9760089,1.2454555,0.19075021,-0.071648434,1.1596564,0.6943603,-0.1950875,-0.29298827,0.66403925,814.7253,800.2198,826.8132,790.54944,998.86444,-0.23992919921875,0.125,0.95343017578125,2.459869384765625,-2.803802490234375,-0.740203857421875,1.0,2.0,1.0,1.0,2.0,100.0,event
12:36:44.277,0.77409625,0.6960378,1.2000972,1.387118,0.3695197,0.42460665,0.5597575,0.9980173,0.97426546,0.5764914,0.13464153,0.9760089,1.2454555,0.19075021,-0.071648434,1.1596564,0.6943603,-0.1950875,-0.29298827,0.66403925,817.1429,808.2784,836.8865,780.4762,746.2271,-0.23992919921875,0.125,0.95343017578125,2.459869384765625,-2.803802490234375,-0.740203857421875,1.0,2.0,1.0,1.0,2.0,100.0,event
12:36:44.277,0.77409625,0.6960378,1.2000972,1.387118,0.3695197,0.42460665,0.5597575,0.9980173,0.97426546,0.5764914,0.13464153,0.9760089,1.2454555,0.19075021,-0.071648434,1.1596564,0.6943603,-0.1950875,-0.29298827,0.66403925,792.5641,803.44324,838.9011,754.68866,799.011,-0.23992919921875,0.125,0.95343017578125,2.459869384765625,-2.803802490234375,-0.740203857421875,1.0,2.0,1.0,1.0,2.0,100.0,event
12:36:44.278,0.77409625,0.6960378,1.2000972,1.387118,0.3695197,0.42460665,0.5597575,0.9980173,0.97426546,0.5764914,0.13464153,0.9760089,1.2454555,0.19075021,-0.071648434,1.1596564,0.6943603,-0.1950875,-0.29298827,0.66403925,798.60803,798.60803,833.2601,766.77655,829.2308,-0.23992919921875,0.125,0.95343017578125,2.459869384765625,-2.803802490234375,-0.740203857421875,1.0,2.0,1.0,1.0,2.0,100.0,event
12:36:44.278,0.77409625,0.6960378,1.2000972,1.387118,0.3695197,0.42460665,0.5597575,0.9980173,0.97426546,0.5764914,0.13464153,0.9760089,1.2454555,0.19075021,-0.071648434,1.1596564,0.6943603,-0.1950875,-0.29298827,0.66403925,826.0073,803.8461,833.663,774.83514,823.1868,-0.23992919921875,0.125,0.95343017578125,2.459869384765625,-2.803802490234375,-0.740203857421875,1.0,2.0,1.0,1.0,2.0,100.0,event
12:36:44.343,0.77409625,0.6960378,1.2000972,1.387118,0.3695197,0.42460665,0.5597575,0.9980173,0.97426546,0.5764914,0.13464153,0.9760089,1.2454555,0.19075021,-0.071648434,1.1596564,0.6943603,-0.1950875,-0.29298827,0.66403925,801.02563,805.8608,830.4396,761.9414,826.0073,-0.23992919921875,0.125,0.95343017578125,2.459869384765625,-2.803802490234375,-0.740203857421875,1.0,2.0,1.0,1.0,2.0,100.0,event
12:36:44.344,0.77409625,0.6960378,1.2000972,1.387118,0.3695197,0.42460665,0.5597575,0.9980173,0.97426546,0.5764914,0.13464153,0.9760089,1.2454555,0.19075021,-0.071648434,1.1596564,0.6943603,-0.1950875,-0.29298827,0.66403925,776.4469,803.8461,829.6337,776.4469,772.01465,-0.23992919921875,0.125,0.95343017578125,2.459869384765625,-2.803802490234375,-0.740203857421875,1.0,2.0,1.0,1.0,2.0,100.0,event
12:36:44.345,0.77409625,0.6960378,1.2000972,1.387118,0.3695197,0.42460665,0.5597575,0.9980173,0.97426546,0.5764914,0.13464153,0.9760089,1.2454555,0.19075021,-0.071648434,1.1596564,0.6943603,-0.1950875,-0.29298827,0.66403925,784.5055,799.41394,831.2454,763.95605,748.24176,-0.23992919921875,0.125,0.95343017578125,2.459869384765625,-2.803802490234375,-0.740203857421875,1.0,2.0,1.0,1.0,2.0,100.0,event
12:36:44.346,0.77409625,0.6960378,1.2000972,1.387118,0.3695197,0.42460665,0.5597575,0.9980173,0.97426546,0.5764914,0.13464153,0.9760089,1.2454555,0.19075021,-0.071648434,1.1596564,0.6943603,-0.1950875,-0.29298827,0.66403925,780.07324,802.23444,833.663,756.7033,766.77655,-0.23992919921875,0.125,0.95343017578125,2.459869384765625,-2.803802490234375,-0.740203857421875,1.0,2.0,1.0,1.0,2.0,100.0,event
12:36:44.347,0.77409625,0.6960378,1.2000972,1.387118,0.3695197,0.42460665,0.5597575,0.9980173,0.97426546,0.5764914,0.13464153,0.9760089,1.2454555,0.19075021,-0.071648434,1.1596564,0.6943603,-0.1950875,-0.29298827,0.66403925,782.49084,800.2198,831.2454,767.1795,668.46155,-0.23992919921875,0.125,0.95343017578125,2.459869384765625,-2.803802490234375,-0.740203857421875,1.0,2.0,1.0,1.0,2.0,100.0,event
12:36:44.348,0.77409625,0.6960378,1.2000972,1.387118,0.3695197,0.42460665,0.5597575,0.9980173,0.97426546,0.5764914,0.13464153,0.9760089,1.2454555,0.19075021,-0.071648434,1.1596564,0.6943603,-0.1950875,-0.29298827,0.66403925,781.685,794.9817,836.4835,769.19415,861.8681,-0.23992919921875,0.125,0.95343017578125,2.459869384765625,-2.803802490234375,-0.740203857421875,1.0,2.0,1.0,1.0,2.0,100.0,event
12:36:44.349,0.77409625,0.6960378,1.2000972,1.387118,0.3695197,0.42460665,0.5597575,0.9980173,0.97426546,0.5764914,0.13464153,0.9760089,1.2454555,0.19075021,-0.071648434,1.1596564,0.6943603,-0.1950875,-0.29298827,0.66403925,777.25275,797.3993,839.707,770.0,1175.348,-0.23992919921875,0.125,0.95343017578125,2.459869384765625,-2.803802490234375,-0.740203857421875,1.0,2.0,1.0,1.0,2.0,100.0,event
12:36:44.349,0.77409625,0.6960378,1.2000972,1.387118,0.3695197,0.42460665,0.5597575,0.9980173,0.97426546,0.5764914,0.13464153,0.9760089,1.2454555,0.19075021,-0.071648434,1.1596564,0.6943603,-0.1950875,-0.29298827,0.66403925,784.90845,803.44324,834.0659,765.56775,858.24176,-0.23992919921875,0.125,0.95343017578125,2.459869384765625,-2.803802490234375,-0.740203857421875,1.0,2.0,1.0,1.0,2.0,100.0,event
12:36:44.350,0.77409625,0.6960378,1.2000972,1.387118,0.3695197,0.42460665,0.5597575,0.9980173,0.97426546,0.5764914,0.13464153,0.9760089,1.2454555,0.19075021,-0.071648434,1.1596564,0.6943603,-0.1950875,-0.29298827,0.66403925,804.65204,805.4579,836.8865,749.85345,633.8095,-0.23992919921875,0.125,0.95343017578125,2.459869384765625,-2.803802490234375,-0.740203857421875,1.0,2.0,1.0,1.0,2.0,100.0,event
12:36:44.351,0.77409625,0.6960378,1.2000972,1.387118,0.3695197,0.42460665,0.5597575,0.9980173,0.97426546,0.5764914,0.13464153,0.9760089,1.2454555,0.19075021,-0.071648434,1.1596564,0.6943603,-0.1950875,-0.29298827,0.66403925,807.0696,803.0403,839.707,760.7326,776.04395,-0.23992919921875,0.125,0.95343017578125,2.459869384765625,-2.803802490234375,-0.740203857421875,1.0,2.0,1.0,1.0,2.0,100.0,event
12:36:44.352,0.77409625,0.6960378,1.2000972,1.387118,0.3695197,0.42460665,0.5597575,0.9980173,0.97426546,0.5764914,0.13464153,0.9760089,1.2454555,0.19075021,-0.071648434,1.1596564,0.6943603,-0.1950875,-0.29298827,0.66403925,815.5311,803.44324,840.9158,773.22345,768.3883,-0.23992919921875,0.125,0.95343017578125,2.459869384765625,-2.803802490234375,-0.740203857421875,1.0,2.0,1.0,1.0,2.0,100.0,event
12:36:44.353,0.77409625,0.6960378,1.2000972,1.387118,0.3695197,0.42460665,0.5597575,0.9980173,0.97426546,0.5764914,0.13464153,0.9760089,1.2454555,0.19075021,-0.071648434,1.1596564,0.6943603,-0.1950875,-0.29298827,0.66403925,815.5311,804.65204,840.9158,768.7912,707.5458,-0.23992919921875,0.125,0.95343017578125,2.459869384765625,-2.803802490234375,-0.740203857421875,1.0,2.0,1.0,1.0,2.0,100.0,event
12:36:44.379,0.77409625,0.6960378,1.2000972,1.387118,0.3695197,0.42460665,0.5597575,0.9980173,0.97426546,0.5764914,0.13464153,0.9760089,1.2454555,0.19075021,-0.071648434,1.1596564,0.6943603,-0.1950875,-0.29298827,0.66403925,792.5641,803.0403,843.73627,761.9414,745.0183,-0.2322998046875,0.13531494140625,0.94146728515625,3.102874755859375,-2.07855224609375,-1.009368896484375,1.0,2.0,1.0,1.0,2.0,100.0,event
12:36:44.380,0.77409625,0.6960378,1.2000972,1.387118,0.3695197,0.42460665,0.5597575,0.9980173,0.97426546,0.5764914,0.13464153,0.9760089,1.2454555,0.19075021,-0.071648434,1.1596564,0.6943603,-0.1950875,-0.29298827,0.66403925,791.3553,801.8315,846.55676,749.85345,795.38464,-0.2322998046875,0.13531494140625,0.94146728515625,3.102874755859375,-2.07855224609375,-1.009368896484375,1.0,2.0,1.0,1.0,2.0,100.0,event
12:36:44.381,0.77409625,0.6960378,1.2000972,1.387118,0.3695197,0.42460665,0.5597575,0.9980173,0.97426546,0.5764914,0.13464153,0.9760089,1.2454555,0.19075021,-0.071648434,1.1596564,0.6943603,-0.1950875,-0.29298827,0.66403925,806.6667,802.6374,842.52747,766.77655,743.00366,-0.2322998046875,0.13531494140625,0.94146728515625,3.102874755859375,-2.07855224609375,-1.009368896484375,1.0,2.0,1.0,1.0,2.0,100.0,event
12:36:44.382,0.77409625,0.6960378,1.2000972,1.387118,0.3695197,0.42460665,0.5597575,0.9980173,0.97426546,0.5764914,0.13464153,0.9760089,1.2454555,0.19075021,-0.071648434,1.1596564,0.6943603,-0.1950875,-0.29298827,0.66403925,817.5458,803.44324,843.3333,785.7143,734.5421,-0.2322998046875,0.13531494140625,0.94146728515625,3.102874755859375,-2.07855224609375,-1.009368896484375,1.0,2.0,1.0,1.0,2.0,100.0,event
12:36:44.382,0.77409625,0.6960378,1.2000972,1.387118,0.3695197,0.42460665,0.5597575,0.9980173,0.97426546,0.5764914,0.13464153,0.9760089,1.2454555,0.19075021,-0.071648434,1.1596564,0.6943603,-0.1950875,-0.29298827,0.66403925,841.31866,805.05493,846.9597,796.99634,755.09155,-0.2322998046875,0.13531494140625,0.94146728515625,3.102874755859375,-2.07855224609375,-1.009368896484375,1.0,2.0,1.0,1.0,2.0,100.0,event
12:36:44.383,0.77409625,0.6960378,1.2000972,1.387118,0.3695197,0.42460665,0.5597575,0.9980173,0.97426546,0.5764914,0.13464153,0.9760089,1.2454555,0.19075021,-0.071648434,1.1596564,0.6943603,-0.1950875,-0.29298827,0.66403925,820.3663,796.5934,845.34796,794.57874,850.18317,-0.2322998046875,0.13531494140625,0.94146728515625,3.102874755859375,-2.07855224609375,-1.009368896484375,1.0,2.0,1.0,1.0,2.0,100.0,event
12:36:44.383,0.77409625,0.6960378,1.2000972,1.387118,0.3695197,0.42460665,0.5597575,0.9980173,0.97426546,0.5764914,0.13464153,0.9760089,1.2454555,0.19075021,-0.071648434,1.1596564,0.6943603,-0.1950875,-0.29298827,0.66403925,807.0696,790.9524,848.5714,788.93774,848.97437,-0.2322998046875,0.13531494140625,0.94146728515625,3.102874755859375,-2.07855224609375,-1.009368896484375,1.0,2.0,1.0,1.0,2.0,100.0,event
12:36:44.384,0.77409625,0.6960378,1.2000972,1.387118,0.3695197,0.42460665,0.5597575,0.9980173,0.97426546,0.5764914,0.13464153,0.9760089,1.2454555,0.19075021,-0.071648434,1.1596564,0.6943603,-0.1950875,-0.29298827,0.66403925,823.9927,801.8315,855.0183,765.56775,751.06226,-0.2322998046875,0.13531494140625,0.94146728515625,3.102874755859375,-2.07855224609375,-1.009368896484375,1.0,2.0,1.0,1.0,2.0,100.0,event
12:36:44.385,0.77409625,0.6960378,1.2000972,1.387118,0.3695197,0.42460665,0.5597575,0.9980173,0.97426546,0.5764914,0.13464153,0.9760089,1.2454555,0.19075021,-0.071648434,1.1596564,0.6943603,-0.1950875,-0.29298827,0.66403925,838.49817,812.71063,854.21246,768.3883,809.4872,-0.2322998046875,0.13531494140625,0.94146728515625,3.102874755859375,-2.07855224609375,-1.009368896484375,1.0,2.0,1.0,1.0,2.0,100.0,event
12:36:44.386,0.77409625,0.66880983,1.2000972,1.387118,0.3695197,0.41684037,0.5597575,0.9980173,0.97426546,0.5764914,0.13464153,0.9760089,1.2454555,0.18619694,-0.071648434,1.1596564,0.6943603,-0.19368199,-0.29298827,0.66403925,838.49817,806.26373,853.8095,780.4762,1062.9304,-0.2322998046875,0.13531494140625,0.94146728515625,3.102874755859375,-2.07855224609375,-1.009368896484375,1.0,2.0,1.0,1.0,2.0,100.0,event
12:36:44.390,0.77409625,0.66880983,1.2000972,1.387118,0.3695197,0.41684037,0.5597575,0.9980173,0.97426546,0.5764914,0.13464153,0.9760089,1.2454555,0.18619694,-0.071648434,1.1596564,0.6943603,-0.19368199,-0.29298827,0.66403925,819.15753,805.4579,846.55676,791.3553,959.7802,-0.2322998046875,0.13531494140625,0.94146728515625,3.102874755859375,-2.07855224609375,-1.009368896484375,1.0,2.0,1.0,1.0,2.0,100.0,event
12:36:44.391,0.77409625,0.66880983,1.2000972,1.387118,0.3695197,0.41684037,0.5597575,0.9980173,0.97426546,0.5764914,0.13464153,0.9760089,1.2454555,0.18619694,-0.071648434,1.1596564,0.6943603,-0.19368199,-0.29298827,0.66403925,801.8315,807.47253,846.1539,790.14655,647.50916,-0.2322998046875,0.13531494140625,0.94146728515625,3.102874755859375,-2.07855224609375,-1.009368896484375,1.0,2.0,1.0,1.0,2.0,100.0,event
12:36:44.421,0.77409625,0.66880983,1.2000972,1.387118,0.3695197,0.41684037,0.5597575,0.9980173,0.97426546,0.5764914,0.13464153,0.9760089,1.2454555,0.18619694,-0.071648434,1.1596564,0.6943603,-0.19368199,-0.29298827,0.66403925,801.8315,804.65204,852.6007,782.49084,693.0403,-0.24090576171875,0.14166259765625,0.96002197265625,2.175750732421875,-1.861724853515625,-0.052337646484375,1.0,2.0,1.0,1.0,2.0,100.0,event
12:36:44.422,0.77409625,0.66880983,1.2000972,1.387118,0.3695197,0.41684037,0.5597575,0.9980173,0.97426546,0.5764914,0.13464153,0.9760089,1.2454555,0.18619694,-0.071648434,1.1596564,0.6943603,-0.19368199,-0.29298827,0.66403925,799.41394,802.23444,853.8095,796.5934,765.56775,-0.24090576171875,0.14166259765625,0.96002197265625,2.175750732421875,-1.861724853515625,-0.052337646484375,1.0,2.0,1.0,1.0,2.0,100.0,event
12:36:44.423,0.77409625,0.66880983,1.2000972,1.387118,0.3695197,0.41684037,0.5597575,0.9980173,0.97426546,0.5764914,0.13464153,0.9760089,1.2454555,0.18619694,-0.071648434,1.1596564,0.6943603,-0.19368199,-0.29298827,0.66403925,803.8461,802.6374,854.61536,796.1905,703.91943,-0.24090576171875,0.14166259765625,0.96002197265625,2.175750732421875,-1.861724853515625,-0.052337646484375,1.0,2.0,1.0,1.0,2.0,100.0,event
12:36:44.426,0.77409625,0.66880983,1.2000972,1.387118,0.3695197,0.41684037,0.5597575,0.9980173,0.97426546,0.5764914,0.13464153,0.9760089,1.2454555,0.18619694,-0.071648434,1.1596564,0.6943603,-0.19368199,-0.29298827,0.66403925,809.0842,803.0403,851.79486,804.2491,725.6777,-0.24090576171875,0.14166259765625,0.96002197265625,2.175750732421875,-1.861724853515625,-0.052337646484375,1.0,2.0,1.0,1.0,2.0,100.0,event
12:36:44.427,0.77409625,0.66880983,1.2000972,1.387118,0.3695197,0.41684037,0.5597575,0.9980173,0.97426546,0.5764914,0.13464153,0.9760089,1.2454555,0.18619694,-0.071648434,1.1596564,0.6943603,-0.19368199,-0.29298827,0.66403925,813.91943,799.41394,844.1392,802.23444,755.4945,-0.24090576171875,0.14166259765625,0.96002197265625,2.175750732421875,-1.861724853515625,-0.052337646484375,1.0,2.0,1.0,1.0,2.0,100.0,event
12:36:44.427,0.77409625,0.66880983,1.2000972,1.387118,0.3695197,0.41684037,0.5597575,0.9980173,0.97426546,0.5764914,0.13464153,0.9760089,1.2454555,0.18619694,-0.071648434,1.1596564,0.6943603,-0.19368199,-0.29298827,0.66403925,822.381,802.6374,840.10986,781.685,793.36993,-0.24090576171875,0.14166259765625,0.96002197265625,2.175750732421875,-1.861724853515625,-0.052337646484375,1.0,2.0,1.0,1.0,2.0,100.0,event
12:36:44.429,0.77409625,0.66880983,1.2000972,1.387118,0.3695197,0.41684037,0.5597575,0.9980173,0.97426546,0.5764914,0.13464153,0.9760089,1.2454555,0.18619694,-0.071648434,1.1596564,0.6943603,-0.19368199,-0.29298827,0.66403925,828.4249,800.2198,843.73627,789.34064,867.1062,-0.24090576171875,0.14166259765625,0.96002197265625,2.175750732421875,-1.861724853515625,-0.052337646484375,1.0,2.0,1.0,1.0,2.0,100.0,event
12:36:44.430,0.77409625,0.66880983,1.2000972,1.387118,0.3695197,0.41684037,0.5597575,0.9980173,0.97426546,0.5764914,0.13464153,0.9760089,1.2454555,0.18619694,-0.071648434,1.1596564,0.6943603,-0.19368199,-0.29298827,0.66403925,801.8315,797.3993,846.9597,775.2381,730.5128,-0.24090576171875,0.14166259765625,0.96002197265625,2.175750732421875,-1.861724853515625,-0.052337646484375,1.0,2.0,1.0,1.0,2.0,100.0,event
12:36:44.431,0.77409625,0.66880983,1.2000972,1.387118,0.3695197,0.41684037,0.5597575,0.9980173,0.97426546,0.5764914,0.13464153,0.9760089,1.2454555,0.18619694,-0.071648434,1.1596564,0.6943603,-0.19368199,-0.29298827,0.66403925,785.7143,798.60803,845.7509,785.31134,763.5531,-0.24090576171875,0.14166259765625,0.96002197265625,2.175750732421875,-1.861724853515625,-0.052337646484375,1.0,2.0,1.0,1.0,2.0,100.0,event
12:36:44.432,0.77409625,0.66880983,1.2000972,1.387118,0.3695197,0.41684037,0.5597575,0.9980173,0.97426546,0.5764914,0.13464153,0.9760089,1.2454555,0.18619694,-0.071648434,1.1596564,0.6943603,-0.19368199,-0.29298827,0.66403925,791.3553,798.60803,847.3626,784.90845,1087.9121,-0.24090576171875,0.14166259765625,0.96002197265625,2.175750732421875,-1.861724853515625,-0.052337646484375,1.0,2.0,1.0,1.0,2.0,100.0,event
12:36:44.433,0.77409625,0.66880983,1.2000972,1.387118,0.3695197,0.41684037,0.5597575,0.9980173,0.97426546,0.5764914,0.13464153,0.9760089,1.2454555,0.18619694,-0.071648434,1.1596564,0.6943603,-0.19368199,-0.29298827,0.66403925,810.696,803.8461,848.1685,770.40295,822.7839,-0.24090576171875,0.14166259765625,0.96002197265625,2.175750732421875,-1.861724853515625,-0.052337646484375,1.0,2.0,1.0,1.0,2.0,100.0,event
12:36:44.433,0.77409625,0.66880983,1.2000972,1.387118,0.3695197,0.41684037,0.5597575,0.9980173,0.97426546,0.5764914,0.13464153,0.9760089,1.2454555,0.18619694,-0.071648434,1.1596564,0.6943603,-0.19368199,-0.29298827,0.66403925,828.4249,802.6374,846.1539,794.17584,606.8132,-0.24090576171875,0.14166259765625,0.96002197265625,2.175750732421875,-1.861724853515625,-0.052337646484375,1.0,2.0,1.0,1.0,2.0,100.0,event
12:36:44.466,0.77409625,0.66880983,1.2000972,1.387118,0.3695197,0.41684037,0.5597575,0.9980173,0.97426546,0.5764914,0.13464153,0.9760089,1.2454555,0.18619694,-0.071648434,1.1596564,0.6943603,-0.19368199,-0.29298827,0.66403925,806.6667,796.99634,853.00366,805.4579,803.44324,-0.23895263671875,0.13116455078125,0.93780517578125,1.218719482421875,-1.42059326171875,-0.0,1.0,2.0,1.0,1.0,2.0,100.0,event
12:36:44.467,0.77409625,0.66880983,1.2000972,1.387118,0.3695197,0.41684037,0.5597575,0.9980173,0.97426546,0.5764914,0.13464153,0.9760089,1.2454555,0.18619694,-0.071648434,1.1596564,0.6943603,-0.19368199,-0.29298827,0.66403925,823.5897,797.3993,853.00366,820.3663,791.75824,-0.23895263671875,0.13116455078125,0.93780517578125,1.218719482421875,-1.42059326171875,-0.0,1.0,2.0,1.0,1.0,2.0,100.0,event
12:36:44.467,0.77409625,0.66880983,1.2000972,1.387118,0.3695197,0.41684037,0.5597575,0.9980173,0.97426546,0.5764914,0.13464153,0.9760089,1.2454555,0.18619694,-0.071648434,1.1596564,0.6943603,-0.19368199,-0.29298827,0.66403925,846.55676,803.44324,845.34796,805.8608,682.96704,-0.23895263671875,0.13116455078125,0.93780517578125,1.218719482421875,-1.42059326171875,-0.0,1.0,2.0,1.0,1.0,2.0,100.0,event
12:36:44.468,0.77409625,0.66880983,1.2000972,1.387118,0.3695197,0.41684037,0.5597575,0.9980173,0.97426546,0.5764914,0.13464153,0.9760089,1.2454555,0.18619694,-0.071648434,1.1596564,0.6943603,-0.19368199,-0.29298827,0.66403925,813.5165,800.2198,846.9597,790.14655,717.2161,-0.23895263671875,0.13116455078125,0.93780517578125,1.218719482421875,-1.42059326171875,-0.0,1.0,2.0,1.0,1.0,2.0,100.0,event
12:36:44.468,0.77409625,0.66880983,1.2000972,1.387118,0.3695197,0.41684037,0.5597575,0.9980173,0.97426546,0.5764914,0.13464153,0.9760089,1.2454555,0.18619694,-0.071648434,1.1596564,0.6943603,-0.19368199,-0.29298827,0.66403925,799.81683,799.41394,855.0183,817.9487,828.8278,-0.23895263671875,0.13116455078125,0.93780517578125,1.218719482421875,-1.42059326171875,-0.0,1.0,2.0,1.0,1.0,2.0,100.0,event
12:36:44.469,0.77409625,0.66880983,1.2000972,1.387118,0.3695197,0.41684037,0.5597575,0.9980173,0.97426546,0.5764914,0.13464153,0.9760089,1.2454555,0.18619694,-0.071648434,1.1596564,0.6943603,-0.19368199,-0.29298827,0.66403925,809.0842,800.6227,855.42126,828.8278,944.4689,-0.23895263671875,0.13116455078125,0.93780517578125,1.218719482421875,-1.42059326171875,-0.0,1.0,2.0,1.0,1.0,2.0,100.0,event
12:36:44.469,0.77409625,0.66880983,1.2000972,1.387118,0.3695197,0.41684037,0.5597575,0.9980173,0.97426546,0.5764914,0.13464153,0.9760089,1.2454555,0.18619694,-0.071648434,1.1596564,0.6943603,-0.19368199,-0.29298827,0.66403925,812.3077,800.6227,854.21246,800.6227,881.6117,-0.23895263671875,0.13116455078125,0.93780517578125,1.218719482421875,-1.42059326171875,-0.0,1.0,2.0,1.0,1.0,2.0,100.0,event
12:36:44.470,0.77409625,0.66880983,1.2000972,1.387118,0.3695197,0.41684037,0.5597575,0.9980173,0.97426546,0.5764914,0.13464153,0.9760089,1.2454555,0.18619694,-0.071648434,1.1596564,0.6943603,-0.19368199,-0.29298827,0.66403925,826.4103,796.5934,851.79486,774.0293,775.64105,-0.23895263671875,0.13116455078125,0.93780517578125,1.218719482421875,-1.42059326171875,-0.0,1.0,2.0,1.0,1.0,2.0,100.0,event
12:36:44.471,0.77409625,0.66880983,1.2000972,1.387118,0.3695197,0.41684037,0.5597575,0.9980173,0.97426546,0.5764914,0.13464153,0.9760089,1.2454555,0.18619694,-0.071648434,1.1596564,0.6943603,-0.19368199,-0.29298827,0.66403925,794.57874,791.3553,849.3773,783.2967,946.08057,-0.23895263671875,0.13116455078125,0.93780517578125,1.218719482421875,-1.42059326171875,-0.0,1.0,2.0,1.0,1.0,2.0,100.0,event
12:36:44.471,0.77409625,0.66880983,1.2000972,1.387118,0.3695197,0.41684037,0.5597575,0.9980173,0.97426546,0.5764914,0.13464153,0.9760089,1.2454555,0.18619694,-0.071648434,1.1596564,0.6943603,-0.19368199,-0.29298827,0.66403925,787.72894,797.8022,852.6007,800.6227,884.0293,-0.23895263671875,0.13116455078125,0.93780517578125,1.218719482421875,-1.42059326171875,-0.0,1.0,2.0,1.0,1.0,2.0,100.0,event
12:36:44.472,0.77409625,0.66880983,1.2000972,1.387118,0.3695197,0.41684037,0.5597575,0.9980173,0.97426546,0.5764914,0.13464153,0.9760089,1.2454555,0.18619694,-0.071648434,1.1596564,0.6943603,-0.19368199,-0.29298827,0.66403925,835.2747,803.0403,855.42126,815.9341,659.19415,-0.23895263671875,0.13116455078125,0.93780517578125,1.218719482421875,-1.42059326171875,-0.0,1.0,2.0,1.0,1.0,2.0,100.0,event
12:36:44.472,0.77409625,0.6357735,1.2000972,1.387118,0.3695197,0.41127318,0.5597575,0.9980173,0.97426546,0.5764914,0.13464153,0.9760089,1.2454555,0.18265523,-0.071648434,1.1596564,0.6943603,-0.2000236,-0.29298827,0.66403925,824.3956,801.4286,853.00366,810.293,690.6227,-0.23895263671875,0.13116455078125,0.93780517578125,1.218719482421875,-1.42059326171875,-0.0,1.0,2.0,1.0,1.0,2.0,100.0,event
12:36:44.502,0.77409625,0.6357735,1.2000972,1.387118,0.3695197,0.41127318,0.5597575,0.9980173,0.97426546,0.5764914,0.13464153,0.9760089,1.2454555,0.18265523,-0.071648434,1.1596564,0.6943603,-0.2000236,-0.29298827,0.66403925,803.0403,801.8315,850.989,784.90845,781.685,-0.25006103515625,0.13043212890625,0.93798828125,1.383209228515625,0.306549072265625,0.43365478515625,1.0,2.0,1.0,1.0,2.0,100.0,event
12:36:44.503,0.77409625,0.6357735,1.2000972,1.387118,0.3695197,0.41127318,0.5597575,0.9980173,0.97426546,0.5764914,0.13464153,0.9760089,1.2454555,0.18265523,-0.071648434,1.1596564,0.6943603,-0.2000236,-0.29298827,0.66403925,817.1429,796.1905,853.8095,825.2015,741.39197,-0.25006103515625,0.13043212890625,0.93798828125,1.383209228515625,0.306549072265625,0.43365478515625,1.0,2.0,1.0,1.0,2.0,100.0,event
12:36:44.503,0.77409625,0.6357735,1.2000972,1.387118,0.3695197,0.41127318,0.5597575,0.9980173,0.97426546,0.5764914,0.13464153,0.9760089,1.2454555,0.18265523,-0.071648434,1.1596564,0.6943603,-0.2000236,-0.29298827,0.66403925,811.0989,799.81683,853.00366,803.8461,796.99634,-0.25006103515625,0.13043212890625,0.93798828125,1.383209228515625,0.306549072265625,0.43365478515625,1.0,2.0,1.0,1.0,2.0,100.0,event
12:36:44.504,0.77409625,0.6357735,1.2000972,1.387118,0.3695197,0.41127318,0.5597575,0.9980173,0.97426546,0.5764914,0.13464153,0.9760089,1.2454555,0.18265523,-0.071648434,1.1596564,0.6943603,-0.2000236,-0.29298827,0.66403925,826.4103,798.20514,850.18317,797.8022,815.9341,-0.25006103515625,0.13043212890625,0.93798828125,1.383209228515625,0.306549072265625,0.43365478515625,1.0,2.0,1.0,1.0,2.0,100.0,event
12:36:44.505,0.77409625,0.6357735,1.2000972,1.387118,0.3695197,0.41127318,0.5597575,0.9980173,0.97426546,0.5764914,0.13464153,0.9760089,1.2454555,0.18265523,-0.071648434,1.1596564,0.6943603,-0.2000236,-0.29298827,0.66403925,824.7985,803.0403,852.1978,794.9817,916.6667,-0.25006103515625,0.13043212890625,0.93798828125,1.383209228515625,0.306549072265625,0.43365478515625,1.0,2.0,1.0,1.0,2.0,100.0,event
12:36:44.505,0.77409625,0.6357735,1.2000972,1.387118,0.3695197,0.41127318,0.5597575,0.9980173,0.97426546,0.5764914,0.13464153,0.9760089,1.2454555,0.18265523,-0.071648434,1.1596564,0.6943603,-0.2000236,-0.29298827,0.66403925,816.7399,803.44324,854.61536,809.4872,840.5128,-0.25006103515625,0.13043212890625,0.93798828125,1.383209228515625,0.306549072265625,0.43365478515625,1.0,2.0,1.0,1.0,2.0,100.0,event
12:36:44.506,0.77409625,0.6357735,1.2000972,1.387118,0.3695197,0.41127318,0.5597575,0.9980173,0.97426546,0.5764914,0.13464153,0.9760089,1.2454555,0.18265523,-0.071648434,1.1596564,0.6943603,-0.2000236,-0.29298827,0.66403925,821.1722,799.81683,853.00366,796.99634,750.2564,-0.25006103515625,0.13043212890625,0.93798828125,1.383209228515625,0.306549072265625,0.43365478515625,1.0,2.0,1.0,1.0,2.0,100.0,event
12:36:44.506,0.77409625,0.6357735,1.2000972,1.387118,0.3695197,0.41127318,0.5597575,0.9980173,0.97426546,0.5764914,0.13464153,0.9760089,1.2454555,0.18265523,-0.071648434,1.1596564,0.6943603,-0.2000236,-0.29298827,0.66403925,832.8571,798.20514,855.82416,807.0696,869.5238,-0.25006103515625,0.13043212890625,0.93798828125,1.383209228515625,0.306549072265625,0.43365478515625,1.0,2.0,1.0,1.0,2.0,100.0,event
12:36:44.507,0.77409625,0.6357735,1.2000972,1.387118,0.3695197,0.41127318,0.5597575,0.9980173,0.97426546,0.5764914,0.13464153,0.9760089,1.2454555,0.18265523,-0.071648434,1.1596564,0.6943603,-0.2000236,-0.29298827,0.66403925,833.663,796.5934,856.2271,810.696,1102.0146,-0.25006103515625,0.13043212890625,0.93798828125,1.383209228515625,0.306549072265625,0.43365478515625,1.0,2.0,1.0,1.0,2.0,100.0,event
12:36:44.507,0.77409625,0.6357735,1.2000972,1.387118,0.3695197,0.41127318,0.5597575,0.9980173,0.97426546,0.5764914,0.13464153,0.9760089,1.2454555,0.18265523,-0.071648434,1.1596564,0.6943603,-0.2000236,-0.29298827,0.66403925,836.8865,798.20514,852.1978,799.011,904.9817,-0.25006103515625,0.13043212890625,0.93798828125,1.383209228515625,0.306549072265625,0.43365478515625,1.0,2.0,1.0,1.0,2.0,100.0,event
12:36:44.508,0.77409625,0.6357735,1.2000972,1.387118,0.3695197,0.41127318,0.5597575,0.9980173,0.97426546,0.5764914,0.13464153,0.9760089,1.2454555,0.18265523,-0.071648434,1.1596564,0.6943603,-0.2000236,-0.29298827,0.66403925,834.0659,796.5934,853.4066,809.4872,705.12823,-0.25006103515625,0.13043212890625,0.93798828125,1.383209228515625,0.306549072265625,0.43365478515625,1.0,2.0,1.0,1.0,2.0,100.0,event
12:36:44.509,0.77409625,0.6357735,1.2000972,1.387118,0.3695197,0.41127318,0.5597575,0.9980173,0.97426546,0.5764914,0.13464153,0.9760089,1.2454555,0.18265523,-0.071648434,1.1596564,0.6943603,-0.2000236,-0.29298827,0.66403925,808.2784,796.99634,853.4066,800.6227,750.65936,-0.25006103515625,0.13043212890625,0.93798828125,1.383209228515625,0.306549072265625,0.43365478515625,1.0,2.0,1.0,1.0,2.0,100.0,event
12:36:44.536,0.77409625,0.6357735,1.2000972,1.387118,0.3695197,0.41127318,0.5597575,0.9980173,0.97426546,0.5764914,0.13464153,0.9760089,1.2454555,0.18265523,-0.071648434,1.1596564,0.6943603,-0.2000236,-0.29298827,0.66403925,816.337,805.05493,852.6007,789.34064,753.0769,-0.25006103515625,0.13043212890625,0.93798828125,1.383209228515625,0.306549072265625,0.43365478515625,1.0,2.0,1.0,1.0,2.0,100.0,event
12:36:44.537,0.77409625,0.6357735,1.2000972,1.387118,0.3695197,0.41127318,0.5597575,0.9980173,0.97426546,0.5764914,0.13464153,0.9760089,1.2454555,0.18265523,-0.071648434,1.1596564,0.6943603,-0.2000236,-0.29298827,0.66403925,835.6777,802.23444,850.18317,778.46155,684.57874,-0.25006103515625,0.13043212890625,0.93798828125,1.383209228515625,0.306549072265625,0.43365478515625,1.0,2.0,1.0,1.0,2.0,100.0,event
12:36:44.537,0.77409625,0.6357735,1.2000972,1.387118,0.3695197,0.41127318,0.5597575,0.9980173,0.97426546,0.5764914,0.13464153,0.9760089,1.2454555,0.18265523,-0.071648434,1.1596564,0.6943603,-0.2000236,-0.29298827,0.66403925,832.0513,803.8461,853.8095,787.326,714.3956,-0.25006103515625,0.13043212890625,0.93798828125,1.383209228515625,0.306549072265625,0.43365478515625,1.0,2.0,1.0,1.0,2.0,100.0,event
12:36:44.538,0.77409625,0.6357735,1.2000972,1.387118,0.3695197,0.41127318,0.5597575,0.9980173,0.97426546,0.5764914,0.13464153,0.9760089,1.2454555,0.18265523,-0.071648434,1.1596564,0.6943603,-0.2000236,-0.29298827,0.66403925,800.6227,801.4286,846.9597,766.3736,732.9304,-0.25006103515625,0.13043212890625,0.93798828125,1.383209228515625,0.306549072265625,0.43365478515625,1.0,2.0,1.0,1.0,2.0,100.0,event
12:36:44.539,0.77409625,0.6357735,1.2000972,1.387118,0.3695197,0.41127318,0.5597575,0.9980173,0.97426546,0.5764914,0.13464153,0.9760089,1.2454555,0.18265523,-0.071648434,1.1596564,0.6943603,-0.2000236,-0.29298827,0.66403925,790.54944,798.60803,845.7509,776.4469,775.2381,-0.25006103515625,0.13043212890625,0.93798828125,1.383209228515625,0.306549072265625,0.43365478515625,1.0,2.0,1.0,1.0,2.0,100.0,event
12:36:44.539,0.77409625,0.6357735,1.2000972,1.387118,0.3695197,0.41127318,0.5597575,0.9980173,0.97426546,0.5764914,0.13464153,0.9760089,1.2454555,0.18265523,-0.071648434,1.1596564,0.6943603,-0.2000236,-0.29298827,0.66403925,813.5165,799.011,844.1392,783.69965,850.989,-0.25006103515625,0.13043212890625,0.93798828125,1.383209228515625,0.306549072265625,0.43365478515625,1.0,2.0,1.0,1.0,2.0,100.0,event
12:36:44.540,0.77409625,0.6357735,1.2000972,1.387118,0.3695197,0.41127318,0.5597575,0.9980173,0.97426546,0.5764914,0.13464153,0.9760089,1.2454555,0.18265523,-0.071648434,1.1596564,0.6943603,-0.2000236,-0.29298827,0.66403925,836.4835,799.41394,852.6007,812.71063,1006.9231,-0.25006103515625,0.13043212890625,0.93798828125,1.383209228515625,0.306549072265625,0.43365478515625,1.0,2.0,1.0,1.0,2.0,100.0,event
12:36:44.540,0.77409625,0.6357735,1.2000972,1.387118,0.3695197,0.41127318,0.5597575,0.9980173,0.97426546,0.5764914,0.13464153,0.9760089,1.2454555,0.18265523,-0.071648434,1.1596564,0.6943603,-0.2000236,-0.29298827,0.66403925,835.2747,799.81683,846.9597,788.5348,820.7692,-0.25006103515625,0.13043212890625,0.93798828125,1.383209228515625,0.306549072265625,0.43365478515625,1.0,2.0,1.0,1.0,2.0,100.0,event
12:36:44.541,0.77409625,0.6357735,1.2000972,1.387118,0.3695197,0.41127318,0.5597575,0.9980173,0.97426546,0.5764914,0.13464153,0.9760089,1.2454555,0.18265523,-0.071648434,1.1596564,0.6943603,-0.2000236,-0.29298827,0.66403925,820.3663,801.8315,850.989,795.78754,1079.0476,-0.25006103515625,0.13043212890625,0.93798828125,1.383209228515625,0.306549072265625,0.43365478515625,1.0,2.0,1.0,1.0,2.0,100.0,event
12:36:44.541,0.77409625,0.6357735,1.2000972,1.387118,0.3695197,0.41127318,0.5597575,0.9980173,0.97426546,0.5764914,0.13464153,0.9760089,1.2454555,0.18265523,-0.071648434,1.1596564,0.6943603,-0.2000236,-0.29298827,0.66403925,803.0403,804.2491,847.76556,782.49084,775.64105,-0.25006103515625,0.13043212890625,0.93798828125,1.383209228515625,0.306549072265625,0.43365478515625,1.0,2.0,1.0,1.0,2.0,100.0,event
12:36:44.542,0.77409625,0.6357735,1.2000972,1.387118,0.3695197,0.41127318,0.5597575,0.9980173,0.97426546,0.5764914,0.13464153,0.9760089,1.2454555,0.18265523,-0.071648434,1.1596564,0.6943603,-0.2000236,-0.29298827,0.66403925,802.6374,800.6227,852.1978,793.36993,734.5421,-0.25006103515625,0.13043212890625,0.93798828125,1.383209228515625,0.306549072265625,0.43365478515625,1.0,2.0,1.0,1.0,2.0,100.0,event
12:36:44.543,0.77409625,0.6357735,1.2000972,1.387118,0.3695197,0.41127318,0.5597575,0.9980173,0.97426546,0.5764914,0.13464153,0.9760089,1.2454555,0.18265523,-0.071648434,1.1596564,0.6943603,-0.2000236,-0.29298827,0.66403925,819.15753,796.5934,852.1978,777.25275,775.64105,-0.25006103515625,0.13043212890625,0.93798828125,1.383209228515625,0.306549072265625,0.43365478515625,1.0,2.0,1.0,1.0,2.0,100.0,event
12:36:44.610,0.77409625,0.6357735,1.2000972,1.387118,0.3695197,0.41127318,0.5597575,0.9980173,0.97426546,0.5764914,0.13464153,0.9760089,1.2454555,0.18265523,-0.071648434,1.1596564,0.6943603,-0.2000236,-0.29298827,0.66403925,816.7399,799.41394,843.73627,767.98535,722.4542,-0.2540283203125,0.13427734375,0.94891357421875,2.61688232421875,-0.22430419921875,1.30096435546875,1.0,2.0,1.0,1.0,2.0,100.0,event
12:36:44.611,0.77409625,0.596546,1.2000972,1.387118,0.3695197,0.4073617,0.5597575,0.9980173,0.97426546,0.5764914,0.13464153,0.9760089,1.2454555,0.1818476,-0.071648434,1.1596564,0.6943603,-0.20743778,-0.29298827,0.66403925,808.2784,803.44324,839.304,767.5824,750.2564,-0.2540283203125,0.13427734375,0.94891357421875,2.61688232421875,-0.22430419921875,1.30096435546875,1.0,2.0,1.0,1.0,2.0,100.0,event
12:36:44.615,0.77409625,0.596546,1.2000972,1.387118,0.3695197,0.4073617,0.5597575,0.9980173,0.97426546,0.5764914,0.13464153,0.9760089,1.2454555,0.1818476,-0.071648434,1.1596564,0.6943603,-0.20743778,-0.29298827,0.66403925,819.15753,805.8608,843.3333,772.8205,801.4286,-0.2540283203125,0.13427734375,0.94891357421875,2.61688232421875,-0.22430419921875,1.30096435546875,1.0,2.0,1.0,1.0,2.0,100.0,event
12:36:44.616,0.77409625,0.596546,1.2000972,1.387118,0.3695197,0.4073617,0.5597575,0.9980173,0.97426546,0.5764914,0.13464153,0.9760089,1.2454555,0.1818476,-0.071648434,1.1596564,0.6943603,-0.20743778,-0.29298827,0.66403925,827.2161,805.8608,842.1245,785.31134,774.0293,-0.2540283203125,0.13427734375,0.94891357421875,2.61688232421875,-0.22430419921875,1.30096435546875,1.0,2.0,1.0,1.0,2.0,100.0,event
12:36:44.617,0.77409625,0.596546,1.2000972,1.387118,0.3695197,0.4073617,0.5597575,0.9980173,0.97426546,0.5764914,0.13464153,0.9760089,1.2454555,0.1818476,-0.071648434,1.1596564,0.6943603,-0.20743778,-0.29298827,0.66403925,840.10986,805.05493,843.3333,797.3993,795.78754,-0.2540283203125,0.13427734375,0.94891357421875,2.61688232421875,-0.22430419921875,1.30096435546875,1.0,2.0,1.0,1.0,2.0,100.0,event
12:36:44.618,0.77409625,0.596546,1.2000972,1.387118,0.3695197,0.4073617,0.5597575,0.9980173,0.97426546,0.5764914,0.13464153,0.9760089,1.2454555,0.1818476,-0.071648434,1.1596564,0.6943603,-0.20743778,-0.29298827,0.66403925,843.73627,807.8755,848.5714,795.78754,874.7619,-0.2540283203125,0.13427734375,0.94891357421875,2.61688232421875,-0.22430419921875,1.30096435546875,1.0,2.0,1.0,1.0,2.0,100.0,event
12:36:44.618,0.77409625,0.596546,1.2000972,1.387118,0.3695197,0.4073617,0.5597575,0.9980173,0.97426546,0.5764914,0.13464153,0.9760089,1.2454555,0.1818476,-0.071648434,1.1596564,0.6943603,-0.20743778,-0.29298827,0.66403925,828.022,807.0696,845.7509,794.17584,943.663,-0.2540283203125,0.13427734375,0.94891357421875,2.61688232421875,-0.22430419921875,1.30096435546875,1.0,2.0,1.0,1.0,2.0,100.0,event
12:36:44.619,0.77409625,0.596546,1.2000972,1.387118,0.3695197,0.4073617,0.5597575,0.9980173,0.97426546,0.5764914,0.13464153,0.9760089,1.2454555,0.1818476,-0.071648434,1.1596564,0.6943603,-0.20743778,-0.29298827,0.66403925,826.0073,803.8461,842.52747,798.60803,1147.5458,-0.2540283203125,0.13427734375,0.94891357421875,2.61688232421875,-0.22430419921875,1.30096435546875,1.0,2.0,1.0,1.0,2.0,100.0,event
12:36:44.620,0.77409625,0.596546,1.2000972,1.387118,0.3695197,0.4073617,0.5597575,0.9980173,0.97426546,0.5764914,0.13464153,0.9760089,1.2454555,0.1818476,-0.071648434,1.1596564,0.6943603,-0.20743778,-0.29298827,0.66403925,848.97437,799.011,842.9304,820.7692,677.72894,-0.2540283203125,0.13427734375,0.94891357421875,2.61688232421875,-0.22430419921875,1.30096435546875,1.0,2.0,1.0,1.0,2.0,100.0,event
12:36:44.620,0.77409625,0.596546,1.2000972,1.387118,0.3695197,0.4073617,0.5597575,0.9980173,0.97426546,0.5764914,0.13464153,0.9760089,1.2454555,0.1818476,-0.071648434,1.1596564,0.6943603,-0.20743778,-0.29298827,0.66403925,833.663,802.6374,841.7216,803.8461,901.75824,-0.2540283203125,0.13427734375,0.94891357421875,2.61688232421875,-0.22430419921875,1.30096435546875,1.0,2.0,1.0,1.0,2.0,100.0,event
12:36:44.621,0.77409625,0.596546,1.2000972,1.387118,0.3695197,0.4073617,0.5597575,0.9980173,0.97426546,0.5764914,0.13464153,0.9760089,1.2454555,0.1818476,-0.071648434,1.1596564,0.6943603,-0.20743778,-0.29298827,0.66403925,847.76556,796.1905,846.1539,820.7692,828.4249,-0.2540283203125,0.13427734375,0.94891357421875,2.61688232421875,-0.22430419921875,1.30096435546875,1.0,2.0,1.0,1.0,2.0,100.0,event
12:36:44.623,0.77409625,0.596546,1.2000972,1.387118,0.3695197,0.4073617,0.5597575,0.9980173,0.97426546,0.5764914,0.13464153,0.9760089,1.2454555,0.1818476,-0.071648434,1.1596564,0.6943603,-0.20743778,-0.29298827,0.66403925,809.0842,797.8022,840.5128,801.02563,796.1905,-0.2540283203125,0.13427734375,0.94891357421875,2.61688232421875,-0.22430419921875,1.30096435546875,1.0,2.0,1.0,1.0,2.0,100.0,event
12:36:44.653,0.77409625,0.596546,1.2000972,1.387118,0.3695197,0.4073617,0.5597575,0.9980173,0.97426546,0.5764914,0.13464153,0.9760089,1.2454555,0.1818476,-0.071648434,1.1596564,0.6943603,-0.20743778,-0.29298827,0.66403925,801.4286,800.2198,833.2601,778.0586,690.2198,-0.258544921875,0.135009765625,0.941650390625,1.951446533203125,-2.474822998046875,0.04486083984375,1.0,2.0,1.0,1.0,2.0,100.0,event
12:36:44.654,0.77409625,0.596546,1.2000972,1.387118,0.3695197,0.4073617,0.5597575,0.9980173,0.97426546,0.5764914,0.13464153,0.9760089,1.2454555,0.1818476,-0.071648434,1.1596564,0.6943603,-0.20743778,-0.29298827,0.66403925,817.5458,797.3993,838.9011,780.4762,625.34796,-0.258544921875,0.135009765625,0.941650390625,1.951446533203125,-2.474822998046875,0.04486083984375,1.0,2.0,1.0,1.0,2.0,100.0,event
12:36:44.655,0.77409625,0.596546,1.2000972,1.387118,0.3695197,0.4073617,0.5597575,0.9980173,0.97426546,0.5764914,0.13464153,0.9760089,1.2454555,0.1818476,-0.071648434,1.1596564,0.6943603,-0.20743778,-0.29298827,0.66403925,834.0659,793.7729,838.0952,775.64105,722.0513,-0.258544921875,0.135009765625,0.941650390625,1.951446533203125,-2.474822998046875,0.04486083984375,1.0,2.0,1.0,1.0,2.0,100.0,event
12:36:44.657,0.77409625,0.596546,1.2000972,1.387118,0.3695197,0.4073617,0.5597575,0.9980173,0.97426546,0.5764914,0.13464153,0.9760089,1.2454555,0.1818476,-0.071648434,1.1596564,0.6943603,-0.20743778,-0.29298827,0.66403925,838.49817,796.99634,838.49817,786.9231,761.9414,-0.258544921875,0.135009765625,0.941650390625,1.951446533203125,-2.474822998046875,0.04486083984375,1.0,2.0,1.0,1.0,2.0,100.0,event
12:36:44.658,0.77409625,0.596546,1.2000972,1.387118,0.3695197,0.4073617,0.5597575,0.9980173,0.97426546,0.5764914,0.13464153,0.9760089,1.2454555,0.1818476,-0.071648434,1.1596564,0.6943603,-0.20743778,-0.29298827,0.66403925,827.2161,798.20514,839.304,805.05493,687.3993,-0.258544921875,0.135009765625,0.941650390625,1.951446533203125,-2.474822998046875,0.04486083984375,1.0,2.0,1.0,1.0,2.0,100.0,event
12:36:44.658,0.77409625,0.596546,1.2000972,1.387118,0.3695197,0.4073617,0.5597575,0.9980173,0.97426546,0.5764914,0.13464153,0.9760089,1.2454555,0.1818476,-0.071648434,1.1596564,0.6943603,-0.20743778,-0.29298827,0.66403925,822.381,793.7729,833.2601,775.64105,742.6007,-0.258544921875,0.135009765625,0.941650390625,1.951446533203125,-2.474822998046875,0.04486083984375,1.0,2.0,1.0,1.0,2.0,100.0,event
12:36:44.659,0.77409625,0.596546,1.2000972,1.387118,0.3695197,0.4073617,0.5597575,0.9980173,0.97426546,0.5764914,0.13464153,0.9760089,1.2454555,0.1818476,-0.071648434,1.1596564,0.6943603,-0.20743778,-0.29298827,0.66403925,829.6337,796.5934,827.619,768.7912,981.9414,-0.258544921875,0.135009765625,0.941650390625,1.951446533203125,-2.474822998046875,0.04486083984375,1.0,2.0,1.0,1.0,2.0,100.0,event
12:36:44.660,0.77409625,0.596546,1.2000972,1.387118,0.3695197,0.4073617,0.5597575,0.9980173,0.97426546,0.5764914,0.13464153,0.9760089,1.2454555,0.1818476,-0.071648434,1.1596564,0.6943603,-0.20743778,-0.29298827,0.66403925,828.022,799.41394,833.2601,798.60803,984.7619,-0.258544921875,0.135009765625,0.941650390625,1.951446533203125,-2.474822998046875,0.04486083984375,1.0,2.0,1.0,1.0,2.0,100.0,event
12:36:44.660,0.77409625,0.596546,1.2000972,1.387118,0.3695197,0.4073617,0.5597575,0.9980173,0.97426546,0.5764914,0.13464153,0.9760089,1.2454555,0.1818476,-0.071648434,1.1596564,0.6943603,-0.20743778,-0.29298827,0.66403925,814.7253,796.5934,842.1245,799.81683,752.674,-0.258544921875,0.135009765625,0.941650390625,1.951446533203125,-2.474822998046875,0.04486083984375,1.0,2.0,1.0,1.0,2.0,100.0,event
12:36:44.661,0.77409625,0.596546,1.2000972,1.387118,0.3695197,0.4073617,0.5597575,0.9980173,0.97426546,0.5764914,0.13464153,0.9760089,1.2454555,0.1818476,-0.071648434,1.1596564,0.6943603,-0.20743778,-0.29298827,0.66403925,817.5458,794.9817,835.6777,757.50916,711.5751,-0.258544921875,0.135009765625,0.941650390625,1.951446533203125,-2.474822998046875,0.04486083984375,1.0,2.0,1.0,1.0,2.0,100.0,event
12:36:44.662,0.77409625,0.596546,1.2000972,1.387118,0.3695197,0.4073617,0.5597575,0.9980173,0.97426546,0.5764914,0.13464153,0.9760089,1.2454555,0.1818476,-0.071648434,1.1596564,0.6943603,-0.20743778,-0.29298827,0.66403925,804.2491,794.57874,827.619,768.3883,727.28937,-0.258544921875,0.135009765625,0.941650390625,1.951446533203125,-2.474822998046875,0.04486083984375,1.0,2.0,1.0,1.0,2.0,100.0,event
12:36:44.662,0.77409625,0.596546,1.2000972,1.387118,0.3695197,0.4073617,0.5597575,0.9980173,0.97426546,0.5764914,0.13464153,0.9760089,1.2454555,0.1818476,-0.071648434,1.1596564,0.6943603,-0.20743778,-0.29298827,0.66403925,816.7399,796.5934,829.2308,756.7033,767.98535,-0.258544921875,0.135009765625,0.941650390625,1.951446533203125,-2.474822998046875,0.04486083984375,1.0,2.0,1.0,1.0,2.0,100.0,event
12:36:44.692,0.77409625,0.596546,1.2000972,1.387118,0.3695197,0.4073617,0.5597575,0.9980173,0.97426546,0.5764914,0.13464153,0.9760089,1.2454555,0.1818476,-0.071648434,1.1596564,0.6943603,-0.20743778,-0.29298827,0.66403925,818.7546,794.9817,827.619,756.7033,721.6484,-0.2542724609375,0.130126953125,0.954833984375,1.36077880859375,-3.4991455078125,-2.392578125,1.0,2.0,1.0,1.0,2.0,100.0,event
12:36:44.693,0.77409625,0.596546,1.2000972,1.387118,0.3695197,0.4073617,0.5597575,0.9980173,0.97426546,0.5764914,0.13464153,0.9760089,1.2454555,0.1818476,-0.071648434,1.1596564,0.6943603,-0.20743778,-0.29298827,0.66403925,853.4066,798.20514,831.2454,762.74725,767.5824,-0.2542724609375,0.130126953125,0.954833984375,1.36077880859375,-3.4991455078125,-2.392578125,1.0,2.0,1.0,1.0,2.0,100.0,event
12:36:44.694,0.77409625,0.596546,1.2000972,1.387118,0.3695197,0.4073617,0.5597575,0.9980173,0.97426546,0.5764914,0.13464153,0.9760089,1.2454555,0.1818476,-0.071648434,1.1596564,0.6943603,-0.20743778,-0.29298827,0.66403925,841.7216,800.2198,830.4396,770.0,820.3663,-0.2542724609375,0.130126953125,0.954833984375,1.36077880859375,-3.4991455078125,-2.392578125,1.0,2.0,1.0,1.0,2.0,100.0,event
12:36:44.695,0.77409625,0.5569729,0.7296298,1.387118,0.3695197,0.40254128,-0.19043718,0.9980173,0.97426546,0.5764914,-0.10062112,0.9760089,1.2454555,0.18366925,-0.24891342,1.1596564,0.6943603,-0.21312453,-0.4784986,0.66403925,809.89014,799.41394,832.8571,778.46155,729.707,-0.2542724609375,0.130126953125,0.954833984375,1.36077880859375,-3.4991455078125,-2.392578125,1.0,2.0,1.0,1.0,2.0,100.0,event
12:36:44.699,0.77409625,0.5569729,0.7296298,1.387118,0.3695197,0.40254128,-0.19043718,0.9980173,0.97426546,0.5764914,-0.10062112,0.9760089,1.2454555,0.18366925,-0.24891342,1.1596564,0.6943603,-0.21312453,-0.4784986,0.66403925,810.696,795.38464,834.4689,784.5055,660.80585,-0.2542724609375,0.130126953125,0.954833984375,1.36077880859375,-3.4991455078125,-2.392578125,1.0,2.0,1.0,1.0,2.0,100.0,event
12:36:44.700,0.77409625,0.5569729,0.7296298,1.387118,0.3695197,0.40254128,-0.19043718,0.9980173,0.97426546,0.5764914,-0.10062112,0.9760089,1.2454555,0.18366925,-0.24891342,1.1596564,0.6943603,-0.21312453,-0.4784986,0.66403925,825.2015,797.8022,826.8132,796.99634,775.64105,-0.2542724609375,0.130126953125,0.954833984375,1.36077880859375,-3.4991455078125,-2.392578125,1.0,2.0,1.0,1.0,2.0,100.0,event
12:36:44.701,0.77409625,0.5569729,0.7296298,1.387118,0.3695197,0.40254128,-0.19043718,0.9980173,0.97426546,0.5764914,-0.10062112,0.9760089,1.2454555,0.18366925,-0.24891342,1.1596564,0.6943603,-0.21312453,-0.4784986,0.66403925,824.3956,801.4286,824.3956,799.41394,882.8205,-0.2542724609375,0.130126953125,0.954833984375,1.36077880859375,-3.4991455078125,-2.392578125,1.0,2.0,1.0,1.0,2.0,100.0,event
12:36:44.702,0.77409625,0.5569729,0.7296298,1.387118,0.3695197,0.40254128,-0.19043718,0.9980173,0.97426546,0.5764914,-0.10062112,0.9760089,1.2454555,0.18366925,-0.24891342,1.1596564,0.6943603,-0.21312453,-0.4784986,0.66403925,834.0659,798.60803,828.022,790.14655,811.9048,-0.2542724609375,0.130126953125,0.954833984375,1.36077880859375,-3.4991455078125,-2.392578125,1.0,2.0,1.0,1.0,2.0,100.0,event
12:36:44.702,0.77409625,0.5569729,0.7296298,1.387118,0.3695197,0.40254128,-0.19043718,0.9980173,0.97426546,0.5764914,-0.10062112,0.9760089,1.2454555,0.18366925,-0.24891342,1.1596564,0.6943603,-0.21312453,-0.4784986,0.66403925,848.97437,795.78754,829.6337,776.04395,711.1722,-0.2542724609375,0.130126953125,0.954833984375,1.36077880859375,-3.4991455078125,-2.392578125,1.0,2.0,1.0,1.0,2.0,100.0,event
12:36:44.703,0.77409625,0.5569729,0.7296298,1.387118,0.3695197,0.40254128,-0.19043718,0.9980173,0.97426546,0.5764914,-0.10062112,0.9760089,1.2454555,0.18366925,-0.24891342,1.1596564,0.6943603,-0.21312453,-0.4784986,0.66403925,821.978,799.011,826.4103,764.35895,812.3077,-0.2542724609375,0.130126953125,0.954833984375,1.36077880859375,-3.4991455078125,-2.392578125,1.0,2.0,1.0,1.0,2.0,100.0,event
12:36:44.703,0.77409625,0.5569729,0.7296298,1.387118,0.3695197,0.40254128,-0.19043718,0.9980173,0.97426546,0.5764914,-0.10062112,0.9760089,1.2454555,0.18366925,-0.24891342,1.1596564,0.6943603,-0.21312453,-0.4784986,0.66403925,805.8608,799.81683,823.9927,769.59705,979.12085,-0.2542724609375,0.130126953125,0.954833984375,1.36077880859375,-3.4991455078125,-2.392578125,1.0,2.0,1.0,1.0,2.0,100.0,event
12:36:44.704,0.77409625,0.5569729,0.7296298,1.387118,0.3695197,0.40254128,-0.19043718,0.9980173,0.97426546,0.5764914,-0.10062112,0.9760089,1.2454555,0.18366925,-0.24891342,1.1596564,0.6943603,-0.21312453,-0.4784986,0.66403925,813.5165,793.36993,821.5751,776.8498,853.00366,-0.2542724609375,0.130126953125,0.954833984375,1.36077880859375,-3.4991455078125,-2.392578125,1.0,2.0,1.0,1.0,2.0,100.0,event
12:36:44.756,0.77409625,0.5569729,0.7296298,1.387118,0.3695197,0.40254128,-0.19043718,0.9980173,0.97426546,0.5764914,-0.10062112,0.9760089,1.2454555,0.18366925,-0.24891342,1.1596564,0.6943603,-0.21312453,-0.4784986,0.66403925,811.50183,792.5641,821.978,780.07324,730.5128,-0.2442626953125,0.12298583984375,0.9478759765625,0.52337646484375,-0.49346923828125,-2.40753173828125,1.0,2.0,1.0,1.0,2.0,100.0,event
12:36:44.757,0.77409625,0.5569729,0.7296298,1.387118,0.3695197,0.40254128,-0.19043718,0.9980173,0.97426546,0.5764914,-0.10062112,0.9760089,1.2454555,0.18366925,-0.24891342,1.1596564,0.6943603,-0.21312453,-0.4784986,0.66403925,815.9341,796.99634,822.7839,785.7143,857.4359,-0.2442626953125,0.12298583984375,0.9478759765625,0.52337646484375,-0.49346923828125,-2.40753173828125,1.0,2.0,1.0,1.0,2.0,100.0,event
12:36:44.758,0.77409625,0.5569729,0.7296298,1.387118,0.3695197,0.40254128,-0.19043718,0.9980173,0.97426546,0.5764914,-0.10062112,0.9760089,1.2454555,0.18366925,-0.24891342,1.1596564,0.6943603,-0.21312453,-0.4784986,0.66403925,807.8755,790.9524,825.6044,776.04395,823.9927,-0.2442626953125,0.12298583984375,0.9478759765625,0.52337646484375,-0.49346923828125,-2.40753173828125,1.0,2.0,1.0,1.0,2.0,100.0,event
12:36:44.758,0.77409625,0.5569729,0.7296298,1.387118,0.3695197,0.40254128,-0.19043718,0.9980173,0.97426546,0.5764914,-0.10062112,0.9760089,1.2454555,0.18366925,-0.24891342,1.1596564,0.6943603,-0.21312453,-0.4784986,0.66403925,808.68134,786.1172,835.6777,786.9231,697.47253,-0.2442626953125,0.12298583984375,0.9478759765625,0.52337646484375,-0.49346923828125,-2.40753173828125,1.0,2.0,1.0,1.0,2.0,100.0,event
12:36:44.759,0.77409625,0.5569729,0.7296298,1.387118,0.3695197,0.40254128,-0.19043718,0.9980173,0.97426546,0.5764914,-0.10062112,0.9760089,1.2454555,0.18366925,-0.24891342,1.1596564,0.6943603,-0.21312453,-0.4784986,0.66403925,826.0073,792.1612,830.0366,809.89014,766.77655,-0.2442626953125,0.12298583984375,0.9478759765625,0.52337646484375,-0.49346923828125,-2.40753173828125,1.0,2.0,1.0,1.0,2.0,100.0,event
12:36:44.759,0.77409625,0.5569729,0.7296298,1.387118,0.3695197,0.40254128,-0.19043718,0.9980173,0.97426546,0.5764914,-0.10062112,0.9760089,1.2454555,0.18366925,-0.24891342,1.1596564,0.6943603,-0.21312453,-0.4784986,0.66403925,843.3333,794.9817,828.4249,799.011,985.56775,-0.2442626953125,0.12298583984375,0.9478759765625,0.52337646484375,-0.49346923828125,-2.40753173828125,1.0,2.0,1.0,1.0,2.0,100.0,event
12:36:44.760,0.77409625,0.5569729,0.7296298,1.387118,0.3695197,0.40254128,-0.19043718,0.9980173,0.97426546,0.5764914,-0.10062112,0.9760089,1.2454555,0.18366925,-0.24891342,1.1596564,0.6943603,-0.21312453,-0.4784986,0.66403925,843.73627,793.7729,832.4542,792.5641,1016.99634,-0.2442626953125,0.12298583984375,0.9478759765625,0.52337646484375,-0.49346923828125,-2.40753173828125,1.0,2.0,1.0,1.0,2.0,100.0,event
12:36:44.761,0.77409625,0.5569729,0.7296298,1.387118,0.3695197,0.40254128,-0.19043718,0.9980173,0.97426546,0.5764914,-0.10062112,0.9760089,1.2454555,0.18366925,-0.24891342,1.1596564,0.6943603,-0.21312453,-0.4784986,0.66403925,814.3223,794.57874,830.84247,798.60803,762.74725,-0.2442626953125,0.12298583984375,0.9478759765625,0.52337646484375,-0.49346923828125,-2.40753173828125,1.0,2.0,1.0,1.0,2.0,100.0,event
12:36:44.761,0.77409625,0.5569729,0.7296298,1.387118,0.3695197,0.40254128,-0.19043718,0.9980173,0.97426546,0.5764914,-0.10062112,0.9760089,1.2454555,0.18366925,-0.24891342,1.1596564,0.6943603,-0.21312453,-0.4784986,0.66403925,807.8755,796.99634,830.0366,784.5055,701.9048,-0.2442626953125,0.12298583984375,0.9478759765625,0.52337646484375,-0.49346923828125,-2.40753173828125,1.0,2.0,1.0,1.0,2.0,100.0,event
12:36:44.762,0.77409625,0.5569729,0.7296298,1.387118,0.3695197,0.40254128,-0.19043718,0.9980173,0.97426546,0.5764914,-0.10062112,0.9760089,1.2454555,0.18366925,-0.24891342,1.1596564,0.6943603,-0.21312453,-0.4784986,0.66403925,825.2015,789.7436,833.2601,797.8022,951.7216,-0.2442626953125,0.12298583984375,0.9478759765625,0.52337646484375,-0.49346923828125,-2.40753173828125,1.0,2.0,1.0,1.0,2.0,100.0,event
12:36:44.762,0.77409625,0.5569729,0.7296298,1.387118,0.3695197,0.40254128,-0.19043718,0.9980173,0.97426546,0.5764914,-0.10062112,0.9760089,1.2454555,0.18366925,-0.24891342,1.1596564,0.6943603,-0.21312453,-0.4784986,0.66403925,817.1429,792.1612,837.28937,809.89014,831.6484,-0.2442626953125,0.12298583984375,0.9478759765625,0.52337646484375,-0.49346923828125,-2.40753173828125,1.0,2.0,1.0,1.0,2.0,100.0,event
12:36:44.763,0.77409625,0.5569729,0.7296298,1.387118,0.3695197,0.40254128,-0.19043718,0.9980173,0.97426546,0.5764914,-0.10062112,0.9760089,1.2454555,0.18366925,-0.24891342,1.1596564,0.6943603,-0.21312453,-0.4784986,0.66403925,812.3077,798.60803,833.2601,776.4469,656.77655,-0.2442626953125,0.12298583984375,0.9478759765625,0.52337646484375,-0.49346923828125,-2.40753173828125,1.0,2.0,1.0,1.0,2.0,100.0,event
12:36:44.791,0.77409625,0.5569729,0.7296298,1.387118,0.3695197,0.40254128,-0.19043718,0.9980173,0.97426546,0.5764914,-0.10062112,0.9760089,1.2454555,0.18366925,-0.24891342,1.1596564,0.6943603,-0.21312453,-0.4784986,0.66403925,824.7985,798.20514,827.619,784.90845,735.7509,-0.2442626953125,0.12298583984375,0.9478759765625,0.52337646484375,-0.49346923828125,-2.40753173828125,1.0,2.0,1.0,1.0,2.0,100.0,event
12:36:44.792,0.77409625,0.5569729,0.7296298,1.387118,0.3695197,0.40254128,-0.19043718,0.9980173,0.97426546,0.5764914,-0.10062112,0.9760089,1.2454555,0.18366925,-0.24891342,1.1596564,0.6943603,-0.21312453,-0.4784986,0.66403925,843.73627,795.78754,821.1722,815.9341,717.2161,-0.2442626953125,0.12298583984375,0.9478759765625,0.52337646484375,-0.49346923828125,-2.40753173828125,1.0,2.0,1.0,1.0,2.0,100.0,event
12:36:44.793,0.77409625,0.5569729,0.7296298,1.387118,0.3695197,0.40254128,-0.19043718,0.9980173,0.97426546,0.5764914,-0.10062112,0.9760089,1.2454555,0.18366925,-0.24891342,1.1596564,0.6943603,-0.21312453,-0.4784986,0.66403925,826.8132,790.9524,834.87177,825.2015,680.14655,-0.2442626953125,0.12298583984375,0.9478759765625,0.52337646484375,-0.49346923828125,-2.40753173828125,1.0,2.0,1.0,1.0,2.0,100.0,event
12:36:44.793,0.77409625,0.5569729,0.7296298,1.387118,0.3695197,0.40254128,-0.19043718,0.9980173,0.97426546,0.5764914,-0.10062112,0.9760089,1.2454555,0.18366925,-0.24891342,1.1596564,0.6943603,-0.21312453,-0.4784986,0.66403925,844.1392,794.9817,825.2015,813.91943,659.19415,-0.2442626953125,0.12298583984375,0.9478759765625,0.52337646484375,-0.49346923828125,-2.40753173828125,1.0,2.0,1.0,1.0,2.0,100.0,event
12:36:44.794,0.77409625,0.5226236,0.8690039,1.387118,0.3695197,0.39130607,-0.18568583,0.9980173,0.97426546,0.5764914,-0.08177316,0.9760089,1.2454555,0.18575811,-0.27649498,1.1596564,0.6943603,-0.21832424,-0.46229255,0.66403925,852.6007,787.326,826.0073,784.5055,938.8278,-0.2442626953125,0.12298583984375,0.9478759765625,0.52337646484375,-0.49346923828125,-2.40753173828125,1.0,2.0,1.0,1.0,2.0,100.0,event
12:36:44.794,0.77409625,0.5569729,0.7296298,1.387118,0.3695197,0.40254128,-0.19043718,0.9980173,0.97426546,0.5764914,-0.10062112,0.9760089,1.2454555,0.18366925,-0.24891342,1.1596564,0.6943603,-0.21312453,-0.4784986,0.66403925,844.1392,786.52014,828.022,815.12823,799.41394,-0.2442626953125,0.12298583984375,0.9478759765625,0.52337646484375,-0.49346923828125,-2.40753173828125,1.0,2.0,1.0,1.0,2.0,100.0,event
12:36:44.798,0.77409625,0.5226236,0.8690039,1.387118,0.3695197,0.39130607,-0.18568583,0.9980173,0.97426546,0.5764914,-0.08177316,0.9760089,1.2454555,0.18575811,-0.27649498,1.1596564,0.6943603,-0.21832424,-0.46229255,0.66403925,815.12823,784.90845,843.3333,774.43225,889.2674,-0.2442626953125,0.12298583984375,0.9478759765625,0.52337646484375,-0.49346923828125,-2.40753173828125,1.0,2.0,1.0,1.0,2.0,100.0,event
12:36:44.799,0.77409625,0.5226236,0.8690039,1.387118,0.3695197,0.39130607,-0.18568583,0.9980173,0.97426546,0.5764914,-0.08177316,0.9760089,1.2454555,0.18575811,-0.27649498,1.1596564,0.6943603,-0.21832424,-0.46229255,0.66403925,808.2784,778.0586,848.5714,791.75824,806.26373,-0.2442626953125,0.12298583984375,0.9478759765625,0.52337646484375,-0.49346923828125,-2.40753173828125,1.0,2.0,1.0,1.0,2.0,100.0,event
12:36:44.799,0.77409625,0.5226236,0.8690039,1.387118,0.3695197,0.39130607,-0.18568583,0.9980173,0.97426546,0.5764914,-0.08177316,0.9760089,1.2454555,0.18575811,-0.27649498,1.1596564,0.6943603,-0.21832424,-0.46229255,0.66403925,809.0842,786.52014,846.9597,804.2491,859.0476,-0.2442626953125,0.12298583984375,0.9478759765625,0.52337646484375,-0.49346923828125,-2.40753173828125,1.0,2.0,1.0,1.0,2.0,100.0,event
12:36:44.800,0.77409625,0.5226236,0.8690039,1.387118,0.3695197,0.39130607,-0.18568583,0.9980173,0.97426546,0.5764914,-0.08177316,0.9760089,1.2454555,0.18575811,-0.27649498,1.1596564,0.6943603,-0.21832424,-0.46229255,0.66403925,801.4286,792.96704,844.94507,806.26373,822.381,-0.2442626953125,0.12298583984375,0.9478759765625,0.52337646484375,-0.49346923828125,-2.40753173828125,1.0,2.0,1.0,1.0,2.0,100.0,event
12:36:44.800,0.77409625,0.5226236,0.8690039,1.387118,0.3695197,0.39130607,-0.18568583,0.9980173,0.97426546,0.5764914,-0.08177316,0.9760089,1.2454555,0.18575811,-0.27649498,1.1596564,0.6943603,-0.21832424,-0.46229255,0.66403925,796.99634,788.1319,845.34796,787.72894,693.0403,-0.2442626953125,0.12298583984375,0.9478759765625,0.52337646484375,-0.49346923828125,-2.40753173828125,1.0,2.0,1.0,1.0,2.0,100.0,event
12:36:44.801,0.77409625,0.5226236,0.8690039,1.387118,0.3695197,0.39130607,-0.18568583,0.9980173,0.97426546,0.5764914,-0.08177316,0.9760089,1.2454555,0.18575811,-0.27649498,1.1596564,0.6943603,-0.21832424,-0.46229255,0.66403925,811.0989,792.1612,848.97437,773.6264,638.24176,-0.2442626953125,0.12298583984375,0.9478759765625,0.52337646484375,-0.49346923828125,-2.40753173828125,1.0,2.0,1.0,1.0,2.0,100.0,event
12:36:44.826,0.77409625,0.5226236,0.8690039,1.387118,0.3695197,0.39130607,-0.18568583,0.9980173,0.97426546,0.5764914,-0.08177316,0.9760089,1.2454555,0.18575811,-0.27649498,1.1596564,0.6943603,-0.21832424,-0.46229255,0.66403925,839.707,797.3993,844.1392,811.50183,774.83514,-0.25408935546875,0.11639404296875,0.9501953125,0.2691650390625,2.325286865234375,-0.785064697265625,1.0,2.0,1.0,1.0,2.0,100.0,event
12:36:44.827,0.77409625,0.5226236,0.8690039,1.387118,0.3695197,0.39130607,-0.18568583,0.9980173,0.97426546,0.5764914,-0.08177316,0.9760089,1.2454555,0.18575811,-0.27649498,1.1596564,0.6943603,-0.21832424,-0.46229255,0.66403925,849.7802,786.52014,844.94507,825.2015,967.8388,-0.25408935546875,0.11639404296875,0.9501953125,0.2691650390625,2.325286865234375,-0.785064697265625,1.0,2.0,1.0,1.0,2.0,100.0,event
12:36:44.827,0.77409625,0.5226236,0.8690039,1.387118,0.3695197,0.39130607,-0.18568583,0.9980173,0.97426546,0.5764914,-0.08177316,0.9760089,1.2454555,0.18575811,-0.27649498,1.1596564,0.6943603,-0.21832424,-0.46229255,0.66403925,855.42126,780.87915,850.989,800.6227,823.5897,-0.25408935546875,0.11639404296875,0.9501953125,0.2691650390625,2.325286865234375,-0.785064697265625,1.0,2.0,1.0,1.0,2.0,100.0,event
12:36:44.828,0.77409625,0.5226236,0.8690039,1.387118,0.3695197,0.39130607,-0.18568583,0.9980173,0.97426546,0.5764914,-0.08177316,0.9760089,1.2454555,0.18575811,-0.27649498,1.1596564,0.6943603,-0.21832424,-0.46229255,0.66403925,845.7509,792.5641,846.9597,812.3077,738.97437,-0.25408935546875,0.11639404296875,0.9501953125,0.2691650390625,2.325286865234375,-0.785064697265625,1.0,2.0,1.0,1.0,2.0,100.0,event
12:36:44.828,0.77409625,0.5226236,0.8690039,1.387118,0.3695197,0.39130607,-0.18568583,0.9980173,0.97426546,0.5764914,-0.08177316,0.9760089,1.2454555,0.18575811,-0.27649498,1.1596564,0.6943603,-0.21832424,-0.46229255,0.66403925,826.4103,798.60803,848.5714,821.978,776.04395,-0.25408935546875,0.11639404296875,0.9501953125,0.2691650390625,2.325286865234375,-0.785064697265625,1.0,2.0,1.0,1.0,2.0,100.0,event
12:36:44.829,0.77409625,0.5226236,0.8690039,1.387118,0.3695197,0.39130607,-0.18568583,0.9980173,0.97426546,0.5764914,-0.08177316,0.9760089,1.2454555,0.18575811,-0.27649498,1.1596564,0.6943603,-0.21832424,-0.46229255,0.66403925,828.8278,795.38464,856.2271,769.19415,794.9817,-0.25408935546875,0.11639404296875,0.9501953125,0.2691650390625,2.325286865234375,-0.785064697265625,1.0,2.0,1.0,1.0,2.0,100.0,event
12:36:44.829,0.77409625,0.5226236,0.8690039,1.387118,0.3695197,0.39130607,-0.18568583,0.9980173,0.97426546,0.5764914,-0.08177316,0.9760089,1.2454555,0.18575811,-0.27649498,1.1596564,0.6943603,-0.21832424,-0.46229255,0.66403925,814.3223,796.99634,854.61536,778.86444,837.6923,-0.25408935546875,0.11639404296875,0.9501953125,0.2691650390625,2.325286865234375,-0.785064697265625,1.0,2.0,1.0,1.0,2.0,100.0,event
12:36:44.830,0.77409625,0.5226236,0.8690039,1.387118,0.3695197,0.39130607,-0.18568583,0.9980173,0.97426546,0.5764914,-0.08177316,0.9760089,1.2454555,0.18575811,-0.27649498,1.1596564,0.6943603,-0.21832424,-0.46229255,0.66403925,816.337,785.31134,873.95605,795.78754,984.35895,-0.25408935546875,0.11639404296875,0.9501953125,0.2691650390625,2.325286865234375,-0.785064697265625,1.0,2.0,1.0,1.0,2.0,100.0,event
12:36:44.830,0.77409625,0.5226236,0.8690039,1.387118,0.3695197,0.39130607,-0.18568583,0.9980173,0.97426546,0.5764914,-0.08177316,0.9760089,1.2454555,0.18575811,-0.27649498,1.1596564,0.6943603,-0.21832424,-0.46229255,0.66403925,803.0403,794.9817,859.45056,803.0403,827.619,-0.25408935546875,0.11639404296875,0.9501953125,0.2691650390625,2.325286865234375,-0.785064697265625,1.0,2.0,1.0,1.0,2.0,100.0,event
12:36:44.831,0.77409625,0.5226236,0.8690039,1.387118,0.3695197,0.39130607,-0.18568583,0.9980173,0.97426546,0.5764914,-0.08177316,0.9760089,1.2454555,0.18575811,-0.27649498,1.1596564,0.6943603,-0.21832424,-0.46229255,0.66403925,814.3223,790.54944,876.77655,791.3553,1041.5751,-0.25408935546875,0.11639404296875,0.9501953125,0.2691650390625,2.325286865234375,-0.785064697265625,1.0,2.0,1.0,1.0,2.0,100.0,event
12:36:44.832,0.77409625,0.5226236,0.8690039,1.387118,0.3695197,0.39130607,-0.18568583,0.9980173,0.97426546,0.5764914,-0.08177316,0.9760089,1.2454555,0.18575811,-0.27649498,1.1596564,0.6943603,-0.21832424,-0.46229255,0.66403925,811.50183,795.78754,875.16486,802.6374,790.9524,-0.25408935546875,0.11639404296875,0.9501953125,0.2691650390625,2.325286865234375,-0.785064697265625,1.0,2.0,1.0,1.0,2.0,100.0,event
12:36:44.833,0.77409625,0.5226236,0.8690039,1.387118,0.3695197,0.39130607,-0.18568583,0.9980173,0.97426546,0.5764914,-0.08177316,0.9760089,1.2454555,0.18575811,-0.27649498,1.1596564,0.6943603,-0.21832424,-0.46229255,0.66403925,811.50183,793.36993,876.3736,823.1868,729.304,-0.25408935546875,0.11639404296875,0.9501953125,0.2691650390625,2.325286865234375,-0.785064697265625,1.0,2.0,1.0,1.0,2.0,100.0,event
12:36:44.885,0.77409625,0.5226236,0.8690039,1.387118,0.3695197,0.39130607,-0.18568583,0.9980173,0.97426546,0.5764914,-0.08177316,0.9760089,1.2454555,0.18575811,-0.27649498,1.1596564,0.6943603,-0.21832424,-0.46229255,0.66403925,809.0842,787.72894,875.16486,814.7253,753.47986,-0.26788330078125,0.12109375,0.93890380859375,1.24114990234375,4.119720458984375,-1.74957275390625,1.0,2.0,1.0,1.0,2.0,100.0,event
12:36:44.886,0.77409625,0.5226236,0.8690039,1.387118,0.3695197,0.39130607,-0.18568583,0.9980173,0.97426546,0.5764914,-0.08177316,0.9760089,1.2454555,0.18575811,-0.27649498,1.1596564,0.6943603,-0.21832424,-0.46229255,0.66403925,818.7546,784.5055,881.6117,813.1135,689.011,-0.26788330078125,0.12109375,0.93890380859375,1.24114990234375,4.119720458984375,-1.74957275390625,1.0,2.0,1.0,1.0,2.0,100.0,event
12:36:44.886,0.77409625,0.5226236,0.8690039,1.387118,0.3695197,0.39130607,-0.18568583,0.9980173,0.97426546,0.5764914,-0.08177316,0.9760089,1.2454555,0.18575811,-0.27649498,1.1596564,0.6943603,-0.21832424,-0.46229255,0.66403925,808.2784,782.8938,890.07324,804.65204,664.83514,-0.26788330078125,0.12109375,0.93890380859375,1.24114990234375,4.119720458984375,-1.74957275390625,1.0,2.0,1.0,1.0,2.0,100.0,event
12:36:44.887,0.77409625,0.5226236,0.8690039,1.387118,0.3695197,0.39130607,-0.18568583,0.9980173,0.97426546,0.5764914,-0.08177316,0.9760089,1.2454555,0.18575811,-0.27649498,1.1596564,0.6943603,-0.21832424,-0.46229255,0.66403925,831.6484,782.49084,890.4762,784.10254,710.7692,-0.26788330078125,0.12109375,0.93890380859375,1.24114990234375,4.119720458984375,-1.74957275390625,1.0,2.0,1.0,1.0,2.0,100.0,event
12:36:44.887,0.77409625,0.5226236,0.8690039,1.387118,0.3695197,0.39130607,-0.18568583,0.9980173,0.97426546,0.5764914,-0.08177316,0.9760089,1.2454555,0.18575811,-0.27649498,1.1596564,0.6943603,-0.21832424,-0.46229255,0.66403925,841.31866,785.31134,890.4762,817.5458,780.4762,-0.26788330078125,0.12109375,0.93890380859375,1.24114990234375,4.119720458984375,-1.74957275390625,1.0,2.0,1.0,1.0,2.0,100.0,event
12:36:44.888,0.77409625,0.5226236,0.8690039,1.387118,0.3695197,0.39130607,-0.18568583,0.9980173,0.97426546,0.5764914,-0.08177316,0.9760089,1.2454555,0.18575811,-0.27649498,1.1596564,0.6943603,-0.21832424,-0.46229255,0.66403925,806.6667,790.14655,891.685,826.4103,788.5348,-0.26788330078125,0.12109375,0.93890380859375,1.24114990234375,4.119720458984375,-1.74957275390625,1.0,2.0,1.0,1.0,2.0,100.0,event
12:36:44.888,0.77409625,0.5226236,0.8690039,1.387118,0.3695197,0.39130607,-0.18568583,0.9980173,0.97426546,0.5764914,-0.08177316,0.9760089,1.2454555,0.18575811,-0.27649498,1.1596564,0.6943603,-0.21832424,-0.46229255,0.66403925,801.4286,792.5641,890.07324,793.36993,772.4176,-0.26788330078125,0.12109375,0.93890380859375,1.24114990234375,4.119720458984375,-1.74957275390625,1.0,2.0,1.0,1.0,2.0,100.0,event
12:36:44.889,0.77409625,0.49319646,0.8690039,1.387118,0.3695197,0.36248344,-0.18568583,0.9980173,0.97426546,0.5764914,-0.08177316,0.9760089,1.2454555,0.18479344,-0.27649498,1.1596564,0.6943603,-0.224237,-0.46229255,0.66403925,813.1135,786.52014,893.69965,765.9707,841.31866,-0.26788330078125,0.12109375,0.93890380859375,1.24114990234375,4.119720458984375,-1.74957275390625,1.0,2.0,1.0,1.0,2.0,100.0,event
12:36:44.893,0.77409625,0.49319646,0.8690039,1.387118,0.3695197,0.36248344,-0.18568583,0.9980173,0.97426546,0.5764914,-0.08177316,0.9760089,1.2454555,0.18479344,-0.27649498,1.1596564,0.6943603,-0.224237,-0.46229255,0.66403925,826.4103,782.8938,896.52014,763.1502,998.46155,-0.26788330078125,0.12109375,0.93890380859375,1.24114990234375,4.119720458984375,-1.74957275390625,1.0,2.0,1.0,1.0,2.0,100.0,event
12:36:44.894,0.77409625,0.49319646,0.8690039,1.387118,0.3695197,0.36248344,-0.18568583,0.9980173,0.97426546,0.5764914,-0.08177316,0.9760089,1.2454555,0.18479344,-0.27649498,1.1596564,0.6943603,-0.224237,-0.46229255,0.66403925,827.619,786.1172,898.5348,788.93774,869.92676,-0.26788330078125,0.12109375,0.93890380859375,1.24114990234375,4.119720458984375,-1.74957275390625,1.0,2.0,1.0,1.0,2.0,100.0,event
12:36:44.894,0.77409625,0.49319646,0.8690039,1.387118,0.3695197,0.36248344,-0.18568583,0.9980173,0.97426546,0.5764914,-0.08177316,0.9760089,1.2454555,0.18479344,-0.27649498,1.1596564,0.6943603,-0.224237,-0.46229255,0.66403925,834.4689,787.326,888.0586,781.685,860.65936,-0.26788330078125,0.12109375,0.93890380859375,1.24114990234375,4.119720458984375,-1.74957275390625,1.0,2.0,1.0,1.0,2.0,100.0,event
12:36:44.894,0.77409625,0.49319646,0.8690039,1.387118,0.3695197,0.36248344,-0.18568583,0.9980173,0.97426546,0.5764914,-0.08177316,0.9760089,1.2454555,0.18479344,-0.27649498,1.1596564,0.6943603,-0.224237,-0.46229255,0.66403925,833.663,788.1319,886.8498,795.38464,782.8938,-0.26788330078125,0.12109375,0.93890380859375,1.24114990234375,4.119720458984375,-1.74957275390625,1.0,2.0,1.0,1.0,2.0,100.0,event
12:36:44.924,0.77409625,0.49319646,0.8690039,1.387118,0.3695197,0.36248344,-0.18568583,0.9980173,0.97426546,0.5764914,-0.08177316,0.9760089,1.2454555,0.18479344,-0.27649498,1.1596564,0.6943603,-0.224237,-0.46229255,0.66403925,815.9341,785.7143,900.54944,777.6557,801.4286,-0.2772216796875,0.1259765625,0.93096923828125,2.325286865234375,1.8841552734375,-0.79254150390625,1.0,2.0,1.0,1.0,2.0,100.0,event
12:36:44.925,0.77409625,0.49319646,0.8690039,1.387118,0.3695197,0.36248344,-0.18568583,0.9980173,0.97426546,0.5764914,-0.08177316,0.9760089,1.2454555,0.18479344,-0.27649498,1.1596564,0.6943603,-0.224237,-0.46229255,0.66403925,805.8608,790.14655,896.9231,762.74725,711.1722,-0.2772216796875,0.1259765625,0.93096923828125,2.325286865234375,1.8841552734375,-0.79254150390625,1.0,2.0,1.0,1.0,2.0,100.0,event
12:36:44.925,0.77409625,0.49319646,0.8690039,1.387118,0.3695197,0.36248344,-0.18568583,0.9980173,0.97426546,0.5764914,-0.08177316,0.9760089,1.2454555,0.18479344,-0.27649498,1.1596564,0.6943603,-0.224237,-0.46229255,0.66403925,817.9487,788.5348,892.49084,797.3993,741.79486,-0.2772216796875,0.1259765625,0.93096923828125,2.325286865234375,1.8841552734375,-0.79254150390625,1.0,2.0,1.0,1.0,2.0,100.0,event
12:36:44.926,0.77409625,0.49319646,0.8690039,1.387118,0.3695197,0.36248344,-0.18568583,0.9980173,0.97426546,0.5764914,-0.08177316,0.9760089,1.2454555,0.18479344,-0.27649498,1.1596564,0.6943603,-0.224237,-0.46229255,0.66403925,828.4249,787.72894,893.2967,809.0842,809.4872,-0.2772216796875,0.1259765625,0.93096923828125,2.325286865234375,1.8841552734375,-0.79254150390625,1.0,2.0,1.0,1.0,2.0,100.0,event
12:36:44.926,0.77409625,0.49319646,0.8690039,1.387118,0.3695197,0.36248344,-0.18568583,0.9980173,0.97426546,0.5764914,-0.08177316,0.9760089,1.2454555,0.18479344,-0.27649498,1.1596564,0.6943603,-0.224237,-0.46229255,0.66403925,824.3956,788.1319,902.5641,761.13556,794.17584,-0.2772216796875,0.1259765625,0.93096923828125,2.325286865234375,1.8841552734375,-0.79254150390625,1.0,2.0,1.0,1.0,2.0,100.0,event
12:36:44.927,0.77409625,0.49319646,0.8690039,1.387118,0.3695197,0.36248344,-0.18568583,0.9980173,0.97426546,0.5764914,-0.08177316,0.9760089,1.2454555,0.18479344,-0.27649498,1.1596564,0.6943603,-0.224237,-0.46229255,0.66403925,820.7692,787.326,905.78754,773.6264,804.65204,-0.2772216796875,0.1259765625,0.93096923828125,2.325286865234375,1.8841552734375,-0.79254150390625,1.0,2.0,1.0,1.0,2.0,100.0,event
12:36:44.927,0.77409625,0.49319646,0.8690039,1.387118,0.3695197,0.36248344,-0.18568583,0.9980173,0.97426546,0.5764914,-0.08177316,0.9760089,1.2454555,0.18479344,-0.27649498,1.1596564,0.6943603,-0.224237,-0.46229255,0.66403925,803.0403,788.93774,901.75824,783.2967,848.5714,-0.2772216796875,0.1259765625,0.93096923828125,2.325286865234375,1.8841552734375,-0.79254150390625,1.0,2.0,1.0,1.0,2.0,100.0,event
12:36:44.928,0.77409625,0.49319646,0.8690039,1.387118,0.3695197,0.36248344,-0.18568583,0.9980173,0.97426546,0.5764914,-0.08177316,0.9760089,1.2454555,0.18479344,-0.27649498,1.1596564,0.6943603,-0.224237,-0.46229255,0.66403925,796.5934,785.31134,899.34064,772.8205,1011.3553,-0.2772216796875,0.1259765625,0.93096923828125,2.325286865234375,1.8841552734375,-0.79254150390625,1.0,2.0,1.0,1.0,2.0,100.0,event
12:36:44.929,0.77409625,0.49319646,0.8690039,1.387118,0.3695197,0.36248344,-0.18568583,0.9980173,0.97426546,0.5764914,-0.08177316,0.9760089,1.2454555,0.18479344,-0.27649498,1.1596564,0.6943603,-0.224237,-0.46229255,0.66403925,807.47253,785.31134,901.3553,786.52014,1023.44324,-0.2772216796875,0.1259765625,0.93096923828125,2.325286865234375,1.8841552734375,-0.79254150390625,1.0,2.0,1.0,1.0,2.0,100.0,event
12:36:44.929,0.77409625,0.49319646,0.8690039,1.387118,0.3695197,0.36248344,-0.18568583,0.9980173,0.97426546,0.5764914,-0.08177316,0.9760089,1.2454555,0.18479344,-0.27649498,1.1596564,0.6943603,-0.224237,-0.46229255,0.66403925,812.3077,789.7436,900.14655,788.1319,795.38464,-0.2772216796875,0.1259765625,0.93096923828125,2.325286865234375,1.8841552734375,-0.79254150390625,1.0,2.0,1.0,1.0,2.0,100.0,event
12:36:44.930,0.77409625,0.49319646,0.8690039,1.387118,0.3695197,0.36248344,-0.18568583,0.9980173,0.97426546,0.5764914,-0.08177316,0.9760089,1.2454555,0.18479344,-0.27649498,1.1596564,0.6943603,-0.224237,-0.46229255,0.66403925,814.3223,790.9524,903.36993,778.0586,804.65204,-0.2772216796875,0.1259765625,0.93096923828125,2.325286865234375,1.8841552734375,-0.79254150390625,1.0,2.0,1.0,1.0,2.0,100.0,event
12:36:44.930,0.77409625,0.49319646,0.8690039,1.387118,0.3695197,0.36248344,-0.18568583,0.9980173,0.97426546,0.5764914,-0.08177316,0.9760089,1.2454555,0.18479344,-0.27649498,1.1596564,0.6943603,-0.224237,-0.46229255,0.66403925,814.3223,790.14655,899.34064,778.86444,747.03296,-0.2772216796875,0.1259765625,0.93096923828125,2.325286865234375,1.8841552734375,-0.79254150390625,1.0,2.0,1.0,1.0,2.0,100.0,event
12:36:44.990,0.77409625,0.49319646,0.8690039,1.387118,0.3695197,0.36248344,-0.18568583,0.9980173,0.97426546,0.5764914,-0.08177316,0.9760089,1.2454555,0.18479344,-0.27649498,1.1596564,0.6943603,-0.224237,-0.46229255,0.66403925,827.619,791.3553,898.1319,794.9817,778.86444,-0.27740478515625,0.13336181640625,0.93499755859375,2.145843505859375,-1.06170654296875,1.7047119140625,1.0,2.0,1.0,1.0,2.0,100.0,event
12:36:44.992,0.77409625,0.49319646,0.8690039,1.387118,0.3695197,0.36248344,-0.18568583,0.9980173,0.97426546,0.5764914,-0.08177316,0.9760089,1.2454555,0.18479344,-0.27649498,1.1596564,0.6943603,-0.224237,-0.46229255,0.66403925,846.1539,791.3553,892.49084,796.5934,794.17584,-0.27740478515625,0.13336181640625,0.93499755859375,2.145843505859375,-1.06170654296875,1.7047119140625,1.0,2.0,1.0,1.0,2.0,100.0,event
12:36:44.993,0.77409625,0.49319646,0.8690039,1.387118,0.3695197,0.36248344,-0.18568583,0.9980173,0.97426546,0.5764914,-0.08177316,0.9760089,1.2454555,0.18479344,-0.27649498,1.1596564,0.6943603,-0.224237,-0.46229255,0.66403925,826.0073,792.1612,893.69965,790.14655,872.74725,-0.27740478515625,0.13336181640625,0.93499755859375,2.145843505859375,-1.06170654296875,1.7047119140625,1.0,2.0,1.0,1.0,2.0,100.0,event
12:36:44.993,0.77409625,0.49319646,0.8690039,1.387118,0.3695197,0.36248344,-0.18568583,0.9980173,0.97426546,0.5764914,-0.08177316,0.9760089,1.2454555,0.18479344,-0.27649498,1.1596564,0.6943603,-0.224237,-0.46229255,0.66403925,827.2161,792.96704,888.86444,802.23444,848.5714,-0.27740478515625,0.13336181640625,0.93499755859375,2.145843505859375,-1.06170654296875,1.7047119140625,1.0,2.0,1.0,1.0,2.0,100.0,event
12:36:44.994,0.77409625,0.49319646,0.8690039,1.387118,0.3695197,0.36248344,-0.18568583,0.9980173,0.97426546,0.5764914,-0.08177316,0.9760089,1.2454555,0.18479344,-0.27649498,1.1596564,0.6943603,-0.224237,-0.46229255,0.66403925,856.63007,794.9817,879.59705,812.3077,734.94507,-0.27740478515625,0.13336181640625,0.93499755859375,2.145843505859375,-1.06170654296875,1.7047119140625,1.0,2.0,1.0,1.0,2.0,100.0,event
12:36:44.995,0.77409625,0.49319646,0.8690039,1.387118,0.3695197,0.36248344,-0.18568583,0.9980173,0.97426546,0.5764914,-0.08177316,0.9760089,1.2454555,0.18479344,-0.27649498,1.1596564,0.6943603,-0.224237,-0.46229255,0.66403925,846.1539,798.60803,879.19415,798.20514,772.8205,-0.27740478515625,0.13336181640625,0.93499755859375,2.145843505859375,-1.06170654296875,1.7047119140625,1.0,2.0,1.0,1.0,2.0,100.0,event
12:36:44.995,0.77409625,0.49319646,0.8690039,1.387118,0.3695197,0.36248344,-0.18568583,0.9980173,0.97426546,0.5764914,-0.08177316,0.9760089,1.2454555,0.18479344,-0.27649498,1.1596564,0.6943603,-0.224237,-0.46229255,0.66403925,828.4249,794.17584,885.2381,785.31134,938.8278,-0.27740478515625,0.13336181640625,0.93499755859375,2.145843505859375,-1.06170654296875,1.7047119140625,1.0,2.0,1.0,1.0,2.0,100.0,event
12:36:44.996,0.77409625,0.49319646,0.8690039,1.387118,0.3695197,0.36248344,-0.18568583,0.9980173,0.97426546,0.5764914,-0.08177316,0.9760089,1.2454555,0.18479344,-0.27649498,1.1596564,0.6943603,-0.224237,-0.46229255,0.66403925,807.0696,788.93774,882.4176,792.96704,1064.5421,-0.27740478515625,0.13336181640625,0.93499755859375,2.145843505859375,-1.06170654296875,1.7047119140625,1.0,2.0,1.0,1.0,2.0,100.0,event
12:36:44.997,0.77409625,0.49319646,0.8690039,1.387118,0.3695197,0.36248344,-0.18568583,0.9980173,0.97426546,0.5764914,-0.08177316,0.9760089,1.2454555,0.18479344,-0.27649498,1.1596564,0.6943603,-0.224237,-0.46229255,0.66403925,809.89014,795.38464,874.7619,790.14655,800.6227,-0.27740478515625,0.13336181640625,0.93499755859375,2.145843505859375,-1.06170654296875,1.7047119140625,1.0,2.0,1.0,1.0,2.0,100.0,event
12:36:44.997,1.0642618,0.47686437,0.8690039,1.387118,0.5575115,0.29842892,-0.18568583,0.9980173,1.1525466,0.5743712,-0.08177316,0.9760089,1.0577668,0.1721878,-0.27649498,1.1596564,0.89362323,-0.23119234,-0.46229255,0.66403925,810.293,796.5934,871.13556,780.07324,639.45056,-0.27740478515625,0.13336181640625,0.93499755859375,2.145843505859375,-1.06170654296875,1.7047119140625,1.0,2.0,1.0,1.0,2.0,100.0,event
12:36:45.002,1.0642618,0.47686437,0.8690039,1.387118,0.5575115,0.29842892,-0.18568583,0.9980173,1.1525466,0.5743712,-0.08177316,0.9760089,1.0577668,0.1721878,-0.27649498,1.1596564,0.89362323,-0.23119234,-0.46229255,0.66403925,808.2784,792.96704,865.09155,792.96704,740.18317,-0.27740478515625,0.13336181640625,0.93499755859375,2.145843505859375,-1.06170654296875,1.7047119140625,1.0,2.0,1.0,1.0,2.0,100.0,event
12:36:45.003,1.0642618,0.47686437,0.8690039,1.387118,0.5575115,0.29842892,-0.18568583,0.9980173,1.1525466,0.5743712,-0.08177316,0.9760089,1.0577668,0.1721878,-0.27649498,1.1596564,0.89362323,-0.23119234,-0.46229255,0.66403925,838.49817,801.02563,861.06226,809.4872,726.8865,-0.27740478515625,0.13336181640625,0.93499755859375,2.145843505859375,-1.06170654296875,1.7047119140625,1.0,2.0,1.0,1.0,2.0,100.0,event
12:36:45.029,1.0642618,0.47686437,0.8690039,1.387118,0.5575115,0.29842892,-0.18568583,0.9980173,1.1525466,0.5743712,-0.08177316,0.9760089,1.0577668,0.1721878,-0.27649498,1.1596564,0.89362323,-0.23119234,-0.46229255,0.66403925,833.663,799.41394,861.06226,790.9524,651.13556,-0.27740478515625,0.13336181640625,0.93499755859375,2.145843505859375,-1.06170654296875,1.7047119140625,1.0,2.0,1.0,1.0,2.0,100.0,event
12:36:45.030,1.0642618,0.47686437,0.8690039,1.387118,0.5575115,0.29842892,-0.18568583,0.9980173,1.1525466,0.5743712,-0.08177316,0.9760089,1.0577668,0.1721878,-0.27649498,1.1596564,0.89362323,-0.23119234,-0.46229255,0.66403925,819.9634,795.78754,847.3626,790.54944,714.3956,-0.27740478515625,0.13336181640625,0.93499755859375,2.145843505859375,-1.06170654296875,1.7047119140625,1.0,2.0,1.0,1.0,2.0,100.0,event
12:36:45.030,1.0642618,0.47686437,0.8690039,1.387118,0.5575115,0.29842892,-0.18568583,0.9980173,1.1525466,0.5743712,-0.08177316,0.9760089,1.0577668,0.1721878,-0.27649498,1.1596564,0.89362323,-0.23119234,-0.46229255,0.66403925,812.71063,790.54944,853.00366,765.56775,648.315,-0.27740478515625,0.13336181640625,0.93499755859375,2.145843505859375,-1.06170654296875,1.7047119140625,1.0,2.0,1.0,1.0,2.0,100.0,event
12:36:45.031,1.0642618,0.47686437,0.8690039,1.387118,0.5575115,0.29842892,-0.18568583,0.9980173,1.1525466,0.5743712,-0.08177316,0.9760089,1.0577668,0.1721878,-0.27649498,1.1596564,0.89362323,-0.23119234,-0.46229255,0.66403925,838.0952,796.5934,853.8095,803.0403,747.4359,-0.27740478515625,0.13336181640625,0.93499755859375,2.145843505859375,-1.06170654296875,1.7047119140625,1.0,2.0,1.0,1.0,2.0,100.0,event
12:36:45.032,1.0642618,0.47686437,0.8690039,1.387118,0.5575115,0.29842892,-0.18568583,0.9980173,1.1525466,0.5743712,-0.08177316,0.9760089,1.0577668,0.1721878,-0.27649498,1.1596564,0.89362323,-0.23119234,-0.46229255,0.66403925,853.4066,793.36993,853.4066,792.5641,718.8278,-0.27740478515625,0.13336181640625,0.93499755859375,2.145843505859375,-1.06170654296875,1.7047119140625,1.0,2.0,1.0,1.0,2.0,100.0,event
12:36:45.032,1.0642618,0.47686437,0.8690039,1.387118,0.5575115,0.29842892,-0.18568583,0.9980173,1.1525466,0.5743712,-0.08177316,0.9760089,1.0577668,0.1721878,-0.27649498,1.1596564,0.89362323,-0.23119234,-0.46229255,0.66403925,846.9597,795.78754,843.73627,788.93774,822.7839,-0.27740478515625,0.13336181640625,0.93499755859375,2.145843505859375,-1.06170654296875,1.7047119140625,1.0,2.0,1.0,1.0,2.0,100.0,event
12:36:45.033,1.0642618,0.47686437,0.8690039,1.387118,0.5575115,0.29842892,-0.18568583,0.9980173,1.1525466,0.5743712,-0.08177316,0.9760089,1.0577668,0.1721878,-0.27649498,1.1596564,0.89362323,-0.23119234,-0.46229255,0.66403925,827.619,796.5934,836.08057,783.2967,1014.17584,-0.27740478515625,0.13336181640625,0.93499755859375,2.145843505859375,-1.06170654296875,1.7047119140625,1.0,2.0,1.0,1.0,2.0,100.0,event
12:36:45.033,1.0642618,0.47686437,0.8690039,1.387118,0.5575115,0.29842892,-0.18568583,0.9980173,1.1525466,0.5743712,-0.08177316,0.9760089,1.0577668,0.1721878,-0.27649498,1.1596564,0.89362323,-0.23119234,-0.46229255,0.66403925,824.7985,791.3553,830.84247,776.04395,867.1062,-0.27740478515625,0.13336181640625,0.93499755859375,2.145843505859375,-1.06170654296875,1.7047119140625,1.0,2.0,1.0,1.0,2.0,100.0,event
12:36:45.034,1.0642618,0.47686437,0.8690039,1.387118,0.5575115,0.29842892,-0.18568583,0.9980173,1.1525466,0.5743712,-0.08177316,0.9760089,1.0577668,0.1721878,-0.27649498,1.1596564,0.89362323,-0.23119234,-0.46229255,0.66403925,827.619,790.14655,828.8278,775.2381,657.5824,-0.27740478515625,0.13336181640625,0.93499755859375,2.145843505859375,-1.06170654296875,1.7047119140625,1.0,2.0,1.0,1.0,2.0,100.0,event
12:36:45.035,1.0642618,0.47686437,0.8690039,1.387118,0.5575115,0.29842892,-0.18568583,0.9980173,1.1525466,0.5743712,-0.08177316,0.9760089,1.0577668,0.1721878,-0.27649498,1.1596564,0.89362323,-0.23119234,-0.46229255,0.66403925,815.12823,792.1612,830.4396,768.7912,741.79486,-0.27740478515625,0.13336181640625,0.93499755859375,2.145843505859375,-1.06170654296875,1.7047119140625,1.0,2.0,1.0,1.0,2.0,100.0,event
12:36:45.036,1.0642618,0.47686437,0.8690039,1.387118,0.5575115,0.29842892,-0.18568583,0.9980173,1.1525466,0.5743712,-0.08177316,0.9760089,1.0577668,0.1721878,-0.27649498,1.1596564,0.89362323,-0.23119234,-0.46229255,0.66403925,797.3993,792.5641,836.08057,775.2381,1006.52014,-0.27740478515625,0.13336181640625,0.93499755859375,2.145843505859375,-1.06170654296875,1.7047119140625,1.0,2.0,1.0,1.0,2.0,100.0,event
12:36:45.037,1.0642618,0.47686437,0.8690039,1.387118,0.5575115,0.29842892,-0.18568583,0.9980173,1.1525466,0.5743712,-0.08177316,0.9760089,1.0577668,0.1721878,-0.27649498,1.1596564,0.89362323,-0.23119234,-0.46229255,0.66403925,803.44324,795.38464,834.0659,775.2381,910.2198,-0.27740478515625,0.13336181640625,0.93499755859375,2.145843505859375,-1.06170654296875,1.7047119140625,1.0,2.0,1.0,1.0,2.0,100.0,event
12:36:45.058,1.0642618,0.47686437,0.8690039,1.387118,0.5575115,0.29842892,-0.18568583,0.9980173,1.1525466,0.5743712,-0.08177316,0.9760089,1.0577668,0.1721878,-0.27649498,1.1596564,0.89362323,-0.23119234,-0.46229255,0.66403925,821.5751,792.1612,829.6337,757.1062,649.12085,-0.28338623046875,0.125244140625,0.937744140625,1.413116455078125,-2.31781005859375,2.459869384765625,1.0,2.0,1.0,1.0,2.0,100.0,event
12:36:45.059,1.0642618,0.47686437,0.8690039,1.387118,0.5575115,0.29842892,-0.18568583,0.9980173,1.1525466,0.5743712,-0.08177316,0.9760089,1.0577668,0.1721878,-0.27649498,1.1596564,0.89362323,-0.23119234,-0.46229255,0.66403925,828.022,792.5641,829.2308,764.35895,714.3956,-0.28338623046875,0.125244140625,0.937744140625,1.413116455078125,-2.31781005859375,2.459869384765625,1.0,2.0,1.0,1.0,2.0,100.0,event
12:36:45.060,1.0642618,0.47686437,0.8690039,1.387118,0.5575115,0.29842892,-0.18568583,0.9980173,1.1525466,0.5743712,-0.08177316,0.9760089,1.0577668,0.1721878,-0.27649498,1.1596564,0.89362323,-0.23119234,-0.46229255,0.66403925,836.08057,793.36993,829.6337,773.22345,811.50183,-0.28338623046875,0.125244140625,0.937744140625,1.413116455078125,-2.31781005859375,2.459869384765625,1.0,2.0,1.0,1.0,2.0,100.0,event
12:36:45.061,1.0642618,0.47686437,0.8690039,1.387118,0.5575115,0.29842892,-0.18568583,0.9980173,1.1525466,0.5743712,-0.08177316,0.9760089,1.0577668,0.1721878,-0.27649498,1.1596564,0.89362323,-0.23119234,-0.46229255,0.66403925,831.2454,795.78754,824.7985,789.7436,731.31866,-0.28338623046875,0.125244140625,0.937744140625,1.413116455078125,-2.31781005859375,2.459869384765625,1.0,2.0,1.0,1.0,2.0,100.0,event
12:36:45.061,1.0642618,0.47686437,0.8690039,1.387118,0.5575115,0.29842892,-0.18568583,0.9980173,1.1525466,0.5743712,-0.08177316,0.9760089,1.0577668,0.1721878,-0.27649498,1.1596564,0.89362323,-0.23119234,-0.46229255,0.66403925,827.619,790.14655,827.619,787.72894,768.7912,-0.28338623046875,0.125244140625,0.937744140625,1.413116455078125,-2.31781005859375,2.459869384765625,1.0,2.0,1.0,1.0,2.0,100.0,event
12:36:45.062,1.0642618,0.47686437,0.8690039,1.387118,0.5575115,0.29842892,-0.18568583,0.9980173,1.1525466,0.5743712,-0.08177316,0.9760089,1.0577668,0.1721878,-0.27649498,1.1596564,0.89362323,-0.23119234,-0.46229255,0.66403925,855.82416,801.02563,822.381,782.0879,858.24176,-0.28338623046875,0.125244140625,0.937744140625,1.413116455078125,-2.31781005859375,2.459869384765625,1.0,2.0,1.0,1.0,2.0,100.0,event
12:36:45.062,1.0642618,0.47686437,0.8690039,1.387118,0.5575115,0.29842892,-0.18568583,0.9980173,1.1525466,0.5743712,-0.08177316,0.9760089,1.0577668,0.1721878,-0.27649498,1.1596564,0.89362323,-0.23119234,-0.46229255,0.66403925,848.5714,801.8315,823.5897,782.8938,981.13556,-0.28338623046875,0.125244140625,0.937744140625,1.413116455078125,-2.31781005859375,2.459869384765625,1.0,2.0,1.0,1.0,2.0,100.0,event
12:36:45.062,1.0642618,0.47686437,0.8690039,1.387118,0.5575115,0.29842892,-0.18568583,0.9980173,1.1525466,0.5743712,-0.08177316,0.9760089,1.0577668,0.1721878,-0.27649498,1.1596564,0.89362323,-0.23119234,-0.46229255,0.66403925,841.7216,806.26373,827.2161,788.93774,871.9414,-0.28338623046875,0.125244140625,0.937744140625,1.413116455078125,-2.31781005859375,2.459869384765625,1.0,2.0,1.0,1.0,2.0,100.0,event
12:36:45.063,1.0642618,0.47686437,0.8690039,1.387118,0.5575115,0.29842892,-0.18568583,0.9980173,1.1525466,0.5743712,-0.08177316,0.9760089,1.0577668,0.1721878,-0.27649498,1.1596564,0.89362323,-0.23119234,-0.46229255,0.66403925,848.97437,801.8315,832.0513,788.1319,775.2381,-0.28338623046875,0.125244140625,0.937744140625,1.413116455078125,-2.31781005859375,2.459869384765625,1.0,2.0,1.0,1.0,2.0,100.0,event
12:36:45.064,1.0642618,0.47686437,0.8690039,1.387118,0.5575115,0.29842892,-0.18568583,0.9980173,1.1525466,0.5743712,-0.08177316,0.9760089,1.0577668,0.1721878,-0.27649498,1.1596564,0.89362323,-0.23119234,-0.46229255,0.66403925,841.7216,793.36993,830.84247,777.25275,809.4872,-0.28338623046875,0.125244140625,0.937744140625,1.413116455078125,-2.31781005859375,2.459869384765625,1.0,2.0,1.0,1.0,2.0,100.0,event
12:36:45.064,1.0642618,0.47686437,0.8690039,1.387118,0.5575115,0.29842892,-0.18568583,0.9980173,1.1525466,0.5743712,-0.08177316,0.9760089,1.0577668,0.1721878,-0.27649498,1.1596564,0.89362323,-0.23119234,-0.46229255,0.66403925,818.7546,799.011,827.619,791.75824,884.0293,-0.28338623046875,0.125244140625,0.937744140625,1.413116455078125,-2.31781005859375,2.459869384765625,1.0,2.0,1.0,1.0,2.0,100.0,event
12:36:45.065,1.0280479,0.46836233,0.8690039,1.387118,0.516164,0.18300688,-0.18568583,0.9980173,1.1525466,0.5743712,-0.08177316,0.9760089,1.059542,0.13483381,-0.27649498,1.1596564,0.8667306,-0.23905957,-0.46229255,0.66403925,804.2491,804.65204,830.84247,790.14655,763.95605,-0.28338623046875,0.125244140625,0.937744140625,1.413116455078125,-2.31781005859375,2.459869384765625,1.0,1.0,1.0,1.0,1.0,100.0,event
12:36:45.155,1.0280479,0.46836233,0.8690039,1.387118,0.516164,0.18300688,-0.18568583,0.9980173,1.1525466,0.5743712,-0.08177316,0.9760089,1.059542,0.13483381,-0.27649498,1.1596564,0.8667306,-0.23905957,-0.46229255,0.66403925,811.0989,800.2198,828.8278,788.5348,689.011,-0.27947998046875,0.1195068359375,0.95098876953125,1.21124267578125,-2.19818115234375,1.921539306640625,1.0,1.0,1.0,1.0,1.0,100.0,event
12:36:45.156,1.0280479,0.46836233,0.8690039,1.387118,0.516164,0.18300688,-0.18568583,0.9980173,1.1525466,0.5743712,-0.08177316,0.9760089,1.059542,0.13483381,-0.27649498,1.1596564,0.8667306,-0.23905957,-0.46229255,0.66403925,819.5604,796.99634,822.381,799.81683,771.2088,-0.27947998046875,0.1195068359375,0.95098876953125,1.21124267578125,-2.19818115234375,1.921539306640625,1.0,1.0,1.0,1.0,1.0,100.0,event
12:36:45.156,1.0280479,0.46836233,0.8690039,1.387118,0.516164,0.18300688,-0.18568583,0.9980173,1.1525466,0.5743712,-0.08177316,0.9760089,1.059542,0.13483381,-0.27649498,1.1596564,0.8667306,-0.23905957,-0.46229255,0.66403925,827.2161,798.60803,823.9927,806.6667,770.80585,-0.27947998046875,0.1195068359375,0.95098876953125,1.21124267578125,-2.19818115234375,1.921539306640625,1.0,1.0,1.0,1.0,1.0,100.0,event
12:36:45.157,1.0280479,0.46836233,0.8690039,1.387118,0.516164,0.18300688,-0.18568583,0.9980173,1.1525466,0.5743712,-0.08177316,0.9760089,1.059542,0.13483381,-0.27649498,1.1596564,0.8667306,-0.23905957,-0.46229255,0.66403925,849.3773,798.60803,830.0366,798.60803,705.9341,-0.27947998046875,0.1195068359375,0.95098876953125,1.21124267578125,-2.19818115234375,1.921539306640625,1.0,1.0,1.0,1.0,1.0,100.0,event
12:36:45.158,1.0280479,0.46836233,0.8690039,1.387118,0.516164,0.18300688,-0.18568583,0.9980173,1.1525466,0.5743712,-0.08177316,0.9760089,1.059542,0.13483381,-0.27649498,1.1596564,0.8667306,-0.23905957,-0.46229255,0.66403925,837.28937,796.5934,827.2161,799.81683,732.52747,-0.27947998046875,0.1195068359375,0.95098876953125,1.21124267578125,-2.19818115234375,1.921539306640625,1.0,1.0,1.0,1.0,1.0,100.0,event
12:36:45.159,1.0280479,0.46836233,0.8690039,1.387118,0.516164,0.18300688,-0.18568583,0.9980173,1.1525466,0.5743712,-0.08177316,0.9760089,1.059542,0.13483381,-0.27649498,1.1596564,0.8667306,-0.23905957,-0.46229255,0.66403925,821.5751,795.78754,823.1868,818.3516,855.42126,-0.27947998046875,0.1195068359375,0.95098876953125,1.21124267578125,-2.19818115234375,1.921539306640625,1.0,1.0,1.0,1.0,1.0,100.0,event
12:36:45.159,1.0280479,0.46836233,0.8690039,1.387118,0.516164,0.18300688,-0.18568583,0.9980173,1.1525466,0.5743712,-0.08177316,0.9760089,1.059542,0.13483381,-0.27649498,1.1596564,0.8667306,-0.23905957,-0.46229255,0.66403925,817.1429,798.20514,821.978,814.7253,837.6923,-0.27947998046875,0.1195068359375,0.95098876953125,1.21124267578125,-2.19818115234375,1.921539306640625,1.0,1.0,1.0,1.0,1.0,100.0,event
12:36:45.160,1.0280479,0.46836233,0.8690039,1.387118,0.516164,0.18300688,-0.18568583,0.9980173,1.1525466,0.5743712,-0.08177316,0.9760089,1.059542,0.13483381,-0.27649498,1.1596564,0.8667306,-0.23905957,-0.46229255,0.66403925,821.1722,794.9817,821.978,809.0842,740.18317,-0.27947998046875,0.1195068359375,0.95098876953125,1.21124267578125,-2.19818115234375,1.921539306640625,1.0,1.0,1.0,1.0,1.0,100.0,event
12:36:45.161,1.0280479,0.46836233,0.8690039,1.387118,0.516164,0.18300688,-0.18568583,0.9980173,1.1525466,0.5743712,-0.08177316,0.9760089,1.059542,0.13483381,-0.27649498,1.1596564,0.8667306,-0.23905957,-0.46229255,0.66403925,819.15753,795.78754,820.7692,789.34064,735.34796,-0.27947998046875,0.1195068359375,0.95098876953125,1.21124267578125,-2.19818115234375,1.921539306640625,1.0,1.0,1.0,1.0,1.0,100.0,event
12:36:45.161,1.0280479,0.46836233,0.8690039,1.387118,0.516164,0.18300688,-0.18568583,0.9980173,1.1525466,0.5743712,-0.08177316,0.9760089,1.059542,0.13483381,-0.27649498,1.1596564,0.8667306,-0.23905957,-0.46229255,0.66403925,827.2161,795.78754,818.3516,761.13556,940.4396,-0.27947998046875,0.1195068359375,0.95098876953125,1.21124267578125,-2.19818115234375,1.921539306640625,1.0,1.0,1.0,1.0,1.0,100.0,event
12:36:45.162,1.0280479,0.46836233,0.8690039,1.387118,0.516164,0.18300688,-0.18568583,0.9980173,1.1525466,0.5743712,-0.08177316,0.9760089,1.059542,0.13483381,-0.27649498,1.1596564,0.8667306,-0.23905957,-0.46229255,0.66403925,811.9048,798.60803,817.9487,778.86444,909.41394,-0.27947998046875,0.1195068359375,0.95098876953125,1.21124267578125,-2.19818115234375,1.921539306640625,1.0,1.0,1.0,1.0,1.0,100.0,event
12:36:45.163,1.0280479,0.46836233,0.8690039,1.387118,0.516164,0.18300688,-0.18568583,0.9980173,1.1525466,0.5743712,-0.08177316,0.9760089,1.059542,0.13483381,-0.27649498,1.1596564,0.8667306,-0.23905957,-0.46229255,0.66403925,809.0842,797.8022,818.3516,798.60803,894.10254,-0.27947998046875,0.1195068359375,0.95098876953125,1.21124267578125,-2.19818115234375,1.921539306640625,1.0,1.0,1.0,1.0,1.0,100.0,event
12:36:45.188,1.0280479,0.46836233,0.8690039,1.387118,0.516164,0.18300688,-0.18568583,0.9980173,1.1525466,0.5743712,-0.08177316,0.9760089,1.059542,0.13483381,-0.27649498,1.1596564,0.8667306,-0.23905957,-0.46229255,0.66403925,814.7253,795.38464,817.9487,788.5348,920.696,-0.30230712890625,0.12030029296875,0.940673828125,1.173858642578125,-1.9439697265625,0.1495361328125,1.0,1.0,1.0,1.0,1.0,100.0,event
12:36:45.190,1.0280479,0.46836233,0.8690039,1.387118,0.516164,0.18300688,-0.18568583,0.9980173,1.1525466,0.5743712,-0.08177316,0.9760089,1.059542,0.13483381,-0.27649498,1.1596564,0.8667306,-0.23905957,-0.46229255,0.66403925,808.68134,796.5934,814.7253,786.9231,936.8132,-0.30230712890625,0.12030029296875,0.940673828125,1.173858642578125,-1.9439697265625,0.1495361328125,1.0,1.0,1.0,1.0,1.0,100.0,event
12:36:45.190,1.0280479,0.46836233,0.8690039,1.387118,0.516164,0.18300688,-0.18568583,0.9980173,1.1525466,0.5743712,-0.08177316,0.9760089,1.059542,0.13483381,-0.27649498,1.1596564,0.8667306,-0.23905957,-0.46229255,0.66403925,800.2198,796.99634,814.7253,777.25275,785.7143,-0.30230712890625,0.12030029296875,0.940673828125,1.173858642578125,-1.9439697265625,0.1495361328125,1.0,1.0,1.0,1.0,1.0,100.0,event
12:36:45.191,1.0280479,0.46836233,0.8690039,1.387118,0.516164,0.18300688,-0.18568583,0.9980173,1.1525466,0.5743712,-0.08177316,0.9760089,1.059542,0.13483381,-0.27649498,1.1596564,0.8667306,-0.23905957,-0.46229255,0.66403925,793.36993,796.99634,818.7546,792.96704,712.381,-0.30230712890625,0.12030029296875,0.940673828125,1.173858642578125,-1.9439697265625,0.1495361328125,1.0,1.0,1.0,1.0,1.0,100.0,event
12:36:45.192,1.0280479,0.46836233,0.8690039,1.387118,0.516164,0.18300688,-0.18568583,0.9980173,1.1525466,0.5743712,-0.08177316,0.9760089,1.059542,0.13483381,-0.27649498,1.1596564,0.8667306,-0.23905957,-0.46229255,0.66403925,808.68134,796.5934,817.9487,802.6374,780.87915,-0.30230712890625,0.12030029296875,0.940673828125,1.173858642578125,-1.9439697265625,0.1495361328125,1.0,1.0,1.0,1.0,1.0,100.0,event
12:36:45.193,1.0280479,0.46836233,0.8690039,1.387118,0.516164,0.18300688,-0.18568583,0.9980173,1.1525466,0.5743712,-0.08177316,0.9760089,1.059542,0.13483381,-0.27649498,1.1596564,0.8667306,-0.23905957,-0.46229255,0.66403925,827.2161,796.1905,817.9487,799.011,853.8095,-0.30230712890625,0.12030029296875,0.940673828125,1.173858642578125,-1.9439697265625,0.1495361328125,1.0,1.0,1.0,1.0,1.0,100.0,event
12:36:45.193,1.0280479,0.46836233,0.8690039,1.387118,0.516164,0.18300688,-0.18568583,0.9980173,1.1525466,0.5743712,-0.08177316,0.9760089,1.059542,0.13483381,-0.27649498,1.1596564,0.8667306,-0.23905957,-0.46229255,0.66403925,831.2454,795.78754,823.9927,813.1135,869.12085,-0.30230712890625,0.12030029296875,0.940673828125,1.173858642578125,-1.9439697265625,0.1495361328125,1.0,1.0,1.0,1.0,1.0,100.0,event
