TimeStamp,Delta_TP9,Delta_AF7,Delta_AF8,Delta_TP10,Theta_TP9,Theta_AF7,Theta_AF8,Theta_TP10,Alpha_TP9,Alpha_AF7,Alpha_AF8,Alpha_TP10,Beta_TP9,Beta_AF7,Beta_AF8,Beta_TP10,Gamma_TP9,Gamma_AF7,Gamma_AF8,Gamma_TP10,RAW_TP9,RAW_AF7,RAW_AF8,RAW_TP10,AUX_RIGHT,Accelerometer_X,Accelerometer_Y,Accelerometer_Z,Gyro_X,Gyro_Y,Gyro_Z,HeadBandOn,HSI_TP9,HSI_AF7,HSI_AF8,HSI_TP10,Battery,Elements
14:32:13.114,0.0,0.0,0.0,0.0,0.0,0.0,0.0,0.0,0.0,0.0,0.0,0.0,0.0,0.0,0.0,0.0,0.0,0.0,0.0,0.0,1627.8389,853.00366,1417.5092,805.05493,794.17584,0.00775146484375,-0.0462646484375,0.98828125,2.878570556640625,-4.68048095703125,0.83740234375,0.0,4.0,4.0,4.0,4.0,100.0,event
14:32:13.115,0.0,0.0,0.0,0.0,0.0,0.0,0.0,0.0,0.0,0.0,0.0,0.0,0.0,0.0,0.0,0.0,0.0,0.0,0.0,0.0,1627.8389,1068.5714,28.608059,974.68866,717.619,0.00775146484375,-0.0462646484375,0.98828125,2.878570556640625,-4.68048095703125,0.83740234375,0.0,4.0,4.0,4.0,4.0,100.0,event
14:32:13.117,0.0,0.0,0.0,0.0,0.0,0.0,0.0,0.0,0.0,0.0,0.0,0.0,0.0,0.0,0.0,0.0,0.0,0.0,0.0,0.0,1627.8389,786.52014,1600.8425,930.7692,810.293,0.00775146484375,-0.0462646484375,0.98828125,2.878570556640625,-4.68048095703125,0.83740234375,0.0,4.0,4.0,4.0,4.0,100.0,event
14:32:13.119,0.0,0.0,0.0,0.0,0.0,0.0,0.0,0.0,0.0,0.0,0.0,0.0,0.0,0.0,0.0,0.0,0.0,0.0,0.0,0.0,1627.8389,484.32236,1321.6117,831.6484,856.2271,0.00775146484375,-0.0462646484375,0.98828125,2.878570556640625,-4.68048095703125,0.83740234375,0.0,4.0,4.0,4.0,4.0,100.0,event
14:32:13.120,0.0,0.0,0.0,0.0,0.0,0.0,0.0,0.0,0.0,0.0,0.0,0.0,0.0,0.0,0.0,0.0,0.0,0.0,0.0,0.0,1627.8389,647.50916,1353.0403,732.1245,712.7839,0.00775146484375,-0.0462646484375,0.98828125,2.878570556640625,-4.68048095703125,0.83740234375,0.0,4.0,4.0,4.0,4.0,100.0,event
14:32:13.120,0.0,0.0,0.0,0.0,0.0,0.0,0.0,0.0,0.0,0.0,0.0,0.0,0.0,0.0,0.0,0.0,0.0,0.0,0.0,0.0,1627.8389,743.4066,1459.414,805.05493,739.3773,0.00775146484375,-0.0462646484375,0.98828125,2.878570556640625,-4.68048095703125,0.83740234375,0.0,4.0,4.0,4.0,4.0,100.0,event
14:32:13.121,0.0,0.0,0.0,0.0,0.0,0.0,0.0,0.0,0.0,0.0,0.0,0.0,0.0,0.0,0.0,0.0,0.0,0.0,0.0,0.0,1627.8389,620.10986,1380.4396,794.57874,865.89746,0.00775146484375,-0.0462646484375,0.98828125,2.878570556640625,-4.68048095703125,0.83740234375,0.0,4.0,4.0,4.0,4.0,100.0,event
14:32:13.121,0.0,0.0,0.0,0.0,0.0,0.0,0.0,0.0,0.0,0.0,0.0,0.0,0.0,0.0,0.0,0.0,0.0,0.0,0.0,0.0,1627.8389,321.9414,1021.02563,860.65936,1078.6447,0.00775146484375,-0.0462646484375,0.98828125,2.878570556640625,-4.68048095703125,0.83740234375,0.0,4.0,4.0,4.0,4.0,100.0,event
14:32:13.122,0.0,0.0,0.0,0.0,0.0,0.0,0.0,0.0,0.0,0.0,0.0,0.0,0.0,0.0,0.0,0.0,0.0,0.0,0.0,0.0,1627.8389,558.46155,923.1135,878.7912,958.5714,0.00775146484375,-0.0462646484375,0.98828125,2.878570556640625,-4.68048095703125,0.83740234375,0.0,4.0,4.0,4.0,4.0,100.0,event
14:32:13.123,0.0,0.0,0.0,0.0,0.0,0.0,0.0,0.0,0.0,0.0,0.0,0.0,0.0,0.0,0.0,0.0,0.0,0.0,0.0,0.0,1627.8389,938.022,1340.9524,817.9487,667.6557,0.00775146484375,-0.0462646484375,0.98828125,2.878570556640625,-4.68048095703125,0.83740234375,0.0,4.0,4.0,4.0,4.0,100.0,event
14:32:13.123,0.0,0.0,0.0,0.0,0.0,0.0,0.0,0.0,0.0,0.0,0.0,0.0,0.0,0.0,0.0,0.0,0.0,0.0,0.0,0.0,1627.8389,753.8828,1466.6666,857.8388,704.3223,0.00775146484375,-0.0462646484375,0.98828125,2.878570556640625,-4.68048095703125,0.83740234375,0.0,4.0,4.0,4.0,4.0,100.0,event
14:32:13.124,0.0,0.0,0.0,0.0,0.0,0.0,0.0,0.0,0.0,0.0,0.0,0.0,0.0,0.0,0.0,0.0,0.0,0.0,0.0,0.0,1627.8389,662.8205,1441.6849,891.28204,765.56775,0.00775146484375,-0.0462646484375,0.98828125,2.878570556640625,-4.68048095703125,0.83740234375,0.0,4.0,4.0,4.0,4.0,100.0,event
14:32:13.152,0.0,0.0,0.0,0.0,0.0,0.0,0.0,0.0,0.0,0.0,0.0,0.0,0.0,0.0,0.0,0.0,0.0,0.0,0.0,0.0,1627.8389,709.15753,1500.1099,878.3883,743.4066,0.01019287109375,-0.04901123046875,0.99078369140625,2.489776611328125,-4.344024658203125,2.1234130859375,0.0,4.0,4.0,4.0,4.0,100.0,event
14:32:13.153,0.0,0.0,0.0,0.0,0.0,0.0,0.0,0.0,0.0,0.0,0.0,0.0,0.0,0.0,0.0,0.0,0.0,0.0,0.0,0.0,1627.8389,591.9048,1349.414,878.3883,755.89746,0.01019287109375,-0.04901123046875,0.99078369140625,2.489776611328125,-4.344024658203125,2.1234130859375,0.0,4.0,4.0,4.0,4.0,100.0,event
14:32:13.153,0.0,0.0,0.0,0.0,0.0,0.0,0.0,0.0,0.0,0.0,0.0,0.0,0.0,0.0,0.0,0.0,0.0,0.0,0.0,0.0,1627.8389,336.04395,964.21246,850.58606,769.19415,0.01019287109375,-0.04901123046875,0.99078369140625,2.489776611328125,-4.344024658203125,2.1234130859375,0.0,4.0,4.0,4.0,4.0,100.0,event
14:32:13.154,0.0,0.0,0.0,0.0,0.0,0.0,0.0,0.0,0.0,0.0,0.0,0.0,0.0,0.0,0.0,0.0,0.0,0.0,0.0,0.0,1628.6447,501.24542,985.56775,770.0,784.5055,0.01019287109375,-0.04901123046875,0.99078369140625,2.489776611328125,-4.344024658203125,2.1234130859375,0.0,4.0,4.0,4.0,4.0,100.0,event
14:32:13.155,0.0,0.0,0.0,0.0,0.0,0.0,0.0,0.0,0.0,0.0,0.0,0.0,0.0,0.0,0.0,0.0,0.0,0.0,0.0,0.0,1623.8096,803.8461,1391.3187,877.1795,730.10986,0.01019287109375,-0.04901123046875,0.99078369140625,2.489776611328125,-4.344024658203125,2.1234130859375,0.0,4.0,4.0,4.0,4.0,100.0,event
14:32:13.155,0.0,0.0,0.0,0.0,0.0,0.0,0.0,0.0,0.0,0.0,0.0,0.0,0.0,0.0,0.0,0.0,0.0,0.0,0.0,0.0,1633.0769,609.2308,1295.8242,949.707,714.3956,0.01019287109375,-0.04901123046875,0.99078369140625,2.489776611328125,-4.344024658203125,2.1234130859375,0.0,4.0,4.0,4.0,4.0,100.0,event
14:32:13.156,0.0,0.0,0.0,0.0,0.0,0.0,0.0,0.0,0.0,0.0,0.0,0.0,0.0,0.0,0.0,0.0,0.0,0.0,0.0,0.0,1623.0037,259.08426,803.0403,836.08057,841.31866,0.01019287109375,-0.04901123046875,0.99078369140625,2.489776611328125,-4.344024658203125,2.1234130859375,0.0,4.0,4.0,4.0,4.0,100.0,event
14:32:13.156,0.0,0.0,0.0,0.0,0.0,0.0,0.0,0.0,0.0,0.0,0.0,0.0,0.0,0.0,0.0,0.0,0.0,0.0,0.0,0.0,1536.7766,190.98901,446.4469,838.0952,1000.4762,0.01019287109375,-0.04901123046875,0.99078369140625,2.489776611328125,-4.344024658203125,2.1234130859375,0.0,4.0,4.0,4.0,4.0,100.0,event
14:32:13.157,0.0,0.0,0.0,0.0,0.0,0.0,0.0,0.0,0.0,0.0,0.0,0.0,0.0,0.0,0.0,0.0,0.0,0.0,0.0,0.0,1585.5311,857.4359,1068.9744,864.2857,779.67035,0.01019287109375,-0.04901123046875,0.99078369140625,2.489776611328125,-4.344024658203125,2.1234130859375,0.0,4.0,4.0,4.0,4.0,100.0,event
14:32:13.158,0.0,0.0,0.0,0.0,0.0,0.0,0.0,0.0,0.0,0.0,0.0,0.0,0.0,0.0,0.0,0.0,0.0,0.0,0.0,0.0,1635.8975,922.71063,1517.8389,857.03296,666.8498,0.01019287109375,-0.04901123046875,0.99078369140625,2.489776611328125,-4.344024658203125,2.1234130859375,0.0,4.0,4.0,4.0,4.0,100.0,event
14:32:13.159,0.0,0.0,0.0,0.0,0.0,0.0,0.0,0.0,0.0,0.0,0.0,0.0,0.0,0.0,0.0,0.0,0.0,0.0,0.0,0.0,1619.3773,499.6337,1265.2014,818.7546,780.87915,0.01019287109375,-0.04901123046875,0.99078369140625,2.489776611328125,-4.344024658203125,2.1234130859375,0.0,4.0,4.0,4.0,4.0,100.0,event
14:32:13.160,0.0,0.0,0.0,0.0,0.0,0.0,0.0,0.0,0.0,0.0,0.0,0.0,0.0,0.0,0.0,0.0,0.0,0.0,0.0,0.0,1637.1062,496.00732,1116.1172,849.3773,776.04395,0.01019287109375,-0.04901123046875,0.99078369140625,2.489776611328125,-4.344024658203125,2.1234130859375,0.0,4.0,4.0,4.0,4.0,100.0,event
14:32:13.192,0.0,0.0,0.0,0.0,0.0,0.0,0.0,0.0,0.0,0.0,0.0,0.0,0.0,0.0,0.0,0.0,0.0,0.0,0.0,0.0,1432.8206,602.7839,1183.4066,918.2784,706.337,0.01019287109375,-0.04901123046875,0.99078369140625,2.489776611328125,-4.344024658203125,2.1234130859375,0.0,4.0,4.0,4.0,4.0,100.0,event
14:32:13.193,0.0,0.0,0.0,0.0,0.0,0.0,0.0,0.0,0.0,0.0,0.0,0.0,0.0,0.0,0.0,0.0,0.0,0.0,0.0,0.0,1278.4982,601.978,1286.1538,854.21246,753.8828,0.01019287109375,-0.04901123046875,0.99078369140625,2.489776611328125,-4.344024658203125,2.1234130859375,0.0,4.0,4.0,4.0,4.0,100.0,event
14:32:13.194,0.0,0.0,0.0,0.0,0.0,0.0,0.0,0.0,0.0,0.0,0.0,0.0,0.0,0.0,0.0,0.0,0.0,0.0,0.0,0.0,1494.8718,463.36996,1201.1355,750.2564,818.7546,0.01019287109375,-0.04901123046875,0.99078369140625,2.489776611328125,-4.344024658203125,2.1234130859375,0.0,4.0,4.0,4.0,4.0,100.0,event
14:32:13.196,0.0,0.0,0.0,0.0,0.0,0.0,0.0,0.0,0.0,0.0,0.0,0.0,0.0,0.0,0.0,0.0,0.0,0.0,0.0,0.0,1646.7766,579.011,1290.586,791.3553,771.6117,0.01019287109375,-0.04901123046875,0.99078369140625,2.489776611328125,-4.344024658203125,2.1234130859375,0.0,4.0,4.0,4.0,4.0,100.0,event
14:32:13.197,0.0,0.0,0.0,0.0,0.0,0.0,0.0,0.0,0.0,0.0,0.0,0.0,0.0,0.0,0.0,0.0,0.0,0.0,0.0,0.0,1571.4286,561.28204,1205.5677,813.1135,721.2454,0.01019287109375,-0.04901123046875,0.99078369140625,2.489776611328125,-4.344024658203125,2.1234130859375,0.0,4.0,4.0,4.0,4.0,100.0,event
14:32:13.200,0.0,0.0,0.0,0.0,0.0,0.0,0.0,0.0,0.0,0.0,0.0,0.0,0.0,0.0,0.0,0.0,0.0,0.0,0.0,0.0,1245.8608,353.36996,873.1502,906.1905,777.6557,0.01019287109375,-0.04901123046875,0.99078369140625,2.489776611328125,-4.344024658203125,2.1234130859375,0.0,4.0,4.0,4.0,4.0,100.0,event
14:32:13.201,0.0,0.0,0.0,0.0,0.0,0.0,0.0,0.0,0.0,0.0,0.0,0.0,0.0,0.0,0.0,0.0,0.0,0.0,0.0,0.0,1054.0659,168.42491,559.2674,859.85345,1059.3041,0.01019287109375,-0.04901123046875,0.99078369140625,2.489776611328125,-4.344024658203125,2.1234130859375,0.0,4.0,4.0,4.0,4.0,100.0,event
14:32:13.202,0.0,0.0,0.0,0.0,0.0,0.0,0.0,0.0,0.0,0.0,0.0,0.0,0.0,0.0,0.0,0.0,0.0,0.0,0.0,0.0,1264.7986,511.3187,635.82416,726.8865,1004.10254,0.01019287109375,-0.04901123046875,0.99078369140625,2.489776611328125,-4.344024658203125,2.1234130859375,0.0,4.0,4.0,4.0,4.0,100.0,event
14:32:13.203,0.0,0.0,0.0,0.0,0.0,0.0,0.0,0.0,0.0,0.0,0.0,0.0,0.0,0.0,0.0,0.0,0.0,0.0,0.0,0.0,1548.0586,1035.9341,1231.3553,837.28937,717.2161,0.01019287109375,-0.04901123046875,0.99078369140625,2.489776611328125,-4.344024658203125,2.1234130859375,0.0,4.0,4.0,4.0,4.0,100.0,event
14:32:13.205,0.0,0.0,0.0,0.0,0.0,0.0,0.0,0.0,0.0,0.0,0.0,0.0,0.0,0.0,0.0,0.0,0.0,0.0,0.0,0.0,1483.5897,666.4469,1131.0256,923.1135,747.8388,0.01019287109375,-0.04901123046875,0.99078369140625,2.489776611328125,-4.344024658203125,2.1234130859375,0.0,4.0,4.0,4.0,4.0,100.0,event
14:32:13.206,0.0,0.0,0.0,0.0,0.0,0.0,0.0,0.0,0.0,0.0,0.0,0.0,0.0,0.0,0.0,0.0,0.0,0.0,0.0,0.0,1145.5311,320.32968,647.1062,939.2308,869.12085,0.01019287109375,-0.04901123046875,0.99078369140625,2.489776611328125,-4.344024658203125,2.1234130859375,0.0,4.0,4.0,4.0,4.0,100.0,event
14:32:13.207,0.0,0.0,0.0,0.0,0.0,0.0,0.0,0.0,0.0,0.0,0.0,0.0,0.0,0.0,0.0,0.0,0.0,0.0,0.0,0.0,995.2381,732.1245,980.7326,919.89014,764.7619,0.01019287109375,-0.04901123046875,0.99078369140625,2.489776611328125,-4.344024658203125,2.1234130859375,0.0,4.0,4.0,4.0,4.0,100.0,event
14:32:13.243,0.0,0.0,0.0,0.0,0.0,0.0,0.0,0.0,0.0,0.0,0.0,0.0,0.0,0.0,0.0,0.0,0.0,0.0,0.0,0.0,1112.0879,820.7692,1311.5385,756.30035,654.7619,0.00592041015625,-0.04290771484375,0.99041748046875,2.51220703125,-3.252410888671875,1.12152099609375,0.0,4.0,4.0,4.0,4.0,100.0,event
14:32:13.244,0.0,0.0,0.0,0.0,0.0,0.0,0.0,0.0,0.0,0.0,0.0,0.0,0.0,0.0,0.0,0.0,0.0,0.0,0.0,0.0,1422.7472,616.08057,1238.2051,797.8022,750.2564,0.00592041015625,-0.04290771484375,0.99041748046875,2.51220703125,-3.252410888671875,1.12152099609375,0.0,4.0,4.0,4.0,4.0,100.0,event
14:32:13.244,0.0,0.0,0.0,0.0,0.0,0.0,0.0,0.0,0.0,0.0,0.0,0.0,0.0,0.0,0.0,0.0,0.0,0.0,0.0,0.0,1514.6154,559.2674,1052.4542,925.12823,874.7619,0.00592041015625,-0.04290771484375,0.99041748046875,2.51220703125,-3.252410888671875,1.12152099609375,0.0,4.0,4.0,4.0,4.0,100.0,event
14:32:13.245,0.0,0.0,0.0,0.0,0.0,0.0,0.0,0.0,0.0,0.0,0.0,0.0,0.0,0.0,0.0,0.0,0.0,0.0,0.0,0.0,1239.414,606.4103,1016.99634,883.22345,831.2454,0.00592041015625,-0.04290771484375,0.99041748046875,2.51220703125,-3.252410888671875,1.12152099609375,0.0,4.0,4.0,4.0,4.0,100.0,event
14:32:13.246,0.0,0.0,0.0,0.0,0.0,0.0,0.0,0.0,0.0,0.0,0.0,0.0,0.0,0.0,0.0,0.0,0.0,0.0,0.0,0.0,1017.8022,641.06226,1134.249,875.56775,733.3333,0.00592041015625,-0.04290771484375,0.99041748046875,2.51220703125,-3.252410888671875,1.12152099609375,0.0,4.0,4.0,4.0,4.0,100.0,event
14:32:13.247,0.0,0.0,0.0,0.0,0.0,0.0,0.0,0.0,0.0,0.0,0.0,0.0,0.0,0.0,0.0,0.0,0.0,0.0,0.0,0.0,1093.956,415.42123,923.91943,882.8205,840.9158,0.00592041015625,-0.04290771484375,0.99041748046875,2.51220703125,-3.252410888671875,1.12152099609375,0.0,4.0,4.0,4.0,4.0,100.0,event
14:32:13.248,0.0,0.0,0.0,0.0,0.0,0.0,0.0,0.0,0.0,0.0,0.0,0.0,0.0,0.0,0.0,0.0,0.0,0.0,0.0,0.0,1440.0732,400.91574,664.83514,877.5824,968.6447,0.00592041015625,-0.04290771484375,0.99041748046875,2.51220703125,-3.252410888671875,1.12152099609375,0.0,4.0,4.0,4.0,4.0,100.0,event
14:32:13.248,0.0,0.0,0.0,0.0,0.0,0.0,0.0,0.0,0.0,0.0,0.0,0.0,0.0,0.0,0.0,0.0,0.0,0.0,0.0,0.0,1574.249,748.6447,887.6557,896.1172,791.3553,0.00592041015625,-0.04290771484375,0.99041748046875,2.51220703125,-3.252410888671875,1.12152099609375,0.0,4.0,4.0,4.0,4.0,100.0,event
14:32:13.249,0.0,0.0,0.0,0.0,0.0,0.0,0.0,0.0,0.0,0.0,0.0,0.0,0.0,0.0,0.0,0.0,0.0,0.0,0.0,0.0,1210.0,646.30035,872.3443,863.0769,754.68866,0.00592041015625,-0.04290771484375,0.99041748046875,2.51220703125,-3.252410888671875,1.12152099609375,0.0,4.0,4.0,4.0,4.0,100.0,event
14:32:13.249,0.0,0.0,0.0,0.0,0.0,0.0,0.0,0.0,0.0,0.0,0.0,0.0,0.0,0.0,0.0,0.0,0.0,0.0,0.0,0.0,905.38464,414.6154,601.1722,779.2674,833.2601,0.00592041015625,-0.04290771484375,0.99041748046875,2.51220703125,-3.252410888671875,1.12152099609375,0.0,4.0,4.0,4.0,4.0,100.0,event
14:32:13.250,0.0,0.0,0.0,0.0,0.0,0.0,0.0,0.0,0.0,0.0,0.0,0.0,0.0,0.0,0.0,0.0,0.0,0.0,0.0,0.0,1050.8425,555.64105,603.1868,829.2308,896.1172,0.00592041015625,-0.04290771484375,0.99041748046875,2.51220703125,-3.252410888671875,1.12152099609375,0.0,4.0,4.0,4.0,4.0,100.0,event
14:32:13.251,0.0,0.0,0.0,0.0,0.0,0.0,0.0,0.0,0.0,0.0,0.0,0.0,0.0,0.0,0.0,0.0,0.0,0.0,0.0,0.0,1408.2417,969.45056,1083.0769,896.9231,841.31866,0.00592041015625,-0.04290771484375,0.99041748046875,2.51220703125,-3.252410888671875,1.12152099609375,0.0,4.0,4.0,4.0,4.0,100.0,event
14:32:13.296,0.0,0.0,0.0,0.0,0.0,0.0,0.0,0.0,0.0,0.0,0.0,0.0,0.0,0.0,0.0,0.0,0.0,0.0,0.0,0.0,1506.1538,818.3516,1199.9268,858.24176,801.4286,0.00634765625,-0.03753662109375,0.98455810546875,0.216827392578125,-1.973876953125,1.861724853515625,0.0,4.0,4.0,4.0,4.0,100.0,event
14:32:13.298,0.0,0.0,0.0,0.0,0.0,0.0,0.0,0.0,0.0,0.0,0.0,0.0,0.0,0.0,0.0,0.0,0.0,0.0,0.0,0.0,1254.7252,433.5531,795.38464,816.337,882.4176,0.00634765625,-0.03753662109375,0.98455810546875,0.216827392578125,-1.973876953125,1.861724853515625,0.0,4.0,4.0,4.0,4.0,100.0,event
14:32:13.303,0.0,0.0,0.0,0.0,0.0,0.0,0.0,0.0,0.0,0.0,0.0,0.0,0.0,0.0,0.0,0.0,0.0,0.0,0.0,0.0,1117.326,633.00366,858.6447,836.8865,828.8278,0.00634765625,-0.03753662109375,0.98455810546875,0.216827392578125,-1.973876953125,1.861724853515625,0.0,4.0,4.0,4.0,4.0,100.0,event
14:32:13.304,0.0,0.0,0.0,0.0,0.0,0.0,0.0,0.0,0.0,0.0,0.0,0.0,0.0,0.0,0.0,0.0,0.0,0.0,0.0,0.0,1244.652,832.4542,1174.1392,859.45056,678.1319,0.00634765625,-0.03753662109375,0.98455810546875,0.216827392578125,-1.973876953125,1.861724853515625,0.0,4.0,4.0,4.0,4.0,100.0,event
14:32:13.306,0.0,0.0,0.0,0.0,0.0,0.0,0.0,0.0,0.0,0.0,0.0,0.0,0.0,0.0,0.0,0.0,0.0,0.0,0.0,0.0,1538.7913,698.2784,1199.1208,850.58606,676.9231,0.00634765625,-0.03753662109375,0.98455810546875,0.216827392578125,-1.973876953125,1.861724853515625,0.0,4.0,4.0,4.0,4.0,100.0,event
14:32:13.307,0.0,0.0,0.0,0.0,0.0,0.0,0.0,0.0,0.0,0.0,0.0,0.0,0.0,0.0,0.0,0.0,0.0,0.0,0.0,0.0,1643.956,386.41025,807.47253,859.0476,850.989,0.00634765625,-0.03753662109375,0.98455810546875,0.216827392578125,-1.973876953125,1.861724853515625,0.0,4.0,4.0,4.0,4.0,100.0,event
14:32:13.308,0.0,0.0,0.0,0.0,0.0,0.0,0.0,0.0,0.0,0.0,0.0,0.0,0.0,0.0,0.0,0.0,0.0,0.0,0.0,0.0,1617.7656,457.72894,564.10254,852.6007,834.87177,0.00634765625,-0.03753662109375,0.98455810546875,0.216827392578125,-1.973876953125,1.861724853515625,0.0,4.0,4.0,4.0,4.0,100.0,event
14:32:13.309,0.0,0.0,0.0,0.0,0.0,0.0,0.0,0.0,0.0,0.0,0.0,0.0,0.0,0.0,0.0,0.0,0.0,0.0,0.0,0.0,1621.392,830.84247,855.0183,853.00366,686.1905,0.00634765625,-0.03753662109375,0.98455810546875,0.216827392578125,-1.973876953125,1.861724853515625,0.0,4.0,4.0,4.0,4.0,100.0,event
14:32:13.309,0.0,0.0,0.0,0.0,0.0,0.0,0.0,0.0,0.0,0.0,0.0,0.0,0.0,0.0,0.0,0.0,0.0,0.0,0.0,0.0,1618.9744,784.5055,1053.663,847.3626,704.7253,0.00634765625,-0.03753662109375,0.98455810546875,0.216827392578125,-1.973876953125,1.861724853515625,0.0,4.0,4.0,4.0,4.0,100.0,event
14:32:13.310,0.0,0.0,0.0,0.0,0.0,0.0,0.0,0.0,0.0,0.0,0.0,0.0,0.0,0.0,0.0,0.0,0.0,0.0,0.0,0.0,1629.8535,353.36996,679.7436,850.58606,926.7399,0.00634765625,-0.03753662109375,0.98455810546875,0.216827392578125,-1.973876953125,1.861724853515625,0.0,4.0,4.0,4.0,4.0,100.0,event
14:32:13.311,0.0,0.0,0.0,0.0,0.0,0.0,0.0,0.0,0.0,0.0,0.0,0.0,0.0,0.0,0.0,0.0,0.0,0.0,0.0,0.0,1627.4359,695.05493,815.12823,853.00366,911.8315,0.00634765625,-0.03753662109375,0.98455810546875,0.216827392578125,-1.973876953125,1.861724853515625,0.0,4.0,4.0,4.0,4.0,100.0,event
14:32:13.311,0.0,0.0,0.0,0.0,0.0,0.0,0.0,0.0,0.0,0.0,0.0,0.0,0.0,0.0,0.0,0.0,0.0,0.0,0.0,0.0,1627.8389,799.41394,939.2308,837.28937,829.6337,0.00634765625,-0.03753662109375,0.98455810546875,0.216827392578125,-1.973876953125,1.861724853515625,0.0,4.0,4.0,4.0,4.0,100.0,event
14:32:13.343,0.0,0.0,0.0,0.0,0.0,0.0,0.0,0.0,0.0,0.0,0.0,0.0,0.0,0.0,0.0,0.0,0.0,0.0,0.0,0.0,1627.8389,526.2271,651.9414,834.87177,867.9121,0.0125732421875,-0.03729248046875,0.99029541015625,0.6280517578125,1.054229736328125,1.495361328125,0.0,4.0,4.0,4.0,4.0,100.0,event
14:32:13.344,0.0,0.0,0.0,0.0,0.0,0.0,0.0,0.0,0.0,0.0,0.0,0.0,0.0,0.0,0.0,0.0,0.0,0.0,0.0,0.0,1627.8389,643.0769,703.91943,826.4103,858.6447,0.0125732421875,-0.03729248046875,0.99029541015625,0.6280517578125,1.054229736328125,1.495361328125,0.0,4.0,4.0,4.0,4.0,100.0,event
14:32:13.345,0.0,0.0,0.0,0.0,0.0,0.0,0.0,0.0,0.0,0.0,0.0,0.0,0.0,0.0,0.0,0.0,0.0,0.0,0.0,0.0,1627.8389,922.71063,1104.8352,840.9158,755.09155,0.0125732421875,-0.03729248046875,0.99029541015625,0.6280517578125,1.054229736328125,1.495361328125,0.0,4.0,4.0,4.0,4.0,100.0,event
14:32:13.345,0.0,0.0,0.0,0.0,0.0,0.0,0.0,0.0,0.0,0.0,0.0,0.0,0.0,0.0,0.0,0.0,0.0,0.0,0.0,0.0,1627.8389,838.9011,1215.238,858.24176,719.2308,0.0125732421875,-0.03729248046875,0.99029541015625,0.6280517578125,1.054229736328125,1.495361328125,0.0,4.0,4.0,4.0,4.0,100.0,event
14:32:13.346,0.0,0.0,0.0,0.0,0.0,0.0,0.0,0.0,0.0,0.0,0.0,0.0,0.0,0.0,0.0,0.0,0.0,0.0,0.0,0.0,1627.8389,553.22345,911.4286,848.5714,779.2674,0.0125732421875,-0.03729248046875,0.99029541015625,0.6280517578125,1.054229736328125,1.495361328125,0.0,4.0,4.0,4.0,4.0,100.0,event
14:32:13.347,0.0,0.0,0.0,0.0,0.0,0.0,0.0,0.0,0.0,0.0,0.0,0.0,0.0,0.0,0.0,0.0,0.0,0.0,0.0,0.0,1627.8389,460.1465,606.8132,845.34796,840.10986,0.0125732421875,-0.03729248046875,0.99029541015625,0.6280517578125,1.054229736328125,1.495361328125,0.0,4.0,4.0,4.0,4.0,100.0,event
14:32:13.347,0.0,0.0,0.0,0.0,0.0,0.0,0.0,0.0,0.0,0.0,0.0,0.0,0.0,0.0,0.0,0.0,0.0,0.0,0.0,0.0,1627.8389,649.5238,689.011,851.79486,852.1978,0.0125732421875,-0.03729248046875,0.99029541015625,0.6280517578125,1.054229736328125,1.495361328125,0.0,4.0,4.0,4.0,4.0,100.0,event
14:32:13.348,0.0,0.0,0.0,0.0,0.0,0.0,0.0,0.0,0.0,0.0,0.0,0.0,0.0,0.0,0.0,0.0,0.0,0.0,0.0,0.0,1627.8389,936.8132,1099.1941,842.52747,752.674,0.0125732421875,-0.03729248046875,0.99029541015625,0.6280517578125,1.054229736328125,1.495361328125,0.0,4.0,4.0,4.0,4.0,100.0,event
14:32:13.349,0.0,0.0,0.0,0.0,0.0,0.0,0.0,0.0,0.0,0.0,0.0,0.0,0.0,0.0,0.0,0.0,0.0,0.0,0.0,0.0,1623.8096,587.0696,932.381,844.94507,805.4579,0.0125732421875,-0.03729248046875,0.99029541015625,0.6280517578125,1.054229736328125,1.495361328125,0.0,4.0,4.0,4.0,4.0,100.0,event
14:32:13.350,0.0,0.0,0.0,0.0,0.0,0.0,0.0,0.0,0.0,0.0,0.0,0.0,0.0,0.0,0.0,0.0,0.0,0.0,0.0,0.0,1637.9121,294.5421,350.1465,852.1978,1046.4103,0.0125732421875,-0.03729248046875,0.99029541015625,0.6280517578125,1.054229736328125,1.495361328125,0.0,4.0,4.0,4.0,4.0,100.0,event
14:32:13.350,0.0,0.0,0.0,0.0,0.0,0.0,0.0,0.0,0.0,0.0,0.0,0.0,0.0,0.0,0.0,0.0,0.0,0.0,0.0,0.0,1582.3077,912.23444,751.8681,843.73627,851.39197,0.0125732421875,-0.03729248046875,0.99029541015625,0.6280517578125,1.054229736328125,1.495361328125,0.0,4.0,4.0,4.0,4.0,100.0,event
14:32:13.351,0.0,0.0,0.0,0.0,0.0,0.0,0.0,0.0,0.0,0.0,0.0,0.0,0.0,0.0,0.0,0.0,0.0,0.0,0.0,0.0,1549.2675,936.8132,1043.9927,834.87177,646.30035,0.0125732421875,-0.03729248046875,0.99029541015625,0.6280517578125,1.054229736328125,1.495361328125,0.0,4.0,4.0,4.0,4.0,100.0,event
14:32:13.398,0.0,0.0,0.0,0.0,0.0,0.0,0.0,0.0,0.0,0.0,0.0,0.0,0.0,0.0,0.0,0.0,0.0,0.0,0.0,0.0,1625.8242,691.8315,942.4542,837.6923,780.07324,0.0125732421875,-0.03729248046875,0.99029541015625,0.6280517578125,1.054229736328125,1.495361328125,0.0,4.0,4.0,4.0,4.0,100.0,event
14:32:13.400,0.0,0.0,0.0,0.0,0.0,0.0,0.0,0.0,0.0,0.0,0.0,0.0,0.0,0.0,0.0,0.0,0.0,0.0,0.0,0.0,1631.0623,801.02563,1077.033,850.989,799.81683,0.0125732421875,-0.03729248046875,0.99029541015625,0.6280517578125,1.054229736328125,1.495361328125,0.0,4.0,4.0,4.0,4.0,100.0,event
14:32:13.402,0.0,0.0,0.0,0.0,0.0,0.0,0.0,0.0,0.0,0.0,0.0,0.0,0.0,0.0,0.0,0.0,0.0,0.0,0.0,0.0,1624.6154,707.5458,939.2308,850.989,758.315,0.0125732421875,-0.03729248046875,0.99029541015625,0.6280517578125,1.054229736328125,1.495361328125,0.0,4.0,4.0,4.0,4.0,100.0,event
14:32:13.403,0.0,0.0,0.0,0.0,0.0,0.0,0.0,0.0,0.0,0.0,0.0,0.0,0.0,0.0,0.0,0.0,0.0,0.0,0.0,0.0,1628.6447,651.9414,747.4359,849.3773,772.01465,0.0125732421875,-0.03729248046875,0.99029541015625,0.6280517578125,1.054229736328125,1.495361328125,0.0,4.0,4.0,4.0,4.0,100.0,event
14:32:13.407,0.0,0.0,0.0,0.0,0.0,0.0,0.0,0.0,0.0,0.0,0.0,0.0,0.0,0.0,0.0,0.0,0.0,0.0,0.0,0.0,1630.2565,530.65936,589.4872,858.6447,838.49817,0.0125732421875,-0.03729248046875,0.99029541015625,0.6280517578125,1.054229736328125,1.495361328125,0.0,4.0,4.0,4.0,4.0,100.0,event
14:32:13.408,0.0,0.0,0.0,0.0,0.0,0.0,0.0,0.0,0.0,0.0,0.0,0.0,0.0,0.0,0.0,0.0,0.0,0.0,0.0,0.0,1621.7949,684.9817,666.04395,852.6007,906.5934,0.0125732421875,-0.03729248046875,0.99029541015625,0.6280517578125,1.054229736328125,1.495361328125,0.0,4.0,4.0,4.0,4.0,100.0,event
14:32:13.409,0.0,0.0,0.0,0.0,0.0,0.0,0.0,0.0,0.0,0.0,0.0,0.0,0.0,0.0,0.0,0.0,0.0,0.0,0.0,0.0,1620.586,927.1429,906.99634,862.27106,915.8608,0.0125732421875,-0.03729248046875,0.99029541015625,0.6280517578125,1.054229736328125,1.495361328125,0.0,4.0,4.0,4.0,4.0,100.0,event
14:32:13.409,0.0,0.0,0.0,0.0,0.0,0.0,0.0,0.0,0.0,0.0,0.0,0.0,0.0,0.0,0.0,0.0,0.0,0.0,0.0,0.0,1630.6593,804.65204,862.674,861.06226,791.3553,0.0125732421875,-0.03729248046875,0.99029541015625,0.6280517578125,1.054229736328125,1.495361328125,0.0,4.0,4.0,4.0,4.0,100.0,event
14:32:13.410,0.0,0.0,0.0,0.0,0.0,0.0,0.0,0.0,0.0,0.0,0.0,0.0,0.0,0.0,0.0,0.0,0.0,0.0,0.0,0.0,1346.9963,358.20514,322.74725,837.28937,923.91943,0.0125732421875,-0.03729248046875,0.99029541015625,0.6280517578125,1.054229736328125,1.495361328125,0.0,4.0,4.0,4.0,4.0,100.0,event
14:32:13.410,0.0,0.0,0.0,0.0,0.0,0.0,0.0,0.0,0.0,0.0,0.0,0.0,0.0,0.0,0.0,0.0,0.0,0.0,0.0,0.0,921.50183,770.0,427.50916,836.8865,902.1612,0.0125732421875,-0.03729248046875,0.99029541015625,0.6280517578125,1.054229736328125,1.495361328125,0.0,4.0,4.0,4.0,4.0,100.0,event
14:32:13.411,0.0,0.0,0.0,0.0,0.0,0.0,0.0,0.0,0.0,0.0,0.0,0.0,0.0,0.0,0.0,0.0,0.0,0.0,0.0,0.0,1072.1978,1239.011,1099.1941,846.55676,689.81683,0.0125732421875,-0.03729248046875,0.99029541015625,0.6280517578125,1.054229736328125,1.495361328125,0.0,4.0,4.0,4.0,4.0,100.0,event
14:32:13.412,0.0,0.0,0.0,0.0,0.0,0.0,0.0,0.0,0.0,0.0,0.0,0.0,0.0,0.0,0.0,0.0,0.0,0.0,0.0,0.0,1417.5092,915.4579,1116.5201,855.42126,746.63007,0.0125732421875,-0.03729248046875,0.99029541015625,0.6280517578125,1.054229736328125,1.495361328125,0.0,4.0,4.0,4.0,4.0,100.0,event
14:32:13.452,0.0,0.0,0.0,0.0,0.0,0.0,0.0,0.0,0.0,0.0,0.0,0.0,0.0,0.0,0.0,0.0,0.0,0.0,0.0,0.0,1492.4542,750.65936,875.16486,862.27106,783.2967,-0.004150390625,-0.04632568359375,0.97698974609375,-0.95703125,3.21502685546875,1.12152099609375,0.0,4.0,4.0,4.0,4.0,100.0,event
14:32:13.454,0.0,0.0,0.0,0.0,0.0,0.0,0.0,0.0,0.0,0.0,0.0,0.0,0.0,0.0,0.0,0.0,0.0,0.0,0.0,0.0,1266.8132,814.3223,855.82416,847.3626,724.87177,-0.004150390625,-0.04632568359375,0.97698974609375,-0.95703125,3.21502685546875,1.12152099609375,0.0,4.0,4.0,4.0,4.0,100.0,event
14:32:13.455,0.0,0.0,0.0,0.0,0.0,0.0,0.0,0.0,0.0,0.0,0.0,0.0,0.0,0.0,0.0,0.0,0.0,0.0,0.0,0.0,981.53845,836.8865,954.94507,838.9011,728.9011,-0.004150390625,-0.04632568359375,0.97698974609375,-0.95703125,3.21502685546875,1.12152099609375,0.0,4.0,4.0,4.0,4.0,100.0,event
14:32:13.456,0.0,0.0,0.0,0.0,0.0,0.0,0.0,0.0,0.0,0.0,0.0,0.0,0.0,0.0,0.0,0.0,0.0,0.0,0.0,0.0,1163.663,795.38464,991.2088,862.674,788.5348,-0.004150390625,-0.04632568359375,0.97698974609375,-0.95703125,3.21502685546875,1.12152099609375,0.0,4.0,4.0,4.0,4.0,100.0,event
14:32:13.457,0.0,0.0,0.0,0.0,0.0,0.0,0.0,0.0,0.0,0.0,0.0,0.0,0.0,0.0,0.0,0.0,0.0,0.0,0.0,0.0,1550.0732,828.8278,1002.8938,876.3736,842.9304,-0.004150390625,-0.04632568359375,0.97698974609375,-0.95703125,3.21502685546875,1.12152099609375,0.0,4.0,4.0,4.0,4.0,100.0,event
14:32:13.458,0.0,0.0,0.0,0.0,0.0,0.0,0.0,0.0,0.0,0.0,0.0,0.0,0.0,0.0,0.0,0.0,0.0,0.0,0.0,0.0,1645.5677,765.9707,871.13556,852.1978,880.40295,-0.004150390625,-0.04632568359375,0.97698974609375,-0.95703125,3.21502685546875,1.12152099609375,0.0,4.0,4.0,4.0,4.0,100.0,event
14:32:13.460,0.0,0.0,0.0,0.0,0.0,0.0,0.0,0.0,0.0,0.0,0.0,0.0,0.0,0.0,0.0,0.0,0.0,0.0,0.0,0.0,1465.4579,689.81683,622.1245,838.0952,846.55676,-0.004150390625,-0.04632568359375,0.97698974609375,-0.95703125,3.21502685546875,1.12152099609375,0.0,4.0,4.0,4.0,4.0,100.0,event
14:32:13.461,0.0,0.0,0.0,0.0,0.0,0.0,0.0,0.0,0.0,0.0,0.0,0.0,0.0,0.0,0.0,0.0,0.0,0.0,0.0,0.0,1246.2638,694.65204,466.1905,841.31866,877.98535,-0.004150390625,-0.04632568359375,0.97698974609375,-0.95703125,3.21502685546875,1.12152099609375,0.0,4.0,4.0,4.0,4.0,100.0,event
14:32:13.462,0.0,0.0,0.0,0.0,0.0,0.0,0.0,0.0,0.0,0.0,0.0,0.0,0.0,0.0,0.0,0.0,0.0,0.0,0.0,0.0,1180.1831,929.9634,625.34796,835.6777,872.3443,-0.004150390625,-0.04632568359375,0.97698974609375,-0.95703125,3.21502685546875,1.12152099609375,0.0,4.0,4.0,4.0,4.0,100.0,event
14:32:13.463,0.0,0.0,0.0,0.0,0.0,0.0,0.0,0.0,0.0,0.0,0.0,0.0,0.0,0.0,0.0,0.0,0.0,0.0,0.0,0.0,1384.8718,1195.8975,1043.5897,840.9158,738.1685,-0.004150390625,-0.04632568359375,0.97698974609375,-0.95703125,3.21502685546875,1.12152099609375,0.0,4.0,4.0,4.0,4.0,100.0,event
14:32:13.464,0.0,0.0,0.0,0.0,0.0,0.0,0.0,0.0,0.0,0.0,0.0,0.0,0.0,0.0,0.0,0.0,0.0,0.0,0.0,0.0,1605.2748,1045.6044,1109.2675,858.24176,761.53845,-0.004150390625,-0.04632568359375,0.97698974609375,-0.95703125,3.21502685546875,1.12152099609375,0.0,4.0,4.0,4.0,4.0,100.0,event
14:32:13.466,0.0,0.0,0.0,0.0,0.0,0.0,0.0,0.0,0.0,0.0,0.0,0.0,0.0,0.0,0.0,0.0,0.0,0.0,0.0,0.0,1276.0806,617.28937,649.5238,840.9158,835.6777,-0.004150390625,-0.04632568359375,0.97698974609375,-0.95703125,3.21502685546875,1.12152099609375,0.0,4.0,4.0,4.0,4.0,100.0,event
14:32:13.493,0.0,0.0,0.0,0.0,0.0,0.0,0.0,0.0,0.0,0.0,0.0,0.0,0.0,0.0,0.0,0.0,0.0,0.0,0.0,0.0,927.5458,745.0183,520.58606,827.619,786.1172,-0.01025390625,-0.05364990234375,0.983642578125,1.21124267578125,-1.54022216796875,0.64300537109375,0.0,4.0,4.0,4.0,4.0,100.0,event
14:32:13.495,0.0,0.0,0.0,0.0,0.0,0.0,0.0,0.0,0.0,0.0,0.0,0.0,0.0,0.0,0.0,0.0,0.0,0.0,0.0,0.0,984.35895,1133.4432,965.82416,837.6923,659.59705,-0.01025390625,-0.05364990234375,0.983642578125,1.21124267578125,-1.54022216796875,0.64300537109375,0.0,4.0,4.0,4.0,4.0,100.0,event
14:32:13.496,0.0,0.0,0.0,0.0,0.0,0.0,0.0,0.0,0.0,0.0,0.0,0.0,0.0,0.0,0.0,0.0,0.0,0.0,0.0,0.0,1253.5165,1000.07324,1103.6263,852.6007,686.5934,-0.01025390625,-0.05364990234375,0.983642578125,1.21124267578125,-1.54022216796875,0.64300537109375,0.0,4.0,4.0,4.0,4.0,100.0,event
14:32:13.497,0.0,0.0,0.0,0.0,0.0,0.0,0.0,0.0,0.0,0.0,0.0,0.0,0.0,0.0,0.0,0.0,0.0,0.0,0.0,0.0,1376.0073,587.47253,700.293,870.32965,910.2198,-0.01025390625,-0.05364990234375,0.983642578125,1.21124267578125,-1.54022216796875,0.64300537109375,0.0,4.0,4.0,4.0,4.0,100.0,event
14:32:13.498,0.0,0.0,0.0,0.0,0.0,0.0,0.0,0.0,0.0,0.0,0.0,0.0,0.0,0.0,0.0,0.0,0.0,0.0,0.0,0.0,1041.978,728.0952,563.2967,853.8095,882.8205,-0.01025390625,-0.05364990234375,0.983642578125,1.21124267578125,-1.54022216796875,0.64300537109375,0.0,4.0,4.0,4.0,4.0,100.0,event
14:32:13.499,0.0,0.0,0.0,0.0,0.0,0.0,0.0,0.0,0.0,0.0,0.0,0.0,0.0,0.0,0.0,0.0,0.0,0.0,0.0,0.0,530.65936,880.40295,620.9158,840.5128,752.27106,-0.01025390625,-0.05364990234375,0.983642578125,1.21124267578125,-1.54022216796875,0.64300537109375,0.0,4.0,4.0,4.0,4.0,100.0,event
14:32:13.502,0.0,0.0,0.0,0.0,0.0,0.0,0.0,0.0,0.0,0.0,0.0,0.0,0.0,0.0,0.0,0.0,0.0,0.0,0.0,0.0,379.1575,821.5751,656.77655,851.79486,785.31134,-0.01025390625,-0.05364990234375,0.983642578125,1.21124267578125,-1.54022216796875,0.64300537109375,0.0,4.0,4.0,4.0,4.0,100.0,event
14:32:13.503,0.0,0.0,0.0,0.0,0.0,0.0,0.0,0.0,0.0,0.0,0.0,0.0,0.0,0.0,0.0,0.0,0.0,0.0,0.0,0.0,595.9341,559.2674,438.38828,864.68866,927.1429,-0.01025390625,-0.05364990234375,0.983642578125,1.21124267578125,-1.54022216796875,0.64300537109375,0.0,4.0,4.0,4.0,4.0,100.0,event
14:32:13.504,0.0,0.0,0.0,0.0,0.0,0.0,0.0,0.0,0.0,0.0,0.0,0.0,0.0,0.0,0.0,0.0,0.0,0.0,0.0,0.0,777.25275,735.34796,335.64102,875.16486,969.0476,-0.01025390625,-0.05364990234375,0.983642578125,1.21124267578125,-1.54022216796875,0.64300537109375,0.0,4.0,4.0,4.0,4.0,100.0,event
14:32:13.504,0.0,0.0,0.0,0.0,0.0,0.0,0.0,0.0,0.0,0.0,0.0,0.0,0.0,0.0,0.0,0.0,0.0,0.0,0.0,0.0,621.7216,1208.7913,736.9597,863.0769,750.2564,-0.01025390625,-0.05364990234375,0.983642578125,1.21124267578125,-1.54022216796875,0.64300537109375,0.0,4.0,4.0,4.0,4.0,100.0,event
14:32:13.505,0.0,0.0,0.0,0.0,0.0,0.0,0.0,0.0,0.0,0.0,0.0,0.0,0.0,0.0,0.0,0.0,0.0,0.0,0.0,0.0,284.46887,964.21246,758.315,853.4066,682.96704,-0.01025390625,-0.05364990234375,0.983642578125,1.21124267578125,-1.54022216796875,0.64300537109375,0.0,4.0,4.0,4.0,4.0,100.0,event
14:32:13.505,0.0,0.0,0.0,0.0,0.0,0.0,0.0,0.0,0.0,0.0,0.0,0.0,0.0,0.0,0.0,0.0,0.0,0.0,0.0,0.0,184.94505,738.5714,610.84247,851.39197,794.9817,-0.01025390625,-0.05364990234375,0.983642578125,1.21124267578125,-1.54022216796875,0.64300537109375,0.0,4.0,4.0,4.0,4.0,100.0,event
14:32:13.541,0.0,0.0,0.0,0.0,0.0,0.0,0.0,0.0,0.0,0.0,0.0,0.0,0.0,0.0,0.0,0.0,0.0,0.0,0.0,0.0,520.58606,1081.0623,1010.9524,857.4359,744.61536,-0.0107421875,-0.056640625,0.986572265625,2.04864501953125,-1.33087158203125,2.1533203125,0.0,4.0,4.0,4.0,4.0,100.0,event
14:32:13.542,0.0,0.0,0.0,0.0,0.0,0.0,0.0,0.0,0.0,0.0,0.0,0.0,0.0,0.0,0.0,0.0,0.0,0.0,0.0,0.0,863.47986,1073.4066,1211.6117,863.8828,707.1429,-0.0107421875,-0.056640625,0.986572265625,2.04864501953125,-1.33087158203125,2.1533203125,0.0,4.0,4.0,4.0,4.0,100.0,event
14:32:13.543,0.0,0.0,0.0,0.0,0.0,0.0,0.0,0.0,0.0,0.0,0.0,0.0,0.0,0.0,0.0,0.0,0.0,0.0,0.0,0.0,721.2454,759.5238,945.6777,852.1978,761.13556,-0.0107421875,-0.056640625,0.986572265625,2.04864501953125,-1.33087158203125,2.1533203125,0.0,4.0,4.0,4.0,4.0,100.0,event
14:32:13.543,0.0,0.0,0.0,0.0,0.0,0.0,0.0,0.0,0.0,0.0,0.0,0.0,0.0,0.0,0.0,0.0,0.0,0.0,0.0,0.0,371.90475,770.40295,793.36993,837.28937,783.2967,-0.0107421875,-0.056640625,0.986572265625,2.04864501953125,-1.33087158203125,2.1533203125,0.0,4.0,4.0,4.0,4.0,100.0,event
14:32:13.544,0.0,0.0,0.0,0.0,0.0,0.0,0.0,0.0,0.0,0.0,0.0,0.0,0.0,0.0,0.0,0.0,0.0,0.0,0.0,0.0,328.38828,825.2015,991.6117,842.52747,767.1795,-0.0107421875,-0.056640625,0.986572265625,2.04864501953125,-1.33087158203125,2.1533203125,0.0,4.0,4.0,4.0,4.0,100.0,event
14:32:13.544,0.0,0.0,0.0,0.0,0.0,0.0,0.0,0.0,0.0,0.0,0.0,0.0,0.0,0.0,0.0,0.0,0.0,0.0,0.0,0.0,201.06227,896.9231,961.39197,836.08057,756.30035,-0.0107421875,-0.056640625,0.986572265625,2.04864501953125,-1.33087158203125,2.1533203125,0.0,4.0,4.0,4.0,4.0,100.0,event
14:32:13.545,0.0,0.0,0.0,0.0,0.0,0.0,0.0,0.0,0.0,0.0,0.0,0.0,0.0,0.0,0.0,0.0,0.0,0.0,0.0,0.0,607.619,646.7033,762.74725,853.4066,987.98535,-0.0107421875,-0.056640625,0.986572265625,2.04864501953125,-1.33087158203125,2.1533203125,0.0,4.0,4.0,4.0,4.0,100.0,event
14:32:13.545,0.0,0.0,0.0,0.0,0.0,0.0,0.0,0.0,0.0,0.0,0.0,0.0,0.0,0.0,0.0,0.0,0.0,0.0,0.0,0.0,482.71063,437.58243,321.53845,850.58606,1114.9084,-0.0107421875,-0.056640625,0.986572265625,2.04864501953125,-1.33087158203125,2.1533203125,0.0,4.0,4.0,4.0,4.0,100.0,event
14:32:13.546,0.0,0.0,0.0,0.0,0.0,0.0,0.0,0.0,0.0,0.0,0.0,0.0,0.0,0.0,0.0,0.0,0.0,0.0,0.0,0.0,128.93773,984.35895,658.7912,840.10986,821.5751,-0.0107421875,-0.056640625,0.986572265625,2.04864501953125,-1.33087158203125,2.1533203125,0.0,4.0,4.0,4.0,4.0,100.0,event
14:32:13.547,0.0,0.0,0.0,0.0,0.0,0.0,0.0,0.0,0.0,0.0,0.0,0.0,0.0,0.0,0.0,0.0,0.0,0.0,0.0,0.0,0.0,1112.8938,1030.6959,832.0513,665.2381,-0.0107421875,-0.056640625,0.986572265625,2.04864501953125,-1.33087158203125,2.1533203125,0.0,4.0,4.0,4.0,4.0,100.0,event
14:32:13.547,0.0,0.0,0.0,0.0,0.0,0.0,0.0,0.0,0.0,0.0,0.0,0.0,0.0,0.0,0.0,0.0,0.0,0.0,0.0,0.0,37.472527,809.0842,935.2015,826.8132,720.4396,-0.0107421875,-0.056640625,0.986572265625,2.04864501953125,-1.33087158203125,2.1533203125,0.0,4.0,4.0,4.0,4.0,100.0,event
14:32:13.548,0.0,0.0,0.0,0.0,0.0,0.0,0.0,0.0,0.0,0.0,0.0,0.0,0.0,0.0,0.0,0.0,0.0,0.0,0.0,0.0,325.9707,834.87177,958.1685,843.73627,770.0,-0.0107421875,-0.056640625,0.986572265625,2.04864501953125,-1.33087158203125,2.1533203125,0.0,4.0,4.0,4.0,4.0,100.0,event
14:32:13.576,0.0,0.0,0.0,0.0,0.0,0.0,0.0,0.0,0.0,0.0,0.0,0.0,0.0,0.0,0.0,0.0,0.0,0.0,0.0,0.0,381.5751,827.619,911.4286,845.34796,793.7729,-0.01904296875,-0.05499267578125,0.9825439453125,2.923431396484375,0.35888671875,2.923431396484375,0.0,4.0,4.0,4.0,4.0,100.0,event
14:32:13.576,0.0,0.0,0.0,0.0,0.0,0.0,0.0,0.0,0.0,0.0,0.0,0.0,0.0,0.0,0.0,0.0,0.0,0.0,0.0,0.0,74.13919,799.81683,908.20514,829.2308,761.53845,-0.01904296875,-0.05499267578125,0.9825439453125,2.923431396484375,0.35888671875,2.923431396484375,0.0,4.0,4.0,4.0,4.0,100.0,event
14:32:13.577,0.0,0.0,0.0,0.0,0.0,0.0,0.0,0.0,0.0,0.0,0.0,0.0,0.0,0.0,0.0,0.0,0.0,0.0,0.0,0.0,0.0,557.25275,680.14655,834.4689,850.18317,-0.01904296875,-0.05499267578125,0.9825439453125,2.923431396484375,0.35888671875,2.923431396484375,0.0,4.0,4.0,4.0,4.0,100.0,event
14:32:13.577,0.0,0.0,0.0,0.0,0.0,0.0,0.0,0.0,0.0,0.0,0.0,0.0,0.0,0.0,0.0,0.0,0.0,0.0,0.0,0.0,0.0,809.0842,841.7216,836.8865,828.022,-0.01904296875,-0.05499267578125,0.9825439453125,2.923431396484375,0.35888671875,2.923431396484375,0.0,4.0,4.0,4.0,4.0,100.0,event
14:32:13.578,0.0,0.0,0.0,0.0,0.0,0.0,0.0,0.0,0.0,0.0,0.0,0.0,0.0,0.0,0.0,0.0,0.0,0.0,0.0,0.0,210.7326,1025.8608,1176.1538,833.2601,739.3773,-0.01904296875,-0.05499267578125,0.9825439453125,2.923431396484375,0.35888671875,2.923431396484375,0.0,4.0,4.0,4.0,4.0,100.0,event
14:32:13.578,0.0,0.0,0.0,0.0,0.0,0.0,0.0,0.0,0.0,0.0,0.0,0.0,0.0,0.0,0.0,0.0,0.0,0.0,0.0,0.0,277.21613,661.2088,898.5348,840.9158,898.5348,-0.01904296875,-0.05499267578125,0.9825439453125,2.923431396484375,0.35888671875,2.923431396484375,0.0,4.0,4.0,4.0,4.0,100.0,event
14:32:13.579,0.0,0.0,0.0,0.0,0.0,0.0,0.0,0.0,0.0,0.0,0.0,0.0,0.0,0.0,0.0,0.0,0.0,0.0,0.0,0.0,0.0,825.2015,740.18317,817.1429,846.1539,-0.01904296875,-0.05499267578125,0.9825439453125,2.923431396484375,0.35888671875,2.923431396484375,0.0,4.0,4.0,4.0,4.0,100.0,event
14:32:13.579,0.0,0.0,0.0,0.0,0.0,0.0,0.0,0.0,0.0,0.0,0.0,0.0,0.0,0.0,0.0,0.0,0.0,0.0,0.0,0.0,28.608059,459.34067,471.02563,827.2161,973.0769,-0.01904296875,-0.05499267578125,0.9825439453125,2.923431396484375,0.35888671875,2.923431396484375,0.0,4.0,4.0,4.0,4.0,100.0,event
14:32:13.582,0.0,0.0,0.0,0.0,0.0,0.0,0.0,0.0,0.0,0.0,0.0,0.0,0.0,0.0,0.0,0.0,0.0,0.0,0.0,0.0,0.0,1030.6959,1158.4249,804.65204,735.34796,-0.01904296875,-0.05499267578125,0.9825439453125,2.923431396484375,0.35888671875,2.923431396484375,0.0,4.0,4.0,4.0,4.0,100.0,event
14:32:13.583,0.0,0.0,0.0,0.0,0.0,0.0,0.0,0.0,0.0,0.0,0.0,0.0,0.0,0.0,0.0,0.0,0.0,0.0,0.0,0.0,28.205128,756.7033,1062.1245,820.3663,723.2601,-0.01904296875,-0.05499267578125,0.9825439453125,2.923431396484375,0.35888671875,2.923431396484375,0.0,4.0,4.0,4.0,4.0,100.0,event
14:32:13.584,0.0,0.0,0.0,0.0,0.0,0.0,0.0,0.0,0.0,0.0,0.0,0.0,0.0,0.0,0.0,0.0,0.0,0.0,0.0,0.0,69.30403,280.8425,481.90475,835.2747,985.56775,-0.01904296875,-0.05499267578125,0.9825439453125,2.923431396484375,0.35888671875,2.923431396484375,0.0,4.0,4.0,4.0,4.0,100.0,event
14:32:13.584,0.0,0.0,0.0,0.0,0.0,0.0,0.0,0.0,0.0,0.0,0.0,0.0,0.0,0.0,0.0,0.0,0.0,0.0,0.0,0.0,12.893773,665.2381,459.34067,807.8755,886.4469,-0.01904296875,-0.05499267578125,0.9825439453125,2.923431396484375,0.35888671875,2.923431396484375,0.0,4.0,4.0,4.0,4.0,100.0,event
14:32:13.626,0.0,0.0,0.0,0.0,0.0,0.0,0.0,0.0,0.0,0.0,0.0,0.0,0.0,0.0,0.0,0.0,0.0,0.0,0.0,0.0,0.0,1039.1575,904.9817,796.1905,634.61536,-0.01904296875,-0.05499267578125,0.9825439453125,2.923431396484375,0.35888671875,2.923431396484375,0.0,4.0,4.0,4.0,4.0,100.0,event
14:32:13.627,0.0,0.0,0.0,0.0,0.0,0.0,0.0,0.0,0.0,0.0,0.0,0.0,0.0,0.0,0.0,0.0,0.0,0.0,0.0,0.0,330.40292,842.9304,1019.81683,809.0842,693.0403,-0.01904296875,-0.05499267578125,0.9825439453125,2.923431396484375,0.35888671875,2.923431396484375,0.0,4.0,4.0,4.0,4.0,100.0,event
14:32:13.628,0.0,0.0,0.0,0.0,0.0,0.0,0.0,0.0,0.0,0.0,0.0,0.0,0.0,0.0,0.0,0.0,0.0,0.0,0.0,0.0,805.8608,783.69965,1014.57874,830.84247,804.65204,-0.01904296875,-0.05499267578125,0.9825439453125,2.923431396484375,0.35888671875,2.923431396484375,0.0,4.0,4.0,4.0,4.0,100.0,event
14:32:13.628,0.0,0.0,0.0,0.0,0.0,0.0,0.0,0.0,0.0,0.0,0.0,0.0,0.0,0.0,0.0,0.0,0.0,0.0,0.0,0.0,870.7326,684.17584,912.23444,833.663,846.55676,-0.01904296875,-0.05499267578125,0.9825439453125,2.923431396484375,0.35888671875,2.923431396484375,0.0,4.0,4.0,4.0,4.0,100.0,event
14:32:13.629,0.0,0.0,0.0,0.0,0.0,0.0,0.0,0.0,0.0,0.0,0.0,0.0,0.0,0.0,0.0,0.0,0.0,0.0,0.0,0.0,518.1685,715.2015,875.9707,814.7253,706.337,-0.01904296875,-0.05499267578125,0.9825439453125,2.923431396484375,0.35888671875,2.923431396484375,0.0,4.0,4.0,4.0,4.0,100.0,event
14:32:13.630,0.0,0.0,0.0,0.0,0.0,0.0,0.0,0.0,0.0,0.0,0.0,0.0,0.0,0.0,0.0,0.0,0.0,0.0,0.0,0.0,112.01465,489.1575,608.022,785.31134,745.42126,-0.01904296875,-0.05499267578125,0.9825439453125,2.923431396484375,0.35888671875,2.923431396484375,0.0,4.0,4.0,4.0,4.0,100.0,event
14:32:13.631,0.0,0.0,0.0,0.0,0.0,0.0,0.0,0.0,0.0,0.0,0.0,0.0,0.0,0.0,0.0,0.0,0.0,0.0,0.0,0.0,0.0,244.57875,189.78021,783.69965,1050.4396,-0.01904296875,-0.05499267578125,0.9825439453125,2.923431396484375,0.35888671875,2.923431396484375,0.0,4.0,4.0,4.0,4.0,100.0,event
14:32:13.632,0.0,0.0,0.0,0.0,0.0,0.0,0.0,0.0,0.0,0.0,0.0,0.0,0.0,0.0,0.0,0.0,0.0,0.0,0.0,0.0,201.86813,956.55676,733.3333,799.41394,884.0293,-0.01904296875,-0.05499267578125,0.9825439453125,2.923431396484375,0.35888671875,2.923431396484375,0.0,4.0,4.0,4.0,4.0,100.0,event
14:32:13.633,0.0,0.0,0.0,0.0,0.0,0.0,0.0,0.0,0.0,0.0,0.0,0.0,0.0,0.0,0.0,0.0,0.0,0.0,0.0,0.0,519.7802,1115.7142,1191.4652,809.4872,689.41394,-0.01904296875,-0.05499267578125,0.9825439453125,2.923431396484375,0.35888671875,2.923431396484375,0.0,4.0,4.0,4.0,4.0,100.0,event
14:32:13.634,0.0,0.0,0.0,0.0,0.0,0.0,0.0,0.0,0.0,0.0,0.0,0.0,0.0,0.0,0.0,0.0,0.0,0.0,0.0,0.0,296.15384,556.8498,782.49084,810.293,737.3626,-0.01904296875,-0.05499267578125,0.9825439453125,2.923431396484375,0.35888671875,2.923431396484375,0.0,4.0,4.0,4.0,4.0,100.0,event
14:32:13.635,0.0,0.0,0.0,0.0,0.0,0.0,0.0,0.0,0.0,0.0,0.0,0.0,0.0,0.0,0.0,0.0,0.0,0.0,0.0,0.0,14.102564,633.8095,679.34064,805.8608,677.72894,-0.01904296875,-0.05499267578125,0.9825439453125,2.923431396484375,0.35888671875,2.923431396484375,0.0,4.0,4.0,4.0,4.0,100.0,event
14:32:13.636,0.0,0.0,0.0,0.0,0.0,0.0,0.0,0.0,0.0,0.0,0.0,0.0,0.0,0.0,0.0,0.0,0.0,0.0,0.0,0.0,0.0,888.0586,1021.4286,803.44324,637.4359,-0.01904296875,-0.05499267578125,0.9825439453125,2.923431396484375,0.35888671875,2.923431396484375,0.0,4.0,4.0,4.0,4.0,100.0,event
14:32:13.671,0.0,0.0,0.0,0.0,0.0,0.0,0.0,0.0,0.0,0.0,0.0,0.0,0.0,0.0,0.0,0.0,0.0,0.0,0.0,0.0,33.846153,756.30035,1074.6154,819.5604,656.77655,-0.01983642578125,-0.05401611328125,0.98687744140625,2.7215576171875,4.433746337890625,1.981353759765625,0.0,4.0,4.0,4.0,4.0,100.0,event
14:32:13.673,0.0,0.0,0.0,0.0,0.0,0.0,0.0,0.0,0.0,0.0,0.0,0.0,0.0,0.0,0.0,0.0,0.0,0.0,0.0,0.0,193.4066,570.14655,873.95605,840.9158,756.30035,-0.01983642578125,-0.05401611328125,0.98687744140625,2.7215576171875,4.433746337890625,1.981353759765625,0.0,4.0,4.0,4.0,4.0,100.0,event
14:32:13.673,0.0,0.0,0.0,0.0,0.0,0.0,0.0,0.0,0.0,0.0,0.0,0.0,0.0,0.0,0.0,0.0,0.0,0.0,0.0,0.0,83.40659,650.32965,848.5714,829.6337,777.25275,-0.01983642578125,-0.05401611328125,0.98687744140625,2.7215576171875,4.433746337890625,1.981353759765625,0.0,4.0,4.0,4.0,4.0,100.0,event
14:32:13.674,0.0,0.0,0.0,0.0,0.0,0.0,0.0,0.0,0.0,0.0,0.0,0.0,0.0,0.0,0.0,0.0,0.0,0.0,0.0,0.0,0.0,744.61536,934.3956,817.1429,695.05493,-0.01983642578125,-0.05401611328125,0.98687744140625,2.7215576171875,4.433746337890625,1.981353759765625,0.0,4.0,4.0,4.0,4.0,100.0,event
14:32:13.674,0.0,0.0,0.0,0.0,0.0,0.0,0.0,0.0,0.0,0.0,0.0,0.0,0.0,0.0,0.0,0.0,0.0,0.0,0.0,0.0,4.029304,682.5641,944.0659,821.1722,689.81683,-0.01983642578125,-0.05401611328125,0.98687744140625,2.7215576171875,4.433746337890625,1.981353759765625,0.0,4.0,4.0,4.0,4.0,100.0,event
14:32:13.675,0.0,0.0,0.0,0.0,0.0,0.0,0.0,0.0,0.0,0.0,0.0,0.0,0.0,0.0,0.0,0.0,0.0,0.0,0.0,0.0,111.611725,529.45056,754.68866,837.28937,848.97437,-0.01983642578125,-0.05401611328125,0.98687744140625,2.7215576171875,4.433746337890625,1.981353759765625,0.0,4.0,4.0,4.0,4.0,100.0,event
14:32:13.675,0.0,0.0,0.0,0.0,0.0,0.0,0.0,0.0,0.0,0.0,0.0,0.0,0.0,0.0,0.0,0.0,0.0,0.0,0.0,0.0,341.28204,649.92676,767.98535,834.0659,929.5604,-0.01983642578125,-0.05401611328125,0.98687744140625,2.7215576171875,4.433746337890625,1.981353759765625,0.0,4.0,4.0,4.0,4.0,100.0,event
14:32:13.676,0.0,0.0,0.0,0.0,0.0,0.0,0.0,0.0,0.0,0.0,0.0,0.0,0.0,0.0,0.0,0.0,0.0,0.0,0.0,0.0,0.0,337.25275,408.57144,814.3223,978.315,-0.01983642578125,-0.05401611328125,0.98687744140625,2.7215576171875,4.433746337890625,1.981353759765625,0.0,4.0,4.0,4.0,4.0,100.0,event
14:32:13.676,0.0,0.0,0.0,0.0,0.0,0.0,0.0,0.0,0.0,0.0,0.0,0.0,0.0,0.0,0.0,0.0,0.0,0.0,0.0,0.0,10.879121,705.5311,739.3773,805.8608,850.18317,-0.01983642578125,-0.05401611328125,0.98687744140625,2.7215576171875,4.433746337890625,1.981353759765625,0.0,4.0,4.0,4.0,4.0,100.0,event
14:32:13.676,0.0,0.0,0.0,0.0,0.0,0.0,0.0,0.0,0.0,0.0,0.0,0.0,0.0,0.0,0.0,0.0,0.0,0.0,0.0,0.0,233.2967,749.0476,784.90845,815.9341,934.7985,-0.01983642578125,-0.05401611328125,0.98687744140625,2.7215576171875,4.433746337890625,1.981353759765625,0.0,4.0,4.0,4.0,4.0,100.0,event
14:32:13.679,0.0,0.0,0.0,0.0,0.0,0.0,0.0,0.0,0.0,0.0,0.0,0.0,0.0,0.0,0.0,0.0,0.0,0.0,0.0,0.0,152.3077,674.10254,520.18317,825.6044,1003.69965,-0.01983642578125,-0.05401611328125,0.98687744140625,2.7215576171875,4.433746337890625,1.981353759765625,0.0,4.0,4.0,4.0,4.0,100.0,event
14:32:13.679,0.0,0.0,0.0,0.0,0.0,0.0,0.0,0.0,0.0,0.0,0.0,0.0,0.0,0.0,0.0,0.0,0.0,0.0,0.0,0.0,454.5055,1115.7142,1081.4652,832.4542,798.60803,-0.01983642578125,-0.05401611328125,0.98687744140625,2.7215576171875,4.433746337890625,1.981353759765625,0.0,4.0,4.0,4.0,4.0,100.0,event
14:32:13.714,0.0,0.0,0.0,0.0,0.0,0.0,0.0,0.0,0.0,0.0,0.0,0.0,0.0,0.0,0.0,0.0,0.0,0.0,0.0,0.0,348.13187,749.85345,962.1978,818.7546,751.06226,-0.0340576171875,-0.04925537109375,0.98736572265625,2.534637451171875,1.39068603515625,2.1832275390625,0.0,4.0,4.0,4.0,4.0,100.0,event
14:32:13.715,0.0,0.0,0.0,0.0,0.0,0.0,0.0,0.0,0.0,0.0,0.0,0.0,0.0,0.0,0.0,0.0,0.0,0.0,0.0,0.0,100.7326,603.9927,675.7143,792.1612,738.97437,-0.0340576171875,-0.04925537109375,0.98736572265625,2.534637451171875,1.39068603515625,2.1832275390625,0.0,4.0,4.0,4.0,4.0,100.0,event
14:32:13.716,0.0,0.0,0.0,0.0,0.0,0.0,0.0,0.0,0.0,0.0,0.0,0.0,0.0,0.0,0.0,0.0,0.0,0.0,0.0,0.0,270.76923,842.9304,937.619,787.326,726.4835,-0.0340576171875,-0.04925537109375,0.98736572265625,2.534637451171875,1.39068603515625,2.1832275390625,0.0,4.0,4.0,4.0,4.0,100.0,event
14:32:13.717,0.0,0.0,0.0,0.0,0.0,0.0,0.0,0.0,0.0,0.0,0.0,0.0,0.0,0.0,0.0,0.0,0.0,0.0,0.0,0.0,527.8388,851.39197,1166.0806,798.60803,742.1978,-0.0340576171875,-0.04925537109375,0.98736572265625,2.534637451171875,1.39068603515625,2.1832275390625,0.0,4.0,4.0,4.0,4.0,100.0,event
14:32:13.718,0.0,0.0,0.0,0.0,0.0,0.0,0.0,0.0,0.0,0.0,0.0,0.0,0.0,0.0,0.0,0.0,0.0,0.0,0.0,0.0,736.1539,670.87915,1066.9597,810.293,807.47253,-0.0340576171875,-0.04925537109375,0.98736572265625,2.534637451171875,1.39068603515625,2.1832275390625,0.0,4.0,4.0,4.0,4.0,100.0,event
14:32:13.718,0.0,0.0,0.0,0.0,0.0,0.0,0.0,0.0,0.0,0.0,0.0,0.0,0.0,0.0,0.0,0.0,0.0,0.0,0.0,0.0,705.5311,512.9304,765.56775,799.41394,918.2784,-0.0340576171875,-0.04925537109375,0.98736572265625,2.534637451171875,1.39068603515625,2.1832275390625,0.0,4.0,4.0,4.0,4.0,100.0,event
14:32:13.719,0.0,0.0,0.0,0.0,0.0,0.0,0.0,0.0,0.0,0.0,0.0,0.0,0.0,0.0,0.0,0.0,0.0,0.0,0.0,0.0,362.63736,560.4762,613.2601,790.54944,933.9927,-0.0340576171875,-0.04925537109375,0.98736572265625,2.534637451171875,1.39068603515625,2.1832275390625,0.0,4.0,4.0,4.0,4.0,100.0,event
14:32:13.720,0.0,0.0,0.0,0.0,0.0,0.0,0.0,0.0,0.0,0.0,0.0,0.0,0.0,0.0,0.0,0.0,0.0,0.0,0.0,0.0,278.02197,828.4249,898.5348,784.5055,709.9634,-0.0340576171875,-0.04925537109375,0.98736572265625,2.534637451171875,1.39068603515625,2.1832275390625,0.0,4.0,4.0,4.0,4.0,100.0,event
14:32:13.720,0.0,0.0,0.0,0.0,0.0,0.0,0.0,0.0,0.0,0.0,0.0,0.0,0.0,0.0,0.0,0.0,0.0,0.0,0.0,0.0,610.4396,645.09155,906.1905,786.1172,757.9121,-0.0340576171875,-0.04925537109375,0.98736572265625,2.534637451171875,1.39068603515625,2.1832275390625,0.0,4.0,4.0,4.0,4.0,100.0,event
14:32:13.721,0.0,0.0,0.0,0.0,0.0,0.0,0.0,0.0,0.0,0.0,0.0,0.0,0.0,0.0,0.0,0.0,0.0,0.0,0.0,0.0,937.2161,900.14655,716.4103,810.293,992.01465,-0.0340576171875,-0.04925537109375,0.98736572265625,2.534637451171875,1.39068603515625,2.1832275390625,0.0,4.0,4.0,4.0,4.0,100.0,event
14:32:13.721,0.0,0.0,0.0,0.0,0.0,0.0,0.0,0.0,0.0,0.0,0.0,0.0,0.0,0.0,0.0,0.0,0.0,0.0,0.0,0.0,941.2454,266.73993,380.3663,811.0989,1175.751,-0.0340576171875,-0.04925537109375,0.98736572265625,2.534637451171875,1.39068603515625,2.1832275390625,0.0,4.0,4.0,4.0,4.0,100.0,event
14:32:13.722,0.0,0.0,0.0,0.0,0.0,0.0,0.0,0.0,0.0,0.0,0.0,0.0,0.0,0.0,0.0,0.0,0.0,0.0,0.0,0.0,583.8461,1013.36993,1003.69965,806.6667,719.6337,-0.0340576171875,-0.04925537109375,0.98736572265625,2.534637451171875,1.39068603515625,2.1832275390625,0.0,4.0,4.0,4.0,4.0,100.0,event
14:32:13.749,0.0,0.0,0.0,0.0,0.0,0.0,0.0,0.0,0.0,0.0,0.0,0.0,0.0,0.0,0.0,0.0,0.0,0.0,0.0,0.0,133.77289,587.47253,749.0476,811.50183,776.4469,-0.0384521484375,-0.05718994140625,0.98687744140625,1.577606201171875,-1.951446533203125,1.428070068359375,0.0,4.0,4.0,4.0,4.0,100.0,event
14:32:13.750,0.0,0.0,0.0,0.0,0.0,0.0,0.0,0.0,0.0,0.0,0.0,0.0,0.0,0.0,0.0,0.0,0.0,0.0,0.0,0.0,0.0,736.9597,888.0586,798.60803,708.7546,-0.0384521484375,-0.05718994140625,0.98687744140625,1.577606201171875,-1.951446533203125,1.428070068359375,0.0,4.0,4.0,4.0,4.0,100.0,event
14:32:13.751,0.0,0.0,0.0,0.0,0.0,0.0,0.0,0.0,0.0,0.0,0.0,0.0,0.0,0.0,0.0,0.0,0.0,0.0,0.0,0.0,151.50183,907.3993,1179.3773,809.0842,699.4872,-0.0384521484375,-0.05718994140625,0.98687744140625,1.577606201171875,-1.951446533203125,1.428070068359375,0.0,4.0,4.0,4.0,4.0,100.0,event
14:32:13.752,0.0,0.0,0.0,0.0,0.0,0.0,0.0,0.0,0.0,0.0,0.0,0.0,0.0,0.0,0.0,0.0,0.0,0.0,0.0,0.0,215.9707,721.6484,1094.762,815.9341,755.4945,-0.0384521484375,-0.05718994140625,0.98687744140625,1.577606201171875,-1.951446533203125,1.428070068359375,0.0,4.0,4.0,4.0,4.0,100.0,event
14:32:13.753,0.0,0.0,0.0,0.0,0.0,0.0,0.0,0.0,0.0,0.0,0.0,0.0,0.0,0.0,0.0,0.0,0.0,0.0,0.0,0.0,76.95971,473.44324,705.9341,804.65204,781.685,-0.0384521484375,-0.05718994140625,0.98687744140625,1.577606201171875,-1.951446533203125,1.428070068359375,0.0,4.0,4.0,4.0,4.0,100.0,event
14:32:13.754,0.0,0.0,0.0,0.0,0.0,0.0,0.0,0.0,0.0,0.0,0.0,0.0,0.0,0.0,0.0,0.0,0.0,0.0,0.0,0.0,0.0,533.0769,624.94507,802.6374,829.6337,-0.0384521484375,-0.05718994140625,0.98687744140625,1.577606201171875,-1.951446533203125,1.428070068359375,0.0,4.0,4.0,4.0,4.0,100.0,event
14:32:13.755,0.0,0.0,0.0,0.0,0.0,0.0,0.0,0.0,0.0,0.0,0.0,0.0,0.0,0.0,0.0,0.0,0.0,0.0,0.0,0.0,39.084248,717.2161,760.32965,813.1135,849.7802,-0.0384521484375,-0.05718994140625,0.98687744140625,1.577606201171875,-1.951446533203125,1.428070068359375,0.0,4.0,4.0,4.0,4.0,100.0,event
14:32:13.756,0.0,0.0,0.0,0.0,0.0,0.0,0.0,0.0,0.0,0.0,0.0,0.0,0.0,0.0,0.0,0.0,0.0,0.0,0.0,0.0,357.8022,842.1245,976.7033,819.5604,790.14655,-0.0384521484375,-0.05718994140625,0.98687744140625,1.577606201171875,-1.951446533203125,1.428070068359375,0.0,4.0,4.0,4.0,4.0,100.0,event
14:32:13.757,0.0,0.0,0.0,0.0,0.0,0.0,0.0,0.0,0.0,0.0,0.0,0.0,0.0,0.0,0.0,0.0,0.0,0.0,0.0,0.0,519.7802,402.9304,568.5348,824.3956,936.4103,-0.0384521484375,-0.05718994140625,0.98687744140625,1.577606201171875,-1.951446533203125,1.428070068359375,0.0,4.0,4.0,4.0,4.0,100.0,event
14:32:13.758,0.0,0.0,0.0,0.0,0.0,0.0,0.0,0.0,0.0,0.0,0.0,0.0,0.0,0.0,0.0,0.0,0.0,0.0,0.0,0.0,352.16116,634.21246,437.58243,808.68134,884.43225,-0.0384521484375,-0.05718994140625,0.98687744140625,1.577606201171875,-1.951446533203125,1.428070068359375,0.0,4.0,4.0,4.0,4.0,100.0,event
14:32:13.759,0.0,0.0,0.0,0.0,0.0,0.0,0.0,0.0,0.0,0.0,0.0,0.0,0.0,0.0,0.0,0.0,0.0,0.0,0.0,0.0,102.34432,1056.0806,917.47253,798.20514,653.5531,-0.0384521484375,-0.05718994140625,0.98687744140625,1.577606201171875,-1.951446533203125,1.428070068359375,0.0,4.0,4.0,4.0,4.0,100.0,event
14:32:13.760,0.0,0.0,0.0,0.0,0.0,0.0,0.0,0.0,0.0,0.0,0.0,0.0,0.0,0.0,0.0,0.0,0.0,0.0,0.0,0.0,163.18681,818.3516,1000.07324,805.8608,743.4066,-0.0384521484375,-0.05718994140625,0.98687744140625,1.577606201171875,-1.951446533203125,1.428070068359375,0.0,4.0,4.0,4.0,4.0,100.0,event
14:32:13.841,0.0,0.0,0.0,0.0,0.0,0.0,0.0,0.0,0.0,0.0,0.0,0.0,0.0,0.0,0.0,0.0,0.0,0.0,0.0,0.0,574.9817,695.05493,893.69965,817.5458,894.90845,-0.03472900390625,-0.049072265625,0.99786376953125,3.581390380859375,-2.930908203125,1.07666015625,0.0,4.0,4.0,4.0,4.0,100.0,event
14:32:13.842,0.0,0.0,0.0,0.0,0.0,0.0,0.0,0.0,0.0,0.0,0.0,0.0,0.0,0.0,0.0,0.0,0.0,0.0,0.0,0.0,899.7436,831.2454,1005.7143,831.2454,794.17584,-0.03472900390625,-0.049072265625,0.99786376953125,3.581390380859375,-2.930908203125,1.07666015625,0.0,4.0,4.0,4.0,4.0,100.0,event
14:32:13.843,0.0,0.0,0.0,0.0,0.0,0.0,0.0,0.0,0.0,0.0,0.0,0.0,0.0,0.0,0.0,0.0,0.0,0.0,0.0,0.0,742.1978,817.1429,1038.3517,814.3223,722.4542,-0.03472900390625,-0.049072265625,0.99786376953125,3.581390380859375,-2.930908203125,1.07666015625,0.0,4.0,4.0,4.0,4.0,100.0,event
14:32:13.843,0.0,0.0,0.0,0.0,0.0,0.0,0.0,0.0,0.0,0.0,0.0,0.0,0.0,0.0,0.0,0.0,0.0,0.0,0.0,0.0,450.07327,602.381,836.08057,805.4579,806.6667,-0.03472900390625,-0.049072265625,0.99786376953125,3.581390380859375,-2.930908203125,1.07666015625,0.0,4.0,4.0,4.0,4.0,100.0,event
14:32:13.844,0.0,0.0,0.0,0.0,0.0,0.0,0.0,0.0,0.0,0.0,0.0,0.0,0.0,0.0,0.0,0.0,0.0,0.0,0.0,0.0,497.61905,586.6667,677.72894,824.7985,799.011,-0.03472900390625,-0.049072265625,0.99786376953125,3.581390380859375,-2.930908203125,1.07666015625,0.0,4.0,4.0,4.0,4.0,100.0,event
14:32:13.844,0.0,0.0,0.0,0.0,0.0,0.0,0.0,0.0,0.0,0.0,0.0,0.0,0.0,0.0,0.0,0.0,0.0,0.0,0.0,0.0,819.15753,787.72894,832.8571,835.2747,761.9414,-0.03472900390625,-0.049072265625,0.99786376953125,3.581390380859375,-2.930908203125,1.07666015625,0.0,4.0,4.0,4.0,4.0,100.0,event
14:32:13.845,0.0,0.0,0.0,0.0,0.0,0.0,0.0,0.0,0.0,0.0,0.0,0.0,0.0,0.0,0.0,0.0,0.0,0.0,0.0,0.0,1045.6044,805.8608,929.9634,821.5751,828.022,-0.03472900390625,-0.049072265625,0.99786376953125,3.581390380859375,-2.930908203125,1.07666015625,0.0,4.0,4.0,4.0,4.0,100.0,event
14:32:13.845,0.0,0.0,0.0,0.0,0.0,0.0,0.0,0.0,0.0,0.0,0.0,0.0,0.0,0.0,0.0,0.0,0.0,0.0,0.0,0.0,910.2198,554.83514,607.2161,809.89014,872.3443,-0.03472900390625,-0.049072265625,0.99786376953125,3.581390380859375,-2.930908203125,1.07666015625,0.0,4.0,4.0,4.0,4.0,100.0,event
14:32:13.845,0.0,0.0,0.0,0.0,0.0,0.0,0.0,0.0,0.0,0.0,0.0,0.0,0.0,0.0,0.0,0.0,0.0,0.0,0.0,0.0,613.2601,392.05127,209.92674,807.0696,996.8498,-0.03472900390625,-0.049072265625,0.99786376953125,3.581390380859375,-2.930908203125,1.07666015625,0.0,4.0,4.0,4.0,4.0,100.0,event
14:32:13.846,0.0,0.0,0.0,0.0,0.0,0.0,0.0,0.0,0.0,0.0,0.0,0.0,0.0,0.0,0.0,0.0,0.0,0.0,0.0,0.0,603.5897,990.80585,763.1502,803.0403,795.38464,-0.03472900390625,-0.049072265625,0.99786376953125,3.581390380859375,-2.930908203125,1.07666015625,0.0,4.0,4.0,4.0,4.0,100.0,event
14:32:13.846,0.0,0.0,0.0,0.0,0.0,0.0,0.0,0.0,0.0,0.0,0.0,0.0,0.0,0.0,0.0,0.0,0.0,0.0,0.0,0.0,890.4762,1099.597,1232.1611,815.12823,707.5458,-0.03472900390625,-0.049072265625,0.99786376953125,3.581390380859375,-2.930908203125,1.07666015625,0.0,4.0,4.0,4.0,4.0,100.0,event
14:32:13.847,0.0,0.0,0.0,0.0,0.0,0.0,0.0,0.0,0.0,0.0,0.0,0.0,0.0,0.0,0.0,0.0,0.0,0.0,0.0,0.0,1171.3187,726.08057,1062.1245,821.5751,871.9414,-0.03472900390625,-0.049072265625,0.99786376953125,3.581390380859375,-2.930908203125,1.07666015625,0.0,4.0,4.0,4.0,4.0,100.0,event
14:32:13.889,0.0,0.0,0.0,0.0,0.0,0.0,0.0,0.0,0.0,0.0,0.0,0.0,0.0,0.0,0.0,0.0,0.0,0.0,0.0,0.0,1086.7032,678.5348,916.6667,809.0842,784.10254,-0.03472900390625,-0.049072265625,0.99786376953125,3.581390380859375,-2.930908203125,1.07666015625,0.0,4.0,4.0,4.0,4.0,100.0,event
14:32:13.890,0.0,0.0,0.0,0.0,0.0,0.0,0.0,0.0,0.0,0.0,0.0,0.0,0.0,0.0,0.0,0.0,0.0,0.0,0.0,0.0,819.15753,774.0293,945.6777,799.41394,670.4762,-0.03472900390625,-0.049072265625,0.99786376953125,3.581390380859375,-2.930908203125,1.07666015625,0.0,4.0,4.0,4.0,4.0,100.0,event
14:32:13.891,0.0,0.0,0.0,0.0,0.0,0.0,0.0,0.0,0.0,0.0,0.0,0.0,0.0,0.0,0.0,0.0,0.0,0.0,0.0,0.0,763.95605,730.9158,974.2857,810.293,722.4542,-0.03472900390625,-0.049072265625,0.99786376953125,3.581390380859375,-2.930908203125,1.07666015625,0.0,4.0,4.0,4.0,4.0,100.0,event
14:32:13.892,0.0,0.0,0.0,0.0,0.0,0.0,0.0,0.0,0.0,0.0,0.0,0.0,0.0,0.0,0.0,0.0,0.0,0.0,0.0,0.0,1022.23444,573.7729,846.9597,817.9487,885.2381,-0.03472900390625,-0.049072265625,0.99786376953125,3.581390380859375,-2.930908203125,1.07666015625,0.0,4.0,4.0,4.0,4.0,100.0,event
14:32:13.893,0.0,0.0,0.0,0.0,0.0,0.0,0.0,0.0,0.0,0.0,0.0,0.0,0.0,0.0,0.0,0.0,0.0,0.0,0.0,0.0,1338.9377,783.69965,1005.31134,817.9487,855.82416,-0.03472900390625,-0.049072265625,0.99786376953125,3.581390380859375,-2.930908203125,1.07666015625,0.0,4.0,4.0,4.0,4.0,100.0,event
14:32:13.894,0.0,0.0,0.0,0.0,0.0,0.0,0.0,0.0,0.0,0.0,0.0,0.0,0.0,0.0,0.0,0.0,0.0,0.0,0.0,0.0,1216.8499,722.4542,882.8205,815.12823,804.65204,-0.03472900390625,-0.049072265625,0.99786376953125,3.581390380859375,-2.930908203125,1.07666015625,0.0,4.0,4.0,4.0,4.0,100.0,event
14:32:13.895,0.0,0.0,0.0,0.0,0.0,0.0,0.0,0.0,0.0,0.0,0.0,0.0,0.0,0.0,0.0,0.0,0.0,0.0,0.0,0.0,865.89746,525.0183,567.72894,805.05493,882.01465,-0.03472900390625,-0.049072265625,0.99786376953125,3.581390380859375,-2.930908203125,1.07666015625,0.0,4.0,4.0,4.0,4.0,100.0,event
14:32:13.896,0.0,0.0,0.0,0.0,0.0,0.0,0.0,0.0,0.0,0.0,0.0,0.0,0.0,0.0,0.0,0.0,0.0,0.0,0.0,0.0,758.315,587.47253,562.8938,806.6667,884.0293,-0.03472900390625,-0.049072265625,0.99786376953125,3.581390380859375,-2.930908203125,1.07666015625,0.0,4.0,4.0,4.0,4.0,100.0,event
14:32:13.897,0.0,0.0,0.0,0.0,0.0,0.0,0.0,0.0,0.0,0.0,0.0,0.0,0.0,0.0,0.0,0.0,0.0,0.0,0.0,0.0,1024.652,919.89014,960.58606,828.022,771.6117,-0.03472900390625,-0.049072265625,0.99786376953125,3.581390380859375,-2.930908203125,1.07666015625,0.0,4.0,4.0,4.0,4.0,100.0,event
14:32:13.898,0.0,0.0,0.0,0.0,0.0,0.0,0.0,0.0,0.0,0.0,0.0,0.0,0.0,0.0,0.0,0.0,0.0,0.0,0.0,0.0,1347.3993,1037.1428,1285.751,842.52747,759.5238,-0.03472900390625,-0.049072265625,0.99786376953125,3.581390380859375,-2.930908203125,1.07666015625,0.0,4.0,4.0,4.0,4.0,100.0,event
14:32:13.899,0.0,0.0,0.0,0.0,0.0,0.0,0.0,0.0,0.0,0.0,0.0,0.0,0.0,0.0,0.0,0.0,0.0,0.0,0.0,0.0,1336.5201,707.1429,1068.1685,834.0659,811.9048,-0.03472900390625,-0.049072265625,0.99786376953125,3.581390380859375,-2.930908203125,1.07666015625,0.0,4.0,4.0,4.0,4.0,100.0,event
14:32:13.900,0.0,0.0,0.0,0.0,0.0,0.0,0.0,0.0,0.0,0.0,0.0,0.0,0.0,0.0,0.0,0.0,0.0,0.0,0.0,0.0,996.04395,179.30403,330.80585,825.2015,1016.99634,-0.03472900390625,-0.049072265625,0.99786376953125,3.581390380859375,-2.930908203125,1.07666015625,0.0,4.0,4.0,4.0,4.0,100.0,event
14:32:13.932,0.0,0.0,0.0,0.0,0.0,0.0,0.0,0.0,0.0,0.0,0.0,0.0,0.0,0.0,0.0,0.0,0.0,0.0,0.0,0.0,878.3883,718.022,452.49084,816.7399,986.3736,-0.03277587890625,-0.052978515625,0.98846435546875,2.03369140625,-4.88983154296875,-0.680389404296875,0.0,4.0,4.0,4.0,4.0,100.0,event
14:32:13.933,0.0,0.0,0.0,0.0,0.0,0.0,0.0,0.0,0.0,0.0,0.0,0.0,0.0,0.0,0.0,0.0,0.0,0.0,0.0,0.0,1101.2087,1218.0586,1127.3993,820.3663,758.71796,-0.03277587890625,-0.052978515625,0.98846435546875,2.03369140625,-4.88983154296875,-0.680389404296875,0.0,4.0,4.0,4.0,4.0,100.0,event
14:32:13.937,0.0,0.0,0.0,0.0,0.0,0.0,0.0,0.0,0.0,0.0,0.0,0.0,0.0,0.0,0.0,0.0,0.0,0.0,0.0,0.0,1361.5018,898.93774,1159.2307,838.49817,817.1429,-0.03277587890625,-0.052978515625,0.98846435546875,2.03369140625,-4.88983154296875,-0.680389404296875,0.0,4.0,4.0,4.0,4.0,100.0,event
14:32:13.938,0.0,0.0,0.0,0.0,0.0,0.0,0.0,0.0,0.0,0.0,0.0,0.0,0.0,0.0,0.0,0.0,0.0,0.0,0.0,0.0,1359.0842,754.68866,946.4835,837.6923,807.47253,-0.03277587890625,-0.052978515625,0.98846435546875,2.03369140625,-4.88983154296875,-0.680389404296875,0.0,4.0,4.0,4.0,4.0,100.0,event
14:32:13.938,0.0,0.0,0.0,0.0,0.0,0.0,0.0,0.0,0.0,0.0,0.0,0.0,0.0,0.0,0.0,0.0,0.0,0.0,0.0,0.0,1055.6776,759.92676,875.16486,805.4579,705.12823,-0.03277587890625,-0.052978515625,0.98846435546875,2.03369140625,-4.88983154296875,-0.680389404296875,0.0,4.0,4.0,4.0,4.0,100.0,event
14:32:13.939,0.0,0.0,0.0,0.0,0.0,0.0,0.0,0.0,0.0,0.0,0.0,0.0,0.0,0.0,0.0,0.0,0.0,0.0,0.0,0.0,906.1905,682.5641,787.326,801.02563,817.5458,-0.03277587890625,-0.052978515625,0.98846435546875,2.03369140625,-4.88983154296875,-0.680389404296875,0.0,4.0,4.0,4.0,4.0,100.0,event
14:32:13.939,0.0,0.0,0.0,0.0,0.0,0.0,0.0,0.0,0.0,0.0,0.0,0.0,0.0,0.0,0.0,0.0,0.0,0.0,0.0,0.0,1083.4799,736.1539,810.696,817.1429,944.87177,-0.03277587890625,-0.052978515625,0.98846435546875,2.03369140625,-4.88983154296875,-0.680389404296875,0.0,4.0,4.0,4.0,4.0,100.0,event
14:32:13.940,0.0,0.0,0.0,0.0,0.0,0.0,0.0,0.0,0.0,0.0,0.0,0.0,0.0,0.0,0.0,0.0,0.0,0.0,0.0,0.0,1449.7435,808.2784,874.35895,826.8132,956.9597,-0.03277587890625,-0.052978515625,0.98846435546875,2.03369140625,-4.88983154296875,-0.680389404296875,0.0,4.0,4.0,4.0,4.0,100.0,event
14:32:13.941,0.0,0.0,0.0,0.0,0.0,0.0,0.0,0.0,0.0,0.0,0.0,0.0,0.0,0.0,0.0,0.0,0.0,0.0,0.0,0.0,1608.4982,807.47253,822.7839,829.2308,843.3333,-0.03277587890625,-0.052978515625,0.98846435546875,2.03369140625,-4.88983154296875,-0.680389404296875,0.0,4.0,4.0,4.0,4.0,100.0,event
14:32:13.941,0.0,0.0,0.0,0.0,0.0,0.0,0.0,0.0,0.0,0.0,0.0,0.0,0.0,0.0,0.0,0.0,0.0,0.0,0.0,0.0,1306.7032,888.46155,909.41394,819.15753,642.674,-0.03277587890625,-0.052978515625,0.98846435546875,2.03369140625,-4.88983154296875,-0.680389404296875,0.0,4.0,4.0,4.0,4.0,100.0,event
14:32:13.942,0.0,0.0,0.0,0.0,0.0,0.0,0.0,0.0,0.0,0.0,0.0,0.0,0.0,0.0,0.0,0.0,0.0,0.0,0.0,0.0,1012.1612,595.12823,699.0842,809.4872,746.63007,-0.03277587890625,-0.052978515625,0.98846435546875,2.03369140625,-4.88983154296875,-0.680389404296875,0.0,4.0,4.0,4.0,4.0,100.0,event
14:32:13.943,0.0,0.0,0.0,0.0,0.0,0.0,0.0,0.0,0.0,0.0,0.0,0.0,0.0,0.0,0.0,0.0,0.0,0.0,0.0,0.0,1135.0549,299.7802,194.61539,819.9634,1000.87915,-0.03277587890625,-0.052978515625,0.98846435546875,2.03369140625,-4.88983154296875,-0.680389404296875,0.0,4.0,4.0,4.0,4.0,100.0,event
14:32:13.990,0.0,0.0,0.0,0.0,0.0,0.0,0.0,0.0,0.0,0.0,0.0,0.0,0.0,0.0,0.0,0.0,0.0,0.0,0.0,0.0,1424.359,1054.0659,704.7253,826.0073,796.1905,-0.0264892578125,-0.04638671875,0.98895263671875,3.09539794921875,-3.446807861328125,-0.94207763671875,0.0,4.0,4.0,4.0,4.0,100.0,event
14:32:13.991,0.0,0.0,0.0,0.0,0.0,0.0,0.0,0.0,0.0,0.0,0.0,0.0,0.0,0.0,0.0,0.0,0.0,0.0,0.0,0.0,1526.3004,1205.9707,1128.608,817.9487,642.27106,-0.0264892578125,-0.04638671875,0.98895263671875,3.09539794921875,-3.446807861328125,-0.94207763671875,0.0,4.0,4.0,4.0,4.0,100.0,event
14:32:13.992,0.0,0.0,0.0,0.0,0.0,0.0,0.0,0.0,0.0,0.0,0.0,0.0,0.0,0.0,0.0,0.0,0.0,0.0,0.0,0.0,1210.8059,673.2967,715.2015,812.3077,716.4103,-0.0264892578125,-0.04638671875,0.98895263671875,3.09539794921875,-3.446807861328125,-0.94207763671875,0.0,4.0,4.0,4.0,4.0,100.0,event
14:32:13.993,0.0,0.0,0.0,0.0,0.0,0.0,0.0,0.0,0.0,0.0,0.0,0.0,0.0,0.0,0.0,0.0,0.0,0.0,0.0,0.0,933.9927,973.47986,1054.8718,824.7985,637.8388,-0.0264892578125,-0.04638671875,0.98895263671875,3.09539794921875,-3.446807861328125,-0.94207763671875,0.0,4.0,4.0,4.0,4.0,100.0,event
14:32:13.993,0.0,0.0,0.0,0.0,0.0,0.0,0.0,0.0,0.0,0.0,0.0,0.0,0.0,0.0,0.0,0.0,0.0,0.0,0.0,0.0,909.011,817.1429,778.86444,815.9341,668.0586,-0.0264892578125,-0.04638671875,0.98895263671875,3.09539794921875,-3.446807861328125,-0.94207763671875,0.0,4.0,4.0,4.0,4.0,100.0,event
14:32:13.994,0.0,0.0,0.0,0.0,0.0,0.0,0.0,0.0,0.0,0.0,0.0,0.0,0.0,0.0,0.0,0.0,0.0,0.0,0.0,0.0,1128.608,765.56775,1010.9524,826.4103,778.46155,-0.0264892578125,-0.04638671875,0.98895263671875,3.09539794921875,-3.446807861328125,-0.94207763671875,0.0,4.0,4.0,4.0,4.0,100.0,event
14:32:13.994,0.0,0.0,0.0,0.0,0.0,0.0,0.0,0.0,0.0,0.0,0.0,0.0,0.0,0.0,0.0,0.0,0.0,0.0,0.0,0.0,1236.9963,364.652,519.3773,829.6337,1006.9231,-0.0264892578125,-0.04638671875,0.98895263671875,3.09539794921875,-3.446807861328125,-0.94207763671875,0.0,4.0,4.0,4.0,4.0,100.0,event
14:32:13.995,0.0,0.0,0.0,0.0,0.0,0.0,0.0,0.0,0.0,0.0,0.0,0.0,0.0,0.0,0.0,0.0,0.0,0.0,0.0,0.0,1016.99634,695.05493,435.56778,818.3516,946.08057,-0.0264892578125,-0.04638671875,0.98895263671875,3.09539794921875,-3.446807861328125,-0.94207763671875,0.0,4.0,4.0,4.0,4.0,100.0,event
14:32:13.996,0.0,0.0,0.0,0.0,0.0,0.0,0.0,0.0,0.0,0.0,0.0,0.0,0.0,0.0,0.0,0.0,0.0,0.0,0.0,0.0,754.2857,1136.6666,921.9048,806.6667,667.6557,-0.0264892578125,-0.04638671875,0.98895263671875,3.09539794921875,-3.446807861328125,-0.94207763671875,0.0,4.0,4.0,4.0,4.0,100.0,event
14:32:13.996,0.0,0.0,0.0,0.0,0.0,0.0,0.0,0.0,0.0,0.0,0.0,0.0,0.0,0.0,0.0,0.0,0.0,0.0,0.0,0.0,699.0842,795.78754,875.56775,816.337,635.82416,-0.0264892578125,-0.04638671875,0.98895263671875,3.09539794921875,-3.446807861328125,-0.94207763671875,0.0,4.0,4.0,4.0,4.0,100.0,event
14:32:13.997,0.0,0.0,0.0,0.0,0.0,0.0,0.0,0.0,0.0,0.0,0.0,0.0,0.0,0.0,0.0,0.0,0.0,0.0,0.0,0.0,946.08057,637.03296,706.337,825.2015,853.00366,-0.0264892578125,-0.04638671875,0.98895263671875,3.09539794921875,-3.446807861328125,-0.94207763671875,0.0,4.0,4.0,4.0,4.0,100.0,event
14:32:13.998,0.0,0.0,0.0,0.0,0.0,0.0,0.0,0.0,0.0,0.0,0.0,0.0,0.0,0.0,0.0,0.0,0.0,0.0,0.0,0.0,1238.608,968.24176,1011.3553,839.304,772.4176,-0.0264892578125,-0.04638671875,0.98895263671875,3.09539794921875,-3.446807861328125,-0.94207763671875,0.0,4.0,4.0,4.0,4.0,100.0,event
14:32:14.033,0.0,0.0,0.0,0.0,0.0,0.0,0.0,0.0,0.0,0.0,0.0,0.0,0.0,0.0,0.0,0.0,0.0,0.0,0.0,0.0,1060.9158,911.02563,1036.337,838.0952,661.2088,-0.02667236328125,-0.0430908203125,0.9886474609375,2.758941650390625,-1.1663818359375,-0.022430419921875,0.0,4.0,4.0,4.0,4.0,100.0,event
14:32:14.034,0.0,0.0,0.0,0.0,0.0,0.0,0.0,0.0,0.0,0.0,0.0,0.0,0.0,0.0,0.0,0.0,0.0,0.0,0.0,0.0,749.0476,699.4872,845.7509,801.02563,729.707,-0.02667236328125,-0.0430908203125,0.9886474609375,2.758941650390625,-1.1663818359375,-0.022430419921875,0.0,4.0,4.0,4.0,4.0,100.0,event
14:32:14.035,0.0,0.0,0.0,0.0,0.0,0.0,0.0,0.0,0.0,0.0,0.0,0.0,0.0,0.0,0.0,0.0,0.0,0.0,0.0,0.0,749.85345,781.685,866.30035,800.6227,742.6007,-0.02667236328125,-0.0430908203125,0.9886474609375,2.758941650390625,-1.1663818359375,-0.022430419921875,0.0,4.0,4.0,4.0,4.0,100.0,event
14:32:14.035,0.0,0.0,0.0,0.0,0.0,0.0,0.0,0.0,0.0,0.0,0.0,0.0,0.0,0.0,0.0,0.0,0.0,0.0,0.0,0.0,1049.6337,967.4359,1149.5604,817.1429,739.7802,-0.02667236328125,-0.0430908203125,0.9886474609375,2.758941650390625,-1.1663818359375,-0.022430419921875,0.0,4.0,4.0,4.0,4.0,100.0,event
14:32:14.039,0.0,0.0,0.0,0.0,0.0,0.0,0.0,0.0,0.0,0.0,0.0,0.0,0.0,0.0,0.0,0.0,0.0,0.0,0.0,0.0,1309.1208,895.31134,1223.6996,827.619,718.8278,-0.02667236328125,-0.0430908203125,0.9886474609375,2.758941650390625,-1.1663818359375,-0.022430419921875,0.0,4.0,4.0,4.0,4.0,100.0,event
14:32:14.040,0.0,0.0,0.0,0.0,0.0,0.0,0.0,0.0,0.0,0.0,0.0,0.0,0.0,0.0,0.0,0.0,0.0,0.0,0.0,0.0,1077.8389,481.50183,684.57874,822.381,804.65204,-0.02667236328125,-0.0430908203125,0.9886474609375,2.758941650390625,-1.1663818359375,-0.022430419921875,0.0,4.0,4.0,4.0,4.0,100.0,event
14:32:14.041,0.0,0.0,0.0,0.0,0.0,0.0,0.0,0.0,0.0,0.0,0.0,0.0,0.0,0.0,0.0,0.0,0.0,0.0,0.0,0.0,690.6227,434.7619,262.71063,805.8608,981.53845,-0.02667236328125,-0.0430908203125,0.9886474609375,2.758941650390625,-1.1663818359375,-0.022430419921875,0.0,4.0,4.0,4.0,4.0,100.0,event
14:32:14.041,0.0,0.0,0.0,0.0,0.0,0.0,0.0,0.0,0.0,0.0,0.0,0.0,0.0,0.0,0.0,0.0,0.0,0.0,0.0,0.0,641.06226,996.04395,714.3956,799.81683,768.7912,-0.02667236328125,-0.0430908203125,0.9886474609375,2.758941650390625,-1.1663818359375,-0.022430419921875,0.0,4.0,4.0,4.0,4.0,100.0,event
14:32:14.043,0.0,0.0,0.0,0.0,0.0,0.0,0.0,0.0,0.0,0.0,0.0,0.0,0.0,0.0,0.0,0.0,0.0,0.0,0.0,0.0,880.40295,1103.6263,1145.1282,814.7253,649.92676,-0.02667236328125,-0.0430908203125,0.9886474609375,2.758941650390625,-1.1663818359375,-0.022430419921875,0.0,4.0,4.0,4.0,4.0,100.0,event
14:32:14.044,0.0,0.0,0.0,0.0,0.0,0.0,0.0,0.0,0.0,0.0,0.0,0.0,0.0,0.0,0.0,0.0,0.0,0.0,0.0,0.0,1149.5604,751.4652,938.022,828.4249,793.7729,-0.02667236328125,-0.0430908203125,0.9886474609375,2.758941650390625,-1.1663818359375,-0.022430419921875,0.0,4.0,4.0,4.0,4.0,100.0,event
14:32:14.044,0.0,0.0,0.0,0.0,0.0,0.0,0.0,0.0,0.0,0.0,0.0,0.0,0.0,0.0,0.0,0.0,0.0,0.0,0.0,0.0,1054.0659,747.4359,775.64105,819.9634,843.73627,-0.02667236328125,-0.0430908203125,0.9886474609375,2.758941650390625,-1.1663818359375,-0.022430419921875,0.0,4.0,4.0,4.0,4.0,100.0,event
14:32:14.045,0.0,0.0,0.0,0.0,0.0,0.0,0.0,0.0,0.0,0.0,0.0,0.0,0.0,0.0,0.0,0.0,0.0,0.0,0.0,0.0,677.326,869.12085,861.8681,804.65204,716.4103,-0.02667236328125,-0.0430908203125,0.9886474609375,2.758941650390625,-1.1663818359375,-0.022430419921875,0.0,4.0,4.0,4.0,4.0,100.0,event
14:32:14.067,0.0,0.0,0.0,0.0,0.0,0.0,0.0,0.0,0.0,0.0,0.0,0.0,0.0,0.0,0.0,0.0,0.0,0.0,0.0,0.0,508.49817,750.2564,851.79486,796.99634,693.44324,-0.03961181640625,-0.0419921875,0.991943359375,3.2000732421875,0.844879150390625,0.949554443359375,0.0,4.0,4.0,4.0,4.0,100.0,event
14:32:14.068,0.0,0.0,0.0,0.0,0.0,0.0,0.0,0.0,0.0,0.0,0.0,0.0,0.0,0.0,0.0,0.0,0.0,0.0,0.0,0.0,672.0879,585.4579,682.1612,798.20514,905.38464,-0.03961181640625,-0.0419921875,0.991943359375,3.2000732421875,0.844879150390625,0.949554443359375,0.0,4.0,4.0,4.0,4.0,100.0,event
14:32:14.069,0.0,0.0,0.0,0.0,0.0,0.0,0.0,0.0,0.0,0.0,0.0,0.0,0.0,0.0,0.0,0.0,0.0,0.0,0.0,0.0,1017.3993,838.49817,801.4286,810.293,925.9341,-0.03961181640625,-0.0419921875,0.991943359375,3.2000732421875,0.844879150390625,0.949554443359375,0.0,4.0,4.0,4.0,4.0,100.0,event
14:32:14.069,0.0,0.0,0.0,0.0,0.0,0.0,0.0,0.0,0.0,0.0,0.0,0.0,0.0,0.0,0.0,0.0,0.0,0.0,0.0,0.0,1037.5458,990.0,990.0,804.2491,718.022,-0.03961181640625,-0.0419921875,0.991943359375,3.2000732421875,0.844879150390625,0.949554443359375,0.0,4.0,4.0,4.0,4.0,100.0,event
14:32:14.070,0.0,0.0,0.0,0.0,0.0,0.0,0.0,0.0,0.0,0.0,0.0,0.0,0.0,0.0,0.0,0.0,0.0,0.0,0.0,0.0,698.2784,742.1978,809.4872,787.326,699.0842,-0.03961181640625,-0.0419921875,0.991943359375,3.2000732421875,0.844879150390625,0.949554443359375,0.0,4.0,4.0,4.0,4.0,100.0,event
14:32:14.071,0.0,0.0,0.0,0.0,0.0,0.0,0.0,0.0,0.0,0.0,0.0,0.0,0.0,0.0,0.0,0.0,0.0,0.0,0.0,0.0,552.4176,582.6374,582.6374,791.75824,890.07324,-0.03961181640625,-0.0419921875,0.991943359375,3.2000732421875,0.844879150390625,0.949554443359375,0.0,4.0,4.0,4.0,4.0,100.0,event
14:32:14.072,0.0,0.0,0.0,0.0,0.0,0.0,0.0,0.0,0.0,0.0,0.0,0.0,0.0,0.0,0.0,0.0,0.0,0.0,0.0,0.0,733.73627,745.82416,666.04395,798.20514,891.685,-0.03961181640625,-0.0419921875,0.991943359375,3.2000732421875,0.844879150390625,0.949554443359375,0.0,4.0,4.0,4.0,4.0,100.0,event
14:32:14.072,0.0,0.0,0.0,0.0,0.0,0.0,0.0,0.0,0.0,0.0,0.0,0.0,0.0,0.0,0.0,0.0,0.0,0.0,0.0,0.0,1068.9744,1028.6813,994.43225,815.5311,736.55676,-0.03961181640625,-0.0419921875,0.991943359375,3.2000732421875,0.844879150390625,0.949554443359375,0.0,4.0,4.0,4.0,4.0,100.0,event
14:32:14.073,0.0,0.0,0.0,0.0,0.0,0.0,0.0,0.0,0.0,0.0,0.0,0.0,0.0,0.0,0.0,0.0,0.0,0.0,0.0,0.0,1074.6154,844.94507,967.8388,818.7546,747.4359,-0.03961181640625,-0.0419921875,0.991943359375,3.2000732421875,0.844879150390625,0.949554443359375,0.0,4.0,4.0,4.0,4.0,100.0,event
14:32:14.073,0.0,0.0,0.0,0.0,0.0,0.0,0.0,0.0,0.0,0.0,0.0,0.0,0.0,0.0,0.0,0.0,0.0,0.0,0.0,0.0,665.2381,277.61905,297.36264,809.0842,942.4542,-0.03961181640625,-0.0419921875,0.991943359375,3.2000732421875,0.844879150390625,0.949554443359375,0.0,4.0,4.0,4.0,4.0,100.0,event
14:32:14.074,0.0,0.0,0.0,0.0,0.0,0.0,0.0,0.0,0.0,0.0,0.0,0.0,0.0,0.0,0.0,0.0,0.0,0.0,0.0,0.0,541.13556,763.5531,477.0696,803.44324,855.0183,-0.03961181640625,-0.0419921875,0.991943359375,3.2000732421875,0.844879150390625,0.949554443359375,0.0,4.0,4.0,4.0,4.0,100.0,event
14:32:14.075,0.0,0.0,0.0,0.0,0.0,0.0,0.0,0.0,0.0,0.0,0.0,0.0,0.0,0.0,0.0,0.0,0.0,0.0,0.0,0.0,729.707,1155.2014,1093.1501,805.4579,681.75824,-0.03961181640625,-0.0419921875,0.991943359375,3.2000732421875,0.844879150390625,0.949554443359375,0.0,4.0,4.0,4.0,4.0,100.0,event
14:32:14.098,0.0,0.0,0.0,0.0,0.0,0.0,0.0,0.0,0.0,0.0,0.0,0.0,0.0,0.0,0.0,0.0,0.0,0.0,0.0,0.0,954.5421,835.6777,1065.751,825.2015,724.0659,-0.03961181640625,-0.0419921875,0.991943359375,3.2000732421875,0.844879150390625,0.949554443359375,0.0,4.0,4.0,4.0,4.0,100.0,event
14:32:14.099,0.0,0.0,0.0,0.0,0.0,0.0,0.0,0.0,0.0,0.0,0.0,0.0,0.0,0.0,0.0,0.0,0.0,0.0,0.0,0.0,1011.75824,739.3773,871.13556,817.9487,786.1172,-0.03961181640625,-0.0419921875,0.991943359375,3.2000732421875,0.844879150390625,0.949554443359375,0.0,4.0,4.0,4.0,4.0,100.0,event
14:32:14.100,0.0,0.0,0.0,0.0,0.0,0.0,0.0,0.0,0.0,0.0,0.0,0.0,0.0,0.0,0.0,0.0,0.0,0.0,0.0,0.0,756.7033,796.1905,866.7033,797.8022,772.4176,-0.03961181640625,-0.0419921875,0.991943359375,3.2000732421875,0.844879150390625,0.949554443359375,0.0,4.0,4.0,4.0,4.0,100.0,event
14:32:14.100,0.0,0.0,0.0,0.0,0.0,0.0,0.0,0.0,0.0,0.0,0.0,0.0,0.0,0.0,0.0,0.0,0.0,0.0,0.0,0.0,546.3736,737.76556,818.3516,801.4286,727.28937,-0.03961181640625,-0.0419921875,0.991943359375,3.2000732421875,0.844879150390625,0.949554443359375,0.0,4.0,4.0,4.0,4.0,100.0,event
14:32:14.101,0.0,0.0,0.0,0.0,0.0,0.0,0.0,0.0,0.0,0.0,0.0,0.0,0.0,0.0,0.0,0.0,0.0,0.0,0.0,0.0,647.50916,655.9707,708.7546,813.91943,819.15753,-0.03961181640625,-0.0419921875,0.991943359375,3.2000732421875,0.844879150390625,0.949554443359375,0.0,4.0,4.0,4.0,4.0,100.0,event
14:32:14.101,0.0,0.0,0.0,0.0,0.0,0.0,0.0,0.0,0.0,0.0,0.0,0.0,0.0,0.0,0.0,0.0,0.0,0.0,0.0,0.0,993.22345,698.68134,637.8388,821.1722,993.6264,-0.03961181640625,-0.0419921875,0.991943359375,3.2000732421875,0.844879150390625,0.949554443359375,0.0,4.0,4.0,4.0,4.0,100.0,event
14:32:14.105,0.0,0.0,0.0,0.0,0.0,0.0,0.0,0.0,0.0,0.0,0.0,0.0,0.0,0.0,0.0,0.0,0.0,0.0,0.0,0.0,1101.6117,827.619,675.7143,809.89014,942.0513,-0.03961181640625,-0.0419921875,0.991943359375,3.2000732421875,0.844879150390625,0.949554443359375,0.0,4.0,4.0,4.0,4.0,100.0,event
14:32:14.106,0.0,0.0,0.0,0.0,0.0,0.0,0.0,0.0,0.0,0.0,0.0,0.0,0.0,0.0,0.0,0.0,0.0,0.0,0.0,0.0,778.86444,920.293,773.6264,795.38464,689.011,-0.03961181640625,-0.0419921875,0.991943359375,3.2000732421875,0.844879150390625,0.949554443359375,0.0,4.0,4.0,4.0,4.0,100.0,event
14:32:14.107,0.0,0.0,0.0,0.0,0.0,0.0,0.0,0.0,0.0,0.0,0.0,0.0,0.0,0.0,0.0,0.0,0.0,0.0,0.0,0.0,517.76556,655.16486,575.38464,799.011,770.80585,-0.03961181640625,-0.0419921875,0.991943359375,3.2000732421875,0.844879150390625,0.949554443359375,0.0,4.0,4.0,4.0,4.0,100.0,event
14:32:14.108,0.0,0.0,0.0,0.0,0.0,0.0,0.0,0.0,0.0,0.0,0.0,0.0,0.0,0.0,0.0,0.0,0.0,0.0,0.0,0.0,551.2088,531.06226,347.72894,803.44324,1029.8901,-0.03961181640625,-0.0419921875,0.991943359375,3.2000732421875,0.844879150390625,0.949554443359375,0.0,4.0,4.0,4.0,4.0,100.0,event
14:32:14.108,0.0,0.0,0.0,0.0,0.0,0.0,0.0,0.0,0.0,0.0,0.0,0.0,0.0,0.0,0.0,0.0,0.0,0.0,0.0,0.0,909.011,1114.9084,909.011,799.011,829.2308,-0.03961181640625,-0.0419921875,0.991943359375,3.2000732421875,0.844879150390625,0.949554443359375,0.0,4.0,4.0,4.0,4.0,100.0,event
14:32:14.109,0.0,0.0,0.0,0.0,0.0,0.0,0.0,0.0,0.0,0.0,0.0,0.0,0.0,0.0,0.0,0.0,0.0,0.0,0.0,0.0,1102.8206,1023.8461,1062.1245,813.1135,732.9304,-0.03961181640625,-0.0419921875,0.991943359375,3.2000732421875,0.844879150390625,0.949554443359375,0.0,4.0,4.0,4.0,4.0,100.0,event
14:32:14.136,0.0,0.0,0.0,0.0,0.0,0.0,0.0,0.0,0.0,0.0,0.0,0.0,0.0,0.0,0.0,0.0,0.0,0.0,0.0,0.0,758.71796,618.0952,654.35895,807.8755,828.022,-0.04949951171875,-0.048095703125,0.98101806640625,3.0206298828125,1.831817626953125,0.545806884765625,0.0,4.0,4.0,4.0,4.0,100.0,event
14:32:14.137,0.0,0.0,0.0,0.0,0.0,0.0,0.0,0.0,0.0,0.0,0.0,0.0,0.0,0.0,0.0,0.0,0.0,0.0,0.0,0.0,428.31503,765.56775,649.5238,789.7436,741.79486,-0.04949951171875,-0.048095703125,0.98101806640625,3.0206298828125,1.831817626953125,0.545806884765625,0.0,4.0,4.0,4.0,4.0,100.0,event
14:32:14.138,0.0,0.0,0.0,0.0,0.0,0.0,0.0,0.0,0.0,0.0,0.0,0.0,0.0,0.0,0.0,0.0,0.0,0.0,0.0,0.0,508.9011,1025.8608,1048.022,792.5641,713.5897,-0.04949951171875,-0.048095703125,0.98101806640625,3.0206298828125,1.831817626953125,0.545806884765625,0.0,4.0,4.0,4.0,4.0,100.0,event
14:32:14.139,0.0,0.0,0.0,0.0,0.0,0.0,0.0,0.0,0.0,0.0,0.0,0.0,0.0,0.0,0.0,0.0,0.0,0.0,0.0,0.0,792.5641,931.5751,1197.1062,803.0403,821.1722,-0.04949951171875,-0.048095703125,0.98101806640625,3.0206298828125,1.831817626953125,0.545806884765625,0.0,4.0,4.0,4.0,4.0,100.0,event
14:32:14.139,0.0,0.0,0.0,0.0,0.0,0.0,0.0,0.0,0.0,0.0,0.0,0.0,0.0,0.0,0.0,0.0,0.0,0.0,0.0,0.0,983.1502,655.16486,927.9487,806.26373,859.85345,-0.04949951171875,-0.048095703125,0.98101806640625,3.0206298828125,1.831817626953125,0.545806884765625,0.0,4.0,4.0,4.0,4.0,100.0,event
14:32:14.140,0.0,0.0,0.0,0.0,0.0,0.0,0.0,0.0,0.0,0.0,0.0,0.0,0.0,0.0,0.0,0.0,0.0,0.0,0.0,0.0,760.32965,582.23444,671.685,807.47253,880.0,-0.04949951171875,-0.048095703125,0.98101806640625,3.0206298828125,1.831817626953125,0.545806884765625,0.0,4.0,4.0,4.0,4.0,100.0,event
14:32:14.140,0.0,0.0,0.0,0.0,0.0,0.0,0.0,0.0,0.0,0.0,0.0,0.0,0.0,0.0,0.0,0.0,0.0,0.0,0.0,0.0,411.39194,707.1429,643.8828,803.44324,942.0513,-0.04949951171875,-0.048095703125,0.98101806640625,3.0206298828125,1.831817626953125,0.545806884765625,0.0,4.0,4.0,4.0,4.0,100.0,event
14:32:14.141,0.0,0.0,0.0,0.0,0.0,0.0,0.0,0.0,0.0,0.0,0.0,0.0,0.0,0.0,0.0,0.0,0.0,0.0,0.0,0.0,407.36264,745.42126,710.3663,795.78754,952.1245,-0.04949951171875,-0.048095703125,0.98101806640625,3.0206298828125,1.831817626953125,0.545806884765625,0.0,4.0,4.0,4.0,4.0,100.0,event
14:32:14.142,0.0,0.0,0.0,0.0,0.0,0.0,0.0,0.0,0.0,0.0,0.0,0.0,0.0,0.0,0.0,0.0,0.0,0.0,0.0,0.0,655.16486,712.7839,737.76556,805.8608,928.7546,-0.04949951171875,-0.048095703125,0.98101806640625,3.0206298828125,1.831817626953125,0.545806884765625,0.0,4.0,4.0,4.0,4.0,100.0,event
14:32:14.143,0.0,0.0,0.0,0.0,0.0,0.0,0.0,0.0,0.0,0.0,0.0,0.0,0.0,0.0,0.0,0.0,0.0,0.0,0.0,0.0,901.3553,923.1135,991.6117,812.71063,806.6667,-0.04949951171875,-0.048095703125,0.98101806640625,3.0206298828125,1.831817626953125,0.545806884765625,0.0,4.0,4.0,4.0,4.0,100.0,event
14:32:14.143,0.0,0.0,0.0,0.0,0.0,0.0,0.0,0.0,0.0,0.0,0.0,0.0,0.0,0.0,0.0,0.0,0.0,0.0,0.0,0.0,778.46155,909.81683,1048.8279,804.2491,770.0,-0.04949951171875,-0.048095703125,0.98101806640625,3.0206298828125,1.831817626953125,0.545806884765625,0.0,4.0,4.0,4.0,4.0,100.0,event
14:32:14.144,0.0,0.0,0.0,0.0,0.0,0.0,0.0,0.0,0.0,0.0,0.0,0.0,0.0,0.0,0.0,0.0,0.0,0.0,0.0,0.0,415.42123,668.86444,836.4835,798.60803,800.6227,-0.04949951171875,-0.048095703125,0.98101806640625,3.0206298828125,1.831817626953125,0.545806884765625,0.0,4.0,4.0,4.0,4.0,100.0,event
14:32:14.202,0.0,0.0,0.0,0.0,0.0,0.0,0.0,0.0,0.0,0.0,0.0,0.0,0.0,0.0,0.0,0.0,0.0,0.0,0.0,0.0,301.39194,260.29303,359.81686,808.2784,1054.8718,-0.055908203125,-0.0465087890625,0.98907470703125,3.42437744140625,2.803802490234375,-0.231781005859375,0.0,4.0,4.0,4.0,4.0,100.0,event
14:32:14.203,0.0,0.0,0.0,0.0,0.0,0.0,0.0,0.0,0.0,0.0,0.0,0.0,0.0,0.0,0.0,0.0,0.0,0.0,0.0,0.0,585.05493,719.2308,513.3333,816.337,1014.57874,-0.055908203125,-0.0465087890625,0.98907470703125,3.42437744140625,2.803802490234375,-0.231781005859375,0.0,4.0,4.0,4.0,4.0,100.0,event
14:32:14.205,0.0,0.0,0.0,0.0,0.0,0.0,0.0,0.0,0.0,0.0,0.0,0.0,0.0,0.0,0.0,0.0,0.0,0.0,0.0,0.0,933.9927,1231.3553,1149.9634,817.1429,793.36993,-0.055908203125,-0.0465087890625,0.98907470703125,3.42437744140625,2.803802490234375,-0.231781005859375,0.0,4.0,4.0,4.0,4.0,100.0,event
14:32:14.206,0.0,0.0,0.0,0.0,0.0,0.0,0.0,0.0,0.0,0.0,0.0,0.0,0.0,0.0,0.0,0.0,0.0,0.0,0.0,0.0,830.84247,838.0952,1007.72894,810.293,836.8865,-0.055908203125,-0.0465087890625,0.98907470703125,3.42437744140625,2.803802490234375,-0.231781005859375,0.0,4.0,4.0,4.0,4.0,100.0,event
14:32:14.208,0.0,0.0,0.0,0.0,0.0,0.0,0.0,0.0,0.0,0.0,0.0,0.0,0.0,0.0,0.0,0.0,0.0,0.0,0.0,0.0,473.04028,696.6667,745.0183,806.6667,833.2601,-0.055908203125,-0.0465087890625,0.98907470703125,3.42437744140625,2.803802490234375,-0.231781005859375,0.0,4.0,4.0,4.0,4.0,100.0,event
14:32:14.209,0.0,0.0,0.0,0.0,0.0,0.0,0.0,0.0,0.0,0.0,0.0,0.0,0.0,0.0,0.0,0.0,0.0,0.0,0.0,0.0,366.66666,697.8755,729.707,815.12823,785.31134,-0.055908203125,-0.0465087890625,0.98907470703125,3.42437744140625,2.803802490234375,-0.231781005859375,0.0,4.0,4.0,4.0,4.0,100.0,event
14:32:14.210,0.0,0.0,0.0,0.0,0.0,0.0,0.0,0.0,0.0,0.0,0.0,0.0,0.0,0.0,0.0,0.0,0.0,0.0,0.0,0.0,582.6374,800.6227,850.18317,813.91943,751.06226,-0.055908203125,-0.0465087890625,0.98907470703125,3.42437744140625,2.803802490234375,-0.231781005859375,0.0,4.0,4.0,4.0,4.0,100.0,event
14:32:14.212,0.0,0.0,0.0,0.0,0.0,0.0,0.0,0.0,0.0,0.0,0.0,0.0,0.0,0.0,0.0,0.0,0.0,0.0,0.0,0.0,878.3883,725.2747,834.0659,812.71063,875.16486,-0.055908203125,-0.0465087890625,0.98907470703125,3.42437744140625,2.803802490234375,-0.231781005859375,0.0,4.0,4.0,4.0,4.0,100.0,event
14:32:14.216,0.0,0.0,0.0,0.0,0.0,0.0,0.0,0.0,0.0,0.0,0.0,0.0,0.0,0.0,0.0,0.0,0.0,0.0,0.0,0.0,767.98535,420.65933,369.08426,797.8022,1027.8755,-0.055908203125,-0.0465087890625,0.98907470703125,3.42437744140625,2.803802490234375,-0.231781005859375,0.0,4.0,4.0,4.0,4.0,100.0,event
14:32:14.217,0.0,0.0,0.0,0.0,0.0,0.0,0.0,0.0,0.0,0.0,0.0,0.0,0.0,0.0,0.0,0.0,0.0,0.0,0.0,0.0,470.2198,866.7033,591.0989,780.07324,804.65204,-0.055908203125,-0.0465087890625,0.98907470703125,3.42437744140625,2.803802490234375,-0.231781005859375,0.0,4.0,4.0,4.0,4.0,100.0,event
14:32:14.217,0.0,0.0,0.0,0.0,0.0,0.0,0.0,0.0,0.0,0.0,0.0,0.0,0.0,0.0,0.0,0.0,0.0,0.0,0.0,0.0,388.02197,933.5897,854.21246,782.0879,755.89746,-0.055908203125,-0.0465087890625,0.98907470703125,3.42437744140625,2.803802490234375,-0.231781005859375,0.0,4.0,4.0,4.0,4.0,100.0,event
14:32:14.218,0.0,0.0,0.0,0.0,0.0,0.0,0.0,0.0,0.0,0.0,0.0,0.0,0.0,0.0,0.0,0.0,0.0,0.0,0.0,0.0,576.99634,700.696,757.1062,790.9524,836.08057,-0.055908203125,-0.0465087890625,0.98907470703125,3.42437744140625,2.803802490234375,-0.231781005859375,0.0,4.0,4.0,4.0,4.0,100.0,event
14:32:14.240,0.0,0.0,0.0,0.0,0.0,0.0,0.0,0.0,0.0,0.0,0.0,0.0,0.0,0.0,0.0,0.0,0.0,0.0,0.0,0.0,883.6264,897.326,942.4542,803.44324,766.77655,-0.0538330078125,-0.04107666015625,0.98388671875,3.237457275390625,2.714080810546875,-0.35888671875,0.0,4.0,4.0,4.0,4.0,100.0,event
14:32:14.241,0.0,0.0,0.0,0.0,0.0,0.0,0.0,0.0,0.0,0.0,0.0,0.0,0.0,0.0,0.0,0.0,0.0,0.0,0.0,0.0,848.97437,958.97437,1073.0037,790.54944,644.2857,-0.0538330078125,-0.04107666015625,0.98388671875,3.237457275390625,2.714080810546875,-0.35888671875,0.0,4.0,4.0,4.0,4.0,100.0,event
14:32:14.242,0.0,0.0,0.0,0.0,0.0,0.0,0.0,0.0,0.0,0.0,0.0,0.0,0.0,0.0,0.0,0.0,0.0,0.0,0.0,0.0,479.08426,703.91943,810.293,764.7619,625.7509,-0.0538330078125,-0.04107666015625,0.98388671875,3.237457275390625,2.714080810546875,-0.35888671875,0.0,4.0,4.0,4.0,4.0,100.0,event
14:32:14.243,0.0,0.0,0.0,0.0,0.0,0.0,0.0,0.0,0.0,0.0,0.0,0.0,0.0,0.0,0.0,0.0,0.0,0.0,0.0,0.0,284.06595,633.00366,686.1905,766.77655,706.7399,-0.0538330078125,-0.04107666015625,0.98388671875,3.237457275390625,2.714080810546875,-0.35888671875,0.0,4.0,4.0,4.0,4.0,100.0,event
14:32:14.244,0.0,0.0,0.0,0.0,0.0,0.0,0.0,0.0,0.0,0.0,0.0,0.0,0.0,0.0,0.0,0.0,0.0,0.0,0.0,0.0,465.3846,844.1392,952.9304,761.13556,676.1172,-0.0538330078125,-0.04107666015625,0.98388671875,3.237457275390625,2.714080810546875,-0.35888671875,0.0,4.0,4.0,4.0,4.0,100.0,event
14:32:14.246,0.0,0.0,0.0,0.0,0.0,0.0,0.0,0.0,0.0,0.0,0.0,0.0,0.0,0.0,0.0,0.0,0.0,0.0,0.0,0.0,803.8461,842.52747,1006.1172,759.12085,778.0586,-0.0538330078125,-0.04107666015625,0.98388671875,3.237457275390625,2.714080810546875,-0.35888671875,0.0,4.0,4.0,4.0,4.0,100.0,event
14:32:14.247,0.0,0.0,0.0,0.0,0.0,0.0,0.0,0.0,0.0,0.0,0.0,0.0,0.0,0.0,0.0,0.0,0.0,0.0,0.0,0.0,836.4835,634.21246,753.47986,768.3883,911.4286,-0.0538330078125,-0.04107666015625,0.98388671875,3.237457275390625,2.714080810546875,-0.35888671875,0.0,4.0,4.0,4.0,4.0,100.0,event
14:32:14.247,0.0,0.0,0.0,0.0,0.0,0.0,0.0,0.0,0.0,0.0,0.0,0.0,0.0,0.0,0.0,0.0,0.0,0.0,0.0,0.0,497.61905,427.91208,361.02563,755.09155,939.2308,-0.0538330078125,-0.04107666015625,0.98388671875,3.237457275390625,2.714080810546875,-0.35888671875,0.0,4.0,4.0,4.0,4.0,100.0,event
14:32:14.248,0.0,0.0,0.0,0.0,0.0,0.0,0.0,0.0,0.0,0.0,0.0,0.0,0.0,0.0,0.0,0.0,0.0,0.0,0.0,0.0,339.2674,852.6007,633.00366,723.2601,766.77655,-0.0538330078125,-0.04107666015625,0.98388671875,3.237457275390625,2.714080810546875,-0.35888671875,0.0,4.0,4.0,4.0,4.0,100.0,event
14:32:14.249,0.0,0.0,0.0,0.0,0.0,0.0,0.0,0.0,0.0,0.0,0.0,0.0,0.0,0.0,0.0,0.0,0.0,0.0,0.0,0.0,848.1685,854.21246,1115.7142,724.87177,718.4249,-0.0538330078125,-0.04107666015625,0.98388671875,3.237457275390625,2.714080810546875,-0.35888671875,0.0,4.0,4.0,4.0,4.0,100.0,event
14:32:14.249,0.0,0.0,0.0,0.0,0.0,0.0,0.0,0.0,0.0,0.0,0.0,0.0,0.0,0.0,0.0,0.0,0.0,0.0,0.0,0.0,527.03296,1164.4689,1164.4689,716.8132,651.13556,-0.0538330078125,-0.04107666015625,0.98388671875,3.237457275390625,2.714080810546875,-0.35888671875,0.0,4.0,4.0,4.0,4.0,100.0,event
14:32:14.250,0.0,0.0,0.0,0.0,0.0,0.0,0.0,0.0,0.0,0.0,0.0,0.0,0.0,0.0,0.0,0.0,0.0,0.0,0.0,0.0,935.6044,396.88644,558.0586,724.4689,946.4835,-0.0538330078125,-0.04107666015625,0.98388671875,3.237457275390625,2.714080810546875,-0.35888671875,0.0,4.0,4.0,4.0,4.0,100.0,event
14:32:14.287,0.0,0.0,0.0,0.0,0.0,0.0,0.0,0.0,0.0,0.0,0.0,0.0,0.0,0.0,0.0,0.0,0.0,0.0,0.0,0.0,670.4762,713.1868,522.6007,706.337,813.1135,-0.07147216796875,-0.037109375,0.991455078125,3.42437744140625,3.087921142578125,0.665435791015625,0.0,4.0,4.0,4.0,4.0,100.0,event
14:32:14.289,0.0,0.0,0.0,0.0,0.0,0.0,0.0,0.0,0.0,0.0,0.0,0.0,0.0,0.0,0.0,0.0,0.0,0.0,0.0,0.0,438.7912,916.26373,715.2015,692.6374,635.0183,-0.07147216796875,-0.037109375,0.991455078125,3.42437744140625,3.087921142578125,0.665435791015625,0.0,4.0,4.0,4.0,4.0,100.0,event
14:32:14.290,0.0,0.0,0.0,0.0,0.0,0.0,0.0,0.0,0.0,0.0,0.0,0.0,0.0,0.0,0.0,0.0,0.0,0.0,0.0,0.0,470.6227,785.7143,701.0989,686.99634,757.9121,-0.07147216796875,-0.037109375,0.991455078125,3.42437744140625,3.087921142578125,0.665435791015625,0.0,4.0,4.0,4.0,4.0,100.0,event
14:32:14.291,0.0,0.0,0.0,0.0,0.0,0.0,0.0,0.0,0.0,0.0,0.0,0.0,0.0,0.0,0.0,0.0,0.0,0.0,0.0,0.0,751.06226,894.90845,831.2454,705.12823,845.7509,-0.07147216796875,-0.037109375,0.991455078125,3.42437744140625,3.087921142578125,0.665435791015625,0.0,4.0,4.0,4.0,4.0,100.0,event
14:32:14.293,0.0,0.0,0.0,0.0,0.0,0.0,0.0,0.0,0.0,0.0,0.0,0.0,0.0,0.0,0.0,0.0,0.0,0.0,0.0,0.0,919.89014,970.65936,1011.75824,730.5128,749.0476,-0.07147216796875,-0.037109375,0.991455078125,3.42437744140625,3.087921142578125,0.665435791015625,0.0,4.0,4.0,4.0,4.0,100.0,event
14:32:14.294,0.0,0.0,0.0,0.0,0.0,0.0,0.0,0.0,0.0,0.0,0.0,0.0,0.0,0.0,0.0,0.0,0.0,0.0,0.0,0.0,616.4835,753.8828,789.7436,710.3663,730.10986,-0.07147216796875,-0.037109375,0.991455078125,3.42437744140625,3.087921142578125,0.665435791015625,0.0,4.0,4.0,4.0,4.0,100.0,event
14:32:14.296,0.0,0.0,0.0,0.0,0.0,0.0,0.0,0.0,0.0,0.0,0.0,0.0,0.0,0.0,0.0,0.0,0.0,0.0,0.0,0.0,271.97803,567.72894,480.29303,699.89014,864.68866,-0.07147216796875,-0.037109375,0.991455078125,3.42437744140625,3.087921142578125,0.665435791015625,0.0,4.0,4.0,4.0,4.0,100.0,event
14:32:14.297,0.0,0.0,0.0,0.0,0.0,0.0,0.0,0.0,0.0,0.0,0.0,0.0,0.0,0.0,0.0,0.0,0.0,0.0,0.0,0.0,331.2088,527.8388,315.09158,718.4249,1014.57874,-0.07147216796875,-0.037109375,0.991455078125,3.42437744140625,3.087921142578125,0.665435791015625,0.0,4.0,4.0,4.0,4.0,100.0,event
14:32:14.298,0.0,0.0,0.0,0.0,0.0,0.0,0.0,0.0,0.0,0.0,0.0,0.0,0.0,0.0,0.0,0.0,0.0,0.0,0.0,0.0,718.8278,1124.9817,909.41394,728.9011,801.02563,-0.07147216796875,-0.037109375,0.991455078125,3.42437744140625,3.087921142578125,0.665435791015625,0.0,4.0,4.0,4.0,4.0,100.0,event
14:32:14.300,0.0,0.0,0.0,0.0,0.0,0.0,0.0,0.0,0.0,0.0,0.0,0.0,0.0,0.0,0.0,0.0,0.0,0.0,0.0,0.0,973.0769,1151.5751,1241.0256,745.82416,717.619,-0.07147216796875,-0.037109375,0.991455078125,3.42437744140625,3.087921142578125,0.665435791015625,0.0,4.0,4.0,4.0,4.0,100.0,event
14:32:14.304,0.0,0.0,0.0,0.0,0.0,0.0,0.0,0.0,0.0,0.0,0.0,0.0,0.0,0.0,0.0,0.0,0.0,0.0,0.0,0.0,777.6557,636.2271,817.5458,747.03296,769.59705,-0.07147216796875,-0.037109375,0.991455078125,3.42437744140625,3.087921142578125,0.665435791015625,0.0,4.0,4.0,4.0,4.0,100.0,event
14:32:14.305,0.0,0.0,0.0,0.0,0.0,0.0,0.0,0.0,0.0,0.0,0.0,0.0,0.0,0.0,0.0,0.0,0.0,0.0,0.0,0.0,474.24908,740.989,794.57874,750.2564,701.50183,-0.07147216796875,-0.037109375,0.991455078125,3.42437744140625,3.087921142578125,0.665435791015625,0.0,4.0,4.0,4.0,4.0,100.0,event
14:32:14.346,0.0,0.0,0.0,0.0,0.0,0.0,0.0,0.0,0.0,0.0,0.0,0.0,0.0,0.0,0.0,0.0,0.0,0.0,0.0,0.0,479.08426,972.674,1075.0183,761.13556,632.6007,-0.07147216796875,-0.037109375,0.991455078125,3.42437744140625,3.087921142578125,0.665435791015625,0.0,4.0,4.0,4.0,4.0,100.0,event
14:32:14.347,0.0,0.0,0.0,0.0,0.0,0.0,0.0,0.0,0.0,0.0,0.0,0.0,0.0,0.0,0.0,0.0,0.0,0.0,0.0,0.0,729.304,891.28204,1146.337,777.25275,686.99634,-0.07147216796875,-0.037109375,0.991455078125,3.42437744140625,3.087921142578125,0.665435791015625,0.0,4.0,4.0,4.0,4.0,100.0,event
14:32:14.348,0.0,0.0,0.0,0.0,0.0,0.0,0.0,0.0,0.0,0.0,0.0,0.0,0.0,0.0,0.0,0.0,0.0,0.0,0.0,0.0,979.5238,668.0586,940.0366,788.5348,789.7436,-0.07147216796875,-0.037109375,0.991455078125,3.42437744140625,3.087921142578125,0.665435791015625,0.0,4.0,4.0,4.0,4.0,100.0,event
14:32:14.350,0.0,0.0,0.0,0.0,0.0,0.0,0.0,0.0,0.0,0.0,0.0,0.0,0.0,0.0,0.0,0.0,0.0,0.0,0.0,0.0,807.47253,696.6667,823.5897,780.87915,756.30035,-0.07147216796875,-0.037109375,0.991455078125,3.42437744140625,3.087921142578125,0.665435791015625,0.0,4.0,4.0,4.0,4.0,100.0,event
14:32:14.351,0.0,0.0,0.0,0.0,0.0,0.0,0.0,0.0,0.0,0.0,0.0,0.0,0.0,0.0,0.0,0.0,0.0,0.0,0.0,0.0,453.69965,667.6557,676.9231,788.5348,756.30035,-0.07147216796875,-0.037109375,0.991455078125,3.42437744140625,3.087921142578125,0.665435791015625,0.0,4.0,4.0,4.0,4.0,100.0,event
14:32:14.352,0.0,0.0,0.0,0.0,0.0,0.0,0.0,0.0,0.0,0.0,0.0,0.0,0.0,0.0,0.0,0.0,0.0,0.0,0.0,0.0,425.89743,723.663,694.2491,796.99634,748.6447,-0.07147216796875,-0.037109375,0.991455078125,3.42437744140625,3.087921142578125,0.665435791015625,0.0,4.0,4.0,4.0,4.0,100.0,event
14:32:14.353,0.0,0.0,0.0,0.0,0.0,0.0,0.0,0.0,0.0,0.0,0.0,0.0,0.0,0.0,0.0,0.0,0.0,0.0,0.0,0.0,673.2967,480.29303,528.6447,805.8608,1062.5275,-0.07147216796875,-0.037109375,0.991455078125,3.42437744140625,3.087921142578125,0.665435791015625,0.0,4.0,4.0,4.0,4.0,100.0,event
14:32:14.354,0.0,0.0,0.0,0.0,0.0,0.0,0.0,0.0,0.0,0.0,0.0,0.0,0.0,0.0,0.0,0.0,0.0,0.0,0.0,0.0,963.4066,445.64102,268.35165,830.0366,1210.8059,-0.07147216796875,-0.037109375,0.991455078125,3.42437744140625,3.087921142578125,0.665435791015625,0.0,4.0,4.0,4.0,4.0,100.0,event
14:32:14.355,0.0,0.0,0.0,0.0,0.0,0.0,0.0,0.0,0.0,0.0,0.0,0.0,0.0,0.0,0.0,0.0,0.0,0.0,0.0,0.0,884.83514,1086.7032,706.337,817.9487,781.685,-0.07147216796875,-0.037109375,0.991455078125,3.42437744140625,3.087921142578125,0.665435791015625,0.0,4.0,4.0,4.0,4.0,100.0,event
14:32:14.356,0.0,0.0,0.0,0.0,0.0,0.0,0.0,0.0,0.0,0.0,0.0,0.0,0.0,0.0,0.0,0.0,0.0,0.0,0.0,0.0,543.95605,991.2088,822.381,797.8022,627.3626,-0.07147216796875,-0.037109375,0.991455078125,3.42437744140625,3.087921142578125,0.665435791015625,0.0,4.0,4.0,4.0,4.0,100.0,event
14:32:14.357,0.0,0.0,0.0,0.0,0.0,0.0,0.0,0.0,0.0,0.0,0.0,0.0,0.0,0.0,0.0,0.0,0.0,0.0,0.0,0.0,475.05493,815.12823,799.81683,805.05493,705.9341,-0.07147216796875,-0.037109375,0.991455078125,3.42437744140625,3.087921142578125,0.665435791015625,0.0,4.0,4.0,4.0,4.0,100.0,event
14:32:14.357,0.0,0.0,0.0,0.0,0.0,0.0,0.0,0.0,0.0,0.0,0.0,0.0,0.0,0.0,0.0,0.0,0.0,0.0,0.0,0.0,740.58606,992.4176,1109.2675,813.91943,676.1172,-0.07147216796875,-0.037109375,0.991455078125,3.42437744140625,3.087921142578125,0.665435791015625,0.0,4.0,4.0,4.0,4.0,100.0,event
14:32:14.395,0.0,0.0,0.0,0.0,0.0,0.0,0.0,0.0,0.0,0.0,0.0,0.0,0.0,0.0,0.0,0.0,0.0,0.0,0.0,0.0,1065.348,925.12823,1211.6117,823.1868,662.8205,-0.07891845703125,-0.039794921875,0.98583984375,3.058013916015625,2.684173583984375,0.829925537109375,0.0,4.0,4.0,4.0,4.0,100.0,event
14:32:14.396,0.0,0.0,0.0,0.0,0.0,0.0,0.0,0.0,0.0,0.0,0.0,0.0,0.0,0.0,0.0,0.0,0.0,0.0,0.0,0.0,994.43225,676.9231,948.9011,824.7985,724.87177,-0.07891845703125,-0.039794921875,0.98583984375,3.058013916015625,2.684173583984375,0.829925537109375,0.0,4.0,4.0,4.0,4.0,100.0,event
14:32:14.397,0.0,0.0,0.0,0.0,0.0,0.0,0.0,0.0,0.0,0.0,0.0,0.0,0.0,0.0,0.0,0.0,0.0,0.0,0.0,0.0,610.4396,647.1062,718.4249,805.4579,749.85345,-0.07891845703125,-0.039794921875,0.98583984375,3.058013916015625,2.684173583984375,0.829925537109375,0.0,4.0,4.0,4.0,4.0,100.0,event
14:32:14.397,0.0,0.0,0.0,0.0,0.0,0.0,0.0,0.0,0.0,0.0,0.0,0.0,0.0,0.0,0.0,0.0,0.0,0.0,0.0,0.0,442.01465,854.61536,913.0403,792.96704,684.57874,-0.07891845703125,-0.039794921875,0.98583984375,3.058013916015625,2.684173583984375,0.829925537109375,0.0,4.0,4.0,4.0,4.0,100.0,event
14:32:14.398,0.0,0.0,0.0,0.0,0.0,0.0,0.0,0.0,0.0,0.0,0.0,0.0,0.0,0.0,0.0,0.0,0.0,0.0,0.0,0.0,666.8498,901.75824,1115.7142,792.96704,673.69965,-0.07891845703125,-0.039794921875,0.98583984375,3.058013916015625,2.684173583984375,0.829925537109375,0.0,4.0,4.0,4.0,4.0,100.0,event
14:32:14.399,0.0,0.0,0.0,0.0,0.0,0.0,0.0,0.0,0.0,0.0,0.0,0.0,0.0,0.0,0.0,0.0,0.0,0.0,0.0,0.0,1021.8315,676.52014,924.3223,794.17584,873.95605,-0.07891845703125,-0.039794921875,0.98583984375,3.058013916015625,2.684173583984375,0.829925537109375,0.0,4.0,4.0,4.0,4.0,100.0,event
14:32:14.399,0.0,0.0,0.0,0.0,0.0,0.0,0.0,0.0,0.0,0.0,0.0,0.0,0.0,0.0,0.0,0.0,0.0,0.0,0.0,0.0,1040.7693,560.87915,580.2198,765.9707,1007.72894,-0.07891845703125,-0.039794921875,0.98583984375,3.058013916015625,2.684173583984375,0.829925537109375,0.0,4.0,4.0,4.0,4.0,100.0,event
14:32:14.400,0.0,0.0,0.0,0.0,0.0,0.0,0.0,0.0,0.0,0.0,0.0,0.0,0.0,0.0,0.0,0.0,0.0,0.0,0.0,0.0,693.8461,762.74725,565.31134,738.97437,917.47253,-0.07891845703125,-0.039794921875,0.98583984375,3.058013916015625,2.684173583984375,0.829925537109375,0.0,4.0,4.0,4.0,4.0,100.0,event
14:32:14.400,0.0,0.0,0.0,0.0,0.0,0.0,0.0,0.0,0.0,0.0,0.0,0.0,0.0,0.0,0.0,0.0,0.0,0.0,0.0,0.0,459.34067,1033.9194,908.60803,736.1539,785.7143,-0.07891845703125,-0.039794921875,0.98583984375,3.058013916015625,2.684173583984375,0.829925537109375,0.0,4.0,4.0,4.0,4.0,100.0,event
14:32:14.401,0.0,0.0,0.0,0.0,0.0,0.0,0.0,0.0,0.0,0.0,0.0,0.0,0.0,0.0,0.0,0.0,0.0,0.0,0.0,0.0,579.41394,774.43225,880.0,725.2747,839.304,-0.07891845703125,-0.039794921875,0.98583984375,3.058013916015625,2.684173583984375,0.829925537109375,0.0,4.0,4.0,4.0,4.0,100.0,event
14:32:14.402,0.0,0.0,0.0,0.0,0.0,0.0,0.0,0.0,0.0,0.0,0.0,0.0,0.0,0.0,0.0,0.0,0.0,0.0,0.0,0.0,871.13556,538.315,535.09155,709.5604,1064.9451,-0.07891845703125,-0.039794921875,0.98583984375,3.058013916015625,2.684173583984375,0.829925537109375,0.0,4.0,4.0,4.0,4.0,100.0,event
14:32:14.402,0.0,0.0,0.0,0.0,0.0,0.0,0.0,0.0,0.0,0.0,0.0,0.0,0.0,0.0,0.0,0.0,0.0,0.0,0.0,0.0,980.32965,1043.9927,882.4176,698.2784,844.5421,-0.07891845703125,-0.039794921875,0.98583984375,3.058013916015625,2.684173583984375,0.829925537109375,0.0,4.0,4.0,4.0,4.0,100.0,event
14:32:14.448,0.0,0.0,0.0,0.0,0.0,0.0,0.0,0.0,0.0,0.0,0.0,0.0,0.0,0.0,0.0,0.0,0.0,0.0,0.0,0.0,612.8571,955.7509,911.02563,697.47253,670.4762,-0.0911865234375,-0.039794921875,0.984130859375,3.0804443359375,-0.246734619140625,0.650482177734375,0.0,4.0,4.0,4.0,4.0,100.0,event
14:32:14.449,0.0,0.0,0.0,0.0,0.0,0.0,0.0,0.0,0.0,0.0,0.0,0.0,0.0,0.0,0.0,0.0,0.0,0.0,0.0,0.0,360.2198,700.293,695.8608,691.02563,752.27106,-0.0911865234375,-0.039794921875,0.984130859375,3.0804443359375,-0.246734619140625,0.650482177734375,0.0,4.0,4.0,4.0,4.0,100.0,event
14:32:14.450,0.0,0.0,0.0,0.0,0.0,0.0,0.0,0.0,0.0,0.0,0.0,0.0,0.0,0.0,0.0,0.0,0.0,0.0,0.0,0.0,537.50916,921.9048,957.76556,687.3993,750.2564,-0.0911865234375,-0.039794921875,0.984130859375,3.0804443359375,-0.246734619140625,0.650482177734375,0.0,4.0,4.0,4.0,4.0,100.0,event
14:32:14.451,0.0,0.0,0.0,0.0,0.0,0.0,0.0,0.0,0.0,0.0,0.0,0.0,0.0,0.0,0.0,0.0,0.0,0.0,0.0,0.0,922.3077,1046.0073,1224.5055,708.7546,742.6007,-0.0911865234375,-0.039794921875,0.984130859375,3.0804443359375,-0.246734619140625,0.650482177734375,0.0,4.0,4.0,4.0,4.0,100.0,event
14:32:14.453,0.0,0.0,0.0,0.0,0.0,0.0,0.0,0.0,0.0,0.0,0.0,0.0,0.0,0.0,0.0,0.0,0.0,0.0,0.0,0.0,1023.44324,811.0989,1062.9304,711.5751,778.86444,-0.0911865234375,-0.039794921875,0.984130859375,3.0804443359375,-0.246734619140625,0.650482177734375,0.0,4.0,4.0,4.0,4.0,100.0,event
14:32:14.454,0.0,0.0,0.0,0.0,0.0,0.0,0.0,0.0,0.0,0.0,0.0,0.0,0.0,0.0,0.0,0.0,0.0,0.0,0.0,0.0,678.5348,452.89377,551.6117,693.44324,879.19415,-0.0911865234375,-0.039794921875,0.984130859375,3.0804443359375,-0.246734619140625,0.650482177734375,0.0,4.0,4.0,4.0,4.0,100.0,event
14:32:14.455,0.0,0.0,0.0,0.0,0.0,0.0,0.0,0.0,0.0,0.0,0.0,0.0,0.0,0.0,0.0,0.0,0.0,0.0,0.0,0.0,450.87912,637.8388,495.6044,685.78754,890.4762,-0.0911865234375,-0.039794921875,0.984130859375,3.0804443359375,-0.246734619140625,0.650482177734375,0.0,4.0,4.0,4.0,4.0,100.0,event
14:32:14.456,0.0,0.0,0.0,0.0,0.0,0.0,0.0,0.0,0.0,0.0,0.0,0.0,0.0,0.0,0.0,0.0,0.0,0.0,0.0,0.0,606.4103,1040.7693,915.8608,693.44324,724.4689,-0.0911865234375,-0.039794921875,0.984130859375,3.0804443359375,-0.246734619140625,0.650482177734375,0.0,4.0,4.0,4.0,4.0,100.0,event
14:32:14.457,0.0,0.0,0.0,0.0,0.0,0.0,0.0,0.0,0.0,0.0,0.0,0.0,0.0,0.0,0.0,0.0,0.0,0.0,0.0,0.0,990.40295,963.8095,1080.2565,718.4249,681.3553,-0.0911865234375,-0.039794921875,0.984130859375,3.0804443359375,-0.246734619140625,0.650482177734375,0.0,4.0,4.0,4.0,4.0,100.0,event
14:32:14.457,0.0,0.0,0.0,0.0,0.0,0.0,0.0,0.0,0.0,0.0,0.0,0.0,0.0,0.0,0.0,0.0,0.0,0.0,0.0,0.0,1106.8499,408.1685,547.1795,732.52747,913.8461,-0.0911865234375,-0.039794921875,0.984130859375,3.0804443359375,-0.246734619140625,0.650482177734375,0.0,4.0,4.0,4.0,4.0,100.0,event
14:32:14.458,0.0,0.0,0.0,0.0,0.0,0.0,0.0,0.0,0.0,0.0,0.0,0.0,0.0,0.0,0.0,0.0,0.0,0.0,0.0,0.0,813.91943,630.18317,359.81686,713.5897,889.67035,-0.0911865234375,-0.039794921875,0.984130859375,3.0804443359375,-0.246734619140625,0.650482177734375,0.0,4.0,4.0,4.0,4.0,100.0,event
14:32:14.458,0.0,0.0,0.0,0.0,0.0,0.0,0.0,0.0,0.0,0.0,0.0,0.0,0.0,0.0,0.0,0.0,0.0,0.0,0.0,0.0,623.73627,1137.0696,842.52747,722.8571,753.8828,-0.0911865234375,-0.039794921875,0.984130859375,3.0804443359375,-0.246734619140625,0.650482177734375,0.0,4.0,4.0,4.0,4.0,100.0,event
14:32:14.490,0.0,0.0,0.0,0.0,0.0,0.0,0.0,0.0,0.0,0.0,0.0,0.0,0.0,0.0,0.0,0.0,0.0,0.0,0.0,0.0,751.4652,925.5311,1001.28204,748.6447,789.7436,-0.08984375,-0.03594970703125,0.98760986328125,2.51220703125,-1.54022216796875,2.04864501953125,0.0,4.0,4.0,4.0,4.0,100.0,event
14:32:14.492,0.0,0.0,0.0,0.0,0.0,0.0,0.0,0.0,0.0,0.0,0.0,0.0,0.0,0.0,0.0,0.0,0.0,0.0,0.0,0.0,1000.07324,674.5055,785.7143,765.56775,818.3516,-0.08984375,-0.03594970703125,0.98760986328125,2.51220703125,-1.54022216796875,2.04864501953125,0.0,4.0,4.0,4.0,4.0,100.0,event
14:32:14.493,0.0,0.0,0.0,0.0,0.0,0.0,0.0,0.0,0.0,0.0,0.0,0.0,0.0,0.0,0.0,0.0,0.0,0.0,0.0,0.0,1165.2748,941.2454,999.67035,785.7143,787.326,-0.08984375,-0.03594970703125,0.98760986328125,2.51220703125,-1.54022216796875,2.04864501953125,0.0,4.0,4.0,4.0,4.0,100.0,event
14:32:14.495,0.0,0.0,0.0,0.0,0.0,0.0,0.0,0.0,0.0,0.0,0.0,0.0,0.0,0.0,0.0,0.0,0.0,0.0,0.0,0.0,907.8022,871.9414,991.6117,780.4762,739.7802,-0.08984375,-0.03594970703125,0.98760986328125,2.51220703125,-1.54022216796875,2.04864501953125,0.0,4.0,4.0,4.0,4.0,100.0,event
14:32:14.496,0.0,0.0,0.0,0.0,0.0,0.0,0.0,0.0,0.0,0.0,0.0,0.0,0.0,0.0,0.0,0.0,0.0,0.0,0.0,0.0,555.2381,641.8681,747.8388,773.6264,716.0073,-0.08984375,-0.03594970703125,0.98760986328125,2.51220703125,-1.54022216796875,2.04864501953125,0.0,4.0,4.0,4.0,4.0,100.0,event
14:32:14.497,0.0,0.0,0.0,0.0,0.0,0.0,0.0,0.0,0.0,0.0,0.0,0.0,0.0,0.0,0.0,0.0,0.0,0.0,0.0,0.0,588.2784,662.4176,702.3077,799.81683,835.6777,-0.08984375,-0.03594970703125,0.98760986328125,2.51220703125,-1.54022216796875,2.04864501953125,0.0,4.0,4.0,4.0,4.0,100.0,event
14:32:14.499,0.0,0.0,0.0,0.0,0.0,0.0,0.0,0.0,0.0,0.0,0.0,0.0,0.0,0.0,0.0,0.0,0.0,0.0,0.0,0.0,824.7985,798.20514,832.0513,812.3077,858.24176,-0.08984375,-0.03594970703125,0.98760986328125,2.51220703125,-1.54022216796875,2.04864501953125,0.0,4.0,4.0,4.0,4.0,100.0,event
14:32:14.500,0.0,0.0,0.0,0.0,0.0,0.0,0.0,0.0,0.0,0.0,0.0,0.0,0.0,0.0,0.0,0.0,0.0,0.0,0.0,0.0,1152.7839,957.76556,1064.5421,804.65204,752.27106,-0.08984375,-0.03594970703125,0.98760986328125,2.51220703125,-1.54022216796875,2.04864501953125,0.0,4.0,4.0,4.0,4.0,100.0,event
14:32:14.501,0.0,0.0,0.0,0.0,0.0,0.0,0.0,0.0,0.0,0.0,0.0,0.0,0.0,0.0,0.0,0.0,0.0,0.0,0.0,0.0,772.8205,557.6557,724.4689,816.7399,788.93774,-0.08984375,-0.03594970703125,0.98760986328125,2.51220703125,-1.54022216796875,2.04864501953125,0.0,4.0,4.0,4.0,4.0,100.0,event
14:32:14.502,0.0,0.0,0.0,0.0,0.0,0.0,0.0,0.0,0.0,0.0,0.0,0.0,0.0,0.0,0.0,0.0,0.0,0.0,0.0,0.0,91.86813,259.08426,141.42857,826.0073,915.8608,-0.08984375,-0.03594970703125,0.98760986328125,2.51220703125,-1.54022216796875,2.04864501953125,0.0,4.0,4.0,4.0,4.0,100.0,event
14:32:14.502,0.0,0.0,0.0,0.0,0.0,0.0,0.0,0.0,0.0,0.0,0.0,0.0,0.0,0.0,0.0,0.0,0.0,0.0,0.0,0.0,198.64468,992.4176,691.8315,821.5751,697.0696,-0.08984375,-0.03594970703125,0.98760986328125,2.51220703125,-1.54022216796875,2.04864501953125,0.0,4.0,4.0,4.0,4.0,100.0,event
14:32:14.503,0.0,0.0,0.0,0.0,0.0,0.0,0.0,0.0,0.0,0.0,0.0,0.0,0.0,0.0,0.0,0.0,0.0,0.0,0.0,0.0,690.2198,1115.7142,1163.663,847.3626,666.4469,-0.08984375,-0.03594970703125,0.98760986328125,2.51220703125,-1.54022216796875,2.04864501953125,0.0,4.0,4.0,4.0,4.0,100.0,event
14:32:14.528,0.0,0.0,0.0,0.0,0.0,0.0,0.0,0.0,0.0,0.0,0.0,0.0,0.0,0.0,0.0,0.0,0.0,0.0,0.0,0.0,951.7216,717.619,960.58606,872.74725,809.89014,-0.09649658203125,-0.0379638671875,0.97686767578125,1.68975830078125,-5.33843994140625,0.964508056640625,0.0,4.0,4.0,4.0,4.0,100.0,event
14:32:14.529,0.0,0.0,0.0,0.0,0.0,0.0,0.0,0.0,0.0,0.0,0.0,0.0,0.0,0.0,0.0,0.0,0.0,0.0,0.0,0.0,855.0183,631.79486,769.19415,862.674,833.2601,-0.09649658203125,-0.0379638671875,0.97686767578125,1.68975830078125,-5.33843994140625,0.964508056640625,0.0,4.0,4.0,4.0,4.0,100.0,event
14:32:14.534,0.0,0.0,0.0,0.0,0.0,0.0,0.0,0.0,0.0,0.0,0.0,0.0,0.0,0.0,0.0,0.0,0.0,0.0,0.0,0.0,636.2271,734.1392,757.50916,845.7509,788.93774,-0.09649658203125,-0.0379638671875,0.97686767578125,1.68975830078125,-5.33843994140625,0.964508056640625,0.0,4.0,4.0,4.0,4.0,100.0,event
14:32:14.535,0.0,0.0,0.0,0.0,0.0,0.0,0.0,0.0,0.0,0.0,0.0,0.0,0.0,0.0,0.0,0.0,0.0,0.0,0.0,0.0,542.74725,849.7802,976.7033,863.47986,734.94507,-0.09649658203125,-0.0379638671875,0.97686767578125,1.68975830078125,-5.33843994140625,0.964508056640625,0.0,4.0,4.0,4.0,4.0,100.0,event
14:32:14.536,0.0,0.0,0.0,0.0,0.0,0.0,0.0,0.0,0.0,0.0,0.0,0.0,0.0,0.0,0.0,0.0,0.0,0.0,0.0,0.0,778.86444,588.68134,860.65936,888.0586,913.44324,-0.09649658203125,-0.0379638671875,0.97686767578125,1.68975830078125,-5.33843994140625,0.964508056640625,0.0,4.0,4.0,4.0,4.0,100.0,event
14:32:14.536,0.0,0.0,0.0,0.0,0.0,0.0,0.0,0.0,0.0,0.0,0.0,0.0,0.0,0.0,0.0,0.0,0.0,0.0,0.0,0.0,1140.2931,606.4103,734.1392,898.5348,990.80585,-0.09649658203125,-0.0379638671875,0.97686767578125,1.68975830078125,-5.33843994140625,0.964508056640625,0.0,4.0,4.0,4.0,4.0,100.0,event
14:32:14.538,0.0,0.0,0.0,0.0,0.0,0.0,0.0,0.0,0.0,0.0,0.0,0.0,0.0,0.0,0.0,0.0,0.0,0.0,0.0,0.0,1081.0623,791.3553,772.01465,892.0879,875.16486,-0.09649658203125,-0.0379638671875,0.97686767578125,1.68975830078125,-5.33843994140625,0.964508056640625,0.0,4.0,4.0,4.0,4.0,100.0,event
14:32:14.539,0.0,0.0,0.0,0.0,0.0,0.0,0.0,0.0,0.0,0.0,0.0,0.0,0.0,0.0,0.0,0.0,0.0,0.0,0.0,0.0,832.0513,793.36993,826.0073,865.4945,789.7436,-0.09649658203125,-0.0379638671875,0.97686767578125,1.68975830078125,-5.33843994140625,0.964508056640625,0.0,4.0,4.0,4.0,4.0,100.0,event
14:32:14.540,0.0,0.0,0.0,0.0,0.0,0.0,0.0,0.0,0.0,0.0,0.0,0.0,0.0,0.0,0.0,0.0,0.0,0.0,0.0,0.0,751.06226,437.17947,522.1978,876.3736,982.3443,-0.09649658203125,-0.0379638671875,0.97686767578125,1.68975830078125,-5.33843994140625,0.964508056640625,0.0,4.0,4.0,4.0,4.0,100.0,event
14:32:14.541,0.0,0.0,0.0,0.0,0.0,0.0,0.0,0.0,0.0,0.0,0.0,0.0,0.0,0.0,0.0,0.0,0.0,0.0,0.0,0.0,977.50916,840.10986,741.39197,892.8938,1012.1612,-0.09649658203125,-0.0379638671875,0.97686767578125,1.68975830078125,-5.33843994140625,0.964508056640625,0.0,4.0,4.0,4.0,4.0,100.0,event
14:32:14.542,0.0,0.0,0.0,0.0,0.0,0.0,0.0,0.0,0.0,0.0,0.0,0.0,0.0,0.0,0.0,0.0,0.0,0.0,0.0,0.0,1298.6447,1178.9744,1281.7216,899.7436,832.8571,-0.09649658203125,-0.0379638671875,0.97686767578125,1.68975830078125,-5.33843994140625,0.964508056640625,0.0,4.0,4.0,4.0,4.0,100.0,event
14:32:14.543,0.0,0.0,0.0,0.0,0.0,0.0,0.0,0.0,0.0,0.0,0.0,0.0,0.0,0.0,0.0,0.0,0.0,0.0,0.0,0.0,1248.6813,661.6117,907.3993,896.52014,862.27106,-0.09649658203125,-0.0379638671875,0.97686767578125,1.68975830078125,-5.33843994140625,0.964508056640625,0.0,4.0,4.0,4.0,4.0,100.0,event
14:32:14.575,0.0,0.0,0.0,0.0,0.0,0.0,0.0,0.0,0.0,0.0,0.0,0.0,0.0,0.0,0.0,0.0,0.0,0.0,0.0,0.0,893.2967,629.7802,665.2381,879.19415,832.0513,-0.09649658203125,-0.0379638671875,0.97686767578125,1.68975830078125,-5.33843994140625,0.964508056640625,0.0,4.0,4.0,4.0,4.0,100.0,event
14:32:14.576,0.0,0.0,0.0,0.0,0.0,0.0,0.0,0.0,0.0,0.0,0.0,0.0,0.0,0.0,0.0,0.0,0.0,0.0,0.0,0.0,751.4652,904.9817,964.61536,878.3883,708.7546,-0.09649658203125,-0.0379638671875,0.97686767578125,1.68975830078125,-5.33843994140625,0.964508056640625,0.0,4.0,4.0,4.0,4.0,100.0,event
14:32:14.576,0.0,0.0,0.0,0.0,0.0,0.0,0.0,0.0,0.0,0.0,0.0,0.0,0.0,0.0,0.0,0.0,0.0,0.0,0.0,0.0,1041.978,934.3956,1190.2565,892.0879,709.5604,-0.09649658203125,-0.0379638671875,0.97686767578125,1.68975830078125,-5.33843994140625,0.964508056640625,0.0,4.0,4.0,4.0,4.0,100.0,event
14:32:14.577,0.0,0.0,0.0,0.0,0.0,0.0,0.0,0.0,0.0,0.0,0.0,0.0,0.0,0.0,0.0,0.0,0.0,0.0,0.0,0.0,1380.0366,620.9158,821.1722,920.696,797.8022,-0.09649658203125,-0.0379638671875,0.97686767578125,1.68975830078125,-5.33843994140625,0.964508056640625,0.0,4.0,4.0,4.0,4.0,100.0,event
14:32:14.577,0.0,0.0,0.0,0.0,0.0,0.0,0.0,0.0,0.0,0.0,0.0,0.0,0.0,0.0,0.0,0.0,0.0,0.0,0.0,0.0,1474.7252,769.59705,1120.1465,907.8022,745.42126,-0.09649658203125,-0.0379638671875,0.97686767578125,1.68975830078125,-5.33843994140625,0.964508056640625,0.0,4.0,4.0,4.0,4.0,100.0,event
14:32:14.578,0.0,0.0,0.0,0.0,0.0,0.0,0.0,0.0,0.0,0.0,0.0,0.0,0.0,0.0,0.0,0.0,0.0,0.0,0.0,0.0,979.92676,603.1868,619.304,902.1612,879.19415,-0.09649658203125,-0.0379638671875,0.97686767578125,1.68975830078125,-5.33843994140625,0.964508056640625,0.0,4.0,4.0,4.0,4.0,100.0,event
14:32:14.578,0.0,0.0,0.0,0.0,0.0,0.0,0.0,0.0,0.0,0.0,0.0,0.0,0.0,0.0,0.0,0.0,0.0,0.0,0.0,0.0,798.20514,745.82416,699.89014,872.74725,848.5714,-0.09649658203125,-0.0379638671875,0.97686767578125,1.68975830078125,-5.33843994140625,0.964508056640625,0.0,4.0,4.0,4.0,4.0,100.0,event
14:32:14.579,0.0,0.0,0.0,0.0,0.0,0.0,0.0,0.0,0.0,0.0,0.0,0.0,0.0,0.0,0.0,0.0,0.0,0.0,0.0,0.0,918.2784,702.71063,735.34796,890.4762,834.4689,-0.09649658203125,-0.0379638671875,0.97686767578125,1.68975830078125,-5.33843994140625,0.964508056640625,0.0,4.0,4.0,4.0,4.0,100.0,event
14:32:14.580,0.0,0.0,0.0,0.0,0.0,0.0,0.0,0.0,0.0,0.0,0.0,0.0,0.0,0.0,0.0,0.0,0.0,0.0,0.0,0.0,1254.3224,373.9194,322.74725,909.81683,987.1795,-0.09649658203125,-0.0379638671875,0.97686767578125,1.68975830078125,-5.33843994140625,0.964508056640625,0.0,4.0,4.0,4.0,4.0,100.0,event
14:32:14.580,0.0,0.0,0.0,0.0,0.0,0.0,0.0,0.0,0.0,0.0,0.0,0.0,0.0,0.0,0.0,0.0,0.0,0.0,0.0,0.0,1316.3737,913.8461,581.8315,909.41394,835.6777,-0.09649658203125,-0.0379638671875,0.97686767578125,1.68975830078125,-5.33843994140625,0.964508056640625,0.0,4.0,4.0,4.0,4.0,100.0,event
14:32:14.581,0.0,0.0,0.0,0.0,0.0,0.0,0.0,0.0,0.0,0.0,0.0,0.0,0.0,0.0,0.0,0.0,0.0,0.0,0.0,0.0,853.8095,1109.6703,967.4359,916.26373,658.3883,-0.09649658203125,-0.0379638671875,0.97686767578125,1.68975830078125,-5.33843994140625,0.964508056640625,0.0,4.0,4.0,4.0,4.0,100.0,event
14:32:14.581,0.0,0.0,0.0,0.0,0.0,0.0,0.0,0.0,0.0,0.0,0.0,0.0,0.0,0.0,0.0,0.0,0.0,0.0,0.0,0.0,596.337,722.8571,809.89014,884.83514,745.42126,-0.09649658203125,-0.0379638671875,0.97686767578125,1.68975830078125,-5.33843994140625,0.964508056640625,0.0,4.0,4.0,4.0,4.0,100.0,event
14:32:14.613,0.0,0.0,0.0,0.0,0.0,0.0,0.0,0.0,0.0,0.0,0.0,0.0,0.0,0.0,0.0,0.0,0.0,0.0,0.0,0.0,761.9414,860.65936,990.0,860.65936,727.6923,-0.07879638671875,-0.03387451171875,0.98931884765625,2.46734619140625,-12.747955322265623,-0.478515625,0.0,4.0,4.0,4.0,4.0,100.0,event
14:32:14.614,0.0,0.0,0.0,0.0,0.0,0.0,0.0,0.0,0.0,0.0,0.0,0.0,0.0,0.0,0.0,0.0,0.0,0.0,0.0,0.0,1029.0842,955.7509,1239.8169,894.90845,701.9048,-0.07879638671875,-0.03387451171875,0.98931884765625,2.46734619140625,-12.747955322265623,-0.478515625,0.0,4.0,4.0,4.0,4.0,100.0,event
14:32:14.615,0.0,0.0,0.0,0.0,0.0,0.0,0.0,0.0,0.0,0.0,0.0,0.0,0.0,0.0,0.0,0.0,0.0,0.0,0.0,0.0,1091.1355,713.9927,1066.1538,900.54944,708.3516,-0.07879638671875,-0.03387451171875,0.98931884765625,2.46734619140625,-12.747955322265623,-0.478515625,0.0,4.0,4.0,4.0,4.0,100.0,event
14:32:14.616,0.0,0.0,0.0,0.0,0.0,0.0,0.0,0.0,0.0,0.0,0.0,0.0,0.0,0.0,0.0,0.0,0.0,0.0,0.0,0.0,705.12823,517.76556,716.0073,872.3443,749.45056,-0.07879638671875,-0.03387451171875,0.98931884765625,2.46734619140625,-12.747955322265623,-0.478515625,0.0,4.0,4.0,4.0,4.0,100.0,event
14:32:14.620,0.0,0.0,0.0,0.0,0.0,0.0,0.0,0.0,0.0,0.0,0.0,0.0,0.0,0.0,0.0,0.0,0.0,0.0,0.0,0.0,593.1135,764.35895,908.20514,903.7729,733.3333,-0.07879638671875,-0.03387451171875,0.98931884765625,2.46734619140625,-12.747955322265623,-0.478515625,0.0,4.0,4.0,4.0,4.0,100.0,event
14:32:14.620,0.0,0.0,0.0,0.0,0.0,0.0,0.0,0.0,0.0,0.0,0.0,0.0,0.0,0.0,0.0,0.0,0.0,0.0,0.0,0.0,425.89743,705.5311,805.8608,875.9707,713.5897,-0.07879638671875,-0.03387451171875,0.98931884765625,2.46734619140625,-12.747955322265623,-0.478515625,0.0,4.0,4.0,4.0,4.0,100.0,event
14:32:14.621,0.0,0.0,0.0,0.0,0.0,0.0,0.0,0.0,0.0,0.0,0.0,0.0,0.0,0.0,0.0,0.0,0.0,0.0,0.0,0.0,922.71063,728.9011,902.1612,906.99634,818.7546,-0.07879638671875,-0.03387451171875,0.98931884765625,2.46734619140625,-12.747955322265623,-0.478515625,0.0,4.0,4.0,4.0,4.0,100.0,event
14:32:14.622,0.0,0.0,0.0,0.0,0.0,0.0,0.0,0.0,0.0,0.0,0.0,0.0,0.0,0.0,0.0,0.0,0.0,0.0,0.0,0.0,1068.9744,381.97803,527.8388,906.1905,1070.586,-0.07879638671875,-0.03387451171875,0.98931884765625,2.46734619140625,-12.747955322265623,-0.478515625,0.0,4.0,4.0,4.0,4.0,100.0,event
14:32:14.623,0.0,0.0,0.0,0.0,0.0,0.0,0.0,0.0,0.0,0.0,0.0,0.0,0.0,0.0,0.0,0.0,0.0,0.0,0.0,0.0,1027.4725,567.72894,344.90842,889.2674,1121.7583,-0.07879638671875,-0.03387451171875,0.98931884765625,2.46734619140625,-12.747955322265623,-0.478515625,0.0,4.0,4.0,4.0,4.0,100.0,event
14:32:14.623,0.0,0.0,0.0,0.0,0.0,0.0,0.0,0.0,0.0,0.0,0.0,0.0,0.0,0.0,0.0,0.0,0.0,0.0,0.0,0.0,792.5641,1118.5348,919.0842,877.1795,756.30035,-0.07879638671875,-0.03387451171875,0.98931884765625,2.46734619140625,-12.747955322265623,-0.478515625,0.0,4.0,4.0,4.0,4.0,100.0,event
14:32:14.624,0.0,0.0,0.0,0.0,0.0,0.0,0.0,0.0,0.0,0.0,0.0,0.0,0.0,0.0,0.0,0.0,0.0,0.0,0.0,0.0,569.7436,888.0586,1064.5421,880.80585,668.46155,-0.07879638671875,-0.03387451171875,0.98931884765625,2.46734619140625,-12.747955322265623,-0.478515625,0.0,4.0,4.0,4.0,4.0,100.0,event
14:32:14.625,0.0,0.0,0.0,0.0,0.0,0.0,0.0,0.0,0.0,0.0,0.0,0.0,0.0,0.0,0.0,0.0,0.0,0.0,0.0,0.0,799.011,741.79486,979.92676,865.09155,786.52014,-0.07879638671875,-0.03387451171875,0.98931884765625,2.46734619140625,-12.747955322265623,-0.478515625,0.0,4.0,4.0,4.0,4.0,100.0,event
14:32:14.658,0.0,0.0,0.0,0.0,0.0,0.0,0.0,0.0,0.0,0.0,0.0,0.0,0.0,0.0,0.0,0.0,0.0,0.0,0.0,0.0,1139.0842,876.77655,1111.6849,877.1795,770.0,-0.072021484375,-0.03570556640625,1.0067138671875,1.435546875,-18.5723876953125,-0.25421142578125,0.0,4.0,4.0,4.0,4.0,100.0,event
14:32:14.659,0.0,0.0,0.0,0.0,0.0,0.0,0.0,0.0,0.0,0.0,0.0,0.0,0.0,0.0,0.0,0.0,0.0,0.0,0.0,0.0,1044.7986,778.0586,1050.8425,867.9121,698.68134,-0.072021484375,-0.03570556640625,1.0067138671875,1.435546875,-18.5723876953125,-0.25421142578125,0.0,4.0,4.0,4.0,4.0,100.0,event
14:32:14.660,0.0,0.0,0.0,0.0,0.0,0.0,0.0,0.0,0.0,0.0,0.0,0.0,0.0,0.0,0.0,0.0,0.0,0.0,0.0,0.0,642.674,622.9304,877.98535,845.7509,735.7509,-0.072021484375,-0.03570556640625,1.0067138671875,1.435546875,-18.5723876953125,-0.25421142578125,0.0,4.0,4.0,4.0,4.0,100.0,event
14:32:14.660,0.0,0.0,0.0,0.0,0.0,0.0,0.0,0.0,0.0,0.0,0.0,0.0,0.0,0.0,0.0,0.0,0.0,0.0,0.0,0.0,507.28937,701.9048,874.35895,841.7216,677.72894,-0.072021484375,-0.03570556640625,1.0067138671875,1.435546875,-18.5723876953125,-0.25421142578125,0.0,4.0,4.0,4.0,4.0,100.0,event
14:32:14.661,0.0,0.0,0.0,0.0,0.0,0.0,0.0,0.0,0.0,0.0,0.0,0.0,0.0,0.0,0.0,0.0,0.0,0.0,0.0,0.0,947.6923,824.3956,1046.4103,848.1685,639.45056,-0.072021484375,-0.03570556640625,1.0067138671875,1.435546875,-18.5723876953125,-0.25421142578125,0.0,4.0,4.0,4.0,4.0,100.0,event
14:32:14.662,0.0,0.0,0.0,0.0,0.0,0.0,0.0,0.0,0.0,0.0,0.0,0.0,0.0,0.0,0.0,0.0,0.0,0.0,0.0,0.0,1389.3041,732.52747,988.7912,868.71796,792.96704,-0.072021484375,-0.03570556640625,1.0067138671875,1.435546875,-18.5723876953125,-0.25421142578125,0.0,4.0,4.0,4.0,4.0,100.0,event
14:32:14.663,0.0,0.0,0.0,0.0,0.0,0.0,0.0,0.0,0.0,0.0,0.0,0.0,0.0,0.0,0.0,0.0,0.0,0.0,0.0,0.0,547.98535,298.57144,161.57509,834.4689,1004.5055,-0.072021484375,-0.03570556640625,1.0067138671875,1.435546875,-18.5723876953125,-0.25421142578125,0.0,4.0,4.0,4.0,4.0,100.0,event
14:32:14.663,0.0,0.0,0.0,0.0,0.0,0.0,0.0,0.0,0.0,0.0,0.0,0.0,0.0,0.0,0.0,0.0,0.0,0.0,0.0,0.0,1145.5311,487.94873,608.022,849.3773,952.52747,-0.072021484375,-0.03570556640625,1.0067138671875,1.435546875,-18.5723876953125,-0.25421142578125,0.0,4.0,4.0,4.0,4.0,100.0,event
14:32:14.664,0.0,0.0,0.0,0.0,0.0,0.0,0.0,0.0,0.0,0.0,0.0,0.0,0.0,0.0,0.0,0.0,0.0,0.0,0.0,0.0,476.66666,982.74725,718.4249,838.0952,774.43225,-0.072021484375,-0.03570556640625,1.0067138671875,1.435546875,-18.5723876953125,-0.25421142578125,0.0,4.0,4.0,4.0,4.0,100.0,event
14:32:14.664,0.0,0.0,0.0,0.0,0.0,0.0,0.0,0.0,0.0,0.0,0.0,0.0,0.0,0.0,0.0,0.0,0.0,0.0,0.0,0.0,834.4689,1145.1282,1200.3297,840.9158,645.09155,-0.072021484375,-0.03570556640625,1.0067138671875,1.435546875,-18.5723876953125,-0.25421142578125,0.0,4.0,4.0,4.0,4.0,100.0,event
14:32:14.665,0.0,0.0,0.0,0.0,0.0,0.0,0.0,0.0,0.0,0.0,0.0,0.0,0.0,0.0,0.0,0.0,0.0,0.0,0.0,0.0,1000.4762,695.05493,952.1245,871.13556,760.7326,-0.072021484375,-0.03570556640625,1.0067138671875,1.435546875,-18.5723876953125,-0.25421142578125,0.0,4.0,4.0,4.0,4.0,100.0,event
14:32:14.665,0.0,0.0,0.0,0.0,0.0,0.0,0.0,0.0,0.0,0.0,0.0,0.0,0.0,0.0,0.0,0.0,0.0,0.0,0.0,0.0,749.45056,622.9304,728.9011,873.95605,809.4872,-0.072021484375,-0.03570556640625,1.0067138671875,1.435546875,-18.5723876953125,-0.25421142578125,0.0,4.0,4.0,4.0,4.0,100.0,event
14:32:14.695,0.0,0.0,0.0,0.0,0.0,0.0,0.0,0.0,0.0,0.0,0.0,0.0,0.0,0.0,0.0,0.0,0.0,0.0,0.0,0.0,381.97803,844.94507,855.42126,832.0513,728.49817,-0.059814453125,-0.034912109375,0.986572265625,1.218719482421875,-15.29754638671875,-2.37762451171875,0.0,4.0,4.0,4.0,4.0,100.0,event
14:32:14.695,0.0,0.0,0.0,0.0,0.0,0.0,0.0,0.0,0.0,0.0,0.0,0.0,0.0,0.0,0.0,0.0,0.0,0.0,0.0,0.0,330.0,889.2674,1064.1392,823.1868,686.1905,-0.059814453125,-0.034912109375,0.986572265625,1.218719482421875,-15.29754638671875,-2.37762451171875,0.0,4.0,4.0,4.0,4.0,100.0,event
14:32:14.696,0.0,0.0,0.0,0.0,0.0,0.0,0.0,0.0,0.0,0.0,0.0,0.0,0.0,0.0,0.0,0.0,0.0,0.0,0.0,0.0,593.5165,560.07324,827.619,845.7509,819.5604,-0.059814453125,-0.034912109375,0.986572265625,1.218719482421875,-15.29754638671875,-2.37762451171875,0.0,4.0,4.0,4.0,4.0,100.0,event
14:32:14.696,0.0,0.0,0.0,0.0,0.0,0.0,0.0,0.0,0.0,0.0,0.0,0.0,0.0,0.0,0.0,0.0,0.0,0.0,0.0,0.0,956.55676,749.0476,834.87177,856.63007,853.00366,-0.059814453125,-0.034912109375,0.986572265625,1.218719482421875,-15.29754638671875,-2.37762451171875,0.0,4.0,4.0,4.0,4.0,100.0,event
14:32:14.696,0.0,0.0,0.0,0.0,0.0,0.0,0.0,0.0,0.0,0.0,0.0,0.0,0.0,0.0,0.0,0.0,0.0,0.0,0.0,0.0,817.5458,937.619,1006.52014,850.989,702.71063,-0.059814453125,-0.034912109375,0.986572265625,1.218719482421875,-15.29754638671875,-2.37762451171875,0.0,4.0,4.0,4.0,4.0,100.0,event
14:32:14.697,0.0,0.0,0.0,0.0,0.0,0.0,0.0,0.0,0.0,0.0,0.0,0.0,0.0,0.0,0.0,0.0,0.0,0.0,0.0,0.0,197.03297,599.15753,703.91943,830.4396,769.19415,-0.059814453125,-0.034912109375,0.986572265625,1.218719482421875,-15.29754638671875,-2.37762451171875,0.0,4.0,4.0,4.0,4.0,100.0,event
14:32:14.699,0.0,0.0,0.0,0.0,0.0,0.0,0.0,0.0,0.0,0.0,0.0,0.0,0.0,0.0,0.0,0.0,0.0,0.0,0.0,0.0,0.0,351.75824,370.69598,834.4689,1015.38464,-0.059814453125,-0.034912109375,0.986572265625,1.218719482421875,-15.29754638671875,-2.37762451171875,0.0,4.0,4.0,4.0,4.0,100.0,event
14:32:14.700,0.0,0.0,0.0,0.0,0.0,0.0,0.0,0.0,0.0,0.0,0.0,0.0,0.0,0.0,0.0,0.0,0.0,0.0,0.0,0.0,66.886444,616.08057,736.1539,850.989,778.0586,-0.059814453125,-0.034912109375,0.986572265625,1.218719482421875,-15.29754638671875,-2.37762451171875,0.0,4.0,4.0,4.0,4.0,100.0,event
14:32:14.700,0.0,0.0,0.0,0.0,0.0,0.0,0.0,0.0,0.0,0.0,0.0,0.0,0.0,0.0,0.0,0.0,0.0,0.0,0.0,0.0,416.63004,850.989,1020.6227,860.2564,738.97437,-0.059814453125,-0.034912109375,0.986572265625,1.218719482421875,-15.29754638671875,-2.37762451171875,0.0,4.0,4.0,4.0,4.0,100.0,event
14:32:14.700,0.0,0.0,0.0,0.0,0.0,0.0,0.0,0.0,0.0,0.0,0.0,0.0,0.0,0.0,0.0,0.0,0.0,0.0,0.0,0.0,184.94505,774.43225,574.17584,848.97437,919.4872,-0.059814453125,-0.034912109375,0.986572265625,1.218719482421875,-15.29754638671875,-2.37762451171875,0.0,4.0,4.0,4.0,4.0,100.0,event
14:32:14.700,0.0,0.0,0.0,0.0,0.0,0.0,0.0,0.0,0.0,0.0,0.0,0.0,0.0,0.0,0.0,0.0,0.0,0.0,0.0,0.0,464.1758,1184.2124,1093.956,853.8095,698.2784,-0.059814453125,-0.034912109375,0.986572265625,1.218719482421875,-15.29754638671875,-2.37762451171875,0.0,4.0,4.0,4.0,4.0,100.0,event
14:32:14.701,0.0,0.0,0.0,0.0,0.0,0.0,0.0,0.0,0.0,0.0,0.0,0.0,0.0,0.0,0.0,0.0,0.0,0.0,0.0,0.0,0.0,788.5348,882.01465,842.1245,697.0696,-0.059814453125,-0.034912109375,0.986572265625,1.218719482421875,-15.29754638671875,-2.37762451171875,0.0,4.0,4.0,4.0,4.0,100.0,event
14:32:14.768,0.0,0.0,0.0,0.0,0.0,0.0,0.0,0.0,0.0,0.0,0.0,0.0,0.0,0.0,0.0,0.0,0.0,0.0,0.0,0.0,9.67033,912.6374,1152.7839,839.707,669.2674,-0.059814453125,-0.034912109375,0.986572265625,1.218719482421875,-15.29754638671875,-2.37762451171875,0.0,4.0,4.0,4.0,4.0,100.0,event
14:32:14.769,0.0,0.0,0.0,0.0,0.0,0.0,0.0,0.0,0.0,0.0,0.0,0.0,0.0,0.0,0.0,0.0,0.0,0.0,0.0,0.0,188.97437,743.00366,1082.674,852.6007,753.47986,-0.059814453125,-0.034912109375,0.986572265625,1.218719482421875,-15.29754638671875,-2.37762451171875,0.0,4.0,4.0,4.0,4.0,100.0,event
14:32:14.770,0.0,0.0,0.0,0.0,0.0,0.0,0.0,0.0,0.0,0.0,0.0,0.0,0.0,0.0,0.0,0.0,0.0,0.0,0.0,0.0,346.11722,576.5934,771.6117,869.5238,816.337,-0.059814453125,-0.034912109375,0.986572265625,1.218719482421875,-15.29754638671875,-2.37762451171875,0.0,4.0,4.0,4.0,4.0,100.0,event
14:32:14.771,0.0,0.0,0.0,0.0,0.0,0.0,0.0,0.0,0.0,0.0,0.0,0.0,0.0,0.0,0.0,0.0,0.0,0.0,0.0,0.0,155.93407,731.31866,774.83514,837.6923,735.34796,-0.059814453125,-0.034912109375,0.986572265625,1.218719482421875,-15.29754638671875,-2.37762451171875,0.0,4.0,4.0,4.0,4.0,100.0,event
14:32:14.772,0.0,0.0,0.0,0.0,0.0,0.0,0.0,0.0,0.0,0.0,0.0,0.0,0.0,0.0,0.0,0.0,0.0,0.0,0.0,0.0,33.846153,848.97437,935.6044,805.05493,624.1392,-0.059814453125,-0.034912109375,0.986572265625,1.218719482421875,-15.29754638671875,-2.37762451171875,0.0,4.0,4.0,4.0,4.0,100.0,event
14:32:14.773,0.0,0.0,0.0,0.0,0.0,0.0,0.0,0.0,0.0,0.0,0.0,0.0,0.0,0.0,0.0,0.0,0.0,0.0,0.0,0.0,151.90475,633.4066,838.0952,823.5897,813.5165,-0.059814453125,-0.034912109375,0.986572265625,1.218719482421875,-15.29754638671875,-2.37762451171875,0.0,4.0,4.0,4.0,4.0,100.0,event
14:32:14.773,0.0,0.0,0.0,0.0,0.0,0.0,0.0,0.0,0.0,0.0,0.0,0.0,0.0,0.0,0.0,0.0,0.0,0.0,0.0,0.0,478.6813,275.6044,349.7436,842.52747,1214.0293,-0.059814453125,-0.034912109375,0.986572265625,1.218719482421875,-15.29754638671875,-2.37762451171875,0.0,4.0,4.0,4.0,4.0,100.0,event
14:32:14.774,0.0,0.0,0.0,0.0,0.0,0.0,0.0,0.0,0.0,0.0,0.0,0.0,0.0,0.0,0.0,0.0,0.0,0.0,0.0,0.0,713.5897,823.5897,522.6007,842.9304,986.3736,-0.059814453125,-0.034912109375,0.986572265625,1.218719482421875,-15.29754638671875,-2.37762451171875,0.0,4.0,4.0,4.0,4.0,100.0,event
14:32:14.775,0.0,0.0,0.0,0.0,0.0,0.0,0.0,0.0,0.0,0.0,0.0,0.0,0.0,0.0,0.0,0.0,0.0,0.0,0.0,0.0,462.96704,1142.7106,929.15753,836.8865,653.5531,-0.059814453125,-0.034912109375,0.986572265625,1.218719482421875,-15.29754638671875,-2.37762451171875,0.0,4.0,4.0,4.0,4.0,100.0,event
14:32:14.776,0.0,0.0,0.0,0.0,0.0,0.0,0.0,0.0,0.0,0.0,0.0,0.0,0.0,0.0,0.0,0.0,0.0,0.0,0.0,0.0,419.45056,887.6557,888.46155,816.7399,705.9341,-0.059814453125,-0.034912109375,0.986572265625,1.218719482421875,-15.29754638671875,-2.37762451171875,0.0,4.0,4.0,4.0,4.0,100.0,event
14:32:14.776,0.0,0.0,0.0,0.0,0.0,0.0,0.0,0.0,0.0,0.0,0.0,0.0,0.0,0.0,0.0,0.0,0.0,0.0,0.0,0.0,220.40292,772.4176,772.01465,827.619,697.0696,-0.059814453125,-0.034912109375,0.986572265625,1.218719482421875,-15.29754638671875,-2.37762451171875,0.0,4.0,4.0,4.0,4.0,100.0,event
14:32:14.777,0.0,0.0,0.0,0.0,0.0,0.0,0.0,0.0,0.0,0.0,0.0,0.0,0.0,0.0,0.0,0.0,0.0,0.0,0.0,0.0,810.696,1054.4689,1210.8059,836.4835,738.5714,-0.059814453125,-0.034912109375,0.986572265625,1.218719482421875,-15.29754638671875,-2.37762451171875,0.0,4.0,4.0,4.0,4.0,100.0,event
14:32:14.802,0.0,0.0,0.0,0.0,0.0,0.0,0.0,0.0,0.0,0.0,0.0,0.0,0.0,0.0,0.0,0.0,0.0,0.0,0.0,0.0,1014.17584,880.80585,1198.3151,849.7802,799.41394,-0.0343017578125,-0.04644775390625,0.97900390625,1.21124267578125,-5.435638427734375,-5.061798095703125,0.0,4.0,4.0,4.0,4.0,100.0,event
14:32:14.803,0.0,0.0,0.0,0.0,0.0,0.0,0.0,0.0,0.0,0.0,0.0,0.0,0.0,0.0,0.0,0.0,0.0,0.0,0.0,0.0,761.9414,594.3223,823.5897,832.0513,841.31866,-0.0343017578125,-0.04644775390625,0.97900390625,1.21124267578125,-5.435638427734375,-5.061798095703125,0.0,4.0,4.0,4.0,4.0,100.0,event
14:32:14.804,0.0,0.0,0.0,0.0,0.0,0.0,0.0,0.0,0.0,0.0,0.0,0.0,0.0,0.0,0.0,0.0,0.0,0.0,0.0,0.0,459.7436,722.4542,824.7985,814.3223,777.6557,-0.0343017578125,-0.04644775390625,0.97900390625,1.21124267578125,-5.435638427734375,-5.061798095703125,0.0,4.0,4.0,4.0,4.0,100.0,event
14:32:14.805,0.0,0.0,0.0,0.0,0.0,0.0,0.0,0.0,0.0,0.0,0.0,0.0,0.0,0.0,0.0,0.0,0.0,0.0,0.0,0.0,559.2674,947.28937,1131.0256,825.6044,703.5165,-0.0343017578125,-0.04644775390625,0.97900390625,1.21124267578125,-5.435638427734375,-5.061798095703125,0.0,4.0,4.0,4.0,4.0,100.0,event
14:32:14.806,0.0,0.0,0.0,0.0,0.0,0.0,0.0,0.0,0.0,0.0,0.0,0.0,0.0,0.0,0.0,0.0,0.0,0.0,0.0,0.0,818.7546,843.3333,1159.2307,857.8388,776.04395,-0.0343017578125,-0.04644775390625,0.97900390625,1.21124267578125,-5.435638427734375,-5.061798095703125,0.0,4.0,4.0,4.0,4.0,100.0,event
14:32:14.807,0.0,0.0,0.0,0.0,0.0,0.0,0.0,0.0,0.0,0.0,0.0,0.0,0.0,0.0,0.0,0.0,0.0,0.0,0.0,0.0,841.7216,560.87915,853.8095,863.0769,996.8498,-0.0343017578125,-0.04644775390625,0.97900390625,1.21124267578125,-5.435638427734375,-5.061798095703125,0.0,4.0,4.0,4.0,4.0,100.0,event
