TimeStamp,Delta_TP9,Delta_AF7,Delta_AF8,Delta_TP10,Theta_TP9,Theta_AF7,Theta_AF8,Theta_TP10,Alpha_TP9,Alpha_AF7,Alpha_AF8,Alpha_TP10,Beta_TP9,Beta_AF7,Beta_AF8,Beta_TP10,Gamma_TP9,Gamma_AF7,Gamma_AF8,Gamma_TP10,RAW_TP9,RAW_AF7,RAW_AF8,RAW_TP10,AUX_RIGHT,Accelerometer_X,Accelerometer_Y,Accelerometer_Z,Gyro_X,Gyro_Y,Gyro_Z,HeadBandOn,HSI_TP9,HSI_AF7,HSI_AF8,HSI_TP10,Battery,Elements
13:21:43.709,1.2389573,0.8896539,0.11566138,1.2986865,0.9339274,0.49304706,0.15979019,1.1783984,1.2872273,0.055636745,0.30838054,1.2165021,1.082423,0.4912408,1.25847,1.0547271,1.0256691,0.646664,1.1793692,1.0438913,830.84247,833.2601,814.7253,796.1905,700.696,0.01397705078125,0.03863525390625,0.9853515625,2.1832275390625,-3.42437744140625,0.059814453125,1.0,1.0,1.0,1.0,1.0,100.0,event
13:21:43.710,1.2389573,0.8896539,0.11566138,1.2986865,0.9339274,0.49304706,0.15979019,1.1783984,1.2872273,0.055636745,0.30838054,1.2165021,1.082423,0.4912408,1.25847,1.0547271,1.0256691,0.646664,1.1793692,1.0438913,853.8095,839.304,806.26373,823.1868,740.18317,0.01397705078125,0.03863525390625,0.9853515625,2.1832275390625,-3.42437744140625,0.059814453125,1.0,1.0,1.0,1.0,1.0,100.0,event
13:21:43.711,1.2389573,0.8896539,0.11566138,1.2986865,0.9339274,0.49304706,0.15979019,1.1783984,1.2872273,0.055636745,0.30838054,1.2165021,1.082423,0.4912408,1.25847,1.0547271,1.0256691,0.646664,1.1793692,1.0438913,852.1978,837.6923,792.1612,846.1539,867.50916,0.01397705078125,0.03863525390625,0.9853515625,2.1832275390625,-3.42437744140625,0.059814453125,1.0,1.0,1.0,1.0,1.0,100.0,event
13:21:43.711,1.2389573,0.8896539,0.11566138,1.2986865,0.9339274,0.49304706,0.15979019,1.1783984,1.2872273,0.055636745,0.30838054,1.2165021,1.082423,0.4912408,1.25847,1.0547271,1.0256691,0.646664,1.1793692,1.0438913,793.36993,830.0366,802.23444,817.9487,792.5641,0.01397705078125,0.03863525390625,0.9853515625,2.1832275390625,-3.42437744140625,0.059814453125,1.0,1.0,1.0,1.0,1.0,100.0,event
13:21:43.712,1.2389573,0.8896539,0.11566138,1.2986865,0.9339274,0.49304706,0.15979019,1.1783984,1.2872273,0.055636745,0.30838054,1.2165021,1.082423,0.4912408,1.25847,1.0547271,1.0256691,0.646664,1.1793692,1.0438913,836.08057,834.87177,801.02563,819.15753,857.8388,0.01397705078125,0.03863525390625,0.9853515625,2.1832275390625,-3.42437744140625,0.059814453125,1.0,1.0,1.0,1.0,1.0,100.0,event
13:21:43.712,1.2389573,0.8896539,0.11566138,1.2986865,0.9339274,0.49304706,0.15979019,1.1783984,1.2872273,0.055636745,0.30838054,1.2165021,1.082423,0.4912408,1.25847,1.0547271,1.0256691,0.646664,1.1793692,1.0438913,783.2967,829.2308,803.44324,811.50183,644.68866,0.01397705078125,0.03863525390625,0.9853515625,2.1832275390625,-3.42437744140625,0.059814453125,1.0,1.0,1.0,1.0,1.0,100.0,event
13:21:43.713,1.2389573,0.8896539,0.11566138,1.2986865,0.9339274,0.49304706,0.15979019,1.1783984,1.2872273,0.055636745,0.30838054,1.2165021,1.082423,0.4912408,1.25847,1.0547271,1.0256691,0.646664,1.1793692,1.0438913,856.63007,816.337,814.7253,830.0366,1212.4176,0.01397705078125,0.03863525390625,0.9853515625,2.1832275390625,-3.42437744140625,0.059814453125,1.0,1.0,1.0,1.0,1.0,100.0,event
13:21:43.714,1.2389573,0.8896539,0.11566138,1.2986865,0.9339274,0.49304706,0.15979019,1.1783984,1.2872273,0.055636745,0.30838054,1.2165021,1.082423,0.4912408,1.25847,1.0547271,1.0256691,0.646664,1.1793692,1.0438913,876.3736,813.5165,817.1429,850.18317,1027.4725,0.01397705078125,0.03863525390625,0.9853515625,2.1832275390625,-3.42437744140625,0.059814453125,1.0,1.0,1.0,1.0,1.0,100.0,event
13:21:43.714,1.2389573,0.8896539,0.11566138,1.2986865,0.9339274,0.49304706,0.15979019,1.1783984,1.2872273,0.055636745,0.30838054,1.2165021,1.082423,0.4912408,1.25847,1.0547271,1.0256691,0.646664,1.1793692,1.0438913,834.0659,834.4689,806.26373,838.49817,696.6667,0.01397705078125,0.03863525390625,0.9853515625,2.1832275390625,-3.42437744140625,0.059814453125,1.0,1.0,1.0,1.0,1.0,100.0,event
13:21:43.715,1.2389573,0.8896539,0.11566138,1.2986865,0.9339274,0.49304706,0.15979019,1.1783984,1.2872273,0.055636745,0.30838054,1.2165021,1.082423,0.4912408,1.25847,1.0547271,1.0256691,0.646664,1.1793692,1.0438913,781.685,833.2601,801.8315,814.7253,718.4249,0.01397705078125,0.03863525390625,0.9853515625,2.1832275390625,-3.42437744140625,0.059814453125,1.0,1.0,1.0,1.0,1.0,100.0,event
13:21:43.715,1.2389573,0.8896539,0.11566138,1.2986865,0.9339274,0.49304706,0.15979019,1.1783984,1.2872273,0.055636745,0.30838054,1.2165021,1.082423,0.4912408,1.25847,1.0547271,1.0256691,0.646664,1.1793692,1.0438913,807.0696,833.663,793.7729,804.2491,743.4066,0.01397705078125,0.03863525390625,0.9853515625,2.1832275390625,-3.42437744140625,0.059814453125,1.0,1.0,1.0,1.0,1.0,100.0,event
13:21:43.716,1.2389573,0.8896539,0.11566138,1.2986865,0.9339274,0.49304706,0.15979019,1.1783984,1.2872273,0.055636745,0.30838054,1.2165021,1.082423,0.4912408,1.25847,1.0547271,1.0256691,0.646664,1.1793692,1.0438913,857.4359,838.0952,805.05493,817.9487,761.13556,0.01397705078125,0.03863525390625,0.9853515625,2.1832275390625,-3.42437744140625,0.059814453125,1.0,1.0,1.0,1.0,1.0,100.0,event
13:21:43.744,1.2389573,0.8896539,0.11566138,1.2986865,0.9339274,0.49304706,0.15979019,1.1783984,1.2872273,0.055636745,0.30838054,1.2165021,1.082423,0.4912408,1.25847,1.0547271,1.0256691,0.646664,1.1793692,1.0438913,869.5238,832.0513,817.9487,846.55676,796.99634,0.02301025390625,0.04046630859375,0.989501953125,1.95892333984375,-3.36456298828125,-0.16448974609375,1.0,1.0,1.0,1.0,1.0,100.0,event
13:21:43.745,1.2389573,0.8896539,0.11566138,1.2986865,0.9339274,0.49304706,0.15979019,1.1783984,1.2872273,0.055636745,0.30838054,1.2165021,1.082423,0.4912408,1.25847,1.0547271,1.0256691,0.646664,1.1793692,1.0438913,811.9048,831.2454,799.011,828.8278,832.4542,0.02301025390625,0.04046630859375,0.989501953125,1.95892333984375,-3.36456298828125,-0.16448974609375,1.0,1.0,1.0,1.0,1.0,100.0,event
13:21:43.745,1.2389573,0.8896539,0.11566138,1.2986865,0.9339274,0.49304706,0.15979019,1.1783984,1.2872273,0.055636745,0.30838054,1.2165021,1.082423,0.4912408,1.25847,1.0547271,1.0256691,0.646664,1.1793692,1.0438913,781.28204,840.10986,776.4469,805.05493,808.68134,0.02301025390625,0.04046630859375,0.989501953125,1.95892333984375,-3.36456298828125,-0.16448974609375,1.0,1.0,1.0,1.0,1.0,100.0,event
13:21:43.746,1.2389573,0.8896539,0.11566138,1.2986865,0.9339274,0.49304706,0.15979019,1.1783984,1.2872273,0.055636745,0.30838054,1.2165021,1.082423,0.4912408,1.25847,1.0547271,1.0256691,0.646664,1.1793692,1.0438913,830.4396,835.6777,790.14655,828.8278,718.022,0.02301025390625,0.04046630859375,0.989501953125,1.95892333984375,-3.36456298828125,-0.16448974609375,1.0,1.0,1.0,1.0,1.0,100.0,event
13:21:43.747,1.2389573,0.8896539,0.11566138,1.2986865,0.9339274,0.49304706,0.15979019,1.1783984,1.2872273,0.055636745,0.30838054,1.2165021,1.082423,0.4912408,1.25847,1.0547271,1.0256691,0.646664,1.1793692,1.0438913,840.9158,826.8132,807.8755,834.0659,803.44324,0.02301025390625,0.04046630859375,0.989501953125,1.95892333984375,-3.36456298828125,-0.16448974609375,1.0,1.0,1.0,1.0,1.0,100.0,event
13:21:43.747,1.2389573,0.8896539,0.11566138,1.2986865,0.9339274,0.49304706,0.15979019,1.1783984,1.2872273,0.055636745,0.30838054,1.2165021,1.082423,0.4912408,1.25847,1.0547271,1.0256691,0.646664,1.1793692,1.0438913,851.79486,832.0513,804.65204,840.10986,709.5604,0.02301025390625,0.04046630859375,0.989501953125,1.95892333984375,-3.36456298828125,-0.16448974609375,1.0,1.0,1.0,1.0,1.0,100.0,event
13:21:43.748,1.2389573,0.8896539,0.11566138,1.2986865,0.9339274,0.49304706,0.15979019,1.1783984,1.2872273,0.055636745,0.30838054,1.2165021,1.082423,0.4912408,1.25847,1.0547271,1.0256691,0.646664,1.1793692,1.0438913,843.3333,826.8132,818.7546,823.1868,916.26373,0.02301025390625,0.04046630859375,0.989501953125,1.95892333984375,-3.36456298828125,-0.16448974609375,1.0,1.0,1.0,1.0,1.0,100.0,event
13:21:43.749,1.2389573,0.8896539,0.11566138,1.2986865,0.9339274,0.49304706,0.15979019,1.1783984,1.2872273,0.055636745,0.30838054,1.2165021,1.082423,0.4912408,1.25847,1.0547271,1.0256691,0.646664,1.1793692,1.0438913,805.05493,834.87177,815.5311,812.71063,885.2381,0.02301025390625,0.04046630859375,0.989501953125,1.95892333984375,-3.36456298828125,-0.16448974609375,1.0,1.0,1.0,1.0,1.0,100.0,event
13:21:43.749,1.2389573,0.8896539,0.11566138,1.2986865,0.9339274,0.49304706,0.15979019,1.1783984,1.2872273,0.055636745,0.30838054,1.2165021,1.082423,0.4912408,1.25847,1.0547271,1.0256691,0.646664,1.1793692,1.0438913,811.0989,836.8865,822.381,814.7253,757.1062,0.02301025390625,0.04046630859375,0.989501953125,1.95892333984375,-3.36456298828125,-0.16448974609375,1.0,1.0,1.0,1.0,1.0,100.0,event
13:21:43.750,1.2389573,0.8896539,0.11566138,1.2986865,0.9339274,0.49304706,0.15979019,1.1783984,1.2872273,0.055636745,0.30838054,1.2165021,1.082423,0.4912408,1.25847,1.0547271,1.0256691,0.646664,1.1793692,1.0438913,837.28937,831.2454,818.7546,819.5604,844.5421,0.02301025390625,0.04046630859375,0.989501953125,1.95892333984375,-3.36456298828125,-0.16448974609375,1.0,1.0,1.0,1.0,1.0,100.0,event
13:21:43.751,1.2389573,0.8896539,0.11566138,1.2986865,0.9339274,0.49304706,0.15979019,1.1783984,1.2872273,0.055636745,0.30838054,1.2165021,1.082423,0.4912408,1.25847,1.0547271,1.0256691,0.646664,1.1793692,1.0438913,837.6923,838.9011,807.8755,832.8571,943.2601,0.02301025390625,0.04046630859375,0.989501953125,1.95892333984375,-3.36456298828125,-0.16448974609375,1.0,1.0,1.0,1.0,1.0,100.0,event
13:21:43.751,1.2389573,0.8896539,0.11566138,1.2986865,0.9339274,0.49304706,0.15979019,1.1783984,1.2872273,0.055636745,0.30838054,1.2165021,1.082423,0.4912408,1.25847,1.0547271,1.0256691,0.646664,1.1793692,1.0438913,817.1429,835.2747,807.47253,823.9927,753.47986,0.02301025390625,0.04046630859375,0.989501953125,1.95892333984375,-3.36456298828125,-0.16448974609375,1.0,1.0,1.0,1.0,1.0,100.0,event
13:21:43.776,1.2389573,0.8896539,0.11566138,1.2986865,0.9339274,0.49304706,0.15979019,1.1783984,1.2872273,0.055636745,0.30838054,1.2165021,1.082423,0.4912408,1.25847,1.0547271,1.0256691,0.646664,1.1793692,1.0438913,788.93774,808.2784,806.26373,813.91943,702.3077,0.015380859375,0.03594970703125,0.98974609375,1.801910400390625,-3.521575927734375,0.25421142578125,1.0,1.0,1.0,1.0,1.0,100.0,event
13:21:43.777,1.2446536,0.8896539,0.114591084,1.2986865,0.9261517,0.49304706,0.17018233,1.1783984,1.2872273,0.055636745,0.30838054,1.2165021,1.0889952,0.4912408,1.2563022,1.0547271,1.0406233,0.646664,1.1866436,1.0438913,808.68134,816.7399,799.81683,822.381,710.7692,0.015380859375,0.03594970703125,0.98974609375,1.801910400390625,-3.521575927734375,0.25421142578125,1.0,1.0,1.0,1.0,1.0,100.0,event
13:21:43.781,1.2446536,0.8896539,0.114591084,1.2986865,0.9261517,0.49304706,0.17018233,1.1783984,1.2872273,0.055636745,0.30838054,1.2165021,1.0889952,0.4912408,1.2563022,1.0547271,1.0406233,0.646664,1.1866436,1.0438913,848.97437,845.34796,788.1319,832.4542,751.4652,0.015380859375,0.03594970703125,0.98974609375,1.801910400390625,-3.521575927734375,0.25421142578125,1.0,1.0,1.0,1.0,1.0,100.0,event
13:21:43.782,1.2446536,0.8896539,0.114591084,1.2986865,0.9261517,0.49304706,0.17018233,1.1783984,1.2872273,0.055636745,0.30838054,1.2165021,1.0889952,0.4912408,1.2563022,1.0547271,1.0406233,0.646664,1.1866436,1.0438913,858.6447,838.49817,782.49084,857.03296,749.85345,0.015380859375,0.03594970703125,0.98974609375,1.801910400390625,-3.521575927734375,0.25421142578125,1.0,1.0,1.0,1.0,1.0,100.0,event
13:21:43.782,1.2446536,0.8896539,0.114591084,1.2986865,0.9261517,0.49304706,0.17018233,1.1783984,1.2872273,0.055636745,0.30838054,1.2165021,1.0889952,0.4912408,1.2563022,1.0547271,1.0406233,0.646664,1.1866436,1.0438913,886.4469,846.1539,782.49084,849.3773,727.28937,0.015380859375,0.03594970703125,0.98974609375,1.801910400390625,-3.521575927734375,0.25421142578125,1.0,1.0,1.0,1.0,1.0,100.0,event
13:21:43.783,1.2446536,0.8896539,0.114591084,1.2986865,0.9261517,0.49304706,0.17018233,1.1783984,1.2872273,0.055636745,0.30838054,1.2165021,1.0889952,0.4912408,1.2563022,1.0547271,1.0406233,0.646664,1.1866436,1.0438913,778.46155,842.52747,799.011,828.022,986.77655,0.015380859375,0.03594970703125,0.98974609375,1.801910400390625,-3.521575927734375,0.25421142578125,1.0,1.0,1.0,1.0,1.0,100.0,event
13:21:43.784,1.2446536,0.8896539,0.114591084,1.2986865,0.9261517,0.49304706,0.17018233,1.1783984,1.2872273,0.055636745,0.30838054,1.2165021,1.0889952,0.4912408,1.2563022,1.0547271,1.0406233,0.646664,1.1866436,1.0438913,799.81683,848.5714,804.65204,807.8755,948.49817,0.015380859375,0.03594970703125,0.98974609375,1.801910400390625,-3.521575927734375,0.25421142578125,1.0,1.0,1.0,1.0,1.0,100.0,event
13:21:43.784,1.2446536,0.8896539,0.114591084,1.2986865,0.9261517,0.49304706,0.17018233,1.1783984,1.2872273,0.055636745,0.30838054,1.2165021,1.0889952,0.4912408,1.2563022,1.0547271,1.0406233,0.646664,1.1866436,1.0438913,846.1539,835.2747,811.9048,828.022,749.45056,0.015380859375,0.03594970703125,0.98974609375,1.801910400390625,-3.521575927734375,0.25421142578125,1.0,1.0,1.0,1.0,1.0,100.0,event
13:21:43.785,1.2446536,0.8896539,0.114591084,1.2986865,0.9261517,0.49304706,0.17018233,1.1783984,1.2872273,0.055636745,0.30838054,1.2165021,1.0889952,0.4912408,1.2563022,1.0547271,1.0406233,0.646664,1.1866436,1.0438913,843.73627,826.0073,827.619,836.08057,741.39197,0.015380859375,0.03594970703125,0.98974609375,1.801910400390625,-3.521575927734375,0.25421142578125,1.0,1.0,1.0,1.0,1.0,100.0,event
13:21:43.785,1.2446536,0.8896539,0.114591084,1.2986865,0.9261517,0.49304706,0.17018233,1.1783984,1.2872273,0.055636745,0.30838054,1.2165021,1.0889952,0.4912408,1.2563022,1.0547271,1.0406233,0.646664,1.1866436,1.0438913,838.0952,826.8132,823.9927,853.00366,994.43225,0.015380859375,0.03594970703125,0.98974609375,1.801910400390625,-3.521575927734375,0.25421142578125,1.0,1.0,1.0,1.0,1.0,100.0,event
13:21:43.786,1.2446536,0.8896539,0.114591084,1.2986865,0.9261517,0.49304706,0.17018233,1.1783984,1.2872273,0.055636745,0.30838054,1.2165021,1.0889952,0.4912408,1.2563022,1.0547271,1.0406233,0.646664,1.1866436,1.0438913,788.93774,813.5165,796.99634,842.9304,914.2491,0.015380859375,0.03594970703125,0.98974609375,1.801910400390625,-3.521575927734375,0.25421142578125,1.0,1.0,1.0,1.0,1.0,100.0,event
13:21:43.786,1.2446536,0.8896539,0.114591084,1.2986865,0.9261517,0.49304706,0.17018233,1.1783984,1.2872273,0.055636745,0.30838054,1.2165021,1.0889952,0.4912408,1.2563022,1.0547271,1.0406233,0.646664,1.1866436,1.0438913,782.0879,814.3223,792.96704,826.0073,646.7033,0.015380859375,0.03594970703125,0.98974609375,1.801910400390625,-3.521575927734375,0.25421142578125,1.0,1.0,1.0,1.0,1.0,100.0,event
13:21:43.843,1.2446536,0.8896539,0.114591084,1.2986865,0.9261517,0.49304706,0.17018233,1.1783984,1.2872273,0.055636745,0.30838054,1.2165021,1.0889952,0.4912408,1.2563022,1.0547271,1.0406233,0.646664,1.1866436,1.0438913,827.2161,829.2308,812.71063,830.0366,668.0586,0.016357421875,0.0330810546875,0.98565673828125,2.175750732421875,-3.0206298828125,0.052337646484375,1.0,1.0,1.0,1.0,1.0,100.0,event
13:21:43.844,1.2446536,0.8896539,0.114591084,1.2986865,0.9261517,0.49304706,0.17018233,1.1783984,1.2872273,0.055636745,0.30838054,1.2165021,1.0889952,0.4912408,1.2563022,1.0547271,1.0406233,0.646664,1.1866436,1.0438913,844.94507,840.9158,813.1135,823.1868,750.2564,0.016357421875,0.0330810546875,0.98565673828125,2.175750732421875,-3.0206298828125,0.052337646484375,1.0,1.0,1.0,1.0,1.0,100.0,event
13:21:43.845,1.2446536,0.8896539,0.114591084,1.2986865,0.9261517,0.49304706,0.17018233,1.1783984,1.2872273,0.055636745,0.30838054,1.2165021,1.0889952,0.4912408,1.2563022,1.0547271,1.0406233,0.646664,1.1866436,1.0438913,823.1868,841.7216,819.5604,826.4103,693.8461,0.016357421875,0.0330810546875,0.98565673828125,2.175750732421875,-3.0206298828125,0.052337646484375,1.0,1.0,1.0,1.0,1.0,100.0,event
13:21:43.845,1.2446536,0.8896539,0.114591084,1.2986865,0.9261517,0.49304706,0.17018233,1.1783984,1.2872273,0.055636745,0.30838054,1.2165021,1.0889952,0.4912408,1.2563022,1.0547271,1.0406233,0.646664,1.1866436,1.0438913,788.93774,837.28937,815.5311,819.15753,659.59705,0.016357421875,0.0330810546875,0.98565673828125,2.175750732421875,-3.0206298828125,0.052337646484375,1.0,1.0,1.0,1.0,1.0,100.0,event
13:21:43.846,1.2446536,0.8896539,0.114591084,1.2986865,0.9261517,0.49304706,0.17018233,1.1783984,1.2872273,0.055636745,0.30838054,1.2165021,1.0889952,0.4912408,1.2563022,1.0547271,1.0406233,0.646664,1.1866436,1.0438913,801.02563,834.87177,800.2198,819.5604,702.71063,0.016357421875,0.0330810546875,0.98565673828125,2.175750732421875,-3.0206298828125,0.052337646484375,1.0,1.0,1.0,1.0,1.0,100.0,event
13:21:43.847,1.2446536,0.8896539,0.114591084,1.2986865,0.9261517,0.49304706,0.17018233,1.1783984,1.2872273,0.055636745,0.30838054,1.2165021,1.0889952,0.4912408,1.2563022,1.0547271,1.0406233,0.646664,1.1866436,1.0438913,840.10986,835.2747,804.2491,830.0366,800.6227,0.016357421875,0.0330810546875,0.98565673828125,2.175750732421875,-3.0206298828125,0.052337646484375,1.0,1.0,1.0,1.0,1.0,100.0,event
13:21:43.848,1.2446536,0.8896539,0.114591084,1.2986865,0.9261517,0.49304706,0.17018233,1.1783984,1.2872273,0.055636745,0.30838054,1.2165021,1.0889952,0.4912408,1.2563022,1.0547271,1.0406233,0.646664,1.1866436,1.0438913,858.6447,838.9011,794.9817,853.4066,848.97437,0.016357421875,0.0330810546875,0.98565673828125,2.175750732421875,-3.0206298828125,0.052337646484375,1.0,1.0,1.0,1.0,1.0,100.0,event
13:21:43.848,1.2446536,0.8896539,0.114591084,1.2986865,0.9261517,0.49304706,0.17018233,1.1783984,1.2872273,0.055636745,0.30838054,1.2165021,1.0889952,0.4912408,1.2563022,1.0547271,1.0406233,0.646664,1.1866436,1.0438913,863.47986,834.87177,801.4286,833.663,896.52014,0.016357421875,0.0330810546875,0.98565673828125,2.175750732421875,-3.0206298828125,0.052337646484375,1.0,1.0,1.0,1.0,1.0,100.0,event
13:21:43.849,1.2446536,0.8896539,0.114591084,1.2986865,0.9261517,0.49304706,0.17018233,1.1783984,1.2872273,0.055636745,0.30838054,1.2165021,1.0889952,0.4912408,1.2563022,1.0547271,1.0406233,0.646664,1.1866436,1.0438913,819.15753,836.4835,797.3993,849.3773,876.77655,0.016357421875,0.0330810546875,0.98565673828125,2.175750732421875,-3.0206298828125,0.052337646484375,1.0,1.0,1.0,1.0,1.0,100.0,event
13:21:43.849,1.2446536,0.8896539,0.114591084,1.2986865,0.9261517,0.49304706,0.17018233,1.1783984,1.2872273,0.055636745,0.30838054,1.2165021,1.0889952,0.4912408,1.2563022,1.0547271,1.0406233,0.646664,1.1866436,1.0438913,809.4872,832.8571,812.71063,832.0513,961.79486,0.016357421875,0.0330810546875,0.98565673828125,2.175750732421875,-3.0206298828125,0.052337646484375,1.0,1.0,1.0,1.0,1.0,100.0,event
13:21:43.850,1.2446536,0.8896539,0.114591084,1.2986865,0.9261517,0.49304706,0.17018233,1.1783984,1.2872273,0.055636745,0.30838054,1.2165021,1.0889952,0.4912408,1.2563022,1.0547271,1.0406233,0.646664,1.1866436,1.0438913,834.87177,821.5751,823.9927,819.5604,738.97437,0.016357421875,0.0330810546875,0.98565673828125,2.175750732421875,-3.0206298828125,0.052337646484375,1.0,1.0,1.0,1.0,1.0,100.0,event
13:21:43.851,1.2446536,0.8896539,0.114591084,1.2986865,0.9261517,0.49304706,0.17018233,1.1783984,1.2872273,0.055636745,0.30838054,1.2165021,1.0889952,0.4912408,1.2563022,1.0547271,1.0406233,0.646664,1.1866436,1.0438913,851.39197,822.7839,826.8132,819.5604,802.6374,0.016357421875,0.0330810546875,0.98565673828125,2.175750732421875,-3.0206298828125,0.052337646484375,1.0,1.0,1.0,1.0,1.0,100.0,event
13:21:43.877,1.2446536,0.8896539,0.114591084,1.2986865,0.9261517,0.49304706,0.17018233,1.1783984,1.2872273,0.055636745,0.30838054,1.2165021,1.0889952,0.4912408,1.2563022,1.0547271,1.0406233,0.646664,1.1866436,1.0438913,845.7509,836.8865,824.7985,847.3626,1046.0073,0.0185546875,0.0367431640625,0.99072265625,2.115936279296875,-3.7982177734375,0.7476806640625,1.0,1.0,1.0,1.0,1.0,100.0,event
13:21:43.878,1.2446536,0.8896539,0.114591084,1.2986865,0.9261517,0.49304706,0.17018233,1.1783984,1.2872273,0.055636745,0.30838054,1.2165021,1.0889952,0.4912408,1.2563022,1.0547271,1.0406233,0.646664,1.1866436,1.0438913,792.96704,834.4689,813.1135,833.663,863.47986,0.0185546875,0.0367431640625,0.99072265625,2.115936279296875,-3.7982177734375,0.7476806640625,1.0,1.0,1.0,1.0,1.0,100.0,event
13:21:43.879,1.2446536,0.8896539,0.114591084,1.2986865,0.9261517,0.49304706,0.17018233,1.1783984,1.2872273,0.055636745,0.30838054,1.2165021,1.0889952,0.4912408,1.2563022,1.0547271,1.0406233,0.646664,1.1866436,1.0438913,774.83514,838.0952,801.02563,816.7399,724.87177,0.0185546875,0.0367431640625,0.99072265625,2.115936279296875,-3.7982177734375,0.7476806640625,1.0,1.0,1.0,1.0,1.0,100.0,event
13:21:43.880,1.1729443,0.8896539,0.09702323,1.2986865,0.84323835,0.49304706,0.20210396,1.1783984,1.2599912,0.055636745,0.28445587,1.2165021,1.1180187,0.4912408,1.270607,1.0547271,1.0203859,0.646664,1.2028383,1.0438913,824.7985,833.2601,810.293,815.9341,767.5824,0.0185546875,0.0367431640625,0.99072265625,2.115936279296875,-3.7982177734375,0.7476806640625,1.0,1.0,1.0,1.0,1.0,100.0,event
13:21:43.885,1.1729443,0.8896539,0.09702323,1.2986865,0.84323835,0.49304706,0.20210396,1.1783984,1.2599912,0.055636745,0.28445587,1.2165021,1.1180187,0.4912408,1.270607,1.0547271,1.0203859,0.646664,1.2028383,1.0438913,853.4066,831.6484,798.20514,825.6044,811.0989,0.0185546875,0.0367431640625,0.99072265625,2.115936279296875,-3.7982177734375,0.7476806640625,1.0,1.0,1.0,1.0,1.0,100.0,event
13:21:43.886,1.1729443,0.8896539,0.09702323,1.2986865,0.84323835,0.49304706,0.20210396,1.1783984,1.2599912,0.055636745,0.28445587,1.2165021,1.1180187,0.4912408,1.270607,1.0547271,1.0203859,0.646664,1.2028383,1.0438913,856.63007,830.0366,773.22345,837.6923,885.2381,0.0185546875,0.0367431640625,0.99072265625,2.115936279296875,-3.7982177734375,0.7476806640625,1.0,1.0,1.0,1.0,1.0,100.0,event
13:21:43.886,1.1729443,0.8896539,0.09702323,1.2986865,0.84323835,0.49304706,0.20210396,1.1783984,1.2599912,0.055636745,0.28445587,1.2165021,1.1180187,0.4912408,1.270607,1.0547271,1.0203859,0.646664,1.2028383,1.0438913,813.1135,817.1429,780.07324,818.3516,871.53845,0.0185546875,0.0367431640625,0.99072265625,2.115936279296875,-3.7982177734375,0.7476806640625,1.0,1.0,1.0,1.0,1.0,100.0,event
13:21:43.887,1.1729443,0.8896539,0.09702323,1.2986865,0.84323835,0.49304706,0.20210396,1.1783984,1.2599912,0.055636745,0.28445587,1.2165021,1.1180187,0.4912408,1.270607,1.0547271,1.0203859,0.646664,1.2028383,1.0438913,779.2674,812.3077,807.8755,813.91943,798.20514,0.0185546875,0.0367431640625,0.99072265625,2.115936279296875,-3.7982177734375,0.7476806640625,1.0,1.0,1.0,1.0,1.0,100.0,event
13:21:43.888,1.1729443,0.8896539,0.09702323,1.2986865,0.84323835,0.49304706,0.20210396,1.1783984,1.2599912,0.055636745,0.28445587,1.2165021,1.1180187,0.4912408,1.270607,1.0547271,1.0203859,0.646664,1.2028383,1.0438913,805.8608,823.9927,817.1429,827.2161,925.5311,0.0185546875,0.0367431640625,0.99072265625,2.115936279296875,-3.7982177734375,0.7476806640625,1.0,1.0,1.0,1.0,1.0,100.0,event
13:21:43.889,1.1729443,0.8896539,0.09702323,1.2986865,0.84323835,0.49304706,0.20210396,1.1783984,1.2599912,0.055636745,0.28445587,1.2165021,1.1180187,0.4912408,1.270607,1.0547271,1.0203859,0.646664,1.2028383,1.0438913,834.0659,832.8571,811.50183,828.4249,805.05493,0.0185546875,0.0367431640625,0.99072265625,2.115936279296875,-3.7982177734375,0.7476806640625,1.0,1.0,1.0,1.0,1.0,100.0,event
13:21:43.890,1.1729443,0.8896539,0.09702323,1.2986865,0.84323835,0.49304706,0.20210396,1.1783984,1.2599912,0.055636745,0.28445587,1.2165021,1.1180187,0.4912408,1.270607,1.0547271,1.0203859,0.646664,1.2028383,1.0438913,849.3773,828.8278,821.5751,849.3773,700.293,0.0185546875,0.0367431640625,0.99072265625,2.115936279296875,-3.7982177734375,0.7476806640625,1.0,1.0,1.0,1.0,1.0,100.0,event
13:21:43.891,1.1729443,0.8896539,0.09702323,1.2986865,0.84323835,0.49304706,0.20210396,1.1783984,1.2599912,0.055636745,0.28445587,1.2165021,1.1180187,0.4912408,1.270607,1.0547271,1.0203859,0.646664,1.2028383,1.0438913,813.91943,823.9927,823.1868,847.3626,739.7802,0.0185546875,0.0367431640625,0.99072265625,2.115936279296875,-3.7982177734375,0.7476806640625,1.0,1.0,1.0,1.0,1.0,100.0,event
13:21:43.916,1.1729443,0.8896539,0.09702323,1.2986865,0.84323835,0.49304706,0.20210396,1.1783984,1.2599912,0.055636745,0.28445587,1.2165021,1.1180187,0.4912408,1.270607,1.0547271,1.0203859,0.646664,1.2028383,1.0438913,791.3553,812.3077,809.0842,823.5897,680.9524,0.0185546875,0.0367431640625,0.99072265625,2.115936279296875,-3.7982177734375,0.7476806640625,1.0,1.0,1.0,1.0,1.0,100.0,event
13:21:43.917,1.1729443,0.8896539,0.09702323,1.2986865,0.84323835,0.49304706,0.20210396,1.1783984,1.2599912,0.055636745,0.28445587,1.2165021,1.1180187,0.4912408,1.270607,1.0547271,1.0203859,0.646664,1.2028383,1.0438913,838.49817,809.4872,801.8315,834.4689,670.4762,0.0185546875,0.0367431640625,0.99072265625,2.115936279296875,-3.7982177734375,0.7476806640625,1.0,1.0,1.0,1.0,1.0,100.0,event
13:21:43.918,1.1729443,0.8896539,0.09702323,1.2986865,0.84323835,0.49304706,0.20210396,1.1783984,1.2599912,0.055636745,0.28445587,1.2165021,1.1180187,0.4912408,1.270607,1.0547271,1.0203859,0.646664,1.2028383,1.0438913,863.8828,828.022,792.1612,839.707,703.5165,0.0185546875,0.0367431640625,0.99072265625,2.115936279296875,-3.7982177734375,0.7476806640625,1.0,1.0,1.0,1.0,1.0,100.0,event
13:21:43.918,1.1729443,0.8896539,0.09702323,1.2986865,0.84323835,0.49304706,0.20210396,1.1783984,1.2599912,0.055636745,0.28445587,1.2165021,1.1180187,0.4912408,1.270607,1.0547271,1.0203859,0.646664,1.2028383,1.0438913,865.89746,841.7216,788.1319,853.8095,761.13556,0.0185546875,0.0367431640625,0.99072265625,2.115936279296875,-3.7982177734375,0.7476806640625,1.0,1.0,1.0,1.0,1.0,100.0,event
13:21:43.919,1.1729443,0.8896539,0.09702323,1.2986865,0.84323835,0.49304706,0.20210396,1.1783984,1.2599912,0.055636745,0.28445587,1.2165021,1.1180187,0.4912408,1.270607,1.0547271,1.0203859,0.646664,1.2028383,1.0438913,837.28937,844.5421,784.90845,853.00366,795.38464,0.0185546875,0.0367431640625,0.99072265625,2.115936279296875,-3.7982177734375,0.7476806640625,1.0,1.0,1.0,1.0,1.0,100.0,event
13:21:43.920,1.1729443,0.8896539,0.09702323,1.2986865,0.84323835,0.49304706,0.20210396,1.1783984,1.2599912,0.055636745,0.28445587,1.2165021,1.1180187,0.4912408,1.270607,1.0547271,1.0203859,0.646664,1.2028383,1.0438913,771.6117,832.8571,796.5934,815.5311,865.4945,0.0185546875,0.0367431640625,0.99072265625,2.115936279296875,-3.7982177734375,0.7476806640625,1.0,1.0,1.0,1.0,1.0,100.0,event
13:21:43.920,1.1729443,0.8896539,0.09702323,1.2986865,0.84323835,0.49304706,0.20210396,1.1783984,1.2599912,0.055636745,0.28445587,1.2165021,1.1180187,0.4912408,1.270607,1.0547271,1.0203859,0.646664,1.2028383,1.0438913,782.8938,825.2015,816.337,796.5934,829.6337,0.0185546875,0.0367431640625,0.99072265625,2.115936279296875,-3.7982177734375,0.7476806640625,1.0,1.0,1.0,1.0,1.0,100.0,event
13:21:43.921,1.1729443,0.8896539,0.09702323,1.2986865,0.84323835,0.49304706,0.20210396,1.1783984,1.2599912,0.055636745,0.28445587,1.2165021,1.1180187,0.4912408,1.270607,1.0547271,1.0203859,0.646664,1.2028383,1.0438913,838.49817,818.3516,820.3663,848.97437,992.4176,0.0185546875,0.0367431640625,0.99072265625,2.115936279296875,-3.7982177734375,0.7476806640625,1.0,1.0,1.0,1.0,1.0,100.0,event
13:21:43.921,1.1729443,0.8896539,0.09702323,1.2986865,0.84323835,0.49304706,0.20210396,1.1783984,1.2599912,0.055636745,0.28445587,1.2165021,1.1180187,0.4912408,1.270607,1.0547271,1.0203859,0.646664,1.2028383,1.0438913,819.15753,827.2161,823.1868,813.91943,838.9011,0.0185546875,0.0367431640625,0.99072265625,2.115936279296875,-3.7982177734375,0.7476806640625,1.0,1.0,1.0,1.0,1.0,100.0,event
13:21:43.922,1.1729443,0.8896539,0.09702323,1.2986865,0.84323835,0.49304706,0.20210396,1.1783984,1.2599912,0.055636745,0.28445587,1.2165021,1.1180187,0.4912408,1.270607,1.0547271,1.0203859,0.646664,1.2028383,1.0438913,832.4542,817.1429,806.6667,845.34796,834.0659,0.0185546875,0.0367431640625,0.99072265625,2.115936279296875,-3.7982177734375,0.7476806640625,1.0,1.0,1.0,1.0,1.0,100.0,event
13:21:43.923,1.1729443,0.8896539,0.09702323,1.2986865,0.84323835,0.49304706,0.20210396,1.1783984,1.2599912,0.055636745,0.28445587,1.2165021,1.1180187,0.4912408,1.270607,1.0547271,1.0203859,0.646664,1.2028383,1.0438913,797.3993,819.5604,789.7436,822.381,736.55676,0.0185546875,0.0367431640625,0.99072265625,2.115936279296875,-3.7982177734375,0.7476806640625,1.0,1.0,1.0,1.0,1.0,100.0,event
13:21:43.923,1.1729443,0.8896539,0.09702323,1.2986865,0.84323835,0.49304706,0.20210396,1.1783984,1.2599912,0.055636745,0.28445587,1.2165021,1.1180187,0.4912408,1.270607,1.0547271,1.0203859,0.646664,1.2028383,1.0438913,809.4872,835.6777,777.6557,831.6484,758.315,0.0185546875,0.0367431640625,0.99072265625,2.115936279296875,-3.7982177734375,0.7476806640625,1.0,1.0,1.0,1.0,1.0,100.0,event
13:21:43.978,1.1729443,0.8896539,0.09702323,1.2986865,0.84323835,0.49304706,0.20210396,1.1783984,1.2599912,0.055636745,0.28445587,1.2165021,1.1180187,0.4912408,1.270607,1.0547271,1.0203859,0.646664,1.2028383,1.0438913,834.0659,853.4066,803.8461,836.4835,759.5238,0.0118408203125,0.03240966796875,0.9874267578125,2.40753173828125,-3.416900634765625,0.22430419921875,1.0,1.0,1.0,1.0,1.0,100.0,event
13:21:43.979,1.1729443,0.8896539,0.09702323,1.2986865,0.84323835,0.49304706,0.20210396,1.1783984,1.2599912,0.055636745,0.28445587,1.2165021,1.1180187,0.4912408,1.270607,1.0547271,1.0203859,0.646664,1.2028383,1.0438913,842.1245,852.1978,833.663,836.08057,737.76556,0.0118408203125,0.03240966796875,0.9874267578125,2.40753173828125,-3.416900634765625,0.22430419921875,1.0,1.0,1.0,1.0,1.0,100.0,event
13:21:43.980,1.1729443,0.8896539,0.09702323,1.2986865,0.84323835,0.49304706,0.20210396,1.1783984,1.2599912,0.055636745,0.28445587,1.2165021,1.1180187,0.4912408,1.270607,1.0547271,1.0203859,0.646664,1.2028383,1.0438913,848.1685,843.73627,836.4835,837.6923,806.26373,0.0118408203125,0.03240966796875,0.9874267578125,2.40753173828125,-3.416900634765625,0.22430419921875,1.0,1.0,1.0,1.0,1.0,100.0,event
13:21:43.980,1.1729443,0.8896539,0.09702323,1.2986865,0.84323835,0.49304706,0.20210396,1.1783984,1.2599912,0.055636745,0.28445587,1.2165021,1.1180187,0.4912408,1.270607,1.0547271,1.0203859,0.646664,1.2028383,1.0438913,796.1905,829.6337,827.2161,823.5897,875.16486,0.0118408203125,0.03240966796875,0.9874267578125,2.40753173828125,-3.416900634765625,0.22430419921875,1.0,1.0,1.0,1.0,1.0,100.0,event
13:21:43.981,1.1729443,0.8896539,0.09702323,1.2986865,0.84323835,0.49304706,0.20210396,1.1783984,1.2599912,0.055636745,0.28445587,1.2165021,1.1180187,0.4912408,1.270607,1.0547271,1.0203859,0.646664,1.2028383,1.0438913,793.7729,826.0073,799.81683,823.1868,780.07324,0.0118408203125,0.03240966796875,0.9874267578125,2.40753173828125,-3.416900634765625,0.22430419921875,1.0,1.0,1.0,1.0,1.0,100.0,event
13:21:43.982,1.0558919,0.8896539,0.09702323,1.169249,0.7146688,0.49304706,0.20210396,1.065197,1.0986181,0.055636745,0.28445587,1.0825235,1.128164,0.4912408,1.270607,1.0092291,0.97975737,0.646664,1.2028383,1.001836,841.7216,828.4249,794.17584,829.6337,774.43225,0.0118408203125,0.03240966796875,0.9874267578125,2.40753173828125,-3.416900634765625,0.22430419921875,1.0,1.0,1.0,1.0,1.0,100.0,event
13:21:43.986,1.0558919,0.8896539,0.09702323,1.169249,0.7146688,0.49304706,0.20210396,1.065197,1.0986181,0.055636745,0.28445587,1.0825235,1.128164,0.4912408,1.270607,1.0092291,0.97975737,0.646664,1.2028383,1.001836,856.2271,825.6044,802.6374,841.31866,891.685,0.0118408203125,0.03240966796875,0.9874267578125,2.40753173828125,-3.416900634765625,0.22430419921875,1.0,1.0,1.0,1.0,1.0,100.0,event
13:21:43.987,1.0558919,0.8896539,0.09702323,1.169249,0.7146688,0.49304706,0.20210396,1.065197,1.0986181,0.055636745,0.28445587,1.0825235,1.128164,0.4912408,1.270607,1.0092291,0.97975737,0.646664,1.2028383,1.001836,799.41394,840.10986,803.44324,830.0366,1021.02563,0.0118408203125,0.03240966796875,0.9874267578125,2.40753173828125,-3.416900634765625,0.22430419921875,1.0,1.0,1.0,1.0,1.0,100.0,event
13:21:43.987,1.0558919,0.8896539,0.09702323,1.169249,0.7146688,0.49304706,0.20210396,1.065197,1.0986181,0.055636745,0.28445587,1.0825235,1.128164,0.4912408,1.270607,1.0092291,0.97975737,0.646664,1.2028383,1.001836,846.1539,828.022,793.36993,859.45056,1094.359,0.0118408203125,0.03240966796875,0.9874267578125,2.40753173828125,-3.416900634765625,0.22430419921875,1.0,1.0,1.0,1.0,1.0,100.0,event
13:21:43.988,1.0558919,0.8896539,0.09702323,1.169249,0.7146688,0.49304706,0.20210396,1.065197,1.0986181,0.055636745,0.28445587,1.0825235,1.128164,0.4912408,1.270607,1.0092291,0.97975737,0.646664,1.2028383,1.001836,800.2198,842.9304,831.2454,816.7399,722.8571,0.0118408203125,0.03240966796875,0.9874267578125,2.40753173828125,-3.416900634765625,0.22430419921875,1.0,1.0,1.0,1.0,1.0,100.0,event
13:21:43.989,1.0558919,0.8896539,0.09702323,1.169249,0.7146688,0.49304706,0.20210396,1.065197,1.0986181,0.055636745,0.28445587,1.0825235,1.128164,0.4912408,1.270607,1.0092291,0.97975737,0.646664,1.2028383,1.001836,849.3773,843.73627,837.28937,826.8132,682.1612,0.0118408203125,0.03240966796875,0.9874267578125,2.40753173828125,-3.416900634765625,0.22430419921875,1.0,1.0,1.0,1.0,1.0,100.0,event
13:21:43.989,1.0558919,0.8896539,0.09702323,1.169249,0.7146688,0.49304706,0.20210396,1.065197,1.0986181,0.055636745,0.28445587,1.0825235,1.128164,0.4912408,1.270607,1.0092291,0.97975737,0.646664,1.2028383,1.001836,859.85345,849.7802,817.9487,820.7692,716.0073,0.0118408203125,0.03240966796875,0.9874267578125,2.40753173828125,-3.416900634765625,0.22430419921875,1.0,1.0,1.0,1.0,1.0,100.0,event
13:21:44.011,1.0558919,0.8896539,0.09702323,1.169249,0.7146688,0.49304706,0.20210396,1.065197,1.0986181,0.055636745,0.28445587,1.0825235,1.128164,0.4912408,1.270607,1.0092291,0.97975737,0.646664,1.2028383,1.001836,828.022,850.989,799.81683,829.6337,724.4689,0.0211181640625,0.03826904296875,0.986572265625,2.37762451171875,-3.566436767578125,0.179443359375,1.0,1.0,1.0,1.0,1.0,100.0,event
13:21:44.012,1.0558919,0.8896539,0.09702323,1.169249,0.7146688,0.49304706,0.20210396,1.065197,1.0986181,0.055636745,0.28445587,1.0825235,1.128164,0.4912408,1.270607,1.0092291,0.97975737,0.646664,1.2028383,1.001836,784.90845,845.34796,796.5934,813.5165,775.2381,0.0211181640625,0.03826904296875,0.986572265625,2.37762451171875,-3.566436767578125,0.179443359375,1.0,1.0,1.0,1.0,1.0,100.0,event
13:21:44.013,1.0558919,0.8896539,0.09702323,1.169249,0.7146688,0.49304706,0.20210396,1.065197,1.0986181,0.055636745,0.28445587,1.0825235,1.128164,0.4912408,1.270607,1.0092291,0.97975737,0.646664,1.2028383,1.001836,796.1905,840.9158,808.68134,807.47253,811.9048,0.0211181640625,0.03826904296875,0.986572265625,2.37762451171875,-3.566436767578125,0.179443359375,1.0,1.0,1.0,1.0,1.0,100.0,event
13:21:44.013,1.0558919,0.8896539,0.09702323,1.169249,0.7146688,0.49304706,0.20210396,1.065197,1.0986181,0.055636745,0.28445587,1.0825235,1.128164,0.4912408,1.270607,1.0092291,0.97975737,0.646664,1.2028383,1.001836,829.6337,827.2161,814.7253,823.5897,803.0403,0.0211181640625,0.03826904296875,0.986572265625,2.37762451171875,-3.566436767578125,0.179443359375,1.0,1.0,1.0,1.0,1.0,100.0,event
13:21:44.014,1.0558919,0.8896539,0.09702323,1.169249,0.7146688,0.49304706,0.20210396,1.065197,1.0986181,0.055636745,0.28445587,1.0825235,1.128164,0.4912408,1.270607,1.0092291,0.97975737,0.646664,1.2028383,1.001836,850.18317,818.7546,810.696,839.707,744.21246,0.0211181640625,0.03826904296875,0.986572265625,2.37762451171875,-3.566436767578125,0.179443359375,1.0,1.0,1.0,1.0,1.0,100.0,event
13:21:44.015,1.0558919,0.8896539,0.09702323,1.169249,0.7146688,0.49304706,0.20210396,1.065197,1.0986181,0.055636745,0.28445587,1.0825235,1.128164,0.4912408,1.270607,1.0092291,0.97975737,0.646664,1.2028383,1.001836,793.7729,837.6923,805.8608,831.6484,1016.1905,0.0211181640625,0.03826904296875,0.986572265625,2.37762451171875,-3.566436767578125,0.179443359375,1.0,1.0,1.0,1.0,1.0,100.0,event
13:21:44.015,1.0558919,0.8896539,0.09702323,1.169249,0.7146688,0.49304706,0.20210396,1.065197,1.0986181,0.055636745,0.28445587,1.0825235,1.128164,0.4912408,1.270607,1.0092291,0.97975737,0.646664,1.2028383,1.001836,840.9158,824.3956,815.9341,851.79486,762.3443,0.0211181640625,0.03826904296875,0.986572265625,2.37762451171875,-3.566436767578125,0.179443359375,1.0,1.0,1.0,1.0,1.0,100.0,event
13:21:44.016,1.0558919,0.8896539,0.09702323,1.169249,0.7146688,0.49304706,0.20210396,1.065197,1.0986181,0.055636745,0.28445587,1.0825235,1.128164,0.4912408,1.270607,1.0092291,0.97975737,0.646664,1.2028383,1.001836,834.87177,838.9011,813.91943,823.5897,815.9341,0.0211181640625,0.03826904296875,0.986572265625,2.37762451171875,-3.566436767578125,0.179443359375,1.0,1.0,1.0,1.0,1.0,100.0,event
13:21:44.016,1.0558919,0.8896539,0.09702323,1.169249,0.7146688,0.49304706,0.20210396,1.065197,1.0986181,0.055636745,0.28445587,1.0825235,1.128164,0.4912408,1.270607,1.0092291,0.97975737,0.646664,1.2028383,1.001836,787.326,851.79486,796.99634,819.9634,1114.1025,0.0211181640625,0.03826904296875,0.986572265625,2.37762451171875,-3.566436767578125,0.179443359375,1.0,1.0,1.0,1.0,1.0,100.0,event
13:21:44.017,1.0558919,0.8896539,0.09702323,1.169249,0.7146688,0.49304706,0.20210396,1.065197,1.0986181,0.055636745,0.28445587,1.0825235,1.128164,0.4912408,1.270607,1.0092291,0.97975737,0.646664,1.2028383,1.001836,842.9304,841.7216,816.7399,817.1429,750.65936,0.0211181640625,0.03826904296875,0.986572265625,2.37762451171875,-3.566436767578125,0.179443359375,1.0,1.0,1.0,1.0,1.0,100.0,event
13:21:44.017,1.0558919,0.8896539,0.09702323,1.169249,0.7146688,0.49304706,0.20210396,1.065197,1.0986181,0.055636745,0.28445587,1.0825235,1.128164,0.4912408,1.270607,1.0092291,0.97975737,0.646664,1.2028383,1.001836,834.87177,854.61536,805.4579,825.2015,890.07324,0.0211181640625,0.03826904296875,0.986572265625,2.37762451171875,-3.566436767578125,0.179443359375,1.0,1.0,1.0,1.0,1.0,100.0,event
13:21:44.018,1.0558919,0.8896539,0.09702323,1.169249,0.7146688,0.49304706,0.20210396,1.065197,1.0986181,0.055636745,0.28445587,1.0825235,1.128164,0.4912408,1.270607,1.0092291,0.97975737,0.646664,1.2028383,1.001836,811.50183,838.49817,804.2491,818.3516,802.23444,0.0211181640625,0.03826904296875,0.986572265625,2.37762451171875,-3.566436767578125,0.179443359375,1.0,1.0,1.0,1.0,1.0,100.0,event
13:21:44.078,1.0558919,0.8896539,0.09702323,1.169249,0.7146688,0.49304706,0.20210396,1.065197,1.0986181,0.055636745,0.28445587,1.0825235,1.128164,0.4912408,1.270607,1.0092291,0.97975737,0.646664,1.2028383,1.001836,782.0879,823.5897,822.381,811.0989,686.1905,0.01263427734375,0.03839111328125,0.99017333984375,2.03369140625,-3.491668701171875,0.545806884765625,1.0,1.0,1.0,1.0,1.0,100.0,event
13:21:44.079,1.0558919,0.8896539,0.09702323,1.169249,0.7146688,0.49304706,0.20210396,1.065197,1.0986181,0.055636745,0.28445587,1.0825235,1.128164,0.4912408,1.270607,1.0092291,0.97975737,0.646664,1.2028383,1.001836,828.8278,825.6044,813.91943,830.0366,683.7729,0.01263427734375,0.03839111328125,0.99017333984375,2.03369140625,-3.491668701171875,0.545806884765625,1.0,1.0,1.0,1.0,1.0,100.0,event
13:21:44.080,1.0558919,0.8896539,0.09702323,1.169249,0.7146688,0.49304706,0.20210396,1.065197,1.0986181,0.055636745,0.28445587,1.0825235,1.128164,0.4912408,1.270607,1.0092291,0.97975737,0.646664,1.2028383,1.001836,867.1062,843.3333,785.7143,823.5897,714.7985,0.01263427734375,0.03839111328125,0.99017333984375,2.03369140625,-3.491668701171875,0.545806884765625,1.0,1.0,1.0,1.0,1.0,100.0,event
13:21:44.081,1.0558919,0.8896539,0.09702323,1.169249,0.7146688,0.49304706,0.20210396,1.065197,1.0986181,0.055636745,0.28445587,1.0825235,1.128164,0.4912408,1.270607,1.0092291,0.97975737,0.646664,1.2028383,1.001836,860.65936,860.65936,801.4286,824.3956,686.5934,0.01263427734375,0.03839111328125,0.99017333984375,2.03369140625,-3.491668701171875,0.545806884765625,1.0,1.0,1.0,1.0,1.0,100.0,event
13:21:44.081,1.0558919,0.8896539,0.09702323,1.169249,0.7146688,0.49304706,0.20210396,1.065197,1.0986181,0.055636745,0.28445587,1.0825235,1.128164,0.4912408,1.270607,1.0092291,0.97975737,0.646664,1.2028383,1.001836,822.381,854.21246,813.91943,824.7985,642.674,0.01263427734375,0.03839111328125,0.99017333984375,2.03369140625,-3.491668701171875,0.545806884765625,1.0,1.0,1.0,1.0,1.0,100.0,event
13:21:44.082,1.0558919,0.8896539,0.09702323,1.169249,0.7146688,0.49304706,0.20210396,1.065197,1.0986181,0.055636745,0.28445587,1.0825235,1.128164,0.4912408,1.270607,1.0092291,0.97975737,0.646664,1.2028383,1.001836,785.31134,840.10986,798.20514,816.337,791.3553,0.01263427734375,0.03839111328125,0.99017333984375,2.03369140625,-3.491668701171875,0.545806884765625,1.0,1.0,1.0,1.0,1.0,100.0,event
13:21:44.083,0.8898018,0.8896539,0.09702323,1.043907,0.5608173,0.49304706,0.20210396,0.95618796,0.787205,0.055636745,0.28445587,0.8544837,1.1188567,0.4912408,1.270607,0.9558957,0.9149584,0.646664,1.2028383,0.93655604,830.84247,818.3516,823.1868,811.50183,868.315,0.01263427734375,0.03839111328125,0.99017333984375,2.03369140625,-3.491668701171875,0.545806884765625,1.0,1.0,1.0,1.0,1.0,100.0,event
13:21:44.083,1.0558919,0.8896539,0.09702323,1.169249,0.7146688,0.49304706,0.20210396,1.065197,1.0986181,0.055636745,0.28445587,1.0825235,1.128164,0.4912408,1.270607,1.0092291,0.97975737,0.646664,1.2028383,1.001836,802.6374,832.0513,807.47253,815.12823,1038.7546,0.01263427734375,0.03839111328125,0.99017333984375,2.03369140625,-3.491668701171875,0.545806884765625,1.0,1.0,1.0,1.0,1.0,100.0,event
13:21:44.088,0.8898018,0.8896539,0.09702323,1.043907,0.5608173,0.49304706,0.20210396,0.95618796,0.787205,0.055636745,0.28445587,0.8544837,1.1188567,0.4912408,1.270607,0.9558957,0.9149584,0.646664,1.2028383,0.93655604,851.79486,827.619,817.5458,826.8132,697.47253,0.01263427734375,0.03839111328125,0.99017333984375,2.03369140625,-3.491668701171875,0.545806884765625,1.0,1.0,1.0,1.0,1.0,100.0,event
13:21:44.088,0.8898018,0.8896539,0.09702323,1.043907,0.5608173,0.49304706,0.20210396,0.95618796,0.787205,0.055636745,0.28445587,0.8544837,1.1188567,0.4912408,1.270607,0.9558957,0.9149584,0.646664,1.2028383,0.93655604,832.4542,843.73627,798.20514,835.6777,752.674,0.01263427734375,0.03839111328125,0.99017333984375,2.03369140625,-3.491668701171875,0.545806884765625,1.0,1.0,1.0,1.0,1.0,100.0,event
13:21:44.089,0.8898018,0.8896539,0.09702323,1.043907,0.5608173,0.49304706,0.20210396,0.95618796,0.787205,0.055636745,0.28445587,0.8544837,1.1188567,0.4912408,1.270607,0.9558957,0.9149584,0.646664,1.2028383,0.93655604,800.2198,838.0952,790.9524,824.3956,755.4945,0.01263427734375,0.03839111328125,0.99017333984375,2.03369140625,-3.491668701171875,0.545806884765625,1.0,1.0,1.0,1.0,1.0,100.0,event
13:21:44.090,0.8898018,0.8896539,0.09702323,1.043907,0.5608173,0.49304706,0.20210396,0.95618796,0.787205,0.055636745,0.28445587,0.8544837,1.1188567,0.4912408,1.270607,0.9558957,0.9149584,0.646664,1.2028383,0.93655604,815.9341,831.6484,805.4579,821.978,731.31866,0.01263427734375,0.03839111328125,0.99017333984375,2.03369140625,-3.491668701171875,0.545806884765625,1.0,1.0,1.0,1.0,1.0,100.0,event
13:21:44.115,0.8898018,0.8896539,0.09702323,1.043907,0.5608173,0.49304706,0.20210396,0.95618796,0.787205,0.055636745,0.28445587,0.8544837,1.1188567,0.4912408,1.270607,0.9558957,0.9149584,0.646664,1.2028383,0.93655604,838.9011,838.49817,809.4872,816.7399,778.86444,0.013671875,0.03704833984375,0.98492431640625,2.04864501953125,-3.581390380859375,-0.082244873046875,1.0,1.0,1.0,1.0,1.0,100.0,event
13:21:44.120,0.8898018,0.8896539,0.09702323,1.043907,0.5608173,0.49304706,0.20210396,0.95618796,0.787205,0.055636745,0.28445587,0.8544837,1.1188567,0.4912408,1.270607,0.9558957,0.9149584,0.646664,1.2028383,0.93655604,851.39197,848.97437,811.0989,821.1722,811.50183,0.013671875,0.03704833984375,0.98492431640625,2.04864501953125,-3.581390380859375,-0.082244873046875,1.0,1.0,1.0,1.0,1.0,100.0,event
13:21:44.121,0.8898018,0.8896539,0.09702323,1.043907,0.5608173,0.49304706,0.20210396,0.95618796,0.787205,0.055636745,0.28445587,0.8544837,1.1188567,0.4912408,1.270607,0.9558957,0.9149584,0.646664,1.2028383,0.93655604,815.5311,842.52747,805.05493,823.1868,832.8571,0.013671875,0.03704833984375,0.98492431640625,2.04864501953125,-3.581390380859375,-0.082244873046875,1.0,1.0,1.0,1.0,1.0,100.0,event
13:21:44.122,0.8898018,0.8896539,0.09702323,1.043907,0.5608173,0.49304706,0.20210396,0.95618796,0.787205,0.055636745,0.28445587,0.8544837,1.1188567,0.4912408,1.270607,0.9558957,0.9149584,0.646664,1.2028383,0.93655604,771.2088,822.7839,809.89014,810.696,747.8388,0.013671875,0.03704833984375,0.98492431640625,2.04864501953125,-3.581390380859375,-0.082244873046875,1.0,1.0,1.0,1.0,1.0,100.0,event
13:21:44.123,0.8898018,0.8896539,0.09702323,1.043907,0.5608173,0.49304706,0.20210396,0.95618796,0.787205,0.055636745,0.28445587,0.8544837,1.1188567,0.4912408,1.270607,0.9558957,0.9149584,0.646664,1.2028383,0.93655604,781.685,805.4579,811.9048,802.23444,717.619,0.013671875,0.03704833984375,0.98492431640625,2.04864501953125,-3.581390380859375,-0.082244873046875,1.0,1.0,1.0,1.0,1.0,100.0,event
13:21:44.124,0.8898018,0.8896539,0.09702323,1.043907,0.5608173,0.49304706,0.20210396,0.95618796,0.787205,0.055636745,0.28445587,0.8544837,1.1188567,0.4912408,1.270607,0.9558957,0.9149584,0.646664,1.2028383,0.93655604,810.293,815.5311,799.011,801.02563,892.49084,0.013671875,0.03704833984375,0.98492431640625,2.04864501953125,-3.581390380859375,-0.082244873046875,1.0,1.0,1.0,1.0,1.0,100.0,event
13:21:44.125,0.8898018,0.8896539,0.09702323,1.043907,0.5608173,0.49304706,0.20210396,0.95618796,0.787205,0.055636745,0.28445587,0.8544837,1.1188567,0.4912408,1.270607,0.9558957,0.9149584,0.646664,1.2028383,0.93655604,823.9927,832.4542,803.44324,811.9048,973.8828,0.013671875,0.03704833984375,0.98492431640625,2.04864501953125,-3.581390380859375,-0.082244873046875,1.0,1.0,1.0,1.0,1.0,100.0,event
13:21:44.126,0.8898018,0.8896539,0.09702323,1.043907,0.5608173,0.49304706,0.20210396,0.95618796,0.787205,0.055636745,0.28445587,0.8544837,1.1188567,0.4912408,1.270607,0.9558957,0.9149584,0.646664,1.2028383,0.93655604,799.41394,834.4689,808.2784,819.5604,712.381,0.013671875,0.03704833984375,0.98492431640625,2.04864501953125,-3.581390380859375,-0.082244873046875,1.0,1.0,1.0,1.0,1.0,100.0,event
13:21:44.126,0.8898018,0.8896539,0.09702323,1.043907,0.5608173,0.49304706,0.20210396,0.95618796,0.787205,0.055636745,0.28445587,0.8544837,1.1188567,0.4912408,1.270607,0.9558957,0.9149584,0.646664,1.2028383,0.93655604,815.9341,833.663,817.9487,820.7692,789.7436,0.013671875,0.03704833984375,0.98492431640625,2.04864501953125,-3.581390380859375,-0.082244873046875,1.0,1.0,1.0,1.0,1.0,100.0,event
13:21:44.127,0.8898018,0.8896539,0.09702323,1.043907,0.5608173,0.49304706,0.20210396,0.95618796,0.787205,0.055636745,0.28445587,0.8544837,1.1188567,0.4912408,1.270607,0.9558957,0.9149584,0.646664,1.2028383,0.93655604,822.381,830.84247,785.31134,828.4249,893.69965,0.013671875,0.03704833984375,0.98492431640625,2.04864501953125,-3.581390380859375,-0.082244873046875,1.0,1.0,1.0,1.0,1.0,100.0,event
13:21:44.128,0.8898018,0.8896539,0.09702323,1.043907,0.5608173,0.49304706,0.20210396,0.95618796,0.787205,0.055636745,0.28445587,0.8544837,1.1188567,0.4912408,1.270607,0.9558957,0.9149584,0.646664,1.2028383,0.93655604,850.989,828.8278,807.47253,825.6044,861.8681,0.013671875,0.03704833984375,0.98492431640625,2.04864501953125,-3.581390380859375,-0.082244873046875,1.0,1.0,1.0,1.0,1.0,100.0,event
13:21:44.128,0.8898018,0.8896539,0.09702323,1.043907,0.5608173,0.49304706,0.20210396,0.95618796,0.787205,0.055636745,0.28445587,0.8544837,1.1188567,0.4912408,1.270607,0.9558957,0.9149584,0.646664,1.2028383,0.93655604,854.61536,823.9927,816.7399,823.9927,727.6923,0.013671875,0.03704833984375,0.98492431640625,2.04864501953125,-3.581390380859375,-0.082244873046875,1.0,1.0,1.0,1.0,1.0,100.0,event
13:21:44.152,0.8898018,0.8896539,0.09702323,1.043907,0.5608173,0.49304706,0.20210396,0.95618796,0.787205,0.055636745,0.28445587,0.8544837,1.1188567,0.4912408,1.270607,0.9558957,0.9149584,0.646664,1.2028383,0.93655604,829.2308,817.1429,818.7546,826.8132,770.0,0.013671875,0.03704833984375,0.98492431640625,2.04864501953125,-3.581390380859375,-0.082244873046875,1.0,1.0,1.0,1.0,1.0,100.0,event
13:21:44.153,0.8898018,0.8896539,0.09702323,1.043907,0.5608173,0.49304706,0.20210396,0.95618796,0.787205,0.055636745,0.28445587,0.8544837,1.1188567,0.4912408,1.270607,0.9558957,0.9149584,0.646664,1.2028383,0.93655604,783.69965,832.4542,826.0073,814.7253,725.2747,0.013671875,0.03704833984375,0.98492431640625,2.04864501953125,-3.581390380859375,-0.082244873046875,1.0,1.0,1.0,1.0,1.0,100.0,event
13:21:44.154,0.8898018,0.8896539,0.09702323,1.043907,0.5608173,0.49304706,0.20210396,0.95618796,0.787205,0.055636745,0.28445587,0.8544837,1.1188567,0.4912408,1.270607,0.9558957,0.9149584,0.646664,1.2028383,0.93655604,780.4762,845.34796,801.4286,803.44324,678.1319,0.013671875,0.03704833984375,0.98492431640625,2.04864501953125,-3.581390380859375,-0.082244873046875,1.0,1.0,1.0,1.0,1.0,100.0,event
13:21:44.155,0.8898018,0.8896539,0.09702323,1.043907,0.5608173,0.49304706,0.20210396,0.95618796,0.787205,0.055636745,0.28445587,0.8544837,1.1188567,0.4912408,1.270607,0.9558957,0.9149584,0.646664,1.2028383,0.93655604,829.6337,844.1392,789.34064,810.696,784.5055,0.013671875,0.03704833984375,0.98492431640625,2.04864501953125,-3.581390380859375,-0.082244873046875,1.0,1.0,1.0,1.0,1.0,100.0,event
13:21:44.155,0.8898018,0.8896539,0.09702323,1.043907,0.5608173,0.49304706,0.20210396,0.95618796,0.787205,0.055636745,0.28445587,0.8544837,1.1188567,0.4912408,1.270607,0.9558957,0.9149584,0.646664,1.2028383,0.93655604,864.68866,836.8865,800.2198,832.0513,798.60803,0.013671875,0.03704833984375,0.98492431640625,2.04864501953125,-3.581390380859375,-0.082244873046875,1.0,1.0,1.0,1.0,1.0,100.0,event
13:21:44.156,0.8898018,0.8896539,0.09702323,1.043907,0.5608173,0.49304706,0.20210396,0.95618796,0.787205,0.055636745,0.28445587,0.8544837,1.1188567,0.4912408,1.270607,0.9558957,0.9149584,0.646664,1.2028383,0.93655604,842.52747,836.8865,808.68134,852.1978,1068.1685,0.013671875,0.03704833984375,0.98492431640625,2.04864501953125,-3.581390380859375,-0.082244873046875,1.0,1.0,1.0,1.0,1.0,100.0,event
13:21:44.157,0.8898018,0.8896539,0.09702323,1.043907,0.5608173,0.49304706,0.20210396,0.95618796,0.787205,0.055636745,0.28445587,0.8544837,1.1188567,0.4912408,1.270607,0.9558957,0.9149584,0.646664,1.2028383,0.93655604,794.9817,846.1539,813.91943,830.84247,1058.0952,0.013671875,0.03704833984375,0.98492431640625,2.04864501953125,-3.581390380859375,-0.082244873046875,1.0,1.0,1.0,1.0,1.0,100.0,event
13:21:44.157,0.8898018,0.8896539,0.09702323,1.043907,0.5608173,0.49304706,0.20210396,0.95618796,0.787205,0.055636745,0.28445587,0.8544837,1.1188567,0.4912408,1.270607,0.9558957,0.9149584,0.646664,1.2028383,0.93655604,789.7436,835.6777,789.34064,815.12823,747.8388,0.013671875,0.03704833984375,0.98492431640625,2.04864501953125,-3.581390380859375,-0.082244873046875,1.0,1.0,1.0,1.0,1.0,100.0,event
13:21:44.158,0.68865484,0.8896539,0.0739787,0.9210392,0.39674088,0.49304706,0.1476774,0.83279836,0.32569632,0.055636745,0.2930229,0.62194043,1.103856,0.4912408,1.2816505,0.90549225,0.8295423,0.646664,1.1635777,0.8509333,845.34796,824.3956,808.68134,849.3773,910.2198,0.013671875,0.03704833984375,0.98492431640625,2.04864501953125,-3.581390380859375,-0.082244873046875,1.0,1.0,1.0,1.0,1.0,100.0,event
13:21:44.158,0.8898018,0.8896539,0.09702323,1.043907,0.5608173,0.49304706,0.20210396,0.95618796,0.787205,0.055636745,0.28445587,0.8544837,1.1188567,0.4912408,1.270607,0.9558957,0.9149584,0.646664,1.2028383,0.93655604,830.0366,821.1722,790.14655,831.6484,762.74725,0.013671875,0.03704833984375,0.98492431640625,2.04864501953125,-3.581390380859375,-0.082244873046875,1.0,1.0,1.0,1.0,1.0,100.0,event
13:21:44.163,0.68865484,0.8896539,0.0739787,0.9210392,0.39674088,0.49304706,0.1476774,0.83279836,0.32569632,0.055636745,0.2930229,0.62194043,1.103856,0.4912408,1.2816505,0.90549225,0.8295423,0.646664,1.1635777,0.8509333,836.08057,840.9158,818.3516,849.7802,787.72894,0.013671875,0.03704833984375,0.98492431640625,2.04864501953125,-3.581390380859375,-0.082244873046875,1.0,1.0,1.0,1.0,1.0,100.0,event
13:21:44.163,0.68865484,0.8896539,0.0739787,0.9210392,0.39674088,0.49304706,0.1476774,0.83279836,0.32569632,0.055636745,0.2930229,0.62194043,1.103856,0.4912408,1.2816505,0.90549225,0.8295423,0.646664,1.1635777,0.8509333,810.293,851.79486,828.022,841.7216,660.40295,0.013671875,0.03704833984375,0.98492431640625,2.04864501953125,-3.581390380859375,-0.082244873046875,1.0,1.0,1.0,1.0,1.0,100.0,event
13:21:44.242,0.68865484,0.8896539,0.0739787,0.9210392,0.39674088,0.49304706,0.1476774,0.83279836,0.32569632,0.055636745,0.2930229,0.62194043,1.103856,0.4912408,1.2816505,0.90549225,0.8295423,0.646664,1.1635777,0.8509333,795.38464,821.978,817.9487,823.1868,716.8132,0.0162353515625,0.0345458984375,0.99298095703125,2.07855224609375,-3.835601806640625,0.19439697265625,1.0,1.0,1.0,1.0,1.0,100.0,event
13:21:44.243,0.68865484,0.8896539,0.0739787,0.9210392,0.39674088,0.49304706,0.1476774,0.83279836,0.32569632,0.055636745,0.2930229,0.62194043,1.103856,0.4912408,1.2816505,0.90549225,0.8295423,0.646664,1.1635777,0.8509333,825.6044,797.8022,814.7253,822.381,728.0952,0.0162353515625,0.0345458984375,0.99298095703125,2.07855224609375,-3.835601806640625,0.19439697265625,1.0,1.0,1.0,1.0,1.0,100.0,event
13:21:44.243,0.68865484,0.8896539,0.0739787,0.9210392,0.39674088,0.49304706,0.1476774,0.83279836,0.32569632,0.055636745,0.2930229,0.62194043,1.103856,0.4912408,1.2816505,0.90549225,0.8295423,0.646664,1.1635777,0.8509333,850.18317,837.28937,819.5604,822.381,755.4945,0.0162353515625,0.0345458984375,0.99298095703125,2.07855224609375,-3.835601806640625,0.19439697265625,1.0,1.0,1.0,1.0,1.0,100.0,event
13:21:44.244,0.68865484,0.8896539,0.0739787,0.9210392,0.39674088,0.49304706,0.1476774,0.83279836,0.32569632,0.055636745,0.2930229,0.62194043,1.103856,0.4912408,1.2816505,0.90549225,0.8295423,0.646664,1.1635777,0.8509333,831.6484,850.18317,793.7729,828.4249,788.5348,0.0162353515625,0.0345458984375,0.99298095703125,2.07855224609375,-3.835601806640625,0.19439697265625,1.0,1.0,1.0,1.0,1.0,100.0,event
13:21:44.244,0.68865484,0.8896539,0.0739787,0.9210392,0.39674088,0.49304706,0.1476774,0.83279836,0.32569632,0.055636745,0.2930229,0.62194043,1.103856,0.4912408,1.2816505,0.90549225,0.8295423,0.646664,1.1635777,0.8509333,778.46155,838.0952,784.5055,825.2015,834.4689,0.0162353515625,0.0345458984375,0.99298095703125,2.07855224609375,-3.835601806640625,0.19439697265625,1.0,1.0,1.0,1.0,1.0,100.0,event
13:21:44.245,0.68865484,0.8896539,0.0739787,0.9210392,0.39674088,0.49304706,0.1476774,0.83279836,0.32569632,0.055636745,0.2930229,0.62194043,1.103856,0.4912408,1.2816505,0.90549225,0.8295423,0.646664,1.1635777,0.8509333,771.2088,823.9927,797.8022,818.7546,923.1135,0.0162353515625,0.0345458984375,0.99298095703125,2.07855224609375,-3.835601806640625,0.19439697265625,1.0,1.0,1.0,1.0,1.0,100.0,event
13:21:44.246,0.68865484,0.8896539,0.0739787,0.9210392,0.39674088,0.49304706,0.1476774,0.83279836,0.32569632,0.055636745,0.2930229,0.62194043,1.103856,0.4912408,1.2816505,0.90549225,0.8295423,0.646664,1.1635777,0.8509333,866.7033,825.2015,808.68134,834.87177,764.7619,0.0162353515625,0.0345458984375,0.99298095703125,2.07855224609375,-3.835601806640625,0.19439697265625,1.0,1.0,1.0,1.0,1.0,100.0,event
13:21:44.246,0.68865484,0.8896539,0.0739787,0.9210392,0.39674088,0.49304706,0.1476774,0.83279836,0.32569632,0.055636745,0.2930229,0.62194043,1.103856,0.4912408,1.2816505,0.90549225,0.8295423,0.646664,1.1635777,0.8509333,818.3516,806.26373,801.8315,828.022,850.58606,0.0162353515625,0.0345458984375,0.99298095703125,2.07855224609375,-3.835601806640625,0.19439697265625,1.0,1.0,1.0,1.0,1.0,100.0,event
13:21:44.247,0.68865484,0.8896539,0.0739787,0.9210392,0.39674088,0.49304706,0.1476774,0.83279836,0.32569632,0.055636745,0.2930229,0.62194043,1.103856,0.4912408,1.2816505,0.90549225,0.8295423,0.646664,1.1635777,0.8509333,867.1062,848.97437,807.47253,854.21246,882.01465,0.0162353515625,0.0345458984375,0.99298095703125,2.07855224609375,-3.835601806640625,0.19439697265625,1.0,1.0,1.0,1.0,1.0,100.0,event
13:21:44.248,0.68865484,0.8896539,0.0739787,0.9210392,0.39674088,0.49304706,0.1476774,0.83279836,0.32569632,0.055636745,0.2930229,0.62194043,1.103856,0.4912408,1.2816505,0.90549225,0.8295423,0.646664,1.1635777,0.8509333,806.26373,827.2161,812.71063,841.31866,1060.9158,0.0162353515625,0.0345458984375,0.99298095703125,2.07855224609375,-3.835601806640625,0.19439697265625,1.0,1.0,1.0,1.0,1.0,100.0,event
13:21:44.248,0.68865484,0.8896539,0.0739787,0.9210392,0.39674088,0.49304706,0.1476774,0.83279836,0.32569632,0.055636745,0.2930229,0.62194043,1.103856,0.4912408,1.2816505,0.90549225,0.8295423,0.646664,1.1635777,0.8509333,774.0293,818.3516,810.293,813.91943,813.5165,0.0162353515625,0.0345458984375,0.99298095703125,2.07855224609375,-3.835601806640625,0.19439697265625,1.0,1.0,1.0,1.0,1.0,100.0,event
13:21:44.249,0.68865484,0.8896539,0.0739787,0.9210392,0.39674088,0.49304706,0.1476774,0.83279836,0.32569632,0.055636745,0.2930229,0.62194043,1.103856,0.4912408,1.2816505,0.90549225,0.8295423,0.646664,1.1635777,0.8509333,812.71063,838.49817,826.4103,814.3223,647.9121,0.0162353515625,0.0345458984375,0.99298095703125,2.07855224609375,-3.835601806640625,0.19439697265625,1.0,1.0,1.0,1.0,1.0,100.0,event
13:21:44.276,0.68865484,0.8896539,0.0739787,0.9210392,0.39674088,0.49304706,0.1476774,0.83279836,0.32569632,0.055636745,0.2930229,0.62194043,1.103856,0.4912408,1.2816505,0.90549225,0.8295423,0.646664,1.1635777,0.8509333,849.3773,842.52747,827.619,830.84247,730.9158,0.0172119140625,0.0303955078125,0.98297119140625,2.115936279296875,-4.0673828125,0.46356201171875,1.0,1.0,1.0,1.0,1.0,100.0,event
13:21:44.277,0.68865484,0.8896539,0.0739787,0.9210392,0.39674088,0.49304706,0.1476774,0.83279836,0.32569632,0.055636745,0.2930229,0.62194043,1.103856,0.4912408,1.2816505,0.90549225,0.8295423,0.646664,1.1635777,0.8509333,860.65936,839.707,778.0586,847.76556,724.0659,0.0172119140625,0.0303955078125,0.98297119140625,2.115936279296875,-4.0673828125,0.46356201171875,1.0,1.0,1.0,1.0,1.0,100.0,event
13:21:44.277,0.68865484,0.8896539,0.0739787,0.9210392,0.39674088,0.49304706,0.1476774,0.83279836,0.32569632,0.055636745,0.2930229,0.62194043,1.103856,0.4912408,1.2816505,0.90549225,0.8295423,0.646664,1.1635777,0.8509333,823.1868,821.1722,775.64105,834.4689,760.32965,0.0172119140625,0.0303955078125,0.98297119140625,2.115936279296875,-4.0673828125,0.46356201171875,1.0,1.0,1.0,1.0,1.0,100.0,event
13:21:44.278,0.68865484,0.8896539,0.0739787,0.9210392,0.39674088,0.49304706,0.1476774,0.83279836,0.32569632,0.055636745,0.2930229,0.62194043,1.103856,0.4912408,1.2816505,0.90549225,0.8295423,0.646664,1.1635777,0.8509333,770.80585,817.9487,813.1135,816.337,796.1905,0.0172119140625,0.0303955078125,0.98297119140625,2.115936279296875,-4.0673828125,0.46356201171875,1.0,1.0,1.0,1.0,1.0,100.0,event
13:21:44.279,0.68865484,0.8896539,0.0739787,0.9210392,0.39674088,0.49304706,0.1476774,0.83279836,0.32569632,0.055636745,0.2930229,0.62194043,1.103856,0.4912408,1.2816505,0.90549225,0.8295423,0.646664,1.1635777,0.8509333,803.8461,844.1392,808.68134,818.3516,786.1172,0.0172119140625,0.0303955078125,0.98297119140625,2.115936279296875,-4.0673828125,0.46356201171875,1.0,1.0,1.0,1.0,1.0,100.0,event
13:21:44.279,0.68865484,0.8896539,0.0739787,0.9210392,0.39674088,0.49304706,0.1476774,0.83279836,0.32569632,0.055636745,0.2930229,0.62194043,1.103856,0.4912408,1.2816505,0.90549225,0.8295423,0.646664,1.1635777,0.8509333,839.707,844.5421,801.02563,819.9634,926.337,0.0172119140625,0.0303955078125,0.98297119140625,2.115936279296875,-4.0673828125,0.46356201171875,1.0,1.0,1.0,1.0,1.0,100.0,event
13:21:44.280,0.68865484,0.8896539,0.0739787,0.9210392,0.39674088,0.49304706,0.1476774,0.83279836,0.32569632,0.055636745,0.2930229,0.62194043,1.103856,0.4912408,1.2816505,0.90549225,0.8295423,0.646664,1.1635777,0.8509333,853.00366,839.304,815.9341,835.6777,955.7509,0.0172119140625,0.0303955078125,0.98297119140625,2.115936279296875,-4.0673828125,0.46356201171875,1.0,1.0,1.0,1.0,1.0,100.0,event
13:21:44.280,0.68865484,0.8896539,0.0739787,0.9210392,0.39674088,0.49304706,0.1476774,0.83279836,0.32569632,0.055636745,0.2930229,0.62194043,1.103856,0.4912408,1.2816505,0.90549225,0.8295423,0.646664,1.1635777,0.8509333,820.7692,831.2454,811.0989,833.2601,812.71063,0.0172119140625,0.0303955078125,0.98297119140625,2.115936279296875,-4.0673828125,0.46356201171875,1.0,1.0,1.0,1.0,1.0,100.0,event
13:21:44.281,0.68865484,0.8896539,0.0739787,0.9210392,0.39674088,0.49304706,0.1476774,0.83279836,0.32569632,0.055636745,0.2930229,0.62194043,1.103856,0.4912408,1.2816505,0.90549225,0.8295423,0.646664,1.1635777,0.8509333,775.2381,819.9634,805.8608,818.3516,955.34796,0.0172119140625,0.0303955078125,0.98297119140625,2.115936279296875,-4.0673828125,0.46356201171875,1.0,1.0,1.0,1.0,1.0,100.0,event
13:21:44.281,0.68865484,0.8896539,0.0739787,0.9210392,0.39674088,0.49304706,0.1476774,0.83279836,0.32569632,0.055636745,0.2930229,0.62194043,1.103856,0.4912408,1.2816505,0.90549225,0.8295423,0.646664,1.1635777,0.8509333,804.2491,819.5604,807.47253,813.91943,919.4872,0.0172119140625,0.0303955078125,0.98297119140625,2.115936279296875,-4.0673828125,0.46356201171875,1.0,1.0,1.0,1.0,1.0,100.0,event
13:21:44.281,0.68865484,0.8896539,0.0739787,0.9210392,0.39674088,0.49304706,0.1476774,0.83279836,0.32569632,0.055636745,0.2930229,0.62194043,1.103856,0.4912408,1.2816505,0.90549225,0.8295423,0.646664,1.1635777,0.8509333,838.49817,821.1722,797.3993,817.1429,694.65204,0.0172119140625,0.0303955078125,0.98297119140625,2.115936279296875,-4.0673828125,0.46356201171875,1.0,1.0,1.0,1.0,1.0,100.0,event
13:21:44.282,0.64880097,0.8465027,0.036076713,0.8275846,0.34503064,0.44218615,0.10955338,0.65992963,0.33249566,0.081309564,0.2930229,0.4527259,1.1005208,0.58243483,1.2756523,0.87067264,0.8142612,0.6366169,1.1395125,0.75358206,859.45056,832.0513,793.36993,830.4396,718.4249,0.0172119140625,0.0303955078125,0.98297119140625,2.115936279296875,-4.0673828125,0.46356201171875,1.0,1.0,1.0,1.0,1.0,100.0,event
13:21:44.308,0.64880097,0.8465027,0.036076713,0.8275846,0.34503064,0.44218615,0.10955338,0.65992963,0.33249566,0.081309564,0.2930229,0.4527259,1.1005208,0.58243483,1.2756523,0.87067264,0.8142612,0.6366169,1.1395125,0.75358206,838.9011,831.2454,796.5934,830.4396,850.18317,0.01751708984375,0.03778076171875,0.98834228515625,2.2430419921875,-3.828125,0.919647216796875,1.0,1.0,1.0,1.0,1.0,100.0,event
13:21:44.308,0.64880097,0.8465027,0.036076713,0.8275846,0.34503064,0.44218615,0.10955338,0.65992963,0.33249566,0.081309564,0.2930229,0.4527259,1.1005208,0.58243483,1.2756523,0.87067264,0.8142612,0.6366169,1.1395125,0.75358206,790.54944,820.7692,813.1135,804.65204,749.85345,0.01751708984375,0.03778076171875,0.98834228515625,2.2430419921875,-3.828125,0.919647216796875,1.0,1.0,1.0,1.0,1.0,100.0,event
13:21:44.309,0.64880097,0.8465027,0.036076713,0.8275846,0.34503064,0.44218615,0.10955338,0.65992963,0.33249566,0.081309564,0.2930229,0.4527259,1.1005208,0.58243483,1.2756523,0.87067264,0.8142612,0.6366169,1.1395125,0.75358206,796.1905,838.9011,826.0073,805.8608,616.08057,0.01751708984375,0.03778076171875,0.98834228515625,2.2430419921875,-3.828125,0.919647216796875,1.0,1.0,1.0,1.0,1.0,100.0,event
13:21:44.310,0.64880097,0.8465027,0.036076713,0.8275846,0.34503064,0.44218615,0.10955338,0.65992963,0.33249566,0.081309564,0.2930229,0.4527259,1.1005208,0.58243483,1.2756523,0.87067264,0.8142612,0.6366169,1.1395125,0.75358206,840.5128,845.34796,828.022,817.9487,651.13556,0.01751708984375,0.03778076171875,0.98834228515625,2.2430419921875,-3.828125,0.919647216796875,1.0,1.0,1.0,1.0,1.0,100.0,event
13:21:44.310,0.64880097,0.8465027,0.036076713,0.8275846,0.34503064,0.44218615,0.10955338,0.65992963,0.33249566,0.081309564,0.2930229,0.4527259,1.1005208,0.58243483,1.2756523,0.87067264,0.8142612,0.6366169,1.1395125,0.75358206,857.4359,843.73627,820.7692,826.4103,758.71796,0.01751708984375,0.03778076171875,0.98834228515625,2.2430419921875,-3.828125,0.919647216796875,1.0,1.0,1.0,1.0,1.0,100.0,event
13:21:44.311,0.64880097,0.8465027,0.036076713,0.8275846,0.34503064,0.44218615,0.10955338,0.65992963,0.33249566,0.081309564,0.2930229,0.4527259,1.1005208,0.58243483,1.2756523,0.87067264,0.8142612,0.6366169,1.1395125,0.75358206,840.5128,848.97437,801.02563,844.94507,891.28204,0.01751708984375,0.03778076171875,0.98834228515625,2.2430419921875,-3.828125,0.919647216796875,1.0,1.0,1.0,1.0,1.0,100.0,event
13:21:44.311,0.64880097,0.8465027,0.036076713,0.8275846,0.34503064,0.44218615,0.10955338,0.65992963,0.33249566,0.081309564,0.2930229,0.4527259,1.1005208,0.58243483,1.2756523,0.87067264,0.8142612,0.6366169,1.1395125,0.75358206,789.7436,839.707,775.64105,812.71063,925.12823,0.01751708984375,0.03778076171875,0.98834228515625,2.2430419921875,-3.828125,0.919647216796875,1.0,1.0,1.0,1.0,1.0,100.0,event
13:21:44.312,0.64880097,0.8465027,0.036076713,0.8275846,0.34503064,0.44218615,0.10955338,0.65992963,0.33249566,0.081309564,0.2930229,0.4527259,1.1005208,0.58243483,1.2756523,0.87067264,0.8142612,0.6366169,1.1395125,0.75358206,782.49084,839.304,788.5348,796.99634,929.5604,0.01751708984375,0.03778076171875,0.98834228515625,2.2430419921875,-3.828125,0.919647216796875,1.0,1.0,1.0,1.0,1.0,100.0,event
13:21:44.312,0.64880097,0.8465027,0.036076713,0.8275846,0.34503064,0.44218615,0.10955338,0.65992963,0.33249566,0.081309564,0.2930229,0.4527259,1.1005208,0.58243483,1.2756523,0.87067264,0.8142612,0.6366169,1.1395125,0.75358206,824.7985,827.619,792.96704,823.5897,987.5824,0.01751708984375,0.03778076171875,0.98834228515625,2.2430419921875,-3.828125,0.919647216796875,1.0,1.0,1.0,1.0,1.0,100.0,event
13:21:44.313,0.64880097,0.8465027,0.036076713,0.8275846,0.34503064,0.44218615,0.10955338,0.65992963,0.33249566,0.081309564,0.2930229,0.4527259,1.1005208,0.58243483,1.2756523,0.87067264,0.8142612,0.6366169,1.1395125,0.75358206,846.9597,832.0513,785.31134,824.7985,821.5751,0.01751708984375,0.03778076171875,0.98834228515625,2.2430419921875,-3.828125,0.919647216796875,1.0,1.0,1.0,1.0,1.0,100.0,event
13:21:44.313,0.64880097,0.8465027,0.036076713,0.8275846,0.34503064,0.44218615,0.10955338,0.65992963,0.33249566,0.081309564,0.2930229,0.4527259,1.1005208,0.58243483,1.2756523,0.87067264,0.8142612,0.6366169,1.1395125,0.75358206,842.1245,846.9597,832.0513,826.0073,717.2161,0.01751708984375,0.03778076171875,0.98834228515625,2.2430419921875,-3.828125,0.919647216796875,1.0,1.0,1.0,1.0,1.0,100.0,event
13:21:44.314,0.64880097,0.8465027,0.036076713,0.8275846,0.34503064,0.44218615,0.10955338,0.65992963,0.33249566,0.081309564,0.2930229,0.4527259,1.1005208,0.58243483,1.2756523,0.87067264,0.8142612,0.6366169,1.1395125,0.75358206,806.6667,847.3626,855.82416,819.15753,775.2381,0.01751708984375,0.03778076171875,0.98834228515625,2.2430419921875,-3.828125,0.919647216796875,1.0,1.0,1.0,1.0,1.0,100.0,event
13:21:44.344,0.64880097,0.8465027,0.036076713,0.8275846,0.34503064,0.44218615,0.10955338,0.65992963,0.33249566,0.081309564,0.2930229,0.4527259,1.1005208,0.58243483,1.2756523,0.87067264,0.8142612,0.6366169,1.1395125,0.75358206,791.75824,859.0476,818.7546,807.8755,782.0879,0.0101318359375,0.03887939453125,0.98980712890625,2.2430419921875,-3.401947021484375,-0.082244873046875,1.0,1.0,1.0,1.0,1.0,100.0,event
13:21:44.345,0.64880097,0.8465027,0.036076713,0.8275846,0.34503064,0.44218615,0.10955338,0.65992963,0.33249566,0.081309564,0.2930229,0.4527259,1.1005208,0.58243483,1.2756523,0.87067264,0.8142612,0.6366169,1.1395125,0.75358206,828.4249,852.6007,799.011,804.65204,674.90845,0.0101318359375,0.03887939453125,0.98980712890625,2.2430419921875,-3.401947021484375,-0.082244873046875,1.0,1.0,1.0,1.0,1.0,100.0,event
13:21:44.346,0.64880097,0.8465027,0.036076713,0.8275846,0.34503064,0.44218615,0.10955338,0.65992963,0.33249566,0.081309564,0.2930229,0.4527259,1.1005208,0.58243483,1.2756523,0.87067264,0.8142612,0.6366169,1.1395125,0.75358206,860.65936,818.7546,815.9341,818.3516,676.52014,0.0101318359375,0.03887939453125,0.98980712890625,2.2430419921875,-3.401947021484375,-0.082244873046875,1.0,1.0,1.0,1.0,1.0,100.0,event
13:21:44.347,0.64880097,0.8465027,0.036076713,0.8275846,0.34503064,0.44218615,0.10955338,0.65992963,0.33249566,0.081309564,0.2930229,0.4527259,1.1005208,0.58243483,1.2756523,0.87067264,0.8142612,0.6366169,1.1395125,0.75358206,845.34796,826.8132,803.44324,842.9304,909.011,0.0101318359375,0.03887939453125,0.98980712890625,2.2430419921875,-3.401947021484375,-0.082244873046875,1.0,1.0,1.0,1.0,1.0,100.0,event
13:21:44.348,0.64880097,0.8465027,0.036076713,0.8275846,0.34503064,0.44218615,0.10955338,0.65992963,0.33249566,0.081309564,0.2930229,0.4527259,1.1005208,0.58243483,1.2756523,0.87067264,0.8142612,0.6366169,1.1395125,0.75358206,803.0403,848.1685,787.326,818.7546,844.1392,0.0101318359375,0.03887939453125,0.98980712890625,2.2430419921875,-3.401947021484375,-0.082244873046875,1.0,1.0,1.0,1.0,1.0,100.0,event
13:21:44.349,0.64880097,0.8465027,0.036076713,0.8275846,0.34503064,0.44218615,0.10955338,0.65992963,0.33249566,0.081309564,0.2930229,0.4527259,1.1005208,0.58243483,1.2756523,0.87067264,0.8142612,0.6366169,1.1395125,0.75358206,795.78754,831.2454,800.6227,811.0989,821.1722,0.0101318359375,0.03887939453125,0.98980712890625,2.2430419921875,-3.401947021484375,-0.082244873046875,1.0,1.0,1.0,1.0,1.0,100.0,event
13:21:44.350,0.64880097,0.8465027,0.036076713,0.8275846,0.34503064,0.44218615,0.10955338,0.65992963,0.33249566,0.081309564,0.2930229,0.4527259,1.1005208,0.58243483,1.2756523,0.87067264,0.8142612,0.6366169,1.1395125,0.75358206,823.1868,815.5311,811.50183,823.9927,915.8608,0.0101318359375,0.03887939453125,0.98980712890625,2.2430419921875,-3.401947021484375,-0.082244873046875,1.0,1.0,1.0,1.0,1.0,100.0,event
13:21:44.351,0.64880097,0.8465027,0.036076713,0.8275846,0.34503064,0.44218615,0.10955338,0.65992963,0.33249566,0.081309564,0.2930229,0.4527259,1.1005208,0.58243483,1.2756523,0.87067264,0.8142612,0.6366169,1.1395125,0.75358206,830.0366,820.3663,831.2454,822.7839,1044.7986,0.0101318359375,0.03887939453125,0.98980712890625,2.2430419921875,-3.401947021484375,-0.082244873046875,1.0,1.0,1.0,1.0,1.0,100.0,event
13:21:44.352,0.64880097,0.8465027,0.036076713,0.8275846,0.34503064,0.44218615,0.10955338,0.65992963,0.33249566,0.081309564,0.2930229,0.4527259,1.1005208,0.58243483,1.2756523,0.87067264,0.8142612,0.6366169,1.1395125,0.75358206,833.2601,833.2601,842.9304,827.619,971.8681,0.0101318359375,0.03887939453125,0.98980712890625,2.2430419921875,-3.401947021484375,-0.082244873046875,1.0,1.0,1.0,1.0,1.0,100.0,event
13:21:44.353,0.64880097,0.8465027,0.036076713,0.8275846,0.34503064,0.44218615,0.10955338,0.65992963,0.33249566,0.081309564,0.2930229,0.4527259,1.1005208,0.58243483,1.2756523,0.87067264,0.8142612,0.6366169,1.1395125,0.75358206,805.8608,844.5421,836.08057,828.022,772.01465,0.0101318359375,0.03887939453125,0.98980712890625,2.2430419921875,-3.401947021484375,-0.082244873046875,1.0,1.0,1.0,1.0,1.0,100.0,event
13:21:44.354,0.64880097,0.8465027,0.036076713,0.8275846,0.34503064,0.44218615,0.10955338,0.65992963,0.33249566,0.081309564,0.2930229,0.4527259,1.1005208,0.58243483,1.2756523,0.87067264,0.8142612,0.6366169,1.1395125,0.75358206,789.34064,846.1539,824.3956,820.3663,764.35895,0.0101318359375,0.03887939453125,0.98980712890625,2.2430419921875,-3.401947021484375,-0.082244873046875,1.0,1.0,1.0,1.0,1.0,100.0,event
13:21:44.355,0.64880097,0.8465027,0.036076713,0.8275846,0.34503064,0.44218615,0.10955338,0.65992963,0.33249566,0.081309564,0.2930229,0.4527259,1.1005208,0.58243483,1.2756523,0.87067264,0.8142612,0.6366169,1.1395125,0.75358206,817.5458,844.1392,818.7546,809.0842,810.696,0.0101318359375,0.03887939453125,0.98980712890625,2.2430419921875,-3.401947021484375,-0.082244873046875,1.0,1.0,1.0,1.0,1.0,100.0,event
13:21:44.411,0.64880097,0.8465027,0.036076713,0.8275846,0.34503064,0.44218615,0.10955338,0.65992963,0.33249566,0.081309564,0.2930229,0.4527259,1.1005208,0.58243483,1.2756523,0.87067264,0.8142612,0.6366169,1.1395125,0.75358206,848.5714,840.10986,805.4579,815.5311,763.95605,0.0101318359375,0.03887939453125,0.98980712890625,2.2430419921875,-3.401947021484375,-0.082244873046875,1.0,1.0,1.0,1.0,1.0,100.0,event
13:21:44.412,0.6078394,0.8057842,0.00085328496,0.7801376,0.29963365,0.4114291,0.085721344,0.43906668,0.38225156,0.10615342,0.2930229,0.28648025,1.1044929,0.64799744,1.2626362,0.8632962,0.8008417,0.6464583,1.1295607,0.65216047,863.47986,828.4249,777.6557,839.707,704.7253,0.0101318359375,0.03887939453125,0.98980712890625,2.2430419921875,-3.401947021484375,-0.082244873046875,1.0,1.0,1.0,1.0,1.0,100.0,event
13:21:44.416,0.6078394,0.8057842,0.00085328496,0.7801376,0.29963365,0.4114291,0.085721344,0.43906668,0.38225156,0.10615342,0.2930229,0.28648025,1.1044929,0.64799744,1.2626362,0.8632962,0.8008417,0.6464583,1.1295607,0.65216047,812.3077,829.6337,777.6557,840.10986,769.19415,0.0101318359375,0.03887939453125,0.98980712890625,2.2430419921875,-3.401947021484375,-0.082244873046875,1.0,1.0,1.0,1.0,1.0,100.0,event
13:21:44.417,0.6078394,0.8057842,0.00085328496,0.7801376,0.29963365,0.4114291,0.085721344,0.43906668,0.38225156,0.10615342,0.2930229,0.28648025,1.1044929,0.64799744,1.2626362,0.8632962,0.8008417,0.6464583,1.1295607,0.65216047,768.3883,842.52747,789.7436,815.12823,820.7692,0.0101318359375,0.03887939453125,0.98980712890625,2.2430419921875,-3.401947021484375,-0.082244873046875,1.0,1.0,1.0,1.0,1.0,100.0,event
13:21:44.418,0.6078394,0.8057842,0.00085328496,0.7801376,0.29963365,0.4114291,0.085721344,0.43906668,0.38225156,0.10615342,0.2930229,0.28648025,1.1044929,0.64799744,1.2626362,0.8632962,0.8008417,0.6464583,1.1295607,0.65216047,802.6374,828.8278,828.4249,800.2198,699.4872,0.0101318359375,0.03887939453125,0.98980712890625,2.2430419921875,-3.401947021484375,-0.082244873046875,1.0,1.0,1.0,1.0,1.0,100.0,event
13:21:44.419,0.6078394,0.8057842,0.00085328496,0.7801376,0.29963365,0.4114291,0.085721344,0.43906668,0.38225156,0.10615342,0.2930229,0.28648025,1.1044929,0.64799744,1.2626362,0.8632962,0.8008417,0.6464583,1.1295607,0.65216047,837.6923,826.0073,862.27106,815.5311,677.72894,0.0101318359375,0.03887939453125,0.98980712890625,2.2430419921875,-3.401947021484375,-0.082244873046875,1.0,1.0,1.0,1.0,1.0,100.0,event
13:21:44.419,0.6078394,0.8057842,0.00085328496,0.7801376,0.29963365,0.4114291,0.085721344,0.43906668,0.38225156,0.10615342,0.2930229,0.28648025,1.1044929,0.64799744,1.2626362,0.8632962,0.8008417,0.6464583,1.1295607,0.65216047,855.42126,837.28937,848.1685,842.52747,909.011,0.0101318359375,0.03887939453125,0.98980712890625,2.2430419921875,-3.401947021484375,-0.082244873046875,1.0,1.0,1.0,1.0,1.0,100.0,event
13:21:44.420,0.6078394,0.8057842,0.00085328496,0.7801376,0.29963365,0.4114291,0.085721344,0.43906668,0.38225156,0.10615342,0.2930229,0.28648025,1.1044929,0.64799744,1.2626362,0.8632962,0.8008417,0.6464583,1.1295607,0.65216047,797.3993,834.0659,819.5604,823.1868,1073.4066,0.0101318359375,0.03887939453125,0.98980712890625,2.2430419921875,-3.401947021484375,-0.082244873046875,1.0,1.0,1.0,1.0,1.0,100.0,event
13:21:44.420,0.6078394,0.8057842,0.00085328496,0.7801376,0.29963365,0.4114291,0.085721344,0.43906668,0.38225156,0.10615342,0.2930229,0.28648025,1.1044929,0.64799744,1.2626362,0.8632962,0.8008417,0.6464583,1.1295607,0.65216047,763.5531,850.989,787.72894,794.57874,842.1245,0.0101318359375,0.03887939453125,0.98980712890625,2.2430419921875,-3.401947021484375,-0.082244873046875,1.0,1.0,1.0,1.0,1.0,100.0,event
13:21:44.421,0.6078394,0.8057842,0.00085328496,0.7801376,0.29963365,0.4114291,0.085721344,0.43906668,0.38225156,0.10615342,0.2930229,0.28648025,1.1044929,0.64799744,1.2626362,0.8632962,0.8008417,0.6464583,1.1295607,0.65216047,806.26373,850.58606,794.57874,796.5934,670.07324,0.0101318359375,0.03887939453125,0.98980712890625,2.2430419921875,-3.401947021484375,-0.082244873046875,1.0,1.0,1.0,1.0,1.0,100.0,event
13:21:44.422,0.6078394,0.8057842,0.00085328496,0.7801376,0.29963365,0.4114291,0.085721344,0.43906668,0.38225156,0.10615342,0.2930229,0.28648025,1.1044929,0.64799744,1.2626362,0.8632962,0.8008417,0.6464583,1.1295607,0.65216047,834.4689,840.9158,803.0403,800.6227,748.24176,0.0101318359375,0.03887939453125,0.98980712890625,2.2430419921875,-3.401947021484375,-0.082244873046875,1.0,1.0,1.0,1.0,1.0,100.0,event
13:21:44.422,0.6078394,0.8057842,0.00085328496,0.7801376,0.29963365,0.4114291,0.085721344,0.43906668,0.38225156,0.10615342,0.2930229,0.28648025,1.1044929,0.64799744,1.2626362,0.8632962,0.8008417,0.6464583,1.1295607,0.65216047,855.42126,838.9011,802.6374,819.9634,745.82416,0.0101318359375,0.03887939453125,0.98980712890625,2.2430419921875,-3.401947021484375,-0.082244873046875,1.0,1.0,1.0,1.0,1.0,100.0,event
13:21:44.446,0.6078394,0.8057842,0.00085328496,0.7801376,0.29963365,0.4114291,0.085721344,0.43906668,0.38225156,0.10615342,0.2930229,0.28648025,1.1044929,0.64799744,1.2626362,0.8632962,0.8008417,0.6464583,1.1295607,0.65216047,827.2161,820.3663,820.7692,827.619,676.52014,0.0224609375,0.035400390625,0.986083984375,1.55517578125,-3.028106689453125,-0.665435791015625,1.0,1.0,1.0,1.0,1.0,100.0,event
13:21:44.447,0.6078394,0.8057842,0.00085328496,0.7801376,0.29963365,0.4114291,0.085721344,0.43906668,0.38225156,0.10615342,0.2930229,0.28648025,1.1044929,0.64799744,1.2626362,0.8632962,0.8008417,0.6464583,1.1295607,0.65216047,786.52014,828.022,817.9487,810.293,679.7436,0.0224609375,0.035400390625,0.986083984375,1.55517578125,-3.028106689453125,-0.665435791015625,1.0,1.0,1.0,1.0,1.0,100.0,event
13:21:44.448,0.6078394,0.8057842,0.00085328496,0.7801376,0.29963365,0.4114291,0.085721344,0.43906668,0.38225156,0.10615342,0.2930229,0.28648025,1.1044929,0.64799744,1.2626362,0.8632962,0.8008417,0.6464583,1.1295607,0.65216047,817.9487,842.52747,802.6374,811.50183,781.28204,0.0224609375,0.035400390625,0.986083984375,1.55517578125,-3.028106689453125,-0.665435791015625,1.0,1.0,1.0,1.0,1.0,100.0,event
13:21:44.448,0.6078394,0.8057842,0.00085328496,0.7801376,0.29963365,0.4114291,0.085721344,0.43906668,0.38225156,0.10615342,0.2930229,0.28648025,1.1044929,0.64799744,1.2626362,0.8632962,0.8008417,0.6464583,1.1295607,0.65216047,856.2271,844.94507,805.8608,822.381,753.8828,0.0224609375,0.035400390625,0.986083984375,1.55517578125,-3.028106689453125,-0.665435791015625,1.0,1.0,1.0,1.0,1.0,100.0,event
13:21:44.449,0.6078394,0.8057842,0.00085328496,0.7801376,0.29963365,0.4114291,0.085721344,0.43906668,0.38225156,0.10615342,0.2930229,0.28648025,1.1044929,0.64799744,1.2626362,0.8632962,0.8008417,0.6464583,1.1295607,0.65216047,861.4652,860.65936,813.91943,845.34796,714.3956,0.0224609375,0.035400390625,0.986083984375,1.55517578125,-3.028106689453125,-0.665435791015625,1.0,1.0,1.0,1.0,1.0,100.0,event
13:21:44.450,0.6078394,0.8057842,0.00085328496,0.7801376,0.29963365,0.4114291,0.085721344,0.43906668,0.38225156,0.10615342,0.2930229,0.28648025,1.1044929,0.64799744,1.2626362,0.8632962,0.8008417,0.6464583,1.1295607,0.65216047,841.7216,858.6447,805.05493,842.52747,826.4103,0.0224609375,0.035400390625,0.986083984375,1.55517578125,-3.028106689453125,-0.665435791015625,1.0,1.0,1.0,1.0,1.0,100.0,event
13:21:44.450,0.6078394,0.8057842,0.00085328496,0.7801376,0.29963365,0.4114291,0.085721344,0.43906668,0.38225156,0.10615342,0.2930229,0.28648025,1.1044929,0.64799744,1.2626362,0.8632962,0.8008417,0.6464583,1.1295607,0.65216047,802.23444,844.94507,788.93774,824.3956,1056.0806,0.0224609375,0.035400390625,0.986083984375,1.55517578125,-3.028106689453125,-0.665435791015625,1.0,1.0,1.0,1.0,1.0,100.0,event
13:21:44.451,0.6078394,0.8057842,0.00085328496,0.7801376,0.29963365,0.4114291,0.085721344,0.43906668,0.38225156,0.10615342,0.2930229,0.28648025,1.1044929,0.64799744,1.2626362,0.8632962,0.8008417,0.6464583,1.1295607,0.65216047,796.5934,840.9158,778.46155,819.15753,972.674,0.0224609375,0.035400390625,0.986083984375,1.55517578125,-3.028106689453125,-0.665435791015625,1.0,1.0,1.0,1.0,1.0,100.0,event
13:21:44.451,0.6078394,0.8057842,0.00085328496,0.7801376,0.29963365,0.4114291,0.085721344,0.43906668,0.38225156,0.10615342,0.2930229,0.28648025,1.1044929,0.64799744,1.2626362,0.8632962,0.8008417,0.6464583,1.1295607,0.65216047,841.31866,835.2747,789.7436,824.7985,766.77655,0.0224609375,0.035400390625,0.986083984375,1.55517578125,-3.028106689453125,-0.665435791015625,1.0,1.0,1.0,1.0,1.0,100.0,event
13:21:44.452,0.6078394,0.8057842,0.00085328496,0.7801376,0.29963365,0.4114291,0.085721344,0.43906668,0.38225156,0.10615342,0.2930229,0.28648025,1.1044929,0.64799744,1.2626362,0.8632962,0.8008417,0.6464583,1.1295607,0.65216047,869.92676,830.4396,801.8315,844.5421,831.6484,0.0224609375,0.035400390625,0.986083984375,1.55517578125,-3.028106689453125,-0.665435791015625,1.0,1.0,1.0,1.0,1.0,100.0,event
13:21:44.453,0.6078394,0.8057842,0.00085328496,0.7801376,0.29963365,0.4114291,0.085721344,0.43906668,0.38225156,0.10615342,0.2930229,0.28648025,1.1044929,0.64799744,1.2626362,0.8632962,0.8008417,0.6464583,1.1295607,0.65216047,848.97437,824.3956,798.60803,858.24176,961.39197,0.0224609375,0.035400390625,0.986083984375,1.55517578125,-3.028106689453125,-0.665435791015625,1.0,1.0,1.0,1.0,1.0,100.0,event
13:21:44.453,0.6078394,0.8057842,0.00085328496,0.7801376,0.29963365,0.4114291,0.085721344,0.43906668,0.38225156,0.10615342,0.2930229,0.28648025,1.1044929,0.64799744,1.2626362,0.8632962,0.8008417,0.6464583,1.1295607,0.65216047,816.7399,826.0073,806.26373,846.9597,779.67035,0.0224609375,0.035400390625,0.986083984375,1.55517578125,-3.028106689453125,-0.665435791015625,1.0,1.0,1.0,1.0,1.0,100.0,event
13:21:44.477,0.6078394,0.8057842,0.00085328496,0.7801376,0.29963365,0.4114291,0.085721344,0.43906668,0.38225156,0.10615342,0.2930229,0.28648025,1.1044929,0.64799744,1.2626362,0.8632962,0.8008417,0.6464583,1.1295607,0.65216047,811.0989,831.2454,818.3516,826.4103,635.82416,0.01617431640625,0.03924560546875,0.99114990234375,1.854248046875,-3.5589599609375,0.777587890625,1.0,1.0,1.0,1.0,1.0,100.0,event
13:21:44.478,0.6078394,0.8057842,0.00085328496,0.7801376,0.29963365,0.4114291,0.085721344,0.43906668,0.38225156,0.10615342,0.2930229,0.28648025,1.1044929,0.64799744,1.2626362,0.8632962,0.8008417,0.6464583,1.1295607,0.65216047,835.6777,850.989,821.1722,836.4835,695.4579,0.01617431640625,0.03924560546875,0.99114990234375,1.854248046875,-3.5589599609375,0.777587890625,1.0,1.0,1.0,1.0,1.0,100.0,event
13:21:44.479,0.6078394,0.8057842,0.00085328496,0.7801376,0.29963365,0.4114291,0.085721344,0.43906668,0.38225156,0.10615342,0.2930229,0.28648025,1.1044929,0.64799744,1.2626362,0.8632962,0.8008417,0.6464583,1.1295607,0.65216047,859.85345,851.39197,809.0842,847.3626,760.7326,0.01617431640625,0.03924560546875,0.99114990234375,1.854248046875,-3.5589599609375,0.777587890625,1.0,1.0,1.0,1.0,1.0,100.0,event
13:21:44.479,0.57186943,0.76871854,-0.031888824,0.73917615,0.26175287,0.388672,0.06666268,0.24707732,0.44077963,0.1529898,0.2930229,0.042970147,1.1067879,0.68996006,1.2471956,0.8814687,0.79231673,0.6668958,1.1253107,0.54263556,822.381,835.6777,801.02563,828.4249,780.07324,0.01617431640625,0.03924560546875,0.99114990234375,1.854248046875,-3.5589599609375,0.777587890625,1.0,1.0,1.0,1.0,1.0,100.0,event
13:21:44.484,0.57186943,0.76871854,-0.031888824,0.73917615,0.26175287,0.388672,0.06666268,0.24707732,0.44077963,0.1529898,0.2930229,0.042970147,1.1067879,0.68996006,1.2471956,0.8814687,0.79231673,0.6668958,1.1253107,0.54263556,767.1795,842.52747,796.99634,798.20514,737.76556,0.01617431640625,0.03924560546875,0.99114990234375,1.854248046875,-3.5589599609375,0.777587890625,1.0,1.0,1.0,1.0,1.0,100.0,event
13:21:44.484,0.57186943,0.76871854,-0.031888824,0.73917615,0.26175287,0.388672,0.06666268,0.24707732,0.44077963,0.1529898,0.2930229,0.042970147,1.1067879,0.68996006,1.2471956,0.8814687,0.79231673,0.6668958,1.1253107,0.54263556,788.5348,851.79486,782.8938,799.41394,873.1502,0.01617431640625,0.03924560546875,0.99114990234375,1.854248046875,-3.5589599609375,0.777587890625,1.0,1.0,1.0,1.0,1.0,100.0,event
13:21:44.485,0.57186943,0.76871854,-0.031888824,0.73917615,0.26175287,0.388672,0.06666268,0.24707732,0.44077963,0.1529898,0.2930229,0.042970147,1.1067879,0.68996006,1.2471956,0.8814687,0.79231673,0.6668958,1.1253107,0.54263556,830.4396,844.94507,798.20514,813.5165,985.56775,0.01617431640625,0.03924560546875,0.99114990234375,1.854248046875,-3.5589599609375,0.777587890625,1.0,1.0,1.0,1.0,1.0,100.0,event
13:21:44.485,0.57186943,0.76871854,-0.031888824,0.73917615,0.26175287,0.388672,0.06666268,0.24707732,0.44077963,0.1529898,0.2930229,0.042970147,1.1067879,0.68996006,1.2471956,0.8814687,0.79231673,0.6668958,1.1253107,0.54263556,858.24176,821.978,825.2015,830.84247,890.87915,0.01617431640625,0.03924560546875,0.99114990234375,1.854248046875,-3.5589599609375,0.777587890625,1.0,1.0,1.0,1.0,1.0,100.0,event
13:21:44.486,0.57186943,0.76871854,-0.031888824,0.73917615,0.26175287,0.388672,0.06666268,0.24707732,0.44077963,0.1529898,0.2930229,0.042970147,1.1067879,0.68996006,1.2471956,0.8814687,0.79231673,0.6668958,1.1253107,0.54263556,861.8681,818.3516,824.3956,843.3333,800.6227,0.01617431640625,0.03924560546875,0.99114990234375,1.854248046875,-3.5589599609375,0.777587890625,1.0,1.0,1.0,1.0,1.0,100.0,event
13:21:44.487,0.57186943,0.76871854,-0.031888824,0.73917615,0.26175287,0.388672,0.06666268,0.24707732,0.44077963,0.1529898,0.2930229,0.042970147,1.1067879,0.68996006,1.2471956,0.8814687,0.79231673,0.6668958,1.1253107,0.54263556,798.20514,834.4689,779.2674,826.0073,924.3223,0.01617431640625,0.03924560546875,0.99114990234375,1.854248046875,-3.5589599609375,0.777587890625,1.0,1.0,1.0,1.0,1.0,100.0,event
13:21:44.487,0.57186943,0.76871854,-0.031888824,0.73917615,0.26175287,0.388672,0.06666268,0.24707732,0.44077963,0.1529898,0.2930229,0.042970147,1.1067879,0.68996006,1.2471956,0.8814687,0.79231673,0.6668958,1.1253107,0.54263556,783.2967,845.7509,778.46155,815.9341,973.8828,0.01617431640625,0.03924560546875,0.99114990234375,1.854248046875,-3.5589599609375,0.777587890625,1.0,1.0,1.0,1.0,1.0,100.0,event
13:21:44.488,0.57186943,0.76871854,-0.031888824,0.73917615,0.26175287,0.388672,0.06666268,0.24707732,0.44077963,0.1529898,0.2930229,0.042970147,1.1067879,0.68996006,1.2471956,0.8814687,0.79231673,0.6668958,1.1253107,0.54263556,818.3516,851.39197,812.3077,817.9487,786.52014,0.01617431640625,0.03924560546875,0.99114990234375,1.854248046875,-3.5589599609375,0.777587890625,1.0,1.0,1.0,1.0,1.0,100.0,event
13:21:44.544,0.57186943,0.76871854,-0.031888824,0.73917615,0.26175287,0.388672,0.06666268,0.24707732,0.44077963,0.1529898,0.2930229,0.042970147,1.1067879,0.68996006,1.2471956,0.8814687,0.79231673,0.6668958,1.1253107,0.54263556,845.34796,846.55676,817.9487,835.2747,748.6447,0.01336669921875,0.0355224609375,0.99041748046875,2.093505859375,-3.21502685546875,0.52337646484375,1.0,1.0,1.0,1.0,1.0,100.0,event
13:21:44.545,0.57186943,0.76871854,-0.031888824,0.73917615,0.26175287,0.388672,0.06666268,0.24707732,0.44077963,0.1529898,0.2930229,0.042970147,1.1067879,0.68996006,1.2471956,0.8814687,0.79231673,0.6668958,1.1253107,0.54263556,845.7509,845.34796,803.44324,850.18317,900.14655,0.01336669921875,0.0355224609375,0.99041748046875,2.093505859375,-3.21502685546875,0.52337646484375,1.0,1.0,1.0,1.0,1.0,100.0,event
13:21:44.546,0.57186943,0.76871854,-0.031888824,0.73917615,0.26175287,0.388672,0.06666268,0.24707732,0.44077963,0.1529898,0.2930229,0.042970147,1.1067879,0.68996006,1.2471956,0.8814687,0.79231673,0.6668958,1.1253107,0.54263556,778.0586,838.0952,808.2784,820.7692,853.4066,0.01336669921875,0.0355224609375,0.99041748046875,2.093505859375,-3.21502685546875,0.52337646484375,1.0,1.0,1.0,1.0,1.0,100.0,event
13:21:44.547,0.57186943,0.76871854,-0.031888824,0.73917615,0.26175287,0.388672,0.06666268,0.24707732,0.44077963,0.1529898,0.2930229,0.042970147,1.1067879,0.68996006,1.2471956,0.8814687,0.79231673,0.6668958,1.1253107,0.54263556,772.01465,817.5458,821.5751,792.96704,671.28204,0.01336669921875,0.0355224609375,0.99041748046875,2.093505859375,-3.21502685546875,0.52337646484375,1.0,1.0,1.0,1.0,1.0,100.0,event
13:21:44.547,0.57186943,0.76871854,-0.031888824,0.73917615,0.26175287,0.388672,0.06666268,0.24707732,0.44077963,0.1529898,0.2930229,0.042970147,1.1067879,0.68996006,1.2471956,0.8814687,0.79231673,0.6668958,1.1253107,0.54263556,811.9048,816.337,809.89014,797.3993,724.4689,0.01336669921875,0.0355224609375,0.99041748046875,2.093505859375,-3.21502685546875,0.52337646484375,1.0,1.0,1.0,1.0,1.0,100.0,event
13:21:44.548,0.57186943,0.76871854,-0.031888824,0.73917615,0.26175287,0.388672,0.06666268,0.24707732,0.44077963,0.1529898,0.2930229,0.042970147,1.1067879,0.68996006,1.2471956,0.8814687,0.79231673,0.6668958,1.1253107,0.54263556,805.4579,832.0513,810.696,802.23444,868.315,0.01336669921875,0.0355224609375,0.99041748046875,2.093505859375,-3.21502685546875,0.52337646484375,1.0,1.0,1.0,1.0,1.0,100.0,event
13:21:44.549,0.57186943,0.76871854,-0.031888824,0.73917615,0.26175287,0.388672,0.06666268,0.24707732,0.44077963,0.1529898,0.2930229,0.042970147,1.1067879,0.68996006,1.2471956,0.8814687,0.79231673,0.6668958,1.1253107,0.54263556,831.2454,849.3773,817.1429,832.8571,915.4579,0.01336669921875,0.0355224609375,0.99041748046875,2.093505859375,-3.21502685546875,0.52337646484375,1.0,1.0,1.0,1.0,1.0,100.0,event
13:21:44.549,0.57186943,0.76871854,-0.031888824,0.73917615,0.26175287,0.388672,0.06666268,0.24707732,0.44077963,0.1529898,0.2930229,0.042970147,1.1067879,0.68996006,1.2471956,0.8814687,0.79231673,0.6668958,1.1253107,0.54263556,815.12823,855.0183,789.7436,817.9487,769.59705,0.01336669921875,0.0355224609375,0.99041748046875,2.093505859375,-3.21502685546875,0.52337646484375,1.0,1.0,1.0,1.0,1.0,100.0,event
13:21:44.550,0.57186943,0.76871854,-0.031888824,0.73917615,0.26175287,0.388672,0.06666268,0.24707732,0.44077963,0.1529898,0.2930229,0.042970147,1.1067879,0.68996006,1.2471956,0.8814687,0.79231673,0.6668958,1.1253107,0.54263556,784.10254,842.9304,784.90845,804.2491,699.89014,0.01336669921875,0.0355224609375,0.99041748046875,2.093505859375,-3.21502685546875,0.52337646484375,1.0,1.0,1.0,1.0,1.0,100.0,event
13:21:44.551,0.57186943,0.76871854,-0.031888824,0.73917615,0.26175287,0.388672,0.06666268,0.24707732,0.44077963,0.1529898,0.2930229,0.042970147,1.1067879,0.68996006,1.2471956,0.8814687,0.79231673,0.6668958,1.1253107,0.54263556,825.2015,847.3626,804.65204,829.2308,933.9927,0.01336669921875,0.0355224609375,0.99041748046875,2.093505859375,-3.21502685546875,0.52337646484375,1.0,1.0,1.0,1.0,1.0,100.0,event
13:21:44.552,0.57186943,0.76871854,-0.031888824,0.73917615,0.26175287,0.388672,0.06666268,0.24707732,0.44077963,0.1529898,0.2930229,0.042970147,1.1067879,0.68996006,1.2471956,0.8814687,0.79231673,0.6668958,1.1253107,0.54263556,849.7802,864.68866,796.5934,823.5897,840.10986,0.01336669921875,0.0355224609375,0.99041748046875,2.093505859375,-3.21502685546875,0.52337646484375,1.0,1.0,1.0,1.0,1.0,100.0,event
13:21:44.553,0.57186943,0.76871854,-0.031888824,0.73917615,0.26175287,0.388672,0.06666268,0.24707732,0.44077963,0.1529898,0.2930229,0.042970147,1.1067879,0.68996006,1.2471956,0.8814687,0.79231673,0.6668958,1.1253107,0.54263556,845.34796,863.8828,794.17584,830.84247,712.381,0.01336669921875,0.0355224609375,0.99041748046875,2.093505859375,-3.21502685546875,0.52337646484375,1.0,1.0,1.0,1.0,1.0,100.0,event
13:21:44.579,0.57186943,0.76871854,-0.031888824,0.73917615,0.26175287,0.388672,0.06666268,0.24707732,0.44077963,0.1529898,0.2930229,0.042970147,1.1067879,0.68996006,1.2471956,0.8814687,0.79231673,0.6668958,1.1253107,0.54263556,817.9487,836.08057,820.3663,823.9927,795.78754,0.01458740234375,0.032958984375,0.98968505859375,1.697235107421875,-3.596343994140625,0.34393310546875,1.0,1.0,1.0,1.0,1.0,100.0,event
13:21:44.581,0.57186943,0.76871854,-0.031888824,0.73917615,0.26175287,0.388672,0.06666268,0.24707732,0.44077963,0.1529898,0.2930229,0.042970147,1.1067879,0.68996006,1.2471956,0.8814687,0.79231673,0.6668958,1.1253107,0.54263556,786.9231,805.4579,833.663,801.4286,858.24176,0.01458740234375,0.032958984375,0.98968505859375,1.697235107421875,-3.596343994140625,0.34393310546875,1.0,1.0,1.0,1.0,1.0,100.0,event
13:21:44.582,0.57186943,0.76871854,-0.031888824,0.73917615,0.26175287,0.388672,0.06666268,0.24707732,0.44077963,0.1529898,0.2930229,0.042970147,1.1067879,0.68996006,1.2471956,0.8814687,0.79231673,0.6668958,1.1253107,0.54263556,809.89014,823.9927,835.2747,813.91943,799.41394,0.01458740234375,0.032958984375,0.98968505859375,1.697235107421875,-3.596343994140625,0.34393310546875,1.0,1.0,1.0,1.0,1.0,100.0,event
13:21:44.583,0.57186943,0.76871854,-0.031888824,0.73917615,0.26175287,0.388672,0.06666268,0.24707732,0.44077963,0.1529898,0.2930229,0.042970147,1.1067879,0.68996006,1.2471956,0.8814687,0.79231673,0.6668958,1.1253107,0.54263556,853.00366,842.9304,823.1868,836.8865,707.1429,0.01458740234375,0.032958984375,0.98968505859375,1.697235107421875,-3.596343994140625,0.34393310546875,1.0,1.0,1.0,1.0,1.0,100.0,event
13:21:44.584,0.57186943,0.76871854,-0.031888824,0.73917615,0.26175287,0.388672,0.06666268,0.24707732,0.44077963,0.1529898,0.2930229,0.042970147,1.1067879,0.68996006,1.2471956,0.8814687,0.79231673,0.6668958,1.1253107,0.54263556,855.0183,843.73627,788.5348,841.7216,779.2674,0.01458740234375,0.032958984375,0.98968505859375,1.697235107421875,-3.596343994140625,0.34393310546875,1.0,1.0,1.0,1.0,1.0,100.0,event
13:21:44.585,0.5387644,0.69069564,-0.056596767,0.71930516,0.23316033,0.23983613,0.049973696,0.27591494,0.4707867,0.21068302,0.2930229,0.076830015,1.1022441,0.71571463,1.2371988,0.8762935,0.78918445,0.69787914,1.1204432,0.51718265,803.8461,847.3626,782.0879,808.68134,876.77655,0.01458740234375,0.032958984375,0.98968505859375,1.697235107421875,-3.596343994140625,0.34393310546875,1.0,1.0,1.0,1.0,1.0,100.0,event
13:21:44.589,0.5387644,0.69069564,-0.056596767,0.71930516,0.23316033,0.23983613,0.049973696,0.27591494,0.4707867,0.21068302,0.2930229,0.076830015,1.1022441,0.71571463,1.2371988,0.8762935,0.78918445,0.69787914,1.1204432,0.51718265,780.4762,846.9597,801.4286,806.6667,818.3516,0.01458740234375,0.032958984375,0.98968505859375,1.697235107421875,-3.596343994140625,0.34393310546875,1.0,1.0,1.0,1.0,1.0,100.0,event
13:21:44.590,0.5387644,0.69069564,-0.056596767,0.71930516,0.23316033,0.23983613,0.049973696,0.27591494,0.4707867,0.21068302,0.2930229,0.076830015,1.1022441,0.71571463,1.2371988,0.8762935,0.78918445,0.69787914,1.1204432,0.51718265,826.4103,843.3333,805.4579,831.6484,692.6374,0.01458740234375,0.032958984375,0.98968505859375,1.697235107421875,-3.596343994140625,0.34393310546875,1.0,1.0,1.0,1.0,1.0,100.0,event
13:21:44.591,0.5387644,0.69069564,-0.056596767,0.71930516,0.23316033,0.23983613,0.049973696,0.27591494,0.4707867,0.21068302,0.2930229,0.076830015,1.1022441,0.71571463,1.2371988,0.8762935,0.78918445,0.69787914,1.1204432,0.51718265,850.18317,828.4249,817.1429,832.4542,802.6374,0.01458740234375,0.032958984375,0.98968505859375,1.697235107421875,-3.596343994140625,0.34393310546875,1.0,1.0,1.0,1.0,1.0,100.0,event
13:21:44.591,0.5387644,0.69069564,-0.056596767,0.71930516,0.23316033,0.23983613,0.049973696,0.27591494,0.4707867,0.21068302,0.2930229,0.076830015,1.1022441,0.71571463,1.2371988,0.8762935,0.78918445,0.69787914,1.1204432,0.51718265,857.8388,835.2747,810.293,842.9304,952.1245,0.01458740234375,0.032958984375,0.98968505859375,1.697235107421875,-3.596343994140625,0.34393310546875,1.0,1.0,1.0,1.0,1.0,100.0,event
13:21:44.592,0.5387644,0.69069564,-0.056596767,0.71930516,0.23316033,0.23983613,0.049973696,0.27591494,0.4707867,0.21068302,0.2930229,0.076830015,1.1022441,0.71571463,1.2371988,0.8762935,0.78918445,0.69787914,1.1204432,0.51718265,813.91943,851.39197,788.93774,815.12823,746.63007,0.01458740234375,0.032958984375,0.98968505859375,1.697235107421875,-3.596343994140625,0.34393310546875,1.0,1.0,1.0,1.0,1.0,100.0,event
13:21:44.593,0.5387644,0.69069564,-0.056596767,0.71930516,0.23316033,0.23983613,0.049973696,0.27591494,0.4707867,0.21068302,0.2930229,0.076830015,1.1022441,0.71571463,1.2371988,0.8762935,0.78918445,0.69787914,1.1204432,0.51718265,780.4762,847.3626,805.8608,808.2784,626.9597,0.01458740234375,0.032958984375,0.98968505859375,1.697235107421875,-3.596343994140625,0.34393310546875,1.0,1.0,1.0,1.0,1.0,100.0,event
13:21:44.615,0.5387644,0.69069564,-0.056596767,0.71930516,0.23316033,0.23983613,0.049973696,0.27591494,0.4707867,0.21068302,0.2930229,0.076830015,1.1022441,0.71571463,1.2371988,0.8762935,0.78918445,0.69787914,1.1204432,0.51718265,810.696,839.304,811.50183,826.0073,723.2601,0.01458740234375,0.032958984375,0.98968505859375,1.697235107421875,-3.596343994140625,0.34393310546875,1.0,1.0,1.0,1.0,1.0,100.0,event
13:21:44.616,0.5387644,0.69069564,-0.056596767,0.71930516,0.23316033,0.23983613,0.049973696,0.27591494,0.4707867,0.21068302,0.2930229,0.076830015,1.1022441,0.71571463,1.2371988,0.8762935,0.78918445,0.69787914,1.1204432,0.51718265,852.1978,840.5128,809.0842,832.4542,791.3553,0.01458740234375,0.032958984375,0.98968505859375,1.697235107421875,-3.596343994140625,0.34393310546875,1.0,1.0,1.0,1.0,1.0,100.0,event
13:21:44.617,0.5387644,0.69069564,-0.056596767,0.71930516,0.23316033,0.23983613,0.049973696,0.27591494,0.4707867,0.21068302,0.2930229,0.076830015,1.1022441,0.71571463,1.2371988,0.8762935,0.78918445,0.69787914,1.1204432,0.51718265,853.8095,824.7985,786.1172,864.2857,812.71063,0.01458740234375,0.032958984375,0.98968505859375,1.697235107421875,-3.596343994140625,0.34393310546875,1.0,1.0,1.0,1.0,1.0,100.0,event
13:21:44.617,0.5387644,0.69069564,-0.056596767,0.71930516,0.23316033,0.23983613,0.049973696,0.27591494,0.4707867,0.21068302,0.2930229,0.076830015,1.1022441,0.71571463,1.2371988,0.8762935,0.78918445,0.69787914,1.1204432,0.51718265,885.64105,827.619,812.3077,859.0476,789.34064,0.01458740234375,0.032958984375,0.98968505859375,1.697235107421875,-3.596343994140625,0.34393310546875,1.0,1.0,1.0,1.0,1.0,100.0,event
13:21:44.618,0.5387644,0.69069564,-0.056596767,0.71930516,0.23316033,0.23983613,0.049973696,0.27591494,0.4707867,0.21068302,0.2930229,0.076830015,1.1022441,0.71571463,1.2371988,0.8762935,0.78918445,0.69787914,1.1204432,0.51718265,804.65204,853.4066,778.46155,841.31866,994.43225,0.01458740234375,0.032958984375,0.98968505859375,1.697235107421875,-3.596343994140625,0.34393310546875,1.0,1.0,1.0,1.0,1.0,100.0,event
13:21:44.619,0.5387644,0.69069564,-0.056596767,0.71930516,0.23316033,0.23983613,0.049973696,0.27591494,0.4707867,0.21068302,0.2930229,0.076830015,1.1022441,0.71571463,1.2371988,0.8762935,0.78918445,0.69787914,1.1204432,0.51718265,823.1868,861.4652,810.696,824.7985,918.2784,0.01458740234375,0.032958984375,0.98968505859375,1.697235107421875,-3.596343994140625,0.34393310546875,1.0,1.0,1.0,1.0,1.0,100.0,event
13:21:44.619,0.5387644,0.69069564,-0.056596767,0.71930516,0.23316033,0.23983613,0.049973696,0.27591494,0.4707867,0.21068302,0.2930229,0.076830015,1.1022441,0.71571463,1.2371988,0.8762935,0.78918445,0.69787914,1.1204432,0.51718265,844.1392,846.9597,805.8608,823.9927,783.69965,0.01458740234375,0.032958984375,0.98968505859375,1.697235107421875,-3.596343994140625,0.34393310546875,1.0,1.0,1.0,1.0,1.0,100.0,event
13:21:44.620,0.5387644,0.69069564,-0.056596767,0.71930516,0.23316033,0.23983613,0.049973696,0.27591494,0.4707867,0.21068302,0.2930229,0.076830015,1.1022441,0.71571463,1.2371988,0.8762935,0.78918445,0.69787914,1.1204432,0.51718265,864.2857,835.6777,806.26373,854.21246,776.04395,0.01458740234375,0.032958984375,0.98968505859375,1.697235107421875,-3.596343994140625,0.34393310546875,1.0,1.0,1.0,1.0,1.0,100.0,event
13:21:44.620,0.5387644,0.69069564,-0.056596767,0.71930516,0.23316033,0.23983613,0.049973696,0.27591494,0.4707867,0.21068302,0.2930229,0.076830015,1.1022441,0.71571463,1.2371988,0.8762935,0.78918445,0.69787914,1.1204432,0.51718265,847.76556,821.978,811.0989,865.09155,975.09155,0.01458740234375,0.032958984375,0.98968505859375,1.697235107421875,-3.596343994140625,0.34393310546875,1.0,1.0,1.0,1.0,1.0,100.0,event
13:21:44.621,0.5387644,0.69069564,-0.056596767,0.71930516,0.23316033,0.23983613,0.049973696,0.27591494,0.4707867,0.21068302,0.2930229,0.076830015,1.1022441,0.71571463,1.2371988,0.8762935,0.78918445,0.69787914,1.1204432,0.51718265,791.3553,830.0366,788.5348,823.5897,902.5641,0.01458740234375,0.032958984375,0.98968505859375,1.697235107421875,-3.596343994140625,0.34393310546875,1.0,1.0,1.0,1.0,1.0,100.0,event
13:21:44.621,0.5387644,0.69069564,-0.056596767,0.71930516,0.23316033,0.23983613,0.049973696,0.27591494,0.4707867,0.21068302,0.2930229,0.076830015,1.1022441,0.71571463,1.2371988,0.8762935,0.78918445,0.69787914,1.1204432,0.51718265,801.8315,849.3773,785.31134,803.0403,672.49084,0.01458740234375,0.032958984375,0.98968505859375,1.697235107421875,-3.596343994140625,0.34393310546875,1.0,1.0,1.0,1.0,1.0,100.0,event
13:21:44.622,0.5387644,0.69069564,-0.056596767,0.71930516,0.23316033,0.23983613,0.049973696,0.27591494,0.4707867,0.21068302,0.2930229,0.076830015,1.1022441,0.71571463,1.2371988,0.8762935,0.78918445,0.69787914,1.1204432,0.51718265,850.989,863.8828,788.93774,818.7546,677.326,0.01458740234375,0.032958984375,0.98968505859375,1.697235107421875,-3.596343994140625,0.34393310546875,1.0,1.0,1.0,1.0,1.0,100.0,event
13:21:44.678,0.5387644,0.69069564,-0.056596767,0.71930516,0.23316033,0.23983613,0.049973696,0.27591494,0.4707867,0.21068302,0.2930229,0.076830015,1.1022441,0.71571463,1.2371988,0.8762935,0.78918445,0.69787914,1.1204432,0.51718265,865.09155,864.2857,791.3553,839.707,687.3993,0.01055908203125,0.03485107421875,0.986572265625,2.07855224609375,-2.99072265625,-0.112152099609375,1.0,1.0,1.0,1.0,1.0,100.0,event
13:21:44.679,0.5387644,0.69069564,-0.056596767,0.71930516,0.23316033,0.23983613,0.049973696,0.27591494,0.4707867,0.21068302,0.2930229,0.076830015,1.1022441,0.71571463,1.2371988,0.8762935,0.78918445,0.69787914,1.1204432,0.51718265,851.39197,844.5421,821.5751,848.1685,688.20514,0.01055908203125,0.03485107421875,0.986572265625,2.07855224609375,-2.99072265625,-0.112152099609375,1.0,1.0,1.0,1.0,1.0,100.0,event
13:21:44.680,0.5387644,0.69069564,-0.056596767,0.71930516,0.23316033,0.23983613,0.049973696,0.27591494,0.4707867,0.21068302,0.2930229,0.076830015,1.1022441,0.71571463,1.2371988,0.8762935,0.78918445,0.69787914,1.1204432,0.51718265,799.011,857.03296,816.337,828.022,755.4945,0.01055908203125,0.03485107421875,0.986572265625,2.07855224609375,-2.99072265625,-0.112152099609375,1.0,1.0,1.0,1.0,1.0,100.0,event
13:21:44.680,0.5387644,0.69069564,-0.056596767,0.71930516,0.23316033,0.23983613,0.049973696,0.27591494,0.4707867,0.21068302,0.2930229,0.076830015,1.1022441,0.71571463,1.2371988,0.8762935,0.78918445,0.69787914,1.1204432,0.51718265,806.6667,852.1978,838.9011,841.31866,694.65204,0.01055908203125,0.03485107421875,0.986572265625,2.07855224609375,-2.99072265625,-0.112152099609375,1.0,1.0,1.0,1.0,1.0,100.0,event
13:21:44.681,0.5387644,0.69069564,-0.056596767,0.71930516,0.23316033,0.23983613,0.049973696,0.27591494,0.4707867,0.21068302,0.2930229,0.076830015,1.1022441,0.71571463,1.2371988,0.8762935,0.78918445,0.69787914,1.1204432,0.51718265,837.6923,839.304,805.8608,824.7985,749.45056,0.01055908203125,0.03485107421875,0.986572265625,2.07855224609375,-2.99072265625,-0.112152099609375,1.0,1.0,1.0,1.0,1.0,100.0,event
13:21:44.682,0.5387644,0.69069564,-0.056596767,0.71930516,0.23316033,0.23983613,0.049973696,0.27591494,0.4707867,0.21068302,0.2930229,0.076830015,1.1022441,0.71571463,1.2371988,0.8762935,0.78918445,0.69787914,1.1204432,0.51718265,864.68866,833.663,814.3223,844.1392,768.7912,0.01055908203125,0.03485107421875,0.986572265625,2.07855224609375,-2.99072265625,-0.112152099609375,1.0,1.0,1.0,1.0,1.0,100.0,event
13:21:44.682,0.5387644,0.69069564,-0.056596767,0.71930516,0.23316033,0.23983613,0.049973696,0.27591494,0.4707867,0.21068302,0.2930229,0.076830015,1.1022441,0.71571463,1.2371988,0.8762935,0.78918445,0.69787914,1.1204432,0.51718265,859.45056,851.39197,807.8755,860.65936,815.9341,0.01055908203125,0.03485107421875,0.986572265625,2.07855224609375,-2.99072265625,-0.112152099609375,1.0,1.0,1.0,1.0,1.0,100.0,event
13:21:44.683,0.47416732,0.61551905,-0.064693436,0.7005827,0.1415303,0.12610313,0.044625066,0.31579292,0.47085142,0.28148487,0.2930229,0.20687269,1.0951446,0.74934304,1.2414618,0.86443275,0.77160275,0.7093983,1.1152042,0.49459672,815.9341,857.03296,796.1905,842.9304,985.56775,0.01055908203125,0.03485107421875,0.986572265625,2.07855224609375,-2.99072265625,-0.112152099609375,1.0,1.0,1.0,1.0,1.0,100.0,event
13:21:44.688,0.47416732,0.61551905,-0.064693436,0.7005827,0.1415303,0.12610313,0.044625066,0.31579292,0.47085142,0.28148487,0.2930229,0.20687269,1.0951446,0.74934304,1.2414618,0.86443275,0.77160275,0.7093983,1.1152042,0.49459672,805.4579,843.3333,800.6227,839.707,1154.7986,0.01055908203125,0.03485107421875,0.986572265625,2.07855224609375,-2.99072265625,-0.112152099609375,1.0,1.0,1.0,1.0,1.0,100.0,event
13:21:44.688,0.47416732,0.61551905,-0.064693436,0.7005827,0.1415303,0.12610313,0.044625066,0.31579292,0.47085142,0.28148487,0.2930229,0.20687269,1.0951446,0.74934304,1.2414618,0.86443275,0.77160275,0.7093983,1.1152042,0.49459672,835.6777,851.39197,809.89014,836.8865,840.9158,0.01055908203125,0.03485107421875,0.986572265625,2.07855224609375,-2.99072265625,-0.112152099609375,1.0,1.0,1.0,1.0,1.0,100.0,event
13:21:44.689,0.47416732,0.61551905,-0.064693436,0.7005827,0.1415303,0.12610313,0.044625066,0.31579292,0.47085142,0.28148487,0.2930229,0.20687269,1.0951446,0.74934304,1.2414618,0.86443275,0.77160275,0.7093983,1.1152042,0.49459672,861.4652,855.82416,792.5641,838.0952,715.6044,0.01055908203125,0.03485107421875,0.986572265625,2.07855224609375,-2.99072265625,-0.112152099609375,1.0,1.0,1.0,1.0,1.0,100.0,event
13:21:44.689,0.47416732,0.61551905,-0.064693436,0.7005827,0.1415303,0.12610313,0.044625066,0.31579292,0.47085142,0.28148487,0.2930229,0.20687269,1.0951446,0.74934304,1.2414618,0.86443275,0.77160275,0.7093983,1.1152042,0.49459672,867.50916,844.1392,784.5055,865.09155,865.4945,0.01055908203125,0.03485107421875,0.986572265625,2.07855224609375,-2.99072265625,-0.112152099609375,1.0,1.0,1.0,1.0,1.0,100.0,event
13:21:44.712,0.47416732,0.61551905,-0.064693436,0.7005827,0.1415303,0.12610313,0.044625066,0.31579292,0.47085142,0.28148487,0.2930229,0.20687269,1.0951446,0.74934304,1.2414618,0.86443275,0.77160275,0.7093983,1.1152042,0.49459672,826.0073,844.1392,816.337,861.8681,797.8022,0.0142822265625,0.03668212890625,0.9871826171875,1.854248046875,-3.7982177734375,0.112152099609375,1.0,1.0,1.0,1.0,1.0,100.0,event
13:21:44.713,0.47416732,0.61551905,-0.064693436,0.7005827,0.1415303,0.12610313,0.044625066,0.31579292,0.47085142,0.28148487,0.2930229,0.20687269,1.0951446,0.74934304,1.2414618,0.86443275,0.77160275,0.7093983,1.1152042,0.49459672,806.26373,846.9597,809.89014,832.8571,696.6667,0.0142822265625,0.03668212890625,0.9871826171875,1.854248046875,-3.7982177734375,0.112152099609375,1.0,1.0,1.0,1.0,1.0,100.0,event
13:21:44.714,0.47416732,0.61551905,-0.064693436,0.7005827,0.1415303,0.12610313,0.044625066,0.31579292,0.47085142,0.28148487,0.2930229,0.20687269,1.0951446,0.74934304,1.2414618,0.86443275,0.77160275,0.7093983,1.1152042,0.49459672,823.9927,845.7509,793.7729,823.5897,724.0659,0.0142822265625,0.03668212890625,0.9871826171875,1.854248046875,-3.7982177734375,0.112152099609375,1.0,1.0,1.0,1.0,1.0,100.0,event
13:21:44.715,0.47416732,0.61551905,-0.064693436,0.7005827,0.1415303,0.12610313,0.044625066,0.31579292,0.47085142,0.28148487,0.2930229,0.20687269,1.0951446,0.74934304,1.2414618,0.86443275,0.77160275,0.7093983,1.1152042,0.49459672,855.0183,846.9597,792.5641,856.63007,755.89746,0.0142822265625,0.03668212890625,0.9871826171875,1.854248046875,-3.7982177734375,0.112152099609375,1.0,1.0,1.0,1.0,1.0,100.0,event
13:21:44.715,0.47416732,0.61551905,-0.064693436,0.7005827,0.1415303,0.12610313,0.044625066,0.31579292,0.47085142,0.28148487,0.2930229,0.20687269,1.0951446,0.74934304,1.2414618,0.86443275,0.77160275,0.7093983,1.1152042,0.49459672,839.304,847.3626,795.78754,831.2454,756.30035,0.0142822265625,0.03668212890625,0.9871826171875,1.854248046875,-3.7982177734375,0.112152099609375,1.0,1.0,1.0,1.0,1.0,100.0,event
13:21:44.716,0.47416732,0.61551905,-0.064693436,0.7005827,0.1415303,0.12610313,0.044625066,0.31579292,0.47085142,0.28148487,0.2930229,0.20687269,1.0951446,0.74934304,1.2414618,0.86443275,0.77160275,0.7093983,1.1152042,0.49459672,808.2784,837.6923,821.1722,841.31866,836.08057,0.0142822265625,0.03668212890625,0.9871826171875,1.854248046875,-3.7982177734375,0.112152099609375,1.0,1.0,1.0,1.0,1.0,100.0,event
13:21:44.717,0.47416732,0.61551905,-0.064693436,0.7005827,0.1415303,0.12610313,0.044625066,0.31579292,0.47085142,0.28148487,0.2930229,0.20687269,1.0951446,0.74934304,1.2414618,0.86443275,0.77160275,0.7093983,1.1152042,0.49459672,767.1795,833.663,824.3956,813.1135,889.67035,0.0142822265625,0.03668212890625,0.9871826171875,1.854248046875,-3.7982177734375,0.112152099609375,1.0,1.0,1.0,1.0,1.0,100.0,event
13:21:44.717,0.47416732,0.61551905,-0.064693436,0.7005827,0.1415303,0.12610313,0.044625066,0.31579292,0.47085142,0.28148487,0.2930229,0.20687269,1.0951446,0.74934304,1.2414618,0.86443275,0.77160275,0.7093983,1.1152042,0.49459672,803.0403,835.2747,801.8315,818.7546,987.98535,0.0142822265625,0.03668212890625,0.9871826171875,1.854248046875,-3.7982177734375,0.112152099609375,1.0,1.0,1.0,1.0,1.0,100.0,event
13:21:44.718,0.47416732,0.61551905,-0.064693436,0.7005827,0.1415303,0.12610313,0.044625066,0.31579292,0.47085142,0.28148487,0.2930229,0.20687269,1.0951446,0.74934304,1.2414618,0.86443275,0.77160275,0.7093983,1.1152042,0.49459672,838.49817,841.31866,794.9817,822.7839,879.19415,0.0142822265625,0.03668212890625,0.9871826171875,1.854248046875,-3.7982177734375,0.112152099609375,1.0,1.0,1.0,1.0,1.0,100.0,event
13:21:44.718,0.47416732,0.61551905,-0.064693436,0.7005827,0.1415303,0.12610313,0.044625066,0.31579292,0.47085142,0.28148487,0.2930229,0.20687269,1.0951446,0.74934304,1.2414618,0.86443275,0.77160275,0.7093983,1.1152042,0.49459672,853.00366,840.10986,796.5934,849.3773,715.2015,0.0142822265625,0.03668212890625,0.9871826171875,1.854248046875,-3.7982177734375,0.112152099609375,1.0,1.0,1.0,1.0,1.0,100.0,event
13:21:44.719,0.47416732,0.61551905,-0.064693436,0.7005827,0.1415303,0.12610313,0.044625066,0.31579292,0.47085142,0.28148487,0.2930229,0.20687269,1.0951446,0.74934304,1.2414618,0.86443275,0.77160275,0.7093983,1.1152042,0.49459672,833.663,842.52747,805.8608,858.24176,834.0659,0.0142822265625,0.03668212890625,0.9871826171875,1.854248046875,-3.7982177734375,0.112152099609375,1.0,1.0,1.0,1.0,1.0,100.0,event
13:21:44.720,0.47416732,0.61551905,-0.064693436,0.7005827,0.1415303,0.12610313,0.044625066,0.31579292,0.47085142,0.28148487,0.2930229,0.20687269,1.0951446,0.74934304,1.2414618,0.86443275,0.77160275,0.7093983,1.1152042,0.49459672,787.326,852.6007,813.5165,818.7546,890.4762,0.0142822265625,0.03668212890625,0.9871826171875,1.854248046875,-3.7982177734375,0.112152099609375,1.0,1.0,1.0,1.0,1.0,100.0,event
13:21:44.778,0.47416732,0.61551905,-0.064693436,0.7005827,0.1415303,0.12610313,0.044625066,0.31579292,0.47085142,0.28148487,0.2930229,0.20687269,1.0951446,0.74934304,1.2414618,0.86443275,0.77160275,0.7093983,1.1152042,0.49459672,781.28204,855.82416,809.89014,794.57874,748.6447,0.01116943359375,0.03289794921875,0.9879150390625,1.60003662109375,-3.768310546875,0.1495361328125,1.0,1.0,1.0,1.0,1.0,100.0,event
13:21:44.779,0.47416732,0.61551905,-0.064693436,0.7005827,0.1415303,0.12610313,0.044625066,0.31579292,0.47085142,0.28148487,0.2930229,0.20687269,1.0951446,0.74934304,1.2414618,0.86443275,0.77160275,0.7093983,1.1152042,0.49459672,813.91943,844.94507,798.20514,804.2491,661.6117,0.01116943359375,0.03289794921875,0.9879150390625,1.60003662109375,-3.768310546875,0.1495361328125,1.0,1.0,1.0,1.0,1.0,100.0,event
13:21:44.779,0.47416732,0.61551905,-0.064693436,0.7005827,0.1415303,0.12610313,0.044625066,0.31579292,0.47085142,0.28148487,0.2930229,0.20687269,1.0951446,0.74934304,1.2414618,0.86443275,0.77160275,0.7093983,1.1152042,0.49459672,829.2308,836.08057,795.78754,817.5458,734.1392,0.01116943359375,0.03289794921875,0.9879150390625,1.60003662109375,-3.768310546875,0.1495361328125,1.0,1.0,1.0,1.0,1.0,100.0,event
13:21:44.780,0.47416732,0.61551905,-0.064693436,0.7005827,0.1415303,0.12610313,0.044625066,0.31579292,0.47085142,0.28148487,0.2930229,0.20687269,1.0951446,0.74934304,1.2414618,0.86443275,0.77160275,0.7093983,1.1152042,0.49459672,807.47253,840.10986,808.2784,815.9341,761.9414,0.01116943359375,0.03289794921875,0.9879150390625,1.60003662109375,-3.768310546875,0.1495361328125,1.0,1.0,1.0,1.0,1.0,100.0,event
13:21:44.781,0.47416732,0.61551905,-0.064693436,0.7005827,0.1415303,0.12610313,0.044625066,0.31579292,0.47085142,0.28148487,0.2930229,0.20687269,1.0951446,0.74934304,1.2414618,0.86443275,0.77160275,0.7093983,1.1152042,0.49459672,812.71063,847.3626,799.011,804.2491,761.13556,0.01116943359375,0.03289794921875,0.9879150390625,1.60003662109375,-3.768310546875,0.1495361328125,1.0,1.0,1.0,1.0,1.0,100.0,event
13:21:44.781,0.47416732,0.61551905,-0.064693436,0.7005827,0.1415303,0.12610313,0.044625066,0.31579292,0.47085142,0.28148487,0.2930229,0.20687269,1.0951446,0.74934304,1.2414618,0.86443275,0.77160275,0.7093983,1.1152042,0.49459672,783.69965,834.87177,809.89014,807.47253,718.8278,0.01116943359375,0.03289794921875,0.9879150390625,1.60003662109375,-3.768310546875,0.1495361328125,1.0,1.0,1.0,1.0,1.0,100.0,event
13:21:44.782,0.47416732,0.61551905,-0.064693436,0.7005827,0.1415303,0.12610313,0.044625066,0.31579292,0.47085142,0.28148487,0.2930229,0.20687269,1.0951446,0.74934304,1.2414618,0.86443275,0.77160275,0.7093983,1.1152042,0.49459672,847.3626,854.21246,788.5348,808.2784,913.8461,0.01116943359375,0.03289794921875,0.9879150390625,1.60003662109375,-3.768310546875,0.1495361328125,1.0,1.0,1.0,1.0,1.0,100.0,event
13:21:44.783,0.47416732,0.61551905,-0.064693436,0.7005827,0.1415303,0.12610313,0.044625066,0.31579292,0.47085142,0.28148487,0.2930229,0.20687269,1.0951446,0.74934304,1.2414618,0.86443275,0.77160275,0.7093983,1.1152042,0.49459672,871.9414,833.2601,796.99634,839.304,1003.69965,0.01116943359375,0.03289794921875,0.9879150390625,1.60003662109375,-3.768310546875,0.1495361328125,1.0,1.0,1.0,1.0,1.0,100.0,event
13:21:44.783,0.47416732,0.61551905,-0.064693436,0.7005827,0.1415303,0.12610313,0.044625066,0.31579292,0.47085142,0.28148487,0.2930229,0.20687269,1.0951446,0.74934304,1.2414618,0.86443275,0.77160275,0.7093983,1.1152042,0.49459672,839.707,835.2747,809.0842,849.7802,748.6447,0.01116943359375,0.03289794921875,0.9879150390625,1.60003662109375,-3.768310546875,0.1495361328125,1.0,1.0,1.0,1.0,1.0,100.0,event
13:21:44.784,0.3882507,0.5320048,-0.040798068,0.68445176,0.12880735,0.0629837,0.06372751,0.35996592,0.48850173,0.31194812,0.2930229,0.39282224,1.0761424,0.79933167,1.2656997,0.8530653,0.7544349,0.70559144,1.1056076,0.47718912,769.59705,840.10986,808.68134,807.47253,661.6117,0.01116943359375,0.03289794921875,0.9879150390625,1.60003662109375,-3.768310546875,0.1495361328125,1.0,1.0,1.0,1.0,1.0,100.0,event
13:21:44.789,0.3882507,0.5320048,-0.040798068,0.68445176,0.12880735,0.0629837,0.06372751,0.35996592,0.48850173,0.31194812,0.2930229,0.39282224,1.0761424,0.79933167,1.2656997,0.8530653,0.7544349,0.70559144,1.1056076,0.47718912,786.1172,840.10986,799.41394,790.54944,736.1539,0.01116943359375,0.03289794921875,0.9879150390625,1.60003662109375,-3.768310546875,0.1495361328125,1.0,1.0,1.0,1.0,1.0,100.0,event
13:21:44.790,0.3882507,0.5320048,-0.040798068,0.68445176,0.12880735,0.0629837,0.06372751,0.35996592,0.48850173,0.31194812,0.2930229,0.39282224,1.0761424,0.79933167,1.2656997,0.8530653,0.7544349,0.70559144,1.1056076,0.47718912,846.9597,850.18317,788.5348,806.26373,714.3956,0.01116943359375,0.03289794921875,0.9879150390625,1.60003662109375,-3.768310546875,0.1495361328125,1.0,1.0,1.0,1.0,1.0,100.0,event
13:21:44.814,0.3882507,0.5320048,-0.040798068,0.68445176,0.12880735,0.0629837,0.06372751,0.35996592,0.48850173,0.31194812,0.2930229,0.39282224,1.0761424,0.79933167,1.2656997,0.8530653,0.7544349,0.70559144,1.1056076,0.47718912,870.7326,839.304,800.2198,817.9487,705.12823,0.0142822265625,0.03082275390625,0.9891357421875,1.9140625,-3.686065673828125,-0.366363525390625,1.0,1.0,1.0,1.0,1.0,100.0,event
13:21:44.815,0.3882507,0.5320048,-0.040798068,0.68445176,0.12880735,0.0629837,0.06372751,0.35996592,0.48850173,0.31194812,0.2930229,0.39282224,1.0761424,0.79933167,1.2656997,0.8530653,0.7544349,0.70559144,1.1056076,0.47718912,825.6044,840.5128,815.12823,819.9634,792.5641,0.0142822265625,0.03082275390625,0.9891357421875,1.9140625,-3.686065673828125,-0.366363525390625,1.0,1.0,1.0,1.0,1.0,100.0,event
13:21:44.816,0.3882507,0.5320048,-0.040798068,0.68445176,0.12880735,0.0629837,0.06372751,0.35996592,0.48850173,0.31194812,0.2930229,0.39282224,1.0761424,0.79933167,1.2656997,0.8530653,0.7544349,0.70559144,1.1056076,0.47718912,785.31134,851.39197,819.9634,807.47253,886.8498,0.0142822265625,0.03082275390625,0.9891357421875,1.9140625,-3.686065673828125,-0.366363525390625,1.0,1.0,1.0,1.0,1.0,100.0,event
13:21:44.817,0.3882507,0.5320048,-0.040798068,0.68445176,0.12880735,0.0629837,0.06372751,0.35996592,0.48850173,0.31194812,0.2930229,0.39282224,1.0761424,0.79933167,1.2656997,0.8530653,0.7544349,0.70559144,1.1056076,0.47718912,794.9817,847.76556,820.7692,801.8315,731.7216,0.0142822265625,0.03082275390625,0.9891357421875,1.9140625,-3.686065673828125,-0.366363525390625,1.0,1.0,1.0,1.0,1.0,100.0,event
13:21:44.818,0.3882507,0.5320048,-0.040798068,0.68445176,0.12880735,0.0629837,0.06372751,0.35996592,0.48850173,0.31194812,0.2930229,0.39282224,1.0761424,0.79933167,1.2656997,0.8530653,0.7544349,0.70559144,1.1056076,0.47718912,847.76556,840.5128,797.8022,819.9634,888.0586,0.0142822265625,0.03082275390625,0.9891357421875,1.9140625,-3.686065673828125,-0.366363525390625,1.0,1.0,1.0,1.0,1.0,100.0,event
13:21:44.818,0.3882507,0.5320048,-0.040798068,0.68445176,0.12880735,0.0629837,0.06372751,0.35996592,0.48850173,0.31194812,0.2930229,0.39282224,1.0761424,0.79933167,1.2656997,0.8530653,0.7544349,0.70559144,1.1056076,0.47718912,821.978,835.2747,810.293,807.8755,697.8755,0.0142822265625,0.03082275390625,0.9891357421875,1.9140625,-3.686065673828125,-0.366363525390625,1.0,1.0,1.0,1.0,1.0,100.0,event
13:21:44.819,0.3882507,0.5320048,-0.040798068,0.68445176,0.12880735,0.0629837,0.06372751,0.35996592,0.48850173,0.31194812,0.2930229,0.39282224,1.0761424,0.79933167,1.2656997,0.8530653,0.7544349,0.70559144,1.1056076,0.47718912,836.8865,852.6007,794.17584,846.1539,1055.2748,0.0142822265625,0.03082275390625,0.9891357421875,1.9140625,-3.686065673828125,-0.366363525390625,1.0,1.0,1.0,1.0,1.0,100.0,event
13:21:44.820,0.3882507,0.5320048,-0.040798068,0.68445176,0.12880735,0.0629837,0.06372751,0.35996592,0.48850173,0.31194812,0.2930229,0.39282224,1.0761424,0.79933167,1.2656997,0.8530653,0.7544349,0.70559144,1.1056076,0.47718912,795.38464,842.9304,782.0879,843.3333,906.1905,0.0142822265625,0.03082275390625,0.9891357421875,1.9140625,-3.686065673828125,-0.366363525390625,1.0,1.0,1.0,1.0,1.0,100.0,event
13:21:44.821,0.3882507,0.5320048,-0.040798068,0.68445176,0.12880735,0.0629837,0.06372751,0.35996592,0.48850173,0.31194812,0.2930229,0.39282224,1.0761424,0.79933167,1.2656997,0.8530653,0.7544349,0.70559144,1.1056076,0.47718912,813.1135,846.9597,790.54944,829.2308,749.0476,0.0142822265625,0.03082275390625,0.9891357421875,1.9140625,-3.686065673828125,-0.366363525390625,1.0,1.0,1.0,1.0,1.0,100.0,event
13:21:44.821,0.3882507,0.5320048,-0.040798068,0.68445176,0.12880735,0.0629837,0.06372751,0.35996592,0.48850173,0.31194812,0.2930229,0.39282224,1.0761424,0.79933167,1.2656997,0.8530653,0.7544349,0.70559144,1.1056076,0.47718912,831.2454,861.8681,802.23444,828.022,811.50183,0.0142822265625,0.03082275390625,0.9891357421875,1.9140625,-3.686065673828125,-0.366363525390625,1.0,1.0,1.0,1.0,1.0,100.0,event
13:21:44.822,0.3882507,0.5320048,-0.040798068,0.68445176,0.12880735,0.0629837,0.06372751,0.35996592,0.48850173,0.31194812,0.2930229,0.39282224,1.0761424,0.79933167,1.2656997,0.8530653,0.7544349,0.70559144,1.1056076,0.47718912,816.7399,853.4066,787.72894,825.6044,830.0366,0.0142822265625,0.03082275390625,0.9891357421875,1.9140625,-3.686065673828125,-0.366363525390625,1.0,1.0,1.0,1.0,1.0,100.0,event
