TimeStamp,Delta_TP9,Delta_AF7,Delta_AF8,Delta_TP10,Theta_TP9,Theta_AF7,Theta_AF8,Theta_TP10,Alpha_TP9,Alpha_AF7,Alpha_AF8,Alpha_TP10,Beta_TP9,Beta_AF7,Beta_AF8,Beta_TP10,Gamma_TP9,Gamma_AF7,Gamma_AF8,Gamma_TP10,RAW_TP9,RAW_AF7,RAW_AF8,RAW_TP10,AUX_RIGHT,Accelerometer_X,Accelerometer_Y,Accelerometer_Z,Gyro_X,Gyro_Y,Gyro_Z,HeadBandOn,HSI_TP9,HSI_AF7,HSI_AF8,HSI_TP10,Battery,Elements
13:32:56.242,0.6528959,0.36189964,-0.26957035,0.48506764,0.35206893,0.17267308,-0.25003588,0.2001111,0.79303837,0.30413052,0.42609715,0.4828074,1.2212458,1.1614447,1.5900168,1.0353737,1.0422527,1.1415149,1.4450109,1.0176846,758.315,785.31134,826.8132,766.77655,762.74725,-0.0640869140625,0.03790283203125,0.990478515625,2.474822998046875,-4.3365478515625,0.829925537109375,1.0,1.0,1.0,1.0,1.0,90.0,event
13:32:56.243,0.6528959,0.36189964,-0.26957035,0.48506764,0.35206893,0.17267308,-0.25003588,0.2001111,0.79303837,0.30413052,0.42609715,0.4828074,1.2212458,1.1614447,1.5900168,1.0353737,1.0422527,1.1415149,1.4450109,1.0176846,853.00366,809.89014,817.1429,795.78754,689.81683,-0.0640869140625,0.03790283203125,0.990478515625,2.474822998046875,-4.3365478515625,0.829925537109375,1.0,1.0,1.0,1.0,1.0,90.0,event
13:32:56.244,0.6528959,0.36189964,-0.26957035,0.48506764,0.35206893,0.17267308,-0.25003588,0.2001111,0.79303837,0.30413052,0.42609715,0.4828074,1.2212458,1.1614447,1.5900168,1.0353737,1.0422527,1.1415149,1.4450109,1.0176846,917.0696,824.7985,832.4542,878.3883,824.3956,-0.0640869140625,0.03790283203125,0.990478515625,2.474822998046875,-4.3365478515625,0.829925537109375,1.0,1.0,1.0,1.0,1.0,90.0,event
13:32:56.245,0.6528959,0.36189964,-0.26957035,0.48506764,0.35206893,0.17267308,-0.25003588,0.2001111,0.79303837,0.30413052,0.42609715,0.4828074,1.2212458,1.1614447,1.5900168,1.0353737,1.0422527,1.1415149,1.4450109,1.0176846,881.2088,846.9597,842.1245,899.34064,859.85345,-0.0640869140625,0.03790283203125,0.990478515625,2.474822998046875,-4.3365478515625,0.829925537109375,1.0,1.0,1.0,1.0,1.0,90.0,event
13:32:56.245,0.6528959,0.36189964,-0.26957035,0.48506764,0.35206893,0.17267308,-0.25003588,0.2001111,0.79303837,0.30413052,0.42609715,0.4828074,1.2212458,1.1614447,1.5900168,1.0353737,1.0422527,1.1415149,1.4450109,1.0176846,739.7802,834.0659,821.5751,809.4872,740.989,-0.0640869140625,0.03790283203125,0.990478515625,2.474822998046875,-4.3365478515625,0.829925537109375,1.0,1.0,1.0,1.0,1.0,90.0,event
13:32:56.246,0.6528959,0.36189964,-0.26957035,0.48506764,0.35206893,0.17267308,-0.25003588,0.2001111,0.79303837,0.30413052,0.42609715,0.4828074,1.2212458,1.1614447,1.5900168,1.0353737,1.0422527,1.1415149,1.4450109,1.0176846,768.7912,798.60803,818.7546,786.52014,720.84247,-0.0640869140625,0.03790283203125,0.990478515625,2.474822998046875,-4.3365478515625,0.829925537109375,1.0,1.0,1.0,1.0,1.0,90.0,event
13:32:56.247,0.6528959,0.36189964,-0.26957035,0.48506764,0.35206893,0.17267308,-0.25003588,0.2001111,0.79303837,0.30413052,0.42609715,0.4828074,1.2212458,1.1614447,1.5900168,1.0353737,1.0422527,1.1415149,1.4450109,1.0176846,845.7509,785.31134,828.8278,802.23444,958.1685,-0.0640869140625,0.03790283203125,0.990478515625,2.474822998046875,-4.3365478515625,0.829925537109375,1.0,1.0,1.0,1.0,1.0,90.0,event
13:32:56.247,0.6528959,0.33171728,-0.26957035,0.48506764,0.35206893,0.19490372,-0.25003588,0.2001111,0.79303837,0.2963603,0.42609715,0.4828074,1.2212458,1.1553267,1.5900168,1.0353737,1.0422527,1.1665627,1.4450109,1.0176846,881.2088,800.6227,806.6667,840.10986,1164.8718,-0.0640869140625,0.03790283203125,0.990478515625,2.474822998046875,-4.3365478515625,0.829925537109375,1.0,1.0,1.0,1.0,1.0,90.0,event
13:32:56.251,0.6528959,0.33171728,-0.26957035,0.48506764,0.35206893,0.19490372,-0.25003588,0.2001111,0.79303837,0.2963603,0.42609715,0.4828074,1.2212458,1.1553267,1.5900168,1.0353737,1.0422527,1.1665627,1.4450109,1.0176846,857.8388,803.0403,788.5348,854.21246,847.3626,-0.0640869140625,0.03790283203125,0.990478515625,2.474822998046875,-4.3365478515625,0.829925537109375,1.0,1.0,1.0,1.0,1.0,90.0,event
13:32:56.252,0.6528959,0.33171728,-0.26957035,0.48506764,0.35206893,0.19490372,-0.25003588,0.2001111,0.79303837,0.2963603,0.42609715,0.4828074,1.2212458,1.1553267,1.5900168,1.0353737,1.0422527,1.1665627,1.4450109,1.0176846,735.7509,779.67035,784.10254,799.011,724.4689,-0.0640869140625,0.03790283203125,0.990478515625,2.474822998046875,-4.3365478515625,0.829925537109375,1.0,1.0,1.0,1.0,1.0,90.0,event
13:32:56.252,0.6528959,0.33171728,-0.26957035,0.48506764,0.35206893,0.19490372,-0.25003588,0.2001111,0.79303837,0.2963603,0.42609715,0.4828074,1.2212458,1.1553267,1.5900168,1.0353737,1.0422527,1.1665627,1.4450109,1.0176846,744.21246,796.5934,813.1135,783.2967,876.3736,-0.0640869140625,0.03790283203125,0.990478515625,2.474822998046875,-4.3365478515625,0.829925537109375,1.0,1.0,1.0,1.0,1.0,90.0,event
13:32:56.253,0.6528959,0.33171728,-0.26957035,0.48506764,0.35206893,0.19490372,-0.25003588,0.2001111,0.79303837,0.2963603,0.42609715,0.4828074,1.2212458,1.1553267,1.5900168,1.0353737,1.0422527,1.1665627,1.4450109,1.0176846,842.9304,817.9487,837.28937,792.5641,735.34796,-0.0640869140625,0.03790283203125,0.990478515625,2.474822998046875,-4.3365478515625,0.829925537109375,1.0,1.0,1.0,1.0,1.0,90.0,event
13:32:56.275,0.6528959,0.33171728,-0.26957035,0.48506764,0.35206893,0.19490372,-0.25003588,0.2001111,0.79303837,0.2963603,0.42609715,0.4828074,1.2212458,1.1553267,1.5900168,1.0353737,1.0422527,1.1665627,1.4450109,1.0176846,888.0586,802.23444,784.90845,813.91943,667.25275,-0.06573486328125,0.039794921875,0.98529052734375,1.981353759765625,-3.6187744140625,-0.04486083984375,1.0,1.0,1.0,1.0,1.0,90.0,event
13:32:56.276,0.6528959,0.33171728,-0.26957035,0.48506764,0.35206893,0.19490372,-0.25003588,0.2001111,0.79303837,0.2963603,0.42609715,0.4828074,1.2212458,1.1553267,1.5900168,1.0353737,1.0422527,1.1665627,1.4450109,1.0176846,857.4359,773.22345,751.4652,845.34796,790.54944,-0.06573486328125,0.039794921875,0.98529052734375,1.981353759765625,-3.6187744140625,-0.04486083984375,1.0,1.0,1.0,1.0,1.0,90.0,event
13:32:56.277,0.6528959,0.33171728,-0.26957035,0.48506764,0.35206893,0.19490372,-0.25003588,0.2001111,0.79303837,0.2963603,0.42609715,0.4828074,1.2212458,1.1553267,1.5900168,1.0353737,1.0422527,1.1665627,1.4450109,1.0176846,740.989,767.1795,780.07324,813.91943,759.5238,-0.06573486328125,0.039794921875,0.98529052734375,1.981353759765625,-3.6187744140625,-0.04486083984375,1.0,1.0,1.0,1.0,1.0,90.0,event
13:32:56.278,0.6528959,0.33171728,-0.26957035,0.48506764,0.35206893,0.19490372,-0.25003588,0.2001111,0.79303837,0.2963603,0.42609715,0.4828074,1.2212458,1.1553267,1.5900168,1.0353737,1.0422527,1.1665627,1.4450109,1.0176846,733.73627,788.93774,817.1429,781.685,665.64105,-0.06573486328125,0.039794921875,0.98529052734375,1.981353759765625,-3.6187744140625,-0.04486083984375,1.0,1.0,1.0,1.0,1.0,90.0,event
13:32:56.278,0.6528959,0.33171728,-0.26957035,0.48506764,0.35206893,0.19490372,-0.25003588,0.2001111,0.79303837,0.2963603,0.42609715,0.4828074,1.2212458,1.1553267,1.5900168,1.0353737,1.0422527,1.1665627,1.4450109,1.0176846,822.381,787.326,828.4249,782.8938,685.78754,-0.06573486328125,0.039794921875,0.98529052734375,1.981353759765625,-3.6187744140625,-0.04486083984375,1.0,1.0,1.0,1.0,1.0,90.0,event
13:32:56.279,0.6528959,0.33171728,-0.26957035,0.48506764,0.35206893,0.19490372,-0.25003588,0.2001111,0.79303837,0.2963603,0.42609715,0.4828074,1.2212458,1.1553267,1.5900168,1.0353737,1.0422527,1.1665627,1.4450109,1.0176846,868.315,798.20514,836.8865,819.15753,820.7692,-0.06573486328125,0.039794921875,0.98529052734375,1.981353759765625,-3.6187744140625,-0.04486083984375,1.0,1.0,1.0,1.0,1.0,90.0,event
13:32:56.279,0.6528959,0.33171728,-0.26957035,0.48506764,0.35206893,0.19490372,-0.25003588,0.2001111,0.79303837,0.2963603,0.42609715,0.4828074,1.2212458,1.1553267,1.5900168,1.0353737,1.0422527,1.1665627,1.4450109,1.0176846,862.674,799.81683,847.3626,864.68866,1091.9414,-0.06573486328125,0.039794921875,0.98529052734375,1.981353759765625,-3.6187744140625,-0.04486083984375,1.0,1.0,1.0,1.0,1.0,90.0,event
13:32:56.280,0.6528959,0.33171728,-0.26957035,0.48506764,0.35206893,0.19490372,-0.25003588,0.2001111,0.79303837,0.2963603,0.42609715,0.4828074,1.2212458,1.1553267,1.5900168,1.0353737,1.0422527,1.1665627,1.4450109,1.0176846,754.2857,796.1905,821.978,811.50183,920.696,-0.06573486328125,0.039794921875,0.98529052734375,1.981353759765625,-3.6187744140625,-0.04486083984375,1.0,1.0,1.0,1.0,1.0,90.0,event
13:32:56.281,0.6528959,0.33171728,-0.26957035,0.48506764,0.35206893,0.19490372,-0.25003588,0.2001111,0.79303837,0.2963603,0.42609715,0.4828074,1.2212458,1.1553267,1.5900168,1.0353737,1.0422527,1.1665627,1.4450109,1.0176846,807.8755,785.7143,803.0403,778.0586,805.8608,-0.06573486328125,0.039794921875,0.98529052734375,1.981353759765625,-3.6187744140625,-0.04486083984375,1.0,1.0,1.0,1.0,1.0,90.0,event
13:32:56.281,0.6528959,0.33171728,-0.26957035,0.48506764,0.35206893,0.19490372,-0.25003588,0.2001111,0.79303837,0.2963603,0.42609715,0.4828074,1.2212458,1.1553267,1.5900168,1.0353737,1.0422527,1.1665627,1.4450109,1.0176846,727.6923,801.02563,807.0696,774.83514,702.71063,-0.06573486328125,0.039794921875,0.98529052734375,1.981353759765625,-3.6187744140625,-0.04486083984375,1.0,1.0,1.0,1.0,1.0,90.0,event
13:32:56.282,0.6528959,0.33171728,-0.26957035,0.48506764,0.35206893,0.19490372,-0.25003588,0.2001111,0.79303837,0.2963603,0.42609715,0.4828074,1.2212458,1.1553267,1.5900168,1.0353737,1.0422527,1.1665627,1.4450109,1.0176846,874.7619,784.10254,780.4762,819.5604,872.74725,-0.06573486328125,0.039794921875,0.98529052734375,1.981353759765625,-3.6187744140625,-0.04486083984375,1.0,1.0,1.0,1.0,1.0,90.0,event
13:32:56.282,0.6528959,0.33171728,-0.26957035,0.48506764,0.35206893,0.19490372,-0.25003588,0.2001111,0.79303837,0.2963603,0.42609715,0.4828074,1.2212458,1.1553267,1.5900168,1.0353737,1.0422527,1.1665627,1.4450109,1.0176846,890.07324,794.57874,792.5641,859.85345,796.5934,-0.06573486328125,0.039794921875,0.98529052734375,1.981353759765625,-3.6187744140625,-0.04486083984375,1.0,1.0,1.0,1.0,1.0,90.0,event
13:32:56.310,0.6528959,0.33171728,-0.26957035,0.48506764,0.35206893,0.19490372,-0.25003588,0.2001111,0.79303837,0.2963603,0.42609715,0.4828074,1.2212458,1.1553267,1.5900168,1.0353737,1.0422527,1.1665627,1.4450109,1.0176846,772.8205,799.011,819.9634,818.3516,720.84247,-0.06494140625,0.0391845703125,0.98828125,1.8841552734375,-3.641204833984375,-0.052337646484375,1.0,1.0,1.0,1.0,1.0,90.0,event
13:32:56.311,0.6528959,0.33171728,-0.26957035,0.48506764,0.35206893,0.19490372,-0.25003588,0.2001111,0.79303837,0.2963603,0.42609715,0.4828074,1.2212458,1.1553267,1.5900168,1.0353737,1.0422527,1.1665627,1.4450109,1.0176846,697.47253,796.1905,828.022,770.80585,750.2564,-0.06494140625,0.0391845703125,0.98828125,1.8841552734375,-3.641204833984375,-0.052337646484375,1.0,1.0,1.0,1.0,1.0,90.0,event
13:32:56.312,0.6528959,0.33171728,-0.26957035,0.48506764,0.35206893,0.19490372,-0.25003588,0.2001111,0.79303837,0.2963603,0.42609715,0.4828074,1.2212458,1.1553267,1.5900168,1.0353737,1.0422527,1.1665627,1.4450109,1.0176846,789.34064,822.7839,834.4689,770.40295,747.8388,-0.06494140625,0.0391845703125,0.98828125,1.8841552734375,-3.641204833984375,-0.052337646484375,1.0,1.0,1.0,1.0,1.0,90.0,event
13:32:56.312,0.6528959,0.33171728,-0.26957035,0.48506764,0.35206893,0.19490372,-0.25003588,0.2001111,0.79303837,0.2963603,0.42609715,0.4828074,1.2212458,1.1553267,1.5900168,1.0353737,1.0422527,1.1665627,1.4450109,1.0176846,889.67035,823.5897,795.78754,811.50183,693.0403,-0.06494140625,0.0391845703125,0.98828125,1.8841552734375,-3.641204833984375,-0.052337646484375,1.0,1.0,1.0,1.0,1.0,90.0,event
13:32:56.313,0.6528959,0.33171728,-0.26957035,0.48506764,0.35206893,0.19490372,-0.25003588,0.2001111,0.79303837,0.2963603,0.42609715,0.4828074,1.2212458,1.1553267,1.5900168,1.0353737,1.0422527,1.1665627,1.4450109,1.0176846,876.77655,784.5055,789.34064,838.9011,716.8132,-0.06494140625,0.0391845703125,0.98828125,1.8841552734375,-3.641204833984375,-0.052337646484375,1.0,1.0,1.0,1.0,1.0,90.0,event
13:32:56.314,0.6528959,0.33171728,-0.26957035,0.48506764,0.35206893,0.19490372,-0.25003588,0.2001111,0.79303837,0.2963603,0.42609715,0.4828074,1.2212458,1.1553267,1.5900168,1.0353737,1.0422527,1.1665627,1.4450109,1.0176846,747.03296,781.685,832.4542,802.6374,894.10254,-0.06494140625,0.0391845703125,0.98828125,1.8841552734375,-3.641204833984375,-0.052337646484375,1.0,1.0,1.0,1.0,1.0,90.0,event
13:32:56.315,0.6528959,0.33171728,-0.26957035,0.48506764,0.35206893,0.19490372,-0.25003588,0.2001111,0.79303837,0.2963603,0.42609715,0.4828074,1.2212458,1.1553267,1.5900168,1.0353737,1.0422527,1.1665627,1.4450109,1.0176846,688.60803,798.20514,862.674,775.2381,960.58606,-0.06494140625,0.0391845703125,0.98828125,1.8841552734375,-3.641204833984375,-0.052337646484375,1.0,1.0,1.0,1.0,1.0,90.0,event
13:32:56.316,0.6528959,0.33171728,-0.26957035,0.48506764,0.35206893,0.19490372,-0.25003588,0.2001111,0.79303837,0.2963603,0.42609715,0.4828074,1.2212458,1.1553267,1.5900168,1.0353737,1.0422527,1.1665627,1.4450109,1.0176846,787.326,818.7546,849.7802,782.49084,809.89014,-0.06494140625,0.0391845703125,0.98828125,1.8841552734375,-3.641204833984375,-0.052337646484375,1.0,1.0,1.0,1.0,1.0,90.0,event
13:32:56.317,0.6528959,0.33171728,-0.26957035,0.48506764,0.35206893,0.19490372,-0.25003588,0.2001111,0.79303837,0.2963603,0.42609715,0.4828074,1.2212458,1.1553267,1.5900168,1.0353737,1.0422527,1.1665627,1.4450109,1.0176846,864.68866,803.8461,806.26373,798.20514,751.06226,-0.06494140625,0.0391845703125,0.98828125,1.8841552734375,-3.641204833984375,-0.052337646484375,1.0,1.0,1.0,1.0,1.0,90.0,event
13:32:56.318,0.6528959,0.3029292,-0.26957035,0.48506764,0.35206893,0.211172,-0.25003588,0.2001111,0.79303837,0.23825565,0.42609715,0.4828074,1.2212458,1.1328888,1.5900168,1.0353737,1.0422527,1.1849259,1.4450109,1.0176846,892.49084,802.6374,802.23444,855.0183,967.8388,-0.06494140625,0.0391845703125,0.98828125,1.8841552734375,-3.641204833984375,-0.052337646484375,1.0,1.0,1.0,1.0,1.0,90.0,event
13:32:56.321,0.6528959,0.3029292,-0.26957035,0.48506764,0.35206893,0.211172,-0.25003588,0.2001111,0.79303837,0.23825565,0.42609715,0.4828074,1.2212458,1.1328888,1.5900168,1.0353737,1.0422527,1.1849259,1.4450109,1.0176846,832.4542,836.8865,806.6667,858.6447,940.0366,-0.06494140625,0.0391845703125,0.98828125,1.8841552734375,-3.641204833984375,-0.052337646484375,1.0,1.0,1.0,1.0,1.0,90.0,event
13:32:56.322,0.6528959,0.3029292,-0.26957035,0.48506764,0.35206893,0.211172,-0.25003588,0.2001111,0.79303837,0.23825565,0.42609715,0.4828074,1.2212458,1.1328888,1.5900168,1.0353737,1.0422527,1.1849259,1.4450109,1.0176846,742.1978,821.5751,772.01465,803.44324,815.9341,-0.06494140625,0.0391845703125,0.98828125,1.8841552734375,-3.641204833984375,-0.052337646484375,1.0,1.0,1.0,1.0,1.0,90.0,event
13:32:56.344,0.6528959,0.3029292,-0.26957035,0.48506764,0.35206893,0.211172,-0.25003588,0.2001111,0.79303837,0.23825565,0.42609715,0.4828074,1.2212458,1.1328888,1.5900168,1.0353737,1.0422527,1.1849259,1.4450109,1.0176846,782.0879,789.34064,784.10254,796.5934,909.011,-0.07000732421875,0.03875732421875,0.9832763671875,1.921539306640625,-3.36456298828125,0.11962890625,1.0,1.0,1.0,1.0,1.0,90.0,event
13:32:56.345,0.6528959,0.3029292,-0.26957035,0.48506764,0.35206893,0.211172,-0.25003588,0.2001111,0.79303837,0.23825565,0.42609715,0.4828074,1.2212458,1.1328888,1.5900168,1.0353737,1.0422527,1.1849259,1.4450109,1.0176846,853.8095,808.68134,816.7399,807.0696,937.2161,-0.07000732421875,0.03875732421875,0.9832763671875,1.921539306640625,-3.36456298828125,0.11962890625,1.0,1.0,1.0,1.0,1.0,90.0,event
13:32:56.346,0.6528959,0.3029292,-0.26957035,0.48506764,0.35206893,0.211172,-0.25003588,0.2001111,0.79303837,0.23825565,0.42609715,0.4828074,1.2212458,1.1328888,1.5900168,1.0353737,1.0422527,1.1849259,1.4450109,1.0176846,893.69965,802.23444,841.7216,837.6923,852.6007,-0.07000732421875,0.03875732421875,0.9832763671875,1.921539306640625,-3.36456298828125,0.11962890625,1.0,1.0,1.0,1.0,1.0,90.0,event
13:32:56.346,0.6528959,0.3029292,-0.26957035,0.48506764,0.35206893,0.211172,-0.25003588,0.2001111,0.79303837,0.23825565,0.42609715,0.4828074,1.2212458,1.1328888,1.5900168,1.0353737,1.0422527,1.1849259,1.4450109,1.0176846,808.68134,791.3553,825.2015,824.3956,724.87177,-0.07000732421875,0.03875732421875,0.9832763671875,1.921539306640625,-3.36456298828125,0.11962890625,1.0,1.0,1.0,1.0,1.0,90.0,event
13:32:56.347,0.6528959,0.3029292,-0.26957035,0.48506764,0.35206893,0.211172,-0.25003588,0.2001111,0.79303837,0.23825565,0.42609715,0.4828074,1.2212458,1.1328888,1.5900168,1.0353737,1.0422527,1.1849259,1.4450109,1.0176846,711.978,805.05493,819.9634,779.2674,761.9414,-0.07000732421875,0.03875732421875,0.9832763671875,1.921539306640625,-3.36456298828125,0.11962890625,1.0,1.0,1.0,1.0,1.0,90.0,event
13:32:56.347,0.6528959,0.3029292,-0.26957035,0.48506764,0.35206893,0.211172,-0.25003588,0.2001111,0.79303837,0.23825565,0.42609715,0.4828074,1.2212458,1.1328888,1.5900168,1.0353737,1.0422527,1.1849259,1.4450109,1.0176846,774.83514,801.4286,827.2161,781.685,881.2088,-0.07000732421875,0.03875732421875,0.9832763671875,1.921539306640625,-3.36456298828125,0.11962890625,1.0,1.0,1.0,1.0,1.0,90.0,event
13:32:56.348,0.6528959,0.3029292,-0.26957035,0.48506764,0.35206893,0.211172,-0.25003588,0.2001111,0.79303837,0.23825565,0.42609715,0.4828074,1.2212458,1.1328888,1.5900168,1.0353737,1.0422527,1.1849259,1.4450109,1.0176846,865.89746,813.5165,813.91943,803.44324,912.6374,-0.07000732421875,0.03875732421875,0.9832763671875,1.921539306640625,-3.36456298828125,0.11962890625,1.0,1.0,1.0,1.0,1.0,90.0,event
13:32:56.349,0.6528959,0.3029292,-0.26957035,0.48506764,0.35206893,0.211172,-0.25003588,0.2001111,0.79303837,0.23825565,0.42609715,0.4828074,1.2212458,1.1328888,1.5900168,1.0353737,1.0422527,1.1849259,1.4450109,1.0176846,833.663,837.28937,801.4286,849.3773,797.3993,-0.07000732421875,0.03875732421875,0.9832763671875,1.921539306640625,-3.36456298828125,0.11962890625,1.0,1.0,1.0,1.0,1.0,90.0,event
13:32:56.349,0.6528959,0.3029292,-0.26957035,0.48506764,0.35206893,0.211172,-0.25003588,0.2001111,0.79303837,0.23825565,0.42609715,0.4828074,1.2212458,1.1328888,1.5900168,1.0353737,1.0422527,1.1849259,1.4450109,1.0176846,905.78754,839.304,799.011,850.58606,815.9341,-0.07000732421875,0.03875732421875,0.9832763671875,1.921539306640625,-3.36456298828125,0.11962890625,1.0,1.0,1.0,1.0,1.0,90.0,event
13:32:56.350,0.6528959,0.3029292,-0.26957035,0.48506764,0.35206893,0.211172,-0.25003588,0.2001111,0.79303837,0.23825565,0.42609715,0.4828074,1.2212458,1.1328888,1.5900168,1.0353737,1.0422527,1.1849259,1.4450109,1.0176846,780.4762,836.4835,771.6117,800.2198,842.9304,-0.07000732421875,0.03875732421875,0.9832763671875,1.921539306640625,-3.36456298828125,0.11962890625,1.0,1.0,1.0,1.0,1.0,90.0,event
13:32:56.350,0.6528959,0.3029292,-0.26957035,0.48506764,0.35206893,0.211172,-0.25003588,0.2001111,0.79303837,0.23825565,0.42609715,0.4828074,1.2212458,1.1328888,1.5900168,1.0353737,1.0422527,1.1849259,1.4450109,1.0176846,724.87177,845.7509,788.5348,813.1135,992.8205,-0.07000732421875,0.03875732421875,0.9832763671875,1.921539306640625,-3.36456298828125,0.11962890625,1.0,1.0,1.0,1.0,1.0,90.0,event
13:32:56.351,0.6528959,0.3029292,-0.26957035,0.48506764,0.35206893,0.211172,-0.25003588,0.2001111,0.79303837,0.23825565,0.42609715,0.4828074,1.2212458,1.1328888,1.5900168,1.0353737,1.0422527,1.1849259,1.4450109,1.0176846,853.4066,818.7546,792.5641,790.14655,718.022,-0.07000732421875,0.03875732421875,0.9832763671875,1.921539306640625,-3.36456298828125,0.11962890625,1.0,1.0,1.0,1.0,1.0,90.0,event
13:32:56.413,0.6528959,0.3029292,-0.26957035,0.48506764,0.35206893,0.211172,-0.25003588,0.2001111,0.79303837,0.23825565,0.42609715,0.4828074,1.2212458,1.1328888,1.5900168,1.0353737,1.0422527,1.1849259,1.4450109,1.0176846,893.69965,810.696,805.8608,835.2747,817.1429,-0.07000732421875,0.03875732421875,0.9832763671875,1.921539306640625,-3.36456298828125,0.11962890625,1.0,1.0,1.0,1.0,1.0,90.0,event
13:32:56.415,0.6528959,0.3029292,-0.26957035,0.48506764,0.35206893,0.211172,-0.25003588,0.2001111,0.79303837,0.23825565,0.42609715,0.4828074,1.2212458,1.1328888,1.5900168,1.0353737,1.0422527,1.1849259,1.4450109,1.0176846,862.27106,796.5934,839.304,845.34796,811.9048,-0.07000732421875,0.03875732421875,0.9832763671875,1.921539306640625,-3.36456298828125,0.11962890625,1.0,1.0,1.0,1.0,1.0,90.0,event
13:32:56.415,0.6528959,0.3029292,-0.26957035,0.48506764,0.35206893,0.211172,-0.25003588,0.2001111,0.79303837,0.23825565,0.42609715,0.4828074,1.2212458,1.1328888,1.5900168,1.0353737,1.0422527,1.1849259,1.4450109,1.0176846,738.1685,809.89014,840.10986,794.9817,756.30035,-0.07000732421875,0.03875732421875,0.9832763671875,1.921539306640625,-3.36456298828125,0.11962890625,1.0,1.0,1.0,1.0,1.0,90.0,event
13:32:56.416,0.6528959,0.3029292,-0.26957035,0.48506764,0.35206893,0.211172,-0.25003588,0.2001111,0.79303837,0.23825565,0.42609715,0.4828074,1.2212458,1.1328888,1.5900168,1.0353737,1.0422527,1.1849259,1.4450109,1.0176846,748.24176,811.9048,812.3077,786.1172,730.9158,-0.07000732421875,0.03875732421875,0.9832763671875,1.921539306640625,-3.36456298828125,0.11962890625,1.0,1.0,1.0,1.0,1.0,90.0,event
13:32:56.417,0.6528959,0.3029292,-0.26957035,0.48506764,0.35206893,0.211172,-0.25003588,0.2001111,0.79303837,0.23825565,0.42609715,0.4828074,1.2212458,1.1328888,1.5900168,1.0353737,1.0422527,1.1849259,1.4450109,1.0176846,835.6777,799.41394,808.2784,801.02563,831.6484,-0.07000732421875,0.03875732421875,0.9832763671875,1.921539306640625,-3.36456298828125,0.11962890625,1.0,1.0,1.0,1.0,1.0,90.0,event
13:32:56.418,0.6528959,0.3029292,-0.26957035,0.48506764,0.35206893,0.211172,-0.25003588,0.2001111,0.79303837,0.23825565,0.42609715,0.4828074,1.2212458,1.1328888,1.5900168,1.0353737,1.0422527,1.1849259,1.4450109,1.0176846,889.2674,822.381,823.1868,850.989,924.7253,-0.07000732421875,0.03875732421875,0.9832763671875,1.921539306640625,-3.36456298828125,0.11962890625,1.0,1.0,1.0,1.0,1.0,90.0,event
13:32:56.418,0.6528959,0.3029292,-0.26957035,0.48506764,0.35206893,0.211172,-0.25003588,0.2001111,0.79303837,0.23825565,0.42609715,0.4828074,1.2212458,1.1328888,1.5900168,1.0353737,1.0422527,1.1849259,1.4450109,1.0176846,862.674,844.94507,814.3223,873.1502,889.67035,-0.07000732421875,0.03875732421875,0.9832763671875,1.921539306640625,-3.36456298828125,0.11962890625,1.0,1.0,1.0,1.0,1.0,90.0,event
13:32:56.419,0.6528959,0.3029292,-0.26957035,0.48506764,0.35206893,0.211172,-0.25003588,0.2001111,0.79303837,0.23825565,0.42609715,0.4828074,1.2212458,1.1328888,1.5900168,1.0353737,1.0422527,1.1849259,1.4450109,1.0176846,733.73627,830.4396,780.07324,805.8608,793.36993,-0.07000732421875,0.03875732421875,0.9832763671875,1.921539306640625,-3.36456298828125,0.11962890625,1.0,1.0,1.0,1.0,1.0,90.0,event
13:32:56.420,0.6528959,0.3029292,-0.26957035,0.48506764,0.35206893,0.211172,-0.25003588,0.2001111,0.79303837,0.23825565,0.42609715,0.4828074,1.2212458,1.1328888,1.5900168,1.0353737,1.0422527,1.1849259,1.4450109,1.0176846,708.3516,797.8022,822.7839,772.4176,962.6007,-0.07000732421875,0.03875732421875,0.9832763671875,1.921539306640625,-3.36456298828125,0.11962890625,1.0,1.0,1.0,1.0,1.0,90.0,event
13:32:56.420,0.6528959,0.3029292,-0.26957035,0.48506764,0.35206893,0.211172,-0.25003588,0.2001111,0.79303837,0.23825565,0.42609715,0.4828074,1.2212458,1.1328888,1.5900168,1.0353737,1.0422527,1.1849259,1.4450109,1.0176846,811.9048,795.38464,841.31866,781.28204,1031.0989,-0.07000732421875,0.03875732421875,0.9832763671875,1.921539306640625,-3.36456298828125,0.11962890625,1.0,1.0,1.0,1.0,1.0,90.0,event
13:32:56.421,0.6528959,0.3029292,-0.26957035,0.48506764,0.35206893,0.211172,-0.25003588,0.2001111,0.79303837,0.23825565,0.42609715,0.4828074,1.2212458,1.1328888,1.5900168,1.0353737,1.0422527,1.1849259,1.4450109,1.0176846,884.43225,799.81683,805.8608,800.2198,739.7802,-0.07000732421875,0.03875732421875,0.9832763671875,1.921539306640625,-3.36456298828125,0.11962890625,1.0,1.0,1.0,1.0,1.0,90.0,event
13:32:56.422,0.6528959,0.3029292,-0.26957035,0.48506764,0.35206893,0.211172,-0.25003588,0.2001111,0.79303837,0.23825565,0.42609715,0.4828074,1.2212458,1.1328888,1.5900168,1.0353737,1.0422527,1.1849259,1.4450109,1.0176846,869.92676,789.7436,809.4872,840.9158,682.1612,-0.07000732421875,0.03875732421875,0.9832763671875,1.921539306640625,-3.36456298828125,0.11962890625,1.0,1.0,1.0,1.0,1.0,90.0,event
13:32:56.466,0.6528959,0.3029292,-0.26957035,0.48506764,0.35206893,0.211172,-0.25003588,0.2001111,0.79303837,0.23825565,0.42609715,0.4828074,1.2212458,1.1328888,1.5900168,1.0353737,1.0422527,1.1849259,1.4450109,1.0176846,759.92676,801.02563,801.4286,815.12823,720.0366,-0.07025146484375,0.03515625,0.98150634765625,2.444915771484375,-3.33465576171875,0.2093505859375,1.0,1.0,1.0,1.0,1.0,90.0,event
13:32:56.467,0.6528959,0.3029292,-0.26957035,0.48506764,0.35206893,0.211172,-0.25003588,0.2001111,0.79303837,0.23825565,0.42609715,0.4828074,1.2212458,1.1328888,1.5900168,1.0353737,1.0422527,1.1849259,1.4450109,1.0176846,717.619,818.3516,801.02563,770.40295,687.8022,-0.07025146484375,0.03515625,0.98150634765625,2.444915771484375,-3.33465576171875,0.2093505859375,1.0,1.0,1.0,1.0,1.0,90.0,event
13:32:56.468,0.6528959,0.3029292,-0.26957035,0.48506764,0.35206893,0.211172,-0.25003588,0.2001111,0.79303837,0.23825565,0.42609715,0.4828074,1.2212458,1.1328888,1.5900168,1.0353737,1.0422527,1.1849259,1.4450109,1.0176846,806.6667,828.022,817.9487,769.19415,669.2674,-0.07025146484375,0.03515625,0.98150634765625,2.444915771484375,-3.33465576171875,0.2093505859375,1.0,1.0,1.0,1.0,1.0,90.0,event
13:32:56.469,0.6528959,0.3029292,-0.26957035,0.48506764,0.35206893,0.211172,-0.25003588,0.2001111,0.79303837,0.23825565,0.42609715,0.4828074,1.2212458,1.1328888,1.5900168,1.0353737,1.0422527,1.1849259,1.4450109,1.0176846,877.1795,831.6484,808.2784,807.47253,669.67035,-0.07025146484375,0.03515625,0.98150634765625,2.444915771484375,-3.33465576171875,0.2093505859375,1.0,1.0,1.0,1.0,1.0,90.0,event
13:32:56.470,0.6528959,0.3029292,-0.26957035,0.48506764,0.35206893,0.211172,-0.25003588,0.2001111,0.79303837,0.23825565,0.42609715,0.4828074,1.2212458,1.1328888,1.5900168,1.0353737,1.0422527,1.1849259,1.4450109,1.0176846,869.5238,830.0366,790.9524,850.58606,740.989,-0.07025146484375,0.03515625,0.98150634765625,2.444915771484375,-3.33465576171875,0.2093505859375,1.0,1.0,1.0,1.0,1.0,90.0,event
13:32:56.471,0.6528959,0.3029292,-0.26957035,0.48506764,0.35206893,0.211172,-0.25003588,0.2001111,0.79303837,0.23825565,0.42609715,0.4828074,1.2212458,1.1328888,1.5900168,1.0353737,1.0422527,1.1849259,1.4450109,1.0176846,744.21246,804.65204,798.60803,807.0696,840.5128,-0.07025146484375,0.03515625,0.98150634765625,2.444915771484375,-3.33465576171875,0.2093505859375,1.0,1.0,1.0,1.0,1.0,90.0,event
13:32:56.472,0.6528959,0.3029292,-0.26957035,0.48506764,0.35206893,0.211172,-0.25003588,0.2001111,0.79303837,0.23825565,0.42609715,0.4828074,1.2212458,1.1328888,1.5900168,1.0353737,1.0422527,1.1849259,1.4450109,1.0176846,714.7985,776.04395,827.2161,775.64105,788.1319,-0.07025146484375,0.03515625,0.98150634765625,2.444915771484375,-3.33465576171875,0.2093505859375,1.0,1.0,1.0,1.0,1.0,90.0,event
13:32:56.473,0.6528959,0.3029292,-0.26957035,0.48506764,0.35206893,0.211172,-0.25003588,0.2001111,0.79303837,0.23825565,0.42609715,0.4828074,1.2212458,1.1328888,1.5900168,1.0353737,1.0422527,1.1849259,1.4450109,1.0176846,816.337,776.4469,829.2308,780.87915,749.85345,-0.07025146484375,0.03515625,0.98150634765625,2.444915771484375,-3.33465576171875,0.2093505859375,1.0,1.0,1.0,1.0,1.0,90.0,event
13:32:56.473,0.6528959,0.3029292,-0.26957035,0.48506764,0.35206893,0.211172,-0.25003588,0.2001111,0.79303837,0.23825565,0.42609715,0.4828074,1.2212458,1.1328888,1.5900168,1.0353737,1.0422527,1.1849259,1.4450109,1.0176846,853.4066,799.011,803.44324,800.2198,969.85345,-0.07025146484375,0.03515625,0.98150634765625,2.444915771484375,-3.33465576171875,0.2093505859375,1.0,1.0,1.0,1.0,1.0,90.0,event
13:32:56.474,0.6528959,0.3029292,-0.26957035,0.48506764,0.35206893,0.211172,-0.25003588,0.2001111,0.79303837,0.23825565,0.42609715,0.4828074,1.2212458,1.1328888,1.5900168,1.0353737,1.0422527,1.1849259,1.4450109,1.0176846,883.6264,833.663,796.1905,860.2564,919.0842,-0.07025146484375,0.03515625,0.98150634765625,2.444915771484375,-3.33465576171875,0.2093505859375,1.0,1.0,1.0,1.0,1.0,90.0,event
13:32:56.475,0.6528959,0.3029292,-0.26957035,0.48506764,0.35206893,0.211172,-0.25003588,0.2001111,0.79303837,0.23825565,0.42609715,0.4828074,1.2212458,1.1328888,1.5900168,1.0353737,1.0422527,1.1849259,1.4450109,1.0176846,828.4249,835.6777,813.5165,857.8388,700.696,-0.07025146484375,0.03515625,0.98150634765625,2.444915771484375,-3.33465576171875,0.2093505859375,1.0,1.0,1.0,1.0,1.0,90.0,event
13:32:56.476,0.6528959,0.3029292,-0.26957035,0.48506764,0.35206893,0.211172,-0.25003588,0.2001111,0.79303837,0.23825565,0.42609715,0.4828074,1.2212458,1.1328888,1.5900168,1.0353737,1.0422527,1.1849259,1.4450109,1.0176846,720.84247,797.3993,840.5128,776.8498,722.8571,-0.07025146484375,0.03515625,0.98150634765625,2.444915771484375,-3.33465576171875,0.2093505859375,1.0,1.0,1.0,1.0,1.0,90.0,event
13:32:56.513,0.6528959,0.3029292,-0.26957035,0.48506764,0.35206893,0.211172,-0.25003588,0.2001111,0.79303837,0.23825565,0.42609715,0.4828074,1.2212458,1.1328888,1.5900168,1.0353737,1.0422527,1.1849259,1.4450109,1.0176846,765.16486,800.6227,828.022,748.24176,738.1685,-0.06915283203125,0.03912353515625,0.9842529296875,2.04864501953125,-3.147735595703125,0.276641845703125,1.0,1.0,1.0,1.0,1.0,90.0,event
13:32:56.515,0.6528959,0.3029292,-0.26957035,0.48506764,0.35206893,0.211172,-0.25003588,0.2001111,0.79303837,0.23825565,0.42609715,0.4828074,1.2212458,1.1328888,1.5900168,1.0353737,1.0422527,1.1849259,1.4450109,1.0176846,865.09155,819.5604,787.72894,784.10254,710.3663,-0.06915283203125,0.03912353515625,0.9842529296875,2.04864501953125,-3.147735595703125,0.276641845703125,1.0,1.0,1.0,1.0,1.0,90.0,event
13:32:56.516,0.6528959,0.3029292,-0.26957035,0.48506764,0.35206893,0.211172,-0.25003588,0.2001111,0.79303837,0.23825565,0.42609715,0.4828074,1.2212458,1.1328888,1.5900168,1.0353737,1.0422527,1.1849259,1.4450109,1.0176846,890.87915,810.696,801.8315,844.1392,771.2088,-0.06915283203125,0.03912353515625,0.9842529296875,2.04864501953125,-3.147735595703125,0.276641845703125,1.0,1.0,1.0,1.0,1.0,90.0,event
13:32:56.517,0.6528959,0.3029292,-0.26957035,0.48506764,0.35206893,0.211172,-0.25003588,0.2001111,0.79303837,0.23825565,0.42609715,0.4828074,1.2212458,1.1328888,1.5900168,1.0353737,1.0422527,1.1849259,1.4450109,1.0176846,809.89014,794.57874,851.39197,863.0769,830.4396,-0.06915283203125,0.03912353515625,0.9842529296875,2.04864501953125,-3.147735595703125,0.276641845703125,1.0,1.0,1.0,1.0,1.0,90.0,event
13:32:56.518,0.6528959,0.3029292,-0.26957035,0.48506764,0.35206893,0.211172,-0.25003588,0.2001111,0.79303837,0.23825565,0.42609715,0.4828074,1.2212458,1.1328888,1.5900168,1.0353737,1.0422527,1.1849259,1.4450109,1.0176846,723.663,788.5348,840.5128,794.9817,787.72894,-0.06915283203125,0.03912353515625,0.9842529296875,2.04864501953125,-3.147735595703125,0.276641845703125,1.0,1.0,1.0,1.0,1.0,90.0,event
13:32:56.519,0.6528959,0.3029292,-0.26957035,0.48506764,0.35206893,0.211172,-0.25003588,0.2001111,0.79303837,0.23825565,0.42609715,0.4828074,1.2212458,1.1328888,1.5900168,1.0353737,1.0422527,1.1849259,1.4450109,1.0176846,770.80585,811.0989,789.7436,766.3736,780.87915,-0.06915283203125,0.03912353515625,0.9842529296875,2.04864501953125,-3.147735595703125,0.276641845703125,1.0,1.0,1.0,1.0,1.0,90.0,event
13:32:56.520,0.6528959,0.3029292,-0.26957035,0.48506764,0.35206893,0.211172,-0.25003588,0.2001111,0.79303837,0.23825565,0.42609715,0.4828074,1.2212458,1.1328888,1.5900168,1.0353737,1.0422527,1.1849259,1.4450109,1.0176846,859.0476,805.05493,784.5055,798.60803,808.2784,-0.06915283203125,0.03912353515625,0.9842529296875,2.04864501953125,-3.147735595703125,0.276641845703125,1.0,1.0,1.0,1.0,1.0,90.0,event
13:32:56.521,0.6528959,0.3029292,-0.26957035,0.48506764,0.35206893,0.211172,-0.25003588,0.2001111,0.79303837,0.23825565,0.42609715,0.4828074,1.2212458,1.1328888,1.5900168,1.0353737,1.0422527,1.1849259,1.4450109,1.0176846,892.49084,778.86444,808.2784,852.6007,915.05493,-0.06915283203125,0.03912353515625,0.9842529296875,2.04864501953125,-3.147735595703125,0.276641845703125,1.0,1.0,1.0,1.0,1.0,90.0,event
13:32:56.522,0.6528959,0.3029292,-0.26957035,0.48506764,0.35206893,0.211172,-0.25003588,0.2001111,0.79303837,0.23825565,0.42609715,0.4828074,1.2212458,1.1328888,1.5900168,1.0353737,1.0422527,1.1849259,1.4450109,1.0176846,792.1612,793.7729,819.9634,832.4542,992.4176,-0.06915283203125,0.03912353515625,0.9842529296875,2.04864501953125,-3.147735595703125,0.276641845703125,1.0,1.0,1.0,1.0,1.0,90.0,event
13:32:56.523,0.6528959,0.3029292,-0.26957035,0.48506764,0.35206893,0.211172,-0.25003588,0.2001111,0.79303837,0.23825565,0.42609715,0.4828074,1.2212458,1.1328888,1.5900168,1.0353737,1.0422527,1.1849259,1.4450109,1.0176846,766.77655,815.5311,799.41394,770.0,709.5604,-0.06915283203125,0.03912353515625,0.9842529296875,2.04864501953125,-3.147735595703125,0.276641845703125,1.0,1.0,1.0,1.0,1.0,90.0,event
13:32:56.523,0.6528959,0.3029292,-0.26957035,0.48506764,0.35206893,0.211172,-0.25003588,0.2001111,0.79303837,0.23825565,0.42609715,0.4828074,1.2212458,1.1328888,1.5900168,1.0353737,1.0422527,1.1849259,1.4450109,1.0176846,701.0989,817.9487,815.12823,775.2381,776.04395,-0.06915283203125,0.03912353515625,0.9842529296875,2.04864501953125,-3.147735595703125,0.276641845703125,1.0,1.0,1.0,1.0,1.0,90.0,event
13:32:56.524,0.6528959,0.3029292,-0.26957035,0.48506764,0.35206893,0.211172,-0.25003588,0.2001111,0.79303837,0.23825565,0.42609715,0.4828074,1.2212458,1.1328888,1.5900168,1.0353737,1.0422527,1.1849259,1.4450109,1.0176846,866.30035,828.4249,786.52014,799.41394,860.2564,-0.06915283203125,0.03912353515625,0.9842529296875,2.04864501953125,-3.147735595703125,0.276641845703125,1.0,1.0,1.0,1.0,1.0,90.0,event
13:32:56.545,0.6528959,0.3029292,-0.26957035,0.48506764,0.35206893,0.211172,-0.25003588,0.2001111,0.79303837,0.23825565,0.42609715,0.4828074,1.2212458,1.1328888,1.5900168,1.0353737,1.0422527,1.1849259,1.4450109,1.0176846,939.6337,828.022,800.2198,865.09155,788.5348,-0.0706787109375,0.0364990234375,0.98858642578125,2.04864501953125,-3.013153076171875,-0.037384033203125,1.0,1.0,1.0,1.0,1.0,90.0,event
13:32:56.548,0.6528959,0.3029292,-0.26957035,0.48506764,0.35206893,0.211172,-0.25003588,0.2001111,0.79303837,0.23825565,0.42609715,0.4828074,1.2212458,1.1328888,1.5900168,1.0353737,1.0422527,1.1849259,1.4450109,1.0176846,844.1392,788.93774,809.4872,853.00366,712.381,-0.0706787109375,0.0364990234375,0.98858642578125,2.04864501953125,-3.013153076171875,-0.037384033203125,1.0,1.0,1.0,1.0,1.0,90.0,event
13:32:56.552,0.6528959,0.3029292,-0.26957035,0.48506764,0.35206893,0.211172,-0.25003588,0.2001111,0.79303837,0.23825565,0.42609715,0.4828074,1.2212458,1.1328888,1.5900168,1.0353737,1.0422527,1.1849259,1.4450109,1.0176846,703.91943,766.77655,830.0366,781.685,740.989,-0.0706787109375,0.0364990234375,0.98858642578125,2.04864501953125,-3.013153076171875,-0.037384033203125,1.0,1.0,1.0,1.0,1.0,90.0,event
13:32:56.553,0.6528959,0.3029292,-0.26957035,0.48506764,0.35206893,0.211172,-0.25003588,0.2001111,0.79303837,0.23825565,0.42609715,0.4828074,1.2212458,1.1328888,1.5900168,1.0353737,1.0422527,1.1849259,1.4450109,1.0176846,758.315,788.5348,862.674,772.4176,753.8828,-0.0706787109375,0.0364990234375,0.98858642578125,2.04864501953125,-3.013153076171875,-0.037384033203125,1.0,1.0,1.0,1.0,1.0,90.0,event
13:32:56.554,0.6528959,0.3029292,-0.26957035,0.48506764,0.35206893,0.211172,-0.25003588,0.2001111,0.79303837,0.23825565,0.42609715,0.4828074,1.2212458,1.1328888,1.5900168,1.0353737,1.0422527,1.1849259,1.4450109,1.0176846,859.85345,804.65204,836.4835,789.7436,720.4396,-0.0706787109375,0.0364990234375,0.98858642578125,2.04864501953125,-3.013153076171875,-0.037384033203125,1.0,1.0,1.0,1.0,1.0,90.0,event
13:32:56.555,0.6528959,0.3029292,-0.26957035,0.48506764,0.35206893,0.211172,-0.25003588,0.2001111,0.79303837,0.23825565,0.42609715,0.4828074,1.2212458,1.1328888,1.5900168,1.0353737,1.0422527,1.1849259,1.4450109,1.0176846,901.75824,784.90845,823.1868,832.4542,736.1539,-0.0706787109375,0.0364990234375,0.98858642578125,2.04864501953125,-3.013153076171875,-0.037384033203125,1.0,1.0,1.0,1.0,1.0,90.0,event
13:32:56.555,0.6528959,0.3029292,-0.26957035,0.48506764,0.35206893,0.211172,-0.25003588,0.2001111,0.79303837,0.23825565,0.42609715,0.4828074,1.2212458,1.1328888,1.5900168,1.0353737,1.0422527,1.1849259,1.4450109,1.0176846,853.4066,801.4286,840.10986,863.47986,865.09155,-0.0706787109375,0.0364990234375,0.98858642578125,2.04864501953125,-3.013153076171875,-0.037384033203125,1.0,1.0,1.0,1.0,1.0,90.0,event
13:32:56.556,0.6528959,0.3029292,-0.26957035,0.48506764,0.35206893,0.211172,-0.25003588,0.2001111,0.79303837,0.23825565,0.42609715,0.4828074,1.2212458,1.1328888,1.5900168,1.0353737,1.0422527,1.1849259,1.4450109,1.0176846,738.5714,819.5604,725.2747,771.2088,899.34064,-0.0706787109375,0.0364990234375,0.98858642578125,2.04864501953125,-3.013153076171875,-0.037384033203125,1.0,1.0,1.0,1.0,1.0,90.0,event
13:32:56.556,0.6528959,0.3029292,-0.26957035,0.48506764,0.35206893,0.211172,-0.25003588,0.2001111,0.79303837,0.23825565,0.42609715,0.4828074,1.2212458,1.1328888,1.5900168,1.0353737,1.0422527,1.1849259,1.4450109,1.0176846,725.6777,821.5751,770.80585,818.3516,1079.8535,-0.0706787109375,0.0364990234375,0.98858642578125,2.04864501953125,-3.013153076171875,-0.037384033203125,1.0,1.0,1.0,1.0,1.0,90.0,event
13:32:56.557,0.6528959,0.3029292,-0.26957035,0.48506764,0.35206893,0.211172,-0.25003588,0.2001111,0.79303837,0.23825565,0.42609715,0.4828074,1.2212458,1.1328888,1.5900168,1.0353737,1.0422527,1.1849259,1.4450109,1.0176846,812.3077,805.4579,795.38464,754.68866,669.67035,-0.0706787109375,0.0364990234375,0.98858642578125,2.04864501953125,-3.013153076171875,-0.037384033203125,1.0,1.0,1.0,1.0,1.0,90.0,event
13:32:56.558,0.6528959,0.3029292,-0.26957035,0.48506764,0.35206893,0.211172,-0.25003588,0.2001111,0.79303837,0.23825565,0.42609715,0.4828074,1.2212458,1.1328888,1.5900168,1.0353737,1.0422527,1.1849259,1.4450109,1.0176846,872.74725,802.23444,788.93774,869.12085,821.5751,-0.0706787109375,0.0364990234375,0.98858642578125,2.04864501953125,-3.013153076171875,-0.037384033203125,1.0,1.0,1.0,1.0,1.0,90.0,event
13:32:56.558,0.6528959,0.3029292,-0.26957035,0.48506764,0.35206893,0.211172,-0.25003588,0.2001111,0.79303837,0.23825565,0.42609715,0.4828074,1.2212458,1.1328888,1.5900168,1.0353737,1.0422527,1.1849259,1.4450109,1.0176846,880.80585,784.90845,814.3223,820.7692,731.7216,-0.0706787109375,0.0364990234375,0.98858642578125,2.04864501953125,-3.013153076171875,-0.037384033203125,1.0,1.0,1.0,1.0,1.0,90.0,event
13:32:56.601,0.6528959,0.3029292,-0.26957035,0.48506764,0.35206893,0.211172,-0.25003588,0.2001111,0.79303837,0.23825565,0.42609715,0.4828074,1.2212458,1.1328888,1.5900168,1.0353737,1.0422527,1.1849259,1.4450109,1.0176846,740.989,825.6044,844.1392,811.50183,872.74725,-0.068115234375,0.0396728515625,0.9849853515625,2.041168212890625,-3.15521240234375,0.052337646484375,1.0,1.0,1.0,1.0,1.0,90.0,event
13:32:56.603,0.6528959,0.3029292,-0.26957035,0.48506764,0.35206893,0.211172,-0.25003588,0.2001111,0.79303837,0.23825565,0.42609715,0.4828074,1.2212458,1.1328888,1.5900168,1.0353737,1.0422527,1.1849259,1.4450109,1.0176846,728.49817,809.0842,858.6447,775.64105,762.74725,-0.068115234375,0.0396728515625,0.9849853515625,2.041168212890625,-3.15521240234375,0.052337646484375,1.0,1.0,1.0,1.0,1.0,90.0,event
13:32:56.605,0.6528959,0.3029292,-0.26957035,0.48506764,0.35206893,0.211172,-0.25003588,0.2001111,0.79303837,0.23825565,0.42609715,0.4828074,1.2212458,1.1328888,1.5900168,1.0353737,1.0422527,1.1849259,1.4450109,1.0176846,818.7546,793.7729,838.9011,794.9817,763.1502,-0.068115234375,0.0396728515625,0.9849853515625,2.041168212890625,-3.15521240234375,0.052337646484375,1.0,1.0,1.0,1.0,1.0,90.0,event
13:32:56.605,0.6528959,0.3029292,-0.26957035,0.48506764,0.35206893,0.211172,-0.25003588,0.2001111,0.79303837,0.23825565,0.42609715,0.4828074,1.2212458,1.1328888,1.5900168,1.0353737,1.0422527,1.1849259,1.4450109,1.0176846,890.87915,800.2198,810.293,832.0513,794.17584,-0.068115234375,0.0396728515625,0.9849853515625,2.041168212890625,-3.15521240234375,0.052337646484375,1.0,1.0,1.0,1.0,1.0,90.0,event
13:32:56.606,0.6528959,0.3029292,-0.26957035,0.48506764,0.35206893,0.211172,-0.25003588,0.2001111,0.79303837,0.23825565,0.42609715,0.4828074,1.2212458,1.1328888,1.5900168,1.0353737,1.0422527,1.1849259,1.4450109,1.0176846,851.79486,794.17584,757.1062,834.87177,745.42126,-0.068115234375,0.0396728515625,0.9849853515625,2.041168212890625,-3.15521240234375,0.052337646484375,1.0,1.0,1.0,1.0,1.0,90.0,event
13:32:56.607,0.6528959,0.3029292,-0.26957035,0.48506764,0.35206893,0.211172,-0.25003588,0.2001111,0.79303837,0.23825565,0.42609715,0.4828074,1.2212458,1.1328888,1.5900168,1.0353737,1.0422527,1.1849259,1.4450109,1.0176846,718.022,765.9707,798.60803,786.9231,815.9341,-0.068115234375,0.0396728515625,0.9849853515625,2.041168212890625,-3.15521240234375,0.052337646484375,1.0,1.0,1.0,1.0,1.0,90.0,event
13:32:56.608,0.6528959,0.3029292,-0.26957035,0.48506764,0.35206893,0.211172,-0.25003588,0.2001111,0.79303837,0.23825565,0.42609715,0.4828074,1.2212458,1.1328888,1.5900168,1.0353737,1.0422527,1.1849259,1.4450109,1.0176846,706.337,787.72894,835.6777,776.8498,1031.0989,-0.068115234375,0.0396728515625,0.9849853515625,2.041168212890625,-3.15521240234375,0.052337646484375,1.0,1.0,1.0,1.0,1.0,90.0,event
13:32:56.608,0.6528959,0.3029292,-0.26957035,0.48506764,0.35206893,0.211172,-0.25003588,0.2001111,0.79303837,0.23825565,0.42609715,0.4828074,1.2212458,1.1328888,1.5900168,1.0353737,1.0422527,1.1849259,1.4450109,1.0176846,816.7399,829.6337,834.87177,795.78754,1010.14655,-0.068115234375,0.0396728515625,0.9849853515625,2.041168212890625,-3.15521240234375,0.052337646484375,1.0,1.0,1.0,1.0,1.0,90.0,event
13:32:56.609,0.6528959,0.3029292,-0.26957035,0.48506764,0.35206893,0.211172,-0.25003588,0.2001111,0.79303837,0.23825565,0.42609715,0.4828074,1.2212458,1.1328888,1.5900168,1.0353737,1.0422527,1.1849259,1.4450109,1.0176846,891.685,826.4103,822.7839,818.3516,752.27106,-0.068115234375,0.0396728515625,0.9849853515625,2.041168212890625,-3.15521240234375,0.052337646484375,1.0,1.0,1.0,1.0,1.0,90.0,event
13:32:56.610,0.6528959,0.3029292,-0.26957035,0.48506764,0.35206893,0.211172,-0.25003588,0.2001111,0.79303837,0.23825565,0.42609715,0.4828074,1.2212458,1.1328888,1.5900168,1.0353737,1.0422527,1.1849259,1.4450109,1.0176846,739.3773,809.89014,780.87915,803.0403,742.6007,-0.068115234375,0.0396728515625,0.9849853515625,2.041168212890625,-3.15521240234375,0.052337646484375,1.0,1.0,1.0,1.0,1.0,90.0,event
13:32:56.610,0.6528959,0.3029292,-0.26957035,0.48506764,0.35206893,0.211172,-0.25003588,0.2001111,0.79303837,0.23825565,0.42609715,0.4828074,1.2212458,1.1328888,1.5900168,1.0353737,1.0422527,1.1849259,1.4450109,1.0176846,864.68866,806.26373,784.10254,841.7216,698.2784,-0.068115234375,0.0396728515625,0.9849853515625,2.041168212890625,-3.15521240234375,0.052337646484375,1.0,1.0,1.0,1.0,1.0,90.0,event
13:32:56.611,0.6528959,0.3029292,-0.26957035,0.48506764,0.35206893,0.211172,-0.25003588,0.2001111,0.79303837,0.23825565,0.42609715,0.4828074,1.2212458,1.1328888,1.5900168,1.0353737,1.0422527,1.1849259,1.4450109,1.0176846,736.1539,824.7985,794.17584,791.75824,748.24176,-0.068115234375,0.0396728515625,0.9849853515625,2.041168212890625,-3.15521240234375,0.052337646484375,1.0,1.0,1.0,1.0,1.0,90.0,event
13:32:56.698,0.6528959,0.3029292,-0.26957035,0.48506764,0.35206893,0.211172,-0.25003588,0.2001111,0.79303837,0.23825565,0.42609715,0.4828074,1.2212458,1.1328888,1.5900168,1.0353737,1.0422527,1.1849259,1.4450109,1.0176846,837.28937,802.23444,824.3956,800.6227,640.65936,-0.068115234375,0.0396728515625,0.9849853515625,2.041168212890625,-3.15521240234375,0.052337646484375,1.0,1.0,1.0,1.0,1.0,90.0,event
13:32:56.699,0.6528959,0.3029292,-0.26957035,0.48506764,0.35206893,0.211172,-0.25003588,0.2001111,0.79303837,0.23825565,0.42609715,0.4828074,1.2212458,1.1328888,1.5900168,1.0353737,1.0422527,1.1849259,1.4450109,1.0176846,887.6557,784.90845,834.87177,814.3223,647.50916,-0.068115234375,0.0396728515625,0.9849853515625,2.041168212890625,-3.15521240234375,0.052337646484375,1.0,1.0,1.0,1.0,1.0,90.0,event
13:32:56.700,0.6528959,0.3029292,-0.26957035,0.48506764,0.35206893,0.211172,-0.25003588,0.2001111,0.79303837,0.23825565,0.42609715,0.4828074,1.2212458,1.1328888,1.5900168,1.0353737,1.0422527,1.1849259,1.4450109,1.0176846,881.6117,802.23444,795.78754,853.4066,760.32965,-0.068115234375,0.0396728515625,0.9849853515625,2.041168212890625,-3.15521240234375,0.052337646484375,1.0,1.0,1.0,1.0,1.0,90.0,event
13:32:56.702,0.6528959,0.3029292,-0.26957035,0.4853634,0.35206893,0.211172,-0.25003588,0.20874688,0.79303837,0.23825565,0.42609715,0.4828074,1.2212458,1.1328888,1.5900168,1.0413479,1.0422527,1.1849259,1.4450109,1.0207146,774.0293,799.011,814.7253,819.9634,821.1722,-0.068115234375,0.0396728515625,0.9849853515625,2.041168212890625,-3.15521240234375,0.052337646484375,1.0,1.0,1.0,1.0,1.0,90.0,event
13:32:56.708,0.6528959,0.3029292,-0.26957035,0.4853634,0.35206893,0.211172,-0.25003588,0.20874688,0.79303837,0.23825565,0.42609715,0.4828074,1.2212458,1.1328888,1.5900168,1.0413479,1.0422527,1.1849259,1.4450109,1.0207146,734.94507,790.14655,849.7802,787.326,774.43225,-0.068115234375,0.0396728515625,0.9849853515625,2.041168212890625,-3.15521240234375,0.052337646484375,1.0,1.0,1.0,1.0,1.0,90.0,event
13:32:56.708,0.6528959,0.3029292,-0.26957035,0.4853634,0.35206893,0.211172,-0.25003588,0.20874688,0.79303837,0.23825565,0.42609715,0.4828074,1.2212458,1.1328888,1.5900168,1.0413479,1.0422527,1.1849259,1.4450109,1.0207146,799.81683,800.2198,806.26373,788.5348,823.5897,-0.068115234375,0.0396728515625,0.9849853515625,2.041168212890625,-3.15521240234375,0.052337646484375,1.0,1.0,1.0,1.0,1.0,90.0,event
13:32:56.709,0.6528959,0.3029292,-0.26957035,0.4853634,0.35206893,0.211172,-0.25003588,0.20874688,0.79303837,0.23825565,0.42609715,0.4828074,1.2212458,1.1328888,1.5900168,1.0413479,1.0422527,1.1849259,1.4450109,1.0207146,834.0659,806.26373,769.59705,804.65204,1190.6593,-0.068115234375,0.0396728515625,0.9849853515625,2.041168212890625,-3.15521240234375,0.052337646484375,1.0,1.0,1.0,1.0,1.0,90.0,event
13:32:56.710,0.6528959,0.3029292,-0.26957035,0.4853634,0.35206893,0.211172,-0.25003588,0.20874688,0.79303837,0.23825565,0.42609715,0.4828074,1.2212458,1.1328888,1.5900168,1.0413479,1.0422527,1.1849259,1.4450109,1.0207146,867.50916,805.8608,792.1612,849.3773,1170.1099,-0.068115234375,0.0396728515625,0.9849853515625,2.041168212890625,-3.15521240234375,0.052337646484375,1.0,1.0,1.0,1.0,1.0,90.0,event
13:32:56.711,0.6528959,0.3029292,-0.26957035,0.4853634,0.35206893,0.211172,-0.25003588,0.20874688,0.79303837,0.23825565,0.42609715,0.4828074,1.2212458,1.1328888,1.5900168,1.0413479,1.0422527,1.1849259,1.4450109,1.0207146,727.28937,821.1722,813.5165,781.685,758.315,-0.068115234375,0.0396728515625,0.9849853515625,2.041168212890625,-3.15521240234375,0.052337646484375,1.0,1.0,1.0,1.0,1.0,90.0,event
13:32:56.711,0.6528959,0.3029292,-0.26957035,0.4853634,0.35206893,0.211172,-0.25003588,0.20874688,0.79303837,0.23825565,0.42609715,0.4828074,1.2212458,1.1328888,1.5900168,1.0413479,1.0422527,1.1849259,1.4450109,1.0207146,805.8608,823.5897,818.3516,828.8278,806.26373,-0.068115234375,0.0396728515625,0.9849853515625,2.041168212890625,-3.15521240234375,0.052337646484375,1.0,1.0,1.0,1.0,1.0,90.0,event
13:32:56.712,0.6528959,0.3029292,-0.26957035,0.4853634,0.35206893,0.211172,-0.25003588,0.20874688,0.79303837,0.23825565,0.42609715,0.4828074,1.2212458,1.1328888,1.5900168,1.0413479,1.0422527,1.1849259,1.4450109,1.0207146,801.4286,796.99634,821.5751,783.69965,762.74725,-0.068115234375,0.0396728515625,0.9849853515625,2.041168212890625,-3.15521240234375,0.052337646484375,1.0,1.0,1.0,1.0,1.0,90.0,event
13:32:56.713,0.6528959,0.3029292,-0.26957035,0.4853634,0.35206893,0.211172,-0.25003588,0.20874688,0.79303837,0.23825565,0.42609715,0.4828074,1.2212458,1.1328888,1.5900168,1.0413479,1.0422527,1.1849259,1.4450109,1.0207146,886.4469,791.75824,813.91943,801.4286,653.5531,-0.068115234375,0.0396728515625,0.9849853515625,2.041168212890625,-3.15521240234375,0.052337646484375,1.0,1.0,1.0,1.0,1.0,90.0,event
13:32:56.714,0.6528959,0.3029292,-0.26957035,0.4853634,0.35206893,0.211172,-0.25003588,0.20874688,0.79303837,0.23825565,0.42609715,0.4828074,1.2212458,1.1328888,1.5900168,1.0413479,1.0422527,1.1849259,1.4450109,1.0207146,891.28204,779.2674,815.9341,829.6337,664.83514,-0.07513427734375,0.03546142578125,0.9854736328125,1.577606201171875,-3.8580322265625,0.04486083984375,1.0,1.0,1.0,1.0,1.0,90.0,event
13:32:56.715,0.6528959,0.3029292,-0.26957035,0.4853634,0.35206893,0.211172,-0.25003588,0.20874688,0.79303837,0.23825565,0.42609715,0.4828074,1.2212458,1.1328888,1.5900168,1.0413479,1.0422527,1.1849259,1.4450109,1.0207146,792.1612,769.19415,834.4689,825.2015,784.10254,-0.07513427734375,0.03546142578125,0.9854736328125,1.577606201171875,-3.8580322265625,0.04486083984375,1.0,1.0,1.0,1.0,1.0,90.0,event
13:32:56.716,0.6528959,0.3029292,-0.26957035,0.4853634,0.35206893,0.211172,-0.25003588,0.20874688,0.79303837,0.23825565,0.42609715,0.4828074,1.2212458,1.1328888,1.5900168,1.0413479,1.0422527,1.1849259,1.4450109,1.0207146,705.5311,796.1905,791.3553,791.3553,763.95605,-0.07513427734375,0.03546142578125,0.9854736328125,1.577606201171875,-3.8580322265625,0.04486083984375,1.0,1.0,1.0,1.0,1.0,90.0,event
13:32:56.716,0.6528959,0.3029292,-0.26957035,0.4853634,0.35206893,0.211172,-0.25003588,0.20874688,0.79303837,0.23825565,0.42609715,0.4828074,1.2212458,1.1328888,1.5900168,1.0413479,1.0422527,1.1849259,1.4450109,1.0207146,799.81683,811.50183,768.7912,814.3223,673.69965,-0.07513427734375,0.03546142578125,0.9854736328125,1.577606201171875,-3.8580322265625,0.04486083984375,1.0,1.0,1.0,1.0,1.0,90.0,event
13:32:56.717,0.6528959,0.3029292,-0.26957035,0.4853634,0.35206893,0.211172,-0.25003588,0.20874688,0.79303837,0.23825565,0.42609715,0.4828074,1.2212458,1.1328888,1.5900168,1.0413479,1.0422527,1.1849259,1.4450109,1.0207146,866.30035,799.41394,814.7253,815.5311,647.50916,-0.07513427734375,0.03546142578125,0.9854736328125,1.577606201171875,-3.8580322265625,0.04486083984375,1.0,1.0,1.0,1.0,1.0,90.0,event
13:32:56.718,0.6528959,0.3029292,-0.26957035,0.4853634,0.35206893,0.211172,-0.25003588,0.20874688,0.79303837,0.23825565,0.42609715,0.4828074,1.2212458,1.1328888,1.5900168,1.0413479,1.0422527,1.1849259,1.4450109,1.0207146,849.7802,795.38464,835.6777,823.9927,793.7729,-0.07513427734375,0.03546142578125,0.9854736328125,1.577606201171875,-3.8580322265625,0.04486083984375,1.0,1.0,1.0,1.0,1.0,90.0,event
13:32:56.719,0.6528959,0.3029292,-0.26957035,0.4853634,0.35206893,0.211172,-0.25003588,0.20874688,0.79303837,0.23825565,0.42609715,0.4828074,1.2212458,1.1328888,1.5900168,1.0413479,1.0422527,1.1849259,1.4450109,1.0207146,768.3883,807.8755,823.1868,808.68134,865.4945,-0.07513427734375,0.03546142578125,0.9854736328125,1.577606201171875,-3.8580322265625,0.04486083984375,1.0,1.0,1.0,1.0,1.0,90.0,event
13:32:56.719,0.6528959,0.3029292,-0.26957035,0.4853634,0.35206893,0.211172,-0.25003588,0.20874688,0.79303837,0.23825565,0.42609715,0.4828074,1.2212458,1.1328888,1.5900168,1.0413479,1.0422527,1.1849259,1.4450109,1.0207146,681.75824,789.34064,794.17584,761.9414,789.34064,-0.07513427734375,0.03546142578125,0.9854736328125,1.577606201171875,-3.8580322265625,0.04486083984375,1.0,1.0,1.0,1.0,1.0,90.0,event
13:32:56.720,0.6528959,0.3029292,-0.26957035,0.4853634,0.35206893,0.211172,-0.25003588,0.20874688,0.79303837,0.23825565,0.42609715,0.4828074,1.2212458,1.1328888,1.5900168,1.0413479,1.0422527,1.1849259,1.4450109,1.0207146,775.64105,801.8315,793.36993,778.0586,702.71063,-0.07513427734375,0.03546142578125,0.9854736328125,1.577606201171875,-3.8580322265625,0.04486083984375,1.0,1.0,1.0,1.0,1.0,90.0,event
13:32:56.721,0.6528959,0.3029292,-0.26957035,0.4853634,0.35206893,0.211172,-0.25003588,0.20874688,0.79303837,0.23825565,0.42609715,0.4828074,1.2212458,1.1328888,1.5900168,1.0413479,1.0422527,1.1849259,1.4450109,1.0207146,865.09155,825.6044,840.5128,802.23444,835.6777,-0.07513427734375,0.03546142578125,0.9854736328125,1.577606201171875,-3.8580322265625,0.04486083984375,1.0,1.0,1.0,1.0,1.0,90.0,event
13:32:56.721,0.6528959,0.3029292,-0.26957035,0.4853634,0.35206893,0.211172,-0.25003588,0.20874688,0.79303837,0.23825565,0.42609715,0.4828074,1.2212458,1.1328888,1.5900168,1.0413479,1.0422527,1.1849259,1.4450109,1.0207146,897.72894,814.7253,832.8571,836.4835,874.7619,-0.07513427734375,0.03546142578125,0.9854736328125,1.577606201171875,-3.8580322265625,0.04486083984375,1.0,1.0,1.0,1.0,1.0,90.0,event
13:32:56.722,0.6528959,0.3029292,-0.26957035,0.4853634,0.35206893,0.211172,-0.25003588,0.20874688,0.79303837,0.23825565,0.42609715,0.4828074,1.2212458,1.1328888,1.5900168,1.0413479,1.0422527,1.1849259,1.4450109,1.0207146,847.3626,796.5934,815.12823,844.1392,767.5824,-0.07513427734375,0.03546142578125,0.9854736328125,1.577606201171875,-3.8580322265625,0.04486083984375,1.0,1.0,1.0,1.0,1.0,90.0,event
13:32:56.766,0.6528959,0.3029292,-0.26957035,0.4853634,0.35206893,0.211172,-0.25003588,0.20874688,0.79303837,0.23825565,0.42609715,0.4828074,1.2212458,1.1328888,1.5900168,1.0413479,1.0422527,1.1849259,1.4450109,1.0207146,720.4396,780.07324,811.9048,801.4286,745.0183,-0.06982421875,0.033447265625,0.98492431640625,1.734619140625,-3.768310546875,0.186920166015625,1.0,1.0,1.0,1.0,1.0,90.0,event
13:32:56.768,0.6528959,0.3029292,-0.26957035,0.4853634,0.35206893,0.211172,-0.25003588,0.20874688,0.79303837,0.23825565,0.42609715,0.4828074,1.2212458,1.1328888,1.5900168,1.0413479,1.0422527,1.1849259,1.4450109,1.0207146,742.1978,782.49084,784.10254,794.9817,910.2198,-0.06982421875,0.033447265625,0.98492431640625,1.734619140625,-3.768310546875,0.186920166015625,1.0,1.0,1.0,1.0,1.0,90.0,event
13:32:56.769,0.6528959,0.3029292,-0.26957035,0.4853634,0.35206893,0.211172,-0.25003588,0.20874688,0.79303837,0.23825565,0.42609715,0.4828074,1.2212458,1.1328888,1.5900168,1.0413479,1.0422527,1.1849259,1.4450109,1.0207146,829.2308,805.05493,776.4469,787.326,847.3626,-0.06982421875,0.033447265625,0.98492431640625,1.734619140625,-3.768310546875,0.186920166015625,1.0,1.0,1.0,1.0,1.0,90.0,event
13:32:56.769,0.6528959,0.3029292,-0.26957035,0.4853634,0.35206893,0.211172,-0.25003588,0.20874688,0.79303837,0.23825565,0.42609715,0.4828074,1.2212458,1.1328888,1.5900168,1.0413479,1.0422527,1.1849259,1.4450109,1.0207146,874.7619,811.50183,790.14655,803.0403,738.97437,-0.06982421875,0.033447265625,0.98492431640625,1.734619140625,-3.768310546875,0.186920166015625,1.0,1.0,1.0,1.0,1.0,90.0,event
13:32:56.770,0.6528959,0.3029292,-0.26957035,0.4853634,0.35206893,0.211172,-0.25003588,0.20874688,0.79303837,0.23825565,0.42609715,0.4828074,1.2212458,1.1328888,1.5900168,1.0413479,1.0422527,1.1849259,1.4450109,1.0207146,832.4542,812.71063,807.0696,826.0073,866.7033,-0.06982421875,0.033447265625,0.98492431640625,1.734619140625,-3.768310546875,0.186920166015625,1.0,1.0,1.0,1.0,1.0,90.0,event
13:32:56.771,0.6528959,0.3029292,-0.26957035,0.47718364,0.35206893,0.211172,-0.25003588,0.2164011,0.79303837,0.23825565,0.42609715,0.48187727,1.2212458,1.1328888,1.5900168,1.0470502,1.0422527,1.1849259,1.4450109,1.0233341,729.304,833.2601,838.9011,808.2784,996.04395,-0.06982421875,0.033447265625,0.98492431640625,1.734619140625,-3.768310546875,0.186920166015625,1.0,1.0,1.0,1.0,1.0,90.0,event
13:32:56.775,0.6528959,0.3029292,-0.26957035,0.47718364,0.35206893,0.211172,-0.25003588,0.2164011,0.79303837,0.23825565,0.42609715,0.48187727,1.2212458,1.1328888,1.5900168,1.0470502,1.0422527,1.1849259,1.4450109,1.0233341,742.6007,828.4249,840.5128,786.1172,941.2454,-0.06982421875,0.033447265625,0.98492431640625,1.734619140625,-3.768310546875,0.186920166015625,1.0,1.0,1.0,1.0,1.0,90.0,event
13:32:56.776,0.6528959,0.3029292,-0.26957035,0.47718364,0.35206893,0.211172,-0.25003588,0.2164011,0.79303837,0.23825565,0.42609715,0.48187727,1.2212458,1.1328888,1.5900168,1.0470502,1.0422527,1.1849259,1.4450109,1.0233341,827.2161,788.5348,816.7399,770.80585,749.85345,-0.06982421875,0.033447265625,0.98492431640625,1.734619140625,-3.768310546875,0.186920166015625,1.0,1.0,1.0,1.0,1.0,90.0,event
13:32:56.776,0.6528959,0.3029292,-0.26957035,0.47718364,0.35206893,0.211172,-0.25003588,0.2164011,0.79303837,0.23825565,0.42609715,0.48187727,1.2212458,1.1328888,1.5900168,1.0470502,1.0422527,1.1849259,1.4450109,1.0233341,882.01465,765.56775,809.0842,811.0989,789.34064,-0.06982421875,0.033447265625,0.98492431640625,1.734619140625,-3.768310546875,0.186920166015625,1.0,1.0,1.0,1.0,1.0,90.0,event
13:32:56.777,0.6528959,0.3029292,-0.26957035,0.47718364,0.35206893,0.211172,-0.25003588,0.2164011,0.79303837,0.23825565,0.42609715,0.48187727,1.2212458,1.1328888,1.5900168,1.0470502,1.0422527,1.1849259,1.4450109,1.0233341,847.76556,788.1319,822.381,848.1685,1087.5092,-0.06982421875,0.033447265625,0.98492431640625,1.734619140625,-3.768310546875,0.186920166015625,1.0,1.0,1.0,1.0,1.0,90.0,event
13:32:56.777,0.6528959,0.3029292,-0.26957035,0.47718364,0.35206893,0.211172,-0.25003588,0.2164011,0.79303837,0.23825565,0.42609715,0.48187727,1.2212458,1.1328888,1.5900168,1.0470502,1.0422527,1.1849259,1.4450109,1.0233341,757.1062,815.12823,824.7985,804.2491,875.16486,-0.06982421875,0.033447265625,0.98492431640625,1.734619140625,-3.768310546875,0.186920166015625,1.0,1.0,1.0,1.0,1.0,90.0,event
13:32:56.778,0.6528959,0.3029292,-0.26957035,0.47718364,0.35206893,0.211172,-0.25003588,0.2164011,0.79303837,0.23825565,0.42609715,0.48187727,1.2212458,1.1328888,1.5900168,1.0470502,1.0422527,1.1849259,1.4450109,1.0233341,770.80585,801.8315,777.6557,792.96704,618.49817,-0.06982421875,0.033447265625,0.98492431640625,1.734619140625,-3.768310546875,0.186920166015625,1.0,1.0,1.0,1.0,1.0,90.0,event
13:32:56.811,0.6528959,0.3029292,-0.26957035,0.47718364,0.35206893,0.211172,-0.25003588,0.2164011,0.79303837,0.23825565,0.42609715,0.48187727,1.2212458,1.1328888,1.5900168,1.0470502,1.0422527,1.1849259,1.4450109,1.0233341,857.4359,815.9341,773.6264,811.50183,740.989,-0.07080078125,0.03466796875,0.984130859375,1.951446533203125,-4.05242919921875,0.59814453125,1.0,1.0,1.0,1.0,1.0,90.0,event
13:32:56.812,0.6528959,0.3029292,-0.26957035,0.47718364,0.35206893,0.211172,-0.25003588,0.2164011,0.79303837,0.23825565,0.42609715,0.48187727,1.2212458,1.1328888,1.5900168,1.0470502,1.0422527,1.1849259,1.4450109,1.0233341,896.52014,832.8571,794.9817,826.4103,768.3883,-0.07080078125,0.03466796875,0.984130859375,1.951446533203125,-4.05242919921875,0.59814453125,1.0,1.0,1.0,1.0,1.0,90.0,event
13:32:56.813,0.6528959,0.3029292,-0.26957035,0.47718364,0.35206893,0.211172,-0.25003588,0.2164011,0.79303837,0.23825565,0.42609715,0.48187727,1.2212458,1.1328888,1.5900168,1.0470502,1.0422527,1.1849259,1.4450109,1.0233341,870.7326,808.68134,827.619,838.9011,680.54944,-0.07080078125,0.03466796875,0.984130859375,1.951446533203125,-4.05242919921875,0.59814453125,1.0,1.0,1.0,1.0,1.0,90.0,event
13:32:56.813,0.6528959,0.3029292,-0.26957035,0.47718364,0.35206893,0.211172,-0.25003588,0.2164011,0.79303837,0.23825565,0.42609715,0.48187727,1.2212458,1.1328888,1.5900168,1.0470502,1.0422527,1.1849259,1.4450109,1.0233341,743.4066,795.38464,843.3333,804.65204,653.95605,-0.07080078125,0.03466796875,0.984130859375,1.951446533203125,-4.05242919921875,0.59814453125,1.0,1.0,1.0,1.0,1.0,90.0,event
13:32:56.814,0.6528959,0.3029292,-0.26957035,0.47718364,0.35206893,0.211172,-0.25003588,0.2164011,0.79303837,0.23825565,0.42609715,0.48187727,1.2212458,1.1328888,1.5900168,1.0470502,1.0422527,1.1849259,1.4450109,1.0233341,723.663,782.8938,805.8608,784.10254,715.2015,-0.07080078125,0.03466796875,0.984130859375,1.951446533203125,-4.05242919921875,0.59814453125,1.0,1.0,1.0,1.0,1.0,90.0,event
13:32:56.814,0.6528959,0.3029292,-0.26957035,0.47718364,0.35206893,0.211172,-0.25003588,0.2164011,0.79303837,0.23825565,0.42609715,0.48187727,1.2212458,1.1328888,1.5900168,1.0470502,1.0422527,1.1849259,1.4450109,1.0233341,823.1868,771.6117,796.1905,790.9524,785.7143,-0.07080078125,0.03466796875,0.984130859375,1.951446533203125,-4.05242919921875,0.59814453125,1.0,1.0,1.0,1.0,1.0,90.0,event
13:32:56.815,0.6528959,0.3029292,-0.26957035,0.47718364,0.35206893,0.211172,-0.25003588,0.2164011,0.79303837,0.23825565,0.42609715,0.48187727,1.2212458,1.1328888,1.5900168,1.0470502,1.0422527,1.1849259,1.4450109,1.0233341,868.71796,786.52014,819.5604,820.7692,794.57874,-0.07080078125,0.03466796875,0.984130859375,1.951446533203125,-4.05242919921875,0.59814453125,1.0,1.0,1.0,1.0,1.0,90.0,event
13:32:56.816,0.6528959,0.3029292,-0.26957035,0.47718364,0.35206893,0.211172,-0.25003588,0.2164011,0.79303837,0.23825565,0.42609715,0.48187727,1.2212458,1.1328888,1.5900168,1.0470502,1.0422527,1.1849259,1.4450109,1.0233341,878.3883,811.0989,795.78754,879.59705,788.93774,-0.07080078125,0.03466796875,0.984130859375,1.951446533203125,-4.05242919921875,0.59814453125,1.0,1.0,1.0,1.0,1.0,90.0,event
13:32:56.816,0.6528959,0.3029292,-0.26957035,0.47718364,0.35206893,0.211172,-0.25003588,0.2164011,0.79303837,0.23825565,0.42609715,0.48187727,1.2212458,1.1328888,1.5900168,1.0470502,1.0422527,1.1849259,1.4450109,1.0233341,776.8498,824.3956,761.9414,839.707,920.696,-0.07080078125,0.03466796875,0.984130859375,1.951446533203125,-4.05242919921875,0.59814453125,1.0,1.0,1.0,1.0,1.0,90.0,event
13:32:56.817,0.6528959,0.3029292,-0.26957035,0.47718364,0.35206893,0.211172,-0.25003588,0.2164011,0.79303837,0.23825565,0.42609715,0.48187727,1.2212458,1.1328888,1.5900168,1.0470502,1.0422527,1.1849259,1.4450109,1.0233341,717.2161,819.9634,816.337,776.8498,915.4579,-0.07080078125,0.03466796875,0.984130859375,1.951446533203125,-4.05242919921875,0.59814453125,1.0,1.0,1.0,1.0,1.0,90.0,event
13:32:56.817,0.6528959,0.3029292,-0.26957035,0.47718364,0.35206893,0.211172,-0.25003588,0.2164011,0.79303837,0.23825565,0.42609715,0.48187727,1.2212458,1.1328888,1.5900168,1.0470502,1.0422527,1.1849259,1.4450109,1.0233341,807.0696,801.02563,871.13556,780.07324,752.27106,-0.07080078125,0.03466796875,0.984130859375,1.951446533203125,-4.05242919921875,0.59814453125,1.0,1.0,1.0,1.0,1.0,90.0,event
13:32:56.818,0.6528959,0.3029292,-0.26957035,0.47718364,0.35206893,0.211172,-0.25003588,0.2164011,0.79303837,0.23825565,0.42609715,0.48187727,1.2212458,1.1328888,1.5900168,1.0470502,1.0422527,1.1849259,1.4450109,1.0233341,882.01465,785.31134,816.7399,804.65204,752.27106,-0.07080078125,0.03466796875,0.984130859375,1.951446533203125,-4.05242919921875,0.59814453125,1.0,1.0,1.0,1.0,1.0,90.0,event
13:32:56.847,0.6528959,0.3029292,-0.26957035,0.47718364,0.35206893,0.211172,-0.25003588,0.2164011,0.79303837,0.23825565,0.42609715,0.48187727,1.2212458,1.1328888,1.5900168,1.0470502,1.0422527,1.1849259,1.4450109,1.0233341,895.7143,762.74725,774.0293,868.315,840.5128,-0.068359375,0.03369140625,0.98565673828125,2.25799560546875,-3.671112060546875,0.889739990234375,1.0,1.0,1.0,1.0,1.0,90.0,event
13:32:56.848,0.6528959,0.3029292,-0.26957035,0.47718364,0.35206893,0.211172,-0.25003588,0.2164011,0.79303837,0.23825565,0.42609715,0.48187727,1.2212458,1.1328888,1.5900168,1.0470502,1.0422527,1.1849259,1.4450109,1.0233341,724.87177,826.0073,817.5458,770.40295,683.7729,-0.068359375,0.03369140625,0.98565673828125,2.25799560546875,-3.671112060546875,0.889739990234375,1.0,1.0,1.0,1.0,1.0,90.0,event
13:32:56.848,0.6528959,0.3029292,-0.26957035,0.47718364,0.35206893,0.211172,-0.25003588,0.2164011,0.79303837,0.23825565,0.42609715,0.48187727,1.2212458,1.1328888,1.5900168,1.0470502,1.0422527,1.1849259,1.4450109,1.0233341,794.57874,788.93774,811.50183,837.28937,802.23444,-0.068359375,0.03369140625,0.98565673828125,2.25799560546875,-3.671112060546875,0.889739990234375,1.0,1.0,1.0,1.0,1.0,90.0,event
13:32:56.849,0.6528959,0.3029292,-0.26957035,0.47718364,0.35206893,0.211172,-0.25003588,0.2164011,0.79303837,0.23825565,0.42609715,0.48187727,1.2212458,1.1328888,1.5900168,1.0470502,1.0422527,1.1849259,1.4450109,1.0233341,776.4469,810.696,823.1868,777.25275,750.2564,-0.068359375,0.03369140625,0.98565673828125,2.25799560546875,-3.671112060546875,0.889739990234375,1.0,1.0,1.0,1.0,1.0,90.0,event
13:32:56.850,0.6528959,0.3029292,-0.26957035,0.47718364,0.35206893,0.211172,-0.25003588,0.2164011,0.79303837,0.23825565,0.42609715,0.48187727,1.2212458,1.1328888,1.5900168,1.0470502,1.0422527,1.1849259,1.4450109,1.0233341,828.8278,795.38464,836.08057,797.8022,872.3443,-0.068359375,0.03369140625,0.98565673828125,2.25799560546875,-3.671112060546875,0.889739990234375,1.0,1.0,1.0,1.0,1.0,90.0,event
13:32:56.851,0.6528959,0.3029292,-0.26957035,0.47718364,0.35206893,0.211172,-0.25003588,0.2164011,0.79303837,0.23825565,0.42609715,0.48187727,1.2212458,1.1328888,1.5900168,1.0470502,1.0422527,1.1849259,1.4450109,1.0233341,880.40295,793.7729,784.5055,859.85345,857.8388,-0.068359375,0.03369140625,0.98565673828125,2.25799560546875,-3.671112060546875,0.889739990234375,1.0,1.0,1.0,1.0,1.0,90.0,event
13:32:56.851,0.6528959,0.3029292,-0.26957035,0.47718364,0.35206893,0.211172,-0.25003588,0.2164011,0.79303837,0.23825565,0.42609715,0.48187727,1.2212458,1.1328888,1.5900168,1.0470502,1.0422527,1.1849259,1.4450109,1.0233341,798.60803,786.52014,772.4176,846.55676,880.0,-0.068359375,0.03369140625,0.98565673828125,2.25799560546875,-3.671112060546875,0.889739990234375,1.0,1.0,1.0,1.0,1.0,90.0,event
13:32:56.852,0.6528959,0.25925776,-0.26957035,0.4489312,0.35206893,0.23197643,-0.25003588,0.22080435,0.79303837,0.15026875,0.42609715,0.47629693,1.2212458,1.1124657,1.5900168,1.0477898,1.0422527,1.1999612,1.4450109,1.0262208,684.57874,784.90845,823.5897,767.5824,912.6374,-0.068359375,0.03369140625,0.98565673828125,2.25799560546875,-3.671112060546875,0.889739990234375,1.0,1.0,1.0,1.0,1.0,90.0,event
13:32:56.856,0.6528959,0.25925776,-0.26957035,0.4489312,0.35206893,0.23197643,-0.25003588,0.22080435,0.79303837,0.15026875,0.42609715,0.47629693,1.2212458,1.1124657,1.5900168,1.0477898,1.0422527,1.1999612,1.4450109,1.0262208,747.03296,808.2784,838.49817,770.0,1064.1392,-0.068359375,0.03369140625,0.98565673828125,2.25799560546875,-3.671112060546875,0.889739990234375,1.0,1.0,1.0,1.0,1.0,90.0,event
13:32:56.857,0.6528959,0.25925776,-0.26957035,0.4489312,0.35206893,0.23197643,-0.25003588,0.22080435,0.79303837,0.15026875,0.42609715,0.47629693,1.2212458,1.1124657,1.5900168,1.0477898,1.0422527,1.1999612,1.4450109,1.0262208,856.63007,811.0989,828.022,803.44324,904.57874,-0.068359375,0.03369140625,0.98565673828125,2.25799560546875,-3.671112060546875,0.889739990234375,1.0,1.0,1.0,1.0,1.0,90.0,event
13:32:56.858,0.6528959,0.25925776,-0.26957035,0.4489312,0.35206893,0.23197643,-0.25003588,0.22080435,0.79303837,0.15026875,0.42609715,0.47629693,1.2212458,1.1124657,1.5900168,1.0477898,1.0422527,1.1999612,1.4450109,1.0262208,909.81683,788.93774,805.4579,859.45056,690.2198,-0.068359375,0.03369140625,0.98565673828125,2.25799560546875,-3.671112060546875,0.889739990234375,1.0,1.0,1.0,1.0,1.0,90.0,event
13:32:56.858,0.6528959,0.25925776,-0.26957035,0.4489312,0.35206893,0.23197643,-0.25003588,0.22080435,0.79303837,0.15026875,0.42609715,0.47629693,1.2212458,1.1124657,1.5900168,1.0477898,1.0422527,1.1999612,1.4450109,1.0262208,820.7692,780.4762,809.4872,859.45056,725.2747,-0.068359375,0.03369140625,0.98565673828125,2.25799560546875,-3.671112060546875,0.889739990234375,1.0,1.0,1.0,1.0,1.0,90.0,event
13:32:56.881,0.6528959,0.25925776,-0.26957035,0.4489312,0.35206893,0.23197643,-0.25003588,0.22080435,0.79303837,0.15026875,0.42609715,0.47629693,1.2212458,1.1124657,1.5900168,1.0477898,1.0422527,1.1999612,1.4450109,1.0262208,711.1722,794.57874,803.44324,794.9817,720.0366,-0.068359375,0.03369140625,0.98565673828125,2.25799560546875,-3.671112060546875,0.889739990234375,1.0,1.0,1.0,1.0,1.0,90.0,event
13:32:56.882,0.6528959,0.25925776,-0.26957035,0.4489312,0.35206893,0.23197643,-0.25003588,0.22080435,0.79303837,0.15026875,0.42609715,0.47629693,1.2212458,1.1124657,1.5900168,1.0477898,1.0422527,1.1999612,1.4450109,1.0262208,756.30035,788.1319,792.96704,761.9414,731.31866,-0.068359375,0.03369140625,0.98565673828125,2.25799560546875,-3.671112060546875,0.889739990234375,1.0,1.0,1.0,1.0,1.0,90.0,event
13:32:56.883,0.6528959,0.25925776,-0.26957035,0.4489312,0.35206893,0.23197643,-0.25003588,0.22080435,0.79303837,0.15026875,0.42609715,0.47629693,1.2212458,1.1124657,1.5900168,1.0477898,1.0422527,1.1999612,1.4450109,1.0262208,823.1868,782.49084,809.4872,767.1795,723.2601,-0.068359375,0.03369140625,0.98565673828125,2.25799560546875,-3.671112060546875,0.889739990234375,1.0,1.0,1.0,1.0,1.0,90.0,event
13:32:56.884,0.6528959,0.25925776,-0.26957035,0.4489312,0.35206893,0.23197643,-0.25003588,0.22080435,0.79303837,0.15026875,0.42609715,0.47629693,1.2212458,1.1124657,1.5900168,1.0477898,1.0422527,1.1999612,1.4450109,1.0262208,866.7033,795.38464,809.89014,819.5604,794.9817,-0.068359375,0.03369140625,0.98565673828125,2.25799560546875,-3.671112060546875,0.889739990234375,1.0,1.0,1.0,1.0,1.0,90.0,event
13:32:56.884,0.6528959,0.25925776,-0.26957035,0.4489312,0.35206893,0.23197643,-0.25003588,0.22080435,0.79303837,0.15026875,0.42609715,0.47629693,1.2212458,1.1124657,1.5900168,1.0477898,1.0422527,1.1999612,1.4450109,1.0262208,815.12823,801.8315,797.3993,818.7546,857.8388,-0.068359375,0.03369140625,0.98565673828125,2.25799560546875,-3.671112060546875,0.889739990234375,1.0,1.0,1.0,1.0,1.0,90.0,event
13:32:56.885,0.6528959,0.25925776,-0.26957035,0.4489312,0.35206893,0.23197643,-0.25003588,0.22080435,0.79303837,0.15026875,0.42609715,0.47629693,1.2212458,1.1124657,1.5900168,1.0477898,1.0422527,1.1999612,1.4450109,1.0262208,720.84247,806.26373,790.54944,783.2967,853.00366,-0.068359375,0.03369140625,0.98565673828125,2.25799560546875,-3.671112060546875,0.889739990234375,1.0,1.0,1.0,1.0,1.0,90.0,event
13:32:56.885,0.6528959,0.25925776,-0.26957035,0.4489312,0.35206893,0.23197643,-0.25003588,0.22080435,0.79303837,0.15026875,0.42609715,0.47629693,1.2212458,1.1124657,1.5900168,1.0477898,1.0422527,1.1999612,1.4450109,1.0262208,774.83514,801.02563,820.7692,781.28204,857.03296,-0.068359375,0.03369140625,0.98565673828125,2.25799560546875,-3.671112060546875,0.889739990234375,1.0,1.0,1.0,1.0,1.0,90.0,event
13:32:56.886,0.6528959,0.25925776,-0.26957035,0.4489312,0.35206893,0.23197643,-0.25003588,0.22080435,0.79303837,0.15026875,0.42609715,0.47629693,1.2212458,1.1124657,1.5900168,1.0477898,1.0422527,1.1999612,1.4450109,1.0262208,847.3626,804.2491,854.61536,786.9231,880.40295,-0.068359375,0.03369140625,0.98565673828125,2.25799560546875,-3.671112060546875,0.889739990234375,1.0,1.0,1.0,1.0,1.0,90.0,event
13:32:56.887,0.6528959,0.25925776,-0.26957035,0.4489312,0.35206893,0.23197643,-0.25003588,0.22080435,0.79303837,0.15026875,0.42609715,0.47629693,1.2212458,1.1124657,1.5900168,1.0477898,1.0422527,1.1999612,1.4450109,1.0262208,862.674,799.41394,830.4396,821.978,1042.381,-0.068359375,0.03369140625,0.98565673828125,2.25799560546875,-3.671112060546875,0.889739990234375,1.0,1.0,1.0,1.0,1.0,90.0,event
13:32:56.887,0.6528959,0.25925776,-0.26957035,0.4489312,0.35206893,0.23197643,-0.25003588,0.22080435,0.79303837,0.15026875,0.42609715,0.47629693,1.2212458,1.1124657,1.5900168,1.0477898,1.0422527,1.1999612,1.4450109,1.0262208,832.0513,790.14655,821.5751,830.0366,816.337,-0.068359375,0.03369140625,0.98565673828125,2.25799560546875,-3.671112060546875,0.889739990234375,1.0,1.0,1.0,1.0,1.0,90.0,event
13:32:56.888,0.6528959,0.25925776,-0.26957035,0.4489312,0.35206893,0.23197643,-0.25003588,0.22080435,0.79303837,0.15026875,0.42609715,0.47629693,1.2212458,1.1124657,1.5900168,1.0477898,1.0422527,1.1999612,1.4450109,1.0262208,702.71063,782.49084,818.3516,770.40295,616.4835,-0.068359375,0.03369140625,0.98565673828125,2.25799560546875,-3.671112060546875,0.889739990234375,1.0,1.0,1.0,1.0,1.0,90.0,event
13:32:56.888,0.6528959,0.25925776,-0.26957035,0.4489312,0.35206893,0.23197643,-0.25003588,0.22080435,0.79303837,0.15026875,0.42609715,0.47629693,1.2212458,1.1124657,1.5900168,1.0477898,1.0422527,1.1999612,1.4450109,1.0262208,713.9927,759.92676,805.4579,747.4359,690.6227,-0.068359375,0.03369140625,0.98565673828125,2.25799560546875,-3.671112060546875,0.889739990234375,1.0,1.0,1.0,1.0,1.0,90.0,event
13:32:56.911,0.6528959,0.25925776,-0.26957035,0.4489312,0.35206893,0.23197643,-0.25003588,0.22080435,0.79303837,0.15026875,0.42609715,0.47629693,1.2212458,1.1124657,1.5900168,1.0477898,1.0422527,1.1999612,1.4450109,1.0262208,820.7692,774.0293,800.6227,756.7033,673.2967,-0.0709228515625,0.03961181640625,0.984619140625,2.27294921875,-3.70849609375,0.31402587890625,1.0,1.0,1.0,1.0,1.0,90.0,event
13:32:56.912,0.6528959,0.25925776,-0.26957035,0.4489312,0.35206893,0.23197643,-0.25003588,0.22080435,0.79303837,0.15026875,0.42609715,0.47629693,1.2212458,1.1124657,1.5900168,1.0477898,1.0422527,1.1999612,1.4450109,1.0262208,860.65936,790.9524,791.3553,780.07324,654.35895,-0.0709228515625,0.03961181640625,0.984619140625,2.27294921875,-3.70849609375,0.31402587890625,1.0,1.0,1.0,1.0,1.0,90.0,event
13:32:56.913,0.6528959,0.25925776,-0.26957035,0.4489312,0.35206893,0.23197643,-0.25003588,0.22080435,0.79303837,0.15026875,0.42609715,0.47629693,1.2212458,1.1124657,1.5900168,1.0477898,1.0422527,1.1999612,1.4450109,1.0262208,824.3956,776.4469,783.2967,796.5934,714.7985,-0.0709228515625,0.03961181640625,0.984619140625,2.27294921875,-3.70849609375,0.31402587890625,1.0,1.0,1.0,1.0,1.0,90.0,event
13:32:56.913,0.6528959,0.25925776,-0.26957035,0.4489312,0.35206893,0.23197643,-0.25003588,0.22080435,0.79303837,0.15026875,0.42609715,0.47629693,1.2212458,1.1124657,1.5900168,1.0477898,1.0422527,1.1999612,1.4450109,1.0262208,712.7839,782.49084,789.7436,756.30035,753.0769,-0.0709228515625,0.03961181640625,0.984619140625,2.27294921875,-3.70849609375,0.31402587890625,1.0,1.0,1.0,1.0,1.0,90.0,event
13:32:56.914,0.6528959,0.25925776,-0.26957035,0.4489312,0.35206893,0.23197643,-0.25003588,0.22080435,0.79303837,0.15026875,0.42609715,0.47629693,1.2212458,1.1124657,1.5900168,1.0477898,1.0422527,1.1999612,1.4450109,1.0262208,757.50916,828.022,813.1135,760.7326,695.8608,-0.0709228515625,0.03961181640625,0.984619140625,2.27294921875,-3.70849609375,0.31402587890625,1.0,1.0,1.0,1.0,1.0,90.0,event
13:32:56.914,0.6528959,0.25925776,-0.26957035,0.4489312,0.35206893,0.23197643,-0.25003588,0.22080435,0.79303837,0.15026875,0.42609715,0.47629693,1.2212458,1.1124657,1.5900168,1.0477898,1.0422527,1.1999612,1.4450109,1.0262208,867.50916,839.304,826.4103,786.9231,734.94507,-0.0709228515625,0.03961181640625,0.984619140625,2.27294921875,-3.70849609375,0.31402587890625,1.0,1.0,1.0,1.0,1.0,90.0,event
13:32:56.915,0.6528959,0.25925776,-0.26957035,0.4489312,0.35206893,0.23197643,-0.25003588,0.22080435,0.79303837,0.15026875,0.42609715,0.47629693,1.2212458,1.1124657,1.5900168,1.0477898,1.0422527,1.1999612,1.4450109,1.0262208,890.4762,804.65204,841.31866,801.02563,819.15753,-0.0709228515625,0.03961181640625,0.984619140625,2.27294921875,-3.70849609375,0.31402587890625,1.0,1.0,1.0,1.0,1.0,90.0,event
13:32:56.915,0.6528959,0.25925776,-0.26957035,0.4489312,0.35206893,0.23197643,-0.25003588,0.22080435,0.79303837,0.15026875,0.42609715,0.47629693,1.2212458,1.1124657,1.5900168,1.0477898,1.0422527,1.1999612,1.4450109,1.0262208,856.2271,784.90845,817.9487,826.8132,1053.2601,-0.0709228515625,0.03961181640625,0.984619140625,2.27294921875,-3.70849609375,0.31402587890625,1.0,1.0,1.0,1.0,1.0,90.0,event
13:32:56.916,0.6528959,0.25925776,-0.26957035,0.4489312,0.35206893,0.23197643,-0.25003588,0.22080435,0.79303837,0.15026875,0.42609715,0.47629693,1.2212458,1.1124657,1.5900168,1.0477898,1.0422527,1.1999612,1.4450109,1.0262208,755.09155,782.8938,782.0879,781.685,938.8278,-0.0709228515625,0.03961181640625,0.984619140625,2.27294921875,-3.70849609375,0.31402587890625,1.0,1.0,1.0,1.0,1.0,90.0,event
13:32:56.916,0.6528959,0.24756159,-0.26957035,0.3965143,0.35206893,0.26297534,-0.25003588,0.2304335,0.79303837,0.1346976,0.42609715,0.46106043,1.2212458,1.0873657,1.5900168,1.0360552,1.0422527,1.2036899,1.4450109,1.0309937,738.1685,765.16486,774.0293,743.8095,658.3883,-0.0709228515625,0.03961181640625,0.984619140625,2.27294921875,-3.70849609375,0.31402587890625,1.0,1.0,1.0,1.0,1.0,90.0,event
13:32:56.920,0.6528959,0.24756159,-0.26957035,0.3965143,0.35206893,0.26297534,-0.25003588,0.2304335,0.79303837,0.1346976,0.42609715,0.46106043,1.2212458,1.0873657,1.5900168,1.0360552,1.0422527,1.2036899,1.4450109,1.0309937,828.8278,790.14655,786.9231,758.315,677.72894,-0.0709228515625,0.03961181640625,0.984619140625,2.27294921875,-3.70849609375,0.31402587890625,1.0,1.0,1.0,1.0,1.0,90.0,event
13:32:56.920,0.6528959,0.24756159,-0.26957035,0.3965143,0.35206893,0.26297534,-0.25003588,0.2304335,0.79303837,0.1346976,0.42609715,0.46106043,1.2212458,1.0873657,1.5900168,1.0360552,1.0422527,1.2036899,1.4450109,1.0309937,889.2674,841.31866,802.23444,776.04395,707.5458,-0.0709228515625,0.03961181640625,0.984619140625,2.27294921875,-3.70849609375,0.31402587890625,1.0,1.0,1.0,1.0,1.0,90.0,event
13:32:56.981,0.6528959,0.24756159,-0.26957035,0.3965143,0.35206893,0.26297534,-0.25003588,0.2304335,0.79303837,0.1346976,0.42609715,0.46106043,1.2212458,1.0873657,1.5900168,1.0360552,1.0422527,1.2036899,1.4450109,1.0309937,887.6557,852.6007,830.84247,828.4249,756.7033,-0.070068359375,0.03759765625,0.98785400390625,2.46734619140625,-3.686065673828125,-0.052337646484375,1.0,1.0,1.0,1.0,1.0,90.0,event
13:32:56.982,0.6528959,0.24756159,-0.26957035,0.3965143,0.35206893,0.26297534,-0.25003588,0.2304335,0.79303837,0.1346976,0.42609715,0.46106043,1.2212458,1.0873657,1.5900168,1.0360552,1.0422527,1.2036899,1.4450109,1.0309937,724.0659,808.2784,819.9634,750.2564,759.12085,-0.070068359375,0.03759765625,0.98785400390625,2.46734619140625,-3.686065673828125,-0.052337646484375,1.0,1.0,1.0,1.0,1.0,90.0,event
13:32:56.982,0.6528959,0.24756159,-0.26957035,0.3965143,0.35206893,0.26297534,-0.25003588,0.2304335,0.79303837,0.1346976,0.42609715,0.46106043,1.2212458,1.0873657,1.5900168,1.0360552,1.0422527,1.2036899,1.4450109,1.0309937,782.8938,828.022,856.2271,812.3077,768.3883,-0.070068359375,0.03759765625,0.98785400390625,2.46734619140625,-3.686065673828125,-0.052337646484375,1.0,1.0,1.0,1.0,1.0,90.0,event
13:32:56.983,0.6528959,0.24756159,-0.26957035,0.3965143,0.35206893,0.26297534,-0.25003588,0.2304335,0.79303837,0.1346976,0.42609715,0.46106043,1.2212458,1.0873657,1.5900168,1.0360552,1.0422527,1.2036899,1.4450109,1.0309937,795.78754,813.5165,782.8938,747.8388,782.8938,-0.070068359375,0.03759765625,0.98785400390625,2.46734619140625,-3.686065673828125,-0.052337646484375,1.0,1.0,1.0,1.0,1.0,90.0,event
13:32:56.984,0.6528959,0.24756159,-0.26957035,0.3965143,0.35206893,0.26297534,-0.25003588,0.2304335,0.79303837,0.1346976,0.42609715,0.46106043,1.2212458,1.0873657,1.5900168,1.0360552,1.0422527,1.2036899,1.4450109,1.0309937,875.56775,790.14655,803.0403,783.2967,759.92676,-0.070068359375,0.03759765625,0.98785400390625,2.46734619140625,-3.686065673828125,-0.052337646484375,1.0,1.0,1.0,1.0,1.0,90.0,event
13:32:56.984,0.6528959,0.24756159,-0.26957035,0.3965143,0.35206893,0.26297534,-0.25003588,0.2304335,0.79303837,0.1346976,0.42609715,0.46106043,1.2212458,1.0873657,1.5900168,1.0360552,1.0422527,1.2036899,1.4450109,1.0309937,893.69965,794.9817,799.011,840.9158,797.3993,-0.070068359375,0.03759765625,0.98785400390625,2.46734619140625,-3.686065673828125,-0.052337646484375,1.0,1.0,1.0,1.0,1.0,90.0,event
13:32:56.985,0.6528959,0.24756159,-0.26957035,0.3965143,0.35206893,0.26297534,-0.25003588,0.2304335,0.79303837,0.1346976,0.42609715,0.46106043,1.2212458,1.0873657,1.5900168,1.0360552,1.0422527,1.2036899,1.4450109,1.0309937,776.8498,811.50183,807.8755,811.50183,942.4542,-0.070068359375,0.03759765625,0.98785400390625,2.46734619140625,-3.686065673828125,-0.052337646484375,1.0,1.0,1.0,1.0,1.0,90.0,event
13:32:56.986,0.6528959,0.24756159,-0.26957035,0.3965143,0.35206893,0.26297534,-0.25003588,0.2304335,0.79303837,0.1346976,0.42609715,0.46106043,1.2212458,1.0873657,1.5900168,1.0360552,1.0422527,1.2036899,1.4450109,1.0309937,711.5751,811.9048,838.9011,763.5531,937.619,-0.070068359375,0.03759765625,0.98785400390625,2.46734619140625,-3.686065673828125,-0.052337646484375,1.0,1.0,1.0,1.0,1.0,90.0,event
13:32:56.986,0.6528959,0.24756159,-0.26957035,0.3965143,0.35206893,0.26297534,-0.25003588,0.2304335,0.79303837,0.1346976,0.42609715,0.46106043,1.2212458,1.0873657,1.5900168,1.0360552,1.0422527,1.2036899,1.4450109,1.0309937,797.8022,807.0696,838.0952,772.8205,696.6667,-0.070068359375,0.03759765625,0.98785400390625,2.46734619140625,-3.686065673828125,-0.052337646484375,1.0,1.0,1.0,1.0,1.0,90.0,event
13:32:56.987,0.6528959,0.24756159,-0.26957035,0.3965143,0.35206893,0.26297534,-0.25003588,0.2304335,0.79303837,0.1346976,0.42609715,0.46106043,1.2212458,1.0873657,1.5900168,1.0360552,1.0422527,1.2036899,1.4450109,1.0309937,862.27106,813.91943,801.02563,788.93774,697.47253,-0.070068359375,0.03759765625,0.98785400390625,2.46734619140625,-3.686065673828125,-0.052337646484375,1.0,1.0,1.0,1.0,1.0,90.0,event
13:32:56.988,0.6528959,0.24756159,-0.26957035,0.3965143,0.35206893,0.26297534,-0.25003588,0.2304335,0.79303837,0.1346976,0.42609715,0.46106043,1.2212458,1.0873657,1.5900168,1.0360552,1.0422527,1.2036899,1.4450109,1.0309937,910.6227,838.9011,796.99634,857.8388,917.8755,-0.070068359375,0.03759765625,0.98785400390625,2.46734619140625,-3.686065673828125,-0.052337646484375,1.0,1.0,1.0,1.0,1.0,90.0,event
13:32:56.988,0.6528959,0.24756159,-0.26957035,0.3965143,0.35206893,0.26297534,-0.25003588,0.2304335,0.79303837,0.1346976,0.42609715,0.46106043,1.2212458,1.0873657,1.5900168,1.0360552,1.0422527,1.2036899,1.4450109,1.0309937,817.5458,799.41394,813.1135,835.2747,793.7729,-0.070068359375,0.03759765625,0.98785400390625,2.46734619140625,-3.686065673828125,-0.052337646484375,1.0,1.0,1.0,1.0,1.0,90.0,event
13:32:57.014,0.6528959,0.24756159,-0.26957035,0.3965143,0.35206893,0.26297534,-0.25003588,0.2304335,0.79303837,0.1346976,0.42609715,0.46106043,1.2212458,1.0873657,1.5900168,1.0360552,1.0422527,1.2036899,1.4450109,1.0309937,717.2161,801.8315,796.1905,766.77655,632.1978,-0.0684814453125,0.034912109375,0.98846435546875,2.190704345703125,-3.671112060546875,0.231781005859375,1.0,1.0,1.0,1.0,1.0,90.0,event
13:32:57.015,0.6528959,0.24756159,-0.26957035,0.3965143,0.35206893,0.26297534,-0.25003588,0.2304335,0.79303837,0.1346976,0.42609715,0.46106043,1.2212458,1.0873657,1.5900168,1.0360552,1.0422527,1.2036899,1.4450109,1.0309937,785.7143,827.2161,801.4286,757.1062,716.0073,-0.0684814453125,0.034912109375,0.98846435546875,2.190704345703125,-3.671112060546875,0.231781005859375,1.0,1.0,1.0,1.0,1.0,90.0,event
13:32:57.016,0.6528959,0.24756159,-0.26957035,0.3965143,0.35206893,0.26297534,-0.25003588,0.2304335,0.79303837,0.1346976,0.42609715,0.46106043,1.2212458,1.0873657,1.5900168,1.0360552,1.0422527,1.2036899,1.4450109,1.0309937,871.53845,808.68134,823.9927,796.99634,833.2601,-0.0684814453125,0.034912109375,0.98846435546875,2.190704345703125,-3.671112060546875,0.231781005859375,1.0,1.0,1.0,1.0,1.0,90.0,event
13:32:57.017,0.6528959,0.24756159,-0.26957035,0.3965143,0.35206893,0.26297534,-0.25003588,0.2304335,0.79303837,0.1346976,0.42609715,0.46106043,1.2212458,1.0873657,1.5900168,1.0360552,1.0422527,1.2036899,1.4450109,1.0309937,918.68134,802.6374,813.91943,859.45056,796.5934,-0.0684814453125,0.034912109375,0.98846435546875,2.190704345703125,-3.671112060546875,0.231781005859375,1.0,1.0,1.0,1.0,1.0,90.0,event
13:32:57.017,0.6528959,0.24756159,-0.26957035,0.3965143,0.35206893,0.26297534,-0.25003588,0.2304335,0.79303837,0.1346976,0.42609715,0.46106043,1.2212458,1.0873657,1.5900168,1.0360552,1.0422527,1.2036899,1.4450109,1.0309937,833.2601,781.28204,798.20514,833.663,744.21246,-0.0684814453125,0.034912109375,0.98846435546875,2.190704345703125,-3.671112060546875,0.231781005859375,1.0,1.0,1.0,1.0,1.0,90.0,event
13:32:57.018,0.6528959,0.24756159,-0.26957035,0.3965143,0.35206893,0.26297534,-0.25003588,0.2304335,0.79303837,0.1346976,0.42609715,0.46106043,1.2212458,1.0873657,1.5900168,1.0360552,1.0422527,1.2036899,1.4450109,1.0309937,756.7033,801.02563,812.71063,811.50183,869.92676,-0.0684814453125,0.034912109375,0.98846435546875,2.190704345703125,-3.671112060546875,0.231781005859375,1.0,1.0,1.0,1.0,1.0,90.0,event
13:32:57.019,0.6528959,0.24756159,-0.26957035,0.3965143,0.35206893,0.26297534,-0.25003588,0.2304335,0.79303837,0.1346976,0.42609715,0.46106043,1.2212458,1.0873657,1.5900168,1.0360552,1.0422527,1.2036899,1.4450109,1.0309937,805.4579,838.49817,811.0989,803.8461,1072.1978,-0.0684814453125,0.034912109375,0.98846435546875,2.190704345703125,-3.671112060546875,0.231781005859375,1.0,1.0,1.0,1.0,1.0,90.0,event
13:32:57.020,0.6528959,0.24756159,-0.26957035,0.3965143,0.35206893,0.26297534,-0.25003588,0.2304335,0.79303837,0.1346976,0.42609715,0.46106043,1.2212458,1.0873657,1.5900168,1.0360552,1.0422527,1.2036899,1.4450109,1.0309937,867.50916,843.73627,812.3077,777.25275,896.1172,-0.0684814453125,0.034912109375,0.98846435546875,2.190704345703125,-3.671112060546875,0.231781005859375,1.0,1.0,1.0,1.0,1.0,90.0,event
13:32:57.021,0.6528959,0.24756159,-0.26957035,0.3965143,0.35206893,0.26297534,-0.25003588,0.2304335,0.79303837,0.1346976,0.42609715,0.46106043,1.2212458,1.0873657,1.5900168,1.0360552,1.0422527,1.2036899,1.4450109,1.0309937,907.3993,823.1868,805.4579,824.3956,715.6044,-0.0684814453125,0.034912109375,0.98846435546875,2.190704345703125,-3.671112060546875,0.231781005859375,1.0,1.0,1.0,1.0,1.0,90.0,event
13:32:57.022,0.6528959,0.24756159,-0.26957035,0.3965143,0.35206893,0.26297534,-0.25003588,0.2304335,0.79303837,0.1346976,0.42609715,0.46106043,1.2212458,1.0873657,1.5900168,1.0360552,1.0422527,1.2036899,1.4450109,1.0309937,825.2015,794.17584,807.47253,820.7692,772.4176,-0.0684814453125,0.034912109375,0.98846435546875,2.190704345703125,-3.671112060546875,0.231781005859375,1.0,1.0,1.0,1.0,1.0,90.0,event
13:32:57.022,0.6528959,0.24756159,-0.26957035,0.3965143,0.35206893,0.26297534,-0.25003588,0.2304335,0.79303837,0.1346976,0.42609715,0.46106043,1.2212458,1.0873657,1.5900168,1.0360552,1.0422527,1.2036899,1.4450109,1.0309937,718.022,798.60803,831.2454,770.0,816.7399,-0.0684814453125,0.034912109375,0.98846435546875,2.190704345703125,-3.671112060546875,0.231781005859375,1.0,1.0,1.0,1.0,1.0,90.0,event
13:32:57.023,0.5974175,0.26690966,-0.26957035,0.32403338,0.40848756,0.29855552,-0.25003588,0.25576815,0.8323777,0.1346976,0.42609715,0.44420022,1.201758,1.0698738,1.5900168,1.0099194,1.044575,1.1908269,1.4450109,1.0403783,781.28204,815.12823,829.6337,786.52014,750.2564,-0.0684814453125,0.034912109375,0.98846435546875,2.190704345703125,-3.671112060546875,0.231781005859375,1.0,1.0,1.0,1.0,1.0,90.0,event
13:32:57.050,0.5974175,0.26690966,-0.26957035,0.32403338,0.40848756,0.29855552,-0.25003588,0.25576815,0.8323777,0.1346976,0.42609715,0.44420022,1.201758,1.0698738,1.5900168,1.0099194,1.044575,1.1908269,1.4450109,1.0403783,876.3736,813.91943,805.8608,796.5934,707.9487,-0.068603515625,0.03912353515625,0.98504638671875,2.31781005859375,-3.57391357421875,0.8673095703125,1.0,1.0,1.0,1.0,1.0,90.0,event
13:32:57.052,0.5974175,0.26690966,-0.26957035,0.32403338,0.40848756,0.29855552,-0.25003588,0.25576815,0.8323777,0.1346976,0.42609715,0.44420022,1.201758,1.0698738,1.5900168,1.0099194,1.044575,1.1908269,1.4450109,1.0403783,857.03296,802.23444,774.0293,868.315,1067.3627,-0.068603515625,0.03912353515625,0.98504638671875,2.31781005859375,-3.57391357421875,0.8673095703125,1.0,1.0,1.0,1.0,1.0,90.0,event
13:32:57.052,0.5974175,0.26690966,-0.26957035,0.32403338,0.40848756,0.29855552,-0.25003588,0.25576815,0.8323777,0.1346976,0.42609715,0.44420022,1.201758,1.0698738,1.5900168,1.0099194,1.044575,1.1908269,1.4450109,1.0403783,906.5934,791.3553,782.0879,835.6777,933.5897,-0.068603515625,0.03912353515625,0.98504638671875,2.31781005859375,-3.57391357421875,0.8673095703125,1.0,1.0,1.0,1.0,1.0,90.0,event
13:32:57.053,0.5974175,0.26690966,-0.26957035,0.32403338,0.40848756,0.29855552,-0.25003588,0.25576815,0.8323777,0.1346976,0.42609715,0.44420022,1.201758,1.0698738,1.5900168,1.0099194,1.044575,1.1908269,1.4450109,1.0403783,737.3626,840.10986,784.90845,796.99634,865.89746,-0.068603515625,0.03912353515625,0.98504638671875,2.31781005859375,-3.57391357421875,0.8673095703125,1.0,1.0,1.0,1.0,1.0,90.0,event
13:32:57.054,0.5974175,0.26690966,-0.26957035,0.32403338,0.40848756,0.29855552,-0.25003588,0.25576815,0.8323777,0.1346976,0.42609715,0.44420022,1.201758,1.0698738,1.5900168,1.0099194,1.044575,1.1908269,1.4450109,1.0403783,739.3773,840.9158,798.60803,751.8681,688.20514,-0.068603515625,0.03912353515625,0.98504638671875,2.31781005859375,-3.57391357421875,0.8673095703125,1.0,1.0,1.0,1.0,1.0,90.0,event
13:32:57.055,0.5974175,0.26690966,-0.26957035,0.32403338,0.40848756,0.29855552,-0.25003588,0.25576815,0.8323777,0.1346976,0.42609715,0.44420022,1.201758,1.0698738,1.5900168,1.0099194,1.044575,1.1908269,1.4450109,1.0403783,809.0842,833.2601,811.0989,757.1062,924.3223,-0.068603515625,0.03912353515625,0.98504638671875,2.31781005859375,-3.57391357421875,0.8673095703125,1.0,1.0,1.0,1.0,1.0,90.0,event
13:32:57.056,0.5974175,0.26690966,-0.26957035,0.32403338,0.40848756,0.29855552,-0.25003588,0.25576815,0.8323777,0.1346976,0.42609715,0.44420022,1.201758,1.0698738,1.5900168,1.0099194,1.044575,1.1908269,1.4450109,1.0403783,855.42126,823.1868,825.2015,781.28204,1108.4615,-0.068603515625,0.03912353515625,0.98504638671875,2.31781005859375,-3.57391357421875,0.8673095703125,1.0,1.0,1.0,1.0,1.0,90.0,event
13:32:57.056,0.5974175,0.26690966,-0.26957035,0.32403338,0.40848756,0.29855552,-0.25003588,0.25576815,0.8323777,0.1346976,0.42609715,0.44420022,1.201758,1.0698738,1.5900168,1.0099194,1.044575,1.1908269,1.4450109,1.0403783,846.9597,804.2491,822.7839,819.9634,875.56775,-0.068603515625,0.03912353515625,0.98504638671875,2.31781005859375,-3.57391357421875,0.8673095703125,1.0,1.0,1.0,1.0,1.0,90.0,event
13:32:57.060,0.5974175,0.26690966,-0.26957035,0.32403338,0.40848756,0.29855552,-0.25003588,0.25576815,0.8323777,0.1346976,0.42609715,0.44420022,1.201758,1.0698738,1.5900168,1.0099194,1.044575,1.1908269,1.4450109,1.0403783,747.8388,786.1172,810.293,799.41394,724.0659,-0.068603515625,0.03912353515625,0.98504638671875,2.31781005859375,-3.57391357421875,0.8673095703125,1.0,1.0,1.0,1.0,1.0,90.0,event
13:32:57.061,0.5974175,0.26690966,-0.26957035,0.32403338,0.40848756,0.29855552,-0.25003588,0.25576815,0.8323777,0.1346976,0.42609715,0.44420022,1.201758,1.0698738,1.5900168,1.0099194,1.044575,1.1908269,1.4450109,1.0403783,760.7326,792.1612,829.6337,794.57874,864.68866,-0.068603515625,0.03912353515625,0.98504638671875,2.31781005859375,-3.57391357421875,0.8673095703125,1.0,1.0,1.0,1.0,1.0,90.0,event
13:32:57.062,0.5974175,0.26690966,-0.26957035,0.32403338,0.40848756,0.29855552,-0.25003588,0.25576815,0.8323777,0.1346976,0.42609715,0.44420022,1.201758,1.0698738,1.5900168,1.0099194,1.044575,1.1908269,1.4450109,1.0403783,857.03296,844.1392,858.24176,803.44324,872.3443,-0.068603515625,0.03912353515625,0.98504638671875,2.31781005859375,-3.57391357421875,0.8673095703125,1.0,1.0,1.0,1.0,1.0,90.0,event
13:32:57.064,0.5974175,0.26690966,-0.26957035,0.32403338,0.40848756,0.29855552,-0.25003588,0.25576815,0.8323777,0.1346976,0.42609715,0.44420022,1.201758,1.0698738,1.5900168,1.0099194,1.044575,1.1908269,1.4450109,1.0403783,892.0879,859.85345,844.1392,796.1905,687.8022,-0.068603515625,0.03912353515625,0.98504638671875,2.31781005859375,-3.57391357421875,0.8673095703125,1.0,1.0,1.0,1.0,1.0,90.0,event
13:32:57.114,0.5974175,0.26690966,-0.26957035,0.32403338,0.40848756,0.29855552,-0.25003588,0.25576815,0.8323777,0.1346976,0.42609715,0.44420022,1.201758,1.0698738,1.5900168,1.0099194,1.044575,1.1908269,1.4450109,1.0403783,865.09155,837.6923,804.65204,813.5165,683.7729,-0.068603515625,0.03912353515625,0.98504638671875,2.31781005859375,-3.57391357421875,0.8673095703125,1.0,1.0,1.0,1.0,1.0,90.0,event
13:32:57.115,0.5974175,0.26690966,-0.26957035,0.32403338,0.40848756,0.29855552,-0.25003588,0.25576815,0.8323777,0.1346976,0.42609715,0.44420022,1.201758,1.0698738,1.5900168,1.0099194,1.044575,1.1908269,1.4450109,1.0403783,742.1978,806.26373,793.7729,788.5348,776.4469,-0.068603515625,0.03912353515625,0.98504638671875,2.31781005859375,-3.57391357421875,0.8673095703125,1.0,1.0,1.0,1.0,1.0,90.0,event
13:32:57.116,0.5974175,0.26690966,-0.26957035,0.32403338,0.40848756,0.29855552,-0.25003588,0.25576815,0.8323777,0.1346976,0.42609715,0.44420022,1.201758,1.0698738,1.5900168,1.0099194,1.044575,1.1908269,1.4450109,1.0403783,740.58606,802.6374,785.31134,771.2088,767.5824,-0.068603515625,0.03912353515625,0.98504638671875,2.31781005859375,-3.57391357421875,0.8673095703125,1.0,1.0,1.0,1.0,1.0,90.0,event
13:32:57.117,0.5974175,0.26690966,-0.26957035,0.32403338,0.40848756,0.29855552,-0.25003588,0.25576815,0.8323777,0.1346976,0.42609715,0.44420022,1.201758,1.0698738,1.5900168,1.0099194,1.044575,1.1908269,1.4450109,1.0403783,826.8132,815.12823,807.8755,770.0,671.28204,-0.068603515625,0.03912353515625,0.98504638671875,2.31781005859375,-3.57391357421875,0.8673095703125,1.0,1.0,1.0,1.0,1.0,90.0,event
13:32:57.117,0.5974175,0.26690966,-0.26957035,0.32403338,0.40848756,0.29855552,-0.25003588,0.25576815,0.8323777,0.1346976,0.42609715,0.44420022,1.201758,1.0698738,1.5900168,1.0099194,1.044575,1.1908269,1.4450109,1.0403783,854.61536,798.60803,814.7253,799.41394,808.68134,-0.068603515625,0.03912353515625,0.98504638671875,2.31781005859375,-3.57391357421875,0.8673095703125,1.0,1.0,1.0,1.0,1.0,90.0,event
13:32:57.118,0.5974175,0.26690966,-0.26957035,0.32403338,0.40848756,0.29855552,-0.25003588,0.25576815,0.8323777,0.1346976,0.42609715,0.44420022,1.201758,1.0698738,1.5900168,1.0099194,1.044575,1.1908269,1.4450109,1.0403783,831.2454,803.0403,804.2491,833.663,1109.2675,-0.068603515625,0.03912353515625,0.98504638671875,2.31781005859375,-3.57391357421875,0.8673095703125,1.0,1.0,1.0,1.0,1.0,90.0,event
13:32:57.119,0.5974175,0.26690966,-0.26957035,0.32403338,0.40848756,0.29855552,-0.25003588,0.25576815,0.8323777,0.1346976,0.42609715,0.44420022,1.201758,1.0698738,1.5900168,1.0099194,1.044575,1.1908269,1.4450109,1.0403783,729.707,822.381,819.15753,795.78754,952.9304,-0.068603515625,0.03912353515625,0.98504638671875,2.31781005859375,-3.57391357421875,0.8673095703125,1.0,1.0,1.0,1.0,1.0,90.0,event
13:32:57.120,0.5974175,0.26690966,-0.26957035,0.32403338,0.40848756,0.29855552,-0.25003588,0.25576815,0.8323777,0.1346976,0.42609715,0.44420022,1.201758,1.0698738,1.5900168,1.0099194,1.044575,1.1908269,1.4450109,1.0403783,728.9011,843.3333,828.4249,770.80585,666.4469,-0.068603515625,0.03912353515625,0.98504638671875,2.31781005859375,-3.57391357421875,0.8673095703125,1.0,1.0,1.0,1.0,1.0,90.0,event
13:32:57.120,0.5974175,0.26690966,-0.26957035,0.32403338,0.40848756,0.29855552,-0.25003588,0.25576815,0.8323777,0.1346976,0.42609715,0.44420022,1.201758,1.0698738,1.5900168,1.0099194,1.044575,1.1908269,1.4450109,1.0403783,827.2161,817.5458,837.28937,775.64105,694.2491,-0.068603515625,0.03912353515625,0.98504638671875,2.31781005859375,-3.57391357421875,0.8673095703125,1.0,1.0,1.0,1.0,1.0,90.0,event
13:32:57.121,0.5974175,0.26690966,-0.26957035,0.32403338,0.40848756,0.29855552,-0.25003588,0.25576815,0.8323777,0.1346976,0.42609715,0.44420022,1.201758,1.0698738,1.5900168,1.0099194,1.044575,1.1908269,1.4450109,1.0403783,880.40295,786.9231,817.5458,797.8022,869.92676,-0.068603515625,0.03912353515625,0.98504638671875,2.31781005859375,-3.57391357421875,0.8673095703125,1.0,1.0,1.0,1.0,1.0,90.0,event
13:32:57.122,0.5974175,0.26690966,-0.26957035,0.32403338,0.40848756,0.29855552,-0.25003588,0.25576815,0.8323777,0.1346976,0.42609715,0.44420022,1.201758,1.0698738,1.5900168,1.0099194,1.044575,1.1908269,1.4450109,1.0403783,899.7436,822.381,781.685,845.34796,788.1319,-0.068603515625,0.03912353515625,0.98504638671875,2.31781005859375,-3.57391357421875,0.8673095703125,1.0,1.0,1.0,1.0,1.0,90.0,event
13:32:57.122,0.5974175,0.26690966,-0.26957035,0.32403338,0.40848756,0.29855552,-0.25003588,0.25576815,0.8323777,0.1346976,0.42609715,0.44420022,1.201758,1.0698738,1.5900168,1.0099194,1.044575,1.1908269,1.4450109,1.0403783,784.90845,853.8095,791.3553,814.3223,678.5348,-0.068603515625,0.03912353515625,0.98504638671875,2.31781005859375,-3.57391357421875,0.8673095703125,1.0,1.0,1.0,1.0,1.0,90.0,event
13:32:57.149,0.5974175,0.26690966,-0.26957035,0.32403338,0.40848756,0.29855552,-0.25003588,0.25576815,0.8323777,0.1346976,0.42609715,0.44420022,1.201758,1.0698738,1.5900168,1.0099194,1.044575,1.1908269,1.4450109,1.0403783,705.5311,811.0989,801.8315,761.9414,701.50183,-0.07220458984375,0.03955078125,0.984619140625,1.95892333984375,-3.910369873046875,0.40374755859375,1.0,1.0,1.0,1.0,1.0,90.0,event
13:32:57.150,0.54600793,0.27801237,-0.26957035,0.24690765,0.4822173,0.32704046,-0.25003588,0.296625,0.8447906,0.13308124,0.42609715,0.43687236,1.1610779,1.0687366,1.5900168,0.9801707,1.0684675,1.1641203,1.4450109,1.0530956,786.1172,782.49084,808.68134,757.9121,673.69965,-0.07220458984375,0.03955078125,0.984619140625,1.95892333984375,-3.910369873046875,0.40374755859375,1.0,1.0,1.0,1.0,1.0,90.0,event
13:32:57.154,0.54600793,0.27801237,-0.26957035,0.24690765,0.4822173,0.32704046,-0.25003588,0.296625,0.8447906,0.13308124,0.42609715,0.43687236,1.1610779,1.0687366,1.5900168,0.9801707,1.0684675,1.1641203,1.4450109,1.0530956,853.8095,808.68134,836.4835,774.83514,682.1612,-0.07220458984375,0.03955078125,0.984619140625,1.95892333984375,-3.910369873046875,0.40374755859375,1.0,1.0,1.0,1.0,1.0,90.0,event
13:32:57.155,0.54600793,0.27801237,-0.26957035,0.24690765,0.4822173,0.32704046,-0.25003588,0.296625,0.8447906,0.13308124,0.42609715,0.43687236,1.1610779,1.0687366,1.5900168,0.9801707,1.0684675,1.1641203,1.4450109,1.0530956,874.35895,807.47253,809.0842,824.7985,772.4176,-0.07220458984375,0.03955078125,0.984619140625,1.95892333984375,-3.910369873046875,0.40374755859375,1.0,1.0,1.0,1.0,1.0,90.0,event
13:32:57.156,0.54600793,0.27801237,-0.26957035,0.24690765,0.4822173,0.32704046,-0.25003588,0.296625,0.8447906,0.13308124,0.42609715,0.43687236,1.1610779,1.0687366,1.5900168,0.9801707,1.0684675,1.1641203,1.4450109,1.0530956,736.55676,805.4579,860.65936,806.26373,809.0842,-0.07220458984375,0.03955078125,0.984619140625,1.95892333984375,-3.910369873046875,0.40374755859375,1.0,1.0,1.0,1.0,1.0,90.0,event
13:32:57.156,0.54600793,0.27801237,-0.26957035,0.24690765,0.4822173,0.32704046,-0.25003588,0.296625,0.8447906,0.13308124,0.42609715,0.43687236,1.1610779,1.0687366,1.5900168,0.9801707,1.0684675,1.1641203,1.4450109,1.0530956,794.17584,811.0989,818.7546,830.84247,831.2454,-0.07220458984375,0.03955078125,0.984619140625,1.95892333984375,-3.910369873046875,0.40374755859375,1.0,1.0,1.0,1.0,1.0,90.0,event
13:32:57.157,0.54600793,0.27801237,-0.26957035,0.24690765,0.4822173,0.32704046,-0.25003588,0.296625,0.8447906,0.13308124,0.42609715,0.43687236,1.1610779,1.0687366,1.5900168,0.9801707,1.0684675,1.1641203,1.4450109,1.0530956,780.4762,778.0586,809.4872,777.25275,816.7399,-0.07220458984375,0.03955078125,0.984619140625,1.95892333984375,-3.910369873046875,0.40374755859375,1.0,1.0,1.0,1.0,1.0,90.0,event
13:32:57.158,0.54600793,0.27801237,-0.26957035,0.24690765,0.4822173,0.32704046,-0.25003588,0.296625,0.8447906,0.13308124,0.42609715,0.43687236,1.1610779,1.0687366,1.5900168,0.9801707,1.0684675,1.1641203,1.4450109,1.0530956,854.61536,809.0842,772.01465,788.93774,815.9341,-0.07220458984375,0.03955078125,0.984619140625,1.95892333984375,-3.910369873046875,0.40374755859375,1.0,1.0,1.0,1.0,1.0,90.0,event
13:32:57.159,0.54600793,0.27801237,-0.26957035,0.24690765,0.4822173,0.32704046,-0.25003588,0.296625,0.8447906,0.13308124,0.42609715,0.43687236,1.1610779,1.0687366,1.5900168,0.9801707,1.0684675,1.1641203,1.4450109,1.0530956,879.59705,850.989,816.337,842.9304,1012.1612,-0.07220458984375,0.03955078125,0.984619140625,1.95892333984375,-3.910369873046875,0.40374755859375,1.0,1.0,1.0,1.0,1.0,90.0,event
13:32:57.159,0.54600793,0.27801237,-0.26957035,0.24690765,0.4822173,0.32704046,-0.25003588,0.296625,0.8447906,0.13308124,0.42609715,0.43687236,1.1610779,1.0687366,1.5900168,0.9801707,1.0684675,1.1641203,1.4450109,1.0530956,777.6557,808.68134,819.15753,821.978,1156.4103,-0.07220458984375,0.03955078125,0.984619140625,1.95892333984375,-3.910369873046875,0.40374755859375,1.0,1.0,1.0,1.0,1.0,90.0,event
13:32:57.160,0.54600793,0.27801237,-0.26957035,0.24690765,0.4822173,0.32704046,-0.25003588,0.296625,0.8447906,0.13308124,0.42609715,0.43687236,1.1610779,1.0687366,1.5900168,0.9801707,1.0684675,1.1641203,1.4450109,1.0530956,695.05493,798.60803,806.6667,756.30035,859.85345,-0.07220458984375,0.03955078125,0.984619140625,1.95892333984375,-3.910369873046875,0.40374755859375,1.0,1.0,1.0,1.0,1.0,90.0,event
13:32:57.161,0.54600793,0.27801237,-0.26957035,0.24690765,0.4822173,0.32704046,-0.25003588,0.296625,0.8447906,0.13308124,0.42609715,0.43687236,1.1610779,1.0687366,1.5900168,0.9801707,1.0684675,1.1641203,1.4450109,1.0530956,744.21246,823.5897,801.8315,736.55676,726.8865,-0.07220458984375,0.03955078125,0.984619140625,1.95892333984375,-3.910369873046875,0.40374755859375,1.0,1.0,1.0,1.0,1.0,90.0,event
13:32:57.183,0.54600793,0.27801237,-0.26957035,0.24690765,0.4822173,0.32704046,-0.25003588,0.296625,0.8447906,0.13308124,0.42609715,0.43687236,1.1610779,1.0687366,1.5900168,0.9801707,1.0684675,1.1641203,1.4450109,1.0530956,840.9158,828.022,780.87915,774.43225,741.39197,-0.06878662109375,0.03961181640625,0.9893798828125,2.444915771484375,-3.42437744140625,0.246734619140625,1.0,1.0,1.0,1.0,1.0,90.0,event
13:32:57.184,0.54600793,0.27801237,-0.26957035,0.24690765,0.4822173,0.32704046,-0.25003588,0.296625,0.8447906,0.13308124,0.42609715,0.43687236,1.1610779,1.0687366,1.5900168,0.9801707,1.0684675,1.1641203,1.4450109,1.0530956,905.78754,814.3223,820.3663,834.87177,678.1319,-0.06878662109375,0.03961181640625,0.9893798828125,2.444915771484375,-3.42437744140625,0.246734619140625,1.0,1.0,1.0,1.0,1.0,90.0,event
13:32:57.184,0.54600793,0.27801237,-0.26957035,0.24690765,0.4822173,0.32704046,-0.25003588,0.296625,0.8447906,0.13308124,0.42609715,0.43687236,1.1610779,1.0687366,1.5900168,0.9801707,1.0684675,1.1641203,1.4450109,1.0530956,835.6777,811.0989,843.73627,839.707,684.17584,-0.06878662109375,0.03961181640625,0.9893798828125,2.444915771484375,-3.42437744140625,0.246734619140625,1.0,1.0,1.0,1.0,1.0,90.0,event
13:32:57.185,0.54600793,0.27801237,-0.26957035,0.24690765,0.4822173,0.32704046,-0.25003588,0.296625,0.8447906,0.13308124,0.42609715,0.43687236,1.1610779,1.0687366,1.5900168,0.9801707,1.0684675,1.1641203,1.4450109,1.0530956,722.8571,786.52014,772.4176,797.3993,730.9158,-0.06878662109375,0.03961181640625,0.9893798828125,2.444915771484375,-3.42437744140625,0.246734619140625,1.0,1.0,1.0,1.0,1.0,90.0,event
13:32:57.186,0.54600793,0.27801237,-0.26957035,0.24690765,0.4822173,0.32704046,-0.25003588,0.296625,0.8447906,0.13308124,0.42609715,0.43687236,1.1610779,1.0687366,1.5900168,0.9801707,1.0684675,1.1641203,1.4450109,1.0530956,852.6007,834.4689,831.2454,790.54944,770.80585,-0.06878662109375,0.03961181640625,0.9893798828125,2.444915771484375,-3.42437744140625,0.246734619140625,1.0,1.0,1.0,1.0,1.0,90.0,event
13:32:57.186,0.54600793,0.27801237,-0.26957035,0.24690765,0.4822173,0.32704046,-0.25003588,0.296625,0.8447906,0.13308124,0.42609715,0.43687236,1.1610779,1.0687366,1.5900168,0.9801707,1.0684675,1.1641203,1.4450109,1.0530956,774.0293,782.49084,787.72894,792.96704,761.13556,-0.06878662109375,0.03961181640625,0.9893798828125,2.444915771484375,-3.42437744140625,0.246734619140625,1.0,1.0,1.0,1.0,1.0,90.0,event
13:32:57.187,0.54600793,0.27801237,-0.26957035,0.24690765,0.4822173,0.32704046,-0.25003588,0.296625,0.8447906,0.13308124,0.42609715,0.43687236,1.1610779,1.0687366,1.5900168,0.9801707,1.0684675,1.1641203,1.4450109,1.0530956,869.12085,852.1978,820.3663,808.68134,854.61536,-0.06878662109375,0.03961181640625,0.9893798828125,2.444915771484375,-3.42437744140625,0.246734619140625,1.0,1.0,1.0,1.0,1.0,90.0,event
13:32:57.187,0.54600793,0.27801237,-0.26957035,0.24690765,0.4822173,0.32704046,-0.25003588,0.296625,0.8447906,0.13308124,0.42609715,0.43687236,1.1610779,1.0687366,1.5900168,0.9801707,1.0684675,1.1641203,1.4450109,1.0530956,794.17584,838.9011,821.1722,798.20514,868.315,-0.06878662109375,0.03961181640625,0.9893798828125,2.444915771484375,-3.42437744140625,0.246734619140625,1.0,1.0,1.0,1.0,1.0,90.0,event
13:32:57.188,0.54600793,0.27801237,-0.26957035,0.24690765,0.4822173,0.32704046,-0.25003588,0.296625,0.8447906,0.13308124,0.42609715,0.43687236,1.1610779,1.0687366,1.5900168,0.9801707,1.0684675,1.1641203,1.4450109,1.0530956,674.90845,803.8461,812.3077,743.00366,975.89746,-0.06878662109375,0.03961181640625,0.9893798828125,2.444915771484375,-3.42437744140625,0.246734619140625,1.0,1.0,1.0,1.0,1.0,90.0,event
13:32:57.188,0.54600793,0.27801237,-0.26957035,0.24690765,0.4822173,0.32704046,-0.25003588,0.296625,0.8447906,0.13308124,0.42609715,0.43687236,1.1610779,1.0687366,1.5900168,0.9801707,1.0684675,1.1641203,1.4450109,1.0530956,745.0183,794.9817,810.293,746.63007,846.1539,-0.06878662109375,0.03961181640625,0.9893798828125,2.444915771484375,-3.42437744140625,0.246734619140625,1.0,1.0,1.0,1.0,1.0,90.0,event
13:32:57.189,0.54600793,0.27801237,-0.26957035,0.24690765,0.4822173,0.32704046,-0.25003588,0.296625,0.8447906,0.13308124,0.42609715,0.43687236,1.1610779,1.0687366,1.5900168,0.9801707,1.0684675,1.1641203,1.4450109,1.0530956,858.24176,817.9487,833.2601,772.4176,717.2161,-0.06878662109375,0.03961181640625,0.9893798828125,2.444915771484375,-3.42437744140625,0.246734619140625,1.0,1.0,1.0,1.0,1.0,90.0,event
13:32:57.189,0.54600793,0.27801237,-0.26957035,0.24690765,0.4822173,0.32704046,-0.25003588,0.296625,0.8447906,0.13308124,0.42609715,0.43687236,1.1610779,1.0687366,1.5900168,0.9801707,1.0684675,1.1641203,1.4450109,1.0530956,908.20514,811.0989,790.14655,838.49817,815.5311,-0.06878662109375,0.03961181640625,0.9893798828125,2.444915771484375,-3.42437744140625,0.246734619140625,1.0,1.0,1.0,1.0,1.0,90.0,event
13:32:57.245,0.54600793,0.27801237,-0.26957035,0.24690765,0.4822173,0.32704046,-0.25003588,0.296625,0.8447906,0.13308124,0.42609715,0.43687236,1.1610779,1.0687366,1.5900168,0.9801707,1.0684675,1.1641203,1.4450109,1.0530956,875.16486,779.2674,741.39197,863.0769,889.2674,-0.07012939453125,0.038330078125,0.9852294921875,2.1533203125,-4.0972900390625,0.4486083984375,1.0,1.0,1.0,1.0,1.0,90.0,event
13:32:57.246,0.54600793,0.27801237,-0.26957035,0.24690765,0.4822173,0.32704046,-0.25003588,0.296625,0.8447906,0.13308124,0.42609715,0.43687236,1.1610779,1.0687366,1.5900168,0.9801707,1.0684675,1.1641203,1.4450109,1.0530956,759.12085,782.49084,813.5165,801.02563,772.01465,-0.07012939453125,0.038330078125,0.9852294921875,2.1533203125,-4.0972900390625,0.4486083984375,1.0,1.0,1.0,1.0,1.0,90.0,event
13:32:57.247,0.54600793,0.27801237,-0.26957035,0.24690765,0.4822173,0.32704046,-0.25003588,0.296625,0.8447906,0.13308124,0.42609715,0.43687236,1.1610779,1.0687366,1.5900168,0.9801707,1.0684675,1.1641203,1.4450109,1.0530956,759.92676,821.5751,845.34796,770.80585,643.0769,-0.07012939453125,0.038330078125,0.9852294921875,2.1533203125,-4.0972900390625,0.4486083984375,1.0,1.0,1.0,1.0,1.0,90.0,event
13:32:57.248,0.52859664,0.2621883,-0.26957035,0.16600725,0.5493452,0.3334962,-0.25003588,0.346021,0.84325653,0.09576737,0.42609715,0.43334243,1.1459224,1.0795683,1.5900168,0.96509475,1.0865548,1.1354169,1.4450109,1.0633006,820.3663,840.9158,818.7546,766.3736,699.0842,-0.07012939453125,0.038330078125,0.9852294921875,2.1533203125,-4.0972900390625,0.4486083984375,1.0,1.0,1.0,1.0,1.0,90.0,event
13:32:57.252,0.52859664,0.2621883,-0.26957035,0.16600725,0.5493452,0.3334962,-0.25003588,0.346021,0.84325653,0.09576737,0.42609715,0.43334243,1.1459224,1.0795683,1.5900168,0.96509475,1.0865548,1.1354169,1.4450109,1.0633006,840.5128,799.41394,821.1722,810.696,853.4066,-0.07012939453125,0.038330078125,0.9852294921875,2.1533203125,-4.0972900390625,0.4486083984375,1.0,1.0,1.0,1.0,1.0,90.0,event
13:32:57.252,0.52859664,0.2621883,-0.26957035,0.16600725,0.5493452,0.3334962,-0.25003588,0.346021,0.84325653,0.09576737,0.42609715,0.43334243,1.1459224,1.0795683,1.5900168,0.96509475,1.0865548,1.1354169,1.4450109,1.0633006,854.21246,813.91943,808.68134,786.9231,746.2271,-0.07012939453125,0.038330078125,0.9852294921875,2.1533203125,-4.0972900390625,0.4486083984375,1.0,1.0,1.0,1.0,1.0,90.0,event
13:32:57.253,0.52859664,0.2621883,-0.26957035,0.16600725,0.5493452,0.3334962,-0.25003588,0.346021,0.84325653,0.09576737,0.42609715,0.43334243,1.1459224,1.0795683,1.5900168,0.96509475,1.0865548,1.1354169,1.4450109,1.0633006,719.6337,819.15753,827.619,776.4469,858.6447,-0.07012939453125,0.038330078125,0.9852294921875,2.1533203125,-4.0972900390625,0.4486083984375,1.0,1.0,1.0,1.0,1.0,90.0,event
13:32:57.254,0.52859664,0.2621883,-0.26957035,0.16600725,0.5493452,0.3334962,-0.25003588,0.346021,0.84325653,0.09576737,0.42609715,0.43334243,1.1459224,1.0795683,1.5900168,0.96509475,1.0865548,1.1354169,1.4450109,1.0633006,720.0366,825.6044,827.2161,777.25275,930.3663,-0.07012939453125,0.038330078125,0.9852294921875,2.1533203125,-4.0972900390625,0.4486083984375,1.0,1.0,1.0,1.0,1.0,90.0,event
13:32:57.254,0.52859664,0.2621883,-0.26957035,0.16600725,0.5493452,0.3334962,-0.25003588,0.346021,0.84325653,0.09576737,0.42609715,0.43334243,1.1459224,1.0795683,1.5900168,0.96509475,1.0865548,1.1354169,1.4450109,1.0633006,840.5128,810.293,817.9487,801.8315,1000.87915,-0.07012939453125,0.038330078125,0.9852294921875,2.1533203125,-4.0972900390625,0.4486083984375,1.0,1.0,1.0,1.0,1.0,90.0,event
13:32:57.255,0.52859664,0.2621883,-0.26957035,0.16600725,0.5493452,0.3334962,-0.25003588,0.346021,0.84325653,0.09576737,0.42609715,0.43334243,1.1459224,1.0795683,1.5900168,0.96509475,1.0865548,1.1354169,1.4450109,1.0633006,913.8461,775.64105,795.78754,829.6337,773.22345,-0.07012939453125,0.038330078125,0.9852294921875,2.1533203125,-4.0972900390625,0.4486083984375,1.0,1.0,1.0,1.0,1.0,90.0,event
13:32:57.256,0.52859664,0.2621883,-0.26957035,0.16600725,0.5493452,0.3334962,-0.25003588,0.346021,0.84325653,0.09576737,0.42609715,0.43334243,1.1459224,1.0795683,1.5900168,0.96509475,1.0865548,1.1354169,1.4450109,1.0633006,882.4176,783.69965,777.6557,861.4652,761.13556,-0.07012939453125,0.038330078125,0.9852294921875,2.1533203125,-4.0972900390625,0.4486083984375,1.0,1.0,1.0,1.0,1.0,90.0,event
13:32:57.258,0.52859664,0.2621883,-0.26957035,0.16600725,0.5493452,0.3334962,-0.25003588,0.346021,0.84325653,0.09576737,0.42609715,0.43334243,1.1459224,1.0795683,1.5900168,0.96509475,1.0865548,1.1354169,1.4450109,1.0633006,745.42126,809.4872,788.1319,812.71063,846.9597,-0.07012939453125,0.038330078125,0.9852294921875,2.1533203125,-4.0972900390625,0.4486083984375,1.0,1.0,1.0,1.0,1.0,90.0,event
13:32:57.280,0.52859664,0.2621883,-0.26957035,0.16600725,0.5493452,0.3334962,-0.25003588,0.346021,0.84325653,0.09576737,0.42609715,0.43334243,1.1459224,1.0795683,1.5900168,0.96509475,1.0865548,1.1354169,1.4450109,1.0633006,749.0476,821.1722,819.15753,785.31134,755.89746,-0.06817626953125,0.0384521484375,0.988525390625,1.74957275390625,-4.029998779296875,0.1495361328125,1.0,1.0,1.0,1.0,1.0,90.0,event
13:32:57.281,0.52859664,0.2621883,-0.26957035,0.16600725,0.5493452,0.3334962,-0.25003588,0.346021,0.84325653,0.09576737,0.42609715,0.43334243,1.1459224,1.0795683,1.5900168,0.96509475,1.0865548,1.1354169,1.4450109,1.0633006,838.49817,834.87177,842.9304,772.4176,686.5934,-0.06817626953125,0.0384521484375,0.988525390625,1.74957275390625,-4.029998779296875,0.1495361328125,1.0,1.0,1.0,1.0,1.0,90.0,event
13:32:57.281,0.52859664,0.2621883,-0.26957035,0.16600725,0.5493452,0.3334962,-0.25003588,0.346021,0.84325653,0.09576737,0.42609715,0.43334243,1.1459224,1.0795683,1.5900168,0.96509475,1.0865548,1.1354169,1.4450109,1.0633006,863.8828,826.4103,832.0513,782.0879,732.9304,-0.06817626953125,0.0384521484375,0.988525390625,1.74957275390625,-4.029998779296875,0.1495361328125,1.0,1.0,1.0,1.0,1.0,90.0,event
13:32:57.282,0.52859664,0.2621883,-0.26957035,0.16600725,0.5493452,0.3334962,-0.25003588,0.346021,0.84325653,0.09576737,0.42609715,0.43334243,1.1459224,1.0795683,1.5900168,0.96509475,1.0865548,1.1354169,1.4450109,1.0633006,865.89746,801.02563,804.65204,824.3956,815.5311,-0.06817626953125,0.0384521484375,0.988525390625,1.74957275390625,-4.029998779296875,0.1495361328125,1.0,1.0,1.0,1.0,1.0,90.0,event
13:32:57.282,0.52859664,0.2621883,-0.26957035,0.16600725,0.5493452,0.3334962,-0.25003588,0.346021,0.84325653,0.09576737,0.42609715,0.43334243,1.1459224,1.0795683,1.5900168,0.96509475,1.0865548,1.1354169,1.4450109,1.0633006,757.50916,776.4469,788.93774,792.1612,775.64105,-0.06817626953125,0.0384521484375,0.988525390625,1.74957275390625,-4.029998779296875,0.1495361328125,1.0,1.0,1.0,1.0,1.0,90.0,event
13:32:57.283,0.52859664,0.2621883,-0.26957035,0.16600725,0.5493452,0.3334962,-0.25003588,0.346021,0.84325653,0.09576737,0.42609715,0.43334243,1.1459224,1.0795683,1.5900168,0.96509475,1.0865548,1.1354169,1.4450109,1.0633006,807.0696,802.23444,834.0659,774.83514,846.1539,-0.06817626953125,0.0384521484375,0.988525390625,1.74957275390625,-4.029998779296875,0.1495361328125,1.0,1.0,1.0,1.0,1.0,90.0,event
13:32:57.283,0.52859664,0.2621883,-0.26957035,0.16600725,0.5493452,0.3334962,-0.25003588,0.346021,0.84325653,0.09576737,0.42609715,0.43334243,1.1459224,1.0795683,1.5900168,0.96509475,1.0865548,1.1354169,1.4450109,1.0633006,713.1868,794.17584,808.68134,766.3736,777.6557,-0.06817626953125,0.0384521484375,0.988525390625,1.74957275390625,-4.029998779296875,0.1495361328125,1.0,1.0,1.0,1.0,1.0,90.0,event
13:32:57.284,0.52859664,0.2621883,-0.26957035,0.16600725,0.5493452,0.3334962,-0.25003588,0.346021,0.84325653,0.09576737,0.42609715,0.43334243,1.1459224,1.0795683,1.5900168,0.96509475,1.0865548,1.1354169,1.4450109,1.0633006,868.315,792.1612,809.4872,806.26373,1022.23444,-0.06817626953125,0.0384521484375,0.988525390625,1.74957275390625,-4.029998779296875,0.1495361328125,1.0,1.0,1.0,1.0,1.0,90.0,event
13:32:57.284,0.52859664,0.2621883,-0.26957035,0.16600725,0.5493452,0.3334962,-0.25003588,0.346021,0.84325653,0.09576737,0.42609715,0.43334243,1.1459224,1.0795683,1.5900168,0.96509475,1.0865548,1.1354169,1.4450109,1.0633006,893.69965,817.9487,790.9524,855.42126,926.337,-0.06817626953125,0.0384521484375,0.988525390625,1.74957275390625,-4.029998779296875,0.1495361328125,1.0,1.0,1.0,1.0,1.0,90.0,event
13:32:57.285,0.52859664,0.2621883,-0.26957035,0.16600725,0.5493452,0.3334962,-0.25003588,0.346021,0.84325653,0.09576737,0.42609715,0.43334243,1.1459224,1.0795683,1.5900168,0.96509475,1.0865548,1.1354169,1.4450109,1.0633006,797.8022,814.7253,818.7546,820.3663,725.6777,-0.06817626953125,0.0384521484375,0.988525390625,1.74957275390625,-4.029998779296875,0.1495361328125,1.0,1.0,1.0,1.0,1.0,90.0,event
13:32:57.285,0.52859664,0.2621883,-0.26957035,0.16600725,0.5493452,0.3334962,-0.25003588,0.346021,0.84325653,0.09576737,0.42609715,0.43334243,1.1459224,1.0795683,1.5900168,0.96509475,1.0865548,1.1354169,1.4450109,1.0633006,722.4542,807.47253,823.5897,771.6117,776.4469,-0.06817626953125,0.0384521484375,0.988525390625,1.74957275390625,-4.029998779296875,0.1495361328125,1.0,1.0,1.0,1.0,1.0,90.0,event
13:32:57.286,0.52859664,0.2621883,-0.26957035,0.16600725,0.5493452,0.3334962,-0.25003588,0.346021,0.84325653,0.09576737,0.42609715,0.43334243,1.1459224,1.0795683,1.5900168,0.96509475,1.0865548,1.1354169,1.4450109,1.0633006,794.9817,824.7985,786.1172,769.19415,783.2967,-0.06817626953125,0.0384521484375,0.988525390625,1.74957275390625,-4.029998779296875,0.1495361328125,1.0,1.0,1.0,1.0,1.0,90.0,event
13:32:57.348,0.52859664,0.2621883,-0.26957035,0.16600725,0.5493452,0.3334962,-0.25003588,0.346021,0.84325653,0.09576737,0.42609715,0.43334243,1.1459224,1.0795683,1.5900168,0.96509475,1.0865548,1.1354169,1.4450109,1.0633006,864.2857,818.3516,779.2674,787.326,703.5165,-0.06817626953125,0.0384521484375,0.988525390625,1.74957275390625,-4.029998779296875,0.1495361328125,1.0,1.0,1.0,1.0,1.0,90.0,event
13:32:57.349,0.52859664,0.2621883,-0.26957035,0.16600725,0.5493452,0.3334962,-0.25003588,0.346021,0.84325653,0.09576737,0.42609715,0.43334243,1.1459224,1.0795683,1.5900168,0.96509475,1.0865548,1.1354169,1.4450109,1.0633006,887.25275,805.05493,795.78754,840.9158,695.8608,-0.06817626953125,0.0384521484375,0.988525390625,1.74957275390625,-4.029998779296875,0.1495361328125,1.0,1.0,1.0,1.0,1.0,90.0,event
13:32:57.350,0.52859664,0.2621883,-0.26957035,0.16600725,0.5493452,0.3334962,-0.25003588,0.346021,0.84325653,0.09576737,0.42609715,0.43334243,1.1459224,1.0795683,1.5900168,0.96509475,1.0865548,1.1354169,1.4450109,1.0633006,791.75824,786.9231,829.6337,825.2015,753.0769,-0.06817626953125,0.0384521484375,0.988525390625,1.74957275390625,-4.029998779296875,0.1495361328125,1.0,1.0,1.0,1.0,1.0,90.0,event
13:32:57.350,0.52859664,0.2621883,-0.26957035,0.16600725,0.5493452,0.3334962,-0.25003588,0.346021,0.84325653,0.09576737,0.42609715,0.43334243,1.1459224,1.0795683,1.5900168,0.96509475,1.0865548,1.1354169,1.4450109,1.0633006,718.8278,793.36993,850.58606,774.43225,695.05493,-0.06817626953125,0.0384521484375,0.988525390625,1.74957275390625,-4.029998779296875,0.1495361328125,1.0,1.0,1.0,1.0,1.0,90.0,event
13:32:57.351,0.52859664,0.2621883,-0.26957035,0.16600725,0.5493452,0.3334962,-0.25003588,0.346021,0.84325653,0.09576737,0.42609715,0.43334243,1.1459224,1.0795683,1.5900168,0.96509475,1.0865548,1.1354169,1.4450109,1.0633006,801.02563,818.7546,798.60803,790.9524,664.83514,-0.06817626953125,0.0384521484375,0.988525390625,1.74957275390625,-4.029998779296875,0.1495361328125,1.0,1.0,1.0,1.0,1.0,90.0,event
13:32:57.352,0.57657313,0.2305584,-0.26957035,0.16600725,0.609878,0.3034758,-0.25003588,0.346021,0.84994924,0.0129573075,0.42609715,0.43334243,1.1611363,1.0894855,1.5900168,0.96509475,1.088106,1.1203109,1.4450109,1.0633006,867.9121,817.9487,784.10254,804.65204,761.53845,-0.06817626953125,0.0384521484375,0.988525390625,1.74957275390625,-4.029998779296875,0.1495361328125,1.0,1.0,1.0,1.0,1.0,90.0,event
13:32:57.356,0.57657313,0.2305584,-0.26957035,0.16600725,0.609878,0.3034758,-0.25003588,0.346021,0.84994924,0.0129573075,0.42609715,0.43334243,1.1611363,1.0894855,1.5900168,0.96509475,1.088106,1.1203109,1.4450109,1.0633006,887.6557,803.44324,835.6777,850.989,1073.0037,-0.06817626953125,0.0384521484375,0.988525390625,1.74957275390625,-4.029998779296875,0.1495361328125,1.0,1.0,1.0,1.0,1.0,90.0,event
13:32:57.356,0.57657313,0.2305584,-0.26957035,0.16600725,0.609878,0.3034758,-0.25003588,0.346021,0.84994924,0.0129573075,0.42609715,0.43334243,1.1611363,1.0894855,1.5900168,0.96509475,1.088106,1.1203109,1.4450109,1.0633006,798.20514,804.65204,854.61536,838.0952,1260.7693,-0.06817626953125,0.0384521484375,0.988525390625,1.74957275390625,-4.029998779296875,0.1495361328125,1.0,1.0,1.0,1.0,1.0,90.0,event
13:32:57.357,0.57657313,0.2305584,-0.26957035,0.16600725,0.609878,0.3034758,-0.25003588,0.346021,0.84994924,0.0129573075,0.42609715,0.43334243,1.1611363,1.0894855,1.5900168,0.96509475,1.088106,1.1203109,1.4450109,1.0633006,711.978,803.44324,808.68134,767.98535,905.78754,-0.06817626953125,0.0384521484375,0.988525390625,1.74957275390625,-4.029998779296875,0.1495361328125,1.0,1.0,1.0,1.0,1.0,90.0,event
13:32:57.358,0.57657313,0.2305584,-0.26957035,0.16600725,0.609878,0.3034758,-0.25003588,0.346021,0.84994924,0.0129573075,0.42609715,0.43334243,1.1611363,1.0894855,1.5900168,0.96509475,1.088106,1.1203109,1.4450109,1.0633006,766.3736,805.05493,755.4945,767.5824,711.5751,-0.06817626953125,0.0384521484375,0.988525390625,1.74957275390625,-4.029998779296875,0.1495361328125,1.0,1.0,1.0,1.0,1.0,90.0,event
