TimeStamp,Delta_TP9,Delta_AF7,Delta_AF8,Delta_TP10,Theta_TP9,Theta_AF7,Theta_AF8,Theta_TP10,Alpha_TP9,Alpha_AF7,Alpha_AF8,Alpha_TP10,Beta_TP9,Beta_AF7,Beta_AF8,Beta_TP10,Gamma_TP9,Gamma_AF7,Gamma_AF8,Gamma_TP10,RAW_TP9,RAW_AF7,RAW_AF8,RAW_TP10,AUX_RIGHT,Accelerometer_X,Accelerometer_Y,Accelerometer_Z,Gyro_X,Gyro_Y,Gyro_Z,HeadBandOn,HSI_TP9,HSI_AF7,HSI_AF8,HSI_TP10,Battery,Elements
15:33:58.753,0.3580713,-0.46244016,-0.44246066,0.7051138,0.3195533,-0.28489718,-0.38334018,0.37324604,0.65199256,0.117244296,-0.010774596,0.44738197,0.64957345,-0.09231345,-0.13979086,0.6263066,0.26534775,-0.46986195,-0.3973723,0.37396884,834.0659,819.5604,811.9048,833.2601,793.7729,-0.29083251953125,0.0386962890625,0.94720458984375,1.697235107421875,-2.295379638671875,0.4486083984375,1.0,1.0,1.0,1.0,1.0,80.0,event
15:33:58.754,0.3580713,-0.46244016,-0.44246066,0.7051138,0.3195533,-0.28489718,-0.38334018,0.37324604,0.65199256,0.117244296,-0.010774596,0.44738197,0.64957345,-0.09231345,-0.13979086,0.6263066,0.26534775,-0.46986195,-0.3973723,0.37396884,825.2015,817.9487,811.9048,821.978,693.8461,-0.29083251953125,0.0386962890625,0.94720458984375,1.697235107421875,-2.295379638671875,0.4486083984375,1.0,1.0,1.0,1.0,1.0,80.0,event
15:33:58.755,0.3580713,-0.46244016,-0.44246066,0.7051138,0.3195533,-0.28489718,-0.38334018,0.37324604,0.65199256,0.117244296,-0.010774596,0.44738197,0.64957345,-0.09231345,-0.13979086,0.6263066,0.26534775,-0.46986195,-0.3973723,0.37396884,821.1722,818.3516,811.9048,809.0842,714.7985,-0.29083251953125,0.0386962890625,0.94720458984375,1.697235107421875,-2.295379638671875,0.4486083984375,1.0,1.0,1.0,1.0,1.0,80.0,event
15:33:58.756,0.3580713,-0.46244016,-0.44246066,0.7051138,0.3195533,-0.28489718,-0.38334018,0.37324604,0.65199256,0.117244296,-0.010774596,0.44738197,0.64957345,-0.09231345,-0.13979086,0.6263066,0.26534775,-0.46986195,-0.3973723,0.37396884,829.6337,822.381,811.9048,805.4579,788.1319,-0.29083251953125,0.0386962890625,0.94720458984375,1.697235107421875,-2.295379638671875,0.4486083984375,1.0,1.0,1.0,1.0,1.0,80.0,event
15:33:58.756,0.3580713,-0.46244016,-0.44246066,0.7051138,0.3195533,-0.28489718,-0.38334018,0.37324604,0.65199256,0.117244296,-0.010774596,0.44738197,0.64957345,-0.09231345,-0.13979086,0.6263066,0.26534775,-0.46986195,-0.3973723,0.37396884,818.3516,819.5604,809.0842,818.3516,867.50916,-0.29083251953125,0.0386962890625,0.94720458984375,1.697235107421875,-2.295379638671875,0.4486083984375,1.0,1.0,1.0,1.0,1.0,80.0,event
15:33:58.757,0.3580713,-0.46244016,-0.44246066,0.7051138,0.3195533,-0.28489718,-0.38334018,0.37324604,0.65199256,0.117244296,-0.010774596,0.44738197,0.64957345,-0.09231345,-0.13979086,0.6263066,0.26534775,-0.46986195,-0.3973723,0.37396884,808.2784,815.5311,805.05493,827.2161,844.5421,-0.29083251953125,0.0386962890625,0.94720458984375,1.697235107421875,-2.295379638671875,0.4486083984375,1.0,1.0,1.0,1.0,1.0,80.0,event
15:33:58.758,0.3580713,-0.46244016,-0.44246066,0.7051138,0.3195533,-0.28489718,-0.38334018,0.37324604,0.65199256,0.117244296,-0.010774596,0.44738197,0.64957345,-0.09231345,-0.13979086,0.6263066,0.26534775,-0.46986195,-0.3973723,0.37396884,824.7985,815.9341,804.2491,830.0366,818.3516,-0.29083251953125,0.0386962890625,0.94720458984375,1.697235107421875,-2.295379638671875,0.4486083984375,1.0,1.0,1.0,1.0,1.0,80.0,event
15:33:58.758,0.3580713,-0.46244016,-0.44246066,0.7051138,0.3195533,-0.28489718,-0.38334018,0.37324604,0.65199256,0.117244296,-0.010774596,0.44738197,0.64957345,-0.09231345,-0.13979086,0.6263066,0.26534775,-0.46986195,-0.3973723,0.37396884,819.15753,813.5165,807.0696,822.381,873.1502,-0.29083251953125,0.0386962890625,0.94720458984375,1.697235107421875,-2.295379638671875,0.4486083984375,1.0,1.0,1.0,1.0,1.0,80.0,event
15:33:58.759,0.3580713,-0.46244016,-0.44246066,0.7051138,0.3195533,-0.28489718,-0.38334018,0.37324604,0.65199256,0.117244296,-0.010774596,0.44738197,0.64957345,-0.09231345,-0.13979086,0.6263066,0.26534775,-0.46986195,-0.3973723,0.37396884,807.8755,811.50183,805.05493,810.293,860.65936,-0.29083251953125,0.0386962890625,0.94720458984375,1.697235107421875,-2.295379638671875,0.4486083984375,1.0,1.0,1.0,1.0,1.0,80.0,event
15:33:58.759,0.3580713,-0.46244016,-0.44246066,0.7051138,0.3195533,-0.28489718,-0.38334018,0.37324604,0.65199256,0.117244296,-0.010774596,0.44738197,0.64957345,-0.09231345,-0.13979086,0.6263066,0.26534775,-0.46986195,-0.3973723,0.37396884,812.71063,811.0989,801.8315,801.4286,765.9707,-0.29083251953125,0.0386962890625,0.94720458984375,1.697235107421875,-2.295379638671875,0.4486083984375,1.0,1.0,1.0,1.0,1.0,80.0,event
15:33:58.760,0.3580713,-0.46244016,-0.44246066,0.7051138,0.3195533,-0.28489718,-0.38334018,0.37324604,0.65199256,0.117244296,-0.010774596,0.44738197,0.64957345,-0.09231345,-0.13979086,0.6263066,0.26534775,-0.46986195,-0.3973723,0.37396884,822.381,815.5311,803.8461,818.7546,713.9927,-0.29083251953125,0.0386962890625,0.94720458984375,1.697235107421875,-2.295379638671875,0.4486083984375,1.0,1.0,1.0,1.0,1.0,80.0,event
15:33:58.760,0.3580713,-0.46244016,-0.44246066,0.7051138,0.3195533,-0.28489718,-0.38334018,0.37324604,0.65199256,0.117244296,-0.010774596,0.44738197,0.64957345,-0.09231345,-0.13979086,0.6263066,0.26534775,-0.46986195,-0.3973723,0.37396884,821.5751,812.3077,803.44324,822.7839,696.26373,-0.29083251953125,0.0386962890625,0.94720458984375,1.697235107421875,-2.295379638671875,0.4486083984375,1.0,1.0,1.0,1.0,1.0,80.0,event
15:33:58.788,0.3580713,-0.46244016,-0.44246066,0.7051138,0.3195533,-0.28489718,-0.38334018,0.37324604,0.65199256,0.117244296,-0.010774596,0.44738197,0.64957345,-0.09231345,-0.13979086,0.6263066,0.26534775,-0.46986195,-0.3973723,0.37396884,813.5165,811.0989,800.6227,813.1135,971.06226,-0.299560546875,0.03204345703125,0.937744140625,1.622467041015625,-1.92901611328125,0.64300537109375,1.0,1.0,1.0,1.0,1.0,80.0,event
15:33:58.789,0.3580713,-0.46244016,-0.44246066,0.7051138,0.3195533,-0.28489718,-0.38334018,0.37324604,0.65199256,0.117244296,-0.010774596,0.44738197,0.64957345,-0.09231345,-0.13979086,0.6263066,0.26534775,-0.46986195,-0.3973723,0.37396884,809.89014,811.9048,804.2491,819.5604,987.1795,-0.299560546875,0.03204345703125,0.937744140625,1.622467041015625,-1.92901611328125,0.64300537109375,1.0,1.0,1.0,1.0,1.0,80.0,event
15:33:58.789,0.3580713,-0.46244016,-0.44246066,0.7051138,0.3195533,-0.28489718,-0.38334018,0.37324604,0.65199256,0.117244296,-0.010774596,0.44738197,0.64957345,-0.09231345,-0.13979086,0.6263066,0.26534775,-0.46986195,-0.3973723,0.37396884,818.3516,812.3077,804.2491,812.71063,740.58606,-0.299560546875,0.03204345703125,0.937744140625,1.622467041015625,-1.92901611328125,0.64300537109375,1.0,1.0,1.0,1.0,1.0,80.0,event
15:33:58.790,0.3580713,-0.46244016,-0.44246066,0.7051138,0.3195533,-0.28489718,-0.38334018,0.37324604,0.65199256,0.117244296,-0.010774596,0.44738197,0.64957345,-0.09231345,-0.13979086,0.6263066,0.26534775,-0.46986195,-0.3973723,0.37396884,811.50183,813.1135,802.6374,804.65204,751.4652,-0.299560546875,0.03204345703125,0.937744140625,1.622467041015625,-1.92901611328125,0.64300537109375,1.0,1.0,1.0,1.0,1.0,80.0,event
15:33:58.790,0.3580713,-0.46244016,-0.44246066,0.7051138,0.3195533,-0.28489718,-0.38334018,0.37324604,0.65199256,0.117244296,-0.010774596,0.44738197,0.64957345,-0.09231345,-0.13979086,0.6263066,0.26534775,-0.46986195,-0.3973723,0.37396884,811.50183,813.1135,799.81683,815.12823,743.00366,-0.299560546875,0.03204345703125,0.937744140625,1.622467041015625,-1.92901611328125,0.64300537109375,1.0,1.0,1.0,1.0,1.0,80.0,event
15:33:58.791,0.3580713,-0.46244016,-0.44246066,0.7051138,0.3195533,-0.28489718,-0.38334018,0.37324604,0.65199256,0.117244296,-0.010774596,0.44738197,0.64957345,-0.09231345,-0.13979086,0.6263066,0.26534775,-0.46986195,-0.3973723,0.37396884,795.78754,812.3077,799.81683,789.7436,798.20514,-0.299560546875,0.03204345703125,0.937744140625,1.622467041015625,-1.92901611328125,0.64300537109375,1.0,1.0,1.0,1.0,1.0,80.0,event
15:33:58.791,0.3580713,-0.46244016,-0.44246066,0.7051138,0.3195533,-0.28489718,-0.38334018,0.37324604,0.65199256,0.117244296,-0.010774596,0.44738197,0.64957345,-0.09231345,-0.13979086,0.6263066,0.26534775,-0.46986195,-0.3973723,0.37396884,793.7729,807.8755,794.9817,801.02563,789.34064,-0.299560546875,0.03204345703125,0.937744140625,1.622467041015625,-1.92901611328125,0.64300537109375,1.0,1.0,1.0,1.0,1.0,80.0,event
15:33:58.792,0.3580713,-0.46244016,-0.44246066,0.7051138,0.3195533,-0.28489718,-0.38334018,0.37324604,0.65199256,0.117244296,-0.010774596,0.44738197,0.64957345,-0.09231345,-0.13979086,0.6263066,0.26534775,-0.46986195,-0.3973723,0.37396884,804.65204,809.0842,801.4286,813.5165,834.4689,-0.299560546875,0.03204345703125,0.937744140625,1.622467041015625,-1.92901611328125,0.64300537109375,1.0,1.0,1.0,1.0,1.0,80.0,event
15:33:58.792,0.3580713,-0.46244016,-0.44246066,0.7051138,0.3195533,-0.28489718,-0.38334018,0.37324604,0.65199256,0.117244296,-0.010774596,0.44738197,0.64957345,-0.09231345,-0.13979086,0.6263066,0.26534775,-0.46986195,-0.3973723,0.37396884,777.6557,809.4872,801.8315,786.1172,1079.0476,-0.299560546875,0.03204345703125,0.937744140625,1.622467041015625,-1.92901611328125,0.64300537109375,1.0,1.0,1.0,1.0,1.0,80.0,event
15:33:58.792,0.3580713,-0.50299484,-0.41816652,0.7051138,0.3195533,-0.23002382,-0.37550104,0.37324604,0.65199256,0.18105294,0.013726112,0.44738197,0.64957345,-0.09431356,-0.14325923,0.6263066,0.26534775,-0.49804816,-0.40503037,0.37396884,773.6264,809.0842,800.2198,776.4469,857.4359,-0.299560546875,0.03204345703125,0.937744140625,1.622467041015625,-1.92901611328125,0.64300537109375,1.0,1.0,1.0,1.0,1.0,80.0,event
15:33:58.796,0.3580713,-0.50299484,-0.41816652,0.7051138,0.3195533,-0.23002382,-0.37550104,0.37324604,0.65199256,0.18105294,0.013726112,0.44738197,0.64957345,-0.09431356,-0.14325923,0.6263066,0.26534775,-0.49804816,-0.40503037,0.37396884,795.38464,813.91943,798.20514,807.8755,654.35895,-0.299560546875,0.03204345703125,0.937744140625,1.622467041015625,-1.92901611328125,0.64300537109375,1.0,1.0,1.0,1.0,1.0,80.0,event
15:33:58.796,0.3580713,-0.50299484,-0.41816652,0.7051138,0.3195533,-0.23002382,-0.37550104,0.37324604,0.65199256,0.18105294,0.013726112,0.44738197,0.64957345,-0.09431356,-0.14325923,0.6263066,0.26534775,-0.49804816,-0.40503037,0.37396884,800.2198,810.293,799.41394,812.71063,733.73627,-0.299560546875,0.03204345703125,0.937744140625,1.622467041015625,-1.92901611328125,0.64300537109375,1.0,1.0,1.0,1.0,1.0,80.0,event
15:33:58.873,0.3580713,-0.50299484,-0.41816652,0.7051138,0.3195533,-0.23002382,-0.37550104,0.37324604,0.65199256,0.18105294,0.013726112,0.44738197,0.64957345,-0.09431356,-0.14325923,0.6263066,0.26534775,-0.49804816,-0.40503037,0.37396884,787.72894,805.8608,796.5934,782.8938,728.9011,-0.30224609375,0.0350341796875,0.93499755859375,1.54022216796875,-2.848663330078125,0.2392578125,1.0,1.0,1.0,1.0,1.0,80.0,event
15:33:58.874,0.3580713,-0.50299484,-0.41816652,0.7051138,0.3195533,-0.23002382,-0.37550104,0.37324604,0.65199256,0.18105294,0.013726112,0.44738197,0.64957345,-0.09431356,-0.14325923,0.6263066,0.26534775,-0.49804816,-0.40503037,0.37396884,798.20514,811.0989,796.99634,789.7436,689.41394,-0.30224609375,0.0350341796875,0.93499755859375,1.54022216796875,-2.848663330078125,0.2392578125,1.0,1.0,1.0,1.0,1.0,80.0,event
15:33:58.875,0.3580713,-0.50299484,-0.41816652,0.7051138,0.3195533,-0.23002382,-0.37550104,0.37324604,0.65199256,0.18105294,0.013726112,0.44738197,0.64957345,-0.09431356,-0.14325923,0.6263066,0.26534775,-0.49804816,-0.40503037,0.37396884,811.50183,804.65204,803.8461,810.293,733.3333,-0.30224609375,0.0350341796875,0.93499755859375,1.54022216796875,-2.848663330078125,0.2392578125,1.0,1.0,1.0,1.0,1.0,80.0,event
15:33:58.876,0.3580713,-0.50299484,-0.41816652,0.7051138,0.3195533,-0.23002382,-0.37550104,0.37324604,0.65199256,0.18105294,0.013726112,0.44738197,0.64957345,-0.09431356,-0.14325923,0.6263066,0.26534775,-0.49804816,-0.40503037,0.37396884,801.8315,805.05493,800.2198,796.99634,769.59705,-0.30224609375,0.0350341796875,0.93499755859375,1.54022216796875,-2.848663330078125,0.2392578125,1.0,1.0,1.0,1.0,1.0,80.0,event
15:33:58.876,0.3580713,-0.50299484,-0.41816652,0.7051138,0.3195533,-0.23002382,-0.37550104,0.37324604,0.65199256,0.18105294,0.013726112,0.44738197,0.64957345,-0.09431356,-0.14325923,0.6263066,0.26534775,-0.49804816,-0.40503037,0.37396884,800.2198,811.9048,798.20514,794.17584,751.06226,-0.30224609375,0.0350341796875,0.93499755859375,1.54022216796875,-2.848663330078125,0.2392578125,1.0,1.0,1.0,1.0,1.0,80.0,event
15:33:58.877,0.3580713,-0.50299484,-0.41816652,0.7051138,0.3195533,-0.23002382,-0.37550104,0.37324604,0.65199256,0.18105294,0.013726112,0.44738197,0.64957345,-0.09431356,-0.14325923,0.6263066,0.26534775,-0.49804816,-0.40503037,0.37396884,795.78754,811.50183,801.02563,794.57874,816.7399,-0.30224609375,0.0350341796875,0.93499755859375,1.54022216796875,-2.848663330078125,0.2392578125,1.0,1.0,1.0,1.0,1.0,80.0,event
15:33:58.877,0.3580713,-0.50299484,-0.41816652,0.7051138,0.3195533,-0.23002382,-0.37550104,0.37324604,0.65199256,0.18105294,0.013726112,0.44738197,0.64957345,-0.09431356,-0.14325923,0.6263066,0.26534775,-0.49804816,-0.40503037,0.37396884,786.1172,808.68134,802.6374,788.5348,903.7729,-0.30224609375,0.0350341796875,0.93499755859375,1.54022216796875,-2.848663330078125,0.2392578125,1.0,1.0,1.0,1.0,1.0,80.0,event
15:33:58.878,0.3580713,-0.50299484,-0.41816652,0.7051138,0.3195533,-0.23002382,-0.37550104,0.37324604,0.65199256,0.18105294,0.013726112,0.44738197,0.64957345,-0.09431356,-0.14325923,0.6263066,0.26534775,-0.49804816,-0.40503037,0.37396884,789.7436,805.8608,803.8461,780.4762,1077.033,-0.30224609375,0.0350341796875,0.93499755859375,1.54022216796875,-2.848663330078125,0.2392578125,1.0,1.0,1.0,1.0,1.0,80.0,event
15:33:58.878,0.3580713,-0.50299484,-0.41816652,0.7051138,0.3195533,-0.23002382,-0.37550104,0.37324604,0.65199256,0.18105294,0.013726112,0.44738197,0.64957345,-0.09431356,-0.14325923,0.6263066,0.26534775,-0.49804816,-0.40503037,0.37396884,789.34064,804.2491,800.2198,770.0,1009.7436,-0.30224609375,0.0350341796875,0.93499755859375,1.54022216796875,-2.848663330078125,0.2392578125,1.0,1.0,1.0,1.0,1.0,80.0,event
15:33:58.879,0.3580713,-0.50299484,-0.41816652,0.7051138,0.3195533,-0.23002382,-0.37550104,0.37324604,0.65199256,0.18105294,0.013726112,0.44738197,0.64957345,-0.09431356,-0.14325923,0.6263066,0.26534775,-0.49804816,-0.40503037,0.37396884,766.3736,809.4872,796.5934,765.9707,803.8461,-0.30224609375,0.0350341796875,0.93499755859375,1.54022216796875,-2.848663330078125,0.2392578125,1.0,1.0,1.0,1.0,1.0,80.0,event
15:33:58.879,0.3580713,-0.50299484,-0.41816652,0.7051138,0.3195533,-0.23002382,-0.37550104,0.37324604,0.65199256,0.18105294,0.013726112,0.44738197,0.64957345,-0.09431356,-0.14325923,0.6263066,0.26534775,-0.49804816,-0.40503037,0.37396884,767.98535,809.0842,802.6374,774.43225,807.47253,-0.30224609375,0.0350341796875,0.93499755859375,1.54022216796875,-2.848663330078125,0.2392578125,1.0,1.0,1.0,1.0,1.0,80.0,event
15:33:58.880,0.3580713,-0.50299484,-0.41816652,0.7051138,0.3195533,-0.23002382,-0.37550104,0.37324604,0.65199256,0.18105294,0.013726112,0.44738197,0.64957345,-0.09431356,-0.14325923,0.6263066,0.26534775,-0.49804816,-0.40503037,0.37396884,787.72894,802.23444,796.99634,798.60803,866.7033,-0.30224609375,0.0350341796875,0.93499755859375,1.54022216796875,-2.848663330078125,0.2392578125,1.0,1.0,1.0,1.0,1.0,80.0,event
15:33:58.906,0.3580713,-0.50299484,-0.41816652,0.7051138,0.3195533,-0.23002382,-0.37550104,0.37324604,0.65199256,0.18105294,0.013726112,0.44738197,0.64957345,-0.09431356,-0.14325923,0.6263066,0.26534775,-0.49804816,-0.40503037,0.37396884,795.38464,804.2491,792.1612,794.17584,779.67035,-0.3043212890625,0.03167724609375,0.93927001953125,2.28790283203125,-4.246826171875,0.142059326171875,1.0,1.0,1.0,1.0,1.0,80.0,event
15:33:58.907,0.3580713,-0.50299484,-0.41816652,0.7051138,0.3195533,-0.23002382,-0.37550104,0.37324604,0.65199256,0.18105294,0.013726112,0.44738197,0.64957345,-0.09431356,-0.14325923,0.6263066,0.26534775,-0.49804816,-0.40503037,0.37396884,803.44324,809.4872,791.75824,791.3553,704.3223,-0.3043212890625,0.03167724609375,0.93927001953125,2.28790283203125,-4.246826171875,0.142059326171875,1.0,1.0,1.0,1.0,1.0,80.0,event
15:33:58.908,0.3580713,-0.50299484,-0.41816652,0.7051138,0.3195533,-0.23002382,-0.37550104,0.37324604,0.65199256,0.18105294,0.013726112,0.44738197,0.64957345,-0.09431356,-0.14325923,0.6263066,0.26534775,-0.49804816,-0.40503037,0.37396884,797.8022,810.696,794.17584,810.293,717.2161,-0.3043212890625,0.03167724609375,0.93927001953125,2.28790283203125,-4.246826171875,0.142059326171875,1.0,1.0,1.0,1.0,1.0,80.0,event
15:33:58.909,0.3580713,-0.50299484,-0.41816652,0.7051138,0.3195533,-0.23002382,-0.37550104,0.37324604,0.65199256,0.18105294,0.013726112,0.44738197,0.64957345,-0.09431356,-0.14325923,0.6263066,0.26534775,-0.49804816,-0.40503037,0.37396884,788.93774,802.6374,799.41394,801.4286,728.0952,-0.3043212890625,0.03167724609375,0.93927001953125,2.28790283203125,-4.246826171875,0.142059326171875,1.0,1.0,1.0,1.0,1.0,80.0,event
15:33:58.909,0.3580713,-0.50299484,-0.41816652,0.7051138,0.3195533,-0.23002382,-0.37550104,0.37324604,0.65199256,0.18105294,0.013726112,0.44738197,0.64957345,-0.09431356,-0.14325923,0.6263066,0.26534775,-0.49804816,-0.40503037,0.37396884,782.0879,806.6667,801.8315,798.60803,736.1539,-0.3043212890625,0.03167724609375,0.93927001953125,2.28790283203125,-4.246826171875,0.142059326171875,1.0,1.0,1.0,1.0,1.0,80.0,event
15:33:58.911,0.3580713,-0.50299484,-0.41816652,0.7051138,0.3195533,-0.23002382,-0.37550104,0.37324604,0.65199256,0.18105294,0.013726112,0.44738197,0.64957345,-0.09431356,-0.14325923,0.6263066,0.26534775,-0.49804816,-0.40503037,0.37396884,793.7729,803.0403,795.78754,808.2784,764.35895,-0.3043212890625,0.03167724609375,0.93927001953125,2.28790283203125,-4.246826171875,0.142059326171875,1.0,1.0,1.0,1.0,1.0,80.0,event
15:33:58.911,0.3580713,-0.50299484,-0.41816652,0.7051138,0.3195533,-0.23002382,-0.37550104,0.37324604,0.65199256,0.18105294,0.013726112,0.44738197,0.64957345,-0.09431356,-0.14325923,0.6263066,0.26534775,-0.49804816,-0.40503037,0.37396884,788.93774,799.011,797.3993,805.4579,929.9634,-0.3043212890625,0.03167724609375,0.93927001953125,2.28790283203125,-4.246826171875,0.142059326171875,1.0,1.0,1.0,1.0,1.0,80.0,event
15:33:58.912,0.3580713,-0.50299484,-0.41816652,0.7051138,0.3195533,-0.23002382,-0.37550104,0.37324604,0.65199256,0.18105294,0.013726112,0.44738197,0.64957345,-0.09431356,-0.14325923,0.6263066,0.26534775,-0.49804816,-0.40503037,0.37396884,794.17584,798.60803,796.1905,799.81683,1027.8755,-0.3043212890625,0.03167724609375,0.93927001953125,2.28790283203125,-4.246826171875,0.142059326171875,1.0,1.0,1.0,1.0,1.0,80.0,event
15:33:58.913,0.3580713,-0.50299484,-0.41816652,0.7051138,0.3195533,-0.23002382,-0.37550104,0.37324604,0.65199256,0.18105294,0.013726112,0.44738197,0.64957345,-0.09431356,-0.14325923,0.6263066,0.26534775,-0.49804816,-0.40503037,0.37396884,793.36993,803.8461,800.6227,787.326,798.20514,-0.3043212890625,0.03167724609375,0.93927001953125,2.28790283203125,-4.246826171875,0.142059326171875,1.0,1.0,1.0,1.0,1.0,80.0,event
15:33:58.914,0.3580713,-0.50299484,-0.41816652,0.7051138,0.3195533,-0.23002382,-0.37550104,0.37324604,0.65199256,0.18105294,0.013726112,0.44738197,0.64957345,-0.09431356,-0.14325923,0.6263066,0.26534775,-0.49804816,-0.40503037,0.37396884,806.26373,809.89014,799.41394,808.2784,740.58606,-0.3043212890625,0.03167724609375,0.93927001953125,2.28790283203125,-4.246826171875,0.142059326171875,1.0,1.0,1.0,1.0,1.0,80.0,event
15:33:58.914,0.3580713,-0.50299484,-0.41816652,0.7051138,0.3195533,-0.23002382,-0.37550104,0.37324604,0.65199256,0.18105294,0.013726112,0.44738197,0.64957345,-0.09431356,-0.14325923,0.6263066,0.26534775,-0.49804816,-0.40503037,0.37396884,818.7546,809.0842,800.2198,819.9634,825.2015,-0.3043212890625,0.03167724609375,0.93927001953125,2.28790283203125,-4.246826171875,0.142059326171875,1.0,1.0,1.0,1.0,1.0,80.0,event
15:33:58.915,0.34589282,-0.39592066,-0.376907,1.0510529,0.22241086,-0.13704723,-0.34331182,0.5859977,0.6220893,0.27430362,0.047574535,1.1006832,0.6342249,-0.09725428,-0.13736318,0.72912246,0.26743212,-0.52399975,-0.41233337,0.47097498,813.1135,801.8315,802.6374,814.3223,840.10986,-0.3043212890625,0.03167724609375,0.93927001953125,2.28790283203125,-4.246826171875,0.142059326171875,1.0,1.0,1.0,1.0,1.0,80.0,event
15:33:58.946,0.34589282,-0.39592066,-0.376907,1.0510529,0.22241086,-0.13704723,-0.34331182,0.5859977,0.6220893,0.27430362,0.047574535,1.1006832,0.6342249,-0.09725428,-0.13736318,0.72912246,0.26743212,-0.52399975,-0.41233337,0.47097498,824.7985,804.65204,795.38464,817.1429,782.0879,-0.29486083984375,0.04107666015625,0.94970703125,1.54022216796875,-3.8580322265625,1.435546875,1.0,1.0,1.0,1.0,1.0,75.0,event
15:33:58.947,0.34589282,-0.39592066,-0.376907,1.0510529,0.22241086,-0.13704723,-0.34331182,0.5859977,0.6220893,0.27430362,0.047574535,1.1006832,0.6342249,-0.09725428,-0.13736318,0.72912246,0.26743212,-0.52399975,-0.41233337,0.47097498,811.9048,805.8608,797.3993,821.978,731.7216,-0.29486083984375,0.04107666015625,0.94970703125,1.54022216796875,-3.8580322265625,1.435546875,1.0,1.0,1.0,1.0,1.0,75.0,event
15:33:58.948,0.34589282,-0.39592066,-0.376907,1.0510529,0.22241086,-0.13704723,-0.34331182,0.5859977,0.6220893,0.27430362,0.047574535,1.1006832,0.6342249,-0.09725428,-0.13736318,0.72912246,0.26743212,-0.52399975,-0.41233337,0.47097498,788.1319,802.23444,803.0403,814.3223,933.5897,-0.29486083984375,0.04107666015625,0.94970703125,1.54022216796875,-3.8580322265625,1.435546875,1.0,1.0,1.0,1.0,1.0,75.0,event
15:33:58.950,0.34589282,-0.39592066,-0.376907,1.0510529,0.22241086,-0.13704723,-0.34331182,0.5859977,0.6220893,0.27430362,0.047574535,1.1006832,0.6342249,-0.09725428,-0.13736318,0.72912246,0.26743212,-0.52399975,-0.41233337,0.47097498,815.9341,797.8022,800.2198,820.3663,822.381,-0.29486083984375,0.04107666015625,0.94970703125,1.54022216796875,-3.8580322265625,1.435546875,1.0,1.0,1.0,1.0,1.0,75.0,event
15:33:58.951,0.34589282,-0.39592066,-0.376907,1.0510529,0.22241086,-0.13704723,-0.34331182,0.5859977,0.6220893,0.27430362,0.047574535,1.1006832,0.6342249,-0.09725428,-0.13736318,0.72912246,0.26743212,-0.52399975,-0.41233337,0.47097498,834.0659,798.60803,796.1905,821.5751,659.19415,-0.29486083984375,0.04107666015625,0.94970703125,1.54022216796875,-3.8580322265625,1.435546875,1.0,1.0,1.0,1.0,1.0,75.0,event
15:33:58.952,0.34589282,-0.39592066,-0.376907,1.0510529,0.22241086,-0.13704723,-0.34331182,0.5859977,0.6220893,0.27430362,0.047574535,1.1006832,0.6342249,-0.09725428,-0.13736318,0.72912246,0.26743212,-0.52399975,-0.41233337,0.47097498,818.3516,805.8608,804.65204,810.696,840.5128,-0.29486083984375,0.04107666015625,0.94970703125,1.54022216796875,-3.8580322265625,1.435546875,1.0,1.0,1.0,1.0,1.0,75.0,event
15:33:58.953,0.34589282,-0.39592066,-0.376907,1.0510529,0.22241086,-0.13704723,-0.34331182,0.5859977,0.6220893,0.27430362,0.047574535,1.1006832,0.6342249,-0.09725428,-0.13736318,0.72912246,0.26743212,-0.52399975,-0.41233337,0.47097498,805.8608,810.293,799.81683,829.2308,1064.1392,-0.29486083984375,0.04107666015625,0.94970703125,1.54022216796875,-3.8580322265625,1.435546875,1.0,1.0,1.0,1.0,1.0,75.0,event
15:33:58.953,0.34589282,-0.39592066,-0.376907,1.0510529,0.22241086,-0.13704723,-0.34331182,0.5859977,0.6220893,0.27430362,0.047574535,1.1006832,0.6342249,-0.09725428,-0.13736318,0.72912246,0.26743212,-0.52399975,-0.41233337,0.47097498,811.50183,806.6667,794.9817,831.6484,916.26373,-0.29486083984375,0.04107666015625,0.94970703125,1.54022216796875,-3.8580322265625,1.435546875,1.0,1.0,1.0,1.0,1.0,75.0,event
15:33:58.954,0.34589282,-0.39592066,-0.376907,1.0510529,0.22241086,-0.13704723,-0.34331182,0.5859977,0.6220893,0.27430362,0.047574535,1.1006832,0.6342249,-0.09725428,-0.13736318,0.72912246,0.26743212,-0.52399975,-0.41233337,0.47097498,811.50183,807.8755,794.57874,795.78754,702.71063,-0.29486083984375,0.04107666015625,0.94970703125,1.54022216796875,-3.8580322265625,1.435546875,1.0,1.0,1.0,1.0,1.0,75.0,event
15:33:58.955,0.34589282,-0.39592066,-0.376907,1.0510529,0.22241086,-0.13704723,-0.34331182,0.5859977,0.6220893,0.27430362,0.047574535,1.1006832,0.6342249,-0.09725428,-0.13736318,0.72912246,0.26743212,-0.52399975,-0.41233337,0.47097498,825.2015,811.0989,797.3993,816.337,757.50916,-0.29486083984375,0.04107666015625,0.94970703125,1.54022216796875,-3.8580322265625,1.435546875,1.0,1.0,1.0,1.0,1.0,75.0,event
15:33:58.956,0.34589282,-0.39592066,-0.376907,1.0510529,0.22241086,-0.13704723,-0.34331182,0.5859977,0.6220893,0.27430362,0.047574535,1.1006832,0.6342249,-0.09725428,-0.13736318,0.72912246,0.26743212,-0.52399975,-0.41233337,0.47097498,831.6484,808.68134,801.8315,840.5128,804.65204,-0.29486083984375,0.04107666015625,0.94970703125,1.54022216796875,-3.8580322265625,1.435546875,1.0,1.0,1.0,1.0,1.0,75.0,event
15:33:58.956,0.34589282,-0.39592066,-0.376907,1.0510529,0.22241086,-0.13704723,-0.34331182,0.5859977,0.6220893,0.27430362,0.047574535,1.1006832,0.6342249,-0.09725428,-0.13736318,0.72912246,0.26743212,-0.52399975,-0.41233337,0.47097498,793.7729,801.8315,804.2491,802.6374,783.69965,-0.29486083984375,0.04107666015625,0.94970703125,1.54022216796875,-3.8580322265625,1.435546875,1.0,1.0,1.0,1.0,1.0,75.0,event
15:33:59.042,0.34589282,-0.39592066,-0.376907,1.0510529,0.22241086,-0.13704723,-0.34331182,0.5859977,0.6220893,0.27430362,0.047574535,1.1006832,0.6342249,-0.09725428,-0.13736318,0.72912246,0.26743212,-0.52399975,-0.41233337,0.47097498,800.6227,801.4286,806.26373,804.2491,731.31866,-0.29486083984375,0.04107666015625,0.94970703125,1.54022216796875,-3.8580322265625,1.435546875,1.0,1.0,1.0,1.0,1.0,75.0,event
15:33:59.044,0.34589282,-0.39592066,-0.376907,1.0510529,0.22241086,-0.13704723,-0.34331182,0.5859977,0.6220893,0.27430362,0.047574535,1.1006832,0.6342249,-0.09725428,-0.13736318,0.72912246,0.26743212,-0.52399975,-0.41233337,0.47097498,803.8461,804.65204,807.47253,808.2784,887.25275,-0.29486083984375,0.04107666015625,0.94970703125,1.54022216796875,-3.8580322265625,1.435546875,1.0,1.0,1.0,1.0,1.0,75.0,event
15:33:59.044,0.34589282,-0.39592066,-0.376907,1.0510529,0.22241086,-0.13704723,-0.34331182,0.5859977,0.6220893,0.27430362,0.047574535,1.1006832,0.6342249,-0.09725428,-0.13736318,0.72912246,0.26743212,-0.52399975,-0.41233337,0.47097498,808.68134,805.05493,808.68134,814.7253,835.2747,-0.29486083984375,0.04107666015625,0.94970703125,1.54022216796875,-3.8580322265625,1.435546875,1.0,1.0,1.0,1.0,1.0,75.0,event
15:33:59.045,0.34589282,-0.39592066,-0.376907,1.0510529,0.22241086,-0.13704723,-0.34331182,0.5859977,0.6220893,0.27430362,0.047574535,1.1006832,0.6342249,-0.09725428,-0.13736318,0.72912246,0.26743212,-0.52399975,-0.41233337,0.47097498,811.0989,809.89014,805.8608,816.7399,743.8095,-0.29486083984375,0.04107666015625,0.94970703125,1.54022216796875,-3.8580322265625,1.435546875,1.0,1.0,1.0,1.0,1.0,75.0,event
15:33:59.045,0.34589282,-0.39592066,-0.376907,1.0510529,0.22241086,-0.13704723,-0.34331182,0.5859977,0.6220893,0.27430362,0.047574535,1.1006832,0.6342249,-0.09725428,-0.13736318,0.72912246,0.26743212,-0.52399975,-0.41233337,0.47097498,803.0403,808.2784,805.4579,821.1722,659.59705,-0.29486083984375,0.04107666015625,0.94970703125,1.54022216796875,-3.8580322265625,1.435546875,1.0,1.0,1.0,1.0,1.0,75.0,event
15:33:59.046,0.34589282,-0.39592066,-0.376907,1.0510529,0.22241086,-0.13704723,-0.34331182,0.5859977,0.6220893,0.27430362,0.047574535,1.1006832,0.6342249,-0.09725428,-0.13736318,0.72912246,0.26743212,-0.52399975,-0.41233337,0.47097498,796.5934,807.47253,805.8608,821.5751,765.56775,-0.29486083984375,0.04107666015625,0.94970703125,1.54022216796875,-3.8580322265625,1.435546875,1.0,1.0,1.0,1.0,1.0,75.0,event
15:33:59.047,0.34589282,-0.39592066,-0.376907,1.0510529,0.22241086,-0.13704723,-0.34331182,0.5859977,0.6220893,0.27430362,0.047574535,1.1006832,0.6342249,-0.09725428,-0.13736318,0.72912246,0.26743212,-0.52399975,-0.41233337,0.47097498,812.3077,809.4872,805.4579,827.619,1094.359,-0.29486083984375,0.04107666015625,0.94970703125,1.54022216796875,-3.8580322265625,1.435546875,1.0,1.0,1.0,1.0,1.0,75.0,event
15:33:59.047,0.34589282,-0.39592066,-0.376907,1.0510529,0.22241086,-0.13704723,-0.34331182,0.5859977,0.6220893,0.27430362,0.047574535,1.1006832,0.6342249,-0.09725428,-0.13736318,0.72912246,0.26743212,-0.52399975,-0.41233337,0.47097498,815.5311,807.8755,804.65204,816.7399,963.00366,-0.29486083984375,0.04107666015625,0.94970703125,1.54022216796875,-3.8580322265625,1.435546875,1.0,1.0,1.0,1.0,1.0,75.0,event
15:33:59.048,0.34589282,-0.39592066,-0.376907,1.0510529,0.22241086,-0.13704723,-0.34331182,0.5859977,0.6220893,0.27430362,0.047574535,1.1006832,0.6342249,-0.09725428,-0.13736318,0.72912246,0.26743212,-0.52399975,-0.41233337,0.47097498,809.89014,803.8461,807.8755,812.71063,676.9231,-0.29486083984375,0.04107666015625,0.94970703125,1.54022216796875,-3.8580322265625,1.435546875,1.0,1.0,1.0,1.0,1.0,75.0,event
15:33:59.048,0.34589282,-0.39592066,-0.376907,1.0510529,0.22241086,-0.13704723,-0.34331182,0.5859977,0.6220893,0.27430362,0.047574535,1.1006832,0.6342249,-0.09725428,-0.13736318,0.72912246,0.26743212,-0.52399975,-0.41233337,0.47097498,808.2784,801.4286,807.0696,819.5604,703.5165,-0.29486083984375,0.04107666015625,0.94970703125,1.54022216796875,-3.8580322265625,1.435546875,1.0,1.0,1.0,1.0,1.0,75.0,event
15:33:59.049,0.34589282,-0.39592066,-0.376907,1.0510529,0.22241086,-0.13704723,-0.34331182,0.5859977,0.6220893,0.27430362,0.047574535,1.1006832,0.6342249,-0.09725428,-0.13736318,0.72912246,0.26743212,-0.52399975,-0.41233337,0.47097498,813.5165,794.17584,807.0696,825.6044,701.9048,-0.29486083984375,0.04107666015625,0.94970703125,1.54022216796875,-3.8580322265625,1.435546875,1.0,1.0,1.0,1.0,1.0,75.0,event
15:33:59.050,0.34589282,-0.39592066,-0.376907,1.0510529,0.22241086,-0.13704723,-0.34331182,0.5859977,0.6220893,0.27430362,0.047574535,1.1006832,0.6342249,-0.09725428,-0.13736318,0.72912246,0.26743212,-0.52399975,-0.41233337,0.47097498,804.2491,797.8022,809.4872,817.9487,675.7143,-0.29486083984375,0.04107666015625,0.94970703125,1.54022216796875,-3.8580322265625,1.435546875,1.0,1.0,1.0,1.0,1.0,75.0,event
15:33:59.075,0.34589282,-0.39592066,-0.376907,1.0510529,0.22241086,-0.13704723,-0.34331182,0.5859977,0.6220893,0.27430362,0.047574535,1.1006832,0.6342249,-0.09725428,-0.13736318,0.72912246,0.26743212,-0.52399975,-0.41233337,0.47097498,806.26373,803.8461,805.8608,817.1429,665.2381,-0.302734375,0.03582763671875,0.9454345703125,1.323394775390625,-3.327178955078125,1.293487548828125,1.0,1.0,1.0,1.0,1.0,75.0,event
15:33:59.077,0.31811425,-0.21171145,-0.316623,1.0585128,0.13487706,-0.039728962,-0.30020618,0.5757473,0.574219,0.3507921,0.09022824,1.10049,0.62633866,-0.10100868,-0.1235896,0.73999506,0.279416,-0.5372794,-0.41990426,0.48481867,812.3077,806.6667,800.2198,806.6667,757.9121,-0.302734375,0.03582763671875,0.9454345703125,1.323394775390625,-3.327178955078125,1.293487548828125,1.0,1.0,1.0,1.0,1.0,75.0,event
15:33:59.081,0.31811425,-0.21171145,-0.316623,1.0585128,0.13487706,-0.039728962,-0.30020618,0.5757473,0.574219,0.3507921,0.09022824,1.10049,0.62633866,-0.10100868,-0.1235896,0.73999506,0.279416,-0.5372794,-0.41990426,0.48481867,803.44324,807.47253,803.44324,800.2198,810.293,-0.302734375,0.03582763671875,0.9454345703125,1.323394775390625,-3.327178955078125,1.293487548828125,1.0,1.0,1.0,1.0,1.0,75.0,event
15:33:59.081,0.31811425,-0.21171145,-0.316623,1.0585128,0.13487706,-0.039728962,-0.30020618,0.5757473,0.574219,0.3507921,0.09022824,1.10049,0.62633866,-0.10100868,-0.1235896,0.73999506,0.279416,-0.5372794,-0.41990426,0.48481867,793.7729,808.68134,801.4286,807.8755,736.55676,-0.302734375,0.03582763671875,0.9454345703125,1.323394775390625,-3.327178955078125,1.293487548828125,1.0,1.0,1.0,1.0,1.0,75.0,event
15:33:59.082,0.31811425,-0.21171145,-0.316623,1.0585128,0.13487706,-0.039728962,-0.30020618,0.5757473,0.574219,0.3507921,0.09022824,1.10049,0.62633866,-0.10100868,-0.1235896,0.73999506,0.279416,-0.5372794,-0.41990426,0.48481867,792.1612,810.696,801.4286,818.3516,728.49817,-0.302734375,0.03582763671875,0.9454345703125,1.323394775390625,-3.327178955078125,1.293487548828125,1.0,1.0,1.0,1.0,1.0,75.0,event
15:33:59.083,0.31811425,-0.21171145,-0.316623,1.0585128,0.13487706,-0.039728962,-0.30020618,0.5757473,0.574219,0.3507921,0.09022824,1.10049,0.62633866,-0.10100868,-0.1235896,0.73999506,0.279416,-0.5372794,-0.41990426,0.48481867,797.8022,810.293,803.8461,809.4872,856.2271,-0.302734375,0.03582763671875,0.9454345703125,1.323394775390625,-3.327178955078125,1.293487548828125,1.0,1.0,1.0,1.0,1.0,75.0,event
15:33:59.083,0.31811425,-0.21171145,-0.316623,1.0585128,0.13487706,-0.039728962,-0.30020618,0.5757473,0.574219,0.3507921,0.09022824,1.10049,0.62633866,-0.10100868,-0.1235896,0.73999506,0.279416,-0.5372794,-0.41990426,0.48481867,812.3077,811.0989,798.60803,798.60803,804.2491,-0.302734375,0.03582763671875,0.9454345703125,1.323394775390625,-3.327178955078125,1.293487548828125,1.0,1.0,1.0,1.0,1.0,75.0,event
15:33:59.084,0.31811425,-0.21171145,-0.316623,1.0585128,0.13487706,-0.039728962,-0.30020618,0.5757473,0.574219,0.3507921,0.09022824,1.10049,0.62633866,-0.10100868,-0.1235896,0.73999506,0.279416,-0.5372794,-0.41990426,0.48481867,815.5311,810.293,801.4286,806.6667,763.5531,-0.302734375,0.03582763671875,0.9454345703125,1.323394775390625,-3.327178955078125,1.293487548828125,1.0,1.0,1.0,1.0,1.0,75.0,event
15:33:59.084,0.31811425,-0.21171145,-0.316623,1.0585128,0.13487706,-0.039728962,-0.30020618,0.5757473,0.574219,0.3507921,0.09022824,1.10049,0.62633866,-0.10100868,-0.1235896,0.73999506,0.279416,-0.5372794,-0.41990426,0.48481867,805.4579,806.26373,803.44324,809.0842,796.1905,-0.302734375,0.03582763671875,0.9454345703125,1.323394775390625,-3.327178955078125,1.293487548828125,1.0,1.0,1.0,1.0,1.0,75.0,event
15:33:59.085,0.31811425,-0.21171145,-0.316623,1.0585128,0.13487706,-0.039728962,-0.30020618,0.5757473,0.574219,0.3507921,0.09022824,1.10049,0.62633866,-0.10100868,-0.1235896,0.73999506,0.279416,-0.5372794,-0.41990426,0.48481867,816.7399,808.2784,804.2491,813.1135,850.989,-0.302734375,0.03582763671875,0.9454345703125,1.323394775390625,-3.327178955078125,1.293487548828125,1.0,1.0,1.0,1.0,1.0,75.0,event
15:33:59.085,0.31811425,-0.21171145,-0.316623,1.0585128,0.13487706,-0.039728962,-0.30020618,0.5757473,0.574219,0.3507921,0.09022824,1.10049,0.62633866,-0.10100868,-0.1235896,0.73999506,0.279416,-0.5372794,-0.41990426,0.48481867,805.05493,809.89014,805.05493,803.44324,794.17584,-0.302734375,0.03582763671875,0.9454345703125,1.323394775390625,-3.327178955078125,1.293487548828125,1.0,1.0,1.0,1.0,1.0,75.0,event
15:33:59.086,0.31811425,-0.21171145,-0.316623,1.0585128,0.13487706,-0.039728962,-0.30020618,0.5757473,0.574219,0.3507921,0.09022824,1.10049,0.62633866,-0.10100868,-0.1235896,0.73999506,0.279416,-0.5372794,-0.41990426,0.48481867,792.96704,805.05493,804.2491,802.23444,686.1905,-0.302734375,0.03582763671875,0.9454345703125,1.323394775390625,-3.327178955078125,1.293487548828125,1.0,1.0,1.0,1.0,1.0,75.0,event
15:33:59.087,0.31811425,-0.21171145,-0.316623,1.0585128,0.13487706,-0.039728962,-0.30020618,0.5757473,0.574219,0.3507921,0.09022824,1.10049,0.62633866,-0.10100868,-0.1235896,0.73999506,0.279416,-0.5372794,-0.41990426,0.48481867,796.99634,802.6374,798.60803,809.4872,903.7729,-0.2916259765625,0.03173828125,0.94171142578125,1.55517578125,-3.93280029296875,0.186920166015625,1.0,1.0,1.0,1.0,1.0,75.0,event
15:33:59.087,0.31811425,-0.21171145,-0.316623,1.0585128,0.13487706,-0.039728962,-0.30020618,0.5757473,0.574219,0.3507921,0.09022824,1.10049,0.62633866,-0.10100868,-0.1235896,0.73999506,0.279416,-0.5372794,-0.41990426,0.48481867,799.41394,804.2491,800.2198,801.02563,769.19415,-0.2916259765625,0.03173828125,0.94171142578125,1.55517578125,-3.93280029296875,0.186920166015625,1.0,1.0,1.0,1.0,1.0,75.0,event
15:33:59.088,0.31811425,-0.21171145,-0.316623,1.0585128,0.13487706,-0.039728962,-0.30020618,0.5757473,0.574219,0.3507921,0.09022824,1.10049,0.62633866,-0.10100868,-0.1235896,0.73999506,0.279416,-0.5372794,-0.41990426,0.48481867,792.96704,800.6227,801.8315,812.3077,826.4103,-0.2916259765625,0.03173828125,0.94171142578125,1.55517578125,-3.93280029296875,0.186920166015625,1.0,1.0,1.0,1.0,1.0,75.0,event
15:33:59.089,0.31811425,-0.21171145,-0.316623,1.0585128,0.13487706,-0.039728962,-0.30020618,0.5757473,0.574219,0.3507921,0.09022824,1.10049,0.62633866,-0.10100868,-0.1235896,0.73999506,0.279416,-0.5372794,-0.41990426,0.48481867,796.5934,802.6374,800.2198,792.96704,772.01465,-0.2916259765625,0.03173828125,0.94171142578125,1.55517578125,-3.93280029296875,0.186920166015625,1.0,1.0,1.0,1.0,1.0,75.0,event
15:33:59.089,0.31811425,-0.21171145,-0.316623,1.0585128,0.13487706,-0.039728962,-0.30020618,0.5757473,0.574219,0.3507921,0.09022824,1.10049,0.62633866,-0.10100868,-0.1235896,0.73999506,0.279416,-0.5372794,-0.41990426,0.48481867,795.38464,806.6667,797.8022,780.4762,817.1429,-0.2916259765625,0.03173828125,0.94171142578125,1.55517578125,-3.93280029296875,0.186920166015625,1.0,1.0,1.0,1.0,1.0,75.0,event
15:33:59.090,0.31811425,-0.21171145,-0.316623,1.0585128,0.13487706,-0.039728962,-0.30020618,0.5757473,0.574219,0.3507921,0.09022824,1.10049,0.62633866,-0.10100868,-0.1235896,0.73999506,0.279416,-0.5372794,-0.41990426,0.48481867,781.685,805.05493,797.8022,770.40295,917.47253,-0.2916259765625,0.03173828125,0.94171142578125,1.55517578125,-3.93280029296875,0.186920166015625,1.0,1.0,1.0,1.0,1.0,75.0,event
15:33:59.092,0.31811425,-0.21171145,-0.316623,1.0585128,0.13487706,-0.039728962,-0.30020618,0.5757473,0.574219,0.3507921,0.09022824,1.10049,0.62633866,-0.10100868,-0.1235896,0.73999506,0.279416,-0.5372794,-0.41990426,0.48481867,786.52014,803.0403,803.0403,770.0,903.36993,-0.2916259765625,0.03173828125,0.94171142578125,1.55517578125,-3.93280029296875,0.186920166015625,1.0,1.0,1.0,1.0,1.0,75.0,event
15:33:59.092,0.31811425,-0.21171145,-0.316623,1.0585128,0.13487706,-0.039728962,-0.30020618,0.5757473,0.574219,0.3507921,0.09022824,1.10049,0.62633866,-0.10100868,-0.1235896,0.73999506,0.279416,-0.5372794,-0.41990426,0.48481867,795.78754,806.6667,802.23444,790.9524,819.5604,-0.2916259765625,0.03173828125,0.94171142578125,1.55517578125,-3.93280029296875,0.186920166015625,1.0,1.0,1.0,1.0,1.0,75.0,event
15:33:59.093,0.31811425,-0.21171145,-0.316623,1.0585128,0.13487706,-0.039728962,-0.30020618,0.5757473,0.574219,0.3507921,0.09022824,1.10049,0.62633866,-0.10100868,-0.1235896,0.73999506,0.279416,-0.5372794,-0.41990426,0.48481867,783.69965,809.0842,799.41394,784.90845,892.0879,-0.2916259765625,0.03173828125,0.94171142578125,1.55517578125,-3.93280029296875,0.186920166015625,1.0,1.0,1.0,1.0,1.0,75.0,event
15:33:59.094,0.31811425,-0.21171145,-0.316623,1.0585128,0.13487706,-0.039728962,-0.30020618,0.5757473,0.574219,0.3507921,0.09022824,1.10049,0.62633866,-0.10100868,-0.1235896,0.73999506,0.279416,-0.5372794,-0.41990426,0.48481867,796.99634,803.8461,801.8315,788.93774,1181.7949,-0.2916259765625,0.03173828125,0.94171142578125,1.55517578125,-3.93280029296875,0.186920166015625,1.0,1.0,1.0,1.0,1.0,75.0,event
15:33:59.095,0.31811425,-0.21171145,-0.316623,1.0585128,0.13487706,-0.039728962,-0.30020618,0.5757473,0.574219,0.3507921,0.09022824,1.10049,0.62633866,-0.10100868,-0.1235896,0.73999506,0.279416,-0.5372794,-0.41990426,0.48481867,800.6227,803.8461,801.4286,806.26373,1117.7289,-0.2916259765625,0.03173828125,0.94171142578125,1.55517578125,-3.93280029296875,0.186920166015625,1.0,1.0,1.0,1.0,1.0,75.0,event
15:33:59.096,0.31811425,-0.21171145,-0.316623,1.0585128,0.13487706,-0.039728962,-0.30020618,0.5757473,0.574219,0.3507921,0.09022824,1.10049,0.62633866,-0.10100868,-0.1235896,0.73999506,0.279416,-0.5372794,-0.41990426,0.48481867,786.9231,803.8461,798.60803,794.57874,763.1502,-0.2916259765625,0.03173828125,0.94171142578125,1.55517578125,-3.93280029296875,0.186920166015625,1.0,1.0,1.0,1.0,1.0,75.0,event
15:33:59.152,0.31811425,-0.21171145,-0.316623,1.0585128,0.13487706,-0.039728962,-0.30020618,0.5757473,0.574219,0.3507921,0.09022824,1.10049,0.62633866,-0.10100868,-0.1235896,0.73999506,0.279416,-0.5372794,-0.41990426,0.48481867,798.60803,800.6227,797.8022,785.7143,754.68866,-0.290283203125,0.033935546875,0.94342041015625,1.8243408203125,-4.209442138671875,0.2392578125,1.0,1.0,1.0,1.0,1.0,75.0,event
15:33:59.154,0.31811425,-0.21171145,-0.316623,1.0585128,0.13487706,-0.039728962,-0.30020618,0.5757473,0.574219,0.3507921,0.09022824,1.10049,0.62633866,-0.10100868,-0.1235896,0.73999506,0.279416,-0.5372794,-0.41990426,0.48481867,785.31134,808.2784,801.02563,784.90845,768.3883,-0.290283203125,0.033935546875,0.94342041015625,1.8243408203125,-4.209442138671875,0.2392578125,1.0,1.0,1.0,1.0,1.0,75.0,event
15:33:59.154,0.31811425,-0.21171145,-0.316623,1.0585128,0.13487706,-0.039728962,-0.30020618,0.5757473,0.574219,0.3507921,0.09022824,1.10049,0.62633866,-0.10100868,-0.1235896,0.73999506,0.279416,-0.5372794,-0.41990426,0.48481867,782.49084,803.0403,809.0842,785.7143,699.4872,-0.290283203125,0.033935546875,0.94342041015625,1.8243408203125,-4.209442138671875,0.2392578125,1.0,1.0,1.0,1.0,1.0,75.0,event
15:33:59.155,0.2897268,-0.04262173,-0.23369683,1.0804296,0.0972277,0.034950897,-0.2562325,0.59802765,0.53964293,0.384339,0.12257282,1.0991569,0.62411714,-0.10565641,-0.105402164,0.74284065,0.29508644,-0.53493047,-0.42976534,0.48965436,796.5934,801.02563,807.0696,796.99634,727.28937,-0.290283203125,0.033935546875,0.94342041015625,1.8243408203125,-4.209442138671875,0.2392578125,1.0,1.0,1.0,1.0,1.0,75.0,event
15:33:59.160,0.2897268,-0.04262173,-0.23369683,1.0804296,0.0972277,0.034950897,-0.2562325,0.59802765,0.53964293,0.384339,0.12257282,1.0991569,0.62411714,-0.10565641,-0.105402164,0.74284065,0.29508644,-0.53493047,-0.42976534,0.48965436,799.011,805.4579,803.44324,794.17584,751.8681,-0.290283203125,0.033935546875,0.94342041015625,1.8243408203125,-4.209442138671875,0.2392578125,1.0,1.0,1.0,1.0,1.0,75.0,event
15:33:59.160,0.2897268,-0.04262173,-0.23369683,1.0804296,0.0972277,0.034950897,-0.2562325,0.59802765,0.53964293,0.384339,0.12257282,1.0991569,0.62411714,-0.10565641,-0.105402164,0.74284065,0.29508644,-0.53493047,-0.42976534,0.48965436,808.2784,801.02563,807.8755,790.54944,849.7802,-0.290283203125,0.033935546875,0.94342041015625,1.8243408203125,-4.209442138671875,0.2392578125,1.0,1.0,1.0,1.0,1.0,75.0,event
15:33:59.161,0.2897268,-0.04262173,-0.23369683,1.0804296,0.0972277,0.034950897,-0.2562325,0.59802765,0.53964293,0.384339,0.12257282,1.0991569,0.62411714,-0.10565641,-0.105402164,0.74284065,0.29508644,-0.53493047,-0.42976534,0.48965436,805.05493,798.20514,806.6667,802.23444,895.7143,-0.290283203125,0.033935546875,0.94342041015625,1.8243408203125,-4.209442138671875,0.2392578125,1.0,1.0,1.0,1.0,1.0,75.0,event
15:33:59.162,0.2897268,-0.04262173,-0.23369683,1.0804296,0.0972277,0.034950897,-0.2562325,0.59802765,0.53964293,0.384339,0.12257282,1.0991569,0.62411714,-0.10565641,-0.105402164,0.74284065,0.29508644,-0.53493047,-0.42976534,0.48965436,788.1319,797.3993,805.4579,813.91943,784.10254,-0.290283203125,0.033935546875,0.94342041015625,1.8243408203125,-4.209442138671875,0.2392578125,1.0,1.0,1.0,1.0,1.0,75.0,event
15:33:59.162,0.2897268,-0.04262173,-0.23369683,1.0804296,0.0972277,0.034950897,-0.2562325,0.59802765,0.53964293,0.384339,0.12257282,1.0991569,0.62411714,-0.10565641,-0.105402164,0.74284065,0.29508644,-0.53493047,-0.42976534,0.48965436,790.14655,801.4286,804.65204,819.15753,948.0952,-0.290283203125,0.033935546875,0.94342041015625,1.8243408203125,-4.209442138671875,0.2392578125,1.0,1.0,1.0,1.0,1.0,75.0,event
15:33:59.163,0.2897268,-0.04262173,-0.23369683,1.0804296,0.0972277,0.034950897,-0.2562325,0.59802765,0.53964293,0.384339,0.12257282,1.0991569,0.62411714,-0.10565641,-0.105402164,0.74284065,0.29508644,-0.53493047,-0.42976534,0.48965436,809.89014,805.8608,808.68134,826.8132,872.3443,-0.290283203125,0.033935546875,0.94342041015625,1.8243408203125,-4.209442138671875,0.2392578125,1.0,1.0,1.0,1.0,1.0,75.0,event
15:33:59.163,0.2897268,-0.04262173,-0.23369683,1.0804296,0.0972277,0.034950897,-0.2562325,0.59802765,0.53964293,0.384339,0.12257282,1.0991569,0.62411714,-0.10565641,-0.105402164,0.74284065,0.29508644,-0.53493047,-0.42976534,0.48965436,812.71063,808.2784,809.89014,829.6337,654.7619,-0.290283203125,0.033935546875,0.94342041015625,1.8243408203125,-4.209442138671875,0.2392578125,1.0,1.0,1.0,1.0,1.0,75.0,event
15:33:59.164,0.2897268,-0.04262173,-0.23369683,1.0804296,0.0972277,0.034950897,-0.2562325,0.59802765,0.53964293,0.384339,0.12257282,1.0991569,0.62411714,-0.10565641,-0.105402164,0.74284065,0.29508644,-0.53493047,-0.42976534,0.48965436,796.5934,811.9048,807.47253,813.5165,722.0513,-0.290283203125,0.033935546875,0.94342041015625,1.8243408203125,-4.209442138671875,0.2392578125,1.0,1.0,1.0,1.0,1.0,75.0,event
15:33:59.187,0.2897268,-0.04262173,-0.23369683,1.0804296,0.0972277,0.034950897,-0.2562325,0.59802765,0.53964293,0.384339,0.12257282,1.0991569,0.62411714,-0.10565641,-0.105402164,0.74284065,0.29508644,-0.53493047,-0.42976534,0.48965436,807.0696,813.1135,810.293,817.1429,815.12823,-0.2802734375,0.0322265625,0.95477294921875,1.682281494140625,-3.21502685546875,0.441131591796875,1.0,1.0,1.0,1.0,1.0,75.0,event
15:33:59.188,0.2897268,-0.04262173,-0.23369683,1.0804296,0.0972277,0.034950897,-0.2562325,0.59802765,0.53964293,0.384339,0.12257282,1.0991569,0.62411714,-0.10565641,-0.105402164,0.74284065,0.29508644,-0.53493047,-0.42976534,0.48965436,822.7839,810.293,810.696,821.5751,742.6007,-0.2802734375,0.0322265625,0.95477294921875,1.682281494140625,-3.21502685546875,0.441131591796875,1.0,1.0,1.0,1.0,1.0,75.0,event
15:33:59.188,0.2897268,-0.04262173,-0.23369683,1.0804296,0.0972277,0.034950897,-0.2562325,0.59802765,0.53964293,0.384339,0.12257282,1.0991569,0.62411714,-0.10565641,-0.105402164,0.74284065,0.29508644,-0.53493047,-0.42976534,0.48965436,811.9048,803.44324,809.0842,813.91943,691.8315,-0.2802734375,0.0322265625,0.95477294921875,1.682281494140625,-3.21502685546875,0.441131591796875,1.0,1.0,1.0,1.0,1.0,75.0,event
15:33:59.189,0.2897268,-0.04262173,-0.23369683,1.0804296,0.0972277,0.034950897,-0.2562325,0.59802765,0.53964293,0.384339,0.12257282,1.0991569,0.62411714,-0.10565641,-0.105402164,0.74284065,0.29508644,-0.53493047,-0.42976534,0.48965436,805.05493,802.23444,805.8608,820.3663,776.4469,-0.2802734375,0.0322265625,0.95477294921875,1.682281494140625,-3.21502685546875,0.441131591796875,1.0,1.0,1.0,1.0,1.0,75.0,event
15:33:59.189,0.2897268,-0.04262173,-0.23369683,1.0804296,0.0972277,0.034950897,-0.2562325,0.59802765,0.53964293,0.384339,0.12257282,1.0991569,0.62411714,-0.10565641,-0.105402164,0.74284065,0.29508644,-0.53493047,-0.42976534,0.48965436,809.89014,803.44324,809.0842,821.1722,871.53845,-0.2802734375,0.0322265625,0.95477294921875,1.682281494140625,-3.21502685546875,0.441131591796875,1.0,1.0,1.0,1.0,1.0,75.0,event
15:33:59.190,0.2897268,-0.04262173,-0.23369683,1.0804296,0.0972277,0.034950897,-0.2562325,0.59802765,0.53964293,0.384339,0.12257282,1.0991569,0.62411714,-0.10565641,-0.105402164,0.74284065,0.29508644,-0.53493047,-0.42976534,0.48965436,811.0989,803.0403,807.8755,809.0842,846.1539,-0.2802734375,0.0322265625,0.95477294921875,1.682281494140625,-3.21502685546875,0.441131591796875,1.0,1.0,1.0,1.0,1.0,75.0,event
15:33:59.191,0.2897268,-0.04262173,-0.23369683,1.0804296,0.0972277,0.034950897,-0.2562325,0.59802765,0.53964293,0.384339,0.12257282,1.0991569,0.62411714,-0.10565641,-0.105402164,0.74284065,0.29508644,-0.53493047,-0.42976534,0.48965436,803.8461,801.4286,803.44324,807.0696,819.9634,-0.2802734375,0.0322265625,0.95477294921875,1.682281494140625,-3.21502685546875,0.441131591796875,1.0,1.0,1.0,1.0,1.0,75.0,event
15:33:59.191,0.2897268,-0.04262173,-0.23369683,1.0804296,0.0972277,0.034950897,-0.2562325,0.59802765,0.53964293,0.384339,0.12257282,1.0991569,0.62411714,-0.10565641,-0.105402164,0.74284065,0.29508644,-0.53493047,-0.42976534,0.48965436,789.7436,804.65204,800.6227,790.54944,824.3956,-0.2802734375,0.0322265625,0.95477294921875,1.682281494140625,-3.21502685546875,0.441131591796875,1.0,1.0,1.0,1.0,1.0,75.0,event
15:33:59.192,0.2897268,-0.04262173,-0.23369683,1.0804296,0.0972277,0.034950897,-0.2562325,0.59802765,0.53964293,0.384339,0.12257282,1.0991569,0.62411714,-0.10565641,-0.105402164,0.74284065,0.29508644,-0.53493047,-0.42976534,0.48965436,779.2674,805.8608,798.60803,795.38464,767.98535,-0.2802734375,0.0322265625,0.95477294921875,1.682281494140625,-3.21502685546875,0.441131591796875,1.0,1.0,1.0,1.0,1.0,75.0,event
15:33:59.192,0.2897268,-0.04262173,-0.23369683,1.0804296,0.0972277,0.034950897,-0.2562325,0.59802765,0.53964293,0.384339,0.12257282,1.0991569,0.62411714,-0.10565641,-0.105402164,0.74284065,0.29508644,-0.53493047,-0.42976534,0.48965436,801.4286,804.65204,800.2198,790.9524,753.8828,-0.2802734375,0.0322265625,0.95477294921875,1.682281494140625,-3.21502685546875,0.441131591796875,1.0,1.0,1.0,1.0,1.0,75.0,event
15:33:59.193,0.2897268,-0.04262173,-0.23369683,1.0804296,0.0972277,0.034950897,-0.2562325,0.59802765,0.53964293,0.384339,0.12257282,1.0991569,0.62411714,-0.10565641,-0.105402164,0.74284065,0.29508644,-0.53493047,-0.42976534,0.48965436,813.5165,808.2784,801.8315,793.36993,729.707,-0.2802734375,0.0322265625,0.95477294921875,1.682281494140625,-3.21502685546875,0.441131591796875,1.0,1.0,1.0,1.0,1.0,75.0,event
15:33:59.194,0.2897268,-0.04262173,-0.23369683,1.0804296,0.0972277,0.034950897,-0.2562325,0.59802765,0.53964293,0.384339,0.12257282,1.0991569,0.62411714,-0.10565641,-0.105402164,0.74284065,0.29508644,-0.53493047,-0.42976534,0.48965436,801.8315,809.4872,800.6227,807.8755,824.7985,-0.2802734375,0.0322265625,0.95477294921875,1.682281494140625,-3.21502685546875,0.441131591796875,1.0,1.0,1.0,1.0,1.0,75.0,event
15:33:59.219,0.2897268,-0.04262173,-0.23369683,1.0804296,0.0972277,0.034950897,-0.2562325,0.59802765,0.53964293,0.384339,0.12257282,1.0991569,0.62411714,-0.10565641,-0.105402164,0.74284065,0.29508644,-0.53493047,-0.42976534,0.48965436,795.38464,810.696,799.81683,799.81683,981.9414,-0.2802734375,0.0322265625,0.95477294921875,1.682281494140625,-3.21502685546875,0.441131591796875,1.0,1.0,1.0,1.0,1.0,75.0,event
15:33:59.220,0.2897268,-0.04262173,-0.23369683,1.0804296,0.0972277,0.034950897,-0.2562325,0.59802765,0.53964293,0.384339,0.12257282,1.0991569,0.62411714,-0.10565641,-0.105402164,0.74284065,0.29508644,-0.53493047,-0.42976534,0.48965436,793.36993,808.2784,803.44324,786.1172,776.04395,-0.2802734375,0.0322265625,0.95477294921875,1.682281494140625,-3.21502685546875,0.441131591796875,1.0,1.0,1.0,1.0,1.0,75.0,event
15:33:59.221,0.2897268,-0.04262173,-0.23369683,1.0804296,0.0972277,0.034950897,-0.2562325,0.59802765,0.53964293,0.384339,0.12257282,1.0991569,0.62411714,-0.10565641,-0.105402164,0.74284065,0.29508644,-0.53493047,-0.42976534,0.48965436,797.3993,799.81683,801.4286,800.6227,744.61536,-0.2802734375,0.0322265625,0.95477294921875,1.682281494140625,-3.21502685546875,0.441131591796875,1.0,1.0,1.0,1.0,1.0,75.0,event
15:33:59.222,0.2897268,-0.04262173,-0.23369683,1.0804296,0.0972277,0.034950897,-0.2562325,0.59802765,0.53964293,0.384339,0.12257282,1.0991569,0.62411714,-0.10565641,-0.105402164,0.74284065,0.29508644,-0.53493047,-0.42976534,0.48965436,805.4579,802.6374,794.17584,801.8315,915.8608,-0.2802734375,0.0322265625,0.95477294921875,1.682281494140625,-3.21502685546875,0.441131591796875,1.0,1.0,1.0,1.0,1.0,75.0,event
15:33:59.222,0.2897268,-0.04262173,-0.23369683,1.0804296,0.0972277,0.034950897,-0.2562325,0.59802765,0.53964293,0.384339,0.12257282,1.0991569,0.62411714,-0.10565641,-0.105402164,0.74284065,0.29508644,-0.53493047,-0.42976534,0.48965436,801.02563,803.44324,791.3553,790.9524,777.6557,-0.2802734375,0.0322265625,0.95477294921875,1.682281494140625,-3.21502685546875,0.441131591796875,1.0,1.0,1.0,1.0,1.0,75.0,event
15:33:59.223,0.2626698,0.083572574,-0.14018218,1.1174186,0.109668925,0.080337636,-0.21662335,0.6411053,0.4904225,0.394107,0.12503792,1.0991569,0.6247338,-0.10750948,-0.08996546,0.7433794,0.31381658,-0.52275985,-0.441935,0.4879197,782.0879,801.02563,796.1905,757.1062,773.6264,-0.2802734375,0.0322265625,0.95477294921875,1.682281494140625,-3.21502685546875,0.441131591796875,1.0,1.0,1.0,1.0,1.0,75.0,event
15:33:59.227,0.2626698,0.083572574,-0.14018218,1.1174186,0.109668925,0.080337636,-0.21662335,0.6411053,0.4904225,0.394107,0.12503792,1.0991569,0.6247338,-0.10750948,-0.08996546,0.7433794,0.31381658,-0.52275985,-0.441935,0.4879197,778.46155,801.4286,796.1905,742.1978,894.5055,-0.2802734375,0.0322265625,0.95477294921875,1.682281494140625,-3.21502685546875,0.441131591796875,1.0,1.0,1.0,1.0,1.0,75.0,event
15:33:59.228,0.2626698,0.083572574,-0.14018218,1.1174186,0.109668925,0.080337636,-0.21662335,0.6411053,0.4904225,0.394107,0.12503792,1.0991569,0.6247338,-0.10750948,-0.08996546,0.7433794,0.31381658,-0.52275985,-0.441935,0.4879197,786.9231,799.81683,791.3553,786.9231,1045.6044,-0.2802734375,0.0322265625,0.95477294921875,1.682281494140625,-3.21502685546875,0.441131591796875,1.0,1.0,1.0,1.0,1.0,75.0,event
15:33:59.228,0.2626698,0.083572574,-0.14018218,1.1174186,0.109668925,0.080337636,-0.21662335,0.6411053,0.4904225,0.394107,0.12503792,1.0991569,0.6247338,-0.10750948,-0.08996546,0.7433794,0.31381658,-0.52275985,-0.441935,0.4879197,797.3993,800.2198,796.99634,801.4286,975.09155,-0.2802734375,0.0322265625,0.95477294921875,1.682281494140625,-3.21502685546875,0.441131591796875,1.0,1.0,1.0,1.0,1.0,75.0,event
15:33:59.229,0.2626698,0.083572574,-0.14018218,1.1174186,0.109668925,0.080337636,-0.21662335,0.6411053,0.4904225,0.394107,0.12503792,1.0991569,0.6247338,-0.10750948,-0.08996546,0.7433794,0.31381658,-0.52275985,-0.441935,0.4879197,798.60803,801.4286,806.26373,796.1905,639.85345,-0.2802734375,0.0322265625,0.95477294921875,1.682281494140625,-3.21502685546875,0.441131591796875,1.0,1.0,1.0,1.0,1.0,75.0,event
15:33:59.230,0.2626698,0.083572574,-0.14018218,1.1174186,0.109668925,0.080337636,-0.21662335,0.6411053,0.4904225,0.394107,0.12503792,1.0991569,0.6247338,-0.10750948,-0.08996546,0.7433794,0.31381658,-0.52275985,-0.441935,0.4879197,778.0586,800.2198,803.0403,765.56775,620.9158,-0.2802734375,0.0322265625,0.95477294921875,1.682281494140625,-3.21502685546875,0.441131591796875,1.0,1.0,1.0,1.0,1.0,75.0,event
15:33:59.231,0.2626698,0.083572574,-0.14018218,1.1174186,0.109668925,0.080337636,-0.21662335,0.6411053,0.4904225,0.394107,0.12503792,1.0991569,0.6247338,-0.10750948,-0.08996546,0.7433794,0.31381658,-0.52275985,-0.441935,0.4879197,781.28204,797.3993,803.8461,791.75824,708.3516,-0.2802734375,0.0322265625,0.95477294921875,1.682281494140625,-3.21502685546875,0.441131591796875,1.0,1.0,1.0,1.0,1.0,75.0,event
15:33:59.294,0.2626698,0.083572574,-0.14018218,1.1174186,0.109668925,0.080337636,-0.21662335,0.6411053,0.4904225,0.394107,0.12503792,1.0991569,0.6247338,-0.10750948,-0.08996546,0.7433794,0.31381658,-0.52275985,-0.441935,0.4879197,785.31134,796.99634,803.8461,809.89014,705.12823,-0.29827880859375,0.03155517578125,0.9393310546875,1.54022216796875,-2.9608154296875,1.2261962890625,1.0,1.0,1.0,1.0,1.0,75.0,event
15:33:59.295,0.2626698,0.083572574,-0.14018218,1.1174186,0.109668925,0.080337636,-0.21662335,0.6411053,0.4904225,0.394107,0.12503792,1.0991569,0.6247338,-0.10750948,-0.08996546,0.7433794,0.31381658,-0.52275985,-0.441935,0.4879197,788.1319,804.2491,807.8755,801.4286,657.98535,-0.29827880859375,0.03155517578125,0.9393310546875,1.54022216796875,-2.9608154296875,1.2261962890625,1.0,1.0,1.0,1.0,1.0,75.0,event
15:33:59.296,0.2626698,0.083572574,-0.14018218,1.1174186,0.109668925,0.080337636,-0.21662335,0.6411053,0.4904225,0.394107,0.12503792,1.0991569,0.6247338,-0.10750948,-0.08996546,0.7433794,0.31381658,-0.52275985,-0.441935,0.4879197,786.1172,805.4579,807.0696,775.2381,685.78754,-0.29827880859375,0.03155517578125,0.9393310546875,1.54022216796875,-2.9608154296875,1.2261962890625,1.0,1.0,1.0,1.0,1.0,75.0,event
15:33:59.297,0.2626698,0.083572574,-0.14018218,1.1174186,0.109668925,0.080337636,-0.21662335,0.6411053,0.4904225,0.394107,0.12503792,1.0991569,0.6247338,-0.10750948,-0.08996546,0.7433794,0.31381658,-0.52275985,-0.441935,0.4879197,768.7912,804.2491,795.78754,742.6007,698.2784,-0.29827880859375,0.03155517578125,0.9393310546875,1.54022216796875,-2.9608154296875,1.2261962890625,1.0,1.0,1.0,1.0,1.0,75.0,event
15:33:59.298,0.2626698,0.083572574,-0.14018218,1.1174186,0.109668925,0.080337636,-0.21662335,0.6411053,0.4904225,0.394107,0.12503792,1.0991569,0.6247338,-0.10750948,-0.08996546,0.7433794,0.31381658,-0.52275985,-0.441935,0.4879197,783.2967,801.4286,796.99634,774.43225,672.0879,-0.29827880859375,0.03155517578125,0.9393310546875,1.54022216796875,-2.9608154296875,1.2261962890625,1.0,1.0,1.0,1.0,1.0,75.0,event
15:33:59.298,0.2626698,0.083572574,-0.14018218,1.1174186,0.109668925,0.080337636,-0.21662335,0.6411053,0.4904225,0.394107,0.12503792,1.0991569,0.6247338,-0.10750948,-0.08996546,0.7433794,0.31381658,-0.52275985,-0.441935,0.4879197,802.6374,807.0696,803.44324,803.0403,827.2161,-0.29827880859375,0.03155517578125,0.9393310546875,1.54022216796875,-2.9608154296875,1.2261962890625,1.0,1.0,1.0,1.0,1.0,75.0,event
15:33:59.299,0.2626698,0.083572574,-0.14018218,1.1174186,0.109668925,0.080337636,-0.21662335,0.6411053,0.4904225,0.394107,0.12503792,1.0991569,0.6247338,-0.10750948,-0.08996546,0.7433794,0.31381658,-0.52275985,-0.441935,0.4879197,798.20514,811.50183,807.0696,817.1429,978.71796,-0.29827880859375,0.03155517578125,0.9393310546875,1.54022216796875,-2.9608154296875,1.2261962890625,1.0,1.0,1.0,1.0,1.0,75.0,event
15:33:59.300,0.2626698,0.083572574,-0.14018218,1.1174186,0.109668925,0.080337636,-0.21662335,0.6411053,0.4904225,0.394107,0.12503792,1.0991569,0.6247338,-0.10750948,-0.08996546,0.7433794,0.31381658,-0.52275985,-0.441935,0.4879197,788.5348,800.6227,807.0696,829.6337,1048.8279,-0.29827880859375,0.03155517578125,0.9393310546875,1.54022216796875,-2.9608154296875,1.2261962890625,1.0,1.0,1.0,1.0,1.0,75.0,event
15:33:59.301,0.2626698,0.083572574,-0.14018218,1.1174186,0.109668925,0.080337636,-0.21662335,0.6411053,0.4904225,0.394107,0.12503792,1.0991569,0.6247338,-0.10750948,-0.08996546,0.7433794,0.31381658,-0.52275985,-0.441935,0.4879197,802.23444,798.60803,803.0403,825.2015,797.3993,-0.29827880859375,0.03155517578125,0.9393310546875,1.54022216796875,-2.9608154296875,1.2261962890625,1.0,1.0,1.0,1.0,1.0,75.0,event
15:33:59.301,0.2626698,0.083572574,-0.14018218,1.1174186,0.109668925,0.080337636,-0.21662335,0.6411053,0.4904225,0.394107,0.12503792,1.0991569,0.6247338,-0.10750948,-0.08996546,0.7433794,0.31381658,-0.52275985,-0.441935,0.4879197,810.696,807.47253,798.60803,792.96704,694.2491,-0.29827880859375,0.03155517578125,0.9393310546875,1.54022216796875,-2.9608154296875,1.2261962890625,1.0,1.0,1.0,1.0,1.0,75.0,event
15:33:59.302,0.2626698,0.083572574,-0.14018218,1.1174186,0.109668925,0.080337636,-0.21662335,0.6411053,0.4904225,0.394107,0.12503792,1.0991569,0.6247338,-0.10750948,-0.08996546,0.7433794,0.31381658,-0.52275985,-0.441935,0.4879197,809.4872,811.50183,798.60803,783.2967,882.4176,-0.29827880859375,0.03155517578125,0.9393310546875,1.54022216796875,-2.9608154296875,1.2261962890625,1.0,1.0,1.0,1.0,1.0,75.0,event
15:33:59.303,0.2626698,0.083572574,-0.14018218,1.1174186,0.109668925,0.080337636,-0.21662335,0.6411053,0.4904225,0.394107,0.12503792,1.0991569,0.6247338,-0.10750948,-0.08996546,0.7433794,0.31381658,-0.52275985,-0.441935,0.4879197,796.5934,805.8608,798.20514,795.38464,875.16486,-0.29827880859375,0.03155517578125,0.9393310546875,1.54022216796875,-2.9608154296875,1.2261962890625,1.0,1.0,1.0,1.0,1.0,75.0,event
15:33:59.332,0.2626698,0.083572574,-0.14018218,1.1174186,0.109668925,0.080337636,-0.21662335,0.6411053,0.4904225,0.394107,0.12503792,1.0991569,0.6247338,-0.10750948,-0.08996546,0.7433794,0.31381658,-0.52275985,-0.441935,0.4879197,788.93774,800.2198,803.8461,802.6374,761.9414,-0.300537109375,0.02935791015625,0.93585205078125,1.42059326171875,-2.459869384765625,0.261688232421875,1.0,1.0,1.0,1.0,1.0,75.0,event
15:33:59.333,0.2626698,0.083572574,-0.14018218,1.1174186,0.109668925,0.080337636,-0.21662335,0.6411053,0.4904225,0.394107,0.12503792,1.0991569,0.6247338,-0.10750948,-0.08996546,0.7433794,0.31381658,-0.52275985,-0.441935,0.4879197,807.0696,804.2491,806.26373,833.663,703.1135,-0.300537109375,0.02935791015625,0.93585205078125,1.42059326171875,-2.459869384765625,0.261688232421875,1.0,1.0,1.0,1.0,1.0,75.0,event
15:33:59.334,0.2626698,0.083572574,-0.14018218,1.1174186,0.109668925,0.080337636,-0.21662335,0.6411053,0.4904225,0.394107,0.12503792,1.0991569,0.6247338,-0.10750948,-0.08996546,0.7433794,0.31381658,-0.52275985,-0.441935,0.4879197,821.1722,813.5165,806.26373,835.6777,703.5165,-0.300537109375,0.02935791015625,0.93585205078125,1.42059326171875,-2.459869384765625,0.261688232421875,1.0,1.0,1.0,1.0,1.0,75.0,event
15:33:59.334,0.2626698,0.083572574,-0.14018218,1.1174186,0.109668925,0.080337636,-0.21662335,0.6411053,0.4904225,0.394107,0.12503792,1.0991569,0.6247338,-0.10750948,-0.08996546,0.7433794,0.31381658,-0.52275985,-0.441935,0.4879197,820.7692,817.1429,806.6667,819.15753,683.7729,-0.300537109375,0.02935791015625,0.93585205078125,1.42059326171875,-2.459869384765625,0.261688232421875,1.0,1.0,1.0,1.0,1.0,75.0,event
15:33:59.335,0.2626698,0.083572574,-0.14018218,1.1174186,0.109668925,0.080337636,-0.21662335,0.6411053,0.4904225,0.394107,0.12503792,1.0991569,0.6247338,-0.10750948,-0.08996546,0.7433794,0.31381658,-0.52275985,-0.441935,0.4879197,824.3956,812.71063,799.81683,808.68134,678.5348,-0.300537109375,0.02935791015625,0.93585205078125,1.42059326171875,-2.459869384765625,0.261688232421875,1.0,1.0,1.0,1.0,1.0,75.0,event
15:33:59.336,0.2626698,0.083572574,-0.14018218,1.1174186,0.109668925,0.080337636,-0.21662335,0.6411053,0.4904225,0.394107,0.12503792,1.0991569,0.6247338,-0.10750948,-0.08996546,0.7433794,0.31381658,-0.52275985,-0.441935,0.4879197,830.4396,809.89014,801.8315,810.293,825.6044,-0.300537109375,0.02935791015625,0.93585205078125,1.42059326171875,-2.459869384765625,0.261688232421875,1.0,1.0,1.0,1.0,1.0,75.0,event
15:33:59.337,0.2626698,0.083572574,-0.14018218,1.1174186,0.109668925,0.080337636,-0.21662335,0.6411053,0.4904225,0.394107,0.12503792,1.0991569,0.6247338,-0.10750948,-0.08996546,0.7433794,0.31381658,-0.52275985,-0.441935,0.4879197,814.3223,805.8608,803.8461,817.9487,890.07324,-0.300537109375,0.02935791015625,0.93585205078125,1.42059326171875,-2.459869384765625,0.261688232421875,1.0,1.0,1.0,1.0,1.0,75.0,event
15:33:59.337,0.24374725,0.16484992,-0.06352081,1.1665052,0.14669411,0.101385675,-0.18106869,0.69325197,0.40659437,0.39206773,0.13592911,1.0991569,0.630661,-0.10078802,-0.084394045,0.7524157,0.33562902,-0.5088929,-0.45466092,0.49315906,808.68134,807.47253,802.6374,818.7546,752.27106,-0.300537109375,0.02935791015625,0.93585205078125,1.42059326171875,-2.459869384765625,0.261688232421875,1.0,1.0,1.0,1.0,1.0,75.0,event
15:33:59.343,0.24374725,0.16484992,-0.06352081,1.1665052,0.14669411,0.101385675,-0.18106869,0.69325197,0.40659437,0.39206773,0.13592911,1.0991569,0.630661,-0.10078802,-0.084394045,0.7524157,0.33562902,-0.5088929,-0.45466092,0.49315906,809.0842,803.0403,801.4286,807.47253,772.4176,-0.300537109375,0.02935791015625,0.93585205078125,1.42059326171875,-2.459869384765625,0.261688232421875,1.0,1.0,1.0,1.0,1.0,75.0,event
15:33:59.343,0.24374725,0.16484992,-0.06352081,1.1665052,0.14669411,0.101385675,-0.18106869,0.69325197,0.40659437,0.39206773,0.13592911,1.0991569,0.630661,-0.10078802,-0.084394045,0.7524157,0.33562902,-0.5088929,-0.45466092,0.49315906,809.89014,799.41394,804.2491,795.78754,911.8315,-0.300537109375,0.02935791015625,0.93585205078125,1.42059326171875,-2.459869384765625,0.261688232421875,1.0,1.0,1.0,1.0,1.0,75.0,event
15:33:59.344,0.24374725,0.16484992,-0.06352081,1.1665052,0.14669411,0.101385675,-0.18106869,0.69325197,0.40659437,0.39206773,0.13592911,1.0991569,0.630661,-0.10078802,-0.084394045,0.7524157,0.33562902,-0.5088929,-0.45466092,0.49315906,811.50183,808.2784,807.47253,804.2491,1093.956,-0.300537109375,0.02935791015625,0.93585205078125,1.42059326171875,-2.459869384765625,0.261688232421875,1.0,1.0,1.0,1.0,1.0,75.0,event
15:33:59.345,0.24374725,0.16484992,-0.06352081,1.1665052,0.14669411,0.101385675,-0.18106869,0.69325197,0.40659437,0.39206773,0.13592911,1.0991569,0.630661,-0.10078802,-0.084394045,0.7524157,0.33562902,-0.5088929,-0.45466092,0.49315906,811.0989,812.71063,799.011,815.12823,942.4542,-0.300537109375,0.02935791015625,0.93585205078125,1.42059326171875,-2.459869384765625,0.261688232421875,1.0,1.0,1.0,1.0,1.0,75.0,event
15:33:59.375,0.24374725,0.16484992,-0.06352081,1.1665052,0.14669411,0.101385675,-0.18106869,0.69325197,0.40659437,0.39206773,0.13592911,1.0991569,0.630661,-0.10078802,-0.084394045,0.7524157,0.33562902,-0.5088929,-0.45466092,0.49315906,819.15753,808.68134,797.8022,821.1722,670.87915,-0.30010986328125,0.02880859375,0.9461669921875,1.188812255859375,-1.742095947265625,-0.186920166015625,1.0,1.0,1.0,1.0,1.0,75.0,event
15:33:59.376,0.24374725,0.16484992,-0.06352081,1.1665052,0.14669411,0.101385675,-0.18106869,0.69325197,0.40659437,0.39206773,0.13592911,1.0991569,0.630661,-0.10078802,-0.084394045,0.7524157,0.33562902,-0.5088929,-0.45466092,0.49315906,826.4103,806.26373,805.05493,816.337,732.52747,-0.30010986328125,0.02880859375,0.9461669921875,1.188812255859375,-1.742095947265625,-0.186920166015625,1.0,1.0,1.0,1.0,1.0,75.0,event
15:33:59.377,0.24374725,0.16484992,-0.06352081,1.1665052,0.14669411,0.101385675,-0.18106869,0.69325197,0.40659437,0.39206773,0.13592911,1.0991569,0.630661,-0.10078802,-0.084394045,0.7524157,0.33562902,-0.5088929,-0.45466092,0.49315906,822.381,805.8608,800.2198,798.20514,766.3736,-0.30010986328125,0.02880859375,0.9461669921875,1.188812255859375,-1.742095947265625,-0.186920166015625,1.0,1.0,1.0,1.0,1.0,75.0,event
15:33:59.377,0.24374725,0.16484992,-0.06352081,1.1665052,0.14669411,0.101385675,-0.18106869,0.69325197,0.40659437,0.39206773,0.13592911,1.0991569,0.630661,-0.10078802,-0.084394045,0.7524157,0.33562902,-0.5088929,-0.45466092,0.49315906,803.0403,807.8755,795.38464,797.3993,720.0366,-0.30010986328125,0.02880859375,0.9461669921875,1.188812255859375,-1.742095947265625,-0.186920166015625,1.0,1.0,1.0,1.0,1.0,75.0,event
15:33:59.378,0.24374725,0.16484992,-0.06352081,1.1665052,0.14669411,0.101385675,-0.18106869,0.69325197,0.40659437,0.39206773,0.13592911,1.0991569,0.630661,-0.10078802,-0.084394045,0.7524157,0.33562902,-0.5088929,-0.45466092,0.49315906,801.8315,810.293,799.41394,803.0403,694.2491,-0.30010986328125,0.02880859375,0.9461669921875,1.188812255859375,-1.742095947265625,-0.186920166015625,1.0,1.0,1.0,1.0,1.0,75.0,event
15:33:59.379,0.24374725,0.16484992,-0.06352081,1.1665052,0.14669411,0.101385675,-0.18106869,0.69325197,0.40659437,0.39206773,0.13592911,1.0991569,0.630661,-0.10078802,-0.084394045,0.7524157,0.33562902,-0.5088929,-0.45466092,0.49315906,808.2784,806.6667,799.011,804.65204,862.27106,-0.30010986328125,0.02880859375,0.9461669921875,1.188812255859375,-1.742095947265625,-0.186920166015625,1.0,1.0,1.0,1.0,1.0,75.0,event
15:33:59.379,0.24374725,0.16484992,-0.06352081,1.1665052,0.14669411,0.101385675,-0.18106869,0.69325197,0.40659437,0.39206773,0.13592911,1.0991569,0.630661,-0.10078802,-0.084394045,0.7524157,0.33562902,-0.5088929,-0.45466092,0.49315906,801.4286,802.23444,799.81683,813.1135,1016.1905,-0.30010986328125,0.02880859375,0.9461669921875,1.188812255859375,-1.742095947265625,-0.186920166015625,1.0,1.0,1.0,1.0,1.0,75.0,event
15:33:59.380,0.24374725,0.16484992,-0.06352081,1.1665052,0.14669411,0.101385675,-0.18106869,0.69325197,0.40659437,0.39206773,0.13592911,1.0991569,0.630661,-0.10078802,-0.084394045,0.7524157,0.33562902,-0.5088929,-0.45466092,0.49315906,811.0989,806.26373,805.05493,804.2491,807.8755,-0.30010986328125,0.02880859375,0.9461669921875,1.188812255859375,-1.742095947265625,-0.186920166015625,1.0,1.0,1.0,1.0,1.0,75.0,event
15:33:59.380,0.24374725,0.16484992,-0.06352081,1.1665052,0.14669411,0.101385675,-0.18106869,0.69325197,0.40659437,0.39206773,0.13592911,1.0991569,0.630661,-0.10078802,-0.084394045,0.7524157,0.33562902,-0.5088929,-0.45466092,0.49315906,817.1429,807.0696,800.6227,794.17584,673.69965,-0.30010986328125,0.02880859375,0.9461669921875,1.188812255859375,-1.742095947265625,-0.186920166015625,1.0,1.0,1.0,1.0,1.0,75.0,event
15:33:59.381,0.24374725,0.16484992,-0.06352081,1.1665052,0.14669411,0.101385675,-0.18106869,0.69325197,0.40659437,0.39206773,0.13592911,1.0991569,0.630661,-0.10078802,-0.084394045,0.7524157,0.33562902,-0.5088929,-0.45466092,0.49315906,807.8755,809.0842,797.8022,806.6667,756.7033,-0.30010986328125,0.02880859375,0.9461669921875,1.188812255859375,-1.742095947265625,-0.186920166015625,1.0,1.0,1.0,1.0,1.0,75.0,event
15:33:59.382,0.24374725,0.16484992,-0.06352081,1.1665052,0.14669411,0.101385675,-0.18106869,0.69325197,0.40659437,0.39206773,0.13592911,1.0991569,0.630661,-0.10078802,-0.084394045,0.7524157,0.33562902,-0.5088929,-0.45466092,0.49315906,800.2198,813.1135,804.2491,818.7546,776.04395,-0.30010986328125,0.02880859375,0.9461669921875,1.188812255859375,-1.742095947265625,-0.186920166015625,1.0,1.0,1.0,1.0,1.0,75.0,event
15:33:59.382,0.24374725,0.16484992,-0.06352081,1.1665052,0.14669411,0.101385675,-0.18106869,0.69325197,0.40659437,0.39206773,0.13592911,1.0991569,0.630661,-0.10078802,-0.084394045,0.7524157,0.33562902,-0.5088929,-0.45466092,0.49315906,797.8022,806.6667,802.6374,808.2784,757.1062,-0.30010986328125,0.02880859375,0.9461669921875,1.188812255859375,-1.742095947265625,-0.186920166015625,1.0,1.0,1.0,1.0,1.0,75.0,event
15:33:59.410,0.24374725,0.16484992,-0.06352081,1.1665052,0.14669411,0.101385675,-0.18106869,0.69325197,0.40659437,0.39206773,0.13592911,1.0991569,0.630661,-0.10078802,-0.084394045,0.7524157,0.33562902,-0.5088929,-0.45466092,0.49315906,793.7729,797.8022,799.81683,801.02563,765.56775,-0.2967529296875,0.02313232421875,0.95416259765625,1.054229736328125,-3.48419189453125,0.650482177734375,1.0,1.0,1.0,1.0,1.0,75.0,event
15:33:59.411,0.24374725,0.16484992,-0.06352081,1.1665052,0.14669411,0.101385675,-0.18106869,0.69325197,0.40659437,0.39206773,0.13592911,1.0991569,0.630661,-0.10078802,-0.084394045,0.7524157,0.33562902,-0.5088929,-0.45466092,0.49315906,795.78754,799.81683,803.0403,809.89014,867.9121,-0.2967529296875,0.02313232421875,0.95416259765625,1.054229736328125,-3.48419189453125,0.650482177734375,1.0,1.0,1.0,1.0,1.0,75.0,event
15:33:59.411,0.24374725,0.16484992,-0.06352081,1.1665052,0.14669411,0.101385675,-0.18106869,0.69325197,0.40659437,0.39206773,0.13592911,1.0991569,0.630661,-0.10078802,-0.084394045,0.7524157,0.33562902,-0.5088929,-0.45466092,0.49315906,787.326,811.50183,799.41394,795.78754,846.9597,-0.2967529296875,0.02313232421875,0.95416259765625,1.054229736328125,-3.48419189453125,0.650482177734375,1.0,1.0,1.0,1.0,1.0,75.0,event
15:33:59.412,0.24374725,0.16484992,-0.06352081,1.1665052,0.14669411,0.101385675,-0.18106869,0.69325197,0.40659437,0.39206773,0.13592911,1.0991569,0.630661,-0.10078802,-0.084394045,0.7524157,0.33562902,-0.5088929,-0.45466092,0.49315906,790.9524,807.0696,800.6227,795.38464,700.293,-0.2967529296875,0.02313232421875,0.95416259765625,1.054229736328125,-3.48419189453125,0.650482177734375,1.0,1.0,1.0,1.0,1.0,75.0,event
15:33:59.412,0.24374725,0.16484992,-0.06352081,1.1665052,0.14669411,0.101385675,-0.18106869,0.69325197,0.40659437,0.39206773,0.13592911,1.0991569,0.630661,-0.10078802,-0.084394045,0.7524157,0.33562902,-0.5088929,-0.45466092,0.49315906,803.8461,803.8461,800.6227,810.293,734.5421,-0.2967529296875,0.02313232421875,0.95416259765625,1.054229736328125,-3.48419189453125,0.650482177734375,1.0,1.0,1.0,1.0,1.0,75.0,event
15:33:59.413,0.24374725,0.16484992,-0.06352081,1.1665052,0.14669411,0.101385675,-0.18106869,0.69325197,0.40659437,0.39206773,0.13592911,1.0991569,0.630661,-0.10078802,-0.084394045,0.7524157,0.33562902,-0.5088929,-0.45466092,0.49315906,797.3993,801.8315,800.6227,806.6667,788.1319,-0.2967529296875,0.02313232421875,0.95416259765625,1.054229736328125,-3.48419189453125,0.650482177734375,1.0,1.0,1.0,1.0,1.0,75.0,event
15:33:59.413,0.24374725,0.16484992,-0.06352081,1.1665052,0.14669411,0.101385675,-0.18106869,0.69325197,0.40659437,0.39206773,0.13592911,1.0991569,0.630661,-0.10078802,-0.084394045,0.7524157,0.33562902,-0.5088929,-0.45466092,0.49315906,792.1612,796.99634,804.2491,796.5934,794.9817,-0.2967529296875,0.02313232421875,0.95416259765625,1.054229736328125,-3.48419189453125,0.650482177734375,1.0,1.0,1.0,1.0,1.0,75.0,event
15:33:59.414,0.24374725,0.16484992,-0.06352081,1.1665052,0.14669411,0.101385675,-0.18106869,0.69325197,0.40659437,0.39206773,0.13592911,1.0991569,0.630661,-0.10078802,-0.084394045,0.7524157,0.33562902,-0.5088929,-0.45466092,0.49315906,780.4762,802.6374,803.44324,783.2967,728.0952,-0.2967529296875,0.02313232421875,0.95416259765625,1.054229736328125,-3.48419189453125,0.650482177734375,1.0,1.0,1.0,1.0,1.0,75.0,event
15:33:59.414,0.24374725,0.16484992,-0.06352081,1.1665052,0.14669411,0.101385675,-0.18106869,0.69325197,0.40659437,0.39206773,0.13592911,1.0991569,0.630661,-0.10078802,-0.084394045,0.7524157,0.33562902,-0.5088929,-0.45466092,0.49315906,770.80585,808.2784,804.65204,783.2967,699.0842,-0.2967529296875,0.02313232421875,0.95416259765625,1.054229736328125,-3.48419189453125,0.650482177734375,1.0,1.0,1.0,1.0,1.0,75.0,event
15:33:59.415,0.2662433,0.20653519,-0.01842593,1.2395008,0.20265178,0.10802706,-0.14551248,0.75320494,0.3485917,0.3781751,0.14687209,1.0991569,0.646643,-0.082856625,-0.08992772,0.7829349,0.35738474,-0.5008255,-0.46550086,0.5247808,790.9524,804.2491,806.6667,786.9231,938.4249,-0.2967529296875,0.02313232421875,0.95416259765625,1.054229736328125,-3.48419189453125,0.650482177734375,1.0,1.0,1.0,1.0,1.0,75.0,event
15:33:59.420,0.2662433,0.20653519,-0.01842593,1.2395008,0.20265178,0.10802706,-0.14551248,0.75320494,0.3485917,0.3781751,0.14687209,1.0991569,0.646643,-0.082856625,-0.08992772,0.7829349,0.35738474,-0.5008255,-0.46550086,0.5247808,781.28204,803.44324,805.8608,789.7436,915.4579,-0.2967529296875,0.02313232421875,0.95416259765625,1.054229736328125,-3.48419189453125,0.650482177734375,1.0,1.0,1.0,1.0,1.0,75.0,event
15:33:59.420,0.2662433,0.20653519,-0.01842593,1.2395008,0.20265178,0.10802706,-0.14551248,0.75320494,0.3485917,0.3781751,0.14687209,1.0991569,0.646643,-0.082856625,-0.08992772,0.7829349,0.35738474,-0.5008255,-0.46550086,0.5247808,766.3736,803.44324,805.8608,769.59705,747.4359,-0.2967529296875,0.02313232421875,0.95416259765625,1.054229736328125,-3.48419189453125,0.650482177734375,1.0,1.0,1.0,1.0,1.0,75.0,event
15:33:59.443,0.2662433,0.20653519,-0.01842593,1.2395008,0.20265178,0.10802706,-0.14551248,0.75320494,0.3485917,0.3781751,0.14687209,1.0991569,0.646643,-0.082856625,-0.08992772,0.7829349,0.35738474,-0.5008255,-0.46550086,0.5247808,770.0,799.011,803.8461,747.03296,728.49817,-0.2967529296875,0.02313232421875,0.95416259765625,1.054229736328125,-3.48419189453125,0.650482177734375,1.0,1.0,1.0,1.0,1.0,75.0,event
15:33:59.444,0.2662433,0.20653519,-0.01842593,1.2395008,0.20265178,0.10802706,-0.14551248,0.75320494,0.3485917,0.3781751,0.14687209,1.0991569,0.646643,-0.082856625,-0.08992772,0.7829349,0.35738474,-0.5008255,-0.46550086,0.5247808,763.5531,803.0403,799.81683,759.12085,757.50916,-0.2967529296875,0.02313232421875,0.95416259765625,1.054229736328125,-3.48419189453125,0.650482177734375,1.0,1.0,1.0,1.0,1.0,75.0,event
15:33:59.444,0.2662433,0.20653519,-0.01842593,1.2395008,0.20265178,0.10802706,-0.14551248,0.75320494,0.3485917,0.3781751,0.14687209,1.0991569,0.646643,-0.082856625,-0.08992772,0.7829349,0.35738474,-0.5008255,-0.46550086,0.5247808,750.2564,806.26373,799.41394,762.3443,716.4103,-0.2967529296875,0.02313232421875,0.95416259765625,1.054229736328125,-3.48419189453125,0.650482177734375,1.0,1.0,1.0,1.0,1.0,75.0,event
15:33:59.445,0.2662433,0.20653519,-0.01842593,1.2395008,0.20265178,0.10802706,-0.14551248,0.75320494,0.3485917,0.3781751,0.14687209,1.0991569,0.646643,-0.082856625,-0.08992772,0.7829349,0.35738474,-0.5008255,-0.46550086,0.5247808,759.12085,799.81683,799.011,759.92676,733.3333,-0.2967529296875,0.02313232421875,0.95416259765625,1.054229736328125,-3.48419189453125,0.650482177734375,1.0,1.0,1.0,1.0,1.0,75.0,event
15:33:59.445,0.2662433,0.20653519,-0.01842593,1.2395008,0.20265178,0.10802706,-0.14551248,0.75320494,0.3485917,0.3781751,0.14687209,1.0991569,0.646643,-0.082856625,-0.08992772,0.7829349,0.35738474,-0.5008255,-0.46550086,0.5247808,762.74725,797.8022,804.65204,766.3736,877.1795,-0.2967529296875,0.02313232421875,0.95416259765625,1.054229736328125,-3.48419189453125,0.650482177734375,1.0,1.0,1.0,1.0,1.0,75.0,event
15:33:59.446,0.2662433,0.20653519,-0.01842593,1.2395008,0.20265178,0.10802706,-0.14551248,0.75320494,0.3485917,0.3781751,0.14687209,1.0991569,0.646643,-0.082856625,-0.08992772,0.7829349,0.35738474,-0.5008255,-0.46550086,0.5247808,750.65936,800.6227,806.26373,761.53845,929.5604,-0.2967529296875,0.02313232421875,0.95416259765625,1.054229736328125,-3.48419189453125,0.650482177734375,1.0,1.0,1.0,1.0,1.0,75.0,event
15:33:59.446,0.2662433,0.20653519,-0.01842593,1.2395008,0.20265178,0.10802706,-0.14551248,0.75320494,0.3485917,0.3781751,0.14687209,1.0991569,0.646643,-0.082856625,-0.08992772,0.7829349,0.35738474,-0.5008255,-0.46550086,0.5247808,765.9707,801.8315,799.41394,757.9121,810.696,-0.2967529296875,0.02313232421875,0.95416259765625,1.054229736328125,-3.48419189453125,0.650482177734375,1.0,1.0,1.0,1.0,1.0,75.0,event
15:33:59.447,0.2662433,0.20653519,-0.01842593,1.2395008,0.20265178,0.10802706,-0.14551248,0.75320494,0.3485917,0.3781751,0.14687209,1.0991569,0.646643,-0.082856625,-0.08992772,0.7829349,0.35738474,-0.5008255,-0.46550086,0.5247808,748.6447,801.8315,794.9817,732.1245,810.293,-0.2967529296875,0.02313232421875,0.95416259765625,1.054229736328125,-3.48419189453125,0.650482177734375,1.0,1.0,1.0,1.0,1.0,75.0,event
15:33:59.447,0.2662433,0.20653519,-0.01842593,1.2395008,0.20265178,0.10802706,-0.14551248,0.75320494,0.3485917,0.3781751,0.14687209,1.0991569,0.646643,-0.082856625,-0.08992772,0.7829349,0.35738474,-0.5008255,-0.46550086,0.5247808,770.40295,799.41394,799.41394,728.0952,685.38464,-0.2967529296875,0.02313232421875,0.95416259765625,1.054229736328125,-3.48419189453125,0.650482177734375,1.0,1.0,1.0,1.0,1.0,75.0,event
15:33:59.448,0.2662433,0.20653519,-0.01842593,1.2395008,0.20265178,0.10802706,-0.14551248,0.75320494,0.3485917,0.3781751,0.14687209,1.0991569,0.646643,-0.082856625,-0.08992772,0.7829349,0.35738474,-0.5008255,-0.46550086,0.5247808,757.1062,802.23444,794.17584,787.326,992.4176,-0.2967529296875,0.02313232421875,0.95416259765625,1.054229736328125,-3.48419189453125,0.650482177734375,1.0,1.0,1.0,1.0,1.0,75.0,event
15:33:59.449,0.2662433,0.20653519,-0.01842593,1.2395008,0.20265178,0.10802706,-0.14551248,0.75320494,0.3485917,0.3781751,0.14687209,1.0991569,0.646643,-0.082856625,-0.08992772,0.7829349,0.35738474,-0.5008255,-0.46550086,0.5247808,767.98535,800.6227,801.8315,801.02563,740.58606,-0.2967529296875,0.02313232421875,0.95416259765625,1.054229736328125,-3.48419189453125,0.650482177734375,1.0,1.0,1.0,1.0,1.0,75.0,event
15:33:59.449,0.2662433,0.20653519,-0.01842593,1.2395008,0.20265178,0.10802706,-0.14551248,0.75320494,0.3485917,0.3781751,0.14687209,1.0991569,0.646643,-0.082856625,-0.08992772,0.7829349,0.35738474,-0.5008255,-0.46550086,0.5247808,765.16486,803.0403,804.2491,782.8938,665.2381,-0.2967529296875,0.02313232421875,0.95416259765625,1.054229736328125,-3.48419189453125,0.650482177734375,1.0,1.0,1.0,1.0,1.0,75.0,event
15:33:59.538,0.2662433,0.20653519,-0.01842593,1.2395008,0.20265178,0.10802706,-0.14551248,0.75320494,0.3485917,0.3781751,0.14687209,1.0991569,0.646643,-0.082856625,-0.08992772,0.7829349,0.35738474,-0.5008255,-0.46550086,0.5247808,769.59705,805.05493,799.81683,780.87915,746.2271,-0.298828125,0.0213623046875,0.94659423828125,1.607513427734375,-1.278533935546875,0.994415283203125,1.0,1.0,1.0,1.0,1.0,75.0,event
15:33:59.539,0.2662433,0.20653519,-0.01842593,1.2395008,0.20265178,0.10802706,-0.14551248,0.75320494,0.3485917,0.3781751,0.14687209,1.0991569,0.646643,-0.082856625,-0.08992772,0.7829349,0.35738474,-0.5008255,-0.46550086,0.5247808,762.3443,805.4579,800.2198,776.04395,727.6923,-0.298828125,0.0213623046875,0.94659423828125,1.607513427734375,-1.278533935546875,0.994415283203125,1.0,1.0,1.0,1.0,1.0,75.0,event
15:33:59.539,0.2662433,0.20653519,-0.01842593,1.2395008,0.20265178,0.10802706,-0.14551248,0.75320494,0.3485917,0.3781751,0.14687209,1.0991569,0.646643,-0.082856625,-0.08992772,0.7829349,0.35738474,-0.5008255,-0.46550086,0.5247808,763.5531,807.8755,802.6374,762.74725,693.8461,-0.298828125,0.0213623046875,0.94659423828125,1.607513427734375,-1.278533935546875,0.994415283203125,1.0,1.0,1.0,1.0,1.0,75.0,event
15:33:59.540,0.2662433,0.20653519,-0.01842593,1.2395008,0.20265178,0.10802706,-0.14551248,0.75320494,0.3485917,0.3781751,0.14687209,1.0991569,0.646643,-0.082856625,-0.08992772,0.7829349,0.35738474,-0.5008255,-0.46550086,0.5247808,790.9524,806.26373,805.4579,766.77655,700.696,-0.298828125,0.0213623046875,0.94659423828125,1.607513427734375,-1.278533935546875,0.994415283203125,1.0,1.0,1.0,1.0,1.0,75.0,event
15:33:59.540,0.2662433,0.20653519,-0.01842593,1.2395008,0.20265178,0.10802706,-0.14551248,0.75320494,0.3485917,0.3781751,0.14687209,1.0991569,0.646643,-0.082856625,-0.08992772,0.7829349,0.35738474,-0.5008255,-0.46550086,0.5247808,785.7143,798.20514,804.65204,782.49084,760.32965,-0.298828125,0.0213623046875,0.94659423828125,1.607513427734375,-1.278533935546875,0.994415283203125,1.0,1.0,1.0,1.0,1.0,75.0,event
15:33:59.541,0.2662433,0.20653519,-0.01842593,1.2395008,0.20265178,0.10802706,-0.14551248,0.75320494,0.3485917,0.3781751,0.14687209,1.0991569,0.646643,-0.082856625,-0.08992772,0.7829349,0.35738474,-0.5008255,-0.46550086,0.5247808,765.16486,801.02563,798.60803,781.28204,785.7143,-0.298828125,0.0213623046875,0.94659423828125,1.607513427734375,-1.278533935546875,0.994415283203125,1.0,1.0,1.0,1.0,1.0,75.0,event
15:33:59.541,0.2662433,0.20653519,-0.01842593,1.2395008,0.20265178,0.10802706,-0.14551248,0.75320494,0.3485917,0.3781751,0.14687209,1.0991569,0.646643,-0.082856625,-0.08992772,0.7829349,0.35738474,-0.5008255,-0.46550086,0.5247808,763.95605,795.78754,799.81683,785.31134,774.0293,-0.298828125,0.0213623046875,0.94659423828125,1.607513427734375,-1.278533935546875,0.994415283203125,1.0,1.0,1.0,1.0,1.0,75.0,event
15:33:59.542,0.2662433,0.20653519,-0.01842593,1.2395008,0.20265178,0.10802706,-0.14551248,0.75320494,0.3485917,0.3781751,0.14687209,1.0991569,0.646643,-0.082856625,-0.08992772,0.7829349,0.35738474,-0.5008255,-0.46550086,0.5247808,787.326,803.44324,799.81683,783.2967,1097.1794,-0.298828125,0.0213623046875,0.94659423828125,1.607513427734375,-1.278533935546875,0.994415283203125,1.0,1.0,1.0,1.0,1.0,75.0,event
15:33:59.542,0.2662433,0.20653519,-0.01842593,1.2395008,0.20265178,0.10802706,-0.14551248,0.75320494,0.3485917,0.3781751,0.14687209,1.0991569,0.646643,-0.082856625,-0.08992772,0.7829349,0.35738474,-0.5008255,-0.46550086,0.5247808,778.86444,806.26373,798.20514,778.46155,904.57874,-0.298828125,0.0213623046875,0.94659423828125,1.607513427734375,-1.278533935546875,0.994415283203125,1.0,1.0,1.0,1.0,1.0,75.0,event
15:33:59.543,0.2662433,0.20653519,-0.01842593,1.2395008,0.20265178,0.10802706,-0.14551248,0.75320494,0.3485917,0.3781751,0.14687209,1.0991569,0.646643,-0.082856625,-0.08992772,0.7829349,0.35738474,-0.5008255,-0.46550086,0.5247808,788.1319,806.26373,800.2198,785.7143,1029.4872,-0.298828125,0.0213623046875,0.94659423828125,1.607513427734375,-1.278533935546875,0.994415283203125,1.0,1.0,1.0,1.0,1.0,75.0,event
15:33:59.543,0.2662433,0.20653519,-0.01842593,1.2395008,0.20265178,0.10802706,-0.14551248,0.75320494,0.3485917,0.3781751,0.14687209,1.0991569,0.646643,-0.082856625,-0.08992772,0.7829349,0.35738474,-0.5008255,-0.46550086,0.5247808,781.28204,810.696,800.2198,763.5531,746.2271,-0.298828125,0.0213623046875,0.94659423828125,1.607513427734375,-1.278533935546875,0.994415283203125,1.0,1.0,1.0,1.0,1.0,75.0,event
15:33:59.544,0.3252872,0.22408655,-0.0027063556,1.2395008,0.2823187,0.10958905,-0.10965048,0.75320494,0.2968153,0.35660228,0.14907041,1.0991569,0.6734978,-0.05958706,-0.1006772,0.7829349,0.37324372,-0.5018425,-0.47016552,0.5247808,761.13556,809.4872,799.011,737.76556,705.12823,-0.298828125,0.0213623046875,0.94659423828125,1.607513427734375,-1.278533935546875,0.994415283203125,1.0,1.0,1.0,1.0,1.0,75.0,event
15:33:59.574,0.3252872,0.22408655,-0.0027063556,1.2395008,0.2823187,0.10958905,-0.10965048,0.75320494,0.2968153,0.35660228,0.14907041,1.0991569,0.6734978,-0.05958706,-0.1006772,0.7829349,0.37324372,-0.5018425,-0.47016552,0.5247808,781.685,806.6667,793.36993,774.43225,772.8205,-0.3082275390625,0.02362060546875,0.9384765625,1.9140625,-2.534637451171875,0.216827392578125,1.0,1.0,1.0,1.0,1.0,75.0,event
15:33:59.575,0.3252872,0.22408655,-0.0027063556,1.2395008,0.2823187,0.10958905,-0.10965048,0.75320494,0.2968153,0.35660228,0.14907041,1.0991569,0.6734978,-0.05958706,-0.1006772,0.7829349,0.37324372,-0.5018425,-0.47016552,0.5247808,799.011,803.0403,798.20514,811.0989,753.0769,-0.3082275390625,0.02362060546875,0.9384765625,1.9140625,-2.534637451171875,0.216827392578125,1.0,1.0,1.0,1.0,1.0,75.0,event
15:33:59.576,0.3252872,0.22408655,-0.0027063556,1.2395008,0.2823187,0.10958905,-0.10965048,0.75320494,0.2968153,0.35660228,0.14907041,1.0991569,0.6734978,-0.05958706,-0.1006772,0.7829349,0.37324372,-0.5018425,-0.47016552,0.5247808,786.1172,801.4286,800.6227,803.44324,705.9341,-0.3082275390625,0.02362060546875,0.9384765625,1.9140625,-2.534637451171875,0.216827392578125,1.0,1.0,1.0,1.0,1.0,75.0,event
15:33:59.577,0.3252872,0.22408655,-0.0027063556,1.2395008,0.2823187,0.10958905,-0.10965048,0.75320494,0.2968153,0.35660228,0.14907041,1.0991569,0.6734978,-0.05958706,-0.1006772,0.7829349,0.37324372,-0.5018425,-0.47016552,0.5247808,786.1172,801.4286,794.17584,796.5934,709.15753,-0.3082275390625,0.02362060546875,0.9384765625,1.9140625,-2.534637451171875,0.216827392578125,1.0,1.0,1.0,1.0,1.0,75.0,event
15:33:59.578,0.3252872,0.22408655,-0.0027063556,1.2395008,0.2823187,0.10958905,-0.10965048,0.75320494,0.2968153,0.35660228,0.14907041,1.0991569,0.6734978,-0.05958706,-0.1006772,0.7829349,0.37324372,-0.5018425,-0.47016552,0.5247808,792.5641,802.6374,793.36993,797.3993,720.84247,-0.3082275390625,0.02362060546875,0.9384765625,1.9140625,-2.534637451171875,0.216827392578125,1.0,1.0,1.0,1.0,1.0,75.0,event
15:33:59.579,0.3252872,0.22408655,-0.0027063556,1.2395008,0.2823187,0.10958905,-0.10965048,0.75320494,0.2968153,0.35660228,0.14907041,1.0991569,0.6734978,-0.05958706,-0.1006772,0.7829349,0.37324372,-0.5018425,-0.47016552,0.5247808,795.78754,801.4286,801.4286,801.02563,819.9634,-0.3082275390625,0.02362060546875,0.9384765625,1.9140625,-2.534637451171875,0.216827392578125,1.0,1.0,1.0,1.0,1.0,75.0,event
15:33:59.580,0.3252872,0.22408655,-0.0027063556,1.2395008,0.2823187,0.10958905,-0.10965048,0.75320494,0.2968153,0.35660228,0.14907041,1.0991569,0.6734978,-0.05958706,-0.1006772,0.7829349,0.37324372,-0.5018425,-0.47016552,0.5247808,808.68134,801.02563,804.65204,784.90845,897.72894,-0.3082275390625,0.02362060546875,0.9384765625,1.9140625,-2.534637451171875,0.216827392578125,1.0,1.0,1.0,1.0,1.0,75.0,event
15:33:59.581,0.3252872,0.22408655,-0.0027063556,1.2395008,0.2823187,0.10958905,-0.10965048,0.75320494,0.2968153,0.35660228,0.14907041,1.0991569,0.6734978,-0.05958706,-0.1006772,0.7829349,0.37324372,-0.5018425,-0.47016552,0.5247808,800.6227,803.0403,800.6227,770.80585,869.5238,-0.3082275390625,0.02362060546875,0.9384765625,1.9140625,-2.534637451171875,0.216827392578125,1.0,1.0,1.0,1.0,1.0,75.0,event
15:33:59.582,0.3252872,0.22408655,-0.0027063556,1.2395008,0.2823187,0.10958905,-0.10965048,0.75320494,0.2968153,0.35660228,0.14907041,1.0991569,0.6734978,-0.05958706,-0.1006772,0.7829349,0.37324372,-0.5018425,-0.47016552,0.5247808,787.72894,803.8461,803.8461,784.5055,1033.9194,-0.3082275390625,0.02362060546875,0.9384765625,1.9140625,-2.534637451171875,0.216827392578125,1.0,1.0,1.0,1.0,1.0,75.0,event
15:33:59.583,0.3252872,0.22408655,-0.0027063556,1.2395008,0.2823187,0.10958905,-0.10965048,0.75320494,0.2968153,0.35660228,0.14907041,1.0991569,0.6734978,-0.05958706,-0.1006772,0.7829349,0.37324372,-0.5018425,-0.47016552,0.5247808,780.07324,799.011,806.26373,791.75824,923.5165,-0.3082275390625,0.02362060546875,0.9384765625,1.9140625,-2.534637451171875,0.216827392578125,1.0,1.0,1.0,1.0,1.0,75.0,event
15:33:59.584,0.3252872,0.22408655,-0.0027063556,1.2395008,0.2823187,0.10958905,-0.10965048,0.75320494,0.2968153,0.35660228,0.14907041,1.0991569,0.6734978,-0.05958706,-0.1006772,0.7829349,0.37324372,-0.5018425,-0.47016552,0.5247808,789.7436,795.78754,807.0696,809.0842,757.1062,-0.3082275390625,0.02362060546875,0.9384765625,1.9140625,-2.534637451171875,0.216827392578125,1.0,1.0,1.0,1.0,1.0,75.0,event
15:33:59.586,0.3252872,0.22408655,-0.0027063556,1.2395008,0.2823187,0.10958905,-0.10965048,0.75320494,0.2968153,0.35660228,0.14907041,1.0991569,0.6734978,-0.05958706,-0.1006772,0.7829349,0.37324372,-0.5018425,-0.47016552,0.5247808,803.44324,796.1905,803.8461,827.2161,809.0842,-0.3082275390625,0.02362060546875,0.9384765625,1.9140625,-2.534637451171875,0.216827392578125,1.0,1.0,1.0,1.0,1.0,75.0,event
15:33:59.636,0.3252872,0.22408655,-0.0027063556,1.2395008,0.2823187,0.10958905,-0.10965048,0.75320494,0.2968153,0.35660228,0.14907041,1.0991569,0.6734978,-0.05958706,-0.1006772,0.7829349,0.37324372,-0.5018425,-0.47016552,0.5247808,804.2491,799.011,799.011,823.5897,787.72894,-0.29791259765625,0.02783203125,0.93487548828125,2.61688232421875,-5.375823974609375,1.398162841796875,1.0,1.0,1.0,1.0,1.0,75.0,event
15:33:59.638,0.3252872,0.22408655,-0.0027063556,1.2395008,0.2823187,0.10958905,-0.10965048,0.75320494,0.2968153,0.35660228,0.14907041,1.0991569,0.6734978,-0.05958706,-0.1006772,0.7829349,0.37324372,-0.5018425,-0.47016552,0.5247808,800.6227,799.011,800.2198,814.3223,720.84247,-0.29791259765625,0.02783203125,0.93487548828125,2.61688232421875,-5.375823974609375,1.398162841796875,1.0,1.0,1.0,1.0,1.0,75.0,event
15:33:59.638,0.3252872,0.22408655,-0.0027063556,1.2395008,0.2823187,0.10958905,-0.10965048,0.75320494,0.2968153,0.35660228,0.14907041,1.0991569,0.6734978,-0.05958706,-0.1006772,0.7829349,0.37324372,-0.5018425,-0.47016552,0.5247808,808.68134,806.26373,803.0403,810.696,763.1502,-0.29791259765625,0.02783203125,0.93487548828125,2.61688232421875,-5.375823974609375,1.398162841796875,1.0,1.0,1.0,1.0,1.0,75.0,event
15:33:59.639,0.3252872,0.22408655,-0.0027063556,1.2395008,0.2823187,0.10958905,-0.10965048,0.75320494,0.2968153,0.35660228,0.14907041,1.0991569,0.6734978,-0.05958706,-0.1006772,0.7829349,0.37324372,-0.5018425,-0.47016552,0.5247808,836.8865,815.12823,803.0403,826.0073,785.31134,-0.29791259765625,0.02783203125,0.93487548828125,2.61688232421875,-5.375823974609375,1.398162841796875,1.0,1.0,1.0,1.0,1.0,75.0,event
15:33:59.639,0.3252872,0.22408655,-0.0027063556,1.2395008,0.2823187,0.10958905,-0.10965048,0.75320494,0.2968153,0.35660228,0.14907041,1.0991569,0.6734978,-0.05958706,-0.1006772,0.7829349,0.37324372,-0.5018425,-0.47016552,0.5247808,829.6337,805.4579,803.44324,818.3516,752.674,-0.29791259765625,0.02783203125,0.93487548828125,2.61688232421875,-5.375823974609375,1.398162841796875,1.0,1.0,1.0,1.0,1.0,75.0,event
15:33:59.640,0.3252872,0.22408655,-0.0027063556,1.2395008,0.2823187,0.10958905,-0.10965048,0.75320494,0.2968153,0.35660228,0.14907041,1.0991569,0.6734978,-0.05958706,-0.1006772,0.7829349,0.37324372,-0.5018425,-0.47016552,0.5247808,809.89014,802.6374,802.23444,817.5458,811.0989,-0.29791259765625,0.02783203125,0.93487548828125,2.61688232421875,-5.375823974609375,1.398162841796875,1.0,1.0,1.0,1.0,1.0,75.0,event
15:33:59.641,0.3252872,0.22408655,-0.0027063556,1.2395008,0.2823187,0.10958905,-0.10965048,0.75320494,0.2968153,0.35660228,0.14907041,1.0991569,0.6734978,-0.05958706,-0.1006772,0.7829349,0.37324372,-0.5018425,-0.47016552,0.5247808,835.2747,809.0842,813.5165,842.52747,1060.9158,-0.29791259765625,0.02783203125,0.93487548828125,2.61688232421875,-5.375823974609375,1.398162841796875,1.0,1.0,1.0,1.0,1.0,75.0,event
15:33:59.641,0.3252872,0.22408655,-0.0027063556,1.2395008,0.2823187,0.10958905,-0.10965048,0.75320494,0.2968153,0.35660228,0.14907041,1.0991569,0.6734978,-0.05958706,-0.1006772,0.7829349,0.37324372,-0.5018425,-0.47016552,0.5247808,802.6374,804.2491,803.8461,826.0073,862.674,-0.29791259765625,0.02783203125,0.93487548828125,2.61688232421875,-5.375823974609375,1.398162841796875,1.0,1.0,1.0,1.0,1.0,75.0,event
15:33:59.642,0.3252872,0.22408655,-0.0027063556,1.2395008,0.2823187,0.10958905,-0.10965048,0.75320494,0.2968153,0.35660228,0.14907041,1.0991569,0.6734978,-0.05958706,-0.1006772,0.7829349,0.37324372,-0.5018425,-0.47016552,0.5247808,849.7802,811.9048,817.9487,856.2271,973.8828,-0.29791259765625,0.02783203125,0.93487548828125,2.61688232421875,-5.375823974609375,1.398162841796875,1.0,1.0,1.0,1.0,1.0,75.0,event
15:33:59.642,0.3252872,0.22408655,-0.0027063556,1.2395008,0.2823187,0.10958905,-0.10965048,0.75320494,0.2968153,0.35660228,0.14907041,1.0991569,0.6734978,-0.05958706,-0.1006772,0.7829349,0.37324372,-0.5018425,-0.47016552,0.5247808,823.1868,803.44324,802.6374,837.28937,705.5311,-0.29791259765625,0.02783203125,0.93487548828125,2.61688232421875,-5.375823974609375,1.398162841796875,1.0,1.0,1.0,1.0,1.0,75.0,event
15:33:59.643,0.3252872,0.22408655,-0.0027063556,1.2395008,0.2823187,0.10958905,-0.10965048,0.75320494,0.2968153,0.35660228,0.14907041,1.0991569,0.6734978,-0.05958706,-0.1006772,0.7829349,0.37324372,-0.5018425,-0.47016552,0.5247808,834.0659,804.2491,796.99634,834.0659,701.9048,-0.29791259765625,0.02783203125,0.93487548828125,2.61688232421875,-5.375823974609375,1.398162841796875,1.0,1.0,1.0,1.0,1.0,75.0,event
15:33:59.643,0.3252872,0.22408655,-0.0027063556,1.2395008,0.2823187,0.10958905,-0.10965048,0.75320494,0.2968153,0.35660228,0.14907041,1.0991569,0.6734978,-0.05958706,-0.1006772,0.7829349,0.37324372,-0.5018425,-0.47016552,0.5247808,838.49817,803.8461,801.4286,835.2747,691.02563,-0.29791259765625,0.02783203125,0.93487548828125,2.61688232421875,-5.375823974609375,1.398162841796875,1.0,1.0,1.0,1.0,1.0,75.0,event
15:33:59.677,0.3252872,0.22408655,-0.0027063556,1.2395008,0.2823187,0.10958905,-0.10965048,0.75320494,0.2968153,0.35660228,0.14907041,1.0991569,0.6734978,-0.05958706,-0.1006772,0.7829349,0.37324372,-0.5018425,-0.47016552,0.5247808,830.84247,800.6227,796.99634,823.9927,724.0659,-0.2978515625,0.02838134765625,0.93853759765625,3.013153076171875,-6.228179931640625,2.19818115234375,1.0,1.0,1.0,1.0,1.0,75.0,event
15:33:59.678,0.57425576,0.23002374,-0.0005555636,1.2395008,0.6685564,0.11285648,-0.077490784,0.75320494,0.54319215,0.3546863,0.1460579,1.0991569,0.6774442,-0.040324364,-0.109747216,0.7829349,0.36368716,-0.5085292,-0.4652464,0.5247808,826.8132,799.41394,795.38464,817.5458,754.2857,-0.2978515625,0.02838134765625,0.93853759765625,3.013153076171875,-6.228179931640625,2.19818115234375,1.0,1.0,1.0,1.0,1.0,75.0,event
15:33:59.682,0.57425576,0.23002374,-0.0005555636,1.2395008,0.6685564,0.11285648,-0.077490784,0.75320494,0.54319215,0.3546863,0.1460579,1.0991569,0.6774442,-0.040324364,-0.109747216,0.7829349,0.36368716,-0.5085292,-0.4652464,0.5247808,814.3223,799.81683,802.23444,821.5751,754.68866,-0.2978515625,0.02838134765625,0.93853759765625,3.013153076171875,-6.228179931640625,2.19818115234375,1.0,1.0,1.0,1.0,1.0,75.0,event
15:33:59.683,0.57425576,0.23002374,-0.0005555636,1.2395008,0.6685564,0.11285648,-0.077490784,0.75320494,0.54319215,0.3546863,0.1460579,1.0991569,0.6774442,-0.040324364,-0.109747216,0.7829349,0.36368716,-0.5085292,-0.4652464,0.5247808,817.9487,807.47253,803.44324,827.619,833.663,-0.2978515625,0.02838134765625,0.93853759765625,3.013153076171875,-6.228179931640625,2.19818115234375,1.0,1.0,1.0,1.0,1.0,75.0,event
15:33:59.683,0.57425576,0.23002374,-0.0005555636,1.2395008,0.6685564,0.11285648,-0.077490784,0.75320494,0.54319215,0.3546863,0.1460579,1.0991569,0.6774442,-0.040324364,-0.109747216,0.7829349,0.36368716,-0.5085292,-0.4652464,0.5247808,826.0073,811.50183,804.65204,835.6777,726.08057,-0.2978515625,0.02838134765625,0.93853759765625,3.013153076171875,-6.228179931640625,2.19818115234375,1.0,1.0,1.0,1.0,1.0,75.0,event
15:33:59.684,0.57425576,0.23002374,-0.0005555636,1.2395008,0.6685564,0.11285648,-0.077490784,0.75320494,0.54319215,0.3546863,0.1460579,1.0991569,0.6774442,-0.040324364,-0.109747216,0.7829349,0.36368716,-0.5085292,-0.4652464,0.5247808,816.337,809.0842,801.4286,833.2601,740.989,-0.2978515625,0.02838134765625,0.93853759765625,3.013153076171875,-6.228179931640625,2.19818115234375,1.0,1.0,1.0,1.0,1.0,75.0,event
15:33:59.685,0.57425576,0.23002374,-0.0005555636,1.2395008,0.6685564,0.11285648,-0.077490784,0.75320494,0.54319215,0.3546863,0.1460579,1.0991569,0.6774442,-0.040324364,-0.109747216,0.7829349,0.36368716,-0.5085292,-0.4652464,0.5247808,817.1429,809.0842,800.6227,807.8755,963.00366,-0.2978515625,0.02838134765625,0.93853759765625,3.013153076171875,-6.228179931640625,2.19818115234375,1.0,1.0,1.0,1.0,1.0,75.0,event
15:33:59.687,0.57425576,0.23002374,-0.0005555636,1.2395008,0.6685564,0.11285648,-0.077490784,0.75320494,0.54319215,0.3546863,0.1460579,1.0991569,0.6774442,-0.040324364,-0.109747216,0.7829349,0.36368716,-0.5085292,-0.4652464,0.5247808,826.4103,809.89014,806.26373,809.0842,1091.1355,-0.2978515625,0.02838134765625,0.93853759765625,3.013153076171875,-6.228179931640625,2.19818115234375,1.0,1.0,1.0,1.0,1.0,75.0,event
15:33:59.688,0.57425576,0.23002374,-0.0005555636,1.2395008,0.6685564,0.11285648,-0.077490784,0.75320494,0.54319215,0.3546863,0.1460579,1.0991569,0.6774442,-0.040324364,-0.109747216,0.7829349,0.36368716,-0.5085292,-0.4652464,0.5247808,819.9634,810.293,804.2491,840.9158,832.0513,-0.2978515625,0.02838134765625,0.93853759765625,3.013153076171875,-6.228179931640625,2.19818115234375,1.0,1.0,1.0,1.0,1.0,75.0,event
15:33:59.689,0.57425576,0.23002374,-0.0005555636,1.2395008,0.6685564,0.11285648,-0.077490784,0.75320494,0.54319215,0.3546863,0.1460579,1.0991569,0.6774442,-0.040324364,-0.109747216,0.7829349,0.36368716,-0.5085292,-0.4652464,0.5247808,821.978,811.50183,801.02563,844.94507,678.5348,-0.2978515625,0.02838134765625,0.93853759765625,3.013153076171875,-6.228179931640625,2.19818115234375,1.0,1.0,1.0,1.0,1.0,75.0,event
15:33:59.690,0.57425576,0.23002374,-0.0005555636,1.2395008,0.6685564,0.11285648,-0.077490784,0.75320494,0.54319215,0.3546863,0.1460579,1.0991569,0.6774442,-0.040324364,-0.109747216,0.7829349,0.36368716,-0.5085292,-0.4652464,0.5247808,822.7839,810.293,798.60803,834.0659,746.2271,-0.2978515625,0.02838134765625,0.93853759765625,3.013153076171875,-6.228179931640625,2.19818115234375,1.0,1.0,1.0,1.0,1.0,75.0,event
15:33:59.690,0.57425576,0.23002374,-0.0005555636,1.2395008,0.6685564,0.11285648,-0.077490784,0.75320494,0.54319215,0.3546863,0.1460579,1.0991569,0.6774442,-0.040324364,-0.109747216,0.7829349,0.36368716,-0.5085292,-0.4652464,0.5247808,806.6667,805.4579,804.2491,838.9011,784.10254,-0.2978515625,0.02838134765625,0.93853759765625,3.013153076171875,-6.228179931640625,2.19818115234375,1.0,1.0,1.0,1.0,1.0,75.0,event
15:33:59.719,0.57425576,0.23002374,-0.0005555636,1.2395008,0.6685564,0.11285648,-0.077490784,0.75320494,0.54319215,0.3546863,0.1460579,1.0991569,0.6774442,-0.040324364,-0.109747216,0.7829349,0.36368716,-0.5085292,-0.4652464,0.5247808,802.23444,807.0696,808.2784,820.3663,765.16486,-0.2978515625,0.02838134765625,0.93853759765625,3.013153076171875,-6.228179931640625,2.19818115234375,1.0,1.0,1.0,1.0,1.0,75.0,event
15:33:59.720,0.57425576,0.23002374,-0.0005555636,1.2395008,0.6685564,0.11285648,-0.077490784,0.75320494,0.54319215,0.3546863,0.1460579,1.0991569,0.6774442,-0.040324364,-0.109747216,0.7829349,0.36368716,-0.5085292,-0.4652464,0.5247808,811.50183,809.89014,801.8315,807.8755,790.9524,-0.2978515625,0.02838134765625,0.93853759765625,3.013153076171875,-6.228179931640625,2.19818115234375,1.0,1.0,1.0,1.0,1.0,75.0,event
15:33:59.721,0.57425576,0.23002374,-0.0005555636,1.2395008,0.6685564,0.11285648,-0.077490784,0.75320494,0.54319215,0.3546863,0.1460579,1.0991569,0.6774442,-0.040324364,-0.109747216,0.7829349,0.36368716,-0.5085292,-0.4652464,0.5247808,811.0989,811.50183,803.44324,821.5751,854.21246,-0.2978515625,0.02838134765625,0.93853759765625,3.013153076171875,-6.228179931640625,2.19818115234375,1.0,1.0,1.0,1.0,1.0,75.0,event
15:33:59.721,0.57425576,0.23002374,-0.0005555636,1.2395008,0.6685564,0.11285648,-0.077490784,0.75320494,0.54319215,0.3546863,0.1460579,1.0991569,0.6774442,-0.040324364,-0.109747216,0.7829349,0.36368716,-0.5085292,-0.4652464,0.5247808,793.7729,804.2491,807.0696,824.7985,773.22345,-0.2978515625,0.02838134765625,0.93853759765625,3.013153076171875,-6.228179931640625,2.19818115234375,1.0,1.0,1.0,1.0,1.0,75.0,event
15:33:59.722,0.57425576,0.23002374,-0.0005555636,1.2395008,0.6685564,0.11285648,-0.077490784,0.75320494,0.54319215,0.3546863,0.1460579,1.0991569,0.6774442,-0.040324364,-0.109747216,0.7829349,0.36368716,-0.5085292,-0.4652464,0.5247808,821.978,806.26373,807.47253,822.7839,1003.69965,-0.2978515625,0.02838134765625,0.93853759765625,3.013153076171875,-6.228179931640625,2.19818115234375,1.0,1.0,1.0,1.0,1.0,75.0,event
15:33:59.722,0.57425576,0.23002374,-0.0005555636,1.2395008,0.6685564,0.11285648,-0.077490784,0.75320494,0.54319215,0.3546863,0.1460579,1.0991569,0.6774442,-0.040324364,-0.109747216,0.7829349,0.36368716,-0.5085292,-0.4652464,0.5247808,825.6044,802.23444,805.8608,822.7839,774.83514,-0.2978515625,0.02838134765625,0.93853759765625,3.013153076171875,-6.228179931640625,2.19818115234375,1.0,1.0,1.0,1.0,1.0,75.0,event
15:33:59.722,0.57425576,0.23002374,-0.0005555636,1.2395008,0.6685564,0.11285648,-0.077490784,0.75320494,0.54319215,0.3546863,0.1460579,1.0991569,0.6774442,-0.040324364,-0.109747216,0.7829349,0.36368716,-0.5085292,-0.4652464,0.5247808,814.7253,796.99634,807.0696,829.6337,750.65936,-0.2978515625,0.02838134765625,0.93853759765625,3.013153076171875,-6.228179931640625,2.19818115234375,1.0,1.0,1.0,1.0,1.0,75.0,event
15:33:59.723,0.57425576,0.23002374,-0.0005555636,1.2395008,0.6685564,0.11285648,-0.077490784,0.75320494,0.54319215,0.3546863,0.1460579,1.0991569,0.6774442,-0.040324364,-0.109747216,0.7829349,0.36368716,-0.5085292,-0.4652464,0.5247808,840.5128,805.05493,812.3077,846.9597,1076.227,-0.2978515625,0.02838134765625,0.93853759765625,3.013153076171875,-6.228179931640625,2.19818115234375,1.0,1.0,1.0,1.0,1.0,75.0,event
15:33:59.724,0.57425576,0.23002374,-0.0005555636,1.2395008,0.6685564,0.11285648,-0.077490784,0.75320494,0.54319215,0.3546863,0.1460579,1.0991569,0.6774442,-0.040324364,-0.109747216,0.7829349,0.36368716,-0.5085292,-0.4652464,0.5247808,826.8132,809.0842,811.50183,837.28937,781.28204,-0.2978515625,0.02838134765625,0.93853759765625,3.013153076171875,-6.228179931640625,2.19818115234375,1.0,1.0,1.0,1.0,1.0,75.0,event
15:33:59.725,0.57425576,0.23002374,-0.0005555636,1.2395008,0.6685564,0.11285648,-0.077490784,0.75320494,0.54319215,0.3546863,0.1460579,1.0991569,0.6774442,-0.040324364,-0.109747216,0.7829349,0.36368716,-0.5085292,-0.4652464,0.5247808,813.91943,810.293,809.89014,826.4103,763.95605,-0.2978515625,0.02838134765625,0.93853759765625,3.013153076171875,-6.228179931640625,2.19818115234375,1.0,1.0,1.0,1.0,1.0,75.0,event
15:33:59.726,0.57425576,0.23002374,-0.0005555636,1.2395008,0.6685564,0.11285648,-0.077490784,0.75320494,0.54319215,0.3546863,0.1460579,1.0991569,0.6774442,-0.040324364,-0.109747216,0.7829349,0.36368716,-0.5085292,-0.4652464,0.5247808,808.2784,809.4872,805.4579,811.9048,884.0293,-0.2978515625,0.02838134765625,0.93853759765625,3.013153076171875,-6.228179931640625,2.19818115234375,1.0,1.0,1.0,1.0,1.0,75.0,event
15:33:59.727,0.57425576,0.23002374,-0.0005555636,1.2395008,0.6685564,0.11285648,-0.077490784,0.75320494,0.54319215,0.3546863,0.1460579,1.0991569,0.6774442,-0.040324364,-0.109747216,0.7829349,0.36368716,-0.5085292,-0.4652464,0.5247808,809.4872,811.9048,801.4286,801.8315,761.53845,-0.2978515625,0.02838134765625,0.93853759765625,3.013153076171875,-6.228179931640625,2.19818115234375,1.0,1.0,1.0,1.0,1.0,75.0,event
15:33:59.751,0.57425576,0.23002374,-0.0005555636,1.2395008,0.6685564,0.11285648,-0.077490784,0.75320494,0.54319215,0.3546863,0.1460579,1.0991569,0.6774442,-0.040324364,-0.109747216,0.7829349,0.36368716,-0.5085292,-0.4652464,0.5247808,799.81683,809.4872,799.41394,801.02563,681.3553,-0.29522705078125,0.03350830078125,0.94573974609375,1.607513427734375,-3.656158447265625,0.897216796875,1.0,1.0,1.0,1.0,1.0,75.0,event
15:33:59.752,0.57425576,0.23002374,-0.0005555636,1.2395008,0.6685564,0.11285648,-0.077490784,0.75320494,0.54319215,0.3546863,0.1460579,1.0991569,0.6774442,-0.040324364,-0.109747216,0.7829349,0.36368716,-0.5085292,-0.4652464,0.5247808,794.17584,805.4579,801.02563,805.8608,727.6923,-0.29522705078125,0.03350830078125,0.94573974609375,1.607513427734375,-3.656158447265625,0.897216796875,1.0,1.0,1.0,1.0,1.0,75.0,event
15:33:59.753,0.57425576,0.23002374,-0.0005555636,1.2395008,0.6685564,0.11285648,-0.077490784,0.75320494,0.54319215,0.3546863,0.1460579,1.0991569,0.6774442,-0.040324364,-0.109747216,0.7829349,0.36368716,-0.5085292,-0.4652464,0.5247808,804.65204,807.47253,804.65204,823.5897,782.0879,-0.29522705078125,0.03350830078125,0.94573974609375,1.607513427734375,-3.656158447265625,0.897216796875,1.0,1.0,1.0,1.0,1.0,75.0,event
15:33:59.753,0.9018767,0.23322748,-0.0005355655,1.2395008,0.92491794,0.1189371,-0.05493659,0.75320494,0.54641086,0.3546863,0.13647972,1.0991569,0.65673256,-0.028309878,-0.115070395,0.7829349,0.35933793,-0.5126843,-0.4542179,0.5247808,803.44324,807.8755,805.05493,821.5751,815.9341,-0.29522705078125,0.03350830078125,0.94573974609375,1.607513427734375,-3.656158447265625,0.897216796875,1.0,1.0,1.0,1.0,1.0,75.0,event
15:33:59.756,0.9018767,0.23322748,-0.0005355655,1.2395008,0.92491794,0.1189371,-0.05493659,0.75320494,0.54641086,0.3546863,0.13647972,1.0991569,0.65673256,-0.028309878,-0.115070395,0.7829349,0.35933793,-0.5126843,-0.4542179,0.5247808,819.5604,806.26373,801.8315,805.05493,739.7802,-0.29522705078125,0.03350830078125,0.94573974609375,1.607513427734375,-3.656158447265625,0.897216796875,1.0,1.0,1.0,1.0,1.0,75.0,event
15:33:59.757,0.9018767,0.23322748,-0.0005355655,1.2395008,0.92491794,0.1189371,-0.05493659,0.75320494,0.54641086,0.3546863,0.13647972,1.0991569,0.65673256,-0.028309878,-0.115070395,0.7829349,0.35933793,-0.5126843,-0.4542179,0.5247808,823.1868,806.26373,803.8461,804.2491,826.4103,-0.29522705078125,0.03350830078125,0.94573974609375,1.607513427734375,-3.656158447265625,0.897216796875,1.0,1.0,1.0,1.0,1.0,75.0,event
15:33:59.757,0.9018767,0.23322748,-0.0005355655,1.2395008,0.92491794,0.1189371,-0.05493659,0.75320494,0.54641086,0.3546863,0.13647972,1.0991569,0.65673256,-0.028309878,-0.115070395,0.7829349,0.35933793,-0.5126843,-0.4542179,0.5247808,803.44324,807.47253,806.6667,803.8461,971.8681,-0.29522705078125,0.03350830078125,0.94573974609375,1.607513427734375,-3.656158447265625,0.897216796875,1.0,1.0,1.0,1.0,1.0,75.0,event
15:33:59.758,0.9018767,0.23322748,-0.0005355655,1.2395008,0.92491794,0.1189371,-0.05493659,0.75320494,0.54641086,0.3546863,0.13647972,1.0991569,0.65673256,-0.028309878,-0.115070395,0.7829349,0.35933793,-0.5126843,-0.4542179,0.5247808,792.1612,808.2784,800.6227,805.4579,864.68866,-0.29522705078125,0.03350830078125,0.94573974609375,1.607513427734375,-3.656158447265625,0.897216796875,1.0,1.0,1.0,1.0,1.0,75.0,event
15:33:59.758,0.9018767,0.23322748,-0.0005355655,1.2395008,0.92491794,0.1189371,-0.05493659,0.75320494,0.54641086,0.3546863,0.13647972,1.0991569,0.65673256,-0.028309878,-0.115070395,0.7829349,0.35933793,-0.5126843,-0.4542179,0.5247808,794.9817,808.2784,796.1905,805.05493,739.3773,-0.29522705078125,0.03350830078125,0.94573974609375,1.607513427734375,-3.656158447265625,0.897216796875,1.0,1.0,1.0,1.0,1.0,75.0,event
15:33:59.758,0.9018767,0.23322748,-0.0005355655,1.2395008,0.92491794,0.1189371,-0.05493659,0.75320494,0.54641086,0.3546863,0.13647972,1.0991569,0.65673256,-0.028309878,-0.115070395,0.7829349,0.35933793,-0.5126843,-0.4542179,0.5247808,797.3993,812.71063,797.3993,803.8461,807.8755,-0.29522705078125,0.03350830078125,0.94573974609375,1.607513427734375,-3.656158447265625,0.897216796875,1.0,1.0,1.0,1.0,1.0,75.0,event
15:33:59.759,0.9018767,0.23322748,-0.0005355655,1.2395008,0.92491794,0.1189371,-0.05493659,0.75320494,0.54641086,0.3546863,0.13647972,1.0991569,0.65673256,-0.028309878,-0.115070395,0.7829349,0.35933793,-0.5126843,-0.4542179,0.5247808,785.7143,809.4872,804.65204,801.8315,971.4652,-0.29522705078125,0.03350830078125,0.94573974609375,1.607513427734375,-3.656158447265625,0.897216796875,1.0,1.0,1.0,1.0,1.0,75.0,event
15:33:59.759,0.9018767,0.23322748,-0.0005355655,1.2395008,0.92491794,0.1189371,-0.05493659,0.75320494,0.54641086,0.3546863,0.13647972,1.0991569,0.65673256,-0.028309878,-0.115070395,0.7829349,0.35933793,-0.5126843,-0.4542179,0.5247808,785.7143,806.26373,809.4872,796.1905,747.8388,-0.29522705078125,0.03350830078125,0.94573974609375,1.607513427734375,-3.656158447265625,0.897216796875,1.0,1.0,1.0,1.0,1.0,75.0,event
15:33:59.783,0.9018767,0.23322748,-0.0005355655,1.2395008,0.92491794,0.1189371,-0.05493659,0.75320494,0.54641086,0.3546863,0.13647972,1.0991569,0.65673256,-0.028309878,-0.115070395,0.7829349,0.35933793,-0.5126843,-0.4542179,0.5247808,806.26373,810.293,809.0842,811.0989,677.72894,-0.28668212890625,0.03228759765625,0.94171142578125,1.7645263671875,-2.519683837890625,0.46356201171875,1.0,1.0,1.0,1.0,1.0,75.0,event
15:33:59.784,0.9018767,0.23322748,-0.0005355655,1.2395008,0.92491794,0.1189371,-0.05493659,0.75320494,0.54641086,0.3546863,0.13647972,1.0991569,0.65673256,-0.028309878,-0.115070395,0.7829349,0.35933793,-0.5126843,-0.4542179,0.5247808,810.293,810.696,809.0842,818.3516,828.8278,-0.28668212890625,0.03228759765625,0.94171142578125,1.7645263671875,-2.519683837890625,0.46356201171875,1.0,1.0,1.0,1.0,1.0,75.0,event
15:33:59.784,0.9018767,0.23322748,-0.0005355655,1.2395008,0.92491794,0.1189371,-0.05493659,0.75320494,0.54641086,0.3546863,0.13647972,1.0991569,0.65673256,-0.028309878,-0.115070395,0.7829349,0.35933793,-0.5126843,-0.4542179,0.5247808,805.4579,813.5165,806.6667,811.9048,837.6923,-0.28668212890625,0.03228759765625,0.94171142578125,1.7645263671875,-2.519683837890625,0.46356201171875,1.0,1.0,1.0,1.0,1.0,75.0,event
15:33:59.785,0.9018767,0.23322748,-0.0005355655,1.2395008,0.92491794,0.1189371,-0.05493659,0.75320494,0.54641086,0.3546863,0.13647972,1.0991569,0.65673256,-0.028309878,-0.115070395,0.7829349,0.35933793,-0.5126843,-0.4542179,0.5247808,796.1905,811.9048,807.47253,799.41394,709.9634,-0.28668212890625,0.03228759765625,0.94171142578125,1.7645263671875,-2.519683837890625,0.46356201171875,1.0,1.0,1.0,1.0,1.0,75.0,event
15:33:59.785,0.9018767,0.23322748,-0.0005355655,1.2395008,0.92491794,0.1189371,-0.05493659,0.75320494,0.54641086,0.3546863,0.13647972,1.0991569,0.65673256,-0.028309878,-0.115070395,0.7829349,0.35933793,-0.5126843,-0.4542179,0.5247808,794.9817,815.12823,805.4579,800.2198,770.40295,-0.28668212890625,0.03228759765625,0.94171142578125,1.7645263671875,-2.519683837890625,0.46356201171875,1.0,1.0,1.0,1.0,1.0,75.0,event
15:33:59.786,0.9018767,0.23322748,-0.0005355655,1.2395008,0.92491794,0.1189371,-0.05493659,0.75320494,0.54641086,0.3546863,0.13647972,1.0991569,0.65673256,-0.028309878,-0.115070395,0.7829349,0.35933793,-0.5126843,-0.4542179,0.5247808,800.2198,809.0842,807.8755,802.6374,862.674,-0.28668212890625,0.03228759765625,0.94171142578125,1.7645263671875,-2.519683837890625,0.46356201171875,1.0,1.0,1.0,1.0,1.0,75.0,event
15:33:59.786,0.9018767,0.23322748,-0.0005355655,1.2395008,0.92491794,0.1189371,-0.05493659,0.75320494,0.54641086,0.3546863,0.13647972,1.0991569,0.65673256,-0.028309878,-0.115070395,0.7829349,0.35933793,-0.5126843,-0.4542179,0.5247808,795.78754,804.65204,805.05493,796.99634,887.25275,-0.28668212890625,0.03228759765625,0.94171142578125,1.7645263671875,-2.519683837890625,0.46356201171875,1.0,1.0,1.0,1.0,1.0,75.0,event
15:33:59.787,0.9018767,0.23322748,-0.0005355655,1.2395008,0.92491794,0.1189371,-0.05493659,0.75320494,0.54641086,0.3546863,0.13647972,1.0991569,0.65673256,-0.028309878,-0.115070395,0.7829349,0.35933793,-0.5126843,-0.4542179,0.5247808,790.54944,807.47253,802.6374,793.36993,735.34796,-0.28668212890625,0.03228759765625,0.94171142578125,1.7645263671875,-2.519683837890625,0.46356201171875,1.0,1.0,1.0,1.0,1.0,75.0,event
15:33:59.787,0.9018767,0.23322748,-0.0005355655,1.2395008,0.92491794,0.1189371,-0.05493659,0.75320494,0.54641086,0.3546863,0.13647972,1.0991569,0.65673256,-0.028309878,-0.115070395,0.7829349,0.35933793,-0.5126843,-0.4542179,0.5247808,787.326,807.8755,802.23444,788.5348,729.304,-0.28668212890625,0.03228759765625,0.94171142578125,1.7645263671875,-2.519683837890625,0.46356201171875,1.0,1.0,1.0,1.0,1.0,75.0,event
15:33:59.788,0.9018767,0.23322748,-0.0005355655,1.2395008,0.92491794,0.1189371,-0.05493659,0.75320494,0.54641086,0.3546863,0.13647972,1.0991569,0.65673256,-0.028309878,-0.115070395,0.7829349,0.35933793,-0.5126843,-0.4542179,0.5247808,789.34064,799.41394,805.05493,788.5348,890.87915,-0.28668212890625,0.03228759765625,0.94171142578125,1.7645263671875,-2.519683837890625,0.46356201171875,1.0,1.0,1.0,1.0,1.0,75.0,event
15:33:59.788,0.9018767,0.23322748,-0.0005355655,1.2395008,0.92491794,0.1189371,-0.05493659,0.75320494,0.54641086,0.3546863,0.13647972,1.0991569,0.65673256,-0.028309878,-0.115070395,0.7829349,0.35933793,-0.5126843,-0.4542179,0.5247808,794.57874,794.57874,805.4579,802.6374,927.5458,-0.28668212890625,0.03228759765625,0.94171142578125,1.7645263671875,-2.519683837890625,0.46356201171875,1.0,1.0,1.0,1.0,1.0,75.0,event
15:33:59.788,0.9018767,0.23322748,-0.0005355655,1.2395008,0.92491794,0.1189371,-0.05493659,0.75320494,0.54641086,0.3546863,0.13647972,1.0991569,0.65673256,-0.028309878,-0.115070395,0.7829349,0.35933793,-0.5126843,-0.4542179,0.5247808,786.9231,791.75824,804.65204,810.293,792.1612,-0.28668212890625,0.03228759765625,0.94171142578125,1.7645263671875,-2.519683837890625,0.46356201171875,1.0,1.0,1.0,1.0,1.0,75.0,event
15:33:59.853,0.9018767,0.23322748,-0.0005355655,1.2395008,0.92491794,0.1189371,-0.05493659,0.75320494,0.54641086,0.3546863,0.13647972,1.0991569,0.65673256,-0.028309878,-0.115070395,0.7829349,0.35933793,-0.5126843,-0.4542179,0.5247808,781.685,796.99634,805.4579,799.41394,757.1062,-0.30438232421875,0.0335693359375,0.95269775390625,2.175750732421875,-1.92901611328125,0.127105712890625,1.0,1.0,1.0,1.0,1.0,75.0,event
15:33:59.854,0.9018767,0.23322748,-0.0005355655,1.2395008,0.92491794,0.1189371,-0.05493659,0.75320494,0.54641086,0.3546863,0.13647972,1.0991569,0.65673256,-0.028309878,-0.115070395,0.7829349,0.35933793,-0.5126843,-0.4542179,0.5247808,784.10254,808.68134,803.8461,791.75824,869.92676,-0.30438232421875,0.0335693359375,0.95269775390625,2.175750732421875,-1.92901611328125,0.127105712890625,1.0,1.0,1.0,1.0,1.0,75.0,event
15:33:59.855,0.9018767,0.23322748,-0.0005355655,1.2395008,0.92491794,0.1189371,-0.05493659,0.75320494,0.54641086,0.3546863,0.13647972,1.0991569,0.65673256,-0.028309878,-0.115070395,0.7829349,0.35933793,-0.5126843,-0.4542179,0.5247808,800.2198,810.696,800.6227,795.78754,749.45056,-0.30438232421875,0.0335693359375,0.95269775390625,2.175750732421875,-1.92901611328125,0.127105712890625,1.0,1.0,1.0,1.0,1.0,75.0,event
15:33:59.856,0.9018767,0.23322748,-0.0005355655,1.2395008,0.92491794,0.1189371,-0.05493659,0.75320494,0.54641086,0.3546863,0.13647972,1.0991569,0.65673256,-0.028309878,-0.115070395,0.7829349,0.35933793,-0.5126843,-0.4542179,0.5247808,786.52014,806.26373,801.4286,785.31134,644.2857,-0.30438232421875,0.0335693359375,0.95269775390625,2.175750732421875,-1.92901611328125,0.127105712890625,1.0,1.0,1.0,1.0,1.0,75.0,event
15:33:59.857,0.9018767,0.23322748,-0.0005355655,1.2395008,0.92491794,0.1189371,-0.05493659,0.75320494,0.54641086,0.3546863,0.13647972,1.0991569,0.65673256,-0.028309878,-0.115070395,0.7829349,0.35933793,-0.5126843,-0.4542179,0.5247808,776.8498,803.0403,808.68134,789.7436,703.5165,-0.30438232421875,0.0335693359375,0.95269775390625,2.175750732421875,-1.92901611328125,0.127105712890625,1.0,1.0,1.0,1.0,1.0,75.0,event
15:33:59.858,0.9018767,0.23607363,-0.00036183567,1.2395008,0.92491794,0.12398941,-0.04434358,0.75320494,0.54641086,0.3546863,0.13512215,1.0991569,0.65673256,-0.02128322,-0.11597654,0.7829349,0.35933793,-0.5052393,-0.4457858,0.5247808,784.10254,804.2491,805.4579,792.96704,867.50916,-0.30438232421875,0.0335693359375,0.95269775390625,2.175750732421875,-1.92901611328125,0.127105712890625,1.0,1.0,1.0,1.0,1.0,75.0,event
15:33:59.862,0.9018767,0.23607363,-0.00036183567,1.2395008,0.92491794,0.12398941,-0.04434358,0.75320494,0.54641086,0.3546863,0.13512215,1.0991569,0.65673256,-0.02128322,-0.11597654,0.7829349,0.35933793,-0.5052393,-0.4457858,0.5247808,776.04395,802.23444,802.23444,792.96704,853.4066,-0.30438232421875,0.0335693359375,0.95269775390625,2.175750732421875,-1.92901611328125,0.127105712890625,1.0,1.0,1.0,1.0,1.0,75.0,event
15:33:59.864,0.9018767,0.23607363,-0.00036183567,1.2395008,0.92491794,0.12398941,-0.04434358,0.75320494,0.54641086,0.3546863,0.13512215,1.0991569,0.65673256,-0.02128322,-0.11597654,0.7829349,0.35933793,-0.5052393,-0.4457858,0.5247808,777.6557,802.6374,803.0403,799.011,671.685,-0.30438232421875,0.0335693359375,0.95269775390625,2.175750732421875,-1.92901611328125,0.127105712890625,1.0,1.0,1.0,1.0,1.0,75.0,event
15:33:59.866,0.9018767,0.23607363,-0.00036183567,1.2395008,0.92491794,0.12398941,-0.04434358,0.75320494,0.54641086,0.3546863,0.13512215,1.0991569,0.65673256,-0.02128322,-0.11597654,0.7829349,0.35933793,-0.5052393,-0.4457858,0.5247808,788.1319,800.2198,802.23444,798.60803,740.18317,-0.30438232421875,0.0335693359375,0.95269775390625,2.175750732421875,-1.92901611328125,0.127105712890625,1.0,1.0,1.0,1.0,1.0,75.0,event
15:33:59.867,0.9018767,0.23607363,-0.00036183567,1.2395008,0.92491794,0.12398941,-0.04434358,0.75320494,0.54641086,0.3546863,0.13512215,1.0991569,0.65673256,-0.02128322,-0.11597654,0.7829349,0.35933793,-0.5052393,-0.4457858,0.5247808,785.31134,802.6374,802.23444,791.75824,930.7692,-0.30438232421875,0.0335693359375,0.95269775390625,2.175750732421875,-1.92901611328125,0.127105712890625,1.0,1.0,1.0,1.0,1.0,75.0,event
15:33:59.868,0.9018767,0.23607363,-0.00036183567,1.2395008,0.92491794,0.12398941,-0.04434358,0.75320494,0.54641086,0.3546863,0.13512215,1.0991569,0.65673256,-0.02128322,-0.11597654,0.7829349,0.35933793,-0.5052393,-0.4457858,0.5247808,788.5348,807.47253,805.8608,796.5934,765.9707,-0.30438232421875,0.0335693359375,0.95269775390625,2.175750732421875,-1.92901611328125,0.127105712890625,1.0,1.0,1.0,1.0,1.0,75.0,event
15:33:59.869,0.9018767,0.23607363,-0.00036183567,1.2395008,0.92491794,0.12398941,-0.04434358,0.75320494,0.54641086,0.3546863,0.13512215,1.0991569,0.65673256,-0.02128322,-0.11597654,0.7829349,0.35933793,-0.5052393,-0.4457858,0.5247808,796.99634,806.26373,810.293,807.47253,689.41394,-0.30438232421875,0.0335693359375,0.95269775390625,2.175750732421875,-1.92901611328125,0.127105712890625,1.0,1.0,1.0,1.0,1.0,75.0,event
15:33:59.894,0.9018767,0.23607363,-0.00036183567,1.2395008,0.92491794,0.12398941,-0.04434358,0.75320494,0.54641086,0.3546863,0.13512215,1.0991569,0.65673256,-0.02128322,-0.11597654,0.7829349,0.35933793,-0.5052393,-0.4457858,0.5247808,805.05493,808.2784,810.696,813.91943,801.02563,-0.29931640625,0.03045654296875,0.94171142578125,1.60003662109375,-3.237457275390625,-0.127105712890625,1.0,1.0,1.0,1.0,1.0,75.0,event
15:33:59.895,0.9018767,0.23607363,-0.00036183567,1.2395008,0.92491794,0.12398941,-0.04434358,0.75320494,0.54641086,0.3546863,0.13512215,1.0991569,0.65673256,-0.02128322,-0.11597654,0.7829349,0.35933793,-0.5052393,-0.4457858,0.5247808,811.50183,811.50183,807.0696,812.71063,861.06226,-0.29931640625,0.03045654296875,0.94171142578125,1.60003662109375,-3.237457275390625,-0.127105712890625,1.0,1.0,1.0,1.0,1.0,75.0,event
