TimeStamp,Delta_TP9,Delta_AF7,Delta_AF8,Delta_TP10,Theta_TP9,Theta_AF7,Theta_AF8,Theta_TP10,Alpha_TP9,Alpha_AF7,Alpha_AF8,Alpha_TP10,Beta_TP9,Beta_AF7,Beta_AF8,Beta_TP10,Gamma_TP9,Gamma_AF7,Gamma_AF8,Gamma_TP10,RAW_TP9,RAW_AF7,RAW_AF8,RAW_TP10,AUX_RIGHT,Accelerometer_X,Accelerometer_Y,Accelerometer_Z,Gyro_X,Gyro_Y,Gyro_Z,HeadBandOn,HSI_TP9,HSI_AF7,HSI_AF8,HSI_TP10,Battery,Elements
15:24:34.761,0.94517386,0.38275483,0.25124294,1.6961745,1.1952983,0.12773761,-0.19320396,1.4178927,1.1017966,0.10462861,0.25970256,1.2171797,0.6182861,-0.046702016,-0.06531172,0.99463767,0.45816958,-0.42654306,-0.4135802,0.5355844,809.89014,808.2784,800.6227,814.3223,641.4652,-0.287841796875,0.0247802734375,0.943603515625,2.4224853515625,-4.18701171875,-0.785064697265625,1.0,1.0,1.0,1.0,1.0,90.0,event
15:24:34.762,0.94517386,0.38275483,0.25124294,1.6961745,1.1952983,0.12773761,-0.19320396,1.4178927,1.1017966,0.10462861,0.25970256,1.2171797,0.6182861,-0.046702016,-0.06531172,0.99463767,0.45816958,-0.42654306,-0.4135802,0.5355844,811.50183,805.8608,802.6374,817.1429,773.22345,-0.287841796875,0.0247802734375,0.943603515625,2.4224853515625,-4.18701171875,-0.785064697265625,1.0,1.0,1.0,1.0,1.0,90.0,event
15:24:34.763,0.94517386,0.38275483,0.25124294,1.6961745,1.1952983,0.12773761,-0.19320396,1.4178927,1.1017966,0.10462861,0.25970256,1.2171797,0.6182861,-0.046702016,-0.06531172,0.99463767,0.45816958,-0.42654306,-0.4135802,0.5355844,814.3223,810.293,803.44324,820.3663,841.7216,-0.287841796875,0.0247802734375,0.943603515625,2.4224853515625,-4.18701171875,-0.785064697265625,1.0,1.0,1.0,1.0,1.0,90.0,event
15:24:34.764,0.94517386,0.38275483,0.25124294,1.6961745,1.1952983,0.12773761,-0.19320396,1.4178927,1.1017966,0.10462861,0.25970256,1.2171797,0.6182861,-0.046702016,-0.06531172,0.99463767,0.45816958,-0.42654306,-0.4135802,0.5355844,813.91943,811.50183,804.2491,811.50183,772.01465,-0.287841796875,0.0247802734375,0.943603515625,2.4224853515625,-4.18701171875,-0.785064697265625,1.0,1.0,1.0,1.0,1.0,90.0,event
15:24:34.764,0.94517386,0.38275483,0.25124294,1.6961745,1.1952983,0.12773761,-0.19320396,1.4178927,1.1017966,0.10462861,0.25970256,1.2171797,0.6182861,-0.046702016,-0.06531172,0.99463767,0.45816958,-0.42654306,-0.4135802,0.5355844,805.05493,806.6667,805.05493,810.293,757.50916,-0.287841796875,0.0247802734375,0.943603515625,2.4224853515625,-4.18701171875,-0.785064697265625,1.0,1.0,1.0,1.0,1.0,90.0,event
15:24:34.765,0.94517386,0.38275483,0.25124294,1.6961745,1.1952983,0.12773761,-0.19320396,1.4178927,1.1017966,0.10462861,0.25970256,1.2171797,0.6182861,-0.046702016,-0.06531172,0.99463767,0.45816958,-0.42654306,-0.4135802,0.5355844,787.72894,801.8315,802.23444,822.381,1021.02563,-0.287841796875,0.0247802734375,0.943603515625,2.4224853515625,-4.18701171875,-0.785064697265625,1.0,1.0,1.0,1.0,1.0,90.0,event
15:24:34.766,0.94517386,0.38275483,0.25124294,1.6961745,1.1952983,0.12773761,-0.19320396,1.4178927,1.1017966,0.10462861,0.25970256,1.2171797,0.6182861,-0.046702016,-0.06531172,0.99463767,0.45816958,-0.42654306,-0.4135802,0.5355844,805.4579,800.6227,802.23444,827.619,1055.2748,-0.287841796875,0.0247802734375,0.943603515625,2.4224853515625,-4.18701171875,-0.785064697265625,1.0,1.0,1.0,1.0,1.0,90.0,event
15:24:34.766,0.94517386,0.38275483,0.25124294,1.6961745,1.1952983,0.12773761,-0.19320396,1.4178927,1.1017966,0.10462861,0.25970256,1.2171797,0.6182861,-0.046702016,-0.06531172,0.99463767,0.45816958,-0.42654306,-0.4135802,0.5355844,807.8755,805.05493,802.23444,811.9048,812.71063,-0.287841796875,0.0247802734375,0.943603515625,2.4224853515625,-4.18701171875,-0.785064697265625,1.0,1.0,1.0,1.0,1.0,90.0,event
15:24:34.767,0.94517386,0.38275483,0.25124294,1.6961745,1.1952983,0.12773761,-0.19320396,1.4178927,1.1017966,0.10462861,0.25970256,1.2171797,0.6182861,-0.046702016,-0.06531172,0.99463767,0.45816958,-0.42654306,-0.4135802,0.5355844,783.69965,810.293,806.26373,818.3516,749.45056,-0.287841796875,0.0247802734375,0.943603515625,2.4224853515625,-4.18701171875,-0.785064697265625,1.0,1.0,1.0,1.0,1.0,90.0,event
15:24:34.768,0.94517386,0.38275483,0.25124294,1.6961745,1.1952983,0.12773761,-0.19320396,1.4178927,1.1017966,0.10462861,0.25970256,1.2171797,0.6182861,-0.046702016,-0.06531172,0.99463767,0.45816958,-0.42654306,-0.4135802,0.5355844,796.5934,806.6667,806.26373,815.5311,875.9707,-0.287841796875,0.0247802734375,0.943603515625,2.4224853515625,-4.18701171875,-0.785064697265625,1.0,1.0,1.0,1.0,1.0,90.0,event
15:24:34.768,0.94517386,0.38275483,0.25124294,1.6961745,1.1952983,0.12773761,-0.19320396,1.4178927,1.1017966,0.10462861,0.25970256,1.2171797,0.6182861,-0.046702016,-0.06531172,0.99463767,0.45816958,-0.42654306,-0.4135802,0.5355844,799.81683,807.0696,805.4579,803.0403,827.619,-0.287841796875,0.0247802734375,0.943603515625,2.4224853515625,-4.18701171875,-0.785064697265625,1.0,1.0,1.0,1.0,1.0,90.0,event
15:24:34.769,0.94517386,0.38275483,0.25124294,1.6961745,1.1952983,0.12773761,-0.19320396,1.4178927,1.1017966,0.10462861,0.25970256,1.2171797,0.6182861,-0.046702016,-0.06531172,0.99463767,0.45816958,-0.42654306,-0.4135802,0.5355844,784.5055,810.293,805.05493,794.57874,731.31866,-0.287841796875,0.0247802734375,0.943603515625,2.4224853515625,-4.18701171875,-0.785064697265625,1.0,1.0,1.0,1.0,1.0,90.0,event
15:24:34.797,0.94517386,0.38275483,0.25124294,1.6961745,1.1952983,0.12773761,-0.19320396,1.4178927,1.1017966,0.10462861,0.25970256,1.2171797,0.6182861,-0.046702016,-0.06531172,0.99463767,0.45816958,-0.42654306,-0.4135802,0.5355844,792.5641,808.68134,804.2491,799.011,774.0293,-0.287841796875,0.0247802734375,0.943603515625,2.4224853515625,-4.18701171875,-0.785064697265625,1.0,1.0,1.0,1.0,1.0,90.0,event
15:24:34.798,0.94517386,0.38764775,0.25522792,1.6961745,1.1952983,0.14778298,-0.16768695,1.4178927,1.1017966,0.10462861,0.2476892,1.2171797,0.6182861,-0.039750822,-0.08351553,0.99463767,0.45816958,-0.41424823,-0.4122021,0.5355844,791.75824,806.6667,803.8461,792.5641,779.67035,-0.287841796875,0.0247802734375,0.943603515625,2.4224853515625,-4.18701171875,-0.785064697265625,1.0,1.0,1.0,1.0,1.0,90.0,event
15:24:34.802,0.94517386,0.38764775,0.25522792,1.6961745,1.1952983,0.14778298,-0.16768695,1.4178927,1.1017966,0.10462861,0.2476892,1.2171797,0.6182861,-0.039750822,-0.08351553,0.99463767,0.45816958,-0.41424823,-0.4122021,0.5355844,767.1795,804.65204,805.8608,784.90845,770.80585,-0.287841796875,0.0247802734375,0.943603515625,2.4224853515625,-4.18701171875,-0.785064697265625,1.0,1.0,1.0,1.0,1.0,90.0,event
15:24:34.803,0.94517386,0.38764775,0.25522792,1.6961745,1.1952983,0.14778298,-0.16768695,1.4178927,1.1017966,0.10462861,0.2476892,1.2171797,0.6182861,-0.039750822,-0.08351553,0.99463767,0.45816958,-0.41424823,-0.4122021,0.5355844,761.13556,803.0403,803.0403,793.36993,702.3077,-0.287841796875,0.0247802734375,0.943603515625,2.4224853515625,-4.18701171875,-0.785064697265625,1.0,1.0,1.0,1.0,1.0,90.0,event
15:24:34.804,0.94517386,0.38764775,0.25522792,1.6961745,1.1952983,0.14778298,-0.16768695,1.4178927,1.1017966,0.10462861,0.2476892,1.2171797,0.6182861,-0.039750822,-0.08351553,0.99463767,0.45816958,-0.41424823,-0.4122021,0.5355844,781.28204,801.8315,798.20514,794.57874,735.34796,-0.287841796875,0.0247802734375,0.943603515625,2.4224853515625,-4.18701171875,-0.785064697265625,1.0,1.0,1.0,1.0,1.0,90.0,event
15:24:34.805,0.94517386,0.38764775,0.25522792,1.6961745,1.1952983,0.14778298,-0.16768695,1.4178927,1.1017966,0.10462861,0.2476892,1.2171797,0.6182861,-0.039750822,-0.08351553,0.99463767,0.45816958,-0.41424823,-0.4122021,0.5355844,783.2967,803.0403,800.6227,788.1319,874.35895,-0.287841796875,0.0247802734375,0.943603515625,2.4224853515625,-4.18701171875,-0.785064697265625,1.0,1.0,1.0,1.0,1.0,90.0,event
15:24:34.808,0.94517386,0.38764775,0.25522792,1.6961745,1.1952983,0.14778298,-0.16768695,1.4178927,1.1017966,0.10462861,0.2476892,1.2171797,0.6182861,-0.039750822,-0.08351553,0.99463767,0.45816958,-0.41424823,-0.4122021,0.5355844,781.685,801.4286,806.6667,781.685,908.60803,-0.287841796875,0.0247802734375,0.943603515625,2.4224853515625,-4.18701171875,-0.785064697265625,1.0,1.0,1.0,1.0,1.0,90.0,event
15:24:34.809,0.94517386,0.38764775,0.25522792,1.6961745,1.1952983,0.14778298,-0.16768695,1.4178927,1.1017966,0.10462861,0.2476892,1.2171797,0.6182861,-0.039750822,-0.08351553,0.99463767,0.45816958,-0.41424823,-0.4122021,0.5355844,776.8498,796.1905,809.0842,788.1319,880.80585,-0.287841796875,0.0247802734375,0.943603515625,2.4224853515625,-4.18701171875,-0.785064697265625,1.0,1.0,1.0,1.0,1.0,90.0,event
15:24:34.809,0.94517386,0.38764775,0.25522792,1.6961745,1.1952983,0.14778298,-0.16768695,1.4178927,1.1017966,0.10462861,0.2476892,1.2171797,0.6182861,-0.039750822,-0.08351553,0.99463767,0.45816958,-0.41424823,-0.4122021,0.5355844,784.5055,801.4286,810.293,784.10254,918.68134,-0.287841796875,0.0247802734375,0.943603515625,2.4224853515625,-4.18701171875,-0.785064697265625,1.0,1.0,1.0,1.0,1.0,90.0,event
15:24:34.810,0.94517386,0.38764775,0.25522792,1.6961745,1.1952983,0.14778298,-0.16768695,1.4178927,1.1017966,0.10462861,0.2476892,1.2171797,0.6182861,-0.039750822,-0.08351553,0.99463767,0.45816958,-0.41424823,-0.4122021,0.5355844,781.685,806.26373,811.9048,781.685,1109.2675,-0.287841796875,0.0247802734375,0.943603515625,2.4224853515625,-4.18701171875,-0.785064697265625,1.0,1.0,1.0,1.0,1.0,90.0,event
15:24:34.812,0.94517386,0.38764775,0.25522792,1.6961745,1.1952983,0.14778298,-0.16768695,1.4178927,1.1017966,0.10462861,0.2476892,1.2171797,0.6182861,-0.039750822,-0.08351553,0.99463767,0.45816958,-0.41424823,-0.4122021,0.5355844,769.19415,799.41394,811.0989,772.4176,880.80585,-0.287841796875,0.0247802734375,0.943603515625,2.4224853515625,-4.18701171875,-0.785064697265625,1.0,1.0,1.0,1.0,1.0,90.0,event
15:24:34.813,0.94517386,0.38764775,0.25522792,1.6961745,1.1952983,0.14778298,-0.16768695,1.4178927,1.1017966,0.10462861,0.2476892,1.2171797,0.6182861,-0.039750822,-0.08351553,0.99463767,0.45816958,-0.41424823,-0.4122021,0.5355844,752.674,790.9524,815.9341,755.09155,682.5641,-0.287841796875,0.0247802734375,0.943603515625,2.4224853515625,-4.18701171875,-0.785064697265625,1.0,1.0,1.0,1.0,1.0,90.0,event
15:24:34.846,0.94517386,0.38764775,0.25522792,1.6961745,1.1952983,0.14778298,-0.16768695,1.4178927,1.1017966,0.10462861,0.2476892,1.2171797,0.6182861,-0.039750822,-0.08351553,0.99463767,0.45816958,-0.41424823,-0.4122021,0.5355844,747.8388,798.20514,817.1429,781.28204,757.9121,-0.26995849609375,0.02288818359375,0.945556640625,2.392578125,-3.446807861328125,-1.099090576171875,1.0,1.0,1.0,1.0,1.0,90.0,event
15:24:34.847,0.94517386,0.38764775,0.25522792,1.6961745,1.1952983,0.14778298,-0.16768695,1.4178927,1.1017966,0.10462861,0.2476892,1.2171797,0.6182861,-0.039750822,-0.08351553,0.99463767,0.45816958,-0.41424823,-0.4122021,0.5355844,753.8828,803.8461,821.1722,786.52014,713.5897,-0.26995849609375,0.02288818359375,0.945556640625,2.392578125,-3.446807861328125,-1.099090576171875,1.0,1.0,1.0,1.0,1.0,90.0,event
15:24:34.848,0.94517386,0.38764775,0.25522792,1.6961745,1.1952983,0.14778298,-0.16768695,1.4178927,1.1017966,0.10462861,0.2476892,1.2171797,0.6182861,-0.039750822,-0.08351553,0.99463767,0.45816958,-0.41424823,-0.4122021,0.5355844,747.03296,800.6227,825.2015,759.92676,702.71063,-0.26995849609375,0.02288818359375,0.945556640625,2.392578125,-3.446807861328125,-1.099090576171875,1.0,1.0,1.0,1.0,1.0,90.0,event
15:24:34.849,0.94517386,0.38764775,0.25522792,1.6961745,1.1952983,0.14778298,-0.16768695,1.4178927,1.1017966,0.10462861,0.2476892,1.2171797,0.6182861,-0.039750822,-0.08351553,0.99463767,0.45816958,-0.41424823,-0.4122021,0.5355844,753.8828,803.44324,821.5751,761.13556,702.3077,-0.26995849609375,0.02288818359375,0.945556640625,2.392578125,-3.446807861328125,-1.099090576171875,1.0,1.0,1.0,1.0,1.0,90.0,event
15:24:34.849,0.94517386,0.38764775,0.25522792,1.6961745,1.1952983,0.14778298,-0.16768695,1.4178927,1.1017966,0.10462861,0.2476892,1.2171797,0.6182861,-0.039750822,-0.08351553,0.99463767,0.45816958,-0.41424823,-0.4122021,0.5355844,732.1245,800.6227,824.7985,737.76556,737.3626,-0.26995849609375,0.02288818359375,0.945556640625,2.392578125,-3.446807861328125,-1.099090576171875,1.0,1.0,1.0,1.0,1.0,90.0,event
15:24:34.850,0.94517386,0.38764775,0.25522792,1.6961745,1.1952983,0.14778298,-0.16768695,1.4178927,1.1017966,0.10462861,0.2476892,1.2171797,0.6182861,-0.039750822,-0.08351553,0.99463767,0.45816958,-0.41424823,-0.4122021,0.5355844,696.26373,794.17584,827.619,711.978,836.4835,-0.26995849609375,0.02288818359375,0.945556640625,2.392578125,-3.446807861328125,-1.099090576171875,1.0,1.0,1.0,1.0,1.0,90.0,event
15:24:34.850,0.94517386,0.38764775,0.25522792,1.6961745,1.1952983,0.14778298,-0.16768695,1.4178927,1.1017966,0.10462861,0.2476892,1.2171797,0.6182861,-0.039750822,-0.08351553,0.99463767,0.45816958,-0.41424823,-0.4122021,0.5355844,690.2198,798.20514,828.4249,702.71063,823.9927,-0.26995849609375,0.02288818359375,0.945556640625,2.392578125,-3.446807861328125,-1.099090576171875,1.0,1.0,1.0,1.0,1.0,90.0,event
15:24:34.851,0.94517386,0.38764775,0.25522792,1.6961745,1.1952983,0.14778298,-0.16768695,1.4178927,1.1017966,0.10462861,0.2476892,1.2171797,0.6182861,-0.039750822,-0.08351553,0.99463767,0.45816958,-0.41424823,-0.4122021,0.5355844,704.7253,794.57874,825.6044,707.5458,745.0183,-0.26995849609375,0.02288818359375,0.945556640625,2.392578125,-3.446807861328125,-1.099090576171875,1.0,1.0,1.0,1.0,1.0,90.0,event
15:24:34.852,0.94517386,0.38764775,0.25522792,1.6961745,1.1952983,0.14778298,-0.16768695,1.4178927,1.1017966,0.10462861,0.2476892,1.2171797,0.6182861,-0.039750822,-0.08351553,0.99463767,0.45816958,-0.41424823,-0.4122021,0.5355844,703.5165,789.7436,823.1868,713.1868,1055.2748,-0.26995849609375,0.02288818359375,0.945556640625,2.392578125,-3.446807861328125,-1.099090576171875,1.0,1.0,1.0,1.0,1.0,90.0,event
15:24:34.852,0.94517386,0.38764775,0.25522792,1.6961745,1.1952983,0.14778298,-0.16768695,1.4178927,1.1017966,0.10462861,0.2476892,1.2171797,0.6182861,-0.039750822,-0.08351553,0.99463767,0.45816958,-0.41424823,-0.4122021,0.5355844,682.1612,793.36993,825.6044,704.7253,1070.989,-0.26995849609375,0.02288818359375,0.945556640625,2.392578125,-3.446807861328125,-1.099090576171875,1.0,1.0,1.0,1.0,1.0,90.0,event
15:24:34.853,0.94517386,0.38764775,0.25522792,1.6961745,1.1952983,0.14778298,-0.16768695,1.4178927,1.1017966,0.10462861,0.2476892,1.2171797,0.6182861,-0.039750822,-0.08351553,0.99463767,0.45816958,-0.41424823,-0.4122021,0.5355844,668.0586,794.57874,833.663,677.326,726.08057,-0.26995849609375,0.02288818359375,0.945556640625,2.392578125,-3.446807861328125,-1.099090576171875,1.0,1.0,1.0,1.0,1.0,90.0,event
15:24:34.854,0.94517386,0.38764775,0.25522792,1.6961745,1.1952983,0.14778298,-0.16768695,1.4178927,1.1017966,0.10462861,0.2476892,1.2171797,0.6182861,-0.039750822,-0.08351553,0.99463767,0.45816958,-0.41424823,-0.4122021,0.5355844,685.38464,790.54944,839.304,677.72894,748.6447,-0.26995849609375,0.02288818359375,0.945556640625,2.392578125,-3.446807861328125,-1.099090576171875,1.0,1.0,1.0,1.0,1.0,90.0,event
15:24:34.883,0.94517386,0.38764775,0.25522792,1.6961745,1.1952983,0.14778298,-0.16768695,1.4178927,1.1017966,0.10462861,0.2476892,1.2171797,0.6182861,-0.039750822,-0.08351553,0.99463767,0.45816958,-0.41424823,-0.4122021,0.5355844,667.6557,788.93774,842.52747,687.8022,747.8388,-0.28839111328125,0.02581787109375,0.950927734375,2.40753173828125,-3.6187744140625,0.25421142578125,1.0,1.0,1.0,1.0,1.0,90.0,event
15:24:34.885,0.94517386,0.38764775,0.25522792,1.6961745,1.1952983,0.14778298,-0.16768695,1.4178927,1.1017966,0.10462861,0.2476892,1.2171797,0.6182861,-0.039750822,-0.08351553,0.99463767,0.45816958,-0.41424823,-0.4122021,0.5355844,654.35895,788.1319,842.52747,678.1319,699.0842,-0.28839111328125,0.02581787109375,0.950927734375,2.40753173828125,-3.6187744140625,0.25421142578125,1.0,1.0,1.0,1.0,1.0,90.0,event
15:24:34.885,0.94517386,0.38764775,0.25522792,1.6961745,1.1952983,0.14778298,-0.16768695,1.4178927,1.1017966,0.10462861,0.2476892,1.2171797,0.6182861,-0.039750822,-0.08351553,0.99463767,0.45816958,-0.41424823,-0.4122021,0.5355844,675.31134,786.1172,841.7216,684.17584,705.5311,-0.28839111328125,0.02581787109375,0.950927734375,2.40753173828125,-3.6187744140625,0.25421142578125,1.0,1.0,1.0,1.0,1.0,90.0,event
15:24:34.886,0.94517386,0.3904087,0.25937957,1.6961745,1.1952983,0.16056064,-0.14823802,1.4178927,1.1017966,0.10462861,0.21829826,1.2171797,0.6182861,-0.038426947,-0.09953453,0.99463767,0.45816958,-0.40328532,-0.40219304,0.5355844,662.8205,785.7143,842.52747,687.8022,708.7546,-0.28839111328125,0.02581787109375,0.950927734375,2.40753173828125,-3.6187744140625,0.25421142578125,1.0,1.0,1.0,1.0,1.0,90.0,event
15:24:34.890,0.94517386,0.3904087,0.25937957,1.6961745,1.1952983,0.16056064,-0.14823802,1.4178927,1.1017966,0.10462861,0.21829826,1.2171797,0.6182861,-0.038426947,-0.09953453,0.99463767,0.45816958,-0.40328532,-0.40219304,0.5355844,651.9414,787.326,836.8865,660.40295,708.7546,-0.28839111328125,0.02581787109375,0.950927734375,2.40753173828125,-3.6187744140625,0.25421142578125,1.0,1.0,1.0,1.0,1.0,90.0,event
15:24:34.891,0.94517386,0.3904087,0.25937957,1.6961745,1.1952983,0.16056064,-0.14823802,1.4178927,1.1017966,0.10462861,0.21829826,1.2171797,0.6182861,-0.038426947,-0.09953453,0.99463767,0.45816958,-0.40328532,-0.40219304,0.5355844,668.86444,789.34064,833.663,666.04395,811.0989,-0.28839111328125,0.02581787109375,0.950927734375,2.40753173828125,-3.6187744140625,0.25421142578125,1.0,1.0,1.0,1.0,1.0,90.0,event
15:24:34.891,0.94517386,0.3904087,0.25937957,1.6961745,1.1952983,0.16056064,-0.14823802,1.4178927,1.1017966,0.10462861,0.21829826,1.2171797,0.6182861,-0.038426947,-0.09953453,0.99463767,0.45816958,-0.40328532,-0.40219304,0.5355844,679.34064,790.54944,831.6484,675.31134,840.5128,-0.28839111328125,0.02581787109375,0.950927734375,2.40753173828125,-3.6187744140625,0.25421142578125,1.0,1.0,1.0,1.0,1.0,90.0,event
15:24:34.892,0.94517386,0.3904087,0.25937957,1.6961745,1.1952983,0.16056064,-0.14823802,1.4178927,1.1017966,0.10462861,0.21829826,1.2171797,0.6182861,-0.038426947,-0.09953453,0.99463767,0.45816958,-0.40328532,-0.40219304,0.5355844,689.011,792.5641,830.4396,687.8022,857.4359,-0.28839111328125,0.02581787109375,0.950927734375,2.40753173828125,-3.6187744140625,0.25421142578125,1.0,1.0,1.0,1.0,1.0,90.0,event
15:24:34.892,0.94517386,0.3904087,0.25937957,1.6961745,1.1952983,0.16056064,-0.14823802,1.4178927,1.1017966,0.10462861,0.21829826,1.2171797,0.6182861,-0.038426947,-0.09953453,0.99463767,0.45816958,-0.40328532,-0.40219304,0.5355844,691.02563,791.75824,837.6923,710.7692,1006.9231,-0.28839111328125,0.02581787109375,0.950927734375,2.40753173828125,-3.6187744140625,0.25421142578125,1.0,1.0,1.0,1.0,1.0,90.0,event
15:24:34.893,0.94517386,0.3904087,0.25937957,1.6961745,1.1952983,0.16056064,-0.14823802,1.4178927,1.1017966,0.10462861,0.21829826,1.2171797,0.6182861,-0.038426947,-0.09953453,0.99463767,0.45816958,-0.40328532,-0.40219304,0.5355844,690.2198,794.57874,836.4835,700.293,794.57874,-0.28839111328125,0.02581787109375,0.950927734375,2.40753173828125,-3.6187744140625,0.25421142578125,1.0,1.0,1.0,1.0,1.0,90.0,event
15:24:34.894,0.94517386,0.3904087,0.25937957,1.6961745,1.1952983,0.16056064,-0.14823802,1.4178927,1.1017966,0.10462861,0.21829826,1.2171797,0.6182861,-0.038426947,-0.09953453,0.99463767,0.45816958,-0.40328532,-0.40219304,0.5355844,702.3077,799.81683,828.4249,704.3223,666.04395,-0.28839111328125,0.02581787109375,0.950927734375,2.40753173828125,-3.6187744140625,0.25421142578125,1.0,1.0,1.0,1.0,1.0,90.0,event
15:24:34.894,0.94517386,0.3904087,0.25937957,1.6961745,1.1952983,0.16056064,-0.14823802,1.4178927,1.1017966,0.10462861,0.21829826,1.2171797,0.6182861,-0.038426947,-0.09953453,0.99463767,0.45816958,-0.40328532,-0.40219304,0.5355844,725.2747,803.0403,822.381,723.2601,807.0696,-0.28839111328125,0.02581787109375,0.950927734375,2.40753173828125,-3.6187744140625,0.25421142578125,1.0,1.0,1.0,1.0,1.0,90.0,event
15:24:34.923,0.94517386,0.3904087,0.25937957,1.6961745,1.1952983,0.16056064,-0.14823802,1.4178927,1.1017966,0.10462861,0.21829826,1.2171797,0.6182861,-0.038426947,-0.09953453,0.99463767,0.45816958,-0.40328532,-0.40219304,0.5355844,717.619,798.20514,823.9927,721.6484,791.3553,-0.29949951171875,0.0216064453125,0.9432373046875,2.0037841796875,-2.250518798828125,-0.11962890625,1.0,1.0,1.0,1.0,1.0,90.0,event
15:24:34.924,0.94517386,0.3904087,0.25937957,1.6961745,1.1952983,0.16056064,-0.14823802,1.4178927,1.1017966,0.10462861,0.21829826,1.2171797,0.6182861,-0.038426947,-0.09953453,0.99463767,0.45816958,-0.40328532,-0.40219304,0.5355844,724.4689,797.3993,817.5458,715.6044,717.619,-0.29949951171875,0.0216064453125,0.9432373046875,2.0037841796875,-2.250518798828125,-0.11962890625,1.0,1.0,1.0,1.0,1.0,90.0,event
15:24:34.924,0.94517386,0.3904087,0.25937957,1.6961745,1.1952983,0.16056064,-0.14823802,1.4178927,1.1017966,0.10462861,0.21829826,1.2171797,0.6182861,-0.038426947,-0.09953453,0.99463767,0.45816958,-0.40328532,-0.40219304,0.5355844,756.30035,800.2198,813.5165,743.8095,770.80585,-0.29949951171875,0.0216064453125,0.9432373046875,2.0037841796875,-2.250518798828125,-0.11962890625,1.0,1.0,1.0,1.0,1.0,90.0,event
15:24:34.925,0.94517386,0.3904087,0.25937957,1.6961745,1.1952983,0.16056064,-0.14823802,1.4178927,1.1017966,0.10462861,0.21829826,1.2171797,0.6182861,-0.038426947,-0.09953453,0.99463767,0.45816958,-0.40328532,-0.40219304,0.5355844,753.0769,801.02563,814.3223,773.6264,843.3333,-0.29949951171875,0.0216064453125,0.9432373046875,2.0037841796875,-2.250518798828125,-0.11962890625,1.0,1.0,1.0,1.0,1.0,90.0,event
15:24:34.926,0.94517386,0.3904087,0.25937957,1.6961745,1.1952983,0.16056064,-0.14823802,1.4178927,1.1017966,0.10462861,0.21829826,1.2171797,0.6182861,-0.038426947,-0.09953453,0.99463767,0.45816958,-0.40328532,-0.40219304,0.5355844,760.7326,797.8022,813.91943,778.46155,841.7216,-0.29949951171875,0.0216064453125,0.9432373046875,2.0037841796875,-2.250518798828125,-0.11962890625,1.0,1.0,1.0,1.0,1.0,90.0,event
15:24:34.927,0.94517386,0.3904087,0.25937957,1.6961745,1.1952983,0.16056064,-0.14823802,1.4178927,1.1017966,0.10462861,0.21829826,1.2171797,0.6182861,-0.038426947,-0.09953453,0.99463767,0.45816958,-0.40328532,-0.40219304,0.5355844,783.2967,801.4286,811.0989,793.7729,883.6264,-0.29949951171875,0.0216064453125,0.9432373046875,2.0037841796875,-2.250518798828125,-0.11962890625,1.0,1.0,1.0,1.0,1.0,90.0,event
15:24:34.928,0.94517386,0.3904087,0.25937957,1.6961745,1.1952983,0.16056064,-0.14823802,1.4178927,1.1017966,0.10462861,0.21829826,1.2171797,0.6182861,-0.038426947,-0.09953453,0.99463767,0.45816958,-0.40328532,-0.40219304,0.5355844,788.5348,809.0842,803.8461,778.46155,926.7399,-0.29949951171875,0.0216064453125,0.9432373046875,2.0037841796875,-2.250518798828125,-0.11962890625,1.0,1.0,1.0,1.0,1.0,90.0,event
15:24:34.928,0.94517386,0.3904087,0.25937957,1.6961745,1.1952983,0.16056064,-0.14823802,1.4178927,1.1017966,0.10462861,0.21829826,1.2171797,0.6182861,-0.038426947,-0.09953453,0.99463767,0.45816958,-0.40328532,-0.40219304,0.5355844,804.65204,809.4872,804.2491,783.69965,880.40295,-0.29949951171875,0.0216064453125,0.9432373046875,2.0037841796875,-2.250518798828125,-0.11962890625,1.0,1.0,1.0,1.0,1.0,90.0,event
15:24:34.929,0.94517386,0.3904087,0.25937957,1.6961745,1.1952983,0.16056064,-0.14823802,1.4178927,1.1017966,0.10462861,0.21829826,1.2171797,0.6182861,-0.038426947,-0.09953453,0.99463767,0.45816958,-0.40328532,-0.40219304,0.5355844,812.3077,807.0696,799.011,795.78754,686.5934,-0.29949951171875,0.0216064453125,0.9432373046875,2.0037841796875,-2.250518798828125,-0.11962890625,1.0,1.0,1.0,1.0,1.0,90.0,event
15:24:34.929,0.94517386,0.3904087,0.25937957,1.6961745,1.1952983,0.16056064,-0.14823802,1.4178927,1.1017966,0.10462861,0.21829826,1.2171797,0.6182861,-0.038426947,-0.09953453,0.99463767,0.45816958,-0.40328532,-0.40219304,0.5355844,822.7839,811.0989,802.23444,805.4579,731.7216,-0.29949951171875,0.0216064453125,0.9432373046875,2.0037841796875,-2.250518798828125,-0.11962890625,1.0,1.0,1.0,1.0,1.0,90.0,event
15:24:34.930,0.94517386,0.3904087,0.25937957,1.6961745,1.1952983,0.16056064,-0.14823802,1.4178927,1.1017966,0.10462861,0.21829826,1.2171797,0.6182861,-0.038426947,-0.09953453,0.99463767,0.45816958,-0.40328532,-0.40219304,0.5355844,805.4579,805.8608,799.81683,800.6227,738.1685,-0.29949951171875,0.0216064453125,0.9432373046875,2.0037841796875,-2.250518798828125,-0.11962890625,1.0,1.0,1.0,1.0,1.0,90.0,event
15:24:34.930,0.94517386,0.3904087,0.25937957,1.6961745,1.1952983,0.16056064,-0.14823802,1.4178927,1.1017966,0.10462861,0.21829826,1.2171797,0.6182861,-0.038426947,-0.09953453,0.99463767,0.45816958,-0.40328532,-0.40219304,0.5355844,817.1429,809.0842,799.011,813.1135,998.0586,-0.29949951171875,0.0216064453125,0.9432373046875,2.0037841796875,-2.250518798828125,-0.11962890625,1.0,1.0,1.0,1.0,1.0,90.0,event
15:24:34.971,0.94517386,0.3904087,0.25937957,1.6961745,1.1952983,0.16056064,-0.14823802,1.4178927,1.1017966,0.10462861,0.21829826,1.2171797,0.6182861,-0.038426947,-0.09953453,0.99463767,0.45816958,-0.40328532,-0.40219304,0.5355844,827.2161,807.0696,793.36993,824.3956,927.5458,-0.29949951171875,0.0216064453125,0.9432373046875,2.0037841796875,-2.250518798828125,-0.11962890625,1.0,1.0,1.0,1.0,1.0,90.0,event
15:24:34.972,0.94517386,0.3904087,0.25937957,1.6961745,1.1952983,0.16056064,-0.14823802,1.4178927,1.1017966,0.10462861,0.21829826,1.2171797,0.6182861,-0.038426947,-0.09953453,0.99463767,0.45816958,-0.40328532,-0.40219304,0.5355844,826.8132,806.26373,792.5641,823.5897,718.8278,-0.29949951171875,0.0216064453125,0.9432373046875,2.0037841796875,-2.250518798828125,-0.11962890625,1.0,1.0,1.0,1.0,1.0,90.0,event
15:24:34.973,0.94517386,0.3904087,0.25937957,1.6961745,1.1952983,0.16056064,-0.14823802,1.4178927,1.1017966,0.10462861,0.21829826,1.2171797,0.6182861,-0.038426947,-0.09953453,0.99463767,0.45816958,-0.40328532,-0.40219304,0.5355844,828.8278,801.4286,788.93774,820.7692,803.8461,-0.29949951171875,0.0216064453125,0.9432373046875,2.0037841796875,-2.250518798828125,-0.11962890625,1.0,1.0,1.0,1.0,1.0,90.0,event
15:24:34.974,0.94517386,0.3904087,0.25937957,1.6961745,1.1952983,0.16056064,-0.14823802,1.4178927,1.1017966,0.10462861,0.21829826,1.2171797,0.6182861,-0.038426947,-0.09953453,0.99463767,0.45816958,-0.40328532,-0.40219304,0.5355844,836.8865,801.4286,787.326,828.022,817.9487,-0.29949951171875,0.0216064453125,0.9432373046875,2.0037841796875,-2.250518798828125,-0.11962890625,1.0,1.0,1.0,1.0,1.0,90.0,event
15:24:34.974,0.94517386,0.3904087,0.25937957,1.6961745,1.1952983,0.16056064,-0.14823802,1.4178927,1.1017966,0.10462861,0.21829826,1.2171797,0.6182861,-0.038426947,-0.09953453,0.99463767,0.45816958,-0.40328532,-0.40219304,0.5355844,833.663,803.8461,794.57874,826.4103,703.91943,-0.29949951171875,0.0216064453125,0.9432373046875,2.0037841796875,-2.250518798828125,-0.11962890625,1.0,1.0,1.0,1.0,1.0,90.0,event
15:24:34.975,0.94517386,0.39149648,0.28060088,1.6961745,1.1952983,0.15598847,-0.11541785,1.4178927,1.1017966,0.1022004,0.1573433,1.2171797,0.6182861,-0.043791983,-0.11371498,0.99463767,0.45816958,-0.39484435,-0.39270455,0.5355844,828.022,801.8315,794.17584,814.3223,731.31866,-0.29949951171875,0.0216064453125,0.9432373046875,2.0037841796875,-2.250518798828125,-0.11962890625,1.0,1.0,1.0,1.0,1.0,90.0,event
15:24:34.980,0.94517386,0.39149648,0.28060088,1.6961745,1.1952983,0.15598847,-0.11541785,1.4178927,1.1017966,0.1022004,0.1573433,1.2171797,0.6182861,-0.043791983,-0.11371498,0.99463767,0.45816958,-0.39484435,-0.39270455,0.5355844,841.7216,801.4286,793.7729,823.9927,837.6923,-0.29949951171875,0.0216064453125,0.9432373046875,2.0037841796875,-2.250518798828125,-0.11962890625,1.0,1.0,1.0,1.0,1.0,90.0,event
15:24:34.981,0.94517386,0.39149648,0.28060088,1.6961745,1.1952983,0.15598847,-0.11541785,1.4178927,1.1017966,0.1022004,0.1573433,1.2171797,0.6182861,-0.043791983,-0.11371498,0.99463767,0.45816958,-0.39484435,-0.39270455,0.5355844,821.5751,804.2491,794.57874,826.8132,843.3333,-0.29949951171875,0.0216064453125,0.9432373046875,2.0037841796875,-2.250518798828125,-0.11962890625,1.0,1.0,1.0,1.0,1.0,90.0,event
15:24:34.981,0.94517386,0.39149648,0.28060088,1.6961745,1.1952983,0.15598847,-0.11541785,1.4178927,1.1017966,0.1022004,0.1573433,1.2171797,0.6182861,-0.043791983,-0.11371498,0.99463767,0.45816958,-0.39484435,-0.39270455,0.5355844,833.2601,801.02563,792.96704,849.3773,1017.8022,-0.29949951171875,0.0216064453125,0.9432373046875,2.0037841796875,-2.250518798828125,-0.11962890625,1.0,1.0,1.0,1.0,1.0,90.0,event
15:24:34.982,0.94517386,0.39149648,0.28060088,1.6961745,1.1952983,0.15598847,-0.11541785,1.4178927,1.1017966,0.1022004,0.1573433,1.2171797,0.6182861,-0.043791983,-0.11371498,0.99463767,0.45816958,-0.39484435,-0.39270455,0.5355844,844.1392,809.0842,796.99634,830.84247,682.96704,-0.29949951171875,0.0216064453125,0.9432373046875,2.0037841796875,-2.250518798828125,-0.11962890625,1.0,1.0,1.0,1.0,1.0,90.0,event
15:24:34.984,0.94517386,0.39149648,0.28060088,1.6961745,1.1952983,0.15598847,-0.11541785,1.4178927,1.1017966,0.1022004,0.1573433,1.2171797,0.6182861,-0.043791983,-0.11371498,0.99463767,0.45816958,-0.39484435,-0.39270455,0.5355844,854.21246,811.0989,797.8022,845.34796,703.91943,-0.29949951171875,0.0216064453125,0.9432373046875,2.0037841796875,-2.250518798828125,-0.11962890625,1.0,1.0,1.0,1.0,1.0,90.0,event
15:24:34.986,0.94517386,0.39149648,0.28060088,1.6961745,1.1952983,0.15598847,-0.11541785,1.4178927,1.1017966,0.1022004,0.1573433,1.2171797,0.6182861,-0.043791983,-0.11371498,0.99463767,0.45816958,-0.39484435,-0.39270455,0.5355844,841.7216,812.71063,796.5934,830.84247,713.9927,-0.29949951171875,0.0216064453125,0.9432373046875,2.0037841796875,-2.250518798828125,-0.11962890625,1.0,1.0,1.0,1.0,1.0,90.0,event
15:24:35.014,0.94517386,0.39149648,0.28060088,1.6961745,1.1952983,0.15598847,-0.11541785,1.4178927,1.1017966,0.1022004,0.1573433,1.2171797,0.6182861,-0.043791983,-0.11371498,0.99463767,0.45816958,-0.39484435,-0.39270455,0.5355844,840.10986,814.7253,796.99634,830.84247,726.08057,-0.292236328125,0.02447509765625,0.94403076171875,2.99072265625,-0.037384033203125,-1.1962890625,1.0,1.0,1.0,1.0,1.0,90.0,event
15:24:35.015,0.94517386,0.39149648,0.28060088,1.6961745,1.1952983,0.15598847,-0.11541785,1.4178927,1.1017966,0.1022004,0.1573433,1.2171797,0.6182861,-0.043791983,-0.11371498,0.99463767,0.45816958,-0.39484435,-0.39270455,0.5355844,836.4835,813.91943,794.17584,836.8865,753.8828,-0.292236328125,0.02447509765625,0.94403076171875,2.99072265625,-0.037384033203125,-1.1962890625,1.0,1.0,1.0,1.0,1.0,90.0,event
15:24:35.016,0.94517386,0.39149648,0.28060088,1.6961745,1.1952983,0.15598847,-0.11541785,1.4178927,1.1017966,0.1022004,0.1573433,1.2171797,0.6182861,-0.043791983,-0.11371498,0.99463767,0.45816958,-0.39484435,-0.39270455,0.5355844,834.0659,804.65204,791.3553,842.52747,822.381,-0.292236328125,0.02447509765625,0.94403076171875,2.99072265625,-0.037384033203125,-1.1962890625,1.0,1.0,1.0,1.0,1.0,90.0,event
15:24:35.017,0.94517386,0.39149648,0.28060088,1.6961745,1.1952983,0.15598847,-0.11541785,1.4178927,1.1017966,0.1022004,0.1573433,1.2171797,0.6182861,-0.043791983,-0.11371498,0.99463767,0.45816958,-0.39484435,-0.39270455,0.5355844,824.7985,804.2491,791.3553,841.7216,755.09155,-0.292236328125,0.02447509765625,0.94403076171875,2.99072265625,-0.037384033203125,-1.1962890625,1.0,1.0,1.0,1.0,1.0,90.0,event
15:24:35.018,0.94517386,0.39149648,0.28060088,1.6961745,1.1952983,0.15598847,-0.11541785,1.4178927,1.1017966,0.1022004,0.1573433,1.2171797,0.6182861,-0.043791983,-0.11371498,0.99463767,0.45816958,-0.39484435,-0.39270455,0.5355844,831.6484,811.50183,790.14655,836.08057,695.4579,-0.292236328125,0.02447509765625,0.94403076171875,2.99072265625,-0.037384033203125,-1.1962890625,1.0,1.0,1.0,1.0,1.0,90.0,event
15:24:35.018,0.94517386,0.39149648,0.28060088,1.6961745,1.1952983,0.15598847,-0.11541785,1.4178927,1.1017966,0.1022004,0.1573433,1.2171797,0.6182861,-0.043791983,-0.11371498,0.99463767,0.45816958,-0.39484435,-0.39270455,0.5355844,841.31866,813.5165,790.54944,825.2015,793.7729,-0.292236328125,0.02447509765625,0.94403076171875,2.99072265625,-0.037384033203125,-1.1962890625,1.0,1.0,1.0,1.0,1.0,90.0,event
15:24:35.019,0.94517386,0.39149648,0.28060088,1.6961745,1.1952983,0.15598847,-0.11541785,1.4178927,1.1017966,0.1022004,0.1573433,1.2171797,0.6182861,-0.043791983,-0.11371498,0.99463767,0.45816958,-0.39484435,-0.39270455,0.5355844,834.4689,811.9048,788.93774,837.28937,1075.8242,-0.292236328125,0.02447509765625,0.94403076171875,2.99072265625,-0.037384033203125,-1.1962890625,1.0,1.0,1.0,1.0,1.0,90.0,event
15:24:35.019,0.94517386,0.39149648,0.28060088,1.6961745,1.1952983,0.15598847,-0.11541785,1.4178927,1.1017966,0.1022004,0.1573433,1.2171797,0.6182861,-0.043791983,-0.11371498,0.99463767,0.45816958,-0.39484435,-0.39270455,0.5355844,841.31866,815.12823,786.1172,848.97437,1079.0476,-0.292236328125,0.02447509765625,0.94403076171875,2.99072265625,-0.037384033203125,-1.1962890625,1.0,1.0,1.0,1.0,1.0,90.0,event
15:24:35.020,0.94517386,0.39149648,0.28060088,1.6961745,1.1952983,0.15598847,-0.11541785,1.4178927,1.1017966,0.1022004,0.1573433,1.2171797,0.6182861,-0.043791983,-0.11371498,0.99463767,0.45816958,-0.39484435,-0.39270455,0.5355844,843.3333,816.337,785.31134,823.9927,801.4286,-0.292236328125,0.02447509765625,0.94403076171875,2.99072265625,-0.037384033203125,-1.1962890625,1.0,1.0,1.0,1.0,1.0,90.0,event
15:24:35.021,0.94517386,0.39149648,0.28060088,1.6961745,1.1952983,0.15598847,-0.11541785,1.4178927,1.1017966,0.1022004,0.1573433,1.2171797,0.6182861,-0.043791983,-0.11371498,0.99463767,0.45816958,-0.39484435,-0.39270455,0.5355844,834.87177,809.0842,786.9231,827.619,841.7216,-0.292236328125,0.02447509765625,0.94403076171875,2.99072265625,-0.037384033203125,-1.1962890625,1.0,1.0,1.0,1.0,1.0,90.0,event
15:24:35.021,0.94517386,0.39149648,0.28060088,1.6961745,1.1952983,0.15598847,-0.11541785,1.4178927,1.1017966,0.1022004,0.1573433,1.2171797,0.6182861,-0.043791983,-0.11371498,0.99463767,0.45816958,-0.39484435,-0.39270455,0.5355844,834.87177,811.9048,784.5055,819.9634,760.7326,-0.292236328125,0.02447509765625,0.94403076171875,2.99072265625,-0.037384033203125,-1.1962890625,1.0,1.0,1.0,1.0,1.0,90.0,event
15:24:35.022,0.94517386,0.39149648,0.28060088,1.6961745,1.1952983,0.15598847,-0.11541785,1.4178927,1.1017966,0.1022004,0.1573433,1.2171797,0.6182861,-0.043791983,-0.11371498,0.99463767,0.45816958,-0.39484435,-0.39270455,0.5355844,819.15753,807.47253,787.326,825.6044,787.326,-0.292236328125,0.02447509765625,0.94403076171875,2.99072265625,-0.037384033203125,-1.1962890625,1.0,1.0,1.0,1.0,1.0,90.0,event
15:24:35.048,0.94517386,0.39149648,0.28060088,1.6961745,1.1952983,0.15598847,-0.11541785,1.4178927,1.1017966,0.1022004,0.1573433,1.2171797,0.6182861,-0.043791983,-0.11371498,0.99463767,0.45816958,-0.39484435,-0.39270455,0.5355844,824.7985,806.6667,786.9231,823.5897,726.08057,-0.291015625,0.02716064453125,0.94464111328125,4.194488525390625,-2.250518798828125,-0.70281982421875,1.0,1.0,1.0,1.0,1.0,90.0,event
15:24:35.049,0.94517386,0.39149648,0.28060088,1.6961745,1.1952983,0.15598847,-0.11541785,1.4178927,1.1017966,0.1022004,0.1573433,1.2171797,0.6182861,-0.043791983,-0.11371498,0.99463767,0.45816958,-0.39484435,-0.39270455,0.5355844,834.87177,807.8755,791.3553,836.4835,722.8571,-0.291015625,0.02716064453125,0.94464111328125,4.194488525390625,-2.250518798828125,-0.70281982421875,1.0,1.0,1.0,1.0,1.0,90.0,event
15:24:35.049,0.94517386,0.39149648,0.28060088,1.6961745,1.1952983,0.15598847,-0.11541785,1.4178927,1.1017966,0.1022004,0.1573433,1.2171797,0.6182861,-0.043791983,-0.11371498,0.99463767,0.45816958,-0.39484435,-0.39270455,0.5355844,821.1722,805.8608,788.93774,835.2747,776.4469,-0.291015625,0.02716064453125,0.94464111328125,4.194488525390625,-2.250518798828125,-0.70281982421875,1.0,1.0,1.0,1.0,1.0,90.0,event
15:24:35.050,0.94517386,0.39149648,0.28060088,1.6961745,1.1952983,0.15598847,-0.11541785,1.4178927,1.1017966,0.1022004,0.1573433,1.2171797,0.6182861,-0.043791983,-0.11371498,0.99463767,0.45816958,-0.39484435,-0.39270455,0.5355844,819.15753,800.2198,785.7143,813.91943,739.7802,-0.291015625,0.02716064453125,0.94464111328125,4.194488525390625,-2.250518798828125,-0.70281982421875,1.0,1.0,1.0,1.0,1.0,90.0,event
15:24:35.051,0.94517386,0.39149648,0.28060088,1.6961745,1.1952983,0.15598847,-0.11541785,1.4178927,1.1017966,0.1022004,0.1573433,1.2171797,0.6182861,-0.043791983,-0.11371498,0.99463767,0.45816958,-0.39484435,-0.39270455,0.5355844,823.9927,801.02563,790.14655,831.2454,720.84247,-0.291015625,0.02716064453125,0.94464111328125,4.194488525390625,-2.250518798828125,-0.70281982421875,1.0,1.0,1.0,1.0,1.0,90.0,event
15:24:35.051,0.94517386,0.39149648,0.28060088,1.6961745,1.1952983,0.15598847,-0.11541785,1.4178927,1.1017966,0.1022004,0.1573433,1.2171797,0.6182861,-0.043791983,-0.11371498,0.99463767,0.45816958,-0.39484435,-0.39270455,0.5355844,815.9341,803.8461,794.17584,835.6777,894.90845,-0.291015625,0.02716064453125,0.94464111328125,4.194488525390625,-2.250518798828125,-0.70281982421875,1.0,1.0,1.0,1.0,1.0,90.0,event
15:24:35.052,0.94517386,0.39149648,0.28060088,1.6961745,1.1952983,0.15598847,-0.11541785,1.4178927,1.1017966,0.1022004,0.1573433,1.2171797,0.6182861,-0.043791983,-0.11371498,0.99463767,0.45816958,-0.39484435,-0.39270455,0.5355844,811.9048,804.2491,790.54944,820.7692,1011.3553,-0.291015625,0.02716064453125,0.94464111328125,4.194488525390625,-2.250518798828125,-0.70281982421875,1.0,1.0,1.0,1.0,1.0,90.0,event
15:24:35.052,0.94517386,0.39437482,0.34280264,1.6961745,1.1952983,0.1282129,-0.022066988,1.4178927,1.1017966,0.093959235,0.069277994,1.2171797,0.6182861,-0.05476039,-0.123974726,0.99463767,0.45816958,-0.38921946,-0.3868868,0.5355844,815.5311,801.4286,790.14655,827.619,758.71796,-0.291015625,0.02716064453125,0.94464111328125,4.194488525390625,-2.250518798828125,-0.70281982421875,1.0,1.0,1.0,1.0,1.0,90.0,event
15:24:35.055,,,,,,,,,,,,,,,,,,,,,,,,,,,,,,,,,,,,,,blink
15:24:35.056,0.94517386,0.39437482,0.34280264,1.6961745,1.1952983,0.1282129,-0.022066988,1.4178927,1.1017966,0.093959235,0.069277994,1.2171797,0.6182861,-0.05476039,-0.123974726,0.99463767,0.45816958,-0.38921946,-0.3868868,0.5355844,799.81683,800.2198,792.5641,836.08057,653.5531,-0.291015625,0.02716064453125,0.94464111328125,4.194488525390625,-2.250518798828125,-0.70281982421875,1.0,1.0,1.0,1.0,1.0,90.0,event
15:24:35.057,0.94517386,0.39437482,0.34280264,1.6961745,1.1952983,0.1282129,-0.022066988,1.4178927,1.1017966,0.093959235,0.069277994,1.2171797,0.6182861,-0.05476039,-0.123974726,0.99463767,0.45816958,-0.38921946,-0.3868868,0.5355844,808.2784,803.44324,786.52014,786.1172,956.9597,-0.291015625,0.02716064453125,0.94464111328125,4.194488525390625,-2.250518798828125,-0.70281982421875,1.0,1.0,1.0,1.0,1.0,90.0,event
15:24:35.057,0.94517386,0.39437482,0.34280264,1.6961745,1.1952983,0.1282129,-0.022066988,1.4178927,1.1017966,0.093959235,0.069277994,1.2171797,0.6182861,-0.05476039,-0.123974726,0.99463767,0.45816958,-0.38921946,-0.3868868,0.5355844,799.81683,807.8755,787.72894,800.6227,880.0,-0.291015625,0.02716064453125,0.94464111328125,4.194488525390625,-2.250518798828125,-0.70281982421875,1.0,1.0,1.0,1.0,1.0,90.0,event
15:24:35.058,0.94517386,0.39437482,0.34280264,1.6961745,1.1952983,0.1282129,-0.022066988,1.4178927,1.1017966,0.093959235,0.069277994,1.2171797,0.6182861,-0.05476039,-0.123974726,0.99463767,0.45816958,-0.38921946,-0.3868868,0.5355844,795.38464,795.38464,793.36993,803.0403,683.7729,-0.291015625,0.02716064453125,0.94464111328125,4.194488525390625,-2.250518798828125,-0.70281982421875,1.0,1.0,1.0,1.0,1.0,90.0,event
15:24:35.115,0.94517386,0.39437482,0.34280264,1.6961745,1.1952983,0.1282129,-0.022066988,1.4178927,1.1017966,0.093959235,0.069277994,1.2171797,0.6182861,-0.05476039,-0.123974726,0.99463767,0.45816958,-0.38921946,-0.3868868,0.5355844,802.6374,796.1905,794.57874,818.3516,573.36993,-0.30328369140625,0.02593994140625,0.94598388671875,4.56085205078125,-3.087921142578125,-0.91217041015625,1.0,1.0,1.0,1.0,1.0,90.0,event
15:24:35.116,0.94517386,0.39437482,0.34280264,1.6961745,1.1952983,0.1282129,-0.022066988,1.4178927,1.1017966,0.093959235,0.069277994,1.2171797,0.6182861,-0.05476039,-0.123974726,0.99463767,0.45816958,-0.38921946,-0.3868868,0.5355844,791.3553,793.7729,788.1319,812.3077,703.1135,-0.30328369140625,0.02593994140625,0.94598388671875,4.56085205078125,-3.087921142578125,-0.91217041015625,1.0,1.0,1.0,1.0,1.0,90.0,event
15:24:35.117,0.94517386,0.39437482,0.34280264,1.6961745,1.1952983,0.1282129,-0.022066988,1.4178927,1.1017966,0.093959235,0.069277994,1.2171797,0.6182861,-0.05476039,-0.123974726,0.99463767,0.45816958,-0.38921946,-0.3868868,0.5355844,790.14655,796.5934,788.5348,796.99634,734.5421,-0.30328369140625,0.02593994140625,0.94598388671875,4.56085205078125,-3.087921142578125,-0.91217041015625,1.0,1.0,1.0,1.0,1.0,90.0,event
15:24:35.118,0.94517386,0.39437482,0.34280264,1.6961745,1.1952983,0.1282129,-0.022066988,1.4178927,1.1017966,0.093959235,0.069277994,1.2171797,0.6182861,-0.05476039,-0.123974726,0.99463767,0.45816958,-0.38921946,-0.3868868,0.5355844,794.17584,809.0842,785.7143,780.4762,704.7253,-0.30328369140625,0.02593994140625,0.94598388671875,4.56085205078125,-3.087921142578125,-0.91217041015625,1.0,1.0,1.0,1.0,1.0,90.0,event
15:24:35.118,0.94517386,0.39437482,0.34280264,1.6961745,1.1952983,0.1282129,-0.022066988,1.4178927,1.1017966,0.093959235,0.069277994,1.2171797,0.6182861,-0.05476039,-0.123974726,0.99463767,0.45816958,-0.38921946,-0.3868868,0.5355844,801.8315,817.9487,783.69965,775.64105,744.61536,-0.30328369140625,0.02593994140625,0.94598388671875,4.56085205078125,-3.087921142578125,-0.91217041015625,1.0,1.0,1.0,1.0,1.0,90.0,event
15:24:35.119,0.94517386,0.39437482,0.34280264,1.6961745,1.1952983,0.1282129,-0.022066988,1.4178927,1.1017966,0.093959235,0.069277994,1.2171797,0.6182861,-0.05476039,-0.123974726,0.99463767,0.45816958,-0.38921946,-0.3868868,0.5355844,800.6227,814.3223,788.5348,780.4762,881.6117,-0.30328369140625,0.02593994140625,0.94598388671875,4.56085205078125,-3.087921142578125,-0.91217041015625,1.0,1.0,1.0,1.0,1.0,90.0,event
15:24:35.120,0.94517386,0.39437482,0.34280264,1.6961745,1.1952983,0.1282129,-0.022066988,1.4178927,1.1017966,0.093959235,0.069277994,1.2171797,0.6182861,-0.05476039,-0.123974726,0.99463767,0.45816958,-0.38921946,-0.3868868,0.5355844,794.9817,811.50183,788.1319,783.2967,859.85345,-0.30328369140625,0.02593994140625,0.94598388671875,4.56085205078125,-3.087921142578125,-0.91217041015625,1.0,1.0,1.0,1.0,1.0,90.0,event
15:24:35.120,0.94517386,0.39437482,0.34280264,1.6961745,1.1952983,0.1282129,-0.022066988,1.4178927,1.1017966,0.093959235,0.069277994,1.2171797,0.6182861,-0.05476039,-0.123974726,0.99463767,0.45816958,-0.38921946,-0.3868868,0.5355844,790.14655,811.9048,791.3553,779.2674,705.12823,-0.30328369140625,0.02593994140625,0.94598388671875,4.56085205078125,-3.087921142578125,-0.91217041015625,1.0,1.0,1.0,1.0,1.0,90.0,event
15:24:35.121,0.94517386,0.39437482,0.34280264,1.6961745,1.1952983,0.1282129,-0.022066988,1.4178927,1.1017966,0.093959235,0.069277994,1.2171797,0.6182861,-0.05476039,-0.123974726,0.99463767,0.45816958,-0.38921946,-0.3868868,0.5355844,802.6374,815.9341,780.87915,784.5055,947.6923,-0.30328369140625,0.02593994140625,0.94598388671875,4.56085205078125,-3.087921142578125,-0.91217041015625,1.0,1.0,1.0,1.0,1.0,90.0,event
15:24:35.121,0.94517386,0.39437482,0.34280264,1.6961745,1.1952983,0.1282129,-0.022066988,1.4178927,1.1017966,0.093959235,0.069277994,1.2171797,0.6182861,-0.05476039,-0.123974726,0.99463767,0.45816958,-0.38921946,-0.3868868,0.5355844,801.02563,811.50183,786.1172,786.1172,696.26373,-0.30328369140625,0.02593994140625,0.94598388671875,4.56085205078125,-3.087921142578125,-0.91217041015625,1.0,1.0,1.0,1.0,1.0,90.0,event
15:24:35.122,0.94517386,0.39437482,0.34280264,1.6961745,1.1952983,0.1282129,-0.022066988,1.4178927,1.1017966,0.093959235,0.069277994,1.2171797,0.6182861,-0.05476039,-0.123974726,0.99463767,0.45816958,-0.38921946,-0.3868868,0.5355844,802.6374,823.5897,792.96704,777.25275,861.06226,-0.30328369140625,0.02593994140625,0.94598388671875,4.56085205078125,-3.087921142578125,-0.91217041015625,1.0,1.0,1.0,1.0,1.0,90.0,event
15:24:35.123,0.94517386,0.39437482,0.34280264,1.6961745,1.1952983,0.1282129,-0.022066988,1.4178927,1.1017966,0.093959235,0.069277994,1.2171797,0.6182861,-0.05476039,-0.123974726,0.99463767,0.45816958,-0.38921946,-0.3868868,0.5355844,813.1135,821.5751,797.8022,789.34064,731.7216,-0.30328369140625,0.02593994140625,0.94598388671875,4.56085205078125,-3.087921142578125,-0.91217041015625,1.0,1.0,1.0,1.0,1.0,90.0,event
15:24:35.151,0.94517386,0.39437482,0.34280264,1.6961745,1.1952983,0.1282129,-0.022066988,1.4178927,1.1017966,0.093959235,0.069277994,1.2171797,0.6182861,-0.05476039,-0.123974726,0.99463767,0.45816958,-0.38921946,-0.3868868,0.5355844,815.12823,813.5165,792.1612,807.0696,885.2381,-0.2947998046875,0.03302001953125,0.94012451171875,2.7813720703125,-5.03936767578125,-1.1663818359375,1.0,1.0,1.0,1.0,1.0,90.0,event
15:24:35.152,0.94517386,0.39437482,0.34280264,1.6961745,1.1952983,0.1282129,-0.022066988,1.4178927,1.1017966,0.093959235,0.069277994,1.2171797,0.6182861,-0.05476039,-0.123974726,0.99463767,0.45816958,-0.38921946,-0.3868868,0.5355844,821.978,813.1135,790.54944,799.011,877.1795,-0.2947998046875,0.03302001953125,0.94012451171875,2.7813720703125,-5.03936767578125,-1.1663818359375,1.0,1.0,1.0,1.0,1.0,90.0,event
15:24:35.153,0.94517386,0.39437482,0.34280264,1.6961745,1.1952983,0.1282129,-0.022066988,1.4178927,1.1017966,0.093959235,0.069277994,1.2171797,0.6182861,-0.05476039,-0.123974726,0.99463767,0.45816958,-0.38921946,-0.3868868,0.5355844,820.7692,813.5165,788.5348,800.6227,724.0659,-0.2947998046875,0.03302001953125,0.94012451171875,2.7813720703125,-5.03936767578125,-1.1663818359375,1.0,1.0,1.0,1.0,1.0,90.0,event
15:24:35.154,0.94517386,0.39437482,0.34280264,1.6961745,1.1952983,0.1282129,-0.022066988,1.4178927,1.1017966,0.093959235,0.069277994,1.2171797,0.6182861,-0.05476039,-0.123974726,0.99463767,0.45816958,-0.38921946,-0.3868868,0.5355844,827.619,815.5311,790.14655,809.4872,712.381,-0.2947998046875,0.03302001953125,0.94012451171875,2.7813720703125,-5.03936767578125,-1.1663818359375,1.0,1.0,1.0,1.0,1.0,90.0,event
15:24:35.154,0.94517386,0.39437482,0.34280264,1.6961745,1.1952983,0.1282129,-0.022066988,1.4178927,1.1017966,0.093959235,0.069277994,1.2171797,0.6182861,-0.05476039,-0.123974726,0.99463767,0.45816958,-0.38921946,-0.3868868,0.5355844,836.08057,822.381,792.5641,800.2198,766.77655,-0.2947998046875,0.03302001953125,0.94012451171875,2.7813720703125,-5.03936767578125,-1.1663818359375,1.0,1.0,1.0,1.0,1.0,90.0,event
15:24:35.155,0.94517386,0.39437482,0.34280264,1.6961745,1.1952983,0.1282129,-0.022066988,1.4178927,1.1017966,0.093959235,0.069277994,1.2171797,0.6182861,-0.05476039,-0.123974726,0.99463767,0.45816958,-0.38921946,-0.3868868,0.5355844,823.1868,820.7692,797.3993,824.7985,869.12085,-0.2947998046875,0.03302001953125,0.94012451171875,2.7813720703125,-5.03936767578125,-1.1663818359375,1.0,1.0,1.0,1.0,1.0,90.0,event
15:24:35.156,0.94517386,0.39437482,0.34280264,1.6961745,1.1952983,0.1282129,-0.022066988,1.4178927,1.1017966,0.093959235,0.069277994,1.2171797,0.6182861,-0.05476039,-0.123974726,0.99463767,0.45816958,-0.38921946,-0.3868868,0.5355844,807.8755,812.71063,799.41394,832.4542,886.4469,-0.2947998046875,0.03302001953125,0.94012451171875,2.7813720703125,-5.03936767578125,-1.1663818359375,1.0,1.0,1.0,1.0,1.0,90.0,event
15:24:35.156,0.94517386,0.39437482,0.34280264,1.6961745,1.1952983,0.1282129,-0.022066988,1.4178927,1.1017966,0.093959235,0.069277994,1.2171797,0.6182861,-0.05476039,-0.123974726,0.99463767,0.45816958,-0.38921946,-0.3868868,0.5355844,802.6374,817.5458,797.3993,808.2784,813.1135,-0.2947998046875,0.03302001953125,0.94012451171875,2.7813720703125,-5.03936767578125,-1.1663818359375,1.0,1.0,1.0,1.0,1.0,90.0,event
15:24:35.157,0.94517386,0.40753442,0.48378962,1.6961745,1.1952983,0.08509248,0.14232191,1.4178927,1.1017966,0.07232983,0.013509525,1.2171797,0.6182861,-0.06932526,-0.12779273,0.99463767,0.45816958,-0.38915873,-0.3830412,0.5355844,833.2601,811.0989,802.23444,819.15753,1060.1099,-0.2947998046875,0.03302001953125,0.94012451171875,2.7813720703125,-5.03936767578125,-1.1663818359375,1.0,1.0,1.0,1.0,1.0,90.0,event
15:24:35.157,0.94517386,0.39437482,0.34280264,1.6961745,1.1952983,0.1282129,-0.022066988,1.4178927,1.1017966,0.093959235,0.069277994,1.2171797,0.6182861,-0.05476039,-0.123974726,0.99463767,0.45816958,-0.38921946,-0.3868868,0.5355844,826.4103,819.15753,801.8315,817.1429,883.6264,-0.2947998046875,0.03302001953125,0.94012451171875,2.7813720703125,-5.03936767578125,-1.1663818359375,1.0,1.0,1.0,1.0,1.0,90.0,event
15:24:35.162,0.94517386,0.40753442,0.48378962,1.6961745,1.1952983,0.08509248,0.14232191,1.4178927,1.1017966,0.07232983,0.013509525,1.2171797,0.6182861,-0.06932526,-0.12779273,0.99463767,0.45816958,-0.38915873,-0.3830412,0.5355844,817.1429,811.9048,798.60803,809.4872,841.31866,-0.2947998046875,0.03302001953125,0.94012451171875,2.7813720703125,-5.03936767578125,-1.1663818359375,1.0,1.0,1.0,1.0,1.0,90.0,event
15:24:35.162,0.94517386,0.40753442,0.48378962,1.6961745,1.1952983,0.08509248,0.14232191,1.4178927,1.1017966,0.07232983,0.013509525,1.2171797,0.6182861,-0.06932526,-0.12779273,0.99463767,0.45816958,-0.38915873,-0.3830412,0.5355844,819.5604,810.696,800.2198,804.2491,712.7839,-0.2947998046875,0.03302001953125,0.94012451171875,2.7813720703125,-5.03936767578125,-1.1663818359375,1.0,1.0,1.0,1.0,1.0,90.0,event
15:24:35.189,0.94517386,0.40753442,0.48378962,1.6961745,1.1952983,0.08509248,0.14232191,1.4178927,1.1017966,0.07232983,0.013509525,1.2171797,0.6182861,-0.06932526,-0.12779273,0.99463767,0.45816958,-0.38915873,-0.3830412,0.5355844,823.5897,814.3223,797.3993,805.8608,794.57874,-0.2947998046875,0.03302001953125,0.94012451171875,2.7813720703125,-5.03936767578125,-1.1663818359375,1.0,1.0,1.0,1.0,1.0,90.0,event
15:24:35.190,0.94517386,0.40753442,0.48378962,1.6961745,1.1952983,0.08509248,0.14232191,1.4178927,1.1017966,0.07232983,0.013509525,1.2171797,0.6182861,-0.06932526,-0.12779273,0.99463767,0.45816958,-0.38915873,-0.3830412,0.5355844,817.1429,815.12823,791.75824,806.6667,737.3626,-0.2947998046875,0.03302001953125,0.94012451171875,2.7813720703125,-5.03936767578125,-1.1663818359375,1.0,1.0,1.0,1.0,1.0,90.0,event
15:24:35.191,0.94517386,0.40753442,0.48378962,1.6961745,1.1952983,0.08509248,0.14232191,1.4178927,1.1017966,0.07232983,0.013509525,1.2171797,0.6182861,-0.06932526,-0.12779273,0.99463767,0.45816958,-0.38915873,-0.3830412,0.5355844,821.1722,811.9048,794.17584,801.4286,729.707,-0.2947998046875,0.03302001953125,0.94012451171875,2.7813720703125,-5.03936767578125,-1.1663818359375,1.0,1.0,1.0,1.0,1.0,90.0,event
15:24:35.191,0.94517386,0.40753442,0.48378962,1.6961745,1.1952983,0.08509248,0.14232191,1.4178927,1.1017966,0.07232983,0.013509525,1.2171797,0.6182861,-0.06932526,-0.12779273,0.99463767,0.45816958,-0.38915873,-0.3830412,0.5355844,822.381,813.91943,799.41394,812.71063,784.90845,-0.2947998046875,0.03302001953125,0.94012451171875,2.7813720703125,-5.03936767578125,-1.1663818359375,1.0,1.0,1.0,1.0,1.0,90.0,event
15:24:35.192,0.94517386,0.40753442,0.48378962,1.6961745,1.1952983,0.08509248,0.14232191,1.4178927,1.1017966,0.07232983,0.013509525,1.2171797,0.6182861,-0.06932526,-0.12779273,0.99463767,0.45816958,-0.38915873,-0.3830412,0.5355844,809.4872,816.337,796.1905,822.7839,897.326,-0.2947998046875,0.03302001953125,0.94012451171875,2.7813720703125,-5.03936767578125,-1.1663818359375,1.0,1.0,1.0,1.0,1.0,90.0,event
15:24:35.192,0.94517386,0.40753442,0.48378962,1.6961745,1.1952983,0.08509248,0.14232191,1.4178927,1.1017966,0.07232983,0.013509525,1.2171797,0.6182861,-0.06932526,-0.12779273,0.99463767,0.45816958,-0.38915873,-0.3830412,0.5355844,818.3516,816.7399,795.38464,831.2454,906.99634,-0.2947998046875,0.03302001953125,0.94012451171875,2.7813720703125,-5.03936767578125,-1.1663818359375,1.0,1.0,1.0,1.0,1.0,90.0,event
15:24:35.193,0.94517386,0.40753442,0.48378962,1.6961745,1.1952983,0.08509248,0.14232191,1.4178927,1.1017966,0.07232983,0.013509525,1.2171797,0.6182861,-0.06932526,-0.12779273,0.99463767,0.45816958,-0.38915873,-0.3830412,0.5355844,830.84247,817.1429,799.81683,829.6337,802.23444,-0.2947998046875,0.03302001953125,0.94012451171875,2.7813720703125,-5.03936767578125,-1.1663818359375,1.0,1.0,1.0,1.0,1.0,90.0,event
15:24:35.194,0.94517386,0.40753442,0.48378962,1.6961745,1.1952983,0.08509248,0.14232191,1.4178927,1.1017966,0.07232983,0.013509525,1.2171797,0.6182861,-0.06932526,-0.12779273,0.99463767,0.45816958,-0.38915873,-0.3830412,0.5355844,823.1868,812.71063,794.17584,826.0073,946.4835,-0.2947998046875,0.03302001953125,0.94012451171875,2.7813720703125,-5.03936767578125,-1.1663818359375,1.0,1.0,1.0,1.0,1.0,90.0,event
15:24:35.194,0.94517386,0.40753442,0.48378962,1.6961745,1.1952983,0.08509248,0.14232191,1.4178927,1.1017966,0.07232983,0.013509525,1.2171797,0.6182861,-0.06932526,-0.12779273,0.99463767,0.45816958,-0.38915873,-0.3830412,0.5355844,819.5604,817.9487,798.60803,808.68134,722.8571,-0.2947998046875,0.03302001953125,0.94012451171875,2.7813720703125,-5.03936767578125,-1.1663818359375,1.0,1.0,1.0,1.0,1.0,90.0,event
15:24:35.195,0.94517386,0.40753442,0.48378962,1.6961745,1.1952983,0.08509248,0.14232191,1.4178927,1.1017966,0.07232983,0.013509525,1.2171797,0.6182861,-0.06932526,-0.12779273,0.99463767,0.45816958,-0.38915873,-0.3830412,0.5355844,824.3956,807.47253,796.1905,834.87177,1079.4506,-0.2947998046875,0.03302001953125,0.94012451171875,2.7813720703125,-5.03936767578125,-1.1663818359375,1.0,1.0,1.0,1.0,1.0,90.0,event
15:24:35.196,0.94517386,0.40753442,0.48378962,1.6961745,1.1952983,0.08509248,0.14232191,1.4178927,1.1017966,0.07232983,0.013509525,1.2171797,0.6182861,-0.06932526,-0.12779273,0.99463767,0.45816958,-0.38915873,-0.3830412,0.5355844,817.9487,809.0842,799.81683,826.0073,790.54944,-0.2947998046875,0.03302001953125,0.94012451171875,2.7813720703125,-5.03936767578125,-1.1663818359375,1.0,1.0,1.0,1.0,1.0,90.0,event
15:24:35.197,0.94517386,0.40753442,0.48378962,1.6961745,1.1952983,0.08509248,0.14232191,1.4178927,1.1017966,0.07232983,0.013509525,1.2171797,0.6182861,-0.06932526,-0.12779273,0.99463767,0.45816958,-0.38915873,-0.3830412,0.5355844,828.8278,808.68134,800.2198,826.8132,691.02563,-0.2947998046875,0.03302001953125,0.94012451171875,2.7813720703125,-5.03936767578125,-1.1663818359375,1.0,1.0,1.0,1.0,1.0,90.0,event
15:24:35.266,0.94517386,0.40753442,0.48378962,1.6961745,1.1952983,0.08509248,0.14232191,1.4178927,1.1017966,0.07232983,0.013509525,1.2171797,0.6182861,-0.06932526,-0.12779273,0.99463767,0.45816958,-0.38915873,-0.3830412,0.5355844,815.5311,805.4579,801.8315,817.1429,698.68134,-0.29144287109375,0.037109375,0.942138671875,2.27294921875,-4.50103759765625,0.725250244140625,1.0,1.0,1.0,1.0,1.0,90.0,event
15:24:35.268,0.94517386,0.40753442,0.48378962,1.6961745,1.1952983,0.08509248,0.14232191,1.4178927,1.1017966,0.07232983,0.013509525,1.2171797,0.6182861,-0.06932526,-0.12779273,0.99463767,0.45816958,-0.38915873,-0.3830412,0.5355844,801.8315,806.6667,807.0696,815.5311,672.49084,-0.29144287109375,0.037109375,0.942138671875,2.27294921875,-4.50103759765625,0.725250244140625,1.0,1.0,1.0,1.0,1.0,90.0,event
15:24:35.268,0.94517386,0.40753442,0.48378962,1.6961745,1.1952983,0.08509248,0.14232191,1.4178927,1.1017966,0.07232983,0.013509525,1.2171797,0.6182861,-0.06932526,-0.12779273,0.99463767,0.45816958,-0.38915873,-0.3830412,0.5355844,807.8755,814.3223,805.05493,809.0842,699.0842,-0.29144287109375,0.037109375,0.942138671875,2.27294921875,-4.50103759765625,0.725250244140625,1.0,1.0,1.0,1.0,1.0,90.0,event
15:24:35.269,0.94517386,0.40753442,0.48378962,1.6961745,1.1952983,0.08509248,0.14232191,1.4178927,1.1017966,0.07232983,0.013509525,1.2171797,0.6182861,-0.06932526,-0.12779273,0.99463767,0.45816958,-0.38915873,-0.3830412,0.5355844,814.7253,807.8755,800.6227,816.337,742.1978,-0.29144287109375,0.037109375,0.942138671875,2.27294921875,-4.50103759765625,0.725250244140625,1.0,1.0,1.0,1.0,1.0,90.0,event
15:24:35.270,0.94517386,0.40753442,0.48378962,1.6961745,1.1952983,0.08509248,0.14232191,1.4178927,1.1017966,0.07232983,0.013509525,1.2171797,0.6182861,-0.06932526,-0.12779273,0.99463767,0.45816958,-0.38915873,-0.3830412,0.5355844,821.978,799.41394,801.4286,826.8132,765.9707,-0.29144287109375,0.037109375,0.942138671875,2.27294921875,-4.50103759765625,0.725250244140625,1.0,1.0,1.0,1.0,1.0,90.0,event
15:24:35.271,0.94517386,0.40753442,0.48378962,1.6961745,1.1952983,0.08509248,0.14232191,1.4178927,1.1017966,0.07232983,0.013509525,1.2171797,0.6182861,-0.06932526,-0.12779273,0.99463767,0.45816958,-0.38915873,-0.3830412,0.5355844,820.7692,802.23444,798.60803,816.337,762.74725,-0.29144287109375,0.037109375,0.942138671875,2.27294921875,-4.50103759765625,0.725250244140625,1.0,1.0,1.0,1.0,1.0,90.0,event
15:24:35.272,0.94517386,0.40753442,0.48378962,1.6961745,1.1952983,0.08509248,0.14232191,1.4178927,1.1017966,0.07232983,0.013509525,1.2171797,0.6182861,-0.06932526,-0.12779273,0.99463767,0.45816958,-0.38915873,-0.3830412,0.5355844,808.68134,804.65204,796.99634,807.47253,771.6117,-0.29144287109375,0.037109375,0.942138671875,2.27294921875,-4.50103759765625,0.725250244140625,1.0,1.0,1.0,1.0,1.0,90.0,event
15:24:35.273,0.94517386,0.40753442,0.48378962,1.6961745,1.1952983,0.08509248,0.14232191,1.4178927,1.1017966,0.07232983,0.013509525,1.2171797,0.6182861,-0.06932526,-0.12779273,0.99463767,0.45816958,-0.38915873,-0.3830412,0.5355844,799.011,805.4579,802.6374,816.337,933.9927,-0.29144287109375,0.037109375,0.942138671875,2.27294921875,-4.50103759765625,0.725250244140625,1.0,1.0,1.0,1.0,1.0,90.0,event
15:24:35.274,0.94517386,0.40753442,0.48378962,1.6961745,1.1952983,0.08509248,0.14232191,1.4178927,1.1017966,0.07232983,0.013509525,1.2171797,0.6182861,-0.06932526,-0.12779273,0.99463767,0.45816958,-0.38915873,-0.3830412,0.5355844,805.4579,806.6667,803.44324,811.9048,1166.0806,-0.29144287109375,0.037109375,0.942138671875,2.27294921875,-4.50103759765625,0.725250244140625,1.0,1.0,1.0,1.0,1.0,90.0,event
15:24:35.275,0.94517386,0.40753442,0.48378962,1.6961745,1.1952983,0.08509248,0.14232191,1.4178927,1.1017966,0.07232983,0.013509525,1.2171797,0.6182861,-0.06932526,-0.12779273,0.99463767,0.45816958,-0.38915873,-0.3830412,0.5355844,812.71063,805.05493,802.6374,794.9817,900.54944,-0.29144287109375,0.037109375,0.942138671875,2.27294921875,-4.50103759765625,0.725250244140625,1.0,1.0,1.0,1.0,1.0,90.0,event
15:24:35.275,0.94517386,0.40753442,0.48378962,1.6961745,1.1952983,0.08509248,0.14232191,1.4178927,1.1017966,0.07232983,0.013509525,1.2171797,0.6182861,-0.06932526,-0.12779273,0.99463767,0.45816958,-0.38915873,-0.3830412,0.5355844,800.2198,807.8755,809.0842,785.31134,663.22345,-0.29144287109375,0.037109375,0.942138671875,2.27294921875,-4.50103759765625,0.725250244140625,1.0,1.0,1.0,1.0,1.0,90.0,event
15:24:35.276,0.94517386,0.43026987,0.48778775,1.6961745,1.1952983,0.053012267,0.16079435,1.4178927,1.1017966,0.11608455,-0.029741384,1.2171797,0.6182861,-0.08492427,-0.12401457,0.99463767,0.45816958,-0.39518943,-0.37943667,0.5355844,797.8022,812.3077,802.6374,789.34064,712.381,-0.29144287109375,0.037109375,0.942138671875,2.27294921875,-4.50103759765625,0.725250244140625,1.0,1.0,1.0,1.0,1.0,90.0,event
15:24:35.310,0.94517386,0.43026987,0.48778775,1.6961745,1.1952983,0.053012267,0.16079435,1.4178927,1.1017966,0.11608455,-0.029741384,1.2171797,0.6182861,-0.08492427,-0.12401457,0.99463767,0.45816958,-0.39518943,-0.37943667,0.5355844,810.293,804.65204,797.8022,807.47253,716.8132,-0.2869873046875,0.03411865234375,0.947021484375,2.61688232421875,-4.91973876953125,0.55328369140625,1.0,1.0,1.0,1.0,1.0,90.0,event
15:24:35.311,0.94517386,0.43026987,0.48778775,1.6961745,1.1952983,0.053012267,0.16079435,1.4178927,1.1017966,0.11608455,-0.029741384,1.2171797,0.6182861,-0.08492427,-0.12401457,0.99463767,0.45816958,-0.39518943,-0.37943667,0.5355844,806.6667,803.44324,801.8315,810.293,684.9817,-0.2869873046875,0.03411865234375,0.947021484375,2.61688232421875,-4.91973876953125,0.55328369140625,1.0,1.0,1.0,1.0,1.0,90.0,event
15:24:35.312,0.94517386,0.43026987,0.48778775,1.6961745,1.1952983,0.053012267,0.16079435,1.4178927,1.1017966,0.11608455,-0.029741384,1.2171797,0.6182861,-0.08492427,-0.12401457,0.99463767,0.45816958,-0.39518943,-0.37943667,0.5355844,792.1612,808.2784,799.81683,799.81683,679.34064,-0.2869873046875,0.03411865234375,0.947021484375,2.61688232421875,-4.91973876953125,0.55328369140625,1.0,1.0,1.0,1.0,1.0,90.0,event
15:24:35.313,0.94517386,0.43026987,0.48778775,1.6961745,1.1952983,0.053012267,0.16079435,1.4178927,1.1017966,0.11608455,-0.029741384,1.2171797,0.6182861,-0.08492427,-0.12401457,0.99463767,0.45816958,-0.39518943,-0.37943667,0.5355844,780.4762,807.8755,798.60803,791.3553,732.1245,-0.2869873046875,0.03411865234375,0.947021484375,2.61688232421875,-4.91973876953125,0.55328369140625,1.0,1.0,1.0,1.0,1.0,90.0,event
15:24:35.313,0.94517386,0.43026987,0.48778775,1.6961745,1.1952983,0.053012267,0.16079435,1.4178927,1.1017966,0.11608455,-0.029741384,1.2171797,0.6182861,-0.08492427,-0.12401457,0.99463767,0.45816958,-0.39518943,-0.37943667,0.5355844,788.93774,805.4579,799.41394,807.0696,744.21246,-0.2869873046875,0.03411865234375,0.947021484375,2.61688232421875,-4.91973876953125,0.55328369140625,1.0,1.0,1.0,1.0,1.0,90.0,event
15:24:35.314,0.94517386,0.43026987,0.48778775,1.6961745,1.1952983,0.053012267,0.16079435,1.4178927,1.1017966,0.11608455,-0.029741384,1.2171797,0.6182861,-0.08492427,-0.12401457,0.99463767,0.45816958,-0.39518943,-0.37943667,0.5355844,804.2491,808.2784,799.011,811.9048,766.77655,-0.2869873046875,0.03411865234375,0.947021484375,2.61688232421875,-4.91973876953125,0.55328369140625,1.0,1.0,1.0,1.0,1.0,90.0,event
15:24:35.314,0.94517386,0.43026987,0.48778775,1.6961745,1.1952983,0.053012267,0.16079435,1.4178927,1.1017966,0.11608455,-0.029741384,1.2171797,0.6182861,-0.08492427,-0.12401457,0.99463767,0.45816958,-0.39518943,-0.37943667,0.5355844,809.4872,809.4872,798.20514,807.47253,822.381,-0.2869873046875,0.03411865234375,0.947021484375,2.61688232421875,-4.91973876953125,0.55328369140625,1.0,1.0,1.0,1.0,1.0,90.0,event
15:24:35.315,0.94517386,0.43026987,0.48778775,1.6961745,1.1952983,0.053012267,0.16079435,1.4178927,1.1017966,0.11608455,-0.029741384,1.2171797,0.6182861,-0.08492427,-0.12401457,0.99463767,0.45816958,-0.39518943,-0.37943667,0.5355844,792.96704,805.4579,804.65204,794.17584,886.4469,-0.2869873046875,0.03411865234375,0.947021484375,2.61688232421875,-4.91973876953125,0.55328369140625,1.0,1.0,1.0,1.0,1.0,90.0,event
15:24:35.316,0.94517386,0.43026987,0.48778775,1.6961745,1.1952983,0.053012267,0.16079435,1.4178927,1.1017966,0.11608455,-0.029741384,1.2171797,0.6182861,-0.08492427,-0.12401457,0.99463767,0.45816958,-0.39518943,-0.37943667,0.5355844,783.69965,804.2491,805.4579,788.93774,775.2381,-0.2869873046875,0.03411865234375,0.947021484375,2.61688232421875,-4.91973876953125,0.55328369140625,1.0,1.0,1.0,1.0,1.0,90.0,event
15:24:35.316,0.94517386,0.43026987,0.48778775,1.6961745,1.1952983,0.053012267,0.16079435,1.4178927,1.1017966,0.11608455,-0.029741384,1.2171797,0.6182861,-0.08492427,-0.12401457,0.99463767,0.45816958,-0.39518943,-0.37943667,0.5355844,787.326,800.6227,801.4286,788.93774,724.0659,-0.2869873046875,0.03411865234375,0.947021484375,2.61688232421875,-4.91973876953125,0.55328369140625,1.0,1.0,1.0,1.0,1.0,90.0,event
15:24:35.317,0.94517386,0.43026987,0.48778775,1.6961745,1.1952983,0.053012267,0.16079435,1.4178927,1.1017966,0.11608455,-0.029741384,1.2171797,0.6182861,-0.08492427,-0.12401457,0.99463767,0.45816958,-0.39518943,-0.37943667,0.5355844,791.75824,798.60803,802.6374,793.36993,759.92676,-0.2869873046875,0.03411865234375,0.947021484375,2.61688232421875,-4.91973876953125,0.55328369140625,1.0,1.0,1.0,1.0,1.0,90.0,event
15:24:35.318,0.94517386,0.43026987,0.48778775,1.6961745,1.1952983,0.053012267,0.16079435,1.4178927,1.1017966,0.11608455,-0.029741384,1.2171797,0.6182861,-0.08492427,-0.12401457,0.99463767,0.45816958,-0.39518943,-0.37943667,0.5355844,801.02563,799.41394,797.8022,794.57874,1038.3517,-0.2869873046875,0.03411865234375,0.947021484375,2.61688232421875,-4.91973876953125,0.55328369140625,1.0,1.0,1.0,1.0,1.0,90.0,event
15:24:35.351,0.94517386,0.43026987,0.48778775,1.6961745,1.1952983,0.053012267,0.16079435,1.4178927,1.1017966,0.11608455,-0.029741384,1.2171797,0.6182861,-0.08492427,-0.12401457,0.99463767,0.45816958,-0.39518943,-0.37943667,0.5355844,798.20514,803.0403,794.57874,784.5055,992.01465,-0.291748046875,0.0390625,0.9473876953125,2.863616943359375,-3.701019287109375,-0.418701171875,1.0,1.0,1.0,1.0,1.0,90.0,event
15:24:35.352,0.94517386,0.43026987,0.48778775,1.6961745,1.1952983,0.053012267,0.16079435,1.4178927,1.1017966,0.11608455,-0.029741384,1.2171797,0.6182861,-0.08492427,-0.12401457,0.99463767,0.45816958,-0.39518943,-0.37943667,0.5355844,786.52014,803.44324,800.2198,771.6117,689.011,-0.291748046875,0.0390625,0.9473876953125,2.863616943359375,-3.701019287109375,-0.418701171875,1.0,1.0,1.0,1.0,1.0,90.0,event
15:24:35.353,0.94517386,0.43026987,0.48778775,1.6961745,1.1952983,0.053012267,0.16079435,1.4178927,1.1017966,0.11608455,-0.029741384,1.2171797,0.6182861,-0.08492427,-0.12401457,0.99463767,0.45816958,-0.39518943,-0.37943667,0.5355844,778.46155,806.26373,802.23444,779.2674,687.8022,-0.291748046875,0.0390625,0.9473876953125,2.863616943359375,-3.701019287109375,-0.418701171875,1.0,1.0,1.0,1.0,1.0,90.0,event
15:24:35.354,0.94517386,0.43026987,0.48778775,1.6961745,1.1952983,0.053012267,0.16079435,1.4178927,1.1017966,0.11608455,-0.029741384,1.2171797,0.6182861,-0.08492427,-0.12401457,0.99463767,0.45816958,-0.39518943,-0.37943667,0.5355844,770.80585,798.60803,798.60803,789.7436,687.8022,-0.291748046875,0.0390625,0.9473876953125,2.863616943359375,-3.701019287109375,-0.418701171875,1.0,1.0,1.0,1.0,1.0,90.0,event
15:24:35.354,0.94517386,0.43026987,0.48778775,1.6961745,1.1952983,0.053012267,0.16079435,1.4178927,1.1017966,0.11608455,-0.029741384,1.2171797,0.6182861,-0.08492427,-0.12401457,0.99463767,0.45816958,-0.39518943,-0.37943667,0.5355844,770.80585,803.0403,794.57874,788.5348,686.5934,-0.291748046875,0.0390625,0.9473876953125,2.863616943359375,-3.701019287109375,-0.418701171875,1.0,1.0,1.0,1.0,1.0,90.0,event
15:24:35.355,0.94517386,0.43026987,0.48778775,1.6961745,1.1952983,0.053012267,0.16079435,1.4178927,1.1017966,0.11608455,-0.029741384,1.2171797,0.6182861,-0.08492427,-0.12401457,0.99463767,0.45816958,-0.39518943,-0.37943667,0.5355844,779.67035,810.696,799.011,782.0879,790.14655,-0.291748046875,0.0390625,0.9473876953125,2.863616943359375,-3.701019287109375,-0.418701171875,1.0,1.0,1.0,1.0,1.0,90.0,event
15:24:35.356,0.94517386,0.43026987,0.48778775,1.6961745,1.1952983,0.053012267,0.16079435,1.4178927,1.1017966,0.11608455,-0.029741384,1.2171797,0.6182861,-0.08492427,-0.12401457,0.99463767,0.45816958,-0.39518943,-0.37943667,0.5355844,780.4762,794.17584,805.8608,780.4762,836.8865,-0.291748046875,0.0390625,0.9473876953125,2.863616943359375,-3.701019287109375,-0.418701171875,1.0,1.0,1.0,1.0,1.0,90.0,event
15:24:35.356,0.94517386,0.43026987,0.48778775,1.6961745,1.1952983,0.053012267,0.16079435,1.4178927,1.1017966,0.11608455,-0.029741384,1.2171797,0.6182861,-0.08492427,-0.12401457,0.99463767,0.45816958,-0.39518943,-0.37943667,0.5355844,785.7143,797.3993,803.8461,778.86444,897.72894,-0.291748046875,0.0390625,0.9473876953125,2.863616943359375,-3.701019287109375,-0.418701171875,1.0,1.0,1.0,1.0,1.0,90.0,event
15:24:35.357,0.94517386,0.43026987,0.48778775,1.6961745,1.1952983,0.053012267,0.16079435,1.4178927,1.1017966,0.11608455,-0.029741384,1.2171797,0.6182861,-0.08492427,-0.12401457,0.99463767,0.45816958,-0.39518943,-0.37943667,0.5355844,790.14655,797.8022,800.6227,807.47253,713.1868,-0.291748046875,0.0390625,0.9473876953125,2.863616943359375,-3.701019287109375,-0.418701171875,1.0,1.0,1.0,1.0,1.0,90.0,event
15:24:35.357,0.94517386,0.43026987,0.48778775,1.6961745,1.1952983,0.053012267,0.16079435,1.4178927,1.1017966,0.11608455,-0.029741384,1.2171797,0.6182861,-0.08492427,-0.12401457,0.99463767,0.45816958,-0.39518943,-0.37943667,0.5355844,807.47253,801.02563,800.2198,819.9634,666.4469,-0.291748046875,0.0390625,0.9473876953125,2.863616943359375,-3.701019287109375,-0.418701171875,1.0,1.0,1.0,1.0,1.0,90.0,event
15:24:35.358,0.94517386,0.43026987,0.48778775,1.6961745,1.1952983,0.053012267,0.16079435,1.4178927,1.1017966,0.11608455,-0.029741384,1.2171797,0.6182861,-0.08492427,-0.12401457,0.99463767,0.45816958,-0.39518943,-0.37943667,0.5355844,805.8608,804.65204,807.8755,808.2784,858.24176,-0.291748046875,0.0390625,0.9473876953125,2.863616943359375,-3.701019287109375,-0.418701171875,1.0,1.0,1.0,1.0,1.0,90.0,event
15:24:35.359,0.94517386,0.43026987,0.48778775,1.6961745,1.1952983,0.053012267,0.16079435,1.4178927,1.1017966,0.11608455,-0.029741384,1.2171797,0.6182861,-0.08492427,-0.12401457,0.99463767,0.45816958,-0.39518943,-0.37943667,0.5355844,805.05493,810.293,808.2784,807.8755,1139.8901,-0.291748046875,0.0390625,0.9473876953125,2.863616943359375,-3.701019287109375,-0.418701171875,1.0,1.0,1.0,1.0,1.0,90.0,event
15:24:35.384,0.94517386,0.43026987,0.48778775,1.6961745,1.1952983,0.053012267,0.16079435,1.4178927,1.1017966,0.11608455,-0.029741384,1.2171797,0.6182861,-0.08492427,-0.12401457,0.99463767,0.45816958,-0.39518943,-0.37943667,0.5355844,811.0989,814.7253,805.4579,815.5311,890.07324,-0.288818359375,0.03314208984375,0.94879150390625,3.4991455078125,-2.79632568359375,-0.680389404296875,1.0,1.0,1.0,1.0,1.0,90.0,event
15:24:35.387,0.94517386,0.44964,0.4881612,1.6961745,1.1952983,0.061770357,0.1823611,1.4178927,1.1017966,0.22838841,-0.0653851,1.2171797,0.6182861,-0.09895823,-0.12500875,0.99463767,0.45816958,-0.40069836,-0.37815788,0.5355844,811.50183,810.293,808.2784,811.9048,754.2857,-0.288818359375,0.03314208984375,0.94879150390625,3.4991455078125,-2.79632568359375,-0.680389404296875,1.0,1.0,1.0,1.0,1.0,90.0,event
15:24:35.391,0.94517386,0.44964,0.4881612,1.6961745,1.1952983,0.061770357,0.1823611,1.4178927,1.1017966,0.22838841,-0.0653851,1.2171797,0.6182861,-0.09895823,-0.12500875,0.99463767,0.45816958,-0.40069836,-0.37815788,0.5355844,815.12823,810.696,811.0989,816.7399,879.59705,-0.288818359375,0.03314208984375,0.94879150390625,3.4991455078125,-2.79632568359375,-0.680389404296875,1.0,1.0,1.0,1.0,1.0,90.0,event
15:24:35.392,0.94517386,0.44964,0.4881612,1.6961745,1.1952983,0.061770357,0.1823611,1.4178927,1.1017966,0.22838841,-0.0653851,1.2171797,0.6182861,-0.09895823,-0.12500875,0.99463767,0.45816958,-0.40069836,-0.37815788,0.5355844,816.337,807.8755,806.26373,821.5751,808.2784,-0.288818359375,0.03314208984375,0.94879150390625,3.4991455078125,-2.79632568359375,-0.680389404296875,1.0,1.0,1.0,1.0,1.0,90.0,event
15:24:35.393,0.94517386,0.44964,0.4881612,1.6961745,1.1952983,0.061770357,0.1823611,1.4178927,1.1017966,0.22838841,-0.0653851,1.2171797,0.6182861,-0.09895823,-0.12500875,0.99463767,0.45816958,-0.40069836,-0.37815788,0.5355844,807.8755,807.8755,801.8315,811.0989,660.0,-0.288818359375,0.03314208984375,0.94879150390625,3.4991455078125,-2.79632568359375,-0.680389404296875,1.0,1.0,1.0,1.0,1.0,90.0,event
15:24:35.393,0.94517386,0.44964,0.4881612,1.6961745,1.1952983,0.061770357,0.1823611,1.4178927,1.1017966,0.22838841,-0.0653851,1.2171797,0.6182861,-0.09895823,-0.12500875,0.99463767,0.45816958,-0.40069836,-0.37815788,0.5355844,817.9487,808.68134,803.44324,808.2784,787.72894,-0.288818359375,0.03314208984375,0.94879150390625,3.4991455078125,-2.79632568359375,-0.680389404296875,1.0,1.0,1.0,1.0,1.0,90.0,event
15:24:35.394,0.94517386,0.44964,0.4881612,1.6961745,1.1952983,0.061770357,0.1823611,1.4178927,1.1017966,0.22838841,-0.0653851,1.2171797,0.6182861,-0.09895823,-0.12500875,0.99463767,0.45816958,-0.40069836,-0.37815788,0.5355844,815.5311,804.2491,799.41394,811.0989,1052.8572,-0.288818359375,0.03314208984375,0.94879150390625,3.4991455078125,-2.79632568359375,-0.680389404296875,1.0,1.0,1.0,1.0,1.0,90.0,event
15:24:35.395,0.94517386,0.44964,0.4881612,1.6961745,1.1952983,0.061770357,0.1823611,1.4178927,1.1017966,0.22838841,-0.0653851,1.2171797,0.6182861,-0.09895823,-0.12500875,0.99463767,0.45816958,-0.40069836,-0.37815788,0.5355844,807.47253,801.4286,798.60803,815.5311,960.989,-0.288818359375,0.03314208984375,0.94879150390625,3.4991455078125,-2.79632568359375,-0.680389404296875,1.0,1.0,1.0,1.0,1.0,90.0,event
15:24:35.396,0.94517386,0.44964,0.4881612,1.6961745,1.1952983,0.061770357,0.1823611,1.4178927,1.1017966,0.22838841,-0.0653851,1.2171797,0.6182861,-0.09895823,-0.12500875,0.99463767,0.45816958,-0.40069836,-0.37815788,0.5355844,801.4286,805.4579,801.8315,811.0989,715.6044,-0.288818359375,0.03314208984375,0.94879150390625,3.4991455078125,-2.79632568359375,-0.680389404296875,1.0,1.0,1.0,1.0,1.0,90.0,event
15:24:35.396,0.94517386,0.44964,0.4881612,1.6961745,1.1952983,0.061770357,0.1823611,1.4178927,1.1017966,0.22838841,-0.0653851,1.2171797,0.6182861,-0.09895823,-0.12500875,0.99463767,0.45816958,-0.40069836,-0.37815788,0.5355844,798.20514,808.68134,796.5934,803.44324,700.293,-0.288818359375,0.03314208984375,0.94879150390625,3.4991455078125,-2.79632568359375,-0.680389404296875,1.0,1.0,1.0,1.0,1.0,90.0,event
15:24:35.397,0.94517386,0.44964,0.4881612,1.6961745,1.1952983,0.061770357,0.1823611,1.4178927,1.1017966,0.22838841,-0.0653851,1.2171797,0.6182861,-0.09895823,-0.12500875,0.99463767,0.45816958,-0.40069836,-0.37815788,0.5355844,802.23444,803.8461,797.3993,795.78754,760.7326,-0.288818359375,0.03314208984375,0.94879150390625,3.4991455078125,-2.79632568359375,-0.680389404296875,1.0,1.0,1.0,1.0,1.0,90.0,event
15:24:35.398,0.94517386,0.44964,0.4881612,1.6961745,1.1952983,0.061770357,0.1823611,1.4178927,1.1017966,0.22838841,-0.0653851,1.2171797,0.6182861,-0.09895823,-0.12500875,0.99463767,0.45816958,-0.40069836,-0.37815788,0.5355844,794.9817,801.8315,800.2198,786.52014,709.15753,-0.288818359375,0.03314208984375,0.94879150390625,3.4991455078125,-2.79632568359375,-0.680389404296875,1.0,1.0,1.0,1.0,1.0,90.0,event
15:24:35.424,0.94517386,0.44964,0.4881612,1.6961745,1.1952983,0.061770357,0.1823611,1.4178927,1.1017966,0.22838841,-0.0653851,1.2171797,0.6182861,-0.09895823,-0.12500875,0.99463767,0.45816958,-0.40069836,-0.37815788,0.5355844,800.2198,806.26373,805.8608,795.38464,704.7253,-0.288818359375,0.03314208984375,0.94879150390625,3.4991455078125,-2.79632568359375,-0.680389404296875,1.0,1.0,1.0,1.0,1.0,90.0,event
15:24:35.425,0.94517386,0.44964,0.4881612,1.6961745,1.1952983,0.061770357,0.1823611,1.4178927,1.1017966,0.22838841,-0.0653851,1.2171797,0.6182861,-0.09895823,-0.12500875,0.99463767,0.45816958,-0.40069836,-0.37815788,0.5355844,800.2198,805.4579,804.2491,801.02563,755.09155,-0.288818359375,0.03314208984375,0.94879150390625,3.4991455078125,-2.79632568359375,-0.680389404296875,1.0,1.0,1.0,1.0,1.0,90.0,event
15:24:35.426,0.94517386,0.44964,0.4881612,1.6961745,1.1952983,0.061770357,0.1823611,1.4178927,1.1017966,0.22838841,-0.0653851,1.2171797,0.6182861,-0.09895823,-0.12500875,0.99463767,0.45816958,-0.40069836,-0.37815788,0.5355844,791.75824,800.6227,803.44324,798.20514,742.1978,-0.288818359375,0.03314208984375,0.94879150390625,3.4991455078125,-2.79632568359375,-0.680389404296875,1.0,1.0,1.0,1.0,1.0,90.0,event
15:24:35.426,0.94517386,0.44964,0.4881612,1.6961745,1.1952983,0.061770357,0.1823611,1.4178927,1.1017966,0.22838841,-0.0653851,1.2171797,0.6182861,-0.09895823,-0.12500875,0.99463767,0.45816958,-0.40069836,-0.37815788,0.5355844,791.75824,801.8315,807.8755,805.4579,796.5934,-0.288818359375,0.03314208984375,0.94879150390625,3.4991455078125,-2.79632568359375,-0.680389404296875,1.0,1.0,1.0,1.0,1.0,90.0,event
15:24:35.427,0.94517386,0.44964,0.4881612,1.6961745,1.1952983,0.061770357,0.1823611,1.4178927,1.1017966,0.22838841,-0.0653851,1.2171797,0.6182861,-0.09895823,-0.12500875,0.99463767,0.45816958,-0.40069836,-0.37815788,0.5355844,799.41394,806.26373,803.8461,802.6374,848.97437,-0.288818359375,0.03314208984375,0.94879150390625,3.4991455078125,-2.79632568359375,-0.680389404296875,1.0,1.0,1.0,1.0,1.0,90.0,event
15:24:35.427,0.94517386,0.44964,0.4881612,1.6961745,1.1952983,0.061770357,0.1823611,1.4178927,1.1017966,0.22838841,-0.0653851,1.2171797,0.6182861,-0.09895823,-0.12500875,0.99463767,0.45816958,-0.40069836,-0.37815788,0.5355844,807.0696,803.0403,806.6667,803.8461,801.8315,-0.288818359375,0.03314208984375,0.94879150390625,3.4991455078125,-2.79632568359375,-0.680389404296875,1.0,1.0,1.0,1.0,1.0,90.0,event
15:24:35.428,0.94517386,0.44964,0.4881612,1.6961745,1.1952983,0.061770357,0.1823611,1.4178927,1.1017966,0.22838841,-0.0653851,1.2171797,0.6182861,-0.09895823,-0.12500875,0.99463767,0.45816958,-0.40069836,-0.37815788,0.5355844,799.41394,807.8755,803.0403,801.02563,1112.8938,-0.288818359375,0.03314208984375,0.94879150390625,3.4991455078125,-2.79632568359375,-0.680389404296875,1.0,1.0,1.0,1.0,1.0,90.0,event
15:24:35.429,0.94517386,0.44964,0.4881612,1.6961745,1.1952983,0.061770357,0.1823611,1.4178927,1.1017966,0.22838841,-0.0653851,1.2171797,0.6182861,-0.09895823,-0.12500875,0.99463767,0.45816958,-0.40069836,-0.37815788,0.5355844,809.0842,809.0842,802.23444,796.1905,883.6264,-0.288818359375,0.03314208984375,0.94879150390625,3.4991455078125,-2.79632568359375,-0.680389404296875,1.0,1.0,1.0,1.0,1.0,90.0,event
15:24:35.429,0.94517386,0.44964,0.4881612,1.6961745,1.1952983,0.061770357,0.1823611,1.4178927,1.1017966,0.22838841,-0.0653851,1.2171797,0.6182861,-0.09895823,-0.12500875,0.99463767,0.45816958,-0.40069836,-0.37815788,0.5355844,793.7729,809.4872,803.8461,794.57874,667.6557,-0.288818359375,0.03314208984375,0.94879150390625,3.4991455078125,-2.79632568359375,-0.680389404296875,1.0,1.0,1.0,1.0,1.0,90.0,event
15:24:35.430,0.94517386,0.44964,0.4881612,1.6961745,1.1952983,0.061770357,0.1823611,1.4178927,1.1017966,0.22838841,-0.0653851,1.2171797,0.6182861,-0.09895823,-0.12500875,0.99463767,0.45816958,-0.40069836,-0.37815788,0.5355844,784.90845,807.0696,807.47253,795.38464,745.82416,-0.288818359375,0.03314208984375,0.94879150390625,3.4991455078125,-2.79632568359375,-0.680389404296875,1.0,1.0,1.0,1.0,1.0,90.0,event
15:24:35.430,0.94517386,0.44964,0.4881612,1.6961745,1.1952983,0.061770357,0.1823611,1.4178927,1.1017966,0.22838841,-0.0653851,1.2171797,0.6182861,-0.09895823,-0.12500875,0.99463767,0.45816958,-0.40069836,-0.37815788,0.5355844,788.5348,807.0696,805.8608,789.7436,707.9487,-0.288818359375,0.03314208984375,0.94879150390625,3.4991455078125,-2.79632568359375,-0.680389404296875,1.0,1.0,1.0,1.0,1.0,90.0,event
15:24:35.431,0.94517386,0.44964,0.4881612,1.6961745,1.1952983,0.061770357,0.1823611,1.4178927,1.1017966,0.22838841,-0.0653851,1.2171797,0.6182861,-0.09895823,-0.12500875,0.99463767,0.45816958,-0.40069836,-0.37815788,0.5355844,795.78754,806.6667,808.2784,794.57874,634.21246,-0.288818359375,0.03314208984375,0.94879150390625,3.4991455078125,-2.79632568359375,-0.680389404296875,1.0,1.0,1.0,1.0,1.0,90.0,event
15:24:35.495,0.94517386,0.44964,0.4881612,1.6961745,1.1952983,0.061770357,0.1823611,1.4178927,1.1017966,0.22838841,-0.0653851,1.2171797,0.6182861,-0.09895823,-0.12500875,0.99463767,0.45816958,-0.40069836,-0.37815788,0.5355844,795.38464,808.68134,805.8608,795.38464,658.3883,-0.28802490234375,0.03515625,0.95391845703125,1.8841552734375,-3.170166015625,-0.067291259765625,1.0,1.0,1.0,1.0,1.0,90.0,event
15:24:35.496,0.94517386,0.44964,0.4881612,1.6961745,1.1952983,0.061770357,0.1823611,1.4178927,1.1017966,0.22838841,-0.0653851,1.2171797,0.6182861,-0.09895823,-0.12500875,0.99463767,0.45816958,-0.40069836,-0.37815788,0.5355844,789.34064,808.68134,803.0403,794.57874,771.6117,-0.28802490234375,0.03515625,0.95391845703125,1.8841552734375,-3.170166015625,-0.067291259765625,1.0,1.0,1.0,1.0,1.0,90.0,event
15:24:35.497,0.94517386,0.44964,0.4881612,1.6961745,1.1952983,0.061770357,0.1823611,1.4178927,1.1017966,0.22838841,-0.0653851,1.2171797,0.6182861,-0.09895823,-0.12500875,0.99463767,0.45816958,-0.40069836,-0.37815788,0.5355844,780.4762,805.4579,801.8315,807.0696,733.3333,-0.28802490234375,0.03515625,0.95391845703125,1.8841552734375,-3.170166015625,-0.067291259765625,1.0,1.0,1.0,1.0,1.0,90.0,event
15:24:35.498,0.94517386,0.45808116,0.4865959,1.6961745,1.1952983,0.10887588,0.20780025,1.4178927,1.1017966,0.29929027,-0.095275775,1.2171797,0.6182861,-0.10970576,-0.13593768,0.99463767,0.45816958,-0.39553934,-0.37779602,0.5355844,779.2674,802.23444,800.6227,794.17584,641.4652,-0.28802490234375,0.03515625,0.95391845703125,1.8841552734375,-3.170166015625,-0.067291259765625,1.0,1.0,1.0,1.0,1.0,90.0,event
15:24:35.502,0.94517386,0.45808116,0.4865959,1.6961745,1.1952983,0.10887588,0.20780025,1.4178927,1.1017966,0.29929027,-0.095275775,1.2171797,0.6182861,-0.10970576,-0.13593768,0.99463767,0.45816958,-0.39553934,-0.37779602,0.5355844,769.59705,802.6374,803.44324,782.0879,886.4469,-0.28802490234375,0.03515625,0.95391845703125,1.8841552734375,-3.170166015625,-0.067291259765625,1.0,1.0,1.0,1.0,1.0,90.0,event
15:24:35.502,0.94517386,0.45808116,0.4865959,1.6961745,1.1952983,0.10887588,0.20780025,1.4178927,1.1017966,0.29929027,-0.095275775,1.2171797,0.6182861,-0.10970576,-0.13593768,0.99463767,0.45816958,-0.39553934,-0.37779602,0.5355844,780.87915,801.8315,805.05493,776.8498,717.2161,-0.28802490234375,0.03515625,0.95391845703125,1.8841552734375,-3.170166015625,-0.067291259765625,1.0,1.0,1.0,1.0,1.0,90.0,event
15:24:35.503,0.94517386,0.45808116,0.4865959,1.6961745,1.1952983,0.10887588,0.20780025,1.4178927,1.1017966,0.29929027,-0.095275775,1.2171797,0.6182861,-0.10970576,-0.13593768,0.99463767,0.45816958,-0.39553934,-0.37779602,0.5355844,765.9707,800.6227,803.0403,774.43225,833.2601,-0.28802490234375,0.03515625,0.95391845703125,1.8841552734375,-3.170166015625,-0.067291259765625,1.0,1.0,1.0,1.0,1.0,90.0,event
15:24:35.504,0.94517386,0.45808116,0.4865959,1.6961745,1.1952983,0.10887588,0.20780025,1.4178927,1.1017966,0.29929027,-0.095275775,1.2171797,0.6182861,-0.10970576,-0.13593768,0.99463767,0.45816958,-0.39553934,-0.37779602,0.5355844,772.8205,798.60803,803.0403,765.16486,809.4872,-0.28802490234375,0.03515625,0.95391845703125,1.8841552734375,-3.170166015625,-0.067291259765625,1.0,1.0,1.0,1.0,1.0,90.0,event
15:24:35.504,0.94517386,0.45808116,0.4865959,1.6961745,1.1952983,0.10887588,0.20780025,1.4178927,1.1017966,0.29929027,-0.095275775,1.2171797,0.6182861,-0.10970576,-0.13593768,0.99463767,0.45816958,-0.39553934,-0.37779602,0.5355844,759.5238,793.36993,801.02563,772.4176,813.5165,-0.28802490234375,0.03515625,0.95391845703125,1.8841552734375,-3.170166015625,-0.067291259765625,1.0,1.0,1.0,1.0,1.0,90.0,event
15:24:35.505,0.94517386,0.45808116,0.4865959,1.6961745,1.1952983,0.10887588,0.20780025,1.4178927,1.1017966,0.29929027,-0.095275775,1.2171797,0.6182861,-0.10970576,-0.13593768,0.99463767,0.45816958,-0.39553934,-0.37779602,0.5355844,759.12085,792.5641,801.02563,783.69965,960.989,-0.28802490234375,0.03515625,0.95391845703125,1.8841552734375,-3.170166015625,-0.067291259765625,1.0,1.0,1.0,1.0,1.0,90.0,event
15:24:35.505,0.94517386,0.45808116,0.4865959,1.6961745,1.1952983,0.10887588,0.20780025,1.4178927,1.1017966,0.29929027,-0.095275775,1.2171797,0.6182861,-0.10970576,-0.13593768,0.99463767,0.45816958,-0.39553934,-0.37779602,0.5355844,762.74725,796.5934,791.75824,773.22345,949.304,-0.28802490234375,0.03515625,0.95391845703125,1.8841552734375,-3.170166015625,-0.067291259765625,1.0,1.0,1.0,1.0,1.0,90.0,event
15:24:35.506,0.94517386,0.45808116,0.4865959,1.6961745,1.1952983,0.10887588,0.20780025,1.4178927,1.1017966,0.29929027,-0.095275775,1.2171797,0.6182861,-0.10970576,-0.13593768,0.99463767,0.45816958,-0.39553934,-0.37779602,0.5355844,753.0769,794.17584,792.1612,758.315,734.5421,-0.28802490234375,0.03515625,0.95391845703125,1.8841552734375,-3.170166015625,-0.067291259765625,1.0,1.0,1.0,1.0,1.0,90.0,event
15:24:35.527,0.94517386,0.45808116,0.4865959,1.6961745,1.1952983,0.10887588,0.20780025,1.4178927,1.1017966,0.29929027,-0.095275775,1.2171797,0.6182861,-0.10970576,-0.13593768,0.99463767,0.45816958,-0.39553934,-0.37779602,0.5355844,752.27106,795.38464,794.57874,759.92676,748.24176,-0.287353515625,0.0341796875,0.94195556640625,0.725250244140625,-0.2093505859375,2.25799560546875,1.0,1.0,1.0,1.0,1.0,90.0,event
15:24:35.528,0.94517386,0.45808116,0.4865959,1.6961745,1.1952983,0.10887588,0.20780025,1.4178927,1.1017966,0.29929027,-0.095275775,1.2171797,0.6182861,-0.10970576,-0.13593768,0.99463767,0.45816958,-0.39553934,-0.37779602,0.5355844,757.9121,796.5934,795.38464,765.56775,788.1319,-0.287353515625,0.0341796875,0.94195556640625,0.725250244140625,-0.2093505859375,2.25799560546875,1.0,1.0,1.0,1.0,1.0,90.0,event
15:24:35.529,0.94517386,0.45808116,0.4865959,1.6961745,1.1952983,0.10887588,0.20780025,1.4178927,1.1017966,0.29929027,-0.095275775,1.2171797,0.6182861,-0.10970576,-0.13593768,0.99463767,0.45816958,-0.39553934,-0.37779602,0.5355844,765.56775,795.78754,799.41394,767.5824,757.9121,-0.287353515625,0.0341796875,0.94195556640625,0.725250244140625,-0.2093505859375,2.25799560546875,1.0,1.0,1.0,1.0,1.0,90.0,event
15:24:35.530,0.94517386,0.45808116,0.4865959,1.6961745,1.1952983,0.10887588,0.20780025,1.4178927,1.1017966,0.29929027,-0.095275775,1.2171797,0.6182861,-0.10970576,-0.13593768,0.99463767,0.45816958,-0.39553934,-0.37779602,0.5355844,756.7033,796.5934,795.78754,759.92676,709.5604,-0.287353515625,0.0341796875,0.94195556640625,0.725250244140625,-0.2093505859375,2.25799560546875,1.0,1.0,1.0,1.0,1.0,90.0,event
15:24:35.531,0.94517386,0.45808116,0.4865959,1.6961745,1.1952983,0.10887588,0.20780025,1.4178927,1.1017966,0.29929027,-0.095275775,1.2171797,0.6182861,-0.10970576,-0.13593768,0.99463767,0.45816958,-0.39553934,-0.37779602,0.5355844,756.30035,798.20514,798.20514,758.315,888.46155,-0.287353515625,0.0341796875,0.94195556640625,0.725250244140625,-0.2093505859375,2.25799560546875,1.0,1.0,1.0,1.0,1.0,90.0,event
15:24:35.531,0.94517386,0.45808116,0.4865959,1.6961745,1.1952983,0.10887588,0.20780025,1.4178927,1.1017966,0.29929027,-0.095275775,1.2171797,0.6182861,-0.10970576,-0.13593768,0.99463767,0.45816958,-0.39553934,-0.37779602,0.5355844,747.8388,796.5934,797.3993,755.4945,795.38464,-0.287353515625,0.0341796875,0.94195556640625,0.725250244140625,-0.2093505859375,2.25799560546875,1.0,1.0,1.0,1.0,1.0,90.0,event
15:24:35.532,0.94517386,0.45808116,0.4865959,1.6961745,1.1952983,0.10887588,0.20780025,1.4178927,1.1017966,0.29929027,-0.095275775,1.2171797,0.6182861,-0.10970576,-0.13593768,0.99463767,0.45816958,-0.39553934,-0.37779602,0.5355844,765.16486,797.8022,799.81683,759.92676,946.4835,-0.287353515625,0.0341796875,0.94195556640625,0.725250244140625,-0.2093505859375,2.25799560546875,1.0,1.0,1.0,1.0,1.0,90.0,event
15:24:35.533,0.94517386,0.45808116,0.4865959,1.6961745,1.1952983,0.10887588,0.20780025,1.4178927,1.1017966,0.29929027,-0.095275775,1.2171797,0.6182861,-0.10970576,-0.13593768,0.99463767,0.45816958,-0.39553934,-0.37779602,0.5355844,764.7619,793.7729,806.6667,761.53845,862.674,-0.287353515625,0.0341796875,0.94195556640625,0.725250244140625,-0.2093505859375,2.25799560546875,1.0,1.0,1.0,1.0,1.0,90.0,event
15:24:35.533,0.94517386,0.45808116,0.4865959,1.6961745,1.1952983,0.10887588,0.20780025,1.4178927,1.1017966,0.29929027,-0.095275775,1.2171797,0.6182861,-0.10970576,-0.13593768,0.99463767,0.45816958,-0.39553934,-0.37779602,0.5355844,759.12085,798.60803,805.4579,758.315,848.1685,-0.287353515625,0.0341796875,0.94195556640625,0.725250244140625,-0.2093505859375,2.25799560546875,1.0,1.0,1.0,1.0,1.0,90.0,event
15:24:35.534,0.94517386,0.45808116,0.4865959,1.6961745,1.1952983,0.10887588,0.20780025,1.4178927,1.1017966,0.29929027,-0.095275775,1.2171797,0.6182861,-0.10970576,-0.13593768,0.99463767,0.45816958,-0.39553934,-0.37779602,0.5355844,765.16486,800.2198,801.02563,765.16486,1075.8242,-0.287353515625,0.0341796875,0.94195556640625,0.725250244140625,-0.2093505859375,2.25799560546875,1.0,1.0,1.0,1.0,1.0,90.0,event
15:24:35.535,0.94517386,0.45808116,0.4865959,1.6961745,1.1952983,0.10887588,0.20780025,1.4178927,1.1017966,0.29929027,-0.095275775,1.2171797,0.6182861,-0.10970576,-0.13593768,0.99463767,0.45816958,-0.39553934,-0.37779602,0.5355844,770.80585,800.2198,798.60803,767.98535,861.4652,-0.287353515625,0.0341796875,0.94195556640625,0.725250244140625,-0.2093505859375,2.25799560546875,1.0,1.0,1.0,1.0,1.0,90.0,event
15:24:35.535,0.94517386,0.45808116,0.4865959,1.6961745,1.1952983,0.10887588,0.20780025,1.4178927,1.1017966,0.29929027,-0.095275775,1.2171797,0.6182861,-0.10970576,-0.13593768,0.99463767,0.45816958,-0.39553934,-0.37779602,0.5355844,770.40295,802.23444,798.20514,770.40295,678.5348,-0.287353515625,0.0341796875,0.94195556640625,0.725250244140625,-0.2093505859375,2.25799560546875,1.0,1.0,1.0,1.0,1.0,90.0,event
15:24:35.564,0.94517386,0.45808116,0.4865959,1.6961745,1.1952983,0.10887588,0.20780025,1.4178927,1.1017966,0.29929027,-0.095275775,1.2171797,0.6182861,-0.10970576,-0.13593768,0.99463767,0.45816958,-0.39553934,-0.37779602,0.5355844,777.25275,802.23444,802.23444,777.6557,881.2088,-0.30364990234375,0.03143310546875,0.95135498046875,0.859832763671875,-1.323394775390625,2.97576904296875,1.0,1.0,1.0,1.0,1.0,90.0,event
15:24:35.567,0.94517386,0.45808116,0.4865959,1.6961745,1.1952983,0.10887588,0.20780025,1.4178927,1.1017966,0.29929027,-0.095275775,1.2171797,0.6182861,-0.10970576,-0.13593768,0.99463767,0.45816958,-0.39553934,-0.37779602,0.5355844,768.3883,796.5934,800.2198,774.0293,856.63007,-0.30364990234375,0.03143310546875,0.95135498046875,0.859832763671875,-1.323394775390625,2.97576904296875,1.0,1.0,1.0,1.0,1.0,90.0,event
15:24:35.568,0.94517386,0.45808116,0.4865959,1.6961745,1.1952983,0.10887588,0.20780025,1.4178927,1.1017966,0.29929027,-0.095275775,1.2171797,0.6182861,-0.10970576,-0.13593768,0.99463767,0.45816958,-0.39553934,-0.37779602,0.5355844,771.2088,794.57874,798.60803,769.59705,713.9927,-0.30364990234375,0.03143310546875,0.95135498046875,0.859832763671875,-1.323394775390625,2.97576904296875,1.0,1.0,1.0,1.0,1.0,90.0,event
15:24:35.569,0.94517386,0.45808116,0.4865959,1.6961745,1.1952983,0.10887588,0.20780025,1.4178927,1.1017966,0.29929027,-0.095275775,1.2171797,0.6182861,-0.10970576,-0.13593768,0.99463767,0.45816958,-0.39553934,-0.37779602,0.5355844,777.6557,798.20514,800.6227,774.83514,703.91943,-0.30364990234375,0.03143310546875,0.95135498046875,0.859832763671875,-1.323394775390625,2.97576904296875,1.0,1.0,1.0,1.0,1.0,90.0,event
15:24:35.570,0.94517386,0.45808116,0.4865959,1.6961745,1.1952983,0.10887588,0.20780025,1.4178927,1.1017966,0.29929027,-0.095275775,1.2171797,0.6182861,-0.10970576,-0.13593768,0.99463767,0.45816958,-0.39553934,-0.37779602,0.5355844,774.83514,798.60803,801.02563,768.7912,738.5714,-0.30364990234375,0.03143310546875,0.95135498046875,0.859832763671875,-1.323394775390625,2.97576904296875,1.0,1.0,1.0,1.0,1.0,90.0,event
15:24:35.571,0.94517386,0.45798466,0.70523953,1.6961745,1.1952983,0.16527429,0.28943345,1.4178927,1.1017966,0.3286583,0.0572097,1.2171797,0.6182861,-0.114748806,-0.15977967,0.99463767,0.45816958,-0.37916982,-0.38094634,0.5355844,778.0586,803.8461,805.05493,770.0,807.8755,-0.30364990234375,0.03143310546875,0.95135498046875,0.859832763671875,-1.323394775390625,2.97576904296875,1.0,1.0,1.0,1.0,1.0,90.0,event
15:24:35.575,0.94517386,0.45798466,0.70523953,1.6961745,1.1952983,0.16527429,0.28943345,1.4178927,1.1017966,0.3286583,0.0572097,1.2171797,0.6182861,-0.114748806,-0.15977967,0.99463767,0.45816958,-0.37916982,-0.38094634,0.5355844,778.0586,806.6667,806.6667,777.25275,817.9487,-0.30364990234375,0.03143310546875,0.95135498046875,0.859832763671875,-1.323394775390625,2.97576904296875,1.0,1.0,1.0,1.0,1.0,90.0,event
15:24:35.576,0.94517386,0.45798466,0.70523953,1.6961745,1.1952983,0.16527429,0.28943345,1.4178927,1.1017966,0.3286583,0.0572097,1.2171797,0.6182861,-0.114748806,-0.15977967,0.99463767,0.45816958,-0.37916982,-0.38094634,0.5355844,777.6557,802.23444,804.2491,767.5824,842.9304,-0.30364990234375,0.03143310546875,0.95135498046875,0.859832763671875,-1.323394775390625,2.97576904296875,1.0,1.0,1.0,1.0,1.0,90.0,event
15:24:35.577,0.94517386,0.45798466,0.70523953,1.6961745,1.1952983,0.16527429,0.28943345,1.4178927,1.1017966,0.3286583,0.0572097,1.2171797,0.6182861,-0.114748806,-0.15977967,0.99463767,0.45816958,-0.37916982,-0.38094634,0.5355844,774.0293,800.2198,801.02563,761.9414,991.6117,-0.30364990234375,0.03143310546875,0.95135498046875,0.859832763671875,-1.323394775390625,2.97576904296875,1.0,1.0,1.0,1.0,1.0,90.0,event
15:24:35.577,0.94517386,0.45798466,0.70523953,1.6961745,1.1952983,0.16527429,0.28943345,1.4178927,1.1017966,0.3286583,0.0572097,1.2171797,0.6182861,-0.114748806,-0.15977967,0.99463767,0.45816958,-0.37916982,-0.38094634,0.5355844,773.22345,797.3993,797.8022,773.6264,909.011,-0.30364990234375,0.03143310546875,0.95135498046875,0.859832763671875,-1.323394775390625,2.97576904296875,1.0,1.0,1.0,1.0,1.0,90.0,event
15:24:35.578,0.94517386,0.45798466,0.70523953,1.6961745,1.1952983,0.16527429,0.28943345,1.4178927,1.1017966,0.3286583,0.0572097,1.2171797,0.6182861,-0.114748806,-0.15977967,0.99463767,0.45816958,-0.37916982,-0.38094634,0.5355844,786.9231,800.2198,799.011,782.49084,693.8461,-0.30364990234375,0.03143310546875,0.95135498046875,0.859832763671875,-1.323394775390625,2.97576904296875,1.0,1.0,1.0,1.0,1.0,90.0,event
15:24:35.579,0.94517386,0.45798466,0.70523953,1.6961745,1.1952983,0.16527429,0.28943345,1.4178927,1.1017966,0.3286583,0.0572097,1.2171797,0.6182861,-0.114748806,-0.15977967,0.99463767,0.45816958,-0.37916982,-0.38094634,0.5355844,788.5348,806.26373,799.81683,782.49084,740.18317,-0.30364990234375,0.03143310546875,0.95135498046875,0.859832763671875,-1.323394775390625,2.97576904296875,1.0,1.0,1.0,1.0,1.0,90.0,event
15:24:35.601,0.94517386,0.45798466,0.70523953,1.6961745,1.1952983,0.16527429,0.28943345,1.4178927,1.1017966,0.3286583,0.0572097,1.2171797,0.6182861,-0.114748806,-0.15977967,0.99463767,0.45816958,-0.37916982,-0.38094634,0.5355844,788.93774,805.4579,798.20514,785.31134,798.60803,-0.2987060546875,0.03033447265625,0.936279296875,1.607513427734375,-3.27484130859375,0.61309814453125,1.0,1.0,1.0,1.0,1.0,90.0,event
15:24:35.601,0.94517386,0.45798466,0.70523953,1.6961745,1.1952983,0.16527429,0.28943345,1.4178927,1.1017966,0.3286583,0.0572097,1.2171797,0.6182861,-0.114748806,-0.15977967,0.99463767,0.45816958,-0.37916982,-0.38094634,0.5355844,801.02563,804.2491,792.96704,777.6557,767.5824,-0.2987060546875,0.03033447265625,0.936279296875,1.607513427734375,-3.27484130859375,0.61309814453125,1.0,1.0,1.0,1.0,1.0,90.0,event
15:24:35.602,0.94517386,0.45798466,0.70523953,1.6961745,1.1952983,0.16527429,0.28943345,1.4178927,1.1017966,0.3286583,0.0572097,1.2171797,0.6182861,-0.114748806,-0.15977967,0.99463767,0.45816958,-0.37916982,-0.38094634,0.5355844,800.6227,803.44324,801.8315,795.78754,752.674,-0.2987060546875,0.03033447265625,0.936279296875,1.607513427734375,-3.27484130859375,0.61309814453125,1.0,1.0,1.0,1.0,1.0,90.0,event
15:24:35.602,0.94517386,0.45798466,0.70523953,1.6961745,1.1952983,0.16527429,0.28943345,1.4178927,1.1017966,0.3286583,0.0572097,1.2171797,0.6182861,-0.114748806,-0.15977967,0.99463767,0.45816958,-0.37916982,-0.38094634,0.5355844,799.41394,801.02563,794.57874,782.8938,683.7729,-0.2987060546875,0.03033447265625,0.936279296875,1.607513427734375,-3.27484130859375,0.61309814453125,1.0,1.0,1.0,1.0,1.0,90.0,event
15:24:35.603,0.94517386,0.45798466,0.70523953,1.6961745,1.1952983,0.16527429,0.28943345,1.4178927,1.1017966,0.3286583,0.0572097,1.2171797,0.6182861,-0.114748806,-0.15977967,0.99463767,0.45816958,-0.37916982,-0.38094634,0.5355844,796.99634,806.26373,801.8315,792.96704,837.6923,-0.2987060546875,0.03033447265625,0.936279296875,1.607513427734375,-3.27484130859375,0.61309814453125,1.0,1.0,1.0,1.0,1.0,90.0,event
15:24:35.604,0.94517386,0.45798466,0.70523953,1.6961745,1.1952983,0.16527429,0.28943345,1.4178927,1.1017966,0.3286583,0.0572097,1.2171797,0.6182861,-0.114748806,-0.15977967,0.99463767,0.45816958,-0.37916982,-0.38094634,0.5355844,788.93774,806.6667,798.20514,783.69965,792.96704,-0.2987060546875,0.03033447265625,0.936279296875,1.607513427734375,-3.27484130859375,0.61309814453125,1.0,1.0,1.0,1.0,1.0,90.0,event
15:24:35.604,0.94517386,0.45798466,0.70523953,1.6961745,1.1952983,0.16527429,0.28943345,1.4178927,1.1017966,0.3286583,0.0572097,1.2171797,0.6182861,-0.114748806,-0.15977967,0.99463767,0.45816958,-0.37916982,-0.38094634,0.5355844,786.52014,806.26373,800.6227,770.40295,805.8608,-0.2987060546875,0.03033447265625,0.936279296875,1.607513427734375,-3.27484130859375,0.61309814453125,1.0,1.0,1.0,1.0,1.0,90.0,event
15:24:35.605,0.94517386,0.45798466,0.70523953,1.6961745,1.1952983,0.16527429,0.28943345,1.4178927,1.1017966,0.3286583,0.0572097,1.2171797,0.6182861,-0.114748806,-0.15977967,0.99463767,0.45816958,-0.37916982,-0.38094634,0.5355844,782.49084,802.23444,801.02563,773.6264,897.326,-0.2987060546875,0.03033447265625,0.936279296875,1.607513427734375,-3.27484130859375,0.61309814453125,1.0,1.0,1.0,1.0,1.0,90.0,event
15:24:35.605,0.94517386,0.45798466,0.70523953,1.6961745,1.1952983,0.16527429,0.28943345,1.4178927,1.1017966,0.3286583,0.0572097,1.2171797,0.6182861,-0.114748806,-0.15977967,0.99463767,0.45816958,-0.37916982,-0.38094634,0.5355844,782.49084,802.23444,799.41394,790.54944,1011.75824,-0.2987060546875,0.03033447265625,0.936279296875,1.607513427734375,-3.27484130859375,0.61309814453125,1.0,1.0,1.0,1.0,1.0,90.0,event
15:24:35.606,0.94517386,0.45798466,0.70523953,1.6961745,1.1952983,0.16527429,0.28943345,1.4178927,1.1017966,0.3286583,0.0572097,1.2171797,0.6182861,-0.114748806,-0.15977967,0.99463767,0.45816958,-0.37916982,-0.38094634,0.5355844,785.31134,802.6374,800.6227,784.10254,802.6374,-0.2987060546875,0.03033447265625,0.936279296875,1.607513427734375,-3.27484130859375,0.61309814453125,1.0,1.0,1.0,1.0,1.0,90.0,event
15:24:35.606,0.94517386,0.45798466,0.70523953,1.6961745,1.1952983,0.16527429,0.28943345,1.4178927,1.1017966,0.3286583,0.0572097,1.2171797,0.6182861,-0.114748806,-0.15977967,0.99463767,0.45816958,-0.37916982,-0.38094634,0.5355844,783.69965,805.8608,799.81683,781.28204,712.381,-0.2987060546875,0.03033447265625,0.936279296875,1.607513427734375,-3.27484130859375,0.61309814453125,1.0,1.0,1.0,1.0,1.0,90.0,event
15:24:35.607,0.94517386,0.45798466,0.70523953,1.6961745,1.1952983,0.16527429,0.28943345,1.4178927,1.1017966,0.3286583,0.0572097,1.2171797,0.6182861,-0.114748806,-0.15977967,0.99463767,0.45816958,-0.37916982,-0.38094634,0.5355844,796.1905,806.26373,799.41394,794.9817,766.77655,-0.2987060546875,0.03033447265625,0.936279296875,1.607513427734375,-3.27484130859375,0.61309814453125,1.0,1.0,1.0,1.0,1.0,90.0,event
15:24:35.663,0.94517386,0.45798466,0.70523953,1.6961745,1.1952983,0.16527429,0.28943345,1.4178927,1.1017966,0.3286583,0.0572097,1.2171797,0.6182861,-0.114748806,-0.15977967,0.99463767,0.45816958,-0.37916982,-0.38094634,0.5355844,788.5348,803.8461,797.3993,784.90845,680.14655,-0.2987060546875,0.03033447265625,0.936279296875,1.607513427734375,-3.27484130859375,0.61309814453125,1.0,1.0,1.0,1.0,1.0,90.0,event
15:24:35.665,0.94517386,0.45798466,0.70523953,1.6961745,1.1952983,0.16527429,0.28943345,1.4178927,1.1017966,0.3286583,0.0572097,1.2171797,0.6182861,-0.114748806,-0.15977967,0.99463767,0.45816958,-0.37916982,-0.38094634,0.5355844,782.0879,804.2491,801.02563,779.67035,682.5641,-0.2987060546875,0.03033447265625,0.936279296875,1.607513427734375,-3.27484130859375,0.61309814453125,1.0,1.0,1.0,1.0,1.0,90.0,event
15:24:35.665,0.94517386,0.45798466,0.70523953,1.6961745,1.1952983,0.16527429,0.28943345,1.4178927,1.1017966,0.3286583,0.0572097,1.2171797,0.6182861,-0.114748806,-0.15977967,0.99463767,0.45816958,-0.37916982,-0.38094634,0.5355844,794.57874,801.8315,801.4286,780.4762,755.89746,-0.2987060546875,0.03033447265625,0.936279296875,1.607513427734375,-3.27484130859375,0.61309814453125,1.0,1.0,1.0,1.0,1.0,90.0,event
15:24:35.666,0.94517386,0.45798466,0.70523953,1.6961745,1.1952983,0.16527429,0.28943345,1.4178927,1.1017966,0.3286583,0.0572097,1.2171797,0.6182861,-0.114748806,-0.15977967,0.99463767,0.45816958,-0.37916982,-0.38094634,0.5355844,783.69965,804.65204,797.8022,773.22345,827.619,-0.2987060546875,0.03033447265625,0.936279296875,1.607513427734375,-3.27484130859375,0.61309814453125,1.0,1.0,1.0,1.0,1.0,90.0,event
15:24:35.667,0.94517386,0.45798466,0.70523953,1.6961745,1.1952983,0.16527429,0.28943345,1.4178927,1.1017966,0.3286583,0.0572097,1.2171797,0.6182861,-0.114748806,-0.15977967,0.99463767,0.45816958,-0.37916982,-0.38094634,0.5355844,778.86444,809.0842,794.57874,770.40295,848.97437,-0.2987060546875,0.03033447265625,0.936279296875,1.607513427734375,-3.27484130859375,0.61309814453125,1.0,1.0,1.0,1.0,1.0,90.0,event
15:24:35.667,0.94517386,0.45798466,0.70523953,1.6961745,1.1952983,0.16527429,0.28943345,1.4178927,1.1017966,0.3286583,0.0572097,1.2171797,0.6182861,-0.114748806,-0.15977967,0.99463767,0.45816958,-0.37916982,-0.38094634,0.5355844,788.5348,805.4579,795.78754,778.0586,860.2564,-0.2987060546875,0.03033447265625,0.936279296875,1.607513427734375,-3.27484130859375,0.61309814453125,1.0,1.0,1.0,1.0,1.0,90.0,event
15:24:35.668,0.94517386,0.45798466,0.70523953,1.6961745,1.1952983,0.16527429,0.28943345,1.4178927,1.1017966,0.3286583,0.0572097,1.2171797,0.6182861,-0.114748806,-0.15977967,0.99463767,0.45816958,-0.37916982,-0.38094634,0.5355844,791.75824,803.44324,800.2198,785.7143,952.1245,-0.2987060546875,0.03033447265625,0.936279296875,1.607513427734375,-3.27484130859375,0.61309814453125,1.0,1.0,1.0,1.0,1.0,90.0,event
15:24:35.669,0.94517386,0.4554,0.7829272,1.6961745,1.1952983,0.2102446,0.30913162,1.4178927,1.1017966,0.3570795,0.060852617,1.2171797,0.6182861,-0.11143172,-0.18906353,0.99463767,0.45816958,-0.3629042,-0.38842997,0.5355844,785.31134,803.8461,800.6227,788.1319,1164.4689,-0.2987060546875,0.03033447265625,0.936279296875,1.607513427734375,-3.27484130859375,0.61309814453125,1.0,1.0,1.0,1.0,1.0,90.0,event
15:24:35.673,0.94517386,0.4554,0.7829272,1.6961745,1.1952983,0.2102446,0.30913162,1.4178927,1.1017966,0.3570795,0.060852617,1.2171797,0.6182861,-0.11143172,-0.18906353,0.99463767,0.45816958,-0.3629042,-0.38842997,0.5355844,781.685,796.99634,799.011,788.1319,1137.4725,-0.2987060546875,0.03033447265625,0.936279296875,1.607513427734375,-3.27484130859375,0.61309814453125,1.0,1.0,1.0,1.0,1.0,90.0,event
15:24:35.674,0.94517386,0.4554,0.7829272,1.6961745,1.1952983,0.2102446,0.30913162,1.4178927,1.1017966,0.3570795,0.060852617,1.2171797,0.6182861,-0.11143172,-0.18906353,0.99463767,0.45816958,-0.3629042,-0.38842997,0.5355844,786.9231,799.011,801.4286,792.5641,794.17584,-0.2987060546875,0.03033447265625,0.936279296875,1.607513427734375,-3.27484130859375,0.61309814453125,1.0,1.0,1.0,1.0,1.0,90.0,event
15:24:35.675,0.94517386,0.4554,0.7829272,1.6961745,1.1952983,0.2102446,0.30913162,1.4178927,1.1017966,0.3570795,0.060852617,1.2171797,0.6182861,-0.11143172,-0.18906353,0.99463767,0.45816958,-0.3629042,-0.38842997,0.5355844,788.1319,807.0696,804.65204,788.5348,713.9927,-0.2987060546875,0.03033447265625,0.936279296875,1.607513427734375,-3.27484130859375,0.61309814453125,1.0,1.0,1.0,1.0,1.0,90.0,event
15:24:35.676,0.94517386,0.4554,0.7829272,1.6961745,1.1952983,0.2102446,0.30913162,1.4178927,1.1017966,0.3570795,0.060852617,1.2171797,0.6182861,-0.11143172,-0.18906353,0.99463767,0.45816958,-0.3629042,-0.38842997,0.5355844,789.7436,803.0403,800.2198,780.07324,761.9414,-0.2987060546875,0.03033447265625,0.936279296875,1.607513427734375,-3.27484130859375,0.61309814453125,1.0,1.0,1.0,1.0,1.0,90.0,event
15:24:35.702,0.94517386,0.4554,0.7829272,1.6961745,1.1952983,0.2102446,0.30913162,1.4178927,1.1017966,0.3570795,0.060852617,1.2171797,0.6182861,-0.11143172,-0.18906353,0.99463767,0.45816958,-0.3629042,-0.38842997,0.5355844,793.7729,802.23444,802.6374,783.2967,726.4835,-0.29248046875,0.03631591796875,0.94635009765625,1.876678466796875,-2.145843505859375,-0.485992431640625,1.0,1.0,1.0,1.0,1.0,90.0,event
15:24:35.704,0.94517386,0.4554,0.7829272,1.6961745,1.1952983,0.2102446,0.30913162,1.4178927,1.1017966,0.3570795,0.060852617,1.2171797,0.6182861,-0.11143172,-0.18906353,0.99463767,0.45816958,-0.3629042,-0.38842997,0.5355844,786.52014,808.2784,802.6374,782.0879,732.52747,-0.29248046875,0.03631591796875,0.94635009765625,1.876678466796875,-2.145843505859375,-0.485992431640625,1.0,1.0,1.0,1.0,1.0,90.0,event
15:24:35.705,0.94517386,0.4554,0.7829272,1.6961745,1.1952983,0.2102446,0.30913162,1.4178927,1.1017966,0.3570795,0.060852617,1.2171797,0.6182861,-0.11143172,-0.18906353,0.99463767,0.45816958,-0.3629042,-0.38842997,0.5355844,778.0586,806.26373,802.23444,784.10254,799.81683,-0.29248046875,0.03631591796875,0.94635009765625,1.876678466796875,-2.145843505859375,-0.485992431640625,1.0,1.0,1.0,1.0,1.0,90.0,event
15:24:35.706,0.94517386,0.4554,0.7829272,1.6961745,1.1952983,0.2102446,0.30913162,1.4178927,1.1017966,0.3570795,0.060852617,1.2171797,0.6182861,-0.11143172,-0.18906353,0.99463767,0.45816958,-0.3629042,-0.38842997,0.5355844,781.685,803.8461,803.44324,792.1612,746.2271,-0.29248046875,0.03631591796875,0.94635009765625,1.876678466796875,-2.145843505859375,-0.485992431640625,1.0,1.0,1.0,1.0,1.0,90.0,event
15:24:35.706,0.94517386,0.4554,0.7829272,1.6961745,1.1952983,0.2102446,0.30913162,1.4178927,1.1017966,0.3570795,0.060852617,1.2171797,0.6182861,-0.11143172,-0.18906353,0.99463767,0.45816958,-0.3629042,-0.38842997,0.5355844,774.43225,802.23444,805.8608,790.9524,786.1172,-0.29248046875,0.03631591796875,0.94635009765625,1.876678466796875,-2.145843505859375,-0.485992431640625,1.0,1.0,1.0,1.0,1.0,90.0,event
15:24:35.707,0.94517386,0.4554,0.7829272,1.6961745,1.1952983,0.2102446,0.30913162,1.4178927,1.1017966,0.3570795,0.060852617,1.2171797,0.6182861,-0.11143172,-0.18906353,0.99463767,0.45816958,-0.3629042,-0.38842997,0.5355844,791.75824,805.05493,797.8022,795.78754,730.9158,-0.29248046875,0.03631591796875,0.94635009765625,1.876678466796875,-2.145843505859375,-0.485992431640625,1.0,1.0,1.0,1.0,1.0,90.0,event
15:24:35.708,0.94517386,0.4554,0.7829272,1.6961745,1.1952983,0.2102446,0.30913162,1.4178927,1.1017966,0.3570795,0.060852617,1.2171797,0.6182861,-0.11143172,-0.18906353,0.99463767,0.45816958,-0.3629042,-0.38842997,0.5355844,794.9817,806.6667,803.0403,794.57874,902.5641,-0.29248046875,0.03631591796875,0.94635009765625,1.876678466796875,-2.145843505859375,-0.485992431640625,1.0,1.0,1.0,1.0,1.0,90.0,event
15:24:35.709,0.94517386,0.4554,0.7829272,1.6961745,1.1952983,0.2102446,0.30913162,1.4178927,1.1017966,0.3570795,0.060852617,1.2171797,0.6182861,-0.11143172,-0.18906353,0.99463767,0.45816958,-0.3629042,-0.38842997,0.5355844,792.1612,802.23444,805.4579,797.3993,1201.9414,-0.29248046875,0.03631591796875,0.94635009765625,1.876678466796875,-2.145843505859375,-0.485992431640625,1.0,1.0,1.0,1.0,1.0,90.0,event
15:24:35.711,0.94517386,0.4554,0.7829272,1.6961745,1.1952983,0.2102446,0.30913162,1.4178927,1.1017966,0.3570795,0.060852617,1.2171797,0.6182861,-0.11143172,-0.18906353,0.99463767,0.45816958,-0.3629042,-0.38842997,0.5355844,796.5934,796.99634,802.23444,804.2491,902.1612,-0.29248046875,0.03631591796875,0.94635009765625,1.876678466796875,-2.145843505859375,-0.485992431640625,1.0,1.0,1.0,1.0,1.0,90.0,event
15:24:35.712,0.94517386,0.4554,0.7829272,1.6961745,1.1952983,0.2102446,0.30913162,1.4178927,1.1017966,0.3570795,0.060852617,1.2171797,0.6182861,-0.11143172,-0.18906353,0.99463767,0.45816958,-0.3629042,-0.38842997,0.5355844,797.3993,798.60803,802.6374,791.3553,587.8755,-0.29248046875,0.03631591796875,0.94635009765625,1.876678466796875,-2.145843505859375,-0.485992431640625,1.0,1.0,1.0,1.0,1.0,90.0,event
15:24:35.713,0.94517386,0.4554,0.7829272,1.6961745,1.1952983,0.2102446,0.30913162,1.4178927,1.1017966,0.3570795,0.060852617,1.2171797,0.6182861,-0.11143172,-0.18906353,0.99463767,0.45816958,-0.3629042,-0.38842997,0.5355844,786.52014,800.6227,801.4286,788.1319,760.7326,-0.29248046875,0.03631591796875,0.94635009765625,1.876678466796875,-2.145843505859375,-0.485992431640625,1.0,1.0,1.0,1.0,1.0,90.0,event
15:24:35.714,0.94517386,0.4554,0.7829272,1.6961745,1.1952983,0.2102446,0.30913162,1.4178927,1.1017966,0.3570795,0.060852617,1.2171797,0.6182861,-0.11143172,-0.18906353,0.99463767,0.45816958,-0.3629042,-0.38842997,0.5355844,788.5348,801.02563,805.4579,794.9817,801.4286,-0.29248046875,0.03631591796875,0.94635009765625,1.876678466796875,-2.145843505859375,-0.485992431640625,1.0,1.0,1.0,1.0,1.0,90.0,event
15:24:35.758,0.94517386,0.4554,0.7829272,1.6961745,1.1952983,0.2102446,0.30913162,1.4178927,1.1017966,0.3570795,0.060852617,1.2171797,0.6182861,-0.11143172,-0.18906353,0.99463767,0.45816958,-0.3629042,-0.38842997,0.5355844,799.41394,801.4286,807.0696,800.2198,664.83514,-0.29376220703125,0.0303955078125,0.9505615234375,1.114044189453125,-0.441131591796875,-0.112152099609375,1.0,1.0,1.0,1.0,1.0,90.0,event
15:24:35.758,0.94517386,0.4554,0.7829272,1.6961745,1.1952983,0.2102446,0.30913162,1.4178927,1.1017966,0.3570795,0.060852617,1.2171797,0.6182861,-0.11143172,-0.18906353,0.99463767,0.45816958,-0.3629042,-0.38842997,0.5355844,786.9231,804.2491,804.65204,799.81683,694.2491,-0.29376220703125,0.0303955078125,0.9505615234375,1.114044189453125,-0.441131591796875,-0.112152099609375,1.0,1.0,1.0,1.0,1.0,90.0,event
15:24:35.759,0.94517386,0.4554,0.7829272,1.6961745,1.1952983,0.2102446,0.30913162,1.4178927,1.1017966,0.3570795,0.060852617,1.2171797,0.6182861,-0.11143172,-0.18906353,0.99463767,0.45816958,-0.3629042,-0.38842997,0.5355844,787.72894,809.4872,801.4286,788.1319,746.2271,-0.29376220703125,0.0303955078125,0.9505615234375,1.114044189453125,-0.441131591796875,-0.112152099609375,1.0,1.0,1.0,1.0,1.0,90.0,event
15:24:35.759,0.94517386,0.4554,0.7829272,1.6961745,1.1952983,0.2102446,0.30913162,1.4178927,1.1017966,0.3570795,0.060852617,1.2171797,0.6182861,-0.11143172,-0.18906353,0.99463767,0.45816958,-0.3629042,-0.38842997,0.5355844,784.90845,801.4286,804.65204,789.34064,861.06226,-0.29376220703125,0.0303955078125,0.9505615234375,1.114044189453125,-0.441131591796875,-0.112152099609375,1.0,1.0,1.0,1.0,1.0,90.0,event
15:24:35.759,0.94517386,0.4554,0.7829272,1.6961745,1.1952983,0.2102446,0.30913162,1.4178927,1.1017966,0.3570795,0.060852617,1.2171797,0.6182861,-0.11143172,-0.18906353,0.99463767,0.45816958,-0.3629042,-0.38842997,0.5355844,799.81683,802.23444,801.4286,787.326,801.8315,-0.29376220703125,0.0303955078125,0.9505615234375,1.114044189453125,-0.441131591796875,-0.112152099609375,1.0,1.0,1.0,1.0,1.0,90.0,event
15:24:35.760,0.94517386,0.4554,0.7829272,1.6961745,1.1952983,0.2102446,0.30913162,1.4178927,1.1017966,0.3570795,0.060852617,1.2171797,0.6182861,-0.11143172,-0.18906353,0.99463767,0.45816958,-0.3629042,-0.38842997,0.5355844,772.01465,808.2784,799.81683,786.52014,853.8095,-0.29376220703125,0.0303955078125,0.9505615234375,1.114044189453125,-0.441131591796875,-0.112152099609375,1.0,1.0,1.0,1.0,1.0,90.0,event
15:24:35.760,0.94517386,0.4554,0.7829272,1.6961745,1.1952983,0.2102446,0.30913162,1.4178927,1.1017966,0.3570795,0.060852617,1.2171797,0.6182861,-0.11143172,-0.18906353,0.99463767,0.45816958,-0.3629042,-0.38842997,0.5355844,770.40295,803.0403,796.5934,791.75824,1004.10254,-0.29376220703125,0.0303955078125,0.9505615234375,1.114044189453125,-0.441131591796875,-0.112152099609375,1.0,1.0,1.0,1.0,1.0,90.0,event
15:24:35.760,0.94517386,0.4554,0.7829272,1.6961745,1.1952983,0.2102446,0.30913162,1.4178927,1.1017966,0.3570795,0.060852617,1.2171797,0.6182861,-0.11143172,-0.18906353,0.99463767,0.45816958,-0.3629042,-0.38842997,0.5355844,779.67035,802.23444,802.23444,789.7436,903.36993,-0.29376220703125,0.0303955078125,0.9505615234375,1.114044189453125,-0.441131591796875,-0.112152099609375,1.0,1.0,1.0,1.0,1.0,90.0,event
15:24:35.760,0.94517386,0.4554,0.7829272,1.6961745,1.1952983,0.2102446,0.30913162,1.4178927,1.1017966,0.3570795,0.060852617,1.2171797,0.6182861,-0.11143172,-0.18906353,0.99463767,0.45816958,-0.3629042,-0.38842997,0.5355844,779.2674,805.4579,803.8461,784.90845,698.2784,-0.29376220703125,0.0303955078125,0.9505615234375,1.114044189453125,-0.441131591796875,-0.112152099609375,1.0,1.0,1.0,1.0,1.0,90.0,event
15:24:35.761,0.94517386,0.45900863,0.8083165,1.6961745,1.1952983,0.24022129,0.31135583,1.4178927,1.1017966,0.38050398,0.060852617,1.2171797,0.6182861,-0.10142133,-0.2154839,0.99463767,0.45816958,-0.35622033,-0.40010536,0.5355844,789.34064,809.4872,805.05493,787.326,751.06226,-0.29376220703125,0.0303955078125,0.9505615234375,1.114044189453125,-0.441131591796875,-0.112152099609375,1.0,1.0,1.0,1.0,1.0,90.0,event
15:24:35.763,0.94517386,0.45900863,0.8083165,1.6961745,1.1952983,0.24022129,0.31135583,1.4178927,1.1017966,0.38050398,0.060852617,1.2171797,0.6182861,-0.10142133,-0.2154839,0.99463767,0.45816958,-0.35622033,-0.40010536,0.5355844,788.5348,803.44324,804.65204,783.2967,880.0,-0.29376220703125,0.0303955078125,0.9505615234375,1.114044189453125,-0.441131591796875,-0.112152099609375,1.0,1.0,1.0,1.0,1.0,90.0,event
15:24:35.764,0.94517386,0.45900863,0.8083165,1.6961745,1.1952983,0.24022129,0.31135583,1.4178927,1.1017966,0.38050398,0.060852617,1.2171797,0.6182861,-0.10142133,-0.2154839,0.99463767,0.45816958,-0.35622033,-0.40010536,0.5355844,780.07324,803.44324,801.02563,778.86444,776.8498,-0.29376220703125,0.0303955078125,0.9505615234375,1.114044189453125,-0.441131591796875,-0.112152099609375,1.0,1.0,1.0,1.0,1.0,90.0,event
15:24:35.833,0.94517386,0.45900863,0.8083165,1.6961745,1.1952983,0.24022129,0.31135583,1.4178927,1.1017966,0.38050398,0.060852617,1.2171797,0.6182861,-0.10142133,-0.2154839,0.99463767,0.45816958,-0.35622033,-0.40010536,0.5355844,788.5348,807.47253,799.011,783.69965,649.12085,-0.29443359375,0.03277587890625,0.93658447265625,1.435546875,0.657958984375,1.7047119140625,1.0,1.0,1.0,1.0,1.0,90.0,event
15:24:35.834,0.94517386,0.45900863,0.8083165,1.6961745,1.1952983,0.24022129,0.31135583,1.4178927,1.1017966,0.38050398,0.060852617,1.2171797,0.6182861,-0.10142133,-0.2154839,0.99463767,0.45816958,-0.35622033,-0.40010536,0.5355844,778.86444,804.2491,795.78754,786.9231,751.4652,-0.29443359375,0.03277587890625,0.93658447265625,1.435546875,0.657958984375,1.7047119140625,1.0,1.0,1.0,1.0,1.0,90.0,event
15:24:35.835,0.94517386,0.45900863,0.8083165,1.6961745,1.1952983,0.24022129,0.31135583,1.4178927,1.1017966,0.38050398,0.060852617,1.2171797,0.6182861,-0.10142133,-0.2154839,0.99463767,0.45816958,-0.35622033,-0.40010536,0.5355844,767.5824,804.65204,796.5934,784.90845,850.18317,-0.29443359375,0.03277587890625,0.93658447265625,1.435546875,0.657958984375,1.7047119140625,1.0,1.0,1.0,1.0,1.0,90.0,event
15:24:35.836,0.94517386,0.45900863,0.8083165,1.6961745,1.1952983,0.24022129,0.31135583,1.4178927,1.1017966,0.38050398,0.060852617,1.2171797,0.6182861,-0.10142133,-0.2154839,0.99463767,0.45816958,-0.35622033,-0.40010536,0.5355844,792.96704,798.60803,803.0403,777.25275,692.6374,-0.29443359375,0.03277587890625,0.93658447265625,1.435546875,0.657958984375,1.7047119140625,1.0,1.0,1.0,1.0,1.0,90.0,event
15:24:35.836,0.94517386,0.45900863,0.8083165,1.6961745,1.1952983,0.24022129,0.31135583,1.4178927,1.1017966,0.38050398,0.060852617,1.2171797,0.6182861,-0.10142133,-0.2154839,0.99463767,0.45816958,-0.35622033,-0.40010536,0.5355844,781.28204,801.8315,799.011,774.0293,743.4066,-0.29443359375,0.03277587890625,0.93658447265625,1.435546875,0.657958984375,1.7047119140625,1.0,1.0,1.0,1.0,1.0,90.0,event
15:24:35.837,0.94517386,0.45900863,0.8083165,1.6961745,1.1952983,0.24022129,0.31135583,1.4178927,1.1017966,0.38050398,0.060852617,1.2171797,0.6182861,-0.10142133,-0.2154839,0.99463767,0.45816958,-0.35622033,-0.40010536,0.5355844,786.9231,796.99634,803.44324,788.1319,858.24176,-0.29443359375,0.03277587890625,0.93658447265625,1.435546875,0.657958984375,1.7047119140625,1.0,1.0,1.0,1.0,1.0,90.0,event
15:24:35.837,0.94517386,0.45900863,0.8083165,1.6961745,1.1952983,0.24022129,0.31135583,1.4178927,1.1017966,0.38050398,0.060852617,1.2171797,0.6182861,-0.10142133,-0.2154839,0.99463767,0.45816958,-0.35622033,-0.40010536,0.5355844,790.9524,796.5934,801.4286,788.5348,944.87177,-0.29443359375,0.03277587890625,0.93658447265625,1.435546875,0.657958984375,1.7047119140625,1.0,1.0,1.0,1.0,1.0,90.0,event
15:24:35.838,0.94517386,0.45900863,0.8083165,1.6961745,1.1952983,0.24022129,0.31135583,1.4178927,1.1017966,0.38050398,0.060852617,1.2171797,0.6182861,-0.10142133,-0.2154839,0.99463767,0.45816958,-0.35622033,-0.40010536,0.5355844,792.96704,799.81683,805.4579,780.87915,757.9121,-0.29443359375,0.03277587890625,0.93658447265625,1.435546875,0.657958984375,1.7047119140625,1.0,1.0,1.0,1.0,1.0,90.0,event
15:24:35.838,0.94517386,0.45900863,0.8083165,1.6961745,1.1952983,0.24022129,0.31135583,1.4178927,1.1017966,0.38050398,0.060852617,1.2171797,0.6182861,-0.10142133,-0.2154839,0.99463767,0.45816958,-0.35622033,-0.40010536,0.5355844,781.28204,799.81683,803.0403,776.4469,699.0842,-0.29443359375,0.03277587890625,0.93658447265625,1.435546875,0.657958984375,1.7047119140625,1.0,1.0,1.0,1.0,1.0,90.0,event
15:24:35.839,0.94517386,0.45900863,0.8083165,1.6961745,1.1952983,0.24022129,0.31135583,1.4178927,1.1017966,0.38050398,0.060852617,1.2171797,0.6182861,-0.10142133,-0.2154839,0.99463767,0.45816958,-0.35622033,-0.40010536,0.5355844,776.04395,805.05493,800.2198,772.8205,765.16486,-0.29443359375,0.03277587890625,0.93658447265625,1.435546875,0.657958984375,1.7047119140625,1.0,1.0,1.0,1.0,1.0,90.0,event
15:24:35.839,0.94517386,0.45900863,0.8083165,1.6961745,1.1952983,0.24022129,0.31135583,1.4178927,1.1017966,0.38050398,0.060852617,1.2171797,0.6182861,-0.10142133,-0.2154839,0.99463767,0.45816958,-0.35622033,-0.40010536,0.5355844,778.86444,803.0403,801.02563,774.43225,751.8681,-0.29443359375,0.03277587890625,0.93658447265625,1.435546875,0.657958984375,1.7047119140625,1.0,1.0,1.0,1.0,1.0,90.0,event
15:24:35.840,0.94517386,0.45900863,0.8083165,1.6961745,1.1952983,0.24022129,0.31135583,1.4178927,1.1017966,0.38050398,0.060852617,1.2171797,0.6182861,-0.10142133,-0.2154839,0.99463767,0.45816958,-0.35622033,-0.40010536,0.5355844,782.8938,805.8608,797.3993,786.9231,645.4945,-0.29443359375,0.03277587890625,0.93658447265625,1.435546875,0.657958984375,1.7047119140625,1.0,1.0,1.0,1.0,1.0,90.0,event
15:24:35.867,0.94517386,0.45900863,0.8083165,1.6961745,1.1952983,0.24022129,0.31135583,1.4178927,1.1017966,0.38050398,0.060852617,1.2171797,0.6182861,-0.10142133,-0.2154839,0.99463767,0.45816958,-0.35622033,-0.40010536,0.5355844,784.10254,807.0696,796.99634,793.7729,631.79486,-0.3060302734375,0.0311279296875,0.9315185546875,1.4056396484375,-2.190704345703125,1.495361328125,1.0,1.0,1.0,1.0,1.0,90.0,event
15:24:35.869,0.94517386,0.45900863,0.8083165,1.6961745,1.1952983,0.24022129,0.31135583,1.4178927,1.1017966,0.38050398,0.060852617,1.2171797,0.6182861,-0.10142133,-0.2154839,0.99463767,0.45816958,-0.35622033,-0.40010536,0.5355844,793.7729,801.4286,800.6227,792.96704,818.7546,-0.3060302734375,0.0311279296875,0.9315185546875,1.4056396484375,-2.190704345703125,1.495361328125,1.0,1.0,1.0,1.0,1.0,90.0,event
15:24:35.870,0.94517386,0.45900863,0.8083165,1.6961745,1.1952983,0.24022129,0.31135583,1.4178927,1.1017966,0.38050398,0.060852617,1.2171797,0.6182861,-0.10142133,-0.2154839,0.99463767,0.45816958,-0.35622033,-0.40010536,0.5355844,790.9524,810.293,804.65204,795.78754,614.0659,-0.3060302734375,0.0311279296875,0.9315185546875,1.4056396484375,-2.190704345703125,1.495361328125,1.0,1.0,1.0,1.0,1.0,90.0,event
15:24:35.870,0.94517386,0.45900863,0.8083165,1.6961745,1.1952983,0.24022129,0.31135583,1.4178927,1.1017966,0.38050398,0.060852617,1.2171797,0.6182861,-0.10142133,-0.2154839,0.99463767,0.45816958,-0.35622033,-0.40010536,0.5355844,796.5934,805.05493,803.44324,794.17584,773.6264,-0.3060302734375,0.0311279296875,0.9315185546875,1.4056396484375,-2.190704345703125,1.495361328125,1.0,1.0,1.0,1.0,1.0,90.0,event
15:24:35.871,0.94517386,0.45900863,0.8083165,1.6961745,1.1952983,0.24022129,0.31135583,1.4178927,1.1017966,0.38050398,0.060852617,1.2171797,0.6182861,-0.10142133,-0.2154839,0.99463767,0.45816958,-0.35622033,-0.40010536,0.5355844,788.1319,807.8755,802.6374,791.3553,733.73627,-0.3060302734375,0.0311279296875,0.9315185546875,1.4056396484375,-2.190704345703125,1.495361328125,1.0,1.0,1.0,1.0,1.0,90.0,event
