TimeStamp,Delta_TP9,Delta_AF7,Delta_AF8,Delta_TP10,Theta_TP9,Theta_AF7,Theta_AF8,Theta_TP10,Alpha_TP9,Alpha_AF7,Alpha_AF8,Alpha_TP10,Beta_TP9,Beta_AF7,Beta_AF8,Beta_TP10,Gamma_TP9,Gamma_AF7,Gamma_AF8,Gamma_TP10,RAW_TP9,RAW_AF7,RAW_AF8,RAW_TP10,AUX_RIGHT,Accelerometer_X,Accelerometer_Y,Accelerometer_Z,Gyro_X,Gyro_Y,Gyro_Z,HeadBandOn,HSI_TP9,HSI_AF7,HSI_AF8,HSI_TP10,Battery,Elements
10:35:49.643,0.7080684,0.7842221,0.8269919,0.705379,0.61634207,0.74541616,-0.07067934,1.0519978,0.73550826,0.7793102,-0.29804206,0.7394536,1.0950423,0.8121927,-0.39004332,0.5621358,0.6668607,0.23924837,-0.7694369,0.24535368,817.9487,780.07324,798.20514,798.20514,811.9048,-0.259033203125,0.074951171875,0.953369140625,1.6748046875,-3.416900634765625,-0.0299072265625,1.0,1.0,2.0,1.0,1.0,85.0,event
10:35:49.644,0.7080684,0.7842221,0.8269919,0.705379,0.61634207,0.74541616,-0.07067934,1.0519978,0.73550826,0.7793102,-0.29804206,0.7394536,1.0950423,0.8121927,-0.39004332,0.5621358,0.6668607,0.23924837,-0.7694369,0.24535368,801.02563,799.011,797.8022,788.93774,756.7033,-0.259033203125,0.074951171875,0.953369140625,1.6748046875,-3.416900634765625,-0.0299072265625,1.0,1.0,2.0,1.0,1.0,85.0,event
10:35:49.644,0.7080684,0.7842221,0.8269919,0.705379,0.61634207,0.74541616,-0.07067934,1.0519978,0.73550826,0.7793102,-0.29804206,0.7394536,1.0950423,0.8121927,-0.39004332,0.5621358,0.6668607,0.23924837,-0.7694369,0.24535368,796.1905,685.38464,798.60803,792.1612,708.7546,-0.259033203125,0.074951171875,0.953369140625,1.6748046875,-3.416900634765625,-0.0299072265625,1.0,1.0,2.0,1.0,1.0,85.0,event
10:35:49.645,0.7080684,0.7842221,0.8269919,0.705379,0.61634207,0.74541616,-0.07067934,1.0519978,0.73550826,0.7793102,-0.29804206,0.7394536,1.0950423,0.8121927,-0.39004332,0.5621358,0.6668607,0.23924837,-0.7694369,0.24535368,804.65204,720.0366,799.011,795.78754,761.9414,-0.259033203125,0.074951171875,0.953369140625,1.6748046875,-3.416900634765625,-0.0299072265625,1.0,1.0,2.0,1.0,1.0,85.0,event
10:35:49.646,0.7080684,0.7842221,0.8269919,0.705379,0.61634207,0.74541616,-0.07067934,1.0519978,0.73550826,0.7793102,-0.29804206,0.7394536,1.0950423,0.8121927,-0.39004332,0.5621358,0.6668607,0.23924837,-0.7694369,0.24535368,809.0842,802.6374,794.9817,808.68134,762.3443,-0.259033203125,0.074951171875,0.953369140625,1.6748046875,-3.416900634765625,-0.0299072265625,1.0,1.0,2.0,1.0,1.0,85.0,event
10:35:49.647,0.7080684,0.7842221,0.8269919,0.705379,0.61634207,0.74541616,-0.07067934,1.0519978,0.73550826,0.7793102,-0.29804206,0.7394536,1.0950423,0.8121927,-0.39004332,0.5621358,0.6668607,0.23924837,-0.7694369,0.24535368,804.2491,653.95605,794.17584,799.81683,738.5714,-0.259033203125,0.074951171875,0.953369140625,1.6748046875,-3.416900634765625,-0.0299072265625,1.0,1.0,2.0,1.0,1.0,85.0,event
10:35:49.647,0.7080684,0.7842221,0.8269919,0.705379,0.61634207,0.74541616,-0.07067934,1.0519978,0.73550826,0.7793102,-0.29804206,0.7394536,1.0950423,0.8121927,-0.39004332,0.5621358,0.6668607,0.23924837,-0.7694369,0.24535368,801.8315,687.3993,797.3993,790.54944,760.32965,-0.259033203125,0.074951171875,0.953369140625,1.6748046875,-3.416900634765625,-0.0299072265625,1.0,1.0,2.0,1.0,1.0,85.0,event
10:35:49.648,0.7080684,0.7842221,0.8269919,0.705379,0.61634207,0.74541616,-0.07067934,1.0519978,0.73550826,0.7793102,-0.29804206,0.7394536,1.0950423,0.8121927,-0.39004332,0.5621358,0.6668607,0.23924837,-0.7694369,0.24535368,799.81683,666.8498,797.8022,794.17584,987.98535,-0.259033203125,0.074951171875,0.953369140625,1.6748046875,-3.416900634765625,-0.0299072265625,1.0,1.0,2.0,1.0,1.0,85.0,event
10:35:49.648,0.7080684,0.7842221,0.8269919,0.705379,0.61634207,0.74541616,-0.07067934,1.0519978,0.73550826,0.7793102,-0.29804206,0.7394536,1.0950423,0.8121927,-0.39004332,0.5621358,0.6668607,0.23924837,-0.7694369,0.24535368,801.8315,502.85715,796.1905,795.78754,968.6447,-0.259033203125,0.074951171875,0.953369140625,1.6748046875,-3.416900634765625,-0.0299072265625,1.0,1.0,2.0,1.0,1.0,85.0,event
10:35:49.649,0.7080684,0.7842221,0.8269919,0.705379,0.61634207,0.74541616,-0.07067934,1.0519978,0.73550826,0.7793102,-0.29804206,0.7394536,1.0950423,0.8121927,-0.39004332,0.5621358,0.6668607,0.23924837,-0.7694369,0.24535368,793.7729,1180.1831,801.02563,794.17584,750.65936,-0.259033203125,0.074951171875,0.953369140625,1.6748046875,-3.416900634765625,-0.0299072265625,1.0,1.0,2.0,1.0,1.0,85.0,event
10:35:49.649,0.7080684,0.7842221,0.8269919,0.705379,0.61634207,0.74541616,-0.07067934,1.0519978,0.73550826,0.7793102,-0.29804206,0.7394536,1.0950423,0.8121927,-0.39004332,0.5621358,0.6668607,0.23924837,-0.7694369,0.24535368,801.8315,815.5311,799.81683,801.4286,821.978,-0.259033203125,0.074951171875,0.953369140625,1.6748046875,-3.416900634765625,-0.0299072265625,1.0,1.0,2.0,1.0,1.0,85.0,event
10:35:49.650,0.7080684,0.7842221,0.8269919,0.705379,0.61634207,0.74541616,-0.07067934,1.0519978,0.73550826,0.7793102,-0.29804206,0.7394536,1.0950423,0.8121927,-0.39004332,0.5621358,0.6668607,0.23924837,-0.7694369,0.24535368,801.4286,681.75824,799.41394,796.1905,857.4359,-0.259033203125,0.074951171875,0.953369140625,1.6748046875,-3.416900634765625,-0.0299072265625,1.0,1.0,2.0,1.0,1.0,85.0,event
10:35:49.677,0.7080684,0.7842221,0.8269919,0.705379,0.61634207,0.74541616,-0.07067934,1.0519978,0.73550826,0.7793102,-0.29804206,0.7394536,1.0950423,0.8121927,-0.39004332,0.5621358,0.6668607,0.23924837,-0.7694369,0.24535368,779.2674,902.5641,799.41394,783.2967,761.13556,-0.26568603515625,0.0750732421875,0.94781494140625,1.8841552734375,-3.78326416015625,0.366363525390625,1.0,1.0,2.0,1.0,1.0,85.0,event
10:35:49.678,0.8576623,0.7842221,0.82296234,0.71484476,1.1203965,0.74541616,-0.07098337,1.0279949,0.89188564,0.7793102,-0.25873497,0.7394536,0.5772134,0.8121927,-0.40086943,0.57785684,0.23030318,0.23924837,-0.78088856,0.29243213,778.0586,944.87177,794.9817,780.4762,705.12823,-0.26568603515625,0.0750732421875,0.94781494140625,1.8841552734375,-3.78326416015625,0.366363525390625,1.0,1.0,2.0,1.0,1.0,85.0,event
10:35:49.683,0.8576623,0.7842221,0.82296234,0.71484476,1.1203965,0.74541616,-0.07098337,1.0279949,0.89188564,0.7793102,-0.25873497,0.7394536,0.5772134,0.8121927,-0.40086943,0.57785684,0.23030318,0.23924837,-0.78088856,0.29243213,818.3516,678.1319,793.36993,786.9231,730.9158,-0.26568603515625,0.0750732421875,0.94781494140625,1.8841552734375,-3.78326416015625,0.366363525390625,1.0,1.0,2.0,1.0,1.0,85.0,event
10:35:49.684,0.8576623,0.7842221,0.82296234,0.71484476,1.1203965,0.74541616,-0.07098337,1.0279949,0.89188564,0.7793102,-0.25873497,0.7394536,0.5772134,0.8121927,-0.40086943,0.57785684,0.23030318,0.23924837,-0.78088856,0.29243213,833.663,601.978,794.17584,794.9817,856.2271,-0.26568603515625,0.0750732421875,0.94781494140625,1.8841552734375,-3.78326416015625,0.366363525390625,1.0,1.0,2.0,1.0,1.0,85.0,event
10:35:49.685,0.8576623,0.7842221,0.82296234,0.71484476,1.1203965,0.74541616,-0.07098337,1.0279949,0.89188564,0.7793102,-0.25873497,0.7394536,0.5772134,0.8121927,-0.40086943,0.57785684,0.23030318,0.23924837,-0.78088856,0.29243213,803.44324,886.04395,793.36993,789.34064,763.95605,-0.26568603515625,0.0750732421875,0.94781494140625,1.8841552734375,-3.78326416015625,0.366363525390625,1.0,1.0,2.0,1.0,1.0,85.0,event
10:35:49.685,0.8576623,0.7842221,0.82296234,0.71484476,1.1203965,0.74541616,-0.07098337,1.0279949,0.89188564,0.7793102,-0.25873497,0.7394536,0.5772134,0.8121927,-0.40086943,0.57785684,0.23030318,0.23924837,-0.78088856,0.29243213,797.3993,784.90845,795.38464,781.685,677.326,-0.26568603515625,0.0750732421875,0.94781494140625,1.8841552734375,-3.78326416015625,0.366363525390625,1.0,1.0,2.0,1.0,1.0,85.0,event
10:35:49.686,0.8576623,0.7842221,0.82296234,0.71484476,1.1203965,0.74541616,-0.07098337,1.0279949,0.89188564,0.7793102,-0.25873497,0.7394536,0.5772134,0.8121927,-0.40086943,0.57785684,0.23030318,0.23924837,-0.78088856,0.29243213,802.6374,606.4103,791.3553,783.69965,836.8865,-0.26568603515625,0.0750732421875,0.94781494140625,1.8841552734375,-3.78326416015625,0.366363525390625,1.0,1.0,2.0,1.0,1.0,85.0,event
10:35:49.686,0.8576623,0.7842221,0.82296234,0.71484476,1.1203965,0.74541616,-0.07098337,1.0279949,0.89188564,0.7793102,-0.25873497,0.7394536,0.5772134,0.8121927,-0.40086943,0.57785684,0.23030318,0.23924837,-0.78088856,0.29243213,794.9817,649.5238,791.75824,781.685,947.28937,-0.26568603515625,0.0750732421875,0.94781494140625,1.8841552734375,-3.78326416015625,0.366363525390625,1.0,1.0,2.0,1.0,1.0,85.0,event
10:35:49.687,0.8576623,0.7842221,0.82296234,0.71484476,1.1203965,0.74541616,-0.07098337,1.0279949,0.89188564,0.7793102,-0.25873497,0.7394536,0.5772134,0.8121927,-0.40086943,0.57785684,0.23030318,0.23924837,-0.78088856,0.29243213,805.4579,1105.641,794.9817,792.1612,788.93774,-0.26568603515625,0.0750732421875,0.94781494140625,1.8841552734375,-3.78326416015625,0.366363525390625,1.0,1.0,2.0,1.0,1.0,85.0,event
10:35:49.688,0.8576623,0.7842221,0.82296234,0.71484476,1.1203965,0.74541616,-0.07098337,1.0279949,0.89188564,0.7793102,-0.25873497,0.7394536,0.5772134,0.8121927,-0.40086943,0.57785684,0.23030318,0.23924837,-0.78088856,0.29243213,799.41394,1008.93774,793.36993,785.7143,678.5348,-0.26568603515625,0.0750732421875,0.94781494140625,1.8841552734375,-3.78326416015625,0.366363525390625,1.0,1.0,2.0,1.0,1.0,85.0,event
10:35:49.688,0.8576623,0.7842221,0.82296234,0.71484476,1.1203965,0.74541616,-0.07098337,1.0279949,0.89188564,0.7793102,-0.25873497,0.7394536,0.5772134,0.8121927,-0.40086943,0.57785684,0.23030318,0.23924837,-0.78088856,0.29243213,792.5641,695.8608,794.9817,778.0586,697.8755,-0.26568603515625,0.0750732421875,0.94781494140625,1.8841552734375,-3.78326416015625,0.366363525390625,1.0,1.0,2.0,1.0,1.0,85.0,event
10:35:49.689,0.8576623,0.7842221,0.82296234,0.71484476,1.1203965,0.74541616,-0.07098337,1.0279949,0.89188564,0.7793102,-0.25873497,0.7394536,0.5772134,0.8121927,-0.40086943,0.57785684,0.23030318,0.23924837,-0.78088856,0.29243213,807.47253,746.2271,795.38464,788.1319,780.07324,-0.26568603515625,0.0750732421875,0.94781494140625,1.8841552734375,-3.78326416015625,0.366363525390625,1.0,1.0,2.0,1.0,1.0,85.0,event
10:35:49.762,0.8576623,0.7842221,0.82296234,0.71484476,1.1203965,0.74541616,-0.07098337,1.0279949,0.89188564,0.7793102,-0.25873497,0.7394536,0.5772134,0.8121927,-0.40086943,0.57785684,0.23030318,0.23924837,-0.78088856,0.29243213,811.50183,950.5128,794.9817,793.7729,776.8498,-0.26849365234375,0.07305908203125,0.953369140625,1.71966552734375,-2.011260986328125,-0.40374755859375,1.0,1.0,2.0,1.0,1.0,85.0,event
10:35:49.764,0.8576623,0.7842221,0.82296234,0.71484476,1.1203965,0.74541616,-0.07098337,1.0279949,0.89188564,0.7793102,-0.25873497,0.7394536,0.5772134,0.8121927,-0.40086943,0.57785684,0.23030318,0.23924837,-0.78088856,0.29243213,818.3516,956.1539,794.17584,808.2784,749.85345,-0.26849365234375,0.07305908203125,0.953369140625,1.71966552734375,-2.011260986328125,-0.40374755859375,1.0,1.0,2.0,1.0,1.0,85.0,event
10:35:49.764,0.8576623,0.7842221,0.82296234,0.71484476,1.1203965,0.74541616,-0.07098337,1.0279949,0.89188564,0.7793102,-0.25873497,0.7394536,0.5772134,0.8121927,-0.40086943,0.57785684,0.23030318,0.23924837,-0.78088856,0.29243213,823.1868,635.42126,796.1905,812.3077,898.93774,-0.26849365234375,0.07305908203125,0.953369140625,1.71966552734375,-2.011260986328125,-0.40374755859375,1.0,1.0,2.0,1.0,1.0,85.0,event
10:35:49.765,0.8576623,0.7842221,0.82296234,0.71484476,1.1203965,0.74541616,-0.07098337,1.0279949,0.89188564,0.7793102,-0.25873497,0.7394536,0.5772134,0.8121927,-0.40086943,0.57785684,0.23030318,0.23924837,-0.78088856,0.29243213,813.5165,749.85345,796.99634,812.3077,862.674,-0.26849365234375,0.07305908203125,0.953369140625,1.71966552734375,-2.011260986328125,-0.40374755859375,1.0,1.0,2.0,1.0,1.0,85.0,event
10:35:49.766,0.8576623,0.7842221,0.82296234,0.71484476,1.1203965,0.74541616,-0.07098337,1.0279949,0.89188564,0.7793102,-0.25873497,0.7394536,0.5772134,0.8121927,-0.40086943,0.57785684,0.23030318,0.23924837,-0.78088856,0.29243213,806.6667,927.5458,794.57874,812.3077,722.4542,-0.26849365234375,0.07305908203125,0.953369140625,1.71966552734375,-2.011260986328125,-0.40374755859375,1.0,1.0,2.0,1.0,1.0,85.0,event
10:35:49.767,0.8576623,0.7842221,0.82296234,0.71484476,1.1203965,0.74541616,-0.07098337,1.0279949,0.89188564,0.7793102,-0.25873497,0.7394536,0.5772134,0.8121927,-0.40086943,0.57785684,0.23030318,0.23924837,-0.78088856,0.29243213,812.71063,779.2674,794.57874,802.23444,720.0366,-0.26849365234375,0.07305908203125,0.953369140625,1.71966552734375,-2.011260986328125,-0.40374755859375,1.0,1.0,2.0,1.0,1.0,85.0,event
10:35:49.768,0.8576623,0.7842221,0.82296234,0.71484476,1.1203965,0.74541616,-0.07098337,1.0279949,0.89188564,0.7793102,-0.25873497,0.7394536,0.5772134,0.8121927,-0.40086943,0.57785684,0.23030318,0.23924837,-0.78088856,0.29243213,830.84247,507.69232,796.99634,812.71063,952.9304,-0.26849365234375,0.07305908203125,0.953369140625,1.71966552734375,-2.011260986328125,-0.40374755859375,1.0,1.0,2.0,1.0,1.0,85.0,event
10:35:49.768,0.8576623,0.7842221,0.82296234,0.71484476,1.1203965,0.74541616,-0.07098337,1.0279949,0.89188564,0.7793102,-0.25873497,0.7394536,0.5772134,0.8121927,-0.40086943,0.57785684,0.23030318,0.23924837,-0.78088856,0.29243213,831.2454,730.9158,799.41394,815.9341,995.64105,-0.26849365234375,0.07305908203125,0.953369140625,1.71966552734375,-2.011260986328125,-0.40374755859375,1.0,1.0,2.0,1.0,1.0,85.0,event
10:35:49.769,0.8576623,0.7842221,0.82296234,0.71484476,1.1203965,0.74541616,-0.07098337,1.0279949,0.89188564,0.7793102,-0.25873497,0.7394536,0.5772134,0.8121927,-0.40086943,0.57785684,0.23030318,0.23924837,-0.78088856,0.29243213,805.4579,866.7033,798.60803,809.89014,761.13556,-0.26849365234375,0.07305908203125,0.953369140625,1.71966552734375,-2.011260986328125,-0.40374755859375,1.0,1.0,2.0,1.0,1.0,85.0,event
10:35:49.769,0.8576623,0.7842221,0.82296234,0.71484476,1.1203965,0.74541616,-0.07098337,1.0279949,0.89188564,0.7793102,-0.25873497,0.7394536,0.5772134,0.8121927,-0.40086943,0.57785684,0.23030318,0.23924837,-0.78088856,0.29243213,813.5165,1143.9194,799.81683,809.4872,745.42126,-0.26849365234375,0.07305908203125,0.953369140625,1.71966552734375,-2.011260986328125,-0.40374755859375,1.0,1.0,2.0,1.0,1.0,85.0,event
10:35:49.770,0.8576623,0.7842221,0.82296234,0.71484476,1.1203965,0.74541616,-0.07098337,1.0279949,0.89188564,0.7793102,-0.25873497,0.7394536,0.5772134,0.8121927,-0.40086943,0.57785684,0.23030318,0.23924837,-0.78088856,0.29243213,823.1868,786.52014,796.99634,799.41394,765.9707,-0.26849365234375,0.07305908203125,0.953369140625,1.71966552734375,-2.011260986328125,-0.40374755859375,1.0,1.0,2.0,1.0,1.0,85.0,event
10:35:49.771,0.8576623,0.7842221,0.82296234,0.71484476,1.1203965,0.74541616,-0.07098337,1.0279949,0.89188564,0.7793102,-0.25873497,0.7394536,0.5772134,0.8121927,-0.40086943,0.57785684,0.23030318,0.23924837,-0.78088856,0.29243213,824.7985,922.71063,799.011,817.1429,744.21246,-0.26849365234375,0.07305908203125,0.953369140625,1.71966552734375,-2.011260986328125,-0.40374755859375,1.0,1.0,2.0,1.0,1.0,85.0,event
10:35:49.802,0.8576623,0.7842221,0.82296234,0.71484476,1.1203965,0.74541616,-0.07098337,1.0279949,0.89188564,0.7793102,-0.25873497,0.7394536,0.5772134,0.8121927,-0.40086943,0.57785684,0.23030318,0.23924837,-0.78088856,0.29243213,810.293,891.685,799.41394,825.6044,779.67035,-0.26849365234375,0.07305908203125,0.953369140625,1.71966552734375,-2.011260986328125,-0.40374755859375,1.0,1.0,2.0,1.0,1.0,85.0,event
10:35:49.803,0.8576623,0.7842221,0.82296234,0.71484476,1.1203965,0.74541616,-0.07098337,1.0279949,0.89188564,0.7793102,-0.25873497,0.7394536,0.5772134,0.8121927,-0.40086943,0.57785684,0.23030318,0.23924837,-0.78088856,0.29243213,801.8315,680.14655,800.2198,815.9341,812.71063,-0.26849365234375,0.07305908203125,0.953369140625,1.71966552734375,-2.011260986328125,-0.40374755859375,1.0,1.0,2.0,1.0,1.0,85.0,event
10:35:49.803,0.8576623,0.7842221,0.82296234,0.71484476,1.1203965,0.74541616,-0.07098337,1.0279949,0.89188564,0.7793102,-0.25873497,0.7394536,0.5772134,0.8121927,-0.40086943,0.57785684,0.23030318,0.23924837,-0.78088856,0.29243213,796.5934,612.0513,796.99634,801.8315,813.5165,-0.26849365234375,0.07305908203125,0.953369140625,1.71966552734375,-2.011260986328125,-0.40374755859375,1.0,1.0,2.0,1.0,1.0,85.0,event
10:35:49.804,0.8827883,0.7842221,0.81013286,0.7265612,1.0830234,0.74541616,-0.0744488,0.9964997,0.89188564,0.7793102,-0.25133127,0.7394536,0.618583,0.8121927,-0.40857294,0.5885887,0.38137072,0.23924837,-0.7773898,0.3395898,801.8315,903.36993,795.38464,807.8755,767.5824,-0.26849365234375,0.07305908203125,0.953369140625,1.71966552734375,-2.011260986328125,-0.40374755859375,1.0,1.0,2.0,1.0,1.0,85.0,event
10:35:49.809,0.8827883,0.7842221,0.81013286,0.7265612,1.0830234,0.74541616,-0.0744488,0.9964997,0.89188564,0.7793102,-0.25133127,0.7394536,0.618583,0.8121927,-0.40857294,0.5885887,0.38137072,0.23924837,-0.7773898,0.3395898,810.293,976.30035,796.5934,826.8132,753.0769,-0.26849365234375,0.07305908203125,0.953369140625,1.71966552734375,-2.011260986328125,-0.40374755859375,1.0,1.0,2.0,1.0,1.0,85.0,event
10:35:49.811,0.8827883,0.7842221,0.81013286,0.7265612,1.0830234,0.74541616,-0.0744488,0.9964997,0.89188564,0.7793102,-0.25133127,0.7394536,0.618583,0.8121927,-0.40857294,0.5885887,0.38137072,0.23924837,-0.7773898,0.3395898,825.6044,581.4286,790.9524,815.5311,863.0769,-0.26849365234375,0.07305908203125,0.953369140625,1.71966552734375,-2.011260986328125,-0.40374755859375,1.0,1.0,2.0,1.0,1.0,85.0,event
10:35:49.812,0.8827883,0.7842221,0.81013286,0.7265612,1.0830234,0.74541616,-0.0744488,0.9964997,0.89188564,0.7793102,-0.25133127,0.7394536,0.618583,0.8121927,-0.40857294,0.5885887,0.38137072,0.23924837,-0.7773898,0.3395898,821.5751,536.30035,794.57874,809.89014,953.73627,-0.26849365234375,0.07305908203125,0.953369140625,1.71966552734375,-2.011260986328125,-0.40374755859375,1.0,1.0,2.0,1.0,1.0,85.0,event
10:35:49.813,0.8827883,0.7842221,0.81013286,0.7265612,1.0830234,0.74541616,-0.0744488,0.9964997,0.89188564,0.7793102,-0.25133127,0.7394536,0.618583,0.8121927,-0.40857294,0.5885887,0.38137072,0.23924837,-0.7773898,0.3395898,813.1135,959.3773,801.02563,818.3516,783.69965,-0.26849365234375,0.07305908203125,0.953369140625,1.71966552734375,-2.011260986328125,-0.40374755859375,1.0,1.0,2.0,1.0,1.0,85.0,event
10:35:49.814,0.8827883,0.7842221,0.81013286,0.7265612,1.0830234,0.74541616,-0.0744488,0.9964997,0.89188564,0.7793102,-0.25133127,0.7394536,0.618583,0.8121927,-0.40857294,0.5885887,0.38137072,0.23924837,-0.7773898,0.3395898,815.5311,1054.8718,798.20514,819.5604,651.9414,-0.26849365234375,0.07305908203125,0.953369140625,1.71966552734375,-2.011260986328125,-0.40374755859375,1.0,1.0,2.0,1.0,1.0,85.0,event
10:35:49.815,0.8827883,0.7842221,0.81013286,0.7265612,1.0830234,0.74541616,-0.0744488,0.9964997,0.89188564,0.7793102,-0.25133127,0.7394536,0.618583,0.8121927,-0.40857294,0.5885887,0.38137072,0.23924837,-0.7773898,0.3395898,825.6044,673.69965,799.011,832.4542,854.21246,-0.26849365234375,0.07305908203125,0.953369140625,1.71966552734375,-2.011260986328125,-0.40374755859375,1.0,1.0,2.0,1.0,1.0,85.0,event
10:35:49.816,0.8827883,0.7842221,0.81013286,0.7265612,1.0830234,0.74541616,-0.0744488,0.9964997,0.89188564,0.7793102,-0.25133127,0.7394536,0.618583,0.8121927,-0.40857294,0.5885887,0.38137072,0.23924837,-0.7773898,0.3395898,829.2308,383.1868,796.5934,832.4542,1112.4908,-0.26849365234375,0.07305908203125,0.953369140625,1.71966552734375,-2.011260986328125,-0.40374755859375,1.0,1.0,2.0,1.0,1.0,85.0,event
10:35:49.816,0.8827883,0.7842221,0.81013286,0.7265612,1.0830234,0.74541616,-0.0744488,0.9964997,0.89188564,0.7793102,-0.25133127,0.7394536,0.618583,0.8121927,-0.40857294,0.5885887,0.38137072,0.23924837,-0.7773898,0.3395898,811.0989,953.3333,796.99634,819.9634,887.6557,-0.26849365234375,0.07305908203125,0.953369140625,1.71966552734375,-2.011260986328125,-0.40374755859375,1.0,1.0,2.0,1.0,1.0,85.0,event
10:35:49.844,0.8827883,0.7842221,0.81013286,0.7265612,1.0830234,0.74541616,-0.0744488,0.9964997,0.89188564,0.7793102,-0.25133127,0.7394536,0.618583,0.8121927,-0.40857294,0.5885887,0.38137072,0.23924837,-0.7773898,0.3395898,808.68134,1083.0769,799.41394,828.8278,698.2784,-0.27093505859375,0.08050537109375,0.95062255859375,3.058013916015625,-3.028106689453125,0.3887939453125,1.0,1.0,2.0,1.0,1.0,85.0,event
10:35:49.845,0.8827883,0.7842221,0.81013286,0.7265612,1.0830234,0.74541616,-0.0744488,0.9964997,0.89188564,0.7793102,-0.25133127,0.7394536,0.618583,0.8121927,-0.40857294,0.5885887,0.38137072,0.23924837,-0.7773898,0.3395898,813.91943,810.696,798.20514,814.7253,734.1392,-0.27093505859375,0.08050537109375,0.95062255859375,3.058013916015625,-3.028106689453125,0.3887939453125,1.0,1.0,2.0,1.0,1.0,85.0,event
10:35:49.846,0.8827883,0.7842221,0.81013286,0.7265612,1.0830234,0.74541616,-0.0744488,0.9964997,0.89188564,0.7793102,-0.25133127,0.7394536,0.618583,0.8121927,-0.40857294,0.5885887,0.38137072,0.23924837,-0.7773898,0.3395898,815.9341,894.10254,799.41394,799.81683,747.03296,-0.27093505859375,0.08050537109375,0.95062255859375,3.058013916015625,-3.028106689453125,0.3887939453125,1.0,1.0,2.0,1.0,1.0,85.0,event
10:35:49.847,0.8827883,0.7842221,0.81013286,0.7265612,1.0830234,0.74541616,-0.0744488,0.9964997,0.89188564,0.7793102,-0.25133127,0.7394536,0.618583,0.8121927,-0.40857294,0.5885887,0.38137072,0.23924837,-0.7773898,0.3395898,817.9487,917.47253,803.0403,830.4396,744.21246,-0.27093505859375,0.08050537109375,0.95062255859375,3.058013916015625,-3.028106689453125,0.3887939453125,1.0,1.0,2.0,1.0,1.0,85.0,event
10:35:49.848,0.8827883,0.7842221,0.81013286,0.7265612,1.0830234,0.74541616,-0.0744488,0.9964997,0.89188564,0.7793102,-0.25133127,0.7394536,0.618583,0.8121927,-0.40857294,0.5885887,0.38137072,0.23924837,-0.7773898,0.3395898,799.41394,736.55676,801.02563,823.5897,754.2857,-0.27093505859375,0.08050537109375,0.95062255859375,3.058013916015625,-3.028106689453125,0.3887939453125,1.0,1.0,2.0,1.0,1.0,85.0,event
10:35:49.849,0.8827883,0.7842221,0.81013286,0.7265612,1.0830234,0.74541616,-0.0744488,0.9964997,0.89188564,0.7793102,-0.25133127,0.7394536,0.618583,0.8121927,-0.40857294,0.5885887,0.38137072,0.23924837,-0.7773898,0.3395898,798.20514,630.58606,796.5934,796.1905,828.022,-0.27093505859375,0.08050537109375,0.95062255859375,3.058013916015625,-3.028106689453125,0.3887939453125,1.0,1.0,2.0,1.0,1.0,85.0,event
10:35:49.850,0.8827883,0.7842221,0.81013286,0.7265612,1.0830234,0.74541616,-0.0744488,0.9964997,0.89188564,0.7793102,-0.25133127,0.7394536,0.618583,0.8121927,-0.40857294,0.5885887,0.38137072,0.23924837,-0.7773898,0.3395898,814.7253,767.98535,798.60803,813.91943,819.9634,-0.27093505859375,0.08050537109375,0.95062255859375,3.058013916015625,-3.028106689453125,0.3887939453125,1.0,1.0,2.0,1.0,1.0,85.0,event
10:35:49.851,0.8827883,0.7842221,0.81013286,0.7265612,1.0830234,0.74541616,-0.0744488,0.9964997,0.89188564,0.7793102,-0.25133127,0.7394536,0.618583,0.8121927,-0.40857294,0.5885887,0.38137072,0.23924837,-0.7773898,0.3395898,817.5458,894.10254,801.8315,832.4542,830.0366,-0.27093505859375,0.08050537109375,0.95062255859375,3.058013916015625,-3.028106689453125,0.3887939453125,1.0,1.0,2.0,1.0,1.0,85.0,event
10:35:49.852,0.8827883,0.7842221,0.81013286,0.7265612,1.0830234,0.74541616,-0.0744488,0.9964997,0.89188564,0.7793102,-0.25133127,0.7394536,0.618583,0.8121927,-0.40857294,0.5885887,0.38137072,0.23924837,-0.7773898,0.3395898,812.3077,874.7619,800.2198,815.5311,790.9524,-0.27093505859375,0.08050537109375,0.95062255859375,3.058013916015625,-3.028106689453125,0.3887939453125,1.0,1.0,2.0,1.0,1.0,85.0,event
10:35:49.853,0.8827883,0.7842221,0.81013286,0.7265612,1.0830234,0.74541616,-0.0744488,0.9964997,0.89188564,0.7793102,-0.25133127,0.7394536,0.618583,0.8121927,-0.40857294,0.5885887,0.38137072,0.23924837,-0.7773898,0.3395898,803.8461,598.3516,799.011,812.3077,855.42126,-0.27093505859375,0.08050537109375,0.95062255859375,3.058013916015625,-3.028106689453125,0.3887939453125,1.0,1.0,2.0,1.0,1.0,85.0,event
10:35:49.854,0.8827883,0.7842221,0.81013286,0.7265612,1.0830234,0.74541616,-0.0744488,0.9964997,0.89188564,0.7793102,-0.25133127,0.7394536,0.618583,0.8121927,-0.40857294,0.5885887,0.38137072,0.23924837,-0.7773898,0.3395898,801.4286,845.34796,799.81683,827.619,867.50916,-0.27093505859375,0.08050537109375,0.95062255859375,3.058013916015625,-3.028106689453125,0.3887939453125,1.0,1.0,2.0,1.0,1.0,85.0,event
10:35:49.855,0.8827883,0.7842221,0.81013286,0.7265612,1.0830234,0.74541616,-0.0744488,0.9964997,0.89188564,0.7793102,-0.25133127,0.7394536,0.618583,0.8121927,-0.40857294,0.5885887,0.38137072,0.23924837,-0.7773898,0.3395898,813.1135,1086.3004,799.41394,822.7839,661.6117,-0.27093505859375,0.08050537109375,0.95062255859375,3.058013916015625,-3.028106689453125,0.3887939453125,1.0,1.0,2.0,1.0,1.0,85.0,event
10:35:49.880,0.8827883,0.7842221,0.81013286,0.7265612,1.0830234,0.74541616,-0.0744488,0.9964997,0.89188564,0.7793102,-0.25133127,0.7394536,0.618583,0.8121927,-0.40857294,0.5885887,0.38137072,0.23924837,-0.7773898,0.3395898,816.337,800.2198,796.1905,807.8755,691.02563,-0.2646484375,0.07843017578125,0.9476318359375,1.48040771484375,-4.306640625,1.18133544921875,1.0,1.0,2.0,1.0,1.0,85.0,event
10:35:49.881,0.8827883,0.7842221,0.81013286,0.7265612,1.0830234,0.74541616,-0.0744488,0.9964997,0.89188564,0.7793102,-0.25133127,0.7394536,0.618583,0.8121927,-0.40857294,0.5885887,0.38137072,0.23924837,-0.7773898,0.3395898,799.81683,474.652,801.4286,815.9341,977.1062,-0.2646484375,0.07843017578125,0.9476318359375,1.48040771484375,-4.306640625,1.18133544921875,1.0,1.0,2.0,1.0,1.0,85.0,event
10:35:49.881,0.8827883,0.7842221,0.81013286,0.7265612,1.0830234,0.74541616,-0.0744488,0.9964997,0.89188564,0.7793102,-0.25133127,0.7394536,0.618583,0.8121927,-0.40857294,0.5885887,0.38137072,0.23924837,-0.7773898,0.3395898,802.6374,831.2454,807.8755,825.2015,963.8095,-0.2646484375,0.07843017578125,0.9476318359375,1.48040771484375,-4.306640625,1.18133544921875,1.0,1.0,2.0,1.0,1.0,85.0,event
10:35:49.882,0.8827883,0.7842221,0.81013286,0.7265612,1.0830234,0.74541616,-0.0744488,0.9964997,0.89188564,0.7793102,-0.25133127,0.7394536,0.618583,0.8121927,-0.40857294,0.5885887,0.38137072,0.23924837,-0.7773898,0.3395898,796.5934,1022.6374,799.41394,809.4872,736.9597,-0.2646484375,0.07843017578125,0.9476318359375,1.48040771484375,-4.306640625,1.18133544921875,1.0,1.0,2.0,1.0,1.0,85.0,event
10:35:49.882,0.8827883,0.7842221,0.81013286,0.7265612,1.0830234,0.74541616,-0.0744488,0.9964997,0.89188564,0.7793102,-0.25133127,0.7394536,0.618583,0.8121927,-0.40857294,0.5885887,0.38137072,0.23924837,-0.7773898,0.3395898,786.1172,674.90845,799.41394,801.8315,828.8278,-0.2646484375,0.07843017578125,0.9476318359375,1.48040771484375,-4.306640625,1.18133544921875,1.0,1.0,2.0,1.0,1.0,85.0,event
10:35:49.883,0.9165514,0.7842221,0.7758972,0.7337139,1.0467738,0.74541616,-0.097227395,0.96531487,0.89188564,0.7793102,-0.23047993,0.7394536,0.66625494,0.8121927,-0.41365924,0.58852136,0.49996677,0.23924837,-0.75802016,0.3721937,799.81683,660.0,800.6227,808.68134,850.989,-0.2646484375,0.07843017578125,0.9476318359375,1.48040771484375,-4.306640625,1.18133544921875,1.0,1.0,2.0,1.0,1.0,85.0,event
10:35:49.887,0.9165514,0.7842221,0.7758972,0.7337139,1.0467738,0.74541616,-0.097227395,0.96531487,0.89188564,0.7793102,-0.23047993,0.7394536,0.66625494,0.8121927,-0.41365924,0.58852136,0.49996677,0.23924837,-0.75802016,0.3721937,808.68134,830.0366,796.1905,816.337,796.99634,-0.2646484375,0.07843017578125,0.9476318359375,1.48040771484375,-4.306640625,1.18133544921875,1.0,1.0,2.0,1.0,1.0,85.0,event
10:35:49.887,0.9165514,0.7842221,0.7758972,0.7337139,1.0467738,0.74541616,-0.097227395,0.96531487,0.89188564,0.7793102,-0.23047993,0.7394536,0.66625494,0.8121927,-0.41365924,0.58852136,0.49996677,0.23924837,-0.75802016,0.3721937,802.23444,920.293,799.011,809.0842,723.663,-0.2646484375,0.07843017578125,0.9476318359375,1.48040771484375,-4.306640625,1.18133544921875,1.0,1.0,2.0,1.0,1.0,85.0,event
10:35:49.888,0.9165514,0.7842221,0.7758972,0.7337139,1.0467738,0.74541616,-0.097227395,0.96531487,0.89188564,0.7793102,-0.23047993,0.7394536,0.66625494,0.8121927,-0.41365924,0.58852136,0.49996677,0.23924837,-0.75802016,0.3721937,803.0403,351.35532,799.81683,816.337,1015.78754,-0.2646484375,0.07843017578125,0.9476318359375,1.48040771484375,-4.306640625,1.18133544921875,1.0,1.0,2.0,1.0,1.0,85.0,event
10:35:49.888,0.9165514,0.7842221,0.7758972,0.7337139,1.0467738,0.74541616,-0.097227395,0.96531487,0.89188564,0.7793102,-0.23047993,0.7394536,0.66625494,0.8121927,-0.41365924,0.58852136,0.49996677,0.23924837,-0.75802016,0.3721937,799.011,582.6374,801.4286,807.47253,737.3626,-0.2646484375,0.07843017578125,0.9476318359375,1.48040771484375,-4.306640625,1.18133544921875,1.0,1.0,2.0,1.0,1.0,85.0,event
10:35:49.889,0.9165514,0.7842221,0.7758972,0.7337139,1.0467738,0.74541616,-0.097227395,0.96531487,0.89188564,0.7793102,-0.23047993,0.7394536,0.66625494,0.8121927,-0.41365924,0.58852136,0.49996677,0.23924837,-0.75802016,0.3721937,808.2784,1021.4286,796.5934,810.696,878.7912,-0.2646484375,0.07843017578125,0.9476318359375,1.48040771484375,-4.306640625,1.18133544921875,1.0,1.0,2.0,1.0,1.0,85.0,event
10:35:49.889,0.9165514,0.7842221,0.7758972,0.7337139,1.0467738,0.74541616,-0.097227395,0.96531487,0.89188564,0.7793102,-0.23047993,0.7394536,0.66625494,0.8121927,-0.41365924,0.58852136,0.49996677,0.23924837,-0.75802016,0.3721937,814.3223,1136.6666,794.57874,807.8755,695.8608,-0.2646484375,0.07843017578125,0.9476318359375,1.48040771484375,-4.306640625,1.18133544921875,1.0,1.0,2.0,1.0,1.0,85.0,event
10:35:49.913,0.9165514,0.7842221,0.7758972,0.7337139,1.0467738,0.74541616,-0.097227395,0.96531487,0.89188564,0.7793102,-0.23047993,0.7394536,0.66625494,0.8121927,-0.41365924,0.58852136,0.49996677,0.23924837,-0.75802016,0.3721937,792.1612,714.7985,798.60803,801.02563,799.41394,-0.27606201171875,0.0693359375,0.9486083984375,2.01873779296875,-4.246826171875,-0.800018310546875,1.0,1.0,2.0,1.0,1.0,85.0,event
10:35:49.914,0.9165514,0.7842221,0.7758972,0.7337139,1.0467738,0.74541616,-0.097227395,0.96531487,0.89188564,0.7793102,-0.23047993,0.7394536,0.66625494,0.8121927,-0.41365924,0.58852136,0.49996677,0.23924837,-0.75802016,0.3721937,781.28204,742.6007,796.99634,792.96704,749.85345,-0.27606201171875,0.0693359375,0.9486083984375,2.01873779296875,-4.246826171875,-0.800018310546875,1.0,1.0,2.0,1.0,1.0,85.0,event
10:35:49.914,0.9165514,0.7842221,0.7758972,0.7337139,1.0467738,0.74541616,-0.097227395,0.96531487,0.89188564,0.7793102,-0.23047993,0.7394536,0.66625494,0.8121927,-0.41365924,0.58852136,0.49996677,0.23924837,-0.75802016,0.3721937,794.17584,879.59705,793.7729,797.8022,699.4872,-0.27606201171875,0.0693359375,0.9486083984375,2.01873779296875,-4.246826171875,-0.800018310546875,1.0,1.0,2.0,1.0,1.0,85.0,event
10:35:49.915,0.9165514,0.7842221,0.7758972,0.7337139,1.0467738,0.74541616,-0.097227395,0.96531487,0.89188564,0.7793102,-0.23047993,0.7394536,0.66625494,0.8121927,-0.41365924,0.58852136,0.49996677,0.23924837,-0.75802016,0.3721937,803.0403,815.12823,798.60803,800.2198,780.4762,-0.27606201171875,0.0693359375,0.9486083984375,2.01873779296875,-4.246826171875,-0.800018310546875,1.0,1.0,2.0,1.0,1.0,85.0,event
10:35:49.915,0.9165514,0.7842221,0.7758972,0.7337139,1.0467738,0.74541616,-0.097227395,0.96531487,0.89188564,0.7793102,-0.23047993,0.7394536,0.66625494,0.8121927,-0.41365924,0.58852136,0.49996677,0.23924837,-0.75802016,0.3721937,806.6667,713.5897,800.2198,802.23444,885.64105,-0.27606201171875,0.0693359375,0.9486083984375,2.01873779296875,-4.246826171875,-0.800018310546875,1.0,1.0,2.0,1.0,1.0,85.0,event
10:35:49.916,0.9165514,0.7842221,0.7758972,0.7337139,1.0467738,0.74541616,-0.097227395,0.96531487,0.89188564,0.7793102,-0.23047993,0.7394536,0.66625494,0.8121927,-0.41365924,0.58852136,0.49996677,0.23924837,-0.75802016,0.3721937,796.1905,635.42126,798.20514,803.8461,957.76556,-0.27606201171875,0.0693359375,0.9486083984375,2.01873779296875,-4.246826171875,-0.800018310546875,1.0,1.0,2.0,1.0,1.0,85.0,event
10:35:49.916,0.9165514,0.7842221,0.7758972,0.7337139,1.0467738,0.74541616,-0.097227395,0.96531487,0.89188564,0.7793102,-0.23047993,0.7394536,0.66625494,0.8121927,-0.41365924,0.58852136,0.49996677,0.23924837,-0.75802016,0.3721937,796.5934,676.52014,796.99634,795.78754,929.5604,-0.27606201171875,0.0693359375,0.9486083984375,2.01873779296875,-4.246826171875,-0.800018310546875,1.0,1.0,2.0,1.0,1.0,85.0,event
10:35:49.917,0.9165514,0.7842221,0.7758972,0.7337139,1.0467738,0.74541616,-0.097227395,0.96531487,0.89188564,0.7793102,-0.23047993,0.7394536,0.66625494,0.8121927,-0.41365924,0.58852136,0.49996677,0.23924837,-0.75802016,0.3721937,790.14655,513.73627,798.20514,807.47253,867.9121,-0.27606201171875,0.0693359375,0.9486083984375,2.01873779296875,-4.246826171875,-0.800018310546875,1.0,1.0,2.0,1.0,1.0,85.0,event
10:35:49.917,0.9165514,0.7842221,0.7758972,0.7337139,1.0467738,0.74541616,-0.097227395,0.96531487,0.89188564,0.7793102,-0.23047993,0.7394536,0.66625494,0.8121927,-0.41365924,0.58852136,0.49996677,0.23924837,-0.75802016,0.3721937,783.69965,855.82416,796.99634,792.96704,774.83514,-0.27606201171875,0.0693359375,0.9486083984375,2.01873779296875,-4.246826171875,-0.800018310546875,1.0,1.0,2.0,1.0,1.0,85.0,event
10:35:49.918,0.9165514,0.7842221,0.7758972,0.7337139,1.0467738,0.74541616,-0.097227395,0.96531487,0.89188564,0.7793102,-0.23047993,0.7394536,0.66625494,0.8121927,-0.41365924,0.58852136,0.49996677,0.23924837,-0.75802016,0.3721937,823.1868,705.5311,800.6227,807.47253,926.7399,-0.27606201171875,0.0693359375,0.9486083984375,2.01873779296875,-4.246826171875,-0.800018310546875,1.0,1.0,2.0,1.0,1.0,85.0,event
10:35:49.918,0.9165514,0.7842221,0.7758972,0.7337139,1.0467738,0.74541616,-0.097227395,0.96531487,0.89188564,0.7793102,-0.23047993,0.7394536,0.66625494,0.8121927,-0.41365924,0.58852136,0.49996677,0.23924837,-0.75802016,0.3721937,828.022,1100.0,800.2198,800.2198,690.2198,-0.27606201171875,0.0693359375,0.9486083984375,2.01873779296875,-4.246826171875,-0.800018310546875,1.0,1.0,2.0,1.0,1.0,85.0,event
10:35:49.919,0.9165514,0.7842221,0.7758972,0.7337139,1.0467738,0.74541616,-0.097227395,0.96531487,0.89188564,0.7793102,-0.23047993,0.7394536,0.66625494,0.8121927,-0.41365924,0.58852136,0.49996677,0.23924837,-0.75802016,0.3721937,806.6667,705.5311,800.6227,810.696,751.06226,-0.27606201171875,0.0693359375,0.9486083984375,2.01873779296875,-4.246826171875,-0.800018310546875,1.0,1.0,2.0,1.0,1.0,85.0,event
10:35:50.009,0.9165514,0.7842221,0.7758972,0.7337139,1.0467738,0.74541616,-0.097227395,0.96531487,0.89188564,0.7793102,-0.23047993,0.7394536,0.66625494,0.8121927,-0.41365924,0.58852136,0.49996677,0.23924837,-0.75802016,0.3721937,804.2491,716.8132,798.20514,813.91943,899.7436,-0.26324462890625,0.08050537109375,0.95709228515625,3.192596435546875,-4.329071044921875,-1.308441162109375,1.0,1.0,2.0,1.0,1.0,85.0,event
10:35:50.010,0.9165514,0.7842221,0.7758972,0.7337139,1.0467738,0.74541616,-0.097227395,0.96531487,0.89188564,0.7793102,-0.23047993,0.7394536,0.66625494,0.8121927,-0.41365924,0.58852136,0.49996677,0.23924837,-0.75802016,0.3721937,808.68134,927.9487,797.8022,808.2784,784.10254,-0.26324462890625,0.08050537109375,0.95709228515625,3.192596435546875,-4.329071044921875,-1.308441162109375,1.0,1.0,2.0,1.0,1.0,85.0,event
10:35:50.011,0.9165514,0.7842221,0.7758972,0.7337139,1.0467738,0.74541616,-0.097227395,0.96531487,0.89188564,0.7793102,-0.23047993,0.7394536,0.66625494,0.8121927,-0.41365924,0.58852136,0.49996677,0.23924837,-0.75802016,0.3721937,806.6667,894.90845,800.6227,795.78754,698.68134,-0.26324462890625,0.08050537109375,0.95709228515625,3.192596435546875,-4.329071044921875,-1.308441162109375,1.0,1.0,2.0,1.0,1.0,85.0,event
10:35:50.011,0.9165514,0.7842221,0.7758972,0.7337139,1.0467738,0.74541616,-0.097227395,0.96531487,0.89188564,0.7793102,-0.23047993,0.7394536,0.66625494,0.8121927,-0.41365924,0.58852136,0.49996677,0.23924837,-0.75802016,0.3721937,815.9341,658.7912,801.8315,796.5934,805.4579,-0.26324462890625,0.08050537109375,0.95709228515625,3.192596435546875,-4.329071044921875,-1.308441162109375,1.0,1.0,2.0,1.0,1.0,85.0,event
10:35:50.012,0.9165514,0.7842221,0.7758972,0.7337139,1.0467738,0.74541616,-0.097227395,0.96531487,0.89188564,0.7793102,-0.23047993,0.7394536,0.66625494,0.8121927,-0.41365924,0.58852136,0.49996677,0.23924837,-0.75802016,0.3721937,799.81683,579.011,803.0403,810.293,838.9011,-0.26324462890625,0.08050537109375,0.95709228515625,3.192596435546875,-4.329071044921875,-1.308441162109375,1.0,1.0,2.0,1.0,1.0,85.0,event
10:35:50.013,0.9165514,0.7842221,0.7758972,0.7337139,1.0467738,0.74541616,-0.097227395,0.96531487,0.89188564,0.7793102,-0.23047993,0.7394536,0.66625494,0.8121927,-0.41365924,0.58852136,0.49996677,0.23924837,-0.75802016,0.3721937,784.10254,757.50916,801.02563,803.8461,804.65204,-0.26324462890625,0.08050537109375,0.95709228515625,3.192596435546875,-4.329071044921875,-1.308441162109375,1.0,1.0,2.0,1.0,1.0,85.0,event
10:35:50.013,0.9165514,0.7842221,0.7758972,0.7337139,1.0467738,0.74541616,-0.097227395,0.96531487,0.89188564,0.7793102,-0.23047993,0.7394536,0.66625494,0.8121927,-0.41365924,0.58852136,0.49996677,0.23924837,-0.75802016,0.3721937,805.8608,855.42126,801.02563,803.0403,800.6227,-0.26324462890625,0.08050537109375,0.95709228515625,3.192596435546875,-4.329071044921875,-1.308441162109375,1.0,1.0,2.0,1.0,1.0,85.0,event
10:35:50.014,0.9165514,0.7842221,0.7042701,0.7432758,1.0467738,0.74541616,-0.15647438,0.9382762,0.89188564,0.7793102,-0.21869648,0.758175,0.66625494,0.8121927,-0.4186162,0.5791612,0.49996677,0.23924837,-0.7278242,0.38638204,825.6044,690.2198,802.23444,820.3663,885.2381,-0.26324462890625,0.08050537109375,0.95709228515625,3.192596435546875,-4.329071044921875,-1.308441162109375,1.0,1.0,2.0,1.0,1.0,85.0,event
10:35:50.019,0.9165514,0.7842221,0.7042701,0.7432758,1.0467738,0.74541616,-0.15647438,0.9382762,0.89188564,0.7793102,-0.21869648,0.758175,0.66625494,0.8121927,-0.4186162,0.5791612,0.49996677,0.23924837,-0.7278242,0.38638204,808.68134,1031.9048,803.0403,811.50183,850.58606,-0.26324462890625,0.08050537109375,0.95709228515625,3.192596435546875,-4.329071044921875,-1.308441162109375,1.0,1.0,2.0,1.0,1.0,85.0,event
10:35:50.019,0.9165514,0.7842221,0.7042701,0.7432758,1.0467738,0.74541616,-0.15647438,0.9382762,0.89188564,0.7793102,-0.21869648,0.758175,0.66625494,0.8121927,-0.4186162,0.5791612,0.49996677,0.23924837,-0.7278242,0.38638204,814.3223,588.68134,802.23444,821.5751,1039.9634,-0.26324462890625,0.08050537109375,0.95709228515625,3.192596435546875,-4.329071044921875,-1.308441162109375,1.0,1.0,2.0,1.0,1.0,85.0,event
10:35:50.020,0.9165514,0.7842221,0.7042701,0.7432758,1.0467738,0.74541616,-0.15647438,0.9382762,0.89188564,0.7793102,-0.21869648,0.758175,0.66625494,0.8121927,-0.4186162,0.5791612,0.49996677,0.23924837,-0.7278242,0.38638204,807.0696,995.64105,802.6374,798.20514,658.7912,-0.26324462890625,0.08050537109375,0.95709228515625,3.192596435546875,-4.329071044921875,-1.308441162109375,1.0,1.0,2.0,1.0,1.0,85.0,event
10:35:50.021,0.9165514,0.7842221,0.7042701,0.7432758,1.0467738,0.74541616,-0.15647438,0.9382762,0.89188564,0.7793102,-0.21869648,0.758175,0.66625494,0.8121927,-0.4186162,0.5791612,0.49996677,0.23924837,-0.7278242,0.38638204,797.8022,764.35895,801.4286,804.2491,711.1722,-0.26324462890625,0.08050537109375,0.95709228515625,3.192596435546875,-4.329071044921875,-1.308441162109375,1.0,1.0,2.0,1.0,1.0,85.0,event
10:35:50.048,0.9165514,0.7842221,0.7042701,0.7432758,1.0467738,0.74541616,-0.15647438,0.9382762,0.89188564,0.7793102,-0.21869648,0.758175,0.66625494,0.8121927,-0.4186162,0.5791612,0.49996677,0.23924837,-0.7278242,0.38638204,807.0696,866.30035,801.4286,821.978,769.59705,-0.26324462890625,0.08050537109375,0.95709228515625,3.192596435546875,-4.329071044921875,-1.308441162109375,1.0,1.0,2.0,1.0,1.0,85.0,event
10:35:50.049,0.9165514,0.7842221,0.7042701,0.7432758,1.0467738,0.74541616,-0.15647438,0.9382762,0.89188564,0.7793102,-0.21869648,0.758175,0.66625494,0.8121927,-0.4186162,0.5791612,0.49996677,0.23924837,-0.7278242,0.38638204,806.26373,909.011,801.02563,819.9634,755.4945,-0.26324462890625,0.08050537109375,0.95709228515625,3.192596435546875,-4.329071044921875,-1.308441162109375,1.0,1.0,2.0,1.0,1.0,85.0,event
10:35:50.050,0.9165514,0.7842221,0.7042701,0.7432758,1.0467738,0.74541616,-0.15647438,0.9382762,0.89188564,0.7793102,-0.21869648,0.758175,0.66625494,0.8121927,-0.4186162,0.5791612,0.49996677,0.23924837,-0.7278242,0.38638204,807.47253,666.4469,802.6374,799.41394,716.4103,-0.26324462890625,0.08050537109375,0.95709228515625,3.192596435546875,-4.329071044921875,-1.308441162109375,1.0,1.0,2.0,1.0,1.0,85.0,event
10:35:50.051,0.9165514,0.7842221,0.7042701,0.7432758,1.0467738,0.74541616,-0.15647438,0.9382762,0.89188564,0.7793102,-0.21869648,0.758175,0.66625494,0.8121927,-0.4186162,0.5791612,0.49996677,0.23924837,-0.7278242,0.38638204,808.68134,565.7143,804.65204,797.8022,794.9817,-0.26324462890625,0.08050537109375,0.95709228515625,3.192596435546875,-4.329071044921875,-1.308441162109375,1.0,1.0,2.0,1.0,1.0,85.0,event
10:35:50.052,0.9165514,0.7842221,0.7042701,0.7432758,1.0467738,0.74541616,-0.15647438,0.9382762,0.89188564,0.7793102,-0.21869648,0.758175,0.66625494,0.8121927,-0.4186162,0.5791612,0.49996677,0.23924837,-0.7278242,0.38638204,797.8022,865.4945,802.23444,817.9487,746.2271,-0.26324462890625,0.08050537109375,0.95709228515625,3.192596435546875,-4.329071044921875,-1.308441162109375,1.0,1.0,2.0,1.0,1.0,85.0,event
10:35:50.052,0.9165514,0.7842221,0.7042701,0.7432758,1.0467738,0.74541616,-0.15647438,0.9382762,0.89188564,0.7793102,-0.21869648,0.758175,0.66625494,0.8121927,-0.4186162,0.5791612,0.49996677,0.23924837,-0.7278242,0.38638204,814.3223,909.011,799.81683,819.5604,734.94507,-0.26324462890625,0.08050537109375,0.95709228515625,3.192596435546875,-4.329071044921875,-1.308441162109375,1.0,1.0,2.0,1.0,1.0,85.0,event
10:35:50.053,0.9165514,0.7842221,0.7042701,0.7432758,1.0467738,0.74541616,-0.15647438,0.9382762,0.89188564,0.7793102,-0.21869648,0.758175,0.66625494,0.8121927,-0.4186162,0.5791612,0.49996677,0.23924837,-0.7278242,0.38638204,833.2601,788.93774,802.23444,807.8755,802.6374,-0.26324462890625,0.08050537109375,0.95709228515625,3.192596435546875,-4.329071044921875,-1.308441162109375,1.0,1.0,2.0,1.0,1.0,85.0,event
10:35:50.053,0.9165514,0.7842221,0.7042701,0.7432758,1.0467738,0.74541616,-0.15647438,0.9382762,0.89188564,0.7793102,-0.21869648,0.758175,0.66625494,0.8121927,-0.4186162,0.5791612,0.49996677,0.23924837,-0.7278242,0.38638204,810.696,513.3333,802.6374,808.2784,946.08057,-0.26324462890625,0.08050537109375,0.95709228515625,3.192596435546875,-4.329071044921875,-1.308441162109375,1.0,1.0,2.0,1.0,1.0,85.0,event
10:35:50.054,0.9165514,0.7842221,0.7042701,0.7432758,1.0467738,0.74541616,-0.15647438,0.9382762,0.89188564,0.7793102,-0.21869648,0.758175,0.66625494,0.8121927,-0.4186162,0.5791612,0.49996677,0.23924837,-0.7278242,0.38638204,793.36993,741.79486,801.4286,808.2784,911.4286,-0.26324462890625,0.08050537109375,0.95709228515625,3.192596435546875,-4.329071044921875,-1.308441162109375,1.0,1.0,2.0,1.0,1.0,85.0,event
10:35:50.055,0.9165514,0.7842221,0.7042701,0.7432758,1.0467738,0.74541616,-0.15647438,0.9382762,0.89188564,0.7793102,-0.21869648,0.758175,0.66625494,0.8121927,-0.4186162,0.5791612,0.49996677,0.23924837,-0.7278242,0.38638204,784.90845,1187.4359,803.0403,797.8022,630.989,-0.26324462890625,0.08050537109375,0.95709228515625,3.192596435546875,-4.329071044921875,-1.308441162109375,1.0,1.0,2.0,1.0,1.0,85.0,event
10:35:50.056,0.9165514,0.7842221,0.7042701,0.7432758,1.0467738,0.74541616,-0.15647438,0.9382762,0.89188564,0.7793102,-0.21869648,0.758175,0.66625494,0.8121927,-0.4186162,0.5791612,0.49996677,0.23924837,-0.7278242,0.38638204,789.7436,869.12085,805.8608,790.54944,648.315,-0.26324462890625,0.08050537109375,0.95709228515625,3.192596435546875,-4.329071044921875,-1.308441162109375,1.0,1.0,2.0,1.0,1.0,85.0,event
10:35:50.057,0.9165514,0.7842221,0.7042701,0.7432758,1.0467738,0.74541616,-0.15647438,0.9382762,0.89188564,0.7793102,-0.21869648,0.758175,0.66625494,0.8121927,-0.4186162,0.5791612,0.49996677,0.23924837,-0.7278242,0.38638204,818.3516,751.06226,803.44324,797.8022,737.76556,-0.26324462890625,0.08050537109375,0.95709228515625,3.192596435546875,-4.329071044921875,-1.308441162109375,1.0,1.0,2.0,1.0,1.0,85.0,event
10:35:50.095,0.9165514,0.7842221,0.7042701,0.7432758,1.0467738,0.74541616,-0.15647438,0.9382762,0.89188564,0.7793102,-0.21869648,0.758175,0.66625494,0.8121927,-0.4186162,0.5791612,0.49996677,0.23924837,-0.7278242,0.38638204,816.7399,856.2271,803.8461,798.20514,730.5128,-0.26019287109375,0.07501220703125,0.93798828125,1.951446533203125,-3.985137939453125,1.42059326171875,1.0,1.0,2.0,1.0,1.0,85.0,event
10:35:50.097,0.9165514,0.7842221,0.7042701,0.7432758,1.0467738,0.74541616,-0.15647438,0.9382762,0.89188564,0.7793102,-0.21869648,0.758175,0.66625494,0.8121927,-0.4186162,0.5791612,0.49996677,0.23924837,-0.7278242,0.38638204,792.96704,865.09155,804.2491,796.99634,695.8608,-0.26019287109375,0.07501220703125,0.93798828125,1.951446533203125,-3.985137939453125,1.42059326171875,1.0,1.0,2.0,1.0,1.0,85.0,event
10:35:50.097,0.9165514,0.7842221,0.7042701,0.7432758,1.0467738,0.74541616,-0.15647438,0.9382762,0.89188564,0.7793102,-0.21869648,0.758175,0.66625494,0.8121927,-0.4186162,0.5791612,0.49996677,0.23924837,-0.7278242,0.38638204,800.6227,735.34796,801.02563,796.99634,753.8828,-0.26019287109375,0.07501220703125,0.93798828125,1.951446533203125,-3.985137939453125,1.42059326171875,1.0,1.0,2.0,1.0,1.0,85.0,event
10:35:50.098,0.9165514,0.7842221,0.7042701,0.7432758,1.0467738,0.74541616,-0.15647438,0.9382762,0.89188564,0.7793102,-0.21869648,0.758175,0.66625494,0.8121927,-0.4186162,0.5791612,0.49996677,0.23924837,-0.7278242,0.38638204,811.0989,771.6117,801.02563,801.02563,816.337,-0.26019287109375,0.07501220703125,0.93798828125,1.951446533203125,-3.985137939453125,1.42059326171875,1.0,1.0,2.0,1.0,1.0,85.0,event
10:35:50.099,0.9165514,0.7842221,0.7042701,0.7432758,1.0467738,0.74541616,-0.15647438,0.9382762,0.89188564,0.7793102,-0.21869648,0.758175,0.66625494,0.8121927,-0.4186162,0.5791612,0.49996677,0.23924837,-0.7278242,0.38638204,797.8022,843.3333,801.02563,795.38464,762.3443,-0.26019287109375,0.07501220703125,0.93798828125,1.951446533203125,-3.985137939453125,1.42059326171875,1.0,1.0,2.0,1.0,1.0,85.0,event
10:35:50.099,0.9165514,0.7842221,0.7042701,0.7432758,1.0467738,0.74541616,-0.15647438,0.9382762,0.89188564,0.7793102,-0.21869648,0.758175,0.66625494,0.8121927,-0.4186162,0.5791612,0.49996677,0.23924837,-0.7278242,0.38638204,793.7729,696.26373,800.6227,773.6264,772.8205,-0.26019287109375,0.07501220703125,0.93798828125,1.951446533203125,-3.985137939453125,1.42059326171875,1.0,1.0,2.0,1.0,1.0,85.0,event
10:35:50.100,0.9165514,0.7842221,0.7042701,0.7432758,1.0467738,0.74541616,-0.15647438,0.9382762,0.89188564,0.7793102,-0.21869648,0.758175,0.66625494,0.8121927,-0.4186162,0.5791612,0.49996677,0.23924837,-0.7278242,0.38638204,779.67035,593.91943,802.23444,790.14655,893.69965,-0.26019287109375,0.07501220703125,0.93798828125,1.951446533203125,-3.985137939453125,1.42059326171875,1.0,1.0,2.0,1.0,1.0,85.0,event
10:35:50.100,0.9165514,0.7842221,0.7042701,0.7432758,1.0467738,0.74541616,-0.15647438,0.9382762,0.89188564,0.7793102,-0.21869648,0.758175,0.66625494,0.8121927,-0.4186162,0.5791612,0.49996677,0.23924837,-0.7278242,0.38638204,780.87915,390.03662,805.4579,790.9524,1068.1685,-0.26019287109375,0.07501220703125,0.93798828125,1.951446533203125,-3.985137939453125,1.42059326171875,1.0,1.0,2.0,1.0,1.0,85.0,event
10:35:50.101,0.9165514,0.7842221,0.7042701,0.7432758,1.0467738,0.74541616,-0.15647438,0.9382762,0.89188564,0.7793102,-0.21869648,0.758175,0.66625494,0.8121927,-0.4186162,0.5791612,0.49996677,0.23924837,-0.7278242,0.38638204,801.8315,987.1795,806.26373,780.87915,900.14655,-0.26019287109375,0.07501220703125,0.93798828125,1.951446533203125,-3.985137939453125,1.42059326171875,1.0,1.0,2.0,1.0,1.0,85.0,event
10:35:50.102,0.9165514,0.7842221,0.58222854,0.773953,1.0467738,0.74541616,-0.25692517,0.91851735,0.89188564,0.7793102,-0.20547357,0.7632143,0.66625494,0.8121927,-0.424755,0.56752187,0.49996677,0.23924837,-0.69575727,0.38459232,804.65204,1189.4506,805.05493,788.93774,688.60803,-0.26019287109375,0.07501220703125,0.93798828125,1.951446533203125,-3.985137939453125,1.42059326171875,1.0,1.0,2.0,1.0,1.0,85.0,event
10:35:50.106,0.9165514,0.7842221,0.58222854,0.773953,1.0467738,0.74541616,-0.25692517,0.91851735,0.89188564,0.7793102,-0.20547357,0.7632143,0.66625494,0.8121927,-0.424755,0.56752187,0.49996677,0.23924837,-0.69575727,0.38459232,800.2198,662.4176,803.44324,784.5055,780.4762,-0.26019287109375,0.07501220703125,0.93798828125,1.951446533203125,-3.985137939453125,1.42059326171875,1.0,1.0,2.0,1.0,1.0,85.0,event
10:35:50.107,0.9165514,0.7842221,0.58222854,0.773953,1.0467738,0.74541616,-0.25692517,0.91851735,0.89188564,0.7793102,-0.20547357,0.7632143,0.66625494,0.8121927,-0.424755,0.56752187,0.49996677,0.23924837,-0.69575727,0.38459232,790.9524,794.9817,804.65204,788.93774,769.59705,-0.26019287109375,0.07501220703125,0.93798828125,1.951446533203125,-3.985137939453125,1.42059326171875,1.0,1.0,2.0,1.0,1.0,85.0,event
10:35:50.134,0.9165514,0.7842221,0.58222854,0.773953,1.0467738,0.74541616,-0.25692517,0.91851735,0.89188564,0.7793102,-0.20547357,0.7632143,0.66625494,0.8121927,-0.424755,0.56752187,0.49996677,0.23924837,-0.69575727,0.38459232,793.36993,948.0952,802.6374,785.7143,632.6007,-0.27337646484375,0.0787353515625,0.95562744140625,2.452392578125,-2.572021484375,1.2261962890625,1.0,1.0,2.0,1.0,1.0,85.0,event
10:35:50.135,0.9165514,0.7842221,0.58222854,0.773953,1.0467738,0.74541616,-0.25692517,0.91851735,0.89188564,0.7793102,-0.20547357,0.7632143,0.66625494,0.8121927,-0.424755,0.56752187,0.49996677,0.23924837,-0.69575727,0.38459232,801.02563,852.1978,801.02563,782.49084,670.07324,-0.27337646484375,0.0787353515625,0.95562744140625,2.452392578125,-2.572021484375,1.2261962890625,1.0,1.0,2.0,1.0,1.0,85.0,event
10:35:50.136,0.9165514,0.7842221,0.58222854,0.773953,1.0467738,0.74541616,-0.25692517,0.91851735,0.89188564,0.7793102,-0.20547357,0.7632143,0.66625494,0.8121927,-0.424755,0.56752187,0.49996677,0.23924837,-0.69575727,0.38459232,793.7729,762.74725,806.26373,803.0403,794.57874,-0.27337646484375,0.0787353515625,0.95562744140625,2.452392578125,-2.572021484375,1.2261962890625,1.0,1.0,2.0,1.0,1.0,85.0,event
10:35:50.136,0.9165514,0.7842221,0.58222854,0.773953,1.0467738,0.74541616,-0.25692517,0.91851735,0.89188564,0.7793102,-0.20547357,0.7632143,0.66625494,0.8121927,-0.424755,0.56752187,0.49996677,0.23924837,-0.69575727,0.38459232,798.20514,795.38464,803.0403,803.0403,785.7143,-0.27337646484375,0.0787353515625,0.95562744140625,2.452392578125,-2.572021484375,1.2261962890625,1.0,1.0,2.0,1.0,1.0,85.0,event
10:35:50.137,0.9165514,0.7842221,0.58222854,0.773953,1.0467738,0.74541616,-0.25692517,0.91851735,0.89188564,0.7793102,-0.20547357,0.7632143,0.66625494,0.8121927,-0.424755,0.56752187,0.49996677,0.23924837,-0.69575727,0.38459232,799.41394,790.14655,801.8315,806.26373,703.5165,-0.27337646484375,0.0787353515625,0.95562744140625,2.452392578125,-2.572021484375,1.2261962890625,1.0,1.0,2.0,1.0,1.0,85.0,event
10:35:50.138,0.9165514,0.7842221,0.58222854,0.773953,1.0467738,0.74541616,-0.25692517,0.91851735,0.89188564,0.7793102,-0.20547357,0.7632143,0.66625494,0.8121927,-0.424755,0.56752187,0.49996677,0.23924837,-0.69575727,0.38459232,800.6227,685.38464,806.26373,806.6667,750.65936,-0.27337646484375,0.0787353515625,0.95562744140625,2.452392578125,-2.572021484375,1.2261962890625,1.0,1.0,2.0,1.0,1.0,85.0,event
10:35:50.139,0.9165514,0.7842221,0.58222854,0.773953,1.0467738,0.74541616,-0.25692517,0.91851735,0.89188564,0.7793102,-0.20547357,0.7632143,0.66625494,0.8121927,-0.424755,0.56752187,0.49996677,0.23924837,-0.69575727,0.38459232,804.65204,579.81683,808.2784,796.99634,1002.0879,-0.27337646484375,0.0787353515625,0.95562744140625,2.452392578125,-2.572021484375,1.2261962890625,1.0,1.0,2.0,1.0,1.0,85.0,event
10:35:50.140,0.9165514,0.7842221,0.58222854,0.773953,1.0467738,0.74541616,-0.25692517,0.91851735,0.89188564,0.7793102,-0.20547357,0.7632143,0.66625494,0.8121927,-0.424755,0.56752187,0.49996677,0.23924837,-0.69575727,0.38459232,813.5165,866.7033,802.23444,801.4286,936.8132,-0.27337646484375,0.0787353515625,0.95562744140625,2.452392578125,-2.572021484375,1.2261962890625,1.0,1.0,2.0,1.0,1.0,85.0,event
10:35:50.140,0.9165514,0.7842221,0.58222854,0.773953,1.0467738,0.74541616,-0.25692517,0.91851735,0.89188564,0.7793102,-0.20547357,0.7632143,0.66625494,0.8121927,-0.424755,0.56752187,0.49996677,0.23924837,-0.69575727,0.38459232,815.5311,1017.3993,800.6227,799.81683,726.4835,-0.27337646484375,0.0787353515625,0.95562744140625,2.452392578125,-2.572021484375,1.2261962890625,1.0,1.0,2.0,1.0,1.0,85.0,event
10:35:50.141,0.9165514,0.7842221,0.58222854,0.773953,1.0467738,0.74541616,-0.25692517,0.91851735,0.89188564,0.7793102,-0.20547357,0.7632143,0.66625494,0.8121927,-0.424755,0.56752187,0.49996677,0.23924837,-0.69575727,0.38459232,805.8608,684.57874,802.6374,803.0403,763.5531,-0.27337646484375,0.0787353515625,0.95562744140625,2.452392578125,-2.572021484375,1.2261962890625,1.0,1.0,2.0,1.0,1.0,85.0,event
10:35:50.142,0.9165514,0.7842221,0.58222854,0.773953,1.0467738,0.74541616,-0.25692517,0.91851735,0.89188564,0.7793102,-0.20547357,0.7632143,0.66625494,0.8121927,-0.424755,0.56752187,0.49996677,0.23924837,-0.69575727,0.38459232,797.3993,910.2198,805.8608,811.9048,830.0366,-0.27337646484375,0.0787353515625,0.95562744140625,2.452392578125,-2.572021484375,1.2261962890625,1.0,1.0,2.0,1.0,1.0,85.0,event
10:35:50.142,0.9165514,0.7842221,0.58222854,0.773953,1.0467738,0.74541616,-0.25692517,0.91851735,0.89188564,0.7793102,-0.20547357,0.7632143,0.66625494,0.8121927,-0.424755,0.56752187,0.49996677,0.23924837,-0.69575727,0.38459232,811.50183,560.87915,804.65204,810.696,907.3993,-0.27337646484375,0.0787353515625,0.95562744140625,2.452392578125,-2.572021484375,1.2261962890625,1.0,1.0,2.0,1.0,1.0,85.0,event
10:35:50.176,0.9165514,0.7842221,0.58222854,0.773953,1.0467738,0.74541616,-0.25692517,0.91851735,0.89188564,0.7793102,-0.20547357,0.7632143,0.66625494,0.8121927,-0.424755,0.56752187,0.49996677,0.23924837,-0.69575727,0.38459232,800.6227,1089.9268,805.8608,813.5165,691.4286,-0.26715087890625,0.07794189453125,0.94775390625,2.400054931640625,-3.90289306640625,0.2093505859375,1.0,1.0,2.0,1.0,1.0,85.0,event
10:35:50.176,0.9165514,0.7842221,0.58222854,0.773953,1.0467738,0.74541616,-0.25692517,0.91851735,0.89188564,0.7793102,-0.20547357,0.7632143,0.66625494,0.8121927,-0.424755,0.56752187,0.49996677,0.23924837,-0.69575727,0.38459232,810.293,724.0659,807.0696,812.71063,791.75824,-0.26715087890625,0.07794189453125,0.94775390625,2.400054931640625,-3.90289306640625,0.2093505859375,1.0,1.0,2.0,1.0,1.0,85.0,event
10:35:50.177,0.9165514,0.7842221,0.58222854,0.773953,1.0467738,0.74541616,-0.25692517,0.91851735,0.89188564,0.7793102,-0.20547357,0.7632143,0.66625494,0.8121927,-0.424755,0.56752187,0.49996677,0.23924837,-0.69575727,0.38459232,791.3553,643.47986,805.05493,803.44324,780.87915,-0.26715087890625,0.07794189453125,0.94775390625,2.400054931640625,-3.90289306640625,0.2093505859375,1.0,1.0,2.0,1.0,1.0,85.0,event
10:35:50.178,0.9165514,0.7842221,0.58222854,0.773953,1.0467738,0.74541616,-0.25692517,0.91851735,0.89188564,0.7793102,-0.20547357,0.7632143,0.66625494,0.8121927,-0.424755,0.56752187,0.49996677,0.23924837,-0.69575727,0.38459232,796.5934,848.5714,802.23444,803.0403,708.3516,-0.26715087890625,0.07794189453125,0.94775390625,2.400054931640625,-3.90289306640625,0.2093505859375,1.0,1.0,2.0,1.0,1.0,85.0,event
10:35:50.178,0.9165514,0.7842221,0.58222854,0.773953,1.0467738,0.74541616,-0.25692517,0.91851735,0.89188564,0.7793102,-0.20547357,0.7632143,0.66625494,0.8121927,-0.424755,0.56752187,0.49996677,0.23924837,-0.69575727,0.38459232,809.4872,867.9121,803.44324,801.8315,696.6667,-0.26715087890625,0.07794189453125,0.94775390625,2.400054931640625,-3.90289306640625,0.2093505859375,1.0,1.0,2.0,1.0,1.0,85.0,event
10:35:50.179,0.9165514,0.7842221,0.58222854,0.773953,1.0467738,0.74541616,-0.25692517,0.91851735,0.89188564,0.7793102,-0.20547357,0.7632143,0.66625494,0.8121927,-0.424755,0.56752187,0.49996677,0.23924837,-0.69575727,0.38459232,816.7399,564.90845,805.05493,801.02563,890.4762,-0.26715087890625,0.07794189453125,0.94775390625,2.400054931640625,-3.90289306640625,0.2093505859375,1.0,1.0,2.0,1.0,1.0,85.0,event
10:35:50.179,0.9165514,0.7842221,0.58222854,0.773953,1.0467738,0.74541616,-0.25692517,0.91851735,0.89188564,0.7793102,-0.20547357,0.7632143,0.66625494,0.8121927,-0.424755,0.56752187,0.49996677,0.23924837,-0.69575727,0.38459232,809.4872,436.37363,807.0696,805.8608,1096.7766,-0.26715087890625,0.07794189453125,0.94775390625,2.400054931640625,-3.90289306640625,0.2093505859375,1.0,1.0,2.0,1.0,1.0,85.0,event
10:35:50.180,0.9165514,0.7842221,0.58222854,0.773953,1.0467738,0.74541616,-0.25692517,0.91851735,0.89188564,0.7793102,-0.20547357,0.7632143,0.66625494,0.8121927,-0.424755,0.56752187,0.49996677,0.23924837,-0.69575727,0.38459232,801.02563,964.61536,806.6667,799.41394,832.8571,-0.26715087890625,0.07794189453125,0.94775390625,2.400054931640625,-3.90289306640625,0.2093505859375,1.0,1.0,2.0,1.0,1.0,85.0,event
10:35:50.180,0.9165514,0.7842221,0.58222854,0.773953,1.0467738,0.74541616,-0.25692517,0.91851735,0.89188564,0.7793102,-0.20547357,0.7632143,0.66625494,0.8121927,-0.424755,0.56752187,0.49996677,0.23924837,-0.69575727,0.38459232,797.8022,1022.6374,804.2491,799.011,622.52747,-0.26715087890625,0.07794189453125,0.94775390625,2.400054931640625,-3.90289306640625,0.2093505859375,1.0,1.0,2.0,1.0,1.0,85.0,event
10:35:50.181,0.9165514,0.7842221,0.58222854,0.773953,1.0467738,0.74541616,-0.25692517,0.91851735,0.89188564,0.7793102,-0.20547357,0.7632143,0.66625494,0.8121927,-0.424755,0.56752187,0.49996677,0.23924837,-0.69575727,0.38459232,802.6374,706.7399,807.47253,809.4872,771.2088,-0.26715087890625,0.07794189453125,0.94775390625,2.400054931640625,-3.90289306640625,0.2093505859375,1.0,1.0,2.0,1.0,1.0,85.0,event
10:35:50.181,0.9165514,0.7842221,0.58222854,0.773953,1.0467738,0.74541616,-0.25692517,0.91851735,0.89188564,0.7793102,-0.20547357,0.7632143,0.66625494,0.8121927,-0.424755,0.56752187,0.49996677,0.23924837,-0.69575727,0.38459232,804.2491,793.7729,806.6667,807.47253,846.1539,-0.26715087890625,0.07794189453125,0.94775390625,2.400054931640625,-3.90289306640625,0.2093505859375,1.0,1.0,2.0,1.0,1.0,85.0,event
10:35:50.182,0.9165514,0.7842221,0.41352326,0.8295794,1.0467738,0.74541616,-0.38073874,0.90641487,0.89188564,0.7793102,-0.20279285,0.7632143,0.66625494,0.8121927,-0.43172535,0.5571284,0.49996677,0.23924837,-0.6679469,0.371184,805.05493,867.50916,805.8608,807.8755,776.4469,-0.26715087890625,0.07794189453125,0.94775390625,2.400054931640625,-3.90289306640625,0.2093505859375,1.0,1.0,2.0,1.0,1.0,85.0,event
10:35:50.212,0.9165514,0.7842221,0.41352326,0.8295794,1.0467738,0.74541616,-0.38073874,0.90641487,0.89188564,0.7793102,-0.20279285,0.7632143,0.66625494,0.8121927,-0.43172535,0.5571284,0.49996677,0.23924837,-0.6679469,0.371184,810.696,651.53845,809.0842,817.1429,776.4469,-0.26727294921875,0.08074951171875,0.95318603515625,2.1533203125,-3.401947021484375,0.94207763671875,1.0,1.0,2.0,1.0,1.0,85.0,event
10:35:50.213,0.9165514,0.7842221,0.41352326,0.8295794,1.0467738,0.74541616,-0.38073874,0.90641487,0.89188564,0.7793102,-0.20279285,0.7632143,0.66625494,0.8121927,-0.43172535,0.5571284,0.49996677,0.23924837,-0.6679469,0.371184,803.0403,552.01465,809.4872,806.26373,847.76556,-0.26727294921875,0.08074951171875,0.95318603515625,2.1533203125,-3.401947021484375,0.94207763671875,1.0,1.0,2.0,1.0,1.0,85.0,event
10:35:50.214,0.9165514,0.7842221,0.41352326,0.8295794,1.0467738,0.74541616,-0.38073874,0.90641487,0.89188564,0.7793102,-0.20279285,0.7632143,0.66625494,0.8121927,-0.43172535,0.5571284,0.49996677,0.23924837,-0.6679469,0.371184,799.81683,790.14655,805.05493,797.8022,778.86444,-0.26727294921875,0.08074951171875,0.95318603515625,2.1533203125,-3.401947021484375,0.94207763671875,1.0,1.0,2.0,1.0,1.0,85.0,event
10:35:50.215,0.9165514,0.7842221,0.41352326,0.8295794,1.0467738,0.74541616,-0.38073874,0.90641487,0.89188564,0.7793102,-0.20279285,0.7632143,0.66625494,0.8121927,-0.43172535,0.5571284,0.49996677,0.23924837,-0.6679469,0.371184,815.5311,985.16486,800.6227,803.0403,695.05493,-0.26727294921875,0.08074951171875,0.95318603515625,2.1533203125,-3.401947021484375,0.94207763671875,1.0,1.0,2.0,1.0,1.0,85.0,event
10:35:50.215,0.9165514,0.7842221,0.41352326,0.8295794,1.0467738,0.74541616,-0.38073874,0.90641487,0.89188564,0.7793102,-0.20279285,0.7632143,0.66625494,0.8121927,-0.43172535,0.5571284,0.49996677,0.23924837,-0.6679469,0.371184,812.3077,781.685,798.20514,793.7729,776.8498,-0.26727294921875,0.08074951171875,0.95318603515625,2.1533203125,-3.401947021484375,0.94207763671875,1.0,1.0,2.0,1.0,1.0,85.0,event
10:35:50.216,0.9165514,0.7842221,0.41352326,0.8295794,1.0467738,0.74541616,-0.38073874,0.90641487,0.89188564,0.7793102,-0.20279285,0.7632143,0.66625494,0.8121927,-0.43172535,0.5571284,0.49996677,0.23924837,-0.6679469,0.371184,794.57874,563.2967,800.6227,789.7436,812.71063,-0.26727294921875,0.08074951171875,0.95318603515625,2.1533203125,-3.401947021484375,0.94207763671875,1.0,1.0,2.0,1.0,1.0,85.0,event
10:35:50.217,0.9165514,0.7842221,0.41352326,0.8295794,1.0467738,0.74541616,-0.38073874,0.90641487,0.89188564,0.7793102,-0.20279285,0.7632143,0.66625494,0.8121927,-0.43172535,0.5571284,0.49996677,0.23924837,-0.6679469,0.371184,792.1612,663.22345,801.4286,796.1905,848.1685,-0.26727294921875,0.08074951171875,0.95318603515625,2.1533203125,-3.401947021484375,0.94207763671875,1.0,1.0,2.0,1.0,1.0,85.0,event
10:35:50.218,0.9165514,0.7842221,0.41352326,0.8295794,1.0467738,0.74541616,-0.38073874,0.90641487,0.89188564,0.7793102,-0.20279285,0.7632143,0.66625494,0.8121927,-0.43172535,0.5571284,0.49996677,0.23924837,-0.6679469,0.371184,796.99634,925.5311,801.8315,797.3993,799.41394,-0.26727294921875,0.08074951171875,0.95318603515625,2.1533203125,-3.401947021484375,0.94207763671875,1.0,1.0,2.0,1.0,1.0,85.0,event
10:35:50.219,0.9165514,0.7842221,0.41352326,0.8295794,1.0467738,0.74541616,-0.38073874,0.90641487,0.89188564,0.7793102,-0.20279285,0.7632143,0.66625494,0.8121927,-0.43172535,0.5571284,0.49996677,0.23924837,-0.6679469,0.371184,803.0403,863.8828,805.4579,804.65204,708.3516,-0.26727294921875,0.08074951171875,0.95318603515625,2.1533203125,-3.401947021484375,0.94207763671875,1.0,1.0,2.0,1.0,1.0,85.0,event
10:35:50.220,0.9165514,0.7842221,0.41352326,0.8295794,1.0467738,0.74541616,-0.38073874,0.90641487,0.89188564,0.7793102,-0.20279285,0.7632143,0.66625494,0.8121927,-0.43172535,0.5571284,0.49996677,0.23924837,-0.6679469,0.371184,782.8938,447.25275,805.4579,803.0403,855.82416,-0.26727294921875,0.08074951171875,0.95318603515625,2.1533203125,-3.401947021484375,0.94207763671875,1.0,1.0,2.0,1.0,1.0,85.0,event
10:35:50.220,0.9165514,0.7842221,0.41352326,0.8295794,1.0467738,0.74541616,-0.38073874,0.90641487,0.89188564,0.7793102,-0.20279285,0.7632143,0.66625494,0.8121927,-0.43172535,0.5571284,0.49996677,0.23924837,-0.6679469,0.371184,786.9231,716.4103,804.2491,784.5055,837.28937,-0.26727294921875,0.08074951171875,0.95318603515625,2.1533203125,-3.401947021484375,0.94207763671875,1.0,1.0,2.0,1.0,1.0,85.0,event
10:35:50.221,0.9165514,0.7842221,0.41352326,0.8295794,1.0467738,0.74541616,-0.38073874,0.90641487,0.89188564,0.7793102,-0.20279285,0.7632143,0.66625494,0.8121927,-0.43172535,0.5571284,0.49996677,0.23924837,-0.6679469,0.371184,801.02563,1019.81683,806.6667,781.28204,671.28204,-0.26727294921875,0.08074951171875,0.95318603515625,2.1533203125,-3.401947021484375,0.94207763671875,1.0,1.0,2.0,1.0,1.0,85.0,event
10:35:50.242,0.9165514,0.7842221,0.41352326,0.8295794,1.0467738,0.74541616,-0.38073874,0.90641487,0.89188564,0.7793102,-0.20279285,0.7632143,0.66625494,0.8121927,-0.43172535,0.5571284,0.49996677,0.23924837,-0.6679469,0.371184,793.7729,722.8571,805.8608,785.7143,709.5604,-0.26727294921875,0.08074951171875,0.95318603515625,2.1533203125,-3.401947021484375,0.94207763671875,1.0,1.0,2.0,1.0,1.0,85.0,event
10:35:50.243,0.9165514,0.7842221,0.41352326,0.8295794,1.0467738,0.74541616,-0.38073874,0.90641487,0.89188564,0.7793102,-0.20279285,0.7632143,0.66625494,0.8121927,-0.43172535,0.5571284,0.49996677,0.23924837,-0.6679469,0.371184,805.05493,699.4872,810.293,794.57874,736.1539,-0.26727294921875,0.08074951171875,0.95318603515625,2.1533203125,-3.401947021484375,0.94207763671875,1.0,1.0,2.0,1.0,1.0,85.0,event
10:35:50.243,0.9165514,0.7842221,0.41352326,0.8295794,1.0467738,0.74541616,-0.38073874,0.90641487,0.89188564,0.7793102,-0.20279285,0.7632143,0.66625494,0.8121927,-0.43172535,0.5571284,0.49996677,0.23924837,-0.6679469,0.371184,823.9927,822.381,811.0989,809.0842,711.1722,-0.26727294921875,0.08074951171875,0.95318603515625,2.1533203125,-3.401947021484375,0.94207763671875,1.0,1.0,2.0,1.0,1.0,85.0,event
10:35:50.244,0.9165514,0.7842221,0.41352326,0.8295794,1.0467738,0.74541616,-0.38073874,0.90641487,0.89188564,0.7793102,-0.20279285,0.7632143,0.66625494,0.8121927,-0.43172535,0.5571284,0.49996677,0.23924837,-0.6679469,0.371184,813.5165,699.4872,807.8755,797.3993,760.7326,-0.26727294921875,0.08074951171875,0.95318603515625,2.1533203125,-3.401947021484375,0.94207763671875,1.0,1.0,2.0,1.0,1.0,85.0,event
10:35:50.244,0.9165514,0.7842221,0.41352326,0.8295794,1.0467738,0.74541616,-0.38073874,0.90641487,0.89188564,0.7793102,-0.20279285,0.7632143,0.66625494,0.8121927,-0.43172535,0.5571284,0.49996677,0.23924837,-0.6679469,0.371184,794.9817,543.95605,805.8608,789.34064,866.7033,-0.26727294921875,0.08074951171875,0.95318603515625,2.1533203125,-3.401947021484375,0.94207763671875,1.0,1.0,2.0,1.0,1.0,85.0,event
10:35:50.244,0.9165514,0.7842221,0.41352326,0.8295794,1.0467738,0.74541616,-0.38073874,0.90641487,0.89188564,0.7793102,-0.20279285,0.7632143,0.66625494,0.8121927,-0.43172535,0.5571284,0.49996677,0.23924837,-0.6679469,0.371184,789.7436,480.69598,805.05493,800.6227,1083.0769,-0.26727294921875,0.08074951171875,0.95318603515625,2.1533203125,-3.401947021484375,0.94207763671875,1.0,1.0,2.0,1.0,1.0,85.0,event
10:35:50.245,0.9165514,0.7842221,0.41352326,0.8295794,1.0467738,0.74541616,-0.38073874,0.90641487,0.89188564,0.7793102,-0.20279285,0.7632143,0.66625494,0.8121927,-0.43172535,0.5571284,0.49996677,0.23924837,-0.6679469,0.371184,789.34064,882.8205,807.47253,801.02563,979.92676,-0.26727294921875,0.08074951171875,0.95318603515625,2.1533203125,-3.401947021484375,0.94207763671875,1.0,1.0,2.0,1.0,1.0,85.0,event
10:35:50.245,0.9165514,0.7842221,0.41352326,0.8295794,1.0467738,0.74541616,-0.38073874,0.90641487,0.89188564,0.7793102,-0.20279285,0.7632143,0.66625494,0.8121927,-0.43172535,0.5571284,0.49996677,0.23924837,-0.6679469,0.371184,797.3993,1081.8682,807.0696,802.23444,736.9597,-0.26727294921875,0.08074951171875,0.95318603515625,2.1533203125,-3.401947021484375,0.94207763671875,1.0,1.0,2.0,1.0,1.0,85.0,event
10:35:50.245,0.9165514,0.7842221,0.41352326,0.8295794,1.0467738,0.74541616,-0.38073874,0.90641487,0.89188564,0.7793102,-0.20279285,0.7632143,0.66625494,0.8121927,-0.43172535,0.5571284,0.49996677,0.23924837,-0.6679469,0.371184,782.8938,566.9231,807.47253,801.02563,805.05493,-0.26727294921875,0.08074951171875,0.95318603515625,2.1533203125,-3.401947021484375,0.94207763671875,1.0,1.0,2.0,1.0,1.0,85.0,event
10:35:50.246,0.9165514,0.7842221,0.41352326,0.8295794,1.0467738,0.74541616,-0.38073874,0.90641487,0.89188564,0.7793102,-0.20279285,0.7632143,0.66625494,0.8121927,-0.43172535,0.5571284,0.49996677,0.23924837,-0.6679469,0.371184,790.9524,521.39197,807.0696,792.96704,892.49084,-0.26727294921875,0.08074951171875,0.95318603515625,2.1533203125,-3.401947021484375,0.94207763671875,1.0,1.0,2.0,1.0,1.0,85.0,event
10:35:50.246,0.9165514,0.7842221,0.41352326,0.8295794,1.0467738,0.74541616,-0.38073874,0.90641487,0.89188564,0.7793102,-0.20279285,0.7632143,0.66625494,0.8121927,-0.43172535,0.5571284,0.49996677,0.23924837,-0.6679469,0.371184,816.7399,978.71796,803.0403,790.14655,702.71063,-0.26727294921875,0.08074951171875,0.95318603515625,2.1533203125,-3.401947021484375,0.94207763671875,1.0,1.0,2.0,1.0,1.0,85.0,event
10:35:50.247,0.9165514,0.7842221,0.41352326,0.8295794,1.0467738,0.74541616,-0.38073874,0.90641487,0.89188564,0.7793102,-0.20279285,0.7632143,0.66625494,0.8121927,-0.43172535,0.5571284,0.49996677,0.23924837,-0.6679469,0.371184,802.6374,859.45056,802.23444,788.93774,659.59705,-0.26727294921875,0.08074951171875,0.95318603515625,2.1533203125,-3.401947021484375,0.94207763671875,1.0,1.0,2.0,1.0,1.0,85.0,event
10:35:50.344,0.9165514,0.7842221,0.41352326,0.8295794,1.0467738,0.74541616,-0.38073874,0.90641487,0.89188564,0.7793102,-0.20279285,0.7632143,0.66625494,0.8121927,-0.43172535,0.5571284,0.49996677,0.23924837,-0.6679469,0.371184,801.02563,659.59705,803.0403,797.8022,755.09155,-0.26953125,0.0771484375,0.95550537109375,2.609405517578125,-3.641204833984375,0.35888671875,1.0,1.0,2.0,1.0,1.0,85.0,event
10:35:50.345,0.9165514,0.7842221,0.2346971,0.88058573,1.0467738,0.74541616,-0.49052775,0.89966637,0.89188564,0.7793102,-0.20010781,0.7632143,0.66625494,0.8121927,-0.43896767,0.54667366,0.49996677,0.23924837,-0.6465477,0.3530951,807.8755,730.10986,803.8461,803.44324,798.60803,-0.26953125,0.0771484375,0.95550537109375,2.609405517578125,-3.641204833984375,0.35888671875,1.0,1.0,2.0,1.0,1.0,85.0,event
10:35:50.349,0.9165514,0.7842221,0.2346971,0.88058573,1.0467738,0.74541616,-0.49052775,0.89966637,0.89188564,0.7793102,-0.20010781,0.7632143,0.66625494,0.8121927,-0.43896767,0.54667366,0.49996677,0.23924837,-0.6465477,0.3530951,801.4286,814.3223,803.8461,810.293,801.4286,-0.26953125,0.0771484375,0.95550537109375,2.609405517578125,-3.641204833984375,0.35888671875,1.0,1.0,2.0,1.0,1.0,85.0,event
10:35:50.350,0.9165514,0.7842221,0.2346971,0.88058573,1.0467738,0.74541616,-0.49052775,0.89966637,0.89188564,0.7793102,-0.20010781,0.7632143,0.66625494,0.8121927,-0.43896767,0.54667366,0.49996677,0.23924837,-0.6465477,0.3530951,803.8461,707.5458,806.26373,809.89014,835.6777,-0.26953125,0.0771484375,0.95550537109375,2.609405517578125,-3.641204833984375,0.35888671875,1.0,1.0,2.0,1.0,1.0,85.0,event
10:35:50.351,0.9165514,0.7842221,0.2346971,0.88058573,1.0467738,0.74541616,-0.49052775,0.89966637,0.89188564,0.7793102,-0.20010781,0.7632143,0.66625494,0.8121927,-0.43896767,0.54667366,0.49996677,0.23924837,-0.6465477,0.3530951,811.50183,630.58606,808.68134,812.3077,923.1135,-0.26953125,0.0771484375,0.95550537109375,2.609405517578125,-3.641204833984375,0.35888671875,1.0,1.0,2.0,1.0,1.0,85.0,event
10:35:50.351,0.9165514,0.7842221,0.2346971,0.88058573,1.0467738,0.74541616,-0.49052775,0.89966637,0.89188564,0.7793102,-0.20010781,0.7632143,0.66625494,0.8121927,-0.43896767,0.54667366,0.49996677,0.23924837,-0.6465477,0.3530951,826.4103,677.72894,806.6667,819.9634,970.65936,-0.26953125,0.0771484375,0.95550537109375,2.609405517578125,-3.641204833984375,0.35888671875,1.0,1.0,2.0,1.0,1.0,85.0,event
10:35:50.352,0.9165514,0.7842221,0.2346971,0.88058573,1.0467738,0.74541616,-0.49052775,0.89966637,0.89188564,0.7793102,-0.20010781,0.7632143,0.66625494,0.8121927,-0.43896767,0.54667366,0.49996677,0.23924837,-0.6465477,0.3530951,817.5458,685.38464,807.0696,814.7253,941.6484,-0.26953125,0.0771484375,0.95550537109375,2.609405517578125,-3.641204833984375,0.35888671875,1.0,1.0,2.0,1.0,1.0,85.0,event
10:35:50.353,0.9165514,0.7842221,0.2346971,0.88058573,1.0467738,0.74541616,-0.49052775,0.89966637,0.89188564,0.7793102,-0.20010781,0.7632143,0.66625494,0.8121927,-0.43896767,0.54667366,0.49996677,0.23924837,-0.6465477,0.3530951,803.8461,719.6337,809.4872,802.23444,834.0659,-0.26953125,0.0771484375,0.95550537109375,2.609405517578125,-3.641204833984375,0.35888671875,1.0,1.0,2.0,1.0,1.0,85.0,event
10:35:50.353,0.9165514,0.7842221,0.2346971,0.88058573,1.0467738,0.74541616,-0.49052775,0.89966637,0.89188564,0.7793102,-0.20010781,0.7632143,0.66625494,0.8121927,-0.43896767,0.54667366,0.49996677,0.23924837,-0.6465477,0.3530951,802.6374,432.74725,809.4872,807.0696,931.1722,-0.26953125,0.0771484375,0.95550537109375,2.609405517578125,-3.641204833984375,0.35888671875,1.0,1.0,2.0,1.0,1.0,85.0,event
10:35:50.354,0.9165514,0.7842221,0.2346971,0.88058573,1.0467738,0.74541616,-0.49052775,0.89966637,0.89188564,0.7793102,-0.20010781,0.7632143,0.66625494,0.8121927,-0.43896767,0.54667366,0.49996677,0.23924837,-0.6465477,0.3530951,799.011,625.34796,803.8461,811.9048,996.4469,-0.26953125,0.0771484375,0.95550537109375,2.609405517578125,-3.641204833984375,0.35888671875,1.0,1.0,2.0,1.0,1.0,85.0,event
10:35:50.354,0.9165514,0.7842221,0.2346971,0.88058573,1.0467738,0.74541616,-0.49052775,0.89966637,0.89188564,0.7793102,-0.20010781,0.7632143,0.66625494,0.8121927,-0.43896767,0.54667366,0.49996677,0.23924837,-0.6465477,0.3530951,830.0366,1161.6483,808.68134,803.8461,733.3333,-0.26953125,0.0771484375,0.95550537109375,2.609405517578125,-3.641204833984375,0.35888671875,1.0,1.0,2.0,1.0,1.0,85.0,event
10:35:50.355,0.9165514,0.7842221,0.2346971,0.88058573,1.0467738,0.74541616,-0.49052775,0.89966637,0.89188564,0.7793102,-0.20010781,0.7632143,0.66625494,0.8121927,-0.43896767,0.54667366,0.49996677,0.23924837,-0.6465477,0.3530951,835.6777,812.71063,811.0989,803.44324,731.31866,-0.26953125,0.0771484375,0.95550537109375,2.609405517578125,-3.641204833984375,0.35888671875,1.0,1.0,2.0,1.0,1.0,85.0,event
10:35:50.382,0.9165514,0.7842221,0.2346971,0.88058573,1.0467738,0.74541616,-0.49052775,0.89966637,0.89188564,0.7793102,-0.20010781,0.7632143,0.66625494,0.8121927,-0.43896767,0.54667366,0.49996677,0.23924837,-0.6465477,0.3530951,822.7839,623.73627,806.26373,796.99634,766.77655,-0.2652587890625,0.07470703125,0.94598388671875,2.429962158203125,-3.21502685546875,-0.0299072265625,1.0,1.0,2.0,1.0,1.0,85.0,event
10:35:50.383,0.9165514,0.7842221,0.2346971,0.88058573,1.0467738,0.74541616,-0.49052775,0.89966637,0.89188564,0.7793102,-0.20010781,0.7632143,0.66625494,0.8121927,-0.43896767,0.54667366,0.49996677,0.23924837,-0.6465477,0.3530951,811.0989,771.2088,810.696,799.011,653.95605,-0.2652587890625,0.07470703125,0.94598388671875,2.429962158203125,-3.21502685546875,-0.0299072265625,1.0,1.0,2.0,1.0,1.0,85.0,event
10:35:50.384,0.9165514,0.7842221,0.2346971,0.88058573,1.0467738,0.74541616,-0.49052775,0.89966637,0.89188564,0.7793102,-0.20010781,0.7632143,0.66625494,0.8121927,-0.43896767,0.54667366,0.49996677,0.23924837,-0.6465477,0.3530951,807.8755,815.5311,808.2784,794.17584,642.674,-0.2652587890625,0.07470703125,0.94598388671875,2.429962158203125,-3.21502685546875,-0.0299072265625,1.0,1.0,2.0,1.0,1.0,85.0,event
10:35:50.384,0.9165514,0.7842221,0.2346971,0.88058573,1.0467738,0.74541616,-0.49052775,0.89966637,0.89188564,0.7793102,-0.20010781,0.7632143,0.66625494,0.8121927,-0.43896767,0.54667366,0.49996677,0.23924837,-0.6465477,0.3530951,815.12823,654.35895,806.26373,797.3993,762.3443,-0.2652587890625,0.07470703125,0.94598388671875,2.429962158203125,-3.21502685546875,-0.0299072265625,1.0,1.0,2.0,1.0,1.0,85.0,event
10:35:50.385,0.9165514,0.7842221,0.2346971,0.88058573,1.0467738,0.74541616,-0.49052775,0.89966637,0.89188564,0.7793102,-0.20010781,0.7632143,0.66625494,0.8121927,-0.43896767,0.54667366,0.49996677,0.23924837,-0.6465477,0.3530951,814.7253,595.9341,809.4872,826.0073,840.10986,-0.2652587890625,0.07470703125,0.94598388671875,2.429962158203125,-3.21502685546875,-0.0299072265625,1.0,1.0,2.0,1.0,1.0,85.0,event
10:35:50.385,0.9165514,0.7842221,0.2346971,0.88058573,1.0467738,0.74541616,-0.49052775,0.89966637,0.89188564,0.7793102,-0.20010781,0.7632143,0.66625494,0.8121927,-0.43896767,0.54667366,0.49996677,0.23924837,-0.6465477,0.3530951,813.1135,626.9597,804.65204,819.15753,836.8865,-0.2652587890625,0.07470703125,0.94598388671875,2.429962158203125,-3.21502685546875,-0.0299072265625,1.0,1.0,2.0,1.0,1.0,85.0,event
10:35:50.386,0.9165514,0.7842221,0.2346971,0.88058573,1.0467738,0.74541616,-0.49052775,0.89966637,0.89188564,0.7793102,-0.20010781,0.7632143,0.66625494,0.8121927,-0.43896767,0.54667366,0.49996677,0.23924837,-0.6465477,0.3530951,813.91943,695.05493,804.65204,813.91943,849.3773,-0.2652587890625,0.07470703125,0.94598388671875,2.429962158203125,-3.21502685546875,-0.0299072265625,1.0,1.0,2.0,1.0,1.0,85.0,event
10:35:50.387,0.9165514,0.7842221,0.2346971,0.88058573,1.0467738,0.74541616,-0.49052775,0.89966637,0.89188564,0.7793102,-0.20010781,0.7632143,0.66625494,0.8121927,-0.43896767,0.54667366,0.49996677,0.23924837,-0.6465477,0.3530951,811.0989,607.619,805.4579,817.5458,913.0403,-0.2652587890625,0.07470703125,0.94598388671875,2.429962158203125,-3.21502685546875,-0.0299072265625,1.0,1.0,2.0,1.0,1.0,85.0,event
10:35:50.387,0.9165514,0.7842221,0.2346971,0.88058573,1.0467738,0.74541616,-0.49052775,0.89966637,0.89188564,0.7793102,-0.20010781,0.7632143,0.66625494,0.8121927,-0.43896767,0.54667366,0.49996677,0.23924837,-0.6465477,0.3530951,826.8132,533.0769,801.02563,811.50183,987.98535,-0.2652587890625,0.07470703125,0.94598388671875,2.429962158203125,-3.21502685546875,-0.0299072265625,1.0,1.0,2.0,1.0,1.0,85.0,event
10:35:50.388,0.9165514,0.7842221,0.2346971,0.88058573,1.0467738,0.74541616,-0.49052775,0.89966637,0.89188564,0.7793102,-0.20010781,0.7632143,0.66625494,0.8121927,-0.43896767,0.54667366,0.49996677,0.23924837,-0.6465477,0.3530951,831.6484,875.9707,803.0403,813.1135,817.5458,-0.2652587890625,0.07470703125,0.94598388671875,2.429962158203125,-3.21502685546875,-0.0299072265625,1.0,1.0,2.0,1.0,1.0,85.0,event
10:35:50.388,0.9165514,0.7842221,0.2346971,0.88058573,1.0467738,0.74541616,-0.49052775,0.89966637,0.89188564,0.7793102,-0.20010781,0.7632143,0.66625494,0.8121927,-0.43896767,0.54667366,0.49996677,0.23924837,-0.6465477,0.3530951,821.5751,869.12085,806.26373,811.50183,680.54944,-0.2652587890625,0.07470703125,0.94598388671875,2.429962158203125,-3.21502685546875,-0.0299072265625,1.0,1.0,2.0,1.0,1.0,85.0,event
10:35:50.389,0.9165514,0.7842221,0.2346971,0.88058573,1.0467738,0.74541616,-0.49052775,0.89966637,0.89188564,0.7793102,-0.20010781,0.7632143,0.66625494,0.8121927,-0.43896767,0.54667366,0.49996677,0.23924837,-0.6465477,0.3530951,807.8755,602.7839,806.26373,810.696,786.9231,-0.2652587890625,0.07470703125,0.94598388671875,2.429962158203125,-3.21502685546875,-0.0299072265625,1.0,1.0,2.0,1.0,1.0,85.0,event
10:35:50.390,0.9165514,0.7842221,0.2346971,0.88058573,1.0467738,0.74541616,-0.49052775,0.89966637,0.89188564,0.7793102,-0.20010781,0.7632143,0.66625494,0.8121927,-0.43896767,0.54667366,0.49996677,0.23924837,-0.6465477,0.3530951,826.0073,933.5897,799.81683,805.8608,680.54944,-0.26806640625,0.07659912109375,0.95147705078125,2.40753173828125,-3.84307861328125,0.351409912109375,1.0,1.0,2.0,1.0,1.0,85.0,event
10:35:50.390,0.9165514,0.7842221,0.2346971,0.88058573,1.0467738,0.74541616,-0.49052775,0.89966637,0.89188564,0.7793102,-0.20010781,0.7632143,0.66625494,0.8121927,-0.43896767,0.54667366,0.49996677,0.23924837,-0.6465477,0.3530951,801.02563,686.1905,802.23444,806.26373,791.75824,-0.26806640625,0.07659912109375,0.95147705078125,2.40753173828125,-3.84307861328125,0.351409912109375,1.0,1.0,2.0,1.0,1.0,85.0,event
10:35:50.391,0.9165514,0.7842221,0.2346971,0.88058573,1.0467738,0.74541616,-0.49052775,0.89966637,0.89188564,0.7793102,-0.20010781,0.7632143,0.66625494,0.8121927,-0.43896767,0.54667366,0.49996677,0.23924837,-0.6465477,0.3530951,832.4542,737.76556,801.02563,815.9341,722.0513,-0.26806640625,0.07659912109375,0.95147705078125,2.40753173828125,-3.84307861328125,0.351409912109375,1.0,1.0,2.0,1.0,1.0,85.0,event
10:35:50.391,0.9165514,0.7842221,0.108831026,0.90137434,1.0467738,0.74541616,-0.5540358,0.89614415,0.89188564,0.7793102,-0.1979881,0.7651034,0.66625494,0.8121927,-0.44483396,0.53493434,0.49996677,0.23924837,-0.6314071,0.3375175,814.3223,651.53845,802.23444,813.1135,795.78754,-0.26806640625,0.07659912109375,0.95147705078125,2.40753173828125,-3.84307861328125,0.351409912109375,1.0,1.0,2.0,1.0,1.0,85.0,event
10:35:50.396,0.9165514,0.7842221,0.108831026,0.90137434,1.0467738,0.74541616,-0.5540358,0.89614415,0.89188564,0.7793102,-0.1979881,0.7651034,0.66625494,0.8121927,-0.44483396,0.53493434,0.49996677,0.23924837,-0.6314071,0.3375175,800.2198,708.7546,802.23444,804.2491,743.00366,-0.26806640625,0.07659912109375,0.95147705078125,2.40753173828125,-3.84307861328125,0.351409912109375,1.0,1.0,2.0,1.0,1.0,85.0,event
10:35:50.396,0.9165514,0.7842221,0.108831026,0.90137434,1.0467738,0.74541616,-0.5540358,0.89614415,0.89188564,0.7793102,-0.1979881,0.7651034,0.66625494,0.8121927,-0.44483396,0.53493434,0.49996677,0.23924837,-0.6314071,0.3375175,811.0989,668.0586,802.6374,808.68134,737.3626,-0.26806640625,0.07659912109375,0.95147705078125,2.40753173828125,-3.84307861328125,0.351409912109375,1.0,1.0,2.0,1.0,1.0,85.0,event
10:35:50.397,0.9165514,0.7842221,0.108831026,0.90137434,1.0467738,0.74541616,-0.5540358,0.89614415,0.89188564,0.7793102,-0.1979881,0.7651034,0.66625494,0.8121927,-0.44483396,0.53493434,0.49996677,0.23924837,-0.6314071,0.3375175,813.91943,701.9048,801.02563,815.12823,844.5421,-0.26806640625,0.07659912109375,0.95147705078125,2.40753173828125,-3.84307861328125,0.351409912109375,1.0,1.0,2.0,1.0,1.0,85.0,event
10:35:50.397,0.9165514,0.7842221,0.108831026,0.90137434,1.0467738,0.74541616,-0.5540358,0.89614415,0.89188564,0.7793102,-0.1979881,0.7651034,0.66625494,0.8121927,-0.44483396,0.53493434,0.49996677,0.23924837,-0.6314071,0.3375175,806.6667,452.49084,797.3993,808.2784,995.2381,-0.26806640625,0.07659912109375,0.95147705078125,2.40753173828125,-3.84307861328125,0.351409912109375,1.0,1.0,2.0,1.0,1.0,85.0,event
10:35:50.398,0.9165514,0.7842221,0.108831026,0.90137434,1.0467738,0.74541616,-0.5540358,0.89614415,0.89188564,0.7793102,-0.1979881,0.7651034,0.66625494,0.8121927,-0.44483396,0.53493434,0.49996677,0.23924837,-0.6314071,0.3375175,802.23444,612.4542,796.99634,798.60803,927.5458,-0.26806640625,0.07659912109375,0.95147705078125,2.40753173828125,-3.84307861328125,0.351409912109375,1.0,1.0,2.0,1.0,1.0,85.0,event
10:35:50.398,0.9165514,0.7842221,0.108831026,0.90137434,1.0467738,0.74541616,-0.5540358,0.89614415,0.89188564,0.7793102,-0.1979881,0.7651034,0.66625494,0.8121927,-0.44483396,0.53493434,0.49996677,0.23924837,-0.6314071,0.3375175,788.5348,1041.5751,798.20514,788.93774,674.10254,-0.26806640625,0.07659912109375,0.95147705078125,2.40753173828125,-3.84307861328125,0.351409912109375,1.0,1.0,2.0,1.0,1.0,85.0,event
10:35:50.399,0.9165514,0.7842221,0.108831026,0.90137434,1.0467738,0.74541616,-0.5540358,0.89614415,0.89188564,0.7793102,-0.1979881,0.7651034,0.66625494,0.8121927,-0.44483396,0.53493434,0.49996677,0.23924837,-0.6314071,0.3375175,800.6227,782.0879,798.20514,802.23444,750.65936,-0.26806640625,0.07659912109375,0.95147705078125,2.40753173828125,-3.84307861328125,0.351409912109375,1.0,1.0,2.0,1.0,1.0,85.0,event
10:35:50.399,0.9165514,0.7842221,0.108831026,0.90137434,1.0467738,0.74541616,-0.5540358,0.89614415,0.89188564,0.7793102,-0.1979881,0.7651034,0.66625494,0.8121927,-0.44483396,0.53493434,0.49996677,0.23924837,-0.6314071,0.3375175,803.0403,697.8755,803.44324,799.41394,814.7253,-0.26806640625,0.07659912109375,0.95147705078125,2.40753173828125,-3.84307861328125,0.351409912109375,1.0,1.0,2.0,1.0,1.0,85.0,event
10:35:50.461,0.9165514,0.7842221,0.108831026,0.90137434,1.0467738,0.74541616,-0.5540358,0.89614415,0.89188564,0.7793102,-0.1979881,0.7651034,0.66625494,0.8121927,-0.44483396,0.53493434,0.49996677,0.23924837,-0.6314071,0.3375175,790.14655,702.3077,804.65204,791.3553,809.0842,-0.27099609375,0.07794189453125,0.95245361328125,2.325286865234375,-3.15521240234375,0.949554443359375,1.0,1.0,2.0,1.0,1.0,85.0,event
10:35:50.462,0.9165514,0.7842221,0.108831026,0.90137434,1.0467738,0.74541616,-0.5540358,0.89614415,0.89188564,0.7793102,-0.1979881,0.7651034,0.66625494,0.8121927,-0.44483396,0.53493434,0.49996677,0.23924837,-0.6314071,0.3375175,790.54944,622.52747,804.65204,780.4762,689.011,-0.27099609375,0.07794189453125,0.95245361328125,2.325286865234375,-3.15521240234375,0.949554443359375,1.0,1.0,2.0,1.0,1.0,85.0,event
10:35:50.462,0.9165514,0.7842221,0.108831026,0.90137434,1.0467738,0.74541616,-0.5540358,0.89614415,0.89188564,0.7793102,-0.1979881,0.7651034,0.66625494,0.8121927,-0.44483396,0.53493434,0.49996677,0.23924837,-0.6314071,0.3375175,792.1612,699.4872,803.44324,794.57874,730.10986,-0.27099609375,0.07794189453125,0.95245361328125,2.325286865234375,-3.15521240234375,0.949554443359375,1.0,1.0,2.0,1.0,1.0,85.0,event
10:35:50.463,0.9165514,0.7842221,0.108831026,0.90137434,1.0467738,0.74541616,-0.5540358,0.89614415,0.89188564,0.7793102,-0.1979881,0.7651034,0.66625494,0.8121927,-0.44483396,0.53493434,0.49996677,0.23924837,-0.6314071,0.3375175,785.7143,614.87177,806.26373,789.34064,803.8461,-0.27099609375,0.07794189453125,0.95245361328125,2.325286865234375,-3.15521240234375,0.949554443359375,1.0,1.0,2.0,1.0,1.0,85.0,event
10:35:50.463,0.9165514,0.7842221,0.108831026,0.90137434,1.0467738,0.74541616,-0.5540358,0.89614415,0.89188564,0.7793102,-0.1979881,0.7651034,0.66625494,0.8121927,-0.44483396,0.53493434,0.49996677,0.23924837,-0.6314071,0.3375175,803.0403,865.09155,810.696,806.26373,743.00366,-0.27099609375,0.07794189453125,0.95245361328125,2.325286865234375,-3.15521240234375,0.949554443359375,1.0,1.0,2.0,1.0,1.0,85.0,event
10:35:50.464,0.9165514,0.7842221,0.108831026,0.90137434,1.0467738,0.74541616,-0.5540358,0.89614415,0.89188564,0.7793102,-0.1979881,0.7651034,0.66625494,0.8121927,-0.44483396,0.53493434,0.49996677,0.23924837,-0.6314071,0.3375175,803.0403,759.5238,808.2784,799.011,751.8681,-0.27099609375,0.07794189453125,0.95245361328125,2.325286865234375,-3.15521240234375,0.949554443359375,1.0,1.0,2.0,1.0,1.0,85.0,event
10:35:50.465,0.9165514,0.7842221,0.108831026,0.90137434,1.0467738,0.74541616,-0.5540358,0.89614415,0.89188564,0.7793102,-0.1979881,0.7651034,0.66625494,0.8121927,-0.44483396,0.53493434,0.49996677,0.23924837,-0.6314071,0.3375175,784.10254,487.54578,804.65204,784.90845,913.44324,-0.27099609375,0.07794189453125,0.95245361328125,2.325286865234375,-3.15521240234375,0.949554443359375,1.0,1.0,2.0,1.0,1.0,85.0,event
10:35:50.465,0.9165514,0.7842221,0.108831026,0.90137434,1.0467738,0.74541616,-0.5540358,0.89614415,0.89188564,0.7793102,-0.1979881,0.7651034,0.66625494,0.8121927,-0.44483396,0.53493434,0.49996677,0.23924837,-0.6314071,0.3375175,800.2198,433.5531,807.0696,792.96704,963.00366,-0.27099609375,0.07794189453125,0.95245361328125,2.325286865234375,-3.15521240234375,0.949554443359375,1.0,1.0,2.0,1.0,1.0,85.0,event
10:35:50.466,0.9165514,0.7842221,0.108831026,0.90137434,1.0467738,0.74541616,-0.5540358,0.89614415,0.89188564,0.7793102,-0.1979881,0.7651034,0.66625494,0.8121927,-0.44483396,0.53493434,0.49996677,0.23924837,-0.6314071,0.3375175,800.6227,991.2088,806.26373,797.8022,744.61536,-0.27099609375,0.07794189453125,0.95245361328125,2.325286865234375,-3.15521240234375,0.949554443359375,1.0,1.0,2.0,1.0,1.0,85.0,event
10:35:50.466,0.9165514,0.7842221,0.108831026,0.90137434,1.0467738,0.74541616,-0.5540358,0.89614415,0.89188564,0.7793102,-0.1979881,0.7651034,0.66625494,0.8121927,-0.44483396,0.53493434,0.49996677,0.23924837,-0.6314071,0.3375175,790.9524,998.0586,804.65204,802.23444,672.8938,-0.27099609375,0.07794189453125,0.95245361328125,2.325286865234375,-3.15521240234375,0.949554443359375,1.0,1.0,2.0,1.0,1.0,85.0,event
10:35:50.467,0.9165514,0.7842221,0.108831026,0.90137434,1.0467738,0.74541616,-0.5540358,0.89614415,0.89188564,0.7793102,-0.1979881,0.7651034,0.66625494,0.8121927,-0.44483396,0.53493434,0.49996677,0.23924837,-0.6314071,0.3375175,800.6227,671.28204,808.2784,805.05493,784.90845,-0.27099609375,0.07794189453125,0.95245361328125,2.325286865234375,-3.15521240234375,0.949554443359375,1.0,1.0,2.0,1.0,1.0,85.0,event
10:35:50.467,0.9165514,0.7842221,0.108831026,0.90137434,1.0467738,0.74541616,-0.5540358,0.89614415,0.89188564,0.7793102,-0.1979881,0.7651034,0.66625494,0.8121927,-0.44483396,0.53493434,0.49996677,0.23924837,-0.6314071,0.3375175,801.8315,729.707,809.89014,807.47253,803.8461,-0.27099609375,0.07794189453125,0.95245361328125,2.325286865234375,-3.15521240234375,0.949554443359375,1.0,1.0,2.0,1.0,1.0,85.0,event
10:35:50.493,0.9165514,0.7842221,0.108831026,0.90137434,1.0467738,0.74541616,-0.5540358,0.89614415,0.89188564,0.7793102,-0.1979881,0.7651034,0.66625494,0.8121927,-0.44483396,0.53493434,0.49996677,0.23924837,-0.6314071,0.3375175,789.7436,786.1172,811.50183,806.26373,741.39197,-0.27099609375,0.07794189453125,0.95245361328125,2.325286865234375,-3.15521240234375,0.949554443359375,1.0,1.0,2.0,1.0,1.0,85.0,event
10:35:50.494,0.9165514,0.7842221,0.108831026,0.90137434,1.0467738,0.74541616,-0.5540358,0.89614415,0.89188564,0.7793102,-0.1979881,0.7651034,0.66625494,0.8121927,-0.44483396,0.53493434,0.49996677,0.23924837,-0.6314071,0.3375175,786.9231,697.8755,809.89014,807.8755,703.91943,-0.27099609375,0.07794189453125,0.95245361328125,2.325286865234375,-3.15521240234375,0.949554443359375,1.0,1.0,2.0,1.0,1.0,85.0,event
10:35:50.495,0.9165514,0.7842221,0.108831026,0.90137434,1.0467738,0.74541616,-0.5540358,0.89614415,0.89188564,0.7793102,-0.1979881,0.7651034,0.66625494,0.8121927,-0.44483396,0.53493434,0.49996677,0.23924837,-0.6314071,0.3375175,787.72894,679.34064,807.0696,798.60803,747.4359,-0.27099609375,0.07794189453125,0.95245361328125,2.325286865234375,-3.15521240234375,0.949554443359375,1.0,1.0,2.0,1.0,1.0,85.0,event
10:35:50.495,0.9165514,0.7842221,0.108831026,0.90137434,1.0467738,0.74541616,-0.5540358,0.89614415,0.89188564,0.7793102,-0.1979881,0.7651034,0.66625494,0.8121927,-0.44483396,0.53493434,0.49996677,0.23924837,-0.6314071,0.3375175,782.49084,713.1868,804.2491,791.3553,841.7216,-0.27099609375,0.07794189453125,0.95245361328125,2.325286865234375,-3.15521240234375,0.949554443359375,1.0,1.0,2.0,1.0,1.0,85.0,event
10:35:50.496,0.9165514,0.7842221,0.108831026,0.90137434,1.0467738,0.74541616,-0.5540358,0.89614415,0.89188564,0.7793102,-0.1979881,0.7651034,0.66625494,0.8121927,-0.44483396,0.53493434,0.49996677,0.23924837,-0.6314071,0.3375175,789.7436,679.34064,802.6374,796.5934,850.989,-0.27099609375,0.07794189453125,0.95245361328125,2.325286865234375,-3.15521240234375,0.949554443359375,1.0,1.0,2.0,1.0,1.0,85.0,event
10:35:50.496,0.9165514,0.7842221,0.05189428,0.8994481,1.0467738,0.74541616,-0.58356696,0.8940925,0.89188564,0.7793102,-0.19629559,0.7653978,0.66625494,0.8121927,-0.44900972,0.5238404,0.49996677,0.23924837,-0.62247384,0.32791105,793.36993,671.685,802.6374,794.57874,737.76556,-0.27099609375,0.07794189453125,0.95245361328125,2.325286865234375,-3.15521240234375,0.949554443359375,1.0,1.0,2.0,1.0,1.0,85.0,event
10:35:50.501,0.9165514,0.7842221,0.05189428,0.8994481,1.0467738,0.74541616,-0.58356696,0.8940925,0.89188564,0.7793102,-0.19629559,0.7653978,0.66625494,0.8121927,-0.44900972,0.5238404,0.49996677,0.23924837,-0.62247384,0.32791105,784.5055,437.58243,803.44324,803.0403,990.0,-0.27099609375,0.07794189453125,0.95245361328125,2.325286865234375,-3.15521240234375,0.949554443359375,1.0,1.0,2.0,1.0,1.0,85.0,event
10:35:50.501,0.9165514,0.7842221,0.05189428,0.8994481,1.0467738,0.74541616,-0.58356696,0.8940925,0.89188564,0.7793102,-0.19629559,0.7653978,0.66625494,0.8121927,-0.44900972,0.5238404,0.49996677,0.23924837,-0.62247384,0.32791105,792.5641,643.8828,805.05493,819.15753,1047.2161,-0.27099609375,0.07794189453125,0.95245361328125,2.325286865234375,-3.15521240234375,0.949554443359375,1.0,1.0,2.0,1.0,1.0,85.0,event
10:35:50.502,0.9165514,0.7842221,0.05189428,0.8994481,1.0467738,0.74541616,-0.58356696,0.8940925,0.89188564,0.7793102,-0.19629559,0.7653978,0.66625494,0.8121927,-0.44900972,0.5238404,0.49996677,0.23924837,-0.62247384,0.32791105,809.0842,1144.3224,805.4579,823.9927,745.42126,-0.27099609375,0.07794189453125,0.95245361328125,2.325286865234375,-3.15521240234375,0.949554443359375,1.0,1.0,2.0,1.0,1.0,85.0,event
10:35:50.503,0.9165514,0.7842221,0.05189428,0.8994481,1.0467738,0.74541616,-0.58356696,0.8940925,0.89188564,0.7793102,-0.19629559,0.7653978,0.66625494,0.8121927,-0.44900972,0.5238404,0.49996677,0.23924837,-0.62247384,0.32791105,805.05493,832.0513,808.2784,807.0696,781.685,-0.27099609375,0.07794189453125,0.95245361328125,2.325286865234375,-3.15521240234375,0.949554443359375,1.0,1.0,2.0,1.0,1.0,85.0,event
10:35:50.503,0.9165514,0.7842221,0.05189428,0.8994481,1.0467738,0.74541616,-0.58356696,0.8940925,0.89188564,0.7793102,-0.19629559,0.7653978,0.66625494,0.8121927,-0.44900972,0.5238404,0.49996677,0.23924837,-0.62247384,0.32791105,803.44324,396.88644,809.89014,799.011,936.8132,-0.27099609375,0.07794189453125,0.95245361328125,2.325286865234375,-3.15521240234375,0.949554443359375,1.0,1.0,2.0,1.0,1.0,85.0,event
10:35:50.504,0.9165514,0.7842221,0.05189428,0.8994481,1.0467738,0.74541616,-0.58356696,0.8940925,0.89188564,0.7793102,-0.19629559,0.7653978,0.66625494,0.8121927,-0.44900972,0.5238404,0.49996677,0.23924837,-0.62247384,0.32791105,798.20514,768.7912,810.696,797.8022,849.7802,-0.27099609375,0.07794189453125,0.95245361328125,2.325286865234375,-3.15521240234375,0.949554443359375,1.0,1.0,2.0,1.0,1.0,85.0,event
10:35:50.555,0.9165514,0.7842221,0.05189428,0.8994481,1.0467738,0.74541616,-0.58356696,0.8940925,0.89188564,0.7793102,-0.19629559,0.7653978,0.66625494,0.8121927,-0.44900972,0.5238404,0.49996677,0.23924837,-0.62247384,0.32791105,796.99634,1043.9927,808.68134,794.17584,716.4103,-0.28271484375,0.07843017578125,0.9449462890625,1.45050048828125,-3.521575927734375,-0.4486083984375,1.0,1.0,2.0,1.0,1.0,85.0,event
10:35:50.556,0.9165514,0.7842221,0.05189428,0.8994481,1.0467738,0.74541616,-0.58356696,0.8940925,0.89188564,0.7793102,-0.19629559,0.7653978,0.66625494,0.8121927,-0.44900972,0.5238404,0.49996677,0.23924837,-0.62247384,0.32791105,812.3077,714.3956,810.293,796.1905,826.4103,-0.28271484375,0.07843017578125,0.9449462890625,1.45050048828125,-3.521575927734375,-0.4486083984375,1.0,1.0,2.0,1.0,1.0,85.0,event
10:35:50.557,0.9165514,0.7842221,0.05189428,0.8994481,1.0467738,0.74541616,-0.58356696,0.8940925,0.89188564,0.7793102,-0.19629559,0.7653978,0.66625494,0.8121927,-0.44900972,0.5238404,0.49996677,0.23924837,-0.62247384,0.32791105,798.60803,642.674,811.0989,792.1612,812.71063,-0.28271484375,0.07843017578125,0.9449462890625,1.45050048828125,-3.521575927734375,-0.4486083984375,1.0,1.0,2.0,1.0,1.0,85.0,event
10:35:50.558,0.9165514,0.7842221,0.05189428,0.8994481,1.0467738,0.74541616,-0.58356696,0.8940925,0.89188564,0.7793102,-0.19629559,0.7653978,0.66625494,0.8121927,-0.44900972,0.5238404,0.49996677,0.23924837,-0.62247384,0.32791105,788.93774,766.3736,808.68134,790.14655,697.47253,-0.28271484375,0.07843017578125,0.9449462890625,1.45050048828125,-3.521575927734375,-0.4486083984375,1.0,1.0,2.0,1.0,1.0,85.0,event
10:35:50.558,0.9165514,0.7842221,0.05189428,0.8994481,1.0467738,0.74541616,-0.58356696,0.8940925,0.89188564,0.7793102,-0.19629559,0.7653978,0.66625494,0.8121927,-0.44900972,0.5238404,0.49996677,0.23924837,-0.62247384,0.32791105,796.99634,765.56775,810.293,795.38464,661.6117,-0.28271484375,0.07843017578125,0.9449462890625,1.45050048828125,-3.521575927734375,-0.4486083984375,1.0,1.0,2.0,1.0,1.0,85.0,event
10:35:50.559,0.9165514,0.7842221,0.05189428,0.8994481,1.0467738,0.74541616,-0.58356696,0.8940925,0.89188564,0.7793102,-0.19629559,0.7653978,0.66625494,0.8121927,-0.44900972,0.5238404,0.49996677,0.23924837,-0.62247384,0.32791105,790.14655,496.8132,806.6667,799.41394,797.8022,-0.28271484375,0.07843017578125,0.9449462890625,1.45050048828125,-3.521575927734375,-0.4486083984375,1.0,1.0,2.0,1.0,1.0,85.0,event
10:35:50.560,0.9165514,0.7842221,0.05189428,0.8994481,1.0467738,0.74541616,-0.58356696,0.8940925,0.89188564,0.7793102,-0.19629559,0.7653978,0.66625494,0.8121927,-0.44900972,0.5238404,0.49996677,0.23924837,-0.62247384,0.32791105,791.75824,514.1392,801.8315,797.8022,987.98535,-0.28271484375,0.07843017578125,0.9449462890625,1.45050048828125,-3.521575927734375,-0.4486083984375,1.0,1.0,2.0,1.0,1.0,85.0,event
10:35:50.561,0.9165514,0.7842221,0.05189428,0.8994481,1.0467738,0.74541616,-0.58356696,0.8940925,0.89188564,0.7793102,-0.19629559,0.7653978,0.66625494,0.8121927,-0.44900972,0.5238404,0.49996677,0.23924837,-0.62247384,0.32791105,816.337,887.25275,804.65204,800.6227,866.30035,-0.28271484375,0.07843017578125,0.9449462890625,1.45050048828125,-3.521575927734375,-0.4486083984375,1.0,1.0,2.0,1.0,1.0,85.0,event
10:35:50.561,0.9165514,0.7842221,0.05189428,0.8994481,1.0467738,0.74541616,-0.58356696,0.8940925,0.89188564,0.7793102,-0.19629559,0.7653978,0.66625494,0.8121927,-0.44900972,0.5238404,0.49996677,0.23924837,-0.62247384,0.32791105,805.05493,919.89014,805.05493,798.20514,651.13556,-0.28271484375,0.07843017578125,0.9449462890625,1.45050048828125,-3.521575927734375,-0.4486083984375,1.0,1.0,2.0,1.0,1.0,85.0,event
10:35:50.562,0.9165514,0.7842221,0.05189428,0.8994481,1.0467738,0.74541616,-0.58356696,0.8940925,0.89188564,0.7793102,-0.19629559,0.7653978,0.66625494,0.8121927,-0.44900972,0.5238404,0.49996677,0.23924837,-0.62247384,0.32791105,791.75824,522.1978,803.8461,797.8022,719.2308,-0.28271484375,0.07843017578125,0.9449462890625,1.45050048828125,-3.521575927734375,-0.4486083984375,1.0,1.0,2.0,1.0,1.0,85.0,event
10:35:50.562,0.9165514,0.7842221,0.05189428,0.8994481,1.0467738,0.74541616,-0.58356696,0.8940925,0.89188564,0.7793102,-0.19629559,0.7653978,0.66625494,0.8121927,-0.44900972,0.5238404,0.49996677,0.23924837,-0.62247384,0.32791105,806.26373,522.1978,807.47253,806.6667,891.28204,-0.28271484375,0.07843017578125,0.9449462890625,1.45050048828125,-3.521575927734375,-0.4486083984375,1.0,1.0,2.0,1.0,1.0,85.0,event
10:35:50.563,0.9165514,0.7842221,0.05189428,0.8994481,1.0467738,0.74541616,-0.58356696,0.8940925,0.89188564,0.7793102,-0.19629559,0.7653978,0.66625494,0.8121927,-0.44900972,0.5238404,0.49996677,0.23924837,-0.62247384,0.32791105,807.8755,1040.7693,804.65204,802.6374,732.9304,-0.28271484375,0.07843017578125,0.9449462890625,1.45050048828125,-3.521575927734375,-0.4486083984375,1.0,1.0,2.0,1.0,1.0,85.0,event
10:35:50.590,0.9165514,0.7842221,0.05189428,0.8994481,1.0467738,0.74541616,-0.58356696,0.8940925,0.89188564,0.7793102,-0.19629559,0.7653978,0.66625494,0.8121927,-0.44900972,0.5238404,0.49996677,0.23924837,-0.62247384,0.32791105,809.89014,882.4176,802.6374,794.57874,696.26373,-0.27001953125,0.08111572265625,0.95428466796875,3.117828369140625,-4.553375244140625,0.336456298828125,1.0,1.0,2.0,1.0,1.0,85.0,event
10:35:50.591,0.9165514,0.7842221,0.05189428,0.8994481,1.0467738,0.74541616,-0.58356696,0.8940925,0.89188564,0.7793102,-0.19629559,0.7653978,0.66625494,0.8121927,-0.44900972,0.5238404,0.49996677,0.23924837,-0.62247384,0.32791105,791.75824,710.3663,804.2491,782.8938,764.35895,-0.27001953125,0.08111572265625,0.95428466796875,3.117828369140625,-4.553375244140625,0.336456298828125,1.0,1.0,2.0,1.0,1.0,85.0,event
10:35:50.591,0.9165514,0.7842221,0.05189428,0.8994481,1.0467738,0.74541616,-0.58356696,0.8940925,0.89188564,0.7793102,-0.19629559,0.7653978,0.66625494,0.8121927,-0.44900972,0.5238404,0.49996677,0.23924837,-0.62247384,0.32791105,805.4579,643.47986,806.26373,788.5348,796.5934,-0.27001953125,0.08111572265625,0.95428466796875,3.117828369140625,-4.553375244140625,0.336456298828125,1.0,1.0,2.0,1.0,1.0,85.0,event
10:35:50.592,0.9165514,0.7842221,0.05189428,0.8994481,1.0467738,0.74541616,-0.58356696,0.8940925,0.89188564,0.7793102,-0.19629559,0.7653978,0.66625494,0.8121927,-0.44900972,0.5238404,0.49996677,0.23924837,-0.62247384,0.32791105,792.96704,796.5934,805.4579,793.7729,689.011,-0.27001953125,0.08111572265625,0.95428466796875,3.117828369140625,-4.553375244140625,0.336456298828125,1.0,1.0,2.0,1.0,1.0,85.0,event
10:35:50.592,0.9165514,0.7842221,0.05189428,0.8994481,1.0467738,0.74541616,-0.58356696,0.8940925,0.89188564,0.7793102,-0.19629559,0.7653978,0.66625494,0.8121927,-0.44900972,0.5238404,0.49996677,0.23924837,-0.62247384,0.32791105,803.44324,716.4103,805.4579,801.8315,681.3553,-0.27001953125,0.08111572265625,0.95428466796875,3.117828369140625,-4.553375244140625,0.336456298828125,1.0,1.0,2.0,1.0,1.0,85.0,event
10:35:50.592,0.9165514,0.7842221,0.05189428,0.8994481,1.0467738,0.74541616,-0.58356696,0.8940925,0.89188564,0.7793102,-0.19629559,0.7653978,0.66625494,0.8121927,-0.44900972,0.5238404,0.49996677,0.23924837,-0.62247384,0.32791105,810.696,582.23444,804.65204,790.9524,840.10986,-0.27001953125,0.08111572265625,0.95428466796875,3.117828369140625,-4.553375244140625,0.336456298828125,1.0,1.0,2.0,1.0,1.0,85.0,event
10:35:50.593,0.9165514,0.7842221,0.05189428,0.8994481,1.0467738,0.74541616,-0.58356696,0.8940925,0.89188564,0.7793102,-0.19629559,0.7653978,0.66625494,0.8121927,-0.44900972,0.5238404,0.49996677,0.23924837,-0.62247384,0.32791105,805.4579,647.50916,806.6667,785.7143,960.18317,-0.27001953125,0.08111572265625,0.95428466796875,3.117828369140625,-4.553375244140625,0.336456298828125,1.0,1.0,2.0,1.0,1.0,85.0,event
10:35:50.593,0.86785656,0.7842221,0.030693013,0.882769,1.0041535,0.74541616,-0.5985944,0.89168805,0.89422464,0.7793102,-0.18951252,0.7653978,0.6642526,0.8121927,-0.45168498,0.5175345,0.4843846,0.23924837,-0.620753,0.3225787,793.36993,836.8865,809.89014,790.9524,794.17584,-0.27001953125,0.08111572265625,0.95428466796875,3.117828369140625,-4.553375244140625,0.336456298828125,1.0,1.0,2.0,1.0,1.0,85.0,event
10:35:50.596,0.86785656,0.7842221,0.030693013,0.882769,1.0041535,0.74541616,-0.5985944,0.89168805,0.89422464,0.7793102,-0.18951252,0.7653978,0.6642526,0.8121927,-0.45168498,0.5175345,0.4843846,0.23924837,-0.620753,0.3225787,788.93774,760.7326,808.2784,794.9817,682.1612,-0.27001953125,0.08111572265625,0.95428466796875,3.117828369140625,-4.553375244140625,0.336456298828125,1.0,1.0,2.0,1.0,1.0,85.0,event
10:35:50.597,0.86785656,0.7842221,0.030693013,0.882769,1.0041535,0.74541616,-0.5985944,0.89168805,0.89422464,0.7793102,-0.18951252,0.7653978,0.6642526,0.8121927,-0.45168498,0.5175345,0.4843846,0.23924837,-0.620753,0.3225787,803.44324,624.5421,807.47253,796.99634,795.78754,-0.27001953125,0.08111572265625,0.95428466796875,3.117828369140625,-4.553375244140625,0.336456298828125,1.0,1.0,2.0,1.0,1.0,85.0,event
10:35:50.597,0.86785656,0.7842221,0.030693013,0.882769,1.0041535,0.74541616,-0.5985944,0.89168805,0.89422464,0.7793102,-0.18951252,0.7653978,0.6642526,0.8121927,-0.45168498,0.5175345,0.4843846,0.23924837,-0.620753,0.3225787,811.0989,768.3883,811.9048,800.2198,896.52014,-0.27001953125,0.08111572265625,0.95428466796875,3.117828369140625,-4.553375244140625,0.336456298828125,1.0,1.0,2.0,1.0,1.0,85.0,event
10:35:50.598,0.86785656,0.7842221,0.030693013,0.882769,1.0041535,0.74541616,-0.5985944,0.89168805,0.89422464,0.7793102,-0.18951252,0.7653978,0.6642526,0.8121927,-0.45168498,0.5175345,0.4843846,0.23924837,-0.620753,0.3225787,802.6374,861.4652,807.8755,803.8461,819.9634,-0.27001953125,0.08111572265625,0.95428466796875,3.117828369140625,-4.553375244140625,0.336456298828125,1.0,1.0,2.0,1.0,1.0,85.0,event
10:35:50.658,0.86785656,0.7842221,0.030693013,0.882769,1.0041535,0.74541616,-0.5985944,0.89168805,0.89422464,0.7793102,-0.18951252,0.7653978,0.6642526,0.8121927,-0.45168498,0.5175345,0.4843846,0.23924837,-0.620753,0.3225787,795.78754,675.31134,802.23444,795.78754,682.5641,-0.26287841796875,0.08306884765625,0.9493408203125,1.68975830078125,-5.0244140625,0.725250244140625,1.0,1.0,2.0,1.0,1.0,85.0,event
10:35:50.659,0.86785656,0.7842221,0.030693013,0.882769,1.0041535,0.74541616,-0.5985944,0.89168805,0.89422464,0.7793102,-0.18951252,0.7653978,0.6642526,0.8121927,-0.45168498,0.5175345,0.4843846,0.23924837,-0.620753,0.3225787,793.36993,685.38464,804.65204,793.36993,946.08057,-0.26287841796875,0.08306884765625,0.9493408203125,1.68975830078125,-5.0244140625,0.725250244140625,1.0,1.0,2.0,1.0,1.0,85.0,event
10:35:50.659,0.86785656,0.7842221,0.030693013,0.882769,1.0041535,0.74541616,-0.5985944,0.89168805,0.89422464,0.7793102,-0.18951252,0.7653978,0.6642526,0.8121927,-0.45168498,0.5175345,0.4843846,0.23924837,-0.620753,0.3225787,786.9231,279.23077,805.8608,784.10254,904.57874,-0.26287841796875,0.08306884765625,0.9493408203125,1.68975830078125,-5.0244140625,0.725250244140625,1.0,1.0,2.0,1.0,1.0,85.0,event
10:35:50.660,0.86785656,0.7842221,0.030693013,0.882769,1.0041535,0.74541616,-0.5985944,0.89168805,0.89422464,0.7793102,-0.18951252,0.7653978,0.6642526,0.8121927,-0.45168498,0.5175345,0.4843846,0.23924837,-0.620753,0.3225787,795.78754,1124.1758,800.6227,805.4579,739.7802,-0.26287841796875,0.08306884765625,0.9493408203125,1.68975830078125,-5.0244140625,0.725250244140625,1.0,1.0,2.0,1.0,1.0,85.0,event
10:35:50.660,0.86785656,0.7842221,0.030693013,0.882769,1.0041535,0.74541616,-0.5985944,0.89168805,0.89422464,0.7793102,-0.18951252,0.7653978,0.6642526,0.8121927,-0.45168498,0.5175345,0.4843846,0.23924837,-0.620753,0.3225787,804.2491,682.1612,805.4579,796.5934,837.6923,-0.26287841796875,0.08306884765625,0.9493408203125,1.68975830078125,-5.0244140625,0.725250244140625,1.0,1.0,2.0,1.0,1.0,85.0,event
10:35:50.661,0.86785656,0.7842221,0.030693013,0.882769,1.0041535,0.74541616,-0.5985944,0.89168805,0.89422464,0.7793102,-0.18951252,0.7653978,0.6642526,0.8121927,-0.45168498,0.5175345,0.4843846,0.23924837,-0.620753,0.3225787,803.0403,479.8901,805.4579,793.7729,915.8608,-0.26287841796875,0.08306884765625,0.9493408203125,1.68975830078125,-5.0244140625,0.725250244140625,1.0,1.0,2.0,1.0,1.0,85.0,event
10:35:50.662,0.86785656,0.7842221,0.030693013,0.882769,1.0041535,0.74541616,-0.5985944,0.89168805,0.89422464,0.7793102,-0.18951252,0.7653978,0.6642526,0.8121927,-0.45168498,0.5175345,0.4843846,0.23924837,-0.620753,0.3225787,796.1905,651.13556,802.6374,795.78754,821.5751,-0.26287841796875,0.08306884765625,0.9493408203125,1.68975830078125,-5.0244140625,0.725250244140625,1.0,1.0,2.0,1.0,1.0,85.0,event
10:35:50.662,0.86785656,0.7842221,0.030693013,0.882769,1.0041535,0.74541616,-0.5985944,0.89168805,0.89422464,0.7793102,-0.18951252,0.7653978,0.6642526,0.8121927,-0.45168498,0.5175345,0.4843846,0.23924837,-0.620753,0.3225787,799.011,874.35895,805.05493,798.20514,684.9817,-0.26287841796875,0.08306884765625,0.9493408203125,1.68975830078125,-5.0244140625,0.725250244140625,1.0,1.0,2.0,1.0,1.0,85.0,event
10:35:50.663,0.86785656,0.7842221,0.030693013,0.882769,1.0041535,0.74541616,-0.5985944,0.89168805,0.89422464,0.7793102,-0.18951252,0.7653978,0.6642526,0.8121927,-0.45168498,0.5175345,0.4843846,0.23924837,-0.620753,0.3225787,798.20514,585.8608,803.44324,805.8608,770.0,-0.26287841796875,0.08306884765625,0.9493408203125,1.68975830078125,-5.0244140625,0.725250244140625,1.0,1.0,2.0,1.0,1.0,85.0,event
10:35:50.664,0.86785656,0.7842221,0.030693013,0.882769,1.0041535,0.74541616,-0.5985944,0.89168805,0.89422464,0.7793102,-0.18951252,0.7653978,0.6642526,0.8121927,-0.45168498,0.5175345,0.4843846,0.23924837,-0.620753,0.3225787,798.60803,398.49817,802.6374,799.011,936.4103,-0.26287841796875,0.08306884765625,0.9493408203125,1.68975830078125,-5.0244140625,0.725250244140625,1.0,1.0,2.0,1.0,1.0,85.0,event
10:35:50.665,0.86785656,0.7842221,0.030693013,0.882769,1.0041535,0.74541616,-0.5985944,0.89168805,0.89422464,0.7793102,-0.18951252,0.7653978,0.6642526,0.8121927,-0.45168498,0.5175345,0.4843846,0.23924837,-0.620753,0.3225787,798.20514,921.0989,807.47253,797.3993,768.3883,-0.26287841796875,0.08306884765625,0.9493408203125,1.68975830078125,-5.0244140625,0.725250244140625,1.0,1.0,2.0,1.0,1.0,85.0,event
10:35:50.666,0.86785656,0.7842221,0.030693013,0.882769,1.0041535,0.74541616,-0.5985944,0.89168805,0.89422464,0.7793102,-0.18951252,0.7653978,0.6642526,0.8121927,-0.45168498,0.5175345,0.4843846,0.23924837,-0.620753,0.3225787,808.68134,885.64105,807.8755,799.81683,628.1685,-0.26287841796875,0.08306884765625,0.9493408203125,1.68975830078125,-5.0244140625,0.725250244140625,1.0,1.0,2.0,1.0,1.0,85.0,event
10:35:50.689,0.86785656,0.7842221,0.030693013,0.882769,1.0041535,0.74541616,-0.5985944,0.89168805,0.89422464,0.7793102,-0.18951252,0.7653978,0.6642526,0.8121927,-0.45168498,0.5175345,0.4843846,0.23924837,-0.620753,0.3225787,813.1135,626.1539,805.4579,794.17584,711.1722,-0.26763916015625,0.07537841796875,0.94940185546875,1.55517578125,-4.059906005859375,-0.418701171875,1.0,1.0,2.0,1.0,1.0,85.0,event
10:35:50.690,0.86785656,0.7842221,0.030693013,0.882769,1.0041535,0.74541616,-0.5985944,0.89168805,0.89422464,0.7793102,-0.18951252,0.7653978,0.6642526,0.8121927,-0.45168498,0.5175345,0.4843846,0.23924837,-0.620753,0.3225787,806.26373,664.83514,802.6374,794.57874,803.8461,-0.26763916015625,0.07537841796875,0.94940185546875,1.55517578125,-4.059906005859375,-0.418701171875,1.0,1.0,2.0,1.0,1.0,85.0,event
10:35:50.691,0.86785656,0.7842221,0.030693013,0.882769,1.0041535,0.74541616,-0.5985944,0.89168805,0.89422464,0.7793102,-0.18951252,0.7653978,0.6642526,0.8121927,-0.45168498,0.5175345,0.4843846,0.23924837,-0.620753,0.3225787,808.68134,803.8461,801.02563,787.72894,747.4359,-0.26763916015625,0.07537841796875,0.94940185546875,1.55517578125,-4.059906005859375,-0.418701171875,1.0,1.0,2.0,1.0,1.0,85.0,event
10:35:50.692,0.86785656,0.7842221,0.030693013,0.882769,1.0041535,0.74541616,-0.5985944,0.89168805,0.89422464,0.7793102,-0.18951252,0.7653978,0.6642526,0.8121927,-0.45168498,0.5175345,0.4843846,0.23924837,-0.620753,0.3225787,805.8608,714.7985,804.2491,795.38464,699.4872,-0.26763916015625,0.07537841796875,0.94940185546875,1.55517578125,-4.059906005859375,-0.418701171875,1.0,1.0,2.0,1.0,1.0,85.0,event
10:35:50.693,0.86785656,0.7842221,0.030693013,0.882769,1.0041535,0.74541616,-0.5985944,0.89168805,0.89422464,0.7793102,-0.18951252,0.7653978,0.6642526,0.8121927,-0.45168498,0.5175345,0.4843846,0.23924837,-0.620753,0.3225787,788.1319,480.29303,802.23444,800.6227,813.91943,-0.26763916015625,0.07537841796875,0.94940185546875,1.55517578125,-4.059906005859375,-0.418701171875,1.0,1.0,2.0,1.0,1.0,85.0,event
10:35:50.694,0.86785656,0.7842221,0.030693013,0.882769,1.0041535,0.74541616,-0.5985944,0.89168805,0.89422464,0.7793102,-0.18951252,0.7653978,0.6642526,0.8121927,-0.45168498,0.5175345,0.4843846,0.23924837,-0.620753,0.3225787,795.78754,607.619,796.1905,799.41394,947.28937,-0.26763916015625,0.07537841796875,0.94940185546875,1.55517578125,-4.059906005859375,-0.418701171875,1.0,1.0,2.0,1.0,1.0,85.0,event
10:35:50.695,0.86785656,0.7842221,0.030693013,0.882769,1.0041535,0.74541616,-0.5985944,0.89168805,0.89422464,0.7793102,-0.18951252,0.7653978,0.6642526,0.8121927,-0.45168498,0.5175345,0.4843846,0.23924837,-0.620753,0.3225787,815.12823,817.1429,800.2198,801.02563,881.6117,-0.26763916015625,0.07537841796875,0.94940185546875,1.55517578125,-4.059906005859375,-0.418701171875,1.0,1.0,2.0,1.0,1.0,85.0,event
10:35:50.696,0.86785656,0.7842221,0.030693013,0.882769,1.0041535,0.74541616,-0.5985944,0.89168805,0.89422464,0.7793102,-0.18951252,0.7653978,0.6642526,0.8121927,-0.45168498,0.5175345,0.4843846,0.23924837,-0.620753,0.3225787,807.8755,725.2747,804.2491,795.38464,781.28204,-0.26763916015625,0.07537841796875,0.94940185546875,1.55517578125,-4.059906005859375,-0.418701171875,1.0,1.0,2.0,1.0,1.0,85.0,event
10:35:50.697,0.86785656,0.7842221,0.030693013,0.882769,1.0041535,0.74541616,-0.5985944,0.89168805,0.89422464,0.7793102,-0.18951252,0.7653978,0.6642526,0.8121927,-0.45168498,0.5175345,0.4843846,0.23924837,-0.620753,0.3225787,799.41394,630.989,805.8608,792.96704,768.7912,-0.26763916015625,0.07537841796875,0.94940185546875,1.55517578125,-4.059906005859375,-0.418701171875,1.0,1.0,2.0,1.0,1.0,85.0,event
10:35:50.698,0.8384539,0.7842221,0.030366309,0.8610892,0.9758618,0.74541616,-0.6045936,0.886569,0.89422464,0.7793102,-0.17594585,0.7653978,0.6614986,0.8121927,-0.452794,0.517757,0.47469258,0.23924837,-0.62559175,0.31839103,793.36993,740.58606,803.44324,797.3993,666.4469,-0.26763916015625,0.07537841796875,0.94940185546875,1.55517578125,-4.059906005859375,-0.418701171875,1.0,1.0,2.0,1.0,1.0,85.0,event
10:35:50.701,0.8384539,0.7842221,0.030366309,0.8610892,0.9758618,0.74541616,-0.6045936,0.886569,0.89422464,0.7793102,-0.17594585,0.7653978,0.6614986,0.8121927,-0.452794,0.517757,0.47469258,0.23924837,-0.62559175,0.31839103,791.75824,826.4103,802.23444,800.6227,623.3333,-0.26763916015625,0.07537841796875,0.94940185546875,1.55517578125,-4.059906005859375,-0.418701171875,1.0,1.0,2.0,1.0,1.0,85.0,event
10:35:50.702,0.8384539,0.7842221,0.030366309,0.8610892,0.9758618,0.74541616,-0.6045936,0.886569,0.89422464,0.7793102,-0.17594585,0.7653978,0.6614986,0.8121927,-0.452794,0.517757,0.47469258,0.23924837,-0.62559175,0.31839103,799.81683,711.978,801.8315,801.4286,727.28937,-0.26763916015625,0.07537841796875,0.94940185546875,1.55517578125,-4.059906005859375,-0.418701171875,1.0,1.0,2.0,1.0,1.0,85.0,event
10:35:50.753,0.8384539,0.7842221,0.030366309,0.8610892,0.9758618,0.74541616,-0.6045936,0.886569,0.89422464,0.7793102,-0.17594585,0.7653978,0.6614986,0.8121927,-0.452794,0.517757,0.47469258,0.23924837,-0.62559175,0.31839103,798.60803,361.8315,798.20514,805.05493,1002.8938,-0.26763916015625,0.07537841796875,0.94940185546875,1.55517578125,-4.059906005859375,-0.418701171875,1.0,1.0,2.0,1.0,1.0,85.0,event
10:35:50.754,0.8384539,0.7842221,0.030366309,0.8610892,0.9758618,0.74541616,-0.6045936,0.886569,0.89422464,0.7793102,-0.17594585,0.7653978,0.6614986,0.8121927,-0.452794,0.517757,0.47469258,0.23924837,-0.62559175,0.31839103,797.3993,661.2088,799.41394,799.81683,995.2381,-0.26763916015625,0.07537841796875,0.94940185546875,1.55517578125,-4.059906005859375,-0.418701171875,1.0,1.0,2.0,1.0,1.0,85.0,event
10:35:50.755,0.8384539,0.7842221,0.030366309,0.8610892,0.9758618,0.74541616,-0.6045936,0.886569,0.89422464,0.7793102,-0.17594585,0.7653978,0.6614986,0.8121927,-0.452794,0.517757,0.47469258,0.23924837,-0.62559175,0.31839103,792.96704,641.4652,798.20514,800.6227,790.14655,-0.26763916015625,0.07537841796875,0.94940185546875,1.55517578125,-4.059906005859375,-0.418701171875,1.0,1.0,2.0,1.0,1.0,85.0,event
10:35:50.755,0.8384539,0.7842221,0.030366309,0.8610892,0.9758618,0.74541616,-0.6045936,0.886569,0.89422464,0.7793102,-0.17594585,0.7653978,0.6614986,0.8121927,-0.452794,0.517757,0.47469258,0.23924837,-0.62559175,0.31839103,796.5934,979.5238,799.81683,793.36993,747.03296,-0.26763916015625,0.07537841796875,0.94940185546875,1.55517578125,-4.059906005859375,-0.418701171875,1.0,1.0,2.0,1.0,1.0,85.0,event
10:35:50.756,0.8384539,0.7842221,0.030366309,0.8610892,0.9758618,0.74541616,-0.6045936,0.886569,0.89422464,0.7793102,-0.17594585,0.7653978,0.6614986,0.8121927,-0.452794,0.517757,0.47469258,0.23924837,-0.62559175,0.31839103,800.6227,552.01465,801.4286,801.02563,860.2564,-0.26763916015625,0.07537841796875,0.94940185546875,1.55517578125,-4.059906005859375,-0.418701171875,1.0,1.0,2.0,1.0,1.0,85.0,event
10:35:50.756,0.8384539,0.7842221,0.030366309,0.8610892,0.9758618,0.74541616,-0.6045936,0.886569,0.89422464,0.7793102,-0.17594585,0.7653978,0.6614986,0.8121927,-0.452794,0.517757,0.47469258,0.23924837,-0.62559175,0.31839103,801.8315,680.54944,805.05493,799.011,828.8278,-0.26763916015625,0.07537841796875,0.94940185546875,1.55517578125,-4.059906005859375,-0.418701171875,1.0,1.0,2.0,1.0,1.0,85.0,event
10:35:50.757,0.8384539,0.7842221,0.030366309,0.8610892,0.9758618,0.74541616,-0.6045936,0.886569,0.89422464,0.7793102,-0.17594585,0.7653978,0.6614986,0.8121927,-0.452794,0.517757,0.47469258,0.23924837,-0.62559175,0.31839103,807.8755,689.41394,804.2491,790.54944,813.91943,-0.26763916015625,0.07537841796875,0.94940185546875,1.55517578125,-4.059906005859375,-0.418701171875,1.0,1.0,2.0,1.0,1.0,85.0,event
10:35:50.757,0.8384539,0.7842221,0.030366309,0.8610892,0.9758618,0.74541616,-0.6045936,0.886569,0.89422464,0.7793102,-0.17594585,0.7653978,0.6614986,0.8121927,-0.452794,0.517757,0.47469258,0.23924837,-0.62559175,0.31839103,791.75824,561.685,804.65204,785.7143,816.7399,-0.26763916015625,0.07537841796875,0.94940185546875,1.55517578125,-4.059906005859375,-0.418701171875,1.0,1.0,2.0,1.0,1.0,85.0,event
10:35:50.758,0.8384539,0.7842221,0.030366309,0.8610892,0.9758618,0.74541616,-0.6045936,0.886569,0.89422464,0.7793102,-0.17594585,0.7653978,0.6614986,0.8121927,-0.452794,0.517757,0.47469258,0.23924837,-0.62559175,0.31839103,771.6117,304.21246,806.26373,792.1612,1058.0952,-0.26763916015625,0.07537841796875,0.94940185546875,1.55517578125,-4.059906005859375,-0.418701171875,1.0,1.0,2.0,1.0,1.0,85.0,event
10:35:50.758,0.8384539,0.7842221,0.030366309,0.8610892,0.9758618,0.74541616,-0.6045936,0.886569,0.89422464,0.7793102,-0.17594585,0.7653978,0.6614986,0.8121927,-0.452794,0.517757,0.47469258,0.23924837,-0.62559175,0.31839103,795.38464,813.1135,803.44324,792.1612,1004.90845,-0.26763916015625,0.07537841796875,0.94940185546875,1.55517578125,-4.059906005859375,-0.418701171875,1.0,1.0,2.0,1.0,1.0,85.0,event
10:35:50.759,0.8384539,0.7842221,0.030366309,0.8610892,0.9758618,0.74541616,-0.6045936,0.886569,0.89422464,0.7793102,-0.17594585,0.7653978,0.6614986,0.8121927,-0.452794,0.517757,0.47469258,0.23924837,-0.62559175,0.31839103,811.50183,1146.337,802.6374,790.14655,752.27106,-0.26763916015625,0.07537841796875,0.94940185546875,1.55517578125,-4.059906005859375,-0.418701171875,1.0,1.0,2.0,1.0,1.0,85.0,event
10:35:50.760,0.8384539,0.7842221,0.030366309,0.8610892,0.9758618,0.74541616,-0.6045936,0.886569,0.89422464,0.7793102,-0.17594585,0.7653978,0.6614986,0.8121927,-0.452794,0.517757,0.47469258,0.23924837,-0.62559175,0.31839103,798.20514,699.89014,803.44324,801.02563,856.63007,-0.26763916015625,0.07537841796875,0.94940185546875,1.55517578125,-4.059906005859375,-0.418701171875,1.0,1.0,2.0,1.0,1.0,85.0,event
10:35:50.786,0.8384539,0.7842221,0.030366309,0.8610892,0.9758618,0.74541616,-0.6045936,0.886569,0.89422464,0.7793102,-0.17594585,0.7653978,0.6614986,0.8121927,-0.452794,0.517757,0.47469258,0.23924837,-0.62559175,0.31839103,781.685,668.46155,799.41394,789.7436,793.36993,-0.260009765625,0.07647705078125,0.95135498046875,2.22808837890625,-3.895416259765625,-0.067291259765625,1.0,1.0,2.0,1.0,1.0,85.0,event
10:35:50.787,0.8384539,0.7842221,0.030366309,0.8610892,0.9758618,0.74541616,-0.6045936,0.886569,0.89422464,0.7793102,-0.17594585,0.7653978,0.6614986,0.8121927,-0.452794,0.517757,0.47469258,0.23924837,-0.62559175,0.31839103,782.49084,781.685,793.36993,781.28204,687.8022,-0.260009765625,0.07647705078125,0.95135498046875,2.22808837890625,-3.895416259765625,-0.067291259765625,1.0,1.0,2.0,1.0,1.0,85.0,event
10:35:50.788,0.8384539,0.7842221,0.030366309,0.8610892,0.9758618,0.74541616,-0.6045936,0.886569,0.89422464,0.7793102,-0.17594585,0.7653978,0.6614986,0.8121927,-0.452794,0.517757,0.47469258,0.23924837,-0.62559175,0.31839103,795.38464,675.31134,797.3993,794.57874,786.9231,-0.260009765625,0.07647705078125,0.95135498046875,2.22808837890625,-3.895416259765625,-0.067291259765625,1.0,1.0,2.0,1.0,1.0,85.0,event
10:35:50.788,0.8384539,0.7842221,0.030366309,0.8610892,0.9758618,0.74541616,-0.6045936,0.886569,0.89422464,0.7793102,-0.17594585,0.7653978,0.6614986,0.8121927,-0.452794,0.517757,0.47469258,0.23924837,-0.62559175,0.31839103,785.7143,719.2308,790.9524,789.7436,722.0513,-0.260009765625,0.07647705078125,0.95135498046875,2.22808837890625,-3.895416259765625,-0.067291259765625,1.0,1.0,2.0,1.0,1.0,85.0,event
10:35:50.789,0.8384539,0.7842221,0.030366309,0.8610892,0.9758618,0.74541616,-0.6045936,0.886569,0.89422464,0.7793102,-0.17594585,0.7653978,0.6614986,0.8121927,-0.452794,0.517757,0.47469258,0.23924837,-0.62559175,0.31839103,794.9817,675.7143,796.99634,802.23444,780.07324,-0.260009765625,0.07647705078125,0.95135498046875,2.22808837890625,-3.895416259765625,-0.067291259765625,1.0,1.0,2.0,1.0,1.0,85.0,event
10:35:50.790,0.8384539,0.7842221,0.030366309,0.8610892,0.9758618,0.74541616,-0.6045936,0.886569,0.89422464,0.7793102,-0.17594585,0.7653978,0.6614986,0.8121927,-0.452794,0.517757,0.47469258,0.23924837,-0.62559175,0.31839103,787.72894,568.5348,791.3553,792.1612,793.36993,-0.260009765625,0.07647705078125,0.95135498046875,2.22808837890625,-3.895416259765625,-0.067291259765625,1.0,1.0,2.0,1.0,1.0,85.0,event
