TimeStamp,Delta_TP9,Delta_AF7,Delta_AF8,Delta_TP10,Theta_TP9,Theta_AF7,Theta_AF8,Theta_TP10,Alpha_TP9,Alpha_AF7,Alpha_AF8,Alpha_TP10,Beta_TP9,Beta_AF7,Beta_AF8,Beta_TP10,Gamma_TP9,Gamma_AF7,Gamma_AF8,Gamma_TP10,RAW_TP9,RAW_AF7,RAW_AF8,RAW_TP10,AUX_RIGHT,Accelerometer_X,Accelerometer_Y,Accelerometer_Z,Gyro_X,Gyro_Y,Gyro_Z,HeadBandOn,HSI_TP9,HSI_AF7,HSI_AF8,HSI_TP10,Battery,Elements
13:35:52.406,0.7832549,0.72939193,-1.2118914,0.8388268,0.4081022,0.07107996,-2.1649864,0.58098227,0.57480264,0.37548426,-1.5631874,0.44325224,0.5752884,-0.057950195,-1.2361207,0.63460696,0.27737388,-0.1136063,-1.3817531,0.4542667,816.7399,795.78754,805.05493,796.5934,720.4396,-0.08453369140625,-0.0203857421875,0.9832763671875,3.30474853515625,-2.1832275390625,-2.16827392578125,1.0,1.0,1.0,4.0,1.0,85.0,event
13:35:52.407,0.7832549,0.72939193,-1.2118914,0.8388268,0.4081022,0.07107996,-2.1649864,0.58098227,0.57480264,0.37548426,-1.5631874,0.44325224,0.5752884,-0.057950195,-1.2361207,0.63460696,0.27737388,-0.1136063,-1.3817531,0.4542667,723.2601,795.78754,299.7802,794.57874,877.1795,-0.08453369140625,-0.0203857421875,0.9832763671875,3.30474853515625,-2.1832275390625,-2.16827392578125,1.0,1.0,1.0,4.0,1.0,85.0,event
13:35:52.408,0.7832549,0.72939193,-1.2118914,0.8388268,0.4081022,0.07107996,-2.1649864,0.58098227,0.57480264,0.37548426,-1.5631874,0.44325224,0.5752884,-0.057950195,-1.2361207,0.63460696,0.27737388,-0.1136063,-1.3817531,0.4542667,715.6044,795.38464,575.38464,799.81683,755.4945,-0.08453369140625,-0.0203857421875,0.9832763671875,3.30474853515625,-2.1832275390625,-2.16827392578125,1.0,1.0,1.0,4.0,1.0,85.0,event
13:35:52.409,0.7832549,0.72939193,-1.2118914,0.8388268,0.4081022,0.07107996,-2.1649864,0.58098227,0.57480264,0.37548426,-1.5631874,0.44325224,0.5752884,-0.057950195,-1.2361207,0.63460696,0.27737388,-0.1136063,-1.3817531,0.4542667,769.19415,793.36993,963.8095,813.1135,629.7802,-0.08453369140625,-0.0203857421875,0.9832763671875,3.30474853515625,-2.1832275390625,-2.16827392578125,1.0,1.0,1.0,4.0,1.0,85.0,event
13:35:52.409,0.7832549,0.72939193,-1.2118914,0.8388268,0.4081022,0.07107996,-2.1649864,0.58098227,0.57480264,0.37548426,-1.5631874,0.44325224,0.5752884,-0.057950195,-1.2361207,0.63460696,0.27737388,-0.1136063,-1.3817531,0.4542667,832.4542,791.75824,788.1319,830.4396,726.4835,-0.08453369140625,-0.0203857421875,0.9832763671875,3.30474853515625,-2.1832275390625,-2.16827392578125,1.0,1.0,1.0,4.0,1.0,85.0,event
13:35:52.410,0.7832549,0.72939193,-1.2118914,0.8388268,0.4081022,0.07107996,-2.1649864,0.58098227,0.57480264,0.37548426,-1.5631874,0.44325224,0.5752884,-0.057950195,-1.2361207,0.63460696,0.27737388,-0.1136063,-1.3817531,0.4542667,832.8571,793.36993,549.19415,830.0366,841.7216,-0.08453369140625,-0.0203857421875,0.9832763671875,3.30474853515625,-2.1832275390625,-2.16827392578125,1.0,1.0,1.0,4.0,1.0,85.0,event
13:35:52.411,0.7832549,0.72939193,-1.2118914,0.8388268,0.4081022,0.07107996,-2.1649864,0.58098227,0.57480264,0.37548426,-1.5631874,0.44325224,0.5752884,-0.057950195,-1.2361207,0.63460696,0.27737388,-0.1136063,-1.3817531,0.4542667,749.45056,795.38464,462.56412,826.8132,861.06226,-0.08453369140625,-0.0203857421875,0.9832763671875,3.30474853515625,-2.1832275390625,-2.16827392578125,1.0,1.0,1.0,4.0,1.0,85.0,event
13:35:52.411,0.7832549,0.72939193,-1.2118914,0.8388268,0.4081022,0.07107996,-2.1649864,0.58098227,0.57480264,0.37548426,-1.5631874,0.44325224,0.5752884,-0.057950195,-1.2361207,0.63460696,0.27737388,-0.1136063,-1.3817531,0.4542667,698.2784,789.7436,704.7253,793.7729,813.91943,-0.08453369140625,-0.0203857421875,0.9832763671875,3.30474853515625,-2.1832275390625,-2.16827392578125,1.0,1.0,1.0,4.0,1.0,85.0,event
13:35:52.412,0.7832549,0.72939193,-1.2118914,0.8388268,0.4081022,0.07107996,-2.1649864,0.58098227,0.57480264,0.37548426,-1.5631874,0.44325224,0.5752884,-0.057950195,-1.2361207,0.63460696,0.27737388,-0.1136063,-1.3817531,0.4542667,746.63007,788.1319,758.315,800.2198,822.7839,-0.08453369140625,-0.0203857421875,0.9832763671875,3.30474853515625,-2.1832275390625,-2.16827392578125,1.0,1.0,1.0,4.0,1.0,85.0,event
13:35:52.413,0.7832549,0.72939193,-1.2118914,0.8388268,0.4081022,0.07107996,-2.1649864,0.58098227,0.57480264,0.37548426,-1.5631874,0.44325224,0.5752884,-0.057950195,-1.2361207,0.63460696,0.27737388,-0.1136063,-1.3817531,0.4542667,803.0403,792.96704,245.78755,835.2747,1072.6007,-0.08453369140625,-0.0203857421875,0.9832763671875,3.30474853515625,-2.1832275390625,-2.16827392578125,1.0,1.0,1.0,4.0,1.0,85.0,event
13:35:52.414,0.7832549,0.72939193,-1.2118914,0.8388268,0.4081022,0.07107996,-2.1649864,0.58098227,0.57480264,0.37548426,-1.5631874,0.44325224,0.5752884,-0.057950195,-1.2361207,0.63460696,0.27737388,-0.1136063,-1.3817531,0.4542667,815.5311,794.9817,622.52747,818.3516,916.26373,-0.08453369140625,-0.0203857421875,0.9832763671875,3.30474853515625,-2.1832275390625,-2.16827392578125,1.0,1.0,1.0,4.0,1.0,85.0,event
13:35:52.415,0.7832549,0.72939193,-1.2118914,0.8388268,0.4081022,0.07107996,-2.1649864,0.58098227,0.57480264,0.37548426,-1.5631874,0.44325224,0.5752884,-0.057950195,-1.2361207,0.63460696,0.27737388,-0.1136063,-1.3817531,0.4542667,757.9121,792.1612,934.3956,799.011,689.011,-0.08453369140625,-0.0203857421875,0.9832763671875,3.30474853515625,-2.1832275390625,-2.16827392578125,1.0,1.0,1.0,4.0,1.0,85.0,event
13:35:52.440,0.7832549,0.72939193,-1.2118914,0.8388268,0.4081022,0.07107996,-2.1649864,0.58098227,0.57480264,0.37548426,-1.5631874,0.44325224,0.5752884,-0.057950195,-1.2361207,0.63460696,0.27737388,-0.1136063,-1.3817531,0.4542667,702.71063,783.2967,674.10254,795.78754,718.8278,-0.08111572265625,-0.01348876953125,0.987060546875,3.6187744140625,-2.220611572265625,-3.30474853515625,1.0,1.0,1.0,4.0,1.0,85.0,event
13:35:52.441,0.7832549,0.7278797,-1.2118914,0.8388268,0.4081022,0.09015066,-2.1649864,0.58098227,0.57480264,0.38822132,-1.5631874,0.44325224,0.5752884,-0.056053173,-1.2361207,0.63460696,0.27737388,-0.1161075,-1.3817531,0.4542667,749.85345,791.75824,805.8608,820.3663,711.978,-0.08111572265625,-0.01348876953125,0.987060546875,3.6187744140625,-2.220611572265625,-3.30474853515625,1.0,2.0,1.0,4.0,2.0,85.0,event
13:35:52.444,0.7832549,0.7278797,-1.2118914,0.8388268,0.4081022,0.09015066,-2.1649864,0.58098227,0.57480264,0.38822132,-1.5631874,0.44325224,0.5752884,-0.056053173,-1.2361207,0.63460696,0.27737388,-0.1161075,-1.3817531,0.4542667,828.8278,797.8022,1019.011,826.0073,751.4652,-0.08111572265625,-0.01348876953125,0.987060546875,3.6187744140625,-2.220611572265625,-3.30474853515625,1.0,2.0,1.0,4.0,2.0,85.0,event
13:35:52.445,0.7832549,0.7278797,-1.2118914,0.8388268,0.4081022,0.09015066,-2.1649864,0.58098227,0.57480264,0.38822132,-1.5631874,0.44325224,0.5752884,-0.056053173,-1.2361207,0.63460696,0.27737388,-0.1161075,-1.3817531,0.4542667,833.663,788.5348,1000.87915,817.5458,789.34064,-0.08111572265625,-0.01348876953125,0.987060546875,3.6187744140625,-2.220611572265625,-3.30474853515625,1.0,2.0,1.0,4.0,2.0,85.0,event
13:35:52.446,0.7832549,0.7278797,-1.2118914,0.8388268,0.4081022,0.09015066,-2.1649864,0.58098227,0.57480264,0.38822132,-1.5631874,0.44325224,0.5752884,-0.056053173,-1.2361207,0.63460696,0.27737388,-0.1161075,-1.3817531,0.4542667,747.03296,786.52014,690.6227,798.60803,789.7436,-0.08111572265625,-0.01348876953125,0.987060546875,3.6187744140625,-2.220611572265625,-3.30474853515625,1.0,2.0,1.0,4.0,2.0,85.0,event
13:35:52.446,0.7832549,0.7278797,-1.2118914,0.8388268,0.4081022,0.09015066,-2.1649864,0.58098227,0.57480264,0.38822132,-1.5631874,0.44325224,0.5752884,-0.056053173,-1.2361207,0.63460696,0.27737388,-0.1161075,-1.3817531,0.4542667,689.81683,785.7143,566.9231,780.87915,813.91943,-0.08111572265625,-0.01348876953125,0.987060546875,3.6187744140625,-2.220611572265625,-3.30474853515625,1.0,2.0,1.0,4.0,2.0,85.0,event
13:35:52.447,0.7832549,0.7278797,-1.2118914,0.8388268,0.4081022,0.09015066,-2.1649864,0.58098227,0.57480264,0.38822132,-1.5631874,0.44325224,0.5752884,-0.056053173,-1.2361207,0.63460696,0.27737388,-0.1161075,-1.3817531,0.4542667,723.2601,786.52014,643.0769,799.41394,810.293,-0.08111572265625,-0.01348876953125,0.987060546875,3.6187744140625,-2.220611572265625,-3.30474853515625,1.0,2.0,1.0,4.0,2.0,85.0,event
13:35:52.448,0.7832549,0.7278797,-1.2118914,0.8388268,0.4081022,0.09015066,-2.1649864,0.58098227,0.57480264,0.38822132,-1.5631874,0.44325224,0.5752884,-0.056053173,-1.2361207,0.63460696,0.27737388,-0.1161075,-1.3817531,0.4542667,786.1172,793.36993,727.6923,807.0696,798.60803,-0.08111572265625,-0.01348876953125,0.987060546875,3.6187744140625,-2.220611572265625,-3.30474853515625,1.0,2.0,1.0,4.0,2.0,85.0,event
13:35:52.448,0.7832549,0.7278797,-1.2118914,0.8388268,0.4081022,0.09015066,-2.1649864,0.58098227,0.57480264,0.38822132,-1.5631874,0.44325224,0.5752884,-0.056053173,-1.2361207,0.63460696,0.27737388,-0.1161075,-1.3817531,0.4542667,808.68134,791.3553,362.63736,811.0989,1004.5055,-0.08111572265625,-0.01348876953125,0.987060546875,3.6187744140625,-2.220611572265625,-3.30474853515625,1.0,2.0,1.0,4.0,2.0,85.0,event
13:35:52.449,0.7832549,0.7278797,-1.2118914,0.8388268,0.4081022,0.09015066,-2.1649864,0.58098227,0.57480264,0.38822132,-1.5631874,0.44325224,0.5752884,-0.056053173,-1.2361207,0.63460696,0.27737388,-0.1161075,-1.3817531,0.4542667,742.6007,791.75824,116.446884,821.1722,1038.7546,-0.08111572265625,-0.01348876953125,0.987060546875,3.6187744140625,-2.220611572265625,-3.30474853515625,1.0,2.0,1.0,4.0,2.0,85.0,event
13:35:52.450,0.7832549,0.7278797,-1.2118914,0.8388268,0.4081022,0.09015066,-2.1649864,0.58098227,0.57480264,0.38822132,-1.5631874,0.44325224,0.5752884,-0.056053173,-1.2361207,0.63460696,0.27737388,-0.1161075,-1.3817531,0.4542667,713.9927,796.5934,971.06226,785.31134,655.9707,-0.08111572265625,-0.01348876953125,0.987060546875,3.6187744140625,-2.220611572265625,-3.30474853515625,1.0,2.0,1.0,4.0,2.0,85.0,event
13:35:52.450,0.7832549,0.7278797,-1.2118914,0.8388268,0.4081022,0.09015066,-2.1649864,0.58098227,0.57480264,0.38822132,-1.5631874,0.44325224,0.5752884,-0.056053173,-1.2361207,0.63460696,0.27737388,-0.1161075,-1.3817531,0.4542667,691.8315,800.2198,766.77655,813.1135,738.97437,-0.08111572265625,-0.01348876953125,0.987060546875,3.6187744140625,-2.220611572265625,-3.30474853515625,1.0,2.0,1.0,4.0,2.0,85.0,event
13:35:52.507,0.7832549,0.7278797,-1.2118914,0.8388268,0.4081022,0.09015066,-2.1649864,0.58098227,0.57480264,0.38822132,-1.5631874,0.44325224,0.5752884,-0.056053173,-1.2361207,0.63460696,0.27737388,-0.1161075,-1.3817531,0.4542667,782.0879,793.7729,809.89014,805.8608,745.82416,-0.0782470703125,-0.0137939453125,0.98785400390625,2.474822998046875,-2.549591064453125,-2.758941650390625,1.0,2.0,1.0,4.0,2.0,85.0,event
13:35:52.508,0.7832549,0.7278797,-1.2118914,0.8388268,0.4081022,0.09015066,-2.1649864,0.58098227,0.57480264,0.38822132,-1.5631874,0.44325224,0.5752884,-0.056053173,-1.2361207,0.63460696,0.27737388,-0.1161075,-1.3817531,0.4542667,832.0513,796.99634,954.5421,823.9927,725.2747,-0.0782470703125,-0.0137939453125,0.98785400390625,2.474822998046875,-2.549591064453125,-2.758941650390625,1.0,2.0,1.0,4.0,2.0,85.0,event
13:35:52.509,0.7832549,0.7278797,-1.2118914,0.8388268,0.4081022,0.09015066,-2.1649864,0.58098227,0.57480264,0.38822132,-1.5631874,0.44325224,0.5752884,-0.056053173,-1.2361207,0.63460696,0.27737388,-0.1161075,-1.3817531,0.4542667,776.8498,799.011,943.2601,803.0403,660.0,-0.0782470703125,-0.0137939453125,0.98785400390625,2.474822998046875,-2.549591064453125,-2.758941650390625,1.0,2.0,1.0,4.0,2.0,85.0,event
13:35:52.510,0.7832549,0.7278797,-1.2118914,0.8388268,0.4081022,0.09015066,-2.1649864,0.58098227,0.57480264,0.38822132,-1.5631874,0.44325224,0.5752884,-0.056053173,-1.2361207,0.63460696,0.27737388,-0.1161075,-1.3817531,0.4542667,709.15753,790.14655,831.2454,789.7436,700.293,-0.0782470703125,-0.0137939453125,0.98785400390625,2.474822998046875,-2.549591064453125,-2.758941650390625,1.0,2.0,1.0,4.0,2.0,85.0,event
13:35:52.510,0.7832549,0.7278797,-1.2118914,0.8388268,0.4081022,0.09015066,-2.1649864,0.58098227,0.57480264,0.38822132,-1.5631874,0.44325224,0.5752884,-0.056053173,-1.2361207,0.63460696,0.27737388,-0.1161075,-1.3817531,0.4542667,722.8571,791.75824,852.1978,801.8315,794.9817,-0.0782470703125,-0.0137939453125,0.98785400390625,2.474822998046875,-2.549591064453125,-2.758941650390625,1.0,2.0,1.0,4.0,2.0,85.0,event
13:35:52.511,0.7832549,0.7278797,-1.2118914,0.8388268,0.4081022,0.09015066,-2.1649864,0.58098227,0.57480264,0.38822132,-1.5631874,0.44325224,0.5752884,-0.056053173,-1.2361207,0.63460696,0.27737388,-0.1161075,-1.3817531,0.4542667,770.0,799.41394,800.6227,820.7692,867.1062,-0.0782470703125,-0.0137939453125,0.98785400390625,2.474822998046875,-2.549591064453125,-2.758941650390625,1.0,2.0,1.0,4.0,2.0,85.0,event
13:35:52.512,0.7832549,0.7278797,-1.2118914,0.8388268,0.4081022,0.09015066,-2.1649864,0.58098227,0.57480264,0.38822132,-1.5631874,0.44325224,0.5752884,-0.056053173,-1.2361207,0.63460696,0.27737388,-0.1161075,-1.3817531,0.4542667,786.52014,797.8022,597.1429,818.3516,896.9231,-0.0782470703125,-0.0137939453125,0.98785400390625,2.474822998046875,-2.549591064453125,-2.758941650390625,1.0,2.0,1.0,4.0,2.0,85.0,event
13:35:52.512,0.7832549,0.7278797,-1.2118914,0.8388268,0.4081022,0.09015066,-2.1649864,0.58098227,0.57480264,0.38822132,-1.5631874,0.44325224,0.5752884,-0.056053173,-1.2361207,0.63460696,0.27737388,-0.1161075,-1.3817531,0.4542667,811.50183,795.38464,783.69965,826.8132,863.0769,-0.0782470703125,-0.0137939453125,0.98785400390625,2.474822998046875,-2.549591064453125,-2.758941650390625,1.0,2.0,1.0,4.0,2.0,85.0,event
13:35:52.513,0.7832549,0.7278797,-1.2118914,0.8388268,0.4081022,0.09015066,-2.1649864,0.58098227,0.57480264,0.38822132,-1.5631874,0.44325224,0.5752884,-0.056053173,-1.2361207,0.63460696,0.27737388,-0.1161075,-1.3817531,0.4542667,710.7692,796.99634,181.31868,801.02563,1052.4542,-0.0782470703125,-0.0137939453125,0.98785400390625,2.474822998046875,-2.549591064453125,-2.758941650390625,1.0,2.0,1.0,4.0,2.0,85.0,event
13:35:52.514,0.7832549,0.7278797,-1.2118914,0.8388268,0.4081022,0.09015066,-2.1649864,0.58098227,0.57480264,0.38822132,-1.5631874,0.44325224,0.5752884,-0.056053173,-1.2361207,0.63460696,0.27737388,-0.1161075,-1.3817531,0.4542667,710.3663,795.78754,637.4359,781.685,815.5311,-0.0782470703125,-0.0137939453125,0.98785400390625,2.474822998046875,-2.549591064453125,-2.758941650390625,1.0,2.0,1.0,4.0,2.0,85.0,event
13:35:52.515,0.7832549,0.7278797,-1.2118914,0.8388268,0.4081022,0.09015066,-2.1649864,0.58098227,0.57480264,0.38822132,-1.5631874,0.44325224,0.5752884,-0.056053173,-1.2361207,0.63460696,0.27737388,-0.1161075,-1.3817531,0.4542667,782.0879,790.54944,1004.10254,797.8022,669.2674,-0.0782470703125,-0.0137939453125,0.98785400390625,2.474822998046875,-2.549591064453125,-2.758941650390625,1.0,2.0,1.0,4.0,2.0,85.0,event
13:35:52.515,0.7832549,0.7278797,-1.2118914,0.8388268,0.4081022,0.09015066,-2.1649864,0.58098227,0.57480264,0.38822132,-1.5631874,0.44325224,0.5752884,-0.056053173,-1.2361207,0.63460696,0.27737388,-0.1161075,-1.3817531,0.4542667,832.4542,790.9524,711.1722,816.337,912.23444,-0.0782470703125,-0.0137939453125,0.98785400390625,2.474822998046875,-2.549591064453125,-2.758941650390625,1.0,2.0,1.0,4.0,2.0,85.0,event
13:35:52.542,0.7832549,0.7278797,-1.2118914,0.8388268,0.4081022,0.09015066,-2.1649864,0.58098227,0.57480264,0.38822132,-1.5631874,0.44325224,0.5752884,-0.056053173,-1.2361207,0.63460696,0.27737388,-0.1161075,-1.3817531,0.4542667,786.1172,790.54944,650.32965,801.8315,893.2967,-0.08154296875,-0.01190185546875,0.98931884765625,1.21124267578125,-2.863616943359375,-0.485992431640625,1.0,2.0,1.0,4.0,2.0,85.0,event
13:35:52.543,0.7832549,0.7278797,-1.2118914,0.8388268,0.4081022,0.09015066,-2.1649864,0.58098227,0.57480264,0.38822132,-1.5631874,0.44325224,0.5752884,-0.056053173,-1.2361207,0.63460696,0.27737388,-0.1161075,-1.3817531,0.4542667,703.91943,790.14655,904.57874,796.1905,676.52014,-0.08154296875,-0.01190185546875,0.98931884765625,1.21124267578125,-2.863616943359375,-0.485992431640625,1.0,2.0,1.0,4.0,2.0,85.0,event
13:35:52.544,0.7832549,0.7278797,-1.2118914,0.8388268,0.4081022,0.09015066,-2.1649864,0.58098227,0.57480264,0.38822132,-1.5631874,0.44325224,0.5752884,-0.056053173,-1.2361207,0.63460696,0.27737388,-0.1161075,-1.3817531,0.4542667,707.1429,790.9524,965.0183,788.1319,653.5531,-0.08154296875,-0.01190185546875,0.98931884765625,1.21124267578125,-2.863616943359375,-0.485992431640625,1.0,2.0,1.0,4.0,2.0,85.0,event
13:35:52.544,0.7832549,0.7347645,-1.2118914,0.8388268,0.4081022,0.15398669,-2.1649864,0.58098227,0.57480264,0.43744433,-1.5631874,0.44325224,0.5752884,-0.05259849,-1.2361207,0.63460696,0.27737388,-0.1102353,-1.3817531,0.4542667,775.2381,794.57874,770.0,792.1612,784.10254,-0.08154296875,-0.01190185546875,0.98931884765625,1.21124267578125,-2.863616943359375,-0.485992431640625,1.0,2.0,1.0,4.0,2.0,85.0,event
13:35:52.547,,,,,,,,,,,,,,,,,,,,,,,,,,,,,,,,,,,,,,blink
13:35:52.549,0.7832549,0.7347645,-1.2118914,0.8388268,0.4081022,0.15398669,-2.1649864,0.58098227,0.57480264,0.43744433,-1.5631874,0.44325224,0.5752884,-0.05259849,-1.2361207,0.63460696,0.27737388,-0.1102353,-1.3817531,0.4542667,820.7692,798.60803,902.96704,830.0366,795.78754,-0.08154296875,-0.01190185546875,0.98931884765625,1.21124267578125,-2.863616943359375,-0.485992431640625,1.0,2.0,1.0,4.0,2.0,85.0,event
13:35:52.549,0.7832549,0.7347645,-1.2118914,0.8388268,0.4081022,0.15398669,-2.1649864,0.58098227,0.57480264,0.43744433,-1.5631874,0.44325224,0.5752884,-0.05259849,-1.2361207,0.63460696,0.27737388,-0.1102353,-1.3817531,0.4542667,799.41394,792.1612,860.65936,830.0366,809.0842,-0.08154296875,-0.01190185546875,0.98931884765625,1.21124267578125,-2.863616943359375,-0.485992431640625,1.0,2.0,1.0,4.0,2.0,85.0,event
13:35:52.550,0.7832549,0.7347645,-1.2118914,0.8388268,0.4081022,0.15398669,-2.1649864,0.58098227,0.57480264,0.43744433,-1.5631874,0.44325224,0.5752884,-0.05259849,-1.2361207,0.63460696,0.27737388,-0.1102353,-1.3817531,0.4542667,726.4835,786.9231,632.1978,800.6227,820.7692,-0.08154296875,-0.01190185546875,0.98931884765625,1.21124267578125,-2.863616943359375,-0.485992431640625,1.0,2.0,1.0,4.0,2.0,85.0,event
13:35:52.551,0.7832549,0.7347645,-1.2118914,0.8388268,0.4081022,0.15398669,-2.1649864,0.58098227,0.57480264,0.43744433,-1.5631874,0.44325224,0.5752884,-0.05259849,-1.2361207,0.63460696,0.27737388,-0.1102353,-1.3817531,0.4542667,685.38464,792.1612,417.03296,784.5055,923.1135,-0.08154296875,-0.01190185546875,0.98931884765625,1.21124267578125,-2.863616943359375,-0.485992431640625,1.0,2.0,1.0,4.0,2.0,85.0,event
13:35:52.551,0.7832549,0.7347645,-1.2118914,0.8388268,0.4081022,0.15398669,-2.1649864,0.58098227,0.57480264,0.43744433,-1.5631874,0.44325224,0.5752884,-0.05259849,-1.2361207,0.63460696,0.27737388,-0.1102353,-1.3817531,0.4542667,749.85345,797.8022,518.5714,794.57874,927.5458,-0.08154296875,-0.01190185546875,0.98931884765625,1.21124267578125,-2.863616943359375,-0.485992431640625,1.0,2.0,1.0,4.0,2.0,85.0,event
13:35:52.552,0.7832549,0.7347645,-1.2118914,0.8388268,0.4081022,0.15398669,-2.1649864,0.58098227,0.57480264,0.43744433,-1.5631874,0.44325224,0.5752884,-0.05259849,-1.2361207,0.63460696,0.27737388,-0.1102353,-1.3817531,0.4542667,834.87177,794.17584,1075.8242,810.696,714.3956,-0.08154296875,-0.01190185546875,0.98931884765625,1.21124267578125,-2.863616943359375,-0.485992431640625,1.0,2.0,1.0,4.0,2.0,85.0,event
13:35:52.553,0.7832549,0.7347645,-1.2118914,0.8388268,0.4081022,0.15398669,-2.1649864,0.58098227,0.57480264,0.43744433,-1.5631874,0.44325224,0.5752884,-0.05259849,-1.2361207,0.63460696,0.27737388,-0.1102353,-1.3817531,0.4542667,814.3223,795.78754,1034.7252,794.9817,681.75824,-0.08154296875,-0.01190185546875,0.98931884765625,1.21124267578125,-2.863616943359375,-0.485992431640625,1.0,2.0,1.0,4.0,2.0,85.0,event
13:35:52.553,0.7832549,0.7347645,-1.2118914,0.8388268,0.4081022,0.15398669,-2.1649864,0.58098227,0.57480264,0.43744433,-1.5631874,0.44325224,0.5752884,-0.05259849,-1.2361207,0.63460696,0.27737388,-0.1102353,-1.3817531,0.4542667,721.6484,799.41394,809.4872,770.40295,770.80585,-0.08154296875,-0.01190185546875,0.98931884765625,1.21124267578125,-2.863616943359375,-0.485992431640625,1.0,2.0,1.0,4.0,2.0,85.0,event
13:35:52.575,0.7832549,0.7347645,-1.2118914,0.8388268,0.4081022,0.15398669,-2.1649864,0.58098227,0.57480264,0.43744433,-1.5631874,0.44325224,0.5752884,-0.05259849,-1.2361207,0.63460696,0.27737388,-0.1102353,-1.3817531,0.4542667,692.6374,800.6227,1004.90845,777.6557,738.5714,-0.08154296875,-0.01190185546875,0.98931884765625,1.21124267578125,-2.863616943359375,-0.485992431640625,1.0,2.0,1.0,4.0,2.0,85.0,event
13:35:52.576,0.7832549,0.7347645,-1.2118914,0.8388268,0.4081022,0.15398669,-2.1649864,0.58098227,0.57480264,0.43744433,-1.5631874,0.44325224,0.5752884,-0.05259849,-1.2361207,0.63460696,0.27737388,-0.1102353,-1.3817531,0.4542667,760.32965,802.23444,1118.9377,810.696,693.0403,-0.08154296875,-0.01190185546875,0.98931884765625,1.21124267578125,-2.863616943359375,-0.485992431640625,1.0,2.0,1.0,4.0,2.0,85.0,event
13:35:52.577,0.7832549,0.7347645,-1.2118914,0.8388268,0.4081022,0.15398669,-2.1649864,0.58098227,0.57480264,0.43744433,-1.5631874,0.44325224,0.5752884,-0.05259849,-1.2361207,0.63460696,0.27737388,-0.1102353,-1.3817531,0.4542667,825.2015,801.02563,871.9414,813.5165,861.8681,-0.08154296875,-0.01190185546875,0.98931884765625,1.21124267578125,-2.863616943359375,-0.485992431640625,1.0,2.0,1.0,4.0,2.0,85.0,event
13:35:52.578,0.7832549,0.7347645,-1.2118914,0.8388268,0.4081022,0.15398669,-2.1649864,0.58098227,0.57480264,0.43744433,-1.5631874,0.44325224,0.5752884,-0.05259849,-1.2361207,0.63460696,0.27737388,-0.1102353,-1.3817531,0.4542667,795.38464,801.8315,670.07324,807.0696,920.696,-0.08154296875,-0.01190185546875,0.98931884765625,1.21124267578125,-2.863616943359375,-0.485992431640625,1.0,2.0,1.0,4.0,2.0,85.0,event
13:35:52.579,0.7832549,0.7347645,-1.2118914,0.8388268,0.4081022,0.15398669,-2.1649864,0.58098227,0.57480264,0.43744433,-1.5631874,0.44325224,0.5752884,-0.05259849,-1.2361207,0.63460696,0.27737388,-0.1102353,-1.3817531,0.4542667,680.54944,794.9817,855.82416,782.8938,731.31866,-0.08154296875,-0.01190185546875,0.98931884765625,1.21124267578125,-2.863616943359375,-0.485992431640625,1.0,2.0,1.0,4.0,2.0,85.0,event
13:35:52.579,0.7832549,0.7347645,-1.2118914,0.8388268,0.4081022,0.15398669,-2.1649864,0.58098227,0.57480264,0.43744433,-1.5631874,0.44325224,0.5752884,-0.05259849,-1.2361207,0.63460696,0.27737388,-0.1102353,-1.3817531,0.4542667,718.8278,797.3993,864.68866,783.2967,741.39197,-0.08154296875,-0.01190185546875,0.98931884765625,1.21124267578125,-2.863616943359375,-0.485992431640625,1.0,2.0,1.0,4.0,2.0,85.0,event
13:35:52.580,0.7832549,0.7347645,-1.2118914,0.8388268,0.4081022,0.15398669,-2.1649864,0.58098227,0.57480264,0.43744433,-1.5631874,0.44325224,0.5752884,-0.05259849,-1.2361207,0.63460696,0.27737388,-0.1102353,-1.3817531,0.4542667,730.10986,799.41394,675.7143,792.96704,909.011,-0.08154296875,-0.01190185546875,0.98931884765625,1.21124267578125,-2.863616943359375,-0.485992431640625,1.0,2.0,1.0,4.0,2.0,85.0,event
13:35:52.580,0.7832549,0.7347645,-1.2118914,0.8388268,0.4081022,0.15398669,-2.1649864,0.58098227,0.57480264,0.43744433,-1.5631874,0.44325224,0.5752884,-0.05259849,-1.2361207,0.63460696,0.27737388,-0.1102353,-1.3817531,0.4542667,800.2198,802.23444,423.07693,790.9524,1065.751,-0.08154296875,-0.01190185546875,0.98931884765625,1.21124267578125,-2.863616943359375,-0.485992431640625,1.0,2.0,1.0,4.0,2.0,85.0,event
13:35:52.581,0.7832549,0.7347645,-1.2118914,0.8388268,0.4081022,0.15398669,-2.1649864,0.58098227,0.57480264,0.43744433,-1.5631874,0.44325224,0.5752884,-0.05259849,-1.2361207,0.63460696,0.27737388,-0.1102353,-1.3817531,0.4542667,813.5165,803.0403,811.50183,787.72894,809.4872,-0.08154296875,-0.01190185546875,0.98931884765625,1.21124267578125,-2.863616943359375,-0.485992431640625,1.0,2.0,1.0,4.0,2.0,85.0,event
13:35:52.582,0.7832549,0.7347645,-1.2118914,0.8388268,0.4081022,0.15398669,-2.1649864,0.58098227,0.57480264,0.43744433,-1.5631874,0.44325224,0.5752884,-0.05259849,-1.2361207,0.63460696,0.27737388,-0.1102353,-1.3817531,0.4542667,745.0183,808.2784,1064.1392,773.22345,602.381,-0.08154296875,-0.01190185546875,0.98931884765625,1.21124267578125,-2.863616943359375,-0.485992431640625,1.0,2.0,1.0,4.0,2.0,85.0,event
13:35:52.582,0.7832549,0.7347645,-1.2118914,0.8388268,0.4081022,0.15398669,-2.1649864,0.58098227,0.57480264,0.43744433,-1.5631874,0.44325224,0.5752884,-0.05259849,-1.2361207,0.63460696,0.27737388,-0.1102353,-1.3817531,0.4542667,694.2491,809.0842,862.27106,795.78754,701.9048,-0.08154296875,-0.01190185546875,0.98931884765625,1.21124267578125,-2.863616943359375,-0.485992431640625,1.0,2.0,1.0,4.0,2.0,85.0,event
13:35:52.583,0.7832549,0.7347645,-1.2118914,0.8388268,0.4081022,0.15398669,-2.1649864,0.58098227,0.57480264,0.43744433,-1.5631874,0.44325224,0.5752884,-0.05259849,-1.2361207,0.63460696,0.27737388,-0.1102353,-1.3817531,0.4542667,729.304,802.6374,956.9597,793.7729,752.27106,-0.08154296875,-0.01190185546875,0.98931884765625,1.21124267578125,-2.863616943359375,-0.485992431640625,1.0,2.0,1.0,4.0,2.0,85.0,event
13:35:52.643,0.7832549,0.7347645,-1.2118914,0.8388268,0.4081022,0.15398669,-2.1649864,0.58098227,0.57480264,0.43744433,-1.5631874,0.44325224,0.5752884,-0.05259849,-1.2361207,0.63460696,0.27737388,-0.1102353,-1.3817531,0.4542667,814.7253,801.8315,1170.1099,788.5348,690.2198,-0.09185791015625,-0.02069091796875,0.98095703125,1.15142822265625,-3.54400634765625,0.8074951171875,1.0,2.0,1.0,4.0,2.0,85.0,event
13:35:52.644,0.7832549,0.7347645,-1.2118914,0.8388268,0.4081022,0.15398669,-2.1649864,0.58098227,0.57480264,0.43744433,-1.5631874,0.44325224,0.5752884,-0.05259849,-1.2361207,0.63460696,0.27737388,-0.1102353,-1.3817531,0.4542667,836.4835,800.6227,1162.8572,818.7546,702.71063,-0.09185791015625,-0.02069091796875,0.98095703125,1.15142822265625,-3.54400634765625,0.8074951171875,1.0,2.0,1.0,4.0,2.0,85.0,event
13:35:52.645,0.7832549,0.7347645,-1.2118914,0.8388268,0.4081022,0.15398669,-2.1649864,0.58098227,0.57480264,0.43744433,-1.5631874,0.44325224,0.5752884,-0.05259849,-1.2361207,0.63460696,0.27737388,-0.1102353,-1.3817531,0.4542667,759.92676,793.36993,828.4249,799.41394,753.8828,-0.09185791015625,-0.02069091796875,0.98095703125,1.15142822265625,-3.54400634765625,0.8074951171875,1.0,2.0,1.0,4.0,2.0,85.0,event
13:35:52.646,0.7832549,0.7347645,-1.2118914,0.8388268,0.4081022,0.15398669,-2.1649864,0.58098227,0.57480264,0.43744433,-1.5631874,0.44325224,0.5752884,-0.05259849,-1.2361207,0.63460696,0.27737388,-0.1102353,-1.3817531,0.4542667,697.0696,797.3993,891.685,783.2967,719.6337,-0.09185791015625,-0.02069091796875,0.98095703125,1.15142822265625,-3.54400634765625,0.8074951171875,1.0,2.0,1.0,4.0,2.0,85.0,event
13:35:52.646,0.7832549,0.7347645,-1.2118914,0.8388268,0.4081022,0.15398669,-2.1649864,0.58098227,0.57480264,0.43744433,-1.5631874,0.44325224,0.5752884,-0.05259849,-1.2361207,0.63460696,0.27737388,-0.1102353,-1.3817531,0.4542667,716.8132,799.41394,1095.1648,789.7436,725.2747,-0.09185791015625,-0.02069091796875,0.98095703125,1.15142822265625,-3.54400634765625,0.8074951171875,1.0,2.0,1.0,4.0,2.0,85.0,event
13:35:52.647,0.7832549,0.75343496,-1.2118914,0.8388268,0.4081022,0.25871935,-2.1649864,0.58098227,0.57480264,0.5400185,-1.5631874,0.44325224,0.5752884,-0.049762886,-1.2361207,0.63460696,0.27737388,-0.09672134,-1.3817531,0.4542667,788.5348,797.8022,945.2747,794.57874,774.0293,-0.09185791015625,-0.02069091796875,0.98095703125,1.15142822265625,-3.54400634765625,0.8074951171875,1.0,2.0,1.0,4.0,2.0,85.0,event
13:35:52.652,0.7832549,0.75343496,-1.2118914,0.8388268,0.4081022,0.25871935,-2.1649864,0.58098227,0.57480264,0.5400185,-1.5631874,0.44325224,0.5752884,-0.049762886,-1.2361207,0.63460696,0.27737388,-0.09672134,-1.3817531,0.4542667,828.8278,802.23444,553.6264,809.0842,1021.8315,-0.09185791015625,-0.02069091796875,0.98095703125,1.15142822265625,-3.54400634765625,0.8074951171875,1.0,2.0,1.0,4.0,2.0,85.0,event
13:35:52.653,0.7832549,0.75343496,-1.2118914,0.8388268,0.4081022,0.25871935,-2.1649864,0.58098227,0.57480264,0.5400185,-1.5631874,0.44325224,0.5752884,-0.049762886,-1.2361207,0.63460696,0.27737388,-0.09672134,-1.3817531,0.4542667,756.30035,806.26373,372.30768,790.9524,1054.8718,-0.09185791015625,-0.02069091796875,0.98095703125,1.15142822265625,-3.54400634765625,0.8074951171875,1.0,2.0,1.0,4.0,2.0,85.0,event
13:35:52.656,0.7832549,0.75343496,-1.2118914,0.8388268,0.4081022,0.25871935,-2.1649864,0.58098227,0.57480264,0.5400185,-1.5631874,0.44325224,0.5752884,-0.049762886,-1.2361207,0.63460696,0.27737388,-0.09672134,-1.3817531,0.4542667,696.6667,806.26373,884.43225,791.75824,702.3077,-0.09185791015625,-0.02069091796875,0.98095703125,1.15142822265625,-3.54400634765625,0.8074951171875,1.0,2.0,1.0,4.0,2.0,85.0,event
13:35:52.657,0.7832549,0.75343496,-1.2118914,0.8388268,0.4081022,0.25871935,-2.1649864,0.58098227,0.57480264,0.5400185,-1.5631874,0.44325224,0.5752884,-0.049762886,-1.2361207,0.63460696,0.27737388,-0.09672134,-1.3817531,0.4542667,736.55676,799.011,1024.249,808.68134,625.7509,-0.09185791015625,-0.02069091796875,0.98095703125,1.15142822265625,-3.54400634765625,0.8074951171875,1.0,2.0,1.0,4.0,2.0,85.0,event
13:35:52.658,0.7832549,0.75343496,-1.2118914,0.8388268,0.4081022,0.25871935,-2.1649864,0.58098227,0.57480264,0.5400185,-1.5631874,0.44325224,0.5752884,-0.049762886,-1.2361207,0.63460696,0.27737388,-0.09672134,-1.3817531,0.4542667,808.68134,792.5641,725.6777,820.7692,805.05493,-0.09185791015625,-0.02069091796875,0.98095703125,1.15142822265625,-3.54400634765625,0.8074951171875,1.0,2.0,1.0,4.0,2.0,85.0,event
13:35:52.659,0.7832549,0.75343496,-1.2118914,0.8388268,0.4081022,0.25871935,-2.1649864,0.58098227,0.57480264,0.5400185,-1.5631874,0.44325224,0.5752884,-0.049762886,-1.2361207,0.63460696,0.27737388,-0.09672134,-1.3817531,0.4542667,825.2015,793.7729,1031.9048,809.89014,797.3993,-0.09185791015625,-0.02069091796875,0.98095703125,1.15142822265625,-3.54400634765625,0.8074951171875,1.0,2.0,1.0,4.0,2.0,85.0,event
13:35:52.687,0.7832549,0.75343496,-1.2118914,0.8388268,0.4081022,0.25871935,-2.1649864,0.58098227,0.57480264,0.5400185,-1.5631874,0.44325224,0.5752884,-0.049762886,-1.2361207,0.63460696,0.27737388,-0.09672134,-1.3817531,0.4542667,771.6117,799.81683,1221.6849,794.57874,732.9304,-0.08917236328125,-0.02056884765625,0.97967529296875,2.190704345703125,-3.461761474609375,0.441131591796875,1.0,2.0,1.0,4.0,2.0,85.0,event
13:35:52.694,0.7832549,0.75343496,-1.2118914,0.8388268,0.4081022,0.25871935,-2.1649864,0.58098227,0.57480264,0.5400185,-1.5631874,0.44325224,0.5752884,-0.049762886,-1.2361207,0.63460696,0.27737388,-0.09672134,-1.3817531,0.4542667,714.3956,802.6374,1025.8608,786.52014,729.707,-0.08917236328125,-0.02056884765625,0.97967529296875,2.190704345703125,-3.461761474609375,0.441131591796875,1.0,2.0,1.0,4.0,2.0,85.0,event
13:35:52.695,0.7832549,0.75343496,-1.2118914,0.8388268,0.4081022,0.25871935,-2.1649864,0.58098227,0.57480264,0.5400185,-1.5631874,0.44325224,0.5752884,-0.049762886,-1.2361207,0.63460696,0.27737388,-0.09672134,-1.3817531,0.4542667,707.5458,794.57874,948.0952,787.72894,749.0476,-0.08917236328125,-0.02056884765625,0.97967529296875,2.190704345703125,-3.461761474609375,0.441131591796875,1.0,2.0,1.0,4.0,2.0,85.0,event
13:35:52.696,0.7832549,0.75343496,-1.2118914,0.8388268,0.4081022,0.25871935,-2.1649864,0.58098227,0.57480264,0.5400185,-1.5631874,0.44325224,0.5752884,-0.049762886,-1.2361207,0.63460696,0.27737388,-0.09672134,-1.3817531,0.4542667,775.64105,792.5641,1110.8792,799.41394,711.5751,-0.08917236328125,-0.02056884765625,0.97967529296875,2.190704345703125,-3.461761474609375,0.441131591796875,1.0,2.0,1.0,4.0,2.0,85.0,event
13:35:52.696,0.7832549,0.75343496,-1.2118914,0.8388268,0.4081022,0.25871935,-2.1649864,0.58098227,0.57480264,0.5400185,-1.5631874,0.44325224,0.5752884,-0.049762886,-1.2361207,0.63460696,0.27737388,-0.09672134,-1.3817531,0.4542667,838.9011,806.6667,1268.4249,797.8022,733.3333,-0.08917236328125,-0.02056884765625,0.97967529296875,2.190704345703125,-3.461761474609375,0.441131591796875,1.0,2.0,1.0,4.0,2.0,85.0,event
13:35:52.697,0.7832549,0.75343496,-1.2118914,0.8388268,0.4081022,0.25871935,-2.1649864,0.58098227,0.57480264,0.5400185,-1.5631874,0.44325224,0.5752884,-0.049762886,-1.2361207,0.63460696,0.27737388,-0.09672134,-1.3817531,0.4542667,794.9817,799.81683,956.9597,803.0403,897.326,-0.08917236328125,-0.02056884765625,0.97967529296875,2.190704345703125,-3.461761474609375,0.441131591796875,1.0,2.0,1.0,4.0,2.0,85.0,event
13:35:52.698,0.7832549,0.75343496,-1.2118914,0.8388268,0.4081022,0.25871935,-2.1649864,0.58098227,0.57480264,0.5400185,-1.5631874,0.44325224,0.5752884,-0.049762886,-1.2361207,0.63460696,0.27737388,-0.09672134,-1.3817531,0.4542667,708.3516,789.34064,597.9487,803.0403,928.7546,-0.08917236328125,-0.02056884765625,0.97967529296875,2.190704345703125,-3.461761474609375,0.441131591796875,1.0,2.0,1.0,4.0,2.0,85.0,event
13:35:52.698,0.7832549,0.75343496,-1.2118914,0.8388268,0.4081022,0.25871935,-2.1649864,0.58098227,0.57480264,0.5400185,-1.5631874,0.44325224,0.5752884,-0.049762886,-1.2361207,0.63460696,0.27737388,-0.09672134,-1.3817531,0.4542667,707.5458,791.75824,894.90845,800.2198,780.87915,-0.08917236328125,-0.02056884765625,0.97967529296875,2.190704345703125,-3.461761474609375,0.441131591796875,1.0,2.0,1.0,4.0,2.0,85.0,event
13:35:52.699,0.7832549,0.75343496,-1.2118914,0.8388268,0.4081022,0.25871935,-2.1649864,0.58098227,0.57480264,0.5400185,-1.5631874,0.44325224,0.5752884,-0.049762886,-1.2361207,0.63460696,0.27737388,-0.09672134,-1.3817531,0.4542667,768.3883,796.5934,1037.9487,832.4542,803.44324,-0.08917236328125,-0.02056884765625,0.97967529296875,2.190704345703125,-3.461761474609375,0.441131591796875,1.0,2.0,1.0,4.0,2.0,85.0,event
13:35:52.699,0.7832549,0.75343496,-1.2118914,0.8388268,0.4081022,0.25871935,-2.1649864,0.58098227,0.57480264,0.5400185,-1.5631874,0.44325224,0.5752884,-0.049762886,-1.2361207,0.63460696,0.27737388,-0.09672134,-1.3817531,0.4542667,823.9927,799.011,619.707,872.74725,919.0842,-0.08917236328125,-0.02056884765625,0.97967529296875,2.190704345703125,-3.461761474609375,0.441131591796875,1.0,2.0,1.0,4.0,2.0,85.0,event
13:35:52.700,0.7832549,0.75343496,-1.2118914,0.8388268,0.4081022,0.25871935,-2.1649864,0.58098227,0.57480264,0.5400185,-1.5631874,0.44325224,0.5752884,-0.049762886,-1.2361207,0.63460696,0.27737388,-0.09672134,-1.3817531,0.4542667,714.3956,794.9817,470.6227,862.27106,821.1722,-0.08917236328125,-0.02056884765625,0.97967529296875,2.190704345703125,-3.461761474609375,0.441131591796875,1.0,2.0,1.0,4.0,2.0,85.0,event
13:35:52.700,0.7832549,0.75343496,-1.2118914,0.8388268,0.4081022,0.25871935,-2.1649864,0.58098227,0.57480264,0.5400185,-1.5631874,0.44325224,0.5752884,-0.049762886,-1.2361207,0.63460696,0.27737388,-0.09672134,-1.3817531,0.4542667,786.52014,793.36993,123.69963,872.74725,1023.0403,-0.08917236328125,-0.02056884765625,0.97967529296875,2.190704345703125,-3.461761474609375,0.441131591796875,1.0,2.0,1.0,4.0,2.0,85.0,event
13:35:52.727,0.7832549,0.75343496,-1.2118914,0.8388268,0.4081022,0.25871935,-2.1649864,0.58098227,0.57480264,0.5400185,-1.5631874,0.44325224,0.5752884,-0.049762886,-1.2361207,0.63460696,0.27737388,-0.09672134,-1.3817531,0.4542667,707.9487,799.81683,815.12823,867.9121,727.28937,-0.079345703125,-0.01629638671875,0.9901123046875,2.385101318359375,-4.717864990234375,1.009368896484375,1.0,2.0,1.0,4.0,2.0,85.0,event
13:35:52.728,0.7832549,0.75343496,-1.2118914,0.8388268,0.4081022,0.25871935,-2.1649864,0.58098227,0.57480264,0.5400185,-1.5631874,0.44325224,0.5752884,-0.049762886,-1.2361207,0.63460696,0.27737388,-0.09672134,-1.3817531,0.4542667,756.7033,799.81683,650.7326,856.63007,803.44324,-0.079345703125,-0.01629638671875,0.9901123046875,2.385101318359375,-4.717864990234375,1.009368896484375,1.0,2.0,1.0,4.0,2.0,85.0,event
13:35:52.729,0.7832549,0.75343496,-1.2118914,0.8388268,0.4081022,0.25871935,-2.1649864,0.58098227,0.57480264,0.5400185,-1.5631874,0.44325224,0.5752884,-0.049762886,-1.2361207,0.63460696,0.27737388,-0.09672134,-1.3817531,0.4542667,835.2747,798.60803,794.57874,834.87177,803.8461,-0.079345703125,-0.01629638671875,0.9901123046875,2.385101318359375,-4.717864990234375,1.009368896484375,1.0,2.0,1.0,4.0,2.0,85.0,event
13:35:52.729,0.7832549,0.75343496,-1.2118914,0.8388268,0.4081022,0.25871935,-2.1649864,0.58098227,0.57480264,0.5400185,-1.5631874,0.44325224,0.5752884,-0.049762886,-1.2361207,0.63460696,0.27737388,-0.09672134,-1.3817531,0.4542667,827.619,799.011,973.47986,835.6777,782.8938,-0.079345703125,-0.01629638671875,0.9901123046875,2.385101318359375,-4.717864990234375,1.009368896484375,1.0,2.0,1.0,4.0,2.0,85.0,event
13:35:52.730,0.7832549,0.75343496,-1.2118914,0.8388268,0.4081022,0.25871935,-2.1649864,0.58098227,0.57480264,0.5400185,-1.5631874,0.44325224,0.5752884,-0.049762886,-1.2361207,0.63460696,0.27737388,-0.09672134,-1.3817531,0.4542667,726.08057,798.60803,867.9121,817.5458,759.12085,-0.079345703125,-0.01629638671875,0.9901123046875,2.385101318359375,-4.717864990234375,1.009368896484375,1.0,2.0,1.0,4.0,2.0,85.0,event
13:35:52.730,0.7832549,0.75343496,-1.2118914,0.8388268,0.4081022,0.25871935,-2.1649864,0.58098227,0.57480264,0.5400185,-1.5631874,0.44325224,0.5752884,-0.049762886,-1.2361207,0.63460696,0.27737388,-0.09672134,-1.3817531,0.4542667,702.71063,796.1905,614.0659,824.3956,874.7619,-0.079345703125,-0.01629638671875,0.9901123046875,2.385101318359375,-4.717864990234375,1.009368896484375,1.0,2.0,1.0,4.0,2.0,85.0,event
13:35:52.731,0.7832549,0.75343496,-1.2118914,0.8388268,0.4081022,0.25871935,-2.1649864,0.58098227,0.57480264,0.5400185,-1.5631874,0.44325224,0.5752884,-0.049762886,-1.2361207,0.63460696,0.27737388,-0.09672134,-1.3817531,0.4542667,764.35895,795.78754,602.381,824.3956,936.4103,-0.079345703125,-0.01629638671875,0.9901123046875,2.385101318359375,-4.717864990234375,1.009368896484375,1.0,2.0,1.0,4.0,2.0,85.0,event
13:35:52.732,0.7832549,0.7471147,-1.2118914,0.8388268,0.4081022,0.3702329,-2.1649864,0.58098227,0.57480264,0.6499545,-1.5631874,0.44325224,0.5752884,-0.055587728,-1.2361207,0.63460696,0.27737388,-0.084395856,-1.3817531,0.4542667,825.6044,799.011,873.1502,826.4103,884.0293,-0.079345703125,-0.01629638671875,0.9901123046875,2.385101318359375,-4.717864990234375,1.009368896484375,1.0,2.0,1.0,4.0,2.0,85.0,event
13:35:52.735,0.7832549,0.7471147,-1.2118914,0.8388268,0.4081022,0.3702329,-2.1649864,0.58098227,0.57480264,0.6499545,-1.5631874,0.44325224,0.5752884,-0.055587728,-1.2361207,0.63460696,0.27737388,-0.084395856,-1.3817531,0.4542667,825.2015,801.4286,1003.2967,832.8571,821.1722,-0.079345703125,-0.01629638671875,0.9901123046875,2.385101318359375,-4.717864990234375,1.009368896484375,1.0,2.0,1.0,4.0,2.0,85.0,event
13:35:52.736,0.7832549,0.7471147,-1.2118914,0.8388268,0.4081022,0.3702329,-2.1649864,0.58098227,0.57480264,0.6499545,-1.5631874,0.44325224,0.5752884,-0.055587728,-1.2361207,0.63460696,0.27737388,-0.084395856,-1.3817531,0.4542667,697.47253,788.93774,460.9524,797.8022,908.20514,-0.079345703125,-0.01629638671875,0.9901123046875,2.385101318359375,-4.717864990234375,1.009368896484375,1.0,2.0,1.0,4.0,2.0,85.0,event
13:35:52.736,0.7832549,0.7471147,-1.2118914,0.8388268,0.4081022,0.3702329,-2.1649864,0.58098227,0.57480264,0.6499545,-1.5631874,0.44325224,0.5752884,-0.055587728,-1.2361207,0.63460696,0.27737388,-0.084395856,-1.3817531,0.4542667,737.76556,789.7436,442.41757,803.0403,944.4689,-0.079345703125,-0.01629638671875,0.9901123046875,2.385101318359375,-4.717864990234375,1.009368896484375,1.0,2.0,1.0,4.0,2.0,85.0,event
13:35:52.737,0.7832549,0.7471147,-1.2118914,0.8388268,0.4081022,0.3702329,-2.1649864,0.58098227,0.57480264,0.6499545,-1.5631874,0.44325224,0.5752884,-0.055587728,-1.2361207,0.63460696,0.27737388,-0.084395856,-1.3817531,0.4542667,752.674,797.3993,965.0183,807.0696,778.86444,-0.079345703125,-0.01629638671875,0.9901123046875,2.385101318359375,-4.717864990234375,1.009368896484375,1.0,2.0,1.0,4.0,2.0,85.0,event
13:35:52.796,0.7832549,0.7471147,-1.2118914,0.8388268,0.4081022,0.3702329,-2.1649864,0.58098227,0.57480264,0.6499545,-1.5631874,0.44325224,0.5752884,-0.055587728,-1.2361207,0.63460696,0.27737388,-0.084395856,-1.3817531,0.4542667,818.3516,799.41394,834.4689,826.0073,860.2564,-0.07733154296875,-0.0152587890625,0.98321533203125,1.86920166015625,-4.50103759765625,1.24114990234375,1.0,2.0,1.0,4.0,2.0,85.0,event
13:35:52.797,0.7832549,0.7471147,-1.2118914,0.8388268,0.4081022,0.3702329,-2.1649864,0.58098227,0.57480264,0.6499545,-1.5631874,0.44325224,0.5752884,-0.055587728,-1.2361207,0.63460696,0.27737388,-0.084395856,-1.3817531,0.4542667,813.91943,797.8022,653.1502,820.7692,924.7253,-0.07733154296875,-0.0152587890625,0.98321533203125,1.86920166015625,-4.50103759765625,1.24114990234375,1.0,2.0,1.0,4.0,2.0,85.0,event
13:35:52.798,0.7832549,0.7471147,-1.2118914,0.8388268,0.4081022,0.3702329,-2.1649864,0.58098227,0.57480264,0.6499545,-1.5631874,0.44325224,0.5752884,-0.055587728,-1.2361207,0.63460696,0.27737388,-0.084395856,-1.3817531,0.4542667,737.3626,800.2198,898.1319,801.02563,798.60803,-0.07733154296875,-0.0152587890625,0.98321533203125,1.86920166015625,-4.50103759765625,1.24114990234375,1.0,2.0,1.0,4.0,2.0,85.0,event
13:35:52.799,0.7832549,0.7471147,-1.2118914,0.8388268,0.4081022,0.3702329,-2.1649864,0.58098227,0.57480264,0.6499545,-1.5631874,0.44325224,0.5752884,-0.055587728,-1.2361207,0.63460696,0.27737388,-0.084395856,-1.3817531,0.4542667,708.3516,800.6227,1080.2565,801.4286,679.34064,-0.07733154296875,-0.0152587890625,0.98321533203125,1.86920166015625,-4.50103759765625,1.24114990234375,1.0,2.0,1.0,4.0,2.0,85.0,event
13:35:52.799,0.7832549,0.7471147,-1.2118914,0.8388268,0.4081022,0.3702329,-2.1649864,0.58098227,0.57480264,0.6499545,-1.5631874,0.44325224,0.5752884,-0.055587728,-1.2361207,0.63460696,0.27737388,-0.084395856,-1.3817531,0.4542667,752.674,801.4286,1023.8461,804.65204,774.43225,-0.07733154296875,-0.0152587890625,0.98321533203125,1.86920166015625,-4.50103759765625,1.24114990234375,1.0,2.0,1.0,4.0,2.0,85.0,event
13:35:52.800,0.7832549,0.7471147,-1.2118914,0.8388268,0.4081022,0.3702329,-2.1649864,0.58098227,0.57480264,0.6499545,-1.5631874,0.44325224,0.5752884,-0.055587728,-1.2361207,0.63460696,0.27737388,-0.084395856,-1.3817531,0.4542667,806.6667,801.4286,869.5238,817.1429,918.68134,-0.07733154296875,-0.0152587890625,0.98321533203125,1.86920166015625,-4.50103759765625,1.24114990234375,1.0,2.0,1.0,4.0,2.0,85.0,event
13:35:52.800,0.7832549,0.7471147,-1.2118914,0.8388268,0.4081022,0.3702329,-2.1649864,0.58098227,0.57480264,0.6499545,-1.5631874,0.44325224,0.5752884,-0.055587728,-1.2361207,0.63460696,0.27737388,-0.084395856,-1.3817531,0.4542667,818.3516,797.8022,805.8608,819.15753,906.1905,-0.07733154296875,-0.0152587890625,0.98321533203125,1.86920166015625,-4.50103759765625,1.24114990234375,1.0,2.0,1.0,4.0,2.0,85.0,event
13:35:52.801,0.7832549,0.7471147,-1.2118914,0.8388268,0.4081022,0.3702329,-2.1649864,0.58098227,0.57480264,0.6499545,-1.5631874,0.44325224,0.5752884,-0.055587728,-1.2361207,0.63460696,0.27737388,-0.084395856,-1.3817531,0.4542667,754.68866,800.6227,1029.4872,803.8461,785.7143,-0.07733154296875,-0.0152587890625,0.98321533203125,1.86920166015625,-4.50103759765625,1.24114990234375,1.0,2.0,1.0,4.0,2.0,85.0,event
13:35:52.802,0.7832549,0.7471147,-1.2118914,0.8388268,0.4081022,0.3702329,-2.1649864,0.58098227,0.57480264,0.6499545,-1.5631874,0.44325224,0.5752884,-0.055587728,-1.2361207,0.63460696,0.27737388,-0.084395856,-1.3817531,0.4542667,696.26373,800.2198,891.685,798.20514,790.14655,-0.07733154296875,-0.0152587890625,0.98321533203125,1.86920166015625,-4.50103759765625,1.24114990234375,1.0,2.0,1.0,4.0,2.0,85.0,event
13:35:52.803,0.7832549,0.7471147,-1.2118914,0.8388268,0.4081022,0.3702329,-2.1649864,0.58098227,0.57480264,0.6499545,-1.5631874,0.44325224,0.5752884,-0.055587728,-1.2361207,0.63460696,0.27737388,-0.084395856,-1.3817531,0.4542667,722.0513,798.20514,416.63004,813.91943,997.25275,-0.07733154296875,-0.0152587890625,0.98321533203125,1.86920166015625,-4.50103759765625,1.24114990234375,1.0,2.0,1.0,4.0,2.0,85.0,event
13:35:52.803,0.7832549,0.7471147,-1.2118914,0.8388268,0.4081022,0.3702329,-2.1649864,0.58098227,0.57480264,0.6499545,-1.5631874,0.44325224,0.5752884,-0.055587728,-1.2361207,0.63460696,0.27737388,-0.084395856,-1.3817531,0.4542667,811.0989,805.4579,936.4103,835.2747,846.9597,-0.07733154296875,-0.0152587890625,0.98321533203125,1.86920166015625,-4.50103759765625,1.24114990234375,1.0,2.0,1.0,4.0,2.0,85.0,event
13:35:52.804,0.7832549,0.7471147,-1.2118914,0.8388268,0.4081022,0.3702329,-2.1649864,0.58098227,0.57480264,0.6499545,-1.5631874,0.44325224,0.5752884,-0.055587728,-1.2361207,0.63460696,0.27737388,-0.084395856,-1.3817531,0.4542667,845.34796,808.68134,1282.1245,819.9634,776.8498,-0.07733154296875,-0.0152587890625,0.98321533203125,1.86920166015625,-4.50103759765625,1.24114990234375,1.0,2.0,1.0,4.0,2.0,85.0,event
13:35:52.829,0.7832549,0.7471147,-1.2118914,0.8388268,0.4081022,0.3702329,-2.1649864,0.58098227,0.57480264,0.6499545,-1.5631874,0.44325224,0.5752884,-0.055587728,-1.2361207,0.63460696,0.27737388,-0.084395856,-1.3817531,0.4542667,770.40295,802.6374,974.2857,792.96704,905.78754,-0.07733154296875,-0.0152587890625,0.98321533203125,1.86920166015625,-4.50103759765625,1.24114990234375,1.0,2.0,1.0,4.0,2.0,85.0,event
13:35:52.830,0.7832549,0.7471147,-1.2118914,0.8388268,0.4081022,0.3702329,-2.1649864,0.58098227,0.57480264,0.6499545,-1.5631874,0.44325224,0.5752884,-0.055587728,-1.2361207,0.63460696,0.27737388,-0.084395856,-1.3817531,0.4542667,715.2015,807.47253,962.1978,777.25275,786.9231,-0.07733154296875,-0.0152587890625,0.98321533203125,1.86920166015625,-4.50103759765625,1.24114990234375,1.0,2.0,1.0,4.0,2.0,85.0,event
13:35:52.831,0.7832549,0.7471147,-1.2118914,0.8388268,0.4081022,0.3702329,-2.1649864,0.58098227,0.57480264,0.6499545,-1.5631874,0.44325224,0.5752884,-0.055587728,-1.2361207,0.63460696,0.27737388,-0.084395856,-1.3817531,0.4542667,727.28937,805.4579,1025.4579,793.7729,746.2271,-0.07733154296875,-0.0152587890625,0.98321533203125,1.86920166015625,-4.50103759765625,1.24114990234375,1.0,2.0,1.0,4.0,2.0,85.0,event
13:35:52.831,0.7832549,0.7471147,-1.2118914,0.8388268,0.4081022,0.3702329,-2.1649864,0.58098227,0.57480264,0.6499545,-1.5631874,0.44325224,0.5752884,-0.055587728,-1.2361207,0.63460696,0.27737388,-0.084395856,-1.3817531,0.4542667,780.07324,792.96704,910.2198,808.68134,821.5751,-0.07733154296875,-0.0152587890625,0.98321533203125,1.86920166015625,-4.50103759765625,1.24114990234375,1.0,2.0,1.0,4.0,2.0,85.0,event
13:35:52.832,0.7832549,0.7471147,-1.2118914,0.8388268,0.4081022,0.3702329,-2.1649864,0.58098227,0.57480264,0.6499545,-1.5631874,0.44325224,0.5752884,-0.055587728,-1.2361207,0.63460696,0.27737388,-0.084395856,-1.3817531,0.4542667,834.87177,801.4286,702.71063,803.44324,877.5824,-0.07733154296875,-0.0152587890625,0.98321533203125,1.86920166015625,-4.50103759765625,1.24114990234375,1.0,2.0,1.0,4.0,2.0,85.0,event
13:35:52.833,0.7832549,0.7471147,-1.2118914,0.8388268,0.4081022,0.3702329,-2.1649864,0.58098227,0.57480264,0.6499545,-1.5631874,0.44325224,0.5752884,-0.055587728,-1.2361207,0.63460696,0.27737388,-0.084395856,-1.3817531,0.4542667,777.25275,809.4872,590.696,796.5934,884.83514,-0.07733154296875,-0.0152587890625,0.98321533203125,1.86920166015625,-4.50103759765625,1.24114990234375,1.0,2.0,1.0,4.0,2.0,85.0,event
13:35:52.834,0.7832549,0.7471147,-1.2118914,0.8388268,0.4081022,0.3702329,-2.1649864,0.58098227,0.57480264,0.6499545,-1.5631874,0.44325224,0.5752884,-0.055587728,-1.2361207,0.63460696,0.27737388,-0.084395856,-1.3817531,0.4542667,719.6337,804.2491,686.99634,786.1172,797.8022,-0.07733154296875,-0.0152587890625,0.98321533203125,1.86920166015625,-4.50103759765625,1.24114990234375,1.0,2.0,1.0,4.0,2.0,85.0,event
13:35:52.834,0.7832549,0.7471147,-1.2118914,0.8388268,0.4081022,0.3702329,-2.1649864,0.58098227,0.57480264,0.6499545,-1.5631874,0.44325224,0.5752884,-0.055587728,-1.2361207,0.63460696,0.27737388,-0.084395856,-1.3817531,0.4542667,713.9927,797.8022,899.7436,771.6117,694.2491,-0.07733154296875,-0.0152587890625,0.98321533203125,1.86920166015625,-4.50103759765625,1.24114990234375,1.0,2.0,1.0,4.0,2.0,85.0,event
13:35:52.835,0.7832549,0.7471147,-1.2118914,0.8388268,0.4081022,0.3702329,-2.1649864,0.58098227,0.57480264,0.6499545,-1.5631874,0.44325224,0.5752884,-0.055587728,-1.2361207,0.63460696,0.27737388,-0.084395856,-1.3817531,0.4542667,753.0769,794.57874,644.2857,795.78754,894.5055,-0.07733154296875,-0.0152587890625,0.98321533203125,1.86920166015625,-4.50103759765625,1.24114990234375,1.0,2.0,1.0,4.0,2.0,85.0,event
13:35:52.836,0.7832549,0.7516503,-1.2118914,0.8388268,0.4081022,0.44792676,-2.1649864,0.58098227,0.57480264,0.6733676,-1.5631874,0.44325224,0.5752884,-0.059995327,-1.2361207,0.63460696,0.27737388,-0.07992483,-1.3817531,0.4542667,830.4396,799.011,641.8681,827.619,935.6044,-0.07733154296875,-0.0152587890625,0.98321533203125,1.86920166015625,-4.50103759765625,1.24114990234375,1.0,2.0,1.0,4.0,2.0,85.0,event
13:35:52.840,0.7832549,0.7516503,-1.2118914,0.8388268,0.4081022,0.44792676,-2.1649864,0.58098227,0.57480264,0.6733676,-1.5631874,0.44325224,0.5752884,-0.059995327,-1.2361207,0.63460696,0.27737388,-0.07992483,-1.3817531,0.4542667,805.8608,805.4579,1058.0952,793.36993,681.75824,-0.07733154296875,-0.0152587890625,0.98321533203125,1.86920166015625,-4.50103759765625,1.24114990234375,1.0,2.0,1.0,4.0,2.0,85.0,event
13:35:52.841,0.7832549,0.7516503,-1.2118914,0.8388268,0.4081022,0.44792676,-2.1649864,0.58098227,0.57480264,0.6733676,-1.5631874,0.44325224,0.5752884,-0.059995327,-1.2361207,0.63460696,0.27737388,-0.07992483,-1.3817531,0.4542667,719.2308,805.4579,996.04395,780.4762,710.7692,-0.07733154296875,-0.0152587890625,0.98321533203125,1.86920166015625,-4.50103759765625,1.24114990234375,1.0,2.0,1.0,4.0,2.0,85.0,event
13:35:52.869,0.7832549,0.7516503,-1.2118914,0.8388268,0.4081022,0.44792676,-2.1649864,0.58098227,0.57480264,0.6733676,-1.5631874,0.44325224,0.5752884,-0.059995327,-1.2361207,0.63460696,0.27737388,-0.07992483,-1.3817531,0.4542667,723.663,801.4286,877.98535,789.7436,744.21246,-0.07666015625,-0.0172119140625,0.9866943359375,1.9439697265625,-3.87298583984375,1.03179931640625,1.0,2.0,1.0,4.0,2.0,85.0,event
13:35:52.870,0.7832549,0.7516503,-1.2118914,0.8388268,0.4081022,0.44792676,-2.1649864,0.58098227,0.57480264,0.6733676,-1.5631874,0.44325224,0.5752884,-0.059995327,-1.2361207,0.63460696,0.27737388,-0.07992483,-1.3817531,0.4542667,796.5934,799.011,1073.8096,821.1722,688.60803,-0.07666015625,-0.0172119140625,0.9866943359375,1.9439697265625,-3.87298583984375,1.03179931640625,1.0,2.0,1.0,4.0,2.0,85.0,event
13:35:52.871,0.7832549,0.7516503,-1.2118914,0.8388268,0.4081022,0.44792676,-2.1649864,0.58098227,0.57480264,0.6733676,-1.5631874,0.44325224,0.5752884,-0.059995327,-1.2361207,0.63460696,0.27737388,-0.07992483,-1.3817531,0.4542667,869.12085,798.60803,1206.7766,836.4835,705.5311,-0.07666015625,-0.0172119140625,0.9866943359375,1.9439697265625,-3.87298583984375,1.03179931640625,1.0,2.0,1.0,4.0,2.0,85.0,event
13:35:52.872,0.7832549,0.7516503,-1.2118914,0.8388268,0.4081022,0.44792676,-2.1649864,0.58098227,0.57480264,0.6733676,-1.5631874,0.44325224,0.5752884,-0.059995327,-1.2361207,0.63460696,0.27737388,-0.07992483,-1.3817531,0.4542667,803.8461,795.78754,1062.9304,802.6374,797.3993,-0.07666015625,-0.0172119140625,0.9866943359375,1.9439697265625,-3.87298583984375,1.03179931640625,1.0,2.0,1.0,4.0,2.0,85.0,event
13:35:52.873,0.7832549,0.7516503,-1.2118914,0.8388268,0.4081022,0.44792676,-2.1649864,0.58098227,0.57480264,0.6733676,-1.5631874,0.44325224,0.5752884,-0.059995327,-1.2361207,0.63460696,0.27737388,-0.07992483,-1.3817531,0.4542667,707.1429,796.5934,874.7619,794.17584,804.2491,-0.07666015625,-0.0172119140625,0.9866943359375,1.9439697265625,-3.87298583984375,1.03179931640625,1.0,2.0,1.0,4.0,2.0,85.0,event
13:35:52.873,0.7832549,0.7516503,-1.2118914,0.8388268,0.4081022,0.44792676,-2.1649864,0.58098227,0.57480264,0.6733676,-1.5631874,0.44325224,0.5752884,-0.059995327,-1.2361207,0.63460696,0.27737388,-0.07992483,-1.3817531,0.4542667,730.10986,800.2198,796.99634,790.9524,815.5311,-0.07666015625,-0.0172119140625,0.9866943359375,1.9439697265625,-3.87298583984375,1.03179931640625,1.0,2.0,1.0,4.0,2.0,85.0,event
13:35:52.874,0.7832549,0.7516503,-1.2118914,0.8388268,0.4081022,0.44792676,-2.1649864,0.58098227,0.57480264,0.6733676,-1.5631874,0.44325224,0.5752884,-0.059995327,-1.2361207,0.63460696,0.27737388,-0.07992483,-1.3817531,0.4542667,788.1319,796.99634,875.16486,796.5934,850.58606,-0.07666015625,-0.0172119140625,0.9866943359375,1.9439697265625,-3.87298583984375,1.03179931640625,1.0,2.0,1.0,4.0,2.0,85.0,event
13:35:52.875,0.7832549,0.7516503,-1.2118914,0.8388268,0.4081022,0.44792676,-2.1649864,0.58098227,0.57480264,0.6733676,-1.5631874,0.44325224,0.5752884,-0.059995327,-1.2361207,0.63460696,0.27737388,-0.07992483,-1.3817531,0.4542667,844.5421,795.78754,799.41394,832.0513,862.27106,-0.07666015625,-0.0172119140625,0.9866943359375,1.9439697265625,-3.87298583984375,1.03179931640625,1.0,2.0,1.0,4.0,2.0,85.0,event
13:35:52.875,0.7832549,0.7516503,-1.2118914,0.8388268,0.4081022,0.44792676,-2.1649864,0.58098227,0.57480264,0.6733676,-1.5631874,0.44325224,0.5752884,-0.059995327,-1.2361207,0.63460696,0.27737388,-0.07992483,-1.3817531,0.4542667,817.9487,796.99634,250.62271,824.7985,1035.1282,-0.07666015625,-0.0172119140625,0.9866943359375,1.9439697265625,-3.87298583984375,1.03179931640625,1.0,2.0,1.0,4.0,2.0,85.0,event
13:35:52.876,0.7832549,0.7516503,-1.2118914,0.8388268,0.4081022,0.44792676,-2.1649864,0.58098227,0.57480264,0.6733676,-1.5631874,0.44325224,0.5752884,-0.059995327,-1.2361207,0.63460696,0.27737388,-0.07992483,-1.3817531,0.4542667,748.6447,802.23444,476.66666,789.7436,842.1245,-0.07666015625,-0.0172119140625,0.9866943359375,1.9439697265625,-3.87298583984375,1.03179931640625,1.0,2.0,1.0,4.0,2.0,85.0,event
13:35:52.877,0.7832549,0.7516503,-1.2118914,0.8388268,0.4081022,0.44792676,-2.1649864,0.58098227,0.57480264,0.6733676,-1.5631874,0.44325224,0.5752884,-0.059995327,-1.2361207,0.63460696,0.27737388,-0.07992483,-1.3817531,0.4542667,723.2601,796.5934,977.50916,799.011,597.5458,-0.07666015625,-0.0172119140625,0.9866943359375,1.9439697265625,-3.87298583984375,1.03179931640625,1.0,2.0,1.0,4.0,2.0,85.0,event
13:35:52.878,0.7832549,0.7516503,-1.2118914,0.8388268,0.4081022,0.44792676,-2.1649864,0.58098227,0.57480264,0.6733676,-1.5631874,0.44325224,0.5752884,-0.059995327,-1.2361207,0.63460696,0.27737388,-0.07992483,-1.3817531,0.4542667,774.0293,794.9817,932.381,813.1135,688.20514,-0.07666015625,-0.0172119140625,0.9866943359375,1.9439697265625,-3.87298583984375,1.03179931640625,1.0,2.0,1.0,4.0,2.0,85.0,event
13:35:52.927,0.7832549,0.7516503,-1.2118914,0.8388268,0.4081022,0.44792676,-2.1649864,0.58098227,0.57480264,0.6733676,-1.5631874,0.44325224,0.5752884,-0.059995327,-1.2361207,0.63460696,0.27737388,-0.07992483,-1.3817531,0.4542667,853.4066,799.41394,1046.4103,827.619,760.32965,-0.07891845703125,-0.01513671875,0.989990234375,2.16827392578125,-2.953338623046875,1.114044189453125,1.0,2.0,1.0,4.0,2.0,85.0,event
13:35:52.928,0.7832549,0.7516503,-1.2118914,0.8388268,0.4081022,0.44792676,-2.1649864,0.58098227,0.57480264,0.6733676,-1.5631874,0.44325224,0.5752884,-0.059995327,-1.2361207,0.63460696,0.27737388,-0.07992483,-1.3817531,0.4542667,749.45056,798.60803,1027.8755,796.99634,708.7546,-0.07891845703125,-0.01513671875,0.989990234375,2.16827392578125,-2.953338623046875,1.114044189453125,1.0,2.0,1.0,4.0,2.0,85.0,event
13:35:52.928,0.7832549,0.7516503,-1.2118914,0.8388268,0.4081022,0.44792676,-2.1649864,0.58098227,0.57480264,0.6733676,-1.5631874,0.44325224,0.5752884,-0.059995327,-1.2361207,0.63460696,0.27737388,-0.07992483,-1.3817531,0.4542667,838.0952,796.99634,1182.6007,813.91943,740.18317,-0.07891845703125,-0.01513671875,0.989990234375,2.16827392578125,-2.953338623046875,1.114044189453125,1.0,2.0,1.0,4.0,2.0,85.0,event
13:35:52.929,0.7832549,0.7516503,-1.2118914,0.8388268,0.4081022,0.44792676,-2.1649864,0.58098227,0.57480264,0.6733676,-1.5631874,0.44325224,0.5752884,-0.059995327,-1.2361207,0.63460696,0.27737388,-0.07992483,-1.3817531,0.4542667,712.381,793.7729,782.8938,796.1905,716.0073,-0.07891845703125,-0.01513671875,0.989990234375,2.16827392578125,-2.953338623046875,1.114044189453125,1.0,2.0,1.0,4.0,2.0,85.0,event
13:35:52.930,0.7832549,0.7516503,-1.2118914,0.8388268,0.4081022,0.44792676,-2.1649864,0.58098227,0.57480264,0.6733676,-1.5631874,0.44325224,0.5752884,-0.059995327,-1.2361207,0.63460696,0.27737388,-0.07992483,-1.3817531,0.4542667,770.40295,792.5641,921.9048,797.8022,676.9231,-0.07891845703125,-0.01513671875,0.989990234375,2.16827392578125,-2.953338623046875,1.114044189453125,1.0,2.0,1.0,4.0,2.0,85.0,event
13:35:52.930,0.7832549,0.7516503,-1.2118914,0.8388268,0.4081022,0.44792676,-2.1649864,0.58098227,0.57480264,0.6733676,-1.5631874,0.44325224,0.5752884,-0.059995327,-1.2361207,0.63460696,0.27737388,-0.07992483,-1.3817531,0.4542667,851.79486,796.5934,998.0586,818.7546,779.67035,-0.07891845703125,-0.01513671875,0.989990234375,2.16827392578125,-2.953338623046875,1.114044189453125,1.0,2.0,1.0,4.0,2.0,85.0,event
13:35:52.931,0.7832549,0.7516503,-1.2118914,0.8388268,0.4081022,0.44792676,-2.1649864,0.58098227,0.57480264,0.6733676,-1.5631874,0.44325224,0.5752884,-0.059995327,-1.2361207,0.63460696,0.27737388,-0.07992483,-1.3817531,0.4542667,849.3773,803.44324,821.1722,803.44324,894.5055,-0.07891845703125,-0.01513671875,0.989990234375,2.16827392578125,-2.953338623046875,1.114044189453125,1.0,2.0,1.0,4.0,2.0,85.0,event
13:35:52.931,0.7832549,0.7516503,-1.2118914,0.8388268,0.4081022,0.44792676,-2.1649864,0.58098227,0.57480264,0.6733676,-1.5631874,0.44325224,0.5752884,-0.059995327,-1.2361207,0.63460696,0.27737388,-0.07992483,-1.3817531,0.4542667,766.3736,804.65204,426.7033,782.0879,956.9597,-0.07891845703125,-0.01513671875,0.989990234375,2.16827392578125,-2.953338623046875,1.114044189453125,1.0,2.0,1.0,4.0,2.0,85.0,event
13:35:52.932,0.7832549,0.7516503,-1.2118914,0.8388268,0.4081022,0.44792676,-2.1649864,0.58098227,0.57480264,0.6733676,-1.5631874,0.44325224,0.5752884,-0.059995327,-1.2361207,0.63460696,0.27737388,-0.07992483,-1.3817531,0.4542667,745.42126,805.4579,381.97803,799.011,904.57874,-0.07891845703125,-0.01513671875,0.989990234375,2.16827392578125,-2.953338623046875,1.114044189453125,1.0,2.0,1.0,4.0,2.0,85.0,event
13:35:52.933,0.7832549,0.7516503,-1.2118914,0.8388268,0.4081022,0.44792676,-2.1649864,0.58098227,0.57480264,0.6733676,-1.5631874,0.44325224,0.5752884,-0.059995327,-1.2361207,0.63460696,0.27737388,-0.07992483,-1.3817531,0.4542667,798.60803,804.65204,844.94507,812.71063,722.0513,-0.07891845703125,-0.01513671875,0.989990234375,2.16827392578125,-2.953338623046875,1.114044189453125,1.0,2.0,1.0,4.0,2.0,85.0,event
13:35:52.933,0.7832549,0.7516503,-1.2118914,0.8388268,0.4081022,0.44792676,-2.1649864,0.58098227,0.57480264,0.6733676,-1.5631874,0.44325224,0.5752884,-0.059995327,-1.2361207,0.63460696,0.27737388,-0.07992483,-1.3817531,0.4542667,849.3773,798.60803,1021.4286,825.2015,713.5897,-0.07891845703125,-0.01513671875,0.989990234375,2.16827392578125,-2.953338623046875,1.114044189453125,1.0,2.0,1.0,4.0,2.0,85.0,event
13:35:52.934,0.7832549,0.7541205,-1.2118914,0.8388268,0.4081022,0.48550713,-2.1649864,0.58098227,0.57480264,0.6733676,-1.5631874,0.44325224,0.5752884,-0.06818607,-1.2361207,0.63460696,0.27737388,-0.088572785,-1.3817531,0.4542667,846.55676,798.60803,609.2308,825.6044,913.44324,-0.07891845703125,-0.01513671875,0.989990234375,2.16827392578125,-2.953338623046875,1.114044189453125,1.0,2.0,1.0,4.0,2.0,85.0,event
13:35:52.961,0.7832549,0.7541205,-1.2118914,0.8388268,0.4081022,0.48550713,-2.1649864,0.58098227,0.57480264,0.6733676,-1.5631874,0.44325224,0.5752884,-0.06818607,-1.2361207,0.63460696,0.27737388,-0.088572785,-1.3817531,0.4542667,776.4469,799.41394,736.9597,794.9817,802.6374,-0.07855224609375,-0.01068115234375,0.98956298828125,2.429962158203125,-1.996307373046875,1.607513427734375,1.0,2.0,1.0,4.0,2.0,85.0,event
13:35:52.962,0.7832549,0.7541205,-1.2118914,0.8388268,0.4081022,0.48550713,-2.1649864,0.58098227,0.57480264,0.6733676,-1.5631874,0.44325224,0.5752884,-0.06818607,-1.2361207,0.63460696,0.27737388,-0.088572785,-1.3817531,0.4542667,746.63007,794.9817,1071.7949,792.96704,674.5055,-0.07855224609375,-0.01068115234375,0.98956298828125,2.429962158203125,-1.996307373046875,1.607513427734375,1.0,2.0,1.0,4.0,2.0,85.0,event
13:35:52.963,0.7832549,0.7541205,-1.2118914,0.8388268,0.4081022,0.48550713,-2.1649864,0.58098227,0.57480264,0.6733676,-1.5631874,0.44325224,0.5752884,-0.06818607,-1.2361207,0.63460696,0.27737388,-0.088572785,-1.3817531,0.4542667,781.685,791.75824,1006.9231,815.5311,697.8755,-0.07855224609375,-0.01068115234375,0.98956298828125,2.429962158203125,-1.996307373046875,1.607513427734375,1.0,2.0,1.0,4.0,2.0,85.0,event
13:35:52.963,0.7832549,0.7541205,-1.2118914,0.8388268,0.4081022,0.48550713,-2.1649864,0.58098227,0.57480264,0.6733676,-1.5631874,0.44325224,0.5752884,-0.06818607,-1.2361207,0.63460696,0.27737388,-0.088572785,-1.3817531,0.4542667,844.1392,796.1905,1006.9231,817.9487,720.0366,-0.07855224609375,-0.01068115234375,0.98956298828125,2.429962158203125,-1.996307373046875,1.607513427734375,1.0,2.0,1.0,4.0,2.0,85.0,event
13:35:52.964,0.7832549,0.7541205,-1.2118914,0.8388268,0.4081022,0.48550713,-2.1649864,0.58098227,0.57480264,0.6733676,-1.5631874,0.44325224,0.5752884,-0.06818607,-1.2361207,0.63460696,0.27737388,-0.088572785,-1.3817531,0.4542667,868.71796,803.44324,1099.597,817.1429,764.7619,-0.07855224609375,-0.01068115234375,0.98956298828125,2.429962158203125,-1.996307373046875,1.607513427734375,1.0,2.0,1.0,4.0,2.0,85.0,event
13:35:52.964,0.7832549,0.7541205,-1.2118914,0.8388268,0.4081022,0.48550713,-2.1649864,0.58098227,0.57480264,0.6733676,-1.5631874,0.44325224,0.5752884,-0.06818607,-1.2361207,0.63460696,0.27737388,-0.088572785,-1.3817531,0.4542667,802.6374,806.6667,924.3223,793.7729,773.22345,-0.07855224609375,-0.01068115234375,0.98956298828125,2.429962158203125,-1.996307373046875,1.607513427734375,1.0,2.0,1.0,4.0,2.0,85.0,event
13:35:52.965,0.7832549,0.7541205,-1.2118914,0.8388268,0.4081022,0.48550713,-2.1649864,0.58098227,0.57480264,0.6733676,-1.5631874,0.44325224,0.5752884,-0.06818607,-1.2361207,0.63460696,0.27737388,-0.088572785,-1.3817531,0.4542667,737.76556,802.6374,603.1868,785.7143,825.6044,-0.07855224609375,-0.01068115234375,0.98956298828125,2.429962158203125,-1.996307373046875,1.607513427734375,1.0,2.0,1.0,4.0,2.0,85.0,event
13:35:52.966,0.7832549,0.7541205,-1.2118914,0.8388268,0.4081022,0.48550713,-2.1649864,0.58098227,0.57480264,0.6733676,-1.5631874,0.44325224,0.5752884,-0.06818607,-1.2361207,0.63460696,0.27737388,-0.088572785,-1.3817531,0.4542667,758.71796,803.44324,360.2198,777.25275,1019.011,-0.07855224609375,-0.01068115234375,0.98956298828125,2.429962158203125,-1.996307373046875,1.607513427734375,1.0,2.0,1.0,4.0,2.0,85.0,event
13:35:52.966,0.7832549,0.7541205,-1.2118914,0.8388268,0.4081022,0.48550713,-2.1649864,0.58098227,0.57480264,0.6733676,-1.5631874,0.44325224,0.5752884,-0.06818607,-1.2361207,0.63460696,0.27737388,-0.088572785,-1.3817531,0.4542667,832.4542,812.3077,880.40295,791.3553,846.9597,-0.07855224609375,-0.01068115234375,0.98956298828125,2.429962158203125,-1.996307373046875,1.607513427734375,1.0,2.0,1.0,4.0,2.0,85.0,event
13:35:52.967,0.7832549,0.7541205,-1.2118914,0.8388268,0.4081022,0.48550713,-2.1649864,0.58098227,0.57480264,0.6733676,-1.5631874,0.44325224,0.5752884,-0.06818607,-1.2361207,0.63460696,0.27737388,-0.088572785,-1.3817531,0.4542667,805.05493,815.5311,963.8095,789.34064,765.16486,-0.07855224609375,-0.01068115234375,0.98956298828125,2.429962158203125,-1.996307373046875,1.607513427734375,1.0,2.0,1.0,4.0,2.0,85.0,event
13:35:52.967,0.7832549,0.7541205,-1.2118914,0.8388268,0.4081022,0.48550713,-2.1649864,0.58098227,0.57480264,0.6733676,-1.5631874,0.44325224,0.5752884,-0.06818607,-1.2361207,0.63460696,0.27737388,-0.088572785,-1.3817531,0.4542667,867.50916,813.5165,1221.2821,804.65204,693.0403,-0.07855224609375,-0.01068115234375,0.98956298828125,2.429962158203125,-1.996307373046875,1.607513427734375,1.0,2.0,1.0,4.0,2.0,85.0,event
13:35:52.968,0.7832549,0.7541205,-1.2118914,0.8388268,0.4081022,0.48550713,-2.1649864,0.58098227,0.57480264,0.6733676,-1.5631874,0.44325224,0.5752884,-0.06818607,-1.2361207,0.63460696,0.27737388,-0.088572785,-1.3817531,0.4542667,744.61536,809.89014,902.5641,784.5055,760.32965,-0.07855224609375,-0.01068115234375,0.98956298828125,2.429962158203125,-1.996307373046875,1.607513427734375,1.0,2.0,1.0,4.0,2.0,85.0,event
13:35:53.031,0.7832549,0.7541205,-1.2118914,0.8388268,0.4081022,0.48550713,-2.1649864,0.58098227,0.57480264,0.6733676,-1.5631874,0.44325224,0.5752884,-0.06818607,-1.2361207,0.63460696,0.27737388,-0.088572785,-1.3817531,0.4542667,765.9707,804.65204,965.0183,799.41394,812.3077,-0.086181640625,-0.01483154296875,0.9794921875,1.443023681640625,-2.67669677734375,1.278533935546875,1.0,2.0,1.0,4.0,2.0,85.0,event
13:35:53.032,0.7832549,0.7541205,-1.2118914,0.8388268,0.4081022,0.48550713,-2.1649864,0.58098227,0.57480264,0.6733676,-1.5631874,0.44325224,0.5752884,-0.06818607,-1.2361207,0.63460696,0.27737388,-0.088572785,-1.3817531,0.4542667,828.4249,805.05493,1154.7986,817.9487,784.10254,-0.086181640625,-0.01483154296875,0.9794921875,1.443023681640625,-2.67669677734375,1.278533935546875,1.0,2.0,1.0,4.0,2.0,85.0,event
13:35:53.032,0.7832549,0.7541205,-1.2118914,0.8388268,0.4081022,0.48550713,-2.1649864,0.58098227,0.57480264,0.6733676,-1.5631874,0.44325224,0.5752884,-0.06818607,-1.2361207,0.63460696,0.27737388,-0.088572785,-1.3817531,0.4542667,885.2381,805.8608,1006.9231,824.7985,877.5824,-0.086181640625,-0.01483154296875,0.9794921875,1.443023681640625,-2.67669677734375,1.278533935546875,1.0,2.0,1.0,4.0,2.0,85.0,event
13:35:53.033,0.7832549,0.7541205,-1.2118914,0.8388268,0.4081022,0.48550713,-2.1649864,0.58098227,0.57480264,0.6733676,-1.5631874,0.44325224,0.5752884,-0.06818607,-1.2361207,0.63460696,0.27737388,-0.088572785,-1.3817531,0.4542667,839.707,811.50183,884.43225,816.337,849.3773,-0.086181640625,-0.01483154296875,0.9794921875,1.443023681640625,-2.67669677734375,1.278533935546875,1.0,2.0,1.0,4.0,2.0,85.0,event
13:35:53.034,0.7832549,0.7541205,-1.2118914,0.8388268,0.4081022,0.48550713,-2.1649864,0.58098227,0.57480264,0.6733676,-1.5631874,0.44325224,0.5752884,-0.06818607,-1.2361207,0.63460696,0.27737388,-0.088572785,-1.3817531,0.4542667,755.89746,814.3223,1035.5311,803.44324,722.8571,-0.086181640625,-0.01483154296875,0.9794921875,1.443023681640625,-2.67669677734375,1.278533935546875,1.0,2.0,1.0,4.0,2.0,85.0,event
13:35:53.034,0.7832549,0.7541205,-1.2118914,0.8388268,0.4081022,0.48550713,-2.1649864,0.58098227,0.57480264,0.6733676,-1.5631874,0.44325224,0.5752884,-0.06818607,-1.2361207,0.63460696,0.27737388,-0.088572785,-1.3817531,0.4542667,765.56775,807.0696,979.92676,799.81683,804.2491,-0.086181640625,-0.01483154296875,0.9794921875,1.443023681640625,-2.67669677734375,1.278533935546875,1.0,2.0,1.0,4.0,2.0,85.0,event
13:35:53.035,0.7832549,0.7541205,-1.2118914,0.8388268,0.4081022,0.48550713,-2.1649864,0.58098227,0.57480264,0.6733676,-1.5631874,0.44325224,0.5752884,-0.06818607,-1.2361207,0.63460696,0.27737388,-0.088572785,-1.3817531,0.4542667,821.5751,803.8461,688.20514,815.9341,1059.3041,-0.086181640625,-0.01483154296875,0.9794921875,1.443023681640625,-2.67669677734375,1.278533935546875,1.0,2.0,1.0,4.0,2.0,85.0,event
13:35:53.036,0.7832549,0.7541205,-1.2118914,0.8388268,0.4081022,0.48550713,-2.1649864,0.58098227,0.57480264,0.6733676,-1.5631874,0.44325224,0.5752884,-0.06818607,-1.2361207,0.63460696,0.27737388,-0.088572785,-1.3817531,0.4542667,872.74725,810.293,717.619,823.1868,1069.7803,-0.086181640625,-0.01483154296875,0.9794921875,1.443023681640625,-2.67669677734375,1.278533935546875,1.0,2.0,1.0,4.0,2.0,85.0,event
13:35:53.036,0.7832549,0.7541205,-1.2118914,0.8388268,0.4081022,0.48550713,-2.1649864,0.58098227,0.57480264,0.6733676,-1.5631874,0.44325224,0.5752884,-0.06818607,-1.2361207,0.63460696,0.27737388,-0.088572785,-1.3817531,0.4542667,847.3626,807.8755,1136.2638,814.7253,759.5238,-0.086181640625,-0.01483154296875,0.9794921875,1.443023681640625,-2.67669677734375,1.278533935546875,1.0,2.0,1.0,4.0,2.0,85.0,event
13:35:53.037,0.7832549,0.7541205,-1.2118914,0.8388268,0.4081022,0.48550713,-2.1649864,0.58098227,0.57480264,0.6733676,-1.5631874,0.44325224,0.5752884,-0.06818607,-1.2361207,0.63460696,0.27737388,-0.088572785,-1.3817531,0.4542667,767.5824,803.8461,1053.663,804.2491,721.6484,-0.086181640625,-0.01483154296875,0.9794921875,1.443023681640625,-2.67669677734375,1.278533935546875,1.0,2.0,1.0,4.0,2.0,85.0,event
13:35:53.039,0.7832549,0.7541205,-1.2118914,0.8388268,0.4081022,0.48550713,-2.1649864,0.58098227,0.57480264,0.6733676,-1.5631874,0.44325224,0.5752884,-0.06818607,-1.2361207,0.63460696,0.27737388,-0.088572785,-1.3817531,0.4542667,757.9121,808.2784,931.1722,796.99634,746.2271,-0.086181640625,-0.01483154296875,0.9794921875,1.443023681640625,-2.67669677734375,1.278533935546875,1.0,2.0,1.0,4.0,2.0,85.0,event
13:35:53.040,0.7832549,0.7541205,-1.2118914,0.8388268,0.4081022,0.48550713,-2.1649864,0.58098227,0.57480264,0.6733676,-1.5631874,0.44325224,0.5752884,-0.06818607,-1.2361207,0.63460696,0.27737388,-0.088572785,-1.3817531,0.4542667,810.293,813.5165,1134.249,818.7546,659.59705,-0.086181640625,-0.01483154296875,0.9794921875,1.443023681640625,-2.67669677734375,1.278533935546875,1.0,2.0,1.0,4.0,2.0,85.0,event
13:35:53.065,0.7832549,0.7541205,-1.2118914,0.8388268,0.4081022,0.48550713,-2.1649864,0.58098227,0.57480264,0.6733676,-1.5631874,0.44325224,0.5752884,-0.06818607,-1.2361207,0.63460696,0.27737388,-0.088572785,-1.3817531,0.4542667,873.95605,813.1135,1303.4799,821.1722,720.4396,-0.086181640625,-0.01483154296875,0.9794921875,1.443023681640625,-2.67669677734375,1.278533935546875,1.0,2.0,1.0,4.0,2.0,85.0,event
13:35:53.066,0.7832549,0.75093156,-1.2118914,0.8388268,0.4081022,0.49651337,-2.1649864,0.58098227,0.57480264,0.6733676,-1.5631874,0.44325224,0.5752884,-0.08099936,-1.2361207,0.63460696,0.27737388,-0.10594019,-1.3817531,0.4542667,833.2601,807.0696,1163.2601,803.0403,796.5934,-0.086181640625,-0.01483154296875,0.9794921875,1.443023681640625,-2.67669677734375,1.278533935546875,1.0,2.0,1.0,4.0,2.0,85.0,event
13:35:53.071,0.7832549,0.75093156,-1.2118914,0.8388268,0.4081022,0.49651337,-2.1649864,0.58098227,0.57480264,0.6733676,-1.5631874,0.44325224,0.5752884,-0.08099936,-1.2361207,0.63460696,0.27737388,-0.10594019,-1.3817531,0.4542667,743.4066,803.44324,871.9414,794.57874,774.0293,-0.086181640625,-0.01483154296875,0.9794921875,1.443023681640625,-2.67669677734375,1.278533935546875,1.0,2.0,1.0,4.0,2.0,85.0,event
13:35:53.071,0.7832549,0.75093156,-1.2118914,0.8388268,0.4081022,0.49651337,-2.1649864,0.58098227,0.57480264,0.6733676,-1.5631874,0.44325224,0.5752884,-0.08099936,-1.2361207,0.63460696,0.27737388,-0.10594019,-1.3817531,0.4542667,729.304,804.2491,857.4359,792.1612,765.9707,-0.086181640625,-0.01483154296875,0.9794921875,1.443023681640625,-2.67669677734375,1.278533935546875,1.0,2.0,1.0,4.0,2.0,85.0,event
13:35:53.072,0.7832549,0.75093156,-1.2118914,0.8388268,0.4081022,0.49651337,-2.1649864,0.58098227,0.57480264,0.6733676,-1.5631874,0.44325224,0.5752884,-0.08099936,-1.2361207,0.63460696,0.27737388,-0.10594019,-1.3817531,0.4542667,838.0952,799.81683,987.1795,819.9634,879.59705,-0.086181640625,-0.01483154296875,0.9794921875,1.443023681640625,-2.67669677734375,1.278533935546875,1.0,2.0,1.0,4.0,2.0,85.0,event
13:35:53.072,0.7832549,0.75093156,-1.2118914,0.8388268,0.4081022,0.49651337,-2.1649864,0.58098227,0.57480264,0.6733676,-1.5631874,0.44325224,0.5752884,-0.08099936,-1.2361207,0.63460696,0.27737388,-0.10594019,-1.3817531,0.4542667,796.5934,806.6667,1108.0586,802.23444,705.9341,-0.086181640625,-0.01483154296875,0.9794921875,1.443023681640625,-2.67669677734375,1.278533935546875,1.0,2.0,1.0,4.0,2.0,85.0,event
13:35:53.073,0.7832549,0.75093156,-1.2118914,0.8388268,0.4081022,0.49651337,-2.1649864,0.58098227,0.57480264,0.6733676,-1.5631874,0.44325224,0.5752884,-0.08099936,-1.2361207,0.63460696,0.27737388,-0.10594019,-1.3817531,0.4542667,812.71063,808.68134,633.4066,817.1429,1077.8389,-0.086181640625,-0.01483154296875,0.9794921875,1.443023681640625,-2.67669677734375,1.278533935546875,1.0,2.0,1.0,4.0,2.0,85.0,event
13:35:53.074,0.7832549,0.75093156,-1.2118914,0.8388268,0.4081022,0.49651337,-2.1649864,0.58098227,0.57480264,0.6733676,-1.5631874,0.44325224,0.5752884,-0.08099936,-1.2361207,0.63460696,0.27737388,-0.10594019,-1.3817531,0.4542667,743.4066,820.7692,821.978,801.8315,857.4359,-0.086181640625,-0.01483154296875,0.9794921875,1.443023681640625,-2.67669677734375,1.278533935546875,1.0,2.0,1.0,4.0,2.0,85.0,event
13:35:53.074,0.7832549,0.75093156,-1.2118914,0.8388268,0.4081022,0.49651337,-2.1649864,0.58098227,0.57480264,0.6733676,-1.5631874,0.44325224,0.5752884,-0.08099936,-1.2361207,0.63460696,0.27737388,-0.10594019,-1.3817531,0.4542667,730.10986,815.5311,1150.7693,783.2967,665.64105,-0.086181640625,-0.01483154296875,0.9794921875,1.443023681640625,-2.67669677734375,1.278533935546875,1.0,2.0,1.0,4.0,2.0,85.0,event
13:35:53.075,0.7832549,0.75093156,-1.2118914,0.8388268,0.4081022,0.49651337,-2.1649864,0.58098227,0.57480264,0.6733676,-1.5631874,0.44325224,0.5752884,-0.08099936,-1.2361207,0.63460696,0.27737388,-0.10594019,-1.3817531,0.4542667,776.4469,804.65204,993.6264,794.57874,785.7143,-0.086181640625,-0.01483154296875,0.9794921875,1.443023681640625,-2.67669677734375,1.278533935546875,1.0,2.0,1.0,4.0,2.0,85.0,event
13:35:53.076,0.7832549,0.75093156,-1.2118914,0.8388268,0.4081022,0.49651337,-2.1649864,0.58098227,0.57480264,0.6733676,-1.5631874,0.44325224,0.5752884,-0.08099936,-1.2361207,0.63460696,0.27737388,-0.10594019,-1.3817531,0.4542667,831.6484,807.0696,542.74725,837.6923,1019.41394,-0.086181640625,-0.01483154296875,0.9794921875,1.443023681640625,-2.67669677734375,1.278533935546875,1.0,2.0,1.0,4.0,2.0,85.0,event
13:35:53.076,0.7832549,0.75093156,-1.2118914,0.8388268,0.4081022,0.49651337,-2.1649864,0.58098227,0.57480264,0.6733676,-1.5631874,0.44325224,0.5752884,-0.08099936,-1.2361207,0.63460696,0.27737388,-0.10594019,-1.3817531,0.4542667,840.10986,812.71063,909.011,813.5165,822.381,-0.086181640625,-0.01483154296875,0.9794921875,1.443023681640625,-2.67669677734375,1.278533935546875,1.0,2.0,1.0,4.0,2.0,85.0,event
13:35:53.124,0.7832549,0.75093156,-1.2118914,0.8388268,0.4081022,0.49651337,-2.1649864,0.58098227,0.57480264,0.6733676,-1.5631874,0.44325224,0.5752884,-0.08099936,-1.2361207,0.63460696,0.27737388,-0.10594019,-1.3817531,0.4542667,752.27106,806.6667,1099.597,774.0293,713.1868,-0.073974609375,-0.0133056640625,0.9818115234375,1.60003662109375,-2.265472412109375,2.43743896484375,1.0,2.0,1.0,4.0,2.0,85.0,event
13:35:53.125,0.7832549,0.75093156,-1.2118914,0.8388268,0.4081022,0.49651337,-2.1649864,0.58098227,0.57480264,0.6733676,-1.5631874,0.44325224,0.5752884,-0.08099936,-1.2361207,0.63460696,0.27737388,-0.10594019,-1.3817531,0.4542667,714.7985,803.0403,890.87915,785.31134,801.8315,-0.073974609375,-0.0133056640625,0.9818115234375,1.60003662109375,-2.265472412109375,2.43743896484375,1.0,2.0,1.0,4.0,2.0,85.0,event
13:35:53.126,0.7832549,0.75093156,-1.2118914,0.8388268,0.4081022,0.49651337,-2.1649864,0.58098227,0.57480264,0.6733676,-1.5631874,0.44325224,0.5752884,-0.08099936,-1.2361207,0.63460696,0.27737388,-0.10594019,-1.3817531,0.4542667,769.19415,807.8755,1028.2784,789.7436,754.2857,-0.073974609375,-0.0133056640625,0.9818115234375,1.60003662109375,-2.265472412109375,2.43743896484375,1.0,2.0,1.0,4.0,2.0,85.0,event
13:35:53.126,0.7832549,0.75093156,-1.2118914,0.8388268,0.4081022,0.49651337,-2.1649864,0.58098227,0.57480264,0.6733676,-1.5631874,0.44325224,0.5752884,-0.08099936,-1.2361207,0.63460696,0.27737388,-0.10594019,-1.3817531,0.4542667,840.5128,808.68134,1191.0623,818.3516,669.67035,-0.073974609375,-0.0133056640625,0.9818115234375,1.60003662109375,-2.265472412109375,2.43743896484375,1.0,2.0,1.0,4.0,2.0,85.0,event
13:35:53.127,0.7832549,0.75093156,-1.2118914,0.8388268,0.4081022,0.49651337,-2.1649864,0.58098227,0.57480264,0.6733676,-1.5631874,0.44325224,0.5752884,-0.08099936,-1.2361207,0.63460696,0.27737388,-0.10594019,-1.3817531,0.4542667,834.87177,799.011,1152.7839,836.8865,770.40295,-0.073974609375,-0.0133056640625,0.9818115234375,1.60003662109375,-2.265472412109375,2.43743896484375,1.0,2.0,1.0,4.0,2.0,85.0,event
13:35:53.127,0.7832549,0.75093156,-1.2118914,0.8388268,0.4081022,0.49651337,-2.1649864,0.58098227,0.57480264,0.6733676,-1.5631874,0.44325224,0.5752884,-0.08099936,-1.2361207,0.63460696,0.27737388,-0.10594019,-1.3817531,0.4542667,734.1392,804.2491,743.4066,800.6227,949.304,-0.073974609375,-0.0133056640625,0.9818115234375,1.60003662109375,-2.265472412109375,2.43743896484375,1.0,2.0,1.0,4.0,2.0,85.0,event
13:35:53.128,0.7832549,0.75093156,-1.2118914,0.8388268,0.4081022,0.49651337,-2.1649864,0.58098227,0.57480264,0.6733676,-1.5631874,0.44325224,0.5752884,-0.08099936,-1.2361207,0.63460696,0.27737388,-0.10594019,-1.3817531,0.4542667,703.91943,811.50183,636.63007,792.96704,917.8755,-0.073974609375,-0.0133056640625,0.9818115234375,1.60003662109375,-2.265472412109375,2.43743896484375,1.0,2.0,1.0,4.0,2.0,85.0,event
13:35:53.129,0.7832549,0.75093156,-1.2118914,0.8388268,0.4081022,0.49651337,-2.1649864,0.58098227,0.57480264,0.6733676,-1.5631874,0.44325224,0.5752884,-0.08099936,-1.2361207,0.63460696,0.27737388,-0.10594019,-1.3817531,0.4542667,830.84247,814.3223,1008.93774,806.26373,726.08057,-0.073974609375,-0.0133056640625,0.9818115234375,1.60003662109375,-2.265472412109375,2.43743896484375,1.0,2.0,1.0,4.0,2.0,85.0,event
13:35:53.129,0.7832549,0.75093156,-1.2118914,0.8388268,0.4081022,0.49651337,-2.1649864,0.58098227,0.57480264,0.6733676,-1.5631874,0.44325224,0.5752884,-0.08099936,-1.2361207,0.63460696,0.27737388,-0.10594019,-1.3817531,0.4542667,757.1062,811.50183,803.0403,796.99634,772.8205,-0.073974609375,-0.0133056640625,0.9818115234375,1.60003662109375,-2.265472412109375,2.43743896484375,1.0,2.0,1.0,4.0,2.0,85.0,event
13:35:53.130,0.7832549,0.75093156,-1.2118914,0.8388268,0.4081022,0.49651337,-2.1649864,0.58098227,0.57480264,0.6733676,-1.5631874,0.44325224,0.5752884,-0.08099936,-1.2361207,0.63460696,0.27737388,-0.10594019,-1.3817531,0.4542667,817.9487,807.0696,626.9597,808.68134,994.43225,-0.073974609375,-0.0133056640625,0.9818115234375,1.60003662109375,-2.265472412109375,2.43743896484375,1.0,2.0,1.0,4.0,2.0,85.0,event
13:35:53.131,0.7832549,0.75093156,-1.2118914,0.8388268,0.4081022,0.49651337,-2.1649864,0.58098227,0.57480264,0.6733676,-1.5631874,0.44325224,0.5752884,-0.08099936,-1.2361207,0.63460696,0.27737388,-0.10594019,-1.3817531,0.4542667,730.10986,806.6667,346.11722,782.49084,979.12085,-0.073974609375,-0.0133056640625,0.9818115234375,1.60003662109375,-2.265472412109375,2.43743896484375,1.0,2.0,1.0,4.0,2.0,85.0,event
13:35:53.131,0.7832549,0.75093156,-1.2118914,0.8388268,0.4081022,0.49651337,-2.1649864,0.58098227,0.57480264,0.6733676,-1.5631874,0.44325224,0.5752884,-0.08099936,-1.2361207,0.63460696,0.27737388,-0.10594019,-1.3817531,0.4542667,707.1429,813.91943,887.25275,784.90845,651.53845,-0.073974609375,-0.0133056640625,0.9818115234375,1.60003662109375,-2.265472412109375,2.43743896484375,1.0,2.0,1.0,4.0,2.0,85.0,event
13:35:53.159,0.7832549,0.75093156,-1.2118914,0.8388268,0.4081022,0.49651337,-2.1649864,0.58098227,0.57480264,0.6733676,-1.5631874,0.44325224,0.5752884,-0.08099936,-1.2361207,0.63460696,0.27737388,-0.10594019,-1.3817531,0.4542667,748.24176,809.89014,1080.6593,802.6374,690.2198,-0.090576171875,-0.0169677734375,0.98626708984375,0.91217041015625,-2.49725341796875,2.743988037109375,1.0,2.0,1.0,4.0,2.0,85.0,event
13:35:53.160,0.7832549,0.75093156,-1.2118914,0.8388268,0.4081022,0.49651337,-2.1649864,0.58098227,0.57480264,0.6733676,-1.5631874,0.44325224,0.5752884,-0.08099936,-1.2361207,0.63460696,0.27737388,-0.10594019,-1.3817531,0.4542667,809.89014,803.44324,989.19415,804.65204,756.7033,-0.090576171875,-0.0169677734375,0.98626708984375,0.91217041015625,-2.49725341796875,2.743988037109375,1.0,2.0,1.0,4.0,2.0,85.0,event
13:35:53.161,0.7832549,0.75093156,-1.2118914,0.8388268,0.4081022,0.49651337,-2.1649864,0.58098227,0.57480264,0.6733676,-1.5631874,0.44325224,0.5752884,-0.08099936,-1.2361207,0.63460696,0.27737388,-0.10594019,-1.3817531,0.4542667,830.4396,803.44324,1065.348,790.54944,689.81683,-0.090576171875,-0.0169677734375,0.98626708984375,0.91217041015625,-2.49725341796875,2.743988037109375,1.0,2.0,1.0,4.0,2.0,85.0,event
13:35:53.162,0.7832549,0.7495229,-1.2118914,0.8388268,0.4081022,0.5003354,-2.1649864,0.58098227,0.57480264,0.6733676,-1.5631874,0.44325224,0.5752884,-0.0917301,-1.2361207,0.63460696,0.27737388,-0.12229879,-1.3817531,0.4542667,758.71796,807.47253,1043.1868,786.9231,703.91943,-0.090576171875,-0.0169677734375,0.98626708984375,0.91217041015625,-2.49725341796875,2.743988037109375,1.0,2.0,1.0,4.0,2.0,85.0,event
13:35:53.166,0.7832549,0.7495229,-1.2118914,0.8388268,0.4081022,0.5003354,-2.1649864,0.58098227,0.57480264,0.6733676,-1.5631874,0.44325224,0.5752884,-0.0917301,-1.2361207,0.63460696,0.27737388,-0.12229879,-1.3817531,0.4542667,694.65204,800.2198,907.3993,797.3993,720.0366,-0.090576171875,-0.0169677734375,0.98626708984375,0.91217041015625,-2.49725341796875,2.743988037109375,1.0,2.0,1.0,4.0,2.0,85.0,event
13:35:53.167,0.7832549,0.7495229,-1.2118914,0.8388268,0.4081022,0.5003354,-2.1649864,0.58098227,0.57480264,0.6733676,-1.5631874,0.44325224,0.5752884,-0.0917301,-1.2361207,0.63460696,0.27737388,-0.12229879,-1.3817531,0.4542667,716.4103,799.41394,790.9524,799.81683,791.75824,-0.090576171875,-0.0169677734375,0.98626708984375,0.91217041015625,-2.49725341796875,2.743988037109375,1.0,2.0,1.0,4.0,2.0,85.0,event
13:35:53.168,0.7832549,0.7495229,-1.2118914,0.8388268,0.4081022,0.5003354,-2.1649864,0.58098227,0.57480264,0.6733676,-1.5631874,0.44325224,0.5752884,-0.0917301,-1.2361207,0.63460696,0.27737388,-0.12229879,-1.3817531,0.4542667,796.1905,807.47253,774.0293,803.8461,857.4359,-0.090576171875,-0.0169677734375,0.98626708984375,0.91217041015625,-2.49725341796875,2.743988037109375,1.0,2.0,1.0,4.0,2.0,85.0,event
13:35:53.169,0.7832549,0.7495229,-1.2118914,0.8388268,0.4081022,0.5003354,-2.1649864,0.58098227,0.57480264,0.6733676,-1.5631874,0.44325224,0.5752884,-0.0917301,-1.2361207,0.63460696,0.27737388,-0.12229879,-1.3817531,0.4542667,841.7216,810.293,946.8865,801.4286,807.0696,-0.090576171875,-0.0169677734375,0.98626708984375,0.91217041015625,-2.49725341796875,2.743988037109375,1.0,2.0,1.0,4.0,2.0,85.0,event
13:35:53.169,0.7832549,0.7495229,-1.2118914,0.8388268,0.4081022,0.5003354,-2.1649864,0.58098227,0.57480264,0.6733676,-1.5631874,0.44325224,0.5752884,-0.0917301,-1.2361207,0.63460696,0.27737388,-0.12229879,-1.3817531,0.4542667,770.0,803.0403,791.75824,788.93774,811.9048,-0.090576171875,-0.0169677734375,0.98626708984375,0.91217041015625,-2.49725341796875,2.743988037109375,1.0,2.0,1.0,4.0,2.0,85.0,event
13:35:53.170,0.7832549,0.7495229,-1.2118914,0.8388268,0.4081022,0.5003354,-2.1649864,0.58098227,0.57480264,0.6733676,-1.5631874,0.44325224,0.5752884,-0.0917301,-1.2361207,0.63460696,0.27737388,-0.12229879,-1.3817531,0.4542667,684.17584,797.3993,303.00366,778.86444,1014.57874,-0.090576171875,-0.0169677734375,0.98626708984375,0.91217041015625,-2.49725341796875,2.743988037109375,1.0,2.0,1.0,4.0,2.0,85.0,event
13:35:53.171,0.7832549,0.7495229,-1.2118914,0.8388268,0.4081022,0.5003354,-2.1649864,0.58098227,0.57480264,0.6733676,-1.5631874,0.44325224,0.5752884,-0.0917301,-1.2361207,0.63460696,0.27737388,-0.12229879,-1.3817531,0.4542667,721.2454,799.41394,749.0476,795.38464,848.1685,-0.090576171875,-0.0169677734375,0.98626708984375,0.91217041015625,-2.49725341796875,2.743988037109375,1.0,2.0,1.0,4.0,2.0,85.0,event
13:35:53.172,0.7832549,0.7495229,-1.2118914,0.8388268,0.4081022,0.5003354,-2.1649864,0.58098227,0.57480264,0.6733676,-1.5631874,0.44325224,0.5752884,-0.0917301,-1.2361207,0.63460696,0.27737388,-0.12229879,-1.3817531,0.4542667,795.38464,805.05493,1262.381,817.1429,666.04395,-0.090576171875,-0.0169677734375,0.98626708984375,0.91217041015625,-2.49725341796875,2.743988037109375,1.0,2.0,1.0,4.0,2.0,85.0,event
13:35:53.194,0.7832549,0.7495229,-1.2118914,0.8388268,0.4081022,0.5003354,-2.1649864,0.58098227,0.57480264,0.6733676,-1.5631874,0.44325224,0.5752884,-0.0917301,-1.2361207,0.63460696,0.27737388,-0.12229879,-1.3817531,0.4542667,821.1722,807.8755,916.26373,813.91943,848.97437,-0.09954833984375,-0.02227783203125,0.98114013671875,1.248626708984375,-2.340240478515625,0.231781005859375,1.0,2.0,1.0,4.0,2.0,85.0,event
13:35:53.195,0.7832549,0.7495229,-1.2118914,0.8388268,0.4081022,0.5003354,-2.1649864,0.58098227,0.57480264,0.6733676,-1.5631874,0.44325224,0.5752884,-0.0917301,-1.2361207,0.63460696,0.27737388,-0.12229879,-1.3817531,0.4542667,768.3883,799.011,410.989,795.38464,983.1502,-0.09954833984375,-0.02227783203125,0.98114013671875,1.248626708984375,-2.340240478515625,0.231781005859375,1.0,2.0,1.0,4.0,2.0,85.0,event
13:35:53.196,0.7832549,0.7495229,-1.2118914,0.8388268,0.4081022,0.5003354,-2.1649864,0.58098227,0.57480264,0.6733676,-1.5631874,0.44325224,0.5752884,-0.0917301,-1.2361207,0.63460696,0.27737388,-0.12229879,-1.3817531,0.4542667,695.4579,799.011,837.28937,782.49084,741.79486,-0.09954833984375,-0.02227783203125,0.98114013671875,1.248626708984375,-2.340240478515625,0.231781005859375,1.0,2.0,1.0,4.0,2.0,85.0,event
13:35:53.197,0.7832549,0.7495229,-1.2118914,0.8388268,0.4081022,0.5003354,-2.1649864,0.58098227,0.57480264,0.6733676,-1.5631874,0.44325224,0.5752884,-0.0917301,-1.2361207,0.63460696,0.27737388,-0.12229879,-1.3817531,0.4542667,691.02563,801.4286,1166.0806,785.31134,698.68134,-0.09954833984375,-0.02227783203125,0.98114013671875,1.248626708984375,-2.340240478515625,0.231781005859375,1.0,2.0,1.0,4.0,2.0,85.0,event
13:35:53.198,0.7832549,0.7495229,-1.2118914,0.8388268,0.4081022,0.5003354,-2.1649864,0.58098227,0.57480264,0.6733676,-1.5631874,0.44325224,0.5752884,-0.0917301,-1.2361207,0.63460696,0.27737388,-0.12229879,-1.3817531,0.4542667,772.4176,799.81683,978.315,795.78754,826.0073,-0.09954833984375,-0.02227783203125,0.98114013671875,1.248626708984375,-2.340240478515625,0.231781005859375,1.0,2.0,1.0,4.0,2.0,85.0,event
13:35:53.199,0.7832549,0.7495229,-1.2118914,0.8388268,0.4081022,0.5003354,-2.1649864,0.58098227,0.57480264,0.6733676,-1.5631874,0.44325224,0.5752884,-0.0917301,-1.2361207,0.63460696,0.27737388,-0.12229879,-1.3817531,0.4542667,831.6484,801.02563,890.87915,829.2308,848.97437,-0.09954833984375,-0.02227783203125,0.98114013671875,1.248626708984375,-2.340240478515625,0.231781005859375,1.0,2.0,1.0,4.0,2.0,85.0,event
13:35:53.199,0.7832549,0.7495229,-1.2118914,0.8388268,0.4081022,0.5003354,-2.1649864,0.58098227,0.57480264,0.6733676,-1.5631874,0.44325224,0.5752884,-0.0917301,-1.2361207,0.63460696,0.27737388,-0.12229879,-1.3817531,0.4542667,787.326,801.02563,830.84247,815.12823,832.8571,-0.09954833984375,-0.02227783203125,0.98114013671875,1.248626708984375,-2.340240478515625,0.231781005859375,1.0,2.0,1.0,4.0,2.0,85.0,event
13:35:53.200,0.7832549,0.7495229,-1.2118914,0.8388268,0.4081022,0.5003354,-2.1649864,0.58098227,0.57480264,0.6733676,-1.5631874,0.44325224,0.5752884,-0.0917301,-1.2361207,0.63460696,0.27737388,-0.12229879,-1.3817531,0.4542667,703.1135,801.02563,932.381,794.9817,745.82416,-0.09954833984375,-0.02227783203125,0.98114013671875,1.248626708984375,-2.340240478515625,0.231781005859375,1.0,2.0,1.0,4.0,2.0,85.0,event
13:35:53.201,0.7832549,0.7495229,-1.2118914,0.8388268,0.4081022,0.5003354,-2.1649864,0.58098227,0.57480264,0.6733676,-1.5631874,0.44325224,0.5752884,-0.0917301,-1.2361207,0.63460696,0.27737388,-0.12229879,-1.3817531,0.4542667,695.4579,801.02563,602.7839,819.15753,866.30035,-0.09954833984375,-0.02227783203125,0.98114013671875,1.248626708984375,-2.340240478515625,0.231781005859375,1.0,2.0,1.0,4.0,2.0,85.0,event
13:35:53.201,0.7832549,0.7495229,-1.2118914,0.8388268,0.4081022,0.5003354,-2.1649864,0.58098227,0.57480264,0.6733676,-1.5631874,0.44325224,0.5752884,-0.0917301,-1.2361207,0.63460696,0.27737388,-0.12229879,-1.3817531,0.4542667,757.9121,802.6374,563.69965,819.9634,951.31866,-0.09954833984375,-0.02227783203125,0.98114013671875,1.248626708984375,-2.340240478515625,0.231781005859375,1.0,2.0,1.0,4.0,2.0,85.0,event
13:35:53.202,0.7832549,0.7495229,-1.2118914,0.8388268,0.4081022,0.5003354,-2.1649864,0.58098227,0.57480264,0.6733676,-1.5631874,0.44325224,0.5752884,-0.0917301,-1.2361207,0.63460696,0.27737388,-0.12229879,-1.3817531,0.4542667,835.6777,809.0842,1173.7362,819.5604,737.3626,-0.09954833984375,-0.02227783203125,0.98114013671875,1.248626708984375,-2.340240478515625,0.231781005859375,1.0,2.0,1.0,4.0,2.0,85.0,event
13:35:53.203,0.7832549,0.7495229,-1.2118914,0.8388268,0.4081022,0.5003354,-2.1649864,0.58098227,0.57480264,0.6733676,-1.5631874,0.44325224,0.5752884,-0.0917301,-1.2361207,0.63460696,0.27737388,-0.12229879,-1.3817531,0.4542667,821.5751,809.0842,1070.989,814.7253,686.1905,-0.09954833984375,-0.02227783203125,0.98114013671875,1.248626708984375,-2.340240478515625,0.231781005859375,1.0,2.0,1.0,4.0,2.0,85.0,event
13:35:53.259,0.7832549,0.7495229,-1.2118914,0.8388268,0.4081022,0.5003354,-2.1649864,0.58098227,0.57480264,0.6733676,-1.5631874,0.44325224,0.5752884,-0.0917301,-1.2361207,0.63460696,0.27737388,-0.12229879,-1.3817531,0.4542667,720.0366,804.65204,701.0989,794.9817,815.9341,-0.09600830078125,-0.02056884765625,0.98541259765625,2.093505859375,-3.06549072265625,-2.385101318359375,1.0,2.0,1.0,4.0,2.0,85.0,event
13:35:53.260,0.7832549,0.7495229,-1.2118914,0.8388268,0.4081022,0.5003354,-2.1649864,0.58098227,0.57480264,0.6733676,-1.5631874,0.44325224,0.5752884,-0.0917301,-1.2361207,0.63460696,0.27737388,-0.12229879,-1.3817531,0.4542667,763.95605,806.6667,1238.2051,820.7692,700.293,-0.09600830078125,-0.02056884765625,0.98541259765625,2.093505859375,-3.06549072265625,-2.385101318359375,1.0,2.0,1.0,4.0,2.0,85.0,event
13:35:53.260,0.7832549,0.7495229,-1.2118914,0.8388268,0.4081022,0.5003354,-2.1649864,0.58098227,0.57480264,0.6733676,-1.5631874,0.44325224,0.5752884,-0.0917301,-1.2361207,0.63460696,0.27737388,-0.12229879,-1.3817531,0.4542667,695.05493,807.0696,932.381,811.50183,796.1905,-0.09600830078125,-0.02056884765625,0.98541259765625,2.093505859375,-3.06549072265625,-2.385101318359375,1.0,2.0,1.0,4.0,2.0,85.0,event
13:35:53.261,0.7832549,0.7495229,-1.2118914,0.8388268,0.4081022,0.5003354,-2.1649864,0.58098227,0.57480264,0.6733676,-1.5631874,0.44325224,0.5752884,-0.0917301,-1.2361207,0.63460696,0.27737388,-0.12229879,-1.3817531,0.4542667,830.84247,808.2784,1097.9854,815.12823,742.1978,-0.09600830078125,-0.02056884765625,0.98541259765625,2.093505859375,-3.06549072265625,-2.385101318359375,1.0,2.0,1.0,4.0,2.0,85.0,event
13:35:53.262,0.7832549,0.7495229,-1.2118914,0.8388268,0.4081022,0.5003354,-2.1649864,0.58098227,0.57480264,0.6733676,-1.5631874,0.44325224,0.5752884,-0.0917301,-1.2361207,0.63460696,0.27737388,-0.12229879,-1.3817531,0.4542667,821.5751,807.8755,734.94507,821.5751,804.65204,-0.09600830078125,-0.02056884765625,0.98541259765625,2.093505859375,-3.06549072265625,-2.385101318359375,1.0,2.0,1.0,4.0,2.0,85.0,event
13:35:53.262,0.7832549,0.75132185,-1.2118914,0.8388268,0.4081022,0.50621635,-2.1649864,0.58098227,0.57480264,0.6733676,-1.5631874,0.44325224,0.5752884,-0.09300649,-1.2361207,0.63460696,0.27737388,-0.13058063,-1.3817531,0.4542667,732.52747,809.0842,705.12823,807.8755,792.5641,-0.09600830078125,-0.02056884765625,0.98541259765625,2.093505859375,-3.06549072265625,-2.385101318359375,1.0,2.0,1.0,4.0,2.0,85.0,event
13:35:53.266,0.7832549,0.75132185,-1.2118914,0.8388268,0.4081022,0.50621635,-2.1649864,0.58098227,0.57480264,0.6733676,-1.5631874,0.44325224,0.5752884,-0.09300649,-1.2361207,0.63460696,0.27737388,-0.13058063,-1.3817531,0.4542667,682.5641,805.4579,826.0073,808.68134,776.8498,-0.09600830078125,-0.02056884765625,0.98541259765625,2.093505859375,-3.06549072265625,-2.385101318359375,1.0,2.0,1.0,4.0,2.0,85.0,event
13:35:53.267,0.7832549,0.75132185,-1.2118914,0.8388268,0.4081022,0.50621635,-2.1649864,0.58098227,0.57480264,0.6733676,-1.5631874,0.44325224,0.5752884,-0.09300649,-1.2361207,0.63460696,0.27737388,-0.13058063,-1.3817531,0.4542667,747.03296,797.8022,789.7436,826.8132,859.45056,-0.09600830078125,-0.02056884765625,0.98541259765625,2.093505859375,-3.06549072265625,-2.385101318359375,1.0,2.0,1.0,4.0,2.0,85.0,event
13:35:53.267,0.7832549,0.75132185,-1.2118914,0.8388268,0.4081022,0.50621635,-2.1649864,0.58098227,0.57480264,0.6733676,-1.5631874,0.44325224,0.5752884,-0.09300649,-1.2361207,0.63460696,0.27737388,-0.13058063,-1.3817531,0.4542667,813.1135,800.2198,501.64835,821.1722,1075.0183,-0.09600830078125,-0.02056884765625,0.98541259765625,2.093505859375,-3.06549072265625,-2.385101318359375,1.0,2.0,1.0,4.0,2.0,85.0,event
13:35:53.268,0.7832549,0.75132185,-1.2118914,0.8388268,0.4081022,0.50621635,-2.1649864,0.58098227,0.57480264,0.6733676,-1.5631874,0.44325224,0.5752884,-0.09300649,-1.2361207,0.63460696,0.27737388,-0.13058063,-1.3817531,0.4542667,814.3223,810.696,847.76556,806.26373,884.83514,-0.09600830078125,-0.02056884765625,0.98541259765625,2.093505859375,-3.06549072265625,-2.385101318359375,1.0,2.0,1.0,4.0,2.0,85.0,event
13:35:53.269,0.7832549,0.75132185,-1.2118914,0.8388268,0.4081022,0.50621635,-2.1649864,0.58098227,0.57480264,0.6733676,-1.5631874,0.44325224,0.5752884,-0.09300649,-1.2361207,0.63460696,0.27737388,-0.13058063,-1.3817531,0.4542667,694.65204,809.89014,823.9927,783.69965,685.38464,-0.09600830078125,-0.02056884765625,0.98541259765625,2.093505859375,-3.06549072265625,-2.385101318359375,1.0,2.0,1.0,4.0,2.0,85.0,event
13:35:53.269,0.7832549,0.75132185,-1.2118914,0.8388268,0.4081022,0.50621635,-2.1649864,0.58098227,0.57480264,0.6733676,-1.5631874,0.44325224,0.5752884,-0.09300649,-1.2361207,0.63460696,0.27737388,-0.13058063,-1.3817531,0.4542667,738.1685,811.50183,1040.7693,782.0879,656.77655,-0.09600830078125,-0.02056884765625,0.98541259765625,2.093505859375,-3.06549072265625,-2.385101318359375,1.0,2.0,1.0,4.0,2.0,85.0,event
13:35:53.293,0.7832549,0.75132185,-1.2118914,0.8388268,0.4081022,0.50621635,-2.1649864,0.58098227,0.57480264,0.6733676,-1.5631874,0.44325224,0.5752884,-0.09300649,-1.2361207,0.63460696,0.27737388,-0.13058063,-1.3817531,0.4542667,746.2271,807.8755,943.2601,803.44324,710.7692,-0.09600830078125,-0.02056884765625,0.98541259765625,2.093505859375,-3.06549072265625,-2.385101318359375,1.0,2.0,1.0,4.0,2.0,85.0,event
13:35:53.294,0.7832549,0.75132185,-1.2118914,0.8388268,0.4081022,0.50621635,-2.1649864,0.58098227,0.57480264,0.6733676,-1.5631874,0.44325224,0.5752884,-0.09300649,-1.2361207,0.63460696,0.27737388,-0.13058063,-1.3817531,0.4542667,813.1135,802.23444,1152.381,808.68134,680.54944,-0.09600830078125,-0.02056884765625,0.98541259765625,2.093505859375,-3.06549072265625,-2.385101318359375,1.0,2.0,1.0,4.0,2.0,85.0,event
13:35:53.295,0.7832549,0.75132185,-1.2118914,0.8388268,0.4081022,0.50621635,-2.1649864,0.58098227,0.57480264,0.6733676,-1.5631874,0.44325224,0.5752884,-0.09300649,-1.2361207,0.63460696,0.27737388,-0.13058063,-1.3817531,0.4542667,832.4542,809.0842,1102.4176,823.1868,710.3663,-0.09600830078125,-0.02056884765625,0.98541259765625,2.093505859375,-3.06549072265625,-2.385101318359375,1.0,2.0,1.0,4.0,2.0,85.0,event
13:35:53.295,0.7832549,0.75132185,-1.2118914,0.8388268,0.4081022,0.50621635,-2.1649864,0.58098227,0.57480264,0.6733676,-1.5631874,0.44325224,0.5752884,-0.09300649,-1.2361207,0.63460696,0.27737388,-0.13058063,-1.3817531,0.4542667,741.39197,811.0989,737.3626,813.91943,843.3333,-0.09600830078125,-0.02056884765625,0.98541259765625,2.093505859375,-3.06549072265625,-2.385101318359375,1.0,2.0,1.0,4.0,2.0,85.0,event
13:35:53.296,0.7832549,0.75132185,-1.2118914,0.8388268,0.4081022,0.50621635,-2.1649864,0.58098227,0.57480264,0.6733676,-1.5631874,0.44325224,0.5752884,-0.09300649,-1.2361207,0.63460696,0.27737388,-0.13058063,-1.3817531,0.4542667,688.60803,803.8461,742.1978,795.78754,809.4872,-0.09600830078125,-0.02056884765625,0.98541259765625,2.093505859375,-3.06549072265625,-2.385101318359375,1.0,2.0,1.0,4.0,2.0,85.0,event
13:35:53.297,0.7832549,0.75132185,-1.2118914,0.8388268,0.4081022,0.50621635,-2.1649864,0.58098227,0.57480264,0.6733676,-1.5631874,0.44325224,0.5752884,-0.09300649,-1.2361207,0.63460696,0.27737388,-0.13058063,-1.3817531,0.4542667,807.47253,807.47253,808.68134,809.89014,820.3663,-0.09600830078125,-0.02056884765625,0.98541259765625,2.093505859375,-3.06549072265625,-2.385101318359375,1.0,2.0,1.0,4.0,2.0,85.0,event
13:35:53.297,0.7832549,0.75132185,-1.2118914,0.8388268,0.4081022,0.50621635,-2.1649864,0.58098227,0.57480264,0.6733676,-1.5631874,0.44325224,0.5752884,-0.09300649,-1.2361207,0.63460696,0.27737388,-0.13058063,-1.3817531,0.4542667,730.10986,804.2491,816.7399,788.5348,794.57874,-0.09600830078125,-0.02056884765625,0.98541259765625,2.093505859375,-3.06549072265625,-2.385101318359375,1.0,2.0,1.0,4.0,2.0,85.0,event
13:35:53.298,0.7832549,0.75132185,-1.2118914,0.8388268,0.4081022,0.50621635,-2.1649864,0.58098227,0.57480264,0.6733676,-1.5631874,0.44325224,0.5752884,-0.09300649,-1.2361207,0.63460696,0.27737388,-0.13058063,-1.3817531,0.4542667,809.0842,804.2491,496.41025,832.0513,992.8205,-0.09600830078125,-0.02056884765625,0.98541259765625,2.093505859375,-3.06549072265625,-2.385101318359375,1.0,2.0,1.0,4.0,2.0,85.0,event
13:35:53.299,0.7832549,0.75132185,-1.2118914,0.8388268,0.4081022,0.50621635,-2.1649864,0.58098227,0.57480264,0.6733676,-1.5631874,0.44325224,0.5752884,-0.09300649,-1.2361207,0.63460696,0.27737388,-0.13058063,-1.3817531,0.4542667,716.0073,805.8608,757.50916,792.1612,759.92676,-0.09600830078125,-0.02056884765625,0.98541259765625,2.093505859375,-3.06549072265625,-2.385101318359375,1.0,2.0,1.0,4.0,2.0,85.0,event
13:35:53.299,0.7832549,0.75132185,-1.2118914,0.8388268,0.4081022,0.50621635,-2.1649864,0.58098227,0.57480264,0.6733676,-1.5631874,0.44325224,0.5752884,-0.09300649,-1.2361207,0.63460696,0.27737388,-0.13058063,-1.3817531,0.4542667,742.6007,797.3993,141.8315,808.68134,1089.5238,-0.09600830078125,-0.02056884765625,0.98541259765625,2.093505859375,-3.06549072265625,-2.385101318359375,1.0,2.0,1.0,4.0,2.0,85.0,event
13:35:53.300,0.7832549,0.75132185,-1.2118914,0.8388268,0.4081022,0.50621635,-2.1649864,0.58098227,0.57480264,0.6733676,-1.5631874,0.44325224,0.5752884,-0.09300649,-1.2361207,0.63460696,0.27737388,-0.13058063,-1.3817531,0.4542667,738.5714,809.89014,1003.69965,800.2198,645.09155,-0.09600830078125,-0.02056884765625,0.98541259765625,2.093505859375,-3.06549072265625,-2.385101318359375,1.0,2.0,1.0,4.0,2.0,85.0,event
13:35:53.300,0.7832549,0.75132185,-1.2118914,0.8388268,0.4081022,0.50621635,-2.1649864,0.58098227,0.57480264,0.6733676,-1.5631874,0.44325224,0.5752884,-0.09300649,-1.2361207,0.63460696,0.27737388,-0.13058063,-1.3817531,0.4542667,793.7729,811.0989,891.28204,823.9927,751.4652,-0.09600830078125,-0.02056884765625,0.98541259765625,2.093505859375,-3.06549072265625,-2.385101318359375,1.0,2.0,1.0,4.0,2.0,85.0,event
13:35:53.368,0.7832549,0.75132185,-1.2118914,0.8388268,0.4081022,0.50621635,-2.1649864,0.58098227,0.57480264,0.6733676,-1.5631874,0.44325224,0.5752884,-0.09300649,-1.2361207,0.63460696,0.27737388,-0.13058063,-1.3817531,0.4542667,830.0366,814.7253,1047.619,824.3956,749.0476,-0.0849609375,-0.0157470703125,0.99285888671875,1.906585693359375,-3.312225341796875,-3.0206298828125,1.0,2.0,1.0,4.0,2.0,85.0,event
13:35:53.369,0.7832549,0.75132185,-1.2118914,0.8388268,0.4081022,0.50621635,-2.1649864,0.58098227,0.57480264,0.6733676,-1.5631874,0.44325224,0.5752884,-0.09300649,-1.2361207,0.63460696,0.27737388,-0.13058063,-1.3817531,0.4542667,786.1172,819.5604,1039.9634,797.3993,734.5421,-0.0849609375,-0.0157470703125,0.99285888671875,1.906585693359375,-3.312225341796875,-3.0206298828125,1.0,2.0,1.0,4.0,2.0,85.0,event
13:35:53.370,0.7832549,0.75132185,-1.2118914,0.8388268,0.4081022,0.50621635,-2.1649864,0.58098227,0.57480264,0.6733676,-1.5631874,0.44325224,0.5752884,-0.09300649,-1.2361207,0.63460696,0.27737388,-0.13058063,-1.3817531,0.4542667,710.3663,822.381,900.54944,798.20514,745.82416,-0.0849609375,-0.0157470703125,0.99285888671875,1.906585693359375,-3.312225341796875,-3.0206298828125,1.0,2.0,1.0,4.0,2.0,85.0,event
13:35:53.370,0.7832549,0.75132185,-1.2118914,0.8388268,0.4081022,0.50621635,-2.1649864,0.58098227,0.57480264,0.6733676,-1.5631874,0.44325224,0.5752884,-0.09300649,-1.2361207,0.63460696,0.27737388,-0.13058063,-1.3817531,0.4542667,724.4689,814.7253,881.6117,801.4286,783.2967,-0.0849609375,-0.0157470703125,0.99285888671875,1.906585693359375,-3.312225341796875,-3.0206298828125,1.0,2.0,1.0,4.0,2.0,85.0,event
13:35:53.371,0.7832549,0.75132185,-1.2118914,0.8388268,0.4081022,0.50621635,-2.1649864,0.58098227,0.57480264,0.6733676,-1.5631874,0.44325224,0.5752884,-0.09300649,-1.2361207,0.63460696,0.27737388,-0.13058063,-1.3817531,0.4542667,783.2967,813.5165,1023.8461,803.8461,796.1905,-0.0849609375,-0.0157470703125,0.99285888671875,1.906585693359375,-3.312225341796875,-3.0206298828125,1.0,2.0,1.0,4.0,2.0,85.0,event
13:35:53.372,0.7832549,0.75132185,-1.2118914,0.8388268,0.4081022,0.50621635,-2.1649864,0.58098227,0.57480264,0.6733676,-1.5631874,0.44325224,0.5752884,-0.09300649,-1.2361207,0.63460696,0.27737388,-0.13058063,-1.3817531,0.4542667,835.2747,814.7253,877.98535,808.68134,799.81683,-0.0849609375,-0.0157470703125,0.99285888671875,1.906585693359375,-3.312225341796875,-3.0206298828125,1.0,2.0,1.0,4.0,2.0,85.0,event
13:35:53.373,0.7832549,0.75132185,-1.2118914,0.8388268,0.4081022,0.50621635,-2.1649864,0.58098227,0.57480264,0.6733676,-1.5631874,0.44325224,0.5752884,-0.09300649,-1.2361207,0.63460696,0.27737388,-0.13058063,-1.3817531,0.4542667,789.34064,818.3516,557.6557,800.2198,874.7619,-0.0849609375,-0.0157470703125,0.99285888671875,1.906585693359375,-3.312225341796875,-3.0206298828125,1.0,2.0,1.0,4.0,2.0,85.0,event
13:35:53.374,0.7832549,0.75275034,-1.2118914,0.8388268,0.4081022,0.51327956,-2.1649864,0.58098227,0.57480264,0.6733676,-1.5631874,0.44325224,0.5752884,-0.08132607,-1.2361207,0.63460696,0.27737388,-0.13225415,-1.3817531,0.4542667,674.90845,813.1135,127.326004,815.9341,1160.0366,-0.0849609375,-0.0157470703125,0.99285888671875,1.906585693359375,-3.312225341796875,-3.0206298828125,1.0,2.0,1.0,4.0,2.0,85.0,event
13:35:53.379,0.7832549,0.75275034,-1.2118914,0.8388268,0.4081022,0.51327956,-2.1649864,0.58098227,0.57480264,0.6733676,-1.5631874,0.44325224,0.5752884,-0.08132607,-1.2361207,0.63460696,0.27737388,-0.13225415,-1.3817531,0.4542667,695.4579,814.3223,438.7912,807.8755,945.2747,-0.0849609375,-0.0157470703125,0.99285888671875,1.906585693359375,-3.312225341796875,-3.0206298828125,1.0,2.0,1.0,4.0,2.0,85.0,event
13:35:53.379,0.7832549,0.75275034,-1.2118914,0.8388268,0.4081022,0.51327956,-2.1649864,0.58098227,0.57480264,0.6733676,-1.5631874,0.44325224,0.5752884,-0.08132607,-1.2361207,0.63460696,0.27737388,-0.13225415,-1.3817531,0.4542667,801.02563,817.9487,1001.28204,808.2784,623.3333,-0.0849609375,-0.0157470703125,0.99285888671875,1.906585693359375,-3.312225341796875,-3.0206298828125,1.0,2.0,1.0,4.0,2.0,85.0,event
13:35:53.380,0.7832549,0.75275034,-1.2118914,0.8388268,0.4081022,0.51327956,-2.1649864,0.58098227,0.57480264,0.6733676,-1.5631874,0.44325224,0.5752884,-0.08132607,-1.2361207,0.63460696,0.27737388,-0.13225415,-1.3817531,0.4542667,837.6923,816.337,862.674,825.6044,744.61536,-0.0849609375,-0.0157470703125,0.99285888671875,1.906585693359375,-3.312225341796875,-3.0206298828125,1.0,2.0,1.0,4.0,2.0,85.0,event
13:35:53.381,0.7832549,0.75275034,-1.2118914,0.8388268,0.4081022,0.51327956,-2.1649864,0.58098227,0.57480264,0.6733676,-1.5631874,0.44325224,0.5752884,-0.08132607,-1.2361207,0.63460696,0.27737388,-0.13225415,-1.3817531,0.4542667,775.64105,815.5311,687.3993,811.9048,770.80585,-0.0849609375,-0.0157470703125,0.99285888671875,1.906585693359375,-3.312225341796875,-3.0206298828125,1.0,2.0,1.0,4.0,2.0,85.0,event
13:35:53.409,0.7832549,0.75275034,-1.2118914,0.8388268,0.4081022,0.51327956,-2.1649864,0.58098227,0.57480264,0.6733676,-1.5631874,0.44325224,0.5752884,-0.08132607,-1.2361207,0.63460696,0.27737388,-0.13225415,-1.3817531,0.4542667,710.7692,814.3223,860.2564,802.6374,674.90845,-0.06890869140625,-0.01348876953125,0.98291015625,-2.2430419921875,-3.22998046875,2.40753173828125,1.0,2.0,1.0,4.0,2.0,85.0,event
13:35:53.411,0.7832549,0.75275034,-1.2118914,0.8388268,0.4081022,0.51327956,-2.1649864,0.58098227,0.57480264,0.6733676,-1.5631874,0.44325224,0.5752884,-0.08132607,-1.2361207,0.63460696,0.27737388,-0.13225415,-1.3817531,0.4542667,725.2747,807.8755,969.85345,804.65204,689.011,-0.06890869140625,-0.01348876953125,0.98291015625,-2.2430419921875,-3.22998046875,2.40753173828125,1.0,2.0,1.0,4.0,2.0,85.0,event
13:35:53.411,0.7832549,0.75275034,-1.2118914,0.8388268,0.4081022,0.51327956,-2.1649864,0.58098227,0.57480264,0.6733676,-1.5631874,0.44325224,0.5752884,-0.08132607,-1.2361207,0.63460696,0.27737388,-0.13225415,-1.3817531,0.4542667,774.43225,807.0696,751.06226,817.9487,767.5824,-0.06890869140625,-0.01348876953125,0.98291015625,-2.2430419921875,-3.22998046875,2.40753173828125,1.0,2.0,1.0,4.0,2.0,85.0,event
13:35:53.412,0.7832549,0.75275034,-1.2118914,0.8388268,0.4081022,0.51327956,-2.1649864,0.58098227,0.57480264,0.6733676,-1.5631874,0.44325224,0.5752884,-0.08132607,-1.2361207,0.63460696,0.27737388,-0.13225415,-1.3817531,0.4542667,806.6667,814.7253,823.5897,824.7985,764.35895,-0.06890869140625,-0.01348876953125,0.98291015625,-2.2430419921875,-3.22998046875,2.40753173828125,1.0,2.0,1.0,4.0,2.0,85.0,event
13:35:53.413,0.7832549,0.75275034,-1.2118914,0.8388268,0.4081022,0.51327956,-2.1649864,0.58098227,0.57480264,0.6733676,-1.5631874,0.44325224,0.5752884,-0.08132607,-1.2361207,0.63460696,0.27737388,-0.13225415,-1.3817531,0.4542667,796.99634,811.0989,888.86444,811.50183,704.3223,-0.06890869140625,-0.01348876953125,0.98291015625,-2.2430419921875,-3.22998046875,2.40753173828125,1.0,2.0,1.0,4.0,2.0,85.0,event
13:35:53.414,0.7832549,0.75275034,-1.2118914,0.8388268,0.4081022,0.51327956,-2.1649864,0.58098227,0.57480264,0.6733676,-1.5631874,0.44325224,0.5752884,-0.08132607,-1.2361207,0.63460696,0.27737388,-0.13225415,-1.3817531,0.4542667,682.1612,801.02563,315.09158,792.96704,976.30035,-0.06890869140625,-0.01348876953125,0.98291015625,-2.2430419921875,-3.22998046875,2.40753173828125,1.0,2.0,1.0,4.0,2.0,85.0,event
13:35:53.414,0.7832549,0.75275034,-1.2118914,0.8388268,0.4081022,0.51327956,-2.1649864,0.58098227,0.57480264,0.6733676,-1.5631874,0.44325224,0.5752884,-0.08132607,-1.2361207,0.63460696,0.27737388,-0.13225415,-1.3817531,0.4542667,704.3223,802.23444,647.50916,786.1172,725.6777,-0.06890869140625,-0.01348876953125,0.98291015625,-2.2430419921875,-3.22998046875,2.40753173828125,1.0,2.0,1.0,4.0,2.0,85.0,event
13:35:53.415,0.7832549,0.75275034,-1.2118914,0.8388268,0.4081022,0.51327956,-2.1649864,0.58098227,0.57480264,0.6733676,-1.5631874,0.44325224,0.5752884,-0.08132607,-1.2361207,0.63460696,0.27737388,-0.13225415,-1.3817531,0.4542667,759.12085,808.2784,392.45422,821.1722,979.92676,-0.06890869140625,-0.01348876953125,0.98291015625,-2.2430419921875,-3.22998046875,2.40753173828125,1.0,2.0,1.0,4.0,2.0,85.0,event
13:35:53.416,0.7832549,0.75275034,-1.2118914,0.8388268,0.4081022,0.51327956,-2.1649864,0.58098227,0.57480264,0.6733676,-1.5631874,0.44325224,0.5752884,-0.08132607,-1.2361207,0.63460696,0.27737388,-0.13225415,-1.3817531,0.4542667,819.9634,813.1135,969.45056,833.2601,701.50183,-0.06890869140625,-0.01348876953125,0.98291015625,-2.2430419921875,-3.22998046875,2.40753173828125,1.0,2.0,1.0,4.0,2.0,85.0,event
13:35:53.417,0.7832549,0.75275034,-1.2118914,0.8388268,0.4081022,0.51327956,-2.1649864,0.58098227,0.57480264,0.6733676,-1.5631874,0.44325224,0.5752884,-0.08132607,-1.2361207,0.63460696,0.27737388,-0.13225415,-1.3817531,0.4542667,813.1135,813.1135,887.6557,806.6667,728.9011,-0.06890869140625,-0.01348876953125,0.98291015625,-2.2430419921875,-3.22998046875,2.40753173828125,1.0,2.0,1.0,4.0,2.0,85.0,event
13:35:53.419,0.7832549,0.75275034,-1.2118914,0.8388268,0.4081022,0.51327956,-2.1649864,0.58098227,0.57480264,0.6733676,-1.5631874,0.44325224,0.5752884,-0.08132607,-1.2361207,0.63460696,0.27737388,-0.13225415,-1.3817531,0.4542667,727.6923,812.3077,599.9634,807.8755,840.10986,-0.06890869140625,-0.01348876953125,0.98291015625,-2.2430419921875,-3.22998046875,2.40753173828125,1.0,2.0,1.0,4.0,2.0,85.0,event
13:35:53.420,0.7832549,0.75275034,-1.2118914,0.8388268,0.4081022,0.51327956,-2.1649864,0.58098227,0.57480264,0.6733676,-1.5631874,0.44325224,0.5752884,-0.08132607,-1.2361207,0.63460696,0.27737388,-0.13225415,-1.3817531,0.4542667,678.1319,809.4872,879.19415,801.8315,754.68866,-0.06890869140625,-0.01348876953125,0.98291015625,-2.2430419921875,-3.22998046875,2.40753173828125,1.0,2.0,1.0,4.0,2.0,85.0,event
13:35:53.446,0.7832549,0.75275034,-1.2118914,0.8388268,0.4081022,0.51327956,-2.1649864,0.58098227,0.57480264,0.6733676,-1.5631874,0.44325224,0.5752884,-0.08132607,-1.2361207,0.63460696,0.27737388,-0.13225415,-1.3817531,0.4542667,745.42126,807.8755,1109.2675,811.9048,670.07324,-0.08001708984375,-0.02734375,0.9742431640625,-1.188812255859375,-3.476715087890625,7.544097900390625,1.0,2.0,1.0,4.0,2.0,85.0,event
13:35:53.448,0.7832549,0.75275034,-1.2118914,0.8388268,0.4081022,0.51327956,-2.1649864,0.58098227,0.57480264,0.6733676,-1.5631874,0.44325224,0.5752884,-0.08132607,-1.2361207,0.63460696,0.27737388,-0.13225415,-1.3817531,0.4542667,821.978,811.9048,995.2381,846.55676,716.0073,-0.08001708984375,-0.02734375,0.9742431640625,-1.188812255859375,-3.476715087890625,7.544097900390625,1.0,2.0,1.0,4.0,2.0,85.0,event
13:35:53.450,0.7832549,0.75275034,-1.2118914,0.8388268,0.4081022,0.51327956,-2.1649864,0.58098227,0.57480264,0.6733676,-1.5631874,0.44325224,0.5752884,-0.08132607,-1.2361207,0.63460696,0.27737388,-0.13225415,-1.3817531,0.4542667,803.0403,810.696,755.89746,822.7839,783.2967,-0.08001708984375,-0.02734375,0.9742431640625,-1.188812255859375,-3.476715087890625,7.544097900390625,1.0,2.0,1.0,4.0,2.0,85.0,event
13:35:53.451,0.7832549,0.75275034,-1.2118914,0.8388268,0.4081022,0.51327956,-2.1649864,0.58098227,0.57480264,0.6733676,-1.5631874,0.44325224,0.5752884,-0.08132607,-1.2361207,0.63460696,0.27737388,-0.13225415,-1.3817531,0.4542667,723.2601,809.0842,805.05493,788.93774,678.93774,-0.08001708984375,-0.02734375,0.9742431640625,-1.188812255859375,-3.476715087890625,7.544097900390625,1.0,2.0,1.0,4.0,2.0,85.0,event
13:35:53.452,0.7832549,0.75275034,-1.2118914,0.8388268,0.4081022,0.51327956,-2.1649864,0.58098227,0.57480264,0.6733676,-1.5631874,0.44325224,0.5752884,-0.08132607,-1.2361207,0.63460696,0.27737388,-0.13225415,-1.3817531,0.4542667,695.8608,810.293,980.7326,789.34064,616.4835,-0.08001708984375,-0.02734375,0.9742431640625,-1.188812255859375,-3.476715087890625,7.544097900390625,1.0,2.0,1.0,4.0,2.0,85.0,event
13:35:53.453,0.7832549,0.75275034,-1.2118914,0.8388268,0.4081022,0.51327956,-2.1649864,0.58098227,0.57480264,0.6733676,-1.5631874,0.44325224,0.5752884,-0.08132607,-1.2361207,0.63460696,0.27737388,-0.13225415,-1.3817531,0.4542667,751.06226,814.3223,782.8938,810.696,757.9121,-0.08001708984375,-0.02734375,0.9742431640625,-1.188812255859375,-3.476715087890625,7.544097900390625,1.0,2.0,1.0,4.0,2.0,85.0,event
13:35:53.454,0.7832549,0.75275034,-1.2118914,0.8388268,0.4081022,0.51327956,-2.1649864,0.58098227,0.57480264,0.6733676,-1.5631874,0.44325224,0.5752884,-0.08132607,-1.2361207,0.63460696,0.27737388,-0.13225415,-1.3817531,0.4542667,815.12823,819.9634,466.1905,835.2747,979.5238,-0.08001708984375,-0.02734375,0.9742431640625,-1.188812255859375,-3.476715087890625,7.544097900390625,1.0,2.0,1.0,4.0,2.0,85.0,event
13:35:53.455,0.7832549,0.75275034,-1.2118914,0.8388268,0.4081022,0.51327956,-2.1649864,0.58098227,0.57480264,0.6733676,-1.5631874,0.44325224,0.5752884,-0.08132607,-1.2361207,0.63460696,0.27737388,-0.13225415,-1.3817531,0.4542667,828.8278,816.7399,793.7729,816.7399,868.315,-0.08001708984375,-0.02734375,0.9742431640625,-1.188812255859375,-3.476715087890625,7.544097900390625,1.0,2.0,1.0,4.0,2.0,85.0,event
13:35:53.456,0.7832549,0.75275034,-1.2118914,0.8388268,0.4081022,0.51327956,-2.1649864,0.58098227,0.57480264,0.6733676,-1.5631874,0.44325224,0.5752884,-0.08132607,-1.2361207,0.63460696,0.27737388,-0.13225415,-1.3817531,0.4542667,753.47986,819.15753,1047.2161,804.2491,721.6484,-0.08001708984375,-0.02734375,0.9742431640625,-1.188812255859375,-3.476715087890625,7.544097900390625,1.0,2.0,1.0,4.0,2.0,85.0,event
13:35:53.456,0.7832549,0.75315195,-1.2118914,0.8388268,0.4081022,0.5174579,-2.1649864,0.58098227,0.57480264,0.6733676,-1.5631874,0.44325224,0.5752884,-0.060679335,-1.2361207,0.63460696,0.27737388,-0.13416028,-1.3817531,0.4542667,697.0696,823.9927,874.7619,803.0403,805.4579,-0.08001708984375,-0.02734375,0.9742431640625,-1.188812255859375,-3.476715087890625,7.544097900390625,1.0,2.0,1.0,4.0,2.0,85.0,event
13:35:53.460,0.7832549,0.75315195,-1.2118914,0.8388268,0.4081022,0.5174579,-2.1649864,0.58098227,0.57480264,0.6733676,-1.5631874,0.44325224,0.5752884,-0.060679335,-1.2361207,0.63460696,0.27737388,-0.13416028,-1.3817531,0.4542667,740.989,813.5165,819.15753,806.6667,848.5714,-0.08001708984375,-0.02734375,0.9742431640625,-1.188812255859375,-3.476715087890625,7.544097900390625,1.0,2.0,1.0,4.0,2.0,85.0,event
13:35:53.461,0.7832549,0.75315195,-1.2118914,0.8388268,0.4081022,0.5174579,-2.1649864,0.58098227,0.57480264,0.6733676,-1.5631874,0.44325224,0.5752884,-0.060679335,-1.2361207,0.63460696,0.27737388,-0.13416028,-1.3817531,0.4542667,823.5897,810.696,1092.7472,821.5751,732.52747,-0.08001708984375,-0.02734375,0.9742431640625,-1.188812255859375,-3.476715087890625,7.544097900390625,1.0,2.0,1.0,4.0,2.0,85.0,event
13:35:53.487,0.7832549,0.75315195,-1.2118914,0.8388268,0.4081022,0.5174579,-2.1649864,0.58098227,0.57480264,0.6733676,-1.5631874,0.44325224,0.5752884,-0.060679335,-1.2361207,0.63460696,0.27737388,-0.13416028,-1.3817531,0.4542667,818.3516,813.5165,1117.326,803.0403,793.7729,-0.0941162109375,-0.03375244140625,0.9815673828125,0.83740234375,-4.074859619140625,10.108642578125,1.0,2.0,1.0,4.0,2.0,85.0,event
13:35:53.488,0.7832549,0.75315195,-1.2118914,0.8388268,0.4081022,0.5174579,-2.1649864,0.58098227,0.57480264,0.6733676,-1.5631874,0.44325224,0.5752884,-0.060679335,-1.2361207,0.63460696,0.27737388,-0.13416028,-1.3817531,0.4542667,734.94507,812.71063,734.94507,786.52014,966.2271,-0.0941162109375,-0.03375244140625,0.9815673828125,0.83740234375,-4.074859619140625,10.108642578125,1.0,2.0,1.0,4.0,2.0,85.0,event
13:35:53.489,0.7832549,0.75315195,-1.2118914,0.8388268,0.4081022,0.5174579,-2.1649864,0.58098227,0.57480264,0.6733676,-1.5631874,0.44325224,0.5752884,-0.060679335,-1.2361207,0.63460696,0.27737388,-0.13416028,-1.3817531,0.4542667,691.8315,813.91943,748.6447,793.7729,878.7912,-0.0941162109375,-0.03375244140625,0.9815673828125,0.83740234375,-4.074859619140625,10.108642578125,1.0,2.0,1.0,4.0,2.0,85.0,event
13:35:53.490,0.7832549,0.75315195,-1.2118914,0.8388268,0.4081022,0.5174579,-2.1649864,0.58098227,0.57480264,0.6733676,-1.5631874,0.44325224,0.5752884,-0.060679335,-1.2361207,0.63460696,0.27737388,-0.13416028,-1.3817531,0.4542667,721.2454,815.5311,1072.1978,805.4579,667.25275,-0.0941162109375,-0.03375244140625,0.9815673828125,0.83740234375,-4.074859619140625,10.108642578125,1.0,2.0,1.0,4.0,2.0,85.0,event
13:35:53.490,0.7832549,0.75315195,-1.2118914,0.8388268,0.4081022,0.5174579,-2.1649864,0.58098227,0.57480264,0.6733676,-1.5631874,0.44325224,0.5752884,-0.060679335,-1.2361207,0.63460696,0.27737388,-0.13416028,-1.3817531,0.4542667,803.44324,815.12823,1114.9084,794.57874,714.7985,-0.0941162109375,-0.03375244140625,0.9815673828125,0.83740234375,-4.074859619140625,10.108642578125,1.0,2.0,1.0,4.0,2.0,85.0,event
13:35:53.491,0.7832549,0.75315195,-1.2118914,0.8388268,0.4081022,0.5174579,-2.1649864,0.58098227,0.57480264,0.6733676,-1.5631874,0.44325224,0.5752884,-0.060679335,-1.2361207,0.63460696,0.27737388,-0.13416028,-1.3817531,0.4542667,818.3516,817.1429,834.87177,811.50183,944.0659,-0.0941162109375,-0.03375244140625,0.9815673828125,0.83740234375,-4.074859619140625,10.108642578125,1.0,2.0,1.0,4.0,2.0,85.0,event
13:35:53.491,0.7832549,0.75315195,-1.2118914,0.8388268,0.4081022,0.5174579,-2.1649864,0.58098227,0.57480264,0.6733676,-1.5631874,0.44325224,0.5752884,-0.060679335,-1.2361207,0.63460696,0.27737388,-0.13416028,-1.3817531,0.4542667,754.68866,815.9341,664.83514,807.8755,903.7729,-0.0941162109375,-0.03375244140625,0.9815673828125,0.83740234375,-4.074859619140625,10.108642578125,1.0,2.0,1.0,4.0,2.0,85.0,event
13:35:53.492,0.7832549,0.75315195,-1.2118914,0.8388268,0.4081022,0.5174579,-2.1649864,0.58098227,0.57480264,0.6733676,-1.5631874,0.44325224,0.5752884,-0.060679335,-1.2361207,0.63460696,0.27737388,-0.13416028,-1.3817531,0.4542667,714.3956,813.5165,884.0293,791.3553,741.39197,-0.0941162109375,-0.03375244140625,0.9815673828125,0.83740234375,-4.074859619140625,10.108642578125,1.0,2.0,1.0,4.0,2.0,85.0,event
13:35:53.492,0.7832549,0.75315195,-1.2118914,0.8388268,0.4081022,0.5174579,-2.1649864,0.58098227,0.57480264,0.6733676,-1.5631874,0.44325224,0.5752884,-0.060679335,-1.2361207,0.63460696,0.27737388,-0.13416028,-1.3817531,0.4542667,727.6923,811.50183,1076.63,811.9048,743.8095,-0.0941162109375,-0.03375244140625,0.9815673828125,0.83740234375,-4.074859619140625,10.108642578125,1.0,2.0,1.0,4.0,2.0,85.0,event
13:35:53.493,0.7832549,0.75315195,-1.2118914,0.8388268,0.4081022,0.5174579,-2.1649864,0.58098227,0.57480264,0.6733676,-1.5631874,0.44325224,0.5752884,-0.060679335,-1.2361207,0.63460696,0.27737388,-0.13416028,-1.3817531,0.4542667,790.54944,806.6667,684.57874,820.7692,945.6777,-0.0941162109375,-0.03375244140625,0.9815673828125,0.83740234375,-4.074859619140625,10.108642578125,1.0,2.0,1.0,4.0,2.0,85.0,event
13:35:53.494,0.7832549,0.75315195,-1.2118914,0.8388268,0.4081022,0.5174579,-2.1649864,0.58098227,0.57480264,0.6733676,-1.5631874,0.44325224,0.5752884,-0.060679335,-1.2361207,0.63460696,0.27737388,-0.13416028,-1.3817531,0.4542667,781.685,814.3223,1116.9231,796.99634,759.5238,-0.0941162109375,-0.03375244140625,0.9815673828125,0.83740234375,-4.074859619140625,10.108642578125,1.0,2.0,1.0,4.0,2.0,85.0,event
13:35:53.494,0.7832549,0.75315195,-1.2118914,0.8388268,0.4081022,0.5174579,-2.1649864,0.58098227,0.57480264,0.6733676,-1.5631874,0.44325224,0.5752884,-0.060679335,-1.2361207,0.63460696,0.27737388,-0.13416028,-1.3817531,0.4542667,832.4542,812.3077,716.4103,810.696,902.96704,-0.0941162109375,-0.03375244140625,0.9815673828125,0.83740234375,-4.074859619140625,10.108642578125,1.0,2.0,1.0,4.0,2.0,85.0,event
13:35:53.585,0.7832549,0.75315195,-1.2118914,0.8388268,0.4081022,0.5174579,-2.1649864,0.58098227,0.57480264,0.6733676,-1.5631874,0.44325224,0.5752884,-0.060679335,-1.2361207,0.63460696,0.27737388,-0.13416028,-1.3817531,0.4542667,711.5751,806.6667,1029.0842,803.0403,756.7033,-0.0941162109375,-0.03375244140625,0.9815673828125,0.83740234375,-4.074859619140625,10.108642578125,1.0,2.0,1.0,4.0,2.0,85.0,event
13:35:53.586,0.7832549,0.75315195,-1.2118914,0.8388268,0.4081022,0.5174579,-2.1649864,0.58098227,0.57480264,0.6733676,-1.5631874,0.44325224,0.5752884,-0.060679335,-1.2361207,0.63460696,0.27737388,-0.13416028,-1.3817531,0.4542667,741.79486,811.0989,963.4066,796.1905,782.49084,-0.0941162109375,-0.03375244140625,0.9815673828125,0.83740234375,-4.074859619140625,10.108642578125,1.0,2.0,1.0,4.0,2.0,85.0,event
13:35:53.587,0.7832549,0.75315195,-1.2118914,0.8388268,0.4081022,0.5174579,-2.1649864,0.58098227,0.57480264,0.6733676,-1.5631874,0.44325224,0.5752884,-0.060679335,-1.2361207,0.63460696,0.27737388,-0.13416028,-1.3817531,0.4542667,812.3077,813.1135,1190.2565,800.2198,829.6337,-0.0941162109375,-0.03375244140625,0.9815673828125,0.83740234375,-4.074859619140625,10.108642578125,1.0,2.0,1.0,4.0,2.0,85.0,event
