TimeStamp,Delta_TP9,Delta_AF7,Delta_AF8,Delta_TP10,Theta_TP9,Theta_AF7,Theta_AF8,Theta_TP10,Alpha_TP9,Alpha_AF7,Alpha_AF8,Alpha_TP10,Beta_TP9,Beta_AF7,Beta_AF8,Beta_TP10,Gamma_TP9,Gamma_AF7,Gamma_AF8,Gamma_TP10,RAW_TP9,RAW_AF7,RAW_AF8,RAW_TP10,AUX_RIGHT,Accelerometer_X,Accelerometer_Y,Accelerometer_Z,Gyro_X,Gyro_Y,Gyro_Z,HeadBandOn,HSI_TP9,HSI_AF7,HSI_AF8,HSI_TP10,Battery,Elements
15:35:27.475,0.9687343,1.2833303,1.0489141,0.80122226,0.43370226,1.3122164,0.8125008,0.4955994,0.5077826,1.1642677,0.6562403,0.69521695,0.40971598,0.54118675,0.47875968,0.39347854,0.39524564,0.114104524,0.08842969,0.49227276,817.5458,802.6374,803.0403,805.8608,763.95605,-0.177978515625,0.12066650390625,0.9735107421875,2.40753173828125,-3.51409912109375,-1.667327880859375,1.0,1.0,1.0,1.0,1.0,100.0,event
15:35:27.475,0.9687343,1.2833303,1.0489141,0.80122226,0.43370226,1.3122164,0.8125008,0.4955994,0.5077826,1.1642677,0.6562403,0.69521695,0.40971598,0.54118675,0.47875968,0.39347854,0.39524564,0.114104524,0.08842969,0.49227276,811.50183,805.05493,806.6667,800.2198,767.5824,-0.177978515625,0.12066650390625,0.9735107421875,2.40753173828125,-3.51409912109375,-1.667327880859375,1.0,1.0,1.0,1.0,1.0,100.0,event
15:35:27.476,0.9687343,1.2833303,1.0489141,0.80122226,0.43370226,1.3122164,0.8125008,0.4955994,0.5077826,1.1642677,0.6562403,0.69521695,0.40971598,0.54118675,0.47875968,0.39347854,0.39524564,0.114104524,0.08842969,0.49227276,809.89014,807.0696,812.71063,803.0403,770.80585,-0.177978515625,0.12066650390625,0.9735107421875,2.40753173828125,-3.51409912109375,-1.667327880859375,1.0,1.0,1.0,1.0,1.0,100.0,event
15:35:27.477,0.9687343,1.2833303,1.0489141,0.80122226,0.43370226,1.3122164,0.8125008,0.4955994,0.5077826,1.1642677,0.6562403,0.69521695,0.40971598,0.54118675,0.47875968,0.39347854,0.39524564,0.114104524,0.08842969,0.49227276,792.1612,808.2784,819.15753,794.17584,780.07324,-0.177978515625,0.12066650390625,0.9735107421875,2.40753173828125,-3.51409912109375,-1.667327880859375,1.0,1.0,1.0,1.0,1.0,100.0,event
15:35:27.478,0.9687343,1.2833303,1.0489141,0.80122226,0.43370226,1.3122164,0.8125008,0.4955994,0.5077826,1.1642677,0.6562403,0.69521695,0.40971598,0.54118675,0.47875968,0.39347854,0.39524564,0.114104524,0.08842969,0.49227276,807.8755,810.696,815.12823,805.8608,705.12823,-0.177978515625,0.12066650390625,0.9735107421875,2.40753173828125,-3.51409912109375,-1.667327880859375,1.0,1.0,1.0,1.0,1.0,100.0,event
15:35:27.478,0.9687343,1.2833303,1.0489141,0.80122226,0.43370226,1.3122164,0.8125008,0.4955994,0.5077826,1.1642677,0.6562403,0.69521695,0.40971598,0.54118675,0.47875968,0.39347854,0.39524564,0.114104524,0.08842969,0.49227276,808.68134,798.60803,806.26373,858.6447,965.0183,-0.177978515625,0.12066650390625,0.9735107421875,2.40753173828125,-3.51409912109375,-1.667327880859375,1.0,1.0,1.0,1.0,1.0,100.0,event
15:35:27.479,0.9687343,1.2833303,1.0489141,0.80122226,0.43370226,1.3122164,0.8125008,0.4955994,0.5077826,1.1642677,0.6562403,0.69521695,0.40971598,0.54118675,0.47875968,0.39347854,0.39524564,0.114104524,0.08842969,0.49227276,786.1172,801.8315,828.4249,821.1722,920.293,-0.177978515625,0.12066650390625,0.9735107421875,2.40753173828125,-3.51409912109375,-1.667327880859375,1.0,1.0,1.0,1.0,1.0,100.0,event
15:35:27.479,0.9687343,1.2833303,1.0489141,0.80122226,0.43370226,1.3122164,0.8125008,0.4955994,0.5077826,1.1642677,0.6562403,0.69521695,0.40971598,0.54118675,0.47875968,0.39347854,0.39524564,0.114104524,0.08842969,0.49227276,802.23444,812.71063,838.9011,768.3883,664.0293,-0.177978515625,0.12066650390625,0.9735107421875,2.40753173828125,-3.51409912109375,-1.667327880859375,1.0,1.0,1.0,1.0,1.0,100.0,event
15:35:27.480,0.9687343,1.2833303,1.0489141,0.80122226,0.43370226,1.3122164,0.8125008,0.4955994,0.5077826,1.1642677,0.6562403,0.69521695,0.40971598,0.54118675,0.47875968,0.39347854,0.39524564,0.114104524,0.08842969,0.49227276,804.2491,805.8608,829.6337,802.6374,977.9121,-0.177978515625,0.12066650390625,0.9735107421875,2.40753173828125,-3.51409912109375,-1.667327880859375,1.0,1.0,1.0,1.0,1.0,100.0,event
15:35:27.480,0.9687343,1.2833303,1.0489141,0.80122226,0.43370226,1.3122164,0.8125008,0.4955994,0.5077826,1.1642677,0.6562403,0.69521695,0.40971598,0.54118675,0.47875968,0.39347854,0.39524564,0.114104524,0.08842969,0.49227276,799.011,807.47253,830.4396,806.6667,810.293,-0.177978515625,0.12066650390625,0.9735107421875,2.40753173828125,-3.51409912109375,-1.667327880859375,1.0,1.0,1.0,1.0,1.0,100.0,event
15:35:27.481,0.9687343,1.2833303,1.0489141,0.80122226,0.43370226,1.3122164,0.8125008,0.4955994,0.5077826,1.1642677,0.6562403,0.69521695,0.40971598,0.54118675,0.47875968,0.39347854,0.39524564,0.114104524,0.08842969,0.49227276,813.5165,816.337,842.9304,785.31134,799.41394,-0.177978515625,0.12066650390625,0.9735107421875,2.40753173828125,-3.51409912109375,-1.667327880859375,1.0,1.0,1.0,1.0,1.0,100.0,event
15:35:27.481,0.9687343,1.2833303,1.0489141,0.80122226,0.43370226,1.3122164,0.8125008,0.4955994,0.5077826,1.1642677,0.6562403,0.69521695,0.40971598,0.54118675,0.47875968,0.39347854,0.39524564,0.114104524,0.08842969,0.49227276,802.23444,817.1429,823.1868,810.696,695.8608,-0.177978515625,0.12066650390625,0.9735107421875,2.40753173828125,-3.51409912109375,-1.667327880859375,1.0,1.0,1.0,1.0,1.0,100.0,event
15:35:27.516,0.9687343,1.2833303,1.0489141,0.80122226,0.43370226,1.3122164,0.8125008,0.4955994,0.5077826,1.1642677,0.6562403,0.69521695,0.40971598,0.54118675,0.47875968,0.39347854,0.39524564,0.114104524,0.08842969,0.49227276,784.10254,810.696,807.0696,788.1319,738.5714,-0.18243408203125,0.1134033203125,0.97210693359375,1.054229736328125,-1.786956787109375,0.007476806640625,1.0,1.0,1.0,1.0,1.0,100.0,event
15:35:27.517,0.9687343,1.2833303,1.0489141,0.80122226,0.43370226,1.3122164,0.8125008,0.4955994,0.5077826,1.1642677,0.6562403,0.69521695,0.40971598,0.54118675,0.47875968,0.39347854,0.39524564,0.114104524,0.08842969,0.49227276,794.17584,815.5311,815.9341,781.28204,758.315,-0.18243408203125,0.1134033203125,0.97210693359375,1.054229736328125,-1.786956787109375,0.007476806640625,1.0,1.0,1.0,1.0,1.0,100.0,event
15:35:27.517,0.9687343,1.2833303,1.0489141,0.80122226,0.43370226,1.3122164,0.8125008,0.4955994,0.5077826,1.1642677,0.6562403,0.69521695,0.40971598,0.54118675,0.47875968,0.39347854,0.39524564,0.114104524,0.08842969,0.49227276,817.1429,814.3223,816.7399,803.0403,758.315,-0.18243408203125,0.1134033203125,0.97210693359375,1.054229736328125,-1.786956787109375,0.007476806640625,1.0,1.0,1.0,1.0,1.0,100.0,event
15:35:27.517,0.9687343,1.2899348,1.0489141,0.80122226,0.43370226,1.3104393,0.8125008,0.4955994,0.5077826,1.1642677,0.6562403,0.69521695,0.40971598,0.54493016,0.47875968,0.39347854,0.39524564,0.11271501,0.08842969,0.49227276,818.7546,809.4872,803.44324,801.02563,768.3883,-0.18243408203125,0.1134033203125,0.97210693359375,1.054229736328125,-1.786956787109375,0.007476806640625,1.0,2.0,1.0,1.0,2.0,100.0,event
15:35:27.520,0.9687343,1.2899348,1.0489141,0.80122226,0.43370226,1.3104393,0.8125008,0.4955994,0.5077826,1.1642677,0.6562403,0.69521695,0.40971598,0.54493016,0.47875968,0.39347854,0.39524564,0.11271501,0.08842969,0.49227276,795.78754,809.4872,794.57874,792.1612,792.5641,-0.18243408203125,0.1134033203125,0.97210693359375,1.054229736328125,-1.786956787109375,0.007476806640625,1.0,2.0,1.0,1.0,2.0,100.0,event
15:35:27.521,0.9687343,1.2899348,1.0489141,0.80122226,0.43370226,1.3104393,0.8125008,0.4955994,0.5077826,1.1642677,0.6562403,0.69521695,0.40971598,0.54493016,0.47875968,0.39347854,0.39524564,0.11271501,0.08842969,0.49227276,774.43225,798.60803,805.8608,760.7326,890.4762,-0.18243408203125,0.1134033203125,0.97210693359375,1.054229736328125,-1.786956787109375,0.007476806640625,1.0,2.0,1.0,1.0,2.0,100.0,event
15:35:27.521,0.9687343,1.2899348,1.0489141,0.80122226,0.43370226,1.3104393,0.8125008,0.4955994,0.5077826,1.1642677,0.6562403,0.69521695,0.40971598,0.54493016,0.47875968,0.39347854,0.39524564,0.11271501,0.08842969,0.49227276,787.326,804.2491,801.02563,780.87915,843.3333,-0.18243408203125,0.1134033203125,0.97210693359375,1.054229736328125,-1.786956787109375,0.007476806640625,1.0,2.0,1.0,1.0,2.0,100.0,event
15:35:27.522,0.9687343,1.2899348,1.0489141,0.80122226,0.43370226,1.3104393,0.8125008,0.4955994,0.5077826,1.1642677,0.6562403,0.69521695,0.40971598,0.54493016,0.47875968,0.39347854,0.39524564,0.11271501,0.08842969,0.49227276,797.3993,793.7729,778.0586,797.8022,1016.1905,-0.18243408203125,0.1134033203125,0.97210693359375,1.054229736328125,-1.786956787109375,0.007476806640625,1.0,2.0,1.0,1.0,2.0,100.0,event
15:35:27.522,0.9687343,1.2899348,1.0489141,0.80122226,0.43370226,1.3104393,0.8125008,0.4955994,0.5077826,1.1642677,0.6562403,0.69521695,0.40971598,0.54493016,0.47875968,0.39347854,0.39524564,0.11271501,0.08842969,0.49227276,785.31134,798.20514,797.8022,759.12085,908.20514,-0.18243408203125,0.1134033203125,0.97210693359375,1.054229736328125,-1.786956787109375,0.007476806640625,1.0,2.0,1.0,1.0,2.0,100.0,event
15:35:27.523,0.9687343,1.2899348,1.0489141,0.80122226,0.43370226,1.3104393,0.8125008,0.4955994,0.5077826,1.1642677,0.6562403,0.69521695,0.40971598,0.54493016,0.47875968,0.39347854,0.39524564,0.11271501,0.08842969,0.49227276,808.68134,793.36993,790.54944,817.9487,1124.9817,-0.18243408203125,0.1134033203125,0.97210693359375,1.054229736328125,-1.786956787109375,0.007476806640625,1.0,2.0,1.0,1.0,2.0,100.0,event
15:35:27.523,0.9687343,1.2899348,1.0489141,0.80122226,0.43370226,1.3104393,0.8125008,0.4955994,0.5077826,1.1642677,0.6562403,0.69521695,0.40971598,0.54493016,0.47875968,0.39347854,0.39524564,0.11271501,0.08842969,0.49227276,821.978,810.293,815.9341,774.0293,816.337,-0.18243408203125,0.1134033203125,0.97210693359375,1.054229736328125,-1.786956787109375,0.007476806640625,1.0,2.0,1.0,1.0,2.0,100.0,event
15:35:27.523,0.9687343,1.2899348,1.0489141,0.80122226,0.43370226,1.3104393,0.8125008,0.4955994,0.5077826,1.1642677,0.6562403,0.69521695,0.40971598,0.54493016,0.47875968,0.39347854,0.39524564,0.11271501,0.08842969,0.49227276,805.8608,807.0696,799.81683,754.2857,635.0183,-0.18243408203125,0.1134033203125,0.97210693359375,1.054229736328125,-1.786956787109375,0.007476806640625,1.0,2.0,1.0,1.0,2.0,100.0,event
15:35:27.562,0.9687343,1.2899348,1.0489141,0.80122226,0.43370226,1.3104393,0.8125008,0.4955994,0.5077826,1.1642677,0.6562403,0.69521695,0.40971598,0.54493016,0.47875968,0.39347854,0.39524564,0.11271501,0.08842969,0.49227276,791.75824,801.02563,794.9817,778.0586,715.6044,-0.1824951171875,0.1114501953125,0.95916748046875,2.086029052734375,-2.6617431640625,-1.637420654296875,1.0,2.0,1.0,1.0,2.0,100.0,event
15:35:27.563,0.9687343,1.2899348,1.0489141,0.80122226,0.43370226,1.3104393,0.8125008,0.4955994,0.5077826,1.1642677,0.6562403,0.69521695,0.40971598,0.54493016,0.47875968,0.39347854,0.39524564,0.11271501,0.08842969,0.49227276,792.5641,806.26373,802.6374,778.0586,724.4689,-0.1824951171875,0.1114501953125,0.95916748046875,2.086029052734375,-2.6617431640625,-1.637420654296875,1.0,2.0,1.0,1.0,2.0,100.0,event
15:35:27.563,0.9687343,1.2899348,1.0489141,0.80122226,0.43370226,1.3104393,0.8125008,0.4955994,0.5077826,1.1642677,0.6562403,0.69521695,0.40971598,0.54493016,0.47875968,0.39347854,0.39524564,0.11271501,0.08842969,0.49227276,803.44324,804.65204,797.8022,777.25275,668.0586,-0.1824951171875,0.1114501953125,0.95916748046875,2.086029052734375,-2.6617431640625,-1.637420654296875,1.0,2.0,1.0,1.0,2.0,100.0,event
15:35:27.564,0.9687343,1.2899348,1.0489141,0.80122226,0.43370226,1.3104393,0.8125008,0.4955994,0.5077826,1.1642677,0.6562403,0.69521695,0.40971598,0.54493016,0.47875968,0.39347854,0.39524564,0.11271501,0.08842969,0.49227276,815.12823,801.8315,794.57874,779.67035,673.2967,-0.1824951171875,0.1114501953125,0.95916748046875,2.086029052734375,-2.6617431640625,-1.637420654296875,1.0,2.0,1.0,1.0,2.0,100.0,event
15:35:27.564,0.9687343,1.2899348,1.0489141,0.80122226,0.43370226,1.3104393,0.8125008,0.4955994,0.5077826,1.1642677,0.6562403,0.69521695,0.40971598,0.54493016,0.47875968,0.39347854,0.39524564,0.11271501,0.08842969,0.49227276,816.337,795.38464,800.6227,780.4762,751.06226,-0.1824951171875,0.1114501953125,0.95916748046875,2.086029052734375,-2.6617431640625,-1.637420654296875,1.0,2.0,1.0,1.0,2.0,100.0,event
15:35:27.565,0.9687343,1.2899348,1.0489141,0.80122226,0.43370226,1.3104393,0.8125008,0.4955994,0.5077826,1.1642677,0.6562403,0.69521695,0.40971598,0.54493016,0.47875968,0.39347854,0.39524564,0.11271501,0.08842969,0.49227276,834.4689,794.17584,797.3993,794.17584,847.76556,-0.1824951171875,0.1114501953125,0.95916748046875,2.086029052734375,-2.6617431640625,-1.637420654296875,1.0,2.0,1.0,1.0,2.0,100.0,event
15:35:27.565,0.9687343,1.2899348,1.0489141,0.80122226,0.43370226,1.3104393,0.8125008,0.4955994,0.5077826,1.1642677,0.6562403,0.69521695,0.40971598,0.54493016,0.47875968,0.39347854,0.39524564,0.11271501,0.08842969,0.49227276,811.0989,792.5641,797.3993,777.6557,838.49817,-0.1824951171875,0.1114501953125,0.95916748046875,2.086029052734375,-2.6617431640625,-1.637420654296875,1.0,2.0,1.0,1.0,2.0,100.0,event
15:35:27.566,0.9687343,1.2899348,1.0489141,0.80122226,0.43370226,1.3104393,0.8125008,0.4955994,0.5077826,1.1642677,0.6562403,0.69521695,0.40971598,0.54493016,0.47875968,0.39347854,0.39524564,0.11271501,0.08842969,0.49227276,821.1722,799.81683,796.99634,792.1612,787.72894,-0.1824951171875,0.1114501953125,0.95916748046875,2.086029052734375,-2.6617431640625,-1.637420654296875,1.0,2.0,1.0,1.0,2.0,100.0,event
15:35:27.566,0.9687343,1.2899348,1.0489141,0.80122226,0.43370226,1.3104393,0.8125008,0.4955994,0.5077826,1.1642677,0.6562403,0.69521695,0.40971598,0.54493016,0.47875968,0.39347854,0.39524564,0.11271501,0.08842969,0.49227276,791.3553,799.011,790.54944,796.1905,993.6264,-0.1824951171875,0.1114501953125,0.95916748046875,2.086029052734375,-2.6617431640625,-1.637420654296875,1.0,2.0,1.0,1.0,2.0,100.0,event
15:35:27.567,0.9687343,1.2899348,1.0489141,0.80122226,0.43370226,1.3104393,0.8125008,0.4955994,0.5077826,1.1642677,0.6562403,0.69521695,0.40971598,0.54493016,0.47875968,0.39347854,0.39524564,0.11271501,0.08842969,0.49227276,808.2784,805.05493,816.7399,808.68134,970.65936,-0.1824951171875,0.1114501953125,0.95916748046875,2.086029052734375,-2.6617431640625,-1.637420654296875,1.0,2.0,1.0,1.0,2.0,100.0,event
15:35:27.567,0.9687343,1.2899348,1.0489141,0.80122226,0.43370226,1.3104393,0.8125008,0.4955994,0.5077826,1.1642677,0.6562403,0.69521695,0.40971598,0.54493016,0.47875968,0.39347854,0.39524564,0.11271501,0.08842969,0.49227276,817.9487,814.7253,813.5165,772.8205,720.4396,-0.1824951171875,0.1114501953125,0.95916748046875,2.086029052734375,-2.6617431640625,-1.637420654296875,1.0,2.0,1.0,1.0,2.0,100.0,event
15:35:27.568,0.9687343,1.2899348,1.0489141,0.80122226,0.43370226,1.3104393,0.8125008,0.4955994,0.5077826,1.1642677,0.6562403,0.69521695,0.40971598,0.54493016,0.47875968,0.39347854,0.39524564,0.11271501,0.08842969,0.49227276,804.65204,805.8608,793.7729,763.95605,773.22345,-0.1824951171875,0.1114501953125,0.95916748046875,2.086029052734375,-2.6617431640625,-1.637420654296875,1.0,2.0,1.0,1.0,2.0,100.0,event
15:35:27.638,0.9687343,1.2899348,1.0489141,0.80122226,0.43370226,1.3104393,0.8125008,0.4955994,0.5077826,1.1642677,0.6562403,0.69521695,0.40971598,0.54493016,0.47875968,0.39347854,0.39524564,0.11271501,0.08842969,0.49227276,780.4762,796.99634,814.3223,784.10254,814.3223,-0.1907958984375,0.10888671875,0.9537353515625,2.983245849609375,-0.04486083984375,0.859832763671875,1.0,2.0,1.0,1.0,2.0,100.0,event
15:35:27.639,0.9687343,1.2899348,1.0489141,0.80122226,0.43370226,1.3104393,0.8125008,0.4955994,0.5077826,1.1642677,0.6562403,0.69521695,0.40971598,0.54493016,0.47875968,0.39347854,0.39524564,0.11271501,0.08842969,0.49227276,795.38464,800.2198,824.3956,784.5055,726.4835,-0.1907958984375,0.10888671875,0.9537353515625,2.983245849609375,-0.04486083984375,0.859832763671875,1.0,2.0,1.0,1.0,2.0,100.0,event
15:35:27.640,0.9687343,1.2899348,1.0489141,0.80122226,0.43370226,1.3104393,0.8125008,0.4955994,0.5077826,1.1642677,0.6562403,0.69521695,0.40971598,0.54493016,0.47875968,0.39347854,0.39524564,0.11271501,0.08842969,0.49227276,830.84247,798.20514,811.50183,780.87915,715.2015,-0.1907958984375,0.10888671875,0.9537353515625,2.983245849609375,-0.04486083984375,0.859832763671875,1.0,2.0,1.0,1.0,2.0,100.0,event
15:35:27.640,0.9687343,1.2899348,1.0489141,0.80122226,0.43370226,1.3104393,0.8125008,0.4955994,0.5077826,1.1642677,0.6562403,0.69521695,0.40971598,0.54493016,0.47875968,0.39347854,0.39524564,0.11271501,0.08842969,0.49227276,799.011,794.17584,799.011,766.3736,758.315,-0.1907958984375,0.10888671875,0.9537353515625,2.983245849609375,-0.04486083984375,0.859832763671875,1.0,2.0,1.0,1.0,2.0,100.0,event
15:35:27.641,0.9687343,1.293303,1.0489141,0.80122226,0.43370226,1.3029863,0.8125008,0.4955994,0.5077826,1.1628377,0.6562403,0.69521695,0.40971598,0.55228436,0.47875968,0.39347854,0.39524564,0.09695876,0.08842969,0.49227276,816.7399,803.0403,804.2491,792.5641,763.95605,-0.1907958984375,0.10888671875,0.9537353515625,2.983245849609375,-0.04486083984375,0.859832763671875,1.0,2.0,1.0,1.0,2.0,100.0,event
15:35:27.641,0.9687343,1.2899348,1.0489141,0.80122226,0.43370226,1.3104393,0.8125008,0.4955994,0.5077826,1.1642677,0.6562403,0.69521695,0.40971598,0.54493016,0.47875968,0.39347854,0.39524564,0.11271501,0.08842969,0.49227276,798.20514,799.011,803.44324,776.4469,735.7509,-0.1907958984375,0.10888671875,0.9537353515625,2.983245849609375,-0.04486083984375,0.859832763671875,1.0,2.0,1.0,1.0,2.0,100.0,event
15:35:27.645,0.9687343,1.293303,1.0489141,0.80122226,0.43370226,1.3029863,0.8125008,0.4955994,0.5077826,1.1628377,0.6562403,0.69521695,0.40971598,0.55228436,0.47875968,0.39347854,0.39524564,0.09695876,0.08842969,0.49227276,785.31134,801.4286,804.65204,757.50916,848.1685,-0.1907958984375,0.10888671875,0.9537353515625,2.983245849609375,-0.04486083984375,0.859832763671875,1.0,2.0,1.0,1.0,2.0,100.0,event
15:35:27.645,0.9687343,1.293303,1.0489141,0.80122226,0.43370226,1.3029863,0.8125008,0.4955994,0.5077826,1.1628377,0.6562403,0.69521695,0.40971598,0.55228436,0.47875968,0.39347854,0.39524564,0.09695876,0.08842969,0.49227276,776.8498,797.8022,791.3553,763.5531,1002.0879,-0.1907958984375,0.10888671875,0.9537353515625,2.983245849609375,-0.04486083984375,0.859832763671875,1.0,2.0,1.0,1.0,2.0,100.0,event
15:35:27.646,0.9687343,1.293303,1.0489141,0.80122226,0.43370226,1.3029863,0.8125008,0.4955994,0.5077826,1.1628377,0.6562403,0.69521695,0.40971598,0.55228436,0.47875968,0.39347854,0.39524564,0.09695876,0.08842969,0.49227276,810.696,805.8608,797.8022,810.696,1106.044,-0.1907958984375,0.10888671875,0.9537353515625,2.983245849609375,-0.04486083984375,0.859832763671875,1.0,2.0,1.0,1.0,2.0,100.0,event
15:35:27.647,0.9687343,1.293303,1.0489141,0.80122226,0.43370226,1.3029863,0.8125008,0.4955994,0.5077826,1.1628377,0.6562403,0.69521695,0.40971598,0.55228436,0.47875968,0.39347854,0.39524564,0.09695876,0.08842969,0.49227276,822.381,823.1868,805.05493,796.99634,832.8571,-0.1907958984375,0.10888671875,0.9537353515625,2.983245849609375,-0.04486083984375,0.859832763671875,1.0,2.0,1.0,1.0,2.0,100.0,event
15:35:27.647,0.9687343,1.293303,1.0489141,0.80122226,0.43370226,1.3029863,0.8125008,0.4955994,0.5077826,1.1628377,0.6562403,0.69521695,0.40971598,0.55228436,0.47875968,0.39347854,0.39524564,0.09695876,0.08842969,0.49227276,805.05493,819.9634,788.93774,769.59705,668.0586,-0.1907958984375,0.10888671875,0.9537353515625,2.983245849609375,-0.04486083984375,0.859832763671875,1.0,2.0,1.0,1.0,2.0,100.0,event
15:35:27.648,0.9687343,1.293303,1.0489141,0.80122226,0.43370226,1.3029863,0.8125008,0.4955994,0.5077826,1.1628377,0.6562403,0.69521695,0.40971598,0.55228436,0.47875968,0.39347854,0.39524564,0.09695876,0.08842969,0.49227276,794.57874,811.0989,783.2967,752.27106,745.0183,-0.1907958984375,0.10888671875,0.9537353515625,2.983245849609375,-0.04486083984375,0.859832763671875,1.0,2.0,1.0,1.0,2.0,100.0,event
15:35:27.677,0.9687343,1.293303,1.0489141,0.80122226,0.43370226,1.3029863,0.8125008,0.4955994,0.5077826,1.1628377,0.6562403,0.69521695,0.40971598,0.55228436,0.47875968,0.39347854,0.39524564,0.09695876,0.08842969,0.49227276,787.326,811.50183,778.86444,760.32965,828.022,-0.2030029296875,0.12481689453125,0.95751953125,3.63372802734375,-3.21502685546875,1.016845703125,1.0,2.0,1.0,1.0,2.0,100.0,event
15:35:27.678,0.9687343,1.293303,1.0489141,0.80122226,0.43370226,1.3029863,0.8125008,0.4955994,0.5077826,1.1628377,0.6562403,0.69521695,0.40971598,0.55228436,0.47875968,0.39347854,0.39524564,0.09695876,0.08842969,0.49227276,798.20514,817.9487,782.49084,791.3553,751.4652,-0.2030029296875,0.12481689453125,0.95751953125,3.63372802734375,-3.21502685546875,1.016845703125,1.0,2.0,1.0,1.0,2.0,100.0,event
15:35:27.679,0.9687343,1.293303,1.0489141,0.80122226,0.43370226,1.3029863,0.8125008,0.4955994,0.5077826,1.1628377,0.6562403,0.69521695,0.40971598,0.55228436,0.47875968,0.39347854,0.39524564,0.09695876,0.08842969,0.49227276,806.6667,817.1429,768.3883,790.14655,728.0952,-0.2030029296875,0.12481689453125,0.95751953125,3.63372802734375,-3.21502685546875,1.016845703125,1.0,2.0,1.0,1.0,2.0,100.0,event
15:35:27.680,0.9687343,1.293303,1.0489141,0.80122226,0.43370226,1.3029863,0.8125008,0.4955994,0.5077826,1.1628377,0.6562403,0.69521695,0.40971598,0.55228436,0.47875968,0.39347854,0.39524564,0.09695876,0.08842969,0.49227276,789.7436,810.696,754.2857,789.34064,915.05493,-0.2030029296875,0.12481689453125,0.95751953125,3.63372802734375,-3.21502685546875,1.016845703125,1.0,2.0,1.0,1.0,2.0,100.0,event
15:35:27.681,0.9687343,1.293303,1.0489141,0.80122226,0.43370226,1.3029863,0.8125008,0.4955994,0.5077826,1.1628377,0.6562403,0.69521695,0.40971598,0.55228436,0.47875968,0.39347854,0.39524564,0.09695876,0.08842969,0.49227276,795.78754,808.68134,765.56775,779.67035,809.0842,-0.2030029296875,0.12481689453125,0.95751953125,3.63372802734375,-3.21502685546875,1.016845703125,1.0,2.0,1.0,1.0,2.0,100.0,event
15:35:27.682,0.9687343,1.293303,1.0489141,0.80122226,0.43370226,1.3029863,0.8125008,0.4955994,0.5077826,1.1628377,0.6562403,0.69521695,0.40971598,0.55228436,0.47875968,0.39347854,0.39524564,0.09695876,0.08842969,0.49227276,816.337,806.26373,765.56775,776.04395,716.0073,-0.2030029296875,0.12481689453125,0.95751953125,3.63372802734375,-3.21502685546875,1.016845703125,1.0,2.0,1.0,1.0,2.0,100.0,event
15:35:27.682,0.9687343,1.293303,1.0489141,0.80122226,0.43370226,1.3029863,0.8125008,0.4955994,0.5077826,1.1628377,0.6562403,0.69521695,0.40971598,0.55228436,0.47875968,0.39347854,0.39524564,0.09695876,0.08842969,0.49227276,802.23444,798.60803,761.53845,782.49084,899.34064,-0.2030029296875,0.12481689453125,0.95751953125,3.63372802734375,-3.21502685546875,1.016845703125,1.0,2.0,1.0,1.0,2.0,100.0,event
15:35:27.683,0.9687343,1.293303,1.0489141,0.80122226,0.43370226,1.3029863,0.8125008,0.4955994,0.5077826,1.1628377,0.6562403,0.69521695,0.40971598,0.55228436,0.47875968,0.39347854,0.39524564,0.09695876,0.08842969,0.49227276,785.31134,790.9524,765.9707,790.54944,1047.2161,-0.2030029296875,0.12481689453125,0.95751953125,3.63372802734375,-3.21502685546875,1.016845703125,1.0,2.0,1.0,1.0,2.0,100.0,event
15:35:27.684,0.9687343,1.293303,1.0489141,0.80122226,0.43370226,1.3029863,0.8125008,0.4955994,0.5077826,1.1628377,0.6562403,0.69521695,0.40971598,0.55228436,0.47875968,0.39347854,0.39524564,0.09695876,0.08842969,0.49227276,811.9048,804.65204,780.4762,772.01465,830.84247,-0.2030029296875,0.12481689453125,0.95751953125,3.63372802734375,-3.21502685546875,1.016845703125,1.0,2.0,1.0,1.0,2.0,100.0,event
15:35:27.684,0.9687343,1.293303,1.0489141,0.80122226,0.43370226,1.3029863,0.8125008,0.4955994,0.5077826,1.1628377,0.6562403,0.69521695,0.40971598,0.55228436,0.47875968,0.39347854,0.39524564,0.09695876,0.08842969,0.49227276,820.3663,804.65204,770.40295,778.86444,652.3443,-0.2030029296875,0.12481689453125,0.95751953125,3.63372802734375,-3.21502685546875,1.016845703125,1.0,2.0,1.0,1.0,2.0,100.0,event
15:35:27.685,0.9687343,1.293303,1.0489141,0.80122226,0.43370226,1.3029863,0.8125008,0.4955994,0.5077826,1.1628377,0.6562403,0.69521695,0.40971598,0.55228436,0.47875968,0.39347854,0.39524564,0.09695876,0.08842969,0.49227276,796.5934,800.2198,762.3443,781.685,733.73627,-0.2030029296875,0.12481689453125,0.95751953125,3.63372802734375,-3.21502685546875,1.016845703125,1.0,2.0,1.0,1.0,2.0,100.0,event
15:35:27.686,0.9687343,1.293303,1.0489141,0.80122226,0.43370226,1.3029863,0.8125008,0.4955994,0.5077826,1.1628377,0.6562403,0.69521695,0.40971598,0.55228436,0.47875968,0.39347854,0.39524564,0.09695876,0.08842969,0.49227276,790.54944,803.44324,776.4469,757.50916,817.5458,-0.2030029296875,0.12481689453125,0.95751953125,3.63372802734375,-3.21502685546875,1.016845703125,1.0,2.0,1.0,1.0,2.0,100.0,event
15:35:27.710,0.9687343,1.293303,1.0489141,0.80122226,0.43370226,1.3029863,0.8125008,0.4955994,0.5077826,1.1628377,0.6562403,0.69521695,0.40971598,0.55228436,0.47875968,0.39347854,0.39524564,0.09695876,0.08842969,0.49227276,778.0586,799.41394,780.07324,777.25275,704.3223,-0.2030029296875,0.12481689453125,0.95751953125,3.63372802734375,-3.21502685546875,1.016845703125,1.0,2.0,1.0,1.0,2.0,100.0,event
15:35:27.711,0.9687343,1.293303,1.0489141,0.80122226,0.43370226,1.3029863,0.8125008,0.4955994,0.5077826,1.1628377,0.6562403,0.69521695,0.40971598,0.55228436,0.47875968,0.39347854,0.39524564,0.09695876,0.08842969,0.49227276,780.4762,799.011,780.07324,799.011,644.2857,-0.2030029296875,0.12481689453125,0.95751953125,3.63372802734375,-3.21502685546875,1.016845703125,1.0,2.0,1.0,1.0,2.0,100.0,event
15:35:27.712,0.9687343,1.293303,1.0489141,0.80122226,0.43370226,1.3029863,0.8125008,0.4955994,0.5077826,1.1628377,0.6562403,0.69521695,0.40971598,0.55228436,0.47875968,0.39347854,0.39524564,0.09695876,0.08842969,0.49227276,801.4286,804.2491,767.1795,757.9121,721.2454,-0.2030029296875,0.12481689453125,0.95751953125,3.63372802734375,-3.21502685546875,1.016845703125,1.0,2.0,1.0,1.0,2.0,100.0,event
15:35:27.712,0.9687343,1.293303,1.0489141,0.80122226,0.43370226,1.3029863,0.8125008,0.4955994,0.5077826,1.1628377,0.6562403,0.69521695,0.40971598,0.55228436,0.47875968,0.39347854,0.39524564,0.09695876,0.08842969,0.49227276,784.5055,804.65204,772.8205,769.59705,779.67035,-0.2030029296875,0.12481689453125,0.95751953125,3.63372802734375,-3.21502685546875,1.016845703125,1.0,2.0,1.0,1.0,2.0,100.0,event
15:35:27.712,0.9687343,1.293303,1.0489141,0.80122226,0.43370226,1.3029863,0.8125008,0.4955994,0.5077826,1.1628377,0.6562403,0.69521695,0.40971598,0.55228436,0.47875968,0.39347854,0.39524564,0.09695876,0.08842969,0.49227276,808.2784,808.68134,783.69965,801.4286,763.5531,-0.2030029296875,0.12481689453125,0.95751953125,3.63372802734375,-3.21502685546875,1.016845703125,1.0,2.0,1.0,1.0,2.0,100.0,event
15:35:27.713,0.9687343,1.293303,1.0489141,0.80122226,0.43370226,1.3029863,0.8125008,0.4955994,0.5077826,1.1628377,0.6562403,0.69521695,0.40971598,0.55228436,0.47875968,0.39347854,0.39524564,0.09695876,0.08842969,0.49227276,807.8755,813.91943,765.16486,788.5348,821.1722,-0.2030029296875,0.12481689453125,0.95751953125,3.63372802734375,-3.21502685546875,1.016845703125,1.0,2.0,1.0,1.0,2.0,100.0,event
15:35:27.713,0.9687343,1.293303,1.0489141,0.80122226,0.43370226,1.3029863,0.8125008,0.4955994,0.5077826,1.1628377,0.6562403,0.69521695,0.40971598,0.55228436,0.47875968,0.39347854,0.39524564,0.09695876,0.08842969,0.49227276,790.54944,804.2491,752.27106,795.78754,950.10986,-0.2030029296875,0.12481689453125,0.95751953125,3.63372802734375,-3.21502685546875,1.016845703125,1.0,2.0,1.0,1.0,2.0,100.0,event
15:35:27.713,0.9687343,1.2890719,1.0489141,0.80122226,0.43370226,1.2771174,0.8125008,0.4955994,0.5077826,1.1618367,0.6562403,0.69521695,0.40971598,0.55590916,0.47875968,0.39347854,0.39524564,0.07093427,0.08842969,0.49227276,822.381,795.38464,760.7326,782.49084,1089.1208,-0.2030029296875,0.12481689453125,0.95751953125,3.63372802734375,-3.21502685546875,1.016845703125,1.0,2.0,1.0,1.0,2.0,100.0,event
15:35:27.716,0.9687343,1.2890719,1.0489141,0.80122226,0.43370226,1.2771174,0.8125008,0.4955994,0.5077826,1.1618367,0.6562403,0.69521695,0.40971598,0.55590916,0.47875968,0.39347854,0.39524564,0.07093427,0.08842969,0.49227276,783.2967,801.02563,786.9231,771.2088,678.93774,-0.2030029296875,0.12481689453125,0.95751953125,3.63372802734375,-3.21502685546875,1.016845703125,1.0,2.0,1.0,1.0,2.0,100.0,event
15:35:27.716,0.9687343,1.2890719,1.0489141,0.80122226,0.43370226,1.2771174,0.8125008,0.4955994,0.5077826,1.1618367,0.6562403,0.69521695,0.40971598,0.55590916,0.47875968,0.39347854,0.39524564,0.07093427,0.08842969,0.49227276,788.5348,799.41394,774.43225,770.40295,782.49084,-0.2030029296875,0.12481689453125,0.95751953125,3.63372802734375,-3.21502685546875,1.016845703125,1.0,2.0,1.0,1.0,2.0,100.0,event
15:35:27.716,0.9687343,1.2890719,1.0489141,0.80122226,0.43370226,1.2771174,0.8125008,0.4955994,0.5077826,1.1618367,0.6562403,0.69521695,0.40971598,0.55590916,0.47875968,0.39347854,0.39524564,0.07093427,0.08842969,0.49227276,807.47253,800.6227,790.14655,763.95605,822.7839,-0.2030029296875,0.12481689453125,0.95751953125,3.63372802734375,-3.21502685546875,1.016845703125,1.0,2.0,1.0,1.0,2.0,100.0,event
15:35:27.717,0.9687343,1.2890719,1.0489141,0.80122226,0.43370226,1.2771174,0.8125008,0.4955994,0.5077826,1.1618367,0.6562403,0.69521695,0.40971598,0.55590916,0.47875968,0.39347854,0.39524564,0.07093427,0.08842969,0.49227276,790.9524,804.65204,792.96704,777.6557,752.674,-0.2030029296875,0.12481689453125,0.95751953125,3.63372802734375,-3.21502685546875,1.016845703125,1.0,2.0,1.0,1.0,2.0,100.0,event
15:35:27.781,0.9687343,1.2890719,1.0489141,0.80122226,0.43370226,1.2771174,0.8125008,0.4955994,0.5077826,1.1618367,0.6562403,0.69521695,0.40971598,0.55590916,0.47875968,0.39347854,0.39524564,0.07093427,0.08842969,0.49227276,785.7143,804.65204,794.9817,796.5934,739.7802,-0.19586181640625,0.1295166015625,0.9691162109375,3.895416259765625,-3.237457275390625,-0.91217041015625,1.0,2.0,1.0,1.0,2.0,100.0,event
15:35:27.782,0.9687343,1.2890719,1.0489141,0.80122226,0.43370226,1.2771174,0.8125008,0.4955994,0.5077826,1.1618367,0.6562403,0.69521695,0.40971598,0.55590916,0.47875968,0.39347854,0.39524564,0.07093427,0.08842969,0.49227276,795.78754,799.011,790.54944,790.9524,734.1392,-0.19586181640625,0.1295166015625,0.9691162109375,3.895416259765625,-3.237457275390625,-0.91217041015625,1.0,2.0,1.0,1.0,2.0,100.0,event
15:35:27.783,0.9687343,1.2890719,1.0489141,0.80122226,0.43370226,1.2771174,0.8125008,0.4955994,0.5077826,1.1618367,0.6562403,0.69521695,0.40971598,0.55590916,0.47875968,0.39347854,0.39524564,0.07093427,0.08842969,0.49227276,805.8608,799.41394,801.4286,761.9414,790.54944,-0.19586181640625,0.1295166015625,0.9691162109375,3.895416259765625,-3.237457275390625,-0.91217041015625,1.0,2.0,1.0,1.0,2.0,100.0,event
15:35:27.784,0.9687343,1.2890719,1.0489141,0.80122226,0.43370226,1.2771174,0.8125008,0.4955994,0.5077826,1.1618367,0.6562403,0.69521695,0.40971598,0.55590916,0.47875968,0.39347854,0.39524564,0.07093427,0.08842969,0.49227276,798.20514,797.3993,802.23444,758.71796,763.95605,-0.19586181640625,0.1295166015625,0.9691162109375,3.895416259765625,-3.237457275390625,-0.91217041015625,1.0,2.0,1.0,1.0,2.0,100.0,event
15:35:27.784,0.9687343,1.2890719,1.0489141,0.80122226,0.43370226,1.2771174,0.8125008,0.4955994,0.5077826,1.1618367,0.6562403,0.69521695,0.40971598,0.55590916,0.47875968,0.39347854,0.39524564,0.07093427,0.08842969,0.49227276,788.5348,794.17584,792.1612,783.2967,716.4103,-0.19586181640625,0.1295166015625,0.9691162109375,3.895416259765625,-3.237457275390625,-0.91217041015625,1.0,2.0,1.0,1.0,2.0,100.0,event
15:35:27.785,0.9687343,1.2890719,1.0489141,0.80122226,0.43370226,1.2771174,0.8125008,0.4955994,0.5077826,1.1618367,0.6562403,0.69521695,0.40971598,0.55590916,0.47875968,0.39347854,0.39524564,0.07093427,0.08842969,0.49227276,791.3553,791.75824,782.8938,805.8608,839.707,-0.19586181640625,0.1295166015625,0.9691162109375,3.895416259765625,-3.237457275390625,-0.91217041015625,1.0,2.0,1.0,1.0,2.0,100.0,event
15:35:27.786,0.9687343,1.2890719,1.0489141,0.80122226,0.43370226,1.2771174,0.8125008,0.4955994,0.5077826,1.1618367,0.6562403,0.69521695,0.40971598,0.55590916,0.47875968,0.39347854,0.39524564,0.07093427,0.08842969,0.49227276,814.3223,797.8022,785.7143,813.5165,1011.3553,-0.19586181640625,0.1295166015625,0.9691162109375,3.895416259765625,-3.237457275390625,-0.91217041015625,1.0,2.0,1.0,1.0,2.0,100.0,event
15:35:27.786,0.9687343,1.2890719,1.0489141,0.80122226,0.43370226,1.2771174,0.8125008,0.4955994,0.5077826,1.1618367,0.6562403,0.69521695,0.40971598,0.55590916,0.47875968,0.39347854,0.39524564,0.07093427,0.08842969,0.49227276,798.20514,808.68134,809.4872,797.3993,902.1612,-0.19586181640625,0.1295166015625,0.9691162109375,3.895416259765625,-3.237457275390625,-0.91217041015625,1.0,2.0,1.0,1.0,2.0,100.0,event
15:35:27.787,0.9687343,1.2890719,1.0489141,0.80122226,0.43370226,1.2771174,0.8125008,0.4955994,0.5077826,1.1618367,0.6562403,0.69521695,0.40971598,0.55590916,0.47875968,0.39347854,0.39524564,0.07093427,0.08842969,0.49227276,786.52014,806.26373,797.3993,789.34064,802.23444,-0.19586181640625,0.1295166015625,0.9691162109375,3.895416259765625,-3.237457275390625,-0.91217041015625,1.0,2.0,1.0,1.0,2.0,100.0,event
15:35:27.787,0.9687343,1.2890719,1.0489141,0.80122226,0.43370226,1.2771174,0.8125008,0.4955994,0.5077826,1.1618367,0.6562403,0.69521695,0.40971598,0.55590916,0.47875968,0.39347854,0.39524564,0.07093427,0.08842969,0.49227276,756.30035,809.0842,823.1868,796.5934,723.2601,-0.19586181640625,0.1295166015625,0.9691162109375,3.895416259765625,-3.237457275390625,-0.91217041015625,1.0,2.0,1.0,1.0,2.0,100.0,event
15:35:27.788,0.9687343,1.2890719,1.0489141,0.80122226,0.43370226,1.2771174,0.8125008,0.4955994,0.5077826,1.1618367,0.6562403,0.69521695,0.40971598,0.55590916,0.47875968,0.39347854,0.39524564,0.07093427,0.08842969,0.49227276,786.1172,806.26373,811.9048,780.4762,808.68134,-0.19586181640625,0.1295166015625,0.9691162109375,3.895416259765625,-3.237457275390625,-0.91217041015625,1.0,2.0,1.0,1.0,2.0,100.0,event
15:35:27.788,0.9687343,1.2890719,1.0489141,0.80122226,0.43370226,1.2771174,0.8125008,0.4955994,0.5077826,1.1618367,0.6562403,0.69521695,0.40971598,0.55590916,0.47875968,0.39347854,0.39524564,0.07093427,0.08842969,0.49227276,825.2015,805.05493,784.90845,766.3736,1014.17584,-0.19586181640625,0.1295166015625,0.9691162109375,3.895416259765625,-3.237457275390625,-0.91217041015625,1.0,2.0,1.0,1.0,2.0,100.0,event
15:35:27.815,0.9687343,1.2890719,1.0489141,0.80122226,0.43370226,1.2771174,0.8125008,0.4955994,0.5077826,1.1618367,0.6562403,0.69521695,0.40971598,0.55590916,0.47875968,0.39347854,0.39524564,0.07093427,0.08842969,0.49227276,786.1172,806.6667,809.0842,796.5934,642.27106,-0.19903564453125,0.12982177734375,0.9656982421875,1.06170654296875,-3.581390380859375,0.2392578125,1.0,2.0,1.0,1.0,2.0,100.0,event
15:35:27.816,0.9687343,1.2890719,1.0489141,0.80122226,0.43370226,1.2771174,0.8125008,0.4955994,0.5077826,1.1618367,0.6562403,0.69521695,0.40971598,0.55590916,0.47875968,0.39347854,0.39524564,0.07093427,0.08842969,0.49227276,813.1135,805.8608,803.44324,808.68134,753.47986,-0.19903564453125,0.12982177734375,0.9656982421875,1.06170654296875,-3.581390380859375,0.2392578125,1.0,2.0,1.0,1.0,2.0,100.0,event
15:35:27.817,0.9687343,1.2890719,1.0489141,0.80122226,0.43370226,1.2771174,0.8125008,0.4955994,0.5077826,1.1618367,0.6562403,0.69521695,0.40971598,0.55590916,0.47875968,0.39347854,0.39524564,0.07093427,0.08842969,0.49227276,793.7729,810.293,814.3223,784.10254,790.9524,-0.19903564453125,0.12982177734375,0.9656982421875,1.06170654296875,-3.581390380859375,0.2392578125,1.0,2.0,1.0,1.0,2.0,100.0,event
15:35:27.818,0.9687343,1.2890719,1.0489141,0.80122226,0.43370226,1.2771174,0.8125008,0.4955994,0.5077826,1.1618367,0.6562403,0.69521695,0.40971598,0.55590916,0.47875968,0.39347854,0.39524564,0.07093427,0.08842969,0.49227276,770.0,809.0842,807.8755,759.5238,750.65936,-0.19903564453125,0.12982177734375,0.9656982421875,1.06170654296875,-3.581390380859375,0.2392578125,1.0,2.0,1.0,1.0,2.0,100.0,event
15:35:27.818,0.9687343,1.2890719,1.0489141,0.80122226,0.43370226,1.2771174,0.8125008,0.4955994,0.5077826,1.1618367,0.6562403,0.69521695,0.40971598,0.55590916,0.47875968,0.39347854,0.39524564,0.07093427,0.08842969,0.49227276,777.25275,803.0403,805.05493,787.326,708.7546,-0.19903564453125,0.12982177734375,0.9656982421875,1.06170654296875,-3.581390380859375,0.2392578125,1.0,2.0,1.0,1.0,2.0,100.0,event
15:35:27.819,0.9687343,1.2890719,1.0489141,0.80122226,0.43370226,1.2771174,0.8125008,0.4955994,0.5077826,1.1618367,0.6562403,0.69521695,0.40971598,0.55590916,0.47875968,0.39347854,0.39524564,0.07093427,0.08842969,0.49227276,799.011,803.44324,797.8022,798.20514,874.7619,-0.19903564453125,0.12982177734375,0.9656982421875,1.06170654296875,-3.581390380859375,0.2392578125,1.0,2.0,1.0,1.0,2.0,100.0,event
15:35:27.819,0.9687343,1.2890719,1.0489141,0.80122226,0.43370226,1.2771174,0.8125008,0.4955994,0.5077826,1.1618367,0.6562403,0.69521695,0.40971598,0.55590916,0.47875968,0.39347854,0.39524564,0.07093427,0.08842969,0.49227276,814.3223,809.0842,804.65204,799.81683,957.3626,-0.19903564453125,0.12982177734375,0.9656982421875,1.06170654296875,-3.581390380859375,0.2392578125,1.0,2.0,1.0,1.0,2.0,100.0,event
15:35:27.820,0.9687343,1.2890719,1.0489141,0.80122226,0.43370226,1.2771174,0.8125008,0.4955994,0.5077826,1.1618367,0.6562403,0.69521695,0.40971598,0.55590916,0.47875968,0.39347854,0.39524564,0.07093427,0.08842969,0.49227276,823.9927,809.4872,818.3516,788.5348,754.68866,-0.19903564453125,0.12982177734375,0.9656982421875,1.06170654296875,-3.581390380859375,0.2392578125,1.0,2.0,1.0,1.0,2.0,100.0,event
15:35:27.821,0.9687343,1.2656422,1.0489141,0.80122226,0.43370226,1.2135345,0.8125008,0.4955994,0.5077826,1.1518927,0.6562403,0.69521695,0.40971598,0.54826516,0.47875968,0.39347854,0.39524564,0.04435361,0.08842969,0.49227276,785.31134,801.02563,779.2674,790.9524,884.43225,-0.19903564453125,0.12982177734375,0.9656982421875,1.06170654296875,-3.581390380859375,0.2392578125,1.0,2.0,1.0,1.0,2.0,100.0,event
15:35:27.821,0.9687343,1.2890719,1.0489141,0.80122226,0.43370226,1.2771174,0.8125008,0.4955994,0.5077826,1.1618367,0.6562403,0.69521695,0.40971598,0.55590916,0.47875968,0.39347854,0.39524564,0.07093427,0.08842969,0.49227276,796.5934,807.0696,801.8315,789.34064,670.4762,-0.19903564453125,0.12982177734375,0.9656982421875,1.06170654296875,-3.581390380859375,0.2392578125,1.0,2.0,1.0,1.0,2.0,100.0,event
15:35:27.825,0.9687343,1.2656422,1.0489141,0.80122226,0.43370226,1.2135345,0.8125008,0.4955994,0.5077826,1.1518927,0.6562403,0.69521695,0.40971598,0.54826516,0.47875968,0.39347854,0.39524564,0.04435361,0.08842969,0.49227276,788.5348,808.2784,806.26373,777.6557,956.9597,-0.19903564453125,0.12982177734375,0.9656982421875,1.06170654296875,-3.581390380859375,0.2392578125,1.0,2.0,1.0,1.0,2.0,100.0,event
15:35:27.825,0.9687343,1.2656422,1.0489141,0.80122226,0.43370226,1.2135345,0.8125008,0.4955994,0.5077826,1.1518927,0.6562403,0.69521695,0.40971598,0.54826516,0.47875968,0.39347854,0.39524564,0.04435361,0.08842969,0.49227276,782.8938,812.71063,815.12823,784.10254,768.3883,-0.19903564453125,0.12982177734375,0.9656982421875,1.06170654296875,-3.581390380859375,0.2392578125,1.0,2.0,1.0,1.0,2.0,100.0,event
15:35:27.848,0.9687343,1.2656422,1.0489141,0.80122226,0.43370226,1.2135345,0.8125008,0.4955994,0.5077826,1.1518927,0.6562403,0.69521695,0.40971598,0.54826516,0.47875968,0.39347854,0.39524564,0.04435361,0.08842969,0.49227276,800.6227,805.4579,794.9817,781.685,760.7326,-0.20281982421875,0.11822509765625,0.96307373046875,0.082244873046875,-3.768310546875,0.52337646484375,1.0,2.0,1.0,1.0,2.0,100.0,event
15:35:27.849,0.9687343,1.2656422,1.0489141,0.80122226,0.43370226,1.2135345,0.8125008,0.4955994,0.5077826,1.1518927,0.6562403,0.69521695,0.40971598,0.54826516,0.47875968,0.39347854,0.39524564,0.04435361,0.08842969,0.49227276,809.4872,802.6374,794.9817,781.685,850.58606,-0.20281982421875,0.11822509765625,0.96307373046875,0.082244873046875,-3.768310546875,0.52337646484375,1.0,2.0,1.0,1.0,2.0,100.0,event
15:35:27.850,0.9687343,1.2656422,1.0489141,0.80122226,0.43370226,1.2135345,0.8125008,0.4955994,0.5077826,1.1518927,0.6562403,0.69521695,0.40971598,0.54826516,0.47875968,0.39347854,0.39524564,0.04435361,0.08842969,0.49227276,799.011,803.8461,805.05493,790.54944,738.97437,-0.20281982421875,0.11822509765625,0.96307373046875,0.082244873046875,-3.768310546875,0.52337646484375,1.0,2.0,1.0,1.0,2.0,100.0,event
15:35:27.850,0.9687343,1.2656422,1.0489141,0.80122226,0.43370226,1.2135345,0.8125008,0.4955994,0.5077826,1.1518927,0.6562403,0.69521695,0.40971598,0.54826516,0.47875968,0.39347854,0.39524564,0.04435361,0.08842969,0.49227276,810.293,804.2491,809.89014,796.5934,655.16486,-0.20281982421875,0.11822509765625,0.96307373046875,0.082244873046875,-3.768310546875,0.52337646484375,1.0,2.0,1.0,1.0,2.0,100.0,event
15:35:27.851,0.9687343,1.2656422,1.0489141,0.80122226,0.43370226,1.2135345,0.8125008,0.4955994,0.5077826,1.1518927,0.6562403,0.69521695,0.40971598,0.54826516,0.47875968,0.39347854,0.39524564,0.04435361,0.08842969,0.49227276,789.7436,804.2491,805.05493,799.81683,765.9707,-0.20281982421875,0.11822509765625,0.96307373046875,0.082244873046875,-3.768310546875,0.52337646484375,1.0,2.0,1.0,1.0,2.0,100.0,event
15:35:27.851,0.9687343,1.2656422,1.0489141,0.80122226,0.43370226,1.2135345,0.8125008,0.4955994,0.5077826,1.1518927,0.6562403,0.69521695,0.40971598,0.54826516,0.47875968,0.39347854,0.39524564,0.04435361,0.08842969,0.49227276,786.52014,805.4579,799.011,788.1319,931.1722,-0.20281982421875,0.11822509765625,0.96307373046875,0.082244873046875,-3.768310546875,0.52337646484375,1.0,2.0,1.0,1.0,2.0,100.0,event
15:35:27.852,0.9687343,1.2656422,1.0489141,0.80122226,0.43370226,1.2135345,0.8125008,0.4955994,0.5077826,1.1518927,0.6562403,0.69521695,0.40971598,0.54826516,0.47875968,0.39347854,0.39524564,0.04435361,0.08842969,0.49227276,802.6374,805.4579,801.4286,788.1319,923.91943,-0.20281982421875,0.11822509765625,0.96307373046875,0.082244873046875,-3.768310546875,0.52337646484375,1.0,2.0,1.0,1.0,2.0,100.0,event
15:35:27.852,0.9687343,1.2656422,1.0489141,0.80122226,0.43370226,1.2135345,0.8125008,0.4955994,0.5077826,1.1518927,0.6562403,0.69521695,0.40971598,0.54826516,0.47875968,0.39347854,0.39524564,0.04435361,0.08842969,0.49227276,799.011,811.50183,813.5165,791.75824,726.08057,-0.20281982421875,0.11822509765625,0.96307373046875,0.082244873046875,-3.768310546875,0.52337646484375,1.0,2.0,1.0,1.0,2.0,100.0,event
15:35:27.853,0.9687343,1.2656422,1.0489141,0.80122226,0.43370226,1.2135345,0.8125008,0.4955994,0.5077826,1.1518927,0.6562403,0.69521695,0.40971598,0.54826516,0.47875968,0.39347854,0.39524564,0.04435361,0.08842969,0.49227276,788.93774,801.02563,801.4286,782.49084,697.0696,-0.20281982421875,0.11822509765625,0.96307373046875,0.082244873046875,-3.768310546875,0.52337646484375,1.0,2.0,1.0,1.0,2.0,100.0,event
15:35:27.854,0.9687343,1.2656422,1.0489141,0.80122226,0.43370226,1.2135345,0.8125008,0.4955994,0.5077826,1.1518927,0.6562403,0.69521695,0.40971598,0.54826516,0.47875968,0.39347854,0.39524564,0.04435361,0.08842969,0.49227276,788.5348,789.7436,793.36993,794.17584,881.2088,-0.20281982421875,0.11822509765625,0.96307373046875,0.082244873046875,-3.768310546875,0.52337646484375,1.0,2.0,1.0,1.0,2.0,100.0,event
15:35:27.856,0.9687343,1.2656422,1.0489141,0.80122226,0.43370226,1.2135345,0.8125008,0.4955994,0.5077826,1.1518927,0.6562403,0.69521695,0.40971598,0.54826516,0.47875968,0.39347854,0.39524564,0.04435361,0.08842969,0.49227276,796.1905,806.26373,815.12823,800.2198,774.43225,-0.20281982421875,0.11822509765625,0.96307373046875,0.082244873046875,-3.768310546875,0.52337646484375,1.0,2.0,1.0,1.0,2.0,100.0,event
15:35:27.857,0.9687343,1.2656422,1.0489141,0.80122226,0.43370226,1.2135345,0.8125008,0.4955994,0.5077826,1.1518927,0.6562403,0.69521695,0.40971598,0.54826516,0.47875968,0.39347854,0.39524564,0.04435361,0.08842969,0.49227276,802.6374,805.4579,798.60803,786.52014,649.5238,-0.20281982421875,0.11822509765625,0.96307373046875,0.082244873046875,-3.768310546875,0.52337646484375,1.0,2.0,1.0,1.0,2.0,100.0,event
15:35:27.919,0.9687343,1.2656422,1.0489141,0.80122226,0.43370226,1.2135345,0.8125008,0.4955994,0.5077826,1.1518927,0.6562403,0.69521695,0.40971598,0.54826516,0.47875968,0.39347854,0.39524564,0.04435361,0.08842969,0.49227276,804.65204,797.8022,782.49084,789.34064,764.7619,-0.2125244140625,0.112548828125,0.9483642578125,0.934600830078125,-6.018829345703125,0.186920166015625,1.0,2.0,1.0,1.0,2.0,100.0,event
15:35:27.920,0.9687343,1.2656422,1.0489141,0.80122226,0.43370226,1.2135345,0.8125008,0.4955994,0.5077826,1.1518927,0.6562403,0.69521695,0.40971598,0.54826516,0.47875968,0.39347854,0.39524564,0.04435361,0.08842969,0.49227276,806.6667,811.0989,789.34064,798.20514,787.326,-0.2125244140625,0.112548828125,0.9483642578125,0.934600830078125,-6.018829345703125,0.186920166015625,1.0,2.0,1.0,1.0,2.0,100.0,event
15:35:27.921,0.9687343,1.2656422,1.0489141,0.80122226,0.43370226,1.2135345,0.8125008,0.4955994,0.5077826,1.1518927,0.6562403,0.69521695,0.40971598,0.54826516,0.47875968,0.39347854,0.39524564,0.04435361,0.08842969,0.49227276,822.7839,817.5458,784.10254,811.0989,713.9927,-0.2125244140625,0.112548828125,0.9483642578125,0.934600830078125,-6.018829345703125,0.186920166015625,1.0,2.0,1.0,1.0,2.0,100.0,event
15:35:27.922,0.9687343,1.2656422,1.0489141,0.80122226,0.43370226,1.2135345,0.8125008,0.4955994,0.5077826,1.1518927,0.6562403,0.69521695,0.40971598,0.54826516,0.47875968,0.39347854,0.39524564,0.04435361,0.08842969,0.49227276,819.5604,806.26373,783.69965,816.337,743.8095,-0.2125244140625,0.112548828125,0.9483642578125,0.934600830078125,-6.018829345703125,0.186920166015625,1.0,2.0,1.0,1.0,2.0,100.0,event
15:35:27.922,0.9687343,1.2656422,1.0489141,0.80122226,0.43370226,1.2135345,0.8125008,0.4955994,0.5077826,1.1518927,0.6562403,0.69521695,0.40971598,0.54826516,0.47875968,0.39347854,0.39524564,0.04435361,0.08842969,0.49227276,781.28204,795.78754,781.685,792.1612,824.3956,-0.2125244140625,0.112548828125,0.9483642578125,0.934600830078125,-6.018829345703125,0.186920166015625,1.0,2.0,1.0,1.0,2.0,100.0,event
15:35:27.923,0.9687343,1.2656422,1.0489141,0.80122226,0.43370226,1.2135345,0.8125008,0.4955994,0.5077826,1.1518927,0.6562403,0.69521695,0.40971598,0.54826516,0.47875968,0.39347854,0.39524564,0.04435361,0.08842969,0.49227276,781.28204,796.99634,784.10254,782.0879,824.3956,-0.2125244140625,0.112548828125,0.9483642578125,0.934600830078125,-6.018829345703125,0.186920166015625,1.0,2.0,1.0,1.0,2.0,100.0,event
15:35:27.924,0.9687343,1.2656422,1.0489141,0.80122226,0.43370226,1.2135345,0.8125008,0.4955994,0.5077826,1.1518927,0.6562403,0.69521695,0.40971598,0.54826516,0.47875968,0.39347854,0.39524564,0.04435361,0.08842969,0.49227276,800.2198,800.6227,796.5934,779.2674,839.707,-0.2125244140625,0.112548828125,0.9483642578125,0.934600830078125,-6.018829345703125,0.186920166015625,1.0,2.0,1.0,1.0,2.0,100.0,event
15:35:27.925,0.9687343,1.2656422,1.0489141,0.80122226,0.43370226,1.2135345,0.8125008,0.4955994,0.5077826,1.1518927,0.6562403,0.69521695,0.40971598,0.54826516,0.47875968,0.39347854,0.39524564,0.04435361,0.08842969,0.49227276,807.47253,806.26373,800.6227,780.07324,796.5934,-0.2125244140625,0.112548828125,0.9483642578125,0.934600830078125,-6.018829345703125,0.186920166015625,1.0,2.0,1.0,1.0,2.0,100.0,event
15:35:27.925,0.9687343,1.2656422,1.0489141,0.80122226,0.43370226,1.2135345,0.8125008,0.4955994,0.5077826,1.1518927,0.6562403,0.69521695,0.40971598,0.54826516,0.47875968,0.39347854,0.39524564,0.04435361,0.08842969,0.49227276,810.293,800.6227,774.0293,795.78754,928.7546,-0.2125244140625,0.112548828125,0.9483642578125,0.934600830078125,-6.018829345703125,0.186920166015625,1.0,2.0,1.0,1.0,2.0,100.0,event
15:35:27.926,0.9687343,1.2656422,1.0489141,0.80122226,0.43370226,1.2135345,0.8125008,0.4955994,0.5077826,1.1518927,0.6562403,0.69521695,0.40971598,0.54826516,0.47875968,0.39347854,0.39524564,0.04435361,0.08842969,0.49227276,805.8608,799.81683,784.10254,793.36993,992.01465,-0.2125244140625,0.112548828125,0.9483642578125,0.934600830078125,-6.018829345703125,0.186920166015625,1.0,2.0,1.0,1.0,2.0,100.0,event
15:35:27.927,0.9687343,1.2656422,1.0489141,0.80122226,0.43370226,1.2135345,0.8125008,0.4955994,0.5077826,1.1518927,0.6562403,0.69521695,0.40971598,0.54826516,0.47875968,0.39347854,0.39524564,0.04435361,0.08842969,0.49227276,802.6374,809.89014,793.36993,790.14655,693.44324,-0.2125244140625,0.112548828125,0.9483642578125,0.934600830078125,-6.018829345703125,0.186920166015625,1.0,2.0,1.0,1.0,2.0,100.0,event
15:35:27.927,1.0849569,1.2047371,1.0489141,0.80122226,0.29920664,1.0971687,0.8125008,0.4955994,0.6726773,1.1330233,0.6562403,0.69521695,0.68166023,0.53103304,0.47875968,0.39347854,0.6444438,0.024911912,0.08842969,0.49227276,802.23444,814.3223,772.8205,793.36993,743.00366,-0.2125244140625,0.112548828125,0.9483642578125,0.934600830078125,-6.018829345703125,0.186920166015625,1.0,2.0,1.0,1.0,2.0,100.0,event
15:35:27.959,1.0849569,1.2047371,1.0489141,0.80122226,0.29920664,1.0971687,0.8125008,0.4955994,0.6726773,1.1330233,0.6562403,0.69521695,0.68166023,0.53103304,0.47875968,0.39347854,0.6444438,0.024911912,0.08842969,0.49227276,803.0403,811.0989,772.01465,799.41394,884.83514,-0.2125244140625,0.112548828125,0.9483642578125,0.934600830078125,-6.018829345703125,0.186920166015625,1.0,2.0,1.0,1.0,2.0,100.0,event
15:35:27.960,1.0849569,1.2047371,1.0489141,0.80122226,0.29920664,1.0971687,0.8125008,0.4955994,0.6726773,1.1330233,0.6562403,0.69521695,0.68166023,0.53103304,0.47875968,0.39347854,0.6444438,0.024911912,0.08842969,0.49227276,803.44324,811.50183,783.69965,809.0842,840.5128,-0.2125244140625,0.112548828125,0.9483642578125,0.934600830078125,-6.018829345703125,0.186920166015625,1.0,2.0,1.0,1.0,2.0,100.0,event
15:35:27.961,1.0849569,1.2047371,1.0489141,0.80122226,0.29920664,1.0971687,0.8125008,0.4955994,0.6726773,1.1330233,0.6562403,0.69521695,0.68166023,0.53103304,0.47875968,0.39347854,0.6444438,0.024911912,0.08842969,0.49227276,801.4286,820.3663,784.5055,797.8022,716.4103,-0.2125244140625,0.112548828125,0.9483642578125,0.934600830078125,-6.018829345703125,0.186920166015625,1.0,2.0,1.0,1.0,2.0,100.0,event
15:35:27.962,1.0849569,1.2047371,1.0489141,0.80122226,0.29920664,1.0971687,0.8125008,0.4955994,0.6726773,1.1330233,0.6562403,0.69521695,0.68166023,0.53103304,0.47875968,0.39347854,0.6444438,0.024911912,0.08842969,0.49227276,798.20514,815.9341,781.28204,789.7436,753.0769,-0.2125244140625,0.112548828125,0.9483642578125,0.934600830078125,-6.018829345703125,0.186920166015625,1.0,2.0,1.0,1.0,2.0,100.0,event
15:35:27.963,1.0849569,1.2047371,1.0489141,0.80122226,0.29920664,1.0971687,0.8125008,0.4955994,0.6726773,1.1330233,0.6562403,0.69521695,0.68166023,0.53103304,0.47875968,0.39347854,0.6444438,0.024911912,0.08842969,0.49227276,793.36993,796.99634,775.2381,792.1612,864.68866,-0.2125244140625,0.112548828125,0.9483642578125,0.934600830078125,-6.018829345703125,0.186920166015625,1.0,2.0,1.0,1.0,2.0,100.0,event
15:35:27.963,1.0849569,1.2047371,1.0489141,0.80122226,0.29920664,1.0971687,0.8125008,0.4955994,0.6726773,1.1330233,0.6562403,0.69521695,0.68166023,0.53103304,0.47875968,0.39347854,0.6444438,0.024911912,0.08842969,0.49227276,788.1319,796.1905,775.2381,793.7729,922.3077,-0.2125244140625,0.112548828125,0.9483642578125,0.934600830078125,-6.018829345703125,0.186920166015625,1.0,2.0,1.0,1.0,2.0,100.0,event
15:35:27.964,1.0849569,1.2047371,1.0489141,0.80122226,0.29920664,1.0971687,0.8125008,0.4955994,0.6726773,1.1330233,0.6562403,0.69521695,0.68166023,0.53103304,0.47875968,0.39347854,0.6444438,0.024911912,0.08842969,0.49227276,794.57874,805.4579,777.25275,792.1612,819.5604,-0.2125244140625,0.112548828125,0.9483642578125,0.934600830078125,-6.018829345703125,0.186920166015625,1.0,2.0,1.0,1.0,2.0,100.0,event
15:35:27.964,1.0849569,1.2047371,1.0489141,0.80122226,0.29920664,1.0971687,0.8125008,0.4955994,0.6726773,1.1330233,0.6562403,0.69521695,0.68166023,0.53103304,0.47875968,0.39347854,0.6444438,0.024911912,0.08842969,0.49227276,789.7436,809.4872,762.3443,787.326,825.6044,-0.2125244140625,0.112548828125,0.9483642578125,0.934600830078125,-6.018829345703125,0.186920166015625,1.0,2.0,1.0,1.0,2.0,100.0,event
15:35:27.965,1.0849569,1.2047371,1.0489141,0.80122226,0.29920664,1.0971687,0.8125008,0.4955994,0.6726773,1.1330233,0.6562403,0.69521695,0.68166023,0.53103304,0.47875968,0.39347854,0.6444438,0.024911912,0.08842969,0.49227276,799.41394,806.6667,753.47986,790.14655,1004.5055,-0.2125244140625,0.112548828125,0.9483642578125,0.934600830078125,-6.018829345703125,0.186920166015625,1.0,2.0,1.0,1.0,2.0,100.0,event
15:35:27.965,1.0849569,1.2047371,1.0489141,0.80122226,0.29920664,1.0971687,0.8125008,0.4955994,0.6726773,1.1330233,0.6562403,0.69521695,0.68166023,0.53103304,0.47875968,0.39347854,0.6444438,0.024911912,0.08842969,0.49227276,804.65204,809.0842,786.9231,792.1612,858.24176,-0.2125244140625,0.112548828125,0.9483642578125,0.934600830078125,-6.018829345703125,0.186920166015625,1.0,2.0,1.0,1.0,2.0,100.0,event
15:35:27.966,1.0849569,1.2047371,1.0489141,0.80122226,0.29920664,1.0971687,0.8125008,0.4955994,0.6726773,1.1330233,0.6562403,0.69521695,0.68166023,0.53103304,0.47875968,0.39347854,0.6444438,0.024911912,0.08842969,0.49227276,803.8461,811.0989,790.54944,790.54944,657.5824,-0.2125244140625,0.112548828125,0.9483642578125,0.934600830078125,-6.018829345703125,0.186920166015625,1.0,2.0,1.0,1.0,2.0,100.0,event
15:35:27.966,1.0849569,1.2047371,1.0489141,0.80122226,0.29920664,1.0971687,0.8125008,0.4955994,0.6726773,1.1330233,0.6562403,0.69521695,0.68166023,0.53103304,0.47875968,0.39347854,0.6444438,0.024911912,0.08842969,0.49227276,806.26373,805.8608,777.25275,801.8315,776.4469,-0.2125244140625,0.112548828125,0.9483642578125,0.934600830078125,-6.018829345703125,0.186920166015625,1.0,2.0,1.0,1.0,2.0,100.0,event
15:35:28.007,1.0849569,1.2047371,1.0489141,0.80122226,0.29920664,1.0971687,0.8125008,0.4955994,0.6726773,1.1330233,0.6562403,0.69521695,0.68166023,0.53103304,0.47875968,0.39347854,0.6444438,0.024911912,0.08842969,0.49227276,806.6667,803.0403,778.86444,799.41394,804.2491,-0.19439697265625,0.113525390625,0.975341796875,2.3028564453125,-5.226287841796875,0.538330078125,1.0,2.0,1.0,1.0,2.0,100.0,event
15:35:28.008,1.0849569,1.2047371,1.0489141,0.80122226,0.29920664,1.0971687,0.8125008,0.4955994,0.6726773,1.1330233,0.6562403,0.69521695,0.68166023,0.53103304,0.47875968,0.39347854,0.6444438,0.024911912,0.08842969,0.49227276,805.05493,805.4579,770.40295,788.1319,708.3516,-0.19439697265625,0.113525390625,0.975341796875,2.3028564453125,-5.226287841796875,0.538330078125,1.0,2.0,1.0,1.0,2.0,100.0,event
15:35:28.009,1.0849569,1.2047371,1.0489141,0.80122226,0.29920664,1.0971687,0.8125008,0.4955994,0.6726773,1.1330233,0.6562403,0.69521695,0.68166023,0.53103304,0.47875968,0.39347854,0.6444438,0.024911912,0.08842969,0.49227276,809.4872,805.4579,765.56775,793.36993,657.5824,-0.19439697265625,0.113525390625,0.975341796875,2.3028564453125,-5.226287841796875,0.538330078125,1.0,2.0,1.0,1.0,2.0,100.0,event
15:35:28.010,1.0849569,1.2047371,1.0489141,0.80122226,0.29920664,1.0971687,0.8125008,0.4955994,0.6726773,1.1330233,0.6562403,0.69521695,0.68166023,0.53103304,0.47875968,0.39347854,0.6444438,0.024911912,0.08842969,0.49227276,807.0696,805.8608,764.35895,798.60803,816.7399,-0.19439697265625,0.113525390625,0.975341796875,2.3028564453125,-5.226287841796875,0.538330078125,1.0,2.0,1.0,1.0,2.0,100.0,event
15:35:28.010,1.0849569,1.2047371,1.0489141,0.80122226,0.29920664,1.0971687,0.8125008,0.4955994,0.6726773,1.1330233,0.6562403,0.69521695,0.68166023,0.53103304,0.47875968,0.39347854,0.6444438,0.024911912,0.08842969,0.49227276,811.9048,803.44324,760.7326,802.23444,755.09155,-0.19439697265625,0.113525390625,0.975341796875,2.3028564453125,-5.226287841796875,0.538330078125,1.0,2.0,1.0,1.0,2.0,100.0,event
15:35:28.011,1.0849569,1.2047371,1.0489141,0.80122226,0.29920664,1.0971687,0.8125008,0.4955994,0.6726773,1.1330233,0.6562403,0.69521695,0.68166023,0.53103304,0.47875968,0.39347854,0.6444438,0.024911912,0.08842969,0.49227276,811.0989,803.0403,754.68866,786.9231,868.315,-0.19439697265625,0.113525390625,0.975341796875,2.3028564453125,-5.226287841796875,0.538330078125,1.0,2.0,1.0,1.0,2.0,100.0,event
15:35:28.012,1.0849569,1.2047371,1.0489141,0.80122226,0.29920664,1.0971687,0.8125008,0.4955994,0.6726773,1.1330233,0.6562403,0.69521695,0.68166023,0.53103304,0.47875968,0.39347854,0.6444438,0.024911912,0.08842969,0.49227276,811.9048,800.6227,757.1062,782.0879,865.89746,-0.19439697265625,0.113525390625,0.975341796875,2.3028564453125,-5.226287841796875,0.538330078125,1.0,2.0,1.0,1.0,2.0,100.0,event
15:35:28.012,1.0849569,1.2047371,1.0489141,0.80122226,0.29920664,1.0971687,0.8125008,0.4955994,0.6726773,1.1330233,0.6562403,0.69521695,0.68166023,0.53103304,0.47875968,0.39347854,0.6444438,0.024911912,0.08842969,0.49227276,797.8022,798.20514,758.71796,794.9817,964.21246,-0.19439697265625,0.113525390625,0.975341796875,2.3028564453125,-5.226287841796875,0.538330078125,1.0,2.0,1.0,1.0,2.0,100.0,event
15:35:28.013,1.0849569,1.2047371,1.0489141,0.80122226,0.29920664,1.0971687,0.8125008,0.4955994,0.6726773,1.1330233,0.6562403,0.69521695,0.68166023,0.53103304,0.47875968,0.39347854,0.6444438,0.024911912,0.08842969,0.49227276,797.8022,797.8022,774.0293,805.8608,1123.773,-0.19439697265625,0.113525390625,0.975341796875,2.3028564453125,-5.226287841796875,0.538330078125,1.0,2.0,1.0,1.0,2.0,100.0,event
15:35:28.013,1.0849569,1.2047371,1.0489141,0.80122226,0.29920664,1.0971687,0.8125008,0.4955994,0.6726773,1.1330233,0.6562403,0.69521695,0.68166023,0.53103304,0.47875968,0.39347854,0.6444438,0.024911912,0.08842969,0.49227276,807.8755,805.8608,809.89014,806.6667,867.50916,-0.19439697265625,0.113525390625,0.975341796875,2.3028564453125,-5.226287841796875,0.538330078125,1.0,2.0,1.0,1.0,2.0,100.0,event
15:35:28.014,1.0849569,1.2047371,1.0489141,0.80122226,0.29920664,1.0971687,0.8125008,0.4955994,0.6726773,1.1330233,0.6562403,0.69521695,0.68166023,0.53103304,0.47875968,0.39347854,0.6444438,0.024911912,0.08842969,0.49227276,816.7399,807.47253,790.14655,802.23444,751.8681,-0.19439697265625,0.113525390625,0.975341796875,2.3028564453125,-5.226287841796875,0.538330078125,1.0,2.0,1.0,1.0,2.0,100.0,event
15:35:28.015,1.0849569,1.2047371,1.0489141,0.80122226,0.29920664,1.0971687,0.8125008,0.4955994,0.6726773,1.1330233,0.6562403,0.69521695,0.68166023,0.53103304,0.47875968,0.39347854,0.6444438,0.024911912,0.08842969,0.49227276,816.337,808.68134,777.25275,793.7729,814.7253,-0.19439697265625,0.113525390625,0.975341796875,2.3028564453125,-5.226287841796875,0.538330078125,1.0,2.0,1.0,1.0,2.0,100.0,event
15:35:28.045,1.0849569,1.2047371,1.0489141,0.80122226,0.29920664,1.0971687,0.8125008,0.4955994,0.6726773,1.1330233,0.6562403,0.69521695,0.68166023,0.53103304,0.47875968,0.39347854,0.6444438,0.024911912,0.08842969,0.49227276,813.91943,809.4872,794.17584,792.96704,786.52014,-0.193603515625,0.11053466796875,0.9552001953125,2.34771728515625,-5.263671875,-0.485992431640625,1.0,2.0,1.0,1.0,2.0,100.0,event
15:35:28.046,1.0489161,1.0951375,1.0489141,0.80122226,0.30727056,0.9257505,0.8125008,0.4955994,0.679452,1.1032583,0.6562403,0.69521695,0.6875117,0.5133444,0.47875968,0.39347854,0.7070838,0.01180299,0.08842969,0.49227276,809.89014,810.293,798.60803,792.5641,778.86444,-0.193603515625,0.11053466796875,0.9552001953125,2.34771728515625,-5.263671875,-0.485992431640625,1.0,1.0,1.0,1.0,1.0,100.0,event
15:35:28.051,1.0489161,1.0951375,1.0489141,0.80122226,0.30727056,0.9257505,0.8125008,0.4955994,0.679452,1.1032583,0.6562403,0.69521695,0.6875117,0.5133444,0.47875968,0.39347854,0.7070838,0.01180299,0.08842969,0.49227276,802.23444,805.4579,793.7729,791.75824,754.2857,-0.193603515625,0.11053466796875,0.9552001953125,2.34771728515625,-5.263671875,-0.485992431640625,1.0,1.0,1.0,1.0,1.0,100.0,event
15:35:28.052,1.0489161,1.0951375,1.0489141,0.80122226,0.30727056,0.9257505,0.8125008,0.4955994,0.679452,1.1032583,0.6562403,0.69521695,0.6875117,0.5133444,0.47875968,0.39347854,0.7070838,0.01180299,0.08842969,0.49227276,812.71063,807.8755,795.38464,805.05493,785.7143,-0.193603515625,0.11053466796875,0.9552001953125,2.34771728515625,-5.263671875,-0.485992431640625,1.0,1.0,1.0,1.0,1.0,100.0,event
15:35:28.053,1.0489161,1.0951375,1.0489141,0.80122226,0.30727056,0.9257505,0.8125008,0.4955994,0.679452,1.1032583,0.6562403,0.69521695,0.6875117,0.5133444,0.47875968,0.39347854,0.7070838,0.01180299,0.08842969,0.49227276,816.337,822.7839,798.20514,798.20514,755.09155,-0.193603515625,0.11053466796875,0.9552001953125,2.34771728515625,-5.263671875,-0.485992431640625,1.0,1.0,1.0,1.0,1.0,100.0,event
15:35:28.053,1.0489161,1.0951375,1.0489141,0.80122226,0.30727056,0.9257505,0.8125008,0.4955994,0.679452,1.1032583,0.6562403,0.69521695,0.6875117,0.5133444,0.47875968,0.39347854,0.7070838,0.01180299,0.08842969,0.49227276,800.6227,821.1722,796.1905,789.34064,777.6557,-0.193603515625,0.11053466796875,0.9552001953125,2.34771728515625,-5.263671875,-0.485992431640625,1.0,1.0,1.0,1.0,1.0,100.0,event
15:35:28.054,1.0489161,1.0951375,1.0489141,0.80122226,0.30727056,0.9257505,0.8125008,0.4955994,0.679452,1.1032583,0.6562403,0.69521695,0.6875117,0.5133444,0.47875968,0.39347854,0.7070838,0.01180299,0.08842969,0.49227276,798.60803,813.91943,791.3553,786.52014,894.90845,-0.193603515625,0.11053466796875,0.9552001953125,2.34771728515625,-5.263671875,-0.485992431640625,1.0,1.0,1.0,1.0,1.0,100.0,event
15:35:28.055,1.0489161,1.0951375,1.0489141,0.80122226,0.30727056,0.9257505,0.8125008,0.4955994,0.679452,1.1032583,0.6562403,0.69521695,0.6875117,0.5133444,0.47875968,0.39347854,0.7070838,0.01180299,0.08842969,0.49227276,801.4286,809.0842,799.41394,791.75824,1001.28204,-0.193603515625,0.11053466796875,0.9552001953125,2.34771728515625,-5.263671875,-0.485992431640625,1.0,1.0,1.0,1.0,1.0,100.0,event
15:35:28.056,1.0489161,1.0951375,1.0489141,0.80122226,0.30727056,0.9257505,0.8125008,0.4955994,0.679452,1.1032583,0.6562403,0.69521695,0.6875117,0.5133444,0.47875968,0.39347854,0.7070838,0.01180299,0.08842969,0.49227276,808.2784,816.337,813.1135,798.20514,849.7802,-0.193603515625,0.11053466796875,0.9552001953125,2.34771728515625,-5.263671875,-0.485992431640625,1.0,1.0,1.0,1.0,1.0,100.0,event
15:35:28.056,1.0489161,1.0951375,1.0489141,0.80122226,0.30727056,0.9257505,0.8125008,0.4955994,0.679452,1.1032583,0.6562403,0.69521695,0.6875117,0.5133444,0.47875968,0.39347854,0.7070838,0.01180299,0.08842969,0.49227276,814.3223,818.3516,799.41394,794.9817,709.5604,-0.193603515625,0.11053466796875,0.9552001953125,2.34771728515625,-5.263671875,-0.485992431640625,1.0,1.0,1.0,1.0,1.0,100.0,event
15:35:28.057,1.0489161,1.0951375,1.0489141,0.80122226,0.30727056,0.9257505,0.8125008,0.4955994,0.679452,1.1032583,0.6562403,0.69521695,0.6875117,0.5133444,0.47875968,0.39347854,0.7070838,0.01180299,0.08842969,0.49227276,806.6667,810.293,786.52014,793.36993,771.6117,-0.193603515625,0.11053466796875,0.9552001953125,2.34771728515625,-5.263671875,-0.485992431640625,1.0,1.0,1.0,1.0,1.0,100.0,event
15:35:28.058,1.0489161,1.0951375,1.0489141,0.80122226,0.30727056,0.9257505,0.8125008,0.4955994,0.679452,1.1032583,0.6562403,0.69521695,0.6875117,0.5133444,0.47875968,0.39347854,0.7070838,0.01180299,0.08842969,0.49227276,802.23444,809.89014,788.1319,796.99634,963.8095,-0.193603515625,0.11053466796875,0.9552001953125,2.34771728515625,-5.263671875,-0.485992431640625,1.0,1.0,1.0,1.0,1.0,100.0,event
15:35:28.084,1.0489161,1.0951375,1.0489141,0.80122226,0.30727056,0.9257505,0.8125008,0.4955994,0.679452,1.1032583,0.6562403,0.69521695,0.6875117,0.5133444,0.47875968,0.39347854,0.7070838,0.01180299,0.08842969,0.49227276,805.05493,816.337,816.7399,798.60803,849.3773,-0.17669677734375,0.1177978515625,0.96868896484375,2.37762451171875,-6.467437744140625,0.829925537109375,1.0,1.0,1.0,1.0,1.0,100.0,event
15:35:28.085,1.0489161,1.0951375,1.0489141,0.80122226,0.30727056,0.9257505,0.8125008,0.4955994,0.679452,1.1032583,0.6562403,0.69521695,0.6875117,0.5133444,0.47875968,0.39347854,0.7070838,0.01180299,0.08842969,0.49227276,807.8755,813.1135,811.0989,797.8022,678.93774,-0.17669677734375,0.1177978515625,0.96868896484375,2.37762451171875,-6.467437744140625,0.829925537109375,1.0,1.0,1.0,1.0,1.0,100.0,event
15:35:28.086,1.0489161,1.0951375,1.0489141,0.80122226,0.30727056,0.9257505,0.8125008,0.4955994,0.679452,1.1032583,0.6562403,0.69521695,0.6875117,0.5133444,0.47875968,0.39347854,0.7070838,0.01180299,0.08842969,0.49227276,804.2491,805.05493,781.28204,791.75824,739.3773,-0.17669677734375,0.1177978515625,0.96868896484375,2.37762451171875,-6.467437744140625,0.829925537109375,1.0,1.0,1.0,1.0,1.0,100.0,event
15:35:28.086,1.0489161,1.0951375,1.0489141,0.80122226,0.30727056,0.9257505,0.8125008,0.4955994,0.679452,1.1032583,0.6562403,0.69521695,0.6875117,0.5133444,0.47875968,0.39347854,0.7070838,0.01180299,0.08842969,0.49227276,799.81683,803.44324,796.99634,797.3993,749.85345,-0.17669677734375,0.1177978515625,0.96868896484375,2.37762451171875,-6.467437744140625,0.829925537109375,1.0,1.0,1.0,1.0,1.0,100.0,event
15:35:28.087,1.0489161,1.0951375,1.0489141,0.80122226,0.30727056,0.9257505,0.8125008,0.4955994,0.679452,1.1032583,0.6562403,0.69521695,0.6875117,0.5133444,0.47875968,0.39347854,0.7070838,0.01180299,0.08842969,0.49227276,802.23444,807.47253,805.8608,794.17584,704.3223,-0.17669677734375,0.1177978515625,0.96868896484375,2.37762451171875,-6.467437744140625,0.829925537109375,1.0,1.0,1.0,1.0,1.0,100.0,event
15:35:28.088,1.0489161,1.0951375,1.0489141,0.80122226,0.30727056,0.9257505,0.8125008,0.4955994,0.679452,1.1032583,0.6562403,0.69521695,0.6875117,0.5133444,0.47875968,0.39347854,0.7070838,0.01180299,0.08842969,0.49227276,794.57874,805.4579,790.54944,787.326,738.97437,-0.17669677734375,0.1177978515625,0.96868896484375,2.37762451171875,-6.467437744140625,0.829925537109375,1.0,1.0,1.0,1.0,1.0,100.0,event
15:35:28.088,1.0489161,1.0951375,1.0489141,0.80122226,0.30727056,0.9257505,0.8125008,0.4955994,0.679452,1.1032583,0.6562403,0.69521695,0.6875117,0.5133444,0.47875968,0.39347854,0.7070838,0.01180299,0.08842969,0.49227276,795.78754,794.9817,778.0586,795.78754,934.7985,-0.17669677734375,0.1177978515625,0.96868896484375,2.37762451171875,-6.467437744140625,0.829925537109375,1.0,1.0,1.0,1.0,1.0,100.0,event
15:35:28.089,1.0489161,1.0951375,1.0489141,0.80122226,0.30727056,0.9257505,0.8125008,0.4955994,0.679452,1.1032583,0.6562403,0.69521695,0.6875117,0.5133444,0.47875968,0.39347854,0.7070838,0.01180299,0.08842969,0.49227276,800.6227,792.1612,795.38464,791.75824,983.1502,-0.17669677734375,0.1177978515625,0.96868896484375,2.37762451171875,-6.467437744140625,0.829925537109375,1.0,1.0,1.0,1.0,1.0,100.0,event
15:35:28.089,1.0489161,1.0951375,1.0489141,0.80122226,0.30727056,0.9257505,0.8125008,0.4955994,0.679452,1.1032583,0.6562403,0.69521695,0.6875117,0.5133444,0.47875968,0.39347854,0.7070838,0.01180299,0.08842969,0.49227276,799.81683,794.9817,807.8755,790.9524,729.304,-0.17669677734375,0.1177978515625,0.96868896484375,2.37762451171875,-6.467437744140625,0.829925537109375,1.0,1.0,1.0,1.0,1.0,100.0,event
15:35:28.090,1.0489161,1.0951375,1.0489141,0.80122226,0.30727056,0.9257505,0.8125008,0.4955994,0.679452,1.1032583,0.6562403,0.69521695,0.6875117,0.5133444,0.47875968,0.39347854,0.7070838,0.01180299,0.08842969,0.49227276,798.60803,796.1905,794.17584,797.8022,782.8938,-0.17669677734375,0.1177978515625,0.96868896484375,2.37762451171875,-6.467437744140625,0.829925537109375,1.0,1.0,1.0,1.0,1.0,100.0,event
15:35:28.090,1.0489161,1.0951375,1.0489141,0.80122226,0.30727056,0.9257505,0.8125008,0.4955994,0.679452,1.1032583,0.6562403,0.69521695,0.6875117,0.5133444,0.47875968,0.39347854,0.7070838,0.01180299,0.08842969,0.49227276,802.6374,795.78754,796.5934,803.44324,684.57874,-0.17669677734375,0.1177978515625,0.96868896484375,2.37762451171875,-6.467437744140625,0.829925537109375,1.0,1.0,1.0,1.0,1.0,100.0,event
15:35:28.091,1.0489161,1.0951375,1.0489141,0.80122226,0.30727056,0.9257505,0.8125008,0.4955994,0.679452,1.1032583,0.6562403,0.69521695,0.6875117,0.5133444,0.47875968,0.39347854,0.7070838,0.01180299,0.08842969,0.49227276,790.54944,794.17584,792.5641,793.7729,744.61536,-0.17669677734375,0.1177978515625,0.96868896484375,2.37762451171875,-6.467437744140625,0.829925537109375,1.0,1.0,1.0,1.0,1.0,100.0,event
15:35:28.119,1.0489161,1.0951375,1.0489141,0.80122226,0.30727056,0.9257505,0.8125008,0.4955994,0.679452,1.1032583,0.6562403,0.69521695,0.6875117,0.5133444,0.47875968,0.39347854,0.7070838,0.01180299,0.08842969,0.49227276,791.3553,790.54944,783.2967,791.3553,733.73627,-0.16888427734375,0.11700439453125,0.96826171875,2.49725341796875,-5.00946044921875,-0.179443359375,1.0,1.0,1.0,1.0,1.0,100.0,event
15:35:28.120,1.0489161,1.0951375,1.0489141,0.80122226,0.30727056,0.9257505,0.8125008,0.4955994,0.679452,1.1032583,0.6562403,0.69521695,0.6875117,0.5133444,0.47875968,0.39347854,0.7070838,0.01180299,0.08842969,0.49227276,799.011,789.34064,775.2381,794.57874,846.1539,-0.16888427734375,0.11700439453125,0.96826171875,2.49725341796875,-5.00946044921875,-0.179443359375,1.0,1.0,1.0,1.0,1.0,100.0,event
15:35:28.121,1.0489161,1.0951375,1.0489141,0.80122226,0.30727056,0.9257505,0.8125008,0.4955994,0.679452,1.1032583,0.6562403,0.69521695,0.6875117,0.5133444,0.47875968,0.39347854,0.7070838,0.01180299,0.08842969,0.49227276,799.81683,790.54944,784.5055,804.65204,943.663,-0.16888427734375,0.11700439453125,0.96826171875,2.49725341796875,-5.00946044921875,-0.179443359375,1.0,1.0,1.0,1.0,1.0,100.0,event
15:35:28.122,0.99803936,0.94525236,1.0489141,0.80122226,0.29378113,0.71782327,0.8125008,0.4955994,0.679452,1.0201892,0.6562403,0.69521695,0.69633967,0.5014838,0.47875968,0.39347854,0.7420849,-0.0009045358,0.08842969,0.49227276,795.78754,796.99634,799.81683,795.78754,833.663,-0.16888427734375,0.11700439453125,0.96826171875,2.49725341796875,-5.00946044921875,-0.179443359375,1.0,1.0,1.0,1.0,1.0,100.0,event
15:35:28.127,0.99803936,0.94525236,1.0489141,0.80122226,0.29378113,0.71782327,0.8125008,0.4955994,0.679452,1.0201892,0.6562403,0.69521695,0.69633967,0.5014838,0.47875968,0.39347854,0.7420849,-0.0009045358,0.08842969,0.49227276,786.9231,801.4286,791.3553,798.20514,715.2015,-0.16888427734375,0.11700439453125,0.96826171875,2.49725341796875,-5.00946044921875,-0.179443359375,1.0,1.0,1.0,1.0,1.0,100.0,event
15:35:28.128,0.99803936,0.94525236,1.0489141,0.80122226,0.29378113,0.71782327,0.8125008,0.4955994,0.679452,1.0201892,0.6562403,0.69521695,0.69633967,0.5014838,0.47875968,0.39347854,0.7420849,-0.0009045358,0.08842969,0.49227276,787.72894,788.1319,769.19415,801.02563,812.3077,-0.16888427734375,0.11700439453125,0.96826171875,2.49725341796875,-5.00946044921875,-0.179443359375,1.0,1.0,1.0,1.0,1.0,100.0,event
15:35:28.128,0.99803936,0.94525236,1.0489141,0.80122226,0.29378113,0.71782327,0.8125008,0.4955994,0.679452,1.0201892,0.6562403,0.69521695,0.69633967,0.5014838,0.47875968,0.39347854,0.7420849,-0.0009045358,0.08842969,0.49227276,801.8315,779.2674,770.0,795.78754,1076.227,-0.16888427734375,0.11700439453125,0.96826171875,2.49725341796875,-5.00946044921875,-0.179443359375,1.0,1.0,1.0,1.0,1.0,100.0,event
15:35:28.129,0.99803936,0.94525236,1.0489141,0.80122226,0.29378113,0.71782327,0.8125008,0.4955994,0.679452,1.0201892,0.6562403,0.69521695,0.69633967,0.5014838,0.47875968,0.39347854,0.7420849,-0.0009045358,0.08842969,0.49227276,807.47253,797.8022,800.6227,802.6374,914.65204,-0.16888427734375,0.11700439453125,0.96826171875,2.49725341796875,-5.00946044921875,-0.179443359375,1.0,1.0,1.0,1.0,1.0,100.0,event
15:35:28.130,0.99803936,0.94525236,1.0489141,0.80122226,0.29378113,0.71782327,0.8125008,0.4955994,0.679452,1.0201892,0.6562403,0.69521695,0.69633967,0.5014838,0.47875968,0.39347854,0.7420849,-0.0009045358,0.08842969,0.49227276,805.05493,809.0842,796.1905,798.60803,667.25275,-0.16888427734375,0.11700439453125,0.96826171875,2.49725341796875,-5.00946044921875,-0.179443359375,1.0,1.0,1.0,1.0,1.0,100.0,event
15:35:28.131,0.99803936,0.94525236,1.0489141,0.80122226,0.29378113,0.71782327,0.8125008,0.4955994,0.679452,1.0201892,0.6562403,0.69521695,0.69633967,0.5014838,0.47875968,0.39347854,0.7420849,-0.0009045358,0.08842969,0.49227276,799.41394,794.9817,782.0879,800.2198,720.84247,-0.16888427734375,0.11700439453125,0.96826171875,2.49725341796875,-5.00946044921875,-0.179443359375,1.0,1.0,1.0,1.0,1.0,100.0,event
15:35:28.131,0.99803936,0.94525236,1.0489141,0.80122226,0.29378113,0.71782327,0.8125008,0.4955994,0.679452,1.0201892,0.6562403,0.69521695,0.69633967,0.5014838,0.47875968,0.39347854,0.7420849,-0.0009045358,0.08842969,0.49227276,801.02563,792.1612,784.10254,801.4286,794.17584,-0.16888427734375,0.11700439453125,0.96826171875,2.49725341796875,-5.00946044921875,-0.179443359375,1.0,1.0,1.0,1.0,1.0,100.0,event
15:35:28.132,0.99803936,0.94525236,1.0489141,0.80122226,0.29378113,0.71782327,0.8125008,0.4955994,0.679452,1.0201892,0.6562403,0.69521695,0.69633967,0.5014838,0.47875968,0.39347854,0.7420849,-0.0009045358,0.08842969,0.49227276,796.1905,799.011,784.90845,788.93774,726.8865,-0.16888427734375,0.11700439453125,0.96826171875,2.49725341796875,-5.00946044921875,-0.179443359375,1.0,1.0,1.0,1.0,1.0,100.0,event
15:35:28.221,0.99803936,0.94525236,1.0489141,0.80122226,0.29378113,0.71782327,0.8125008,0.4955994,0.679452,1.0201892,0.6562403,0.69521695,0.69633967,0.5014838,0.47875968,0.39347854,0.7420849,-0.0009045358,0.08842969,0.49227276,786.1172,794.9817,780.07324,785.31134,657.98535,-0.16888427734375,0.11700439453125,0.96826171875,2.49725341796875,-5.00946044921875,-0.179443359375,1.0,1.0,1.0,1.0,1.0,100.0,event
15:35:28.223,0.99803936,0.94525236,1.0489141,0.80122226,0.29378113,0.71782327,0.8125008,0.4955994,0.679452,1.0201892,0.6562403,0.69521695,0.69633967,0.5014838,0.47875968,0.39347854,0.7420849,-0.0009045358,0.08842969,0.49227276,791.75824,786.52014,772.8205,784.90845,689.41394,-0.16888427734375,0.11700439453125,0.96826171875,2.49725341796875,-5.00946044921875,-0.179443359375,1.0,1.0,1.0,1.0,1.0,100.0,event
15:35:28.223,0.99803936,0.94525236,1.0489141,0.80122226,0.29378113,0.71782327,0.8125008,0.4955994,0.679452,1.0201892,0.6562403,0.69521695,0.69633967,0.5014838,0.47875968,0.39347854,0.7420849,-0.0009045358,0.08842969,0.49227276,811.9048,793.36993,788.1319,796.99634,714.3956,-0.16888427734375,0.11700439453125,0.96826171875,2.49725341796875,-5.00946044921875,-0.179443359375,1.0,1.0,1.0,1.0,1.0,100.0,event
15:35:28.224,0.99803936,0.94525236,1.0489141,0.80122226,0.29378113,0.71782327,0.8125008,0.4955994,0.679452,1.0201892,0.6562403,0.69521695,0.69633967,0.5014838,0.47875968,0.39347854,0.7420849,-0.0009045358,0.08842969,0.49227276,800.6227,798.20514,796.1905,807.0696,721.2454,-0.16888427734375,0.11700439453125,0.96826171875,2.49725341796875,-5.00946044921875,-0.179443359375,1.0,1.0,1.0,1.0,1.0,100.0,event
15:35:28.225,0.99803936,0.94525236,1.0489141,0.80122226,0.29378113,0.71782327,0.8125008,0.4955994,0.679452,1.0201892,0.6562403,0.69521695,0.69633967,0.5014838,0.47875968,0.39347854,0.7420849,-0.0009045358,0.08842969,0.49227276,785.7143,796.5934,792.96704,800.6227,699.89014,-0.16888427734375,0.11700439453125,0.96826171875,2.49725341796875,-5.00946044921875,-0.179443359375,1.0,1.0,1.0,1.0,1.0,100.0,event
15:35:28.225,0.99803936,0.94525236,1.0489141,0.80122226,0.29378113,0.71782327,0.8125008,0.4955994,0.679452,1.0201892,0.6562403,0.69521695,0.69633967,0.5014838,0.47875968,0.39347854,0.7420849,-0.0009045358,0.08842969,0.49227276,792.5641,797.3993,781.685,800.2198,890.87915,-0.16888427734375,0.11700439453125,0.96826171875,2.49725341796875,-5.00946044921875,-0.179443359375,1.0,1.0,1.0,1.0,1.0,100.0,event
15:35:28.226,0.99803936,0.94525236,1.0489141,0.80122226,0.29378113,0.71782327,0.8125008,0.4955994,0.679452,1.0201892,0.6562403,0.69521695,0.69633967,0.5014838,0.47875968,0.39347854,0.7420849,-0.0009045358,0.08842969,0.49227276,786.9231,803.0403,817.5458,794.57874,853.00366,-0.16888427734375,0.11700439453125,0.96826171875,2.49725341796875,-5.00946044921875,-0.179443359375,1.0,1.0,1.0,1.0,1.0,100.0,event
15:35:28.226,0.99803936,0.94525236,1.0489141,0.80122226,0.29378113,0.71782327,0.8125008,0.4955994,0.679452,1.0201892,0.6562403,0.69521695,0.69633967,0.5014838,0.47875968,0.39347854,0.7420849,-0.0009045358,0.08842969,0.49227276,794.17584,795.38464,790.14655,799.81683,1189.0476,-0.16888427734375,0.11700439453125,0.96826171875,2.49725341796875,-5.00946044921875,-0.179443359375,1.0,1.0,1.0,1.0,1.0,100.0,event
15:35:28.227,0.99803936,0.94525236,1.0489141,0.80122226,0.29378113,0.71782327,0.8125008,0.4955994,0.679452,1.0201892,0.6562403,0.69521695,0.69633967,0.5014838,0.47875968,0.39347854,0.7420849,-0.0009045358,0.08842969,0.49227276,786.9231,803.44324,796.5934,794.17584,646.7033,-0.16888427734375,0.11700439453125,0.96826171875,2.49725341796875,-5.00946044921875,-0.179443359375,1.0,1.0,1.0,1.0,1.0,100.0,event
15:35:28.228,0.99803936,0.94525236,1.0489141,0.80122226,0.29378113,0.71782327,0.8125008,0.4955994,0.679452,1.0201892,0.6562403,0.69521695,0.69633967,0.5014838,0.47875968,0.39347854,0.7420849,-0.0009045358,0.08842969,0.49227276,784.5055,796.99634,771.6117,794.9817,728.49817,-0.16888427734375,0.11700439453125,0.96826171875,2.49725341796875,-5.00946044921875,-0.179443359375,1.0,1.0,1.0,1.0,1.0,100.0,event
15:35:28.228,0.99803936,0.94525236,1.0489141,0.80122226,0.29378113,0.71782327,0.8125008,0.4955994,0.679452,1.0201892,0.6562403,0.69521695,0.69633967,0.5014838,0.47875968,0.39347854,0.7420849,-0.0009045358,0.08842969,0.49227276,784.10254,807.47253,787.72894,792.96704,666.04395,-0.16888427734375,0.11700439453125,0.96826171875,2.49725341796875,-5.00946044921875,-0.179443359375,1.0,1.0,1.0,1.0,1.0,100.0,event
15:35:28.229,0.99803936,0.94525236,1.0489141,0.80122226,0.29378113,0.71782327,0.8125008,0.4955994,0.679452,1.0201892,0.6562403,0.69521695,0.69633967,0.5014838,0.47875968,0.39347854,0.7420849,-0.0009045358,0.08842969,0.49227276,794.9817,819.5604,794.17584,803.0403,670.4762,-0.16888427734375,0.11700439453125,0.96826171875,2.49725341796875,-5.00946044921875,-0.179443359375,1.0,1.0,1.0,1.0,1.0,100.0,event
15:35:28.259,0.99803936,0.94525236,1.0489141,0.80122226,0.29378113,0.71782327,0.8125008,0.4955994,0.679452,1.0201892,0.6562403,0.69521695,0.69633967,0.5014838,0.47875968,0.39347854,0.7420849,-0.0009045358,0.08842969,0.49227276,794.57874,808.68134,780.4762,799.011,754.2857,-0.1710205078125,0.11578369140625,0.9654541015625,1.973876953125,-4.553375244140625,-0.560760498046875,1.0,1.0,1.0,1.0,1.0,100.0,event
15:35:28.261,0.99803936,0.94525236,1.0489141,0.80122226,0.29378113,0.71782327,0.8125008,0.4955994,0.679452,1.0201892,0.6562403,0.69521695,0.69633967,0.5014838,0.47875968,0.39347854,0.7420849,-0.0009045358,0.08842969,0.49227276,791.75824,798.20514,778.46155,791.3553,754.2857,-0.1710205078125,0.11578369140625,0.9654541015625,1.973876953125,-4.553375244140625,-0.560760498046875,1.0,1.0,1.0,1.0,1.0,100.0,event
15:35:28.262,0.99803936,0.94525236,1.0489141,0.80122226,0.29378113,0.71782327,0.8125008,0.4955994,0.679452,1.0201892,0.6562403,0.69521695,0.69633967,0.5014838,0.47875968,0.39347854,0.7420849,-0.0009045358,0.08842969,0.49227276,793.7729,797.8022,790.14655,799.81683,658.7912,-0.1710205078125,0.11578369140625,0.9654541015625,1.973876953125,-4.553375244140625,-0.560760498046875,1.0,1.0,1.0,1.0,1.0,100.0,event
15:35:28.263,0.99803936,0.94525236,1.0489141,0.80122226,0.29378113,0.71782327,0.8125008,0.4955994,0.679452,1.0201892,0.6562403,0.69521695,0.69633967,0.5014838,0.47875968,0.39347854,0.7420849,-0.0009045358,0.08842969,0.49227276,790.9524,800.2198,790.14655,793.36993,614.4689,-0.1710205078125,0.11578369140625,0.9654541015625,1.973876953125,-4.553375244140625,-0.560760498046875,1.0,1.0,1.0,1.0,1.0,100.0,event
15:35:28.264,0.99803936,0.94525236,1.0489141,0.80122226,0.29378113,0.71782327,0.8125008,0.4955994,0.679452,1.0201892,0.6562403,0.69521695,0.69633967,0.5014838,0.47875968,0.39347854,0.7420849,-0.0009045358,0.08842969,0.49227276,794.9817,800.6227,779.2674,790.14655,686.1905,-0.1710205078125,0.11578369140625,0.9654541015625,1.973876953125,-4.553375244140625,-0.560760498046875,1.0,1.0,1.0,1.0,1.0,100.0,event
15:35:28.265,0.9520415,0.78713584,1.0489141,0.80122226,0.2640156,0.5142889,0.8125008,0.4955994,0.679452,0.88053787,0.6562403,0.69521695,0.70263493,0.49408874,0.47875968,0.39347854,0.7613813,-0.014401263,0.08842969,0.49227276,796.5934,800.6227,782.0879,798.20514,898.93774,-0.1710205078125,0.11578369140625,0.9654541015625,1.973876953125,-4.553375244140625,-0.560760498046875,1.0,1.0,1.0,1.0,1.0,100.0,event
15:35:28.269,0.9520415,0.78713584,1.0489141,0.80122226,0.2640156,0.5142889,0.8125008,0.4955994,0.679452,0.88053787,0.6562403,0.69521695,0.70263493,0.49408874,0.47875968,0.39347854,0.7613813,-0.014401263,0.08842969,0.49227276,800.6227,803.8461,784.5055,796.1905,946.08057,-0.1710205078125,0.11578369140625,0.9654541015625,1.973876953125,-4.553375244140625,-0.560760498046875,1.0,1.0,1.0,1.0,1.0,100.0,event
15:35:28.270,0.9520415,0.78713584,1.0489141,0.80122226,0.2640156,0.5142889,0.8125008,0.4955994,0.679452,0.88053787,0.6562403,0.69521695,0.70263493,0.49408874,0.47875968,0.39347854,0.7613813,-0.014401263,0.08842969,0.49227276,800.6227,802.6374,774.83514,782.8938,813.91943,-0.1710205078125,0.11578369140625,0.9654541015625,1.973876953125,-4.553375244140625,-0.560760498046875,1.0,1.0,1.0,1.0,1.0,100.0,event
15:35:28.270,0.9520415,0.78713584,1.0489141,0.80122226,0.2640156,0.5142889,0.8125008,0.4955994,0.679452,0.88053787,0.6562403,0.69521695,0.70263493,0.49408874,0.47875968,0.39347854,0.7613813,-0.014401263,0.08842969,0.49227276,792.5641,794.17584,766.3736,776.8498,787.72894,-0.1710205078125,0.11578369140625,0.9654541015625,1.973876953125,-4.553375244140625,-0.560760498046875,1.0,1.0,1.0,1.0,1.0,100.0,event
15:35:28.271,0.9520415,0.78713584,1.0489141,0.80122226,0.2640156,0.5142889,0.8125008,0.4955994,0.679452,0.88053787,0.6562403,0.69521695,0.70263493,0.49408874,0.47875968,0.39347854,0.7613813,-0.014401263,0.08842969,0.49227276,787.326,782.49084,767.1795,789.7436,1053.2601,-0.1710205078125,0.11578369140625,0.9654541015625,1.973876953125,-4.553375244140625,-0.560760498046875,1.0,1.0,1.0,1.0,1.0,100.0,event
15:35:28.271,0.9520415,0.78713584,1.0489141,0.80122226,0.2640156,0.5142889,0.8125008,0.4955994,0.679452,0.88053787,0.6562403,0.69521695,0.70263493,0.49408874,0.47875968,0.39347854,0.7613813,-0.014401263,0.08842969,0.49227276,788.1319,790.9524,794.57874,787.72894,1008.93774,-0.1710205078125,0.11578369140625,0.9654541015625,1.973876953125,-4.553375244140625,-0.560760498046875,1.0,1.0,1.0,1.0,1.0,100.0,event
15:35:28.272,0.9520415,0.78713584,1.0489141,0.80122226,0.2640156,0.5142889,0.8125008,0.4955994,0.679452,0.88053787,0.6562403,0.69521695,0.70263493,0.49408874,0.47875968,0.39347854,0.7613813,-0.014401263,0.08842969,0.49227276,791.3553,791.3553,789.34064,785.7143,843.73627,-0.1710205078125,0.11578369140625,0.9654541015625,1.973876953125,-4.553375244140625,-0.560760498046875,1.0,1.0,1.0,1.0,1.0,100.0,event
15:35:28.305,0.9520415,0.78713584,1.0489141,0.80122226,0.2640156,0.5142889,0.8125008,0.4955994,0.679452,0.88053787,0.6562403,0.69521695,0.70263493,0.49408874,0.47875968,0.39347854,0.7613813,-0.014401263,0.08842969,0.49227276,793.36993,784.90845,772.8205,788.1319,815.9341,-0.183349609375,0.11712646484375,0.96905517578125,2.878570556640625,-3.117828369140625,0.11962890625,1.0,1.0,1.0,1.0,1.0,100.0,event
15:35:28.307,0.9520415,0.78713584,1.0489141,0.80122226,0.2640156,0.5142889,0.8125008,0.4955994,0.679452,0.88053787,0.6562403,0.69521695,0.70263493,0.49408874,0.47875968,0.39347854,0.7613813,-0.014401263,0.08842969,0.49227276,789.7436,789.7436,774.83514,784.90845,765.9707,-0.183349609375,0.11712646484375,0.96905517578125,2.878570556640625,-3.117828369140625,0.11962890625,1.0,1.0,1.0,1.0,1.0,100.0,event
15:35:28.307,0.9520415,0.78713584,1.0489141,0.80122226,0.2640156,0.5142889,0.8125008,0.4955994,0.679452,0.88053787,0.6562403,0.69521695,0.70263493,0.49408874,0.47875968,0.39347854,0.7613813,-0.014401263,0.08842969,0.49227276,783.69965,788.5348,770.0,788.1319,738.97437,-0.183349609375,0.11712646484375,0.96905517578125,2.878570556640625,-3.117828369140625,0.11962890625,1.0,1.0,1.0,1.0,1.0,100.0,event
15:35:28.308,0.9520415,0.78713584,1.0489141,0.80122226,0.2640156,0.5142889,0.8125008,0.4955994,0.679452,0.88053787,0.6562403,0.69521695,0.70263493,0.49408874,0.47875968,0.39347854,0.7613813,-0.014401263,0.08842969,0.49227276,790.54944,782.0879,759.92676,783.69965,700.696,-0.183349609375,0.11712646484375,0.96905517578125,2.878570556640625,-3.117828369140625,0.11962890625,1.0,1.0,1.0,1.0,1.0,100.0,event
15:35:28.309,0.9520415,0.78713584,1.0489141,0.80122226,0.2640156,0.5142889,0.8125008,0.4955994,0.679452,0.88053787,0.6562403,0.69521695,0.70263493,0.49408874,0.47875968,0.39347854,0.7613813,-0.014401263,0.08842969,0.49227276,796.1905,782.49084,756.7033,788.5348,777.6557,-0.183349609375,0.11712646484375,0.96905517578125,2.878570556640625,-3.117828369140625,0.11962890625,1.0,1.0,1.0,1.0,1.0,100.0,event
15:35:28.309,0.9520415,0.78713584,1.0489141,0.80122226,0.2640156,0.5142889,0.8125008,0.4955994,0.679452,0.88053787,0.6562403,0.69521695,0.70263493,0.49408874,0.47875968,0.39347854,0.7613813,-0.014401263,0.08842969,0.49227276,790.54944,783.2967,759.92676,790.9524,833.2601,-0.183349609375,0.11712646484375,0.96905517578125,2.878570556640625,-3.117828369140625,0.11962890625,1.0,1.0,1.0,1.0,1.0,100.0,event
15:35:28.310,0.9520415,0.78713584,1.0489141,0.80122226,0.2640156,0.5142889,0.8125008,0.4955994,0.679452,0.88053787,0.6562403,0.69521695,0.70263493,0.49408874,0.47875968,0.39347854,0.7613813,-0.014401263,0.08842969,0.49227276,782.0879,790.14655,759.5238,779.67035,770.40295,-0.183349609375,0.11712646484375,0.96905517578125,2.878570556640625,-3.117828369140625,0.11962890625,1.0,1.0,1.0,1.0,1.0,100.0,event
15:35:28.311,0.9520415,0.78713584,1.0489141,0.80122226,0.2640156,0.5142889,0.8125008,0.4955994,0.679452,0.88053787,0.6562403,0.69521695,0.70263493,0.49408874,0.47875968,0.39347854,0.7613813,-0.014401263,0.08842969,0.49227276,786.9231,802.23444,768.7912,787.326,728.9011,-0.183349609375,0.11712646484375,0.96905517578125,2.878570556640625,-3.117828369140625,0.11962890625,1.0,1.0,1.0,1.0,1.0,100.0,event
15:35:28.311,0.9520415,0.78713584,1.0489141,0.80122226,0.2640156,0.5142889,0.8125008,0.4955994,0.679452,0.88053787,0.6562403,0.69521695,0.70263493,0.49408874,0.47875968,0.39347854,0.7613813,-0.014401263,0.08842969,0.49227276,799.81683,791.3553,760.7326,799.81683,852.1978,-0.183349609375,0.11712646484375,0.96905517578125,2.878570556640625,-3.117828369140625,0.11962890625,1.0,1.0,1.0,1.0,1.0,100.0,event
15:35:28.312,0.9520415,0.78713584,1.0489141,0.80122226,0.2640156,0.5142889,0.8125008,0.4955994,0.679452,0.88053787,0.6562403,0.69521695,0.70263493,0.49408874,0.47875968,0.39347854,0.7613813,-0.014401263,0.08842969,0.49227276,799.41394,787.326,775.64105,796.5934,983.1502,-0.183349609375,0.11712646484375,0.96905517578125,2.878570556640625,-3.117828369140625,0.11962890625,1.0,1.0,1.0,1.0,1.0,100.0,event
15:35:28.312,0.9520415,0.78713584,1.0489141,0.80122226,0.2640156,0.5142889,0.8125008,0.4955994,0.679452,0.88053787,0.6562403,0.69521695,0.70263493,0.49408874,0.47875968,0.39347854,0.7613813,-0.014401263,0.08842969,0.49227276,796.1905,796.5934,786.1172,791.75824,866.30035,-0.183349609375,0.11712646484375,0.96905517578125,2.878570556640625,-3.117828369140625,0.11962890625,1.0,1.0,1.0,1.0,1.0,100.0,event
15:35:28.313,0.9520415,0.78713584,1.0489141,0.80122226,0.2640156,0.5142889,0.8125008,0.4955994,0.679452,0.88053787,0.6562403,0.69521695,0.70263493,0.49408874,0.47875968,0.39347854,0.7613813,-0.014401263,0.08842969,0.49227276,803.8461,799.41394,774.0293,793.36993,818.3516,-0.183349609375,0.11712646484375,0.96905517578125,2.878570556640625,-3.117828369140625,0.11962890625,1.0,1.0,1.0,1.0,1.0,100.0,event
15:35:28.344,0.9520415,0.78713584,1.0489141,0.80122226,0.2640156,0.5142889,0.8125008,0.4955994,0.679452,0.88053787,0.6562403,0.69521695,0.70263493,0.49408874,0.47875968,0.39347854,0.7613813,-0.014401263,0.08842969,0.49227276,802.6374,800.2198,769.19415,791.3553,872.74725,-0.184814453125,0.120849609375,0.96514892578125,2.093505859375,-3.476715087890625,-0.01495361328125,1.0,1.0,1.0,1.0,1.0,100.0,event
15:35:28.345,0.9520415,0.78713584,1.0489141,0.80122226,0.2640156,0.5142889,0.8125008,0.4955994,0.679452,0.88053787,0.6562403,0.69521695,0.70263493,0.49408874,0.47875968,0.39347854,0.7613813,-0.014401263,0.08842969,0.49227276,795.78754,805.8608,788.1319,785.7143,769.59705,-0.184814453125,0.120849609375,0.96514892578125,2.093505859375,-3.476715087890625,-0.01495361328125,1.0,1.0,1.0,1.0,1.0,100.0,event
15:35:28.346,0.9520415,0.78713584,1.0489141,0.80122226,0.2640156,0.5142889,0.8125008,0.4955994,0.679452,0.88053787,0.6562403,0.69521695,0.70263493,0.49408874,0.47875968,0.39347854,0.7613813,-0.014401263,0.08842969,0.49227276,805.8608,810.293,788.5348,788.1319,722.0513,-0.184814453125,0.120849609375,0.96514892578125,2.093505859375,-3.476715087890625,-0.01495361328125,1.0,1.0,1.0,1.0,1.0,100.0,event
15:35:28.347,0.9520415,0.78713584,1.0489141,0.80122226,0.2640156,0.5142889,0.8125008,0.4955994,0.679452,0.88053787,0.6562403,0.69521695,0.70263493,0.49408874,0.47875968,0.39347854,0.7613813,-0.014401263,0.08842969,0.49227276,805.8608,810.696,782.8938,799.81683,757.50916,-0.184814453125,0.120849609375,0.96514892578125,2.093505859375,-3.476715087890625,-0.01495361328125,1.0,1.0,1.0,1.0,1.0,100.0,event
15:35:28.348,0.9520415,0.78713584,1.0489141,0.80122226,0.2640156,0.5142889,0.8125008,0.4955994,0.679452,0.88053787,0.6562403,0.69521695,0.70263493,0.49408874,0.47875968,0.39347854,0.7613813,-0.014401263,0.08842969,0.49227276,797.8022,805.4579,782.0879,806.26373,715.2015,-0.184814453125,0.120849609375,0.96514892578125,2.093505859375,-3.476715087890625,-0.01495361328125,1.0,1.0,1.0,1.0,1.0,100.0,event
15:35:28.348,0.9520415,0.78713584,1.0489141,0.80122226,0.2640156,0.5142889,0.8125008,0.4955994,0.679452,0.88053787,0.6562403,0.69521695,0.70263493,0.49408874,0.47875968,0.39347854,0.7613813,-0.014401263,0.08842969,0.49227276,796.5934,796.1905,774.43225,792.1612,804.65204,-0.184814453125,0.120849609375,0.96514892578125,2.093505859375,-3.476715087890625,-0.01495361328125,1.0,1.0,1.0,1.0,1.0,100.0,event
15:35:28.349,0.9520415,0.78713584,1.0489141,0.80122226,0.2640156,0.5142889,0.8125008,0.4955994,0.679452,0.88053787,0.6562403,0.69521695,0.70263493,0.49408874,0.47875968,0.39347854,0.7613813,-0.014401263,0.08842969,0.49227276,797.3993,794.9817,772.01465,783.2967,874.35895,-0.184814453125,0.120849609375,0.96514892578125,2.093505859375,-3.476715087890625,-0.01495361328125,1.0,1.0,1.0,1.0,1.0,100.0,event
15:35:28.349,0.9520415,0.6733369,1.0489141,0.80122226,0.2640156,0.3592212,0.8125008,0.4955994,0.679452,0.6998016,0.6562403,0.69521695,0.70263493,0.4857423,0.47875968,0.39347854,0.7613813,-0.026296915,0.08842969,0.49227276,803.0403,796.99634,773.6264,790.9524,811.0989,-0.184814453125,0.120849609375,0.96514892578125,2.093505859375,-3.476715087890625,-0.01495361328125,1.0,1.0,1.0,1.0,1.0,100.0,event
15:35:28.353,0.9520415,0.6733369,1.0489141,0.80122226,0.2640156,0.3592212,0.8125008,0.4955994,0.679452,0.6998016,0.6562403,0.69521695,0.70263493,0.4857423,0.47875968,0.39347854,0.7613813,-0.026296915,0.08842969,0.49227276,804.65204,801.02563,787.326,796.1905,789.7436,-0.184814453125,0.120849609375,0.96514892578125,2.093505859375,-3.476715087890625,-0.01495361328125,1.0,1.0,1.0,1.0,1.0,100.0,event
15:35:28.354,0.9520415,0.6733369,1.0489141,0.80122226,0.2640156,0.3592212,0.8125008,0.4955994,0.679452,0.6998016,0.6562403,0.69521695,0.70263493,0.4857423,0.47875968,0.39347854,0.7613813,-0.026296915,0.08842969,0.49227276,809.0842,815.12823,790.54944,796.99634,645.09155,-0.184814453125,0.120849609375,0.96514892578125,2.093505859375,-3.476715087890625,-0.01495361328125,1.0,1.0,1.0,1.0,1.0,100.0,event
15:35:28.354,0.9520415,0.6733369,1.0489141,0.80122226,0.2640156,0.3592212,0.8125008,0.4955994,0.679452,0.6998016,0.6562403,0.69521695,0.70263493,0.4857423,0.47875968,0.39347854,0.7613813,-0.026296915,0.08842969,0.49227276,806.6667,816.337,795.78754,800.6227,743.4066,-0.184814453125,0.120849609375,0.96514892578125,2.093505859375,-3.476715087890625,-0.01495361328125,1.0,1.0,1.0,1.0,1.0,100.0,event
15:35:28.355,0.9520415,0.6733369,1.0489141,0.80122226,0.2640156,0.3592212,0.8125008,0.4955994,0.679452,0.6998016,0.6562403,0.69521695,0.70263493,0.4857423,0.47875968,0.39347854,0.7613813,-0.026296915,0.08842969,0.49227276,804.65204,798.20514,774.0293,788.93774,717.619,-0.184814453125,0.120849609375,0.96514892578125,2.093505859375,-3.476715087890625,-0.01495361328125,1.0,1.0,1.0,1.0,1.0,100.0,event
15:35:28.384,0.9520415,0.6733369,1.0489141,0.80122226,0.2640156,0.3592212,0.8125008,0.4955994,0.679452,0.6998016,0.6562403,0.69521695,0.70263493,0.4857423,0.47875968,0.39347854,0.7613813,-0.026296915,0.08842969,0.49227276,803.0403,786.1172,769.19415,788.93774,1033.9194,-0.1719970703125,0.118896484375,0.9537353515625,1.2261962890625,-4.927215576171875,1.158905029296875,1.0,1.0,1.0,1.0,1.0,100.0,event
15:35:28.385,0.9520415,0.6733369,1.0489141,0.80122226,0.2640156,0.3592212,0.8125008,0.4955994,0.679452,0.6998016,0.6562403,0.69521695,0.70263493,0.4857423,0.47875968,0.39347854,0.7613813,-0.026296915,0.08842969,0.49227276,799.011,791.75824,788.93774,786.52014,907.8022,-0.1719970703125,0.118896484375,0.9537353515625,1.2261962890625,-4.927215576171875,1.158905029296875,1.0,1.0,1.0,1.0,1.0,100.0,event
15:35:28.386,0.9520415,0.6733369,1.0489141,0.80122226,0.2640156,0.3592212,0.8125008,0.4955994,0.679452,0.6998016,0.6562403,0.69521695,0.70263493,0.4857423,0.47875968,0.39347854,0.7613813,-0.026296915,0.08842969,0.49227276,795.38464,794.9817,792.5641,776.4469,703.1135,-0.1719970703125,0.118896484375,0.9537353515625,1.2261962890625,-4.927215576171875,1.158905029296875,1.0,1.0,1.0,1.0,1.0,100.0,event
15:35:28.386,0.9520415,0.6733369,1.0489141,0.80122226,0.2640156,0.3592212,0.8125008,0.4955994,0.679452,0.6998016,0.6562403,0.69521695,0.70263493,0.4857423,0.47875968,0.39347854,0.7613813,-0.026296915,0.08842969,0.49227276,796.5934,793.36993,776.8498,774.83514,785.7143,-0.1719970703125,0.118896484375,0.9537353515625,1.2261962890625,-4.927215576171875,1.158905029296875,1.0,1.0,1.0,1.0,1.0,100.0,event
15:35:28.387,0.9520415,0.6733369,1.0489141,0.80122226,0.2640156,0.3592212,0.8125008,0.4955994,0.679452,0.6998016,0.6562403,0.69521695,0.70263493,0.4857423,0.47875968,0.39347854,0.7613813,-0.026296915,0.08842969,0.49227276,797.8022,791.75824,786.52014,776.8498,790.14655,-0.1719970703125,0.118896484375,0.9537353515625,1.2261962890625,-4.927215576171875,1.158905029296875,1.0,1.0,1.0,1.0,1.0,100.0,event
15:35:28.388,0.9520415,0.6733369,1.0489141,0.80122226,0.2640156,0.3592212,0.8125008,0.4955994,0.679452,0.6998016,0.6562403,0.69521695,0.70263493,0.4857423,0.47875968,0.39347854,0.7613813,-0.026296915,0.08842969,0.49227276,810.696,792.5641,781.685,778.46155,794.57874,-0.1719970703125,0.118896484375,0.9537353515625,1.2261962890625,-4.927215576171875,1.158905029296875,1.0,1.0,1.0,1.0,1.0,100.0,event
15:35:28.388,0.9520415,0.6733369,1.0489141,0.80122226,0.2640156,0.3592212,0.8125008,0.4955994,0.679452,0.6998016,0.6562403,0.69521695,0.70263493,0.4857423,0.47875968,0.39347854,0.7613813,-0.026296915,0.08842969,0.49227276,804.2491,789.34064,794.17584,778.0586,752.674,-0.1719970703125,0.118896484375,0.9537353515625,1.2261962890625,-4.927215576171875,1.158905029296875,1.0,1.0,1.0,1.0,1.0,100.0,event
15:35:28.389,0.9520415,0.6733369,1.0489141,0.80122226,0.2640156,0.3592212,0.8125008,0.4955994,0.679452,0.6998016,0.6562403,0.69521695,0.70263493,0.4857423,0.47875968,0.39347854,0.7613813,-0.026296915,0.08842969,0.49227276,801.4286,799.41394,782.0879,782.49084,714.3956,-0.1719970703125,0.118896484375,0.9537353515625,1.2261962890625,-4.927215576171875,1.158905029296875,1.0,1.0,1.0,1.0,1.0,100.0,event
15:35:28.389,0.9520415,0.6733369,1.0489141,0.80122226,0.2640156,0.3592212,0.8125008,0.4955994,0.679452,0.6998016,0.6562403,0.69521695,0.70263493,0.4857423,0.47875968,0.39347854,0.7613813,-0.026296915,0.08842969,0.49227276,803.0403,792.96704,773.6264,780.87915,829.2308,-0.1719970703125,0.118896484375,0.9537353515625,1.2261962890625,-4.927215576171875,1.158905029296875,1.0,1.0,1.0,1.0,1.0,100.0,event
15:35:28.390,0.9520415,0.6733369,1.0489141,0.80122226,0.2640156,0.3592212,0.8125008,0.4955994,0.679452,0.6998016,0.6562403,0.69521695,0.70263493,0.4857423,0.47875968,0.39347854,0.7613813,-0.026296915,0.08842969,0.49227276,809.89014,806.6667,788.1319,791.75824,618.9011,-0.1719970703125,0.118896484375,0.9537353515625,1.2261962890625,-4.927215576171875,1.158905029296875,1.0,1.0,1.0,1.0,1.0,100.0,event
15:35:28.390,0.9520415,0.6733369,1.0489141,0.80122226,0.2640156,0.3592212,0.8125008,0.4955994,0.679452,0.6998016,0.6562403,0.69521695,0.70263493,0.4857423,0.47875968,0.39347854,0.7613813,-0.026296915,0.08842969,0.49227276,804.2491,804.65204,776.04395,797.8022,657.5824,-0.1719970703125,0.118896484375,0.9537353515625,1.2261962890625,-4.927215576171875,1.158905029296875,1.0,1.0,1.0,1.0,1.0,100.0,event
15:35:28.391,0.9520415,0.6733369,1.0489141,0.80122226,0.2640156,0.3592212,0.8125008,0.4955994,0.679452,0.6998016,0.6562403,0.69521695,0.70263493,0.4857423,0.47875968,0.39347854,0.7613813,-0.026296915,0.08842969,0.49227276,797.3993,796.99634,758.315,792.1612,871.53845,-0.1719970703125,0.118896484375,0.9537353515625,1.2261962890625,-4.927215576171875,1.158905029296875,1.0,1.0,1.0,1.0,1.0,100.0,event
15:35:28.422,0.9520415,0.6733369,1.0489141,0.80122226,0.2640156,0.3592212,0.8125008,0.4955994,0.679452,0.6998016,0.6562403,0.69521695,0.70263493,0.4857423,0.47875968,0.39347854,0.7613813,-0.026296915,0.08842969,0.49227276,797.8022,801.02563,779.2674,780.87915,898.1319,-0.1719970703125,0.118896484375,0.9537353515625,1.2261962890625,-4.927215576171875,1.158905029296875,1.0,1.0,1.0,1.0,1.0,100.0,event
15:35:28.423,0.9520415,0.6733369,1.0489141,0.80122226,0.2640156,0.3592212,0.8125008,0.4955994,0.679452,0.6998016,0.6562403,0.69521695,0.70263493,0.4857423,0.47875968,0.39347854,0.7613813,-0.026296915,0.08842969,0.49227276,799.011,803.8461,788.93774,784.90845,685.38464,-0.1719970703125,0.118896484375,0.9537353515625,1.2261962890625,-4.927215576171875,1.158905029296875,1.0,1.0,1.0,1.0,1.0,100.0,event
15:35:28.424,0.9520415,0.6733369,1.0489141,0.80122226,0.2640156,0.3592212,0.8125008,0.4955994,0.679452,0.6998016,0.6562403,0.69521695,0.70263493,0.4857423,0.47875968,0.39347854,0.7613813,-0.026296915,0.08842969,0.49227276,799.41394,805.05493,779.2674,792.5641,706.7399,-0.1719970703125,0.118896484375,0.9537353515625,1.2261962890625,-4.927215576171875,1.158905029296875,1.0,1.0,1.0,1.0,1.0,100.0,event
15:35:28.425,0.9520415,0.6733369,1.0489141,0.80122226,0.2640156,0.3592212,0.8125008,0.4955994,0.679452,0.6998016,0.6562403,0.69521695,0.70263493,0.4857423,0.47875968,0.39347854,0.7613813,-0.026296915,0.08842969,0.49227276,802.23444,809.0842,781.28204,783.2967,830.84247,-0.1719970703125,0.118896484375,0.9537353515625,1.2261962890625,-4.927215576171875,1.158905029296875,1.0,1.0,1.0,1.0,1.0,100.0,event
15:35:28.426,0.9520415,0.6733369,1.0489141,0.80122226,0.2640156,0.3592212,0.8125008,0.4955994,0.679452,0.6998016,0.6562403,0.69521695,0.70263493,0.4857423,0.47875968,0.39347854,0.7613813,-0.026296915,0.08842969,0.49227276,806.6667,802.6374,776.4469,789.7436,824.3956,-0.1719970703125,0.118896484375,0.9537353515625,1.2261962890625,-4.927215576171875,1.158905029296875,1.0,1.0,1.0,1.0,1.0,100.0,event
15:35:28.427,0.9520415,0.6733369,1.0489141,0.80122226,0.2640156,0.3592212,0.8125008,0.4955994,0.679452,0.6998016,0.6562403,0.69521695,0.70263493,0.4857423,0.47875968,0.39347854,0.7613813,-0.026296915,0.08842969,0.49227276,802.6374,800.2198,779.67035,791.75824,788.1319,-0.1719970703125,0.118896484375,0.9537353515625,1.2261962890625,-4.927215576171875,1.158905029296875,1.0,1.0,1.0,1.0,1.0,100.0,event
15:35:28.428,0.9520415,0.6733369,1.0489141,0.80122226,0.2640156,0.3592212,0.8125008,0.4955994,0.679452,0.6998016,0.6562403,0.69521695,0.70263493,0.4857423,0.47875968,0.39347854,0.7613813,-0.026296915,0.08842969,0.49227276,796.1905,795.38464,771.6117,794.57874,1107.2528,-0.1719970703125,0.118896484375,0.9537353515625,1.2261962890625,-4.927215576171875,1.158905029296875,1.0,1.0,1.0,1.0,1.0,100.0,event
15:35:28.428,0.9520415,0.6733369,1.0489141,0.80122226,0.2640156,0.3592212,0.8125008,0.4955994,0.679452,0.6998016,0.6562403,0.69521695,0.70263493,0.4857423,0.47875968,0.39347854,0.7613813,-0.026296915,0.08842969,0.49227276,787.326,799.81683,777.6557,785.7143,848.97437,-0.1719970703125,0.118896484375,0.9537353515625,1.2261962890625,-4.927215576171875,1.158905029296875,1.0,1.0,1.0,1.0,1.0,100.0,event
15:35:28.429,0.9520415,0.6733369,1.0489141,0.80122226,0.2640156,0.3592212,0.8125008,0.4955994,0.679452,0.6998016,0.6562403,0.69521695,0.70263493,0.4857423,0.47875968,0.39347854,0.7613813,-0.026296915,0.08842969,0.49227276,806.26373,809.89014,807.0696,795.78754,1008.93774,-0.1719970703125,0.118896484375,0.9537353515625,1.2261962890625,-4.927215576171875,1.158905029296875,1.0,1.0,1.0,1.0,1.0,100.0,event
15:35:28.430,0.9520415,0.601332,1.0489141,0.80122226,0.2640156,0.27941525,0.8125008,0.4955994,0.679452,0.49468037,0.6562403,0.69521695,0.70263493,0.47207257,0.47875968,0.39347854,0.7613813,-0.03395698,0.08842969,0.49227276,801.02563,810.696,801.8315,786.9231,728.0952,-0.1719970703125,0.118896484375,0.9537353515625,1.2261962890625,-4.927215576171875,1.158905029296875,1.0,1.0,1.0,1.0,1.0,100.0,event
15:35:28.434,0.9520415,0.601332,1.0489141,0.80122226,0.2640156,0.27941525,0.8125008,0.4955994,0.679452,0.49468037,0.6562403,0.69521695,0.70263493,0.47207257,0.47875968,0.39347854,0.7613813,-0.03395698,0.08842969,0.49227276,794.17584,803.44324,778.0586,780.4762,745.0183,-0.1719970703125,0.118896484375,0.9537353515625,1.2261962890625,-4.927215576171875,1.158905029296875,1.0,1.0,1.0,1.0,1.0,100.0,event
15:35:28.435,0.9520415,0.601332,1.0489141,0.80122226,0.2640156,0.27941525,0.8125008,0.4955994,0.679452,0.49468037,0.6562403,0.69521695,0.70263493,0.47207257,0.47875968,0.39347854,0.7613813,-0.03395698,0.08842969,0.49227276,788.93774,808.68134,787.326,774.83514,754.68866,-0.1719970703125,0.118896484375,0.9537353515625,1.2261962890625,-4.927215576171875,1.158905029296875,1.0,1.0,1.0,1.0,1.0,100.0,event
15:35:28.460,0.9520415,0.601332,1.0489141,0.80122226,0.2640156,0.27941525,0.8125008,0.4955994,0.679452,0.49468037,0.6562403,0.69521695,0.70263493,0.47207257,0.47875968,0.39347854,0.7613813,-0.03395698,0.08842969,0.49227276,790.14655,808.2784,791.75824,779.67035,704.7253,-0.18145751953125,0.1181640625,0.9632568359375,1.8841552734375,-2.534637451171875,1.2860107421875,1.0,1.0,1.0,1.0,1.0,100.0,event
15:35:28.461,0.9520415,0.601332,1.0489141,0.80122226,0.2640156,0.27941525,0.8125008,0.4955994,0.679452,0.49468037,0.6562403,0.69521695,0.70263493,0.47207257,0.47875968,0.39347854,0.7613813,-0.03395698,0.08842969,0.49227276,794.57874,807.8755,787.326,784.10254,765.9707,-0.18145751953125,0.1181640625,0.9632568359375,1.8841552734375,-2.534637451171875,1.2860107421875,1.0,1.0,1.0,1.0,1.0,100.0,event
15:35:28.462,0.9520415,0.601332,1.0489141,0.80122226,0.2640156,0.27941525,0.8125008,0.4955994,0.679452,0.49468037,0.6562403,0.69521695,0.70263493,0.47207257,0.47875968,0.39347854,0.7613813,-0.03395698,0.08842969,0.49227276,794.57874,800.6227,776.4469,790.14655,867.9121,-0.18145751953125,0.1181640625,0.9632568359375,1.8841552734375,-2.534637451171875,1.2860107421875,1.0,1.0,1.0,1.0,1.0,100.0,event
15:35:28.462,0.9520415,0.601332,1.0489141,0.80122226,0.2640156,0.27941525,0.8125008,0.4955994,0.679452,0.49468037,0.6562403,0.69521695,0.70263493,0.47207257,0.47875968,0.39347854,0.7613813,-0.03395698,0.08842969,0.49227276,794.57874,798.60803,778.0586,784.10254,826.0073,-0.18145751953125,0.1181640625,0.9632568359375,1.8841552734375,-2.534637451171875,1.2860107421875,1.0,1.0,1.0,1.0,1.0,100.0,event
15:35:28.463,0.9520415,0.601332,1.0489141,0.80122226,0.2640156,0.27941525,0.8125008,0.4955994,0.679452,0.49468037,0.6562403,0.69521695,0.70263493,0.47207257,0.47875968,0.39347854,0.7613813,-0.03395698,0.08842969,0.49227276,792.5641,795.78754,767.98535,778.0586,734.1392,-0.18145751953125,0.1181640625,0.9632568359375,1.8841552734375,-2.534637451171875,1.2860107421875,1.0,1.0,1.0,1.0,1.0,100.0,event
15:35:28.464,0.9520415,0.601332,1.0489141,0.80122226,0.2640156,0.27941525,0.8125008,0.4955994,0.679452,0.49468037,0.6562403,0.69521695,0.70263493,0.47207257,0.47875968,0.39347854,0.7613813,-0.03395698,0.08842969,0.49227276,792.1612,795.38464,760.7326,776.8498,711.1722,-0.18145751953125,0.1181640625,0.9632568359375,1.8841552734375,-2.534637451171875,1.2860107421875,1.0,1.0,1.0,1.0,1.0,100.0,event
15:35:28.464,0.9520415,0.601332,1.0489141,0.80122226,0.2640156,0.27941525,0.8125008,0.4955994,0.679452,0.49468037,0.6562403,0.69521695,0.70263493,0.47207257,0.47875968,0.39347854,0.7613813,-0.03395698,0.08842969,0.49227276,800.6227,798.20514,765.9707,784.90845,883.6264,-0.18145751953125,0.1181640625,0.9632568359375,1.8841552734375,-2.534637451171875,1.2860107421875,1.0,1.0,1.0,1.0,1.0,100.0,event
15:35:28.465,0.9520415,0.601332,1.0489141,0.80122226,0.2640156,0.27941525,0.8125008,0.4955994,0.679452,0.49468037,0.6562403,0.69521695,0.70263493,0.47207257,0.47875968,0.39347854,0.7613813,-0.03395698,0.08842969,0.49227276,795.78754,798.60803,793.7729,791.3553,828.022,-0.18145751953125,0.1181640625,0.9632568359375,1.8841552734375,-2.534637451171875,1.2860107421875,1.0,1.0,1.0,1.0,1.0,100.0,event
15:35:28.465,0.9520415,0.601332,1.0489141,0.80122226,0.2640156,0.27941525,0.8125008,0.4955994,0.679452,0.49468037,0.6562403,0.69521695,0.70263493,0.47207257,0.47875968,0.39347854,0.7613813,-0.03395698,0.08842969,0.49227276,799.81683,794.17584,777.25275,794.9817,1116.5201,-0.18145751953125,0.1181640625,0.9632568359375,1.8841552734375,-2.534637451171875,1.2860107421875,1.0,1.0,1.0,1.0,1.0,100.0,event
15:35:28.466,0.9520415,0.601332,1.0489141,0.80122226,0.2640156,0.27941525,0.8125008,0.4955994,0.679452,0.49468037,0.6562403,0.69521695,0.70263493,0.47207257,0.47875968,0.39347854,0.7613813,-0.03395698,0.08842969,0.49227276,794.17584,793.36993,773.22345,791.3553,660.0,-0.18145751953125,0.1181640625,0.9632568359375,1.8841552734375,-2.534637451171875,1.2860107421875,1.0,1.0,1.0,1.0,1.0,100.0,event
15:35:28.466,0.9520415,0.601332,1.0489141,0.80122226,0.2640156,0.27941525,0.8125008,0.4955994,0.679452,0.49468037,0.6562403,0.69521695,0.70263493,0.47207257,0.47875968,0.39347854,0.7613813,-0.03395698,0.08842969,0.49227276,794.17584,784.10254,757.9121,784.90845,843.73627,-0.18145751953125,0.1181640625,0.9632568359375,1.8841552734375,-2.534637451171875,1.2860107421875,1.0,1.0,1.0,1.0,1.0,100.0,event
15:35:28.467,0.9520415,0.601332,1.0489141,0.80122226,0.2640156,0.27941525,0.8125008,0.4955994,0.679452,0.49468037,0.6562403,0.69521695,0.70263493,0.47207257,0.47875968,0.39347854,0.7613813,-0.03395698,0.08842969,0.49227276,797.8022,787.72894,777.6557,780.07324,788.93774,-0.18145751953125,0.1181640625,0.9632568359375,1.8841552734375,-2.534637451171875,1.2860107421875,1.0,1.0,1.0,1.0,1.0,100.0,event
15:35:28.519,0.9520415,0.601332,1.0489141,0.80122226,0.2640156,0.27941525,0.8125008,0.4955994,0.679452,0.49468037,0.6562403,0.69521695,0.70263493,0.47207257,0.47875968,0.39347854,0.7613813,-0.03395698,0.08842969,0.49227276,796.5934,792.1612,784.5055,779.2674,699.89014,-0.18084716796875,0.1226806640625,0.9716796875,2.504730224609375,-2.968292236328125,0.3887939453125,1.0,1.0,1.0,1.0,1.0,100.0,event
15:35:28.520,0.9520415,0.601332,1.0489141,0.80122226,0.2640156,0.27941525,0.8125008,0.4955994,0.679452,0.49468037,0.6562403,0.69521695,0.70263493,0.47207257,0.47875968,0.39347854,0.7613813,-0.03395698,0.08842969,0.49227276,800.6227,795.78754,778.86444,781.28204,711.5751,-0.18084716796875,0.1226806640625,0.9716796875,2.504730224609375,-2.968292236328125,0.3887939453125,1.0,1.0,1.0,1.0,1.0,100.0,event
15:35:28.521,0.9520415,0.601332,1.0489141,0.80122226,0.2640156,0.27941525,0.8125008,0.4955994,0.679452,0.49468037,0.6562403,0.69521695,0.70263493,0.47207257,0.47875968,0.39347854,0.7613813,-0.03395698,0.08842969,0.49227276,805.05493,799.011,780.4762,789.34064,815.12823,-0.18084716796875,0.1226806640625,0.9716796875,2.504730224609375,-2.968292236328125,0.3887939453125,1.0,1.0,1.0,1.0,1.0,100.0,event
15:35:28.521,0.9520415,0.601332,1.0489141,0.80122226,0.2640156,0.27941525,0.8125008,0.4955994,0.679452,0.49468037,0.6562403,0.69521695,0.70263493,0.47207257,0.47875968,0.39347854,0.7613813,-0.03395698,0.08842969,0.49227276,797.8022,798.20514,778.46155,789.34064,801.02563,-0.18084716796875,0.1226806640625,0.9716796875,2.504730224609375,-2.968292236328125,0.3887939453125,1.0,1.0,1.0,1.0,1.0,100.0,event
15:35:28.522,0.9520415,0.601332,1.0489141,0.80122226,0.2640156,0.27941525,0.8125008,0.4955994,0.679452,0.49468037,0.6562403,0.69521695,0.70263493,0.47207257,0.47875968,0.39347854,0.7613813,-0.03395698,0.08842969,0.49227276,811.50183,800.2198,773.6264,793.7729,844.5421,-0.18084716796875,0.1226806640625,0.9716796875,2.504730224609375,-2.968292236328125,0.3887939453125,1.0,1.0,1.0,1.0,1.0,100.0,event
15:35:28.522,0.9520415,0.601332,1.0489141,0.80122226,0.2640156,0.27941525,0.8125008,0.4955994,0.679452,0.49468037,0.6562403,0.69521695,0.70263493,0.47207257,0.47875968,0.39347854,0.7613813,-0.03395698,0.08842969,0.49227276,800.2198,794.17584,775.2381,786.52014,692.6374,-0.18084716796875,0.1226806640625,0.9716796875,2.504730224609375,-2.968292236328125,0.3887939453125,1.0,1.0,1.0,1.0,1.0,100.0,event
15:35:28.523,0.9520415,0.601332,1.0489141,0.80122226,0.2640156,0.27941525,0.8125008,0.4955994,0.679452,0.49468037,0.6562403,0.69521695,0.70263493,0.47207257,0.47875968,0.39347854,0.7613813,-0.03395698,0.08842969,0.49227276,806.26373,801.8315,780.4762,798.20514,657.5824,-0.18084716796875,0.1226806640625,0.9716796875,2.504730224609375,-2.968292236328125,0.3887939453125,1.0,1.0,1.0,1.0,1.0,100.0,event
15:35:28.523,0.9520415,0.601332,1.0489141,0.80122226,0.2640156,0.27941525,0.8125008,0.4955994,0.679452,0.49468037,0.6562403,0.69521695,0.70263493,0.47207257,0.47875968,0.39347854,0.7613813,-0.03395698,0.08842969,0.49227276,806.6667,795.78754,767.5824,801.02563,1108.4615,-0.18084716796875,0.1226806640625,0.9716796875,2.504730224609375,-2.968292236328125,0.3887939453125,1.0,1.0,1.0,1.0,1.0,100.0,event
15:35:28.523,0.9520415,0.601332,1.0489141,0.80122226,0.2640156,0.27941525,0.8125008,0.4955994,0.679452,0.49468037,0.6562403,0.69521695,0.70263493,0.47207257,0.47875968,0.39347854,0.7613813,-0.03395698,0.08842969,0.49227276,802.6374,796.5934,786.9231,796.5934,889.67035,-0.18084716796875,0.1226806640625,0.9716796875,2.504730224609375,-2.968292236328125,0.3887939453125,1.0,1.0,1.0,1.0,1.0,100.0,event
15:35:28.524,0.9520415,0.601332,1.0489141,0.80122226,0.2640156,0.27941525,0.8125008,0.4955994,0.679452,0.49468037,0.6562403,0.69521695,0.70263493,0.47207257,0.47875968,0.39347854,0.7613813,-0.03395698,0.08842969,0.49227276,814.3223,800.2198,765.16486,805.4579,724.0659,-0.18084716796875,0.1226806640625,0.9716796875,2.504730224609375,-2.968292236328125,0.3887939453125,1.0,1.0,1.0,1.0,1.0,100.0,event
15:35:28.524,0.9520415,0.601332,1.0489141,0.80122226,0.2640156,0.27941525,0.8125008,0.4955994,0.679452,0.49468037,0.6562403,0.69521695,0.70263493,0.47207257,0.47875968,0.39347854,0.7613813,-0.03395698,0.08842969,0.49227276,819.9634,799.81683,775.64105,819.15753,769.19415,-0.18084716796875,0.1226806640625,0.9716796875,2.504730224609375,-2.968292236328125,0.3887939453125,1.0,1.0,1.0,1.0,1.0,100.0,event
15:35:28.525,0.9520415,0.5267034,1.0489141,0.80122226,0.2640156,0.27522647,0.8125008,0.4955994,0.679452,0.5344282,0.6562403,0.69521695,0.70263493,0.449213,0.47875968,0.39347854,0.7613813,-0.034853335,0.08842969,0.49227276,817.5458,793.7729,781.685,824.3956,773.22345,-0.18084716796875,0.1226806640625,0.9716796875,2.504730224609375,-2.968292236328125,0.3887939453125,1.0,1.0,1.0,1.0,1.0,100.0,event
15:35:28.550,0.9520415,0.5267034,1.0489141,0.80122226,0.2640156,0.27522647,0.8125008,0.4955994,0.679452,0.5344282,0.6562403,0.69521695,0.70263493,0.449213,0.47875968,0.39347854,0.7613813,-0.034853335,0.08842969,0.49227276,818.3516,792.5641,780.07324,818.3516,697.8755,-0.17987060546875,0.11669921875,0.96734619140625,1.054229736328125,-2.848663330078125,0.590667724609375,1.0,1.0,1.0,1.0,1.0,100.0,event
15:35:28.550,0.9520415,0.5267034,1.0489141,0.80122226,0.2640156,0.27522647,0.8125008,0.4955994,0.679452,0.5344282,0.6562403,0.69521695,0.70263493,0.449213,0.47875968,0.39347854,0.7613813,-0.034853335,0.08842969,0.49227276,821.5751,788.1319,774.0293,828.4249,697.0696,-0.17987060546875,0.11669921875,0.96734619140625,1.054229736328125,-2.848663330078125,0.590667724609375,1.0,1.0,1.0,1.0,1.0,100.0,event
15:35:28.551,0.9520415,0.5267034,1.0489141,0.80122226,0.2640156,0.27522647,0.8125008,0.4955994,0.679452,0.5344282,0.6562403,0.69521695,0.70263493,0.449213,0.47875968,0.39347854,0.7613813,-0.034853335,0.08842969,0.49227276,822.7839,787.72894,787.326,833.663,827.2161,-0.17987060546875,0.11669921875,0.96734619140625,1.054229736328125,-2.848663330078125,0.590667724609375,1.0,1.0,1.0,1.0,1.0,100.0,event
15:35:28.551,0.9520415,0.5267034,1.0489141,0.80122226,0.2640156,0.27522647,0.8125008,0.4955994,0.679452,0.5344282,0.6562403,0.69521695,0.70263493,0.449213,0.47875968,0.39347854,0.7613813,-0.034853335,0.08842969,0.49227276,833.2601,796.1905,797.3993,830.84247,826.0073,-0.17987060546875,0.11669921875,0.96734619140625,1.054229736328125,-2.848663330078125,0.590667724609375,1.0,1.0,1.0,1.0,1.0,100.0,event
15:35:28.552,0.9520415,0.5267034,1.0489141,0.80122226,0.2640156,0.27522647,0.8125008,0.4955994,0.679452,0.5344282,0.6562403,0.69521695,0.70263493,0.449213,0.47875968,0.39347854,0.7613813,-0.034853335,0.08842969,0.49227276,828.8278,803.44324,778.86444,828.022,863.0769,-0.17987060546875,0.11669921875,0.96734619140625,1.054229736328125,-2.848663330078125,0.590667724609375,1.0,1.0,1.0,1.0,1.0,100.0,event
15:35:28.552,0.9520415,0.5267034,1.0489141,0.80122226,0.2640156,0.27522647,0.8125008,0.4955994,0.679452,0.5344282,0.6562403,0.69521695,0.70263493,0.449213,0.47875968,0.39347854,0.7613813,-0.034853335,0.08842969,0.49227276,836.4835,797.3993,791.3553,830.84247,735.34796,-0.17987060546875,0.11669921875,0.96734619140625,1.054229736328125,-2.848663330078125,0.590667724609375,1.0,1.0,1.0,1.0,1.0,100.0,event
15:35:28.553,0.9520415,0.5267034,1.0489141,0.80122226,0.2640156,0.27522647,0.8125008,0.4955994,0.679452,0.5344282,0.6562403,0.69521695,0.70263493,0.449213,0.47875968,0.39347854,0.7613813,-0.034853335,0.08842969,0.49227276,820.7692,806.26373,784.5055,829.6337,968.24176,-0.17987060546875,0.11669921875,0.96734619140625,1.054229736328125,-2.848663330078125,0.590667724609375,1.0,1.0,1.0,1.0,1.0,100.0,event
15:35:28.553,0.9520415,0.5267034,1.0489141,0.80122226,0.2640156,0.27522647,0.8125008,0.4955994,0.679452,0.5344282,0.6562403,0.69521695,0.70263493,0.449213,0.47875968,0.39347854,0.7613813,-0.034853335,0.08842969,0.49227276,819.9634,805.05493,800.6227,830.4396,818.7546,-0.17987060546875,0.11669921875,0.96734619140625,1.054229736328125,-2.848663330078125,0.590667724609375,1.0,1.0,1.0,1.0,1.0,100.0,event
15:35:28.554,0.9520415,0.5267034,1.0489141,0.80122226,0.2640156,0.27522647,0.8125008,0.4955994,0.679452,0.5344282,0.6562403,0.69521695,0.70263493,0.449213,0.47875968,0.39347854,0.7613813,-0.034853335,0.08842969,0.49227276,834.87177,806.6667,797.8022,829.2308,764.35895,-0.17987060546875,0.11669921875,0.96734619140625,1.054229736328125,-2.848663330078125,0.590667724609375,1.0,1.0,1.0,1.0,1.0,100.0,event
15:35:28.556,0.9520415,0.5267034,1.0489141,0.80122226,0.2640156,0.27522647,0.8125008,0.4955994,0.679452,0.5344282,0.6562403,0.69521695,0.70263493,0.449213,0.47875968,0.39347854,0.7613813,-0.034853335,0.08842969,0.49227276,833.2601,801.4286,778.86444,823.1868,911.4286,-0.17987060546875,0.11669921875,0.96734619140625,1.054229736328125,-2.848663330078125,0.590667724609375,1.0,1.0,1.0,1.0,1.0,100.0,event
15:35:28.556,0.9520415,0.5267034,1.0489141,0.80122226,0.2640156,0.27522647,0.8125008,0.4955994,0.679452,0.5344282,0.6562403,0.69521695,0.70263493,0.449213,0.47875968,0.39347854,0.7613813,-0.034853335,0.08842969,0.49227276,828.8278,810.293,792.5641,822.381,926.337,-0.17987060546875,0.11669921875,0.96734619140625,1.054229736328125,-2.848663330078125,0.590667724609375,1.0,1.0,1.0,1.0,1.0,100.0,event
15:35:28.557,0.9520415,0.5267034,1.0489141,0.80122226,0.2640156,0.27522647,0.8125008,0.4955994,0.679452,0.5344282,0.6562403,0.69521695,0.70263493,0.449213,0.47875968,0.39347854,0.7613813,-0.034853335,0.08842969,0.49227276,832.0513,821.5751,800.6227,816.7399,741.79486,-0.17987060546875,0.11669921875,0.96734619140625,1.054229736328125,-2.848663330078125,0.590667724609375,1.0,1.0,1.0,1.0,1.0,100.0,event
15:35:28.620,0.9520415,0.5267034,1.0489141,0.80122226,0.2640156,0.27522647,0.8125008,0.4955994,0.679452,0.5344282,0.6562403,0.69521695,0.70263493,0.449213,0.47875968,0.39347854,0.7613813,-0.034853335,0.08842969,0.49227276,825.6044,812.3077,785.31134,808.2784,648.71796,-0.17987060546875,0.11669921875,0.96734619140625,1.054229736328125,-2.848663330078125,0.590667724609375,1.0,1.0,1.0,1.0,1.0,100.0,event
15:35:28.621,0.9520415,0.5267034,1.0489141,0.80122226,0.2640156,0.27522647,0.8125008,0.4955994,0.679452,0.5344282,0.6562403,0.69521695,0.70263493,0.449213,0.47875968,0.39347854,0.7613813,-0.034853335,0.08842969,0.49227276,818.3516,807.0696,787.72894,811.50183,788.5348,-0.17987060546875,0.11669921875,0.96734619140625,1.054229736328125,-2.848663330078125,0.590667724609375,1.0,1.0,1.0,1.0,1.0,100.0,event
15:35:28.622,0.9520415,0.5267034,1.0489141,0.80122226,0.2640156,0.27522647,0.8125008,0.4955994,0.679452,0.5344282,0.6562403,0.69521695,0.70263493,0.449213,0.47875968,0.39347854,0.7613813,-0.034853335,0.08842969,0.49227276,814.7253,812.3077,796.1905,816.7399,925.5311,-0.17987060546875,0.11669921875,0.96734619140625,1.054229736328125,-2.848663330078125,0.590667724609375,1.0,1.0,1.0,1.0,1.0,100.0,event
15:35:28.623,0.9520415,0.5267034,1.0489141,0.80122226,0.2640156,0.27522647,0.8125008,0.4955994,0.679452,0.5344282,0.6562403,0.69521695,0.70263493,0.449213,0.47875968,0.39347854,0.7613813,-0.034853335,0.08842969,0.49227276,807.47253,809.4872,767.98535,809.0842,678.5348,-0.17987060546875,0.11669921875,0.96734619140625,1.054229736328125,-2.848663330078125,0.590667724609375,1.0,1.0,1.0,1.0,1.0,100.0,event
15:35:28.623,0.9520415,0.5267034,1.0489141,0.80122226,0.2640156,0.27522647,0.8125008,0.4955994,0.679452,0.5344282,0.6562403,0.69521695,0.70263493,0.449213,0.47875968,0.39347854,0.7613813,-0.034853335,0.08842969,0.49227276,811.0989,814.7253,787.326,812.71063,741.39197,-0.17987060546875,0.11669921875,0.96734619140625,1.054229736328125,-2.848663330078125,0.590667724609375,1.0,1.0,1.0,1.0,1.0,100.0,event
15:35:28.624,0.9520415,0.5267034,1.0489141,0.80122226,0.2640156,0.27522647,0.8125008,0.4955994,0.679452,0.5344282,0.6562403,0.69521695,0.70263493,0.449213,0.47875968,0.39347854,0.7613813,-0.034853335,0.08842969,0.49227276,812.3077,807.47253,758.315,803.0403,1057.6923,-0.17987060546875,0.11669921875,0.96734619140625,1.054229736328125,-2.848663330078125,0.590667724609375,1.0,1.0,1.0,1.0,1.0,100.0,event
15:35:28.624,0.9520415,0.5267034,1.0489141,0.80122226,0.2640156,0.27522647,0.8125008,0.4955994,0.679452,0.5344282,0.6562403,0.69521695,0.70263493,0.449213,0.47875968,0.39347854,0.7613813,-0.034853335,0.08842969,0.49227276,807.8755,812.3077,784.10254,800.6227,1057.6923,-0.17987060546875,0.11669921875,0.96734619140625,1.054229736328125,-2.848663330078125,0.590667724609375,1.0,1.0,1.0,1.0,1.0,100.0,event
15:35:28.625,0.9520415,0.5267034,1.0489141,0.80122226,0.2640156,0.27522647,0.8125008,0.4955994,0.679452,0.5344282,0.6562403,0.69521695,0.70263493,0.449213,0.47875968,0.39347854,0.7613813,-0.034853335,0.08842969,0.49227276,803.44324,811.50183,795.78754,801.8315,781.28204,-0.17987060546875,0.11669921875,0.96734619140625,1.054229736328125,-2.848663330078125,0.590667724609375,1.0,1.0,1.0,1.0,1.0,100.0,event
