TimeStamp,Delta_TP9,Delta_AF7,Delta_AF8,Delta_TP10,Theta_TP9,Theta_AF7,Theta_AF8,Theta_TP10,Alpha_TP9,Alpha_AF7,Alpha_AF8,Alpha_TP10,Beta_TP9,Beta_AF7,Beta_AF8,Beta_TP10,Gamma_TP9,Gamma_AF7,Gamma_AF8,Gamma_TP10,RAW_TP9,RAW_AF7,RAW_AF8,RAW_TP10,AUX_RIGHT,Accelerometer_X,Accelerometer_Y,Accelerometer_Z,Gyro_X,Gyro_Y,Gyro_Z,HeadBandOn,HSI_TP9,HSI_AF7,HSI_AF8,HSI_TP10,Battery,Elements
15:39:29.460,1.5592457,1.3741547,0.4084161,0.64427406,1.107167,0.76478326,0.3722107,0.39354044,0.5153365,0.55739874,0.30727264,0.20556557,0.4913402,0.48901546,0.34099,0.42450178,0.22423846,0.15352069,0.26004383,0.49597776,844.5421,783.69965,815.9341,850.989,683.36993,-0.1942138671875,0.10693359375,0.96820068359375,1.592559814453125,-6.123504638671875,1.18133544921875,1.0,1.0,1.0,1.0,1.0,100.0,event
15:39:29.461,1.5592457,1.3741547,0.4084161,0.64427406,1.107167,0.76478326,0.3722107,0.39354044,0.5153365,0.55739874,0.30727264,0.20556557,0.4913402,0.48901546,0.34099,0.42450178,0.22423846,0.15352069,0.26004383,0.49597776,843.73627,784.5055,801.02563,847.76556,712.7839,-0.1942138671875,0.10693359375,0.96820068359375,1.592559814453125,-6.123504638671875,1.18133544921875,1.0,1.0,1.0,1.0,1.0,100.0,event
15:39:29.461,1.5592457,1.3741547,0.4084161,0.64427406,1.107167,0.76478326,0.3722107,0.39354044,0.5153365,0.55739874,0.30727264,0.20556557,0.4913402,0.48901546,0.34099,0.42450178,0.22423846,0.15352069,0.26004383,0.49597776,840.5128,784.10254,799.41394,844.94507,706.337,-0.1942138671875,0.10693359375,0.96820068359375,1.592559814453125,-6.123504638671875,1.18133544921875,1.0,1.0,1.0,1.0,1.0,100.0,event
15:39:29.462,1.5592457,1.3741547,0.398511,0.64427406,1.107167,0.76478326,0.38004047,0.39354044,0.5153365,0.55739874,0.30727264,0.20556557,0.4913402,0.48901546,0.35232127,0.42450178,0.22423846,0.15352069,0.25502044,0.49597776,845.34796,780.07324,812.71063,836.4835,634.61536,-0.1942138671875,0.10693359375,0.96820068359375,1.592559814453125,-6.123504638671875,1.18133544921875,1.0,1.0,1.0,1.0,1.0,100.0,event
15:39:29.464,,,,,,,,,,,,,,,,,,,,,,,,,,,,,,,,,,,,,,blink
15:39:29.465,1.5592457,1.3741547,0.398511,0.64427406,1.107167,0.76478326,0.38004047,0.39354044,0.5153365,0.55739874,0.30727264,0.20556557,0.4913402,0.48901546,0.35232127,0.42450178,0.22423846,0.15352069,0.25502044,0.49597776,850.18317,786.52014,816.7399,840.9158,660.40295,-0.1942138671875,0.10693359375,0.96820068359375,1.592559814453125,-6.123504638671875,1.18133544921875,1.0,1.0,1.0,1.0,1.0,100.0,event
15:39:29.466,1.5592457,1.3741547,0.398511,0.64427406,1.107167,0.76478326,0.38004047,0.39354044,0.5153365,0.55739874,0.30727264,0.20556557,0.4913402,0.48901546,0.35232127,0.42450178,0.22423846,0.15352069,0.25502044,0.49597776,852.1978,784.90845,801.8315,848.5714,889.2674,-0.1942138671875,0.10693359375,0.96820068359375,1.592559814453125,-6.123504638671875,1.18133544921875,1.0,1.0,1.0,1.0,1.0,100.0,event
15:39:29.466,1.5592457,1.3741547,0.398511,0.64427406,1.107167,0.76478326,0.38004047,0.39354044,0.5153365,0.55739874,0.30727264,0.20556557,0.4913402,0.48901546,0.35232127,0.42450178,0.22423846,0.15352069,0.25502044,0.49597776,840.5128,777.25275,814.3223,838.9011,1087.5092,-0.1942138671875,0.10693359375,0.96820068359375,1.592559814453125,-6.123504638671875,1.18133544921875,1.0,1.0,1.0,1.0,1.0,100.0,event
15:39:29.467,1.5592457,1.3741547,0.398511,0.64427406,1.107167,0.76478326,0.38004047,0.39354044,0.5153365,0.55739874,0.30727264,0.20556557,0.4913402,0.48901546,0.35232127,0.42450178,0.22423846,0.15352069,0.25502044,0.49597776,836.4835,781.685,843.73627,829.6337,876.3736,-0.1942138671875,0.10693359375,0.96820068359375,1.592559814453125,-6.123504638671875,1.18133544921875,1.0,1.0,1.0,1.0,1.0,100.0,event
15:39:29.468,1.5592457,1.3741547,0.398511,0.64427406,1.107167,0.76478326,0.38004047,0.39354044,0.5153365,0.55739874,0.30727264,0.20556557,0.4913402,0.48901546,0.35232127,0.42450178,0.22423846,0.15352069,0.25502044,0.49597776,849.7802,790.9524,828.022,837.28937,680.14655,-0.1942138671875,0.10693359375,0.96820068359375,1.592559814453125,-6.123504638671875,1.18133544921875,1.0,1.0,1.0,1.0,1.0,100.0,event
15:39:29.468,1.5592457,1.3741547,0.398511,0.64427406,1.107167,0.76478326,0.38004047,0.39354044,0.5153365,0.55739874,0.30727264,0.20556557,0.4913402,0.48901546,0.35232127,0.42450178,0.22423846,0.15352069,0.25502044,0.49597776,842.9304,796.1905,812.71063,840.5128,834.0659,-0.1942138671875,0.10693359375,0.96820068359375,1.592559814453125,-6.123504638671875,1.18133544921875,1.0,1.0,1.0,1.0,1.0,100.0,event
15:39:29.469,1.5592457,1.3741547,0.398511,0.64427406,1.107167,0.76478326,0.38004047,0.39354044,0.5153365,0.55739874,0.30727264,0.20556557,0.4913402,0.48901546,0.35232127,0.42450178,0.22423846,0.15352069,0.25502044,0.49597776,844.5421,789.7436,813.91943,827.2161,899.34064,-0.1942138671875,0.10693359375,0.96820068359375,1.592559814453125,-6.123504638671875,1.18133544921875,1.0,1.0,1.0,1.0,1.0,100.0,event
15:39:29.469,1.5592457,1.3741547,0.398511,0.64427406,1.107167,0.76478326,0.38004047,0.39354044,0.5153365,0.55739874,0.30727264,0.20556557,0.4913402,0.48901546,0.35232127,0.42450178,0.22423846,0.15352069,0.25502044,0.49597776,852.6007,796.1905,822.381,829.6337,716.4103,-0.1942138671875,0.10693359375,0.96820068359375,1.592559814453125,-6.123504638671875,1.18133544921875,1.0,1.0,1.0,1.0,1.0,100.0,event
15:39:29.560,1.5592457,1.3741547,0.398511,0.64427406,1.107167,0.76478326,0.38004047,0.39354044,0.5153365,0.55739874,0.30727264,0.20556557,0.4913402,0.48901546,0.35232127,0.42450178,0.22423846,0.15352069,0.25502044,0.49597776,848.97437,801.4286,815.9341,828.4249,676.52014,-0.183837890625,0.10992431640625,0.97705078125,1.54022216796875,-6.003875732421875,0.261688232421875,1.0,1.0,1.0,1.0,1.0,100.0,event
15:39:29.561,1.5592457,1.3741547,0.398511,0.64427406,1.107167,0.76478326,0.38004047,0.39354044,0.5153365,0.55739874,0.30727264,0.20556557,0.4913402,0.48901546,0.35232127,0.42450178,0.22423846,0.15352069,0.25502044,0.49597776,837.6923,788.1319,819.15753,824.3956,757.1062,-0.183837890625,0.10992431640625,0.97705078125,1.54022216796875,-6.003875732421875,0.261688232421875,1.0,1.0,1.0,1.0,1.0,100.0,event
15:39:29.561,1.5592457,1.3741547,0.398511,0.64427406,1.107167,0.76478326,0.38004047,0.39354044,0.5153365,0.55739874,0.30727264,0.20556557,0.4913402,0.48901546,0.35232127,0.42450178,0.22423846,0.15352069,0.25502044,0.49597776,840.9158,788.5348,799.011,816.337,767.1795,-0.183837890625,0.10992431640625,0.97705078125,1.54022216796875,-6.003875732421875,0.261688232421875,1.0,1.0,1.0,1.0,1.0,100.0,event
15:39:29.562,1.5592457,1.3741547,0.398511,0.64427406,1.107167,0.76478326,0.38004047,0.39354044,0.5153365,0.55739874,0.30727264,0.20556557,0.4913402,0.48901546,0.35232127,0.42450178,0.22423846,0.15352069,0.25502044,0.49597776,841.7216,796.1905,841.31866,821.1722,674.5055,-0.183837890625,0.10992431640625,0.97705078125,1.54022216796875,-6.003875732421875,0.261688232421875,1.0,1.0,1.0,1.0,1.0,100.0,event
15:39:29.563,1.5592457,1.3741547,0.398511,0.64427406,1.107167,0.76478326,0.38004047,0.39354044,0.5153365,0.55739874,0.30727264,0.20556557,0.4913402,0.48901546,0.35232127,0.42450178,0.22423846,0.15352069,0.25502044,0.49597776,834.0659,797.3993,828.8278,810.696,746.63007,-0.183837890625,0.10992431640625,0.97705078125,1.54022216796875,-6.003875732421875,0.261688232421875,1.0,1.0,1.0,1.0,1.0,100.0,event
15:39:29.563,1.5592457,1.3741547,0.398511,0.64427406,1.107167,0.76478326,0.38004047,0.39354044,0.5153365,0.55739874,0.30727264,0.20556557,0.4913402,0.48901546,0.35232127,0.42450178,0.22423846,0.15352069,0.25502044,0.49597776,832.0513,795.78754,816.337,819.15753,874.35895,-0.183837890625,0.10992431640625,0.97705078125,1.54022216796875,-6.003875732421875,0.261688232421875,1.0,1.0,1.0,1.0,1.0,100.0,event
15:39:29.564,1.5592457,1.3741547,0.398511,0.64427406,1.107167,0.76478326,0.38004047,0.39354044,0.5153365,0.55739874,0.30727264,0.20556557,0.4913402,0.48901546,0.35232127,0.42450178,0.22423846,0.15352069,0.25502044,0.49597776,834.87177,795.38464,821.5751,817.9487,862.27106,-0.183837890625,0.10992431640625,0.97705078125,1.54022216796875,-6.003875732421875,0.261688232421875,1.0,1.0,1.0,1.0,1.0,100.0,event
15:39:29.565,1.5592457,1.3741547,0.398511,0.64427406,1.107167,0.76478326,0.38004047,0.39354044,0.5153365,0.55739874,0.30727264,0.20556557,0.4913402,0.48901546,0.35232127,0.42450178,0.22423846,0.15352069,0.25502044,0.49597776,832.0513,794.57874,835.2747,817.9487,774.43225,-0.183837890625,0.10992431640625,0.97705078125,1.54022216796875,-6.003875732421875,0.261688232421875,1.0,1.0,1.0,1.0,1.0,100.0,event
15:39:29.565,1.5592457,1.3741547,0.398511,0.64427406,1.107167,0.76478326,0.38004047,0.39354044,0.5153365,0.55739874,0.30727264,0.20556557,0.4913402,0.48901546,0.35232127,0.42450178,0.22423846,0.15352069,0.25502044,0.49597776,845.34796,792.96704,831.6484,834.0659,727.6923,-0.183837890625,0.10992431640625,0.97705078125,1.54022216796875,-6.003875732421875,0.261688232421875,1.0,1.0,1.0,1.0,1.0,100.0,event
15:39:29.566,1.5592457,1.3741547,0.398511,0.64427406,1.107167,0.76478326,0.38004047,0.39354044,0.5153365,0.55739874,0.30727264,0.20556557,0.4913402,0.48901546,0.35232127,0.42450178,0.22423846,0.15352069,0.25502044,0.49597776,843.3333,795.38464,801.02563,827.619,882.4176,-0.183837890625,0.10992431640625,0.97705078125,1.54022216796875,-6.003875732421875,0.261688232421875,1.0,1.0,1.0,1.0,1.0,100.0,event
15:39:29.567,1.5592457,1.3741547,0.398511,0.64427406,1.107167,0.76478326,0.38004047,0.39354044,0.5153365,0.55739874,0.30727264,0.20556557,0.4913402,0.48901546,0.35232127,0.42450178,0.22423846,0.15352069,0.25502044,0.49597776,811.9048,807.8755,813.1135,794.9817,884.0293,-0.183837890625,0.10992431640625,0.97705078125,1.54022216796875,-6.003875732421875,0.261688232421875,1.0,1.0,1.0,1.0,1.0,100.0,event
15:39:29.568,1.5592457,1.3741547,0.398511,0.64427406,1.107167,0.76478326,0.38004047,0.39354044,0.5153365,0.55739874,0.30727264,0.20556557,0.4913402,0.48901546,0.35232127,0.42450178,0.22423846,0.15352069,0.25502044,0.49597776,815.5311,815.12823,825.6044,789.34064,634.21246,-0.183837890625,0.10992431640625,0.97705078125,1.54022216796875,-6.003875732421875,0.261688232421875,1.0,1.0,1.0,1.0,1.0,100.0,event
15:39:29.601,1.5592457,1.3741547,0.398511,0.64427406,1.107167,0.76478326,0.38004047,0.39354044,0.5153365,0.55739874,0.30727264,0.20556557,0.4913402,0.48901546,0.35232127,0.42450178,0.22423846,0.15352069,0.25502044,0.49597776,819.9634,806.6667,806.26373,804.2491,722.0513,-0.17474365234375,0.101806640625,0.96343994140625,1.428070068359375,-4.957122802734375,0.059814453125,1.0,1.0,1.0,1.0,1.0,100.0,event
15:39:29.602,1.5592457,1.3741547,0.398511,0.64427406,1.107167,0.76478326,0.38004047,0.39354044,0.5153365,0.55739874,0.30727264,0.20556557,0.4913402,0.48901546,0.35232127,0.42450178,0.22423846,0.15352069,0.25502044,0.49597776,807.47253,796.1905,806.26373,805.4579,862.27106,-0.17474365234375,0.101806640625,0.96343994140625,1.428070068359375,-4.957122802734375,0.059814453125,1.0,1.0,1.0,1.0,1.0,100.0,event
15:39:29.603,1.5592457,1.3741547,0.398511,0.64427406,1.107167,0.76478326,0.38004047,0.39354044,0.5153365,0.55739874,0.30727264,0.20556557,0.4913402,0.48901546,0.35232127,0.42450178,0.22423846,0.15352069,0.25502044,0.49597776,809.89014,797.3993,813.5165,800.2198,782.0879,-0.17474365234375,0.101806640625,0.96343994140625,1.428070068359375,-4.957122802734375,0.059814453125,1.0,1.0,1.0,1.0,1.0,100.0,event
15:39:29.604,1.5592457,1.3741547,0.398511,0.64427406,1.107167,0.76478326,0.38004047,0.39354044,0.5153365,0.55739874,0.30727264,0.20556557,0.4913402,0.48901546,0.35232127,0.42450178,0.22423846,0.15352069,0.25502044,0.49597776,813.1135,797.3993,807.0696,800.6227,670.07324,-0.17474365234375,0.101806640625,0.96343994140625,1.428070068359375,-4.957122802734375,0.059814453125,1.0,1.0,1.0,1.0,1.0,100.0,event
15:39:29.605,1.5592457,1.3741547,0.398511,0.64427406,1.107167,0.76478326,0.38004047,0.39354044,0.5153365,0.55739874,0.30727264,0.20556557,0.4913402,0.48901546,0.35232127,0.42450178,0.22423846,0.15352069,0.25502044,0.49597776,818.7546,792.1612,792.5641,802.23444,744.21246,-0.17474365234375,0.101806640625,0.96343994140625,1.428070068359375,-4.957122802734375,0.059814453125,1.0,1.0,1.0,1.0,1.0,100.0,event
15:39:29.606,1.5592457,1.3741547,0.38410908,0.64427406,1.107167,0.76478326,0.38301575,0.39354044,0.5153365,0.55739874,0.3031333,0.20556557,0.4913402,0.48901546,0.36832237,0.42450178,0.22423846,0.15352069,0.25018704,0.49597776,821.5751,794.9817,790.54944,794.57874,894.5055,-0.17474365234375,0.101806640625,0.96343994140625,1.428070068359375,-4.957122802734375,0.059814453125,1.0,1.0,1.0,1.0,1.0,100.0,event
15:39:29.611,1.5592457,1.3741547,0.38410908,0.64427406,1.107167,0.76478326,0.38301575,0.39354044,0.5153365,0.55739874,0.3031333,0.20556557,0.4913402,0.48901546,0.36832237,0.42450178,0.22423846,0.15352069,0.25018704,0.49597776,817.1429,798.20514,807.0696,797.3993,873.1502,-0.17474365234375,0.101806640625,0.96343994140625,1.428070068359375,-4.957122802734375,0.059814453125,1.0,1.0,1.0,1.0,1.0,100.0,event
15:39:29.612,1.5592457,1.3741547,0.38410908,0.64427406,1.107167,0.76478326,0.38301575,0.39354044,0.5153365,0.55739874,0.3031333,0.20556557,0.4913402,0.48901546,0.36832237,0.42450178,0.22423846,0.15352069,0.25018704,0.49597776,816.7399,800.6227,817.1429,799.41394,806.26373,-0.17474365234375,0.101806640625,0.96343994140625,1.428070068359375,-4.957122802734375,0.059814453125,1.0,1.0,1.0,1.0,1.0,100.0,event
15:39:29.612,1.5592457,1.3741547,0.38410908,0.64427406,1.107167,0.76478326,0.38301575,0.39354044,0.5153365,0.55739874,0.3031333,0.20556557,0.4913402,0.48901546,0.36832237,0.42450178,0.22423846,0.15352069,0.25018704,0.49597776,807.47253,791.3553,781.685,796.1905,861.8681,-0.17474365234375,0.101806640625,0.96343994140625,1.428070068359375,-4.957122802734375,0.059814453125,1.0,1.0,1.0,1.0,1.0,100.0,event
15:39:29.614,1.5592457,1.3741547,0.38410908,0.64427406,1.107167,0.76478326,0.38301575,0.39354044,0.5153365,0.55739874,0.3031333,0.20556557,0.4913402,0.48901546,0.36832237,0.42450178,0.22423846,0.15352069,0.25018704,0.49597776,809.89014,787.72894,774.83514,809.0842,1001.28204,-0.17474365234375,0.101806640625,0.96343994140625,1.428070068359375,-4.957122802734375,0.059814453125,1.0,1.0,1.0,1.0,1.0,100.0,event
15:39:29.616,1.5592457,1.3741547,0.38410908,0.64427406,1.107167,0.76478326,0.38301575,0.39354044,0.5153365,0.55739874,0.3031333,0.20556557,0.4913402,0.48901546,0.36832237,0.42450178,0.22423846,0.15352069,0.25018704,0.49597776,830.0366,801.4286,818.7546,817.1429,818.7546,-0.17474365234375,0.101806640625,0.96343994140625,1.428070068359375,-4.957122802734375,0.059814453125,1.0,1.0,1.0,1.0,1.0,100.0,event
15:39:29.617,1.5592457,1.3741547,0.38410908,0.64427406,1.107167,0.76478326,0.38301575,0.39354044,0.5153365,0.55739874,0.3031333,0.20556557,0.4913402,0.48901546,0.36832237,0.42450178,0.22423846,0.15352069,0.25018704,0.49597776,824.3956,802.23444,805.8608,813.5165,688.60803,-0.17474365234375,0.101806640625,0.96343994140625,1.428070068359375,-4.957122802734375,0.059814453125,1.0,1.0,1.0,1.0,1.0,100.0,event
15:39:29.618,1.5592457,1.3741547,0.38410908,0.64427406,1.107167,0.76478326,0.38301575,0.39354044,0.5153365,0.55739874,0.3031333,0.20556557,0.4913402,0.48901546,0.36832237,0.42450178,0.22423846,0.15352069,0.25018704,0.49597776,813.91943,803.8461,805.05493,810.696,773.22345,-0.17474365234375,0.101806640625,0.96343994140625,1.428070068359375,-4.957122802734375,0.059814453125,1.0,1.0,1.0,1.0,1.0,100.0,event
15:39:29.619,1.5592457,1.3741547,0.38410908,0.64427406,1.107167,0.76478326,0.38301575,0.39354044,0.5153365,0.55739874,0.3031333,0.20556557,0.4913402,0.48901546,0.36832237,0.42450178,0.22423846,0.15352069,0.25018704,0.49597776,814.3223,805.4579,819.15753,818.3516,783.2967,-0.17474365234375,0.101806640625,0.96343994140625,1.428070068359375,-4.957122802734375,0.059814453125,1.0,1.0,1.0,1.0,1.0,100.0,event
15:39:29.619,1.5592457,1.3741547,0.38410908,0.64427406,1.107167,0.76478326,0.38301575,0.39354044,0.5153365,0.55739874,0.3031333,0.20556557,0.4913402,0.48901546,0.36832237,0.42450178,0.22423846,0.15352069,0.25018704,0.49597776,819.9634,803.44324,813.91943,823.9927,665.64105,-0.17474365234375,0.101806640625,0.96343994140625,1.428070068359375,-4.957122802734375,0.059814453125,1.0,1.0,1.0,1.0,1.0,100.0,event
15:39:29.620,1.5592457,1.3741547,0.38410908,0.64427406,1.107167,0.76478326,0.38301575,0.39354044,0.5153365,0.55739874,0.3031333,0.20556557,0.4913402,0.48901546,0.36832237,0.42450178,0.22423846,0.15352069,0.25018704,0.49597776,817.1429,803.0403,806.26373,812.3077,658.3883,-0.17474365234375,0.101806640625,0.96343994140625,1.428070068359375,-4.957122802734375,0.059814453125,1.0,1.0,1.0,1.0,1.0,100.0,event
15:39:29.620,1.5592457,1.3741547,0.38410908,0.64427406,1.107167,0.76478326,0.38301575,0.39354044,0.5153365,0.55739874,0.3031333,0.20556557,0.4913402,0.48901546,0.36832237,0.42450178,0.22423846,0.15352069,0.25018704,0.49597776,810.293,811.0989,805.8608,805.4579,847.76556,-0.17474365234375,0.101806640625,0.96343994140625,1.428070068359375,-4.957122802734375,0.059814453125,1.0,1.0,1.0,1.0,1.0,100.0,event
15:39:29.621,1.5592457,1.3741547,0.38410908,0.64427406,1.107167,0.76478326,0.38301575,0.39354044,0.5153365,0.55739874,0.3031333,0.20556557,0.4913402,0.48901546,0.36832237,0.42450178,0.22423846,0.15352069,0.25018704,0.49597776,823.9927,807.8755,806.6667,807.8755,926.337,-0.17474365234375,0.101806640625,0.96343994140625,1.428070068359375,-4.957122802734375,0.059814453125,1.0,1.0,1.0,1.0,1.0,100.0,event
15:39:29.621,1.5592457,1.3741547,0.38410908,0.64427406,1.107167,0.76478326,0.38301575,0.39354044,0.5153365,0.55739874,0.3031333,0.20556557,0.4913402,0.48901546,0.36832237,0.42450178,0.22423846,0.15352069,0.25018704,0.49597776,823.5897,803.8461,806.26373,800.2198,877.98535,-0.17474365234375,0.101806640625,0.96343994140625,1.428070068359375,-4.957122802734375,0.059814453125,1.0,1.0,1.0,1.0,1.0,100.0,event
15:39:29.622,1.5592457,1.3741547,0.38410908,0.64427406,1.107167,0.76478326,0.38301575,0.39354044,0.5153365,0.55739874,0.3031333,0.20556557,0.4913402,0.48901546,0.36832237,0.42450178,0.22423846,0.15352069,0.25018704,0.49597776,805.05493,803.8461,803.8461,800.6227,722.0513,-0.17474365234375,0.101806640625,0.96343994140625,1.428070068359375,-4.957122802734375,0.059814453125,1.0,1.0,1.0,1.0,1.0,100.0,event
15:39:29.623,1.5592457,1.3741547,0.38410908,0.64427406,1.107167,0.76478326,0.38301575,0.39354044,0.5153365,0.55739874,0.3031333,0.20556557,0.4913402,0.48901546,0.36832237,0.42450178,0.22423846,0.15352069,0.25018704,0.49597776,808.2784,794.17584,808.2784,804.2491,1019.011,-0.17474365234375,0.101806640625,0.96343994140625,1.428070068359375,-4.957122802734375,0.059814453125,1.0,1.0,1.0,1.0,1.0,100.0,event
15:39:29.623,1.5592457,1.3741547,0.38410908,0.64427406,1.107167,0.76478326,0.38301575,0.39354044,0.5153365,0.55739874,0.3031333,0.20556557,0.4913402,0.48901546,0.36832237,0.42450178,0.22423846,0.15352069,0.25018704,0.49597776,800.2198,788.5348,785.31134,798.60803,830.84247,-0.17474365234375,0.101806640625,0.96343994140625,1.428070068359375,-4.957122802734375,0.059814453125,1.0,1.0,1.0,1.0,1.0,100.0,event
15:39:29.624,1.5592457,1.3741547,0.38410908,0.64427406,1.107167,0.76478326,0.38301575,0.39354044,0.5153365,0.55739874,0.3031333,0.20556557,0.4913402,0.48901546,0.36832237,0.42450178,0.22423846,0.15352069,0.25018704,0.49597776,806.26373,807.47253,830.84247,813.1135,776.4469,-0.17474365234375,0.101806640625,0.96343994140625,1.428070068359375,-4.957122802734375,0.059814453125,1.0,1.0,1.0,1.0,1.0,100.0,event
15:39:29.624,1.5592457,1.3741547,0.38410908,0.64427406,1.107167,0.76478326,0.38301575,0.39354044,0.5153365,0.55739874,0.3031333,0.20556557,0.4913402,0.48901546,0.36832237,0.42450178,0.22423846,0.15352069,0.25018704,0.49597776,813.5165,796.5934,804.2491,813.5165,734.1392,-0.17474365234375,0.101806640625,0.96343994140625,1.428070068359375,-4.957122802734375,0.059814453125,1.0,1.0,1.0,1.0,1.0,100.0,event
15:39:29.648,1.5592457,1.3741547,0.38410908,0.64427406,1.107167,0.76478326,0.38301575,0.39354044,0.5153365,0.55739874,0.3031333,0.20556557,0.4913402,0.48901546,0.36832237,0.42450178,0.22423846,0.15352069,0.25018704,0.49597776,820.3663,789.7436,801.8315,814.3223,783.69965,-0.17681884765625,0.09716796875,0.95660400390625,2.27294921875,-6.74407958984375,0.022430419921875,1.0,1.0,1.0,1.0,1.0,100.0,event
15:39:29.649,1.5592457,1.3741547,0.38410908,0.64427406,1.107167,0.76478326,0.38301575,0.39354044,0.5153365,0.55739874,0.3031333,0.20556557,0.4913402,0.48901546,0.36832237,0.42450178,0.22423846,0.15352069,0.25018704,0.49597776,816.337,795.78754,812.3077,809.0842,728.49817,-0.17681884765625,0.09716796875,0.95660400390625,2.27294921875,-6.74407958984375,0.022430419921875,1.0,1.0,1.0,1.0,1.0,100.0,event
15:39:29.650,1.5592457,1.3741547,0.38410908,0.64427406,1.107167,0.76478326,0.38301575,0.39354044,0.5153365,0.55739874,0.3031333,0.20556557,0.4913402,0.48901546,0.36832237,0.42450178,0.22423846,0.15352069,0.25018704,0.49597776,809.89014,798.20514,815.12823,803.44324,684.9817,-0.17681884765625,0.09716796875,0.95660400390625,2.27294921875,-6.74407958984375,0.022430419921875,1.0,1.0,1.0,1.0,1.0,100.0,event
15:39:29.651,1.5592457,1.3741547,0.38410908,0.64427406,1.107167,0.76478326,0.38301575,0.39354044,0.5153365,0.55739874,0.3031333,0.20556557,0.4913402,0.48901546,0.36832237,0.42450178,0.22423846,0.15352069,0.25018704,0.49597776,819.9634,798.60803,809.89014,801.8315,734.1392,-0.17681884765625,0.09716796875,0.95660400390625,2.27294921875,-6.74407958984375,0.022430419921875,1.0,1.0,1.0,1.0,1.0,100.0,event
15:39:29.651,1.5592457,1.3741547,0.38410908,0.64427406,1.107167,0.76478326,0.38301575,0.39354044,0.5153365,0.55739874,0.3031333,0.20556557,0.4913402,0.48901546,0.36832237,0.42450178,0.22423846,0.15352069,0.25018704,0.49597776,818.7546,801.4286,804.65204,805.8608,811.9048,-0.17681884765625,0.09716796875,0.95660400390625,2.27294921875,-6.74407958984375,0.022430419921875,1.0,1.0,1.0,1.0,1.0,100.0,event
15:39:29.652,1.5592457,1.3741547,0.38410908,0.64427406,1.107167,0.76478326,0.38301575,0.39354044,0.5153365,0.55739874,0.3031333,0.20556557,0.4913402,0.48901546,0.36832237,0.42450178,0.22423846,0.15352069,0.25018704,0.49597776,809.4872,796.99634,803.44324,807.0696,821.1722,-0.17681884765625,0.09716796875,0.95660400390625,2.27294921875,-6.74407958984375,0.022430419921875,1.0,1.0,1.0,1.0,1.0,100.0,event
15:39:29.652,1.5592457,1.3741547,0.38410908,0.64427406,1.107167,0.76478326,0.38301575,0.39354044,0.5153365,0.55739874,0.3031333,0.20556557,0.4913402,0.48901546,0.36832237,0.42450178,0.22423846,0.15352069,0.25018704,0.49597776,803.0403,794.17584,813.91943,802.23444,792.5641,-0.17681884765625,0.09716796875,0.95660400390625,2.27294921875,-6.74407958984375,0.022430419921875,1.0,1.0,1.0,1.0,1.0,100.0,event
15:39:29.653,1.5592457,1.3741547,0.3747389,0.64427406,1.107167,0.76478326,0.38540208,0.39354044,0.5153365,0.55739874,0.2923271,0.20556557,0.4913402,0.48901546,0.38344687,0.42450178,0.22423846,0.15352069,0.24666609,0.49597776,796.1905,790.54944,808.68134,805.05493,817.9487,-0.17681884765625,0.09716796875,0.95660400390625,2.27294921875,-6.74407958984375,0.022430419921875,1.0,1.0,1.0,1.0,1.0,100.0,event
15:39:29.656,1.5592457,1.3741547,0.3747389,0.64427406,1.107167,0.76478326,0.38540208,0.39354044,0.5153365,0.55739874,0.2923271,0.20556557,0.4913402,0.48901546,0.38344687,0.42450178,0.22423846,0.15352069,0.24666609,0.49597776,801.8315,790.9524,791.3553,804.65204,1113.2968,-0.17681884765625,0.09716796875,0.95660400390625,2.27294921875,-6.74407958984375,0.022430419921875,1.0,1.0,1.0,1.0,1.0,100.0,event
15:39:29.657,1.5592457,1.3741547,0.3747389,0.64427406,1.107167,0.76478326,0.38540208,0.39354044,0.5153365,0.55739874,0.2923271,0.20556557,0.4913402,0.48901546,0.38344687,0.42450178,0.22423846,0.15352069,0.24666609,0.49597776,799.81683,798.60803,822.381,802.23444,1036.337,-0.17681884765625,0.09716796875,0.95660400390625,2.27294921875,-6.74407958984375,0.022430419921875,1.0,1.0,1.0,1.0,1.0,100.0,event
15:39:29.657,1.5592457,1.3741547,0.3747389,0.64427406,1.107167,0.76478326,0.38540208,0.39354044,0.5153365,0.55739874,0.2923271,0.20556557,0.4913402,0.48901546,0.38344687,0.42450178,0.22423846,0.15352069,0.24666609,0.49597776,799.41394,799.41394,819.15753,803.44324,715.6044,-0.17681884765625,0.09716796875,0.95660400390625,2.27294921875,-6.74407958984375,0.022430419921875,1.0,1.0,1.0,1.0,1.0,100.0,event
15:39:29.658,1.5592457,1.3741547,0.3747389,0.64427406,1.107167,0.76478326,0.38540208,0.39354044,0.5153365,0.55739874,0.2923271,0.20556557,0.4913402,0.48901546,0.38344687,0.42450178,0.22423846,0.15352069,0.24666609,0.49597776,807.47253,799.011,798.20514,799.81683,794.17584,-0.17681884765625,0.09716796875,0.95660400390625,2.27294921875,-6.74407958984375,0.022430419921875,1.0,1.0,1.0,1.0,1.0,100.0,event
15:39:29.727,1.5592457,1.3741547,0.3747389,0.64427406,1.107167,0.76478326,0.38540208,0.39354044,0.5153365,0.55739874,0.2923271,0.20556557,0.4913402,0.48901546,0.38344687,0.42450178,0.22423846,0.15352069,0.24666609,0.49597776,796.99634,799.41394,809.0842,796.99634,850.18317,-0.15399169921875,0.1007080078125,0.969482421875,2.519683837890625,-5.704803466796875,0.097198486328125,1.0,1.0,1.0,1.0,1.0,100.0,event
15:39:29.728,1.5592457,1.3741547,0.3747389,0.64427406,1.107167,0.76478326,0.38540208,0.39354044,0.5153365,0.55739874,0.2923271,0.20556557,0.4913402,0.48901546,0.38344687,0.42450178,0.22423846,0.15352069,0.24666609,0.49597776,793.36993,801.8315,808.2784,794.17584,747.4359,-0.15399169921875,0.1007080078125,0.969482421875,2.519683837890625,-5.704803466796875,0.097198486328125,1.0,1.0,1.0,1.0,1.0,100.0,event
15:39:29.729,1.5592457,1.3741547,0.3747389,0.64427406,1.107167,0.76478326,0.38540208,0.39354044,0.5153365,0.55739874,0.2923271,0.20556557,0.4913402,0.48901546,0.38344687,0.42450178,0.22423846,0.15352069,0.24666609,0.49597776,820.7692,813.5165,803.0403,793.7729,698.2784,-0.15399169921875,0.1007080078125,0.969482421875,2.519683837890625,-5.704803466796875,0.097198486328125,1.0,1.0,1.0,1.0,1.0,100.0,event
15:39:29.730,1.5592457,1.3741547,0.3747389,0.64427406,1.107167,0.76478326,0.38540208,0.39354044,0.5153365,0.55739874,0.2923271,0.20556557,0.4913402,0.48901546,0.38344687,0.42450178,0.22423846,0.15352069,0.24666609,0.49597776,804.65204,798.60803,815.9341,794.9817,783.69965,-0.15399169921875,0.1007080078125,0.969482421875,2.519683837890625,-5.704803466796875,0.097198486328125,1.0,1.0,1.0,1.0,1.0,100.0,event
15:39:29.730,1.5592457,1.3741547,0.3747389,0.64427406,1.107167,0.76478326,0.38540208,0.39354044,0.5153365,0.55739874,0.2923271,0.20556557,0.4913402,0.48901546,0.38344687,0.42450178,0.22423846,0.15352069,0.24666609,0.49597776,819.15753,810.696,810.293,800.2198,738.97437,-0.15399169921875,0.1007080078125,0.969482421875,2.519683837890625,-5.704803466796875,0.097198486328125,1.0,1.0,1.0,1.0,1.0,100.0,event
15:39:29.731,1.5592457,1.3741547,0.3747389,0.64427406,1.107167,0.76478326,0.38540208,0.39354044,0.5153365,0.55739874,0.2923271,0.20556557,0.4913402,0.48901546,0.38344687,0.42450178,0.22423846,0.15352069,0.24666609,0.49597776,798.20514,794.17584,805.4579,799.011,821.978,-0.15399169921875,0.1007080078125,0.969482421875,2.519683837890625,-5.704803466796875,0.097198486328125,1.0,1.0,1.0,1.0,1.0,100.0,event
15:39:29.732,1.5592457,1.3741547,0.3747389,0.64427406,1.107167,0.76478326,0.38540208,0.39354044,0.5153365,0.55739874,0.2923271,0.20556557,0.4913402,0.48901546,0.38344687,0.42450178,0.22423846,0.15352069,0.24666609,0.49597776,829.6337,799.011,788.5348,803.44324,973.8828,-0.15399169921875,0.1007080078125,0.969482421875,2.519683837890625,-5.704803466796875,0.097198486328125,1.0,1.0,1.0,1.0,1.0,100.0,event
15:39:29.732,1.5592457,1.3741547,0.3747389,0.64427406,1.107167,0.76478326,0.38540208,0.39354044,0.5153365,0.55739874,0.2923271,0.20556557,0.4913402,0.48901546,0.38344687,0.42450178,0.22423846,0.15352069,0.24666609,0.49597776,815.12823,799.011,803.8461,812.3077,816.337,-0.15399169921875,0.1007080078125,0.969482421875,2.519683837890625,-5.704803466796875,0.097198486328125,1.0,1.0,1.0,1.0,1.0,100.0,event
15:39:29.733,1.5592457,1.3741547,0.3747389,0.64427406,1.107167,0.76478326,0.38540208,0.39354044,0.5153365,0.55739874,0.2923271,0.20556557,0.4913402,0.48901546,0.38344687,0.42450178,0.22423846,0.15352069,0.24666609,0.49597776,808.68134,800.6227,800.6227,799.81683,956.1539,-0.15399169921875,0.1007080078125,0.969482421875,2.519683837890625,-5.704803466796875,0.097198486328125,1.0,1.0,1.0,1.0,1.0,100.0,event
15:39:29.733,1.5592457,1.3741547,0.3747389,0.64427406,1.107167,0.76478326,0.38540208,0.39354044,0.5153365,0.55739874,0.2923271,0.20556557,0.4913402,0.48901546,0.38344687,0.42450178,0.22423846,0.15352069,0.24666609,0.49597776,794.17584,813.5165,818.3516,789.34064,699.0842,-0.15399169921875,0.1007080078125,0.969482421875,2.519683837890625,-5.704803466796875,0.097198486328125,1.0,1.0,1.0,1.0,1.0,100.0,event
15:39:29.734,1.5592457,1.3741547,0.3747389,0.64427406,1.107167,0.76478326,0.38540208,0.39354044,0.5153365,0.55739874,0.2923271,0.20556557,0.4913402,0.48901546,0.38344687,0.42450178,0.22423846,0.15352069,0.24666609,0.49597776,794.17584,812.3077,797.3993,788.1319,760.7326,-0.15399169921875,0.1007080078125,0.969482421875,2.519683837890625,-5.704803466796875,0.097198486328125,1.0,1.0,1.0,1.0,1.0,100.0,event
15:39:29.735,1.5592457,1.3741547,0.3747389,0.64427406,1.107167,0.76478326,0.38540208,0.39354044,0.5153365,0.55739874,0.2923271,0.20556557,0.4913402,0.48901546,0.38344687,0.42450178,0.22423846,0.15352069,0.24666609,0.49597776,790.9524,811.0989,809.89014,787.72894,834.4689,-0.15399169921875,0.1007080078125,0.969482421875,2.519683837890625,-5.704803466796875,0.097198486328125,1.0,1.0,1.0,1.0,1.0,100.0,event
15:39:29.764,1.5592457,1.3741547,0.3747389,0.64427406,1.107167,0.76478326,0.38540208,0.39354044,0.5153365,0.55739874,0.2923271,0.20556557,0.4913402,0.48901546,0.38344687,0.42450178,0.22423846,0.15352069,0.24666609,0.49597776,805.8608,815.5311,830.84247,779.67035,761.9414,-0.154052734375,0.10125732421875,0.96539306640625,2.295379638671875,-5.7421875,0.949554443359375,1.0,1.0,1.0,1.0,1.0,100.0,event
15:39:29.765,1.5592457,1.3741547,0.3747389,0.64427406,1.107167,0.76478326,0.38540208,0.39354044,0.5153365,0.55739874,0.2923271,0.20556557,0.4913402,0.48901546,0.38344687,0.42450178,0.22423846,0.15352069,0.24666609,0.49597776,821.5751,823.5897,818.7546,790.9524,738.1685,-0.154052734375,0.10125732421875,0.96539306640625,2.295379638671875,-5.7421875,0.949554443359375,1.0,1.0,1.0,1.0,1.0,100.0,event
15:39:29.766,1.5592457,1.3741547,0.3747389,0.64427406,1.107167,0.76478326,0.38540208,0.39354044,0.5153365,0.55739874,0.2923271,0.20556557,0.4913402,0.48901546,0.38344687,0.42450178,0.22423846,0.15352069,0.24666609,0.49597776,812.3077,823.9927,800.6227,798.60803,761.9414,-0.154052734375,0.10125732421875,0.96539306640625,2.295379638671875,-5.7421875,0.949554443359375,1.0,1.0,1.0,1.0,1.0,100.0,event
15:39:29.767,1.5592457,1.3741547,0.3747389,0.64427406,1.107167,0.76478326,0.38540208,0.39354044,0.5153365,0.55739874,0.2923271,0.20556557,0.4913402,0.48901546,0.38344687,0.42450178,0.22423846,0.15352069,0.24666609,0.49597776,801.4286,818.3516,809.0842,789.7436,778.86444,-0.154052734375,0.10125732421875,0.96539306640625,2.295379638671875,-5.7421875,0.949554443359375,1.0,1.0,1.0,1.0,1.0,100.0,event
15:39:29.768,1.5592457,1.3741547,0.3747389,0.64427406,1.107167,0.76478326,0.38540208,0.39354044,0.5153365,0.55739874,0.2923271,0.20556557,0.4913402,0.48901546,0.38344687,0.42450178,0.22423846,0.15352069,0.24666609,0.49597776,805.4579,828.8278,819.15753,796.1905,814.3223,-0.154052734375,0.10125732421875,0.96539306640625,2.295379638671875,-5.7421875,0.949554443359375,1.0,1.0,1.0,1.0,1.0,100.0,event
15:39:29.768,1.5592457,1.3741547,0.3747389,0.64427406,1.107167,0.76478326,0.38540208,0.39354044,0.5153365,0.55739874,0.2923271,0.20556557,0.4913402,0.48901546,0.38344687,0.42450178,0.22423846,0.15352069,0.24666609,0.49597776,792.96704,821.5751,822.381,784.90845,720.84247,-0.154052734375,0.10125732421875,0.96539306640625,2.295379638671875,-5.7421875,0.949554443359375,1.0,1.0,1.0,1.0,1.0,100.0,event
15:39:29.769,1.5592457,1.3741547,0.3747389,0.64427406,1.107167,0.76478326,0.38540208,0.39354044,0.5153365,0.55739874,0.2923271,0.20556557,0.4913402,0.48901546,0.38344687,0.42450178,0.22423846,0.15352069,0.24666609,0.49597776,801.02563,828.8278,802.23444,794.9817,956.1539,-0.154052734375,0.10125732421875,0.96539306640625,2.295379638671875,-5.7421875,0.949554443359375,1.0,1.0,1.0,1.0,1.0,100.0,event
15:39:29.770,1.5592457,1.3741547,0.3747389,0.64427406,1.107167,0.76478326,0.38540208,0.39354044,0.5153365,0.55739874,0.2923271,0.20556557,0.4913402,0.48901546,0.38344687,0.42450178,0.22423846,0.15352069,0.24666609,0.49597776,776.4469,826.4103,799.41394,773.6264,960.58606,-0.154052734375,0.10125732421875,0.96539306640625,2.295379638671875,-5.7421875,0.949554443359375,1.0,1.0,1.0,1.0,1.0,100.0,event
15:39:29.772,1.5592457,1.3741547,0.3747389,0.64427406,1.107167,0.76478326,0.38540208,0.39354044,0.5153365,0.55739874,0.2923271,0.20556557,0.4913402,0.48901546,0.38344687,0.42450178,0.22423846,0.15352069,0.24666609,0.49597776,778.0586,829.6337,823.9927,774.43225,844.94507,-0.154052734375,0.10125732421875,0.96539306640625,2.295379638671875,-5.7421875,0.949554443359375,1.0,1.0,1.0,1.0,1.0,100.0,event
15:39:29.773,1.5592457,1.3741547,0.38534063,0.64427406,1.107167,0.76478326,0.39670315,0.39354044,0.5153365,0.55739874,0.26617926,0.20556557,0.4913402,0.48901546,0.39501318,0.42450178,0.22423846,0.15352069,0.24317531,0.49597776,784.10254,821.1722,820.7692,784.90845,711.5751,-0.154052734375,0.10125732421875,0.96539306640625,2.295379638671875,-5.7421875,0.949554443359375,1.0,1.0,1.0,1.0,1.0,100.0,event
15:39:29.777,1.5592457,1.3741547,0.38534063,0.64427406,1.107167,0.76478326,0.39670315,0.39354044,0.5153365,0.55739874,0.26617926,0.20556557,0.4913402,0.48901546,0.39501318,0.42450178,0.22423846,0.15352069,0.24317531,0.49597776,791.75824,817.5458,796.1905,798.20514,799.81683,-0.154052734375,0.10125732421875,0.96539306640625,2.295379638671875,-5.7421875,0.949554443359375,1.0,1.0,1.0,1.0,1.0,100.0,event
15:39:29.778,1.5592457,1.3741547,0.38534063,0.64427406,1.107167,0.76478326,0.39670315,0.39354044,0.5153365,0.55739874,0.26617926,0.20556557,0.4913402,0.48901546,0.39501318,0.42450178,0.22423846,0.15352069,0.24317531,0.49597776,808.68134,816.7399,792.96704,808.68134,895.7143,-0.154052734375,0.10125732421875,0.96539306640625,2.295379638671875,-5.7421875,0.949554443359375,1.0,1.0,1.0,1.0,1.0,100.0,event
15:39:29.806,1.5592457,1.3741547,0.38534063,0.64427406,1.107167,0.76478326,0.39670315,0.39354044,0.5153365,0.55739874,0.26617926,0.20556557,0.4913402,0.48901546,0.39501318,0.42450178,0.22423846,0.15352069,0.24317531,0.49597776,805.05493,813.91943,817.1429,794.17584,753.8828,-0.153076171875,0.1036376953125,0.9742431640625,2.385101318359375,-5.181427001953125,0.79254150390625,1.0,1.0,1.0,1.0,1.0,100.0,event
15:39:29.807,1.5592457,1.3741547,0.38534063,0.64427406,1.107167,0.76478326,0.39670315,0.39354044,0.5153365,0.55739874,0.26617926,0.20556557,0.4913402,0.48901546,0.39501318,0.42450178,0.22423846,0.15352069,0.24317531,0.49597776,796.5934,805.4579,788.93774,788.93774,932.381,-0.153076171875,0.1036376953125,0.9742431640625,2.385101318359375,-5.181427001953125,0.79254150390625,1.0,1.0,1.0,1.0,1.0,100.0,event
15:39:29.807,1.5592457,1.3741547,0.38534063,0.64427406,1.107167,0.76478326,0.39670315,0.39354044,0.5153365,0.55739874,0.26617926,0.20556557,0.4913402,0.48901546,0.39501318,0.42450178,0.22423846,0.15352069,0.24317531,0.49597776,801.4286,811.0989,802.23444,790.14655,770.80585,-0.153076171875,0.1036376953125,0.9742431640625,2.385101318359375,-5.181427001953125,0.79254150390625,1.0,1.0,1.0,1.0,1.0,100.0,event
15:39:29.808,1.5592457,1.3741547,0.38534063,0.64427406,1.107167,0.76478326,0.39670315,0.39354044,0.5153365,0.55739874,0.26617926,0.20556557,0.4913402,0.48901546,0.39501318,0.42450178,0.22423846,0.15352069,0.24317531,0.49597776,782.0879,805.4579,804.65204,771.2088,666.04395,-0.153076171875,0.1036376953125,0.9742431640625,2.385101318359375,-5.181427001953125,0.79254150390625,1.0,1.0,1.0,1.0,1.0,100.0,event
15:39:29.808,1.5592457,1.3741547,0.38534063,0.64427406,1.107167,0.76478326,0.39670315,0.39354044,0.5153365,0.55739874,0.26617926,0.20556557,0.4913402,0.48901546,0.39501318,0.42450178,0.22423846,0.15352069,0.24317531,0.49597776,785.31134,807.8755,807.0696,780.87915,851.39197,-0.153076171875,0.1036376953125,0.9742431640625,2.385101318359375,-5.181427001953125,0.79254150390625,1.0,1.0,1.0,1.0,1.0,100.0,event
15:39:29.809,1.5592457,1.3741547,0.38534063,0.64427406,1.107167,0.76478326,0.39670315,0.39354044,0.5153365,0.55739874,0.26617926,0.20556557,0.4913402,0.48901546,0.39501318,0.42450178,0.22423846,0.15352069,0.24317531,0.49597776,781.685,794.17584,787.72894,773.22345,766.3736,-0.153076171875,0.1036376953125,0.9742431640625,2.385101318359375,-5.181427001953125,0.79254150390625,1.0,1.0,1.0,1.0,1.0,100.0,event
15:39:29.809,1.5592457,1.3741547,0.38534063,0.64427406,1.107167,0.76478326,0.39670315,0.39354044,0.5153365,0.55739874,0.26617926,0.20556557,0.4913402,0.48901546,0.39501318,0.42450178,0.22423846,0.15352069,0.24317531,0.49597776,792.1612,800.2198,801.4286,790.54944,936.0073,-0.153076171875,0.1036376953125,0.9742431640625,2.385101318359375,-5.181427001953125,0.79254150390625,1.0,1.0,1.0,1.0,1.0,100.0,event
15:39:29.810,1.5592457,1.3741547,0.38534063,0.64427406,1.107167,0.76478326,0.39670315,0.39354044,0.5153365,0.55739874,0.26617926,0.20556557,0.4913402,0.48901546,0.39501318,0.42450178,0.22423846,0.15352069,0.24317531,0.49597776,796.5934,810.696,821.5751,791.3553,821.978,-0.153076171875,0.1036376953125,0.9742431640625,2.385101318359375,-5.181427001953125,0.79254150390625,1.0,1.0,1.0,1.0,1.0,100.0,event
15:39:29.811,1.5592457,1.3741547,0.38534063,0.64427406,1.107167,0.76478326,0.39670315,0.39354044,0.5153365,0.55739874,0.26617926,0.20556557,0.4913402,0.48901546,0.39501318,0.42450178,0.22423846,0.15352069,0.24317531,0.49597776,784.90845,812.3077,821.5751,784.90845,695.05493,-0.153076171875,0.1036376953125,0.9742431640625,2.385101318359375,-5.181427001953125,0.79254150390625,1.0,1.0,1.0,1.0,1.0,100.0,event
15:39:29.811,1.5592457,1.3741547,0.38534063,0.64427406,1.107167,0.76478326,0.39670315,0.39354044,0.5153365,0.55739874,0.26617926,0.20556557,0.4913402,0.48901546,0.39501318,0.42450178,0.22423846,0.15352069,0.24317531,0.49597776,785.7143,804.65204,814.7253,784.90845,654.7619,-0.153076171875,0.1036376953125,0.9742431640625,2.385101318359375,-5.181427001953125,0.79254150390625,1.0,1.0,1.0,1.0,1.0,100.0,event
15:39:29.812,1.5592457,1.3741547,0.38534063,0.64427406,1.107167,0.76478326,0.39670315,0.39354044,0.5153365,0.55739874,0.26617926,0.20556557,0.4913402,0.48901546,0.39501318,0.42450178,0.22423846,0.15352069,0.24317531,0.49597776,800.6227,793.36993,786.52014,792.1612,921.0989,-0.153076171875,0.1036376953125,0.9742431640625,2.385101318359375,-5.181427001953125,0.79254150390625,1.0,1.0,1.0,1.0,1.0,100.0,event
15:39:29.812,1.5592457,1.3741547,0.38534063,0.64427406,1.107167,0.76478326,0.39670315,0.39354044,0.5153365,0.55739874,0.26617926,0.20556557,0.4913402,0.48901546,0.39501318,0.42450178,0.22423846,0.15352069,0.24317531,0.49597776,801.02563,799.41394,804.65204,795.78754,1086.7032,-0.153076171875,0.1036376953125,0.9742431640625,2.385101318359375,-5.181427001953125,0.79254150390625,1.0,1.0,1.0,1.0,1.0,100.0,event
15:39:29.842,1.5592457,1.3741547,0.38534063,0.64427406,1.107167,0.76478326,0.39670315,0.39354044,0.5153365,0.55739874,0.26617926,0.20556557,0.4913402,0.48901546,0.39501318,0.42450178,0.22423846,0.15352069,0.24317531,0.49597776,797.8022,811.0989,833.663,794.9817,727.28937,-0.153076171875,0.1036376953125,0.9742431640625,2.385101318359375,-5.181427001953125,0.79254150390625,1.0,1.0,1.0,1.0,1.0,100.0,event
15:39:29.843,1.5592457,1.3741547,0.38534063,0.64427406,1.107167,0.76478326,0.39670315,0.39354044,0.5153365,0.55739874,0.26617926,0.20556557,0.4913402,0.48901546,0.39501318,0.42450178,0.22423846,0.15352069,0.24317531,0.49597776,792.96704,802.23444,805.05493,794.9817,653.1502,-0.153076171875,0.1036376953125,0.9742431640625,2.385101318359375,-5.181427001953125,0.79254150390625,1.0,1.0,1.0,1.0,1.0,100.0,event
15:39:29.844,1.5592457,1.3741547,0.38534063,0.64427406,1.107167,0.76478326,0.39670315,0.39354044,0.5153365,0.55739874,0.26617926,0.20556557,0.4913402,0.48901546,0.39501318,0.42450178,0.22423846,0.15352069,0.24317531,0.49597776,799.81683,797.8022,804.2491,795.38464,684.9817,-0.153076171875,0.1036376953125,0.9742431640625,2.385101318359375,-5.181427001953125,0.79254150390625,1.0,1.0,1.0,1.0,1.0,100.0,event
15:39:29.845,1.5592457,1.3741547,0.38534063,0.64427406,1.107167,0.76478326,0.39670315,0.39354044,0.5153365,0.55739874,0.26617926,0.20556557,0.4913402,0.48901546,0.39501318,0.42450178,0.22423846,0.15352069,0.24317531,0.49597776,803.44324,800.6227,816.337,796.99634,659.19415,-0.153076171875,0.1036376953125,0.9742431640625,2.385101318359375,-5.181427001953125,0.79254150390625,1.0,1.0,1.0,1.0,1.0,100.0,event
15:39:29.845,1.5592457,1.3741547,0.38534063,0.64427406,1.107167,0.76478326,0.39670315,0.39354044,0.5153365,0.55739874,0.26617926,0.20556557,0.4913402,0.48901546,0.39501318,0.42450178,0.22423846,0.15352069,0.24317531,0.49597776,800.2198,799.41394,813.1135,794.17584,697.8755,-0.153076171875,0.1036376953125,0.9742431640625,2.385101318359375,-5.181427001953125,0.79254150390625,1.0,1.0,1.0,1.0,1.0,100.0,event
15:39:29.846,1.5592457,1.3741547,0.38534063,0.64427406,1.107167,0.76478326,0.39670315,0.39354044,0.5153365,0.55739874,0.26617926,0.20556557,0.4913402,0.48901546,0.39501318,0.42450178,0.22423846,0.15352069,0.24317531,0.49597776,793.7729,790.14655,800.6227,789.34064,785.31134,-0.153076171875,0.1036376953125,0.9742431640625,2.385101318359375,-5.181427001953125,0.79254150390625,1.0,1.0,1.0,1.0,1.0,100.0,event
15:39:29.847,1.5592457,1.3741547,0.38534063,0.64427406,1.107167,0.76478326,0.39670315,0.39354044,0.5153365,0.55739874,0.26617926,0.20556557,0.4913402,0.48901546,0.39501318,0.42450178,0.22423846,0.15352069,0.24317531,0.49597776,787.326,782.49084,792.5641,789.7436,1089.9268,-0.153076171875,0.1036376953125,0.9742431640625,2.385101318359375,-5.181427001953125,0.79254150390625,1.0,1.0,1.0,1.0,1.0,100.0,event
15:39:29.848,1.5592457,1.3741547,0.38534063,0.64427406,1.107167,0.76478326,0.39670315,0.39354044,0.5153365,0.55739874,0.26617926,0.20556557,0.4913402,0.48901546,0.39501318,0.42450178,0.22423846,0.15352069,0.24317531,0.49597776,793.7729,804.2491,828.8278,790.54944,1054.8718,-0.153076171875,0.1036376953125,0.9742431640625,2.385101318359375,-5.181427001953125,0.79254150390625,1.0,1.0,1.0,1.0,1.0,100.0,event
15:39:29.848,1.5592457,1.3741547,0.38534063,0.64427406,1.107167,0.76478326,0.39670315,0.39354044,0.5153365,0.55739874,0.26617926,0.20556557,0.4913402,0.48901546,0.39501318,0.42450178,0.22423846,0.15352069,0.24317531,0.49597776,801.8315,817.5458,820.7692,792.96704,660.40295,-0.153076171875,0.1036376953125,0.9742431640625,2.385101318359375,-5.181427001953125,0.79254150390625,1.0,1.0,1.0,1.0,1.0,100.0,event
15:39:29.849,1.5592457,1.3741547,0.38534063,0.64427406,1.107167,0.76478326,0.39670315,0.39354044,0.5153365,0.55739874,0.26617926,0.20556557,0.4913402,0.48901546,0.39501318,0.42450178,0.22423846,0.15352069,0.24317531,0.49597776,795.78754,804.65204,796.1905,781.28204,682.96704,-0.153076171875,0.1036376953125,0.9742431640625,2.385101318359375,-5.181427001953125,0.79254150390625,1.0,1.0,1.0,1.0,1.0,100.0,event
15:39:29.850,1.5592457,1.3741547,0.38534063,0.64427406,1.107167,0.76478326,0.39670315,0.39354044,0.5153365,0.55739874,0.26617926,0.20556557,0.4913402,0.48901546,0.39501318,0.42450178,0.22423846,0.15352069,0.24317531,0.49597776,788.93774,807.8755,809.4872,781.685,782.8938,-0.153076171875,0.1036376953125,0.9742431640625,2.385101318359375,-5.181427001953125,0.79254150390625,1.0,1.0,1.0,1.0,1.0,100.0,event
15:39:29.851,1.5592457,1.3741547,0.42379037,0.64427406,1.107167,0.76478326,0.42586377,0.39354044,0.5153365,0.55739874,0.23661439,0.20556557,0.4913402,0.48901546,0.39901504,0.42450178,0.22423846,0.15352069,0.23817939,0.49597776,799.011,809.89014,816.337,796.99634,659.19415,-0.153076171875,0.1036376953125,0.9742431640625,2.385101318359375,-5.181427001953125,0.79254150390625,1.0,1.0,1.0,1.0,1.0,100.0,event
15:39:29.895,1.5592457,1.3741547,0.42379037,0.64427406,1.107167,0.76478326,0.42586377,0.39354044,0.5153365,0.55739874,0.23661439,0.20556557,0.4913402,0.48901546,0.39901504,0.42450178,0.22423846,0.15352069,0.23817939,0.49597776,809.89014,799.81683,807.0696,798.60803,687.3993,-0.1533203125,0.1058349609375,0.971923828125,2.654266357421875,-4.71038818359375,1.51031494140625,1.0,1.0,1.0,1.0,1.0,100.0,event
15:39:29.897,1.5592457,1.3741547,0.42379037,0.64427406,1.107167,0.76478326,0.42586377,0.39354044,0.5153365,0.55739874,0.23661439,0.20556557,0.4913402,0.48901546,0.39901504,0.42450178,0.22423846,0.15352069,0.23817939,0.49597776,810.696,794.9817,795.78754,801.8315,819.9634,-0.1533203125,0.1058349609375,0.971923828125,2.654266357421875,-4.71038818359375,1.51031494140625,1.0,1.0,1.0,1.0,1.0,100.0,event
15:39:29.897,1.5592457,1.3741547,0.42379037,0.64427406,1.107167,0.76478326,0.42586377,0.39354044,0.5153365,0.55739874,0.23661439,0.20556557,0.4913402,0.48901546,0.39901504,0.42450178,0.22423846,0.15352069,0.23817939,0.49597776,796.5934,796.5934,801.02563,793.7729,792.96704,-0.1533203125,0.1058349609375,0.971923828125,2.654266357421875,-4.71038818359375,1.51031494140625,1.0,1.0,1.0,1.0,1.0,100.0,event
15:39:29.898,1.5592457,1.3741547,0.42379037,0.64427406,1.107167,0.76478326,0.42586377,0.39354044,0.5153365,0.55739874,0.23661439,0.20556557,0.4913402,0.48901546,0.39901504,0.42450178,0.22423846,0.15352069,0.23817939,0.49597776,786.1172,794.9817,796.1905,780.07324,721.2454,-0.1533203125,0.1058349609375,0.971923828125,2.654266357421875,-4.71038818359375,1.51031494140625,1.0,1.0,1.0,1.0,1.0,100.0,event
15:39:29.898,1.5592457,1.3741547,0.42379037,0.64427406,1.107167,0.76478326,0.42586377,0.39354044,0.5153365,0.55739874,0.23661439,0.20556557,0.4913402,0.48901546,0.39901504,0.42450178,0.22423846,0.15352069,0.23817939,0.49597776,793.7729,790.54944,788.1319,793.36993,700.293,-0.1533203125,0.1058349609375,0.971923828125,2.654266357421875,-4.71038818359375,1.51031494140625,1.0,1.0,1.0,1.0,1.0,100.0,event
15:39:29.899,1.5592457,1.3741547,0.42379037,0.64427406,1.107167,0.76478326,0.42586377,0.39354044,0.5153365,0.55739874,0.23661439,0.20556557,0.4913402,0.48901546,0.39901504,0.42450178,0.22423846,0.15352069,0.23817939,0.49597776,801.4286,786.1172,794.57874,804.2491,830.84247,-0.1533203125,0.1058349609375,0.971923828125,2.654266357421875,-4.71038818359375,1.51031494140625,1.0,1.0,1.0,1.0,1.0,100.0,event
15:39:29.899,1.5592457,1.3741547,0.42379037,0.64427406,1.107167,0.76478326,0.42586377,0.39354044,0.5153365,0.55739874,0.23661439,0.20556557,0.4913402,0.48901546,0.39901504,0.42450178,0.22423846,0.15352069,0.23817939,0.49597776,803.44324,785.7143,803.44324,796.5934,888.46155,-0.1533203125,0.1058349609375,0.971923828125,2.654266357421875,-4.71038818359375,1.51031494140625,1.0,1.0,1.0,1.0,1.0,100.0,event
15:39:29.900,1.5592457,1.3741547,0.42379037,0.64427406,1.107167,0.76478326,0.42586377,0.39354044,0.5153365,0.55739874,0.23661439,0.20556557,0.4913402,0.48901546,0.39901504,0.42450178,0.22423846,0.15352069,0.23817939,0.49597776,805.8608,793.7729,805.4579,793.7729,788.1319,-0.1533203125,0.1058349609375,0.971923828125,2.654266357421875,-4.71038818359375,1.51031494140625,1.0,1.0,1.0,1.0,1.0,100.0,event
15:39:29.900,1.5592457,1.3741547,0.42379037,0.64427406,1.107167,0.76478326,0.42586377,0.39354044,0.5153365,0.55739874,0.23661439,0.20556557,0.4913402,0.48901546,0.39901504,0.42450178,0.22423846,0.15352069,0.23817939,0.49597776,801.4286,805.8608,805.05493,796.1905,726.08057,-0.1533203125,0.1058349609375,0.971923828125,2.654266357421875,-4.71038818359375,1.51031494140625,1.0,1.0,1.0,1.0,1.0,100.0,event
15:39:29.901,1.5592457,1.3741547,0.42379037,0.64427406,1.107167,0.76478326,0.42586377,0.39354044,0.5153365,0.55739874,0.23661439,0.20556557,0.4913402,0.48901546,0.39901504,0.42450178,0.22423846,0.15352069,0.23817939,0.49597776,792.5641,798.60803,794.17584,797.3993,924.7253,-0.1533203125,0.1058349609375,0.971923828125,2.654266357421875,-4.71038818359375,1.51031494140625,1.0,1.0,1.0,1.0,1.0,100.0,event
15:39:29.902,1.5592457,1.3741547,0.42379037,0.64427406,1.107167,0.76478326,0.42586377,0.39354044,0.5153365,0.55739874,0.23661439,0.20556557,0.4913402,0.48901546,0.39901504,0.42450178,0.22423846,0.15352069,0.23817939,0.49597776,800.2198,799.81683,819.5604,796.1905,745.82416,-0.1533203125,0.1058349609375,0.971923828125,2.654266357421875,-4.71038818359375,1.51031494140625,1.0,1.0,1.0,1.0,1.0,100.0,event
15:39:29.902,1.5592457,1.3741547,0.42379037,0.64427406,1.107167,0.76478326,0.42586377,0.39354044,0.5153365,0.55739874,0.23661439,0.20556557,0.4913402,0.48901546,0.39901504,0.42450178,0.22423846,0.15352069,0.23817939,0.49597776,793.36993,788.93774,806.6667,797.8022,992.01465,-0.1533203125,0.1058349609375,0.971923828125,2.654266357421875,-4.71038818359375,1.51031494140625,1.0,1.0,1.0,1.0,1.0,100.0,event
15:39:29.963,1.5592457,1.3741547,0.42379037,0.64427406,1.107167,0.76478326,0.42586377,0.39354044,0.5153365,0.55739874,0.23661439,0.20556557,0.4913402,0.48901546,0.39901504,0.42450178,0.22423846,0.15352069,0.23817939,0.49597776,798.60803,797.8022,796.99634,796.99634,745.0183,-0.15655517578125,0.10986328125,0.96759033203125,2.0635986328125,-3.641204833984375,0.7177734375,1.0,1.0,1.0,1.0,1.0,100.0,event
15:39:29.964,1.5592457,1.3741547,0.42379037,0.64427406,1.107167,0.76478326,0.42586377,0.39354044,0.5153365,0.55739874,0.23661439,0.20556557,0.4913402,0.48901546,0.39901504,0.42450178,0.22423846,0.15352069,0.23817939,0.49597776,801.8315,795.38464,807.0696,796.99634,729.304,-0.15655517578125,0.10986328125,0.96759033203125,2.0635986328125,-3.641204833984375,0.7177734375,1.0,1.0,1.0,1.0,1.0,100.0,event
15:39:29.965,1.5592457,1.3741547,0.42379037,0.64427406,1.107167,0.76478326,0.42586377,0.39354044,0.5153365,0.55739874,0.23661439,0.20556557,0.4913402,0.48901546,0.39901504,0.42450178,0.22423846,0.15352069,0.23817939,0.49597776,805.8608,804.2491,820.3663,797.8022,726.8865,-0.15655517578125,0.10986328125,0.96759033203125,2.0635986328125,-3.641204833984375,0.7177734375,1.0,1.0,1.0,1.0,1.0,100.0,event
15:39:29.965,1.5592457,1.3741547,0.42379037,0.64427406,1.107167,0.76478326,0.42586377,0.39354044,0.5153365,0.55739874,0.23661439,0.20556557,0.4913402,0.48901546,0.39901504,0.42450178,0.22423846,0.15352069,0.23817939,0.49597776,794.9817,799.81683,813.5165,794.17584,730.10986,-0.15655517578125,0.10986328125,0.96759033203125,2.0635986328125,-3.641204833984375,0.7177734375,1.0,1.0,1.0,1.0,1.0,100.0,event
15:39:29.966,1.5592457,1.3741547,0.42379037,0.64427406,1.107167,0.76478326,0.42586377,0.39354044,0.5153365,0.55739874,0.23661439,0.20556557,0.4913402,0.48901546,0.39901504,0.42450178,0.22423846,0.15352069,0.23817939,0.49597776,792.1612,790.54944,788.93774,794.17584,750.65936,-0.15655517578125,0.10986328125,0.96759033203125,2.0635986328125,-3.641204833984375,0.7177734375,1.0,1.0,1.0,1.0,1.0,100.0,event
15:39:29.967,1.5592457,1.3741547,0.42379037,0.64427406,1.107167,0.76478326,0.42586377,0.39354044,0.5153365,0.55739874,0.23661439,0.20556557,0.4913402,0.48901546,0.39901504,0.42450178,0.22423846,0.15352069,0.23817939,0.49597776,786.1172,792.96704,772.4176,787.326,842.52747,-0.15655517578125,0.10986328125,0.96759033203125,2.0635986328125,-3.641204833984375,0.7177734375,1.0,1.0,1.0,1.0,1.0,100.0,event
15:39:29.968,1.5592457,1.3741547,0.42379037,0.64427406,1.107167,0.76478326,0.42586377,0.39354044,0.5153365,0.55739874,0.23661439,0.20556557,0.4913402,0.48901546,0.39901504,0.42450178,0.22423846,0.15352069,0.23817939,0.49597776,791.3553,803.0403,793.7729,779.2674,861.06226,-0.15655517578125,0.10986328125,0.96759033203125,2.0635986328125,-3.641204833984375,0.7177734375,1.0,1.0,1.0,1.0,1.0,100.0,event
15:39:29.968,1.5592457,1.3741547,0.42379037,0.64427406,1.107167,0.76478326,0.42586377,0.39354044,0.5153365,0.55739874,0.23661439,0.20556557,0.4913402,0.48901546,0.39901504,0.42450178,0.22423846,0.15352069,0.23817939,0.49597776,797.8022,809.89014,813.91943,785.7143,774.83514,-0.15655517578125,0.10986328125,0.96759033203125,2.0635986328125,-3.641204833984375,0.7177734375,1.0,1.0,1.0,1.0,1.0,100.0,event
15:39:29.969,1.5592457,1.3741547,0.42379037,0.64427406,1.107167,0.76478326,0.42586377,0.39354044,0.5153365,0.55739874,0.23661439,0.20556557,0.4913402,0.48901546,0.39901504,0.42450178,0.22423846,0.15352069,0.23817939,0.49597776,778.46155,794.9817,779.2674,786.52014,921.50183,-0.15655517578125,0.10986328125,0.96759033203125,2.0635986328125,-3.641204833984375,0.7177734375,1.0,1.0,1.0,1.0,1.0,100.0,event
15:39:29.969,1.5592457,1.3741547,0.42379037,0.64427406,1.107167,0.76478326,0.42586377,0.39354044,0.5153365,0.55739874,0.23661439,0.20556557,0.4913402,0.48901546,0.39901504,0.42450178,0.22423846,0.15352069,0.23817939,0.49597776,786.1172,803.44324,786.52014,793.36993,795.38464,-0.15655517578125,0.10986328125,0.96759033203125,2.0635986328125,-3.641204833984375,0.7177734375,1.0,1.0,1.0,1.0,1.0,100.0,event
15:39:29.970,1.5592457,1.3741547,0.42379037,0.64427406,1.107167,0.76478326,0.42586377,0.39354044,0.5153365,0.55739874,0.23661439,0.20556557,0.4913402,0.48901546,0.39901504,0.42450178,0.22423846,0.15352069,0.23817939,0.49597776,782.49084,808.2784,809.89014,783.69965,800.2198,-0.15655517578125,0.10986328125,0.96759033203125,2.0635986328125,-3.641204833984375,0.7177734375,1.0,1.0,1.0,1.0,1.0,100.0,event
15:39:29.971,1.5592457,1.3741547,0.42379037,0.64427406,1.107167,0.76478326,0.42586377,0.39354044,0.5153365,0.55739874,0.23661439,0.20556557,0.4913402,0.48901546,0.39901504,0.42450178,0.22423846,0.15352069,0.23817939,0.49597776,792.5641,819.15753,808.68134,790.9524,691.8315,-0.15655517578125,0.10986328125,0.96759033203125,2.0635986328125,-3.641204833984375,0.7177734375,1.0,1.0,1.0,1.0,1.0,100.0,event
15:39:30.000,1.5592457,1.3741547,0.42379037,0.64427406,1.107167,0.76478326,0.42586377,0.39354044,0.5153365,0.55739874,0.23661439,0.20556557,0.4913402,0.48901546,0.39901504,0.42450178,0.22423846,0.15352069,0.23817939,0.49597776,799.41394,816.337,799.011,794.9817,781.28204,-0.1513671875,0.1102294921875,0.97021484375,1.98883056640625,-2.863616943359375,0.246734619140625,1.0,1.0,1.0,1.0,1.0,100.0,event
15:39:30.001,1.5592457,1.3741547,0.4793124,0.64427406,1.107167,0.76478326,0.4739413,0.39354044,0.5153365,0.55739874,0.2328482,0.20556557,0.4913402,0.48901546,0.38906112,0.42450178,0.22423846,0.15352069,0.23165698,0.49597776,798.60803,811.9048,806.26373,796.5934,836.8865,-0.1513671875,0.1102294921875,0.97021484375,1.98883056640625,-2.863616943359375,0.246734619140625,1.0,1.0,1.0,1.0,1.0,100.0,event
15:39:30.006,1.5592457,1.3741547,0.4793124,0.64427406,1.107167,0.76478326,0.4739413,0.39354044,0.5153365,0.55739874,0.2328482,0.20556557,0.4913402,0.48901546,0.38906112,0.42450178,0.22423846,0.15352069,0.23165698,0.49597776,791.75824,810.696,813.5165,799.011,745.0183,-0.1513671875,0.1102294921875,0.97021484375,1.98883056640625,-2.863616943359375,0.246734619140625,1.0,1.0,1.0,1.0,1.0,100.0,event
15:39:30.007,1.5592457,1.3741547,0.4793124,0.64427406,1.107167,0.76478326,0.4739413,0.39354044,0.5153365,0.55739874,0.2328482,0.20556557,0.4913402,0.48901546,0.38906112,0.42450178,0.22423846,0.15352069,0.23165698,0.49597776,793.7729,805.4579,798.20514,800.6227,707.9487,-0.1513671875,0.1102294921875,0.97021484375,1.98883056640625,-2.863616943359375,0.246734619140625,1.0,1.0,1.0,1.0,1.0,100.0,event
15:39:30.008,1.5592457,1.3741547,0.4793124,0.64427406,1.107167,0.76478326,0.4739413,0.39354044,0.5153365,0.55739874,0.2328482,0.20556557,0.4913402,0.48901546,0.38906112,0.42450178,0.22423846,0.15352069,0.23165698,0.49597776,796.99634,801.8315,805.4579,795.78754,685.78754,-0.1513671875,0.1102294921875,0.97021484375,1.98883056640625,-2.863616943359375,0.246734619140625,1.0,1.0,1.0,1.0,1.0,100.0,event
15:39:30.009,1.5592457,1.3741547,0.4793124,0.64427406,1.107167,0.76478326,0.4739413,0.39354044,0.5153365,0.55739874,0.2328482,0.20556557,0.4913402,0.48901546,0.38906112,0.42450178,0.22423846,0.15352069,0.23165698,0.49597776,795.78754,809.4872,815.12823,795.38464,816.7399,-0.1513671875,0.1102294921875,0.97021484375,1.98883056640625,-2.863616943359375,0.246734619140625,1.0,1.0,1.0,1.0,1.0,100.0,event
15:39:30.010,1.5592457,1.3741547,0.4793124,0.64427406,1.107167,0.76478326,0.4739413,0.39354044,0.5153365,0.55739874,0.2328482,0.20556557,0.4913402,0.48901546,0.38906112,0.42450178,0.22423846,0.15352069,0.23165698,0.49597776,790.14655,801.4286,800.6227,794.17584,863.0769,-0.1513671875,0.1102294921875,0.97021484375,1.98883056640625,-2.863616943359375,0.246734619140625,1.0,1.0,1.0,1.0,1.0,100.0,event
15:39:30.010,1.5592457,1.3741547,0.4793124,0.64427406,1.107167,0.76478326,0.4739413,0.39354044,0.5153365,0.55739874,0.2328482,0.20556557,0.4913402,0.48901546,0.38906112,0.42450178,0.22423846,0.15352069,0.23165698,0.49597776,792.96704,809.89014,810.293,797.8022,992.8205,-0.1513671875,0.1102294921875,0.97021484375,1.98883056640625,-2.863616943359375,0.246734619140625,1.0,1.0,1.0,1.0,1.0,100.0,event
15:39:30.011,1.5592457,1.3741547,0.4793124,0.64427406,1.107167,0.76478326,0.4739413,0.39354044,0.5153365,0.55739874,0.2328482,0.20556557,0.4913402,0.48901546,0.38906112,0.42450178,0.22423846,0.15352069,0.23165698,0.49597776,789.7436,793.7729,778.0586,785.7143,890.87915,-0.1513671875,0.1102294921875,0.97021484375,1.98883056640625,-2.863616943359375,0.246734619140625,1.0,1.0,1.0,1.0,1.0,100.0,event
15:39:30.012,1.5592457,1.3741547,0.4793124,0.64427406,1.107167,0.76478326,0.4739413,0.39354044,0.5153365,0.55739874,0.2328482,0.20556557,0.4913402,0.48901546,0.38906112,0.42450178,0.22423846,0.15352069,0.23165698,0.49597776,791.75824,801.4286,804.2491,792.96704,992.01465,-0.1513671875,0.1102294921875,0.97021484375,1.98883056640625,-2.863616943359375,0.246734619140625,1.0,1.0,1.0,1.0,1.0,100.0,event
15:39:30.013,1.5592457,1.3741547,0.4793124,0.64427406,1.107167,0.76478326,0.4739413,0.39354044,0.5153365,0.55739874,0.2328482,0.20556557,0.4913402,0.48901546,0.38906112,0.42450178,0.22423846,0.15352069,0.23165698,0.49597776,790.54944,805.4579,819.9634,788.5348,796.99634,-0.1513671875,0.1102294921875,0.97021484375,1.98883056640625,-2.863616943359375,0.246734619140625,1.0,1.0,1.0,1.0,1.0,100.0,event
15:39:30.013,1.5592457,1.3741547,0.4793124,0.64427406,1.107167,0.76478326,0.4739413,0.39354044,0.5153365,0.55739874,0.2328482,0.20556557,0.4913402,0.48901546,0.38906112,0.42450178,0.22423846,0.15352069,0.23165698,0.49597776,793.36993,800.6227,794.17584,791.3553,788.1319,-0.1513671875,0.1102294921875,0.97021484375,1.98883056640625,-2.863616943359375,0.246734619140625,1.0,1.0,1.0,1.0,1.0,100.0,event
15:39:30.046,1.5592457,1.3741547,0.4793124,0.64427406,1.107167,0.76478326,0.4739413,0.39354044,0.5153365,0.55739874,0.2328482,0.20556557,0.4913402,0.48901546,0.38906112,0.42450178,0.22423846,0.15352069,0.23165698,0.49597776,799.81683,811.50183,801.8315,794.17584,765.56775,-0.1456298828125,0.10650634765625,0.9703369140625,1.375732421875,-3.170166015625,1.55517578125,1.0,1.0,1.0,1.0,1.0,100.0,event
15:39:30.047,1.5592457,1.3741547,0.4793124,0.64427406,1.107167,0.76478326,0.4739413,0.39354044,0.5153365,0.55739874,0.2328482,0.20556557,0.4913402,0.48901546,0.38906112,0.42450178,0.22423846,0.15352069,0.23165698,0.49597776,795.78754,809.4872,801.02563,785.7143,765.56775,-0.1456298828125,0.10650634765625,0.9703369140625,1.375732421875,-3.170166015625,1.55517578125,1.0,1.0,1.0,1.0,1.0,100.0,event
15:39:30.049,1.5592457,1.3741547,0.4793124,0.64427406,1.107167,0.76478326,0.4739413,0.39354044,0.5153365,0.55739874,0.2328482,0.20556557,0.4913402,0.48901546,0.38906112,0.42450178,0.22423846,0.15352069,0.23165698,0.49597776,797.8022,805.4579,800.6227,788.1319,780.07324,-0.1456298828125,0.10650634765625,0.9703369140625,1.375732421875,-3.170166015625,1.55517578125,1.0,1.0,1.0,1.0,1.0,100.0,event
15:39:30.050,1.5592457,1.3741547,0.4793124,0.64427406,1.107167,0.76478326,0.4739413,0.39354044,0.5153365,0.55739874,0.2328482,0.20556557,0.4913402,0.48901546,0.38906112,0.42450178,0.22423846,0.15352069,0.23165698,0.49597776,798.20514,812.3077,800.6227,794.17584,756.7033,-0.1456298828125,0.10650634765625,0.9703369140625,1.375732421875,-3.170166015625,1.55517578125,1.0,1.0,1.0,1.0,1.0,100.0,event
15:39:30.052,1.5592457,1.3741547,0.4793124,0.64427406,1.107167,0.76478326,0.4739413,0.39354044,0.5153365,0.55739874,0.2328482,0.20556557,0.4913402,0.48901546,0.38906112,0.42450178,0.22423846,0.15352069,0.23165698,0.49597776,796.1905,808.68134,790.9524,792.5641,828.4249,-0.1456298828125,0.10650634765625,0.9703369140625,1.375732421875,-3.170166015625,1.55517578125,1.0,1.0,1.0,1.0,1.0,100.0,event
15:39:30.053,1.5592457,1.3741547,0.4793124,0.64427406,1.107167,0.76478326,0.4739413,0.39354044,0.5153365,0.55739874,0.2328482,0.20556557,0.4913402,0.48901546,0.38906112,0.42450178,0.22423846,0.15352069,0.23165698,0.49597776,793.36993,805.8608,799.011,788.1319,857.8388,-0.1456298828125,0.10650634765625,0.9703369140625,1.375732421875,-3.170166015625,1.55517578125,1.0,1.0,1.0,1.0,1.0,100.0,event
15:39:30.054,1.5592457,1.3741547,0.4793124,0.64427406,1.107167,0.76478326,0.4739413,0.39354044,0.5153365,0.55739874,0.2328482,0.20556557,0.4913402,0.48901546,0.38906112,0.42450178,0.22423846,0.15352069,0.23165698,0.49597776,790.54944,810.293,806.26373,790.54944,817.9487,-0.1456298828125,0.10650634765625,0.9703369140625,1.375732421875,-3.170166015625,1.55517578125,1.0,1.0,1.0,1.0,1.0,100.0,event
15:39:30.056,1.5592457,1.3741547,0.4793124,0.64427406,1.107167,0.76478326,0.4739413,0.39354044,0.5153365,0.55739874,0.2328482,0.20556557,0.4913402,0.48901546,0.38906112,0.42450178,0.22423846,0.15352069,0.23165698,0.49597776,789.7436,803.44324,790.14655,791.75824,769.59705,-0.1456298828125,0.10650634765625,0.9703369140625,1.375732421875,-3.170166015625,1.55517578125,1.0,1.0,1.0,1.0,1.0,100.0,event
15:39:30.056,1.5592457,1.3741547,0.4793124,0.64427406,1.107167,0.76478326,0.4739413,0.39354044,0.5153365,0.55739874,0.2328482,0.20556557,0.4913402,0.48901546,0.38906112,0.42450178,0.22423846,0.15352069,0.23165698,0.49597776,796.99634,795.38464,797.3993,796.99634,891.28204,-0.1456298828125,0.10650634765625,0.9703369140625,1.375732421875,-3.170166015625,1.55517578125,1.0,1.0,1.0,1.0,1.0,100.0,event
15:39:30.059,1.5592457,1.3741547,0.4793124,0.64427406,1.107167,0.76478326,0.4739413,0.39354044,0.5153365,0.55739874,0.2328482,0.20556557,0.4913402,0.48901546,0.38906112,0.42450178,0.22423846,0.15352069,0.23165698,0.49597776,801.8315,799.011,832.4542,793.7729,834.87177,-0.1456298828125,0.10650634765625,0.9703369140625,1.375732421875,-3.170166015625,1.55517578125,1.0,1.0,1.0,1.0,1.0,100.0,event
15:39:30.060,1.5592457,1.3741547,0.4793124,0.64427406,1.107167,0.76478326,0.4739413,0.39354044,0.5153365,0.55739874,0.2328482,0.20556557,0.4913402,0.48901546,0.38906112,0.42450178,0.22423846,0.15352069,0.23165698,0.49597776,791.3553,796.5934,804.65204,791.75824,701.9048,-0.1456298828125,0.10650634765625,0.9703369140625,1.375732421875,-3.170166015625,1.55517578125,1.0,1.0,1.0,1.0,1.0,100.0,event
15:39:30.061,1.5592457,1.3741547,0.4793124,0.64427406,1.107167,0.76478326,0.4739413,0.39354044,0.5153365,0.55739874,0.2328482,0.20556557,0.4913402,0.48901546,0.38906112,0.42450178,0.22423846,0.15352069,0.23165698,0.49597776,799.011,801.4286,796.99634,797.3993,794.9817,-0.1456298828125,0.10650634765625,0.9703369140625,1.375732421875,-3.170166015625,1.55517578125,1.0,1.0,1.0,1.0,1.0,100.0,event
15:39:30.086,1.5592457,1.3741547,0.4793124,0.64427406,1.107167,0.76478326,0.4739413,0.39354044,0.5153365,0.55739874,0.2328482,0.20556557,0.4913402,0.48901546,0.38906112,0.42450178,0.22423846,0.15352069,0.23165698,0.49597776,809.89014,803.44324,813.91943,795.38464,807.47253,-0.1456298828125,0.10650634765625,0.9703369140625,1.375732421875,-3.170166015625,1.55517578125,1.0,1.0,1.0,1.0,1.0,100.0,event
15:39:30.087,1.5592457,1.3741547,0.4793124,0.64427406,1.107167,0.76478326,0.4739413,0.39354044,0.5153365,0.55739874,0.2328482,0.20556557,0.4913402,0.48901546,0.38906112,0.42450178,0.22423846,0.15352069,0.23165698,0.49597776,802.23444,801.8315,809.4872,792.96704,757.9121,-0.1456298828125,0.10650634765625,0.9703369140625,1.375732421875,-3.170166015625,1.55517578125,1.0,1.0,1.0,1.0,1.0,100.0,event
15:39:30.088,1.5592457,1.3741547,0.4793124,0.64427406,1.107167,0.76478326,0.4739413,0.39354044,0.5153365,0.55739874,0.2328482,0.20556557,0.4913402,0.48901546,0.38906112,0.42450178,0.22423846,0.15352069,0.23165698,0.49597776,797.8022,796.99634,800.2198,791.75824,771.6117,-0.1456298828125,0.10650634765625,0.9703369140625,1.375732421875,-3.170166015625,1.55517578125,1.0,1.0,1.0,1.0,1.0,100.0,event
15:39:30.088,1.5592457,1.3741547,0.54236776,0.64427406,1.107167,0.76478326,0.5305125,0.39354044,0.5153365,0.55739874,0.2328482,0.20556557,0.4913402,0.48901546,0.36183015,0.42450178,0.22423846,0.15352069,0.22319454,0.49597776,796.5934,790.54944,803.8461,786.1172,800.6227,-0.1456298828125,0.10650634765625,0.9703369140625,1.375732421875,-3.170166015625,1.55517578125,1.0,1.0,1.0,1.0,1.0,100.0,event
15:39:30.092,1.5592457,1.3741547,0.54236776,0.64427406,1.107167,0.76478326,0.5305125,0.39354044,0.5153365,0.55739874,0.2328482,0.20556557,0.4913402,0.48901546,0.36183015,0.42450178,0.22423846,0.15352069,0.22319454,0.49597776,797.3993,801.8315,796.99634,791.3553,734.5421,-0.1456298828125,0.10650634765625,0.9703369140625,1.375732421875,-3.170166015625,1.55517578125,1.0,1.0,1.0,1.0,1.0,100.0,event
15:39:30.092,1.5592457,1.3741547,0.54236776,0.64427406,1.107167,0.76478326,0.5305125,0.39354044,0.5153365,0.55739874,0.2328482,0.20556557,0.4913402,0.48901546,0.36183015,0.42450178,0.22423846,0.15352069,0.22319454,0.49597776,803.44324,799.81683,807.8755,794.17584,790.14655,-0.1456298828125,0.10650634765625,0.9703369140625,1.375732421875,-3.170166015625,1.55517578125,1.0,1.0,1.0,1.0,1.0,100.0,event
15:39:30.093,1.5592457,1.3741547,0.54236776,0.64427406,1.107167,0.76478326,0.5305125,0.39354044,0.5153365,0.55739874,0.2328482,0.20556557,0.4913402,0.48901546,0.36183015,0.42450178,0.22423846,0.15352069,0.22319454,0.49597776,786.9231,800.2198,798.20514,778.0586,764.35895,-0.1456298828125,0.10650634765625,0.9703369140625,1.375732421875,-3.170166015625,1.55517578125,1.0,1.0,1.0,1.0,1.0,100.0,event
15:39:30.093,1.5592457,1.3741547,0.54236776,0.64427406,1.107167,0.76478326,0.5305125,0.39354044,0.5153365,0.55739874,0.2328482,0.20556557,0.4913402,0.48901546,0.36183015,0.42450178,0.22423846,0.15352069,0.22319454,0.49597776,794.57874,800.2198,790.54944,782.0879,1009.7436,-0.1456298828125,0.10650634765625,0.9703369140625,1.375732421875,-3.170166015625,1.55517578125,1.0,1.0,1.0,1.0,1.0,100.0,event
15:39:30.094,1.5592457,1.3741547,0.54236776,0.64427406,1.107167,0.76478326,0.5305125,0.39354044,0.5153365,0.55739874,0.2328482,0.20556557,0.4913402,0.48901546,0.36183015,0.42450178,0.22423846,0.15352069,0.22319454,0.49597776,802.23444,813.1135,810.696,793.7729,1088.3151,-0.1456298828125,0.10650634765625,0.9703369140625,1.375732421875,-3.170166015625,1.55517578125,1.0,1.0,1.0,1.0,1.0,100.0,event
15:39:30.095,1.5592457,1.3741547,0.54236776,0.64427406,1.107167,0.76478326,0.5305125,0.39354044,0.5153365,0.55739874,0.2328482,0.20556557,0.4913402,0.48901546,0.36183015,0.42450178,0.22423846,0.15352069,0.22319454,0.49597776,795.78754,824.7985,824.7985,784.10254,779.2674,-0.1456298828125,0.10650634765625,0.9703369140625,1.375732421875,-3.170166015625,1.55517578125,1.0,1.0,1.0,1.0,1.0,100.0,event
15:39:30.095,1.5592457,1.3741547,0.54236776,0.64427406,1.107167,0.76478326,0.5305125,0.39354044,0.5153365,0.55739874,0.2328482,0.20556557,0.4913402,0.48901546,0.36183015,0.42450178,0.22423846,0.15352069,0.22319454,0.49597776,781.28204,807.8755,784.5055,771.2088,673.2967,-0.1456298828125,0.10650634765625,0.9703369140625,1.375732421875,-3.170166015625,1.55517578125,1.0,1.0,1.0,1.0,1.0,100.0,event
15:39:30.096,1.5592457,1.3741547,0.54236776,0.64427406,1.107167,0.76478326,0.5305125,0.39354044,0.5153365,0.55739874,0.2328482,0.20556557,0.4913402,0.48901546,0.36183015,0.42450178,0.22423846,0.15352069,0.22319454,0.49597776,788.5348,805.4579,787.326,784.10254,739.3773,-0.1456298828125,0.10650634765625,0.9703369140625,1.375732421875,-3.170166015625,1.55517578125,1.0,1.0,1.0,1.0,1.0,100.0,event
15:39:30.119,1.5592457,1.3741547,0.54236776,0.64427406,1.107167,0.76478326,0.5305125,0.39354044,0.5153365,0.55739874,0.2328482,0.20556557,0.4913402,0.48901546,0.36183015,0.42450178,0.22423846,0.15352069,0.22319454,0.49597776,797.3993,815.12823,805.8608,794.17584,719.2308,-0.156005859375,0.11016845703125,0.97027587890625,2.31781005859375,-0.396270751953125,0.179443359375,1.0,1.0,1.0,1.0,1.0,100.0,event
15:39:30.120,1.5592457,1.3741547,0.54236776,0.64427406,1.107167,0.76478326,0.5305125,0.39354044,0.5153365,0.55739874,0.2328482,0.20556557,0.4913402,0.48901546,0.36183015,0.42450178,0.22423846,0.15352069,0.22319454,0.49597776,802.23444,819.15753,802.23444,799.011,699.89014,-0.156005859375,0.11016845703125,0.97027587890625,2.31781005859375,-0.396270751953125,0.179443359375,1.0,1.0,1.0,1.0,1.0,100.0,event
15:39:30.121,1.5592457,1.3741547,0.54236776,0.64427406,1.107167,0.76478326,0.5305125,0.39354044,0.5153365,0.55739874,0.2328482,0.20556557,0.4913402,0.48901546,0.36183015,0.42450178,0.22423846,0.15352069,0.22319454,0.49597776,796.5934,819.9634,785.31134,795.78754,772.8205,-0.156005859375,0.11016845703125,0.97027587890625,2.31781005859375,-0.396270751953125,0.179443359375,1.0,1.0,1.0,1.0,1.0,100.0,event
15:39:30.121,1.5592457,1.3741547,0.54236776,0.64427406,1.107167,0.76478326,0.5305125,0.39354044,0.5153365,0.55739874,0.2328482,0.20556557,0.4913402,0.48901546,0.36183015,0.42450178,0.22423846,0.15352069,0.22319454,0.49597776,805.05493,816.7399,787.326,803.0403,745.42126,-0.156005859375,0.11016845703125,0.97027587890625,2.31781005859375,-0.396270751953125,0.179443359375,1.0,1.0,1.0,1.0,1.0,100.0,event
15:39:30.122,1.5592457,1.3741547,0.54236776,0.64427406,1.107167,0.76478326,0.5305125,0.39354044,0.5153365,0.55739874,0.2328482,0.20556557,0.4913402,0.48901546,0.36183015,0.42450178,0.22423846,0.15352069,0.22319454,0.49597776,796.99634,821.978,790.9524,791.75824,712.381,-0.156005859375,0.11016845703125,0.97027587890625,2.31781005859375,-0.396270751953125,0.179443359375,1.0,1.0,1.0,1.0,1.0,100.0,event
15:39:30.122,1.5592457,1.3741547,0.54236776,0.64427406,1.107167,0.76478326,0.5305125,0.39354044,0.5153365,0.55739874,0.2328482,0.20556557,0.4913402,0.48901546,0.36183015,0.42450178,0.22423846,0.15352069,0.22319454,0.49597776,796.99634,815.12823,791.75824,791.75824,753.8828,-0.156005859375,0.11016845703125,0.97027587890625,2.31781005859375,-0.396270751953125,0.179443359375,1.0,1.0,1.0,1.0,1.0,100.0,event
15:39:30.123,1.5592457,1.3741547,0.54236776,0.64427406,1.107167,0.76478326,0.5305125,0.39354044,0.5153365,0.55739874,0.2328482,0.20556557,0.4913402,0.48901546,0.36183015,0.42450178,0.22423846,0.15352069,0.22319454,0.49597776,794.57874,810.696,784.5055,796.1905,949.707,-0.156005859375,0.11016845703125,0.97027587890625,2.31781005859375,-0.396270751953125,0.179443359375,1.0,1.0,1.0,1.0,1.0,100.0,event
15:39:30.124,1.5592457,1.3741547,0.54236776,0.64427406,1.107167,0.76478326,0.5305125,0.39354044,0.5153365,0.55739874,0.2328482,0.20556557,0.4913402,0.48901546,0.36183015,0.42450178,0.22423846,0.15352069,0.22319454,0.49597776,796.5934,808.2784,780.07324,807.47253,1071.392,-0.156005859375,0.11016845703125,0.97027587890625,2.31781005859375,-0.396270751953125,0.179443359375,1.0,1.0,1.0,1.0,1.0,100.0,event
15:39:30.124,1.5592457,1.3741547,0.54236776,0.64427406,1.107167,0.76478326,0.5305125,0.39354044,0.5153365,0.55739874,0.2328482,0.20556557,0.4913402,0.48901546,0.36183015,0.42450178,0.22423846,0.15352069,0.22319454,0.49597776,798.60803,816.7399,808.68134,803.0403,891.685,-0.156005859375,0.11016845703125,0.97027587890625,2.31781005859375,-0.396270751953125,0.179443359375,1.0,1.0,1.0,1.0,1.0,100.0,event
15:39:30.125,1.5592457,1.3741547,0.54236776,0.64427406,1.107167,0.76478326,0.5305125,0.39354044,0.5153365,0.55739874,0.2328482,0.20556557,0.4913402,0.48901546,0.36183015,0.42450178,0.22423846,0.15352069,0.22319454,0.49597776,794.9817,819.9634,807.47253,782.8938,676.1172,-0.156005859375,0.11016845703125,0.97027587890625,2.31781005859375,-0.396270751953125,0.179443359375,1.0,1.0,1.0,1.0,1.0,100.0,event
15:39:30.125,1.5592457,1.3741547,0.54236776,0.64427406,1.107167,0.76478326,0.5305125,0.39354044,0.5153365,0.55739874,0.2328482,0.20556557,0.4913402,0.48901546,0.36183015,0.42450178,0.22423846,0.15352069,0.22319454,0.49597776,791.75824,809.0842,778.0586,785.7143,786.52014,-0.156005859375,0.11016845703125,0.97027587890625,2.31781005859375,-0.396270751953125,0.179443359375,1.0,1.0,1.0,1.0,1.0,100.0,event
15:39:30.126,1.5592457,1.3741547,0.54236776,0.64427406,1.107167,0.76478326,0.5305125,0.39354044,0.5153365,0.55739874,0.2328482,0.20556557,0.4913402,0.48901546,0.36183015,0.42450178,0.22423846,0.15352069,0.22319454,0.49597776,802.6374,806.26373,790.14655,796.1905,899.34064,-0.156005859375,0.11016845703125,0.97027587890625,2.31781005859375,-0.396270751953125,0.179443359375,1.0,1.0,1.0,1.0,1.0,100.0,event
15:39:30.189,1.5592457,1.3741547,0.54236776,0.64427406,1.107167,0.76478326,0.5305125,0.39354044,0.5153365,0.55739874,0.2328482,0.20556557,0.4913402,0.48901546,0.36183015,0.42450178,0.22423846,0.15352069,0.22319454,0.49597776,810.696,819.15753,815.9341,798.60803,758.71796,-0.15753173828125,0.10516357421875,0.96820068359375,1.68975830078125,-2.429962158203125,0.73272705078125,1.0,1.0,1.0,1.0,1.0,100.0,event
15:39:30.190,1.5592457,1.3741547,0.54236776,0.64427406,1.107167,0.76478326,0.5305125,0.39354044,0.5153365,0.55739874,0.2328482,0.20556557,0.4913402,0.48901546,0.36183015,0.42450178,0.22423846,0.15352069,0.22319454,0.49597776,802.6374,816.7399,799.011,791.75824,704.3223,-0.15753173828125,0.10516357421875,0.96820068359375,1.68975830078125,-2.429962158203125,0.73272705078125,1.0,1.0,1.0,1.0,1.0,100.0,event
15:39:30.190,1.5592457,1.3741547,0.54236776,0.64427406,1.107167,0.76478326,0.5305125,0.39354044,0.5153365,0.55739874,0.2328482,0.20556557,0.4913402,0.48901546,0.36183015,0.42450178,0.22423846,0.15352069,0.22319454,0.49597776,799.41394,804.65204,787.72894,785.31134,742.6007,-0.15753173828125,0.10516357421875,0.96820068359375,1.68975830078125,-2.429962158203125,0.73272705078125,1.0,1.0,1.0,1.0,1.0,100.0,event
15:39:30.191,1.5592457,1.3741547,0.54236776,0.64427406,1.107167,0.76478326,0.5305125,0.39354044,0.5153365,0.55739874,0.2328482,0.20556557,0.4913402,0.48901546,0.36183015,0.42450178,0.22423846,0.15352069,0.22319454,0.49597776,801.8315,801.4286,797.8022,793.36993,731.7216,-0.15753173828125,0.10516357421875,0.96820068359375,1.68975830078125,-2.429962158203125,0.73272705078125,1.0,1.0,1.0,1.0,1.0,100.0,event
15:39:30.192,1.5592457,1.3741547,0.54236776,0.64427406,1.107167,0.76478326,0.5305125,0.39354044,0.5153365,0.55739874,0.2328482,0.20556557,0.4913402,0.48901546,0.36183015,0.42450178,0.22423846,0.15352069,0.22319454,0.49597776,802.6374,807.0696,798.20514,797.8022,680.14655,-0.15753173828125,0.10516357421875,0.96820068359375,1.68975830078125,-2.429962158203125,0.73272705078125,1.0,1.0,1.0,1.0,1.0,100.0,event
15:39:30.192,1.5592457,1.3741547,0.61442,0.64427406,1.107167,0.76478326,0.57964396,0.39354044,0.5153365,0.55739874,0.23219915,0.20556557,0.4913402,0.48901546,0.3238303,0.42450178,0.22423846,0.15352069,0.21168049,0.49597776,804.2491,808.68134,785.31134,793.36993,736.55676,-0.15753173828125,0.10516357421875,0.96820068359375,1.68975830078125,-2.429962158203125,0.73272705078125,1.0,1.0,1.0,1.0,1.0,100.0,event
15:39:30.196,1.5592457,1.3741547,0.61442,0.64427406,1.107167,0.76478326,0.57964396,0.39354044,0.5153365,0.55739874,0.23219915,0.20556557,0.4913402,0.48901546,0.3238303,0.42450178,0.22423846,0.15352069,0.21168049,0.49597776,800.6227,804.65204,793.36993,792.5641,884.83514,-0.15753173828125,0.10516357421875,0.96820068359375,1.68975830078125,-2.429962158203125,0.73272705078125,1.0,1.0,1.0,1.0,1.0,100.0,event
15:39:30.197,1.5592457,1.3741547,0.61442,0.64427406,1.107167,0.76478326,0.57964396,0.39354044,0.5153365,0.55739874,0.23219915,0.20556557,0.4913402,0.48901546,0.3238303,0.42450178,0.22423846,0.15352069,0.21168049,0.49597776,792.96704,797.3993,803.44324,788.5348,840.9158,-0.15753173828125,0.10516357421875,0.96820068359375,1.68975830078125,-2.429962158203125,0.73272705078125,1.0,1.0,1.0,1.0,1.0,100.0,event
15:39:30.198,1.5592457,1.3741547,0.61442,0.64427406,1.107167,0.76478326,0.57964396,0.39354044,0.5153365,0.55739874,0.23219915,0.20556557,0.4913402,0.48901546,0.3238303,0.42450178,0.22423846,0.15352069,0.21168049,0.49597776,792.5641,797.3993,798.60803,780.87915,728.9011,-0.15753173828125,0.10516357421875,0.96820068359375,1.68975830078125,-2.429962158203125,0.73272705078125,1.0,1.0,1.0,1.0,1.0,100.0,event
15:39:30.198,1.5592457,1.3741547,0.61442,0.64427406,1.107167,0.76478326,0.57964396,0.39354044,0.5153365,0.55739874,0.23219915,0.20556557,0.4913402,0.48901546,0.3238303,0.42450178,0.22423846,0.15352069,0.21168049,0.49597776,813.1135,812.3077,797.3993,794.17584,729.304,-0.15753173828125,0.10516357421875,0.96820068359375,1.68975830078125,-2.429962158203125,0.73272705078125,1.0,1.0,1.0,1.0,1.0,100.0,event
15:39:30.199,1.5592457,1.3741547,0.61442,0.64427406,1.107167,0.76478326,0.57964396,0.39354044,0.5153365,0.55739874,0.23219915,0.20556557,0.4913402,0.48901546,0.3238303,0.42450178,0.22423846,0.15352069,0.21168049,0.49597776,816.337,817.5458,784.5055,807.0696,940.0366,-0.15753173828125,0.10516357421875,0.96820068359375,1.68975830078125,-2.429962158203125,0.73272705078125,1.0,1.0,1.0,1.0,1.0,100.0,event
15:39:30.200,1.5592457,1.3741547,0.61442,0.64427406,1.107167,0.76478326,0.57964396,0.39354044,0.5153365,0.55739874,0.23219915,0.20556557,0.4913402,0.48901546,0.3238303,0.42450178,0.22423846,0.15352069,0.21168049,0.49597776,803.8461,817.9487,806.26373,799.41394,1072.1978,-0.15753173828125,0.10516357421875,0.96820068359375,1.68975830078125,-2.429962158203125,0.73272705078125,1.0,1.0,1.0,1.0,1.0,100.0,event
15:39:30.226,1.5592457,1.3741547,0.61442,0.64427406,1.107167,0.76478326,0.57964396,0.39354044,0.5153365,0.55739874,0.23219915,0.20556557,0.4913402,0.48901546,0.3238303,0.42450178,0.22423846,0.15352069,0.21168049,0.49597776,803.44324,818.7546,823.1868,796.5934,783.69965,-0.17010498046875,0.10382080078125,0.9591064453125,1.667327880859375,-1.2860107421875,0.426177978515625,1.0,1.0,1.0,1.0,1.0,100.0,event
15:39:30.228,1.5592457,1.3741547,0.61442,0.64427406,1.107167,0.76478326,0.57964396,0.39354044,0.5153365,0.55739874,0.23219915,0.20556557,0.4913402,0.48901546,0.3238303,0.42450178,0.22423846,0.15352069,0.21168049,0.49597776,804.65204,809.4872,796.99634,802.6374,668.86444,-0.17010498046875,0.10382080078125,0.9591064453125,1.667327880859375,-1.2860107421875,0.426177978515625,1.0,1.0,1.0,1.0,1.0,100.0,event
15:39:30.229,1.5592457,1.3741547,0.61442,0.64427406,1.107167,0.76478326,0.57964396,0.39354044,0.5153365,0.55739874,0.23219915,0.20556557,0.4913402,0.48901546,0.3238303,0.42450178,0.22423846,0.15352069,0.21168049,0.49597776,805.8608,811.0989,804.2491,807.8755,781.685,-0.17010498046875,0.10382080078125,0.9591064453125,1.667327880859375,-1.2860107421875,0.426177978515625,1.0,1.0,1.0,1.0,1.0,100.0,event
15:39:30.230,1.5592457,1.3741547,0.61442,0.64427406,1.107167,0.76478326,0.57964396,0.39354044,0.5153365,0.55739874,0.23219915,0.20556557,0.4913402,0.48901546,0.3238303,0.42450178,0.22423846,0.15352069,0.21168049,0.49597776,810.293,821.5751,819.9634,807.0696,774.43225,-0.17010498046875,0.10382080078125,0.9591064453125,1.667327880859375,-1.2860107421875,0.426177978515625,1.0,1.0,1.0,1.0,1.0,100.0,event
15:39:30.231,1.5592457,1.3741547,0.61442,0.64427406,1.107167,0.76478326,0.57964396,0.39354044,0.5153365,0.55739874,0.23219915,0.20556557,0.4913402,0.48901546,0.3238303,0.42450178,0.22423846,0.15352069,0.21168049,0.49597776,811.50183,822.381,801.8315,805.8608,676.52014,-0.17010498046875,0.10382080078125,0.9591064453125,1.667327880859375,-1.2860107421875,0.426177978515625,1.0,1.0,1.0,1.0,1.0,100.0,event
15:39:30.232,1.5592457,1.3741547,0.61442,0.64427406,1.107167,0.76478326,0.57964396,0.39354044,0.5153365,0.55739874,0.23219915,0.20556557,0.4913402,0.48901546,0.3238303,0.42450178,0.22423846,0.15352069,0.21168049,0.49597776,809.0842,811.0989,774.83514,806.26373,789.34064,-0.17010498046875,0.10382080078125,0.9591064453125,1.667327880859375,-1.2860107421875,0.426177978515625,1.0,1.0,1.0,1.0,1.0,100.0,event
15:39:30.233,1.5592457,1.3741547,0.61442,0.64427406,1.107167,0.76478326,0.57964396,0.39354044,0.5153365,0.55739874,0.23219915,0.20556557,0.4913402,0.48901546,0.3238303,0.42450178,0.22423846,0.15352069,0.21168049,0.49597776,811.50183,811.0989,815.9341,808.68134,969.0476,-0.17010498046875,0.10382080078125,0.9591064453125,1.667327880859375,-1.2860107421875,0.426177978515625,1.0,1.0,1.0,1.0,1.0,100.0,event
15:39:30.233,1.5592457,1.3741547,0.61442,0.64427406,1.107167,0.76478326,0.57964396,0.39354044,0.5153365,0.55739874,0.23219915,0.20556557,0.4913402,0.48901546,0.3238303,0.42450178,0.22423846,0.15352069,0.21168049,0.49597776,806.6667,798.20514,784.5055,809.0842,1065.751,-0.17010498046875,0.10382080078125,0.9591064453125,1.667327880859375,-1.2860107421875,0.426177978515625,1.0,1.0,1.0,1.0,1.0,100.0,event
15:39:30.234,1.5592457,1.3741547,0.61442,0.64427406,1.107167,0.76478326,0.57964396,0.39354044,0.5153365,0.55739874,0.23219915,0.20556557,0.4913402,0.48901546,0.3238303,0.42450178,0.22423846,0.15352069,0.21168049,0.49597776,811.9048,819.15753,808.2784,803.0403,737.76556,-0.17010498046875,0.10382080078125,0.9591064453125,1.667327880859375,-1.2860107421875,0.426177978515625,1.0,1.0,1.0,1.0,1.0,100.0,event
15:39:30.235,1.5592457,1.3741547,0.61442,0.64427406,1.107167,0.76478326,0.57964396,0.39354044,0.5153365,0.55739874,0.23219915,0.20556557,0.4913402,0.48901546,0.3238303,0.42450178,0.22423846,0.15352069,0.21168049,0.49597776,811.50183,804.65204,778.86444,801.8315,788.93774,-0.17010498046875,0.10382080078125,0.9591064453125,1.667327880859375,-1.2860107421875,0.426177978515625,1.0,1.0,1.0,1.0,1.0,100.0,event
15:39:30.235,1.5592457,1.3741547,0.61442,0.64427406,1.107167,0.76478326,0.57964396,0.39354044,0.5153365,0.55739874,0.23219915,0.20556557,0.4913402,0.48901546,0.3238303,0.42450178,0.22423846,0.15352069,0.21168049,0.49597776,814.7253,808.2784,782.0879,807.0696,798.60803,-0.17010498046875,0.10382080078125,0.9591064453125,1.667327880859375,-1.2860107421875,0.426177978515625,1.0,1.0,1.0,1.0,1.0,100.0,event
15:39:30.236,1.5592457,1.3741547,0.61442,0.64427406,1.107167,0.76478326,0.57964396,0.39354044,0.5153365,0.55739874,0.23219915,0.20556557,0.4913402,0.48901546,0.3238303,0.42450178,0.22423846,0.15352069,0.21168049,0.49597776,811.0989,813.5165,804.65204,798.20514,672.49084,-0.17010498046875,0.10382080078125,0.9591064453125,1.667327880859375,-1.2860107421875,0.426177978515625,1.0,1.0,1.0,1.0,1.0,100.0,event
15:39:30.257,1.5592457,1.3741547,0.61442,0.64427406,1.107167,0.76478326,0.57964396,0.39354044,0.5153365,0.55739874,0.23219915,0.20556557,0.4913402,0.48901546,0.3238303,0.42450178,0.22423846,0.15352069,0.21168049,0.49597776,814.3223,807.8755,798.60803,797.8022,640.2564,-0.17010498046875,0.10382080078125,0.9591064453125,1.667327880859375,-1.2860107421875,0.426177978515625,1.0,1.0,1.0,1.0,1.0,100.0,event
15:39:30.258,1.5592457,1.3741547,0.61442,0.64427406,1.107167,0.76478326,0.57964396,0.39354044,0.5153365,0.55739874,0.23219915,0.20556557,0.4913402,0.48901546,0.3238303,0.42450178,0.22423846,0.15352069,0.21168049,0.49597776,810.696,803.8461,795.38464,804.2491,715.2015,-0.17010498046875,0.10382080078125,0.9591064453125,1.667327880859375,-1.2860107421875,0.426177978515625,1.0,1.0,1.0,1.0,1.0,100.0,event
15:39:30.259,1.5592457,1.3741547,0.61442,0.64427406,1.107167,0.76478326,0.57964396,0.39354044,0.5153365,0.55739874,0.23219915,0.20556557,0.4913402,0.48901546,0.3238303,0.42450178,0.22423846,0.15352069,0.21168049,0.49597776,801.02563,799.41394,796.1905,793.7729,825.2015,-0.17010498046875,0.10382080078125,0.9591064453125,1.667327880859375,-1.2860107421875,0.426177978515625,1.0,1.0,1.0,1.0,1.0,100.0,event
15:39:30.260,1.5592457,1.3741547,0.61442,0.64427406,1.107167,0.76478326,0.57964396,0.39354044,0.5153365,0.55739874,0.23219915,0.20556557,0.4913402,0.48901546,0.3238303,0.42450178,0.22423846,0.15352069,0.21168049,0.49597776,801.4286,807.0696,805.4579,790.14655,790.14655,-0.17010498046875,0.10382080078125,0.9591064453125,1.667327880859375,-1.2860107421875,0.426177978515625,1.0,1.0,1.0,1.0,1.0,100.0,event
15:39:30.260,1.5592457,1.3741547,0.61442,0.64427406,1.107167,0.76478326,0.57964396,0.39354044,0.5153365,0.55739874,0.23219915,0.20556557,0.4913402,0.48901546,0.3238303,0.42450178,0.22423846,0.15352069,0.21168049,0.49597776,796.5934,807.0696,801.8315,790.54944,648.315,-0.17010498046875,0.10382080078125,0.9591064453125,1.667327880859375,-1.2860107421875,0.426177978515625,1.0,1.0,1.0,1.0,1.0,100.0,event
15:39:30.261,1.5592457,1.3741547,0.61442,0.64427406,1.107167,0.76478326,0.57964396,0.39354044,0.5153365,0.55739874,0.23219915,0.20556557,0.4913402,0.48901546,0.3238303,0.42450178,0.22423846,0.15352069,0.21168049,0.49597776,806.26373,800.6227,794.17584,796.1905,1153.1868,-0.17010498046875,0.10382080078125,0.9591064453125,1.667327880859375,-1.2860107421875,0.426177978515625,1.0,1.0,1.0,1.0,1.0,100.0,event
15:39:30.261,1.5592457,1.3741547,0.61442,0.64427406,1.107167,0.76478326,0.57964396,0.39354044,0.5153365,0.55739874,0.23219915,0.20556557,0.4913402,0.48901546,0.3238303,0.42450178,0.22423846,0.15352069,0.21168049,0.49597776,793.36993,794.57874,766.77655,786.1172,923.5165,-0.17010498046875,0.10382080078125,0.9591064453125,1.667327880859375,-1.2860107421875,0.426177978515625,1.0,1.0,1.0,1.0,1.0,100.0,event
15:39:30.262,1.5592457,1.427407,0.61442,0.64427406,1.107167,0.8007377,0.57964396,0.39354044,0.5153365,0.4954809,0.23219915,0.20556557,0.4913402,0.492142,0.3238303,0.42450178,0.22423846,0.18174537,0.21168049,0.49597776,812.71063,817.1429,830.4396,809.4872,823.9927,-0.17010498046875,0.10382080078125,0.9591064453125,1.667327880859375,-1.2860107421875,0.426177978515625,1.0,1.0,1.0,1.0,1.0,100.0,event
15:39:30.265,1.5592457,1.427407,0.61442,0.64427406,1.107167,0.8007377,0.57964396,0.39354044,0.5153365,0.4954809,0.23219915,0.20556557,0.4913402,0.492142,0.3238303,0.42450178,0.22423846,0.18174537,0.21168049,0.49597776,805.8608,808.2784,799.41394,809.0842,655.9707,-0.17010498046875,0.10382080078125,0.9591064453125,1.667327880859375,-1.2860107421875,0.426177978515625,1.0,1.0,1.0,1.0,1.0,100.0,event
15:39:30.266,1.5592457,1.427407,0.61442,0.64427406,1.107167,0.8007377,0.57964396,0.39354044,0.5153365,0.4954809,0.23219915,0.20556557,0.4913402,0.492142,0.3238303,0.42450178,0.22423846,0.18174537,0.21168049,0.49597776,799.011,794.17584,800.2198,798.60803,805.05493,-0.17010498046875,0.10382080078125,0.9591064453125,1.667327880859375,-1.2860107421875,0.426177978515625,1.0,1.0,1.0,1.0,1.0,100.0,event
15:39:30.267,1.5592457,1.427407,0.61442,0.64427406,1.107167,0.8007377,0.57964396,0.39354044,0.5153365,0.4954809,0.23219915,0.20556557,0.4913402,0.492142,0.3238303,0.42450178,0.22423846,0.18174537,0.21168049,0.49597776,802.6374,794.57874,819.15753,798.60803,803.0403,-0.17010498046875,0.10382080078125,0.9591064453125,1.667327880859375,-1.2860107421875,0.426177978515625,1.0,1.0,1.0,1.0,1.0,100.0,event
15:39:30.267,1.5592457,1.427407,0.61442,0.64427406,1.107167,0.8007377,0.57964396,0.39354044,0.5153365,0.4954809,0.23219915,0.20556557,0.4913402,0.492142,0.3238303,0.42450178,0.22423846,0.18174537,0.21168049,0.49597776,801.4286,795.38464,808.2784,797.3993,694.2491,-0.17010498046875,0.10382080078125,0.9591064453125,1.667327880859375,-1.2860107421875,0.426177978515625,1.0,1.0,1.0,1.0,1.0,100.0,event
15:39:30.333,1.5592457,1.427407,0.61442,0.64427406,1.107167,0.8007377,0.57964396,0.39354044,0.5153365,0.4954809,0.23219915,0.20556557,0.4913402,0.492142,0.3238303,0.42450178,0.22423846,0.18174537,0.21168049,0.49597776,794.9817,791.3553,787.72894,788.1319,728.9011,-0.17218017578125,0.1021728515625,0.96893310546875,1.92901611328125,-2.87109375,0.01495361328125,1.0,1.0,1.0,1.0,1.0,100.0,event
15:39:30.335,1.5592457,1.427407,0.61442,0.64427406,1.107167,0.8007377,0.57964396,0.39354044,0.5153365,0.4954809,0.23219915,0.20556557,0.4913402,0.492142,0.3238303,0.42450178,0.22423846,0.18174537,0.21168049,0.49597776,790.14655,793.7729,785.31134,793.7729,758.71796,-0.17218017578125,0.1021728515625,0.96893310546875,1.92901611328125,-2.87109375,0.01495361328125,1.0,1.0,1.0,1.0,1.0,100.0,event
15:39:30.336,1.5592457,1.427407,0.61442,0.64427406,1.107167,0.8007377,0.57964396,0.39354044,0.5153365,0.4954809,0.23219915,0.20556557,0.4913402,0.492142,0.3238303,0.42450178,0.22423846,0.18174537,0.21168049,0.49597776,788.5348,799.81683,797.8022,795.78754,708.3516,-0.17218017578125,0.1021728515625,0.96893310546875,1.92901611328125,-2.87109375,0.01495361328125,1.0,1.0,1.0,1.0,1.0,100.0,event
15:39:30.337,1.5592457,1.427407,0.61442,0.64427406,1.107167,0.8007377,0.57964396,0.39354044,0.5153365,0.4954809,0.23219915,0.20556557,0.4913402,0.492142,0.3238303,0.42450178,0.22423846,0.18174537,0.21168049,0.49597776,794.17584,802.23444,802.6374,796.5934,641.06226,-0.17218017578125,0.1021728515625,0.96893310546875,1.92901611328125,-2.87109375,0.01495361328125,1.0,1.0,1.0,1.0,1.0,100.0,event
15:39:30.338,1.5592457,1.427407,0.61442,0.64427406,1.107167,0.8007377,0.57964396,0.39354044,0.5153365,0.4954809,0.23219915,0.20556557,0.4913402,0.492142,0.3238303,0.42450178,0.22423846,0.18174537,0.21168049,0.49597776,797.8022,801.02563,790.54944,804.2491,761.53845,-0.17218017578125,0.1021728515625,0.96893310546875,1.92901611328125,-2.87109375,0.01495361328125,1.0,1.0,1.0,1.0,1.0,100.0,event
15:39:30.339,1.5592457,1.427407,0.61442,0.64427406,1.107167,0.8007377,0.57964396,0.39354044,0.5153365,0.4954809,0.23219915,0.20556557,0.4913402,0.492142,0.3238303,0.42450178,0.22423846,0.18174537,0.21168049,0.49597776,800.2198,800.6227,784.10254,798.60803,994.0293,-0.17218017578125,0.1021728515625,0.96893310546875,1.92901611328125,-2.87109375,0.01495361328125,1.0,1.0,1.0,1.0,1.0,100.0,event
15:39:30.339,1.5592457,1.427407,0.61442,0.64427406,1.107167,0.8007377,0.57964396,0.39354044,0.5153365,0.4954809,0.23219915,0.20556557,0.4913402,0.492142,0.3238303,0.42450178,0.22423846,0.18174537,0.21168049,0.49597776,800.6227,801.8315,797.3993,794.9817,960.58606,-0.17218017578125,0.1021728515625,0.96893310546875,1.92901611328125,-2.87109375,0.01495361328125,1.0,1.0,1.0,1.0,1.0,100.0,event
15:39:30.340,1.5592457,1.427407,0.61442,0.64427406,1.107167,0.8007377,0.57964396,0.39354044,0.5153365,0.4954809,0.23219915,0.20556557,0.4913402,0.492142,0.3238303,0.42450178,0.22423846,0.18174537,0.21168049,0.49597776,803.44324,805.4579,814.3223,796.99634,860.65936,-0.17218017578125,0.1021728515625,0.96893310546875,1.92901611328125,-2.87109375,0.01495361328125,1.0,1.0,1.0,1.0,1.0,100.0,event
15:39:30.341,1.5592457,1.427407,0.61442,0.64427406,1.107167,0.8007377,0.57964396,0.39354044,0.5153365,0.4954809,0.23219915,0.20556557,0.4913402,0.492142,0.3238303,0.42450178,0.22423846,0.18174537,0.21168049,0.49597776,800.2198,808.2784,800.6227,790.9524,830.4396,-0.17218017578125,0.1021728515625,0.96893310546875,1.92901611328125,-2.87109375,0.01495361328125,1.0,1.0,1.0,1.0,1.0,100.0,event
15:39:30.341,1.5592457,1.427407,0.61442,0.64427406,1.107167,0.8007377,0.57964396,0.39354044,0.5153365,0.4954809,0.23219915,0.20556557,0.4913402,0.492142,0.3238303,0.42450178,0.22423846,0.18174537,0.21168049,0.49597776,796.99634,800.6227,791.75824,795.38464,1012.5641,-0.17218017578125,0.1021728515625,0.96893310546875,1.92901611328125,-2.87109375,0.01495361328125,1.0,1.0,1.0,1.0,1.0,100.0,event
15:39:30.342,1.5592457,1.427407,0.61442,0.64427406,1.107167,0.8007377,0.57964396,0.39354044,0.5153365,0.4954809,0.23219915,0.20556557,0.4913402,0.492142,0.3238303,0.42450178,0.22423846,0.18174537,0.21168049,0.49597776,798.20514,799.41394,829.6337,791.3553,913.44324,-0.17218017578125,0.1021728515625,0.96893310546875,1.92901611328125,-2.87109375,0.01495361328125,1.0,1.0,1.0,1.0,1.0,100.0,event
15:39:30.343,1.5592457,1.427407,0.61442,0.64427406,1.107167,0.8007377,0.57964396,0.39354044,0.5153365,0.4954809,0.23219915,0.20556557,0.4913402,0.492142,0.3238303,0.42450178,0.22423846,0.18174537,0.21168049,0.49597776,790.54944,791.75824,813.91943,777.6557,699.4872,-0.17218017578125,0.1021728515625,0.96893310546875,1.92901611328125,-2.87109375,0.01495361328125,1.0,1.0,1.0,1.0,1.0,100.0,event
15:39:30.378,1.5592457,1.427407,0.61442,0.64427406,1.107167,0.8007377,0.57964396,0.39354044,0.5153365,0.4954809,0.23219915,0.20556557,0.4913402,0.492142,0.3238303,0.42450178,0.22423846,0.18174537,0.21168049,0.49597776,792.96704,792.5641,801.02563,788.5348,727.28937,-0.16119384765625,0.1007080078125,0.96673583984375,1.936492919921875,-2.94586181640625,0.059814453125,1.0,1.0,1.0,1.0,1.0,100.0,event
15:39:30.379,1.5592457,1.427407,0.61442,0.64427406,1.107167,0.8007377,0.57964396,0.39354044,0.5153365,0.4954809,0.23219915,0.20556557,0.4913402,0.492142,0.3238303,0.42450178,0.22423846,0.18174537,0.21168049,0.49597776,794.57874,806.6667,814.7253,796.99634,708.3516,-0.16119384765625,0.1007080078125,0.96673583984375,1.936492919921875,-2.94586181640625,0.059814453125,1.0,1.0,1.0,1.0,1.0,100.0,event
15:39:30.379,1.5592457,1.427407,0.61442,0.64427406,1.107167,0.8007377,0.57964396,0.39354044,0.5153365,0.4954809,0.23219915,0.20556557,0.4913402,0.492142,0.3238303,0.42450178,0.22423846,0.18174537,0.21168049,0.49597776,801.8315,811.0989,809.89014,796.1905,651.53845,-0.16119384765625,0.1007080078125,0.96673583984375,1.936492919921875,-2.94586181640625,0.059814453125,1.0,1.0,1.0,1.0,1.0,100.0,event
15:39:30.380,1.5592457,1.427407,0.61442,0.64427406,1.107167,0.8007377,0.57964396,0.39354044,0.5153365,0.4954809,0.23219915,0.20556557,0.4913402,0.492142,0.3238303,0.42450178,0.22423846,0.18174537,0.21168049,0.49597776,792.1612,797.3993,789.34064,785.7143,653.95605,-0.16119384765625,0.1007080078125,0.96673583984375,1.936492919921875,-2.94586181640625,0.059814453125,1.0,1.0,1.0,1.0,1.0,100.0,event
15:39:30.380,1.5592457,1.427407,0.61442,0.64427406,1.107167,0.8007377,0.57964396,0.39354044,0.5153365,0.4954809,0.23219915,0.20556557,0.4913402,0.492142,0.3238303,0.42450178,0.22423846,0.18174537,0.21168049,0.49597776,804.2491,804.65204,801.02563,794.57874,608.8278,-0.16119384765625,0.1007080078125,0.96673583984375,1.936492919921875,-2.94586181640625,0.059814453125,1.0,1.0,1.0,1.0,1.0,100.0,event
15:39:30.381,1.5592457,1.427407,0.61442,0.64427406,1.107167,0.8007377,0.57964396,0.39354044,0.5153365,0.4954809,0.23219915,0.20556557,0.4913402,0.492142,0.3238303,0.42450178,0.22423846,0.18174537,0.21168049,0.49597776,794.17584,795.38464,804.65204,784.5055,839.707,-0.16119384765625,0.1007080078125,0.96673583984375,1.936492919921875,-2.94586181640625,0.059814453125,1.0,1.0,1.0,1.0,1.0,100.0,event
15:39:30.381,1.5592457,1.427407,0.61442,0.64427406,1.107167,0.8007377,0.57964396,0.39354044,0.5153365,0.4954809,0.23219915,0.20556557,0.4913402,0.492142,0.3238303,0.42450178,0.22423846,0.18174537,0.21168049,0.49597776,792.1612,790.54944,792.1612,781.685,738.97437,-0.16119384765625,0.1007080078125,0.96673583984375,1.936492919921875,-2.94586181640625,0.059814453125,1.0,1.0,1.0,1.0,1.0,100.0,event
15:39:30.382,1.5592457,1.427407,0.61442,0.64427406,1.107167,0.8007377,0.57964396,0.39354044,0.5153365,0.4954809,0.23219915,0.20556557,0.4913402,0.492142,0.3238303,0.42450178,0.22423846,0.18174537,0.21168049,0.49597776,788.93774,799.81683,808.2784,786.1172,771.6117,-0.16119384765625,0.1007080078125,0.96673583984375,1.936492919921875,-2.94586181640625,0.059814453125,1.0,1.0,1.0,1.0,1.0,100.0,event
15:39:30.382,1.5592457,1.427407,0.61442,0.64427406,1.107167,0.8007377,0.57964396,0.39354044,0.5153365,0.4954809,0.23219915,0.20556557,0.4913402,0.492142,0.3238303,0.42450178,0.22423846,0.18174537,0.21168049,0.49597776,790.54944,783.69965,777.6557,790.54944,961.39197,-0.16119384765625,0.1007080078125,0.96673583984375,1.936492919921875,-2.94586181640625,0.059814453125,1.0,1.0,1.0,1.0,1.0,100.0,event
15:39:30.383,1.5592457,1.427407,0.61442,0.64427406,1.107167,0.8007377,0.57964396,0.39354044,0.5153365,0.4954809,0.23219915,0.20556557,0.4913402,0.492142,0.3238303,0.42450178,0.22423846,0.18174537,0.21168049,0.49597776,798.20514,791.3553,794.9817,794.9817,1174.5421,-0.16119384765625,0.1007080078125,0.96673583984375,1.936492919921875,-2.94586181640625,0.059814453125,1.0,2.0,1.0,1.0,2.0,100.0,event
15:39:30.387,1.5592457,1.427407,0.61442,0.64427406,1.107167,0.8007377,0.57964396,0.39354044,0.5153365,0.4954809,0.23219915,0.20556557,0.4913402,0.492142,0.3238303,0.42450178,0.22423846,0.18174537,0.21168049,0.49597776,795.38464,811.50183,825.6044,795.78754,855.0183,-0.16119384765625,0.1007080078125,0.96673583984375,1.936492919921875,-2.94586181640625,0.059814453125,1.0,2.0,1.0,1.0,2.0,100.0,event
15:39:30.388,1.5592457,1.427407,0.61442,0.64427406,1.107167,0.8007377,0.57964396,0.39354044,0.5153365,0.4954809,0.23219915,0.20556557,0.4913402,0.492142,0.3238303,0.42450178,0.22423846,0.18174537,0.21168049,0.49597776,798.20514,805.4579,793.36993,792.1612,736.55676,-0.16119384765625,0.1007080078125,0.96673583984375,1.936492919921875,-2.94586181640625,0.059814453125,1.0,2.0,1.0,1.0,2.0,100.0,event
15:39:30.415,1.5592457,1.427407,0.61442,0.64427406,1.107167,0.8007377,0.57964396,0.39354044,0.5153365,0.4954809,0.23219915,0.20556557,0.4913402,0.492142,0.3238303,0.42450178,0.22423846,0.18174537,0.21168049,0.49597776,809.4872,803.8461,791.3553,788.5348,791.3553,-0.16455078125,0.10406494140625,0.96826171875,2.280426025390625,-3.289794921875,0.43365478515625,1.0,2.0,1.0,1.0,2.0,100.0,event
15:39:30.417,1.5592457,1.427407,0.61442,0.64427406,1.107167,0.8007377,0.57964396,0.39354044,0.5153365,0.4954809,0.23219915,0.20556557,0.4913402,0.492142,0.3238303,0.42450178,0.22423846,0.18174537,0.21168049,0.49597776,811.0989,812.3077,802.6374,794.9817,768.7912,-0.16455078125,0.10406494140625,0.96826171875,2.280426025390625,-3.289794921875,0.43365478515625,1.0,2.0,1.0,1.0,2.0,100.0,event
15:39:30.418,1.5592457,1.427407,0.61442,0.64427406,1.107167,0.8007377,0.57964396,0.39354044,0.5153365,0.4954809,0.23219915,0.20556557,0.4913402,0.492142,0.3238303,0.42450178,0.22423846,0.18174537,0.21168049,0.49597776,809.89014,812.71063,798.20514,796.99634,731.31866,-0.16455078125,0.10406494140625,0.96826171875,2.280426025390625,-3.289794921875,0.43365478515625,1.0,2.0,1.0,1.0,2.0,100.0,event
15:39:30.419,1.5592457,1.427407,0.61442,0.64427406,1.107167,0.8007377,0.57964396,0.39354044,0.5153365,0.4954809,0.23219915,0.20556557,0.4913402,0.492142,0.3238303,0.42450178,0.22423846,0.18174537,0.21168049,0.49597776,807.8755,811.0989,785.7143,800.6227,728.0952,-0.16455078125,0.10406494140625,0.96826171875,2.280426025390625,-3.289794921875,0.43365478515625,1.0,2.0,1.0,1.0,2.0,100.0,event
15:39:30.420,1.5592457,1.427407,0.61442,0.64427406,1.107167,0.8007377,0.57964396,0.39354044,0.5153365,0.4954809,0.23219915,0.20556557,0.4913402,0.492142,0.3238303,0.42450178,0.22423846,0.18174537,0.21168049,0.49597776,816.337,812.71063,795.78754,809.89014,755.4945,-0.16455078125,0.10406494140625,0.96826171875,2.280426025390625,-3.289794921875,0.43365478515625,1.0,2.0,1.0,1.0,2.0,100.0,event
15:39:30.421,1.5592457,1.427407,0.61442,0.64427406,1.107167,0.8007377,0.57964396,0.39354044,0.5153365,0.4954809,0.23219915,0.20556557,0.4913402,0.492142,0.3238303,0.42450178,0.22423846,0.18174537,0.21168049,0.49597776,821.5751,811.9048,805.8608,817.9487,830.4396,-0.16455078125,0.10406494140625,0.96826171875,2.280426025390625,-3.289794921875,0.43365478515625,1.0,2.0,1.0,1.0,2.0,100.0,event
15:39:30.424,1.5592457,1.427407,0.61442,0.64427406,1.107167,0.8007377,0.57964396,0.39354044,0.5153365,0.4954809,0.23219915,0.20556557,0.4913402,0.492142,0.3238303,0.42450178,0.22423846,0.18174537,0.21168049,0.49597776,816.337,807.0696,803.0403,813.5165,863.0769,-0.16455078125,0.10406494140625,0.96826171875,2.280426025390625,-3.289794921875,0.43365478515625,1.0,2.0,1.0,1.0,2.0,100.0,event
15:39:30.425,1.5592457,1.427407,0.61442,0.64427406,1.107167,0.8007377,0.57964396,0.39354044,0.5153365,0.4954809,0.23219915,0.20556557,0.4913402,0.492142,0.3238303,0.42450178,0.22423846,0.18174537,0.21168049,0.49597776,820.7692,806.6667,784.5055,811.0989,840.9158,-0.16455078125,0.10406494140625,0.96826171875,2.280426025390625,-3.289794921875,0.43365478515625,1.0,2.0,1.0,1.0,2.0,100.0,event
15:39:30.426,1.5592457,1.427407,0.61442,0.64427406,1.107167,0.8007377,0.57964396,0.39354044,0.5153365,0.4954809,0.23219915,0.20556557,0.4913402,0.492142,0.3238303,0.42450178,0.22423846,0.18174537,0.21168049,0.49597776,821.1722,807.47253,783.2967,814.7253,967.4359,-0.16455078125,0.10406494140625,0.96826171875,2.280426025390625,-3.289794921875,0.43365478515625,1.0,2.0,1.0,1.0,2.0,100.0,event
15:39:30.428,1.5592457,1.427407,0.61442,0.64427406,1.107167,0.8007377,0.57964396,0.39354044,0.5153365,0.4954809,0.23219915,0.20556557,0.4913402,0.492142,0.3238303,0.42450178,0.22423846,0.18174537,0.21168049,0.49597776,815.9341,821.5751,822.7839,809.4872,859.0476,-0.16455078125,0.10406494140625,0.96826171875,2.280426025390625,-3.289794921875,0.43365478515625,1.0,2.0,1.0,1.0,2.0,100.0,event
15:39:30.430,1.5592457,1.427407,0.61442,0.64427406,1.107167,0.8007377,0.57964396,0.39354044,0.5153365,0.4954809,0.23219915,0.20556557,0.4913402,0.492142,0.3238303,0.42450178,0.22423846,0.18174537,0.21168049,0.49597776,817.9487,831.2454,808.2784,806.26373,695.8608,-0.16455078125,0.10406494140625,0.96826171875,2.280426025390625,-3.289794921875,0.43365478515625,1.0,2.0,1.0,1.0,2.0,100.0,event
15:39:30.431,1.5592457,1.427407,0.61442,0.64427406,1.107167,0.8007377,0.57964396,0.39354044,0.5153365,0.4954809,0.23219915,0.20556557,0.4913402,0.492142,0.3238303,0.42450178,0.22423846,0.18174537,0.21168049,0.49597776,818.3516,813.1135,777.25275,811.50183,868.71796,-0.16455078125,0.10406494140625,0.96826171875,2.280426025390625,-3.289794921875,0.43365478515625,1.0,2.0,1.0,1.0,2.0,100.0,event
15:39:30.458,1.5592457,1.427407,0.61442,0.64427406,1.107167,0.8007377,0.57964396,0.39354044,0.5153365,0.4954809,0.23219915,0.20556557,0.4913402,0.492142,0.3238303,0.42450178,0.22423846,0.18174537,0.21168049,0.49597776,817.5458,805.8608,792.5641,813.5165,857.03296,-0.16436767578125,0.10797119140625,0.9703369140625,2.190704345703125,-3.349609375,0.545806884765625,1.0,2.0,1.0,1.0,2.0,100.0,event
15:39:30.459,1.5592457,1.427407,0.61442,0.64427406,1.107167,0.8007377,0.57964396,0.39354044,0.5153365,0.4954809,0.23219915,0.20556557,0.4913402,0.492142,0.3238303,0.42450178,0.22423846,0.18174537,0.21168049,0.49597776,815.12823,811.0989,806.6667,814.7253,685.78754,-0.16436767578125,0.10797119140625,0.9703369140625,2.190704345703125,-3.349609375,0.545806884765625,1.0,2.0,1.0,1.0,2.0,100.0,event
15:39:30.459,1.5592457,1.427407,0.61442,0.64427406,1.107167,0.8007377,0.57964396,0.39354044,0.5153365,0.4954809,0.23219915,0.20556557,0.4913402,0.492142,0.3238303,0.42450178,0.22423846,0.18174537,0.21168049,0.49597776,818.7546,819.15753,795.78754,809.0842,698.68134,-0.16436767578125,0.10797119140625,0.9703369140625,2.190704345703125,-3.349609375,0.545806884765625,1.0,2.0,1.0,1.0,2.0,100.0,event
15:39:30.460,1.5592457,1.427407,0.61442,0.64427406,1.107167,0.8007377,0.57964396,0.39354044,0.5153365,0.4954809,0.23219915,0.20556557,0.4913402,0.492142,0.3238303,0.42450178,0.22423846,0.18174537,0.21168049,0.49597776,817.5458,801.02563,793.36993,810.696,903.7729,-0.16436767578125,0.10797119140625,0.9703369140625,2.190704345703125,-3.349609375,0.545806884765625,1.0,2.0,1.0,1.0,2.0,100.0,event
15:39:30.460,1.5592457,1.427407,0.61442,0.64427406,1.107167,0.8007377,0.57964396,0.39354044,0.5153365,0.4954809,0.23219915,0.20556557,0.4913402,0.492142,0.3238303,0.42450178,0.22423846,0.18174537,0.21168049,0.49597776,827.619,816.337,803.0403,807.0696,787.72894,-0.16436767578125,0.10797119140625,0.9703369140625,2.190704345703125,-3.349609375,0.545806884765625,1.0,2.0,1.0,1.0,2.0,100.0,event
15:39:30.460,1.5592457,1.427407,0.61442,0.64427406,1.107167,0.8007377,0.57964396,0.39354044,0.5153365,0.4954809,0.23219915,0.20556557,0.4913402,0.492142,0.3238303,0.42450178,0.22423846,0.18174537,0.21168049,0.49597776,820.7692,803.0403,804.2491,813.91943,831.2454,-0.16436767578125,0.10797119140625,0.9703369140625,2.190704345703125,-3.349609375,0.545806884765625,1.0,2.0,1.0,1.0,2.0,100.0,event
15:39:30.461,1.5592457,1.427407,0.61442,0.64427406,1.107167,0.8007377,0.57964396,0.39354044,0.5153365,0.4954809,0.23219915,0.20556557,0.4913402,0.492142,0.3238303,0.42450178,0.22423846,0.18174537,0.21168049,0.49597776,821.1722,803.0403,804.2491,811.50183,899.34064,-0.16436767578125,0.10797119140625,0.9703369140625,2.190704345703125,-3.349609375,0.545806884765625,1.0,2.0,1.0,1.0,2.0,100.0,event
15:39:30.461,1.5592457,1.427407,0.61442,0.64427406,1.107167,0.8007377,0.57964396,0.39354044,0.5153365,0.4954809,0.23219915,0.20556557,0.4913402,0.492142,0.3238303,0.42450178,0.22423846,0.18174537,0.21168049,0.49597776,820.7692,797.8022,794.17584,811.9048,927.1429,-0.16436767578125,0.10797119140625,0.9703369140625,2.190704345703125,-3.349609375,0.545806884765625,1.0,2.0,1.0,1.0,2.0,100.0,event
15:39:30.462,1.5592457,1.427407,0.61442,0.64427406,1.107167,0.8007377,0.57964396,0.39354044,0.5153365,0.4954809,0.23219915,0.20556557,0.4913402,0.492142,0.3238303,0.42450178,0.22423846,0.18174537,0.21168049,0.49597776,813.91943,801.4286,802.6374,806.6667,1012.5641,-0.16436767578125,0.10797119140625,0.9703369140625,2.190704345703125,-3.349609375,0.545806884765625,1.0,2.0,1.0,1.0,2.0,100.0,event
15:39:30.462,1.5592457,1.427407,0.61442,0.64427406,1.107167,0.8007377,0.57964396,0.39354044,0.5153365,0.4954809,0.23219915,0.20556557,0.4913402,0.492142,0.3238303,0.42450178,0.22423846,0.18174537,0.21168049,0.49597776,816.7399,815.5311,822.7839,814.3223,794.57874,-0.16436767578125,0.10797119140625,0.9703369140625,2.190704345703125,-3.349609375,0.545806884765625,1.0,2.0,1.0,1.0,2.0,100.0,event
15:39:30.463,1.5592457,1.427407,0.61442,0.64427406,1.107167,0.8007377,0.57964396,0.39354044,0.5153365,0.4954809,0.23219915,0.20556557,0.4913402,0.492142,0.3238303,0.42450178,0.22423846,0.18174537,0.21168049,0.49597776,821.1722,809.89014,805.05493,822.7839,759.92676,-0.16436767578125,0.10797119140625,0.9703369140625,2.190704345703125,-3.349609375,0.545806884765625,1.0,2.0,1.0,1.0,2.0,100.0,event
15:39:30.463,1.5592457,1.427407,0.61442,0.64427406,1.107167,0.8007377,0.57964396,0.39354044,0.5153365,0.4954809,0.23219915,0.20556557,0.4913402,0.492142,0.3238303,0.42450178,0.22423846,0.18174537,0.21168049,0.49597776,815.9341,804.65204,799.81683,811.9048,791.3553,-0.16436767578125,0.10797119140625,0.9703369140625,2.190704345703125,-3.349609375,0.545806884765625,1.0,2.0,1.0,1.0,2.0,100.0,event
15:39:30.507,1.5592457,1.427407,0.61442,0.64427406,1.107167,0.8007377,0.57964396,0.39354044,0.5153365,0.4954809,0.23219915,0.20556557,0.4913402,0.492142,0.3238303,0.42450178,0.22423846,0.18174537,0.21168049,0.49597776,824.7985,808.2784,811.9048,813.5165,693.44324,-0.16436767578125,0.10797119140625,0.9703369140625,2.190704345703125,-3.349609375,0.545806884765625,1.0,2.0,1.0,1.0,2.0,100.0,event
15:39:30.509,1.5592457,1.427407,0.61442,0.64427406,1.107167,0.8007377,0.57964396,0.39354044,0.5153365,0.4954809,0.23219915,0.20556557,0.4913402,0.492142,0.3238303,0.42450178,0.22423846,0.18174537,0.21168049,0.49597776,805.8608,796.99634,790.14655,801.4286,778.46155,-0.16436767578125,0.10797119140625,0.9703369140625,2.190704345703125,-3.349609375,0.545806884765625,1.0,2.0,1.0,1.0,2.0,100.0,event
15:39:30.509,1.5592457,1.427407,0.61442,0.64427406,1.107167,0.8007377,0.57964396,0.39354044,0.5153365,0.4954809,0.23219915,0.20556557,0.4913402,0.492142,0.3238303,0.42450178,0.22423846,0.18174537,0.21168049,0.49597776,819.9634,804.2491,808.68134,810.696,682.96704,-0.16436767578125,0.10797119140625,0.9703369140625,2.190704345703125,-3.349609375,0.545806884765625,1.0,2.0,1.0,1.0,2.0,100.0,event
15:39:30.510,1.5592457,1.427407,0.61442,0.64427406,1.107167,0.8007377,0.57964396,0.39354044,0.5153365,0.4954809,0.23219915,0.20556557,0.4913402,0.492142,0.3238303,0.42450178,0.22423846,0.18174537,0.21168049,0.49597776,806.26373,796.99634,792.1612,803.0403,817.1429,-0.16436767578125,0.10797119140625,0.9703369140625,2.190704345703125,-3.349609375,0.545806884765625,1.0,2.0,1.0,1.0,2.0,100.0,event
15:39:30.511,1.5592457,1.427407,0.61442,0.64427406,1.107167,0.8007377,0.57964396,0.39354044,0.5153365,0.4954809,0.23219915,0.20556557,0.4913402,0.492142,0.3238303,0.42450178,0.22423846,0.18174537,0.21168049,0.49597776,805.05493,797.3993,801.4286,804.65204,767.98535,-0.16436767578125,0.10797119140625,0.9703369140625,2.190704345703125,-3.349609375,0.545806884765625,1.0,2.0,1.0,1.0,2.0,100.0,event
15:39:30.512,1.5592457,1.427407,0.61442,0.64427406,1.107167,0.8007377,0.57964396,0.39354044,0.5153365,0.4954809,0.23219915,0.20556557,0.4913402,0.492142,0.3238303,0.42450178,0.22423846,0.18174537,0.21168049,0.49597776,801.8315,795.38464,790.54944,801.8315,801.4286,-0.16436767578125,0.10797119140625,0.9703369140625,2.190704345703125,-3.349609375,0.545806884765625,1.0,2.0,1.0,1.0,2.0,100.0,event
15:39:30.512,1.5592457,1.427407,0.61442,0.64427406,1.107167,0.8007377,0.57964396,0.39354044,0.5153365,0.4954809,0.23219915,0.20556557,0.4913402,0.492142,0.3238303,0.42450178,0.22423846,0.18174537,0.21168049,0.49597776,798.20514,794.9817,779.67035,799.41394,893.2967,-0.16436767578125,0.10797119140625,0.9703369140625,2.190704345703125,-3.349609375,0.545806884765625,1.0,2.0,1.0,1.0,2.0,100.0,event
15:39:30.513,1.5592457,1.427407,0.61442,0.64427406,1.107167,0.8007377,0.57964396,0.39354044,0.5153365,0.4954809,0.23219915,0.20556557,0.4913402,0.492142,0.3238303,0.42450178,0.22423846,0.18174537,0.21168049,0.49597776,799.011,796.1905,789.34064,803.8461,856.63007,-0.16436767578125,0.10797119140625,0.9703369140625,2.190704345703125,-3.349609375,0.545806884765625,1.0,2.0,1.0,1.0,2.0,100.0,event
15:39:30.514,1.5592457,1.427407,0.61442,0.64427406,1.107167,0.8007377,0.57964396,0.39354044,0.5153365,0.4954809,0.23219915,0.20556557,0.4913402,0.492142,0.3238303,0.42450178,0.22423846,0.18174537,0.21168049,0.49597776,801.4286,799.011,801.4286,790.9524,741.39197,-0.16436767578125,0.10797119140625,0.9703369140625,2.190704345703125,-3.349609375,0.545806884765625,1.0,2.0,1.0,1.0,2.0,100.0,event
15:39:30.514,1.5592457,1.427407,0.61442,0.64427406,1.107167,0.8007377,0.57964396,0.39354044,0.5153365,0.4954809,0.23219915,0.20556557,0.4913402,0.492142,0.3238303,0.42450178,0.22423846,0.18174537,0.21168049,0.49597776,801.8315,803.44324,794.17584,785.31134,706.7399,-0.16436767578125,0.10797119140625,0.9703369140625,2.190704345703125,-3.349609375,0.545806884765625,1.0,2.0,1.0,1.0,2.0,100.0,event
15:39:30.515,1.5592457,1.427407,0.61442,0.64427406,1.107167,0.8007377,0.57964396,0.39354044,0.5153365,0.4954809,0.23219915,0.20556557,0.4913402,0.492142,0.3238303,0.42450178,0.22423846,0.18174537,0.21168049,0.49597776,798.60803,804.2491,768.7912,793.7729,776.04395,-0.16436767578125,0.10797119140625,0.9703369140625,2.190704345703125,-3.349609375,0.545806884765625,1.0,2.0,1.0,1.0,2.0,100.0,event
15:39:30.515,1.5592457,1.427407,0.61442,0.64427406,1.107167,0.8007377,0.57964396,0.39354044,0.5153365,0.4954809,0.23219915,0.20556557,0.4913402,0.492142,0.3238303,0.42450178,0.22423846,0.18174537,0.21168049,0.49597776,803.8461,806.6667,775.64105,801.4286,1004.10254,-0.16436767578125,0.10797119140625,0.9703369140625,2.190704345703125,-3.349609375,0.545806884765625,1.0,2.0,1.0,1.0,2.0,100.0,event
15:39:30.554,1.5592457,1.427407,0.61442,0.64427406,1.107167,0.8007377,0.57964396,0.39354044,0.5153365,0.4954809,0.23219915,0.20556557,0.4913402,0.492142,0.3238303,0.42450178,0.22423846,0.18174537,0.21168049,0.49597776,811.9048,815.5311,826.8132,802.6374,835.6777,-0.16339111328125,0.10919189453125,0.9678955078125,1.973876953125,-3.342132568359375,0.874786376953125,1.0,2.0,1.0,1.0,2.0,100.0,event
15:39:30.555,1.5592457,1.427407,0.61442,0.64427406,1.107167,0.8007377,0.57964396,0.39354044,0.5153365,0.4954809,0.23219915,0.20556557,0.4913402,0.492142,0.3238303,0.42450178,0.22423846,0.18174537,0.21168049,0.49597776,808.68134,809.89014,808.2784,801.4286,620.10986,-0.16339111328125,0.10919189453125,0.9678955078125,1.973876953125,-3.342132568359375,0.874786376953125,1.0,2.0,1.0,1.0,2.0,100.0,event
15:39:30.556,1.5592457,1.427407,0.61442,0.64427406,1.107167,0.8007377,0.57964396,0.39354044,0.5153365,0.4954809,0.23219915,0.20556557,0.4913402,0.492142,0.3238303,0.42450178,0.22423846,0.18174537,0.21168049,0.49597776,806.26373,807.0696,788.5348,803.44324,723.2601,-0.16339111328125,0.10919189453125,0.9678955078125,1.973876953125,-3.342132568359375,0.874786376953125,1.0,2.0,1.0,1.0,2.0,100.0,event
15:39:30.557,1.5592457,1.427407,0.61442,0.64427406,1.107167,0.8007377,0.57964396,0.39354044,0.5153365,0.4954809,0.23219915,0.20556557,0.4913402,0.492142,0.3238303,0.42450178,0.22423846,0.18174537,0.21168049,0.49597776,807.8755,809.89014,799.81683,801.8315,742.6007,-0.16339111328125,0.10919189453125,0.9678955078125,1.973876953125,-3.342132568359375,0.874786376953125,1.0,2.0,1.0,1.0,2.0,100.0,event
15:39:30.557,1.5592457,1.427407,0.61442,0.64427406,1.107167,0.8007377,0.57964396,0.39354044,0.5153365,0.4954809,0.23219915,0.20556557,0.4913402,0.492142,0.3238303,0.42450178,0.22423846,0.18174537,0.21168049,0.49597776,807.47253,806.26373,790.54944,801.02563,730.10986,-0.16339111328125,0.10919189453125,0.9678955078125,1.973876953125,-3.342132568359375,0.874786376953125,1.0,2.0,1.0,1.0,2.0,100.0,event
15:39:30.558,1.5592457,1.427407,0.61442,0.64427406,1.107167,0.8007377,0.57964396,0.39354044,0.5153365,0.4954809,0.23219915,0.20556557,0.4913402,0.492142,0.3238303,0.42450178,0.22423846,0.18174537,0.21168049,0.49597776,809.89014,798.60803,792.1612,802.6374,845.34796,-0.16339111328125,0.10919189453125,0.9678955078125,1.973876953125,-3.342132568359375,0.874786376953125,1.0,2.0,1.0,1.0,2.0,100.0,event
15:39:30.558,1.5592457,1.427407,0.61442,0.64427406,1.107167,0.8007377,0.57964396,0.39354044,0.5153365,0.4954809,0.23219915,0.20556557,0.4913402,0.492142,0.3238303,0.42450178,0.22423846,0.18174537,0.21168049,0.49597776,810.293,802.6374,787.326,807.47253,1022.6374,-0.16339111328125,0.10919189453125,0.9678955078125,1.973876953125,-3.342132568359375,0.874786376953125,1.0,2.0,1.0,1.0,2.0,100.0,event
15:39:30.559,1.5592457,1.427407,0.61442,0.64427406,1.107167,0.8007377,0.57964396,0.39354044,0.5153365,0.4954809,0.23219915,0.20556557,0.4913402,0.492142,0.3238303,0.42450178,0.22423846,0.18174537,0.21168049,0.49597776,807.0696,807.8755,794.57874,809.0842,1029.0842,-0.16339111328125,0.10919189453125,0.9678955078125,1.973876953125,-3.342132568359375,0.874786376953125,1.0,2.0,1.0,1.0,2.0,100.0,event
15:39:30.560,1.5592457,1.427407,0.61442,0.64427406,1.107167,0.8007377,0.57964396,0.39354044,0.5153365,0.4954809,0.23219915,0.20556557,0.4913402,0.492142,0.3238303,0.42450178,0.22423846,0.18174537,0.21168049,0.49597776,805.05493,807.8755,819.15753,794.57874,785.31134,-0.16339111328125,0.10919189453125,0.9678955078125,1.973876953125,-3.342132568359375,0.874786376953125,1.0,2.0,1.0,1.0,2.0,100.0,event
15:39:30.560,1.5592457,1.427407,0.61442,0.64427406,1.107167,0.8007377,0.57964396,0.39354044,0.5153365,0.4954809,0.23219915,0.20556557,0.4913402,0.492142,0.3238303,0.42450178,0.22423846,0.18174537,0.21168049,0.49597776,811.50183,805.8608,795.78754,794.57874,715.2015,-0.16339111328125,0.10919189453125,0.9678955078125,1.973876953125,-3.342132568359375,0.874786376953125,1.0,2.0,1.0,1.0,2.0,100.0,event
15:39:30.561,1.5592457,1.427407,0.61442,0.64427406,1.107167,0.8007377,0.57964396,0.39354044,0.5153365,0.4954809,0.23219915,0.20556557,0.4913402,0.492142,0.3238303,0.42450178,0.22423846,0.18174537,0.21168049,0.49597776,805.4579,801.8315,811.9048,808.2784,781.685,-0.16339111328125,0.10919189453125,0.9678955078125,1.973876953125,-3.342132568359375,0.874786376953125,1.0,2.0,1.0,1.0,2.0,100.0,event
15:39:30.561,1.5592457,1.427407,0.61442,0.64427406,1.107167,0.8007377,0.57964396,0.39354044,0.5153365,0.4954809,0.23219915,0.20556557,0.4913402,0.492142,0.3238303,0.42450178,0.22423846,0.18174537,0.21168049,0.49597776,808.2784,796.1905,796.5934,803.0403,799.41394,-0.16339111328125,0.10919189453125,0.9678955078125,1.973876953125,-3.342132568359375,0.874786376953125,1.0,2.0,1.0,1.0,2.0,100.0,event
15:39:30.590,1.5592457,1.427407,0.61442,0.64427406,1.107167,0.8007377,0.57964396,0.39354044,0.5153365,0.4954809,0.23219915,0.20556557,0.4913402,0.492142,0.3238303,0.42450178,0.22423846,0.18174537,0.21168049,0.49597776,801.4286,806.26373,802.23444,800.6227,720.4396,-0.16143798828125,0.10546875,0.96905517578125,1.48040771484375,-2.863616943359375,0.605621337890625,1.0,2.0,1.0,1.0,2.0,100.0,event
15:39:30.591,1.5592457,1.427407,0.61442,0.64427406,1.107167,0.8007377,0.57964396,0.39354044,0.5153365,0.4954809,0.23219915,0.20556557,0.4913402,0.492142,0.3238303,0.42450178,0.22423846,0.18174537,0.21168049,0.49597776,799.81683,795.78754,789.7436,793.36993,792.5641,-0.16143798828125,0.10546875,0.96905517578125,1.48040771484375,-2.863616943359375,0.605621337890625,1.0,2.0,1.0,1.0,2.0,100.0,event
15:39:30.594,1.5592457,1.427407,0.61442,0.64427406,1.107167,0.8007377,0.57964396,0.39354044,0.5153365,0.4954809,0.23219915,0.20556557,0.4913402,0.492142,0.3238303,0.42450178,0.22423846,0.18174537,0.21168049,0.49597776,802.6374,793.7729,787.326,798.20514,864.2857,-0.16143798828125,0.10546875,0.96905517578125,1.48040771484375,-2.863616943359375,0.605621337890625,1.0,2.0,1.0,1.0,2.0,100.0,event
15:39:30.595,1.5592457,1.427407,0.61442,0.64427406,1.107167,0.8007377,0.57964396,0.39354044,0.5153365,0.4954809,0.23219915,0.20556557,0.4913402,0.492142,0.3238303,0.42450178,0.22423846,0.18174537,0.21168049,0.49597776,798.20514,794.17584,793.7729,795.78754,774.0293,-0.16143798828125,0.10546875,0.96905517578125,1.48040771484375,-2.863616943359375,0.605621337890625,1.0,2.0,1.0,1.0,2.0,100.0,event
15:39:30.595,1.5592457,1.427407,0.61442,0.64427406,1.107167,0.8007377,0.57964396,0.39354044,0.5153365,0.4954809,0.23219915,0.20556557,0.4913402,0.492142,0.3238303,0.42450178,0.22423846,0.18174537,0.21168049,0.49597776,803.0403,797.3993,794.17584,796.5934,661.2088,-0.16143798828125,0.10546875,0.96905517578125,1.48040771484375,-2.863616943359375,0.605621337890625,1.0,2.0,1.0,1.0,2.0,100.0,event
15:39:30.596,1.5592457,1.427407,0.61442,0.64427406,1.107167,0.8007377,0.57964396,0.39354044,0.5153365,0.4954809,0.23219915,0.20556557,0.4913402,0.492142,0.3238303,0.42450178,0.22423846,0.18174537,0.21168049,0.49597776,799.41394,794.9817,769.59705,798.60803,803.0403,-0.16143798828125,0.10546875,0.96905517578125,1.48040771484375,-2.863616943359375,0.605621337890625,1.0,2.0,1.0,1.0,2.0,100.0,event
15:39:30.597,1.5592457,1.427407,0.61442,0.64427406,1.107167,0.8007377,0.57964396,0.39354044,0.5153365,0.4954809,0.23219915,0.20556557,0.4913402,0.492142,0.3238303,0.42450178,0.22423846,0.18174537,0.21168049,0.49597776,794.17584,796.5934,774.83514,793.36993,1032.3077,-0.16143798828125,0.10546875,0.96905517578125,1.48040771484375,-2.863616943359375,0.605621337890625,1.0,2.0,1.0,1.0,2.0,100.0,event
15:39:30.598,1.5592457,1.427407,0.61442,0.64427406,1.107167,0.8007377,0.57964396,0.39354044,0.5153365,0.4954809,0.23219915,0.20556557,0.4913402,0.492142,0.3238303,0.42450178,0.22423846,0.18174537,0.21168049,0.49597776,798.20514,807.0696,813.91943,790.9524,838.49817,-0.16143798828125,0.10546875,0.96905517578125,1.48040771484375,-2.863616943359375,0.605621337890625,1.0,2.0,1.0,1.0,2.0,100.0,event
15:39:30.598,1.5592457,1.427407,0.61442,0.64427406,1.107167,0.8007377,0.57964396,0.39354044,0.5153365,0.4954809,0.23219915,0.20556557,0.4913402,0.492142,0.3238303,0.42450178,0.22423846,0.18174537,0.21168049,0.49597776,804.2491,804.65204,804.2491,794.57874,636.63007,-0.16143798828125,0.10546875,0.96905517578125,1.48040771484375,-2.863616943359375,0.605621337890625,1.0,2.0,1.0,1.0,2.0,100.0,event
