TimeStamp,Delta_TP9,Delta_AF7,Delta_AF8,Delta_TP10,Theta_TP9,Theta_AF7,Theta_AF8,Theta_TP10,Alpha_TP9,Alpha_AF7,Alpha_AF8,Alpha_TP10,Beta_TP9,Beta_AF7,Beta_AF8,Beta_TP10,Gamma_TP9,Gamma_AF7,Gamma_AF8,Gamma_TP10,RAW_TP9,RAW_AF7,RAW_AF8,RAW_TP10,AUX_RIGHT,Accelerometer_X,Accelerometer_Y,Accelerometer_Z,Gyro_X,Gyro_Y,Gyro_Z,HeadBandOn,HSI_TP9,HSI_AF7,HSI_AF8,HSI_TP10,Battery,Elements
12:31:30.559,0.6170128,0.260694,-0.63084954,0.42276484,0.22185941,0.2255671,-0.38406053,0.40101776,0.46494532,0.40010777,0.028538935,0.72053295,0.6408656,1.0186017,0.49770215,0.6143706,0.62534666,1.0102485,0.67681974,0.40754902,782.0879,761.13556,800.2198,794.9817,922.71063,-0.4906005859375,0.2066650390625,0.8387451171875,0.680389404296875,-6.878662109375,1.79443359375,1.0,1.0,1.0,1.0,1.0,100.0,event
12:31:30.560,0.6170128,0.260694,-0.63084954,0.42276484,0.22185941,0.2255671,-0.38406053,0.40101776,0.46494532,0.40010777,0.028538935,0.72053295,0.6408656,1.0186017,0.49770215,0.6143706,0.62534666,1.0102485,0.67681974,0.40754902,790.9524,813.5165,808.68134,794.9817,822.381,-0.4906005859375,0.2066650390625,0.8387451171875,0.680389404296875,-6.878662109375,1.79443359375,1.0,1.0,1.0,1.0,1.0,100.0,event
12:31:30.561,0.6170128,0.260694,-0.63084954,0.42276484,0.22185941,0.2255671,-0.38406053,0.40101776,0.46494532,0.40010777,0.028538935,0.72053295,0.6408656,1.0186017,0.49770215,0.6143706,0.62534666,1.0102485,0.67681974,0.40754902,799.81683,832.4542,799.011,803.8461,693.8461,-0.4906005859375,0.2066650390625,0.8387451171875,0.680389404296875,-6.878662109375,1.79443359375,1.0,1.0,1.0,1.0,1.0,100.0,event
12:31:30.561,0.6170128,0.260694,-0.63084954,0.42276484,0.22185941,0.2255671,-0.38406053,0.40101776,0.46494532,0.40010777,0.028538935,0.72053295,0.6408656,1.0186017,0.49770215,0.6143706,0.62534666,1.0102485,0.67681974,0.40754902,807.8755,809.0842,778.86444,813.5165,731.7216,-0.4906005859375,0.2066650390625,0.8387451171875,0.680389404296875,-6.878662109375,1.79443359375,1.0,1.0,1.0,1.0,1.0,100.0,event
12:31:30.562,0.6170128,0.260694,-0.63084954,0.42276484,0.22185941,0.2255671,-0.38406053,0.40101776,0.46494532,0.40010777,0.028538935,0.72053295,0.6408656,1.0186017,0.49770215,0.6143706,0.62534666,1.0102485,0.67681974,0.40754902,799.41394,792.96704,799.41394,803.0403,843.73627,-0.4906005859375,0.2066650390625,0.8387451171875,0.680389404296875,-6.878662109375,1.79443359375,1.0,1.0,1.0,1.0,1.0,100.0,event
12:31:30.562,0.6170128,0.260694,-0.63084954,0.42276484,0.22185941,0.2255671,-0.38406053,0.40101776,0.46494532,0.40010777,0.028538935,0.72053295,0.6408656,1.0186017,0.49770215,0.6143706,0.62534666,1.0102485,0.67681974,0.40754902,811.9048,800.2198,772.4176,802.23444,796.5934,-0.4906005859375,0.2066650390625,0.8387451171875,0.680389404296875,-6.878662109375,1.79443359375,1.0,1.0,1.0,1.0,1.0,100.0,event
12:31:30.563,0.6170128,0.260694,-0.63084954,0.42276484,0.22185941,0.2255671,-0.38406053,0.40101776,0.46494532,0.40010777,0.028538935,0.72053295,0.6408656,1.0186017,0.49770215,0.6143706,0.62534666,1.0102485,0.67681974,0.40754902,790.14655,794.57874,811.50183,808.2784,842.52747,-0.4906005859375,0.2066650390625,0.8387451171875,0.680389404296875,-6.878662109375,1.79443359375,1.0,1.0,1.0,1.0,1.0,100.0,event
12:31:30.564,0.6170128,0.260694,-0.63084954,0.42276484,0.22185941,0.2255671,-0.38406053,0.40101776,0.46494532,0.40010777,0.028538935,0.72053295,0.6408656,1.0186017,0.49770215,0.6143706,0.62534666,1.0102485,0.67681974,0.40754902,798.60803,788.5348,810.293,794.17584,839.304,-0.4906005859375,0.2066650390625,0.8387451171875,0.680389404296875,-6.878662109375,1.79443359375,1.0,1.0,1.0,1.0,1.0,100.0,event
12:31:30.564,0.6170128,0.260694,-0.63084954,0.42276484,0.22185941,0.2255671,-0.38406053,0.40101776,0.46494532,0.40010777,0.028538935,0.72053295,0.6408656,1.0186017,0.49770215,0.6143706,0.62534666,1.0102485,0.67681974,0.40754902,791.3553,753.8828,813.91943,813.5165,1039.5604,-0.4906005859375,0.2066650390625,0.8387451171875,0.680389404296875,-6.878662109375,1.79443359375,1.0,1.0,1.0,1.0,1.0,100.0,event
12:31:30.565,0.6170128,0.260694,-0.63084954,0.42276484,0.22185941,0.2255671,-0.38406053,0.40101776,0.46494532,0.40010777,0.028538935,0.72053295,0.6408656,1.0186017,0.49770215,0.6143706,0.62534666,1.0102485,0.67681974,0.40754902,778.86444,803.0403,805.8608,829.6337,966.63007,-0.4906005859375,0.2066650390625,0.8387451171875,0.680389404296875,-6.878662109375,1.79443359375,1.0,1.0,1.0,1.0,1.0,100.0,event
12:31:30.565,0.6170128,0.260694,-0.63084954,0.42276484,0.22185941,0.2255671,-0.38406053,0.40101776,0.46494532,0.40010777,0.028538935,0.72053295,0.6408656,1.0186017,0.49770215,0.6143706,0.62534666,1.0102485,0.67681974,0.40754902,791.3553,816.7399,810.293,805.05493,785.31134,-0.4906005859375,0.2066650390625,0.8387451171875,0.680389404296875,-6.878662109375,1.79443359375,1.0,1.0,1.0,1.0,1.0,100.0,event
12:31:30.566,0.6170128,0.260694,-0.63084954,0.42276484,0.22185941,0.2255671,-0.38406053,0.40101776,0.46494532,0.40010777,0.028538935,0.72053295,0.6408656,1.0186017,0.49770215,0.6143706,0.62534666,1.0102485,0.67681974,0.40754902,802.23444,782.0879,810.696,794.17584,819.9634,-0.4906005859375,0.2066650390625,0.8387451171875,0.680389404296875,-6.878662109375,1.79443359375,1.0,1.0,1.0,1.0,1.0,100.0,event
12:31:30.591,0.6170128,0.260694,-0.63084954,0.42276484,0.22185941,0.2255671,-0.38406053,0.40101776,0.46494532,0.40010777,0.028538935,0.72053295,0.6408656,1.0186017,0.49770215,0.6143706,0.62534666,1.0102485,0.67681974,0.40754902,808.68134,811.0989,795.78754,793.7729,811.9048,-0.4906005859375,0.2066650390625,0.8387451171875,0.680389404296875,-6.878662109375,1.79443359375,1.0,1.0,1.0,1.0,1.0,100.0,event
12:31:30.592,0.6170128,0.260694,-0.63084954,0.42276484,0.22185941,0.2255671,-0.38406053,0.40101776,0.46494532,0.40010777,0.028538935,0.72053295,0.6408656,1.0186017,0.49770215,0.6143706,0.62534666,1.0102485,0.67681974,0.40754902,818.7546,826.4103,802.6374,815.9341,748.24176,-0.4906005859375,0.2066650390625,0.8387451171875,0.680389404296875,-6.878662109375,1.79443359375,1.0,1.0,1.0,1.0,1.0,100.0,event
12:31:30.593,0.6170128,0.260694,-0.63084954,0.42276484,0.22185941,0.2255671,-0.38406053,0.40101776,0.46494532,0.40010777,0.028538935,0.72053295,0.6408656,1.0186017,0.49770215,0.6143706,0.62534666,1.0102485,0.67681974,0.40754902,812.3077,761.9414,787.72894,795.38464,807.47253,-0.4906005859375,0.2066650390625,0.8387451171875,0.680389404296875,-6.878662109375,1.79443359375,1.0,1.0,1.0,1.0,1.0,100.0,event
12:31:30.593,0.6170128,0.260694,-0.63084954,0.42276484,0.22185941,0.2255671,-0.38406053,0.40101776,0.46494532,0.40010777,0.028538935,0.72053295,0.6408656,1.0186017,0.49770215,0.6143706,0.62534666,1.0102485,0.67681974,0.40754902,815.12823,787.326,797.3993,811.50183,738.1685,-0.4906005859375,0.2066650390625,0.8387451171875,0.680389404296875,-6.878662109375,1.79443359375,1.0,1.0,1.0,1.0,1.0,100.0,event
12:31:30.594,0.6170128,0.260694,-0.63084954,0.42276484,0.22185941,0.2255671,-0.38406053,0.40101776,0.46494532,0.40010777,0.028538935,0.72053295,0.6408656,1.0186017,0.49770215,0.6143706,0.62534666,1.0102485,0.67681974,0.40754902,798.60803,800.6227,800.2198,802.23444,803.0403,-0.4906005859375,0.2066650390625,0.8387451171875,0.680389404296875,-6.878662109375,1.79443359375,1.0,1.0,1.0,1.0,1.0,100.0,event
12:31:30.594,0.6548837,0.260694,-0.64055866,0.45143068,0.24020642,0.2255671,-0.39859638,0.3902682,0.42972332,0.40010777,0.044480555,0.72053295,0.6178775,1.0186017,0.50583124,0.598384,0.63232654,1.0102485,0.6898298,0.3916444,783.69965,799.41394,806.6667,786.52014,835.6777,-0.4906005859375,0.2066650390625,0.8387451171875,0.680389404296875,-6.878662109375,1.79443359375,1.0,1.0,1.0,1.0,1.0,100.0,event
12:31:30.598,0.6548837,0.260694,-0.64055866,0.45143068,0.24020642,0.2255671,-0.39859638,0.3902682,0.42972332,0.40010777,0.044480555,0.72053295,0.6178775,1.0186017,0.50583124,0.598384,0.63232654,1.0102485,0.6898298,0.3916444,775.2381,801.4286,807.8755,776.04395,863.0769,-0.4906005859375,0.2066650390625,0.8387451171875,0.680389404296875,-6.878662109375,1.79443359375,1.0,1.0,1.0,1.0,1.0,100.0,event
12:31:30.599,0.6548837,0.260694,-0.64055866,0.45143068,0.24020642,0.2255671,-0.39859638,0.3902682,0.42972332,0.40010777,0.044480555,0.72053295,0.6178775,1.0186017,0.50583124,0.598384,0.63232654,1.0102485,0.6898298,0.3916444,784.5055,788.1319,812.3077,808.2784,921.0989,-0.4906005859375,0.2066650390625,0.8387451171875,0.680389404296875,-6.878662109375,1.79443359375,1.0,1.0,1.0,1.0,1.0,100.0,event
12:31:30.599,0.6548837,0.260694,-0.64055866,0.45143068,0.24020642,0.2255671,-0.39859638,0.3902682,0.42972332,0.40010777,0.044480555,0.72053295,0.6178775,1.0186017,0.50583124,0.598384,0.63232654,1.0102485,0.6898298,0.3916444,797.8022,769.59705,810.696,818.7546,1041.1721,-0.4906005859375,0.2066650390625,0.8387451171875,0.680389404296875,-6.878662109375,1.79443359375,1.0,1.0,1.0,1.0,1.0,100.0,event
12:31:30.600,0.6548837,0.260694,-0.64055866,0.45143068,0.24020642,0.2255671,-0.39859638,0.3902682,0.42972332,0.40010777,0.044480555,0.72053295,0.6178775,1.0186017,0.50583124,0.598384,0.63232654,1.0102485,0.6898298,0.3916444,811.50183,837.6923,796.99634,812.71063,824.3956,-0.4906005859375,0.2066650390625,0.8387451171875,0.680389404296875,-6.878662109375,1.79443359375,1.0,1.0,1.0,1.0,1.0,100.0,event
12:31:30.600,0.6548837,0.260694,-0.64055866,0.45143068,0.24020642,0.2255671,-0.39859638,0.3902682,0.42972332,0.40010777,0.044480555,0.72053295,0.6178775,1.0186017,0.50583124,0.598384,0.63232654,1.0102485,0.6898298,0.3916444,803.8461,837.28937,788.93774,804.2491,698.2784,-0.4906005859375,0.2066650390625,0.8387451171875,0.680389404296875,-6.878662109375,1.79443359375,1.0,1.0,1.0,1.0,1.0,100.0,event
12:31:30.601,0.6548837,0.260694,-0.64055866,0.45143068,0.24020642,0.2255671,-0.39859638,0.3902682,0.42972332,0.40010777,0.044480555,0.72053295,0.6178775,1.0186017,0.50583124,0.598384,0.63232654,1.0102485,0.6898298,0.3916444,783.69965,801.4286,796.1905,790.54944,748.24176,-0.4906005859375,0.2066650390625,0.8387451171875,0.680389404296875,-6.878662109375,1.79443359375,1.0,1.0,1.0,1.0,1.0,100.0,event
12:31:30.628,0.6548837,0.260694,-0.64055866,0.45143068,0.24020642,0.2255671,-0.39859638,0.3902682,0.42972332,0.40010777,0.044480555,0.72053295,0.6178775,1.0186017,0.50583124,0.598384,0.63232654,1.0102485,0.6898298,0.3916444,797.8022,804.2491,805.4579,798.60803,673.69965,-0.49249267578125,0.20391845703125,0.838623046875,1.383209228515625,-6.6693115234375,0.381317138671875,1.0,1.0,1.0,1.0,1.0,100.0,event
12:31:30.629,0.6548837,0.260694,-0.64055866,0.45143068,0.24020642,0.2255671,-0.39859638,0.3902682,0.42972332,0.40010777,0.044480555,0.72053295,0.6178775,1.0186017,0.50583124,0.598384,0.63232654,1.0102485,0.6898298,0.3916444,813.5165,811.9048,803.44324,806.6667,653.95605,-0.49249267578125,0.20391845703125,0.838623046875,1.383209228515625,-6.6693115234375,0.381317138671875,1.0,1.0,1.0,1.0,1.0,100.0,event
12:31:30.629,0.6548837,0.260694,-0.64055866,0.45143068,0.24020642,0.2255671,-0.39859638,0.3902682,0.42972332,0.40010777,0.044480555,0.72053295,0.6178775,1.0186017,0.50583124,0.598384,0.63232654,1.0102485,0.6898298,0.3916444,789.34064,793.36993,801.02563,799.011,754.68866,-0.49249267578125,0.20391845703125,0.838623046875,1.383209228515625,-6.6693115234375,0.381317138671875,1.0,1.0,1.0,1.0,1.0,100.0,event
12:31:30.630,0.6548837,0.260694,-0.64055866,0.45143068,0.24020642,0.2255671,-0.39859638,0.3902682,0.42972332,0.40010777,0.044480555,0.72053295,0.6178775,1.0186017,0.50583124,0.598384,0.63232654,1.0102485,0.6898298,0.3916444,769.59705,778.0586,796.99634,795.78754,794.17584,-0.49249267578125,0.20391845703125,0.838623046875,1.383209228515625,-6.6693115234375,0.381317138671875,1.0,1.0,1.0,1.0,1.0,100.0,event
12:31:30.631,0.6548837,0.260694,-0.64055866,0.45143068,0.24020642,0.2255671,-0.39859638,0.3902682,0.42972332,0.40010777,0.044480555,0.72053295,0.6178775,1.0186017,0.50583124,0.598384,0.63232654,1.0102485,0.6898298,0.3916444,782.8938,777.6557,790.54944,795.78754,699.4872,-0.49249267578125,0.20391845703125,0.838623046875,1.383209228515625,-6.6693115234375,0.381317138671875,1.0,1.0,1.0,1.0,1.0,100.0,event
12:31:30.632,0.6548837,0.260694,-0.64055866,0.45143068,0.24020642,0.2255671,-0.39859638,0.3902682,0.42972332,0.40010777,0.044480555,0.72053295,0.6178775,1.0186017,0.50583124,0.598384,0.63232654,1.0102485,0.6898298,0.3916444,796.5934,777.25275,799.41394,800.2198,689.011,-0.49249267578125,0.20391845703125,0.838623046875,1.383209228515625,-6.6693115234375,0.381317138671875,1.0,1.0,1.0,1.0,1.0,100.0,event
12:31:30.632,0.6548837,0.260694,-0.64055866,0.45143068,0.24020642,0.2255671,-0.39859638,0.3902682,0.42972332,0.40010777,0.044480555,0.72053295,0.6178775,1.0186017,0.50583124,0.598384,0.63232654,1.0102485,0.6898298,0.3916444,803.44324,787.72894,797.8022,803.8461,827.2161,-0.49249267578125,0.20391845703125,0.838623046875,1.383209228515625,-6.6693115234375,0.381317138671875,1.0,1.0,1.0,1.0,1.0,100.0,event
12:31:30.633,0.6548837,0.260694,-0.64055866,0.45143068,0.24020642,0.2255671,-0.39859638,0.3902682,0.42972332,0.40010777,0.044480555,0.72053295,0.6178775,1.0186017,0.50583124,0.598384,0.63232654,1.0102485,0.6898298,0.3916444,790.14655,748.24176,793.7729,819.9634,1131.8315,-0.49249267578125,0.20391845703125,0.838623046875,1.383209228515625,-6.6693115234375,0.381317138671875,1.0,1.0,1.0,1.0,1.0,100.0,event
12:31:30.634,0.6548837,0.260694,-0.64055866,0.45143068,0.24020642,0.2255671,-0.39859638,0.3902682,0.42972332,0.40010777,0.044480555,0.72053295,0.6178775,1.0186017,0.50583124,0.598384,0.63232654,1.0102485,0.6898298,0.3916444,787.326,810.293,790.9524,813.1135,958.1685,-0.49249267578125,0.20391845703125,0.838623046875,1.383209228515625,-6.6693115234375,0.381317138671875,1.0,1.0,1.0,1.0,1.0,100.0,event
12:31:30.635,0.6548837,0.260694,-0.64055866,0.45143068,0.24020642,0.2255671,-0.39859638,0.3902682,0.42972332,0.40010777,0.044480555,0.72053295,0.6178775,1.0186017,0.50583124,0.598384,0.63232654,1.0102485,0.6898298,0.3916444,791.3553,863.47986,794.9817,778.0586,674.10254,-0.49249267578125,0.20391845703125,0.838623046875,1.383209228515625,-6.6693115234375,0.381317138671875,1.0,1.0,1.0,1.0,1.0,100.0,event
12:31:30.635,0.6548837,0.260694,-0.64055866,0.45143068,0.24020642,0.2255671,-0.39859638,0.3902682,0.42972332,0.40010777,0.044480555,0.72053295,0.6178775,1.0186017,0.50583124,0.598384,0.63232654,1.0102485,0.6898298,0.3916444,787.72894,815.9341,803.44324,782.0879,715.2015,-0.49249267578125,0.20391845703125,0.838623046875,1.383209228515625,-6.6693115234375,0.381317138671875,1.0,1.0,1.0,1.0,1.0,100.0,event
12:31:30.636,0.6548837,0.260694,-0.64055866,0.45143068,0.24020642,0.2255671,-0.39859638,0.3902682,0.42972332,0.40010777,0.044480555,0.72053295,0.6178775,1.0186017,0.50583124,0.598384,0.63232654,1.0102485,0.6898298,0.3916444,801.8315,799.81683,797.8022,810.293,711.1722,-0.49249267578125,0.20391845703125,0.838623046875,1.383209228515625,-6.6693115234375,0.381317138671875,1.0,1.0,1.0,1.0,1.0,100.0,event
12:31:30.727,0.6548837,0.260694,-0.64055866,0.45143068,0.24020642,0.2255671,-0.39859638,0.3902682,0.42972332,0.40010777,0.044480555,0.72053295,0.6178775,1.0186017,0.50583124,0.598384,0.63232654,1.0102485,0.6898298,0.3916444,813.5165,806.26373,790.54944,823.5897,678.5348,-0.47821044921875,0.2032470703125,0.83929443359375,0.710296630859375,-5.14404296875,-0.67291259765625,1.0,1.0,1.0,1.0,1.0,100.0,event
12:31:30.728,0.6548837,0.260694,-0.64055866,0.45143068,0.24020642,0.2255671,-0.39859638,0.3902682,0.42972332,0.40010777,0.044480555,0.72053295,0.6178775,1.0186017,0.50583124,0.598384,0.63232654,1.0102485,0.6898298,0.3916444,811.0989,804.2491,792.96704,806.26373,680.54944,-0.47821044921875,0.2032470703125,0.83929443359375,0.710296630859375,-5.14404296875,-0.67291259765625,1.0,1.0,1.0,1.0,1.0,100.0,event
12:31:30.728,0.6548837,0.260694,-0.64055866,0.45143068,0.24020642,0.2255671,-0.39859638,0.3902682,0.42972332,0.40010777,0.044480555,0.72053295,0.6178775,1.0186017,0.50583124,0.598384,0.63232654,1.0102485,0.6898298,0.3916444,792.5641,789.34064,790.14655,803.44324,752.27106,-0.47821044921875,0.2032470703125,0.83929443359375,0.710296630859375,-5.14404296875,-0.67291259765625,1.0,1.0,1.0,1.0,1.0,100.0,event
12:31:30.729,0.6548837,0.260694,-0.64055866,0.45143068,0.24020642,0.2255671,-0.39859638,0.3902682,0.42972332,0.40010777,0.044480555,0.72053295,0.6178775,1.0186017,0.50583124,0.598384,0.63232654,1.0102485,0.6898298,0.3916444,785.7143,790.54944,784.90845,807.0696,777.6557,-0.47821044921875,0.2032470703125,0.83929443359375,0.710296630859375,-5.14404296875,-0.67291259765625,1.0,1.0,1.0,1.0,1.0,100.0,event
12:31:30.731,0.6548837,0.260694,-0.64055866,0.45143068,0.24020642,0.2255671,-0.39859638,0.3902682,0.42972332,0.40010777,0.044480555,0.72053295,0.6178775,1.0186017,0.50583124,0.598384,0.63232654,1.0102485,0.6898298,0.3916444,797.8022,803.0403,786.1172,794.57874,729.304,-0.47821044921875,0.2032470703125,0.83929443359375,0.710296630859375,-5.14404296875,-0.67291259765625,1.0,1.0,1.0,1.0,1.0,100.0,event
12:31:30.732,0.6548837,0.260694,-0.64055866,0.45143068,0.24020642,0.2255671,-0.39859638,0.3902682,0.42972332,0.40010777,0.044480555,0.72053295,0.6178775,1.0186017,0.50583124,0.598384,0.63232654,1.0102485,0.6898298,0.3916444,796.1905,800.6227,790.14655,803.8461,783.69965,-0.47821044921875,0.2032470703125,0.83929443359375,0.710296630859375,-5.14404296875,-0.67291259765625,1.0,1.0,1.0,1.0,1.0,100.0,event
12:31:30.733,0.6548837,0.260694,-0.64055866,0.45143068,0.24020642,0.2255671,-0.39859638,0.3902682,0.42972332,0.40010777,0.044480555,0.72053295,0.6178775,1.0186017,0.50583124,0.598384,0.63232654,1.0102485,0.6898298,0.3916444,796.1905,768.7912,791.3553,809.4872,961.79486,-0.47821044921875,0.2032470703125,0.83929443359375,0.710296630859375,-5.14404296875,-0.67291259765625,1.0,1.0,1.0,1.0,1.0,100.0,event
12:31:30.734,0.6942831,0.260694,-0.632363,0.48168042,0.266976,0.2255671,-0.41721627,0.38519025,0.45430154,0.40010777,0.03399411,0.70510167,0.61487174,1.0186017,0.5101736,0.5893888,0.637146,1.0102485,0.6972375,0.37921536,811.9048,787.72894,809.0842,825.2015,971.06226,-0.47821044921875,0.2032470703125,0.83929443359375,0.710296630859375,-5.14404296875,-0.67291259765625,1.0,1.0,1.0,1.0,1.0,100.0,event
12:31:30.739,0.6942831,0.260694,-0.632363,0.48168042,0.266976,0.2255671,-0.41721627,0.38519025,0.45430154,0.40010777,0.03399411,0.70510167,0.61487174,1.0186017,0.5101736,0.5893888,0.637146,1.0102485,0.6972375,0.37921536,789.7436,813.5165,774.83514,786.1172,740.18317,-0.47821044921875,0.2032470703125,0.83929443359375,0.710296630859375,-5.14404296875,-0.67291259765625,1.0,1.0,1.0,1.0,1.0,100.0,event
12:31:30.739,0.6942831,0.260694,-0.632363,0.48168042,0.266976,0.2255671,-0.41721627,0.38519025,0.45430154,0.40010777,0.03399411,0.70510167,0.61487174,1.0186017,0.5101736,0.5893888,0.637146,1.0102485,0.6972375,0.37921536,802.23444,834.4689,800.6227,816.7399,716.8132,-0.47821044921875,0.2032470703125,0.83929443359375,0.710296630859375,-5.14404296875,-0.67291259765625,1.0,1.0,1.0,1.0,1.0,100.0,event
12:31:30.740,0.6942831,0.260694,-0.632363,0.48168042,0.266976,0.2255671,-0.41721627,0.38519025,0.45430154,0.40010777,0.03399411,0.70510167,0.61487174,1.0186017,0.5101736,0.5893888,0.637146,1.0102485,0.6972375,0.37921536,792.96704,784.10254,793.7729,785.7143,912.23444,-0.47821044921875,0.2032470703125,0.83929443359375,0.710296630859375,-5.14404296875,-0.67291259765625,1.0,1.0,1.0,1.0,1.0,100.0,event
12:31:30.741,0.6942831,0.260694,-0.632363,0.48168042,0.266976,0.2255671,-0.41721627,0.38519025,0.45430154,0.40010777,0.03399411,0.70510167,0.61487174,1.0186017,0.5101736,0.5893888,0.637146,1.0102485,0.6972375,0.37921536,793.36993,801.8315,804.65204,790.54944,863.47986,-0.47821044921875,0.2032470703125,0.83929443359375,0.710296630859375,-5.14404296875,-0.67291259765625,1.0,1.0,1.0,1.0,1.0,100.0,event
12:31:30.766,0.6942831,0.260694,-0.632363,0.48168042,0.266976,0.2255671,-0.41721627,0.38519025,0.45430154,0.40010777,0.03399411,0.70510167,0.61487174,1.0186017,0.5101736,0.5893888,0.637146,1.0102485,0.6972375,0.37921536,793.36993,822.7839,797.3993,794.57874,757.9121,-0.4686279296875,0.20208740234375,0.83709716796875,2.489776611328125,-0.52337646484375,-0.11962890625,1.0,1.0,1.0,1.0,1.0,100.0,event
12:31:30.767,0.6942831,0.260694,-0.632363,0.48168042,0.266976,0.2255671,-0.41721627,0.38519025,0.45430154,0.40010777,0.03399411,0.70510167,0.61487174,1.0186017,0.5101736,0.5893888,0.637146,1.0102485,0.6972375,0.37921536,788.5348,805.8608,803.8461,796.1905,776.8498,-0.4686279296875,0.20208740234375,0.83709716796875,2.489776611328125,-0.52337646484375,-0.11962890625,1.0,1.0,1.0,1.0,1.0,100.0,event
12:31:30.767,0.6942831,0.260694,-0.632363,0.48168042,0.266976,0.2255671,-0.41721627,0.38519025,0.45430154,0.40010777,0.03399411,0.70510167,0.61487174,1.0186017,0.5101736,0.5893888,0.637146,1.0102485,0.6972375,0.37921536,786.1172,789.7436,799.81683,796.5934,835.2747,-0.4686279296875,0.20208740234375,0.83709716796875,2.489776611328125,-0.52337646484375,-0.11962890625,1.0,1.0,1.0,1.0,1.0,100.0,event
12:31:30.768,0.6942831,0.260694,-0.632363,0.48168042,0.266976,0.2255671,-0.41721627,0.38519025,0.45430154,0.40010777,0.03399411,0.70510167,0.61487174,1.0186017,0.5101736,0.5893888,0.637146,1.0102485,0.6972375,0.37921536,794.17584,806.6667,792.5641,789.7436,757.1062,-0.4686279296875,0.20208740234375,0.83709716796875,2.489776611328125,-0.52337646484375,-0.11962890625,1.0,1.0,1.0,1.0,1.0,100.0,event
12:31:30.769,0.6942831,0.260694,-0.632363,0.48168042,0.266976,0.2255671,-0.41721627,0.38519025,0.45430154,0.40010777,0.03399411,0.70510167,0.61487174,1.0186017,0.5101736,0.5893888,0.637146,1.0102485,0.6972375,0.37921536,798.60803,813.1135,794.57874,798.20514,682.1612,-0.4686279296875,0.20208740234375,0.83709716796875,2.489776611328125,-0.52337646484375,-0.11962890625,1.0,1.0,1.0,1.0,1.0,100.0,event
12:31:30.769,0.6942831,0.260694,-0.632363,0.48168042,0.266976,0.2255671,-0.41721627,0.38519025,0.45430154,0.40010777,0.03399411,0.70510167,0.61487174,1.0186017,0.5101736,0.5893888,0.637146,1.0102485,0.6972375,0.37921536,791.3553,776.8498,794.17584,796.99634,817.9487,-0.4686279296875,0.20208740234375,0.83709716796875,2.489776611328125,-0.52337646484375,-0.11962890625,1.0,1.0,1.0,1.0,1.0,100.0,event
12:31:30.770,0.6942831,0.260694,-0.632363,0.48168042,0.266976,0.2255671,-0.41721627,0.38519025,0.45430154,0.40010777,0.03399411,0.70510167,0.61487174,1.0186017,0.5101736,0.5893888,0.637146,1.0102485,0.6972375,0.37921536,798.20514,745.42126,792.1612,795.38464,1115.3114,-0.4686279296875,0.20208740234375,0.83709716796875,2.489776611328125,-0.52337646484375,-0.11962890625,1.0,1.0,1.0,1.0,1.0,100.0,event
12:31:30.771,0.6942831,0.260694,-0.632363,0.48168042,0.266976,0.2255671,-0.41721627,0.38519025,0.45430154,0.40010777,0.03399411,0.70510167,0.61487174,1.0186017,0.5101736,0.5893888,0.637146,1.0102485,0.6972375,0.37921536,816.337,814.3223,808.2784,814.3223,672.8938,-0.4686279296875,0.20208740234375,0.83709716796875,2.489776611328125,-0.52337646484375,-0.11962890625,1.0,1.0,1.0,1.0,1.0,100.0,event
12:31:30.771,0.6942831,0.260694,-0.632363,0.48168042,0.266976,0.2255671,-0.41721627,0.38519025,0.45430154,0.40010777,0.03399411,0.70510167,0.61487174,1.0186017,0.5101736,0.5893888,0.637146,1.0102485,0.6972375,0.37921536,806.6667,796.5934,799.81683,808.68134,902.5641,-0.4686279296875,0.20208740234375,0.83709716796875,2.489776611328125,-0.52337646484375,-0.11962890625,1.0,1.0,1.0,1.0,1.0,100.0,event
12:31:30.772,0.6942831,0.260694,-0.632363,0.48168042,0.266976,0.2255671,-0.41721627,0.38519025,0.45430154,0.40010777,0.03399411,0.70510167,0.61487174,1.0186017,0.5101736,0.5893888,0.637146,1.0102485,0.6972375,0.37921536,813.91943,796.5934,806.26373,806.26373,790.54944,-0.4686279296875,0.20208740234375,0.83709716796875,2.489776611328125,-0.52337646484375,-0.11962890625,1.0,1.0,1.0,1.0,1.0,100.0,event
12:31:30.773,0.6942831,0.260694,-0.632363,0.48168042,0.266976,0.2255671,-0.41721627,0.38519025,0.45430154,0.40010777,0.03399411,0.70510167,0.61487174,1.0186017,0.5101736,0.5893888,0.637146,1.0102485,0.6972375,0.37921536,805.05493,799.81683,792.5641,808.68134,816.7399,-0.4686279296875,0.20208740234375,0.83709716796875,2.489776611328125,-0.52337646484375,-0.11962890625,1.0,1.0,1.0,1.0,1.0,100.0,event
12:31:30.773,0.6942831,0.260694,-0.632363,0.48168042,0.266976,0.2255671,-0.41721627,0.38519025,0.45430154,0.40010777,0.03399411,0.70510167,0.61487174,1.0186017,0.5101736,0.5893888,0.637146,1.0102485,0.6972375,0.37921536,796.99634,810.696,788.1319,816.337,778.86444,-0.4686279296875,0.20208740234375,0.83709716796875,2.489776611328125,-0.52337646484375,-0.11962890625,1.0,1.0,1.0,1.0,1.0,100.0,event
12:31:30.794,0.6942831,0.260694,-0.632363,0.48168042,0.266976,0.2255671,-0.41721627,0.38519025,0.45430154,0.40010777,0.03399411,0.70510167,0.61487174,1.0186017,0.5101736,0.5893888,0.637146,1.0102485,0.6972375,0.37921536,803.44324,810.293,795.38464,803.44324,752.674,-0.4879150390625,0.21014404296875,0.8458251953125,2.609405517578125,-0.336456298828125,0.6280517578125,1.0,1.0,1.0,1.0,1.0,100.0,event
12:31:30.795,0.6942831,0.260694,-0.632363,0.48168042,0.266976,0.2255671,-0.41721627,0.38519025,0.45430154,0.40010777,0.03399411,0.70510167,0.61487174,1.0186017,0.5101736,0.5893888,0.637146,1.0102485,0.6972375,0.37921536,826.0073,789.34064,804.2491,805.4579,792.1612,-0.4879150390625,0.21014404296875,0.8458251953125,2.609405517578125,-0.336456298828125,0.6280517578125,1.0,1.0,1.0,1.0,1.0,100.0,event
12:31:30.796,0.6942831,0.260694,-0.632363,0.48168042,0.266976,0.2255671,-0.41721627,0.38519025,0.45430154,0.40010777,0.03399411,0.70510167,0.61487174,1.0186017,0.5101736,0.5893888,0.637146,1.0102485,0.6972375,0.37921536,819.15753,794.17584,803.0403,812.3077,813.91943,-0.4879150390625,0.21014404296875,0.8458251953125,2.609405517578125,-0.336456298828125,0.6280517578125,1.0,1.0,1.0,1.0,1.0,100.0,event
12:31:30.796,0.6942831,0.260694,-0.632363,0.48168042,0.266976,0.2255671,-0.41721627,0.38519025,0.45430154,0.40010777,0.03399411,0.70510167,0.61487174,1.0186017,0.5101736,0.5893888,0.637146,1.0102485,0.6972375,0.37921536,820.3663,815.12823,796.99634,836.8865,706.337,-0.4879150390625,0.21014404296875,0.8458251953125,2.609405517578125,-0.336456298828125,0.6280517578125,1.0,1.0,1.0,1.0,1.0,100.0,event
12:31:30.797,0.6942831,0.260694,-0.632363,0.48168042,0.266976,0.2255671,-0.41721627,0.38519025,0.45430154,0.40010777,0.03399411,0.70510167,0.61487174,1.0186017,0.5101736,0.5893888,0.637146,1.0102485,0.6972375,0.37921536,798.60803,774.0293,790.9524,809.0842,809.89014,-0.4879150390625,0.21014404296875,0.8458251953125,2.609405517578125,-0.336456298828125,0.6280517578125,1.0,1.0,1.0,1.0,1.0,100.0,event
12:31:30.797,0.6942831,0.260694,-0.632363,0.48168042,0.266976,0.2255671,-0.41721627,0.38519025,0.45430154,0.40010777,0.03399411,0.70510167,0.61487174,1.0186017,0.5101736,0.5893888,0.637146,1.0102485,0.6972375,0.37921536,822.7839,805.05493,782.49084,830.84247,678.93774,-0.4879150390625,0.21014404296875,0.8458251953125,2.609405517578125,-0.336456298828125,0.6280517578125,1.0,1.0,1.0,1.0,1.0,100.0,event
12:31:30.798,0.6942831,0.260694,-0.632363,0.48168042,0.266976,0.2255671,-0.41721627,0.38519025,0.45430154,0.40010777,0.03399411,0.70510167,0.61487174,1.0186017,0.5101736,0.5893888,0.637146,1.0102485,0.6972375,0.37921536,792.1612,778.86444,805.05493,800.6227,880.80585,-0.4879150390625,0.21014404296875,0.8458251953125,2.609405517578125,-0.336456298828125,0.6280517578125,1.0,1.0,1.0,1.0,1.0,100.0,event
12:31:30.799,0.6942831,0.260694,-0.632363,0.48168042,0.266976,0.2255671,-0.41721627,0.38519025,0.45430154,0.40010777,0.03399411,0.70510167,0.61487174,1.0186017,0.5101736,0.5893888,0.637146,1.0102485,0.6972375,0.37921536,796.5934,818.3516,804.65204,806.6667,804.65204,-0.4879150390625,0.21014404296875,0.8458251953125,2.609405517578125,-0.336456298828125,0.6280517578125,1.0,1.0,1.0,1.0,1.0,100.0,event
12:31:30.799,0.6942831,0.260694,-0.632363,0.48168042,0.266976,0.2255671,-0.41721627,0.38519025,0.45430154,0.40010777,0.03399411,0.70510167,0.61487174,1.0186017,0.5101736,0.5893888,0.637146,1.0102485,0.6972375,0.37921536,809.0842,818.7546,806.6667,825.2015,689.81683,-0.4879150390625,0.21014404296875,0.8458251953125,2.609405517578125,-0.336456298828125,0.6280517578125,1.0,1.0,1.0,1.0,1.0,100.0,event
12:31:30.800,0.72724193,0.260694,-0.61549926,0.49884993,0.291241,0.2255671,-0.43301398,0.3904983,0.51190007,0.40010777,0.023030909,0.6774058,0.6313263,1.0186017,0.51214427,0.59298265,0.6355279,1.0102485,0.70178187,0.37518904,808.2784,767.98535,794.9817,824.7985,873.5531,-0.4879150390625,0.21014404296875,0.8458251953125,2.609405517578125,-0.336456298828125,0.6280517578125,1.0,1.0,1.0,1.0,1.0,100.0,event
12:31:30.804,0.72724193,0.260694,-0.61549926,0.49884993,0.291241,0.2255671,-0.43301398,0.3904983,0.51190007,0.40010777,0.023030909,0.6774058,0.6313263,1.0186017,0.51214427,0.59298265,0.6355279,1.0102485,0.70178187,0.37518904,803.44324,787.72894,778.0586,809.0842,1010.14655,-0.4879150390625,0.21014404296875,0.8458251953125,2.609405517578125,-0.336456298828125,0.6280517578125,1.0,1.0,1.0,1.0,1.0,100.0,event
12:31:30.804,0.72724193,0.260694,-0.61549926,0.49884993,0.291241,0.2255671,-0.43301398,0.3904983,0.51190007,0.40010777,0.023030909,0.6774058,0.6313263,1.0186017,0.51214427,0.59298265,0.6355279,1.0102485,0.70178187,0.37518904,801.02563,821.978,786.52014,810.696,764.7619,-0.4879150390625,0.21014404296875,0.8458251953125,2.609405517578125,-0.336456298828125,0.6280517578125,1.0,1.0,1.0,1.0,1.0,100.0,event
12:31:30.826,0.72724193,0.260694,-0.61549926,0.49884993,0.291241,0.2255671,-0.43301398,0.3904983,0.51190007,0.40010777,0.023030909,0.6774058,0.6313263,1.0186017,0.51214427,0.59298265,0.6355279,1.0102485,0.70178187,0.37518904,799.41394,805.8608,797.8022,817.1429,733.73627,-0.4879150390625,0.21014404296875,0.8458251953125,2.609405517578125,-0.336456298828125,0.6280517578125,1.0,1.0,1.0,1.0,1.0,100.0,event
12:31:30.827,0.72724193,0.260694,-0.61549926,0.49884993,0.291241,0.2255671,-0.43301398,0.3904983,0.51190007,0.40010777,0.023030909,0.6774058,0.6313263,1.0186017,0.51214427,0.59298265,0.6355279,1.0102485,0.70178187,0.37518904,806.6667,801.02563,807.8755,808.68134,774.0293,-0.4879150390625,0.21014404296875,0.8458251953125,2.609405517578125,-0.336456298828125,0.6280517578125,1.0,1.0,1.0,1.0,1.0,100.0,event
12:31:30.828,0.72724193,0.260694,-0.61549926,0.49884993,0.291241,0.2255671,-0.43301398,0.3904983,0.51190007,0.40010777,0.023030909,0.6774058,0.6313263,1.0186017,0.51214427,0.59298265,0.6355279,1.0102485,0.70178187,0.37518904,777.6557,802.6374,796.1905,783.69965,754.2857,-0.4879150390625,0.21014404296875,0.8458251953125,2.609405517578125,-0.336456298828125,0.6280517578125,1.0,1.0,1.0,1.0,1.0,100.0,event
12:31:30.828,0.72724193,0.260694,-0.61549926,0.49884993,0.291241,0.2255671,-0.43301398,0.3904983,0.51190007,0.40010777,0.023030909,0.6774058,0.6313263,1.0186017,0.51214427,0.59298265,0.6355279,1.0102485,0.70178187,0.37518904,786.9231,801.4286,807.0696,796.5934,760.7326,-0.4879150390625,0.21014404296875,0.8458251953125,2.609405517578125,-0.336456298828125,0.6280517578125,1.0,1.0,1.0,1.0,1.0,100.0,event
12:31:30.829,0.72724193,0.260694,-0.61549926,0.49884993,0.291241,0.2255671,-0.43301398,0.3904983,0.51190007,0.40010777,0.023030909,0.6774058,0.6313263,1.0186017,0.51214427,0.59298265,0.6355279,1.0102485,0.70178187,0.37518904,794.57874,794.17584,799.41394,787.326,751.06226,-0.4879150390625,0.21014404296875,0.8458251953125,2.609405517578125,-0.336456298828125,0.6280517578125,1.0,1.0,1.0,1.0,1.0,100.0,event
12:31:30.829,0.72724193,0.260694,-0.61549926,0.49884993,0.291241,0.2255671,-0.43301398,0.3904983,0.51190007,0.40010777,0.023030909,0.6774058,0.6313263,1.0186017,0.51214427,0.59298265,0.6355279,1.0102485,0.70178187,0.37518904,798.20514,757.1062,807.8755,801.8315,999.67035,-0.4879150390625,0.21014404296875,0.8458251953125,2.609405517578125,-0.336456298828125,0.6280517578125,1.0,1.0,1.0,1.0,1.0,100.0,event
12:31:30.830,0.72724193,0.260694,-0.61549926,0.49884993,0.291241,0.2255671,-0.43301398,0.3904983,0.51190007,0.40010777,0.023030909,0.6774058,0.6313263,1.0186017,0.51214427,0.59298265,0.6355279,1.0102485,0.70178187,0.37518904,793.7729,790.14655,804.2491,797.3993,954.5421,-0.4879150390625,0.21014404296875,0.8458251953125,2.609405517578125,-0.336456298828125,0.6280517578125,1.0,1.0,1.0,1.0,1.0,100.0,event
12:31:30.830,0.72724193,0.260694,-0.61549926,0.49884993,0.291241,0.2255671,-0.43301398,0.3904983,0.51190007,0.40010777,0.023030909,0.6774058,0.6313263,1.0186017,0.51214427,0.59298265,0.6355279,1.0102485,0.70178187,0.37518904,798.20514,823.9927,790.14655,799.41394,759.5238,-0.4879150390625,0.21014404296875,0.8458251953125,2.609405517578125,-0.336456298828125,0.6280517578125,1.0,1.0,1.0,1.0,1.0,100.0,event
12:31:30.831,0.72724193,0.260694,-0.61549926,0.49884993,0.291241,0.2255671,-0.43301398,0.3904983,0.51190007,0.40010777,0.023030909,0.6774058,0.6313263,1.0186017,0.51214427,0.59298265,0.6355279,1.0102485,0.70178187,0.37518904,809.0842,797.8022,789.7436,808.2784,811.9048,-0.4879150390625,0.21014404296875,0.8458251953125,2.609405517578125,-0.336456298828125,0.6280517578125,1.0,1.0,1.0,1.0,1.0,100.0,event
12:31:30.831,0.72724193,0.260694,-0.61549926,0.49884993,0.291241,0.2255671,-0.43301398,0.3904983,0.51190007,0.40010777,0.023030909,0.6774058,0.6313263,1.0186017,0.51214427,0.59298265,0.6355279,1.0102485,0.70178187,0.37518904,805.4579,779.67035,798.20514,813.1135,954.5421,-0.4879150390625,0.21014404296875,0.8458251953125,2.609405517578125,-0.336456298828125,0.6280517578125,1.0,1.0,1.0,1.0,1.0,100.0,event
12:31:30.832,0.72724193,0.260694,-0.61549926,0.49884993,0.291241,0.2255671,-0.43301398,0.3904983,0.51190007,0.40010777,0.023030909,0.6774058,0.6313263,1.0186017,0.51214427,0.59298265,0.6355279,1.0102485,0.70178187,0.37518904,807.47253,810.696,799.81683,813.5165,828.4249,-0.4879150390625,0.21014404296875,0.8458251953125,2.609405517578125,-0.336456298828125,0.6280517578125,1.0,1.0,1.0,1.0,1.0,100.0,event
12:31:30.832,0.72724193,0.260694,-0.61549926,0.49884993,0.291241,0.2255671,-0.43301398,0.3904983,0.51190007,0.40010777,0.023030909,0.6774058,0.6313263,1.0186017,0.51214427,0.59298265,0.6355279,1.0102485,0.70178187,0.37518904,818.7546,809.0842,801.4286,811.50183,730.9158,-0.4879150390625,0.21014404296875,0.8458251953125,2.609405517578125,-0.336456298828125,0.6280517578125,1.0,1.0,1.0,1.0,1.0,100.0,event
12:31:30.902,0.72724193,0.260694,-0.61549926,0.49884993,0.291241,0.2255671,-0.43301398,0.3904983,0.51190007,0.40010777,0.023030909,0.6774058,0.6313263,1.0186017,0.51214427,0.59298265,0.6355279,1.0102485,0.70178187,0.37518904,820.3663,794.9817,804.2491,817.5458,799.011,-0.49188232421875,0.20867919921875,0.8515625,2.938385009765625,-2.295379638671875,0.186920166015625,1.0,1.0,1.0,1.0,1.0,100.0,event
12:31:30.903,0.72724193,0.260694,-0.61549926,0.49884993,0.291241,0.2255671,-0.43301398,0.3904983,0.51190007,0.40010777,0.023030909,0.6774058,0.6313263,1.0186017,0.51214427,0.59298265,0.6355279,1.0102485,0.70178187,0.37518904,818.7546,816.337,813.1135,840.10986,775.2381,-0.49188232421875,0.20867919921875,0.8515625,2.938385009765625,-2.295379638671875,0.186920166015625,1.0,1.0,1.0,1.0,1.0,100.0,event
12:31:30.904,0.72724193,0.260694,-0.61549926,0.49884993,0.291241,0.2255671,-0.43301398,0.3904983,0.51190007,0.40010777,0.023030909,0.6774058,0.6313263,1.0186017,0.51214427,0.59298265,0.6355279,1.0102485,0.70178187,0.37518904,819.5604,821.978,800.2198,837.6923,750.65936,-0.49188232421875,0.20867919921875,0.8515625,2.938385009765625,-2.295379638671875,0.186920166015625,1.0,1.0,1.0,1.0,1.0,100.0,event
12:31:30.905,0.72724193,0.260694,-0.61549926,0.49884993,0.291241,0.2255671,-0.43301398,0.3904983,0.51190007,0.40010777,0.023030909,0.6774058,0.6313263,1.0186017,0.51214427,0.59298265,0.6355279,1.0102485,0.70178187,0.37518904,810.293,799.011,789.7436,801.02563,736.9597,-0.49188232421875,0.20867919921875,0.8515625,2.938385009765625,-2.295379638671875,0.186920166015625,1.0,1.0,1.0,1.0,1.0,100.0,event
12:31:30.906,0.72724193,0.260694,-0.61549926,0.49884993,0.291241,0.2255671,-0.43301398,0.3904983,0.51190007,0.40010777,0.023030909,0.6774058,0.6313263,1.0186017,0.51214427,0.59298265,0.6355279,1.0102485,0.70178187,0.37518904,798.60803,787.326,797.3993,803.0403,762.3443,-0.49188232421875,0.20867919921875,0.8515625,2.938385009765625,-2.295379638671875,0.186920166015625,1.0,1.0,1.0,1.0,1.0,100.0,event
12:31:30.906,0.72724193,0.260694,-0.61549926,0.49884993,0.291241,0.2255671,-0.43301398,0.3904983,0.51190007,0.40010777,0.023030909,0.6774058,0.6313263,1.0186017,0.51214427,0.59298265,0.6355279,1.0102485,0.70178187,0.37518904,794.17584,796.5934,795.38464,788.1319,803.0403,-0.49188232421875,0.20867919921875,0.8515625,2.938385009765625,-2.295379638671875,0.186920166015625,1.0,1.0,1.0,1.0,1.0,100.0,event
12:31:30.907,0.72724193,0.260694,-0.61549926,0.49884993,0.291241,0.2255671,-0.43301398,0.3904983,0.51190007,0.40010777,0.023030909,0.6774058,0.6313263,1.0186017,0.51214427,0.59298265,0.6355279,1.0102485,0.70178187,0.37518904,791.3553,804.65204,804.65204,769.59705,853.4066,-0.49188232421875,0.20867919921875,0.8515625,2.938385009765625,-2.295379638671875,0.186920166015625,1.0,1.0,1.0,1.0,1.0,100.0,event
12:31:30.908,0.72724193,0.260694,-0.61549926,0.49884993,0.291241,0.2255671,-0.43301398,0.3904983,0.51190007,0.40010777,0.023030909,0.6774058,0.6313263,1.0186017,0.51214427,0.59298265,0.6355279,1.0102485,0.70178187,0.37518904,792.5641,807.8755,811.9048,779.2674,919.89014,-0.49188232421875,0.20867919921875,0.8515625,2.938385009765625,-2.295379638671875,0.186920166015625,1.0,1.0,1.0,1.0,1.0,100.0,event
12:31:30.908,0.72724193,0.260694,-0.61549926,0.49884993,0.291241,0.2255671,-0.43301398,0.3904983,0.51190007,0.40010777,0.023030909,0.6774058,0.6313263,1.0186017,0.51214427,0.59298265,0.6355279,1.0102485,0.70178187,0.37518904,795.78754,768.7912,806.6667,788.5348,1027.4725,-0.49188232421875,0.20867919921875,0.8515625,2.938385009765625,-2.295379638671875,0.186920166015625,1.0,1.0,1.0,1.0,1.0,100.0,event
12:31:30.909,0.72724193,0.260694,-0.61549926,0.49884993,0.291241,0.2255671,-0.43301398,0.3904983,0.51190007,0.40010777,0.023030909,0.6774058,0.6313263,1.0186017,0.51214427,0.59298265,0.6355279,1.0102485,0.70178187,0.37518904,801.4286,751.4652,798.60803,784.5055,1085.4945,-0.49188232421875,0.20867919921875,0.8515625,2.938385009765625,-2.295379638671875,0.186920166015625,1.0,1.0,1.0,1.0,1.0,100.0,event
12:31:30.910,0.72724193,0.260694,-0.61549926,0.49884993,0.291241,0.2255671,-0.43301398,0.3904983,0.51190007,0.40010777,0.023030909,0.6774058,0.6313263,1.0186017,0.51214427,0.59298265,0.6355279,1.0102485,0.70178187,0.37518904,803.44324,830.84247,792.5641,784.90845,784.5055,-0.49188232421875,0.20867919921875,0.8515625,2.938385009765625,-2.295379638671875,0.186920166015625,1.0,1.0,1.0,1.0,1.0,100.0,event
12:31:30.910,0.7417822,0.260694,-0.5899377,0.5026197,0.30715036,0.2255671,-0.43122688,0.4010181,0.5461184,0.40010777,0.03421124,0.6579215,0.65471417,1.0186017,0.5148997,0.6076424,0.6261447,1.0102485,0.7070059,0.3846188,794.9817,831.6484,790.54944,791.3553,657.5824,-0.49188232421875,0.20867919921875,0.8515625,2.938385009765625,-2.295379638671875,0.186920166015625,1.0,1.0,1.0,1.0,1.0,100.0,event
12:31:30.941,0.7417822,0.260694,-0.5899377,0.5026197,0.30715036,0.2255671,-0.43122688,0.4010181,0.5461184,0.40010777,0.03421124,0.6579215,0.65471417,1.0186017,0.5148997,0.6076424,0.6261447,1.0102485,0.7070059,0.3846188,774.83514,803.0403,787.72894,800.6227,784.10254,-0.49688720703125,0.20965576171875,0.841064453125,2.27294921875,-3.409423828125,-0.142059326171875,1.0,1.0,1.0,1.0,1.0,100.0,event
12:31:30.943,0.7417822,0.260694,-0.5899377,0.5026197,0.30715036,0.2255671,-0.43122688,0.4010181,0.5461184,0.40010777,0.03421124,0.6579215,0.65471417,1.0186017,0.5148997,0.6076424,0.6261447,1.0102485,0.7070059,0.3846188,780.07324,816.337,792.1612,797.8022,760.32965,-0.49688720703125,0.20965576171875,0.841064453125,2.27294921875,-3.409423828125,-0.142059326171875,1.0,1.0,1.0,1.0,1.0,100.0,event
12:31:30.944,0.7417822,0.260694,-0.5899377,0.5026197,0.30715036,0.2255671,-0.43122688,0.4010181,0.5461184,0.40010777,0.03421124,0.6579215,0.65471417,1.0186017,0.5148997,0.6076424,0.6261447,1.0102485,0.7070059,0.3846188,800.6227,815.12823,795.38464,804.2491,760.32965,-0.49688720703125,0.20965576171875,0.841064453125,2.27294921875,-3.409423828125,-0.142059326171875,1.0,1.0,1.0,1.0,1.0,100.0,event
12:31:30.945,0.7417822,0.260694,-0.5899377,0.5026197,0.30715036,0.2255671,-0.43122688,0.4010181,0.5461184,0.40010777,0.03421124,0.6579215,0.65471417,1.0186017,0.5148997,0.6076424,0.6261447,1.0102485,0.7070059,0.3846188,792.1612,796.99634,802.23444,794.17584,817.5458,-0.49688720703125,0.20965576171875,0.841064453125,2.27294921875,-3.409423828125,-0.142059326171875,1.0,1.0,1.0,1.0,1.0,100.0,event
12:31:30.946,0.7417822,0.260694,-0.5899377,0.5026197,0.30715036,0.2255671,-0.43122688,0.4010181,0.5461184,0.40010777,0.03421124,0.6579215,0.65471417,1.0186017,0.5148997,0.6076424,0.6261447,1.0102485,0.7070059,0.3846188,780.07324,786.1172,800.2198,777.6557,771.6117,-0.49688720703125,0.20965576171875,0.841064453125,2.27294921875,-3.409423828125,-0.142059326171875,1.0,1.0,1.0,1.0,1.0,100.0,event
12:31:30.947,0.7417822,0.260694,-0.5899377,0.5026197,0.30715036,0.2255671,-0.43122688,0.4010181,0.5461184,0.40010777,0.03421124,0.6579215,0.65471417,1.0186017,0.5148997,0.6076424,0.6261447,1.0102485,0.7070059,0.3846188,793.36993,778.0586,791.3553,807.47253,789.7436,-0.49688720703125,0.20965576171875,0.841064453125,2.27294921875,-3.409423828125,-0.142059326171875,1.0,1.0,1.0,1.0,1.0,100.0,event
12:31:30.948,0.7417822,0.260694,-0.5899377,0.5026197,0.30715036,0.2255671,-0.43122688,0.4010181,0.5461184,0.40010777,0.03421124,0.6579215,0.65471417,1.0186017,0.5148997,0.6076424,0.6261447,1.0102485,0.7070059,0.3846188,800.6227,791.3553,794.9817,817.9487,839.707,-0.49688720703125,0.20965576171875,0.841064453125,2.27294921875,-3.409423828125,-0.142059326171875,1.0,1.0,1.0,1.0,1.0,100.0,event
12:31:30.949,0.7417822,0.260694,-0.5899377,0.5026197,0.30715036,0.2255671,-0.43122688,0.4010181,0.5461184,0.40010777,0.03421124,0.6579215,0.65471417,1.0186017,0.5148997,0.6076424,0.6261447,1.0102485,0.7070059,0.3846188,806.6667,819.9634,799.41394,816.7399,790.9524,-0.49688720703125,0.20965576171875,0.841064453125,2.27294921875,-3.409423828125,-0.142059326171875,1.0,1.0,1.0,1.0,1.0,100.0,event
12:31:30.950,0.7417822,0.260694,-0.5899377,0.5026197,0.30715036,0.2255671,-0.43122688,0.4010181,0.5461184,0.40010777,0.03421124,0.6579215,0.65471417,1.0186017,0.5148997,0.6076424,0.6261447,1.0102485,0.7070059,0.3846188,794.17584,818.7546,791.3553,809.4872,795.78754,-0.49688720703125,0.20965576171875,0.841064453125,2.27294921875,-3.409423828125,-0.142059326171875,1.0,1.0,1.0,1.0,1.0,100.0,event
12:31:30.951,0.7417822,0.260694,-0.5899377,0.5026197,0.30715036,0.2255671,-0.43122688,0.4010181,0.5461184,0.40010777,0.03421124,0.6579215,0.65471417,1.0186017,0.5148997,0.6076424,0.6261447,1.0102485,0.7070059,0.3846188,793.7729,807.47253,787.72894,794.9817,813.1135,-0.49688720703125,0.20965576171875,0.841064453125,2.27294921875,-3.409423828125,-0.142059326171875,1.0,1.0,1.0,1.0,1.0,100.0,event
12:31:30.952,0.7417822,0.260694,-0.5899377,0.5026197,0.30715036,0.2255671,-0.43122688,0.4010181,0.5461184,0.40010777,0.03421124,0.6579215,0.65471417,1.0186017,0.5148997,0.6076424,0.6261447,1.0102485,0.7070059,0.3846188,806.6667,816.337,791.3553,799.81683,727.6923,-0.49688720703125,0.20965576171875,0.841064453125,2.27294921875,-3.409423828125,-0.142059326171875,1.0,1.0,1.0,1.0,1.0,100.0,event
12:31:30.953,0.7417822,0.260694,-0.5899377,0.5026197,0.30715036,0.2255671,-0.43122688,0.4010181,0.5461184,0.40010777,0.03421124,0.6579215,0.65471417,1.0186017,0.5148997,0.6076424,0.6261447,1.0102485,0.7070059,0.3846188,796.99634,788.1319,792.96704,800.2198,746.2271,-0.49688720703125,0.20965576171875,0.841064453125,2.27294921875,-3.409423828125,-0.142059326171875,1.0,1.0,1.0,1.0,1.0,100.0,event
12:31:30.977,0.7417822,0.260694,-0.5899377,0.5026197,0.30715036,0.2255671,-0.43122688,0.4010181,0.5461184,0.40010777,0.03421124,0.6579215,0.65471417,1.0186017,0.5148997,0.6076424,0.6261447,1.0102485,0.7070059,0.3846188,795.78754,748.6447,799.011,807.0696,1053.2601,-0.49371337890625,0.2049560546875,0.837890625,2.07855224609375,-1.891632080078125,0.01495361328125,1.0,1.0,1.0,1.0,1.0,100.0,event
12:31:30.978,0.7417822,0.260694,-0.5899377,0.5026197,0.30715036,0.2255671,-0.43122688,0.4010181,0.5461184,0.40010777,0.03421124,0.6579215,0.65471417,1.0186017,0.5148997,0.6076424,0.6261447,1.0102485,0.7070059,0.3846188,796.1905,819.5604,786.9231,797.8022,968.6447,-0.49371337890625,0.2049560546875,0.837890625,2.07855224609375,-1.891632080078125,0.01495361328125,1.0,1.0,1.0,1.0,1.0,100.0,event
12:31:30.979,0.7417822,0.260694,-0.5899377,0.5026197,0.30715036,0.2255671,-0.43122688,0.4010181,0.5461184,0.40010777,0.03421124,0.6579215,0.65471417,1.0186017,0.5148997,0.6076424,0.6261447,1.0102485,0.7070059,0.3846188,801.8315,837.6923,789.34064,802.6374,701.50183,-0.49371337890625,0.2049560546875,0.837890625,2.07855224609375,-1.891632080078125,0.01495361328125,1.0,1.0,1.0,1.0,1.0,100.0,event
12:31:30.979,0.7417822,0.260694,-0.5899377,0.5026197,0.30715036,0.2255671,-0.43122688,0.4010181,0.5461184,0.40010777,0.03421124,0.6579215,0.65471417,1.0186017,0.5148997,0.6076424,0.6261447,1.0102485,0.7070059,0.3846188,793.7729,801.8315,790.54944,797.3993,713.9927,-0.49371337890625,0.2049560546875,0.837890625,2.07855224609375,-1.891632080078125,0.01495361328125,1.0,1.0,1.0,1.0,1.0,100.0,event
12:31:30.980,0.7417822,0.260694,-0.5899377,0.5026197,0.30715036,0.2255671,-0.43122688,0.4010181,0.5461184,0.40010777,0.03421124,0.6579215,0.65471417,1.0186017,0.5148997,0.6076424,0.6261447,1.0102485,0.7070059,0.3846188,792.5641,786.52014,804.65204,798.20514,772.8205,-0.49371337890625,0.2049560546875,0.837890625,2.07855224609375,-1.891632080078125,0.01495361328125,1.0,1.0,1.0,1.0,1.0,100.0,event
12:31:30.980,0.7417822,0.260694,-0.5899377,0.5026197,0.30715036,0.2255671,-0.43122688,0.4010181,0.5461184,0.40010777,0.03421124,0.6579215,0.65471417,1.0186017,0.5148997,0.6076424,0.6261447,1.0102485,0.7070059,0.3846188,793.7729,802.23444,792.1612,787.72894,713.9927,-0.49371337890625,0.2049560546875,0.837890625,2.07855224609375,-1.891632080078125,0.01495361328125,1.0,1.0,1.0,1.0,1.0,100.0,event
12:31:30.981,0.7417822,0.260694,-0.5899377,0.5026197,0.30715036,0.2255671,-0.43122688,0.4010181,0.5461184,0.40010777,0.03421124,0.6579215,0.65471417,1.0186017,0.5148997,0.6076424,0.6261447,1.0102485,0.7070059,0.3846188,785.7143,794.9817,798.60803,799.41394,831.2454,-0.49371337890625,0.2049560546875,0.837890625,2.07855224609375,-1.891632080078125,0.01495361328125,1.0,1.0,1.0,1.0,1.0,100.0,event
12:31:30.982,0.7417822,0.260694,-0.5899377,0.5026197,0.30715036,0.2255671,-0.43122688,0.4010181,0.5461184,0.40010777,0.03421124,0.6579215,0.65471417,1.0186017,0.5148997,0.6076424,0.6261447,1.0102485,0.7070059,0.3846188,794.57874,782.49084,790.14655,808.2784,985.9707,-0.49371337890625,0.2049560546875,0.837890625,2.07855224609375,-1.891632080078125,0.01495361328125,1.0,1.0,1.0,1.0,1.0,100.0,event
12:31:30.982,0.7417822,0.260694,-0.5899377,0.5026197,0.30715036,0.2255671,-0.43122688,0.4010181,0.5461184,0.40010777,0.03421124,0.6579215,0.65471417,1.0186017,0.5148997,0.6076424,0.6261447,1.0102485,0.7070059,0.3846188,798.60803,790.14655,803.44324,820.3663,1128.2051,-0.49371337890625,0.2049560546875,0.837890625,2.07855224609375,-1.891632080078125,0.01495361328125,1.0,1.0,1.0,1.0,1.0,100.0,event
12:31:30.983,0.7417822,0.260694,-0.5899377,0.5026197,0.30715036,0.2255671,-0.43122688,0.4010181,0.5461184,0.40010777,0.03421124,0.6579215,0.65471417,1.0186017,0.5148997,0.6076424,0.6261447,1.0102485,0.7070059,0.3846188,797.8022,840.10986,806.6667,814.7253,854.21246,-0.49371337890625,0.2049560546875,0.837890625,2.07855224609375,-1.891632080078125,0.01495361328125,1.0,1.0,1.0,1.0,1.0,100.0,event
12:31:30.983,0.7417822,0.260694,-0.5899377,0.5026197,0.30715036,0.2255671,-0.43122688,0.4010181,0.5461184,0.40010777,0.03421124,0.6579215,0.65471417,1.0186017,0.5148997,0.6076424,0.6261447,1.0102485,0.7070059,0.3846188,805.05493,810.696,797.3993,810.696,719.2308,-0.49371337890625,0.2049560546875,0.837890625,2.07855224609375,-1.891632080078125,0.01495361328125,1.0,1.0,1.0,1.0,1.0,100.0,event
12:31:30.984,0.7417822,0.260694,-0.5899377,0.5026197,0.30715036,0.2255671,-0.43122688,0.4010181,0.5461184,0.40010777,0.03421124,0.6579215,0.65471417,1.0186017,0.5148997,0.6076424,0.6261447,1.0102485,0.7070059,0.3846188,803.0403,782.8938,802.23444,818.3516,747.03296,-0.49371337890625,0.2049560546875,0.837890625,2.07855224609375,-1.891632080078125,0.01495361328125,1.0,1.0,1.0,1.0,1.0,100.0,event
12:31:31.011,0.7417822,0.260694,-0.5899377,0.5026197,0.30715036,0.2255671,-0.43122688,0.4010181,0.5461184,0.40010777,0.03421124,0.6579215,0.65471417,1.0186017,0.5148997,0.6076424,0.6261447,1.0102485,0.7070059,0.3846188,796.1905,799.011,799.41394,811.0989,702.71063,-0.50079345703125,0.2005615234375,0.8408203125,1.51031494140625,-3.5888671875,-0.052337646484375,1.0,1.0,1.0,1.0,1.0,100.0,event
12:31:31.012,0.73987055,0.260694,-0.54655856,0.49821216,0.31090888,0.2255671,-0.40398952,0.40564287,0.6005534,0.40010777,0.0455556,0.66517127,0.67307794,1.0186017,0.51755494,0.62578684,0.61361593,1.0102485,0.7144471,0.41034785,802.6374,819.9634,800.6227,809.4872,642.674,-0.50079345703125,0.2005615234375,0.8408203125,1.51031494140625,-3.5888671875,-0.052337646484375,1.0,1.0,1.0,1.0,1.0,100.0,event
12:31:31.015,0.73987055,0.260694,-0.54655856,0.49821216,0.31090888,0.2255671,-0.40398952,0.40564287,0.6005534,0.40010777,0.0455556,0.66517127,0.67307794,1.0186017,0.51755494,0.62578684,0.61361593,1.0102485,0.7144471,0.41034785,805.4579,815.12823,805.05493,819.15753,674.5055,-0.50079345703125,0.2005615234375,0.8408203125,1.51031494140625,-3.5888671875,-0.052337646484375,1.0,1.0,1.0,1.0,1.0,100.0,event
12:31:31.016,0.73987055,0.260694,-0.54655856,0.49821216,0.31090888,0.2255671,-0.40398952,0.40564287,0.6005534,0.40010777,0.0455556,0.66517127,0.67307794,1.0186017,0.51755494,0.62578684,0.61361593,1.0102485,0.7144471,0.41034785,806.26373,795.38464,803.0403,819.5604,834.0659,-0.50079345703125,0.2005615234375,0.8408203125,1.51031494140625,-3.5888671875,-0.052337646484375,1.0,1.0,1.0,1.0,1.0,100.0,event
12:31:31.016,0.73987055,0.260694,-0.54655856,0.49821216,0.31090888,0.2255671,-0.40398952,0.40564287,0.6005534,0.40010777,0.0455556,0.66517127,0.67307794,1.0186017,0.51755494,0.62578684,0.61361593,1.0102485,0.7144471,0.41034785,808.2784,809.4872,798.60803,813.91943,799.41394,-0.50079345703125,0.2005615234375,0.8408203125,1.51031494140625,-3.5888671875,-0.052337646484375,1.0,1.0,1.0,1.0,1.0,100.0,event
12:31:31.017,0.73987055,0.260694,-0.54655856,0.49821216,0.31090888,0.2255671,-0.40398952,0.40564287,0.6005534,0.40010777,0.0455556,0.66517127,0.67307794,1.0186017,0.51755494,0.62578684,0.61361593,1.0102485,0.7144471,0.41034785,794.9817,805.05493,788.1319,800.2198,829.2308,-0.50079345703125,0.2005615234375,0.8408203125,1.51031494140625,-3.5888671875,-0.052337646484375,1.0,1.0,1.0,1.0,1.0,100.0,event
12:31:31.017,0.73987055,0.260694,-0.54655856,0.49821216,0.31090888,0.2255671,-0.40398952,0.40564287,0.6005534,0.40010777,0.0455556,0.66517127,0.67307794,1.0186017,0.51755494,0.62578684,0.61361593,1.0102485,0.7144471,0.41034785,776.8498,790.9524,799.011,772.4176,947.28937,-0.50079345703125,0.2005615234375,0.8408203125,1.51031494140625,-3.5888671875,-0.052337646484375,1.0,1.0,1.0,1.0,1.0,100.0,event
12:31:31.018,0.73987055,0.260694,-0.54655856,0.49821216,0.31090888,0.2255671,-0.40398952,0.40564287,0.6005534,0.40010777,0.0455556,0.66517127,0.67307794,1.0186017,0.51755494,0.62578684,0.61361593,1.0102485,0.7144471,0.41034785,786.1172,741.39197,800.2198,796.99634,1068.1685,-0.50079345703125,0.2005615234375,0.8408203125,1.51031494140625,-3.5888671875,-0.052337646484375,1.0,1.0,1.0,1.0,1.0,100.0,event
12:31:31.018,0.73987055,0.260694,-0.54655856,0.49821216,0.31090888,0.2255671,-0.40398952,0.40564287,0.6005534,0.40010777,0.0455556,0.66517127,0.67307794,1.0186017,0.51755494,0.62578684,0.61361593,1.0102485,0.7144471,0.41034785,794.9817,793.36993,786.52014,826.4103,942.8571,-0.50079345703125,0.2005615234375,0.8408203125,1.51031494140625,-3.5888671875,-0.052337646484375,1.0,1.0,1.0,1.0,1.0,100.0,event
12:31:31.019,0.73987055,0.260694,-0.54655856,0.49821216,0.31090888,0.2255671,-0.40398952,0.40564287,0.6005534,0.40010777,0.0455556,0.66517127,0.67307794,1.0186017,0.51755494,0.62578684,0.61361593,1.0102485,0.7144471,0.41034785,794.9817,839.304,796.1905,796.5934,743.8095,-0.50079345703125,0.2005615234375,0.8408203125,1.51031494140625,-3.5888671875,-0.052337646484375,1.0,1.0,1.0,1.0,1.0,100.0,event
12:31:31.020,0.73987055,0.260694,-0.54655856,0.49821216,0.31090888,0.2255671,-0.40398952,0.40564287,0.6005534,0.40010777,0.0455556,0.66517127,0.67307794,1.0186017,0.51755494,0.62578684,0.61361593,1.0102485,0.7144471,0.41034785,778.46155,804.2491,799.81683,766.3736,734.1392,-0.50079345703125,0.2005615234375,0.8408203125,1.51031494140625,-3.5888671875,-0.052337646484375,1.0,1.0,1.0,1.0,1.0,100.0,event
12:31:31.020,0.73987055,0.260694,-0.54655856,0.49821216,0.31090888,0.2255671,-0.40398952,0.40564287,0.6005534,0.40010777,0.0455556,0.66517127,0.67307794,1.0186017,0.51755494,0.62578684,0.61361593,1.0102485,0.7144471,0.41034785,776.8498,811.50183,792.96704,782.8938,697.8755,-0.50079345703125,0.2005615234375,0.8408203125,1.51031494140625,-3.5888671875,-0.052337646484375,1.0,1.0,1.0,1.0,1.0,100.0,event
12:31:31.078,0.73987055,0.260694,-0.54655856,0.49821216,0.31090888,0.2255671,-0.40398952,0.40564287,0.6005534,0.40010777,0.0455556,0.66517127,0.67307794,1.0186017,0.51755494,0.62578684,0.61361593,1.0102485,0.7144471,0.41034785,788.93774,826.4103,793.36993,794.57874,713.5897,-0.50079345703125,0.2005615234375,0.8408203125,1.51031494140625,-3.5888671875,-0.052337646484375,1.0,1.0,1.0,1.0,1.0,100.0,event
12:31:31.079,0.73987055,0.260694,-0.54655856,0.49821216,0.31090888,0.2255671,-0.40398952,0.40564287,0.6005534,0.40010777,0.0455556,0.66517127,0.67307794,1.0186017,0.51755494,0.62578684,0.61361593,1.0102485,0.7144471,0.41034785,803.44324,812.71063,805.8608,794.9817,707.1429,-0.50079345703125,0.2005615234375,0.8408203125,1.51031494140625,-3.5888671875,-0.052337646484375,1.0,1.0,1.0,1.0,1.0,100.0,event
12:31:31.079,0.73987055,0.260694,-0.54655856,0.49821216,0.31090888,0.2255671,-0.40398952,0.40564287,0.6005534,0.40010777,0.0455556,0.66517127,0.67307794,1.0186017,0.51755494,0.62578684,0.61361593,1.0102485,0.7144471,0.41034785,805.8608,778.0586,802.23444,795.78754,724.4689,-0.50079345703125,0.2005615234375,0.8408203125,1.51031494140625,-3.5888671875,-0.052337646484375,1.0,1.0,1.0,1.0,1.0,100.0,event
12:31:31.080,0.73987055,0.260694,-0.54655856,0.49821216,0.31090888,0.2255671,-0.40398952,0.40564287,0.6005534,0.40010777,0.0455556,0.66517127,0.67307794,1.0186017,0.51755494,0.62578684,0.61361593,1.0102485,0.7144471,0.41034785,796.5934,790.14655,790.14655,789.7436,771.2088,-0.50079345703125,0.2005615234375,0.8408203125,1.51031494140625,-3.5888671875,-0.052337646484375,1.0,1.0,1.0,1.0,1.0,100.0,event
12:31:31.081,0.73987055,0.260694,-0.54655856,0.49821216,0.31090888,0.2255671,-0.40398952,0.40564287,0.6005534,0.40010777,0.0455556,0.66517127,0.67307794,1.0186017,0.51755494,0.62578684,0.61361593,1.0102485,0.7144471,0.41034785,796.1905,811.9048,796.1905,806.6667,734.94507,-0.50079345703125,0.2005615234375,0.8408203125,1.51031494140625,-3.5888671875,-0.052337646484375,1.0,1.0,1.0,1.0,1.0,100.0,event
12:31:31.081,0.73987055,0.260694,-0.54655856,0.49821216,0.31090888,0.2255671,-0.40398952,0.40564287,0.6005534,0.40010777,0.0455556,0.66517127,0.67307794,1.0186017,0.51755494,0.62578684,0.61361593,1.0102485,0.7144471,0.41034785,782.8938,802.23444,806.26373,811.50183,705.5311,-0.50079345703125,0.2005615234375,0.8408203125,1.51031494140625,-3.5888671875,-0.052337646484375,1.0,1.0,1.0,1.0,1.0,100.0,event
12:31:31.082,0.73987055,0.260694,-0.54655856,0.49821216,0.31090888,0.2255671,-0.40398952,0.40564287,0.6005534,0.40010777,0.0455556,0.66517127,0.67307794,1.0186017,0.51755494,0.62578684,0.61361593,1.0102485,0.7144471,0.41034785,775.2381,751.8681,809.4872,803.44324,848.5714,-0.50079345703125,0.2005615234375,0.8408203125,1.51031494140625,-3.5888671875,-0.052337646484375,1.0,1.0,1.0,1.0,1.0,100.0,event
12:31:31.083,0.73987055,0.260694,-0.54655856,0.49821216,0.31090888,0.2255671,-0.40398952,0.40564287,0.6005534,0.40010777,0.0455556,0.66517127,0.67307794,1.0186017,0.51755494,0.62578684,0.61361593,1.0102485,0.7144471,0.41034785,783.2967,747.8388,813.91943,807.8755,1017.3993,-0.50079345703125,0.2005615234375,0.8408203125,1.51031494140625,-3.5888671875,-0.052337646484375,1.0,1.0,1.0,1.0,1.0,100.0,event
12:31:31.083,0.73987055,0.260694,-0.54655856,0.49821216,0.31090888,0.2255671,-0.40398952,0.40564287,0.6005534,0.40010777,0.0455556,0.66517127,0.67307794,1.0186017,0.51755494,0.62578684,0.61361593,1.0102485,0.7144471,0.41034785,786.52014,843.3333,814.3223,805.8608,765.16486,-0.50079345703125,0.2005615234375,0.8408203125,1.51031494140625,-3.5888671875,-0.052337646484375,1.0,1.0,1.0,1.0,1.0,100.0,event
12:31:31.084,0.73987055,0.260694,-0.54655856,0.49821216,0.31090888,0.2255671,-0.40398952,0.40564287,0.6005534,0.40010777,0.0455556,0.66517127,0.67307794,1.0186017,0.51755494,0.62578684,0.61361593,1.0102485,0.7144471,0.41034785,805.8608,809.89014,803.8461,807.8755,759.12085,-0.50079345703125,0.2005615234375,0.8408203125,1.51031494140625,-3.5888671875,-0.052337646484375,1.0,1.0,1.0,1.0,1.0,100.0,event
12:31:31.084,0.73987055,0.260694,-0.54655856,0.49821216,0.31090888,0.2255671,-0.40398952,0.40564287,0.6005534,0.40010777,0.0455556,0.66517127,0.67307794,1.0186017,0.51755494,0.62578684,0.61361593,1.0102485,0.7144471,0.41034785,793.36993,841.31866,810.696,809.4872,647.1062,-0.50079345703125,0.2005615234375,0.8408203125,1.51031494140625,-3.5888671875,-0.052337646484375,1.0,1.0,1.0,1.0,1.0,100.0,event
12:31:31.085,0.73987055,0.260694,-0.54655856,0.49821216,0.31090888,0.2255671,-0.40398952,0.40564287,0.6005534,0.40010777,0.0455556,0.66517127,0.67307794,1.0186017,0.51755494,0.62578684,0.61361593,1.0102485,0.7144471,0.41034785,797.8022,820.3663,798.60803,803.8461,684.57874,-0.50079345703125,0.2005615234375,0.8408203125,1.51031494140625,-3.5888671875,-0.052337646484375,1.0,1.0,1.0,1.0,1.0,100.0,event
12:31:31.111,0.73987055,0.260694,-0.54655856,0.49821216,0.31090888,0.2255671,-0.40398952,0.40564287,0.6005534,0.40010777,0.0455556,0.66517127,0.67307794,1.0186017,0.51755494,0.62578684,0.61361593,1.0102485,0.7144471,0.41034785,785.7143,798.20514,804.65204,815.9341,619.707,-0.49407958984375,0.20526123046875,0.8323974609375,2.385101318359375,-2.908477783203125,-0.471038818359375,1.0,1.0,1.0,1.0,1.0,100.0,event
12:31:31.112,0.73987055,0.260694,-0.54655856,0.49821216,0.31090888,0.2255671,-0.40398952,0.40564287,0.6005534,0.40010777,0.0455556,0.66517127,0.67307794,1.0186017,0.51755494,0.62578684,0.61361593,1.0102485,0.7144471,0.41034785,787.72894,788.5348,795.38464,799.81683,709.9634,-0.49407958984375,0.20526123046875,0.8323974609375,2.385101318359375,-2.908477783203125,-0.471038818359375,1.0,1.0,1.0,1.0,1.0,100.0,event
12:31:31.113,0.73987055,0.260694,-0.54655856,0.49821216,0.31090888,0.2255671,-0.40398952,0.40564287,0.6005534,0.40010777,0.0455556,0.66517127,0.67307794,1.0186017,0.51755494,0.62578684,0.61361593,1.0102485,0.7144471,0.41034785,780.87915,789.34064,780.07324,772.4176,751.06226,-0.49407958984375,0.20526123046875,0.8323974609375,2.385101318359375,-2.908477783203125,-0.471038818359375,1.0,1.0,1.0,1.0,1.0,100.0,event
12:31:31.113,0.728453,0.260694,-0.49021828,0.4906747,0.303698,0.2255671,-0.36132747,0.39669234,0.70893484,0.40010777,0.053589504,0.7183844,0.6832301,1.0186017,0.51441956,0.64453244,0.6033015,1.0102485,0.72281766,0.44831318,786.52014,802.6374,790.9524,788.1319,751.4652,-0.49407958984375,0.20526123046875,0.8323974609375,2.385101318359375,-2.908477783203125,-0.471038818359375,1.0,1.0,1.0,1.0,1.0,100.0,event
12:31:31.117,0.728453,0.260694,-0.49021828,0.4906747,0.303698,0.2255671,-0.36132747,0.39669234,0.70893484,0.40010777,0.053589504,0.7183844,0.6832301,1.0186017,0.51441956,0.64453244,0.6033015,1.0102485,0.72281766,0.44831318,787.72894,799.011,801.02563,790.9524,699.0842,-0.49407958984375,0.20526123046875,0.8323974609375,2.385101318359375,-2.908477783203125,-0.471038818359375,1.0,1.0,1.0,1.0,1.0,100.0,event
12:31:31.118,0.728453,0.260694,-0.49021828,0.4906747,0.303698,0.2255671,-0.36132747,0.39669234,0.70893484,0.40010777,0.053589504,0.7183844,0.6832301,1.0186017,0.51441956,0.64453244,0.6033015,1.0102485,0.72281766,0.44831318,783.69965,761.53845,796.5934,799.41394,763.1502,-0.49407958984375,0.20526123046875,0.8323974609375,2.385101318359375,-2.908477783203125,-0.471038818359375,1.0,1.0,1.0,1.0,1.0,100.0,event
12:31:31.119,0.728453,0.260694,-0.49021828,0.4906747,0.303698,0.2255671,-0.36132747,0.39669234,0.70893484,0.40010777,0.053589504,0.7183844,0.6832301,1.0186017,0.51441956,0.64453244,0.6033015,1.0102485,0.72281766,0.44831318,790.54944,749.85345,795.38464,809.0842,1046.4103,-0.49407958984375,0.20526123046875,0.8323974609375,2.385101318359375,-2.908477783203125,-0.471038818359375,1.0,1.0,1.0,1.0,1.0,100.0,event
12:31:31.119,0.728453,0.260694,-0.49021828,0.4906747,0.303698,0.2255671,-0.36132747,0.39669234,0.70893484,0.40010777,0.053589504,0.7183844,0.6832301,1.0186017,0.51441956,0.64453244,0.6033015,1.0102485,0.72281766,0.44831318,781.685,800.2198,790.54944,790.9524,975.89746,-0.49407958984375,0.20526123046875,0.8323974609375,2.385101318359375,-2.908477783203125,-0.471038818359375,1.0,1.0,1.0,1.0,1.0,100.0,event
12:31:31.120,0.728453,0.260694,-0.49021828,0.4906747,0.303698,0.2255671,-0.36132747,0.39669234,0.70893484,0.40010777,0.053589504,0.7183844,0.6832301,1.0186017,0.51441956,0.64453244,0.6033015,1.0102485,0.72281766,0.44831318,766.3736,821.978,792.5641,774.0293,696.6667,-0.49407958984375,0.20526123046875,0.8323974609375,2.385101318359375,-2.908477783203125,-0.471038818359375,1.0,1.0,1.0,1.0,1.0,100.0,event
12:31:31.120,0.728453,0.260694,-0.49021828,0.4906747,0.303698,0.2255671,-0.36132747,0.39669234,0.70893484,0.40010777,0.053589504,0.7183844,0.6832301,1.0186017,0.51441956,0.64453244,0.6033015,1.0102485,0.72281766,0.44831318,776.4469,793.7729,799.011,782.49084,760.7326,-0.49407958984375,0.20526123046875,0.8323974609375,2.385101318359375,-2.908477783203125,-0.471038818359375,1.0,1.0,1.0,1.0,1.0,100.0,event
12:31:31.121,0.728453,0.260694,-0.49021828,0.4906747,0.303698,0.2255671,-0.36132747,0.39669234,0.70893484,0.40010777,0.053589504,0.7183844,0.6832301,1.0186017,0.51441956,0.64453244,0.6033015,1.0102485,0.72281766,0.44831318,774.0293,795.78754,782.0879,793.36993,888.46155,-0.49407958984375,0.20526123046875,0.8323974609375,2.385101318359375,-2.908477783203125,-0.471038818359375,1.0,1.0,1.0,1.0,1.0,100.0,event
12:31:31.122,0.728453,0.260694,-0.49021828,0.4906747,0.303698,0.2255671,-0.36132747,0.39669234,0.70893484,0.40010777,0.053589504,0.7183844,0.6832301,1.0186017,0.51441956,0.64453244,0.6033015,1.0102485,0.72281766,0.44831318,774.83514,830.84247,790.54944,794.17584,753.47986,-0.49407958984375,0.20526123046875,0.8323974609375,2.385101318359375,-2.908477783203125,-0.471038818359375,1.0,1.0,1.0,1.0,1.0,100.0,event
12:31:31.145,0.728453,0.260694,-0.49021828,0.4906747,0.303698,0.2255671,-0.36132747,0.39669234,0.70893484,0.40010777,0.053589504,0.7183844,0.6832301,1.0186017,0.51441956,0.64453244,0.6033015,1.0102485,0.72281766,0.44831318,785.31134,820.7692,803.44324,803.8461,685.38464,-0.50018310546875,0.1983642578125,0.82904052734375,2.220611572265625,-1.9439697265625,-1.2860107421875,1.0,1.0,1.0,1.0,1.0,100.0,event
12:31:31.146,0.728453,0.260694,-0.49021828,0.4906747,0.303698,0.2255671,-0.36132747,0.39669234,0.70893484,0.40010777,0.053589504,0.7183844,0.6832301,1.0186017,0.51441956,0.64453244,0.6033015,1.0102485,0.72281766,0.44831318,788.1319,797.3993,802.6374,807.0696,740.989,-0.50018310546875,0.1983642578125,0.82904052734375,2.220611572265625,-1.9439697265625,-1.2860107421875,1.0,1.0,1.0,1.0,1.0,100.0,event
12:31:31.146,0.728453,0.260694,-0.49021828,0.4906747,0.303698,0.2255671,-0.36132747,0.39669234,0.70893484,0.40010777,0.053589504,0.7183844,0.6832301,1.0186017,0.51441956,0.64453244,0.6033015,1.0102485,0.72281766,0.44831318,796.1905,798.20514,810.293,809.4872,765.56775,-0.50018310546875,0.1983642578125,0.82904052734375,2.220611572265625,-1.9439697265625,-1.2860107421875,1.0,1.0,1.0,1.0,1.0,100.0,event
12:31:31.147,0.728453,0.260694,-0.49021828,0.4906747,0.303698,0.2255671,-0.36132747,0.39669234,0.70893484,0.40010777,0.053589504,0.7183844,0.6832301,1.0186017,0.51441956,0.64453244,0.6033015,1.0102485,0.72281766,0.44831318,800.6227,785.31134,790.9524,809.0842,744.61536,-0.50018310546875,0.1983642578125,0.82904052734375,2.220611572265625,-1.9439697265625,-1.2860107421875,1.0,1.0,1.0,1.0,1.0,100.0,event
12:31:31.149,0.728453,0.260694,-0.49021828,0.4906747,0.303698,0.2255671,-0.36132747,0.39669234,0.70893484,0.40010777,0.053589504,0.7183844,0.6832301,1.0186017,0.51441956,0.64453244,0.6033015,1.0102485,0.72281766,0.44831318,802.23444,777.25275,792.96704,799.41394,774.83514,-0.50018310546875,0.1983642578125,0.82904052734375,2.220611572265625,-1.9439697265625,-1.2860107421875,1.0,1.0,1.0,1.0,1.0,100.0,event
12:31:31.150,0.728453,0.260694,-0.49021828,0.4906747,0.303698,0.2255671,-0.36132747,0.39669234,0.70893484,0.40010777,0.053589504,0.7183844,0.6832301,1.0186017,0.51441956,0.64453244,0.6033015,1.0102485,0.72281766,0.44831318,792.1612,780.4762,813.5165,795.38464,889.67035,-0.50018310546875,0.1983642578125,0.82904052734375,2.220611572265625,-1.9439697265625,-1.2860107421875,1.0,1.0,1.0,1.0,1.0,100.0,event
12:31:31.151,0.728453,0.260694,-0.49021828,0.4906747,0.303698,0.2255671,-0.36132747,0.39669234,0.70893484,0.40010777,0.053589504,0.7183844,0.6832301,1.0186017,0.51441956,0.64453244,0.6033015,1.0102485,0.72281766,0.44831318,792.96704,805.4579,788.1319,786.1172,764.35895,-0.50018310546875,0.1983642578125,0.82904052734375,2.220611572265625,-1.9439697265625,-1.2860107421875,1.0,1.0,1.0,1.0,1.0,100.0,event
12:31:31.151,0.728453,0.260694,-0.49021828,0.4906747,0.303698,0.2255671,-0.36132747,0.39669234,0.70893484,0.40010777,0.053589504,0.7183844,0.6832301,1.0186017,0.51441956,0.64453244,0.6033015,1.0102485,0.72281766,0.44831318,786.52014,784.90845,805.05493,790.14655,901.3553,-0.50018310546875,0.1983642578125,0.82904052734375,2.220611572265625,-1.9439697265625,-1.2860107421875,1.0,1.0,1.0,1.0,1.0,100.0,event
12:31:31.152,0.728453,0.260694,-0.49021828,0.4906747,0.303698,0.2255671,-0.36132747,0.39669234,0.70893484,0.40010777,0.053589504,0.7183844,0.6832301,1.0186017,0.51441956,0.64453244,0.6033015,1.0102485,0.72281766,0.44831318,794.57874,812.3077,783.2967,797.8022,672.8938,-0.50018310546875,0.1983642578125,0.82904052734375,2.220611572265625,-1.9439697265625,-1.2860107421875,1.0,1.0,1.0,1.0,1.0,100.0,event
12:31:31.153,0.728453,0.260694,-0.49021828,0.4906747,0.303698,0.2255671,-0.36132747,0.39669234,0.70893484,0.40010777,0.053589504,0.7183844,0.6832301,1.0186017,0.51441956,0.64453244,0.6033015,1.0102485,0.72281766,0.44831318,794.9817,772.01465,799.011,803.8461,850.989,-0.50018310546875,0.1983642578125,0.82904052734375,2.220611572265625,-1.9439697265625,-1.2860107421875,1.0,1.0,1.0,1.0,1.0,100.0,event
12:31:31.153,0.728453,0.260694,-0.49021828,0.4906747,0.303698,0.2255671,-0.36132747,0.39669234,0.70893484,0.40010777,0.053589504,0.7183844,0.6832301,1.0186017,0.51441956,0.64453244,0.6033015,1.0102485,0.72281766,0.44831318,801.8315,797.8022,803.8461,797.3993,1009.34064,-0.50018310546875,0.1983642578125,0.82904052734375,2.220611572265625,-1.9439697265625,-1.2860107421875,1.0,1.0,1.0,1.0,1.0,100.0,event
12:31:31.154,0.728453,0.260694,-0.49021828,0.4906747,0.303698,0.2255671,-0.36132747,0.39669234,0.70893484,0.40010777,0.053589504,0.7183844,0.6832301,1.0186017,0.51441956,0.64453244,0.6033015,1.0102485,0.72281766,0.44831318,804.65204,849.7802,808.68134,802.23444,809.89014,-0.50018310546875,0.1983642578125,0.82904052734375,2.220611572265625,-1.9439697265625,-1.2860107421875,1.0,1.0,1.0,1.0,1.0,100.0,event
12:31:31.210,0.728453,0.260694,-0.49021828,0.4906747,0.303698,0.2255671,-0.36132747,0.39669234,0.70893484,0.40010777,0.053589504,0.7183844,0.6832301,1.0186017,0.51441956,0.64453244,0.6033015,1.0102485,0.72281766,0.44831318,794.9817,819.15753,794.17584,797.3993,756.30035,-0.489501953125,0.20281982421875,0.841796875,2.6019287109375,0.022430419921875,-1.3458251953125,1.0,1.0,1.0,1.0,1.0,100.0,event
12:31:31.211,0.728453,0.260694,-0.49021828,0.4906747,0.303698,0.2255671,-0.36132747,0.39669234,0.70893484,0.40010777,0.053589504,0.7183844,0.6832301,1.0186017,0.51441956,0.64453244,0.6033015,1.0102485,0.72281766,0.44831318,796.1905,774.43225,795.38464,788.5348,944.87177,-0.489501953125,0.20281982421875,0.841796875,2.6019287109375,0.022430419921875,-1.3458251953125,1.0,1.0,1.0,1.0,1.0,100.0,event
12:31:31.212,0.728453,0.260694,-0.49021828,0.4906747,0.303698,0.2255671,-0.36132747,0.39669234,0.70893484,0.40010777,0.053589504,0.7183844,0.6832301,1.0186017,0.51441956,0.64453244,0.6033015,1.0102485,0.72281766,0.44831318,804.2491,797.8022,811.9048,799.81683,867.1062,-0.489501953125,0.20281982421875,0.841796875,2.6019287109375,0.022430419921875,-1.3458251953125,1.0,1.0,1.0,1.0,1.0,100.0,event
12:31:31.212,0.728453,0.260694,-0.49021828,0.4906747,0.303698,0.2255671,-0.36132747,0.39669234,0.70893484,0.40010777,0.053589504,0.7183844,0.6832301,1.0186017,0.51441956,0.64453244,0.6033015,1.0102485,0.72281766,0.44831318,799.011,814.7253,811.50183,804.65204,687.8022,-0.489501953125,0.20281982421875,0.841796875,2.6019287109375,0.022430419921875,-1.3458251953125,1.0,1.0,1.0,1.0,1.0,100.0,event
12:31:31.213,0.71284115,-0.41301212,-0.43793887,0.4796062,0.28921115,-0.049719352,-0.3188516,0.3750098,0.79947466,0.16124843,0.046342995,0.79756767,0.68916404,1.2328042,0.50155014,0.6689014,0.59489346,0.9779353,0.72799563,0.48881686,784.10254,782.8938,788.1319,800.6227,888.0586,-0.489501953125,0.20281982421875,0.841796875,2.6019287109375,0.022430419921875,-1.3458251953125,1.0,1.0,1.0,1.0,1.0,100.0,event
12:31:31.213,0.728453,0.260694,-0.49021828,0.4906747,0.303698,0.2255671,-0.36132747,0.39669234,0.70893484,0.40010777,0.053589504,0.7183844,0.6832301,1.0186017,0.51441956,0.64453244,0.6033015,1.0102485,0.72281766,0.44831318,787.72894,800.6227,800.2198,797.8022,736.9597,-0.489501953125,0.20281982421875,0.841796875,2.6019287109375,0.022430419921875,-1.3458251953125,1.0,1.0,1.0,1.0,1.0,100.0,event
12:31:31.218,0.71284115,-0.41301212,-0.43793887,0.4796062,0.28921115,-0.049719352,-0.3188516,0.3750098,0.79947466,0.16124843,0.046342995,0.79756767,0.68916404,1.2328042,0.50155014,0.6689014,0.59489346,0.9779353,0.72799563,0.48881686,795.38464,784.10254,796.1905,813.1135,871.9414,-0.489501953125,0.20281982421875,0.841796875,2.6019287109375,0.022430419921875,-1.3458251953125,1.0,1.0,1.0,1.0,1.0,100.0,event
12:31:31.218,0.71284115,-0.41301212,-0.43793887,0.4796062,0.28921115,-0.049719352,-0.3188516,0.3750098,0.79947466,0.16124843,0.046342995,0.79756767,0.68916404,1.2328042,0.50155014,0.6689014,0.59489346,0.9779353,0.72799563,0.48881686,797.8022,816.337,802.6374,803.8461,709.5604,-0.489501953125,0.20281982421875,0.841796875,2.6019287109375,0.022430419921875,-1.3458251953125,1.0,1.0,1.0,1.0,1.0,100.0,event
12:31:31.219,0.71284115,-0.41301212,-0.43793887,0.4796062,0.28921115,-0.049719352,-0.3188516,0.3750098,0.79947466,0.16124843,0.046342995,0.79756767,0.68916404,1.2328042,0.50155014,0.6689014,0.59489346,0.9779353,0.72799563,0.48881686,791.75824,800.6227,794.17584,803.8461,748.24176,-0.489501953125,0.20281982421875,0.841796875,2.6019287109375,0.022430419921875,-1.3458251953125,1.0,1.0,1.0,1.0,1.0,100.0,event
12:31:31.220,0.71284115,-0.41301212,-0.43793887,0.4796062,0.28921115,-0.049719352,-0.3188516,0.3750098,0.79947466,0.16124843,0.046342995,0.79756767,0.68916404,1.2328042,0.50155014,0.6689014,0.59489346,0.9779353,0.72799563,0.48881686,792.96704,763.95605,806.6667,813.5165,1008.1319,-0.489501953125,0.20281982421875,0.841796875,2.6019287109375,0.022430419921875,-1.3458251953125,1.0,1.0,1.0,1.0,1.0,100.0,event
12:31:31.220,0.71284115,-0.41301212,-0.43793887,0.4796062,0.28921115,-0.049719352,-0.3188516,0.3750098,0.79947466,0.16124843,0.046342995,0.79756767,0.68916404,1.2328042,0.50155014,0.6689014,0.59489346,0.9779353,0.72799563,0.48881686,801.02563,815.9341,807.47253,804.2491,855.0183,-0.489501953125,0.20281982421875,0.841796875,2.6019287109375,0.022430419921875,-1.3458251953125,1.0,1.0,1.0,1.0,1.0,100.0,event
12:31:31.221,0.71284115,-0.41301212,-0.43793887,0.4796062,0.28921115,-0.049719352,-0.3188516,0.3750098,0.79947466,0.16124843,0.046342995,0.79756767,0.68916404,1.2328042,0.50155014,0.6689014,0.59489346,0.9779353,0.72799563,0.48881686,809.0842,823.5897,795.78754,807.8755,668.0586,-0.489501953125,0.20281982421875,0.841796875,2.6019287109375,0.022430419921875,-1.3458251953125,1.0,1.0,1.0,1.0,1.0,100.0,event
12:31:31.245,0.71284115,-0.41301212,-0.43793887,0.4796062,0.28921115,-0.049719352,-0.3188516,0.3750098,0.79947466,0.16124843,0.046342995,0.79756767,0.68916404,1.2328042,0.50155014,0.6689014,0.59489346,0.9779353,0.72799563,0.48881686,789.34064,805.4579,805.05493,794.17584,776.8498,-0.4954833984375,0.20306396484375,0.836669921875,1.532745361328125,-3.043060302734375,0.590667724609375,1.0,1.0,1.0,1.0,1.0,100.0,event
12:31:31.245,0.71284115,-0.41301212,-0.43793887,0.4796062,0.28921115,-0.049719352,-0.3188516,0.3750098,0.79947466,0.16124843,0.046342995,0.79756767,0.68916404,1.2328042,0.50155014,0.6689014,0.59489346,0.9779353,0.72799563,0.48881686,800.6227,788.1319,788.93774,801.4286,725.6777,-0.4954833984375,0.20306396484375,0.836669921875,1.532745361328125,-3.043060302734375,0.590667724609375,1.0,1.0,1.0,1.0,1.0,100.0,event
12:31:31.246,0.71284115,-0.41301212,-0.43793887,0.4796062,0.28921115,-0.049719352,-0.3188516,0.3750098,0.79947466,0.16124843,0.046342995,0.79756767,0.68916404,1.2328042,0.50155014,0.6689014,0.59489346,0.9779353,0.72799563,0.48881686,796.1905,831.2454,819.5604,807.8755,746.63007,-0.4954833984375,0.20306396484375,0.836669921875,1.532745361328125,-3.043060302734375,0.590667724609375,1.0,1.0,1.0,1.0,1.0,100.0,event
12:31:31.247,0.71284115,-0.41301212,-0.43793887,0.4796062,0.28921115,-0.049719352,-0.3188516,0.3750098,0.79947466,0.16124843,0.046342995,0.79756767,0.68916404,1.2328042,0.50155014,0.6689014,0.59489346,0.9779353,0.72799563,0.48881686,800.6227,815.5311,811.0989,810.696,680.14655,-0.4954833984375,0.20306396484375,0.836669921875,1.532745361328125,-3.043060302734375,0.590667724609375,1.0,1.0,1.0,1.0,1.0,100.0,event
12:31:31.247,0.71284115,-0.41301212,-0.43793887,0.4796062,0.28921115,-0.049719352,-0.3188516,0.3750098,0.79947466,0.16124843,0.046342995,0.79756767,0.68916404,1.2328042,0.50155014,0.6689014,0.59489346,0.9779353,0.72799563,0.48881686,804.65204,788.1319,804.65204,808.2784,770.80585,-0.4954833984375,0.20306396484375,0.836669921875,1.532745361328125,-3.043060302734375,0.590667724609375,1.0,1.0,1.0,1.0,1.0,100.0,event
12:31:31.248,0.71284115,-0.41301212,-0.43793887,0.4796062,0.28921115,-0.049719352,-0.3188516,0.3750098,0.79947466,0.16124843,0.046342995,0.79756767,0.68916404,1.2328042,0.50155014,0.6689014,0.59489346,0.9779353,0.72799563,0.48881686,804.2491,780.87915,804.2491,804.2491,926.7399,-0.4954833984375,0.20306396484375,0.836669921875,1.532745361328125,-3.043060302734375,0.590667724609375,1.0,1.0,1.0,1.0,1.0,100.0,event
12:31:31.249,0.71284115,-0.41301212,-0.43793887,0.4796062,0.28921115,-0.049719352,-0.3188516,0.3750098,0.79947466,0.16124843,0.046342995,0.79756767,0.68916404,1.2328042,0.50155014,0.6689014,0.59489346,0.9779353,0.72799563,0.48881686,773.6264,796.1905,792.96704,794.17584,859.0476,-0.4954833984375,0.20306396484375,0.836669921875,1.532745361328125,-3.043060302734375,0.590667724609375,1.0,1.0,1.0,1.0,1.0,100.0,event
12:31:31.249,0.71284115,-0.41301212,-0.43793887,0.4796062,0.28921115,-0.049719352,-0.3188516,0.3750098,0.79947466,0.16124843,0.046342995,0.79756767,0.68916404,1.2328042,0.50155014,0.6689014,0.59489346,0.9779353,0.72799563,0.48881686,764.35895,813.1135,795.38464,795.38464,764.35895,-0.4954833984375,0.20306396484375,0.836669921875,1.532745361328125,-3.043060302734375,0.590667724609375,1.0,1.0,1.0,1.0,1.0,100.0,event
12:31:31.250,0.71284115,-0.41301212,-0.43793887,0.4796062,0.28921115,-0.049719352,-0.3188516,0.3750098,0.79947466,0.16124843,0.046342995,0.79756767,0.68916404,1.2328042,0.50155014,0.6689014,0.59489346,0.9779353,0.72799563,0.48881686,798.20514,772.8205,794.57874,802.6374,865.89746,-0.4954833984375,0.20306396484375,0.836669921875,1.532745361328125,-3.043060302734375,0.590667724609375,1.0,1.0,1.0,1.0,1.0,100.0,event
12:31:31.250,0.71284115,-0.41301212,-0.43793887,0.4796062,0.28921115,-0.049719352,-0.3188516,0.3750098,0.79947466,0.16124843,0.046342995,0.79756767,0.68916404,1.2328042,0.50155014,0.6689014,0.59489346,0.9779353,0.72799563,0.48881686,806.6667,787.72894,795.78754,805.05493,939.6337,-0.4954833984375,0.20306396484375,0.836669921875,1.532745361328125,-3.043060302734375,0.590667724609375,1.0,1.0,1.0,1.0,1.0,100.0,event
12:31:31.251,0.71284115,-0.41301212,-0.43793887,0.4796062,0.28921115,-0.049719352,-0.3188516,0.3750098,0.79947466,0.16124843,0.046342995,0.79756767,0.68916404,1.2328042,0.50155014,0.6689014,0.59489346,0.9779353,0.72799563,0.48881686,794.17584,837.6923,803.44324,796.99634,756.7033,-0.4954833984375,0.20306396484375,0.836669921875,1.532745361328125,-3.043060302734375,0.590667724609375,1.0,1.0,1.0,1.0,1.0,100.0,event
12:31:31.252,0.71284115,-0.41301212,-0.43793887,0.4796062,0.28921115,-0.049719352,-0.3188516,0.3750098,0.79947466,0.16124843,0.046342995,0.79756767,0.68916404,1.2328042,0.50155014,0.6689014,0.59489346,0.9779353,0.72799563,0.48881686,790.54944,815.5311,791.3553,787.72894,741.79486,-0.4954833984375,0.20306396484375,0.836669921875,1.532745361328125,-3.043060302734375,0.590667724609375,1.0,1.0,1.0,1.0,1.0,100.0,event
12:31:31.312,0.71284115,-0.41301212,-0.43793887,0.4796062,0.28921115,-0.049719352,-0.3188516,0.3750098,0.79947466,0.16124843,0.046342995,0.79756767,0.68916404,1.2328042,0.50155014,0.6689014,0.59489346,0.9779353,0.72799563,0.48881686,784.90845,790.54944,790.9524,792.96704,809.0842,-0.4954833984375,0.20306396484375,0.836669921875,1.532745361328125,-3.043060302734375,0.590667724609375,1.0,1.0,1.0,1.0,1.0,100.0,event
12:31:31.313,0.71284115,-0.41301212,-0.43793887,0.4796062,0.28921115,-0.049719352,-0.3188516,0.3750098,0.79947466,0.16124843,0.046342995,0.79756767,0.68916404,1.2328042,0.50155014,0.6689014,0.59489346,0.9779353,0.72799563,0.48881686,784.10254,799.011,796.1905,796.1905,747.4359,-0.4954833984375,0.20306396484375,0.836669921875,1.532745361328125,-3.043060302734375,0.590667724609375,1.0,1.0,1.0,1.0,1.0,100.0,event
12:31:31.314,0.71284115,-0.41301212,-0.43793887,0.4796062,0.28921115,-0.049719352,-0.3188516,0.3750098,0.79947466,0.16124843,0.046342995,0.79756767,0.68916404,1.2328042,0.50155014,0.6689014,0.59489346,0.9779353,0.72799563,0.48881686,791.3553,805.05493,801.4286,788.93774,682.5641,-0.4954833984375,0.20306396484375,0.836669921875,1.532745361328125,-3.043060302734375,0.590667724609375,1.0,1.0,1.0,1.0,1.0,100.0,event
12:31:31.315,0.71284115,-0.41301212,-0.43793887,0.4796062,0.28921115,-0.049719352,-0.3188516,0.3750098,0.79947466,0.16124843,0.046342995,0.79756767,0.68916404,1.2328042,0.50155014,0.6689014,0.59489346,0.9779353,0.72799563,0.48881686,794.9817,782.0879,808.2784,789.7436,718.8278,-0.4954833984375,0.20306396484375,0.836669921875,1.532745361328125,-3.043060302734375,0.590667724609375,1.0,1.0,1.0,1.0,1.0,100.0,event
12:31:31.315,0.71284115,-0.41301212,-0.43793887,0.4796062,0.28921115,-0.049719352,-0.3188516,0.3750098,0.79947466,0.16124843,0.046342995,0.79756767,0.68916404,1.2328042,0.50155014,0.6689014,0.59489346,0.9779353,0.72799563,0.48881686,788.1319,774.0293,811.0989,797.8022,801.4286,-0.4954833984375,0.20306396484375,0.836669921875,1.532745361328125,-3.043060302734375,0.590667724609375,1.0,1.0,1.0,1.0,1.0,100.0,event
12:31:31.316,0.71284115,-0.41301212,-0.43793887,0.4796062,0.28921115,-0.049719352,-0.3188516,0.3750098,0.79947466,0.16124843,0.046342995,0.79756767,0.68916404,1.2328042,0.50155014,0.6689014,0.59489346,0.9779353,0.72799563,0.48881686,786.1172,792.5641,801.8315,796.1905,818.7546,-0.4954833984375,0.20306396484375,0.836669921875,1.532745361328125,-3.043060302734375,0.590667724609375,1.0,1.0,1.0,1.0,1.0,100.0,event
12:31:31.317,0.71284115,-0.41301212,-0.43793887,0.4796062,0.28921115,-0.049719352,-0.3188516,0.3750098,0.79947466,0.16124843,0.046342995,0.79756767,0.68916404,1.2328042,0.50155014,0.6689014,0.59489346,0.9779353,0.72799563,0.48881686,788.93774,803.0403,788.5348,790.14655,789.7436,-0.4954833984375,0.20306396484375,0.836669921875,1.532745361328125,-3.043060302734375,0.590667724609375,1.0,1.0,1.0,1.0,1.0,100.0,event
12:31:31.317,0.7000512,-0.40568313,-0.39876413,0.46595547,0.27413583,-0.122715965,-0.28360814,0.34924698,0.8301744,0.16295528,0.032334834,0.8490603,0.69550705,1.2291464,0.4819079,0.7034678,0.58572555,0.9937284,0.72333556,0.5240401,791.3553,801.8315,788.1319,789.7436,749.45056,-0.4954833984375,0.20306396484375,0.836669921875,1.532745361328125,-3.043060302734375,0.590667724609375,1.0,1.0,1.0,1.0,1.0,100.0,event
12:31:31.322,0.7000512,-0.40568313,-0.39876413,0.46595547,0.27413583,-0.122715965,-0.28360814,0.34924698,0.8301744,0.16295528,0.032334834,0.8490603,0.69550705,1.2291464,0.4819079,0.7034678,0.58572555,0.9937284,0.72333556,0.5240401,792.96704,780.87915,805.4579,803.44324,993.22345,-0.4954833984375,0.20306396484375,0.836669921875,1.532745361328125,-3.043060302734375,0.590667724609375,1.0,1.0,1.0,1.0,1.0,100.0,event
12:31:31.323,0.7000512,-0.40568313,-0.39876413,0.46595547,0.27413583,-0.122715965,-0.28360814,0.34924698,0.8301744,0.16295528,0.032334834,0.8490603,0.69550705,1.2291464,0.4819079,0.7034678,0.58572555,0.9937284,0.72333556,0.5240401,778.86444,832.0513,813.91943,799.011,992.01465,-0.4954833984375,0.20306396484375,0.836669921875,1.532745361328125,-3.043060302734375,0.590667724609375,1.0,1.0,1.0,1.0,1.0,100.0,event
12:31:31.324,0.7000512,-0.40568313,-0.39876413,0.46595547,0.27413583,-0.122715965,-0.28360814,0.34924698,0.8301744,0.16295528,0.032334834,0.8490603,0.69550705,1.2291464,0.4819079,0.7034678,0.58572555,0.9937284,0.72333556,0.5240401,774.0293,848.1685,792.96704,790.9524,706.7399,-0.4954833984375,0.20306396484375,0.836669921875,1.532745361328125,-3.043060302734375,0.590667724609375,1.0,1.0,1.0,1.0,1.0,100.0,event
12:31:31.324,0.7000512,-0.40568313,-0.39876413,0.46595547,0.27413583,-0.122715965,-0.28360814,0.34924698,0.8301744,0.16295528,0.032334834,0.8490603,0.69550705,1.2291464,0.4819079,0.7034678,0.58572555,0.9937284,0.72333556,0.5240401,792.96704,802.23444,782.8938,805.4579,719.2308,-0.4954833984375,0.20306396484375,0.836669921875,1.532745361328125,-3.043060302734375,0.590667724609375,1.0,1.0,1.0,1.0,1.0,100.0,event
12:31:31.348,0.7000512,-0.40568313,-0.39876413,0.46595547,0.27413583,-0.122715965,-0.28360814,0.34924698,0.8301744,0.16295528,0.032334834,0.8490603,0.69550705,1.2291464,0.4819079,0.7034678,0.58572555,0.9937284,0.72333556,0.5240401,804.65204,803.0403,792.1612,810.696,758.71796,-0.50091552734375,0.200927734375,0.83148193359375,1.30096435546875,-3.656158447265625,0.2691650390625,1.0,1.0,1.0,1.0,1.0,100.0,event
12:31:31.349,0.7000512,-0.40568313,-0.39876413,0.46595547,0.27413583,-0.122715965,-0.28360814,0.34924698,0.8301744,0.16295528,0.032334834,0.8490603,0.69550705,1.2291464,0.4819079,0.7034678,0.58572555,0.9937284,0.72333556,0.5240401,807.0696,809.89014,792.5641,807.8755,726.08057,-0.50091552734375,0.200927734375,0.83148193359375,1.30096435546875,-3.656158447265625,0.2691650390625,1.0,1.0,1.0,1.0,1.0,100.0,event
12:31:31.350,0.7000512,-0.40568313,-0.39876413,0.46595547,0.27413583,-0.122715965,-0.28360814,0.34924698,0.8301744,0.16295528,0.032334834,0.8490603,0.69550705,1.2291464,0.4819079,0.7034678,0.58572555,0.9937284,0.72333556,0.5240401,792.5641,797.3993,796.1905,796.1905,686.5934,-0.50091552734375,0.200927734375,0.83148193359375,1.30096435546875,-3.656158447265625,0.2691650390625,1.0,1.0,1.0,1.0,1.0,100.0,event
12:31:31.351,0.7000512,-0.40568313,-0.39876413,0.46595547,0.27413583,-0.122715965,-0.28360814,0.34924698,0.8301744,0.16295528,0.032334834,0.8490603,0.69550705,1.2291464,0.4819079,0.7034678,0.58572555,0.9937284,0.72333556,0.5240401,776.04395,784.10254,805.8608,781.685,759.5238,-0.50091552734375,0.200927734375,0.83148193359375,1.30096435546875,-3.656158447265625,0.2691650390625,1.0,1.0,1.0,1.0,1.0,100.0,event
12:31:31.351,0.7000512,-0.40568313,-0.39876413,0.46595547,0.27413583,-0.122715965,-0.28360814,0.34924698,0.8301744,0.16295528,0.032334834,0.8490603,0.69550705,1.2291464,0.4819079,0.7034678,0.58572555,0.9937284,0.72333556,0.5240401,777.25275,803.8461,800.2198,785.31134,811.0989,-0.50091552734375,0.200927734375,0.83148193359375,1.30096435546875,-3.656158447265625,0.2691650390625,1.0,1.0,1.0,1.0,1.0,100.0,event
12:31:31.352,0.7000512,-0.40568313,-0.39876413,0.46595547,0.27413583,-0.122715965,-0.28360814,0.34924698,0.8301744,0.16295528,0.032334834,0.8490603,0.69550705,1.2291464,0.4819079,0.7034678,0.58572555,0.9937284,0.72333556,0.5240401,788.5348,798.60803,793.7729,799.011,808.68134,-0.50091552734375,0.200927734375,0.83148193359375,1.30096435546875,-3.656158447265625,0.2691650390625,1.0,1.0,1.0,1.0,1.0,100.0,event
12:31:31.352,0.7000512,-0.40568313,-0.39876413,0.46595547,0.27413583,-0.122715965,-0.28360814,0.34924698,0.8301744,0.16295528,0.032334834,0.8490603,0.69550705,1.2291464,0.4819079,0.7034678,0.58572555,0.9937284,0.72333556,0.5240401,783.69965,773.22345,794.57874,788.1319,832.0513,-0.50091552734375,0.200927734375,0.83148193359375,1.30096435546875,-3.656158447265625,0.2691650390625,1.0,1.0,1.0,1.0,1.0,100.0,event
12:31:31.353,0.7000512,-0.40568313,-0.39876413,0.46595547,0.27413583,-0.122715965,-0.28360814,0.34924698,0.8301744,0.16295528,0.032334834,0.8490603,0.69550705,1.2291464,0.4819079,0.7034678,0.58572555,0.9937284,0.72333556,0.5240401,776.8498,748.24176,807.8755,779.2674,983.5531,-0.50091552734375,0.200927734375,0.83148193359375,1.30096435546875,-3.656158447265625,0.2691650390625,1.0,1.0,1.0,1.0,1.0,100.0,event
12:31:31.354,0.7000512,-0.40568313,-0.39876413,0.46595547,0.27413583,-0.122715965,-0.28360814,0.34924698,0.8301744,0.16295528,0.032334834,0.8490603,0.69550705,1.2291464,0.4819079,0.7034678,0.58572555,0.9937284,0.72333556,0.5240401,778.86444,770.0,814.7253,791.75824,1136.2638,-0.50091552734375,0.200927734375,0.83148193359375,1.30096435546875,-3.656158447265625,0.2691650390625,1.0,1.0,1.0,1.0,1.0,100.0,event
12:31:31.354,0.7000512,-0.40568313,-0.39876413,0.46595547,0.27413583,-0.122715965,-0.28360814,0.34924698,0.8301744,0.16295528,0.032334834,0.8490603,0.69550705,1.2291464,0.4819079,0.7034678,0.58572555,0.9937284,0.72333556,0.5240401,789.7436,846.9597,807.0696,798.20514,823.1868,-0.50091552734375,0.200927734375,0.83148193359375,1.30096435546875,-3.656158447265625,0.2691650390625,1.0,1.0,1.0,1.0,1.0,100.0,event
12:31:31.355,0.7000512,-0.40568313,-0.39876413,0.46595547,0.27413583,-0.122715965,-0.28360814,0.34924698,0.8301744,0.16295528,0.032334834,0.8490603,0.69550705,1.2291464,0.4819079,0.7034678,0.58572555,0.9937284,0.72333556,0.5240401,791.3553,831.6484,803.8461,801.4286,691.4286,-0.50091552734375,0.200927734375,0.83148193359375,1.30096435546875,-3.656158447265625,0.2691650390625,1.0,1.0,1.0,1.0,1.0,100.0,event
12:31:31.355,0.7000512,-0.40568313,-0.39876413,0.46595547,0.27413583,-0.122715965,-0.28360814,0.34924698,0.8301744,0.16295528,0.032334834,0.8490603,0.69550705,1.2291464,0.4819079,0.7034678,0.58572555,0.9937284,0.72333556,0.5240401,790.9524,789.34064,800.6227,790.9524,787.326,-0.50091552734375,0.200927734375,0.83148193359375,1.30096435546875,-3.656158447265625,0.2691650390625,1.0,1.0,1.0,1.0,1.0,100.0,event
12:31:31.379,0.7000512,-0.40568313,-0.39876413,0.46595547,0.27413583,-0.122715965,-0.28360814,0.34924698,0.8301744,0.16295528,0.032334834,0.8490603,0.69550705,1.2291464,0.4819079,0.7034678,0.58572555,0.9937284,0.72333556,0.5240401,799.81683,805.8608,809.4872,792.1612,768.3883,-0.49688720703125,0.2021484375,0.833740234375,2.145843505859375,-1.936492919921875,-0.037384033203125,1.0,1.0,1.0,1.0,1.0,100.0,event
12:31:31.380,0.7000512,-0.40568313,-0.39876413,0.46595547,0.27413583,-0.122715965,-0.28360814,0.34924698,0.8301744,0.16295528,0.032334834,0.8490603,0.69550705,1.2291464,0.4819079,0.7034678,0.58572555,0.9937284,0.72333556,0.5240401,794.17584,796.1905,801.8315,799.81683,728.0952,-0.49688720703125,0.2021484375,0.833740234375,2.145843505859375,-1.936492919921875,-0.037384033203125,1.0,1.0,1.0,1.0,1.0,100.0,event
12:31:31.381,0.7000512,-0.40568313,-0.39876413,0.46595547,0.27413583,-0.122715965,-0.28360814,0.34924698,0.8301744,0.16295528,0.032334834,0.8490603,0.69550705,1.2291464,0.4819079,0.7034678,0.58572555,0.9937284,0.72333556,0.5240401,787.72894,788.1319,785.31134,789.7436,780.4762,-0.49688720703125,0.2021484375,0.833740234375,2.145843505859375,-1.936492919921875,-0.037384033203125,1.0,1.0,1.0,1.0,1.0,100.0,event
12:31:31.381,0.7000512,-0.40568313,-0.39876413,0.46595547,0.27413583,-0.122715965,-0.28360814,0.34924698,0.8301744,0.16295528,0.032334834,0.8490603,0.69550705,1.2291464,0.4819079,0.7034678,0.58572555,0.9937284,0.72333556,0.5240401,805.4579,806.26373,797.8022,796.1905,868.315,-0.49688720703125,0.2021484375,0.833740234375,2.145843505859375,-1.936492919921875,-0.037384033203125,1.0,1.0,1.0,1.0,1.0,100.0,event
12:31:31.382,0.7000512,-0.40568313,-0.39876413,0.46595547,0.27413583,-0.122715965,-0.28360814,0.34924698,0.8301744,0.16295528,0.032334834,0.8490603,0.69550705,1.2291464,0.4819079,0.7034678,0.58572555,0.9937284,0.72333556,0.5240401,816.7399,811.0989,808.68134,803.0403,793.7729,-0.49688720703125,0.2021484375,0.833740234375,2.145843505859375,-1.936492919921875,-0.037384033203125,1.0,1.0,1.0,1.0,1.0,100.0,event
12:31:31.383,0.7000512,-0.40568313,-0.39876413,0.46595547,0.27413583,-0.122715965,-0.28360814,0.34924698,0.8301744,0.16295528,0.032334834,0.8490603,0.69550705,1.2291464,0.4819079,0.7034678,0.58572555,0.9937284,0.72333556,0.5240401,809.4872,799.81683,791.3553,801.02563,793.7729,-0.49688720703125,0.2021484375,0.833740234375,2.145843505859375,-1.936492919921875,-0.037384033203125,1.0,1.0,1.0,1.0,1.0,100.0,event
12:31:31.383,0.7000512,-0.40568313,-0.39876413,0.46595547,0.27413583,-0.122715965,-0.28360814,0.34924698,0.8301744,0.16295528,0.032334834,0.8490603,0.69550705,1.2291464,0.4819079,0.7034678,0.58572555,0.9937284,0.72333556,0.5240401,790.54944,778.0586,772.8205,796.1905,992.4176,-0.49688720703125,0.2021484375,0.833740234375,2.145843505859375,-1.936492919921875,-0.037384033203125,1.0,1.0,1.0,1.0,1.0,100.0,event
12:31:31.384,0.7000512,-0.40568313,-0.39876413,0.46595547,0.27413583,-0.122715965,-0.28360814,0.34924698,0.8301744,0.16295528,0.032334834,0.8490603,0.69550705,1.2291464,0.4819079,0.7034678,0.58572555,0.9937284,0.72333556,0.5240401,788.5348,747.03296,788.93774,792.1612,1174.1392,-0.49688720703125,0.2021484375,0.833740234375,2.145843505859375,-1.936492919921875,-0.037384033203125,1.0,1.0,1.0,1.0,1.0,100.0,event
12:31:31.384,0.7000512,-0.40568313,-0.39876413,0.46595547,0.27413583,-0.122715965,-0.28360814,0.34924698,0.8301744,0.16295528,0.032334834,0.8490603,0.69550705,1.2291464,0.4819079,0.7034678,0.58572555,0.9937284,0.72333556,0.5240401,789.34064,806.6667,807.47253,791.3553,929.9634,-0.49688720703125,0.2021484375,0.833740234375,2.145843505859375,-1.936492919921875,-0.037384033203125,1.0,1.0,1.0,1.0,1.0,100.0,event
12:31:31.385,0.6975407,-0.38411164,-0.3756281,0.45360765,0.26609597,-0.1842897,-0.25364554,0.33006686,0.8366879,0.16295528,0.11857618,0.86025137,0.70314205,1.2293779,0.46403137,0.7427366,0.5759228,1.0220662,0.7032103,0.55081165,788.93774,825.2015,807.0696,782.49084,665.2381,-0.49688720703125,0.2021484375,0.833740234375,2.145843505859375,-1.936492919921875,-0.037384033203125,1.0,1.0,1.0,1.0,1.0,100.0,event
12:31:31.389,0.6975407,-0.38411164,-0.3756281,0.45360765,0.26609597,-0.1842897,-0.25364554,0.33006686,0.8366879,0.16295528,0.11857618,0.86025137,0.70314205,1.2293779,0.46403137,0.7427366,0.5759228,1.0220662,0.7032103,0.55081165,795.78754,785.7143,797.3993,786.1172,755.4945,-0.49688720703125,0.2021484375,0.833740234375,2.145843505859375,-1.936492919921875,-0.037384033203125,1.0,1.0,1.0,1.0,1.0,100.0,event
12:31:31.390,0.6975407,-0.38411164,-0.3756281,0.45360765,0.26609597,-0.1842897,-0.25364554,0.33006686,0.8366879,0.16295528,0.11857618,0.86025137,0.70314205,1.2293779,0.46403137,0.7427366,0.5759228,1.0220662,0.7032103,0.55081165,795.78754,797.3993,788.93774,804.2491,776.4469,-0.49688720703125,0.2021484375,0.833740234375,2.145843505859375,-1.936492919921875,-0.037384033203125,1.0,1.0,1.0,1.0,1.0,100.0,event
12:31:31.446,0.6975407,-0.38411164,-0.3756281,0.45360765,0.26609597,-0.1842897,-0.25364554,0.33006686,0.8366879,0.16295528,0.11857618,0.86025137,0.70314205,1.2293779,0.46403137,0.7427366,0.5759228,1.0220662,0.7032103,0.55081165,803.0403,797.3993,790.9524,809.0842,682.5641,-0.49920654296875,0.2022705078125,0.82659912109375,3.050537109375,-1.891632080078125,-0.142059326171875,1.0,1.0,1.0,1.0,1.0,100.0,event
12:31:31.447,0.6975407,-0.38411164,-0.3756281,0.45360765,0.26609597,-0.1842897,-0.25364554,0.33006686,0.8366879,0.16295528,0.11857618,0.86025137,0.70314205,1.2293779,0.46403137,0.7427366,0.5759228,1.0220662,0.7032103,0.55081165,804.2491,787.72894,800.6227,809.89014,670.07324,-0.49920654296875,0.2022705078125,0.82659912109375,3.050537109375,-1.891632080078125,-0.142059326171875,1.0,1.0,1.0,1.0,1.0,100.0,event
12:31:31.448,0.6975407,-0.38411164,-0.3756281,0.45360765,0.26609597,-0.1842897,-0.25364554,0.33006686,0.8366879,0.16295528,0.11857618,0.86025137,0.70314205,1.2293779,0.46403137,0.7427366,0.5759228,1.0220662,0.7032103,0.55081165,799.41394,798.60803,802.23444,817.1429,743.00366,-0.49920654296875,0.2022705078125,0.82659912109375,3.050537109375,-1.891632080078125,-0.142059326171875,1.0,1.0,1.0,1.0,1.0,100.0,event
12:31:31.448,0.6975407,-0.38411164,-0.3756281,0.45360765,0.26609597,-0.1842897,-0.25364554,0.33006686,0.8366879,0.16295528,0.11857618,0.86025137,0.70314205,1.2293779,0.46403137,0.7427366,0.5759228,1.0220662,0.7032103,0.55081165,803.44324,775.64105,804.65204,815.5311,736.1539,-0.49920654296875,0.2022705078125,0.82659912109375,3.050537109375,-1.891632080078125,-0.142059326171875,1.0,1.0,1.0,1.0,1.0,100.0,event
12:31:31.449,0.6975407,-0.38411164,-0.3756281,0.45360765,0.26609597,-0.1842897,-0.25364554,0.33006686,0.8366879,0.16295528,0.11857618,0.86025137,0.70314205,1.2293779,0.46403137,0.7427366,0.5759228,1.0220662,0.7032103,0.55081165,795.78754,813.91943,809.0842,819.9634,721.6484,-0.49920654296875,0.2022705078125,0.82659912109375,3.050537109375,-1.891632080078125,-0.142059326171875,1.0,1.0,1.0,1.0,1.0,100.0,event
12:31:31.450,0.6975407,-0.38411164,-0.3756281,0.45360765,0.26609597,-0.1842897,-0.25364554,0.33006686,0.8366879,0.16295528,0.11857618,0.86025137,0.70314205,1.2293779,0.46403137,0.7427366,0.5759228,1.0220662,0.7032103,0.55081165,794.9817,790.54944,813.1135,821.978,762.3443,-0.49920654296875,0.2022705078125,0.82659912109375,3.050537109375,-1.891632080078125,-0.142059326171875,1.0,1.0,1.0,1.0,1.0,100.0,event
12:31:31.451,0.6975407,-0.38411164,-0.3756281,0.45360765,0.26609597,-0.1842897,-0.25364554,0.33006686,0.8366879,0.16295528,0.11857618,0.86025137,0.70314205,1.2293779,0.46403137,0.7427366,0.5759228,1.0220662,0.7032103,0.55081165,801.02563,771.6117,808.68134,797.3993,969.85345,-0.49920654296875,0.2022705078125,0.82659912109375,3.050537109375,-1.891632080078125,-0.142059326171875,1.0,1.0,1.0,1.0,1.0,100.0,event
12:31:31.451,0.6975407,-0.38411164,-0.3756281,0.45360765,0.26609597,-0.1842897,-0.25364554,0.33006686,0.8366879,0.16295528,0.11857618,0.86025137,0.70314205,1.2293779,0.46403137,0.7427366,0.5759228,1.0220662,0.7032103,0.55081165,794.17584,794.57874,798.20514,790.14655,1086.3004,-0.49920654296875,0.2022705078125,0.82659912109375,3.050537109375,-1.891632080078125,-0.142059326171875,1.0,1.0,1.0,1.0,1.0,100.0,event
12:31:31.452,0.6975407,-0.38411164,-0.3756281,0.45360765,0.26609597,-0.1842897,-0.25364554,0.33006686,0.8366879,0.16295528,0.11857618,0.86025137,0.70314205,1.2293779,0.46403137,0.7427366,0.5759228,1.0220662,0.7032103,0.55081165,782.0879,838.9011,794.9817,799.81683,815.9341,-0.49920654296875,0.2022705078125,0.82659912109375,3.050537109375,-1.891632080078125,-0.142059326171875,1.0,1.0,1.0,1.0,1.0,100.0,event
12:31:31.452,0.6975407,-0.38411164,-0.3756281,0.45360765,0.26609597,-0.1842897,-0.25364554,0.33006686,0.8366879,0.16295528,0.11857618,0.86025137,0.70314205,1.2293779,0.46403137,0.7427366,0.5759228,1.0220662,0.7032103,0.55081165,773.6264,804.2491,790.9524,799.41394,702.71063,-0.49920654296875,0.2022705078125,0.82659912109375,3.050537109375,-1.891632080078125,-0.142059326171875,1.0,1.0,1.0,1.0,1.0,100.0,event
12:31:31.453,0.6975407,-0.38411164,-0.3756281,0.45360765,0.26609597,-0.1842897,-0.25364554,0.33006686,0.8366879,0.16295528,0.11857618,0.86025137,0.70314205,1.2293779,0.46403137,0.7427366,0.5759228,1.0220662,0.7032103,0.55081165,772.8205,782.8938,788.93774,792.96704,790.9524,-0.49920654296875,0.2022705078125,0.82659912109375,3.050537109375,-1.891632080078125,-0.142059326171875,1.0,1.0,1.0,1.0,1.0,100.0,event
12:31:31.453,0.6975407,-0.38411164,-0.3756281,0.45360765,0.26609597,-0.1842897,-0.25364554,0.33006686,0.8366879,0.16295528,0.11857618,0.86025137,0.70314205,1.2293779,0.46403137,0.7427366,0.5759228,1.0220662,0.7032103,0.55081165,780.87915,796.99634,794.17584,794.9817,792.5641,-0.49920654296875,0.2022705078125,0.82659912109375,3.050537109375,-1.891632080078125,-0.142059326171875,1.0,1.0,1.0,1.0,1.0,100.0,event
12:31:31.474,0.6975407,-0.38411164,-0.3756281,0.45360765,0.26609597,-0.1842897,-0.25364554,0.33006686,0.8366879,0.16295528,0.11857618,0.86025137,0.70314205,1.2293779,0.46403137,0.7427366,0.5759228,1.0220662,0.7032103,0.55081165,786.1172,797.8022,787.326,798.60803,710.3663,-0.50872802734375,0.21014404296875,0.833740234375,3.566436767578125,-2.19818115234375,0.560760498046875,1.0,1.0,1.0,1.0,1.0,100.0,event
12:31:31.475,0.6975407,-0.38411164,-0.3756281,0.45360765,0.26609597,-0.1842897,-0.25364554,0.33006686,0.8366879,0.16295528,0.11857618,0.86025137,0.70314205,1.2293779,0.46403137,0.7427366,0.5759228,1.0220662,0.7032103,0.55081165,780.4762,775.64105,784.10254,794.9817,756.7033,-0.50872802734375,0.21014404296875,0.833740234375,3.566436767578125,-2.19818115234375,0.560760498046875,1.0,1.0,1.0,1.0,1.0,100.0,event
12:31:31.476,0.6975407,-0.38411164,-0.3756281,0.45360765,0.26609597,-0.1842897,-0.25364554,0.33006686,0.8366879,0.16295528,0.11857618,0.86025137,0.70314205,1.2293779,0.46403137,0.7427366,0.5759228,1.0220662,0.7032103,0.55081165,773.22345,757.50916,797.3993,806.6667,913.44324,-0.50872802734375,0.21014404296875,0.833740234375,3.566436767578125,-2.19818115234375,0.560760498046875,1.0,1.0,1.0,1.0,1.0,100.0,event
12:31:31.476,0.6975407,-0.38411164,-0.3756281,0.45360765,0.26609597,-0.1842897,-0.25364554,0.33006686,0.8366879,0.16295528,0.11857618,0.86025137,0.70314205,1.2293779,0.46403137,0.7427366,0.5759228,1.0220662,0.7032103,0.55081165,786.1172,806.26373,802.6374,799.011,792.5641,-0.50872802734375,0.21014404296875,0.833740234375,3.566436767578125,-2.19818115234375,0.560760498046875,1.0,1.0,1.0,1.0,1.0,100.0,event
12:31:31.476,0.6975407,-0.38411164,-0.3756281,0.45360765,0.26609597,-0.1842897,-0.25364554,0.33006686,0.8366879,0.16295528,0.11857618,0.86025137,0.70314205,1.2293779,0.46403137,0.7427366,0.5759228,1.0220662,0.7032103,0.55081165,787.326,808.2784,789.7436,784.5055,709.15753,-0.50872802734375,0.21014404296875,0.833740234375,3.566436767578125,-2.19818115234375,0.560760498046875,1.0,1.0,1.0,1.0,1.0,100.0,event
12:31:31.477,0.6975407,-0.38411164,-0.3756281,0.45360765,0.26609597,-0.1842897,-0.25364554,0.33006686,0.8366879,0.16295528,0.11857618,0.86025137,0.70314205,1.2293779,0.46403137,0.7427366,0.5759228,1.0220662,0.7032103,0.55081165,791.75824,751.8681,804.65204,800.6227,868.71796,-0.50872802734375,0.21014404296875,0.833740234375,3.566436767578125,-2.19818115234375,0.560760498046875,1.0,1.0,1.0,1.0,1.0,100.0,event
12:31:31.477,0.6975407,-0.38411164,-0.3756281,0.45360765,0.26609597,-0.1842897,-0.25364554,0.33006686,0.8366879,0.16295528,0.11857618,0.86025137,0.70314205,1.2293779,0.46403137,0.7427366,0.5759228,1.0220662,0.7032103,0.55081165,794.57874,747.03296,815.12823,807.47253,1056.8865,-0.50872802734375,0.21014404296875,0.833740234375,3.566436767578125,-2.19818115234375,0.560760498046875,1.0,1.0,1.0,1.0,1.0,100.0,event
12:31:31.478,0.6975407,-0.38411164,-0.3756281,0.45360765,0.26609597,-0.1842897,-0.25364554,0.33006686,0.8366879,0.16295528,0.11857618,0.86025137,0.70314205,1.2293779,0.46403137,0.7427366,0.5759228,1.0220662,0.7032103,0.55081165,785.7143,815.9341,804.2491,799.41394,877.1795,-0.50872802734375,0.21014404296875,0.833740234375,3.566436767578125,-2.19818115234375,0.560760498046875,1.0,1.0,1.0,1.0,1.0,100.0,event
12:31:31.478,0.6975407,-0.38411164,-0.3756281,0.45360765,0.26609597,-0.1842897,-0.25364554,0.33006686,0.8366879,0.16295528,0.11857618,0.86025137,0.70314205,1.2293779,0.46403137,0.7427366,0.5759228,1.0220662,0.7032103,0.55081165,781.28204,830.0366,807.47253,796.99634,667.6557,-0.50872802734375,0.21014404296875,0.833740234375,3.566436767578125,-2.19818115234375,0.560760498046875,1.0,1.0,1.0,1.0,1.0,100.0,event
12:31:31.479,0.69737035,-0.3505878,-0.36482155,0.44047284,0.27232635,-0.23117003,-0.22442704,0.32246184,0.83617073,0.16295528,0.21527798,0.8480487,0.71081895,1.2395523,0.45470628,0.77530473,0.5687313,1.0424174,0.6674299,0.5691738,793.36993,824.3956,797.8022,812.3077,732.52747,-0.50872802734375,0.21014404296875,0.833740234375,3.566436767578125,-2.19818115234375,0.560760498046875,1.0,1.0,1.0,1.0,1.0,100.0,event
12:31:31.479,0.6975407,-0.38411164,-0.3756281,0.45360765,0.26609597,-0.1842897,-0.25364554,0.33006686,0.8366879,0.16295528,0.11857618,0.86025137,0.70314205,1.2293779,0.46403137,0.7427366,0.5759228,1.0220662,0.7032103,0.55081165,785.31134,809.0842,805.05493,800.6227,730.9158,-0.50872802734375,0.21014404296875,0.833740234375,3.566436767578125,-2.19818115234375,0.560760498046875,1.0,1.0,1.0,1.0,1.0,100.0,event
12:31:31.479,0.6975407,-0.38411164,-0.3756281,0.45360765,0.26609597,-0.1842897,-0.25364554,0.33006686,0.8366879,0.16295528,0.11857618,0.86025137,0.70314205,1.2293779,0.46403137,0.7427366,0.5759228,1.0220662,0.7032103,0.55081165,800.6227,826.4103,803.44324,817.1429,774.43225,-0.50872802734375,0.21014404296875,0.833740234375,3.566436767578125,-2.19818115234375,0.560760498046875,1.0,1.0,1.0,1.0,1.0,100.0,event
12:31:31.549,0.69737035,-0.3505878,-0.36482155,0.44047284,0.27232635,-0.23117003,-0.22442704,0.32246184,0.83617073,0.16295528,0.21527798,0.8480487,0.71081895,1.2395523,0.45470628,0.77530473,0.5687313,1.0424174,0.6674299,0.5691738,775.2381,804.2491,789.34064,796.5934,686.1905,-0.50872802734375,0.21014404296875,0.833740234375,3.566436767578125,-2.19818115234375,0.560760498046875,1.0,1.0,1.0,1.0,1.0,100.0,event
12:31:31.550,0.69737035,-0.3505878,-0.36482155,0.44047284,0.27232635,-0.23117003,-0.22442704,0.32246184,0.83617073,0.16295528,0.21527798,0.8480487,0.71081895,1.2395523,0.45470628,0.77530473,0.5687313,1.0424174,0.6674299,0.5691738,777.6557,791.75824,794.57874,791.3553,738.5714,-0.50872802734375,0.21014404296875,0.833740234375,3.566436767578125,-2.19818115234375,0.560760498046875,1.0,1.0,1.0,1.0,1.0,100.0,event
12:31:31.551,0.69737035,-0.3505878,-0.36482155,0.44047284,0.27232635,-0.23117003,-0.22442704,0.32246184,0.83617073,0.16295528,0.21527798,0.8480487,0.71081895,1.2395523,0.45470628,0.77530473,0.5687313,1.0424174,0.6674299,0.5691738,781.685,796.1905,808.2784,799.41394,787.326,-0.50872802734375,0.21014404296875,0.833740234375,3.566436767578125,-2.19818115234375,0.560760498046875,1.0,1.0,1.0,1.0,1.0,100.0,event
12:31:31.552,0.69737035,-0.3505878,-0.36482155,0.44047284,0.27232635,-0.23117003,-0.22442704,0.32246184,0.83617073,0.16295528,0.21527798,0.8480487,0.71081895,1.2395523,0.45470628,0.77530473,0.5687313,1.0424174,0.6674299,0.5691738,791.75824,806.26373,805.8608,809.89014,764.7619,-0.50872802734375,0.21014404296875,0.833740234375,3.566436767578125,-2.19818115234375,0.560760498046875,1.0,1.0,1.0,1.0,1.0,100.0,event
12:31:31.552,0.69737035,-0.3505878,-0.36482155,0.44047284,0.27232635,-0.23117003,-0.22442704,0.32246184,0.83617073,0.16295528,0.21527798,0.8480487,0.71081895,1.2395523,0.45470628,0.77530473,0.5687313,1.0424174,0.6674299,0.5691738,795.78754,794.17584,788.5348,796.99634,777.6557,-0.50872802734375,0.21014404296875,0.833740234375,3.566436767578125,-2.19818115234375,0.560760498046875,1.0,1.0,1.0,1.0,1.0,100.0,event
12:31:31.553,0.69737035,-0.3505878,-0.36482155,0.44047284,0.27232635,-0.23117003,-0.22442704,0.32246184,0.83617073,0.16295528,0.21527798,0.8480487,0.71081895,1.2395523,0.45470628,0.77530473,0.5687313,1.0424174,0.6674299,0.5691738,791.3553,760.7326,791.3553,792.96704,938.4249,-0.50872802734375,0.21014404296875,0.833740234375,3.566436767578125,-2.19818115234375,0.560760498046875,1.0,1.0,1.0,1.0,1.0,100.0,event
12:31:31.553,0.69737035,-0.3505878,-0.36482155,0.44047284,0.27232635,-0.23117003,-0.22442704,0.32246184,0.83617073,0.16295528,0.21527798,0.8480487,0.71081895,1.2395523,0.45470628,0.77530473,0.5687313,1.0424174,0.6674299,0.5691738,787.326,765.9707,792.96704,805.8608,1034.3224,-0.50872802734375,0.21014404296875,0.833740234375,3.566436767578125,-2.19818115234375,0.560760498046875,1.0,1.0,1.0,1.0,1.0,100.0,event
12:31:31.554,0.69737035,-0.3505878,-0.36482155,0.44047284,0.27232635,-0.23117003,-0.22442704,0.32246184,0.83617073,0.16295528,0.21527798,0.8480487,0.71081895,1.2395523,0.45470628,0.77530473,0.5687313,1.0424174,0.6674299,0.5691738,789.7436,819.9634,791.75824,796.5934,822.7839,-0.50872802734375,0.21014404296875,0.833740234375,3.566436767578125,-2.19818115234375,0.560760498046875,1.0,1.0,1.0,1.0,1.0,100.0,event
12:31:31.555,0.69737035,-0.3505878,-0.36482155,0.44047284,0.27232635,-0.23117003,-0.22442704,0.32246184,0.83617073,0.16295528,0.21527798,0.8480487,0.71081895,1.2395523,0.45470628,0.77530473,0.5687313,1.0424174,0.6674299,0.5691738,801.02563,816.337,793.36993,800.2198,712.381,-0.50872802734375,0.21014404296875,0.833740234375,3.566436767578125,-2.19818115234375,0.560760498046875,1.0,1.0,1.0,1.0,1.0,100.0,event
12:31:31.555,0.69737035,-0.3505878,-0.36482155,0.44047284,0.27232635,-0.23117003,-0.22442704,0.32246184,0.83617073,0.16295528,0.21527798,0.8480487,0.71081895,1.2395523,0.45470628,0.77530473,0.5687313,1.0424174,0.6674299,0.5691738,801.8315,760.32965,794.9817,808.2784,857.8388,-0.50872802734375,0.21014404296875,0.833740234375,3.566436767578125,-2.19818115234375,0.560760498046875,1.0,1.0,1.0,1.0,1.0,100.0,event
12:31:31.556,0.69737035,-0.3505878,-0.36482155,0.44047284,0.27232635,-0.23117003,-0.22442704,0.32246184,0.83617073,0.16295528,0.21527798,0.8480487,0.71081895,1.2395523,0.45470628,0.77530473,0.5687313,1.0424174,0.6674299,0.5691738,804.65204,802.23444,790.14655,795.78754,846.9597,-0.50872802734375,0.21014404296875,0.833740234375,3.566436767578125,-2.19818115234375,0.560760498046875,1.0,1.0,1.0,1.0,1.0,100.0,event
12:31:31.557,0.69737035,-0.3505878,-0.36482155,0.44047284,0.27232635,-0.23117003,-0.22442704,0.32246184,0.83617073,0.16295528,0.21527798,0.8480487,0.71081895,1.2395523,0.45470628,0.77530473,0.5687313,1.0424174,0.6674299,0.5691738,794.17584,838.9011,791.3553,792.1612,744.21246,-0.50872802734375,0.21014404296875,0.833740234375,3.566436767578125,-2.19818115234375,0.560760498046875,1.0,1.0,1.0,1.0,1.0,100.0,event
12:31:31.582,0.69737035,-0.3505878,-0.36482155,0.44047284,0.27232635,-0.23117003,-0.22442704,0.32246184,0.83617073,0.16295528,0.21527798,0.8480487,0.71081895,1.2395523,0.45470628,0.77530473,0.5687313,1.0424174,0.6674299,0.5691738,783.2967,794.17584,801.4286,793.36993,796.1905,-0.500732421875,0.21075439453125,0.8319091796875,2.572021484375,-1.099090576171875,-0.381317138671875,1.0,1.0,1.0,1.0,1.0,100.0,event
12:31:31.583,0.69737035,-0.3505878,-0.36482155,0.44047284,0.27232635,-0.23117003,-0.22442704,0.32246184,0.83617073,0.16295528,0.21527798,0.8480487,0.71081895,1.2395523,0.45470628,0.77530473,0.5687313,1.0424174,0.6674299,0.5691738,794.17584,774.83514,801.8315,802.6374,814.3223,-0.500732421875,0.21075439453125,0.8319091796875,2.572021484375,-1.099090576171875,-0.381317138671875,1.0,1.0,1.0,1.0,1.0,100.0,event
12:31:31.583,0.69737035,-0.3505878,-0.36482155,0.44047284,0.27232635,-0.23117003,-0.22442704,0.32246184,0.83617073,0.16295528,0.21527798,0.8480487,0.71081895,1.2395523,0.45470628,0.77530473,0.5687313,1.0424174,0.6674299,0.5691738,790.14655,793.7729,799.81683,809.89014,769.59705,-0.500732421875,0.21075439453125,0.8319091796875,2.572021484375,-1.099090576171875,-0.381317138671875,1.0,1.0,1.0,1.0,1.0,100.0,event
12:31:31.584,0.69737035,-0.3505878,-0.36482155,0.44047284,0.27232635,-0.23117003,-0.22442704,0.32246184,0.83617073,0.16295528,0.21527798,0.8480487,0.71081895,1.2395523,0.45470628,0.77530473,0.5687313,1.0424174,0.6674299,0.5691738,779.67035,803.8461,799.41394,811.9048,715.6044,-0.500732421875,0.21075439453125,0.8319091796875,2.572021484375,-1.099090576171875,-0.381317138671875,1.0,1.0,1.0,1.0,1.0,100.0,event
12:31:31.585,0.69737035,-0.3505878,-0.36482155,0.44047284,0.27232635,-0.23117003,-0.22442704,0.32246184,0.83617073,0.16295528,0.21527798,0.8480487,0.71081895,1.2395523,0.45470628,0.77530473,0.5687313,1.0424174,0.6674299,0.5691738,786.52014,750.2564,812.3077,807.8755,817.9487,-0.500732421875,0.21075439453125,0.8319091796875,2.572021484375,-1.099090576171875,-0.381317138671875,1.0,1.0,1.0,1.0,1.0,100.0,event
12:31:31.585,0.69737035,-0.3505878,-0.36482155,0.44047284,0.27232635,-0.23117003,-0.22442704,0.32246184,0.83617073,0.16295528,0.21527798,0.8480487,0.71081895,1.2395523,0.45470628,0.77530473,0.5687313,1.0424174,0.6674299,0.5691738,781.28204,776.8498,800.2198,812.71063,720.0366,-0.500732421875,0.21075439453125,0.8319091796875,2.572021484375,-1.099090576171875,-0.381317138671875,1.0,1.0,1.0,1.0,1.0,100.0,event
12:31:31.587,0.69737035,-0.3505878,-0.36482155,0.44047284,0.27232635,-0.23117003,-0.22442704,0.32246184,0.83617073,0.16295528,0.21527798,0.8480487,0.71081895,1.2395523,0.45470628,0.77530473,0.5687313,1.0424174,0.6674299,0.5691738,794.17584,774.43225,807.0696,810.696,822.7839,-0.500732421875,0.21075439453125,0.8319091796875,2.572021484375,-1.099090576171875,-0.381317138671875,1.0,1.0,1.0,1.0,1.0,100.0,event
12:31:31.588,0.69737035,-0.3505878,-0.36482155,0.44047284,0.27232635,-0.23117003,-0.22442704,0.32246184,0.83617073,0.16295528,0.21527798,0.8480487,0.71081895,1.2395523,0.45470628,0.77530473,0.5687313,1.0424174,0.6674299,0.5691738,795.38464,808.2784,796.1905,814.3223,794.9817,-0.500732421875,0.21075439453125,0.8319091796875,2.572021484375,-1.099090576171875,-0.381317138671875,1.0,1.0,1.0,1.0,1.0,100.0,event
12:31:31.589,0.69737035,-0.3505878,-0.36482155,0.44047284,0.27232635,-0.23117003,-0.22442704,0.32246184,0.83617073,0.16295528,0.21527798,0.8480487,0.71081895,1.2395523,0.45470628,0.77530473,0.5687313,1.0424174,0.6674299,0.5691738,796.99634,794.17584,808.68134,804.2491,827.619,-0.500732421875,0.21075439453125,0.8319091796875,2.572021484375,-1.099090576171875,-0.381317138671875,1.0,1.0,1.0,1.0,1.0,100.0,event
12:31:31.590,0.69737035,-0.3505878,-0.36482155,0.44047284,0.27232635,-0.23117003,-0.22442704,0.32246184,0.83617073,0.16295528,0.21527798,0.8480487,0.71081895,1.2395523,0.45470628,0.77530473,0.5687313,1.0424174,0.6674299,0.5691738,799.81683,769.19415,797.8022,810.696,1018.60803,-0.500732421875,0.21075439453125,0.8319091796875,2.572021484375,-1.099090576171875,-0.381317138671875,1.0,1.0,1.0,1.0,1.0,100.0,event
12:31:31.591,0.69737035,-0.3505878,-0.36482155,0.44047284,0.27232635,-0.23117003,-0.22442704,0.32246184,0.83617073,0.16295528,0.21527798,0.8480487,0.71081895,1.2395523,0.45470628,0.77530473,0.5687313,1.0424174,0.6674299,0.5691738,801.4286,828.022,787.326,821.1722,899.7436,-0.500732421875,0.21075439453125,0.8319091796875,2.572021484375,-1.099090576171875,-0.381317138671875,1.0,1.0,1.0,1.0,1.0,100.0,event
12:31:31.592,0.69737035,-0.3505878,-0.36482155,0.44047284,0.27232635,-0.23117003,-0.22442704,0.32246184,0.83617073,0.16295528,0.21527798,0.8480487,0.71081895,1.2395523,0.45470628,0.77530473,0.5687313,1.0424174,0.6674299,0.5691738,803.8461,827.2161,801.4286,820.3663,701.9048,-0.500732421875,0.21075439453125,0.8319091796875,2.572021484375,-1.099090576171875,-0.381317138671875,1.0,1.0,1.0,1.0,1.0,100.0,event
12:31:31.642,0.69737035,-0.3505878,-0.36482155,0.44047284,0.27232635,-0.23117003,-0.22442704,0.32246184,0.83617073,0.16295528,0.21527798,0.8480487,0.71081895,1.2395523,0.45470628,0.77530473,0.5687313,1.0424174,0.6674299,0.5691738,796.99634,788.1319,799.41394,800.2198,787.326,-0.5079345703125,0.19940185546875,0.82672119140625,1.5850830078125,-1.12152099609375,0.40374755859375,1.0,1.0,1.0,1.0,1.0,100.0,event
12:31:31.643,0.6912126,-0.31698483,-0.36291438,0.42821005,0.2942797,-0.26353845,-0.19749612,0.3229976,0.8318443,0.16295528,0.23593313,0.840103,0.717931,1.2544109,0.45383006,0.7951387,0.5652742,1.0466701,0.6233958,0.5793436,780.07324,800.2198,806.26373,784.10254,809.4872,-0.5079345703125,0.19940185546875,0.82672119140625,1.5850830078125,-1.12152099609375,0.40374755859375,1.0,1.0,1.0,1.0,1.0,100.0,event
12:31:31.646,0.6912126,-0.31698483,-0.36291438,0.42821005,0.2942797,-0.26353845,-0.19749612,0.3229976,0.8318443,0.16295528,0.23593313,0.840103,0.717931,1.2544109,0.45383006,0.7951387,0.5652742,1.0466701,0.6233958,0.5793436,785.7143,798.20514,792.5641,786.9231,663.22345,-0.5079345703125,0.19940185546875,0.82672119140625,1.5850830078125,-1.12152099609375,0.40374755859375,1.0,1.0,1.0,1.0,1.0,100.0,event
12:31:31.646,0.6912126,-0.31698483,-0.36291438,0.42821005,0.2942797,-0.26353845,-0.19749612,0.3229976,0.8318443,0.16295528,0.23593313,0.840103,0.717931,1.2544109,0.45383006,0.7951387,0.5652742,1.0466701,0.6233958,0.5793436,787.326,803.0403,806.6667,792.5641,731.31866,-0.5079345703125,0.19940185546875,0.82672119140625,1.5850830078125,-1.12152099609375,0.40374755859375,1.0,1.0,1.0,1.0,1.0,100.0,event
12:31:31.647,0.6912126,-0.31698483,-0.36291438,0.42821005,0.2942797,-0.26353845,-0.19749612,0.3229976,0.8318443,0.16295528,0.23593313,0.840103,0.717931,1.2544109,0.45383006,0.7951387,0.5652742,1.0466701,0.6233958,0.5793436,776.4469,785.31134,797.3993,786.52014,691.8315,-0.5079345703125,0.19940185546875,0.82672119140625,1.5850830078125,-1.12152099609375,0.40374755859375,1.0,1.0,1.0,1.0,1.0,100.0,event
12:31:31.647,0.6912126,-0.31698483,-0.36291438,0.42821005,0.2942797,-0.26353845,-0.19749612,0.3229976,0.8318443,0.16295528,0.23593313,0.840103,0.717931,1.2544109,0.45383006,0.7951387,0.5652742,1.0466701,0.6233958,0.5793436,782.8938,779.67035,807.0696,799.81683,819.5604,-0.5079345703125,0.19940185546875,0.82672119140625,1.5850830078125,-1.12152099609375,0.40374755859375,1.0,1.0,1.0,1.0,1.0,100.0,event
12:31:31.647,0.6912126,-0.31698483,-0.36291438,0.42821005,0.2942797,-0.26353845,-0.19749612,0.3229976,0.8318443,0.16295528,0.23593313,0.840103,0.717931,1.2544109,0.45383006,0.7951387,0.5652742,1.0466701,0.6233958,0.5793436,788.93774,798.60803,797.3993,806.6667,888.86444,-0.5079345703125,0.19940185546875,0.82672119140625,1.5850830078125,-1.12152099609375,0.40374755859375,1.0,1.0,1.0,1.0,1.0,100.0,event
12:31:31.648,0.6912126,-0.31698483,-0.36291438,0.42821005,0.2942797,-0.26353845,-0.19749612,0.3229976,0.8318443,0.16295528,0.23593313,0.840103,0.717931,1.2544109,0.45383006,0.7951387,0.5652742,1.0466701,0.6233958,0.5793436,780.87915,807.47253,787.72894,803.44324,763.95605,-0.5079345703125,0.19940185546875,0.82672119140625,1.5850830078125,-1.12152099609375,0.40374755859375,1.0,1.0,1.0,1.0,1.0,100.0,event
12:31:31.648,0.6912126,-0.31698483,-0.36291438,0.42821005,0.2942797,-0.26353845,-0.19749612,0.3229976,0.8318443,0.16295528,0.23593313,0.840103,0.717931,1.2544109,0.45383006,0.7951387,0.5652742,1.0466701,0.6233958,0.5793436,772.8205,759.92676,795.38464,791.75824,837.6923,-0.5079345703125,0.19940185546875,0.82672119140625,1.5850830078125,-1.12152099609375,0.40374755859375,1.0,1.0,1.0,1.0,1.0,100.0,event
12:31:31.649,0.6912126,-0.31698483,-0.36291438,0.42821005,0.2942797,-0.26353845,-0.19749612,0.3229976,0.8318443,0.16295528,0.23593313,0.840103,0.717931,1.2544109,0.45383006,0.7951387,0.5652742,1.0466701,0.6233958,0.5793436,775.64105,787.326,809.4872,797.8022,967.4359,-0.5079345703125,0.19940185546875,0.82672119140625,1.5850830078125,-1.12152099609375,0.40374755859375,1.0,1.0,1.0,1.0,1.0,100.0,event
12:31:31.649,0.6912126,-0.31698483,-0.36291438,0.42821005,0.2942797,-0.26353845,-0.19749612,0.3229976,0.8318443,0.16295528,0.23593313,0.840103,0.717931,1.2544109,0.45383006,0.7951387,0.5652742,1.0466701,0.6233958,0.5793436,782.0879,830.84247,817.1429,799.011,753.8828,-0.5079345703125,0.19940185546875,0.82672119140625,1.5850830078125,-1.12152099609375,0.40374755859375,1.0,1.0,1.0,1.0,1.0,100.0,event
12:31:31.650,0.6912126,-0.31698483,-0.36291438,0.42821005,0.2942797,-0.26353845,-0.19749612,0.3229976,0.8318443,0.16295528,0.23593313,0.840103,0.717931,1.2544109,0.45383006,0.7951387,0.5652742,1.0466701,0.6233958,0.5793436,790.54944,792.96704,814.7253,801.02563,734.1392,-0.5079345703125,0.19940185546875,0.82672119140625,1.5850830078125,-1.12152099609375,0.40374755859375,1.0,1.0,1.0,1.0,1.0,100.0,event
12:31:31.675,0.6912126,-0.31698483,-0.36291438,0.42821005,0.2942797,-0.26353845,-0.19749612,0.3229976,0.8318443,0.16295528,0.23593313,0.840103,0.717931,1.2544109,0.45383006,0.7951387,0.5652742,1.0466701,0.6233958,0.5793436,803.44324,771.6117,811.9048,804.2491,865.89746,-0.50628662109375,0.20440673828125,0.8226318359375,2.953338623046875,-0.95703125,1.27105712890625,1.0,1.0,1.0,1.0,1.0,100.0,event
12:31:31.676,0.6912126,-0.31698483,-0.36291438,0.42821005,0.2942797,-0.26353845,-0.19749612,0.3229976,0.8318443,0.16295528,0.23593313,0.840103,0.717931,1.2544109,0.45383006,0.7951387,0.5652742,1.0466701,0.6233958,0.5793436,803.0403,799.011,801.4286,804.2491,767.1795,-0.50628662109375,0.20440673828125,0.8226318359375,2.953338623046875,-0.95703125,1.27105712890625,1.0,1.0,1.0,1.0,1.0,100.0,event
12:31:31.677,0.6912126,-0.31698483,-0.36291438,0.42821005,0.2942797,-0.26353845,-0.19749612,0.3229976,0.8318443,0.16295528,0.23593313,0.840103,0.717931,1.2544109,0.45383006,0.7951387,0.5652742,1.0466701,0.6233958,0.5793436,807.8755,806.26373,810.696,815.5311,692.6374,-0.50628662109375,0.20440673828125,0.8226318359375,2.953338623046875,-0.95703125,1.27105712890625,1.0,1.0,1.0,1.0,1.0,100.0,event
12:31:31.677,0.6912126,-0.31698483,-0.36291438,0.42821005,0.2942797,-0.26353845,-0.19749612,0.3229976,0.8318443,0.16295528,0.23593313,0.840103,0.717931,1.2544109,0.45383006,0.7951387,0.5652742,1.0466701,0.6233958,0.5793436,799.81683,786.1172,817.5458,815.12823,764.7619,-0.50628662109375,0.20440673828125,0.8226318359375,2.953338623046875,-0.95703125,1.27105712890625,1.0,1.0,1.0,1.0,1.0,100.0,event
12:31:31.678,0.6912126,-0.31698483,-0.36291438,0.42821005,0.2942797,-0.26353845,-0.19749612,0.3229976,0.8318443,0.16295528,0.23593313,0.840103,0.717931,1.2544109,0.45383006,0.7951387,0.5652742,1.0466701,0.6233958,0.5793436,792.96704,794.17584,794.57874,803.8461,747.8388,-0.50628662109375,0.20440673828125,0.8226318359375,2.953338623046875,-0.95703125,1.27105712890625,1.0,1.0,1.0,1.0,1.0,100.0,event
12:31:31.678,0.6912126,-0.31698483,-0.36291438,0.42821005,0.2942797,-0.26353845,-0.19749612,0.3229976,0.8318443,0.16295528,0.23593313,0.840103,0.717931,1.2544109,0.45383006,0.7951387,0.5652742,1.0466701,0.6233958,0.5793436,793.7729,801.4286,789.7436,804.65204,746.63007,-0.50628662109375,0.20440673828125,0.8226318359375,2.953338623046875,-0.95703125,1.27105712890625,1.0,1.0,1.0,1.0,1.0,100.0,event
