TimeStamp,Delta_TP9,Delta_AF7,Delta_AF8,Delta_TP10,Theta_TP9,Theta_AF7,Theta_AF8,Theta_TP10,Alpha_TP9,Alpha_AF7,Alpha_AF8,Alpha_TP10,Beta_TP9,Beta_AF7,Beta_AF8,Beta_TP10,Gamma_TP9,Gamma_AF7,Gamma_AF8,Gamma_TP10,RAW_TP9,RAW_AF7,RAW_AF8,RAW_TP10,AUX_RIGHT,Accelerometer_X,Accelerometer_Y,Accelerometer_Z,Gyro_X,Gyro_Y,Gyro_Z,HeadBandOn,HSI_TP9,HSI_AF7,HSI_AF8,HSI_TP10,Battery,Elements
11:14:22.907,0.0,0.0,0.7395627,0.0,0.0,0.0,-0.2256002,0.0,0.0,0.0,0.6228905,0.0,0.0,0.0,0.81435984,0.0,0.0,0.0,0.39691728,0.0,486.73993,868.71796,796.1905,63.663002,731.31866,-0.22308349609375,0.02508544921875,0.96099853515625,2.67669677734375,-1.07666015625,-0.01495361328125,1.0,4.0,4.0,1.0,4.0,100.0,event
11:14:22.908,0.0,0.0,0.7395627,0.0,0.0,0.0,-0.2256002,0.0,0.0,0.0,0.6228905,0.0,0.0,0.0,0.81435984,0.0,0.0,0.0,0.39691728,0.0,0.0,498.4249,782.0879,1569.414,765.56775,-0.22308349609375,0.02508544921875,0.96099853515625,2.67669677734375,-1.07666015625,-0.01495361328125,1.0,4.0,4.0,1.0,4.0,100.0,event
11:14:22.909,0.0,0.0,0.7395627,0.0,0.0,0.0,-0.2256002,0.0,0.0,0.0,0.6228905,0.0,0.0,0.0,0.81435984,0.0,0.0,0.0,0.39691728,0.0,251.02563,424.2857,795.38464,1642.3444,786.1172,-0.22308349609375,0.02508544921875,0.96099853515625,2.67669677734375,-1.07666015625,-0.01495361328125,1.0,4.0,4.0,1.0,4.0,100.0,event
11:14:22.909,0.0,0.0,0.7395627,0.0,0.0,0.0,-0.2256002,0.0,0.0,0.0,0.6228905,0.0,0.0,0.0,0.81435984,0.0,0.0,0.0,0.39691728,0.0,1316.7766,885.2381,811.50183,1628.2417,765.9707,-0.22308349609375,0.02508544921875,0.96099853515625,2.67669677734375,-1.07666015625,-0.01495361328125,1.0,4.0,4.0,1.0,4.0,100.0,event
11:14:22.910,0.0,0.0,0.7395627,0.0,0.0,0.0,-0.2256002,0.0,0.0,0.0,0.6228905,0.0,0.0,0.0,0.81435984,0.0,0.0,0.0,0.39691728,0.0,80.98901,1114.9084,805.8608,1628.2417,779.2674,-0.22308349609375,0.02508544921875,0.96099853515625,2.67669677734375,-1.07666015625,-0.01495361328125,1.0,4.0,4.0,1.0,4.0,100.0,event
11:14:22.911,0.0,0.0,0.7395627,0.0,0.0,0.0,-0.2256002,0.0,0.0,0.0,0.6228905,0.0,0.0,0.0,0.81435984,0.0,0.0,0.0,0.39691728,0.0,751.06226,616.08057,773.22345,1628.2417,924.3223,-0.22308349609375,0.02508544921875,0.96099853515625,2.67669677734375,-1.07666015625,-0.01495361328125,1.0,4.0,4.0,1.0,4.0,100.0,event
11:14:22.912,0.0,0.0,0.7395627,0.0,0.0,0.0,-0.2256002,0.0,0.0,0.0,0.6228905,0.0,0.0,0.0,0.81435984,0.0,0.0,0.0,0.39691728,0.0,43.113552,525.42126,815.9341,1642.3444,890.07324,-0.22308349609375,0.02508544921875,0.96099853515625,2.67669677734375,-1.07666015625,-0.01495361328125,1.0,4.0,4.0,1.0,4.0,100.0,event
11:14:22.912,0.0,0.0,0.7395627,0.0,0.0,0.0,-0.2256002,0.0,0.0,0.0,0.6228905,0.0,0.0,0.0,0.81435984,0.0,0.0,0.0,0.39691728,0.0,0.0,92.673996,781.685,1628.2417,1068.5714,-0.22308349609375,0.02508544921875,0.96099853515625,2.67669677734375,-1.07666015625,-0.01495361328125,1.0,4.0,4.0,1.0,4.0,100.0,event
11:14:22.913,0.0,0.0,0.7395627,0.0,0.0,0.0,-0.2256002,0.0,0.0,0.0,0.6228905,0.0,0.0,0.0,0.81435984,0.0,0.0,0.0,0.39691728,0.0,699.0842,1033.9194,801.02563,1577.8755,774.0293,-0.22308349609375,0.02508544921875,0.96099853515625,2.67669677734375,-1.07666015625,-0.01495361328125,1.0,4.0,4.0,1.0,4.0,100.0,event
11:14:22.913,0.0,0.0,0.7395627,0.0,0.0,0.0,-0.2256002,0.0,0.0,0.0,0.6228905,0.0,0.0,0.0,0.81435984,0.0,0.0,0.0,0.39691728,0.0,965.82416,832.4542,782.8938,31.831501,885.64105,-0.22308349609375,0.02508544921875,0.96099853515625,2.67669677734375,-1.07666015625,-0.01495361328125,1.0,4.0,4.0,1.0,4.0,100.0,event
11:14:22.914,0.0,0.0,0.7395627,0.0,0.0,0.0,-0.2256002,0.0,0.0,0.0,0.6228905,0.0,0.0,0.0,0.81435984,0.0,0.0,0.0,0.39691728,0.0,184.54213,499.6337,805.4579,1502.5275,935.6044,-0.22308349609375,0.02508544921875,0.96099853515625,2.67669677734375,-1.07666015625,-0.01495361328125,1.0,4.0,4.0,1.0,4.0,100.0,event
11:14:22.915,0.0,0.0,0.7395627,0.0,0.0,0.0,-0.2256002,0.0,0.0,0.0,0.6228905,0.0,0.0,0.0,0.81435984,0.0,0.0,0.0,0.39691728,0.0,0.0,469.81686,801.8315,291.72162,705.12823,-0.22308349609375,0.02508544921875,0.96099853515625,2.67669677734375,-1.07666015625,-0.01495361328125,1.0,4.0,4.0,1.0,4.0,100.0,event
11:14:22.964,0.0,0.0,0.7395627,0.0,0.0,0.0,-0.2256002,0.0,0.0,0.0,0.6228905,0.0,0.0,0.0,0.81435984,0.0,0.0,0.0,0.39691728,0.0,39.89011,545.16486,799.011,0.0,595.12823,-0.2384033203125,0.02423095703125,0.9539794921875,2.923431396484375,0.650482177734375,0.22430419921875,1.0,4.0,4.0,1.0,4.0,100.0,event
11:14:22.965,0.0,0.0,0.7395627,0.0,0.0,0.0,-0.2256002,0.0,0.0,0.0,0.6228905,0.0,0.0,0.0,0.81435984,0.0,0.0,0.0,0.39691728,0.0,0.0,371.0989,801.8315,59.6337,763.95605,-0.2384033203125,0.02423095703125,0.9539794921875,2.923431396484375,0.650482177734375,0.22430419921875,1.0,4.0,4.0,1.0,4.0,100.0,event
11:14:22.966,0.0,0.0,0.7395627,0.0,0.0,0.0,-0.2256002,0.0,0.0,0.0,0.6228905,0.0,0.0,0.0,0.81435984,0.0,0.0,0.0,0.39691728,0.0,0.0,491.97803,809.89014,0.0,816.7399,-0.2384033203125,0.02423095703125,0.9539794921875,2.923431396484375,0.650482177734375,0.22430419921875,1.0,4.0,4.0,1.0,4.0,100.0,event
11:14:22.966,0.0,0.0,0.7395627,0.0,0.0,0.0,-0.2256002,0.0,0.0,0.0,0.6228905,0.0,0.0,0.0,0.81435984,0.0,0.0,0.0,0.39691728,0.0,0.0,734.5421,799.81683,0.0,670.4762,-0.2384033203125,0.02423095703125,0.9539794921875,2.923431396484375,0.650482177734375,0.22430419921875,1.0,4.0,4.0,1.0,4.0,100.0,event
11:14:22.967,0.0,0.0,0.7395627,0.0,0.0,0.0,-0.2256002,0.0,0.0,0.0,0.6228905,0.0,0.0,0.0,0.81435984,0.0,0.0,0.0,0.39691728,0.0,51.575092,409.7802,780.4762,0.0,619.304,-0.2384033203125,0.02423095703125,0.9539794921875,2.923431396484375,0.650482177734375,0.22430419921875,1.0,4.0,4.0,1.0,4.0,100.0,event
11:14:22.968,0.0,0.0,0.7395627,0.0,0.0,0.0,-0.2256002,0.0,0.0,0.0,0.6228905,0.0,0.0,0.0,0.81435984,0.0,0.0,0.0,0.39691728,0.0,0.0,132.16118,775.64105,0.0,772.4176,-0.2384033203125,0.02423095703125,0.9539794921875,2.923431396484375,0.650482177734375,0.22430419921875,1.0,4.0,4.0,1.0,4.0,100.0,event
11:14:22.968,0.0,0.0,0.7395627,0.0,0.0,0.0,-0.2256002,0.0,0.0,0.0,0.6228905,0.0,0.0,0.0,0.81435984,0.0,0.0,0.0,0.39691728,0.0,233.69963,382.38095,764.7619,0.0,768.3883,-0.2384033203125,0.02423095703125,0.9539794921875,2.923431396484375,0.650482177734375,0.22430419921875,1.0,4.0,4.0,1.0,4.0,100.0,event
11:14:22.969,0.0,0.0,0.7395627,0.0,0.0,0.0,-0.2256002,0.0,0.0,0.0,0.6228905,0.0,0.0,0.0,0.81435984,0.0,0.0,0.0,0.39691728,0.0,1426.7766,849.7802,779.2674,0.0,640.2564,-0.2384033203125,0.02423095703125,0.9539794921875,2.923431396484375,0.650482177734375,0.22430419921875,1.0,4.0,4.0,1.0,4.0,100.0,event
11:14:22.970,0.0,0.0,0.7395627,0.0,0.0,0.0,-0.2256002,0.0,0.0,0.0,0.6228905,0.0,0.0,0.0,0.81435984,0.0,0.0,0.0,0.39691728,0.0,807.8755,844.1392,788.1319,0.0,635.42126,-0.2384033203125,0.02423095703125,0.9539794921875,2.923431396484375,0.650482177734375,0.22430419921875,1.0,4.0,4.0,1.0,4.0,100.0,event
11:14:22.971,0.0,0.0,0.7395627,0.0,0.0,0.0,-0.2256002,0.0,0.0,0.0,0.6228905,0.0,0.0,0.0,0.81435984,0.0,0.0,0.0,0.39691728,0.0,0.0,178.9011,775.64105,0.8058608,834.87177,-0.2384033203125,0.02423095703125,0.9539794921875,2.923431396484375,0.650482177734375,0.22430419921875,1.0,4.0,4.0,1.0,4.0,100.0,event
11:14:22.971,0.0,0.0,0.7395627,0.0,0.0,0.0,-0.2256002,0.0,0.0,0.0,0.6228905,0.0,0.0,0.0,0.81435984,0.0,0.0,0.0,0.39691728,0.0,35.457874,251.8315,788.93774,44.725273,813.91943,-0.2384033203125,0.02423095703125,0.9539794921875,2.923431396484375,0.650482177734375,0.22430419921875,1.0,4.0,4.0,1.0,4.0,100.0,event
11:14:22.972,0.0,0.0,0.7395627,0.0,0.0,0.0,-0.2256002,0.0,0.0,0.0,0.6228905,0.0,0.0,0.0,0.81435984,0.0,0.0,0.0,0.39691728,0.0,0.0,892.49084,797.8022,0.0,653.1502,-0.2384033203125,0.02423095703125,0.9539794921875,2.923431396484375,0.650482177734375,0.22430419921875,1.0,4.0,4.0,1.0,4.0,100.0,event
11:14:22.995,0.0,0.0,0.7395627,0.0,0.0,0.0,-0.2256002,0.0,0.0,0.0,0.6228905,0.0,0.0,0.0,0.81435984,0.0,0.0,0.0,0.39691728,0.0,921.0989,1083.4799,792.5641,565.31134,798.20514,-0.2384033203125,0.02423095703125,0.9539794921875,2.923431396484375,0.650482177734375,0.22430419921875,1.0,4.0,4.0,1.0,4.0,100.0,event
11:14:22.996,0.0,0.0,0.7395627,0.0,0.0,0.0,-0.2256002,0.0,0.0,0.0,0.6228905,0.0,0.0,0.0,0.81435984,0.0,0.0,0.0,0.39691728,0.0,949.304,842.9304,790.9524,68.09524,889.2674,-0.2384033203125,0.02423095703125,0.9539794921875,2.923431396484375,0.650482177734375,0.22430419921875,1.0,4.0,4.0,1.0,4.0,100.0,event
11:14:22.997,0.0,0.0,0.7395627,0.0,0.0,0.0,-0.2256002,0.0,0.0,0.0,0.6228905,0.0,0.0,0.0,0.81435984,0.0,0.0,0.0,0.39691728,0.0,0.0,645.89746,802.23444,1395.348,852.6007,-0.2384033203125,0.02423095703125,0.9539794921875,2.923431396484375,0.650482177734375,0.22430419921875,1.0,4.0,4.0,1.0,4.0,100.0,event
11:14:22.998,0.0,0.0,0.7395627,0.0,0.0,0.0,-0.2256002,0.0,0.0,0.0,0.6228905,0.0,0.0,0.0,0.81435984,0.0,0.0,0.0,0.39691728,0.0,0.0,589.4872,796.1905,507.28937,801.8315,-0.2384033203125,0.02423095703125,0.9539794921875,2.923431396484375,0.650482177734375,0.22430419921875,1.0,4.0,4.0,1.0,4.0,100.0,event
11:14:22.998,0.0,0.0,0.7395627,0.0,0.0,0.0,-0.2256002,0.0,0.0,0.0,0.6228905,0.0,0.0,0.0,0.81435984,0.0,0.0,0.0,0.39691728,0.0,26.190475,354.57877,783.69965,1228.1318,894.90845,-0.2384033203125,0.02423095703125,0.9539794921875,2.923431396484375,0.650482177734375,0.22430419921875,1.0,4.0,4.0,1.0,4.0,100.0,event
11:14:22.999,0.0,0.0,0.7395627,0.0,0.0,0.0,-0.2256002,0.0,0.0,0.0,0.6228905,0.0,0.0,0.0,0.81435984,0.0,0.0,0.0,0.39691728,0.0,0.0,31.428572,795.38464,92.673996,1014.17584,-0.2384033203125,0.02423095703125,0.9539794921875,2.923431396484375,0.650482177734375,0.22430419921875,1.0,4.0,4.0,1.0,4.0,100.0,event
11:14:22.999,0.0,0.0,0.7395627,0.0,0.0,0.0,-0.2256002,0.0,0.0,0.0,0.6228905,0.0,0.0,0.0,0.81435984,0.0,0.0,0.0,0.39691728,0.0,0.0,0.0,805.4579,1610.9158,1021.02563,-0.2384033203125,0.02423095703125,0.9539794921875,2.923431396484375,0.650482177734375,0.22430419921875,1.0,4.0,4.0,1.0,4.0,100.0,event
11:14:23.000,0.0,0.0,0.7395627,0.0,0.0,0.0,-0.2256002,0.0,0.0,0.0,0.6228905,0.0,0.0,0.0,0.81435984,0.0,0.0,0.0,0.39691728,0.0,0.0,209.12088,805.8608,710.3663,891.685,-0.2384033203125,0.02423095703125,0.9539794921875,2.923431396484375,0.650482177734375,0.22430419921875,1.0,4.0,4.0,1.0,4.0,100.0,event
11:14:23.000,0.0,0.0,0.7395627,0.0,0.0,0.0,-0.2256002,0.0,0.0,0.0,0.6228905,0.0,0.0,0.0,0.81435984,0.0,0.0,0.0,0.39691728,0.0,0.0,190.98901,799.011,0.0,847.76556,-0.2384033203125,0.02423095703125,0.9539794921875,2.923431396484375,0.650482177734375,0.22430419921875,1.0,4.0,4.0,1.0,4.0,100.0,event
11:14:23.001,0.0,0.0,0.7395627,0.0,0.0,0.0,-0.2256002,0.0,0.0,0.0,0.6228905,0.0,0.0,0.0,0.81435984,0.0,0.0,0.0,0.39691728,0.0,0.0,448.46155,816.337,64.468864,844.5421,-0.2384033203125,0.02423095703125,0.9539794921875,2.923431396484375,0.650482177734375,0.22430419921875,1.0,4.0,4.0,1.0,4.0,100.0,event
11:14:23.001,0.0,0.0,0.7395627,0.0,0.0,0.0,-0.2256002,0.0,0.0,0.0,0.6228905,0.0,0.0,0.0,0.81435984,0.0,0.0,0.0,0.39691728,0.0,0.0,35.054947,802.6374,0.0,998.86444,-0.2384033203125,0.02423095703125,0.9539794921875,2.923431396484375,0.650482177734375,0.22430419921875,1.0,4.0,4.0,1.0,4.0,100.0,event
11:14:23.002,0.0,0.0,0.7395627,0.0,0.0,0.0,-0.2256002,0.0,0.0,0.0,0.6228905,0.0,0.0,0.0,0.81435984,0.0,0.0,0.0,0.39691728,0.0,0.0,544.35895,800.6227,607.2161,770.0,-0.2384033203125,0.02423095703125,0.9539794921875,2.923431396484375,0.650482177734375,0.22430419921875,1.0,4.0,4.0,1.0,4.0,100.0,event
11:14:23.026,0.0,0.0,0.7395627,0.0,0.0,0.0,-0.2256002,0.0,0.0,0.0,0.6228905,0.0,0.0,0.0,0.81435984,0.0,0.0,0.0,0.39691728,0.0,0.0,140.62271,774.83514,211.53847,781.685,-0.2294921875,0.0250244140625,0.9677734375,2.400054931640625,-0.76263427734375,1.577606201171875,1.0,4.0,4.0,1.0,4.0,100.0,event
11:14:23.027,0.0,0.0,0.7395627,0.0,0.0,0.0,-0.2256002,0.0,0.0,0.0,0.6228905,0.0,0.0,0.0,0.81435984,0.0,0.0,0.0,0.39691728,0.0,0.0,0.0,782.49084,0.0,741.39197,-0.2294921875,0.0250244140625,0.9677734375,2.400054931640625,-0.76263427734375,1.577606201171875,1.0,4.0,4.0,1.0,4.0,100.0,event
11:14:23.030,0.0,0.0,0.7395627,0.0,0.0,0.0,-0.2256002,0.0,0.0,0.0,0.6228905,0.0,0.0,0.0,0.81435984,0.0,0.0,0.0,0.39691728,0.0,0.0,124.908424,788.1319,39.89011,702.3077,-0.2294921875,0.0250244140625,0.9677734375,2.400054931640625,-0.76263427734375,1.577606201171875,1.0,4.0,4.0,1.0,4.0,100.0,event
11:14:23.031,0.0,0.0,0.7395627,0.0,0.0,0.0,-0.2256002,0.0,0.0,0.0,0.6228905,0.0,0.0,0.0,0.81435984,0.0,0.0,0.0,0.39691728,0.0,0.0,377.14285,796.99634,0.0,676.52014,-0.2294921875,0.0250244140625,0.9677734375,2.400054931640625,-0.76263427734375,1.577606201171875,1.0,4.0,4.0,1.0,4.0,100.0,event
11:14:23.031,0.0,0.0,0.7395627,0.0,0.0,0.0,-0.2256002,0.0,0.0,0.0,0.6228905,0.0,0.0,0.0,0.81435984,0.0,0.0,0.0,0.39691728,0.0,0.0,551.6117,805.05493,0.0,756.30035,-0.2294921875,0.0250244140625,0.9677734375,2.400054931640625,-0.76263427734375,1.577606201171875,1.0,4.0,4.0,1.0,4.0,100.0,event
11:14:23.032,0.0,0.0,0.7395627,0.0,0.0,0.0,-0.2256002,0.0,0.0,0.0,0.6228905,0.0,0.0,0.0,0.81435984,0.0,0.0,0.0,0.39691728,0.0,0.0,430.32968,797.3993,0.0,836.08057,-0.2294921875,0.0250244140625,0.9677734375,2.400054931640625,-0.76263427734375,1.577606201171875,1.0,4.0,4.0,1.0,4.0,100.0,event
11:14:23.032,0.0,0.0,0.7395627,0.0,0.0,0.0,-0.2256002,0.0,0.0,0.0,0.6228905,0.0,0.0,0.0,0.81435984,0.0,0.0,0.0,0.39691728,0.0,0.0,91.86813,801.4286,19.34066,834.87177,-0.2294921875,0.0250244140625,0.9677734375,2.400054931640625,-0.76263427734375,1.577606201171875,1.0,4.0,4.0,1.0,4.0,100.0,event
11:14:23.033,0.0,0.0,0.7395627,0.0,0.0,0.0,-0.2256002,0.0,0.0,0.0,0.6228905,0.0,0.0,0.0,0.81435984,0.0,0.0,0.0,0.39691728,0.0,0.0,80.18315,769.59705,0.0,949.304,-0.2294921875,0.0250244140625,0.9677734375,2.400054931640625,-0.76263427734375,1.577606201171875,1.0,4.0,4.0,1.0,4.0,100.0,event
11:14:23.033,0.0,0.0,0.7395627,0.0,0.0,0.0,-0.2256002,0.0,0.0,0.0,0.6228905,0.0,0.0,0.0,0.81435984,0.0,0.0,0.0,0.39691728,0.0,0.0,138.20512,796.5934,0.0,805.05493,-0.2294921875,0.0250244140625,0.9677734375,2.400054931640625,-0.76263427734375,1.577606201171875,1.0,4.0,4.0,1.0,4.0,100.0,event
11:14:23.034,0.0,0.0,0.7395627,0.0,0.0,0.0,-0.2256002,0.0,0.0,0.0,0.6228905,0.0,0.0,0.0,0.81435984,0.0,0.0,0.0,0.39691728,0.0,0.0,63.663002,790.14655,817.5458,1092.7472,-0.2294921875,0.0250244140625,0.9677734375,2.400054931640625,-0.76263427734375,1.577606201171875,1.0,4.0,4.0,1.0,4.0,100.0,event
11:14:23.034,0.0,0.0,0.7395627,0.0,0.0,0.0,-0.2256002,0.0,0.0,0.0,0.6228905,0.0,0.0,0.0,0.81435984,0.0,0.0,0.0,0.39691728,0.0,0.0,493.99268,821.5751,771.6117,866.30035,-0.2294921875,0.0250244140625,0.9677734375,2.400054931640625,-0.76263427734375,1.577606201171875,1.0,4.0,4.0,1.0,4.0,100.0,event
11:14:23.035,0.0,0.0,0.7395627,0.0,0.0,0.0,-0.2256002,0.0,0.0,0.0,0.6228905,0.0,0.0,0.0,0.81435984,0.0,0.0,0.0,0.39691728,0.0,0.0,313.88278,807.47253,0.0,749.0476,-0.2294921875,0.0250244140625,0.9677734375,2.400054931640625,-0.76263427734375,1.577606201171875,1.0,4.0,4.0,1.0,4.0,100.0,event
11:14:23.076,0.0,0.0,0.7395627,0.0,0.0,0.0,-0.2256002,0.0,0.0,0.0,0.6228905,0.0,0.0,0.0,0.81435984,0.0,0.0,0.0,0.39691728,0.0,0.0,231.28206,799.81683,224.43224,767.1795,-0.234619140625,0.0224609375,0.96734619140625,2.7215576171875,2.714080810546875,-0.560760498046875,1.0,4.0,4.0,1.0,4.0,100.0,event
11:14:23.077,0.0,0.0,0.7395627,0.0,0.0,0.0,-0.2256002,0.0,0.0,0.0,0.6228905,0.0,0.0,0.0,0.81435984,0.0,0.0,0.0,0.39691728,0.0,0.0,651.13556,796.99634,1407.8389,749.45056,-0.234619140625,0.0224609375,0.96734619140625,2.7215576171875,2.714080810546875,-0.560760498046875,1.0,4.0,4.0,1.0,4.0,100.0,event
11:14:23.078,0.0,0.0,0.7395627,0.0,0.0,0.0,-0.2256002,0.0,0.0,0.0,0.6228905,0.0,0.0,0.0,0.81435984,0.0,0.0,0.0,0.39691728,0.0,51.575092,911.4286,808.68134,50.76923,755.89746,-0.234619140625,0.0224609375,0.96734619140625,2.7215576171875,2.714080810546875,-0.560760498046875,1.0,4.0,4.0,1.0,4.0,100.0,event
11:14:23.079,0.0,0.0,0.7395627,0.0,0.0,0.0,-0.2256002,0.0,0.0,0.0,0.6228905,0.0,0.0,0.0,0.81435984,0.0,0.0,0.0,0.39691728,0.0,0.0,909.81683,815.5311,1573.0403,799.41394,-0.234619140625,0.0224609375,0.96734619140625,2.7215576171875,2.714080810546875,-0.560760498046875,1.0,4.0,4.0,1.0,4.0,100.0,event
11:14:23.080,0.0,0.0,0.7395627,0.0,0.0,0.0,-0.2256002,0.0,0.0,0.0,0.6228905,0.0,0.0,0.0,0.81435984,0.0,0.0,0.0,0.39691728,0.0,214.7619,792.1612,812.3077,1641.5385,850.58606,-0.234619140625,0.0224609375,0.96734619140625,2.7215576171875,2.714080810546875,-0.560760498046875,1.0,4.0,4.0,1.0,4.0,100.0,event
11:14:23.081,0.0,0.0,0.7395627,0.0,0.0,0.0,-0.2256002,0.0,0.0,0.0,0.6228905,0.0,0.0,0.0,0.81435984,0.0,0.0,0.0,0.39691728,0.0,1380.8425,1029.8901,809.89014,1628.2417,855.0183,-0.234619140625,0.0224609375,0.96734619140625,2.7215576171875,2.714080810546875,-0.560760498046875,1.0,4.0,4.0,1.0,4.0,100.0,event
11:14:23.081,0.0,0.0,0.7395627,0.0,0.0,0.0,-0.2256002,0.0,0.0,0.0,0.6228905,0.0,0.0,0.0,0.81435984,0.0,0.0,0.0,0.39691728,0.0,37.472527,1264.7986,807.0696,1628.2417,861.06226,-0.234619140625,0.0224609375,0.96734619140625,2.7215576171875,2.714080810546875,-0.560760498046875,1.0,4.0,4.0,1.0,4.0,100.0,event
11:14:23.082,0.0,0.0,0.7395627,0.0,0.0,0.0,-0.2256002,0.0,0.0,0.0,0.6228905,0.0,0.0,0.0,0.81435984,0.0,0.0,0.0,0.39691728,0.0,1612.5275,1022.6374,800.2198,1628.2417,966.63007,-0.234619140625,0.0224609375,0.96734619140625,2.7215576171875,2.714080810546875,-0.560760498046875,1.0,4.0,4.0,1.0,4.0,100.0,event
11:14:23.083,0.0,0.0,0.7395627,0.0,0.0,0.0,-0.2256002,0.0,0.0,0.0,0.6228905,0.0,0.0,0.0,0.81435984,0.0,0.0,0.0,0.39691728,0.0,744.21246,269.96338,799.41394,1628.2417,1126.9963,-0.234619140625,0.0224609375,0.96734619140625,2.7215576171875,2.714080810546875,-0.560760498046875,1.0,4.0,4.0,1.0,4.0,100.0,event
11:14:23.083,0.0,0.0,0.7395627,0.0,0.0,0.0,-0.2256002,0.0,0.0,0.0,0.6228905,0.0,0.0,0.0,0.81435984,0.0,0.0,0.0,0.39691728,0.0,0.0,404.1392,818.7546,1628.6447,981.9414,-0.234619140625,0.0224609375,0.96734619140625,2.7215576171875,2.714080810546875,-0.560760498046875,1.0,4.0,4.0,1.0,4.0,100.0,event
11:14:23.084,0.0,0.0,0.7395627,0.0,0.0,0.0,-0.2256002,0.0,0.0,0.0,0.6228905,0.0,0.0,0.0,0.81435984,0.0,0.0,0.0,0.39691728,0.0,334.43222,889.67035,807.0696,1628.2417,912.23444,-0.234619140625,0.0224609375,0.96734619140625,2.7215576171875,2.714080810546875,-0.560760498046875,1.0,4.0,4.0,1.0,4.0,100.0,event
11:14:23.084,0.0,0.0,0.7395627,0.0,0.0,0.0,-0.2256002,0.0,0.0,0.0,0.6228905,0.0,0.0,0.0,0.81435984,0.0,0.0,0.0,0.39691728,0.0,1184.6154,873.5531,788.1319,1628.2417,927.9487,-0.234619140625,0.0224609375,0.96734619140625,2.7215576171875,2.714080810546875,-0.560760498046875,1.0,4.0,4.0,1.0,4.0,100.0,event
11:14:23.126,0.0,0.0,0.7395627,0.0,0.0,0.0,-0.2256002,0.0,0.0,0.0,0.6228905,0.0,0.0,0.0,0.81435984,0.0,0.0,0.0,0.39691728,0.0,10.07326,967.8388,801.8315,1628.2417,846.55676,-0.2529296875,0.03009033203125,0.9500732421875,3.058013916015625,-0.127105712890625,-0.829925537109375,1.0,4.0,4.0,1.0,4.0,100.0,event
11:14:23.127,0.0,0.0,0.7395627,0.0,0.0,0.0,-0.2256002,0.0,0.0,0.0,0.6228905,0.0,0.0,0.0,0.81435984,0.0,0.0,0.0,0.39691728,0.0,106.77656,919.0842,803.8461,1628.2417,739.7802,-0.2529296875,0.03009033203125,0.9500732421875,3.058013916015625,-0.127105712890625,-0.829925537109375,1.0,4.0,4.0,1.0,4.0,100.0,event
11:14:23.127,0.0,0.0,0.7395627,0.0,0.0,0.0,-0.2256002,0.0,0.0,0.0,0.6228905,0.0,0.0,0.0,0.81435984,0.0,0.0,0.0,0.39691728,0.0,1212.0146,1211.2087,809.0842,1628.2417,782.8938,-0.2529296875,0.03009033203125,0.9500732421875,3.058013916015625,-0.127105712890625,-0.829925537109375,1.0,4.0,4.0,1.0,4.0,100.0,event
11:14:23.128,0.0,0.0,0.7395627,0.0,0.0,0.0,-0.2256002,0.0,0.0,0.0,0.6228905,0.0,0.0,0.0,0.81435984,0.0,0.0,0.0,0.39691728,0.0,0.0,697.0696,809.89014,1631.4652,784.10254,-0.2529296875,0.03009033203125,0.9500732421875,3.058013916015625,-0.127105712890625,-0.829925537109375,1.0,4.0,4.0,1.0,4.0,100.0,event
11:14:23.132,0.0,0.0,0.7395627,0.0,0.0,0.0,-0.2256002,0.0,0.0,0.0,0.6228905,0.0,0.0,0.0,0.81435984,0.0,0.0,0.0,0.39691728,0.0,1002.0879,1085.8975,810.293,1623.8096,810.696,-0.2529296875,0.03009033203125,0.9500732421875,3.058013916015625,-0.127105712890625,-0.829925537109375,1.0,4.0,4.0,1.0,4.0,100.0,event
11:14:23.133,0.0,0.0,0.7395627,0.0,0.0,0.0,-0.2256002,0.0,0.0,0.0,0.6228905,0.0,0.0,0.0,0.81435984,0.0,0.0,0.0,0.39691728,0.0,74.54212,1196.7032,791.75824,1596.0073,843.73627,-0.2529296875,0.03009033203125,0.9500732421875,3.058013916015625,-0.127105712890625,-0.829925537109375,1.0,4.0,4.0,1.0,4.0,100.0,event
11:14:23.134,0.0,0.0,0.7395627,0.0,0.0,0.0,-0.2256002,0.0,0.0,0.0,0.6228905,0.0,0.0,0.0,0.81435984,0.0,0.0,0.0,0.39691728,0.0,1475.5311,1036.337,798.60803,26.593407,886.04395,-0.2529296875,0.03009033203125,0.9500732421875,3.058013916015625,-0.127105712890625,-0.829925537109375,1.0,4.0,4.0,1.0,4.0,100.0,event
11:14:23.135,0.0,0.0,0.7395627,0.0,0.0,0.0,-0.2256002,0.0,0.0,0.0,0.6228905,0.0,0.0,0.0,0.81435984,0.0,0.0,0.0,0.39691728,0.0,202.27106,418.64468,804.65204,1084.6886,1012.96704,-0.2529296875,0.03009033203125,0.9500732421875,3.058013916015625,-0.127105712890625,-0.829925537109375,1.0,4.0,4.0,1.0,4.0,100.0,event
11:14:23.135,0.0,0.0,0.7395627,0.0,0.0,0.0,-0.2256002,0.0,0.0,0.0,0.6228905,0.0,0.0,0.0,0.81435984,0.0,0.0,0.0,0.39691728,0.0,329.19415,444.0293,819.15753,68.49817,928.3516,-0.2529296875,0.03009033203125,0.9500732421875,3.058013916015625,-0.127105712890625,-0.829925537109375,1.0,4.0,4.0,1.0,4.0,100.0,event
11:14:23.136,0.0,0.0,0.7395627,0.0,0.0,0.0,-0.2256002,0.0,0.0,0.0,0.6228905,0.0,0.0,0.0,0.81435984,0.0,0.0,0.0,0.39691728,0.0,1495.6776,1343.37,819.5604,100.32967,633.4066,-0.2529296875,0.03009033203125,0.9500732421875,3.058013916015625,-0.127105712890625,-0.829925537109375,1.0,4.0,4.0,1.0,4.0,100.0,event
11:14:23.137,0.0,0.0,0.7395627,0.0,0.0,0.0,-0.2256002,0.0,0.0,0.0,0.6228905,0.0,0.0,0.0,0.81435984,0.0,0.0,0.0,0.39691728,0.0,1434.8352,1183.4066,807.47253,93.47985,807.47253,-0.2529296875,0.03009033203125,0.9500732421875,3.058013916015625,-0.127105712890625,-0.829925537109375,1.0,4.0,4.0,1.0,4.0,100.0,event
11:14:23.137,0.0,0.0,0.7395627,0.0,0.0,0.0,-0.2256002,0.0,0.0,0.0,0.6228905,0.0,0.0,0.0,0.81435984,0.0,0.0,0.0,0.39691728,0.0,66.08059,1451.3553,809.0842,1132.6373,656.3736,-0.2529296875,0.03009033203125,0.9500732421875,3.058013916015625,-0.127105712890625,-0.829925537109375,1.0,4.0,4.0,1.0,4.0,100.0,event
11:14:23.176,0.0,0.0,0.7395627,0.0,0.0,0.0,-0.2256002,0.0,0.0,0.0,0.6228905,0.0,0.0,0.0,0.81435984,0.0,0.0,0.0,0.39691728,0.0,279.6337,984.35895,798.60803,914.65204,797.3993,-0.25433349609375,0.0311279296875,0.94805908203125,2.086029052734375,0.246734619140625,-2.3626708984375,1.0,4.0,4.0,1.0,4.0,100.0,event
11:14:23.177,0.0,0.0,0.7395627,0.0,0.0,0.0,-0.2256002,0.0,0.0,0.0,0.6228905,0.0,0.0,0.0,0.81435984,0.0,0.0,0.0,0.39691728,0.0,0.0,804.2491,787.72894,23.772894,732.1245,-0.25433349609375,0.0311279296875,0.94805908203125,2.086029052734375,0.246734619140625,-2.3626708984375,1.0,4.0,4.0,1.0,4.0,100.0,event
11:14:23.178,0.0,0.0,0.7395627,0.0,0.0,0.0,-0.2256002,0.0,0.0,0.0,0.6228905,0.0,0.0,0.0,0.81435984,0.0,0.0,0.0,0.39691728,0.0,103.150185,800.2198,783.2967,0.0,674.5055,-0.25433349609375,0.0311279296875,0.94805908203125,2.086029052734375,0.246734619140625,-2.3626708984375,1.0,4.0,4.0,1.0,4.0,100.0,event
11:14:23.179,0.0,0.0,0.7395627,0.0,0.0,0.0,-0.2256002,0.0,0.0,0.0,0.6228905,0.0,0.0,0.0,0.81435984,0.0,0.0,0.0,0.39691728,0.0,0.0,748.24176,800.6227,852.6007,744.61536,-0.25433349609375,0.0311279296875,0.94805908203125,2.086029052734375,0.246734619140625,-2.3626708984375,1.0,4.0,4.0,1.0,4.0,100.0,event
11:14:23.180,0.0,0.0,0.7395627,0.0,0.0,0.0,-0.2256002,0.0,0.0,0.0,0.6228905,0.0,0.0,0.0,0.81435984,0.0,0.0,0.0,0.39691728,0.0,149.48718,1012.1612,826.8132,16.520147,798.60803,-0.25433349609375,0.0311279296875,0.94805908203125,2.086029052734375,0.246734619140625,-2.3626708984375,1.0,4.0,4.0,1.0,4.0,100.0,event
11:14:23.181,0.0,0.0,0.7395627,0.0,0.0,0.0,-0.2256002,0.0,0.0,0.0,0.6228905,0.0,0.0,0.0,0.81435984,0.0,0.0,0.0,0.39691728,0.0,1328.4615,1363.9194,823.5897,548.7912,750.65936,-0.25433349609375,0.0311279296875,0.94805908203125,2.086029052734375,0.246734619140625,-2.3626708984375,1.0,4.0,4.0,1.0,4.0,100.0,event
11:14:23.182,0.0,0.0,0.7395627,0.0,0.0,0.0,-0.2256002,0.0,0.0,0.0,0.6228905,0.0,0.0,0.0,0.81435984,0.0,0.0,0.0,0.39691728,0.0,80.98901,1382.4542,803.44324,0.0,855.42126,-0.25433349609375,0.0311279296875,0.94805908203125,2.086029052734375,0.246734619140625,-2.3626708984375,1.0,4.0,4.0,1.0,4.0,100.0,event
11:14:23.183,0.0,0.0,0.7395627,0.0,0.0,0.0,-0.2256002,0.0,0.0,0.0,0.6228905,0.0,0.0,0.0,0.81435984,0.0,0.0,0.0,0.39691728,0.0,1529.1208,823.1868,792.5641,0.0,1010.54944,-0.25433349609375,0.0311279296875,0.94805908203125,2.086029052734375,0.246734619140625,-2.3626708984375,1.0,4.0,4.0,1.0,4.0,100.0,event
11:14:23.183,0.0,0.0,0.7395627,0.0,0.0,0.0,-0.2256002,0.0,0.0,0.0,0.6228905,0.0,0.0,0.0,0.81435984,0.0,0.0,0.0,0.39691728,0.0,0.0,1283.7362,809.0842,378.35165,784.90845,-0.25433349609375,0.0311279296875,0.94805908203125,2.086029052734375,0.246734619140625,-2.3626708984375,1.0,4.0,4.0,1.0,4.0,100.0,event
11:14:23.184,0.0,0.0,0.7395627,0.0,0.0,0.0,-0.2256002,0.0,0.0,0.0,0.6228905,0.0,0.0,0.0,0.81435984,0.0,0.0,0.0,0.39691728,0.0,1647.5824,91.06227,805.05493,1597.619,720.84247,-0.25433349609375,0.0311279296875,0.94805908203125,2.086029052734375,0.246734619140625,-2.3626708984375,1.0,4.0,4.0,1.0,4.0,100.0,event
11:14:23.185,0.0,0.0,0.7395627,0.0,0.0,0.0,-0.2256002,0.0,0.0,0.0,0.6228905,0.0,0.0,0.0,0.81435984,0.0,0.0,0.0,0.39691728,0.0,405.348,1100.0,784.90845,1393.3334,811.0989,-0.25433349609375,0.0311279296875,0.94805908203125,2.086029052734375,0.246734619140625,-2.3626708984375,1.0,4.0,4.0,1.0,4.0,100.0,event
11:14:23.186,0.0,0.0,0.7395627,0.0,0.0,0.0,-0.2256002,0.0,0.0,0.0,0.6228905,0.0,0.0,0.0,0.81435984,0.0,0.0,0.0,0.39691728,0.0,0.0,908.20514,791.3553,211.13553,693.0403,-0.25433349609375,0.0311279296875,0.94805908203125,2.086029052734375,0.246734619140625,-2.3626708984375,1.0,4.0,4.0,1.0,4.0,100.0,event
11:14:23.218,0.0,0.0,0.7395627,0.0,0.0,0.0,-0.2256002,0.0,0.0,0.0,0.6228905,0.0,0.0,0.0,0.81435984,0.0,0.0,0.0,0.39691728,0.0,1356.6666,1443.6996,805.05493,0.0,638.6447,-0.25433349609375,0.0311279296875,0.94805908203125,2.086029052734375,0.246734619140625,-2.3626708984375,1.0,4.0,4.0,1.0,4.0,100.0,event
11:14:23.219,0.0,0.0,0.7395627,0.0,0.0,0.0,-0.2256002,0.0,0.0,0.0,0.6228905,0.0,0.0,0.0,0.81435984,0.0,0.0,0.0,0.39691728,0.0,22.161173,1639.5238,801.8315,218.38828,676.1172,-0.25433349609375,0.0311279296875,0.94805908203125,2.086029052734375,0.246734619140625,-2.3626708984375,1.0,4.0,4.0,1.0,4.0,100.0,event
11:14:23.220,0.0,0.0,0.7395627,0.0,0.0,0.0,-0.2256002,0.0,0.0,0.0,0.6228905,0.0,0.0,0.0,0.81435984,0.0,0.0,0.0,0.39691728,0.0,1639.5238,1414.6886,786.52014,1440.0732,814.7253,-0.25433349609375,0.0311279296875,0.94805908203125,2.086029052734375,0.246734619140625,-2.3626708984375,1.0,4.0,4.0,1.0,4.0,100.0,event
11:14:23.221,0.0,0.0,0.7395627,0.0,0.0,0.0,-0.2256002,0.0,0.0,0.0,0.6228905,0.0,0.0,0.0,0.81435984,0.0,0.0,0.0,0.39691728,0.0,1197.9121,1199.5238,772.4176,793.36993,792.1612,-0.25433349609375,0.0311279296875,0.94805908203125,2.086029052734375,0.246734619140625,-2.3626708984375,1.0,4.0,4.0,1.0,4.0,100.0,event
11:14:23.222,0.0,0.0,0.7395627,0.0,0.0,0.0,-0.2256002,0.0,0.0,0.0,0.6228905,0.0,0.0,0.0,0.81435984,0.0,0.0,0.0,0.39691728,0.0,110.40293,973.8828,782.8938,0.0,705.5311,-0.25433349609375,0.0311279296875,0.94805908203125,2.086029052734375,0.246734619140625,-2.3626708984375,1.0,4.0,4.0,1.0,4.0,100.0,event
11:14:23.225,0.0,0.0,0.7395627,0.0,0.0,0.0,-0.2256002,0.0,0.0,0.0,0.6228905,0.0,0.0,0.0,0.81435984,0.0,0.0,0.0,0.39691728,0.0,577.3993,1079.8535,809.4872,55.201466,767.5824,-0.25433349609375,0.0311279296875,0.94805908203125,2.086029052734375,0.246734619140625,-2.3626708984375,1.0,4.0,4.0,1.0,4.0,100.0,event
11:14:23.229,0.0,0.0,0.7395627,0.0,0.0,0.0,-0.2256002,0.0,0.0,0.0,0.6228905,0.0,0.0,0.0,0.81435984,0.0,0.0,0.0,0.39691728,0.0,1642.3444,802.6374,798.20514,4.4322343,963.00366,-0.25433349609375,0.0311279296875,0.94805908203125,2.086029052734375,0.246734619140625,-2.3626708984375,1.0,4.0,4.0,1.0,4.0,100.0,event
11:14:23.231,0.0,0.0,0.7395627,0.0,0.0,0.0,-0.2256002,0.0,0.0,0.0,0.6228905,0.0,0.0,0.0,0.81435984,0.0,0.0,0.0,0.39691728,0.0,1519.4506,253.84616,797.8022,0.0,1089.9268,-0.25433349609375,0.0311279296875,0.94805908203125,2.086029052734375,0.246734619140625,-2.3626708984375,1.0,4.0,4.0,1.0,4.0,100.0,event
11:14:23.233,0.0,0.0,0.7395627,0.0,0.0,0.0,-0.2256002,0.0,0.0,0.0,0.6228905,0.0,0.0,0.0,0.81435984,0.0,0.0,0.0,0.39691728,0.0,288.09525,850.58606,819.15753,0.0,792.1612,-0.25433349609375,0.0311279296875,0.94805908203125,2.086029052734375,0.246734619140625,-2.3626708984375,1.0,4.0,4.0,1.0,4.0,100.0,event
11:14:23.233,0.0,0.0,0.7395627,0.0,0.0,0.0,-0.2256002,0.0,0.0,0.0,0.6228905,0.0,0.0,0.0,0.81435984,0.0,0.0,0.0,0.39691728,0.0,0.0,1109.2675,808.68134,0.0,734.94507,-0.25433349609375,0.0311279296875,0.94805908203125,2.086029052734375,0.246734619140625,-2.3626708984375,1.0,4.0,4.0,1.0,4.0,100.0,event
11:14:23.234,0.0,0.0,0.7395627,0.0,0.0,0.0,-0.2256002,0.0,0.0,0.0,0.6228905,0.0,0.0,0.0,0.81435984,0.0,0.0,0.0,0.39691728,0.0,1300.6593,1065.348,803.0403,0.0,809.89014,-0.25433349609375,0.0311279296875,0.94805908203125,2.086029052734375,0.246734619140625,-2.3626708984375,1.0,4.0,4.0,1.0,4.0,100.0,event
11:14:23.235,0.0,0.0,0.7395627,0.0,0.0,0.0,-0.2256002,0.0,0.0,0.0,0.6228905,0.0,0.0,0.0,0.81435984,0.0,0.0,0.0,0.39691728,0.0,70.51282,1488.4249,807.8755,0.0,658.7912,-0.25433349609375,0.0311279296875,0.94805908203125,2.086029052734375,0.246734619140625,-2.3626708984375,1.0,4.0,4.0,1.0,4.0,100.0,event
11:14:23.261,0.0,0.0,0.7395627,0.0,0.0,0.0,-0.2256002,0.0,0.0,0.0,0.6228905,0.0,0.0,0.0,0.81435984,0.0,0.0,0.0,0.39691728,0.0,1566.9963,47.94872,807.0696,0.0,663.22345,-0.25494384765625,0.02618408203125,0.95556640625,3.192596435546875,-2.03369140625,-1.637420654296875,1.0,4.0,4.0,1.0,4.0,100.0,event
11:14:23.262,0.0,0.0,0.7395627,0.0,0.0,0.0,-0.2256002,0.0,0.0,0.0,0.6228905,0.0,0.0,0.0,0.81435984,0.0,0.0,0.0,0.39691728,0.0,1639.5238,1499.3041,794.17584,0.0,728.49817,-0.25494384765625,0.02618408203125,0.95556640625,3.192596435546875,-2.03369140625,-1.637420654296875,1.0,4.0,4.0,1.0,4.0,100.0,event
11:14:23.263,0.0,0.0,0.7395627,0.0,0.0,0.0,-0.2256002,0.0,0.0,0.0,0.6228905,0.0,0.0,0.0,0.81435984,0.0,0.0,0.0,0.39691728,0.0,1627.8389,1456.1904,823.1868,0.0,661.2088,-0.25494384765625,0.02618408203125,0.95556640625,3.192596435546875,-2.03369140625,-1.637420654296875,1.0,4.0,4.0,1.0,4.0,100.0,event
11:14:23.263,0.0,0.0,0.7395627,0.0,0.0,0.0,-0.2256002,0.0,0.0,0.0,0.6228905,0.0,0.0,0.0,0.81435984,0.0,0.0,0.0,0.39691728,0.0,1627.8389,1196.3004,801.4286,0.0,729.304,-0.25494384765625,0.02618408203125,0.95556640625,3.192596435546875,-2.03369140625,-1.637420654296875,1.0,4.0,4.0,1.0,4.0,100.0,event
11:14:23.264,0.0,0.0,0.7395627,0.0,0.0,0.0,-0.2256002,0.0,0.0,0.0,0.6228905,0.0,0.0,0.0,0.81435984,0.0,0.0,0.0,0.39691728,0.0,1627.8389,44.725273,829.6337,0.0,635.0183,-0.25494384765625,0.02618408203125,0.95556640625,3.192596435546875,-2.03369140625,-1.637420654296875,1.0,4.0,4.0,1.0,4.0,100.0,event
11:14:23.265,0.0,0.0,0.7395627,0.0,0.0,0.0,-0.2256002,0.0,0.0,0.0,0.6228905,0.0,0.0,0.0,0.81435984,0.0,0.0,0.0,0.39691728,0.0,1627.8389,1562.5641,820.3663,0.0,895.31134,-0.25494384765625,0.02618408203125,0.95556640625,3.192596435546875,-2.03369140625,-1.637420654296875,1.0,4.0,4.0,1.0,4.0,100.0,event
11:14:23.265,0.0,0.0,0.7395627,0.0,0.0,0.0,-0.2256002,0.0,0.0,0.0,0.6228905,0.0,0.0,0.0,0.81435984,0.0,0.0,0.0,0.39691728,0.0,1627.8389,1216.8499,802.6374,0.0,1073.0037,-0.25494384765625,0.02618408203125,0.95556640625,3.192596435546875,-2.03369140625,-1.637420654296875,1.0,4.0,4.0,1.0,4.0,100.0,event
11:14:23.266,0.0,0.0,0.7395627,0.0,0.0,0.0,-0.2256002,0.0,0.0,0.0,0.6228905,0.0,0.0,0.0,0.81435984,0.0,0.0,0.0,0.39691728,0.0,1627.8389,1301.8682,785.7143,0.0,829.2308,-0.25494384765625,0.02618408203125,0.95556640625,3.192596435546875,-2.03369140625,-1.637420654296875,1.0,4.0,4.0,1.0,4.0,100.0,event
11:14:23.267,0.0,0.0,0.7395627,0.0,0.0,0.0,-0.2256002,0.0,0.0,0.0,0.6228905,0.0,0.0,0.0,0.81435984,0.0,0.0,0.0,0.39691728,0.0,1627.8389,1613.3334,799.011,0.0,656.77655,-0.25494384765625,0.02618408203125,0.95556640625,3.192596435546875,-2.03369140625,-1.637420654296875,1.0,4.0,4.0,1.0,4.0,100.0,event
11:14:23.267,0.0,0.0,0.7395627,0.0,0.0,0.0,-0.2256002,0.0,0.0,0.0,0.6228905,0.0,0.0,0.0,0.81435984,0.0,0.0,0.0,0.39691728,0.0,1627.8389,1543.2234,809.0842,0.0,730.9158,-0.25494384765625,0.02618408203125,0.95556640625,3.192596435546875,-2.03369140625,-1.637420654296875,1.0,4.0,4.0,1.0,4.0,100.0,event
11:14:23.268,0.0,0.0,0.7395627,0.0,0.0,0.0,-0.2256002,0.0,0.0,0.0,0.6228905,0.0,0.0,0.0,0.81435984,0.0,0.0,0.0,0.39691728,0.0,1627.8389,1581.0989,809.89014,0.0,727.28937,-0.25494384765625,0.02618408203125,0.95556640625,3.192596435546875,-2.03369140625,-1.637420654296875,1.0,4.0,4.0,1.0,4.0,100.0,event
11:14:23.268,0.0,0.0,0.7395627,0.0,0.0,0.0,-0.2256002,0.0,0.0,0.0,0.6228905,0.0,0.0,0.0,0.81435984,0.0,0.0,0.0,0.39691728,0.0,1628.2417,1311.1355,807.8755,0.0,872.74725,-0.25494384765625,0.02618408203125,0.95556640625,3.192596435546875,-2.03369140625,-1.637420654296875,1.0,4.0,4.0,1.0,4.0,100.0,event
11:14:23.348,0.0,0.0,0.7395627,0.0,0.0,0.0,-0.2256002,0.0,0.0,0.0,0.6228905,0.0,0.0,0.0,0.81435984,0.0,0.0,0.0,0.39691728,0.0,1627.8389,10.879121,798.20514,0.0,632.6007,-0.25146484375,0.028564453125,0.95196533203125,1.951446533203125,-4.732818603515625,0.052337646484375,1.0,4.0,4.0,1.0,4.0,100.0,event
11:14:23.349,0.0,0.0,0.7395627,0.0,0.0,0.0,-0.2256002,0.0,0.0,0.0,0.6228905,0.0,0.0,0.0,0.81435984,0.0,0.0,0.0,0.39691728,0.0,1627.8389,1547.6556,800.6227,37.472527,711.1722,-0.25146484375,0.028564453125,0.95196533203125,1.951446533203125,-4.732818603515625,0.052337646484375,1.0,4.0,4.0,1.0,4.0,100.0,event
11:14:23.350,0.0,0.0,0.7395627,0.0,0.0,0.0,-0.2256002,0.0,0.0,0.0,0.6228905,0.0,0.0,0.0,0.81435984,0.0,0.0,0.0,0.39691728,0.0,1627.8389,1585.5311,818.7546,0.0,704.7253,-0.25146484375,0.028564453125,0.95196533203125,1.951446533203125,-4.732818603515625,0.052337646484375,1.0,4.0,4.0,1.0,4.0,100.0,event
11:14:23.351,0.0,0.0,0.7395627,0.0,0.0,0.0,-0.2256002,0.0,0.0,0.0,0.6228905,0.0,0.0,0.0,0.81435984,0.0,0.0,0.0,0.39691728,0.0,1627.8389,1647.5824,817.1429,84.61539,678.93774,-0.25146484375,0.028564453125,0.95196533203125,1.951446533203125,-4.732818603515625,0.052337646484375,1.0,4.0,4.0,1.0,4.0,100.0,event
11:14:23.352,0.0,0.0,0.7395627,0.0,0.0,0.0,-0.2256002,0.0,0.0,0.0,0.6228905,0.0,0.0,0.0,0.81435984,0.0,0.0,0.0,0.39691728,0.0,1627.8389,1628.2417,798.20514,670.87915,768.3883,-0.25146484375,0.028564453125,0.95196533203125,1.951446533203125,-4.732818603515625,0.052337646484375,1.0,4.0,4.0,1.0,4.0,100.0,event
11:14:23.352,0.0,0.0,0.7395627,0.0,0.0,0.0,-0.2256002,0.0,0.0,0.0,0.6228905,0.0,0.0,0.0,0.81435984,0.0,0.0,0.0,0.39691728,0.0,1627.8389,1338.9377,806.26373,251.8315,878.7912,-0.25146484375,0.028564453125,0.95196533203125,1.951446533203125,-4.732818603515625,0.052337646484375,1.0,4.0,4.0,1.0,4.0,100.0,event
11:14:23.353,0.0,0.0,0.7395627,0.0,0.0,0.0,-0.2256002,0.0,0.0,0.0,0.6228905,0.0,0.0,0.0,0.81435984,0.0,0.0,0.0,0.39691728,0.0,1627.8389,1390.5128,826.0073,0.0,891.685,-0.25146484375,0.028564453125,0.95196533203125,1.951446533203125,-4.732818603515625,0.052337646484375,1.0,4.0,4.0,1.0,4.0,100.0,event
11:14:23.354,0.0,0.0,0.7395627,0.0,0.0,0.0,-0.2256002,0.0,0.0,0.0,0.6228905,0.0,0.0,0.0,0.81435984,0.0,0.0,0.0,0.39691728,0.0,1627.8389,1642.3444,830.4396,188.97437,802.23444,-0.25146484375,0.028564453125,0.95196533203125,1.951446533203125,-4.732818603515625,0.052337646484375,1.0,4.0,4.0,1.0,4.0,100.0,event
11:14:23.358,0.0,0.0,0.7395627,0.0,0.0,0.0,-0.2256002,0.0,0.0,0.0,0.6228905,0.0,0.0,0.0,0.81435984,0.0,0.0,0.0,0.39691728,0.0,1627.8389,1643.5531,814.3223,1321.6117,803.0403,-0.25146484375,0.028564453125,0.95196533203125,1.951446533203125,-4.732818603515625,0.052337646484375,1.0,4.0,4.0,1.0,4.0,100.0,event
11:14:23.359,0.0,0.0,0.7395627,0.0,0.0,0.0,-0.2256002,0.0,0.0,0.0,0.6228905,0.0,0.0,0.0,0.81435984,0.0,0.0,0.0,0.39691728,0.0,1627.8389,1336.5201,794.57874,65.27473,1040.3663,-0.25146484375,0.028564453125,0.95196533203125,1.951446533203125,-4.732818603515625,0.052337646484375,1.0,4.0,4.0,1.0,4.0,100.0,event
11:14:23.360,0.0,0.0,0.7395627,0.0,0.0,0.0,-0.2256002,0.0,0.0,0.0,0.6228905,0.0,0.0,0.0,0.81435984,0.0,0.0,0.0,0.39691728,0.0,1627.8389,1204.762,807.0696,1570.6227,1075.8242,-0.25146484375,0.028564453125,0.95196533203125,1.951446533203125,-4.732818603515625,0.052337646484375,1.0,4.0,4.0,1.0,4.0,100.0,event
11:14:23.361,0.0,0.0,0.7395627,0.0,0.0,0.0,-0.2256002,0.0,0.0,0.0,0.6228905,0.0,0.0,0.0,0.81435984,0.0,0.0,0.0,0.39691728,0.0,1627.8389,1504.1392,813.91943,1640.7325,908.20514,-0.25146484375,0.028564453125,0.95196533203125,1.951446533203125,-4.732818603515625,0.052337646484375,1.0,4.0,4.0,1.0,4.0,100.0,event
11:14:23.405,0.0,0.0,0.7395627,0.0,0.0,0.0,-0.2256002,0.0,0.0,0.0,0.6228905,0.0,0.0,0.0,0.81435984,0.0,0.0,0.0,0.39691728,0.0,1627.8389,1586.337,806.6667,1628.2417,886.8498,-0.24951171875,0.02117919921875,0.95849609375,1.80938720703125,-3.401947021484375,0.5084228515625,1.0,4.0,4.0,1.0,4.0,100.0,event
11:14:23.407,0.0,0.0,0.7395627,0.0,0.0,0.0,-0.2256002,0.0,0.0,0.0,0.6228905,0.0,0.0,0.0,0.81435984,0.0,0.0,0.0,0.39691728,0.0,1627.8389,1448.5348,810.696,1628.2417,1018.20514,-0.24951171875,0.02117919921875,0.95849609375,1.80938720703125,-3.401947021484375,0.5084228515625,1.0,4.0,4.0,1.0,4.0,100.0,event
11:14:23.410,0.0,0.0,0.7395627,0.0,0.0,0.0,-0.2256002,0.0,0.0,0.0,0.6228905,0.0,0.0,0.0,0.81435984,0.0,0.0,0.0,0.39691728,0.0,1627.8389,1595.2014,819.5604,1628.2417,932.381,-0.24951171875,0.02117919921875,0.95849609375,1.80938720703125,-3.401947021484375,0.5084228515625,1.0,4.0,4.0,1.0,4.0,100.0,event
11:14:23.412,0.0,0.0,0.7395627,0.0,0.0,0.0,-0.2256002,0.0,0.0,0.0,0.6228905,0.0,0.0,0.0,0.81435984,0.0,0.0,0.0,0.39691728,0.0,1627.8389,1620.1831,817.5458,1628.2417,813.91943,-0.24951171875,0.02117919921875,0.95849609375,1.80938720703125,-3.401947021484375,0.5084228515625,1.0,4.0,4.0,1.0,4.0,100.0,event
11:14:23.414,0.0,0.0,0.7395627,0.0,0.0,0.0,-0.2256002,0.0,0.0,0.0,0.6228905,0.0,0.0,0.0,0.81435984,0.0,0.0,0.0,0.39691728,0.0,1627.8389,1306.7032,809.89014,1628.2417,787.72894,-0.24951171875,0.02117919921875,0.95849609375,1.80938720703125,-3.401947021484375,0.5084228515625,1.0,4.0,4.0,1.0,4.0,100.0,event
11:14:23.415,0.0,0.0,0.7395627,0.0,0.0,0.0,-0.2256002,0.0,0.0,0.0,0.6228905,0.0,0.0,0.0,0.81435984,0.0,0.0,0.0,0.39691728,0.0,1627.8389,1162.0513,809.4872,1628.2417,857.4359,-0.24951171875,0.02117919921875,0.95849609375,1.80938720703125,-3.401947021484375,0.5084228515625,1.0,4.0,4.0,1.0,4.0,100.0,event
11:14:23.417,0.0,0.0,0.7395627,0.0,0.0,0.0,-0.2256002,0.0,0.0,0.0,0.6228905,0.0,0.0,0.0,0.81435984,0.0,0.0,0.0,0.39691728,0.0,1627.8389,1305.0916,816.337,1628.2417,861.4652,-0.24951171875,0.02117919921875,0.95849609375,1.80938720703125,-3.401947021484375,0.5084228515625,1.0,4.0,4.0,1.0,4.0,100.0,event
11:14:23.419,0.0,0.0,0.7395627,0.0,0.0,0.0,-0.2256002,0.0,0.0,0.0,0.6228905,0.0,0.0,0.0,0.81435984,0.0,0.0,0.0,0.39691728,0.0,1627.8389,1604.8718,822.381,1627.4359,733.3333,-0.24951171875,0.02117919921875,0.95849609375,1.80938720703125,-3.401947021484375,0.5084228515625,1.0,4.0,4.0,1.0,4.0,100.0,event
11:14:23.421,0.0,0.0,0.7395627,0.0,0.0,0.0,-0.2256002,0.0,0.0,0.0,0.6228905,0.0,0.0,0.0,0.81435984,0.0,0.0,0.0,0.39691728,0.0,1627.8389,1174.9451,818.7546,1630.6593,770.0,-0.24951171875,0.02117919921875,0.95849609375,1.80938720703125,-3.401947021484375,0.5084228515625,1.0,4.0,4.0,1.0,4.0,100.0,event
11:14:23.423,0.0,0.0,0.7395627,0.0,0.0,0.0,-0.2256002,0.0,0.0,0.0,0.6228905,0.0,0.0,0.0,0.81435984,0.0,0.0,0.0,0.39691728,0.0,1627.8389,267.14285,809.89014,1618.1685,1019.011,-0.24951171875,0.02117919921875,0.95849609375,1.80938720703125,-3.401947021484375,0.5084228515625,1.0,4.0,4.0,1.0,4.0,100.0,event
11:14:23.424,0.0,0.0,0.7395627,0.0,0.0,0.0,-0.2256002,0.0,0.0,0.0,0.6228905,0.0,0.0,0.0,0.81435984,0.0,0.0,0.0,0.39691728,0.0,1627.8389,906.1905,816.337,1616.9597,824.7985,-0.24951171875,0.02117919921875,0.95849609375,1.80938720703125,-3.401947021484375,0.5084228515625,1.0,4.0,4.0,1.0,4.0,100.0,event
11:14:23.424,0.0,0.0,0.7395627,0.0,0.0,0.0,-0.2256002,0.0,0.0,0.0,0.6228905,0.0,0.0,0.0,0.81435984,0.0,0.0,0.0,0.39691728,0.0,1627.8389,1565.3846,826.8132,1630.6593,701.0989,-0.24951171875,0.02117919921875,0.95849609375,1.80938720703125,-3.401947021484375,0.5084228515625,1.0,4.0,4.0,1.0,4.0,100.0,event
11:14:23.466,0.0,0.0,0.7395627,0.0,0.0,0.0,-0.2256002,0.0,0.0,0.0,0.6228905,0.0,0.0,0.0,0.81435984,0.0,0.0,0.0,0.39691728,0.0,1627.8389,1388.9011,822.381,1627.8389,877.1795,-0.2451171875,0.0269775390625,0.9620361328125,1.637420654296875,-0.897216796875,-0.67291259765625,1.0,4.0,4.0,1.0,4.0,100.0,event
11:14:23.467,0.0,0.0,0.7395627,0.0,0.0,0.0,-0.2256002,0.0,0.0,0.0,0.6228905,0.0,0.0,0.0,0.81435984,0.0,0.0,0.0,0.39691728,0.0,1627.8389,1076.63,818.7546,1627.8389,869.5238,-0.2451171875,0.0269775390625,0.9620361328125,1.637420654296875,-0.897216796875,-0.67291259765625,1.0,4.0,4.0,1.0,4.0,100.0,event
11:14:23.468,0.0,0.0,0.7395627,0.0,0.0,0.0,-0.2256002,0.0,0.0,0.0,0.6228905,0.0,0.0,0.0,0.81435984,0.0,0.0,0.0,0.39691728,0.0,1627.8389,859.85345,825.6044,1628.2417,786.52014,-0.2451171875,0.0269775390625,0.9620361328125,1.637420654296875,-0.897216796875,-0.67291259765625,1.0,4.0,4.0,1.0,4.0,100.0,event
11:14:23.469,0.0,0.0,0.7395627,0.0,0.0,0.0,-0.2256002,0.0,0.0,0.0,0.6228905,0.0,0.0,0.0,0.81435984,0.0,0.0,0.0,0.39691728,0.0,1629.8535,1168.0952,831.6484,1628.2417,770.40295,-0.2451171875,0.0269775390625,0.9620361328125,1.637420654296875,-0.897216796875,-0.67291259765625,1.0,4.0,4.0,1.0,4.0,100.0,event
11:14:23.469,0.0,0.0,0.7395627,0.0,0.0,0.0,-0.2256002,0.0,0.0,0.0,0.6228905,0.0,0.0,0.0,0.81435984,0.0,0.0,0.0,0.39691728,0.0,1621.7949,1076.63,816.7399,1628.6447,930.7692,-0.2451171875,0.0269775390625,0.9620361328125,1.637420654296875,-0.897216796875,-0.67291259765625,1.0,4.0,4.0,1.0,4.0,100.0,event
11:14:23.470,0.0,0.0,0.7395627,0.0,0.0,0.0,-0.2256002,0.0,0.0,0.0,0.6228905,0.0,0.0,0.0,0.81435984,0.0,0.0,0.0,0.39691728,0.0,1619.7803,890.4762,820.3663,1628.2417,976.30035,-0.2451171875,0.0269775390625,0.9620361328125,1.637420654296875,-0.897216796875,-0.67291259765625,1.0,4.0,4.0,1.0,4.0,100.0,event
11:14:23.471,0.0,0.0,0.7395627,0.0,0.0,0.0,-0.2256002,0.0,0.0,0.0,0.6228905,0.0,0.0,0.0,0.81435984,0.0,0.0,0.0,0.39691728,0.0,2.014652,886.4469,819.5604,1628.2417,863.0769,-0.2451171875,0.0269775390625,0.9620361328125,1.637420654296875,-0.897216796875,-0.67291259765625,1.0,4.0,4.0,1.0,4.0,100.0,event
11:14:23.471,0.0,0.0,0.7395627,0.0,0.0,0.0,-0.2256002,0.0,0.0,0.0,0.6228905,0.0,0.0,0.0,0.81435984,0.0,0.0,0.0,0.39691728,0.0,1342.5641,815.5311,819.5604,1628.2417,767.1795,-0.2451171875,0.0269775390625,0.9620361328125,1.637420654296875,-0.897216796875,-0.67291259765625,1.0,4.0,4.0,1.0,4.0,100.0,event
11:14:23.472,0.0,0.0,0.7395627,0.0,0.0,0.0,-0.2256002,0.0,0.0,0.0,0.6228905,0.0,0.0,0.0,0.81435984,0.0,0.0,0.0,0.39691728,0.0,1113.6996,412.60074,821.5751,1628.2417,940.0366,-0.2451171875,0.0269775390625,0.9620361328125,1.637420654296875,-0.897216796875,-0.67291259765625,1.0,4.0,4.0,1.0,4.0,100.0,event
11:14:23.472,0.0,0.0,0.7395627,0.0,0.0,0.0,-0.2256002,0.0,0.0,0.0,0.6228905,0.0,0.0,0.0,0.81435984,0.0,0.0,0.0,0.39691728,0.0,1480.7693,461.75824,840.9158,1628.2417,966.2271,-0.2451171875,0.0269775390625,0.9620361328125,1.637420654296875,-0.897216796875,-0.67291259765625,1.0,4.0,4.0,1.0,4.0,100.0,event
11:14:23.477,0.0,0.0,0.7395627,0.0,0.0,0.0,-0.2256002,0.0,0.0,0.0,0.6228905,0.0,0.0,0.0,0.81435984,0.0,0.0,0.0,0.39691728,0.0,84.212456,1149.9634,838.49817,1628.2417,760.32965,-0.2451171875,0.0269775390625,0.9620361328125,1.637420654296875,-0.897216796875,-0.67291259765625,1.0,4.0,4.0,1.0,4.0,100.0,event
11:14:23.478,0.0,0.0,0.7395627,0.0,0.0,0.0,-0.2256002,0.0,0.0,0.0,0.6228905,0.0,0.0,0.0,0.81435984,0.0,0.0,0.0,0.39691728,0.0,991.6117,822.381,809.0842,1628.2417,853.00366,-0.2451171875,0.0269775390625,0.9620361328125,1.637420654296875,-0.897216796875,-0.67291259765625,1.0,4.0,4.0,1.0,4.0,100.0,event
11:14:23.500,0.0,0.0,0.7395627,0.0,0.0,0.0,-0.2256002,0.0,0.0,0.0,0.6228905,0.0,0.0,0.0,0.81435984,0.0,0.0,0.0,0.39691728,0.0,45.128204,354.57877,821.1722,1628.2417,877.98535,-0.2451171875,0.0269775390625,0.9620361328125,1.637420654296875,-0.897216796875,-0.67291259765625,1.0,4.0,4.0,1.0,4.0,100.0,event
11:14:23.501,0.0,0.0,0.7395627,0.0,0.0,0.0,-0.2256002,0.0,0.0,0.0,0.6228905,0.0,0.0,0.0,0.81435984,0.0,0.0,0.0,0.39691728,0.0,0.0,628.97437,831.6484,1628.2417,722.8571,-0.2451171875,0.0269775390625,0.9620361328125,1.637420654296875,-0.897216796875,-0.67291259765625,1.0,4.0,4.0,1.0,4.0,100.0,event
11:14:23.502,0.0,0.0,0.7395627,0.0,0.0,0.0,-0.2256002,0.0,0.0,0.0,0.6228905,0.0,0.0,0.0,0.81435984,0.0,0.0,0.0,0.39691728,0.0,56.410255,974.2857,826.4103,1628.2417,680.14655,-0.2451171875,0.0269775390625,0.9620361328125,1.637420654296875,-0.897216796875,-0.67291259765625,1.0,4.0,4.0,1.0,4.0,100.0,event
11:14:23.503,0.0,0.0,0.7395627,0.0,0.0,0.0,-0.2256002,0.0,0.0,0.0,0.6228905,0.0,0.0,0.0,0.81435984,0.0,0.0,0.0,0.39691728,0.0,550.80585,993.6264,806.6667,1628.2417,752.674,-0.2451171875,0.0269775390625,0.9620361328125,1.637420654296875,-0.897216796875,-0.67291259765625,1.0,4.0,4.0,1.0,4.0,100.0,event
11:14:23.504,0.0,0.0,0.7395627,0.0,0.0,0.0,-0.2256002,0.0,0.0,0.0,0.6228905,0.0,0.0,0.0,0.81435984,0.0,0.0,0.0,0.39691728,0.0,292.52747,676.52014,807.8755,1628.2417,782.8938,-0.2451171875,0.0269775390625,0.9620361328125,1.637420654296875,-0.897216796875,-0.67291259765625,1.0,4.0,4.0,1.0,4.0,100.0,event
11:14:23.505,0.0,0.0,0.7395627,0.0,0.0,0.0,-0.2256002,0.0,0.0,0.0,0.6228905,0.0,0.0,0.0,0.81435984,0.0,0.0,0.0,0.39691728,0.0,0.0,316.7033,821.5751,1628.6447,838.9011,-0.2451171875,0.0269775390625,0.9620361328125,1.637420654296875,-0.897216796875,-0.67291259765625,1.0,4.0,4.0,1.0,4.0,100.0,event
11:14:23.507,0.0,0.0,0.7395627,0.0,0.0,0.0,-0.2256002,0.0,0.0,0.0,0.6228905,0.0,0.0,0.0,0.81435984,0.0,0.0,0.0,0.39691728,0.0,45.531136,349.7436,832.8571,1629.0476,868.315,-0.2451171875,0.0269775390625,0.9620361328125,1.637420654296875,-0.897216796875,-0.67291259765625,1.0,4.0,4.0,1.0,4.0,100.0,event
11:14:23.508,0.0,0.0,0.7395627,0.0,0.0,0.0,-0.2256002,0.0,0.0,0.0,0.6228905,0.0,0.0,0.0,0.81435984,0.0,0.0,0.0,0.39691728,0.0,0.0,535.09155,833.2601,1637.5092,978.71796,-0.2451171875,0.0269775390625,0.9620361328125,1.637420654296875,-0.897216796875,-0.67291259765625,1.0,4.0,4.0,1.0,4.0,100.0,event
11:14:23.509,0.0,0.0,0.7395627,0.0,0.0,0.0,-0.2256002,0.0,0.0,0.0,0.6228905,0.0,0.0,0.0,0.81435984,0.0,0.0,0.0,0.39691728,0.0,178.09525,135.78755,809.0842,1582.3077,1161.6483,-0.2451171875,0.0269775390625,0.9620361328125,1.637420654296875,-0.897216796875,-0.67291259765625,1.0,4.0,4.0,1.0,4.0,100.0,event
11:14:23.509,0.0,0.0,0.7395627,0.0,0.0,0.0,-0.2256002,0.0,0.0,0.0,0.6228905,0.0,0.0,0.0,0.81435984,0.0,0.0,0.0,0.39691728,0.0,313.47986,334.43222,824.7985,27.399267,915.4579,-0.2451171875,0.0269775390625,0.9620361328125,1.637420654296875,-0.897216796875,-0.67291259765625,1.0,4.0,4.0,1.0,4.0,100.0,event
11:14:23.510,0.0,0.0,0.7395627,0.0,0.0,0.0,-0.2256002,0.0,0.0,0.0,0.6228905,0.0,0.0,0.0,0.81435984,0.0,0.0,0.0,0.39691728,0.0,35.457874,681.75824,826.8132,1442.8938,650.32965,-0.2451171875,0.0269775390625,0.9620361328125,1.637420654296875,-0.897216796875,-0.67291259765625,1.0,4.0,4.0,1.0,4.0,100.0,event
11:14:23.511,0.0,0.0,0.7395627,0.0,0.0,0.0,-0.2256002,0.0,0.0,0.0,0.6228905,0.0,0.0,0.0,0.81435984,0.0,0.0,0.0,0.39691728,0.0,0.0,518.5714,799.81683,232.0879,664.83514,-0.2451171875,0.0269775390625,0.9620361328125,1.637420654296875,-0.897216796875,-0.67291259765625,1.0,4.0,4.0,1.0,4.0,100.0,event
11:14:23.533,0.0,0.0,0.7395627,0.0,0.0,0.0,-0.2256002,0.0,0.0,0.0,0.6228905,0.0,0.0,0.0,0.81435984,0.0,0.0,0.0,0.39691728,0.0,359.4139,782.49084,807.0696,204.28572,648.71796,-0.26202392578125,0.024658203125,0.94354248046875,1.8841552734375,-1.951446533203125,-0.366363525390625,1.0,4.0,4.0,1.0,4.0,100.0,event
11:14:23.534,0.0,0.0,0.7395627,0.0,0.0,0.0,-0.2256002,0.0,0.0,0.0,0.6228905,0.0,0.0,0.0,0.81435984,0.0,0.0,0.0,0.39691728,0.0,1434.4323,1154.7986,813.5165,1326.4469,678.1319,-0.26202392578125,0.024658203125,0.94354248046875,1.8841552734375,-1.951446533203125,-0.366363525390625,1.0,4.0,4.0,1.0,4.0,100.0,event
11:14:23.535,0.0,0.0,0.7395627,0.0,0.0,0.0,-0.2256002,0.0,0.0,0.0,0.6228905,0.0,0.0,0.0,0.81435984,0.0,0.0,0.0,0.39691728,0.0,1577.0696,1039.9634,801.4286,97.509155,728.9011,-0.26202392578125,0.024658203125,0.94354248046875,1.8841552734375,-1.951446533203125,-0.366363525390625,1.0,4.0,4.0,1.0,4.0,100.0,event
11:14:23.535,0.0,0.0,0.7395627,0.0,0.0,0.0,-0.2256002,0.0,0.0,0.0,0.6228905,0.0,0.0,0.0,0.81435984,0.0,0.0,0.0,0.39691728,0.0,278.02197,558.0586,798.60803,1305.8975,762.74725,-0.26202392578125,0.024658203125,0.94354248046875,1.8841552734375,-1.951446533203125,-0.366363525390625,1.0,4.0,4.0,1.0,4.0,100.0,event
11:14:23.536,0.0,0.0,0.7395627,0.0,0.0,0.0,-0.2256002,0.0,0.0,0.0,0.6228905,0.0,0.0,0.0,0.81435984,0.0,0.0,0.0,0.39691728,0.0,0.0,605.6044,811.0989,143.84616,682.5641,-0.26202392578125,0.024658203125,0.94354248046875,1.8841552734375,-1.951446533203125,-0.366363525390625,1.0,4.0,4.0,1.0,4.0,100.0,event
11:14:23.536,0.0,0.0,0.7395627,0.0,0.0,0.0,-0.2256002,0.0,0.0,0.0,0.6228905,0.0,0.0,0.0,0.81435984,0.0,0.0,0.0,0.39691728,0.0,1014.57874,874.7619,809.89014,590.696,736.1539,-0.26202392578125,0.024658203125,0.94354248046875,1.8841552734375,-1.951446533203125,-0.366363525390625,1.0,4.0,4.0,1.0,4.0,100.0,event
11:14:23.537,0.0,0.0,0.7395627,0.0,0.0,0.0,-0.2256002,0.0,0.0,0.0,0.6228905,0.0,0.0,0.0,0.81435984,0.0,0.0,0.0,0.39691728,0.0,64.871796,855.42126,805.05493,1647.5824,873.1502,-0.26202392578125,0.024658203125,0.94354248046875,1.8841552734375,-1.951446533203125,-0.366363525390625,1.0,4.0,4.0,1.0,4.0,100.0,event
11:14:23.537,0.0,0.0,0.7395627,0.0,0.0,0.0,-0.2256002,0.0,0.0,0.0,0.6228905,0.0,0.0,0.0,0.81435984,0.0,0.0,0.0,0.39691728,0.0,1547.2528,621.7216,800.2198,1620.586,944.0659,-0.26202392578125,0.024658203125,0.94354248046875,1.8841552734375,-1.951446533203125,-0.366363525390625,1.0,4.0,4.0,1.0,4.0,100.0,event
11:14:23.538,0.0,0.0,0.7395627,0.0,0.0,0.0,-0.2256002,0.0,0.0,0.0,0.6228905,0.0,0.0,0.0,0.81435984,0.0,0.0,0.0,0.39691728,0.0,425.89743,481.50183,811.50183,1604.4689,948.0952,-0.26202392578125,0.024658203125,0.94354248046875,1.8841552734375,-1.951446533203125,-0.366363525390625,1.0,4.0,4.0,1.0,4.0,100.0,event
11:14:23.538,0.0,0.0,0.7395627,0.0,0.0,0.0,-0.2256002,0.0,0.0,0.0,0.6228905,0.0,0.0,0.0,0.81435984,0.0,0.0,0.0,0.39691728,0.0,0.0,690.6227,837.6923,1634.2858,788.5348,-0.26202392578125,0.024658203125,0.94354248046875,1.8841552734375,-1.951446533203125,-0.366363525390625,1.0,4.0,4.0,1.0,4.0,100.0,event
11:14:23.539,0.0,0.0,0.7395627,0.0,0.0,0.0,-0.2256002,0.0,0.0,0.0,0.6228905,0.0,0.0,0.0,0.81435984,0.0,0.0,0.0,0.39691728,0.0,51.17216,943.2601,829.6337,1628.2417,767.5824,-0.26202392578125,0.024658203125,0.94354248046875,1.8841552734375,-1.951446533203125,-0.366363525390625,1.0,4.0,4.0,1.0,4.0,100.0,event
11:14:23.539,0.0,0.0,0.7395627,0.0,0.0,0.0,-0.2256002,0.0,0.0,0.0,0.6228905,0.0,0.0,0.0,0.81435984,0.0,0.0,0.0,0.39691728,0.0,0.0,354.57877,801.4286,1628.6447,1025.4579,-0.26202392578125,0.024658203125,0.94354248046875,1.8841552734375,-1.951446533203125,-0.366363525390625,1.0,4.0,4.0,1.0,4.0,100.0,event
11:14:23.543,0.0,0.0,0.7395627,0.0,0.0,0.0,-0.2256002,0.0,0.0,0.0,0.6228905,0.0,0.0,0.0,0.81435984,0.0,0.0,0.0,0.39691728,0.0,124.50549,228.86447,829.2308,1628.6447,976.7033,-0.2530517578125,0.02423095703125,0.95111083984375,2.265472412109375,-0.85235595703125,-0.396270751953125,1.0,4.0,4.0,1.0,4.0,100.0,event
11:14:23.544,0.0,0.0,0.7395627,0.0,0.0,0.0,-0.2256002,0.0,0.0,0.0,0.6228905,0.0,0.0,0.0,0.81435984,0.0,0.0,0.0,0.39691728,0.0,42.71062,733.73627,839.707,1628.2417,724.87177,-0.2530517578125,0.02423095703125,0.95111083984375,2.265472412109375,-0.85235595703125,-0.396270751953125,1.0,4.0,4.0,1.0,4.0,100.0,event
11:14:23.544,0.0,0.0,0.7395627,0.0,0.0,0.0,-0.2256002,0.0,0.0,0.0,0.6228905,0.0,0.0,0.0,0.81435984,0.0,0.0,0.0,0.39691728,0.0,8.058608,503.663,808.2784,1628.2417,716.4103,-0.2530517578125,0.02423095703125,0.95111083984375,2.265472412109375,-0.85235595703125,-0.396270751953125,1.0,4.0,4.0,1.0,4.0,100.0,event
11:14:23.545,0.0,0.0,0.7395627,0.0,0.0,0.0,-0.2256002,0.0,0.0,0.0,0.6228905,0.0,0.0,0.0,0.81435984,0.0,0.0,0.0,0.39691728,0.0,11.282051,494.3956,812.3077,1628.2417,741.39197,-0.2530517578125,0.02423095703125,0.95111083984375,2.265472412109375,-0.85235595703125,-0.396270751953125,1.0,4.0,4.0,1.0,4.0,100.0,event
11:14:23.545,0.0,0.0,0.7395627,0.0,0.0,0.0,-0.2256002,0.0,0.0,0.0,0.6228905,0.0,0.0,0.0,0.81435984,0.0,0.0,0.0,0.39691728,0.0,0.0,823.5897,802.23444,1628.2417,740.18317,-0.2530517578125,0.02423095703125,0.95111083984375,2.265472412109375,-0.85235595703125,-0.396270751953125,1.0,4.0,4.0,1.0,4.0,100.0,event
11:14:23.546,0.0,0.0,0.7395627,0.0,0.0,0.0,-0.2256002,0.0,0.0,0.0,0.6228905,0.0,0.0,0.0,0.81435984,0.0,0.0,0.0,0.39691728,0.0,67.69231,705.5311,799.011,1628.2417,874.35895,-0.2530517578125,0.02423095703125,0.95111083984375,2.265472412109375,-0.85235595703125,-0.396270751953125,1.0,4.0,4.0,1.0,4.0,100.0,event
11:14:23.546,0.0,0.0,0.7395627,0.0,0.0,0.0,-0.2256002,0.0,0.0,0.0,0.6228905,0.0,0.0,0.0,0.81435984,0.0,0.0,0.0,0.39691728,0.0,1034.7252,844.1392,781.28204,1628.2417,788.93774,-0.2530517578125,0.02423095703125,0.95111083984375,2.265472412109375,-0.85235595703125,-0.396270751953125,1.0,4.0,4.0,1.0,4.0,100.0,event
11:14:23.547,0.0,0.0,0.7395627,0.0,0.0,0.0,-0.2256002,0.0,0.0,0.0,0.6228905,0.0,0.0,0.0,0.81435984,0.0,0.0,0.0,0.39691728,0.0,1299.8535,518.97437,812.3077,1628.6447,902.5641,-0.2530517578125,0.02423095703125,0.95111083984375,2.265472412109375,-0.85235595703125,-0.396270751953125,1.0,4.0,4.0,1.0,4.0,100.0,event
11:14:23.547,0.0,0.0,0.7395627,0.0,0.0,0.0,-0.2256002,0.0,0.0,0.0,0.6228905,0.0,0.0,0.0,0.81435984,0.0,0.0,0.0,0.39691728,0.0,1467.4725,974.2857,832.8571,1628.2417,769.19415,-0.2530517578125,0.02423095703125,0.95111083984375,2.265472412109375,-0.85235595703125,-0.396270751953125,1.0,4.0,4.0,1.0,4.0,100.0,event
11:14:23.548,0.0,0.0,0.7395627,0.0,0.0,0.0,-0.2256002,0.0,0.0,0.0,0.6228905,0.0,0.0,0.0,0.81435984,0.0,0.0,0.0,0.39691728,0.0,1635.0916,1467.8755,835.6777,1636.7032,729.304,-0.2530517578125,0.02423095703125,0.95111083984375,2.265472412109375,-0.85235595703125,-0.396270751953125,1.0,4.0,4.0,1.0,4.0,100.0,event
11:14:23.548,0.0,0.0,0.7395627,0.0,0.0,0.0,-0.2256002,0.0,0.0,0.0,0.6228905,0.0,0.0,0.0,0.81435984,0.0,0.0,0.0,0.39691728,0.0,7.655678,1165.2748,809.89014,1588.7546,898.93774,-0.2530517578125,0.02423095703125,0.95111083984375,2.265472412109375,-0.85235595703125,-0.396270751953125,1.0,4.0,4.0,1.0,4.0,100.0,event
11:14:23.549,0.0,0.0,0.7395627,0.0,0.0,0.0,-0.2256002,0.0,0.0,0.0,0.6228905,0.0,0.0,0.0,0.81435984,0.0,0.0,0.0,0.39691728,0.0,1569.414,610.4396,816.337,42.71062,1034.7252,-0.2530517578125,0.02423095703125,0.95111083984375,2.265472412109375,-0.85235595703125,-0.396270751953125,1.0,4.0,4.0,1.0,4.0,100.0,event
11:14:23.595,0.0,0.0,0.7395627,0.0,0.0,0.0,-0.2256002,0.0,0.0,0.0,0.6228905,0.0,0.0,0.0,0.81435984,0.0,0.0,0.0,0.39691728,0.0,910.6227,811.0989,842.1245,1494.0659,871.9414,-0.27618408203125,0.0316162109375,0.95208740234375,2.82623291015625,-10.938568115234377,0.91217041015625,1.0,4.0,4.0,1.0,4.0,100.0,event
11:14:23.596,0.0,0.0,0.7395627,0.0,0.0,0.0,-0.2256002,0.0,0.0,0.0,0.6228905,0.0,0.0,0.0,0.81435984,0.0,0.0,0.0,0.39691728,0.0,77.765564,1003.69965,816.7399,1277.6923,819.9634,-0.27618408203125,0.0316162109375,0.95208740234375,2.82623291015625,-10.938568115234377,0.91217041015625,1.0,4.0,4.0,1.0,4.0,100.0,event
11:14:23.596,0.0,0.0,0.7395627,0.0,0.0,0.0,-0.2256002,0.0,0.0,0.0,0.6228905,0.0,0.0,0.0,0.81435984,0.0,0.0,0.0,0.39691728,0.0,1311.9414,1181.7949,834.4689,818.3516,691.02563,-0.27618408203125,0.0316162109375,0.95208740234375,2.82623291015625,-10.938568115234377,0.91217041015625,1.0,4.0,4.0,1.0,4.0,100.0,event
11:14:23.597,0.0,0.0,0.7395627,0.0,0.0,0.0,-0.2256002,0.0,0.0,0.0,0.6228905,0.0,0.0,0.0,0.81435984,0.0,0.0,0.0,0.39691728,0.0,1633.8828,1279.3041,820.7692,733.73627,778.46155,-0.27618408203125,0.0316162109375,0.95208740234375,2.82623291015625,-10.938568115234377,0.91217041015625,1.0,4.0,4.0,1.0,4.0,100.0,event
11:14:23.597,0.0,0.0,0.7395627,0.0,0.0,0.0,-0.2256002,0.0,0.0,0.0,0.6228905,0.0,0.0,0.0,0.81435984,0.0,0.0,0.0,0.39691728,0.0,1585.1282,1008.93774,819.15753,110.80586,967.8388,-0.27618408203125,0.0316162109375,0.95208740234375,2.82623291015625,-10.938568115234377,0.91217041015625,1.0,4.0,4.0,1.0,4.0,100.0,event
11:14:23.598,0.0,0.0,0.7395627,0.0,0.0,0.0,-0.2256002,0.0,0.0,0.0,0.6228905,0.0,0.0,0.0,0.81435984,0.0,0.0,0.0,0.39691728,0.0,1627.8389,1037.5458,813.5165,0.0,705.5311,-0.27618408203125,0.0316162109375,0.95208740234375,2.82623291015625,-10.938568115234377,0.91217041015625,1.0,4.0,4.0,1.0,4.0,100.0,event
11:14:23.599,0.0,0.0,0.7395627,0.0,0.0,0.0,-0.2256002,0.0,0.0,0.0,0.6228905,0.0,0.0,0.0,0.81435984,0.0,0.0,0.0,0.39691728,0.0,1627.8389,669.67035,806.6667,34.652016,965.0183,-0.27618408203125,0.0316162109375,0.95208740234375,2.82623291015625,-10.938568115234377,0.91217041015625,1.0,4.0,4.0,1.0,4.0,100.0,event
11:14:23.599,0.0,0.0,0.7395627,0.0,0.0,0.0,-0.2256002,0.0,0.0,0.0,0.6228905,0.0,0.0,0.0,0.81435984,0.0,0.0,0.0,0.39691728,0.0,1627.8389,962.1978,830.84247,8.461538,939.6337,-0.27618408203125,0.0316162109375,0.95208740234375,2.82623291015625,-10.938568115234377,0.91217041015625,1.0,4.0,4.0,1.0,4.0,100.0,event
11:14:23.600,0.0,0.0,0.7395627,0.0,0.0,0.0,-0.2256002,0.0,0.0,0.0,0.6228905,0.0,0.0,0.0,0.81435984,0.0,0.0,0.0,0.39691728,0.0,1627.8389,1626.63,831.2454,0.0,681.75824,-0.27618408203125,0.0316162109375,0.95208740234375,2.82623291015625,-10.938568115234377,0.91217041015625,1.0,4.0,4.0,1.0,4.0,100.0,event
11:14:23.601,0.0,0.0,0.7395627,0.0,0.0,0.0,-0.2256002,0.0,0.0,0.0,0.6228905,0.0,0.0,0.0,0.81435984,0.0,0.0,0.0,0.39691728,0.0,1627.8389,1616.5568,800.2198,0.0,686.99634,-0.27618408203125,0.0316162109375,0.95208740234375,2.82623291015625,-10.938568115234377,0.91217041015625,1.0,4.0,4.0,1.0,4.0,100.0,event
11:14:23.601,0.0,0.0,0.7395627,0.0,0.0,0.0,-0.2256002,0.0,0.0,0.0,0.6228905,0.0,0.0,0.0,0.81435984,0.0,0.0,0.0,0.39691728,0.0,1627.8389,1541.2087,799.011,0.0,751.06226,-0.27618408203125,0.0316162109375,0.95208740234375,2.82623291015625,-10.938568115234377,0.91217041015625,1.0,4.0,4.0,1.0,4.0,100.0,event
11:14:23.602,0.0,0.0,0.7395627,0.0,0.0,0.0,-0.2256002,0.0,0.0,0.0,0.6228905,0.0,0.0,0.0,0.81435984,0.0,0.0,0.0,0.39691728,0.0,1627.8389,1621.7949,820.7692,0.0,670.87915,-0.27618408203125,0.0316162109375,0.95208740234375,2.82623291015625,-10.938568115234377,0.91217041015625,1.0,4.0,4.0,1.0,4.0,100.0,event
11:14:23.680,0.0,0.0,0.7395627,0.0,0.0,0.0,-0.2256002,0.0,0.0,0.0,0.6228905,0.0,0.0,0.0,0.81435984,0.0,0.0,0.0,0.39691728,0.0,1628.2417,1637.1062,815.9341,0.0,645.09155,-0.27618408203125,0.0316162109375,0.95208740234375,2.82623291015625,-10.938568115234377,0.91217041015625,1.0,4.0,4.0,1.0,4.0,100.0,event
11:14:23.682,0.0,0.0,0.76783377,0.0,0.0,0.0,-0.20624216,0.0,0.0,0.0,0.5275236,0.0,0.0,0.0,0.847471,0.0,0.0,0.0,0.3856149,0.0,1627.8389,1617.7656,792.96704,0.0,722.0513,-0.27618408203125,0.0316162109375,0.95208740234375,2.82623291015625,-10.938568115234377,0.91217041015625,1.0,4.0,4.0,1.0,4.0,100.0,event
11:14:23.687,0.0,0.0,0.76783377,0.0,0.0,0.0,-0.20624216,0.0,0.0,0.0,0.5275236,0.0,0.0,0.0,0.847471,0.0,0.0,0.0,0.3856149,0.0,1627.8389,1598.022,809.89014,0.0,788.93774,-0.27618408203125,0.0316162109375,0.95208740234375,2.82623291015625,-10.938568115234377,0.91217041015625,1.0,4.0,4.0,1.0,4.0,100.0,event
11:14:23.688,0.0,0.0,0.76783377,0.0,0.0,0.0,-0.20624216,0.0,0.0,0.0,0.5275236,0.0,0.0,0.0,0.847471,0.0,0.0,0.0,0.3856149,0.0,1627.8389,1549.6703,821.978,0.0,726.8865,-0.27618408203125,0.0316162109375,0.95208740234375,2.82623291015625,-10.938568115234377,0.91217041015625,1.0,4.0,4.0,1.0,4.0,100.0,event
11:14:23.689,0.0,0.0,0.76783377,0.0,0.0,0.0,-0.20624216,0.0,0.0,0.0,0.5275236,0.0,0.0,0.0,0.847471,0.0,0.0,0.0,0.3856149,0.0,1627.8389,1588.3517,805.8608,0.0,637.4359,-0.27618408203125,0.0316162109375,0.95208740234375,2.82623291015625,-10.938568115234377,0.91217041015625,1.0,4.0,4.0,1.0,4.0,100.0,event
11:14:23.691,0.0,0.0,0.76783377,0.0,0.0,0.0,-0.20624216,0.0,0.0,0.0,0.5275236,0.0,0.0,0.0,0.847471,0.0,0.0,0.0,0.3856149,0.0,1627.8389,1517.033,799.011,0.0,744.21246,-0.27618408203125,0.0316162109375,0.95208740234375,2.82623291015625,-10.938568115234377,0.91217041015625,1.0,4.0,4.0,1.0,4.0,100.0,event
11:14:23.692,0.0,0.0,0.76783377,0.0,0.0,0.0,-0.20624216,0.0,0.0,0.0,0.5275236,0.0,0.0,0.0,0.847471,0.0,0.0,0.0,0.3856149,0.0,1627.8389,879.59705,807.0696,0.0,1125.7876,-0.27618408203125,0.0316162109375,0.95208740234375,2.82623291015625,-10.938568115234377,0.91217041015625,1.0,4.0,4.0,1.0,4.0,100.0,event
11:14:23.693,0.0,0.0,0.76783377,0.0,0.0,0.0,-0.20624216,0.0,0.0,0.0,0.5275236,0.0,0.0,0.0,0.847471,0.0,0.0,0.0,0.3856149,0.0,1628.2417,1058.0952,829.2308,0.0,1049.6337,-0.27618408203125,0.0316162109375,0.95208740234375,2.82623291015625,-10.938568115234377,0.91217041015625,1.0,4.0,4.0,1.0,4.0,100.0,event
11:14:23.695,0.0,0.0,0.76783377,0.0,0.0,0.0,-0.20624216,0.0,0.0,0.0,0.5275236,0.0,0.0,0.0,0.847471,0.0,0.0,0.0,0.3856149,0.0,1627.8389,1620.1831,820.3663,24.175825,718.4249,-0.27618408203125,0.0316162109375,0.95208740234375,2.82623291015625,-10.938568115234377,0.91217041015625,1.0,4.0,4.0,1.0,4.0,100.0,event
11:14:23.695,0.0,0.0,0.76783377,0.0,0.0,0.0,-0.20624216,0.0,0.0,0.0,0.5275236,0.0,0.0,0.0,0.847471,0.0,0.0,0.0,0.3856149,0.0,1627.8389,1442.4908,806.26373,3.2234433,738.5714,-0.27618408203125,0.0316162109375,0.95208740234375,2.82623291015625,-10.938568115234377,0.91217041015625,1.0,4.0,4.0,1.0,4.0,100.0,event
11:14:23.696,0.0,0.0,0.76783377,0.0,0.0,0.0,-0.20624216,0.0,0.0,0.0,0.5275236,0.0,0.0,0.0,0.847471,0.0,0.0,0.0,0.3856149,0.0,1627.8389,1506.5568,815.5311,0.0,763.1502,-0.27618408203125,0.0316162109375,0.95208740234375,2.82623291015625,-10.938568115234377,0.91217041015625,1.0,4.0,4.0,1.0,4.0,100.0,event
11:14:23.697,0.0,0.0,0.76783377,0.0,0.0,0.0,-0.20624216,0.0,0.0,0.0,0.5275236,0.0,0.0,0.0,0.847471,0.0,0.0,0.0,0.3856149,0.0,1627.8389,2.014652,811.9048,981.53845,763.5531,-0.27618408203125,0.0316162109375,0.95208740234375,2.82623291015625,-10.938568115234377,0.91217041015625,1.0,4.0,4.0,1.0,4.0,100.0,event
11:14:23.758,0.0,0.0,0.76783377,0.0,0.0,0.0,-0.20624216,0.0,0.0,0.0,0.5275236,0.0,0.0,0.0,0.847471,0.0,0.0,0.0,0.3856149,0.0,1641.1355,1644.762,806.26373,60.84249,873.95605,-0.23211669921875,0.02337646484375,0.9715576171875,0.657958984375,-9.443206787109377,1.293487548828125,1.0,4.0,4.0,1.0,4.0,100.0,event
11:14:23.759,0.0,0.0,0.76783377,0.0,0.0,0.0,-0.20624216,0.0,0.0,0.0,0.5275236,0.0,0.0,0.0,0.847471,0.0,0.0,0.0,0.3856149,0.0,1580.2931,1433.6263,805.4579,1587.1428,991.6117,-0.23211669921875,0.02337646484375,0.9715576171875,0.657958984375,-9.443206787109377,1.293487548828125,1.0,4.0,4.0,1.0,4.0,100.0,event
11:14:23.761,0.0,0.0,0.76783377,0.0,0.0,0.0,-0.20624216,0.0,0.0,0.0,0.5275236,0.0,0.0,0.0,0.847471,0.0,0.0,0.0,0.3856149,0.0,21.35531,1409.8535,823.5897,1625.8242,933.1868,-0.23211669921875,0.02337646484375,0.9715576171875,0.657958984375,-9.443206787109377,1.293487548828125,1.0,4.0,4.0,1.0,4.0,100.0,event
11:14:23.763,0.0,0.0,0.76783377,0.0,0.0,0.0,-0.20624216,0.0,0.0,0.0,0.5275236,0.0,0.0,0.0,0.847471,0.0,0.0,0.0,0.3856149,0.0,1538.7913,1496.0806,819.5604,1630.6593,813.91943,-0.23211669921875,0.02337646484375,0.9715576171875,0.657958984375,-9.443206787109377,1.293487548828125,1.0,4.0,4.0,1.0,4.0,100.0,event
11:14:23.764,0.0,0.0,0.76783377,0.0,0.0,0.0,-0.20624216,0.0,0.0,0.0,0.5275236,0.0,0.0,0.0,0.847471,0.0,0.0,0.0,0.3856149,0.0,325.56778,734.5421,802.23444,1628.2417,831.2454,-0.23211669921875,0.02337646484375,0.9715576171875,0.657958984375,-9.443206787109377,1.293487548828125,1.0,4.0,4.0,1.0,4.0,100.0,event
11:14:23.766,0.0,0.0,0.76783377,0.0,0.0,0.0,-0.20624216,0.0,0.0,0.0,0.5275236,0.0,0.0,0.0,0.847471,0.0,0.0,0.0,0.3856149,0.0,0.0,59.6337,793.7729,1628.2417,1010.14655,-0.23211669921875,0.02337646484375,0.9715576171875,0.657958984375,-9.443206787109377,1.293487548828125,1.0,4.0,4.0,1.0,4.0,100.0,event
11:14:23.767,0.0,0.0,0.76783377,0.0,0.0,0.0,-0.20624216,0.0,0.0,0.0,0.5275236,0.0,0.0,0.0,0.847471,0.0,0.0,0.0,0.3856149,0.0,47.94872,0.0,798.60803,1628.2417,1043.5897,-0.23211669921875,0.02337646484375,0.9715576171875,0.657958984375,-9.443206787109377,1.293487548828125,1.0,4.0,4.0,1.0,4.0,100.0,event
11:14:23.768,0.0,0.0,0.76783377,0.0,0.0,0.0,-0.20624216,0.0,0.0,0.0,0.5275236,0.0,0.0,0.0,0.847471,0.0,0.0,0.0,0.3856149,0.0,0.0,17.728937,814.3223,1628.6447,913.44324,-0.23211669921875,0.02337646484375,0.9715576171875,0.657958984375,-9.443206787109377,1.293487548828125,1.0,4.0,4.0,1.0,4.0,100.0,event
11:14:23.769,0.0,0.0,0.76783377,0.0,0.0,0.0,-0.20624216,0.0,0.0,0.0,0.5275236,0.0,0.0,0.0,0.847471,0.0,0.0,0.0,0.3856149,0.0,1242.2344,386.00732,821.5751,1628.2417,739.7802,-0.23211669921875,0.02337646484375,0.9715576171875,0.657958984375,-9.443206787109377,1.293487548828125,1.0,4.0,4.0,1.0,4.0,100.0,event
11:14:23.769,0.0,0.0,0.76783377,0.0,0.0,0.0,-0.20624216,0.0,0.0,0.0,0.5275236,0.0,0.0,0.0,0.847471,0.0,0.0,0.0,0.3856149,0.0,1346.9963,216.77655,814.3223,1628.6447,950.10986,-0.23211669921875,0.02337646484375,0.9715576171875,0.657958984375,-9.443206787109377,1.293487548828125,1.0,4.0,4.0,1.0,4.0,100.0,event
11:14:23.770,0.0,0.0,0.76783377,0.0,0.0,0.0,-0.20624216,0.0,0.0,0.0,0.5275236,0.0,0.0,0.0,0.847471,0.0,0.0,0.0,0.3856149,0.0,68.49817,0.0,830.4396,1628.6447,1035.1282,-0.23211669921875,0.02337646484375,0.9715576171875,0.657958984375,-9.443206787109377,1.293487548828125,1.0,4.0,4.0,1.0,4.0,100.0,event
11:14:23.771,0.0,0.0,0.76783377,0.0,0.0,0.0,-0.20624216,0.0,0.0,0.0,0.5275236,0.0,0.0,0.0,0.847471,0.0,0.0,0.0,0.3856149,0.0,0.0,255.86081,828.4249,1628.6447,710.3663,-0.23211669921875,0.02337646484375,0.9715576171875,0.657958984375,-9.443206787109377,1.293487548828125,1.0,4.0,4.0,1.0,4.0,100.0,event
11:14:23.772,0.0,0.0,0.76783377,0.0,0.0,0.0,-0.20624216,0.0,0.0,0.0,0.5275236,0.0,0.0,0.0,0.847471,0.0,0.0,0.0,0.3856149,0.0,0.0,241.35532,806.6667,1628.2417,668.86444,-0.26348876953125,0.0291748046875,0.94696044921875,1.487884521484375,-6.38519287109375,2.55706787109375,1.0,4.0,4.0,1.0,4.0,100.0,event
11:14:23.772,0.0,0.0,0.76783377,0.0,0.0,0.0,-0.20624216,0.0,0.0,0.0,0.5275236,0.0,0.0,0.0,0.847471,0.0,0.0,0.0,0.3856149,0.0,664.0293,292.12454,814.3223,1628.2417,723.663,-0.26348876953125,0.0291748046875,0.94696044921875,1.487884521484375,-6.38519287109375,2.55706787109375,1.0,4.0,4.0,1.0,4.0,100.0,event
11:14:23.773,0.0,0.0,0.76783377,0.0,0.0,0.0,-0.20624216,0.0,0.0,0.0,0.5275236,0.0,0.0,0.0,0.847471,0.0,0.0,0.0,0.3856149,0.0,1620.1831,654.35895,837.28937,1628.2417,668.0586,-0.26348876953125,0.0291748046875,0.94696044921875,1.487884521484375,-6.38519287109375,2.55706787109375,1.0,4.0,4.0,1.0,4.0,100.0,event
11:14:23.774,0.0,0.0,0.76783377,0.0,0.0,0.0,-0.20624216,0.0,0.0,0.0,0.5275236,0.0,0.0,0.0,0.847471,0.0,0.0,0.0,0.3856149,0.0,1609.3041,790.14655,832.4542,1628.2417,676.9231,-0.26348876953125,0.0291748046875,0.94696044921875,1.487884521484375,-6.38519287109375,2.55706787109375,1.0,4.0,4.0,1.0,4.0,100.0,event
11:14:23.779,0.0,0.0,0.76783377,0.0,0.0,0.0,-0.20624216,0.0,0.0,0.0,0.5275236,0.0,0.0,0.0,0.847471,0.0,0.0,0.0,0.3856149,0.0,387.61905,107.98535,794.57874,1628.2417,778.0586,-0.26348876953125,0.0291748046875,0.94696044921875,1.487884521484375,-6.38519287109375,2.55706787109375,1.0,4.0,4.0,1.0,4.0,100.0,event
11:14:23.779,0.0,0.0,0.76783377,0.0,0.0,0.0,-0.20624216,0.0,0.0,0.0,0.5275236,0.0,0.0,0.0,0.847471,0.0,0.0,0.0,0.3856149,0.0,1178.1685,497.21613,807.8755,1628.2417,695.8608,-0.26348876953125,0.0291748046875,0.94696044921875,1.487884521484375,-6.38519287109375,2.55706787109375,1.0,4.0,4.0,1.0,4.0,100.0,event
11:14:23.780,0.0,0.0,0.76783377,0.0,0.0,0.0,-0.20624216,0.0,0.0,0.0,0.5275236,0.0,0.0,0.0,0.847471,0.0,0.0,0.0,0.3856149,0.0,246.19048,182.52747,796.5934,1628.6447,828.8278,-0.26348876953125,0.0291748046875,0.94696044921875,1.487884521484375,-6.38519287109375,2.55706787109375,1.0,4.0,4.0,1.0,4.0,100.0,event
11:14:23.781,0.0,0.0,0.76783377,0.0,0.0,0.0,-0.20624216,0.0,0.0,0.0,0.5275236,0.0,0.0,0.0,0.847471,0.0,0.0,0.0,0.3856149,0.0,1487.619,610.0366,801.4286,1628.2417,652.74725,-0.26348876953125,0.0291748046875,0.94696044921875,1.487884521484375,-6.38519287109375,2.55706787109375,1.0,4.0,4.0,1.0,4.0,100.0,event
11:14:23.781,0.0,0.0,0.76783377,0.0,0.0,0.0,-0.20624216,0.0,0.0,0.0,0.5275236,0.0,0.0,0.0,0.847471,0.0,0.0,0.0,0.3856149,0.0,1313.1501,520.58606,790.9524,1628.2417,680.9524,-0.26348876953125,0.0291748046875,0.94696044921875,1.487884521484375,-6.38519287109375,2.55706787109375,1.0,4.0,4.0,1.0,4.0,100.0,event
11:14:23.782,0.0,0.0,0.76783377,0.0,0.0,0.0,-0.20624216,0.0,0.0,0.0,0.5275236,0.0,0.0,0.0,0.847471,0.0,0.0,0.0,0.3856149,0.0,49.96337,36.263737,781.685,1628.2417,1044.7986,-0.26348876953125,0.0291748046875,0.94696044921875,1.487884521484375,-6.38519287109375,2.55706787109375,1.0,4.0,4.0,1.0,4.0,100.0,event
11:14:23.783,0.0,0.0,0.76783377,0.0,0.0,0.0,-0.20624216,0.0,0.0,0.0,0.5275236,0.0,0.0,0.0,0.847471,0.0,0.0,0.0,0.3856149,0.0,0.0,0.0,806.26373,1628.6447,858.6447,-0.26348876953125,0.0291748046875,0.94696044921875,1.487884521484375,-6.38519287109375,2.55706787109375,1.0,4.0,4.0,1.0,4.0,100.0,event
11:14:23.784,0.0,0.0,0.76783377,0.0,0.0,0.0,-0.20624216,0.0,0.0,0.0,0.5275236,0.0,0.0,0.0,0.847471,0.0,0.0,0.0,0.3856149,0.0,29.41392,44.725273,823.9927,1628.2417,600.7692,-0.26348876953125,0.0291748046875,0.94696044921875,1.487884521484375,-6.38519287109375,2.55706787109375,1.0,4.0,4.0,1.0,4.0,100.0,event
11:14:23.811,0.0,0.0,0.76783377,0.0,0.0,0.0,-0.20624216,0.0,0.0,0.0,0.5275236,0.0,0.0,0.0,0.847471,0.0,0.0,0.0,0.3856149,0.0,0.0,47.545788,819.5604,1628.2417,628.97437,-0.237060546875,0.017333984375,0.9639892578125,1.727142333984375,-8.95721435546875,2.564544677734375,1.0,4.0,4.0,1.0,4.0,100.0,event
11:14:23.812,0.0,0.0,0.76783377,0.0,0.0,0.0,-0.20624216,0.0,0.0,0.0,0.5275236,0.0,0.0,0.0,0.847471,0.0,0.0,0.0,0.3856149,0.0,316.7033,303.4066,813.91943,1628.2417,644.68866,-0.237060546875,0.017333984375,0.9639892578125,1.727142333984375,-8.95721435546875,2.564544677734375,1.0,4.0,4.0,1.0,4.0,100.0,event
11:14:23.813,0.0,0.0,0.76783377,0.0,0.0,0.0,-0.20624216,0.0,0.0,0.0,0.5275236,0.0,0.0,0.0,0.847471,0.0,0.0,0.0,0.3856149,0.0,161.17216,392.85715,813.91943,1628.2417,652.74725,-0.237060546875,0.017333984375,0.9639892578125,1.727142333984375,-8.95721435546875,2.564544677734375,1.0,4.0,4.0,1.0,4.0,100.0,event
11:14:23.814,0.0,0.0,0.76783377,0.0,0.0,0.0,-0.20624216,0.0,0.0,0.0,0.5275236,0.0,0.0,0.0,0.847471,0.0,0.0,0.0,0.3856149,0.0,0.0,74.13919,810.293,1628.2417,615.2747,-0.237060546875,0.017333984375,0.9639892578125,1.727142333984375,-8.95721435546875,2.564544677734375,1.0,4.0,4.0,1.0,4.0,100.0,event
11:14:23.817,0.0,0.0,0.76783377,0.0,0.0,0.0,-0.20624216,0.0,0.0,0.0,0.5275236,0.0,0.0,0.0,0.847471,0.0,0.0,0.0,0.3856149,0.0,46.336998,0.0,797.3993,1628.2417,678.1319,-0.237060546875,0.017333984375,0.9639892578125,1.727142333984375,-8.95721435546875,2.564544677734375,1.0,4.0,4.0,1.0,4.0,100.0,event
11:14:23.818,0.0,0.0,0.76783377,0.0,0.0,0.0,-0.20624216,0.0,0.0,0.0,0.5275236,0.0,0.0,0.0,0.847471,0.0,0.0,0.0,0.3856149,0.0,0.0,0.0,791.75824,1628.6447,808.2784,-0.237060546875,0.017333984375,0.9639892578125,1.727142333984375,-8.95721435546875,2.564544677734375,1.0,4.0,4.0,1.0,4.0,100.0,event
11:14:23.819,0.0,0.0,0.76783377,0.0,0.0,0.0,-0.20624216,0.0,0.0,0.0,0.5275236,0.0,0.0,0.0,0.847471,0.0,0.0,0.0,0.3856149,0.0,146.66667,99.52381,818.7546,1628.2417,809.4872,-0.237060546875,0.017333984375,0.9639892578125,1.727142333984375,-8.95721435546875,2.564544677734375,1.0,4.0,4.0,1.0,4.0,100.0,event
11:14:23.820,0.0,0.0,0.76783377,0.0,0.0,0.0,-0.20624216,0.0,0.0,0.0,0.5275236,0.0,0.0,0.0,0.847471,0.0,0.0,0.0,0.3856149,0.0,536.7033,321.13553,829.6337,1628.2417,718.022,-0.237060546875,0.017333984375,0.9639892578125,1.727142333984375,-8.95721435546875,2.564544677734375,1.0,4.0,4.0,1.0,4.0,100.0,event
11:14:23.821,0.0,0.0,0.76783377,0.0,0.0,0.0,-0.20624216,0.0,0.0,0.0,0.5275236,0.0,0.0,0.0,0.847471,0.0,0.0,0.0,0.3856149,0.0,22.967033,71.31868,792.5641,1628.2417,867.1062,-0.237060546875,0.017333984375,0.9639892578125,1.727142333984375,-8.95721435546875,2.564544677734375,1.0,4.0,4.0,1.0,4.0,100.0,event
11:14:23.822,0.0,0.0,0.76783377,0.0,0.0,0.0,-0.20624216,0.0,0.0,0.0,0.5275236,0.0,0.0,0.0,0.847471,0.0,0.0,0.0,0.3856149,0.0,399.30402,54.798534,803.0403,1628.2417,886.4469,-0.237060546875,0.017333984375,0.9639892578125,1.727142333984375,-8.95721435546875,2.564544677734375,1.0,4.0,4.0,1.0,4.0,100.0,event
11:14:23.824,0.0,0.0,0.76783377,0.0,0.0,0.0,-0.20624216,0.0,0.0,0.0,0.5275236,0.0,0.0,0.0,0.847471,0.0,0.0,0.0,0.3856149,0.0,1559.3407,748.6447,824.7985,1628.2417,657.1795,-0.237060546875,0.017333984375,0.9639892578125,1.727142333984375,-8.95721435546875,2.564544677734375,1.0,4.0,4.0,1.0,4.0,100.0,event
11:14:23.825,0.0,0.0,0.76783377,0.0,0.0,0.0,-0.20624216,0.0,0.0,0.0,0.5275236,0.0,0.0,0.0,0.847471,0.0,0.0,0.0,0.3856149,0.0,4.4322343,917.8755,793.36993,1628.2417,728.0952,-0.237060546875,0.017333984375,0.9639892578125,1.727142333984375,-8.95721435546875,2.564544677734375,1.0,4.0,4.0,1.0,4.0,100.0,event
11:14:23.849,0.0,0.0,0.76783377,0.0,0.0,0.0,-0.20624216,0.0,0.0,0.0,0.5275236,0.0,0.0,0.0,0.847471,0.0,0.0,0.0,0.3856149,0.0,1589.5604,503.26007,799.81683,1628.2417,850.58606,-0.23822021484375,0.01739501953125,0.9658203125,3.0206298828125,-5.345916748046875,-1.31591796875,1.0,4.0,4.0,1.0,4.0,100.0,event
11:14:23.851,0.0,0.0,0.76783377,0.0,0.0,0.0,-0.20624216,0.0,0.0,0.0,0.5275236,0.0,0.0,0.0,0.847471,0.0,0.0,0.0,0.3856149,0.0,1637.5092,690.2198,819.9634,1628.2417,745.82416,-0.23822021484375,0.01739501953125,0.9658203125,3.0206298828125,-5.345916748046875,-1.31591796875,1.0,4.0,4.0,1.0,4.0,100.0,event
11:14:23.851,0.0,0.0,0.76783377,0.0,0.0,0.0,-0.20624216,0.0,0.0,0.0,0.5275236,0.0,0.0,0.0,0.847471,0.0,0.0,0.0,0.3856149,0.0,1631.4652,883.22345,805.05493,1628.2417,644.2857,-0.23822021484375,0.01739501953125,0.9658203125,3.0206298828125,-5.345916748046875,-1.31591796875,1.0,4.0,4.0,1.0,4.0,100.0,event
11:14:23.852,0.0,0.0,0.76783377,0.0,0.0,0.0,-0.20624216,0.0,0.0,0.0,0.5275236,0.0,0.0,0.0,0.847471,0.0,0.0,0.0,0.3856149,0.0,1614.5421,989.19415,807.8755,1628.2417,674.10254,-0.23822021484375,0.01739501953125,0.9658203125,3.0206298828125,-5.345916748046875,-1.31591796875,1.0,4.0,4.0,1.0,4.0,100.0,event
11:14:23.853,0.0,0.0,0.76783377,0.0,0.0,0.0,-0.20624216,0.0,0.0,0.0,0.5275236,0.0,0.0,0.0,0.847471,0.0,0.0,0.0,0.3856149,0.0,1599.6337,1228.9377,807.47253,1628.2417,763.1502,-0.23822021484375,0.01739501953125,0.9658203125,3.0206298828125,-5.345916748046875,-1.31591796875,1.0,4.0,4.0,1.0,4.0,100.0,event
11:14:23.854,0.0,0.0,0.76783377,0.0,0.0,0.0,-0.20624216,0.0,0.0,0.0,0.5275236,0.0,0.0,0.0,0.847471,0.0,0.0,0.0,0.3856149,0.0,54.798534,1456.5934,796.5934,1628.2417,909.41394,-0.23822021484375,0.01739501953125,0.9658203125,3.0206298828125,-5.345916748046875,-1.31591796875,1.0,4.0,4.0,1.0,4.0,100.0,event
11:14:23.856,,,,,,,,,,,,,,,,,,,,,,,,,,,,,,,,,,,,,,blink
11:14:23.858,0.0,0.0,0.76783377,0.0,0.0,0.0,-0.20624216,0.0,0.0,0.0,0.5275236,0.0,0.0,0.0,0.847471,0.0,0.0,0.0,0.3856149,0.0,796.5934,778.46155,789.7436,1628.2417,886.04395,-0.23822021484375,0.01739501953125,0.9658203125,3.0206298828125,-5.345916748046875,-1.31591796875,1.0,4.0,4.0,1.0,4.0,100.0,event
11:14:23.859,0.0,0.0,0.76783377,0.0,0.0,0.0,-0.20624216,0.0,0.0,0.0,0.5275236,0.0,0.0,0.0,0.847471,0.0,0.0,0.0,0.3856149,0.0,31.831501,0.0,802.6374,1629.4506,1000.4762,-0.23822021484375,0.01739501953125,0.9658203125,3.0206298828125,-5.345916748046875,-1.31591796875,1.0,4.0,4.0,1.0,4.0,100.0,event
11:14:23.859,0.0,0.0,0.76783377,0.0,0.0,0.0,-0.20624216,0.0,0.0,0.0,0.5275236,0.0,0.0,0.0,0.847471,0.0,0.0,0.0,0.3856149,0.0,0.0,0.0,790.9524,1628.2417,810.696,-0.23822021484375,0.01739501953125,0.9658203125,3.0206298828125,-5.345916748046875,-1.31591796875,1.0,4.0,4.0,1.0,4.0,100.0,event
11:14:23.860,0.0,0.0,0.76783377,0.0,0.0,0.0,-0.20624216,0.0,0.0,0.0,0.5275236,0.0,0.0,0.0,0.847471,0.0,0.0,0.0,0.3856149,0.0,9.267399,310.65933,823.1868,1634.2858,863.47986,-0.23822021484375,0.01739501953125,0.9658203125,3.0206298828125,-5.345916748046875,-1.31591796875,1.0,4.0,4.0,1.0,4.0,100.0,event
11:14:23.860,0.0,0.0,0.76783377,0.0,0.0,0.0,-0.20624216,0.0,0.0,0.0,0.5275236,0.0,0.0,0.0,0.847471,0.0,0.0,0.0,0.3856149,0.0,0.0,570.14655,820.3663,1568.2051,673.69965,-0.23822021484375,0.01739501953125,0.9658203125,3.0206298828125,-5.345916748046875,-1.31591796875,1.0,4.0,4.0,1.0,4.0,100.0,event
11:14:23.861,0.0,0.0,0.76783377,0.0,0.0,0.0,-0.20624216,0.0,0.0,0.0,0.5275236,0.0,0.0,0.0,0.847471,0.0,0.0,0.0,0.3856149,0.0,53.589745,352.96704,807.47253,105.16483,759.12085,-0.23822021484375,0.01739501953125,0.9658203125,3.0206298828125,-5.345916748046875,-1.31591796875,1.0,4.0,4.0,1.0,4.0,100.0,event
11:14:23.884,0.0,0.0,0.76783377,0.0,0.0,0.0,-0.20624216,0.0,0.0,0.0,0.5275236,0.0,0.0,0.0,0.847471,0.0,0.0,0.0,0.3856149,0.0,0.0,186.9597,803.8461,1165.6776,747.03296,-0.23822021484375,0.01739501953125,0.9658203125,3.0206298828125,-5.345916748046875,-1.31591796875,1.0,4.0,4.0,1.0,4.0,100.0,event
11:14:23.885,0.0,0.0,0.76783377,0.0,0.0,0.0,-0.20624216,0.0,0.0,0.0,0.5275236,0.0,0.0,0.0,0.847471,0.0,0.0,0.0,0.3856149,0.0,444.43222,624.94507,805.4579,319.5238,638.6447,-0.23822021484375,0.01739501953125,0.9658203125,3.0206298828125,-5.345916748046875,-1.31591796875,1.0,4.0,4.0,1.0,4.0,100.0,event
11:14:23.886,0.0,0.0,0.76783377,0.0,0.0,0.0,-0.20624216,0.0,0.0,0.0,0.5275236,0.0,0.0,0.0,0.847471,0.0,0.0,0.0,0.3856149,0.0,1575.4579,1199.1208,786.9231,1286.9597,701.50183,-0.23822021484375,0.01739501953125,0.9658203125,3.0206298828125,-5.345916748046875,-1.31591796875,1.0,4.0,4.0,1.0,4.0,100.0,event
11:14:23.886,0.0,0.0,0.76783377,0.0,0.0,0.0,-0.20624216,0.0,0.0,0.0,0.5275236,0.0,0.0,0.0,0.847471,0.0,0.0,0.0,0.3856149,0.0,1.6117216,918.68134,778.46155,158.75458,916.6667,-0.23822021484375,0.01739501953125,0.9658203125,3.0206298828125,-5.345916748046875,-1.31591796875,1.0,4.0,4.0,1.0,4.0,100.0,event
11:14:23.887,0.0,0.0,0.76783377,0.0,0.0,0.0,-0.20624216,0.0,0.0,0.0,0.5275236,0.0,0.0,0.0,0.847471,0.0,0.0,0.0,0.3856149,0.0,53.992676,1010.54944,791.3553,312.67398,758.315,-0.23822021484375,0.01739501953125,0.9658203125,3.0206298828125,-5.345916748046875,-1.31591796875,1.0,4.0,4.0,1.0,4.0,100.0,event
11:14:23.887,0.0,0.0,0.76783377,0.0,0.0,0.0,-0.20624216,0.0,0.0,0.0,0.5275236,0.0,0.0,0.0,0.847471,0.0,0.0,0.0,0.3856149,0.0,1548.8645,750.2564,795.78754,1379.6337,851.79486,-0.23822021484375,0.01739501953125,0.9658203125,3.0206298828125,-5.345916748046875,-1.31591796875,1.0,4.0,4.0,1.0,4.0,100.0,event
11:14:23.888,0.0,0.0,0.76783377,0.0,0.0,0.0,-0.20624216,0.0,0.0,0.0,0.5275236,0.0,0.0,0.0,0.847471,0.0,0.0,0.0,0.3856149,0.0,952.1245,808.2784,784.10254,0.0,756.7033,-0.23822021484375,0.01739501953125,0.9658203125,3.0206298828125,-5.345916748046875,-1.31591796875,1.0,4.0,4.0,1.0,4.0,100.0,event
11:14:23.888,0.0,0.0,0.76783377,0.0,0.0,0.0,-0.20624216,0.0,0.0,0.0,0.5275236,0.0,0.0,0.0,0.847471,0.0,0.0,0.0,0.3856149,0.0,0.0,201.4652,784.90845,107.58242,857.8388,-0.23822021484375,0.01739501953125,0.9658203125,3.0206298828125,-5.345916748046875,-1.31591796875,1.0,4.0,4.0,1.0,4.0,100.0,event
11:14:23.889,0.0,0.0,0.76783377,0.0,0.0,0.0,-0.20624216,0.0,0.0,0.0,0.5275236,0.0,0.0,0.0,0.847471,0.0,0.0,0.0,0.3856149,0.0,0.0,62.857143,799.81683,1370.7693,913.8461,-0.23822021484375,0.01739501953125,0.9658203125,3.0206298828125,-5.345916748046875,-1.31591796875,1.0,4.0,4.0,1.0,4.0,100.0,event
11:14:23.889,0.0,0.0,0.76783377,0.0,0.0,0.0,-0.20624216,0.0,0.0,0.0,0.5275236,0.0,0.0,0.0,0.847471,0.0,0.0,0.0,0.3856149,0.0,74.94505,401.72162,815.12823,1139.4872,750.65936,-0.23822021484375,0.01739501953125,0.9658203125,3.0206298828125,-5.345916748046875,-1.31591796875,1.0,4.0,4.0,1.0,4.0,100.0,event
11:14:23.890,0.0,0.0,0.76783377,0.0,0.0,0.0,-0.20624216,0.0,0.0,0.0,0.5275236,0.0,0.0,0.0,0.847471,0.0,0.0,0.0,0.3856149,0.0,0.0,543.95605,799.011,0.0,633.8095,-0.23822021484375,0.01739501953125,0.9658203125,3.0206298828125,-5.345916748046875,-1.31591796875,1.0,4.0,4.0,1.0,4.0,100.0,event
11:14:23.891,0.0,0.0,0.76783377,0.0,0.0,0.0,-0.20624216,0.0,0.0,0.0,0.5275236,0.0,0.0,0.0,0.847471,0.0,0.0,0.0,0.3856149,0.0,218.79121,598.7546,778.86444,0.0,616.4835,-0.23822021484375,0.01739501953125,0.9658203125,3.0206298828125,-5.345916748046875,-1.31591796875,1.0,4.0,4.0,1.0,4.0,100.0,event
11:14:23.959,0.0,0.0,0.76783377,0.0,0.0,0.0,-0.20624216,0.0,0.0,0.0,0.5275236,0.0,0.0,0.0,0.847471,0.0,0.0,0.0,0.3856149,0.0,1486.4103,1108.8645,801.8315,0.4029304,640.65936,-0.241455078125,0.0242919921875,0.97357177734375,2.998199462890625,-5.24871826171875,-3.75335693359375,1.0,4.0,4.0,1.0,4.0,100.0,event
11:14:23.960,0.0,0.0,0.76783377,0.0,0.0,0.0,-0.20624216,0.0,0.0,0.0,0.5275236,0.0,0.0,0.0,0.847471,0.0,0.0,0.0,0.3856149,0.0,1599.6337,1562.1611,805.05493,1229.7435,752.674,-0.241455078125,0.0242919921875,0.97357177734375,2.998199462890625,-5.24871826171875,-3.75335693359375,1.0,4.0,4.0,1.0,4.0,100.0,event
11:14:23.962,0.0,0.0,0.76783377,0.0,0.0,0.0,-0.20624216,0.0,0.0,0.0,0.5275236,0.0,0.0,0.0,0.847471,0.0,0.0,0.0,0.3856149,0.0,278.4249,994.43225,776.04395,1128.608,808.2784,-0.241455078125,0.0242919921875,0.97357177734375,2.998199462890625,-5.24871826171875,-3.75335693359375,1.0,4.0,4.0,1.0,4.0,100.0,event
11:14:23.963,0.0,0.0,0.76783377,0.0,0.0,0.0,-0.20624216,0.0,0.0,0.0,0.5275236,0.0,0.0,0.0,0.847471,0.0,0.0,0.0,0.3856149,0.0,0.0,257.47253,793.36993,0.0,736.9597,-0.241455078125,0.0242919921875,0.97357177734375,2.998199462890625,-5.24871826171875,-3.75335693359375,1.0,4.0,4.0,1.0,4.0,100.0,event
11:14:23.964,0.0,0.0,0.76783377,0.0,0.0,0.0,-0.20624216,0.0,0.0,0.0,0.5275236,0.0,0.0,0.0,0.847471,0.0,0.0,0.0,0.3856149,0.0,0.0,329.19415,798.20514,42.71062,713.1868,-0.241455078125,0.0242919921875,0.97357177734375,2.998199462890625,-5.24871826171875,-3.75335693359375,1.0,4.0,4.0,1.0,4.0,100.0,event
11:14:23.965,0.0,0.0,0.76783377,0.0,0.0,0.0,-0.20624216,0.0,0.0,0.0,0.5275236,0.0,0.0,0.0,0.847471,0.0,0.0,0.0,0.3856149,0.0,364.24908,737.76556,781.685,0.0,834.4689,-0.241455078125,0.0242919921875,0.97357177734375,2.998199462890625,-5.24871826171875,-3.75335693359375,1.0,4.0,4.0,1.0,4.0,100.0,event
11:14:23.965,0.0,0.0,0.76783377,0.0,0.0,0.0,-0.20624216,0.0,0.0,0.0,0.5275236,0.0,0.0,0.0,0.847471,0.0,0.0,0.0,0.3856149,0.0,1351.4286,862.27106,776.4469,820.3663,963.00366,-0.241455078125,0.0242919921875,0.97357177734375,2.998199462890625,-5.24871826171875,-3.75335693359375,1.0,4.0,4.0,1.0,4.0,100.0,event
11:14:23.966,0.0,0.0,0.76783377,0.0,0.0,0.0,-0.20624216,0.0,0.0,0.0,0.5275236,0.0,0.0,0.0,0.847471,0.0,0.0,0.0,0.3856149,0.0,488.75458,181.72162,760.32965,1167.2894,1183.0037,-0.241455078125,0.0242919921875,0.97357177734375,2.998199462890625,-5.24871826171875,-3.75335693359375,1.0,4.0,4.0,1.0,4.0,100.0,event
11:14:23.970,0.0,0.0,0.76783377,0.0,0.0,0.0,-0.20624216,0.0,0.0,0.0,0.5275236,0.0,0.0,0.0,0.847471,0.0,0.0,0.0,0.3856149,0.0,0.0,200.65935,783.69965,37.472527,1042.7839,-0.241455078125,0.0242919921875,0.97357177734375,2.998199462890625,-5.24871826171875,-3.75335693359375,1.0,4.0,4.0,1.0,4.0,100.0,event
11:14:23.971,0.0,0.0,0.76783377,0.0,0.0,0.0,-0.20624216,0.0,0.0,0.0,0.5275236,0.0,0.0,0.0,0.847471,0.0,0.0,0.0,0.3856149,0.0,286.48352,942.8571,802.23444,16.923077,805.8608,-0.241455078125,0.0242919921875,0.97357177734375,2.998199462890625,-5.24871826171875,-3.75335693359375,1.0,4.0,4.0,1.0,4.0,100.0,event
11:14:23.972,0.0,0.0,0.76783377,0.0,0.0,0.0,-0.20624216,0.0,0.0,0.0,0.5275236,0.0,0.0,0.0,0.847471,0.0,0.0,0.0,0.3856149,0.0,1364.3224,1154.7986,795.78754,0.0,824.7985,-0.241455078125,0.0242919921875,0.97357177734375,2.998199462890625,-5.24871826171875,-3.75335693359375,1.0,4.0,4.0,1.0,4.0,100.0,event
11:14:23.972,0.0,0.0,0.76783377,0.0,0.0,0.0,-0.20624216,0.0,0.0,0.0,0.5275236,0.0,0.0,0.0,0.847471,0.0,0.0,0.0,0.3856149,0.0,48.754578,1293.8096,805.05493,452.89377,803.0403,-0.241455078125,0.0242919921875,0.97357177734375,2.998199462890625,-5.24871826171875,-3.75335693359375,1.0,4.0,4.0,1.0,4.0,100.0,event
11:14:23.997,0.0,0.0,0.76783377,0.0,0.0,0.0,-0.20624216,0.0,0.0,0.0,0.5275236,0.0,0.0,0.0,0.847471,0.0,0.0,0.0,0.3856149,0.0,1604.0659,1493.663,806.26373,1157.2161,799.41394,-0.224609375,0.02325439453125,0.96636962890625,1.592559814453125,-5.24871826171875,-2.699127197265625,1.0,4.0,4.0,1.0,4.0,100.0,event
11:14:23.999,0.0,0.0,0.76783377,0.0,0.0,0.0,-0.20624216,0.0,0.0,0.0,0.5275236,0.0,0.0,0.0,0.847471,0.0,0.0,0.0,0.3856149,0.0,589.4872,1142.3077,782.8938,143.0403,742.1978,-0.224609375,0.02325439453125,0.96636962890625,1.592559814453125,-5.24871826171875,-2.699127197265625,1.0,4.0,4.0,1.0,4.0,100.0,event
11:14:24.001,0.0,0.0,0.76783377,0.0,0.0,0.0,-0.20624216,0.0,0.0,0.0,0.5275236,0.0,0.0,0.0,0.847471,0.0,0.0,0.0,0.3856149,0.0,0.0,514.1392,779.67035,0.0,711.978,-0.224609375,0.02325439453125,0.96636962890625,1.592559814453125,-5.24871826171875,-2.699127197265625,1.0,4.0,4.0,1.0,4.0,100.0,event
11:14:24.002,0.0,0.0,0.76783377,0.0,0.0,0.0,-0.20624216,0.0,0.0,0.0,0.5275236,0.0,0.0,0.0,0.847471,0.0,0.0,0.0,0.3856149,0.0,0.0,501.64835,789.34064,31.831501,698.68134,-0.224609375,0.02325439453125,0.96636962890625,1.592559814453125,-5.24871826171875,-2.699127197265625,1.0,4.0,4.0,1.0,4.0,100.0,event
11:14:24.003,0.0,0.0,0.76783377,0.0,0.0,0.0,-0.20624216,0.0,0.0,0.0,0.5275236,0.0,0.0,0.0,0.847471,0.0,0.0,0.0,0.3856149,0.0,281.64835,949.707,792.96704,32.637363,688.20514,-0.224609375,0.02325439453125,0.96636962890625,1.592559814453125,-5.24871826171875,-2.699127197265625,1.0,4.0,4.0,1.0,4.0,100.0,event
11:14:24.004,0.0,0.0,0.76783377,0.0,0.0,0.0,-0.20624216,0.0,0.0,0.0,0.5275236,0.0,0.0,0.0,0.847471,0.0,0.0,0.0,0.3856149,0.0,1392.5275,991.6117,776.8498,202.674,813.1135,-0.224609375,0.02325439453125,0.96636962890625,1.592559814453125,-5.24871826171875,-2.699127197265625,1.0,4.0,4.0,1.0,4.0,100.0,event
11:14:24.005,0.0,0.0,0.76783377,0.0,0.0,0.0,-0.20624216,0.0,0.0,0.0,0.5275236,0.0,0.0,0.0,0.847471,0.0,0.0,0.0,0.3856149,0.0,506.48352,583.44324,779.2674,18.534798,982.74725,-0.224609375,0.02325439453125,0.96636962890625,1.592559814453125,-5.24871826171875,-2.699127197265625,1.0,4.0,4.0,1.0,4.0,100.0,event
11:14:24.005,0.0,0.0,0.76783377,0.0,0.0,0.0,-0.20624216,0.0,0.0,0.0,0.5275236,0.0,0.0,0.0,0.847471,0.0,0.0,0.0,0.3856149,0.0,0.0,651.53845,805.8608,47.545788,824.7985,-0.224609375,0.02325439453125,0.96636962890625,1.592559814453125,-5.24871826171875,-2.699127197265625,1.0,4.0,4.0,1.0,4.0,100.0,event
11:14:24.006,0.0,0.0,0.76783377,0.0,0.0,0.0,-0.20624216,0.0,0.0,0.0,0.5275236,0.0,0.0,0.0,0.847471,0.0,0.0,0.0,0.3856149,0.0,908.20514,995.64105,809.4872,0.0,670.4762,-0.224609375,0.02325439453125,0.96636962890625,1.592559814453125,-5.24871826171875,-2.699127197265625,1.0,4.0,4.0,1.0,4.0,100.0,event
11:14:24.007,0.0,0.0,0.76783377,0.0,0.0,0.0,-0.20624216,0.0,0.0,0.0,0.5275236,0.0,0.0,0.0,0.847471,0.0,0.0,0.0,0.3856149,0.0,1604.4689,727.6923,794.9817,1355.0549,1135.4579,-0.224609375,0.02325439453125,0.96636962890625,1.592559814453125,-5.24871826171875,-2.699127197265625,1.0,4.0,4.0,1.0,4.0,100.0,event
11:14:24.007,0.0,0.0,0.76783377,0.0,0.0,0.0,-0.20624216,0.0,0.0,0.0,0.5275236,0.0,0.0,0.0,0.847471,0.0,0.0,0.0,0.3856149,0.0,22.564102,1204.762,802.6374,265.1282,849.7802,-0.224609375,0.02325439453125,0.96636962890625,1.592559814453125,-5.24871826171875,-2.699127197265625,1.0,4.0,4.0,1.0,4.0,100.0,event
11:14:24.008,0.0,0.0,0.76783377,0.0,0.0,0.0,-0.20624216,0.0,0.0,0.0,0.5275236,0.0,0.0,0.0,0.847471,0.0,0.0,0.0,0.3856149,0.0,1609.7069,189.37729,806.26373,406.95972,1075.4213,-0.224609375,0.02325439453125,0.96636962890625,1.592559814453125,-5.24871826171875,-2.699127197265625,1.0,4.0,4.0,1.0,4.0,100.0,event
11:14:24.037,0.0,0.0,0.76783377,0.0,0.0,0.0,-0.20624216,0.0,0.0,0.0,0.5275236,0.0,0.0,0.0,0.847471,0.0,0.0,0.0,0.3856149,0.0,1639.5238,863.47986,816.337,0.0,737.3626,-0.2265625,0.030029296875,0.95623779296875,3.0804443359375,-6.033782958984375,-1.2261962890625,1.0,4.0,4.0,1.0,4.0,100.0,event
11:14:24.039,0.0,0.0,0.76783377,0.0,0.0,0.0,-0.20624216,0.0,0.0,0.0,0.5275236,0.0,0.0,0.0,0.847471,0.0,0.0,0.0,0.3856149,0.0,1575.0549,1274.8718,798.60803,0.0,693.0403,-0.2265625,0.030029296875,0.95623779296875,3.0804443359375,-6.033782958984375,-1.2261962890625,1.0,4.0,4.0,1.0,4.0,100.0,event
11:14:24.040,0.0,0.0,0.76783377,0.0,0.0,0.0,-0.20624216,0.0,0.0,0.0,0.5275236,0.0,0.0,0.0,0.847471,0.0,0.0,0.0,0.3856149,0.0,1504.1392,1103.6263,795.78754,180.51282,818.7546,-0.2265625,0.030029296875,0.95623779296875,3.0804443359375,-6.033782958984375,-1.2261962890625,1.0,4.0,4.0,1.0,4.0,100.0,event
11:14:24.040,0.0,0.0,0.76783377,0.0,0.0,0.0,-0.20624216,0.0,0.0,0.0,0.5275236,0.0,0.0,0.0,0.847471,0.0,0.0,0.0,0.3856149,0.0,921.9048,1095.1648,805.4579,1476.337,936.0073,-0.2265625,0.030029296875,0.95623779296875,3.0804443359375,-6.033782958984375,-1.2261962890625,1.0,4.0,4.0,1.0,4.0,100.0,event
11:14:24.041,0.0,0.0,0.76783377,0.0,0.0,0.0,-0.20624216,0.0,0.0,0.0,0.5275236,0.0,0.0,0.0,0.847471,0.0,0.0,0.0,0.3856149,0.0,160.3663,1055.6776,810.696,798.60803,888.0586,-0.2265625,0.030029296875,0.95623779296875,3.0804443359375,-6.033782958984375,-1.2261962890625,1.0,4.0,4.0,1.0,4.0,100.0,event
11:14:24.042,0.0,0.0,0.76783377,0.0,0.0,0.0,-0.20624216,0.0,0.0,0.0,0.5275236,0.0,0.0,0.0,0.847471,0.0,0.0,0.0,0.3856149,0.0,1113.6996,649.12085,794.57874,0.0,889.67035,-0.2265625,0.030029296875,0.95623779296875,3.0804443359375,-6.033782958984375,-1.2261962890625,1.0,4.0,4.0,1.0,4.0,100.0,event
11:14:24.043,0.0,0.0,0.76783377,0.0,0.0,0.0,-0.20624216,0.0,0.0,0.0,0.5275236,0.0,0.0,0.0,0.847471,0.0,0.0,0.0,0.3856149,0.0,182.12454,418.24176,792.96704,0.0,1062.1245,-0.2265625,0.030029296875,0.95623779296875,3.0804443359375,-6.033782958984375,-1.2261962890625,1.0,4.0,4.0,1.0,4.0,100.0,event
11:14:24.044,0.0,0.0,0.76783377,0.0,0.0,0.0,-0.20624216,0.0,0.0,0.0,0.5275236,0.0,0.0,0.0,0.847471,0.0,0.0,0.0,0.3856149,0.0,1375.6044,1070.1831,810.293,135.78755,917.0696,-0.2265625,0.030029296875,0.95623779296875,3.0804443359375,-6.033782958984375,-1.2261962890625,1.0,4.0,4.0,1.0,4.0,100.0,event
11:14:24.045,0.0,0.0,0.76783377,0.0,0.0,0.0,-0.20624216,0.0,0.0,0.0,0.5275236,0.0,0.0,0.0,0.847471,0.0,0.0,0.0,0.3856149,0.0,229.67033,661.6117,801.4286,1279.7069,773.6264,-0.2265625,0.030029296875,0.95623779296875,3.0804443359375,-6.033782958984375,-1.2261962890625,1.0,4.0,4.0,1.0,4.0,100.0,event
11:14:24.046,0.0,0.0,0.76783377,0.0,0.0,0.0,-0.20624216,0.0,0.0,0.0,0.5275236,0.0,0.0,0.0,0.847471,0.0,0.0,0.0,0.3856149,0.0,0.0,0.0,799.41394,535.09155,817.1429,-0.2265625,0.030029296875,0.95623779296875,3.0804443359375,-6.033782958984375,-1.2261962890625,1.0,4.0,4.0,1.0,4.0,100.0,event
11:14:24.050,0.0,0.0,0.76783377,0.0,0.0,0.0,-0.20624216,0.0,0.0,0.0,0.5275236,0.0,0.0,0.0,0.847471,0.0,0.0,0.0,0.3856149,0.0,57.216118,9.267399,814.7253,0.0,803.0403,-0.2265625,0.030029296875,0.95623779296875,3.0804443359375,-6.033782958984375,-1.2261962890625,1.0,4.0,4.0,1.0,4.0,100.0,event
11:14:24.051,0.0,0.0,0.76783377,0.0,0.0,0.0,-0.20624216,0.0,0.0,0.0,0.5275236,0.0,0.0,0.0,0.847471,0.0,0.0,0.0,0.3856149,0.0,0.0,197.83882,813.5165,73.333336,666.8498,-0.2265625,0.030029296875,0.95623779296875,3.0804443359375,-6.033782958984375,-1.2261962890625,1.0,4.0,4.0,1.0,4.0,100.0,event
11:14:24.074,0.0,0.0,0.76783377,0.0,0.0,0.0,-0.20624216,0.0,0.0,0.0,0.5275236,0.0,0.0,0.0,0.847471,0.0,0.0,0.0,0.3856149,0.0,0.0,329.19415,797.8022,0.0,670.87915,-0.23187255859375,0.030029296875,0.9658203125,1.487884521484375,-3.36456298828125,2.52716064453125,1.0,4.0,4.0,1.0,4.0,100.0,event
11:14:24.075,0.0,0.0,0.76783377,0.0,0.0,0.0,-0.20624216,0.0,0.0,0.0,0.5275236,0.0,0.0,0.0,0.847471,0.0,0.0,0.0,0.3856149,0.0,0.0,151.90475,787.326,0.0,818.7546,-0.23187255859375,0.030029296875,0.9658203125,1.487884521484375,-3.36456298828125,2.52716064453125,1.0,4.0,4.0,1.0,4.0,100.0,event
11:14:24.075,0.0,0.0,0.76783377,0.0,0.0,0.0,-0.20624216,0.0,0.0,0.0,0.5275236,0.0,0.0,0.0,0.847471,0.0,0.0,0.0,0.3856149,0.0,0.0,85.42124,799.011,0.0,762.74725,-0.23187255859375,0.030029296875,0.9658203125,1.487884521484375,-3.36456298828125,2.52716064453125,1.0,4.0,4.0,1.0,4.0,100.0,event
11:14:24.076,0.0,0.0,0.76783377,0.0,0.0,0.0,-0.20624216,0.0,0.0,0.0,0.5275236,0.0,0.0,0.0,0.847471,0.0,0.0,0.0,0.3856149,0.0,0.0,344.90842,801.02563,0.0,609.6337,-0.23187255859375,0.030029296875,0.9658203125,1.487884521484375,-3.36456298828125,2.52716064453125,1.0,4.0,4.0,1.0,4.0,100.0,event
11:14:24.076,0.0,0.0,0.76783377,0.0,0.0,0.0,-0.20624216,0.0,0.0,0.0,0.5275236,0.0,0.0,0.0,0.847471,0.0,0.0,0.0,0.3856149,0.0,0.0,244.17583,805.8608,46.739925,592.71063,-0.23187255859375,0.030029296875,0.9658203125,1.487884521484375,-3.36456298828125,2.52716064453125,1.0,4.0,4.0,1.0,4.0,100.0,event
11:14:24.077,0.0,0.0,0.76783377,0.0,0.0,0.0,-0.20624216,0.0,0.0,0.0,0.5275236,0.0,0.0,0.0,0.847471,0.0,0.0,0.0,0.3856149,0.0,0.0,148.68132,807.47253,41.50183,767.1795,-0.23187255859375,0.030029296875,0.9658203125,1.487884521484375,-3.36456298828125,2.52716064453125,1.0,4.0,4.0,1.0,4.0,100.0,event
11:14:24.077,0.0,0.0,0.76783377,0.0,0.0,0.0,-0.20624216,0.0,0.0,0.0,0.5275236,0.0,0.0,0.0,0.847471,0.0,0.0,0.0,0.3856149,0.0,0.0,182.9304,816.337,1309.5238,940.4396,-0.23187255859375,0.030029296875,0.9658203125,1.487884521484375,-3.36456298828125,2.52716064453125,1.0,4.0,4.0,1.0,4.0,100.0,event
11:14:24.078,0.0,0.0,0.76783377,0.0,0.0,0.0,-0.20624216,0.0,0.0,0.0,0.5275236,0.0,0.0,0.0,0.847471,0.0,0.0,0.0,0.3856149,0.0,0.0,337.25275,808.2784,51.575092,929.9634,-0.23187255859375,0.030029296875,0.9658203125,1.487884521484375,-3.36456298828125,2.52716064453125,1.0,4.0,4.0,1.0,4.0,100.0,event
11:14:24.079,0.0,0.0,0.76783377,0.0,0.0,0.0,-0.20624216,0.0,0.0,0.0,0.5275236,0.0,0.0,0.0,0.847471,0.0,0.0,0.0,0.3856149,0.0,0.0,247.39926,809.89014,331.61172,761.13556,-0.23187255859375,0.030029296875,0.9658203125,1.487884521484375,-3.36456298828125,2.52716064453125,1.0,4.0,4.0,1.0,4.0,100.0,event
11:14:24.079,0.0,0.0,0.76783377,0.0,0.0,0.0,-0.20624216,0.0,0.0,0.0,0.5275236,0.0,0.0,0.0,0.847471,0.0,0.0,0.0,0.3856149,0.0,0.0,0.0,811.9048,0.0,886.8498,-0.23187255859375,0.030029296875,0.9658203125,1.487884521484375,-3.36456298828125,2.52716064453125,1.0,4.0,4.0,1.0,4.0,100.0,event
11:14:24.080,0.0,0.0,0.76783377,0.0,0.0,0.0,-0.20624216,0.0,0.0,0.0,0.5275236,0.0,0.0,0.0,0.847471,0.0,0.0,0.0,0.3856149,0.0,0.0,185.34799,817.5458,1112.0879,923.91943,-0.23187255859375,0.030029296875,0.9658203125,1.487884521484375,-3.36456298828125,2.52716064453125,1.0,4.0,4.0,1.0,4.0,100.0,event
11:14:24.080,0.0,0.0,0.76783377,0.0,0.0,0.0,-0.20624216,0.0,0.0,0.0,0.5275236,0.0,0.0,0.0,0.847471,0.0,0.0,0.0,0.3856149,0.0,0.0,712.381,817.1429,1644.762,810.696,-0.23187255859375,0.030029296875,0.9658203125,1.487884521484375,-3.36456298828125,2.52716064453125,1.0,4.0,4.0,1.0,4.0,100.0,event
11:14:24.134,0.0,0.0,0.76783377,0.0,0.0,0.0,-0.20624216,0.0,0.0,0.0,0.5275236,0.0,0.0,0.0,0.847471,0.0,0.0,0.0,0.3856149,0.0,0.0,498.82785,798.60803,26.996338,931.5751,-0.23187255859375,0.030029296875,0.9658203125,1.487884521484375,-3.36456298828125,2.52716064453125,1.0,4.0,4.0,1.0,4.0,100.0,event
11:14:24.135,0.0,0.0,0.76783377,0.0,0.0,0.0,-0.20624216,0.0,0.0,0.0,0.5275236,0.0,0.0,0.0,0.847471,0.0,0.0,0.0,0.3856149,0.0,0.0,58.82784,799.41394,1463.4432,884.43225,-0.23187255859375,0.030029296875,0.9658203125,1.487884521484375,-3.36456298828125,2.52716064453125,1.0,4.0,4.0,1.0,4.0,100.0,event
11:14:24.136,0.0,0.0,0.76783377,0.0,0.0,0.0,-0.20624216,0.0,0.0,0.0,0.5275236,0.0,0.0,0.0,0.847471,0.0,0.0,0.0,0.3856149,0.0,0.0,134.17583,813.1135,292.9304,673.2967,-0.23187255859375,0.030029296875,0.9658203125,1.487884521484375,-3.36456298828125,2.52716064453125,1.0,4.0,4.0,1.0,4.0,100.0,event
11:14:24.137,0.0,0.0,0.76783377,0.0,0.0,0.0,-0.20624216,0.0,0.0,0.0,0.5275236,0.0,0.0,0.0,0.847471,0.0,0.0,0.0,0.3856149,0.0,0.0,297.76556,818.3516,1065.348,674.90845,-0.23187255859375,0.030029296875,0.9658203125,1.487884521484375,-3.36456298828125,2.52716064453125,1.0,4.0,4.0,1.0,4.0,100.0,event
11:14:24.137,0.0,0.0,0.76783377,0.0,0.0,0.0,-0.20624216,0.0,0.0,0.0,0.5275236,0.0,0.0,0.0,0.847471,0.0,0.0,0.0,0.3856149,0.0,0.0,390.43958,822.7839,97.509155,782.49084,-0.23187255859375,0.030029296875,0.9658203125,1.487884521484375,-3.36456298828125,2.52716064453125,1.0,4.0,4.0,1.0,4.0,100.0,event
11:14:24.138,0.0,0.0,0.76783377,0.0,0.0,0.0,-0.20624216,0.0,0.0,0.0,0.5275236,0.0,0.0,0.0,0.847471,0.0,0.0,0.0,0.3856149,0.0,0.0,110.80586,822.381,1624.2124,930.7692,-0.23187255859375,0.030029296875,0.9658203125,1.487884521484375,-3.36456298828125,2.52716064453125,1.0,4.0,4.0,1.0,4.0,100.0,event
11:14:24.139,0.0,0.0,0.76783377,0.0,0.0,0.0,-0.20624216,0.0,0.0,0.0,0.5275236,0.0,0.0,0.0,0.847471,0.0,0.0,0.0,0.3856149,0.0,0.0,0.0,830.4396,1172.1245,870.32965,-0.23187255859375,0.030029296875,0.9658203125,1.487884521484375,-3.36456298828125,2.52716064453125,1.0,4.0,4.0,1.0,4.0,100.0,event
11:14:24.139,0.0,0.0,0.76783377,0.0,0.0,0.0,-0.20624216,0.0,0.0,0.0,0.5275236,0.0,0.0,0.0,0.847471,0.0,0.0,0.0,0.3856149,0.0,0.0,148.68132,834.4689,0.0,647.50916,-0.23187255859375,0.030029296875,0.9658203125,1.487884521484375,-3.36456298828125,2.52716064453125,1.0,4.0,4.0,1.0,4.0,100.0,event
11:14:24.140,0.0,0.0,0.76783377,0.0,0.0,0.0,-0.20624216,0.0,0.0,0.0,0.5275236,0.0,0.0,0.0,0.847471,0.0,0.0,0.0,0.3856149,0.0,0.0,236.92308,819.15753,267.14285,669.67035,-0.23187255859375,0.030029296875,0.9658203125,1.487884521484375,-3.36456298828125,2.52716064453125,1.0,4.0,4.0,1.0,4.0,100.0,event
11:14:24.141,0.0,0.0,0.76783377,0.0,0.0,0.0,-0.20624216,0.0,0.0,0.0,0.5275236,0.0,0.0,0.0,0.847471,0.0,0.0,0.0,0.3856149,0.0,0.0,433.5531,848.1685,78.97436,903.7729,-0.23187255859375,0.030029296875,0.9658203125,1.487884521484375,-3.36456298828125,2.52716064453125,1.0,4.0,4.0,1.0,4.0,100.0,event
11:14:24.141,0.0,0.0,0.76783377,0.0,0.0,0.0,-0.20624216,0.0,0.0,0.0,0.5275236,0.0,0.0,0.0,0.847471,0.0,0.0,0.0,0.3856149,0.0,0.0,85.01832,817.9487,1432.0146,1017.8022,-0.23187255859375,0.030029296875,0.9658203125,1.487884521484375,-3.36456298828125,2.52716064453125,1.0,4.0,4.0,1.0,4.0,100.0,event
11:14:24.142,0.0,0.0,0.76783377,0.0,0.0,0.0,-0.20624216,0.0,0.0,0.0,0.5275236,0.0,0.0,0.0,0.847471,0.0,0.0,0.0,0.3856149,0.0,0.0,435.56778,826.4103,1447.7289,672.49084,-0.23187255859375,0.030029296875,0.9658203125,1.487884521484375,-3.36456298828125,2.52716064453125,1.0,4.0,4.0,1.0,4.0,100.0,event
11:14:24.167,0.0,0.0,0.76783377,0.0,0.0,0.0,-0.20624216,0.0,0.0,0.0,0.5275236,0.0,0.0,0.0,0.847471,0.0,0.0,0.0,0.3856149,0.0,0.0,73.333336,801.02563,195.01831,668.46155,-0.22283935546875,0.02197265625,0.958984375,1.712188720703125,-3.48419189453125,1.09161376953125,1.0,4.0,4.0,1.0,4.0,100.0,event
11:14:24.168,0.0,0.0,0.76783377,0.0,0.0,0.0,-0.20624216,0.0,0.0,0.0,0.5275236,0.0,0.0,0.0,0.847471,0.0,0.0,0.0,0.3856149,0.0,0.0,273.99268,813.91943,180.91576,601.5751,-0.22283935546875,0.02197265625,0.958984375,1.712188720703125,-3.48419189453125,1.09161376953125,1.0,4.0,4.0,1.0,4.0,100.0,event
11:14:24.169,0.0,0.0,0.76783377,0.0,0.0,0.0,-0.20624216,0.0,0.0,0.0,0.5275236,0.0,0.0,0.0,0.847471,0.0,0.0,0.0,0.3856149,0.0,0.0,695.4579,817.1429,1436.8499,669.67035,-0.22283935546875,0.02197265625,0.958984375,1.712188720703125,-3.48419189453125,1.09161376953125,1.0,4.0,4.0,1.0,4.0,100.0,event
11:14:24.169,0.0,0.0,0.76783377,0.0,0.0,0.0,-0.20624216,0.0,0.0,0.0,0.5275236,0.0,0.0,0.0,0.847471,0.0,0.0,0.0,0.3856149,0.0,0.0,782.49084,821.1722,67.289375,818.3516,-0.22283935546875,0.02197265625,0.958984375,1.712188720703125,-3.48419189453125,1.09161376953125,1.0,4.0,4.0,1.0,4.0,100.0,event
11:14:24.170,0.0,0.0,0.76783377,0.0,0.0,0.0,-0.20624216,0.0,0.0,0.0,0.5275236,0.0,0.0,0.0,0.847471,0.0,0.0,0.0,0.3856149,0.0,0.0,293.73627,807.8755,1528.3151,908.20514,-0.22283935546875,0.02197265625,0.958984375,1.712188720703125,-3.48419189453125,1.09161376953125,1.0,4.0,4.0,1.0,4.0,100.0,event
11:14:24.171,0.0,0.0,0.76783377,0.0,0.0,0.0,-0.20624216,0.0,0.0,0.0,0.5275236,0.0,0.0,0.0,0.847471,0.0,0.0,0.0,0.3856149,0.0,0.0,156.73993,817.1429,209.5238,780.07324,-0.22283935546875,0.02197265625,0.958984375,1.712188720703125,-3.48419189453125,1.09161376953125,1.0,4.0,4.0,1.0,4.0,100.0,event
11:14:24.171,0.0,0.0,0.76783377,0.0,0.0,0.0,-0.20624216,0.0,0.0,0.0,0.5275236,0.0,0.0,0.0,0.847471,0.0,0.0,0.0,0.3856149,0.0,10.07326,0.0,810.696,275.6044,857.8388,-0.22283935546875,0.02197265625,0.958984375,1.712188720703125,-3.48419189453125,1.09161376953125,1.0,4.0,4.0,1.0,4.0,100.0,event
11:14:24.172,0.0,0.0,0.76783377,0.0,0.0,0.0,-0.20624216,0.0,0.0,0.0,0.5275236,0.0,0.0,0.0,0.847471,0.0,0.0,0.0,0.3856149,0.0,64.468864,403.33334,815.5311,1461.0256,823.5897,-0.22283935546875,0.02197265625,0.958984375,1.712188720703125,-3.48419189453125,1.09161376953125,1.0,4.0,4.0,1.0,4.0,100.0,event
11:14:24.173,0.0,0.0,0.76783377,0.0,0.0,0.0,-0.20624216,0.0,0.0,0.0,0.5275236,0.0,0.0,0.0,0.847471,0.0,0.0,0.0,0.3856149,0.0,145.86081,186.9597,808.2784,74.54212,1024.652,-0.22283935546875,0.02197265625,0.958984375,1.712188720703125,-3.48419189453125,1.09161376953125,1.0,4.0,4.0,1.0,4.0,100.0,event
11:14:24.173,0.0,0.0,0.76783377,0.0,0.0,0.0,-0.20624216,0.0,0.0,0.0,0.5275236,0.0,0.0,0.0,0.847471,0.0,0.0,0.0,0.3856149,0.0,0.0,0.0,823.1868,1459.011,1114.1025,-0.22283935546875,0.02197265625,0.958984375,1.712188720703125,-3.48419189453125,1.09161376953125,1.0,4.0,4.0,1.0,4.0,100.0,event
11:14:24.174,0.0,0.0,0.76783377,0.0,0.0,0.0,-0.20624216,0.0,0.0,0.0,0.5275236,0.0,0.0,0.0,0.847471,0.0,0.0,0.0,0.3856149,0.0,44.322346,295.75092,856.2271,338.0586,780.07324,-0.22283935546875,0.02197265625,0.958984375,1.712188720703125,-3.48419189453125,1.09161376953125,1.0,4.0,4.0,1.0,4.0,100.0,event
11:14:24.175,0.0,0.0,0.76783377,0.0,0.0,0.0,-0.20624216,0.0,0.0,0.0,0.5275236,0.0,0.0,0.0,0.847471,0.0,0.0,0.0,0.3856149,0.0,0.0,509.30402,850.18317,0.0,628.1685,-0.22283935546875,0.02197265625,0.958984375,1.712188720703125,-3.48419189453125,1.09161376953125,1.0,4.0,4.0,1.0,4.0,100.0,event
11:14:24.201,0.0,0.0,0.76783377,0.0,0.0,0.0,-0.20624216,0.0,0.0,0.0,0.5275236,0.0,0.0,0.0,0.847471,0.0,0.0,0.0,0.3856149,0.0,307.03296,606.8132,838.9011,693.8461,720.84247,-0.2177734375,0.0203857421875,0.9642333984375,1.607513427734375,-5.00946044921875,1.8841552734375,1.0,4.0,4.0,1.0,4.0,100.0,event
11:14:24.202,0.0,0.0,0.76783377,0.0,0.0,0.0,-0.20624216,0.0,0.0,0.0,0.5275236,0.0,0.0,0.0,0.847471,0.0,0.0,0.0,0.3856149,0.0,1475.1282,909.81683,839.707,39.084248,770.0,-0.2177734375,0.0203857421875,0.9642333984375,1.607513427734375,-5.00946044921875,1.8841552734375,1.0,4.0,4.0,1.0,4.0,100.0,event
11:14:24.203,0.0,0.0,0.76783377,0.0,0.0,0.0,-0.20624216,0.0,0.0,0.0,0.5275236,0.0,0.0,0.0,0.847471,0.0,0.0,0.0,0.3856149,0.0,900.14655,876.77655,824.7985,958.97437,727.28937,-0.2177734375,0.0203857421875,0.9642333984375,1.607513427734375,-5.00946044921875,1.8841552734375,1.0,4.0,4.0,1.0,4.0,100.0,event
11:14:24.203,0.0,0.0,0.76783377,0.0,0.0,0.0,-0.20624216,0.0,0.0,0.0,0.5275236,0.0,0.0,0.0,0.847471,0.0,0.0,0.0,0.3856149,0.0,0.0,527.8388,819.9634,8.058608,630.58606,-0.2177734375,0.0203857421875,0.9642333984375,1.607513427734375,-5.00946044921875,1.8841552734375,1.0,4.0,4.0,1.0,4.0,100.0,event
11:14:24.204,0.0,0.0,0.76783377,0.0,0.0,0.0,-0.20624216,0.0,0.0,0.0,0.5275236,0.0,0.0,0.0,0.847471,0.0,0.0,0.0,0.3856149,0.0,1477.5458,761.13556,821.1722,70.51282,714.3956,-0.2177734375,0.0203857421875,0.9642333984375,1.607513427734375,-5.00946044921875,1.8841552734375,1.0,4.0,4.0,1.0,4.0,100.0,event
11:14:24.204,0.0,0.0,0.76783377,0.0,0.0,0.0,-0.20624216,0.0,0.0,0.0,0.5275236,0.0,0.0,0.0,0.847471,0.0,0.0,0.0,0.3856149,0.0,476.26373,544.35895,830.0366,0.0,645.4945,-0.2177734375,0.0203857421875,0.9642333984375,1.607513427734375,-5.00946044921875,1.8841552734375,1.0,4.0,4.0,1.0,4.0,100.0,event
11:14:24.205,0.0,0.0,0.76783377,0.0,0.0,0.0,-0.20624216,0.0,0.0,0.0,0.5275236,0.0,0.0,0.0,0.847471,0.0,0.0,0.0,0.3856149,0.0,58.424908,875.9707,806.26373,1072.1978,799.41394,-0.2177734375,0.0203857421875,0.9642333984375,1.607513427734375,-5.00946044921875,1.8841552734375,1.0,4.0,4.0,1.0,4.0,100.0,event
11:14:24.206,0.0,0.0,0.76783377,0.0,0.0,0.0,-0.20624216,0.0,0.0,0.0,0.5275236,0.0,0.0,0.0,0.847471,0.0,0.0,0.0,0.3856149,0.0,1444.5055,638.6447,792.96704,498.82785,828.022,-0.2177734375,0.0203857421875,0.9642333984375,1.607513427734375,-5.00946044921875,1.8841552734375,1.0,4.0,4.0,1.0,4.0,100.0,event
11:14:24.206,0.0,0.0,0.76783377,0.0,0.0,0.0,-0.20624216,0.0,0.0,0.0,0.5275236,0.0,0.0,0.0,0.847471,0.0,0.0,0.0,0.3856149,0.0,215.56776,118.05861,804.65204,0.0,965.82416,-0.2177734375,0.0203857421875,0.9642333984375,1.607513427734375,-5.00946044921875,1.8841552734375,1.0,4.0,4.0,1.0,4.0,100.0,event
11:14:24.207,0.0,0.0,0.76783377,0.0,0.0,0.0,-0.20624216,0.0,0.0,0.0,0.5275236,0.0,0.0,0.0,0.847471,0.0,0.0,0.0,0.3856149,0.0,24.175825,362.23444,836.8865,67.289375,821.5751,-0.2177734375,0.0203857421875,0.9642333984375,1.607513427734375,-5.00946044921875,1.8841552734375,1.0,4.0,4.0,1.0,4.0,100.0,event
11:14:24.208,0.0,0.0,0.76783377,0.0,0.0,0.0,-0.20624216,0.0,0.0,0.0,0.5275236,0.0,0.0,0.0,0.847471,0.0,0.0,0.0,0.3856149,0.0,1290.1831,931.1722,825.6044,0.0,639.85345,-0.2177734375,0.0203857421875,0.9642333984375,1.607513427734375,-5.00946044921875,1.8841552734375,1.0,4.0,4.0,1.0,4.0,100.0,event
11:14:24.208,0.0,0.0,0.76783377,0.0,0.0,0.0,-0.20624216,0.0,0.0,0.0,0.5275236,0.0,0.0,0.0,0.847471,0.0,0.0,0.0,0.3856149,0.0,121.28205,928.3516,811.50183,0.0,750.2564,-0.2177734375,0.0203857421875,0.9642333984375,1.607513427734375,-5.00946044921875,1.8841552734375,1.0,4.0,4.0,1.0,4.0,100.0,event
11:14:24.273,0.0,0.0,0.76783377,0.0,0.0,0.0,-0.20624216,0.0,0.0,0.0,0.5275236,0.0,0.0,0.0,0.847471,0.0,0.0,0.0,0.3856149,0.0,987.1795,638.6447,816.7399,0.0,789.7436,-0.236083984375,0.02069091796875,0.9644775390625,1.996307373046875,-3.170166015625,1.79443359375,1.0,4.0,4.0,1.0,4.0,100.0,event
11:14:24.275,0.0,0.0,0.76783377,0.0,0.0,0.0,-0.20624216,0.0,0.0,0.0,0.5275236,0.0,0.0,0.0,0.847471,0.0,0.0,0.0,0.3856149,0.0,71.31868,558.0586,816.337,0.0,588.2784,-0.236083984375,0.02069091796875,0.9644775390625,1.996307373046875,-3.170166015625,1.79443359375,1.0,4.0,4.0,1.0,4.0,100.0,event
11:14:24.281,0.0,0.0,0.76783377,0.0,0.0,0.0,-0.20624216,0.0,0.0,0.0,0.5275236,0.0,0.0,0.0,0.847471,0.0,0.0,0.0,0.3856149,0.0,0.0,528.6447,814.3223,0.0,494.79852,-0.236083984375,0.02069091796875,0.9644775390625,1.996307373046875,-3.170166015625,1.79443359375,1.0,4.0,4.0,1.0,4.0,100.0,event
11:14:24.282,0.0,0.0,0.76783377,0.0,0.0,0.0,-0.20624216,0.0,0.0,0.0,0.5275236,0.0,0.0,0.0,0.847471,0.0,0.0,0.0,0.3856149,0.0,65.27473,546.77655,809.89014,0.0,631.39197,-0.236083984375,0.02069091796875,0.9644775390625,1.996307373046875,-3.170166015625,1.79443359375,1.0,4.0,4.0,1.0,4.0,100.0,event
11:14:24.283,0.0,0.0,0.76783377,0.0,0.0,0.0,-0.20624216,0.0,0.0,0.0,0.5275236,0.0,0.0,0.0,0.847471,0.0,0.0,0.0,0.3856149,0.0,348.93774,767.5824,819.9634,0.0,687.3993,-0.236083984375,0.02069091796875,0.9644775390625,1.996307373046875,-3.170166015625,1.79443359375,1.0,4.0,4.0,1.0,4.0,100.0,event
11:14:24.284,0.0,0.0,0.76783377,0.0,0.0,0.0,-0.20624216,0.0,0.0,0.0,0.5275236,0.0,0.0,0.0,0.847471,0.0,0.0,0.0,0.3856149,0.0,124.10256,571.3553,817.1429,0.0,686.99634,-0.236083984375,0.02069091796875,0.9644775390625,1.996307373046875,-3.170166015625,1.79443359375,1.0,4.0,4.0,1.0,4.0,100.0,event
11:14:24.285,0.0,0.0,0.76783377,0.0,0.0,0.0,-0.20624216,0.0,0.0,0.0,0.5275236,0.0,0.0,0.0,0.847471,0.0,0.0,0.0,0.3856149,0.0,0.0,101.94139,811.9048,0.0,726.4835,-0.236083984375,0.02069091796875,0.9644775390625,1.996307373046875,-3.170166015625,1.79443359375,1.0,4.0,4.0,1.0,4.0,100.0,event
11:14:24.285,0.0,0.0,0.76783377,0.0,0.0,0.0,-0.20624216,0.0,0.0,0.0,0.5275236,0.0,0.0,0.0,0.847471,0.0,0.0,0.0,0.3856149,0.0,22.967033,0.0,805.8608,0.0,832.8571,-0.236083984375,0.02069091796875,0.9644775390625,1.996307373046875,-3.170166015625,1.79443359375,1.0,4.0,4.0,1.0,4.0,100.0,event
11:14:24.286,0.0,0.0,0.76783377,0.0,0.0,0.0,-0.20624216,0.0,0.0,0.0,0.5275236,0.0,0.0,0.0,0.847471,0.0,0.0,0.0,0.3856149,0.0,0.0,192.60074,818.7546,0.0,761.9414,-0.236083984375,0.02069091796875,0.9644775390625,1.996307373046875,-3.170166015625,1.79443359375,1.0,4.0,4.0,1.0,4.0,100.0,event
11:14:24.287,0.0,0.0,0.76783377,0.0,0.0,0.0,-0.20624216,0.0,0.0,0.0,0.5275236,0.0,0.0,0.0,0.847471,0.0,0.0,0.0,0.3856149,0.0,0.0,709.5604,826.4103,0.0,554.83514,-0.236083984375,0.02069091796875,0.9644775390625,1.996307373046875,-3.170166015625,1.79443359375,1.0,4.0,4.0,1.0,4.0,100.0,event
11:14:24.287,0.0,0.0,0.76783377,0.0,0.0,0.0,-0.20624216,0.0,0.0,0.0,0.5275236,0.0,0.0,0.0,0.847471,0.0,0.0,0.0,0.3856149,0.0,0.0,647.9121,801.4286,0.0,604.7985,-0.236083984375,0.02069091796875,0.9644775390625,1.996307373046875,-3.170166015625,1.79443359375,1.0,4.0,4.0,1.0,4.0,100.0,event
11:14:24.288,0.0,0.0,0.76783377,0.0,0.0,0.0,-0.20624216,0.0,0.0,0.0,0.5275236,0.0,0.0,0.0,0.847471,0.0,0.0,0.0,0.3856149,0.0,3.2234433,124.50549,794.9817,4.029304,687.3993,-0.236083984375,0.02069091796875,0.9644775390625,1.996307373046875,-3.170166015625,1.79443359375,1.0,4.0,4.0,1.0,4.0,100.0,event
11:14:24.323,0.0,0.0,0.76783377,0.0,0.0,0.0,-0.20624216,0.0,0.0,0.0,0.5275236,0.0,0.0,0.0,0.847471,0.0,0.0,0.0,0.3856149,0.0,4.835165,72.12454,814.7253,40.29304,635.0183,-0.21356201171875,0.02294921875,0.95196533203125,2.0037841796875,-3.013153076171875,-0.13458251953125,1.0,4.0,4.0,1.0,4.0,100.0,event
11:14:24.325,0.0,0.0,0.76783377,0.0,0.0,0.0,-0.20624216,0.0,0.0,0.0,0.5275236,0.0,0.0,0.0,0.847471,0.0,0.0,0.0,0.3856149,0.0,0.0,474.652,833.2601,0.0,587.0696,-0.21356201171875,0.02294921875,0.95196533203125,2.0037841796875,-3.013153076171875,-0.13458251953125,1.0,4.0,4.0,1.0,4.0,100.0,event
11:14:24.325,0.0,0.0,0.76783377,0.0,0.0,0.0,-0.20624216,0.0,0.0,0.0,0.5275236,0.0,0.0,0.0,0.847471,0.0,0.0,0.0,0.3856149,0.0,220.40292,680.54944,833.663,620.5128,659.19415,-0.21356201171875,0.02294921875,0.95196533203125,2.0037841796875,-3.013153076171875,-0.13458251953125,1.0,4.0,4.0,1.0,4.0,100.0,event
11:14:24.326,0.0,0.0,0.76783377,0.0,0.0,0.0,-0.20624216,0.0,0.0,0.0,0.5275236,0.0,0.0,0.0,0.847471,0.0,0.0,0.0,0.3856149,0.0,211.94139,336.84982,825.6044,118.05861,859.85345,-0.21356201171875,0.02294921875,0.95196533203125,2.0037841796875,-3.013153076171875,-0.13458251953125,1.0,4.0,4.0,1.0,4.0,100.0,event
11:14:24.327,0.0,0.0,0.76783377,0.0,0.0,0.0,-0.20624216,0.0,0.0,0.0,0.5275236,0.0,0.0,0.0,0.847471,0.0,0.0,0.0,0.3856149,0.0,6.0439563,365.4579,831.6484,1311.1355,822.381,-0.21356201171875,0.02294921875,0.95196533203125,2.0037841796875,-3.013153076171875,-0.13458251953125,1.0,4.0,4.0,1.0,4.0,100.0,event
11:14:24.327,0.0,0.0,0.76783377,0.0,0.0,0.0,-0.20624216,0.0,0.0,0.0,0.5275236,0.0,0.0,0.0,0.847471,0.0,0.0,0.0,0.3856149,0.0,0.0,358.60806,835.2747,347.72894,725.6777,-0.21356201171875,0.02294921875,0.95196533203125,2.0037841796875,-3.013153076171875,-0.13458251953125,1.0,4.0,4.0,1.0,4.0,100.0,event
11:14:24.328,0.0,0.0,0.76783377,0.0,0.0,0.0,-0.20624216,0.0,0.0,0.0,0.5275236,0.0,0.0,0.0,0.847471,0.0,0.0,0.0,0.3856149,0.0,43.516483,242.5641,834.87177,1277.2894,823.1868,-0.21356201171875,0.02294921875,0.95196533203125,2.0037841796875,-3.013153076171875,-0.13458251953125,1.0,4.0,4.0,1.0,4.0,100.0,event
11:14:24.329,0.0,0.0,0.76783377,0.0,0.0,0.0,-0.20624216,0.0,0.0,0.0,0.5275236,0.0,0.0,0.0,0.847471,0.0,0.0,0.0,0.3856149,0.0,1125.3846,105.16483,828.8278,117.65568,1064.5421,-0.21356201171875,0.02294921875,0.95196533203125,2.0037841796875,-3.013153076171875,-0.13458251953125,1.0,4.0,4.0,1.0,4.0,100.0,event
11:14:24.330,0.0,0.0,0.76783377,0.0,0.0,0.0,-0.20624216,0.0,0.0,0.0,0.5275236,0.0,0.0,0.0,0.847471,0.0,0.0,0.0,0.3856149,0.0,43.113552,609.6337,843.73627,1558.1318,965.42126,-0.21356201171875,0.02294921875,0.95196533203125,2.0037841796875,-3.013153076171875,-0.13458251953125,1.0,4.0,4.0,1.0,4.0,100.0,event
11:14:24.331,0.0,0.0,0.76783377,0.0,0.0,0.0,-0.20624216,0.0,0.0,0.0,0.5275236,0.0,0.0,0.0,0.847471,0.0,0.0,0.0,0.3856149,0.0,585.8608,858.24176,838.9011,1641.9414,865.4945,-0.21356201171875,0.02294921875,0.95196533203125,2.0037841796875,-3.013153076171875,-0.13458251953125,1.0,4.0,4.0,1.0,4.0,100.0,event
11:14:24.331,0.0,0.0,0.76783377,0.0,0.0,0.0,-0.20624216,0.0,0.0,0.0,0.5275236,0.0,0.0,0.0,0.847471,0.0,0.0,0.0,0.3856149,0.0,0.0,471.8315,811.9048,1628.2417,903.7729,-0.21356201171875,0.02294921875,0.95196533203125,2.0037841796875,-3.013153076171875,-0.13458251953125,1.0,4.0,4.0,1.0,4.0,100.0,event
11:14:24.332,0.0,0.0,0.76783377,0.0,0.0,0.0,-0.20624216,0.0,0.0,0.0,0.5275236,0.0,0.0,0.0,0.847471,0.0,0.0,0.0,0.3856149,0.0,367.0696,616.4835,830.84247,1641.5385,852.1978,-0.21356201171875,0.02294921875,0.95196533203125,2.0037841796875,-3.013153076171875,-0.13458251953125,1.0,4.0,4.0,1.0,4.0,100.0,event
11:14:24.367,0.0,0.0,0.76783377,0.0,0.0,0.0,-0.20624216,0.0,0.0,0.0,0.5275236,0.0,0.0,0.0,0.847471,0.0,0.0,0.0,0.3856149,0.0,1488.8279,1034.7252,846.9597,1572.6373,834.4689,-0.21356201171875,0.02294921875,0.95196533203125,2.0037841796875,-3.013153076171875,-0.13458251953125,1.0,4.0,4.0,1.0,4.0,100.0,event
11:14:24.368,0.0,0.0,0.76783377,0.0,0.0,0.0,-0.20624216,0.0,0.0,0.0,0.5275236,0.0,0.0,0.0,0.847471,0.0,0.0,0.0,0.3856149,0.0,1626.227,1070.1831,840.10986,52.783882,869.92676,-0.21356201171875,0.02294921875,0.95196533203125,2.0037841796875,-3.013153076171875,-0.13458251953125,1.0,4.0,4.0,1.0,4.0,100.0,event
11:14:24.369,0.0,0.0,0.76783377,0.0,0.0,0.0,-0.20624216,0.0,0.0,0.0,0.5275236,0.0,0.0,0.0,0.847471,0.0,0.0,0.0,0.3856149,0.0,374.32236,546.3736,844.1392,1397.3627,865.09155,-0.21356201171875,0.02294921875,0.95196533203125,2.0037841796875,-3.013153076171875,-0.13458251953125,1.0,4.0,4.0,1.0,4.0,100.0,event
11:14:24.372,0.0,0.0,0.76783377,0.0,0.0,0.0,-0.20624216,0.0,0.0,0.0,0.5275236,0.0,0.0,0.0,0.847471,0.0,0.0,0.0,0.3856149,0.0,0.0,221.20879,843.73627,191.79488,799.011,-0.21356201171875,0.02294921875,0.95196533203125,2.0037841796875,-3.013153076171875,-0.13458251953125,1.0,4.0,4.0,1.0,4.0,100.0,event
11:14:24.376,0.0,0.0,0.76783377,0.0,0.0,0.0,-0.20624216,0.0,0.0,0.0,0.5275236,0.0,0.0,0.0,0.847471,0.0,0.0,0.0,0.3856149,0.0,0.0,446.04395,826.0073,0.0,777.25275,-0.21356201171875,0.02294921875,0.95196533203125,2.0037841796875,-3.013153076171875,-0.13458251953125,1.0,4.0,4.0,1.0,4.0,100.0,event
11:14:24.377,0.0,0.0,0.76783377,0.0,0.0,0.0,-0.20624216,0.0,0.0,0.0,0.5275236,0.0,0.0,0.0,0.847471,0.0,0.0,0.0,0.3856149,0.0,435.9707,642.27106,823.1868,53.589745,761.13556,-0.21356201171875,0.02294921875,0.95196533203125,2.0037841796875,-3.013153076171875,-0.13458251953125,1.0,4.0,4.0,1.0,4.0,100.0,event
11:14:24.378,0.0,0.0,0.76783377,0.0,0.0,0.0,-0.20624216,0.0,0.0,0.0,0.5275236,0.0,0.0,0.0,0.847471,0.0,0.0,0.0,0.3856149,0.0,987.1795,313.07693,804.65204,0.0,975.89746,-0.21356201171875,0.02294921875,0.95196533203125,2.0037841796875,-3.013153076171875,-0.13458251953125,1.0,4.0,4.0,1.0,4.0,100.0,event
11:14:24.379,0.0,0.0,0.76783377,0.0,0.0,0.0,-0.20624216,0.0,0.0,0.0,0.5275236,0.0,0.0,0.0,0.847471,0.0,0.0,0.0,0.3856149,0.0,181.72162,0.0,821.5751,0.0,1055.6776,-0.21356201171875,0.02294921875,0.95196533203125,2.0037841796875,-3.013153076171875,-0.13458251953125,1.0,4.0,4.0,1.0,4.0,100.0,event
11:14:24.380,0.0,0.0,0.76783377,0.0,0.0,0.0,-0.20624216,0.0,0.0,0.0,0.5275236,0.0,0.0,0.0,0.847471,0.0,0.0,0.0,0.3856149,0.0,0.0,315.89743,845.7509,0.0,679.7436,-0.21356201171875,0.02294921875,0.95196533203125,2.0037841796875,-3.013153076171875,-0.13458251953125,1.0,4.0,4.0,1.0,4.0,100.0,event
11:14:24.381,0.0,0.0,0.76783377,0.0,0.0,0.0,-0.20624216,0.0,0.0,0.0,0.5275236,0.0,0.0,0.0,0.847471,0.0,0.0,0.0,0.3856149,0.0,0.0,573.36993,831.2454,0.0,511.72162,-0.21356201171875,0.02294921875,0.95196533203125,2.0037841796875,-3.013153076171875,-0.13458251953125,1.0,4.0,4.0,1.0,4.0,100.0,event
11:14:24.382,0.0,0.0,0.76783377,0.0,0.0,0.0,-0.20624216,0.0,0.0,0.0,0.5275236,0.0,0.0,0.0,0.847471,0.0,0.0,0.0,0.3856149,0.0,360.2198,626.9597,828.4249,0.0,602.381,-0.21356201171875,0.02294921875,0.95196533203125,2.0037841796875,-3.013153076171875,-0.13458251953125,1.0,4.0,4.0,1.0,4.0,100.0,event
11:14:24.383,0.0,0.0,0.76783377,0.0,0.0,0.0,-0.20624216,0.0,0.0,0.0,0.5275236,0.0,0.0,0.0,0.847471,0.0,0.0,0.0,0.3856149,0.0,1481.5751,919.4872,828.022,0.0,595.9341,-0.21356201171875,0.02294921875,0.95196533203125,2.0037841796875,-3.013153076171875,-0.13458251953125,1.0,4.0,4.0,1.0,4.0,100.0,event
11:14:24.434,0.0,0.0,0.76783377,0.0,0.0,0.0,-0.20624216,0.0,0.0,0.0,0.5275236,0.0,0.0,0.0,0.847471,0.0,0.0,0.0,0.3856149,0.0,826.8132,910.2198,826.0073,0.0,564.10254,-0.229248046875,0.02459716796875,0.97503662109375,2.026214599609375,-4.448699951171875,0.485992431640625,1.0,4.0,4.0,1.0,4.0,100.0,event
11:14:24.435,0.0,0.0,0.76783377,0.0,0.0,0.0,-0.20624216,0.0,0.0,0.0,0.5275236,0.0,0.0,0.0,0.847471,0.0,0.0,0.0,0.3856149,0.0,0.0,524.21246,822.381,0.0,549.19415,-0.229248046875,0.02459716796875,0.97503662109375,2.026214599609375,-4.448699951171875,0.485992431640625,1.0,4.0,4.0,1.0,4.0,100.0,event
11:14:24.436,0.0,0.0,0.76783377,0.0,0.0,0.0,-0.20624216,0.0,0.0,0.0,0.5275236,0.0,0.0,0.0,0.847471,0.0,0.0,0.0,0.3856149,0.0,151.50183,466.99634,823.9927,0.0,568.1319,-0.229248046875,0.02459716796875,0.97503662109375,2.026214599609375,-4.448699951171875,0.485992431640625,1.0,4.0,4.0,1.0,4.0,100.0,event
11:14:24.437,0.0,0.0,0.76783377,0.0,0.0,0.0,-0.20624216,0.0,0.0,0.0,0.5275236,0.0,0.0,0.0,0.847471,0.0,0.0,0.0,0.3856149,0.0,103.150185,1209.597,820.7692,0.0,649.92676,-0.229248046875,0.02459716796875,0.97503662109375,2.026214599609375,-4.448699951171875,0.485992431640625,1.0,4.0,4.0,1.0,4.0,100.0,event
11:14:24.437,0.0,0.0,0.76783377,0.0,0.0,0.0,-0.20624216,0.0,0.0,0.0,0.5275236,0.0,0.0,0.0,0.847471,0.0,0.0,0.0,0.3856149,0.0,1272.8572,915.05493,824.3956,0.0,599.15753,-0.229248046875,0.02459716796875,0.97503662109375,2.026214599609375,-4.448699951171875,0.485992431640625,1.0,4.0,4.0,1.0,4.0,100.0,event
11:14:24.438,0.0,0.0,0.76783377,0.0,0.0,0.0,-0.20624216,0.0,0.0,0.0,0.5275236,0.0,0.0,0.0,0.847471,0.0,0.0,0.0,0.3856149,0.0,1529.9268,791.75824,813.5165,0.0,809.4872,-0.229248046875,0.02459716796875,0.97503662109375,2.026214599609375,-4.448699951171875,0.485992431640625,1.0,4.0,4.0,1.0,4.0,100.0,event
11:14:24.439,0.0,0.0,0.76783377,0.0,0.0,0.0,-0.20624216,0.0,0.0,0.0,0.5275236,0.0,0.0,0.0,0.847471,0.0,0.0,0.0,0.3856149,0.0,1028.2784,125.71429,806.6667,50.76923,1021.02563,-0.229248046875,0.02459716796875,0.97503662109375,2.026214599609375,-4.448699951171875,0.485992431640625,1.0,4.0,4.0,1.0,4.0,100.0,event
11:14:24.439,0.0,0.0,0.76783377,0.0,0.0,0.0,-0.20624216,0.0,0.0,0.0,0.5275236,0.0,0.0,0.0,0.847471,0.0,0.0,0.0,0.3856149,0.0,1369.1575,411.79486,811.9048,0.0,915.8608,-0.229248046875,0.02459716796875,0.97503662109375,2.026214599609375,-4.448699951171875,0.485992431640625,1.0,4.0,4.0,1.0,4.0,100.0,event
11:14:24.440,0.0,0.0,0.76783377,0.0,0.0,0.0,-0.20624216,0.0,0.0,0.0,0.5275236,0.0,0.0,0.0,0.847471,0.0,0.0,0.0,0.3856149,0.0,17.326008,1120.9524,830.0366,138.20512,707.9487,-0.229248046875,0.02459716796875,0.97503662109375,2.026214599609375,-4.448699951171875,0.485992431640625,1.0,4.0,4.0,1.0,4.0,100.0,event
11:14:24.441,0.0,0.0,0.76783377,0.0,0.0,0.0,-0.20624216,0.0,0.0,0.0,0.5275236,0.0,0.0,0.0,0.847471,0.0,0.0,0.0,0.3856149,0.0,1635.0916,1091.5385,810.696,1348.608,796.5934,-0.229248046875,0.02459716796875,0.97503662109375,2.026214599609375,-4.448699951171875,0.485992431640625,1.0,4.0,4.0,1.0,4.0,100.0,event
