TimeStamp,Delta_TP9,Delta_AF7,Delta_AF8,Delta_TP10,Theta_TP9,Theta_AF7,Theta_AF8,Theta_TP10,Alpha_TP9,Alpha_AF7,Alpha_AF8,Alpha_TP10,Beta_TP9,Beta_AF7,Beta_AF8,Beta_TP10,Gamma_TP9,Gamma_AF7,Gamma_AF8,Gamma_TP10,RAW_TP9,RAW_AF7,RAW_AF8,RAW_TP10,AUX_RIGHT,Accelerometer_X,Accelerometer_Y,Accelerometer_Z,Gyro_X,Gyro_Y,Gyro_Z,HeadBandOn,HSI_TP9,HSI_AF7,HSI_AF8,HSI_TP10,Battery,Elements
13:22:47.081,0.63838536,0.6887135,1.079652,0.83136237,0.87834895,-0.25241026,-0.14016181,0.9040983,0.95627725,0.018393148,-0.20984007,0.945451,0.87729096,0.2989442,-0.6006034,0.6179016,0.32219082,-0.13335586,-0.6853481,0.34181663,816.7399,950.5128,764.35895,817.9487,699.4872,-0.249267578125,0.1104736328125,0.94903564453125,2.67669677734375,-3.790740966796875,0.246734619140625,1.0,1.0,4.0,1.0,1.0,100.0,event
13:22:47.082,0.63838536,0.6887135,1.079652,0.83136237,0.87834895,-0.25241026,-0.14016181,0.9040983,0.95627725,0.018393148,-0.20984007,0.945451,0.87729096,0.2989442,-0.6006034,0.6179016,0.32219082,-0.13335586,-0.6853481,0.34181663,811.9048,712.7839,767.1795,830.84247,775.2381,-0.249267578125,0.1104736328125,0.94903564453125,2.67669677734375,-3.790740966796875,0.246734619140625,1.0,1.0,4.0,1.0,1.0,100.0,event
13:22:47.083,0.63838536,0.6887135,1.079652,0.83136237,0.87834895,-0.25241026,-0.14016181,0.9040983,0.95627725,0.018393148,-0.20984007,0.945451,0.87729096,0.2989442,-0.6006034,0.6179016,0.32219082,-0.13335586,-0.6853481,0.34181663,811.0989,933.1868,770.80585,824.7985,764.7619,-0.249267578125,0.1104736328125,0.94903564453125,2.67669677734375,-3.790740966796875,0.246734619140625,1.0,1.0,4.0,1.0,1.0,100.0,event
13:22:47.083,0.63838536,0.6887135,1.079652,0.83136237,0.87834895,-0.25241026,-0.14016181,0.9040983,0.95627725,0.018393148,-0.20984007,0.945451,0.87729096,0.2989442,-0.6006034,0.6179016,0.32219082,-0.13335586,-0.6853481,0.34181663,821.1722,792.96704,771.6117,834.87177,771.6117,-0.249267578125,0.1104736328125,0.94903564453125,2.67669677734375,-3.790740966796875,0.246734619140625,1.0,1.0,4.0,1.0,1.0,100.0,event
13:22:47.084,0.63838536,0.6887135,1.079652,0.83136237,0.87834895,-0.25241026,-0.14016181,0.9040983,0.95627725,0.018393148,-0.20984007,0.945451,0.87729096,0.2989442,-0.6006034,0.6179016,0.32219082,-0.13335586,-0.6853481,0.34181663,803.8461,751.8681,771.6117,826.0073,860.65936,-0.249267578125,0.1104736328125,0.94903564453125,2.67669677734375,-3.790740966796875,0.246734619140625,1.0,1.0,4.0,1.0,1.0,100.0,event
13:22:47.085,0.63838536,0.6887135,1.079652,0.83136237,0.87834895,-0.25241026,-0.14016181,0.9040983,0.95627725,0.018393148,-0.20984007,0.945451,0.87729096,0.2989442,-0.6006034,0.6179016,0.32219082,-0.13335586,-0.6853481,0.34181663,805.4579,298.57144,771.6117,824.3956,989.59705,-0.249267578125,0.1104736328125,0.94903564453125,2.67669677734375,-3.790740966796875,0.246734619140625,1.0,1.0,4.0,1.0,1.0,100.0,event
13:22:47.085,0.63838536,0.6887135,1.079652,0.83136237,0.87834895,-0.25241026,-0.14016181,0.9040983,0.95627725,0.018393148,-0.20984007,0.945451,0.87729096,0.2989442,-0.6006034,0.6179016,0.32219082,-0.13335586,-0.6853481,0.34181663,828.022,322.74725,774.0293,829.6337,914.65204,-0.249267578125,0.1104736328125,0.94903564453125,2.67669677734375,-3.790740966796875,0.246734619140625,1.0,1.0,4.0,1.0,1.0,100.0,event
13:22:47.086,0.63838536,0.6887135,1.079652,0.83136237,0.87834895,-0.25241026,-0.14016181,0.9040983,0.95627725,0.018393148,-0.20984007,0.945451,0.87729096,0.2989442,-0.6006034,0.6179016,0.32219082,-0.13335586,-0.6853481,0.34181663,842.9304,714.3956,776.04395,837.28937,843.73627,-0.249267578125,0.1104736328125,0.94903564453125,2.67669677734375,-3.790740966796875,0.246734619140625,1.0,1.0,4.0,1.0,1.0,100.0,event
13:22:47.087,0.63838536,0.6887135,1.079652,0.83136237,0.87834895,-0.25241026,-0.14016181,0.9040983,0.95627725,0.018393148,-0.20984007,0.945451,0.87729096,0.2989442,-0.6006034,0.6179016,0.32219082,-0.13335586,-0.6853481,0.34181663,841.7216,800.2198,778.46155,835.6777,814.7253,-0.249267578125,0.1104736328125,0.94903564453125,2.67669677734375,-3.790740966796875,0.246734619140625,1.0,1.0,4.0,1.0,1.0,100.0,event
13:22:47.087,0.63838536,0.6887135,1.079652,0.83136237,0.87834895,-0.25241026,-0.14016181,0.9040983,0.95627725,0.018393148,-0.20984007,0.945451,0.87729096,0.2989442,-0.6006034,0.6179016,0.32219082,-0.13335586,-0.6853481,0.34181663,818.3516,260.29303,784.5055,830.84247,984.35895,-0.249267578125,0.1104736328125,0.94903564453125,2.67669677734375,-3.790740966796875,0.246734619140625,1.0,1.0,4.0,1.0,1.0,100.0,event
13:22:47.088,0.63838536,0.6887135,1.079652,0.83136237,0.87834895,-0.25241026,-0.14016181,0.9040983,0.95627725,0.018393148,-0.20984007,0.945451,0.87729096,0.2989442,-0.6006034,0.6179016,0.32219082,-0.13335586,-0.6853481,0.34181663,802.23444,417.43588,782.0879,820.3663,897.326,-0.249267578125,0.1104736328125,0.94903564453125,2.67669677734375,-3.790740966796875,0.246734619140625,1.0,1.0,4.0,1.0,1.0,100.0,event
13:22:47.089,0.63838536,0.6887135,1.079652,0.83136237,0.87834895,-0.25241026,-0.14016181,0.9040983,0.95627725,0.018393148,-0.20984007,0.945451,0.87729096,0.2989442,-0.6006034,0.6179016,0.32219082,-0.13335586,-0.6853481,0.34181663,808.2784,1041.5751,778.46155,824.3956,707.5458,-0.249267578125,0.1104736328125,0.94903564453125,2.67669677734375,-3.790740966796875,0.246734619140625,1.0,1.0,4.0,1.0,1.0,100.0,event
13:22:47.112,0.63838536,0.6887135,1.079652,0.83136237,0.87834895,-0.25241026,-0.14016181,0.9040983,0.95627725,0.018393148,-0.20984007,0.945451,0.87729096,0.2989442,-0.6006034,0.6179016,0.32219082,-0.13335586,-0.6853481,0.34181663,823.9927,977.50916,780.87915,837.28937,789.34064,-0.25164794921875,0.10931396484375,0.95965576171875,2.235565185546875,-4.583282470703125,0.605621337890625,1.0,1.0,4.0,1.0,1.0,100.0,event
13:22:47.114,0.63838536,0.6887135,1.079652,0.83136237,0.87834895,-0.25241026,-0.14016181,0.9040983,0.95627725,0.018393148,-0.20984007,0.945451,0.87729096,0.2989442,-0.6006034,0.6179016,0.32219082,-0.13335586,-0.6853481,0.34181663,824.3956,840.9158,778.46155,826.0073,689.81683,-0.25164794921875,0.10931396484375,0.95965576171875,2.235565185546875,-4.583282470703125,0.605621337890625,1.0,1.0,4.0,1.0,1.0,100.0,event
13:22:47.114,0.63838536,0.6887135,1.079652,0.83136237,0.87834895,-0.25241026,-0.14016181,0.9040983,0.95627725,0.018393148,-0.20984007,0.945451,0.87729096,0.2989442,-0.6006034,0.6179016,0.32219082,-0.13335586,-0.6853481,0.34181663,821.1722,767.5824,781.685,829.2308,770.80585,-0.25164794921875,0.10931396484375,0.95965576171875,2.235565185546875,-4.583282470703125,0.605621337890625,1.0,1.0,4.0,1.0,1.0,100.0,event
13:22:47.115,0.63838536,0.6887135,1.079652,0.83136237,0.87834895,-0.25241026,-0.14016181,0.9040983,0.95627725,0.018393148,-0.20984007,0.945451,0.87729096,0.2989442,-0.6006034,0.6179016,0.32219082,-0.13335586,-0.6853481,0.34181663,823.9927,1017.3993,772.8205,822.381,715.6044,-0.25164794921875,0.10931396484375,0.95965576171875,2.235565185546875,-4.583282470703125,0.605621337890625,1.0,1.0,4.0,1.0,1.0,100.0,event
13:22:47.116,0.63838536,0.6887135,1.079652,0.83136237,0.87834895,-0.25241026,-0.14016181,0.9040983,0.95627725,0.018393148,-0.20984007,0.945451,0.87729096,0.2989442,-0.6006034,0.6179016,0.32219082,-0.13335586,-0.6853481,0.34181663,818.3516,874.35895,777.25275,821.1722,767.1795,-0.25164794921875,0.10931396484375,0.95965576171875,2.235565185546875,-4.583282470703125,0.605621337890625,1.0,1.0,4.0,1.0,1.0,100.0,event
13:22:47.117,0.63838536,0.6887135,1.079652,0.83136237,0.87834895,-0.25241026,-0.14016181,0.9040983,0.95627725,0.018393148,-0.20984007,0.945451,0.87729096,0.2989442,-0.6006034,0.6179016,0.32219082,-0.13335586,-0.6853481,0.34181663,814.3223,610.84247,780.07324,825.6044,852.6007,-0.25164794921875,0.10931396484375,0.95965576171875,2.235565185546875,-4.583282470703125,0.605621337890625,1.0,1.0,4.0,1.0,1.0,100.0,event
13:22:47.117,0.63838536,0.6887135,1.079652,0.83136237,0.87834895,-0.25241026,-0.14016181,0.9040983,0.95627725,0.018393148,-0.20984007,0.945451,0.87729096,0.2989442,-0.6006034,0.6179016,0.32219082,-0.13335586,-0.6853481,0.34181663,801.02563,599.15753,780.4762,821.978,888.0586,-0.25164794921875,0.10931396484375,0.95965576171875,2.235565185546875,-4.583282470703125,0.605621337890625,1.0,1.0,4.0,1.0,1.0,100.0,event
13:22:47.118,0.63838536,0.6887135,1.079652,0.83136237,0.87834895,-0.25241026,-0.14016181,0.9040983,0.95627725,0.018393148,-0.20984007,0.945451,0.87729096,0.2989442,-0.6006034,0.6179016,0.32219082,-0.13335586,-0.6853481,0.34181663,794.17584,737.3626,782.8938,811.50183,805.05493,-0.25164794921875,0.10931396484375,0.95965576171875,2.235565185546875,-4.583282470703125,0.605621337890625,1.0,1.0,4.0,1.0,1.0,100.0,event
13:22:47.119,0.63838536,0.6887135,1.079652,0.83136237,0.87834895,-0.25241026,-0.14016181,0.9040983,0.95627725,0.018393148,-0.20984007,0.945451,0.87729096,0.2989442,-0.6006034,0.6179016,0.32219082,-0.13335586,-0.6853481,0.34181663,801.4286,525.0183,782.0879,813.1135,836.08057,-0.25164794921875,0.10931396484375,0.95965576171875,2.235565185546875,-4.583282470703125,0.605621337890625,1.0,1.0,4.0,1.0,1.0,100.0,event
13:22:47.120,0.63838536,0.6887135,1.1266879,0.83136237,0.87834895,-0.25241026,-0.10482307,0.9040983,0.95627725,0.018393148,-0.20802186,0.945451,0.87729096,0.2989442,-0.5937066,0.6179016,0.32219082,-0.13335586,-0.6642407,0.34181663,802.6374,203.07692,782.49084,817.1429,892.49084,-0.25164794921875,0.10931396484375,0.95965576171875,2.235565185546875,-4.583282470703125,0.605621337890625,1.0,1.0,4.0,1.0,1.0,100.0,event
13:22:47.125,0.63838536,0.6887135,1.1266879,0.83136237,0.87834895,-0.25241026,-0.10482307,0.9040983,0.95627725,0.018393148,-0.20802186,0.945451,0.87729096,0.2989442,-0.5937066,0.6179016,0.32219082,-0.13335586,-0.6642407,0.34181663,797.8022,759.92676,784.10254,813.91943,736.1539,-0.25164794921875,0.10931396484375,0.95965576171875,2.235565185546875,-4.583282470703125,0.605621337890625,1.0,1.0,4.0,1.0,1.0,100.0,event
13:22:47.126,0.63838536,0.6887135,1.1266879,0.83136237,0.87834895,-0.25241026,-0.10482307,0.9040983,0.95627725,0.018393148,-0.20802186,0.945451,0.87729096,0.2989442,-0.5937066,0.6179016,0.32219082,-0.13335586,-0.6642407,0.34181663,809.4872,1060.5128,784.90845,812.3077,695.8608,-0.25164794921875,0.10931396484375,0.95965576171875,2.235565185546875,-4.583282470703125,0.605621337890625,1.0,1.0,4.0,1.0,1.0,100.0,event
13:22:47.149,0.63838536,0.6887135,1.1266879,0.83136237,0.87834895,-0.25241026,-0.10482307,0.9040983,0.95627725,0.018393148,-0.20802186,0.945451,0.87729096,0.2989442,-0.5937066,0.6179016,0.32219082,-0.13335586,-0.6642407,0.34181663,799.41394,560.4762,786.9231,816.7399,829.6337,-0.23858642578125,0.1058349609375,0.95361328125,2.026214599609375,-3.147735595703125,0.0897216796875,1.0,1.0,4.0,1.0,1.0,100.0,event
13:22:47.151,0.63838536,0.6887135,1.1266879,0.83136237,0.87834895,-0.25241026,-0.10482307,0.9040983,0.95627725,0.018393148,-0.20802186,0.945451,0.87729096,0.2989442,-0.5937066,0.6179016,0.32219082,-0.13335586,-0.6642407,0.34181663,788.1319,531.4652,790.9524,818.7546,850.989,-0.23858642578125,0.1058349609375,0.95361328125,2.026214599609375,-3.147735595703125,0.0897216796875,1.0,1.0,4.0,1.0,1.0,100.0,event
13:22:47.152,0.63838536,0.6887135,1.1266879,0.83136237,0.87834895,-0.25241026,-0.10482307,0.9040983,0.95627725,0.018393148,-0.20802186,0.945451,0.87729096,0.2989442,-0.5937066,0.6179016,0.32219082,-0.13335586,-0.6642407,0.34181663,807.8755,1011.75824,792.1612,816.337,718.022,-0.23858642578125,0.1058349609375,0.95361328125,2.026214599609375,-3.147735595703125,0.0897216796875,1.0,1.0,4.0,1.0,1.0,100.0,event
13:22:47.152,0.63838536,0.6887135,1.1266879,0.83136237,0.87834895,-0.25241026,-0.10482307,0.9040983,0.95627725,0.018393148,-0.20802186,0.945451,0.87729096,0.2989442,-0.5937066,0.6179016,0.32219082,-0.13335586,-0.6642407,0.34181663,826.8132,1000.87915,792.96704,812.3077,679.34064,-0.23858642578125,0.1058349609375,0.95361328125,2.026214599609375,-3.147735595703125,0.0897216796875,1.0,1.0,4.0,1.0,1.0,100.0,event
13:22:47.153,0.63838536,0.6887135,1.1266879,0.83136237,0.87834895,-0.25241026,-0.10482307,0.9040983,0.95627725,0.018393148,-0.20802186,0.945451,0.87729096,0.2989442,-0.5937066,0.6179016,0.32219082,-0.13335586,-0.6642407,0.34181663,818.7546,684.17584,792.5641,802.6374,728.9011,-0.23858642578125,0.1058349609375,0.95361328125,2.026214599609375,-3.147735595703125,0.0897216796875,1.0,1.0,4.0,1.0,1.0,100.0,event
13:22:47.154,0.63838536,0.6887135,1.1266879,0.83136237,0.87834895,-0.25241026,-0.10482307,0.9040983,0.95627725,0.018393148,-0.20802186,0.945451,0.87729096,0.2989442,-0.5937066,0.6179016,0.32219082,-0.13335586,-0.6642407,0.34181663,800.6227,568.1319,790.9524,799.81683,761.53845,-0.23858642578125,0.1058349609375,0.95361328125,2.026214599609375,-3.147735595703125,0.0897216796875,1.0,1.0,4.0,1.0,1.0,100.0,event
13:22:47.154,0.63838536,0.6887135,1.1266879,0.83136237,0.87834895,-0.25241026,-0.10482307,0.9040983,0.95627725,0.018393148,-0.20802186,0.945451,0.87729096,0.2989442,-0.5937066,0.6179016,0.32219082,-0.13335586,-0.6642407,0.34181663,796.5934,674.10254,791.75824,795.38464,806.6667,-0.23858642578125,0.1058349609375,0.95361328125,2.026214599609375,-3.147735595703125,0.0897216796875,1.0,1.0,4.0,1.0,1.0,100.0,event
13:22:47.155,0.63838536,0.6887135,1.1266879,0.83136237,0.87834895,-0.25241026,-0.10482307,0.9040983,0.95627725,0.018393148,-0.20802186,0.945451,0.87729096,0.2989442,-0.5937066,0.6179016,0.32219082,-0.13335586,-0.6642407,0.34181663,811.0989,829.6337,790.9524,802.6374,794.17584,-0.23858642578125,0.1058349609375,0.95361328125,2.026214599609375,-3.147735595703125,0.0897216796875,1.0,1.0,4.0,1.0,1.0,100.0,event
13:22:47.155,0.63838536,0.6887135,1.1266879,0.83136237,0.87834895,-0.25241026,-0.10482307,0.9040983,0.95627725,0.018393148,-0.20802186,0.945451,0.87729096,0.2989442,-0.5937066,0.6179016,0.32219082,-0.13335586,-0.6642407,0.34181663,839.707,355.78754,793.36993,816.7399,940.0366,-0.23858642578125,0.1058349609375,0.95361328125,2.026214599609375,-3.147735595703125,0.0897216796875,1.0,1.0,4.0,1.0,1.0,100.0,event
13:22:47.156,0.63838536,0.6887135,1.1266879,0.83136237,0.87834895,-0.25241026,-0.10482307,0.9040983,0.95627725,0.018393148,-0.20802186,0.945451,0.87729096,0.2989442,-0.5937066,0.6179016,0.32219082,-0.13335586,-0.6642407,0.34181663,829.6337,385.6044,794.17584,808.68134,886.4469,-0.23858642578125,0.1058349609375,0.95361328125,2.026214599609375,-3.147735595703125,0.0897216796875,1.0,1.0,4.0,1.0,1.0,100.0,event
13:22:47.157,0.63838536,0.6887135,1.1266879,0.83136237,0.87834895,-0.25241026,-0.10482307,0.9040983,0.95627725,0.018393148,-0.20802186,0.945451,0.87729096,0.2989442,-0.5937066,0.6179016,0.32219082,-0.13335586,-0.6642407,0.34181663,802.23444,603.5897,793.7729,796.5934,697.8755,-0.23858642578125,0.1058349609375,0.95361328125,2.026214599609375,-3.147735595703125,0.0897216796875,1.0,1.0,4.0,1.0,1.0,100.0,event
13:22:47.157,0.63838536,0.6887135,1.1266879,0.83136237,0.87834895,-0.25241026,-0.10482307,0.9040983,0.95627725,0.018393148,-0.20802186,0.945451,0.87729096,0.2989442,-0.5937066,0.6179016,0.32219082,-0.13335586,-0.6642407,0.34181663,800.2198,827.2161,790.54944,799.011,662.4176,-0.23858642578125,0.1058349609375,0.95361328125,2.026214599609375,-3.147735595703125,0.0897216796875,1.0,1.0,4.0,1.0,1.0,100.0,event
13:22:47.183,0.63838536,0.6887135,1.1266879,0.83136237,0.87834895,-0.25241026,-0.10482307,0.9040983,0.95627725,0.018393148,-0.20802186,0.945451,0.87729096,0.2989442,-0.5937066,0.6179016,0.32219082,-0.13335586,-0.6642407,0.34181663,805.8608,505.27472,795.38464,800.6227,834.87177,-0.24725341796875,0.1063232421875,0.959228515625,2.340240478515625,-3.409423828125,-0.55328369140625,1.0,1.0,4.0,1.0,1.0,100.0,event
13:22:47.184,0.63838536,0.6887135,1.1266879,0.83136237,0.87834895,-0.25241026,-0.10482307,0.9040983,0.95627725,0.018393148,-0.20802186,0.945451,0.87729096,0.2989442,-0.5937066,0.6179016,0.32219082,-0.13335586,-0.6642407,0.34181663,809.4872,949.304,794.57874,810.696,811.50183,-0.24725341796875,0.1063232421875,0.959228515625,2.340240478515625,-3.409423828125,-0.55328369140625,1.0,1.0,4.0,1.0,1.0,100.0,event
13:22:47.185,0.63838536,0.6887135,1.1266879,0.83136237,0.87834895,-0.25241026,-0.10482307,0.9040983,0.95627725,0.018393148,-0.20802186,0.945451,0.87729096,0.2989442,-0.5937066,0.6179016,0.32219082,-0.13335586,-0.6642407,0.34181663,815.12823,1106.8499,794.17584,812.71063,759.92676,-0.24725341796875,0.1063232421875,0.959228515625,2.340240478515625,-3.409423828125,-0.55328369140625,1.0,1.0,4.0,1.0,1.0,100.0,event
13:22:47.185,0.63838536,0.6887135,1.1266879,0.83136237,0.87834895,-0.25241026,-0.10482307,0.9040983,0.95627725,0.018393148,-0.20802186,0.945451,0.87729096,0.2989442,-0.5937066,0.6179016,0.32219082,-0.13335586,-0.6642407,0.34181663,804.2491,859.0476,793.7729,805.05493,767.5824,-0.24725341796875,0.1063232421875,0.959228515625,2.340240478515625,-3.409423828125,-0.55328369140625,1.0,1.0,4.0,1.0,1.0,100.0,event
13:22:47.186,0.63838536,0.6887135,1.1266879,0.83136237,0.87834895,-0.25241026,-0.10482307,0.9040983,0.95627725,0.018393148,-0.20802186,0.945451,0.87729096,0.2989442,-0.5937066,0.6179016,0.32219082,-0.13335586,-0.6642407,0.34181663,796.99634,795.38464,797.8022,794.57874,738.5714,-0.24725341796875,0.1063232421875,0.959228515625,2.340240478515625,-3.409423828125,-0.55328369140625,1.0,1.0,4.0,1.0,1.0,100.0,event
13:22:47.187,0.63838536,0.6887135,1.1266879,0.83136237,0.87834895,-0.25241026,-0.10482307,0.9040983,0.95627725,0.018393148,-0.20802186,0.945451,0.87729096,0.2989442,-0.5937066,0.6179016,0.32219082,-0.13335586,-0.6642407,0.34181663,798.20514,761.9414,798.60803,793.7729,839.707,-0.24725341796875,0.1063232421875,0.959228515625,2.340240478515625,-3.409423828125,-0.55328369140625,1.0,1.0,4.0,1.0,1.0,100.0,event
13:22:47.188,0.63838536,0.6887135,1.1266879,0.83136237,0.87834895,-0.25241026,-0.10482307,0.9040983,0.95627725,0.018393148,-0.20802186,0.945451,0.87729096,0.2989442,-0.5937066,0.6179016,0.32219082,-0.13335586,-0.6642407,0.34181663,809.4872,619.304,796.5934,801.8315,844.1392,-0.24725341796875,0.1063232421875,0.959228515625,2.340240478515625,-3.409423828125,-0.55328369140625,1.0,1.0,4.0,1.0,1.0,100.0,event
13:22:47.188,0.63838536,0.6887135,1.1266879,0.83136237,0.87834895,-0.25241026,-0.10482307,0.9040983,0.95627725,0.018393148,-0.20802186,0.945451,0.87729096,0.2989442,-0.5937066,0.6179016,0.32219082,-0.13335586,-0.6642407,0.34181663,811.50183,779.67035,794.17584,803.0403,837.28937,-0.24725341796875,0.1063232421875,0.959228515625,2.340240478515625,-3.409423828125,-0.55328369140625,1.0,1.0,4.0,1.0,1.0,100.0,event
13:22:47.189,0.63838536,0.6887135,1.1266879,0.83136237,0.87834895,-0.25241026,-0.10482307,0.9040983,0.95627725,0.018393148,-0.20802186,0.945451,0.87729096,0.2989442,-0.5937066,0.6179016,0.32219082,-0.13335586,-0.6642407,0.34181663,791.75824,182.52747,796.99634,794.57874,1056.4835,-0.24725341796875,0.1063232421875,0.959228515625,2.340240478515625,-3.409423828125,-0.55328369140625,1.0,1.0,4.0,1.0,1.0,100.0,event
13:22:47.190,0.63838536,0.6887135,1.1266879,0.83136237,0.87834895,-0.25241026,-0.10482307,0.9040983,0.95627725,0.018393148,-0.20802186,0.945451,0.87729096,0.2989442,-0.5937066,0.6179016,0.32219082,-0.13335586,-0.6642407,0.34181663,798.20514,724.0659,791.75824,793.36993,845.7509,-0.24725341796875,0.1063232421875,0.959228515625,2.340240478515625,-3.409423828125,-0.55328369140625,1.0,1.0,4.0,1.0,1.0,100.0,event
13:22:47.191,0.63838536,0.6887135,1.1266879,0.83136237,0.87834895,-0.25241026,-0.10482307,0.9040983,0.95627725,0.018393148,-0.20802186,0.945451,0.87729096,0.2989442,-0.5937066,0.6179016,0.32219082,-0.13335586,-0.6642407,0.34181663,804.65204,1113.6996,794.17584,790.54944,701.0989,-0.24725341796875,0.1063232421875,0.959228515625,2.340240478515625,-3.409423828125,-0.55328369140625,1.0,1.0,4.0,1.0,1.0,100.0,event
13:22:47.191,0.63838536,0.6887135,1.1266879,0.83136237,0.87834895,-0.25241026,-0.10482307,0.9040983,0.95627725,0.018393148,-0.20802186,0.945451,0.87729096,0.2989442,-0.5937066,0.6179016,0.32219082,-0.13335586,-0.6642407,0.34181663,810.293,855.0183,793.7729,803.0403,817.9487,-0.24725341796875,0.1063232421875,0.959228515625,2.340240478515625,-3.409423828125,-0.55328369140625,1.0,1.0,4.0,1.0,1.0,100.0,event
13:22:47.236,0.63838536,0.6887135,1.1266879,0.83136237,0.87834895,-0.25241026,-0.10482307,0.9040983,0.95627725,0.018393148,-0.20802186,0.945451,0.87729096,0.2989442,-0.5937066,0.6179016,0.32219082,-0.13335586,-0.6642407,0.34181663,823.1868,941.2454,791.3553,814.3223,821.1722,-0.24114990234375,0.1065673828125,0.95184326171875,1.95892333984375,-2.75146484375,-0.321502685546875,1.0,1.0,4.0,1.0,1.0,100.0,event
13:22:47.237,0.63838536,0.6887135,1.1266879,0.83136237,0.87834895,-0.25241026,-0.10482307,0.9040983,0.95627725,0.018393148,-0.20802186,0.945451,0.87729096,0.2989442,-0.5937066,0.6179016,0.32219082,-0.13335586,-0.6642407,0.34181663,821.5751,951.7216,794.57874,809.4872,740.18317,-0.24114990234375,0.1065673828125,0.95184326171875,1.95892333984375,-2.75146484375,-0.321502685546875,1.0,1.0,4.0,1.0,1.0,100.0,event
13:22:47.238,0.63838536,0.6887135,1.1266879,0.83136237,0.87834895,-0.25241026,-0.10482307,0.9040983,0.95627725,0.018393148,-0.20802186,0.945451,0.87729096,0.2989442,-0.5937066,0.6179016,0.32219082,-0.13335586,-0.6642407,0.34181663,807.0696,731.31866,795.38464,799.81683,793.36993,-0.24114990234375,0.1065673828125,0.95184326171875,1.95892333984375,-2.75146484375,-0.321502685546875,1.0,1.0,4.0,1.0,1.0,100.0,event
13:22:47.239,0.63838536,0.6887135,1.1266879,0.83136237,0.87834895,-0.25241026,-0.10482307,0.9040983,0.95627725,0.018393148,-0.20802186,0.945451,0.87729096,0.2989442,-0.5937066,0.6179016,0.32219082,-0.13335586,-0.6642407,0.34181663,795.78754,538.71796,793.7729,779.67035,922.3077,-0.24114990234375,0.1065673828125,0.95184326171875,1.95892333984375,-2.75146484375,-0.321502685546875,1.0,1.0,4.0,1.0,1.0,100.0,event
13:22:47.240,0.63838536,0.6887135,1.1266879,0.83136237,0.87834895,-0.25241026,-0.10482307,0.9040983,0.95627725,0.018393148,-0.20802186,0.945451,0.87729096,0.2989442,-0.5937066,0.6179016,0.32219082,-0.13335586,-0.6642407,0.34181663,794.17584,744.21246,793.7729,792.1612,845.7509,-0.24114990234375,0.1065673828125,0.95184326171875,1.95892333984375,-2.75146484375,-0.321502685546875,1.0,1.0,4.0,1.0,1.0,100.0,event
13:22:47.241,0.63838536,0.6887135,1.1266879,0.83136237,0.87834895,-0.25241026,-0.10482307,0.9040983,0.95627725,0.018393148,-0.20802186,0.945451,0.87729096,0.2989442,-0.5937066,0.6179016,0.32219082,-0.13335586,-0.6642407,0.34181663,813.1135,638.24176,794.9817,807.8755,869.5238,-0.24114990234375,0.1065673828125,0.95184326171875,1.95892333984375,-2.75146484375,-0.321502685546875,1.0,1.0,4.0,1.0,1.0,100.0,event
13:22:47.241,0.63838536,0.6887135,1.1266879,0.83136237,0.87834895,-0.25241026,-0.10482307,0.9040983,0.95627725,0.018393148,-0.20802186,0.945451,0.87729096,0.2989442,-0.5937066,0.6179016,0.32219082,-0.13335586,-0.6642407,0.34181663,813.1135,848.5714,792.96704,811.9048,832.0513,-0.24114990234375,0.1065673828125,0.95184326171875,1.95892333984375,-2.75146484375,-0.321502685546875,1.0,1.0,4.0,1.0,1.0,100.0,event
13:22:47.242,0.63838536,0.6887135,1.1266879,0.83136237,0.87834895,-0.25241026,-0.10482307,0.9040983,0.95627725,0.018393148,-0.20802186,0.945451,0.87729096,0.2989442,-0.5937066,0.6179016,0.32219082,-0.13335586,-0.6642407,0.34181663,792.96704,267.54578,796.1905,806.6667,990.0,-0.24114990234375,0.1065673828125,0.95184326171875,1.95892333984375,-2.75146484375,-0.321502685546875,1.0,1.0,4.0,1.0,1.0,100.0,event
13:22:47.243,0.63838536,0.6887135,1.1266879,0.83136237,0.87834895,-0.25241026,-0.10482307,0.9040983,0.95627725,0.018393148,-0.20802186,0.945451,0.87729096,0.2989442,-0.5937066,0.6179016,0.32219082,-0.13335586,-0.6642407,0.34181663,811.9048,1019.41394,801.4286,799.41394,648.315,-0.24114990234375,0.1065673828125,0.95184326171875,1.95892333984375,-2.75146484375,-0.321502685546875,1.0,1.0,4.0,1.0,1.0,100.0,event
13:22:47.243,0.63838536,0.6887135,1.1266879,0.83136237,0.87834895,-0.25241026,-0.10482307,0.9040983,0.95627725,0.018393148,-0.20802186,0.945451,0.87729096,0.2989442,-0.5937066,0.6179016,0.32219082,-0.13335586,-0.6642407,0.34181663,790.9524,416.63004,796.1905,797.3993,916.26373,-0.24114990234375,0.1065673828125,0.95184326171875,1.95892333984375,-2.75146484375,-0.321502685546875,1.0,1.0,4.0,1.0,1.0,100.0,event
13:22:47.244,0.63838536,0.6887135,1.1266879,0.83136237,0.87834895,-0.25241026,-0.10482307,0.9040983,0.95627725,0.018393148,-0.20802186,0.945451,0.87729096,0.2989442,-0.5937066,0.6179016,0.32219082,-0.13335586,-0.6642407,0.34181663,819.15753,953.3333,804.65204,801.8315,699.89014,-0.24114990234375,0.1065673828125,0.95184326171875,1.95892333984375,-2.75146484375,-0.321502685546875,1.0,1.0,4.0,1.0,1.0,100.0,event
13:22:47.245,0.63838536,0.6887135,1.1266879,0.83136237,0.87834895,-0.25241026,-0.10482307,0.9040983,0.95627725,0.018393148,-0.20802186,0.945451,0.87729096,0.2989442,-0.5937066,0.6179016,0.32219082,-0.13335586,-0.6642407,0.34181663,807.47253,671.28204,800.2198,795.38464,823.1868,-0.24114990234375,0.1065673828125,0.95184326171875,1.95892333984375,-2.75146484375,-0.321502685546875,1.0,1.0,4.0,1.0,1.0,100.0,event
13:22:47.333,0.63838536,0.6887135,1.1266879,0.83136237,0.87834895,-0.25241026,-0.10482307,0.9040983,0.95627725,0.018393148,-0.20802186,0.945451,0.87729096,0.2989442,-0.5937066,0.6179016,0.32219082,-0.13335586,-0.6642407,0.34181663,801.8315,857.8388,796.5934,801.4286,698.2784,-0.24114990234375,0.1065673828125,0.95184326171875,1.95892333984375,-2.75146484375,-0.321502685546875,1.0,1.0,4.0,1.0,1.0,100.0,event
13:22:47.335,0.63838536,0.6887135,1.1266879,0.83136237,0.87834895,-0.25241026,-0.10482307,0.9040983,0.95627725,0.018393148,-0.20802186,0.945451,0.87729096,0.2989442,-0.5937066,0.6179016,0.32219082,-0.13335586,-0.6642407,0.34181663,790.9524,1043.1868,790.9524,793.36993,651.53845,-0.24114990234375,0.1065673828125,0.95184326171875,1.95892333984375,-2.75146484375,-0.321502685546875,1.0,1.0,4.0,1.0,1.0,100.0,event
13:22:47.335,0.63838536,0.6887135,1.1266879,0.83136237,0.87834895,-0.25241026,-0.10482307,0.9040983,0.95627725,0.018393148,-0.20802186,0.945451,0.87729096,0.2989442,-0.5937066,0.6179016,0.32219082,-0.13335586,-0.6642407,0.34181663,795.38464,938.8278,788.5348,793.7729,734.94507,-0.24114990234375,0.1065673828125,0.95184326171875,1.95892333984375,-2.75146484375,-0.321502685546875,1.0,1.0,4.0,1.0,1.0,100.0,event
13:22:47.336,0.63838536,0.6887135,1.1266879,0.83136237,0.87834895,-0.25241026,-0.10482307,0.9040983,0.95627725,0.018393148,-0.20802186,0.945451,0.87729096,0.2989442,-0.5937066,0.6179016,0.32219082,-0.13335586,-0.6642407,0.34181663,819.15753,880.80585,790.54944,803.8461,779.2674,-0.24114990234375,0.1065673828125,0.95184326171875,1.95892333984375,-2.75146484375,-0.321502685546875,1.0,1.0,4.0,1.0,1.0,100.0,event
13:22:47.337,0.63838536,0.6887135,1.1266879,0.83136237,0.87834895,-0.25241026,-0.10482307,0.9040983,0.95627725,0.018393148,-0.20802186,0.945451,0.87729096,0.2989442,-0.5937066,0.6179016,0.32219082,-0.13335586,-0.6642407,0.34181663,821.1722,829.2308,792.96704,797.8022,759.92676,-0.24114990234375,0.1065673828125,0.95184326171875,1.95892333984375,-2.75146484375,-0.321502685546875,1.0,1.0,4.0,1.0,1.0,100.0,event
13:22:47.338,0.63838536,0.6887135,1.1266879,0.83136237,0.87834895,-0.25241026,-0.10482307,0.9040983,0.95627725,0.018393148,-0.20802186,0.945451,0.87729096,0.2989442,-0.5937066,0.6179016,0.32219082,-0.13335586,-0.6642407,0.34181663,791.75824,588.2784,791.75824,795.38464,901.3553,-0.24114990234375,0.1065673828125,0.95184326171875,1.95892333984375,-2.75146484375,-0.321502685546875,1.0,1.0,4.0,1.0,1.0,100.0,event
13:22:47.338,0.63838536,0.6887135,1.1266879,0.83136237,0.87834895,-0.25241026,-0.10482307,0.9040983,0.95627725,0.018393148,-0.20802186,0.945451,0.87729096,0.2989442,-0.5937066,0.6179016,0.32219082,-0.13335586,-0.6642407,0.34181663,805.05493,718.4249,794.17584,792.96704,782.0879,-0.24114990234375,0.1065673828125,0.95184326171875,1.95892333984375,-2.75146484375,-0.321502685546875,1.0,1.0,4.0,1.0,1.0,100.0,event
13:22:47.339,0.63838536,0.6887135,1.1266879,0.83136237,0.87834895,-0.25241026,-0.10482307,0.9040983,0.95627725,0.018393148,-0.20802186,0.945451,0.87729096,0.2989442,-0.5937066,0.6179016,0.32219082,-0.13335586,-0.6642407,0.34181663,794.57874,108.79121,789.7436,796.99634,1166.4835,-0.24114990234375,0.1065673828125,0.95184326171875,1.95892333984375,-2.75146484375,-0.321502685546875,1.0,1.0,4.0,1.0,1.0,100.0,event
13:22:47.340,0.63838536,0.6887135,1.1266879,0.83136237,0.87834895,-0.25241026,-0.10482307,0.9040983,0.95627725,0.018393148,-0.20802186,0.945451,0.87729096,0.2989442,-0.5937066,0.6179016,0.32219082,-0.13335586,-0.6642407,0.34181663,809.0842,489.96338,790.9524,802.23444,923.1135,-0.24114990234375,0.1065673828125,0.95184326171875,1.95892333984375,-2.75146484375,-0.321502685546875,1.0,1.0,4.0,1.0,1.0,100.0,event
13:22:47.341,0.63838536,0.6887135,1.1266879,0.83136237,0.87834895,-0.25241026,-0.10482307,0.9040983,0.95627725,0.018393148,-0.20802186,0.945451,0.87729096,0.2989442,-0.5937066,0.6179016,0.32219082,-0.13335586,-0.6642407,0.34181663,815.12823,963.4066,790.9524,807.47253,661.6117,-0.24114990234375,0.1065673828125,0.95184326171875,1.95892333984375,-2.75146484375,-0.321502685546875,1.0,1.0,4.0,1.0,1.0,100.0,event
13:22:47.342,0.63838536,0.6887135,1.1266879,0.83136237,0.87834895,-0.25241026,-0.10482307,0.9040983,0.95627725,0.018393148,-0.20802186,0.945451,0.87729096,0.2989442,-0.5937066,0.6179016,0.32219082,-0.13335586,-0.6642407,0.34181663,802.6374,757.1062,787.326,802.23444,755.09155,-0.24114990234375,0.1065673828125,0.95184326171875,1.95892333984375,-2.75146484375,-0.321502685546875,1.0,1.0,4.0,1.0,1.0,100.0,event
13:22:47.342,0.63838536,0.6887135,1.1266879,0.83136237,0.87834895,-0.25241026,-0.10482307,0.9040983,0.95627725,0.018393148,-0.20802186,0.945451,0.87729096,0.2989442,-0.5937066,0.6179016,0.32219082,-0.13335586,-0.6642407,0.34181663,802.23444,859.85345,786.1172,798.20514,761.53845,-0.24114990234375,0.1065673828125,0.95184326171875,1.95892333984375,-2.75146484375,-0.321502685546875,1.0,1.0,4.0,1.0,1.0,100.0,event
13:22:47.370,0.63838536,0.6887135,1.1266879,0.83136237,0.87834895,-0.25241026,-0.10482307,0.9040983,0.95627725,0.018393148,-0.20802186,0.945451,0.87729096,0.2989442,-0.5937066,0.6179016,0.32219082,-0.13335586,-0.6642407,0.34181663,816.337,1090.7325,783.69965,803.8461,720.4396,-0.2474365234375,0.10546875,0.95269775390625,2.011260986328125,-2.669219970703125,-0.52337646484375,1.0,1.0,4.0,1.0,1.0,100.0,event
13:22:47.371,0.63838536,0.6887135,1.1266879,0.83136237,0.87834895,-0.25241026,-0.10482307,0.9040983,0.95627725,0.018393148,-0.20802186,0.945451,0.87729096,0.2989442,-0.5937066,0.6179016,0.32219082,-0.13335586,-0.6642407,0.34181663,823.5897,1088.3151,786.1172,813.5165,794.17584,-0.2474365234375,0.10546875,0.95269775390625,2.011260986328125,-2.669219970703125,-0.52337646484375,1.0,1.0,4.0,1.0,1.0,100.0,event
13:22:47.377,0.63838536,0.6887135,1.1266879,0.83136237,0.87834895,-0.25241026,-0.10482307,0.9040983,0.95627725,0.018393148,-0.20802186,0.945451,0.87729096,0.2989442,-0.5937066,0.6179016,0.32219082,-0.13335586,-0.6642407,0.34181663,809.0842,835.2747,784.90845,795.38464,821.5751,-0.2474365234375,0.10546875,0.95269775390625,2.011260986328125,-2.669219970703125,-0.52337646484375,1.0,1.0,4.0,1.0,1.0,100.0,event
13:22:47.377,0.63838536,0.6887135,1.1266879,0.83136237,0.87834895,-0.25241026,-0.10482307,0.9040983,0.95627725,0.018393148,-0.20802186,0.945451,0.87729096,0.2989442,-0.5937066,0.6179016,0.32219082,-0.13335586,-0.6642407,0.34181663,820.7692,774.0293,786.52014,803.0403,882.4176,-0.2474365234375,0.10546875,0.95269775390625,2.011260986328125,-2.669219970703125,-0.52337646484375,1.0,1.0,4.0,1.0,1.0,100.0,event
13:22:47.378,0.63838536,0.6887135,1.1266879,0.83136237,0.87834895,-0.25241026,-0.10482307,0.9040983,0.95627725,0.018393148,-0.20802186,0.945451,0.87729096,0.2989442,-0.5937066,0.6179016,0.32219082,-0.13335586,-0.6642407,0.34181663,799.011,1035.5311,786.1172,801.02563,769.19415,-0.2474365234375,0.10546875,0.95269775390625,2.011260986328125,-2.669219970703125,-0.52337646484375,1.0,1.0,4.0,1.0,1.0,100.0,event
13:22:47.379,0.63838536,0.6887135,1.1266879,0.83136237,0.87834895,-0.25241026,-0.10482307,0.9040983,0.95627725,0.018393148,-0.20802186,0.945451,0.87729096,0.2989442,-0.5937066,0.6179016,0.32219082,-0.13335586,-0.6642407,0.34181663,807.0696,824.3956,785.7143,804.2491,897.72894,-0.2474365234375,0.10546875,0.95269775390625,2.011260986328125,-2.669219970703125,-0.52337646484375,1.0,1.0,4.0,1.0,1.0,100.0,event
13:22:47.380,0.63838536,0.6887135,1.1266879,0.83136237,0.87834895,-0.25241026,-0.10482307,0.9040983,0.95627725,0.018393148,-0.20802186,0.945451,0.87729096,0.2989442,-0.5937066,0.6179016,0.32219082,-0.13335586,-0.6642407,0.34181663,813.5165,300.989,788.5348,807.47253,1086.3004,-0.2474365234375,0.10546875,0.95269775390625,2.011260986328125,-2.669219970703125,-0.52337646484375,1.0,1.0,4.0,1.0,1.0,100.0,event
13:22:47.380,0.63838536,0.6887135,1.1266879,0.83136237,0.87834895,-0.25241026,-0.10482307,0.9040983,0.95627725,0.018393148,-0.20802186,0.945451,0.87729096,0.2989442,-0.5937066,0.6179016,0.32219082,-0.13335586,-0.6642407,0.34181663,809.4872,281.64835,788.5348,805.05493,953.73627,-0.2474365234375,0.10546875,0.95269775390625,2.011260986328125,-2.669219970703125,-0.52337646484375,1.0,1.0,4.0,1.0,1.0,100.0,event
13:22:47.381,0.63838536,0.6887135,1.1266879,0.83136237,0.87834895,-0.25241026,-0.10482307,0.9040983,0.95627725,0.018393148,-0.20802186,0.945451,0.87729096,0.2989442,-0.5937066,0.6179016,0.32219082,-0.13335586,-0.6642407,0.34181663,801.02563,748.6447,786.52014,803.0403,791.3553,-0.2474365234375,0.10546875,0.95269775390625,2.011260986328125,-2.669219970703125,-0.52337646484375,1.0,1.0,4.0,1.0,1.0,100.0,event
13:22:47.382,0.63838536,0.6887135,1.1266879,0.83136237,0.87834895,-0.25241026,-0.10482307,0.9040983,0.95627725,0.018393148,-0.20802186,0.945451,0.87729096,0.2989442,-0.5937066,0.6179016,0.32219082,-0.13335586,-0.6642407,0.34181663,797.8022,800.6227,786.1172,804.2491,757.9121,-0.2474365234375,0.10546875,0.95269775390625,2.011260986328125,-2.669219970703125,-0.52337646484375,1.0,1.0,4.0,1.0,1.0,100.0,event
13:22:47.382,0.63838536,0.6887135,1.1266879,0.83136237,0.87834895,-0.25241026,-0.10482307,0.9040983,0.95627725,0.018393148,-0.20802186,0.945451,0.87729096,0.2989442,-0.5937066,0.6179016,0.32219082,-0.13335586,-0.6642407,0.34181663,790.9524,367.87546,786.9231,801.8315,846.55676,-0.2474365234375,0.10546875,0.95269775390625,2.011260986328125,-2.669219970703125,-0.52337646484375,1.0,1.0,4.0,1.0,1.0,100.0,event
13:22:47.383,0.63838536,0.6887135,1.1266879,0.83136237,0.87834895,-0.25241026,-0.10482307,0.9040983,0.95627725,0.018393148,-0.20802186,0.945451,0.87729096,0.2989442,-0.5937066,0.6179016,0.32219082,-0.13335586,-0.6642407,0.34181663,794.57874,683.7729,790.54944,798.60803,764.35895,-0.2474365234375,0.10546875,0.95269775390625,2.011260986328125,-2.669219970703125,-0.52337646484375,1.0,1.0,4.0,1.0,1.0,100.0,event
13:22:47.415,0.63838536,0.6887135,1.1266879,0.83136237,0.87834895,-0.25241026,-0.10482307,0.9040983,0.95627725,0.018393148,-0.20802186,0.945451,0.87729096,0.2989442,-0.5937066,0.6179016,0.32219082,-0.13335586,-0.6642407,0.34181663,811.9048,1056.4835,791.75824,795.78754,682.1612,-0.2479248046875,0.10845947265625,0.9569091796875,2.489776611328125,-2.61688232421875,-0.246734619140625,1.0,1.0,4.0,1.0,1.0,100.0,event
13:22:47.416,0.63838536,0.6887135,1.1266879,0.83136237,0.87834895,-0.25241026,-0.10482307,0.9040983,0.95627725,0.018393148,-0.20802186,0.945451,0.87729096,0.2989442,-0.5937066,0.6179016,0.32219082,-0.13335586,-0.6642407,0.34181663,800.2198,875.56775,790.9524,794.9817,748.6447,-0.2479248046875,0.10845947265625,0.9569091796875,2.489776611328125,-2.61688232421875,-0.246734619140625,1.0,1.0,4.0,1.0,1.0,100.0,event
13:22:47.417,0.63838536,0.6887135,1.1266879,0.83136237,0.87834895,-0.25241026,-0.10482307,0.9040983,0.95627725,0.018393148,-0.20802186,0.945451,0.87729096,0.2989442,-0.5937066,0.6179016,0.32219082,-0.13335586,-0.6642407,0.34181663,792.1612,798.60803,789.7436,808.2784,735.7509,-0.2479248046875,0.10845947265625,0.9569091796875,2.489776611328125,-2.61688232421875,-0.246734619140625,1.0,1.0,4.0,1.0,1.0,100.0,event
13:22:47.418,0.63838536,0.6887135,1.1266879,0.83136237,0.87834895,-0.25241026,-0.10482307,0.9040983,0.95627725,0.018393148,-0.20802186,0.945451,0.87729096,0.2989442,-0.5937066,0.6179016,0.32219082,-0.13335586,-0.6642407,0.34181663,813.1135,1042.7839,790.14655,799.41394,661.6117,-0.2479248046875,0.10845947265625,0.9569091796875,2.489776611328125,-2.61688232421875,-0.246734619140625,1.0,1.0,4.0,1.0,1.0,100.0,event
13:22:47.418,0.63838536,0.6887135,1.1266879,0.83136237,0.87834895,-0.25241026,-0.10482307,0.9040983,0.95627725,0.018393148,-0.20802186,0.945451,0.87729096,0.2989442,-0.5937066,0.6179016,0.32219082,-0.13335586,-0.6642407,0.34181663,798.60803,931.978,788.93774,810.293,685.38464,-0.2479248046875,0.10845947265625,0.9569091796875,2.489776611328125,-2.61688232421875,-0.246734619140625,1.0,1.0,4.0,1.0,1.0,100.0,event
13:22:47.419,0.63838536,0.6887135,1.1266879,0.83136237,0.87834895,-0.25241026,-0.10482307,0.9040983,0.95627725,0.018393148,-0.20802186,0.945451,0.87729096,0.2989442,-0.5937066,0.6179016,0.32219082,-0.13335586,-0.6642407,0.34181663,826.8132,657.5824,792.1612,805.8608,826.0073,-0.2479248046875,0.10845947265625,0.9569091796875,2.489776611328125,-2.61688232421875,-0.246734619140625,1.0,1.0,4.0,1.0,1.0,100.0,event
13:22:47.420,0.63838536,0.6887135,1.1266879,0.83136237,0.87834895,-0.25241026,-0.10482307,0.9040983,0.95627725,0.018393148,-0.20802186,0.945451,0.87729096,0.2989442,-0.5937066,0.6179016,0.32219082,-0.13335586,-0.6642407,0.34181663,805.05493,212.34433,789.7436,807.8755,1000.07324,-0.2479248046875,0.10845947265625,0.9569091796875,2.489776611328125,-2.61688232421875,-0.246734619140625,1.0,1.0,4.0,1.0,1.0,100.0,event
13:22:47.420,0.63838536,0.6887135,1.1266879,0.83136237,0.87834895,-0.25241026,-0.10482307,0.9040983,0.95627725,0.018393148,-0.20802186,0.945451,0.87729096,0.2989442,-0.5937066,0.6179016,0.32219082,-0.13335586,-0.6642407,0.34181663,777.25275,640.2564,790.54944,798.60803,773.6264,-0.2479248046875,0.10845947265625,0.9569091796875,2.489776611328125,-2.61688232421875,-0.246734619140625,1.0,1.0,4.0,1.0,1.0,100.0,event
13:22:47.421,0.63838536,0.6887135,1.1266879,0.83136237,0.87834895,-0.25241026,-0.10482307,0.9040983,0.95627725,0.018393148,-0.20802186,0.945451,0.87729096,0.2989442,-0.5937066,0.6179016,0.32219082,-0.13335586,-0.6642407,0.34181663,797.8022,994.43225,790.9524,803.8461,625.34796,-0.2479248046875,0.10845947265625,0.9569091796875,2.489776611328125,-2.61688232421875,-0.246734619140625,1.0,1.0,4.0,1.0,1.0,100.0,event
13:22:47.422,0.63838536,0.6887135,1.1266879,0.83136237,0.87834895,-0.25241026,-0.10482307,0.9040983,0.95627725,0.018393148,-0.20802186,0.945451,0.87729096,0.2989442,-0.5937066,0.6179016,0.32219082,-0.13335586,-0.6642407,0.34181663,824.3956,775.64105,784.90845,799.41394,771.6117,-0.2479248046875,0.10845947265625,0.9569091796875,2.489776611328125,-2.61688232421875,-0.246734619140625,1.0,1.0,4.0,1.0,1.0,100.0,event
13:22:47.423,0.63838536,0.6887135,1.1266879,0.83136237,0.87834895,-0.25241026,-0.10482307,0.9040983,0.95627725,0.018393148,-0.20802186,0.945451,0.87729096,0.2989442,-0.5937066,0.6179016,0.32219082,-0.13335586,-0.6642407,0.34181663,815.9341,667.6557,786.1172,784.90845,890.07324,-0.2479248046875,0.10845947265625,0.9569091796875,2.489776611328125,-2.61688232421875,-0.246734619140625,1.0,1.0,4.0,1.0,1.0,100.0,event
13:22:47.424,0.63838536,0.6887135,1.1266879,0.83136237,0.87834895,-0.25241026,-0.10482307,0.9040983,0.95627725,0.018393148,-0.20802186,0.945451,0.87729096,0.2989442,-0.5937066,0.6179016,0.32219082,-0.13335586,-0.6642407,0.34181663,807.47253,744.61536,788.93774,785.7143,844.1392,-0.2479248046875,0.10845947265625,0.9569091796875,2.489776611328125,-2.61688232421875,-0.246734619140625,1.0,1.0,4.0,1.0,1.0,100.0,event
13:22:47.463,0.63838536,0.6887135,1.1266879,0.83136237,0.87834895,-0.25241026,-0.10482307,0.9040983,0.95627725,0.018393148,-0.20802186,0.945451,0.87729096,0.2989442,-0.5937066,0.6179016,0.32219082,-0.13335586,-0.6642407,0.34181663,796.5934,873.5531,786.9231,802.23444,762.74725,-0.25146484375,0.109375,0.94732666015625,1.92901611328125,-2.489776611328125,-0.76263427734375,1.0,1.0,4.0,1.0,1.0,100.0,event
13:22:47.464,0.63838536,0.6887135,1.1266879,0.83136237,0.87834895,-0.25241026,-0.10482307,0.9040983,0.95627725,0.018393148,-0.20802186,0.945451,0.87729096,0.2989442,-0.5937066,0.6179016,0.32219082,-0.13335586,-0.6642407,0.34181663,800.2198,676.52014,786.9231,820.3663,850.989,-0.25146484375,0.109375,0.94732666015625,1.92901611328125,-2.489776611328125,-0.76263427734375,1.0,1.0,4.0,1.0,1.0,100.0,event
13:22:47.465,0.63838536,0.6887135,1.1266879,0.83136237,0.87834895,-0.25241026,-0.10482307,0.9040983,0.95627725,0.018393148,-0.20802186,0.945451,0.87729096,0.2989442,-0.5937066,0.6179016,0.32219082,-0.13335586,-0.6642407,0.34181663,796.5934,704.7253,788.1319,802.6374,868.71796,-0.25146484375,0.109375,0.94732666015625,1.92901611328125,-2.489776611328125,-0.76263427734375,1.0,1.0,4.0,1.0,1.0,100.0,event
13:22:47.466,0.63838536,0.6887135,1.1266879,0.83136237,0.87834895,-0.25241026,-0.10482307,0.9040983,0.95627725,0.018393148,-0.20802186,0.945451,0.87729096,0.2989442,-0.5937066,0.6179016,0.32219082,-0.13335586,-0.6642407,0.34181663,793.7729,1052.0513,790.54944,783.69965,795.38464,-0.25146484375,0.109375,0.94732666015625,1.92901611328125,-2.489776611328125,-0.76263427734375,1.0,1.0,4.0,1.0,1.0,100.0,event
13:22:47.469,0.63838536,0.6887135,1.1266879,0.83136237,0.87834895,-0.25241026,-0.10482307,0.9040983,0.95627725,0.018393148,-0.20802186,0.945451,0.87729096,0.2989442,-0.5937066,0.6179016,0.32219082,-0.13335586,-0.6642407,0.34181663,793.7729,994.83514,792.1612,776.4469,837.6923,-0.25146484375,0.109375,0.94732666015625,1.92901611328125,-2.489776611328125,-0.76263427734375,1.0,1.0,4.0,1.0,1.0,100.0,event
13:22:47.470,0.63838536,0.6887135,1.1266879,0.83136237,0.87834895,-0.25241026,-0.10482307,0.9040983,0.95627725,0.018393148,-0.20802186,0.945451,0.87729096,0.2989442,-0.5937066,0.6179016,0.32219082,-0.13335586,-0.6642407,0.34181663,772.4176,617.28937,792.1612,767.1795,967.03296,-0.25146484375,0.109375,0.94732666015625,1.92901611328125,-2.489776611328125,-0.76263427734375,1.0,1.0,4.0,1.0,1.0,100.0,event
13:22:47.471,0.63838536,0.6887135,1.1266879,0.83136237,0.87834895,-0.25241026,-0.10482307,0.9040983,0.95627725,0.018393148,-0.20802186,0.945451,0.87729096,0.2989442,-0.5937066,0.6179016,0.32219082,-0.13335586,-0.6642407,0.34181663,762.74725,562.8938,792.1612,764.7619,928.7546,-0.25146484375,0.109375,0.94732666015625,1.92901611328125,-2.489776611328125,-0.76263427734375,1.0,1.0,4.0,1.0,1.0,100.0,event
13:22:47.472,0.63838536,0.6887135,1.1266879,0.83136237,0.87834895,-0.25241026,-0.10482307,0.9040983,0.95627725,0.018393148,-0.20802186,0.945451,0.87729096,0.2989442,-0.5937066,0.6179016,0.32219082,-0.13335586,-0.6642407,0.34181663,780.07324,966.63007,788.93774,778.0586,805.4579,-0.25146484375,0.109375,0.94732666015625,1.92901611328125,-2.489776611328125,-0.76263427734375,1.0,1.0,4.0,1.0,1.0,100.0,event
13:22:47.472,0.63838536,0.6887135,1.1266879,0.83136237,0.87834895,-0.25241026,-0.10482307,0.9040983,0.95627725,0.018393148,-0.20802186,0.945451,0.87729096,0.2989442,-0.5937066,0.6179016,0.32219082,-0.13335586,-0.6642407,0.34181663,788.1319,999.2674,790.54944,786.52014,838.49817,-0.25146484375,0.109375,0.94732666015625,1.92901611328125,-2.489776611328125,-0.76263427734375,1.0,1.0,4.0,1.0,1.0,100.0,event
13:22:47.473,0.63838536,0.6887135,1.1266879,0.83136237,0.87834895,-0.25241026,-0.10482307,0.9040983,0.95627725,0.018393148,-0.20802186,0.945451,0.87729096,0.2989442,-0.5937066,0.6179016,0.32219082,-0.13335586,-0.6642407,0.34181663,779.67035,318.71796,792.1612,773.6264,1024.652,-0.25146484375,0.109375,0.94732666015625,1.92901611328125,-2.489776611328125,-0.76263427734375,1.0,1.0,4.0,1.0,1.0,100.0,event
13:22:47.473,0.63838536,0.6887135,1.1266879,0.83136237,0.87834895,-0.25241026,-0.10482307,0.9040983,0.95627725,0.018393148,-0.20802186,0.945451,0.87729096,0.2989442,-0.5937066,0.6179016,0.32219082,-0.13335586,-0.6642407,0.34181663,778.0586,467.8022,789.34064,775.2381,865.89746,-0.25146484375,0.109375,0.94732666015625,1.92901611328125,-2.489776611328125,-0.76263427734375,1.0,1.0,4.0,1.0,1.0,100.0,event
13:22:47.474,0.63838536,0.6887135,1.1266879,0.83136237,0.87834895,-0.25241026,-0.10482307,0.9040983,0.95627725,0.018393148,-0.20802186,0.945451,0.87729096,0.2989442,-0.5937066,0.6179016,0.32219082,-0.13335586,-0.6642407,0.34181663,778.0586,990.0,790.14655,777.25275,668.0586,-0.25146484375,0.109375,0.94732666015625,1.92901611328125,-2.489776611328125,-0.76263427734375,1.0,1.0,4.0,1.0,1.0,100.0,event
13:22:47.510,0.63838536,0.6887135,1.1266879,0.83136237,0.87834895,-0.25241026,-0.10482307,0.9040983,0.95627725,0.018393148,-0.20802186,0.945451,0.87729096,0.2989442,-0.5937066,0.6179016,0.32219082,-0.13335586,-0.6642407,0.34181663,782.49084,898.93774,791.75824,773.6264,715.6044,-0.25146484375,0.109375,0.94732666015625,1.92901611328125,-2.489776611328125,-0.76263427734375,1.0,1.0,4.0,1.0,1.0,100.0,event
13:22:47.511,0.63838536,0.6887135,1.1266879,0.83136237,0.87834895,-0.25241026,-0.10482307,0.9040983,0.95627725,0.018393148,-0.20802186,0.945451,0.87729096,0.2989442,-0.5937066,0.6179016,0.32219082,-0.13335586,-0.6642407,0.34181663,804.2491,755.4945,799.81683,796.99634,878.3883,-0.25146484375,0.109375,0.94732666015625,1.92901611328125,-2.489776611328125,-0.76263427734375,1.0,1.0,4.0,1.0,1.0,100.0,event
13:22:47.511,0.63838536,0.6887135,1.1266879,0.83136237,0.87834895,-0.25241026,-0.10482307,0.9040983,0.95627725,0.018393148,-0.20802186,0.945451,0.87729096,0.2989442,-0.5937066,0.6179016,0.32219082,-0.13335586,-0.6642407,0.34181663,805.4579,803.8461,797.3993,786.9231,802.6374,-0.25146484375,0.109375,0.94732666015625,1.92901611328125,-2.489776611328125,-0.76263427734375,1.0,1.0,4.0,1.0,1.0,100.0,event
13:22:47.512,0.63838536,0.6887135,1.1266879,0.83136237,0.87834895,-0.25241026,-0.10482307,0.9040983,0.95627725,0.018393148,-0.20802186,0.945451,0.87729096,0.2989442,-0.5937066,0.6179016,0.32219082,-0.13335586,-0.6642407,0.34181663,786.1172,823.5897,796.99634,793.36993,748.6447,-0.25146484375,0.109375,0.94732666015625,1.92901611328125,-2.489776611328125,-0.76263427734375,1.0,1.0,4.0,1.0,1.0,100.0,event
13:22:47.513,0.63838536,0.6887135,1.1266879,0.83136237,0.87834895,-0.25241026,-0.10482307,0.9040983,0.95627725,0.018393148,-0.20802186,0.945451,0.87729096,0.2989442,-0.5937066,0.6179016,0.32219082,-0.13335586,-0.6642407,0.34181663,779.67035,747.03296,797.3993,784.5055,711.1722,-0.25146484375,0.109375,0.94732666015625,1.92901611328125,-2.489776611328125,-0.76263427734375,1.0,1.0,4.0,1.0,1.0,100.0,event
13:22:47.513,0.63838536,0.6887135,1.1266879,0.83136237,0.87834895,-0.25241026,-0.10482307,0.9040983,0.95627725,0.018393148,-0.20802186,0.945451,0.87729096,0.2989442,-0.5937066,0.6179016,0.32219082,-0.13335586,-0.6642407,0.34181663,788.5348,456.92307,799.011,783.2967,954.1392,-0.25146484375,0.109375,0.94732666015625,1.92901611328125,-2.489776611328125,-0.76263427734375,1.0,1.0,4.0,1.0,1.0,100.0,event
13:22:47.514,0.63838536,0.6887135,1.1266879,0.83136237,0.87834895,-0.25241026,-0.10482307,0.9040983,0.95627725,0.018393148,-0.20802186,0.945451,0.87729096,0.2989442,-0.5937066,0.6179016,0.32219082,-0.13335586,-0.6642407,0.34181663,809.0842,525.42126,796.5934,792.5641,947.28937,-0.25146484375,0.109375,0.94732666015625,1.92901611328125,-2.489776611328125,-0.76263427734375,1.0,1.0,4.0,1.0,1.0,100.0,event
13:22:47.515,0.63838536,0.6887135,1.1266879,0.83136237,0.87834895,-0.25241026,-0.10482307,0.9040983,0.95627725,0.018393148,-0.20802186,0.945451,0.87729096,0.2989442,-0.5937066,0.6179016,0.32219082,-0.13335586,-0.6642407,0.34181663,810.696,719.6337,798.60803,787.72894,755.4945,-0.25146484375,0.109375,0.94732666015625,1.92901611328125,-2.489776611328125,-0.76263427734375,1.0,1.0,4.0,1.0,1.0,100.0,event
13:22:47.516,0.63838536,0.6887135,1.1266879,0.83136237,0.87834895,-0.25241026,-0.10482307,0.9040983,0.95627725,0.018393148,-0.20802186,0.945451,0.87729096,0.2989442,-0.5937066,0.6179016,0.32219082,-0.13335586,-0.6642407,0.34181663,796.1905,603.9927,803.44324,786.52014,772.4176,-0.25146484375,0.109375,0.94732666015625,1.92901611328125,-2.489776611328125,-0.76263427734375,1.0,1.0,4.0,1.0,1.0,100.0,event
13:22:47.516,0.63838536,0.6887135,1.1266879,0.83136237,0.87834895,-0.25241026,-0.10482307,0.9040983,0.95627725,0.018393148,-0.20802186,0.945451,0.87729096,0.2989442,-0.5937066,0.6179016,0.32219082,-0.13335586,-0.6642407,0.34181663,795.38464,122.490845,801.8315,790.14655,998.46155,-0.25146484375,0.109375,0.94732666015625,1.92901611328125,-2.489776611328125,-0.76263427734375,1.0,1.0,4.0,1.0,1.0,100.0,event
13:22:47.517,0.63838536,0.6887135,1.1266879,0.83136237,0.87834895,-0.25241026,-0.10482307,0.9040983,0.95627725,0.018393148,-0.20802186,0.945451,0.87729096,0.2989442,-0.5937066,0.6179016,0.32219082,-0.13335586,-0.6642407,0.34181663,798.20514,633.4066,799.011,792.5641,808.68134,-0.25146484375,0.109375,0.94732666015625,1.92901611328125,-2.489776611328125,-0.76263427734375,1.0,1.0,4.0,1.0,1.0,100.0,event
13:22:47.518,0.63838536,0.6887135,1.1266879,0.83136237,0.87834895,-0.25241026,-0.10482307,0.9040983,0.95627725,0.018393148,-0.20802186,0.945451,0.87729096,0.2989442,-0.5937066,0.6179016,0.32219082,-0.13335586,-0.6642407,0.34181663,799.81683,1008.1319,798.20514,790.9524,642.674,-0.25146484375,0.109375,0.94732666015625,1.92901611328125,-2.489776611328125,-0.76263427734375,1.0,1.0,4.0,1.0,1.0,100.0,event
13:22:47.543,0.63838536,0.6887135,1.1266879,0.83136237,0.87834895,-0.25241026,-0.10482307,0.9040983,0.95627725,0.018393148,-0.20802186,0.945451,0.87729096,0.2989442,-0.5937066,0.6179016,0.32219082,-0.13335586,-0.6642407,0.34181663,805.8608,697.0696,798.60803,789.7436,745.42126,-0.25677490234375,0.107666015625,0.95361328125,2.280426025390625,-2.930908203125,-0.97198486328125,1.0,1.0,4.0,1.0,1.0,100.0,event
13:22:47.544,0.63838536,0.6887135,1.1266879,0.83136237,0.87834895,-0.25241026,-0.10482307,0.9040983,0.95627725,0.018393148,-0.20802186,0.945451,0.87729096,0.2989442,-0.5937066,0.6179016,0.32219082,-0.13335586,-0.6642407,0.34181663,794.17584,784.5055,801.02563,788.1319,729.304,-0.25677490234375,0.107666015625,0.95361328125,2.280426025390625,-2.930908203125,-0.97198486328125,1.0,1.0,4.0,1.0,1.0,100.0,event
13:22:47.545,0.63838536,0.6887135,1.1266879,0.83136237,0.87834895,-0.25241026,-0.10482307,0.9040983,0.95627725,0.018393148,-0.20802186,0.945451,0.87729096,0.2989442,-0.5937066,0.6179016,0.32219082,-0.13335586,-0.6642407,0.34181663,784.10254,991.6117,799.41394,786.9231,686.5934,-0.25677490234375,0.107666015625,0.95361328125,2.280426025390625,-2.930908203125,-0.97198486328125,1.0,1.0,4.0,1.0,1.0,100.0,event
13:22:47.546,0.63838536,0.6887135,1.1266879,0.83136237,0.87834895,-0.25241026,-0.10482307,0.9040983,0.95627725,0.018393148,-0.20802186,0.945451,0.87729096,0.2989442,-0.5937066,0.6179016,0.32219082,-0.13335586,-0.6642407,0.34181663,785.7143,934.3956,798.20514,793.7729,672.8938,-0.25677490234375,0.107666015625,0.95361328125,2.280426025390625,-2.930908203125,-0.97198486328125,1.0,1.0,4.0,1.0,1.0,100.0,event
13:22:47.547,0.63838536,0.6887135,1.1266879,0.83136237,0.87834895,-0.25241026,-0.10482307,0.9040983,0.95627725,0.018393148,-0.20802186,0.945451,0.87729096,0.2989442,-0.5937066,0.6179016,0.32219082,-0.13335586,-0.6642407,0.34181663,794.17584,720.84247,796.5934,799.41394,790.14655,-0.25677490234375,0.107666015625,0.95361328125,2.280426025390625,-2.930908203125,-0.97198486328125,1.0,1.0,4.0,1.0,1.0,100.0,event
13:22:47.547,0.63838536,0.6887135,1.1266879,0.83136237,0.87834895,-0.25241026,-0.10482307,0.9040983,0.95627725,0.018393148,-0.20802186,0.945451,0.87729096,0.2989442,-0.5937066,0.6179016,0.32219082,-0.13335586,-0.6642407,0.34181663,808.68134,662.4176,797.8022,801.02563,890.07324,-0.25677490234375,0.107666015625,0.95361328125,2.280426025390625,-2.930908203125,-0.97198486328125,1.0,1.0,4.0,1.0,1.0,100.0,event
13:22:47.552,0.63838536,0.6887135,1.1266879,0.83136237,0.87834895,-0.25241026,-0.10482307,0.9040983,0.95627725,0.018393148,-0.20802186,0.945451,0.87729096,0.2989442,-0.5937066,0.6179016,0.32219082,-0.13335586,-0.6642407,0.34181663,797.8022,628.97437,803.0403,790.9524,868.315,-0.25677490234375,0.107666015625,0.95361328125,2.280426025390625,-2.930908203125,-0.97198486328125,1.0,1.0,4.0,1.0,1.0,100.0,event
13:22:47.552,0.63838536,0.6887135,1.1266879,0.83136237,0.87834895,-0.25241026,-0.10482307,0.9040983,0.95627725,0.018393148,-0.20802186,0.945451,0.87729096,0.2989442,-0.5937066,0.6179016,0.32219082,-0.13335586,-0.6642407,0.34181663,776.4469,610.4396,804.2491,786.1172,843.73627,-0.25677490234375,0.107666015625,0.95361328125,2.280426025390625,-2.930908203125,-0.97198486328125,1.0,1.0,4.0,1.0,1.0,100.0,event
13:22:47.553,0.63838536,0.6887135,1.1266879,0.83136237,0.87834895,-0.25241026,-0.10482307,0.9040983,0.95627725,0.018393148,-0.20802186,0.945451,0.87729096,0.2989442,-0.5937066,0.6179016,0.32219082,-0.13335586,-0.6642407,0.34181663,790.9524,184.94505,802.6374,788.5348,973.47986,-0.25677490234375,0.107666015625,0.95361328125,2.280426025390625,-2.930908203125,-0.97198486328125,1.0,1.0,4.0,1.0,1.0,100.0,event
13:22:47.554,0.63838536,0.6887135,1.1266879,0.83136237,0.87834895,-0.25241026,-0.10482307,0.9040983,0.95627725,0.018393148,-0.20802186,0.945451,0.87729096,0.2989442,-0.5937066,0.6179016,0.32219082,-0.13335586,-0.6642407,0.34181663,807.0696,63.663002,802.6374,802.6374,1012.96704,-0.25677490234375,0.107666015625,0.95361328125,2.280426025390625,-2.930908203125,-0.97198486328125,1.0,1.0,4.0,1.0,1.0,100.0,event
13:22:47.554,0.63838536,0.6887135,1.1266879,0.83136237,0.87834895,-0.25241026,-0.10482307,0.9040983,0.95627725,0.018393148,-0.20802186,0.945451,0.87729096,0.2989442,-0.5937066,0.6179016,0.32219082,-0.13335586,-0.6642407,0.34181663,812.3077,783.69965,801.8315,810.696,765.16486,-0.25677490234375,0.107666015625,0.95361328125,2.280426025390625,-2.930908203125,-0.97198486328125,1.0,1.0,4.0,1.0,1.0,100.0,event
13:22:47.555,0.63838536,0.6887135,1.1266879,0.83136237,0.87834895,-0.25241026,-0.10482307,0.9040983,0.95627725,0.018393148,-0.20802186,0.945451,0.87729096,0.2989442,-0.5937066,0.6179016,0.32219082,-0.13335586,-0.6642407,0.34181663,813.1135,894.90845,801.4286,794.17584,667.25275,-0.25677490234375,0.107666015625,0.95361328125,2.280426025390625,-2.930908203125,-0.97198486328125,1.0,1.0,4.0,1.0,1.0,100.0,event
13:22:47.598,0.63838536,0.6887135,1.1266879,0.83136237,0.87834895,-0.25241026,-0.10482307,0.9040983,0.95627725,0.018393148,-0.20802186,0.945451,0.87729096,0.2989442,-0.5937066,0.6179016,0.32219082,-0.13335586,-0.6642407,0.34181663,789.34064,695.4579,798.20514,788.93774,679.34064,-0.2431640625,0.1051025390625,0.94610595703125,2.1234130859375,-3.835601806640625,-0.43365478515625,1.0,1.0,4.0,1.0,1.0,100.0,event
13:22:47.599,0.63838536,0.6887135,1.1266879,0.83136237,0.87834895,-0.25241026,-0.10482307,0.9040983,0.95627725,0.018393148,-0.20802186,0.945451,0.87729096,0.2989442,-0.5937066,0.6179016,0.32219082,-0.13335586,-0.6642407,0.34181663,776.04395,906.99634,795.78754,793.36993,659.19415,-0.2431640625,0.1051025390625,0.94610595703125,2.1234130859375,-3.835601806640625,-0.43365478515625,1.0,1.0,4.0,1.0,1.0,100.0,event
13:22:47.600,0.63838536,0.6887135,1.1266879,0.83136237,0.87834895,-0.25241026,-0.10482307,0.9040983,0.95627725,0.018393148,-0.20802186,0.945451,0.87729096,0.2989442,-0.5937066,0.6179016,0.32219082,-0.13335586,-0.6642407,0.34181663,790.9524,1019.41394,799.81683,791.3553,703.5165,-0.2431640625,0.1051025390625,0.94610595703125,2.1234130859375,-3.835601806640625,-0.43365478515625,1.0,1.0,4.0,1.0,1.0,100.0,event
13:22:47.600,0.63838536,0.6887135,1.1266879,0.83136237,0.87834895,-0.25241026,-0.10482307,0.9040983,0.95627725,0.018393148,-0.20802186,0.945451,0.87729096,0.2989442,-0.5937066,0.6179016,0.32219082,-0.13335586,-0.6642407,0.34181663,808.2784,875.16486,803.0403,802.23444,773.6264,-0.2431640625,0.1051025390625,0.94610595703125,2.1234130859375,-3.835601806640625,-0.43365478515625,1.0,1.0,4.0,1.0,1.0,100.0,event
13:22:47.601,0.63838536,0.6887135,1.1266879,0.83136237,0.87834895,-0.25241026,-0.10482307,0.9040983,0.95627725,0.018393148,-0.20802186,0.945451,0.87729096,0.2989442,-0.5937066,0.6179016,0.32219082,-0.13335586,-0.6642407,0.34181663,816.337,759.12085,804.2491,811.50183,780.87915,-0.2431640625,0.1051025390625,0.94610595703125,2.1234130859375,-3.835601806640625,-0.43365478515625,1.0,1.0,4.0,1.0,1.0,100.0,event
13:22:47.602,0.63838536,0.6887135,1.1266879,0.83136237,0.87834895,-0.25241026,-0.10482307,0.9040983,0.95627725,0.018393148,-0.20802186,0.945451,0.87729096,0.2989442,-0.5937066,0.6179016,0.32219082,-0.13335586,-0.6642407,0.34181663,799.41394,640.2564,802.23444,801.8315,815.5311,-0.2431640625,0.1051025390625,0.94610595703125,2.1234130859375,-3.835601806640625,-0.43365478515625,1.0,1.0,4.0,1.0,1.0,100.0,event
13:22:47.603,0.63838536,0.6887135,1.1266879,0.83136237,0.87834895,-0.25241026,-0.10482307,0.9040983,0.95627725,0.018393148,-0.20802186,0.945451,0.87729096,0.2989442,-0.5937066,0.6179016,0.32219082,-0.13335586,-0.6642407,0.34181663,788.1319,657.98535,802.6374,794.57874,832.0513,-0.2431640625,0.1051025390625,0.94610595703125,2.1234130859375,-3.835601806640625,-0.43365478515625,1.0,1.0,4.0,1.0,1.0,100.0,event
13:22:47.603,0.63838536,0.6887135,1.1266879,0.83136237,0.87834895,-0.25241026,-0.10482307,0.9040983,0.95627725,0.018393148,-0.20802186,0.945451,0.87729096,0.2989442,-0.5937066,0.6179016,0.32219082,-0.13335586,-0.6642407,0.34181663,808.68134,583.44324,803.0403,804.65204,879.19415,-0.2431640625,0.1051025390625,0.94610595703125,2.1234130859375,-3.835601806640625,-0.43365478515625,1.0,1.0,4.0,1.0,1.0,100.0,event
13:22:47.604,0.63838536,0.6887135,1.1266879,0.83136237,0.87834895,-0.25241026,-0.10482307,0.9040983,0.95627725,0.018393148,-0.20802186,0.945451,0.87729096,0.2989442,-0.5937066,0.6179016,0.32219082,-0.13335586,-0.6642407,0.34181663,815.12823,131.75824,800.6227,802.6374,1074.6154,-0.2431640625,0.1051025390625,0.94610595703125,2.1234130859375,-3.835601806640625,-0.43365478515625,1.0,1.0,4.0,1.0,1.0,100.0,event
13:22:47.605,0.63838536,0.6887135,1.1266879,0.83136237,0.87834895,-0.25241026,-0.10482307,0.9040983,0.95627725,0.018393148,-0.20802186,0.945451,0.87729096,0.2989442,-0.5937066,0.6179016,0.32219082,-0.13335586,-0.6642407,0.34181663,805.4579,549.19415,803.0403,794.9817,863.47986,-0.2431640625,0.1051025390625,0.94610595703125,2.1234130859375,-3.835601806640625,-0.43365478515625,1.0,1.0,4.0,1.0,1.0,100.0,event
13:22:47.606,0.63838536,0.6887135,1.1266879,0.83136237,0.87834895,-0.25241026,-0.10482307,0.9040983,0.95627725,0.018393148,-0.20802186,0.945451,0.87729096,0.2989442,-0.5937066,0.6179016,0.32219082,-0.13335586,-0.6642407,0.34181663,796.99634,636.63007,799.011,795.78754,744.61536,-0.2431640625,0.1051025390625,0.94610595703125,2.1234130859375,-3.835601806640625,-0.43365478515625,1.0,1.0,4.0,1.0,1.0,100.0,event
13:22:47.606,0.63838536,0.6887135,1.1266879,0.83136237,0.87834895,-0.25241026,-0.10482307,0.9040983,0.95627725,0.018393148,-0.20802186,0.945451,0.87729096,0.2989442,-0.5937066,0.6179016,0.32219082,-0.13335586,-0.6642407,0.34181663,793.36993,973.8828,801.8315,799.41394,644.2857,-0.2431640625,0.1051025390625,0.94610595703125,2.1234130859375,-3.835601806640625,-0.43365478515625,1.0,1.0,4.0,1.0,1.0,100.0,event
13:22:47.651,0.63838536,0.6887135,1.1266879,0.83136237,0.87834895,-0.25241026,-0.10482307,0.9040983,0.95627725,0.018393148,-0.20802186,0.945451,0.87729096,0.2989442,-0.5937066,0.6179016,0.32219082,-0.13335586,-0.6642407,0.34181663,808.2784,649.5238,798.20514,790.54944,805.8608,-0.25,0.1015625,0.94451904296875,2.684173583984375,-1.742095947265625,0.10467529296875,1.0,1.0,4.0,1.0,1.0,100.0,event
13:22:47.652,0.63838536,0.6887135,1.1266879,0.83136237,0.87834895,-0.25241026,-0.10482307,0.9040983,0.95627725,0.018393148,-0.20802186,0.945451,0.87729096,0.2989442,-0.5937066,0.6179016,0.32219082,-0.13335586,-0.6642407,0.34181663,808.2784,998.46155,796.99634,798.60803,745.42126,-0.25,0.1015625,0.94451904296875,2.684173583984375,-1.742095947265625,0.10467529296875,1.0,1.0,4.0,1.0,1.0,100.0,event
13:22:47.653,0.63838536,0.6887135,1.1266879,0.83136237,0.87834895,-0.25241026,-0.10482307,0.9040983,0.95627725,0.018393148,-0.20802186,0.945451,0.87729096,0.2989442,-0.5937066,0.6179016,0.32219082,-0.13335586,-0.6642407,0.34181663,798.60803,941.2454,801.4286,798.60803,736.9597,-0.25,0.1015625,0.94451904296875,2.684173583984375,-1.742095947265625,0.10467529296875,1.0,1.0,4.0,1.0,1.0,100.0,event
13:22:47.654,0.63838536,0.6887135,1.1266879,0.83136237,0.87834895,-0.25241026,-0.10482307,0.9040983,0.95627725,0.018393148,-0.20802186,0.945451,0.87729096,0.2989442,-0.5937066,0.6179016,0.32219082,-0.13335586,-0.6642407,0.34181663,801.4286,665.64105,801.8315,805.8608,773.22345,-0.25,0.1015625,0.94451904296875,2.684173583984375,-1.742095947265625,0.10467529296875,1.0,1.0,4.0,1.0,1.0,100.0,event
13:22:47.655,0.63838536,0.6887135,1.1266879,0.83136237,0.87834895,-0.25241026,-0.10482307,0.9040983,0.95627725,0.018393148,-0.20802186,0.945451,0.87729096,0.2989442,-0.5937066,0.6179016,0.32219082,-0.13335586,-0.6642407,0.34181663,820.3663,786.1172,797.3993,817.9487,762.3443,-0.25,0.1015625,0.94451904296875,2.684173583984375,-1.742095947265625,0.10467529296875,1.0,1.0,4.0,1.0,1.0,100.0,event
13:22:47.655,0.63838536,0.6887135,1.1266879,0.83136237,0.87834895,-0.25241026,-0.10482307,0.9040983,0.95627725,0.018393148,-0.20802186,0.945451,0.87729096,0.2989442,-0.5937066,0.6179016,0.32219082,-0.13335586,-0.6642407,0.34181663,804.65204,789.7436,796.99634,797.8022,862.674,-0.25,0.1015625,0.94451904296875,2.684173583984375,-1.742095947265625,0.10467529296875,1.0,1.0,4.0,1.0,1.0,100.0,event
13:22:47.656,0.63838536,0.6887135,1.1266879,0.83136237,0.87834895,-0.25241026,-0.10482307,0.9040983,0.95627725,0.018393148,-0.20802186,0.945451,0.87729096,0.2989442,-0.5937066,0.6179016,0.32219082,-0.13335586,-0.6642407,0.34181663,776.8498,610.0366,800.6227,781.685,884.0293,-0.25,0.1015625,0.94451904296875,2.684173583984375,-1.742095947265625,0.10467529296875,1.0,1.0,4.0,1.0,1.0,100.0,event
13:22:47.657,0.63838536,0.6887135,1.1266879,0.83136237,0.87834895,-0.25241026,-0.10482307,0.9040983,0.95627725,0.018393148,-0.20802186,0.945451,0.87729096,0.2989442,-0.5937066,0.6179016,0.32219082,-0.13335586,-0.6642407,0.34181663,778.46155,223.62637,799.81683,779.67035,980.32965,-0.25,0.1015625,0.94451904296875,2.684173583984375,-1.742095947265625,0.10467529296875,1.0,1.0,4.0,1.0,1.0,100.0,event
13:22:47.662,0.63838536,0.6887135,1.1266879,0.83136237,0.87834895,-0.25241026,-0.10482307,0.9040983,0.95627725,0.018393148,-0.20802186,0.945451,0.87729096,0.2989442,-0.5937066,0.6179016,0.32219082,-0.13335586,-0.6642407,0.34181663,757.1062,358.60806,794.9817,759.12085,956.55676,-0.25,0.1015625,0.94451904296875,2.684173583984375,-1.742095947265625,0.10467529296875,1.0,1.0,4.0,1.0,1.0,100.0,event
13:22:47.663,0.63838536,0.6887135,1.1266879,0.83136237,0.87834895,-0.25241026,-0.10482307,0.9040983,0.95627725,0.018393148,-0.20802186,0.945451,0.87729096,0.2989442,-0.5937066,0.6179016,0.32219082,-0.13335586,-0.6642407,0.34181663,753.47986,952.1245,794.17584,745.42126,749.45056,-0.25,0.1015625,0.94451904296875,2.684173583984375,-1.742095947265625,0.10467529296875,1.0,1.0,4.0,1.0,1.0,100.0,event
13:22:47.664,0.63838536,0.6887135,1.1266879,0.83136237,0.87834895,-0.25241026,-0.10482307,0.9040983,0.95627725,0.018393148,-0.20802186,0.945451,0.87729096,0.2989442,-0.5937066,0.6179016,0.32219082,-0.13335586,-0.6642407,0.34181663,767.98535,921.50183,790.9524,736.1539,708.3516,-0.25,0.1015625,0.94451904296875,2.684173583984375,-1.742095947265625,0.10467529296875,1.0,1.0,4.0,1.0,1.0,100.0,event
13:22:47.665,0.63838536,0.6887135,1.1266879,0.83136237,0.87834895,-0.25241026,-0.10482307,0.9040983,0.95627725,0.018393148,-0.20802186,0.945451,0.87729096,0.2989442,-0.5937066,0.6179016,0.32219082,-0.13335586,-0.6642407,0.34181663,759.5238,648.315,788.1319,731.7216,811.0989,-0.25,0.1015625,0.94451904296875,2.684173583984375,-1.742095947265625,0.10467529296875,1.0,1.0,4.0,1.0,1.0,100.0,event
13:22:47.693,0.63838536,0.6887135,1.1266879,0.83136237,0.87834895,-0.25241026,-0.10482307,0.9040983,0.95627725,0.018393148,-0.20802186,0.945451,0.87729096,0.2989442,-0.5937066,0.6179016,0.32219082,-0.13335586,-0.6642407,0.34181663,750.2564,711.1722,791.3553,738.1685,846.1539,-0.24560546875,0.10614013671875,0.95166015625,2.265472412109375,-2.355194091796875,0.059814453125,1.0,1.0,4.0,1.0,1.0,100.0,event
13:22:47.694,0.63838536,0.6887135,1.1266879,0.83136237,0.87834895,-0.25241026,-0.10482307,0.9040983,0.95627725,0.018393148,-0.20802186,0.945451,0.87729096,0.2989442,-0.5937066,0.6179016,0.32219082,-0.13335586,-0.6642407,0.34181663,744.21246,935.6044,795.78754,735.34796,712.7839,-0.24560546875,0.10614013671875,0.95166015625,2.265472412109375,-2.355194091796875,0.059814453125,1.0,1.0,4.0,1.0,1.0,100.0,event
13:22:47.695,0.63838536,0.6887135,1.1266879,0.83136237,0.87834895,-0.25241026,-0.10482307,0.9040983,0.95627725,0.018393148,-0.20802186,0.945451,0.87729096,0.2989442,-0.5937066,0.6179016,0.32219082,-0.13335586,-0.6642407,0.34181663,728.9011,771.2088,799.011,716.8132,726.08057,-0.24560546875,0.10614013671875,0.95166015625,2.265472412109375,-2.355194091796875,0.059814453125,1.0,1.0,4.0,1.0,1.0,100.0,event
13:22:47.696,0.63838536,0.6887135,1.1266879,0.83136237,0.87834895,-0.25241026,-0.10482307,0.9040983,0.95627725,0.018393148,-0.20802186,0.945451,0.87729096,0.2989442,-0.5937066,0.6179016,0.32219082,-0.13335586,-0.6642407,0.34181663,727.6923,531.06226,799.011,710.3663,846.55676,-0.24560546875,0.10614013671875,0.95166015625,2.265472412109375,-2.355194091796875,0.059814453125,1.0,1.0,4.0,1.0,1.0,100.0,event
13:22:47.697,0.63838536,0.6887135,1.1266879,0.83136237,0.87834895,-0.25241026,-0.10482307,0.9040983,0.95627725,0.018393148,-0.20802186,0.945451,0.87729096,0.2989442,-0.5937066,0.6179016,0.32219082,-0.13335586,-0.6642407,0.34181663,760.7326,778.86444,796.1905,736.9597,777.6557,-0.24560546875,0.10614013671875,0.95166015625,2.265472412109375,-2.355194091796875,0.059814453125,1.0,1.0,4.0,1.0,1.0,100.0,event
13:22:47.698,0.63838536,0.6887135,1.1266879,0.83136237,0.87834895,-0.25241026,-0.10482307,0.9040983,0.95627725,0.018393148,-0.20802186,0.945451,0.87729096,0.2989442,-0.5937066,0.6179016,0.32219082,-0.13335586,-0.6642407,0.34181663,772.4176,749.85345,798.20514,732.52747,728.9011,-0.24560546875,0.10614013671875,0.95166015625,2.265472412109375,-2.355194091796875,0.059814453125,1.0,1.0,4.0,1.0,1.0,100.0,event
13:22:47.699,0.63838536,0.6887135,1.1266879,0.83136237,0.87834895,-0.25241026,-0.10482307,0.9040983,0.95627725,0.018393148,-0.20802186,0.945451,0.87729096,0.2989442,-0.5937066,0.6179016,0.32219082,-0.13335586,-0.6642407,0.34181663,755.89746,413.00366,804.2491,729.304,886.04395,-0.24560546875,0.10614013671875,0.95166015625,2.265472412109375,-2.355194091796875,0.059814453125,1.0,1.0,4.0,1.0,1.0,100.0,event
13:22:47.702,0.63838536,0.6887135,1.1266879,0.83136237,0.87834895,-0.25241026,-0.10482307,0.9040983,0.95627725,0.018393148,-0.20802186,0.945451,0.87729096,0.2989442,-0.5937066,0.6179016,0.32219082,-0.13335586,-0.6642407,0.34181663,745.82416,132.5641,803.8461,744.21246,1040.7693,-0.24560546875,0.10614013671875,0.95166015625,2.265472412109375,-2.355194091796875,0.059814453125,1.0,1.0,4.0,1.0,1.0,100.0,event
13:22:47.704,0.63838536,0.6887135,1.1266879,0.83136237,0.87834895,-0.25241026,-0.10482307,0.9040983,0.95627725,0.018393148,-0.20802186,0.945451,0.87729096,0.2989442,-0.5937066,0.6179016,0.32219082,-0.13335586,-0.6642407,0.34181663,753.0769,656.77655,795.78754,745.0183,841.7216,-0.24560546875,0.10614013671875,0.95166015625,2.265472412109375,-2.355194091796875,0.059814453125,1.0,1.0,4.0,1.0,1.0,100.0,event
13:22:47.705,0.63838536,0.6887135,1.1266879,0.83136237,0.87834895,-0.25241026,-0.10482307,0.9040983,0.95627725,0.018393148,-0.20802186,0.945451,0.87729096,0.2989442,-0.5937066,0.6179016,0.32219082,-0.13335586,-0.6642407,0.34181663,765.16486,1027.0696,794.17584,755.4945,717.619,-0.24560546875,0.10614013671875,0.95166015625,2.265472412109375,-2.355194091796875,0.059814453125,1.0,1.0,4.0,1.0,1.0,100.0,event
13:22:47.706,0.63838536,0.6887135,1.1266879,0.83136237,0.87834895,-0.25241026,-0.10482307,0.9040983,0.95627725,0.018393148,-0.20802186,0.945451,0.87729096,0.2989442,-0.5937066,0.6179016,0.32219082,-0.13335586,-0.6642407,0.34181663,772.8205,740.18317,799.011,770.40295,813.1135,-0.24560546875,0.10614013671875,0.95166015625,2.265472412109375,-2.355194091796875,0.059814453125,1.0,1.0,4.0,1.0,1.0,100.0,event
13:22:47.707,0.63838536,0.6887135,1.1266879,0.83136237,0.87834895,-0.25241026,-0.10482307,0.9040983,0.95627725,0.018393148,-0.20802186,0.945451,0.87729096,0.2989442,-0.5937066,0.6179016,0.32219082,-0.13335586,-0.6642407,0.34181663,778.46155,630.58606,800.6227,772.4176,781.28204,-0.24560546875,0.10614013671875,0.95166015625,2.265472412109375,-2.355194091796875,0.059814453125,1.0,1.0,4.0,1.0,1.0,100.0,event
13:22:47.731,0.63838536,0.6887135,1.1266879,0.83136237,0.87834895,-0.25241026,-0.10482307,0.9040983,0.95627725,0.018393148,-0.20802186,0.945451,0.87729096,0.2989442,-0.5937066,0.6179016,0.32219082,-0.13335586,-0.6642407,0.34181663,776.04395,824.3956,797.3993,773.22345,620.5128,-0.24560546875,0.10614013671875,0.95166015625,2.265472412109375,-2.355194091796875,0.059814453125,1.0,1.0,4.0,1.0,1.0,100.0,event
13:22:47.732,0.63838536,0.6887135,1.1266879,0.83136237,0.87834895,-0.25241026,-0.10482307,0.9040983,0.95627725,0.018393148,-0.20802186,0.945451,0.87729096,0.2989442,-0.5937066,0.6179016,0.32219082,-0.13335586,-0.6642407,0.34181663,766.77655,933.1868,796.1905,776.8498,673.69965,-0.24560546875,0.10614013671875,0.95166015625,2.265472412109375,-2.355194091796875,0.059814453125,1.0,1.0,4.0,1.0,1.0,100.0,event
13:22:47.733,0.63838536,0.6887135,1.1266879,0.83136237,0.87834895,-0.25241026,-0.10482307,0.9040983,0.95627725,0.018393148,-0.20802186,0.945451,0.87729096,0.2989442,-0.5937066,0.6179016,0.32219082,-0.13335586,-0.6642407,0.34181663,774.83514,614.87177,799.81683,782.8938,891.685,-0.24560546875,0.10614013671875,0.95166015625,2.265472412109375,-2.355194091796875,0.059814453125,1.0,1.0,4.0,1.0,1.0,100.0,event
13:22:47.734,0.63838536,0.6887135,1.1266879,0.83136237,0.87834895,-0.25241026,-0.10482307,0.9040983,0.95627725,0.018393148,-0.20802186,0.945451,0.87729096,0.2989442,-0.5937066,0.6179016,0.32219082,-0.13335586,-0.6642407,0.34181663,783.2967,630.989,804.65204,787.72894,935.6044,-0.24560546875,0.10614013671875,0.95166015625,2.265472412109375,-2.355194091796875,0.059814453125,1.0,1.0,4.0,1.0,1.0,100.0,event
13:22:47.734,0.63838536,0.6887135,1.1266879,0.83136237,0.87834895,-0.25241026,-0.10482307,0.9040983,0.95627725,0.018393148,-0.20802186,0.945451,0.87729096,0.2989442,-0.5937066,0.6179016,0.32219082,-0.13335586,-0.6642407,0.34181663,776.04395,878.7912,803.8461,781.685,787.326,-0.24560546875,0.10614013671875,0.95166015625,2.265472412109375,-2.355194091796875,0.059814453125,1.0,1.0,4.0,1.0,1.0,100.0,event
13:22:47.735,0.63838536,0.6887135,1.1266879,0.83136237,0.87834895,-0.25241026,-0.10482307,0.9040983,0.95627725,0.018393148,-0.20802186,0.945451,0.87729096,0.2989442,-0.5937066,0.6179016,0.32219082,-0.13335586,-0.6642407,0.34181663,778.86444,693.44324,801.4286,769.59705,832.4542,-0.24560546875,0.10614013671875,0.95166015625,2.265472412109375,-2.355194091796875,0.059814453125,1.0,1.0,4.0,1.0,1.0,100.0,event
13:22:47.736,0.63838536,0.6887135,1.1266879,0.83136237,0.87834895,-0.25241026,-0.10482307,0.9040983,0.95627725,0.018393148,-0.20802186,0.945451,0.87729096,0.2989442,-0.5937066,0.6179016,0.32219082,-0.13335586,-0.6642407,0.34181663,788.5348,185.75092,799.41394,777.25275,1114.1025,-0.24560546875,0.10614013671875,0.95166015625,2.265472412109375,-2.355194091796875,0.059814453125,1.0,1.0,4.0,1.0,1.0,100.0,event
13:22:47.736,0.63838536,0.6887135,1.1266879,0.83136237,0.87834895,-0.25241026,-0.10482307,0.9040983,0.95627725,0.018393148,-0.20802186,0.945451,0.87729096,0.2989442,-0.5937066,0.6179016,0.32219082,-0.13335586,-0.6642407,0.34181663,796.1905,92.673996,794.9817,780.4762,1122.1611,-0.24560546875,0.10614013671875,0.95166015625,2.265472412109375,-2.355194091796875,0.059814453125,1.0,1.0,4.0,1.0,1.0,100.0,event
13:22:47.737,0.63838536,0.6887135,1.1266879,0.83136237,0.87834895,-0.25241026,-0.10482307,0.9040983,0.95627725,0.018393148,-0.20802186,0.945451,0.87729096,0.2989442,-0.5937066,0.6179016,0.32219082,-0.13335586,-0.6642407,0.34181663,791.75824,796.5934,795.78754,780.4762,780.4762,-0.24560546875,0.10614013671875,0.95166015625,2.265472412109375,-2.355194091796875,0.059814453125,1.0,1.0,4.0,1.0,1.0,100.0,event
13:22:47.738,0.63838536,0.6887135,1.1266879,0.83136237,0.87834895,-0.25241026,-0.10482307,0.9040983,0.95627725,0.018393148,-0.20802186,0.945451,0.87729096,0.2989442,-0.5937066,0.6179016,0.32219082,-0.13335586,-0.6642407,0.34181663,785.7143,904.57874,799.81683,788.5348,713.5897,-0.24560546875,0.10614013671875,0.95166015625,2.265472412109375,-2.355194091796875,0.059814453125,1.0,1.0,4.0,1.0,1.0,100.0,event
13:22:47.742,0.63838536,0.6887135,1.1266879,0.83136237,0.87834895,-0.25241026,-0.10482307,0.9040983,0.95627725,0.018393148,-0.20802186,0.945451,0.87729096,0.2989442,-0.5937066,0.6179016,0.32219082,-0.13335586,-0.6642407,0.34181663,778.46155,701.9048,798.20514,774.0293,783.69965,-0.24560546875,0.10614013671875,0.95166015625,2.265472412109375,-2.355194091796875,0.059814453125,1.0,1.0,4.0,1.0,1.0,100.0,event
13:22:47.743,0.63838536,0.6887135,1.1266879,0.83136237,0.87834895,-0.25241026,-0.10482307,0.9040983,0.95627725,0.018393148,-0.20802186,0.945451,0.87729096,0.2989442,-0.5937066,0.6179016,0.32219082,-0.13335586,-0.6642407,0.34181663,782.0879,859.45056,799.41394,767.5824,684.17584,-0.24560546875,0.10614013671875,0.95166015625,2.265472412109375,-2.355194091796875,0.059814453125,1.0,1.0,4.0,1.0,1.0,100.0,event
13:22:47.766,0.63838536,0.6887135,1.1266879,0.83136237,0.87834895,-0.25241026,-0.10482307,0.9040983,0.95627725,0.018393148,-0.20802186,0.945451,0.87729096,0.2989442,-0.5937066,0.6179016,0.32219082,-0.13335586,-0.6642407,0.34181663,798.20514,966.63007,801.4286,787.72894,685.78754,-0.24810791015625,0.10711669921875,0.95391845703125,1.614990234375,-3.357086181640625,1.099090576171875,1.0,1.0,4.0,1.0,1.0,100.0,event
13:22:47.767,0.63838536,0.6887135,1.1266879,0.83136237,0.87834895,-0.25241026,-0.10482307,0.9040983,0.95627725,0.018393148,-0.20802186,0.945451,0.87729096,0.2989442,-0.5937066,0.6179016,0.32219082,-0.13335586,-0.6642407,0.34181663,806.6667,914.2491,797.8022,797.8022,809.89014,-0.24810791015625,0.10711669921875,0.95391845703125,1.614990234375,-3.357086181640625,1.099090576171875,1.0,1.0,4.0,1.0,1.0,100.0,event
13:22:47.768,0.63838536,0.6887135,1.1266879,0.83136237,0.87834895,-0.25241026,-0.10482307,0.9040983,0.95627725,0.018393148,-0.20802186,0.945451,0.87729096,0.2989442,-0.5937066,0.6179016,0.32219082,-0.13335586,-0.6642407,0.34181663,811.0989,766.77655,793.7729,788.1319,827.619,-0.24810791015625,0.10711669921875,0.95391845703125,1.614990234375,-3.357086181640625,1.099090576171875,1.0,1.0,4.0,1.0,1.0,100.0,event
13:22:47.768,0.63838536,0.6887135,1.1266879,0.83136237,0.87834895,-0.25241026,-0.10482307,0.9040983,0.95627725,0.018393148,-0.20802186,0.945451,0.87729096,0.2989442,-0.5937066,0.6179016,0.32219082,-0.13335586,-0.6642407,0.34181663,792.96704,811.0989,798.60803,779.67035,704.3223,-0.24810791015625,0.10711669921875,0.95391845703125,1.614990234375,-3.357086181640625,1.099090576171875,1.0,1.0,4.0,1.0,1.0,100.0,event
13:22:47.769,0.63838536,0.6887135,1.1266879,0.83136237,0.87834895,-0.25241026,-0.10482307,0.9040983,0.95627725,0.018393148,-0.20802186,0.945451,0.87729096,0.2989442,-0.5937066,0.6179016,0.32219082,-0.13335586,-0.6642407,0.34181663,789.34064,614.4689,801.02563,786.52014,830.84247,-0.24810791015625,0.10711669921875,0.95391845703125,1.614990234375,-3.357086181640625,1.099090576171875,1.0,1.0,4.0,1.0,1.0,100.0,event
13:22:47.769,0.63838536,0.6887135,1.1266879,0.83136237,0.87834895,-0.25241026,-0.10482307,0.9040983,0.95627725,0.018393148,-0.20802186,0.945451,0.87729096,0.2989442,-0.5937066,0.6179016,0.32219082,-0.13335586,-0.6642407,0.34181663,771.2088,873.95605,801.8315,774.0293,646.7033,-0.24810791015625,0.10711669921875,0.95391845703125,1.614990234375,-3.357086181640625,1.099090576171875,1.0,1.0,4.0,1.0,1.0,100.0,event
13:22:47.770,0.63838536,0.6887135,1.1266879,0.83136237,0.87834895,-0.25241026,-0.10482307,0.9040983,0.95627725,0.018393148,-0.20802186,0.945451,0.87729096,0.2989442,-0.5937066,0.6179016,0.32219082,-0.13335586,-0.6642407,0.34181663,809.89014,341.68497,799.41394,792.1612,971.06226,-0.24810791015625,0.10711669921875,0.95391845703125,1.614990234375,-3.357086181640625,1.099090576171875,1.0,1.0,4.0,1.0,1.0,100.0,event
13:22:47.770,0.63838536,0.6887135,1.1266879,0.83136237,0.87834895,-0.25241026,-0.10482307,0.9040983,0.95627725,0.018393148,-0.20802186,0.945451,0.87729096,0.2989442,-0.5937066,0.6179016,0.32219082,-0.13335586,-0.6642407,0.34181663,805.05493,408.97437,801.02563,788.5348,859.85345,-0.24810791015625,0.10711669921875,0.95391845703125,1.614990234375,-3.357086181640625,1.099090576171875,1.0,1.0,4.0,1.0,1.0,100.0,event
13:22:47.770,0.63838536,0.6887135,1.1266879,0.83136237,0.87834895,-0.25241026,-0.10482307,0.9040983,0.95627725,0.018393148,-0.20802186,0.945451,0.87729096,0.2989442,-0.5937066,0.6179016,0.32219082,-0.13335586,-0.6642407,0.34181663,793.36993,752.27106,800.6227,783.69965,720.0366,-0.24810791015625,0.10711669921875,0.95391845703125,1.614990234375,-3.357086181640625,1.099090576171875,1.0,1.0,4.0,1.0,1.0,100.0,event
13:22:47.771,0.63838536,0.6887135,1.1266879,0.83136237,0.87834895,-0.25241026,-0.10482307,0.9040983,0.95627725,0.018393148,-0.20802186,0.945451,0.87729096,0.2989442,-0.5937066,0.6179016,0.32219082,-0.13335586,-0.6642407,0.34181663,792.96704,640.65936,801.02563,780.4762,837.6923,-0.24810791015625,0.10711669921875,0.95391845703125,1.614990234375,-3.357086181640625,1.099090576171875,1.0,1.0,4.0,1.0,1.0,100.0,event
13:22:47.772,0.63838536,0.6887135,1.1266879,0.83136237,0.87834895,-0.25241026,-0.10482307,0.9040983,0.95627725,0.018393148,-0.20802186,0.945451,0.87729096,0.2989442,-0.5937066,0.6179016,0.32219082,-0.13335586,-0.6642407,0.34181663,799.41394,165.6044,799.011,790.14655,1013.36993,-0.24810791015625,0.10711669921875,0.95391845703125,1.614990234375,-3.357086181640625,1.099090576171875,1.0,1.0,4.0,1.0,1.0,100.0,event
13:22:47.772,0.63838536,0.6887135,1.1266879,0.83136237,0.87834895,-0.25241026,-0.10482307,0.9040983,0.95627725,0.018393148,-0.20802186,0.945451,0.87729096,0.2989442,-0.5937066,0.6179016,0.32219082,-0.13335586,-0.6642407,0.34181663,806.6667,687.8022,796.5934,802.6374,757.9121,-0.24810791015625,0.10711669921875,0.95391845703125,1.614990234375,-3.357086181640625,1.099090576171875,1.0,1.0,4.0,1.0,1.0,100.0,event
13:22:47.796,0.63838536,0.6887135,1.1266879,0.83136237,0.87834895,-0.25241026,-0.10482307,0.9040983,0.95627725,0.018393148,-0.20802186,0.945451,0.87729096,0.2989442,-0.5937066,0.6179016,0.32219082,-0.13335586,-0.6642407,0.34181663,802.6374,952.9304,799.81683,796.1905,674.90845,-0.25408935546875,0.104736328125,0.944091796875,1.98883056640625,-3.461761474609375,0.530853271484375,1.0,1.0,4.0,1.0,1.0,100.0,event
13:22:47.797,0.63838536,0.6887135,1.1266879,0.83136237,0.87834895,-0.25241026,-0.10482307,0.9040983,0.95627725,0.018393148,-0.20802186,0.945451,0.87729096,0.2989442,-0.5937066,0.6179016,0.32219082,-0.13335586,-0.6642407,0.34181663,805.8608,636.63007,799.81683,784.10254,761.53845,-0.25408935546875,0.104736328125,0.944091796875,1.98883056640625,-3.461761474609375,0.530853271484375,1.0,1.0,4.0,1.0,1.0,100.0,event
13:22:47.798,0.63838536,0.6887135,1.1266879,0.83136237,0.87834895,-0.25241026,-0.10482307,0.9040983,0.95627725,0.018393148,-0.20802186,0.945451,0.87729096,0.2989442,-0.5937066,0.6179016,0.32219082,-0.13335586,-0.6642407,0.34181663,793.36993,942.0513,797.8022,791.75824,700.696,-0.25408935546875,0.104736328125,0.944091796875,1.98883056640625,-3.461761474609375,0.530853271484375,1.0,1.0,4.0,1.0,1.0,100.0,event
13:22:47.798,0.63838536,0.6887135,1.1266879,0.83136237,0.87834895,-0.25241026,-0.10482307,0.9040983,0.95627725,0.018393148,-0.20802186,0.945451,0.87729096,0.2989442,-0.5937066,0.6179016,0.32219082,-0.13335586,-0.6642407,0.34181663,796.1905,749.85345,795.78754,785.7143,739.3773,-0.25408935546875,0.104736328125,0.944091796875,1.98883056640625,-3.461761474609375,0.530853271484375,1.0,1.0,4.0,1.0,1.0,100.0,event
13:22:47.799,0.63838536,0.6887135,1.1266879,0.83136237,0.87834895,-0.25241026,-0.10482307,0.9040983,0.95627725,0.018393148,-0.20802186,0.945451,0.87729096,0.2989442,-0.5937066,0.6179016,0.32219082,-0.13335586,-0.6642407,0.34181663,807.0696,929.15753,798.20514,799.011,749.0476,-0.25408935546875,0.104736328125,0.944091796875,1.98883056640625,-3.461761474609375,0.530853271484375,1.0,1.0,4.0,1.0,1.0,100.0,event
13:22:47.799,0.63838536,0.6887135,1.1266879,0.83136237,0.87834895,-0.25241026,-0.10482307,0.9040983,0.95627725,0.018393148,-0.20802186,0.945451,0.87729096,0.2989442,-0.5937066,0.6179016,0.32219082,-0.13335586,-0.6642407,0.34181663,812.3077,540.7326,799.011,801.8315,955.34796,-0.25408935546875,0.104736328125,0.944091796875,1.98883056640625,-3.461761474609375,0.530853271484375,1.0,1.0,4.0,1.0,1.0,100.0,event
13:22:47.800,0.63838536,0.6887135,1.1266879,0.83136237,0.87834895,-0.25241026,-0.10482307,0.9040983,0.95627725,0.018393148,-0.20802186,0.945451,0.87729096,0.2989442,-0.5937066,0.6179016,0.32219082,-0.13335586,-0.6642407,0.34181663,792.1612,440.40292,800.2198,799.011,967.8388,-0.25408935546875,0.104736328125,0.944091796875,1.98883056640625,-3.461761474609375,0.530853271484375,1.0,1.0,4.0,1.0,1.0,100.0,event
13:22:47.800,0.63838536,0.6887135,1.1266879,0.83136237,0.87834895,-0.25241026,-0.10482307,0.9040983,0.95627725,0.018393148,-0.20802186,0.945451,0.87729096,0.2989442,-0.5937066,0.6179016,0.32219082,-0.13335586,-0.6642407,0.34181663,786.1172,798.60803,798.20514,792.1612,763.95605,-0.25408935546875,0.104736328125,0.944091796875,1.98883056640625,-3.461761474609375,0.530853271484375,1.0,1.0,4.0,1.0,1.0,100.0,event
13:22:47.801,0.63838536,0.6887135,1.1266879,0.83136237,0.87834895,-0.25241026,-0.10482307,0.9040983,0.95627725,0.018393148,-0.20802186,0.945451,0.87729096,0.2989442,-0.5937066,0.6179016,0.32219082,-0.13335586,-0.6642407,0.34181663,798.20514,814.3223,796.99634,791.75824,738.5714,-0.25408935546875,0.104736328125,0.944091796875,1.98883056640625,-3.461761474609375,0.530853271484375,1.0,1.0,4.0,1.0,1.0,100.0,event
13:22:47.801,0.63838536,0.6887135,1.1266879,0.83136237,0.87834895,-0.25241026,-0.10482307,0.9040983,0.95627725,0.018393148,-0.20802186,0.945451,0.87729096,0.2989442,-0.5937066,0.6179016,0.32219082,-0.13335586,-0.6642407,0.34181663,807.0696,203.07692,800.6227,794.57874,1049.6337,-0.25408935546875,0.104736328125,0.944091796875,1.98883056640625,-3.461761474609375,0.530853271484375,1.0,1.0,4.0,1.0,1.0,100.0,event
13:22:47.802,0.63838536,0.6887135,1.1266879,0.83136237,0.87834895,-0.25241026,-0.10482307,0.9040983,0.95627725,0.018393148,-0.20802186,0.945451,0.87729096,0.2989442,-0.5937066,0.6179016,0.32219082,-0.13335586,-0.6642407,0.34181663,810.696,243.77289,802.6374,784.10254,988.3883,-0.25408935546875,0.104736328125,0.944091796875,1.98883056640625,-3.461761474609375,0.530853271484375,1.0,1.0,4.0,1.0,1.0,100.0,event
13:22:47.802,0.63838536,0.6887135,1.1091293,0.83136237,0.87834895,-0.25241026,-0.15185855,0.9040983,0.95627725,0.018393148,-0.08382606,0.945451,0.87729096,0.2989442,-0.5272363,0.6179016,0.32219082,-0.13335586,-0.6573859,0.34181663,796.99634,847.3626,802.6374,784.5055,701.9048,-0.25408935546875,0.104736328125,0.944091796875,1.98883056640625,-3.461761474609375,0.530853271484375,1.0,1.0,4.0,1.0,1.0,100.0,event
13:22:47.805,,,,,,,,,,,,,,,,,,,,,,,,,,,,,,,,,,,,,,blink
13:22:47.866,0.63838536,0.6887135,1.1091293,0.83136237,0.87834895,-0.25241026,-0.15185855,0.9040983,0.95627725,0.018393148,-0.08382606,0.945451,0.87729096,0.2989442,-0.5272363,0.6179016,0.32219082,-0.13335586,-0.6573859,0.34181663,790.54944,799.41394,803.0403,793.7729,671.28204,-0.24530029296875,0.107177734375,0.95745849609375,2.474822998046875,-4.987030029296875,-1.009368896484375,1.0,1.0,4.0,1.0,1.0,100.0,event
13:22:47.867,0.63838536,0.6887135,1.1091293,0.83136237,0.87834895,-0.25241026,-0.15185855,0.9040983,0.95627725,0.018393148,-0.08382606,0.945451,0.87729096,0.2989442,-0.5272363,0.6179016,0.32219082,-0.13335586,-0.6573859,0.34181663,781.28204,664.0293,797.3993,786.9231,713.9927,-0.24530029296875,0.107177734375,0.95745849609375,2.474822998046875,-4.987030029296875,-1.009368896484375,1.0,1.0,4.0,1.0,1.0,100.0,event
13:22:47.868,0.63838536,0.6887135,1.1091293,0.83136237,0.87834895,-0.25241026,-0.15185855,0.9040983,0.95627725,0.018393148,-0.08382606,0.945451,0.87729096,0.2989442,-0.5272363,0.6179016,0.32219082,-0.13335586,-0.6573859,0.34181663,787.326,915.05493,797.8022,792.5641,778.46155,-0.24530029296875,0.107177734375,0.95745849609375,2.474822998046875,-4.987030029296875,-1.009368896484375,1.0,1.0,4.0,1.0,1.0,100.0,event
13:22:47.868,0.63838536,0.6887135,1.1091293,0.83136237,0.87834895,-0.25241026,-0.15185855,0.9040983,0.95627725,0.018393148,-0.08382606,0.945451,0.87729096,0.2989442,-0.5272363,0.6179016,0.32219082,-0.13335586,-0.6573859,0.34181663,805.8608,1031.5018,802.6374,797.8022,801.02563,-0.24530029296875,0.107177734375,0.95745849609375,2.474822998046875,-4.987030029296875,-1.009368896484375,1.0,1.0,4.0,1.0,1.0,100.0,event
13:22:47.869,0.63838536,0.6887135,1.1091293,0.83136237,0.87834895,-0.25241026,-0.15185855,0.9040983,0.95627725,0.018393148,-0.08382606,0.945451,0.87729096,0.2989442,-0.5272363,0.6179016,0.32219082,-0.13335586,-0.6573859,0.34181663,796.5934,812.3077,804.2491,786.9231,811.9048,-0.24530029296875,0.107177734375,0.95745849609375,2.474822998046875,-4.987030029296875,-1.009368896484375,1.0,1.0,4.0,1.0,1.0,100.0,event
13:22:47.870,0.63838536,0.6887135,1.1091293,0.83136237,0.87834895,-0.25241026,-0.15185855,0.9040983,0.95627725,0.018393148,-0.08382606,0.945451,0.87729096,0.2989442,-0.5272363,0.6179016,0.32219082,-0.13335586,-0.6573859,0.34181663,773.6264,545.56775,803.0403,790.14655,897.72894,-0.24530029296875,0.107177734375,0.95745849609375,2.474822998046875,-4.987030029296875,-1.009368896484375,1.0,1.0,4.0,1.0,1.0,100.0,event
13:22:47.870,0.63838536,0.6887135,1.1091293,0.83136237,0.87834895,-0.25241026,-0.15185855,0.9040983,0.95627725,0.018393148,-0.08382606,0.945451,0.87729096,0.2989442,-0.5272363,0.6179016,0.32219082,-0.13335586,-0.6573859,0.34181663,779.2674,531.06226,802.23444,777.25275,905.38464,-0.24530029296875,0.107177734375,0.95745849609375,2.474822998046875,-4.987030029296875,-1.009368896484375,1.0,1.0,4.0,1.0,1.0,100.0,event
13:22:47.871,0.63838536,0.6887135,1.1091293,0.83136237,0.87834895,-0.25241026,-0.15185855,0.9040983,0.95627725,0.018393148,-0.08382606,0.945451,0.87729096,0.2989442,-0.5272363,0.6179016,0.32219082,-0.13335586,-0.6573859,0.34181663,803.44324,857.8388,799.011,785.7143,751.4652,-0.24530029296875,0.107177734375,0.95745849609375,2.474822998046875,-4.987030029296875,-1.009368896484375,1.0,1.0,4.0,1.0,1.0,100.0,event
13:22:47.872,0.63838536,0.6887135,1.1091293,0.83136237,0.87834895,-0.25241026,-0.15185855,0.9040983,0.95627725,0.018393148,-0.08382606,0.945451,0.87729096,0.2989442,-0.5272363,0.6179016,0.32219082,-0.13335586,-0.6573859,0.34181663,808.2784,688.20514,798.20514,800.2198,814.7253,-0.24530029296875,0.107177734375,0.95745849609375,2.474822998046875,-4.987030029296875,-1.009368896484375,1.0,1.0,4.0,1.0,1.0,100.0,event
13:22:47.872,0.63838536,0.6887135,1.1091293,0.83136237,0.87834895,-0.25241026,-0.15185855,0.9040983,0.95627725,0.018393148,-0.08382606,0.945451,0.87729096,0.2989442,-0.5272363,0.6179016,0.32219082,-0.13335586,-0.6573859,0.34181663,794.17584,142.23444,802.23444,792.96704,1068.9744,-0.24530029296875,0.107177734375,0.95745849609375,2.474822998046875,-4.987030029296875,-1.009368896484375,1.0,1.0,4.0,1.0,1.0,100.0,event
13:22:47.873,0.63838536,0.6887135,1.1091293,0.83136237,0.87834895,-0.25241026,-0.15185855,0.9040983,0.95627725,0.018393148,-0.08382606,0.945451,0.87729096,0.2989442,-0.5272363,0.6179016,0.32219082,-0.13335586,-0.6573859,0.34181663,784.10254,651.13556,796.99634,787.72894,856.2271,-0.24530029296875,0.107177734375,0.95745849609375,2.474822998046875,-4.987030029296875,-1.009368896484375,1.0,1.0,4.0,1.0,1.0,100.0,event
13:22:47.875,0.63838536,0.6887135,1.1091293,0.83136237,0.87834895,-0.25241026,-0.15185855,0.9040983,0.95627725,0.018393148,-0.08382606,0.945451,0.87729096,0.2989442,-0.5272363,0.6179016,0.32219082,-0.13335586,-0.6573859,0.34181663,790.54944,946.08057,792.96704,790.9524,716.4103,-0.24530029296875,0.107177734375,0.95745849609375,2.474822998046875,-4.987030029296875,-1.009368896484375,1.0,1.0,4.0,1.0,1.0,100.0,event
13:22:47.900,0.63838536,0.6887135,1.1091293,0.83136237,0.87834895,-0.25241026,-0.15185855,0.9040983,0.95627725,0.018393148,-0.08382606,0.945451,0.87729096,0.2989442,-0.5272363,0.6179016,0.32219082,-0.13335586,-0.6573859,0.34181663,805.4579,613.2601,796.1905,796.99634,927.1429,-0.23822021484375,0.10089111328125,0.9481201171875,2.5421142578125,-3.506622314453125,0.201873779296875,1.0,1.0,4.0,1.0,1.0,100.0,event
13:22:47.904,0.63838536,0.6887135,1.1091293,0.83136237,0.87834895,-0.25241026,-0.15185855,0.9040983,0.95627725,0.018393148,-0.08382606,0.945451,0.87729096,0.2989442,-0.5272363,0.6179016,0.32219082,-0.13335586,-0.6573859,0.34181663,808.2784,739.3773,801.02563,796.5934,918.68134,-0.23822021484375,0.10089111328125,0.9481201171875,2.5421142578125,-3.506622314453125,0.201873779296875,1.0,1.0,4.0,1.0,1.0,100.0,event
13:22:47.906,0.63838536,0.6887135,1.1091293,0.83136237,0.87834895,-0.25241026,-0.15185855,0.9040983,0.95627725,0.018393148,-0.08382606,0.945451,0.87729096,0.2989442,-0.5272363,0.6179016,0.32219082,-0.13335586,-0.6573859,0.34181663,793.7729,975.89746,800.6227,794.17584,788.93774,-0.23822021484375,0.10089111328125,0.9481201171875,2.5421142578125,-3.506622314453125,0.201873779296875,1.0,1.0,4.0,1.0,1.0,100.0,event
13:22:47.908,0.63838536,0.6887135,1.1091293,0.83136237,0.87834895,-0.25241026,-0.15185855,0.9040983,0.95627725,0.018393148,-0.08382606,0.945451,0.87729096,0.2989442,-0.5272363,0.6179016,0.32219082,-0.13335586,-0.6573859,0.34181663,790.9524,851.39197,799.41394,787.326,717.619,-0.23822021484375,0.10089111328125,0.9481201171875,2.5421142578125,-3.506622314453125,0.201873779296875,1.0,1.0,4.0,1.0,1.0,100.0,event
13:22:47.908,0.63838536,0.6887135,1.1091293,0.83136237,0.87834895,-0.25241026,-0.15185855,0.9040983,0.95627725,0.018393148,-0.08382606,0.945451,0.87729096,0.2989442,-0.5272363,0.6179016,0.32219082,-0.13335586,-0.6573859,0.34181663,795.78754,483.9194,802.23444,792.96704,754.68866,-0.23822021484375,0.10089111328125,0.9481201171875,2.5421142578125,-3.506622314453125,0.201873779296875,1.0,1.0,4.0,1.0,1.0,100.0,event
13:22:47.909,0.63838536,0.6887135,1.1091293,0.83136237,0.87834895,-0.25241026,-0.15185855,0.9040983,0.95627725,0.018393148,-0.08382606,0.945451,0.87729096,0.2989442,-0.5272363,0.6179016,0.32219082,-0.13335586,-0.6573859,0.34181663,805.4579,478.27838,801.02563,802.6374,812.3077,-0.23822021484375,0.10089111328125,0.9481201171875,2.5421142578125,-3.506622314453125,0.201873779296875,1.0,1.0,4.0,1.0,1.0,100.0,event
13:22:47.910,0.63838536,0.6887135,1.1091293,0.83136237,0.87834895,-0.25241026,-0.15185855,0.9040983,0.95627725,0.018393148,-0.08382606,0.945451,0.87729096,0.2989442,-0.5272363,0.6179016,0.32219082,-0.13335586,-0.6573859,0.34181663,814.3223,622.52747,799.41394,794.9817,818.7546,-0.23822021484375,0.10089111328125,0.9481201171875,2.5421142578125,-3.506622314453125,0.201873779296875,1.0,1.0,4.0,1.0,1.0,100.0,event
13:22:47.911,0.63838536,0.6887135,1.1091293,0.83136237,0.87834895,-0.25241026,-0.15185855,0.9040983,0.95627725,0.018393148,-0.08382606,0.945451,0.87729096,0.2989442,-0.5272363,0.6179016,0.32219082,-0.13335586,-0.6573859,0.34181663,816.337,553.22345,798.60803,786.9231,856.2271,-0.23822021484375,0.10089111328125,0.9481201171875,2.5421142578125,-3.506622314453125,0.201873779296875,1.0,1.0,4.0,1.0,1.0,100.0,event
13:22:47.912,0.63838536,0.6887135,1.1091293,0.83136237,0.87834895,-0.25241026,-0.15185855,0.9040983,0.95627725,0.018393148,-0.08382606,0.945451,0.87729096,0.2989442,-0.5272363,0.6179016,0.32219082,-0.13335586,-0.6573859,0.34181663,794.57874,139.01099,797.8022,782.49084,971.8681,-0.23822021484375,0.10089111328125,0.9481201171875,2.5421142578125,-3.506622314453125,0.201873779296875,1.0,1.0,4.0,1.0,1.0,100.0,event
13:22:47.913,0.63838536,0.6887135,1.1091293,0.83136237,0.87834895,-0.25241026,-0.15185855,0.9040983,0.95627725,0.018393148,-0.08382606,0.945451,0.87729096,0.2989442,-0.5272363,0.6179016,0.32219082,-0.13335586,-0.6573859,0.34181663,790.9524,203.07692,799.81683,790.14655,908.60803,-0.23822021484375,0.10089111328125,0.9481201171875,2.5421142578125,-3.506622314453125,0.201873779296875,1.0,1.0,4.0,1.0,1.0,100.0,event
13:22:47.914,0.63838536,0.6887135,1.1091293,0.83136237,0.87834895,-0.25241026,-0.15185855,0.9040983,0.95627725,0.018393148,-0.08382606,0.945451,0.87729096,0.2989442,-0.5272363,0.6179016,0.32219082,-0.13335586,-0.6573859,0.34181663,797.3993,863.47986,803.44324,796.1905,711.5751,-0.23822021484375,0.10089111328125,0.9481201171875,2.5421142578125,-3.506622314453125,0.201873779296875,1.0,1.0,4.0,1.0,1.0,100.0,event
13:22:47.915,0.63838536,0.6887135,1.1091293,0.83136237,0.87834895,-0.25241026,-0.15185855,0.9040983,0.95627725,0.018393148,-0.08382606,0.945451,0.87729096,0.2989442,-0.5272363,0.6179016,0.32219082,-0.13335586,-0.6573859,0.34181663,796.1905,877.1795,806.26373,798.20514,690.6227,-0.23822021484375,0.10089111328125,0.9481201171875,2.5421142578125,-3.506622314453125,0.201873779296875,1.0,1.0,4.0,1.0,1.0,100.0,event
13:22:47.938,0.63838536,0.6887135,1.1091293,0.83136237,0.87834895,-0.25241026,-0.15185855,0.9040983,0.95627725,0.018393148,-0.08382606,0.945451,0.87729096,0.2989442,-0.5272363,0.6179016,0.32219082,-0.13335586,-0.6573859,0.34181663,803.8461,652.74725,808.68134,805.8608,708.3516,-0.23822021484375,0.10089111328125,0.9481201171875,2.5421142578125,-3.506622314453125,0.201873779296875,1.0,1.0,4.0,1.0,1.0,100.0,event
13:22:47.939,0.63838536,0.6887135,1.0727081,0.83136237,0.87834895,-0.25241026,-0.18422632,0.9040983,0.95627725,0.018393148,-0.08290109,0.945451,0.87729096,0.2989442,-0.48162568,0.6179016,0.32219082,-0.13335586,-0.66204447,0.34181663,792.5641,814.7253,808.68134,801.8315,681.3553,-0.23822021484375,0.10089111328125,0.9481201171875,2.5421142578125,-3.506622314453125,0.201873779296875,1.0,1.0,4.0,1.0,1.0,100.0,event
13:22:47.944,0.63838536,0.6887135,1.0727081,0.83136237,0.87834895,-0.25241026,-0.18422632,0.9040983,0.95627725,0.018393148,-0.08290109,0.945451,0.87729096,0.2989442,-0.48162568,0.6179016,0.32219082,-0.13335586,-0.66204447,0.34181663,781.28204,841.7216,805.05493,788.1319,624.5421,-0.23822021484375,0.10089111328125,0.9481201171875,2.5421142578125,-3.506622314453125,0.201873779296875,1.0,1.0,4.0,1.0,1.0,100.0,event
13:22:47.944,0.63838536,0.6887135,1.0727081,0.83136237,0.87834895,-0.25241026,-0.18422632,0.9040983,0.95627725,0.018393148,-0.08290109,0.945451,0.87729096,0.2989442,-0.48162568,0.6179016,0.32219082,-0.13335586,-0.66204447,0.34181663,794.17584,578.60803,803.0403,796.5934,708.7546,-0.23822021484375,0.10089111328125,0.9481201171875,2.5421142578125,-3.506622314453125,0.201873779296875,1.0,1.0,4.0,1.0,1.0,100.0,event
13:22:47.945,0.63838536,0.6887135,1.0727081,0.83136237,0.87834895,-0.25241026,-0.18422632,0.9040983,0.95627725,0.018393148,-0.08290109,0.945451,0.87729096,0.2989442,-0.48162568,0.6179016,0.32219082,-0.13335586,-0.66204447,0.34181663,819.15753,565.7143,802.23444,804.65204,834.4689,-0.23822021484375,0.10089111328125,0.9481201171875,2.5421142578125,-3.506622314453125,0.201873779296875,1.0,1.0,4.0,1.0,1.0,100.0,event
13:22:47.946,0.63838536,0.6887135,1.0727081,0.83136237,0.87834895,-0.25241026,-0.18422632,0.9040983,0.95627725,0.018393148,-0.08290109,0.945451,0.87729096,0.2989442,-0.48162568,0.6179016,0.32219082,-0.13335586,-0.66204447,0.34181663,807.0696,641.06226,803.8461,799.81683,939.2308,-0.23822021484375,0.10089111328125,0.9481201171875,2.5421142578125,-3.506622314453125,0.201873779296875,1.0,1.0,4.0,1.0,1.0,100.0,event
13:22:47.946,0.63838536,0.6887135,1.0727081,0.83136237,0.87834895,-0.25241026,-0.18422632,0.9040983,0.95627725,0.018393148,-0.08290109,0.945451,0.87729096,0.2989442,-0.48162568,0.6179016,0.32219082,-0.13335586,-0.66204447,0.34181663,781.685,586.6667,805.8608,791.3553,854.21246,-0.23822021484375,0.10089111328125,0.9481201171875,2.5421142578125,-3.506622314453125,0.201873779296875,1.0,1.0,4.0,1.0,1.0,100.0,event
13:22:47.947,0.63838536,0.6887135,1.0727081,0.83136237,0.87834895,-0.25241026,-0.18422632,0.9040983,0.95627725,0.018393148,-0.08290109,0.945451,0.87729096,0.2989442,-0.48162568,0.6179016,0.32219082,-0.13335586,-0.66204447,0.34181663,777.6557,441.2088,802.6374,800.2198,759.5238,-0.23822021484375,0.10089111328125,0.9481201171875,2.5421142578125,-3.506622314453125,0.201873779296875,1.0,1.0,4.0,1.0,1.0,100.0,event
13:22:47.948,0.63838536,0.6887135,1.0727081,0.83136237,0.87834895,-0.25241026,-0.18422632,0.9040983,0.95627725,0.018393148,-0.08290109,0.945451,0.87729096,0.2989442,-0.48162568,0.6179016,0.32219082,-0.13335586,-0.66204447,0.34181663,790.9524,87.83883,803.44324,808.68134,933.1868,-0.23822021484375,0.10089111328125,0.9481201171875,2.5421142578125,-3.506622314453125,0.201873779296875,1.0,1.0,4.0,1.0,1.0,100.0,event
13:22:47.948,0.63838536,0.6887135,1.0727081,0.83136237,0.87834895,-0.25241026,-0.18422632,0.9040983,0.95627725,0.018393148,-0.08290109,0.945451,0.87729096,0.2989442,-0.48162568,0.6179016,0.32219082,-0.13335586,-0.66204447,0.34181663,805.8608,553.22345,803.0403,807.47253,775.2381,-0.23822021484375,0.10089111328125,0.9481201171875,2.5421142578125,-3.506622314453125,0.201873779296875,1.0,1.0,4.0,1.0,1.0,100.0,event
13:22:47.949,0.63838536,0.6887135,1.0727081,0.83136237,0.87834895,-0.25241026,-0.18422632,0.9040983,0.95627725,0.018393148,-0.08290109,0.945451,0.87729096,0.2989442,-0.48162568,0.6179016,0.32219082,-0.13335586,-0.66204447,0.34181663,800.6227,987.1795,800.6227,803.44324,711.1722,-0.23822021484375,0.10089111328125,0.9481201171875,2.5421142578125,-3.506622314453125,0.201873779296875,1.0,1.0,4.0,1.0,1.0,100.0,event
13:22:47.950,0.63838536,0.6887135,1.0727081,0.83136237,0.87834895,-0.25241026,-0.18422632,0.9040983,0.95627725,0.018393148,-0.08290109,0.945451,0.87729096,0.2989442,-0.48162568,0.6179016,0.32219082,-0.13335586,-0.66204447,0.34181663,796.1905,763.95605,805.4579,794.9817,870.32965,-0.23822021484375,0.10089111328125,0.9481201171875,2.5421142578125,-3.506622314453125,0.201873779296875,1.0,1.0,4.0,1.0,1.0,100.0,event
13:22:48.018,0.63838536,0.6887135,1.0727081,0.83136237,0.87834895,-0.25241026,-0.18422632,0.9040983,0.95627725,0.018393148,-0.08290109,0.945451,0.87729096,0.2989442,-0.48162568,0.6179016,0.32219082,-0.13335586,-0.66204447,0.34181663,791.75824,759.92676,808.68134,792.1612,782.0879,-0.237548828125,0.0982666015625,0.94818115234375,1.65985107421875,-3.66363525390625,-0.336456298828125,1.0,1.0,4.0,1.0,1.0,100.0,event
13:22:48.020,0.63838536,0.6887135,1.0727081,0.83136237,0.87834895,-0.25241026,-0.18422632,0.9040983,0.95627725,0.018393148,-0.08290109,0.945451,0.87729096,0.2989442,-0.48162568,0.6179016,0.32219082,-0.13335586,-0.66204447,0.34181663,794.57874,950.5128,805.8608,799.41394,684.9817,-0.237548828125,0.0982666015625,0.94818115234375,1.65985107421875,-3.66363525390625,-0.336456298828125,1.0,1.0,4.0,1.0,1.0,100.0,event
13:22:48.020,0.63838536,0.6887135,1.0727081,0.83136237,0.87834895,-0.25241026,-0.18422632,0.9040983,0.95627725,0.018393148,-0.08290109,0.945451,0.87729096,0.2989442,-0.48162568,0.6179016,0.32219082,-0.13335586,-0.66204447,0.34181663,814.7253,951.7216,807.0696,808.68134,738.97437,-0.237548828125,0.0982666015625,0.94818115234375,1.65985107421875,-3.66363525390625,-0.336456298828125,1.0,1.0,4.0,1.0,1.0,100.0,event
13:22:48.021,0.63838536,0.6887135,1.0727081,0.83136237,0.87834895,-0.25241026,-0.18422632,0.9040983,0.95627725,0.018393148,-0.08290109,0.945451,0.87729096,0.2989442,-0.48162568,0.6179016,0.32219082,-0.13335586,-0.66204447,0.34181663,815.12823,690.2198,805.05493,798.60803,799.41394,-0.237548828125,0.0982666015625,0.94818115234375,1.65985107421875,-3.66363525390625,-0.336456298828125,1.0,1.0,4.0,1.0,1.0,100.0,event
13:22:48.022,0.63838536,0.6887135,1.0727081,0.83136237,0.87834895,-0.25241026,-0.18422632,0.9040983,0.95627725,0.018393148,-0.08290109,0.945451,0.87729096,0.2989442,-0.48162568,0.6179016,0.32219082,-0.13335586,-0.66204447,0.34181663,793.7729,747.03296,799.41394,784.10254,797.3993,-0.237548828125,0.0982666015625,0.94818115234375,1.65985107421875,-3.66363525390625,-0.336456298828125,1.0,1.0,4.0,1.0,1.0,100.0,event
13:22:48.023,0.63838536,0.6887135,1.0727081,0.83136237,0.87834895,-0.25241026,-0.18422632,0.9040983,0.95627725,0.018393148,-0.08290109,0.945451,0.87729096,0.2989442,-0.48162568,0.6179016,0.32219082,-0.13335586,-0.66204447,0.34181663,789.34064,711.5751,799.81683,772.4176,853.8095,-0.237548828125,0.0982666015625,0.94818115234375,1.65985107421875,-3.66363525390625,-0.336456298828125,1.0,1.0,4.0,1.0,1.0,100.0,event
13:22:48.024,0.63838536,0.6887135,1.0727081,0.83136237,0.87834895,-0.25241026,-0.18422632,0.9040983,0.95627725,0.018393148,-0.08290109,0.945451,0.87729096,0.2989442,-0.48162568,0.6179016,0.32219082,-0.13335586,-0.66204447,0.34181663,792.5641,613.663,799.41394,780.4762,854.21246,-0.237548828125,0.0982666015625,0.94818115234375,1.65985107421875,-3.66363525390625,-0.336456298828125,1.0,1.0,4.0,1.0,1.0,100.0,event
13:22:48.025,0.63838536,0.6887135,1.0727081,0.83136237,0.87834895,-0.25241026,-0.18422632,0.9040983,0.95627725,0.018393148,-0.08290109,0.945451,0.87729096,0.2989442,-0.48162568,0.6179016,0.32219082,-0.13335586,-0.66204447,0.34181663,797.3993,230.4762,803.0403,793.7729,1119.3407,-0.237548828125,0.0982666015625,0.94818115234375,1.65985107421875,-3.66363525390625,-0.336456298828125,1.0,1.0,4.0,1.0,1.0,100.0,event
13:22:48.025,0.63838536,0.6887135,1.0727081,0.83136237,0.87834895,-0.25241026,-0.18422632,0.9040983,0.95627725,0.018393148,-0.08290109,0.945451,0.87729096,0.2989442,-0.48162568,0.6179016,0.32219082,-0.13335586,-0.66204447,0.34181663,818.7546,108.79121,805.8608,798.20514,1215.641,-0.237548828125,0.0982666015625,0.94818115234375,1.65985107421875,-3.66363525390625,-0.336456298828125,1.0,1.0,4.0,1.0,1.0,100.0,event
13:22:48.026,0.63838536,0.6887135,1.0727081,0.83136237,0.87834895,-0.25241026,-0.18422632,0.9040983,0.95627725,0.018393148,-0.08290109,0.945451,0.87729096,0.2989442,-0.48162568,0.6179016,0.32219082,-0.13335586,-0.66204447,0.34181663,819.15753,783.69965,803.8461,796.5934,803.8461,-0.237548828125,0.0982666015625,0.94818115234375,1.65985107421875,-3.66363525390625,-0.336456298828125,1.0,1.0,4.0,1.0,1.0,100.0,event
13:22:48.027,0.63838536,0.6887135,1.0727081,0.83136237,0.87834895,-0.25241026,-0.18422632,0.9040983,0.95627725,0.018393148,-0.08290109,0.945451,0.87729096,0.2989442,-0.48162568,0.6179016,0.32219082,-0.13335586,-0.66204447,0.34181663,778.46155,864.68866,804.2491,780.87915,694.2491,-0.237548828125,0.0982666015625,0.94818115234375,1.65985107421875,-3.66363525390625,-0.336456298828125,1.0,1.0,4.0,1.0,1.0,100.0,event
13:22:48.028,0.63838536,0.6887135,1.0727081,0.83136237,0.87834895,-0.25241026,-0.18422632,0.9040983,0.95627725,0.018393148,-0.08290109,0.945451,0.87729096,0.2989442,-0.48162568,0.6179016,0.32219082,-0.13335586,-0.66204447,0.34181663,774.0293,691.4286,807.8755,780.07324,746.2271,-0.237548828125,0.0982666015625,0.94818115234375,1.65985107421875,-3.66363525390625,-0.336456298828125,1.0,1.0,4.0,1.0,1.0,100.0,event
13:22:48.049,0.63838536,0.6887135,1.0727081,0.83136237,0.87834895,-0.25241026,-0.18422632,0.9040983,0.95627725,0.018393148,-0.08290109,0.945451,0.87729096,0.2989442,-0.48162568,0.6179016,0.32219082,-0.13335586,-0.66204447,0.34181663,796.1905,909.011,806.26373,791.3553,709.15753,-0.24932861328125,0.10992431640625,0.95599365234375,3.5589599609375,-2.773895263671875,0.874786376953125,1.0,1.0,4.0,1.0,1.0,100.0,event
13:22:48.050,0.63838536,0.6887135,1.0727081,0.83136237,0.87834895,-0.25241026,-0.18422632,0.9040983,0.95627725,0.018393148,-0.08290109,0.945451,0.87729096,0.2989442,-0.48162568,0.6179016,0.32219082,-0.13335586,-0.66204447,0.34181663,791.3553,1004.10254,807.47253,793.36993,710.3663,-0.24932861328125,0.10992431640625,0.95599365234375,3.5589599609375,-2.773895263671875,0.874786376953125,1.0,1.0,4.0,1.0,1.0,100.0,event
13:22:48.051,0.63838536,0.6887135,1.0727081,0.83136237,0.87834895,-0.25241026,-0.18422632,0.9040983,0.95627725,0.018393148,-0.08290109,0.945451,0.87729096,0.2989442,-0.48162568,0.6179016,0.32219082,-0.13335586,-0.66204447,0.34181663,788.5348,808.68134,811.9048,801.02563,738.1685,-0.24932861328125,0.10992431640625,0.95599365234375,3.5589599609375,-2.773895263671875,0.874786376953125,1.0,1.0,4.0,1.0,1.0,100.0,event
13:22:48.051,0.63838536,0.6887135,1.0328459,0.83136237,0.87834895,-0.25241026,-0.19903222,0.9040983,0.95627725,0.018393148,-0.07707997,0.945451,0.87729096,0.2989442,-0.44823354,0.6179016,0.32219082,-0.13335586,-0.6701144,0.34181663,777.25275,693.0403,808.2784,792.1612,750.2564,-0.24932861328125,0.10992431640625,0.95599365234375,3.5589599609375,-2.773895263671875,0.874786376953125,1.0,1.0,4.0,1.0,1.0,100.0,event
13:22:48.055,0.63838536,0.6887135,1.0328459,0.83136237,0.87834895,-0.25241026,-0.19903222,0.9040983,0.95627725,0.018393148,-0.07707997,0.945451,0.87729096,0.2989442,-0.44823354,0.6179016,0.32219082,-0.13335586,-0.6701144,0.34181663,776.04395,789.7436,808.68134,780.4762,683.36993,-0.24932861328125,0.10992431640625,0.95599365234375,3.5589599609375,-2.773895263671875,0.874786376953125,1.0,1.0,4.0,1.0,1.0,100.0,event
13:22:48.056,0.63838536,0.6887135,1.0328459,0.83136237,0.87834895,-0.25241026,-0.19903222,0.9040983,0.95627725,0.018393148,-0.07707997,0.945451,0.87729096,0.2989442,-0.44823354,0.6179016,0.32219082,-0.13335586,-0.6701144,0.34181663,798.60803,747.03296,809.89014,790.9524,736.1539,-0.24932861328125,0.10992431640625,0.95599365234375,3.5589599609375,-2.773895263671875,0.874786376953125,1.0,1.0,4.0,1.0,1.0,100.0,event
13:22:48.057,0.63838536,0.6887135,1.0328459,0.83136237,0.87834895,-0.25241026,-0.19903222,0.9040983,0.95627725,0.018393148,-0.07707997,0.945451,0.87729096,0.2989442,-0.44823354,0.6179016,0.32219082,-0.13335586,-0.6701144,0.34181663,799.81683,463.7729,809.89014,798.20514,894.5055,-0.24932861328125,0.10992431640625,0.95599365234375,3.5589599609375,-2.773895263671875,0.874786376953125,1.0,1.0,4.0,1.0,1.0,100.0,event
13:22:48.057,0.63838536,0.6887135,1.0328459,0.83136237,0.87834895,-0.25241026,-0.19903222,0.9040983,0.95627725,0.018393148,-0.07707997,0.945451,0.87729096,0.2989442,-0.44823354,0.6179016,0.32219082,-0.13335586,-0.6701144,0.34181663,788.93774,123.69963,810.696,789.7436,1027.4725,-0.24932861328125,0.10992431640625,0.95599365234375,3.5589599609375,-2.773895263671875,0.874786376953125,1.0,1.0,4.0,1.0,1.0,100.0,event
13:22:48.058,0.63838536,0.6887135,1.0328459,0.83136237,0.87834895,-0.25241026,-0.19903222,0.9040983,0.95627725,0.018393148,-0.07707997,0.945451,0.87729096,0.2989442,-0.44823354,0.6179016,0.32219082,-0.13335586,-0.6701144,0.34181663,780.87915,556.8498,808.68134,777.6557,811.0989,-0.24932861328125,0.10992431640625,0.95599365234375,3.5589599609375,-2.773895263671875,0.874786376953125,1.0,1.0,4.0,1.0,1.0,100.0,event
13:22:48.059,0.63838536,0.6887135,1.0328459,0.83136237,0.87834895,-0.25241026,-0.19903222,0.9040983,0.95627725,0.018393148,-0.07707997,0.945451,0.87729096,0.2989442,-0.44823354,0.6179016,0.32219082,-0.13335586,-0.6701144,0.34181663,796.5934,786.1172,805.4579,784.10254,726.8865,-0.24932861328125,0.10992431640625,0.95599365234375,3.5589599609375,-2.773895263671875,0.874786376953125,1.0,1.0,4.0,1.0,1.0,100.0,event
13:22:48.059,0.63838536,0.6887135,1.0328459,0.83136237,0.87834895,-0.25241026,-0.19903222,0.9040983,0.95627725,0.018393148,-0.07707997,0.945451,0.87729096,0.2989442,-0.44823354,0.6179016,0.32219082,-0.13335586,-0.6701144,0.34181663,810.696,510.1099,805.8608,793.36993,817.5458,-0.24932861328125,0.10992431640625,0.95599365234375,3.5589599609375,-2.773895263671875,0.874786376953125,1.0,1.0,4.0,1.0,1.0,100.0,event
13:22:48.060,0.63838536,0.6887135,1.0328459,0.83136237,0.87834895,-0.25241026,-0.19903222,0.9040983,0.95627725,0.018393148,-0.07707997,0.945451,0.87729096,0.2989442,-0.44823354,0.6179016,0.32219082,-0.13335586,-0.6701144,0.34181663,806.6667,626.55676,808.68134,796.99634,826.8132,-0.24932861328125,0.10992431640625,0.95599365234375,3.5589599609375,-2.773895263671875,0.874786376953125,1.0,1.0,4.0,1.0,1.0,100.0,event
13:22:48.098,0.63838536,0.6887135,1.0328459,0.83136237,0.87834895,-0.25241026,-0.19903222,0.9040983,0.95627725,0.018393148,-0.07707997,0.945451,0.87729096,0.2989442,-0.44823354,0.6179016,0.32219082,-0.13335586,-0.6701144,0.34181663,786.1172,936.0073,807.47253,794.57874,756.30035,-0.25323486328125,0.112548828125,0.9503173828125,2.714080810546875,-2.03369140625,0.31402587890625,1.0,1.0,4.0,1.0,1.0,100.0,event
13:22:48.099,0.63838536,0.6887135,1.0328459,0.83136237,0.87834895,-0.25241026,-0.19903222,0.9040983,0.95627725,0.018393148,-0.07707997,0.945451,0.87729096,0.2989442,-0.44823354,0.6179016,0.32219082,-0.13335586,-0.6701144,0.34181663,774.0293,864.2857,803.8461,782.0879,674.5055,-0.25323486328125,0.112548828125,0.9503173828125,2.714080810546875,-2.03369140625,0.31402587890625,1.0,1.0,4.0,1.0,1.0,100.0,event
13:22:48.100,0.63838536,0.6887135,1.0328459,0.83136237,0.87834895,-0.25241026,-0.19903222,0.9040983,0.95627725,0.018393148,-0.07707997,0.945451,0.87729096,0.2989442,-0.44823354,0.6179016,0.32219082,-0.13335586,-0.6701144,0.34181663,790.14655,601.978,804.2491,789.34064,729.707,-0.25323486328125,0.112548828125,0.9503173828125,2.714080810546875,-2.03369140625,0.31402587890625,1.0,1.0,4.0,1.0,1.0,100.0,event
13:22:48.101,0.63838536,0.6887135,1.0328459,0.83136237,0.87834895,-0.25241026,-0.19903222,0.9040983,0.95627725,0.018393148,-0.07707997,0.945451,0.87729096,0.2989442,-0.44823354,0.6179016,0.32219082,-0.13335586,-0.6701144,0.34181663,803.8461,771.2088,806.26373,793.7729,727.6923,-0.25323486328125,0.112548828125,0.9503173828125,2.714080810546875,-2.03369140625,0.31402587890625,1.0,1.0,4.0,1.0,1.0,100.0,event
13:22:48.102,0.63838536,0.6887135,1.0328459,0.83136237,0.87834895,-0.25241026,-0.19903222,0.9040983,0.95627725,0.018393148,-0.07707997,0.945451,0.87729096,0.2989442,-0.44823354,0.6179016,0.32219082,-0.13335586,-0.6701144,0.34181663,807.47253,979.5238,801.4286,786.9231,713.9927,-0.25323486328125,0.112548828125,0.9503173828125,2.714080810546875,-2.03369140625,0.31402587890625,1.0,1.0,4.0,1.0,1.0,100.0,event
13:22:48.103,0.63838536,0.6887135,1.0328459,0.83136237,0.87834895,-0.25241026,-0.19903222,0.9040983,0.95627725,0.018393148,-0.07707997,0.945451,0.87729096,0.2989442,-0.44823354,0.6179016,0.32219082,-0.13335586,-0.6701144,0.34181663,783.2967,706.7399,799.41394,783.69965,869.5238,-0.25323486328125,0.112548828125,0.9503173828125,2.714080810546875,-2.03369140625,0.31402587890625,1.0,1.0,4.0,1.0,1.0,100.0,event
13:22:48.103,0.63838536,0.6887135,1.0328459,0.83136237,0.87834895,-0.25241026,-0.19903222,0.9040983,0.95627725,0.018393148,-0.07707997,0.945451,0.87729096,0.2989442,-0.44823354,0.6179016,0.32219082,-0.13335586,-0.6701144,0.34181663,761.9414,210.32967,801.4286,784.5055,1039.5604,-0.25323486328125,0.112548828125,0.9503173828125,2.714080810546875,-2.03369140625,0.31402587890625,1.0,1.0,4.0,1.0,1.0,100.0,event
13:22:48.104,0.63838536,0.6887135,1.0328459,0.83136237,0.87834895,-0.25241026,-0.19903222,0.9040983,0.95627725,0.018393148,-0.07707997,0.945451,0.87729096,0.2989442,-0.44823354,0.6179016,0.32219082,-0.13335586,-0.6701144,0.34181663,785.31134,418.64468,801.4286,778.46155,851.79486,-0.25323486328125,0.112548828125,0.9503173828125,2.714080810546875,-2.03369140625,0.31402587890625,1.0,1.0,4.0,1.0,1.0,100.0,event
13:22:48.105,0.63838536,0.6887135,1.0328459,0.83136237,0.87834895,-0.25241026,-0.19903222,0.9040983,0.95627725,0.018393148,-0.07707997,0.945451,0.87729096,0.2989442,-0.44823354,0.6179016,0.32219082,-0.13335586,-0.6701144,0.34181663,801.02563,959.3773,802.23444,783.69965,660.40295,-0.25323486328125,0.112548828125,0.9503173828125,2.714080810546875,-2.03369140625,0.31402587890625,1.0,1.0,4.0,1.0,1.0,100.0,event
13:22:48.106,0.63838536,0.6887135,1.0328459,0.83136237,0.87834895,-0.25241026,-0.19903222,0.9040983,0.95627725,0.018393148,-0.07707997,0.945451,0.87729096,0.2989442,-0.44823354,0.6179016,0.32219082,-0.13335586,-0.6701144,0.34181663,797.3993,899.7436,804.2491,796.1905,731.7216,-0.25323486328125,0.112548828125,0.9503173828125,2.714080810546875,-2.03369140625,0.31402587890625,1.0,1.0,4.0,1.0,1.0,100.0,event
13:22:48.106,0.63838536,0.6887135,1.0328459,0.83136237,0.87834895,-0.25241026,-0.19903222,0.9040983,0.95627725,0.018393148,-0.07707997,0.945451,0.87729096,0.2989442,-0.44823354,0.6179016,0.32219082,-0.13335586,-0.6701144,0.34181663,797.8022,279.6337,804.2491,799.011,914.2491,-0.25323486328125,0.112548828125,0.9503173828125,2.714080810546875,-2.03369140625,0.31402587890625,1.0,1.0,4.0,1.0,1.0,100.0,event
13:22:48.107,0.63838536,0.6887135,1.0328459,0.83136237,0.87834895,-0.25241026,-0.19903222,0.9040983,0.95627725,0.018393148,-0.07707997,0.945451,0.87729096,0.2989442,-0.44823354,0.6179016,0.32219082,-0.13335586,-0.6701144,0.34181663,791.3553,428.31503,803.44324,797.8022,872.3443,-0.25323486328125,0.112548828125,0.9503173828125,2.714080810546875,-2.03369140625,0.31402587890625,1.0,1.0,4.0,1.0,1.0,100.0,event
13:22:48.143,0.63838536,0.6887135,1.0328459,0.83136237,0.87834895,-0.25241026,-0.19903222,0.9040983,0.95627725,0.018393148,-0.07707997,0.945451,0.87729096,0.2989442,-0.44823354,0.6179016,0.32219082,-0.13335586,-0.6701144,0.34181663,788.1319,830.84247,805.05493,789.7436,720.4396,-0.25018310546875,0.1072998046875,0.949951171875,1.7645263671875,-2.572021484375,-0.874786376953125,1.0,1.0,4.0,1.0,1.0,100.0,event
13:22:48.145,0.63838536,0.6887135,1.0328459,0.83136237,0.87834895,-0.25241026,-0.19903222,0.9040983,0.95627725,0.018393148,-0.07707997,0.945451,0.87729096,0.2989442,-0.44823354,0.6179016,0.32219082,-0.13335586,-0.6701144,0.34181663,792.96704,612.0513,805.05493,793.7729,809.0842,-0.25018310546875,0.1072998046875,0.949951171875,1.7645263671875,-2.572021484375,-0.874786376953125,1.0,1.0,4.0,1.0,1.0,100.0,event
13:22:48.148,0.63838536,0.6887135,1.0328459,0.83136237,0.87834895,-0.25241026,-0.19903222,0.9040983,0.95627725,0.018393148,-0.07707997,0.945451,0.87729096,0.2989442,-0.44823354,0.6179016,0.32219082,-0.13335586,-0.6701144,0.34181663,795.78754,329.19415,806.26373,802.6374,974.2857,-0.25018310546875,0.1072998046875,0.949951171875,1.7645263671875,-2.572021484375,-0.874786376953125,1.0,1.0,4.0,1.0,1.0,100.0,event
13:22:48.149,0.63838536,0.6887135,1.0328459,0.83136237,0.87834895,-0.25241026,-0.19903222,0.9040983,0.95627725,0.018393148,-0.07707997,0.945451,0.87729096,0.2989442,-0.44823354,0.6179016,0.32219082,-0.13335586,-0.6701144,0.34181663,799.41394,703.1135,806.26373,782.8938,806.6667,-0.25018310546875,0.1072998046875,0.949951171875,1.7645263671875,-2.572021484375,-0.874786376953125,1.0,1.0,4.0,1.0,1.0,100.0,event
13:22:48.150,0.63838536,0.6887135,1.0328459,0.83136237,0.87834895,-0.25241026,-0.19903222,0.9040983,0.95627725,0.018393148,-0.07707997,0.945451,0.87729096,0.2989442,-0.44823354,0.6179016,0.32219082,-0.13335586,-0.6701144,0.34181663,782.8938,959.7802,802.23444,784.5055,669.67035,-0.25018310546875,0.1072998046875,0.949951171875,1.7645263671875,-2.572021484375,-0.874786376953125,1.0,1.0,4.0,1.0,1.0,100.0,event
13:22:48.151,0.63838536,0.6887135,0.990776,0.83136237,0.87834895,-0.25241026,-0.21406254,0.9040983,0.95627725,0.018393148,-0.072869405,0.945451,0.87729096,0.2989442,-0.42491883,0.6179016,0.32219082,-0.13335586,-0.6727264,0.34181663,767.1795,601.978,803.0403,787.72894,786.9231,-0.25018310546875,0.1072998046875,0.949951171875,1.7645263671875,-2.572021484375,-0.874786376953125,1.0,1.0,4.0,1.0,1.0,100.0,event
13:22:48.155,0.63838536,0.6887135,0.990776,0.83136237,0.87834895,-0.25241026,-0.21406254,0.9040983,0.95627725,0.018393148,-0.072869405,0.945451,0.87729096,0.2989442,-0.42491883,0.6179016,0.32219082,-0.13335586,-0.6727264,0.34181663,793.7729,364.652,804.2491,796.5934,894.5055,-0.25018310546875,0.1072998046875,0.949951171875,1.7645263671875,-2.572021484375,-0.874786376953125,1.0,1.0,4.0,1.0,1.0,100.0,event
13:22:48.156,0.63838536,0.6887135,0.990776,0.83136237,0.87834895,-0.25241026,-0.21406254,0.9040983,0.95627725,0.018393148,-0.072869405,0.945451,0.87729096,0.2989442,-0.42491883,0.6179016,0.32219082,-0.13335586,-0.6727264,0.34181663,815.5311,759.92676,804.2491,809.4872,814.3223,-0.25018310546875,0.1072998046875,0.949951171875,1.7645263671875,-2.572021484375,-0.874786376953125,1.0,1.0,4.0,1.0,1.0,100.0,event
13:22:48.157,0.63838536,0.6887135,0.990776,0.83136237,0.87834895,-0.25241026,-0.21406254,0.9040983,0.95627725,0.018393148,-0.072869405,0.945451,0.87729096,0.2989442,-0.42491883,0.6179016,0.32219082,-0.13335586,-0.6727264,0.34181663,811.0989,1020.6227,807.8755,800.6227,689.41394,-0.25018310546875,0.1072998046875,0.949951171875,1.7645263671875,-2.572021484375,-0.874786376953125,1.0,1.0,4.0,1.0,1.0,100.0,event
13:22:48.158,0.63838536,0.6887135,0.990776,0.83136237,0.87834895,-0.25241026,-0.21406254,0.9040983,0.95627725,0.018393148,-0.072869405,0.945451,0.87729096,0.2989442,-0.42491883,0.6179016,0.32219082,-0.13335586,-0.6727264,0.34181663,795.78754,625.34796,809.0842,794.57874,759.92676,-0.25018310546875,0.1072998046875,0.949951171875,1.7645263671875,-2.572021484375,-0.874786376953125,1.0,1.0,4.0,1.0,1.0,100.0,event
13:22:48.159,0.63838536,0.6887135,0.990776,0.83136237,0.87834895,-0.25241026,-0.21406254,0.9040983,0.95627725,0.018393148,-0.072869405,0.945451,0.87729096,0.2989442,-0.42491883,0.6179016,0.32219082,-0.13335586,-0.6727264,0.34181663,788.5348,402.9304,808.2784,792.1612,854.21246,-0.25018310546875,0.1072998046875,0.949951171875,1.7645263671875,-2.572021484375,-0.874786376953125,1.0,1.0,4.0,1.0,1.0,100.0,event
13:22:48.159,0.63838536,0.6887135,0.990776,0.83136237,0.87834895,-0.25241026,-0.21406254,0.9040983,0.95627725,0.018393148,-0.072869405,0.945451,0.87729096,0.2989442,-0.42491883,0.6179016,0.32219082,-0.13335586,-0.6727264,0.34181663,785.7143,892.8938,807.0696,788.93774,752.674,-0.25018310546875,0.1072998046875,0.949951171875,1.7645263671875,-2.572021484375,-0.874786376953125,1.0,1.0,4.0,1.0,1.0,100.0,event
13:22:48.211,0.63838536,0.6887135,0.990776,0.83136237,0.87834895,-0.25241026,-0.21406254,0.9040983,0.95627725,0.018393148,-0.072869405,0.945451,0.87729096,0.2989442,-0.42491883,0.6179016,0.32219082,-0.13335586,-0.6727264,0.34181663,805.4579,1069.7803,805.05493,791.3553,791.3553,-0.25018310546875,0.1072998046875,0.949951171875,1.7645263671875,-2.572021484375,-0.874786376953125,1.0,1.0,4.0,1.0,1.0,100.0,event
13:22:48.213,0.63838536,0.6887135,0.990776,0.83136237,0.87834895,-0.25241026,-0.21406254,0.9040983,0.95627725,0.018393148,-0.072869405,0.945451,0.87729096,0.2989442,-0.42491883,0.6179016,0.32219082,-0.13335586,-0.6727264,0.34181663,815.5311,775.2381,809.89014,799.41394,872.74725,-0.25018310546875,0.1072998046875,0.949951171875,1.7645263671875,-2.572021484375,-0.874786376953125,1.0,1.0,4.0,1.0,1.0,100.0,event
