TimeStamp,Delta_TP9,Delta_AF7,Delta_AF8,Delta_TP10,Theta_TP9,Theta_AF7,Theta_AF8,Theta_TP10,Alpha_TP9,Alpha_AF7,Alpha_AF8,Alpha_TP10,Beta_TP9,Beta_AF7,Beta_AF8,Beta_TP10,Gamma_TP9,Gamma_AF7,Gamma_AF8,Gamma_TP10,RAW_TP9,RAW_AF7,RAW_AF8,RAW_TP10,AUX_RIGHT,Accelerometer_X,Accelerometer_Y,Accelerometer_Z,Gyro_X,Gyro_Y,Gyro_Z,HeadBandOn,HSI_TP9,HSI_AF7,HSI_AF8,HSI_TP10,Battery,Elements
10:19:03.981,0.7488833,1.2513685,0.89763486,0.74920267,-0.26025718,0.09572473,0.17116362,0.0002297784,0.21550603,0.06751318,-0.31707877,0.27689528,0.73528856,-0.11483583,-0.39804792,0.4914367,0.30932054,-0.6624964,-0.57764316,0.18785802,822.381,819.5604,790.54944,823.5897,833.2601,-0.17974853515625,0.0906982421875,0.96038818359375,2.58697509765625,-3.36456298828125,0.46356201171875,1.0,2.0,1.0,1.0,2.0,95.0,event
10:19:03.981,0.7488833,1.2513685,0.89763486,0.74920267,-0.26025718,0.09572473,0.17116362,0.0002297784,0.21550603,0.06751318,-0.31707877,0.27689528,0.73528856,-0.11483583,-0.39804792,0.4914367,0.30932054,-0.6624964,-0.57764316,0.18785802,834.4689,824.7985,790.54944,806.6667,746.2271,-0.17974853515625,0.0906982421875,0.96038818359375,2.58697509765625,-3.36456298828125,0.46356201171875,1.0,2.0,1.0,1.0,2.0,95.0,event
10:19:03.982,0.7488833,1.2513685,0.89763486,0.74920267,-0.26025718,0.09572473,0.17116362,0.0002297784,0.21550603,0.06751318,-0.31707877,0.27689528,0.73528856,-0.11483583,-0.39804792,0.4914367,0.30932054,-0.6624964,-0.57764316,0.18785802,822.7839,821.1722,792.5641,822.381,841.7216,-0.17974853515625,0.0906982421875,0.96038818359375,2.58697509765625,-3.36456298828125,0.46356201171875,1.0,2.0,1.0,1.0,2.0,95.0,event
10:19:03.983,0.7488833,1.2513685,0.89763486,0.74920267,-0.26025718,0.09572473,0.17116362,0.0002297784,0.21550603,0.06751318,-0.31707877,0.27689528,0.73528856,-0.11483583,-0.39804792,0.4914367,0.30932054,-0.6624964,-0.57764316,0.18785802,823.5897,825.2015,794.9817,825.2015,722.8571,-0.17974853515625,0.0906982421875,0.96038818359375,2.58697509765625,-3.36456298828125,0.46356201171875,1.0,2.0,1.0,1.0,2.0,95.0,event
10:19:04.005,0.7488833,1.2513685,0.89763486,0.74920267,-0.26025718,0.09572473,0.17116362,0.0002297784,0.21550603,0.06751318,-0.31707877,0.27689528,0.73528856,-0.11483583,-0.39804792,0.4914367,0.30932054,-0.6624964,-0.57764316,0.18785802,818.3516,819.5604,793.36993,828.022,759.12085,-0.1865234375,0.09423828125,0.96759033203125,2.2430419921875,-2.811279296875,0.620574951171875,1.0,2.0,1.0,1.0,2.0,95.0,event
10:19:04.006,0.7488833,1.2513685,0.89763486,0.74920267,-0.26025718,0.09572473,0.17116362,0.0002297784,0.21550603,0.06751318,-0.31707877,0.27689528,0.73528856,-0.11483583,-0.39804792,0.4914367,0.30932054,-0.6624964,-0.57764316,0.18785802,829.2308,815.5311,790.9524,813.1135,826.4103,-0.1865234375,0.09423828125,0.96759033203125,2.2430419921875,-2.811279296875,0.620574951171875,1.0,2.0,1.0,1.0,2.0,95.0,event
10:19:04.007,0.7488833,1.2513685,0.89763486,0.74920267,-0.26025718,0.09572473,0.17116362,0.0002297784,0.21550603,0.06751318,-0.31707877,0.27689528,0.73528856,-0.11483583,-0.39804792,0.4914367,0.30932054,-0.6624964,-0.57764316,0.18785802,846.9597,821.5751,791.75824,818.3516,855.82416,-0.1865234375,0.09423828125,0.96759033203125,2.2430419921875,-2.811279296875,0.620574951171875,1.0,2.0,1.0,1.0,2.0,95.0,event
10:19:04.007,0.7488833,1.2513685,0.89763486,0.74920267,-0.26025718,0.09572473,0.17116362,0.0002297784,0.21550603,0.06751318,-0.31707877,0.27689528,0.73528856,-0.11483583,-0.39804792,0.4914367,0.30932054,-0.6624964,-0.57764316,0.18785802,834.87177,824.3956,790.54944,827.2161,781.28204,-0.1865234375,0.09423828125,0.96759033203125,2.2430419921875,-2.811279296875,0.620574951171875,1.0,2.0,1.0,1.0,2.0,95.0,event
10:19:04.008,0.7488833,1.2513685,0.89763486,0.74920267,-0.26025718,0.09572473,0.17116362,0.0002297784,0.21550603,0.06751318,-0.31707877,0.27689528,0.73528856,-0.11483583,-0.39804792,0.4914367,0.30932054,-0.6624964,-0.57764316,0.18785802,819.5604,815.9341,788.93774,817.5458,684.17584,-0.1865234375,0.09423828125,0.96759033203125,2.2430419921875,-2.811279296875,0.620574951171875,1.0,2.0,1.0,1.0,2.0,95.0,event
10:19:04.008,0.7488833,1.2513685,0.89763486,0.74920267,-0.26025718,0.09572473,0.17116362,0.0002297784,0.21550603,0.06751318,-0.31707877,0.27689528,0.73528856,-0.11483583,-0.39804792,0.4914367,0.30932054,-0.6624964,-0.57764316,0.18785802,830.0366,811.50183,789.7436,830.0366,813.1135,-0.1865234375,0.09423828125,0.96759033203125,2.2430419921875,-2.811279296875,0.620574951171875,1.0,2.0,1.0,1.0,2.0,95.0,event
10:19:04.009,0.7488833,1.2513685,0.89763486,0.74920267,-0.26025718,0.09572473,0.17116362,0.0002297784,0.21550603,0.06751318,-0.31707877,0.27689528,0.73528856,-0.11483583,-0.39804792,0.4914367,0.30932054,-0.6624964,-0.57764316,0.18785802,831.2454,819.15753,794.9817,846.1539,881.6117,-0.1865234375,0.09423828125,0.96759033203125,2.2430419921875,-2.811279296875,0.620574951171875,1.0,2.0,1.0,1.0,2.0,95.0,event
10:19:04.009,0.7488833,1.2513685,0.89763486,0.74920267,-0.26025718,0.09572473,0.17116362,0.0002297784,0.21550603,0.06751318,-0.31707877,0.27689528,0.73528856,-0.11483583,-0.39804792,0.4914367,0.30932054,-0.6624964,-0.57764316,0.18785802,833.663,824.7985,796.1905,846.1539,731.7216,-0.1865234375,0.09423828125,0.96759033203125,2.2430419921875,-2.811279296875,0.620574951171875,1.0,2.0,1.0,1.0,2.0,95.0,event
10:19:04.010,0.7488833,1.2513685,0.89763486,0.74920267,-0.26025718,0.09572473,0.17116362,0.0002297784,0.21550603,0.06751318,-0.31707877,0.27689528,0.73528856,-0.11483583,-0.39804792,0.4914367,0.30932054,-0.6624964,-0.57764316,0.18785802,822.7839,809.89014,797.3993,836.08057,948.0952,-0.1865234375,0.09423828125,0.96759033203125,2.2430419921875,-2.811279296875,0.620574951171875,1.0,2.0,1.0,1.0,2.0,95.0,event
10:19:04.010,0.7488833,1.2513685,0.89763486,0.74920267,-0.26025718,0.09572473,0.17116362,0.0002297784,0.21550603,0.06751318,-0.31707877,0.27689528,0.73528856,-0.11483583,-0.39804792,0.4914367,0.30932054,-0.6624964,-0.57764316,0.18785802,833.2601,821.5751,793.7729,828.022,715.6044,-0.1865234375,0.09423828125,0.96759033203125,2.2430419921875,-2.811279296875,0.620574951171875,1.0,2.0,1.0,1.0,2.0,95.0,event
10:19:04.011,0.7488833,1.2513685,0.89763486,0.74920267,-0.26025718,0.09572473,0.17116362,0.0002297784,0.21550603,0.06751318,-0.31707877,0.27689528,0.73528856,-0.11483583,-0.39804792,0.4914367,0.30932054,-0.6624964,-0.57764316,0.18785802,832.0513,819.5604,802.6374,837.28937,896.52014,-0.1865234375,0.09423828125,0.96759033203125,2.2430419921875,-2.811279296875,0.620574951171875,1.0,2.0,1.0,1.0,2.0,95.0,event
10:19:04.011,0.7488833,1.2513685,0.89763486,0.74920267,-0.26025718,0.09572473,0.17116362,0.0002297784,0.21550603,0.06751318,-0.31707877,0.27689528,0.73528856,-0.11483583,-0.39804792,0.4914367,0.30932054,-0.6624964,-0.57764316,0.18785802,847.76556,827.2161,801.02563,842.1245,694.2491,-0.1865234375,0.09423828125,0.96759033203125,2.2430419921875,-2.811279296875,0.620574951171875,1.0,2.0,1.0,1.0,2.0,95.0,event
10:19:04.070,0.7488833,1.2513685,0.89763486,0.74920267,-0.26025718,0.09572473,0.17116362,0.0002297784,0.21550603,0.06751318,-0.31707877,0.27689528,0.73528856,-0.11483583,-0.39804792,0.4914367,0.30932054,-0.6624964,-0.57764316,0.18785802,845.34796,815.5311,793.36993,838.9011,808.68134,-0.1865234375,0.09423828125,0.96759033203125,2.2430419921875,-2.811279296875,0.620574951171875,1.0,2.0,1.0,1.0,2.0,95.0,event
10:19:04.071,0.7488833,1.2513685,0.89763486,0.74920267,-0.26025718,0.09572473,0.17116362,0.0002297784,0.21550603,0.06751318,-0.31707877,0.27689528,0.73528856,-0.11483583,-0.39804792,0.4914367,0.30932054,-0.6624964,-0.57764316,0.18785802,838.9011,814.7253,797.3993,830.4396,842.9304,-0.1865234375,0.09423828125,0.96759033203125,2.2430419921875,-2.811279296875,0.620574951171875,1.0,2.0,1.0,1.0,2.0,95.0,event
10:19:04.072,0.7488833,1.2513685,0.89763486,0.74920267,-0.26025718,0.09572473,0.17116362,0.0002297784,0.21550603,0.06751318,-0.31707877,0.27689528,0.73528856,-0.11483583,-0.39804792,0.4914367,0.30932054,-0.6624964,-0.57764316,0.18785802,834.87177,816.7399,800.2198,835.6777,705.12823,-0.1865234375,0.09423828125,0.96759033203125,2.2430419921875,-2.811279296875,0.620574951171875,1.0,2.0,1.0,1.0,2.0,95.0,event
10:19:04.072,0.7488833,1.2513685,0.89763486,0.74920267,-0.26025718,0.09572473,0.17116362,0.0002297784,0.21550603,0.06751318,-0.31707877,0.27689528,0.73528856,-0.11483583,-0.39804792,0.4914367,0.30932054,-0.6624964,-0.57764316,0.18785802,826.4103,811.9048,798.20514,832.8571,783.69965,-0.1865234375,0.09423828125,0.96759033203125,2.2430419921875,-2.811279296875,0.620574951171875,1.0,2.0,1.0,1.0,2.0,95.0,event
10:19:04.073,0.7488833,1.2513685,0.89763486,0.74920267,-0.26025718,0.09572473,0.17116362,0.0002297784,0.21550603,0.06751318,-0.31707877,0.27689528,0.73528856,-0.11483583,-0.39804792,0.4914367,0.30932054,-0.6624964,-0.57764316,0.18785802,836.08057,808.2784,796.99634,832.8571,1015.38464,-0.1865234375,0.09423828125,0.96759033203125,2.2430419921875,-2.811279296875,0.620574951171875,1.0,2.0,1.0,1.0,2.0,95.0,event
10:19:04.073,0.7488833,1.2513685,0.89763486,0.74920267,-0.26025718,0.09572473,0.17116362,0.0002297784,0.21550603,0.06751318,-0.31707877,0.27689528,0.73528856,-0.11483583,-0.39804792,0.4914367,0.30932054,-0.6624964,-0.57764316,0.18785802,839.707,810.293,794.9817,819.9634,1125.3846,-0.1865234375,0.09423828125,0.96759033203125,2.2430419921875,-2.811279296875,0.620574951171875,1.0,2.0,1.0,1.0,2.0,95.0,event
10:19:04.074,0.7488833,1.2513685,0.89763486,0.74920267,-0.26025718,0.09572473,0.17116362,0.0002297784,0.21550603,0.06751318,-0.31707877,0.27689528,0.73528856,-0.11483583,-0.39804792,0.4914367,0.30932054,-0.6624964,-0.57764316,0.18785802,807.47253,816.337,796.99634,807.0696,967.03296,-0.1865234375,0.09423828125,0.96759033203125,2.2430419921875,-2.811279296875,0.620574951171875,1.0,2.0,1.0,1.0,2.0,95.0,event
10:19:04.074,0.7488833,1.2513685,0.89763486,0.74920267,-0.26025718,0.09572473,0.17116362,0.0002297784,0.21550603,0.06751318,-0.31707877,0.27689528,0.73528856,-0.11483583,-0.39804792,0.4914367,0.30932054,-0.6624964,-0.57764316,0.18785802,800.2198,815.12823,798.60803,815.5311,701.50183,-0.1865234375,0.09423828125,0.96759033203125,2.2430419921875,-2.811279296875,0.620574951171875,1.0,2.0,1.0,1.0,2.0,95.0,event
10:19:04.075,0.7488833,1.2513685,0.89763486,0.74920267,-0.26025718,0.09572473,0.17116362,0.0002297784,0.21550603,0.06751318,-0.31707877,0.27689528,0.73528856,-0.11483583,-0.39804792,0.4914367,0.30932054,-0.6624964,-0.57764316,0.18785802,807.0696,813.91943,796.1905,808.2784,716.8132,-0.1865234375,0.09423828125,0.96759033203125,2.2430419921875,-2.811279296875,0.620574951171875,1.0,2.0,1.0,1.0,2.0,95.0,event
10:19:04.075,0.7488833,1.2513685,0.9270289,0.74920267,-0.26025718,0.09572473,0.1848095,0.0002297784,0.21550603,0.06751318,-0.32448354,0.27689528,0.73528856,-0.11483583,-0.38983625,0.4914367,0.30932054,-0.6624964,-0.58913004,0.18785802,815.12823,821.5751,795.78754,812.3077,892.8938,-0.1865234375,0.09423828125,0.96759033203125,2.2430419921875,-2.811279296875,0.620574951171875,1.0,2.0,1.0,1.0,2.0,95.0,event
10:19:04.078,,,,,,,,,,,,,,,,,,,,,,,,,,,,,,,,,,,,,,blink
10:19:04.079,0.7488833,1.2513685,0.9270289,0.74920267,-0.26025718,0.09572473,0.1848095,0.0002297784,0.21550603,0.06751318,-0.32448354,0.27689528,0.73528856,-0.11483583,-0.38983625,0.4914367,0.30932054,-0.6624964,-0.58913004,0.18785802,838.49817,820.7692,799.011,828.022,791.75824,-0.1865234375,0.09423828125,0.96759033203125,2.2430419921875,-2.811279296875,0.620574951171875,1.0,2.0,1.0,1.0,2.0,95.0,event
10:19:04.080,0.7488833,1.2513685,0.9270289,0.74920267,-0.26025718,0.09572473,0.1848095,0.0002297784,0.21550603,0.06751318,-0.32448354,0.27689528,0.73528856,-0.11483583,-0.38983625,0.4914367,0.30932054,-0.6624964,-0.58913004,0.18785802,837.28937,815.9341,798.20514,811.50183,707.1429,-0.1865234375,0.09423828125,0.96759033203125,2.2430419921875,-2.811279296875,0.620574951171875,1.0,2.0,1.0,1.0,2.0,95.0,event
10:19:04.106,0.7488833,1.2513685,0.9270289,0.74920267,-0.26025718,0.09572473,0.1848095,0.0002297784,0.21550603,0.06751318,-0.32448354,0.27689528,0.73528856,-0.11483583,-0.38983625,0.4914367,0.30932054,-0.6624964,-0.58913004,0.18785802,816.337,816.7399,793.7729,803.44324,763.5531,-0.19219970703125,0.09112548828125,0.9659423828125,2.3626708984375,-3.0804443359375,0.082244873046875,1.0,2.0,1.0,1.0,2.0,95.0,event
10:19:04.107,0.7488833,1.2513685,0.9270289,0.74920267,-0.26025718,0.09572473,0.1848095,0.0002297784,0.21550603,0.06751318,-0.32448354,0.27689528,0.73528856,-0.11483583,-0.38983625,0.4914367,0.30932054,-0.6624964,-0.58913004,0.18785802,814.3223,819.9634,794.17584,809.4872,770.80585,-0.19219970703125,0.09112548828125,0.9659423828125,2.3626708984375,-3.0804443359375,0.082244873046875,1.0,2.0,1.0,1.0,2.0,95.0,event
10:19:04.107,0.7488833,1.2513685,0.9270289,0.74920267,-0.26025718,0.09572473,0.1848095,0.0002297784,0.21550603,0.06751318,-0.32448354,0.27689528,0.73528856,-0.11483583,-0.38983625,0.4914367,0.30932054,-0.6624964,-0.58913004,0.18785802,819.5604,821.978,798.20514,801.8315,686.1905,-0.19219970703125,0.09112548828125,0.9659423828125,2.3626708984375,-3.0804443359375,0.082244873046875,1.0,2.0,1.0,1.0,2.0,95.0,event
10:19:04.108,0.7488833,1.2513685,0.9270289,0.74920267,-0.26025718,0.09572473,0.1848095,0.0002297784,0.21550603,0.06751318,-0.32448354,0.27689528,0.73528856,-0.11483583,-0.38983625,0.4914367,0.30932054,-0.6624964,-0.58913004,0.18785802,825.2015,823.9927,803.0403,800.6227,679.34064,-0.19219970703125,0.09112548828125,0.9659423828125,2.3626708984375,-3.0804443359375,0.082244873046875,1.0,2.0,1.0,1.0,2.0,95.0,event
10:19:04.108,0.7488833,1.2513685,0.9270289,0.74920267,-0.26025718,0.09572473,0.1848095,0.0002297784,0.21550603,0.06751318,-0.32448354,0.27689528,0.73528856,-0.11483583,-0.38983625,0.4914367,0.30932054,-0.6624964,-0.58913004,0.18785802,822.7839,822.7839,805.4579,817.1429,757.1062,-0.19219970703125,0.09112548828125,0.9659423828125,2.3626708984375,-3.0804443359375,0.082244873046875,1.0,2.0,1.0,1.0,2.0,95.0,event
10:19:04.109,0.7488833,1.2513685,0.9270289,0.74920267,-0.26025718,0.09572473,0.1848095,0.0002297784,0.21550603,0.06751318,-0.32448354,0.27689528,0.73528856,-0.11483583,-0.38983625,0.4914367,0.30932054,-0.6624964,-0.58913004,0.18785802,807.8755,821.978,806.6667,823.9927,765.9707,-0.19219970703125,0.09112548828125,0.9659423828125,2.3626708984375,-3.0804443359375,0.082244873046875,1.0,2.0,1.0,1.0,2.0,95.0,event
10:19:04.110,0.7488833,1.2513685,0.9270289,0.74920267,-0.26025718,0.09572473,0.1848095,0.0002297784,0.21550603,0.06751318,-0.32448354,0.27689528,0.73528856,-0.11483583,-0.38983625,0.4914367,0.30932054,-0.6624964,-0.58913004,0.18785802,805.8608,825.2015,806.6667,814.3223,755.4945,-0.19219970703125,0.09112548828125,0.9659423828125,2.3626708984375,-3.0804443359375,0.082244873046875,1.0,2.0,1.0,1.0,2.0,95.0,event
10:19:04.110,0.7488833,1.2513685,0.9270289,0.74920267,-0.26025718,0.09572473,0.1848095,0.0002297784,0.21550603,0.06751318,-0.32448354,0.27689528,0.73528856,-0.11483583,-0.38983625,0.4914367,0.30932054,-0.6624964,-0.58913004,0.18785802,817.5458,821.1722,806.26373,812.71063,776.8498,-0.19219970703125,0.09112548828125,0.9659423828125,2.3626708984375,-3.0804443359375,0.082244873046875,1.0,2.0,1.0,1.0,2.0,95.0,event
10:19:04.111,0.7488833,1.2513685,0.9270289,0.74920267,-0.26025718,0.09572473,0.1848095,0.0002297784,0.21550603,0.06751318,-0.32448354,0.27689528,0.73528856,-0.11483583,-0.38983625,0.4914367,0.30932054,-0.6624964,-0.58913004,0.18785802,809.0842,815.12823,800.6227,812.71063,1155.6044,-0.19219970703125,0.09112548828125,0.9659423828125,2.3626708984375,-3.0804443359375,0.082244873046875,1.0,2.0,1.0,1.0,2.0,95.0,event
10:19:04.111,0.7488833,1.2513685,0.9270289,0.74920267,-0.26025718,0.09572473,0.1848095,0.0002297784,0.21550603,0.06751318,-0.32448354,0.27689528,0.73528856,-0.11483583,-0.38983625,0.4914367,0.30932054,-0.6624964,-0.58913004,0.18785802,821.1722,807.0696,802.23444,810.696,980.32965,-0.19219970703125,0.09112548828125,0.9659423828125,2.3626708984375,-3.0804443359375,0.082244873046875,1.0,2.0,1.0,1.0,2.0,95.0,event
10:19:04.112,0.7488833,1.2513685,0.9270289,0.74920267,-0.26025718,0.09572473,0.1848095,0.0002297784,0.21550603,0.06751318,-0.32448354,0.27689528,0.73528856,-0.11483583,-0.38983625,0.4914367,0.30932054,-0.6624964,-0.58913004,0.18785802,808.2784,825.6044,805.05493,803.8461,927.5458,-0.19219970703125,0.09112548828125,0.9659423828125,2.3626708984375,-3.0804443359375,0.082244873046875,1.0,2.0,1.0,1.0,2.0,95.0,event
10:19:04.112,0.7488833,1.2513685,0.9270289,0.74920267,-0.26025718,0.09572473,0.1848095,0.0002297784,0.21550603,0.06751318,-0.32448354,0.27689528,0.73528856,-0.11483583,-0.38983625,0.4914367,0.30932054,-0.6624964,-0.58913004,0.18785802,807.47253,815.5311,802.6374,796.5934,791.3553,-0.19219970703125,0.09112548828125,0.9659423828125,2.3626708984375,-3.0804443359375,0.082244873046875,1.0,2.0,1.0,1.0,2.0,95.0,event
10:19:04.202,0.7488833,1.2513685,0.9270289,0.74920267,-0.26025718,0.09572473,0.1848095,0.0002297784,0.21550603,0.06751318,-0.32448354,0.27689528,0.73528856,-0.11483583,-0.38983625,0.4914367,0.30932054,-0.6624964,-0.58913004,0.18785802,816.7399,818.7546,803.44324,812.3077,813.5165,-0.192626953125,0.090576171875,0.96551513671875,1.854248046875,-2.788848876953125,0.418701171875,1.0,2.0,1.0,1.0,2.0,95.0,event
10:19:04.203,0.7488833,1.2513685,0.9270289,0.74920267,-0.26025718,0.09572473,0.1848095,0.0002297784,0.21550603,0.06751318,-0.32448354,0.27689528,0.73528856,-0.11483583,-0.38983625,0.4914367,0.30932054,-0.6624964,-0.58913004,0.18785802,823.5897,823.9927,805.8608,816.7399,782.49084,-0.192626953125,0.090576171875,0.96551513671875,1.854248046875,-2.788848876953125,0.418701171875,1.0,2.0,1.0,1.0,2.0,95.0,event
10:19:04.204,0.7488833,1.2513685,0.9270289,0.74920267,-0.26025718,0.09572473,0.1848095,0.0002297784,0.21550603,0.06751318,-0.32448354,0.27689528,0.73528856,-0.11483583,-0.38983625,0.4914367,0.30932054,-0.6624964,-0.58913004,0.18785802,815.9341,817.1429,803.44324,804.2491,752.674,-0.192626953125,0.090576171875,0.96551513671875,1.854248046875,-2.788848876953125,0.418701171875,1.0,2.0,1.0,1.0,2.0,95.0,event
10:19:04.205,0.7488833,1.2513685,0.9270289,0.74920267,-0.26025718,0.09572473,0.1848095,0.0002297784,0.21550603,0.06751318,-0.32448354,0.27689528,0.73528856,-0.11483583,-0.38983625,0.4914367,0.30932054,-0.6624964,-0.58913004,0.18785802,793.7729,811.9048,803.44324,802.23444,750.2564,-0.192626953125,0.090576171875,0.96551513671875,1.854248046875,-2.788848876953125,0.418701171875,1.0,2.0,1.0,1.0,2.0,95.0,event
10:19:04.206,0.7488833,1.2513685,0.9270289,0.74920267,-0.26025718,0.09572473,0.1848095,0.0002297784,0.21550603,0.06751318,-0.32448354,0.27689528,0.73528856,-0.11483583,-0.38983625,0.4914367,0.30932054,-0.6624964,-0.58913004,0.18785802,784.5055,817.5458,806.6667,801.8315,795.78754,-0.192626953125,0.090576171875,0.96551513671875,1.854248046875,-2.788848876953125,0.418701171875,1.0,2.0,1.0,1.0,2.0,95.0,event
10:19:04.207,0.7488833,1.2513685,0.9270289,0.74920267,-0.26025718,0.09572473,0.1848095,0.0002297784,0.21550603,0.06751318,-0.32448354,0.27689528,0.73528856,-0.11483583,-0.38983625,0.4914367,0.30932054,-0.6624964,-0.58913004,0.18785802,796.99634,817.5458,806.6667,799.41394,783.2967,-0.192626953125,0.090576171875,0.96551513671875,1.854248046875,-2.788848876953125,0.418701171875,1.0,2.0,1.0,1.0,2.0,95.0,event
10:19:04.208,0.7488833,1.2513685,0.9270289,0.74920267,-0.26025718,0.09572473,0.1848095,0.0002297784,0.21550603,0.06751318,-0.32448354,0.27689528,0.73528856,-0.11483583,-0.38983625,0.4914367,0.30932054,-0.6624964,-0.58913004,0.18785802,797.3993,818.3516,804.65204,803.8461,776.4469,-0.192626953125,0.090576171875,0.96551513671875,1.854248046875,-2.788848876953125,0.418701171875,1.0,2.0,1.0,1.0,2.0,95.0,event
10:19:04.209,0.7488833,1.2513685,0.9270289,0.74920267,-0.26025718,0.09572473,0.1848095,0.0002297784,0.21550603,0.06751318,-0.32448354,0.27689528,0.73528856,-0.11483583,-0.38983625,0.4914367,0.30932054,-0.6624964,-0.58913004,0.18785802,783.2967,816.7399,806.6667,825.2015,821.1722,-0.192626953125,0.090576171875,0.96551513671875,1.854248046875,-2.788848876953125,0.418701171875,1.0,2.0,1.0,1.0,2.0,95.0,event
10:19:04.210,0.7488833,1.2513685,0.9270289,0.74920267,-0.26025718,0.09572473,0.1848095,0.0002297784,0.21550603,0.06751318,-0.32448354,0.27689528,0.73528856,-0.11483583,-0.38983625,0.4914367,0.30932054,-0.6624964,-0.58913004,0.18785802,772.4176,823.5897,807.0696,784.90845,898.1319,-0.192626953125,0.090576171875,0.96551513671875,1.854248046875,-2.788848876953125,0.418701171875,1.0,2.0,1.0,1.0,2.0,95.0,event
10:19:04.210,0.7488833,1.2513685,0.9270289,0.74920267,-0.26025718,0.09572473,0.1848095,0.0002297784,0.21550603,0.06751318,-0.32448354,0.27689528,0.73528856,-0.11483583,-0.38983625,0.4914367,0.30932054,-0.6624964,-0.58913004,0.18785802,775.64105,813.91943,805.8608,819.9634,975.89746,-0.192626953125,0.090576171875,0.96551513671875,1.854248046875,-2.788848876953125,0.418701171875,1.0,2.0,1.0,1.0,2.0,95.0,event
10:19:04.211,0.7488833,1.2513685,0.9270289,0.74920267,-0.26025718,0.09572473,0.1848095,0.0002297784,0.21550603,0.06751318,-0.32448354,0.27689528,0.73528856,-0.11483583,-0.38983625,0.4914367,0.30932054,-0.6624964,-0.58913004,0.18785802,778.46155,821.978,807.8755,785.31134,745.42126,-0.192626953125,0.090576171875,0.96551513671875,1.854248046875,-2.788848876953125,0.418701171875,1.0,2.0,1.0,1.0,2.0,95.0,event
10:19:04.212,0.7488833,1.2513685,0.96010095,0.74920267,-0.26025718,0.09572473,0.20531726,0.0002297784,0.21550603,0.06751318,-0.32448354,0.27689528,0.73528856,-0.11483583,-0.3812022,0.4914367,0.30932054,-0.6624964,-0.59184515,0.18785802,808.2784,817.1429,807.8755,800.2198,783.69965,-0.192626953125,0.090576171875,0.96551513671875,1.854248046875,-2.788848876953125,0.418701171875,1.0,2.0,1.0,1.0,2.0,95.0,event
10:19:04.238,0.7488833,1.2513685,0.96010095,0.74920267,-0.26025718,0.09572473,0.20531726,0.0002297784,0.21550603,0.06751318,-0.32448354,0.27689528,0.73528856,-0.11483583,-0.3812022,0.4914367,0.30932054,-0.6624964,-0.59184515,0.18785802,824.3956,823.9927,811.9048,807.8755,810.696,-0.20257568359375,0.09332275390625,0.96539306640625,2.46734619140625,-3.895416259765625,-0.186920166015625,1.0,2.0,1.0,1.0,2.0,95.0,event
10:19:04.239,0.7488833,1.2513685,0.96010095,0.74920267,-0.26025718,0.09572473,0.20531726,0.0002297784,0.21550603,0.06751318,-0.32448354,0.27689528,0.73528856,-0.11483583,-0.3812022,0.4914367,0.30932054,-0.6624964,-0.59184515,0.18785802,816.337,827.2161,812.3077,807.47253,726.8865,-0.20257568359375,0.09332275390625,0.96539306640625,2.46734619140625,-3.895416259765625,-0.186920166015625,1.0,2.0,1.0,1.0,2.0,95.0,event
10:19:04.239,0.7488833,1.2513685,0.96010095,0.74920267,-0.26025718,0.09572473,0.20531726,0.0002297784,0.21550603,0.06751318,-0.32448354,0.27689528,0.73528856,-0.11483583,-0.3812022,0.4914367,0.30932054,-0.6624964,-0.59184515,0.18785802,803.44324,821.978,809.4872,799.41394,655.16486,-0.20257568359375,0.09332275390625,0.96539306640625,2.46734619140625,-3.895416259765625,-0.186920166015625,1.0,2.0,1.0,1.0,2.0,95.0,event
10:19:04.240,0.7488833,1.2513685,0.96010095,0.74920267,-0.26025718,0.09572473,0.20531726,0.0002297784,0.21550603,0.06751318,-0.32448354,0.27689528,0.73528856,-0.11483583,-0.3812022,0.4914367,0.30932054,-0.6624964,-0.59184515,0.18785802,791.75824,817.1429,810.696,808.2784,660.0,-0.20257568359375,0.09332275390625,0.96539306640625,2.46734619140625,-3.895416259765625,-0.186920166015625,1.0,2.0,1.0,1.0,2.0,95.0,event
10:19:04.240,0.7488833,1.2513685,0.96010095,0.74920267,-0.26025718,0.09572473,0.20531726,0.0002297784,0.21550603,0.06751318,-0.32448354,0.27689528,0.73528856,-0.11483583,-0.3812022,0.4914367,0.30932054,-0.6624964,-0.59184515,0.18785802,786.52014,820.3663,811.0989,810.293,676.1172,-0.20257568359375,0.09332275390625,0.96539306640625,2.46734619140625,-3.895416259765625,-0.186920166015625,1.0,2.0,1.0,1.0,2.0,95.0,event
10:19:04.241,0.7488833,1.2513685,0.96010095,0.74920267,-0.26025718,0.09572473,0.20531726,0.0002297784,0.21550603,0.06751318,-0.32448354,0.27689528,0.73528856,-0.11483583,-0.3812022,0.4914367,0.30932054,-0.6624964,-0.59184515,0.18785802,793.36993,824.3956,811.9048,809.89014,754.2857,-0.20257568359375,0.09332275390625,0.96539306640625,2.46734619140625,-3.895416259765625,-0.186920166015625,1.0,2.0,1.0,1.0,2.0,95.0,event
10:19:04.242,0.7488833,1.2513685,0.96010095,0.74920267,-0.26025718,0.09572473,0.20531726,0.0002297784,0.21550603,0.06751318,-0.32448354,0.27689528,0.73528856,-0.11483583,-0.3812022,0.4914367,0.30932054,-0.6624964,-0.59184515,0.18785802,781.28204,813.1135,813.1135,797.3993,917.0696,-0.20257568359375,0.09332275390625,0.96539306640625,2.46734619140625,-3.895416259765625,-0.186920166015625,1.0,2.0,1.0,1.0,2.0,95.0,event
10:19:04.242,0.7488833,1.2513685,0.96010095,0.74920267,-0.26025718,0.09572473,0.20531726,0.0002297784,0.21550603,0.06751318,-0.32448354,0.27689528,0.73528856,-0.11483583,-0.3812022,0.4914367,0.30932054,-0.6624964,-0.59184515,0.18785802,801.4286,819.15753,813.91943,805.05493,822.381,-0.20257568359375,0.09332275390625,0.96539306640625,2.46734619140625,-3.895416259765625,-0.186920166015625,1.0,2.0,1.0,1.0,2.0,95.0,event
10:19:04.243,0.7488833,1.2513685,0.96010095,0.74920267,-0.26025718,0.09572473,0.20531726,0.0002297784,0.21550603,0.06751318,-0.32448354,0.27689528,0.73528856,-0.11483583,-0.3812022,0.4914367,0.30932054,-0.6624964,-0.59184515,0.18785802,827.2161,822.381,814.3223,799.41394,714.7985,-0.20257568359375,0.09332275390625,0.96539306640625,2.46734619140625,-3.895416259765625,-0.186920166015625,1.0,2.0,1.0,1.0,2.0,95.0,event
10:19:04.243,0.7488833,1.2513685,0.96010095,0.74920267,-0.26025718,0.09572473,0.20531726,0.0002297784,0.21550603,0.06751318,-0.32448354,0.27689528,0.73528856,-0.11483583,-0.3812022,0.4914367,0.30932054,-0.6624964,-0.59184515,0.18785802,787.72894,822.7839,813.1135,804.65204,931.1722,-0.20257568359375,0.09332275390625,0.96539306640625,2.46734619140625,-3.895416259765625,-0.186920166015625,1.0,2.0,1.0,1.0,2.0,95.0,event
10:19:04.244,0.7488833,1.2513685,0.96010095,0.74920267,-0.26025718,0.09572473,0.20531726,0.0002297784,0.21550603,0.06751318,-0.32448354,0.27689528,0.73528856,-0.11483583,-0.3812022,0.4914367,0.30932054,-0.6624964,-0.59184515,0.18785802,796.99634,813.91943,816.337,796.5934,666.8498,-0.20257568359375,0.09332275390625,0.96539306640625,2.46734619140625,-3.895416259765625,-0.186920166015625,1.0,2.0,1.0,1.0,2.0,95.0,event
10:19:04.245,0.7488833,1.2513685,0.96010095,0.74920267,-0.26025718,0.09572473,0.20531726,0.0002297784,0.21550603,0.06751318,-0.32448354,0.27689528,0.73528856,-0.11483583,-0.3812022,0.4914367,0.30932054,-0.6624964,-0.59184515,0.18785802,780.07324,817.9487,820.7692,791.3553,709.5604,-0.20257568359375,0.09332275390625,0.96539306640625,2.46734619140625,-3.895416259765625,-0.186920166015625,1.0,2.0,1.0,1.0,2.0,95.0,event
10:19:04.246,0.7488833,1.2513685,0.96010095,0.74920267,-0.26025718,0.09572473,0.20531726,0.0002297784,0.21550603,0.06751318,-0.32448354,0.27689528,0.73528856,-0.11483583,-0.3812022,0.4914367,0.30932054,-0.6624964,-0.59184515,0.18785802,815.9341,819.5604,821.5751,776.4469,764.7619,-0.185302734375,0.09918212890625,0.97369384765625,2.7813720703125,-4.59075927734375,-0.590667724609375,1.0,2.0,1.0,1.0,2.0,95.0,event
10:19:04.246,0.7488833,1.2513685,0.96010095,0.74920267,-0.26025718,0.09572473,0.20531726,0.0002297784,0.21550603,0.06751318,-0.32448354,0.27689528,0.73528856,-0.11483583,-0.3812022,0.4914367,0.30932054,-0.6624964,-0.59184515,0.18785802,802.6374,819.9634,818.7546,789.7436,733.73627,-0.185302734375,0.09918212890625,0.97369384765625,2.7813720703125,-4.59075927734375,-0.590667724609375,1.0,2.0,1.0,1.0,2.0,95.0,event
10:19:04.247,0.7488833,1.2513685,0.96010095,0.74920267,-0.26025718,0.09572473,0.20531726,0.0002297784,0.21550603,0.06751318,-0.32448354,0.27689528,0.73528856,-0.11483583,-0.3812022,0.4914367,0.30932054,-0.6624964,-0.59184515,0.18785802,814.7253,819.5604,817.9487,805.8608,725.2747,-0.185302734375,0.09918212890625,0.97369384765625,2.7813720703125,-4.59075927734375,-0.590667724609375,1.0,2.0,1.0,1.0,2.0,95.0,event
10:19:04.247,0.7488833,1.2513685,0.96010095,0.74920267,-0.26025718,0.09572473,0.20531726,0.0002297784,0.21550603,0.06751318,-0.32448354,0.27689528,0.73528856,-0.11483583,-0.3812022,0.4914367,0.30932054,-0.6624964,-0.59184515,0.18785802,821.1722,819.15753,816.337,809.89014,914.65204,-0.185302734375,0.09918212890625,0.97369384765625,2.7813720703125,-4.59075927734375,-0.590667724609375,1.0,2.0,1.0,1.0,2.0,95.0,event
10:19:04.248,0.7488833,1.2513685,0.96010095,0.74920267,-0.26025718,0.09572473,0.20531726,0.0002297784,0.21550603,0.06751318,-0.32448354,0.27689528,0.73528856,-0.11483583,-0.3812022,0.4914367,0.30932054,-0.6624964,-0.59184515,0.18785802,791.75824,819.9634,815.5311,804.2491,817.1429,-0.185302734375,0.09918212890625,0.97369384765625,2.7813720703125,-4.59075927734375,-0.590667724609375,1.0,2.0,1.0,1.0,2.0,95.0,event
10:19:04.248,0.7488833,1.2513685,0.96010095,0.74920267,-0.26025718,0.09572473,0.20531726,0.0002297784,0.21550603,0.06751318,-0.32448354,0.27689528,0.73528856,-0.11483583,-0.3812022,0.4914367,0.30932054,-0.6624964,-0.59184515,0.18785802,794.17584,817.1429,817.5458,785.7143,753.0769,-0.185302734375,0.09918212890625,0.97369384765625,2.7813720703125,-4.59075927734375,-0.590667724609375,1.0,2.0,1.0,1.0,2.0,95.0,event
10:19:04.249,0.7488833,1.2513685,0.96010095,0.74920267,-0.26025718,0.09572473,0.20531726,0.0002297784,0.21550603,0.06751318,-0.32448354,0.27689528,0.73528856,-0.11483583,-0.3812022,0.4914367,0.30932054,-0.6624964,-0.59184515,0.18785802,799.011,817.1429,817.1429,782.49084,830.0366,-0.185302734375,0.09918212890625,0.97369384765625,2.7813720703125,-4.59075927734375,-0.590667724609375,1.0,2.0,1.0,1.0,2.0,95.0,event
10:19:04.250,0.7488833,1.2513685,0.96010095,0.74920267,-0.26025718,0.09572473,0.20531726,0.0002297784,0.21550603,0.06751318,-0.32448354,0.27689528,0.73528856,-0.11483583,-0.3812022,0.4914367,0.30932054,-0.6624964,-0.59184515,0.18785802,786.9231,817.5458,814.7253,794.57874,967.4359,-0.185302734375,0.09918212890625,0.97369384765625,2.7813720703125,-4.59075927734375,-0.590667724609375,1.0,2.0,1.0,1.0,2.0,95.0,event
10:19:04.250,0.7488833,1.2513685,0.96010095,0.74920267,-0.26025718,0.09572473,0.20531726,0.0002297784,0.21550603,0.06751318,-0.32448354,0.27689528,0.73528856,-0.11483583,-0.3812022,0.4914367,0.30932054,-0.6624964,-0.59184515,0.18785802,809.0842,821.1722,813.91943,798.20514,843.3333,-0.185302734375,0.09918212890625,0.97369384765625,2.7813720703125,-4.59075927734375,-0.590667724609375,1.0,2.0,1.0,1.0,2.0,95.0,event
10:19:04.251,0.7488833,1.2513685,0.96010095,0.74920267,-0.26025718,0.09572473,0.20531726,0.0002297784,0.21550603,0.06751318,-0.32448354,0.27689528,0.73528856,-0.11483583,-0.3812022,0.4914367,0.30932054,-0.6624964,-0.59184515,0.18785802,803.8461,817.9487,823.5897,791.75824,789.7436,-0.185302734375,0.09918212890625,0.97369384765625,2.7813720703125,-4.59075927734375,-0.590667724609375,1.0,2.0,1.0,1.0,2.0,95.0,event
10:19:04.251,0.7488833,1.2513685,0.96010095,0.74920267,-0.26025718,0.09572473,0.20531726,0.0002297784,0.21550603,0.06751318,-0.32448354,0.27689528,0.73528856,-0.11483583,-0.3812022,0.4914367,0.30932054,-0.6624964,-0.59184515,0.18785802,826.0073,818.3516,816.7399,784.90845,693.8461,-0.185302734375,0.09918212890625,0.97369384765625,2.7813720703125,-4.59075927734375,-0.590667724609375,1.0,2.0,1.0,1.0,2.0,95.0,event
10:19:04.252,0.7488833,1.2513685,0.96010095,0.74920267,-0.26025718,0.09572473,0.20531726,0.0002297784,0.21550603,0.06751318,-0.32448354,0.27689528,0.73528856,-0.11483583,-0.3812022,0.4914367,0.30932054,-0.6624964,-0.59184515,0.18785802,794.57874,818.7546,824.7985,811.0989,795.78754,-0.185302734375,0.09918212890625,0.97369384765625,2.7813720703125,-4.59075927734375,-0.590667724609375,1.0,2.0,1.0,1.0,2.0,95.0,event
10:19:04.305,0.7488833,1.2513685,0.96010095,0.74920267,-0.26025718,0.09572473,0.20531726,0.0002297784,0.21550603,0.06751318,-0.32448354,0.27689528,0.73528856,-0.11483583,-0.3812022,0.4914367,0.30932054,-0.6624964,-0.59184515,0.18785802,812.3077,814.7253,819.9634,806.26373,798.20514,-0.185302734375,0.09918212890625,0.97369384765625,2.7813720703125,-4.59075927734375,-0.590667724609375,1.0,2.0,1.0,1.0,2.0,95.0,event
10:19:04.307,0.7488833,1.2513685,0.9899352,0.74920267,-0.26025718,0.09572473,0.234718,0.0002297784,0.21550603,0.06751318,-0.32448354,0.27689528,0.73528856,-0.11483583,-0.3711011,0.4914367,0.30932054,-0.6624964,-0.58929086,0.18785802,803.8461,813.91943,821.978,797.3993,826.8132,-0.185302734375,0.09918212890625,0.97369384765625,2.7813720703125,-4.59075927734375,-0.590667724609375,1.0,2.0,1.0,1.0,2.0,95.0,event
10:19:04.311,0.7488833,1.2513685,0.9899352,0.74920267,-0.26025718,0.09572473,0.234718,0.0002297784,0.21550603,0.06751318,-0.32448354,0.27689528,0.73528856,-0.11483583,-0.3711011,0.4914367,0.30932054,-0.6624964,-0.58929086,0.18785802,782.0879,808.68134,821.978,788.1319,794.9817,-0.185302734375,0.09918212890625,0.97369384765625,2.7813720703125,-4.59075927734375,-0.590667724609375,1.0,2.0,1.0,1.0,2.0,95.0,event
10:19:04.312,0.7488833,1.2513685,0.9899352,0.74920267,-0.26025718,0.09572473,0.234718,0.0002297784,0.21550603,0.06751318,-0.32448354,0.27689528,0.73528856,-0.11483583,-0.3711011,0.4914367,0.30932054,-0.6624964,-0.58929086,0.18785802,794.57874,808.2784,817.9487,788.5348,755.4945,-0.185302734375,0.09918212890625,0.97369384765625,2.7813720703125,-4.59075927734375,-0.590667724609375,1.0,2.0,1.0,1.0,2.0,95.0,event
10:19:04.312,0.7488833,1.2513685,0.9899352,0.74920267,-0.26025718,0.09572473,0.234718,0.0002297784,0.21550603,0.06751318,-0.32448354,0.27689528,0.73528856,-0.11483583,-0.3711011,0.4914367,0.30932054,-0.6624964,-0.58929086,0.18785802,798.60803,813.5165,817.5458,776.8498,806.6667,-0.185302734375,0.09918212890625,0.97369384765625,2.7813720703125,-4.59075927734375,-0.590667724609375,1.0,2.0,1.0,1.0,2.0,95.0,event
10:19:04.313,0.7488833,1.2513685,0.9899352,0.74920267,-0.26025718,0.09572473,0.234718,0.0002297784,0.21550603,0.06751318,-0.32448354,0.27689528,0.73528856,-0.11483583,-0.3711011,0.4914367,0.30932054,-0.6624964,-0.58929086,0.18785802,780.07324,814.3223,818.7546,786.9231,842.52747,-0.185302734375,0.09918212890625,0.97369384765625,2.7813720703125,-4.59075927734375,-0.590667724609375,1.0,2.0,1.0,1.0,2.0,95.0,event
10:19:04.314,0.7488833,1.2513685,0.9899352,0.74920267,-0.26025718,0.09572473,0.234718,0.0002297784,0.21550603,0.06751318,-0.32448354,0.27689528,0.73528856,-0.11483583,-0.3711011,0.4914367,0.30932054,-0.6624964,-0.58929086,0.18785802,792.96704,806.26373,819.15753,804.65204,1042.381,-0.185302734375,0.09918212890625,0.97369384765625,2.7813720703125,-4.59075927734375,-0.590667724609375,1.0,2.0,1.0,1.0,2.0,95.0,event
10:19:04.314,0.7488833,1.2513685,0.9899352,0.74920267,-0.26025718,0.09572473,0.234718,0.0002297784,0.21550603,0.06751318,-0.32448354,0.27689528,0.73528856,-0.11483583,-0.3711011,0.4914367,0.30932054,-0.6624964,-0.58929086,0.18785802,810.293,809.4872,818.3516,802.23444,1234.1758,-0.185302734375,0.09918212890625,0.97369384765625,2.7813720703125,-4.59075927734375,-0.590667724609375,1.0,2.0,1.0,1.0,2.0,95.0,event
10:19:04.315,0.7488833,1.2513685,0.9899352,0.74920267,-0.26025718,0.09572473,0.234718,0.0002297784,0.21550603,0.06751318,-0.32448354,0.27689528,0.73528856,-0.11483583,-0.3711011,0.4914367,0.30932054,-0.6624964,-0.58929086,0.18785802,803.8461,820.7692,820.7692,784.90845,869.5238,-0.185302734375,0.09918212890625,0.97369384765625,2.7813720703125,-4.59075927734375,-0.590667724609375,1.0,2.0,1.0,1.0,2.0,95.0,event
10:19:04.316,0.7488833,1.2513685,0.9899352,0.74920267,-0.26025718,0.09572473,0.234718,0.0002297784,0.21550603,0.06751318,-0.32448354,0.27689528,0.73528856,-0.11483583,-0.3711011,0.4914367,0.30932054,-0.6624964,-0.58929086,0.18785802,788.93774,817.1429,821.5751,787.326,829.6337,-0.185302734375,0.09918212890625,0.97369384765625,2.7813720703125,-4.59075927734375,-0.590667724609375,1.0,2.0,1.0,1.0,2.0,95.0,event
10:19:04.316,0.7488833,1.2513685,0.9899352,0.74920267,-0.26025718,0.09572473,0.234718,0.0002297784,0.21550603,0.06751318,-0.32448354,0.27689528,0.73528856,-0.11483583,-0.3711011,0.4914367,0.30932054,-0.6624964,-0.58929086,0.18785802,794.17584,818.3516,822.381,781.28204,680.14655,-0.185302734375,0.09918212890625,0.97369384765625,2.7813720703125,-4.59075927734375,-0.590667724609375,1.0,2.0,1.0,1.0,2.0,95.0,event
10:19:04.317,0.7488833,1.2513685,0.9899352,0.74920267,-0.26025718,0.09572473,0.234718,0.0002297784,0.21550603,0.06751318,-0.32448354,0.27689528,0.73528856,-0.11483583,-0.3711011,0.4914367,0.30932054,-0.6624964,-0.58929086,0.18785802,817.5458,818.3516,823.1868,815.9341,809.89014,-0.185302734375,0.09918212890625,0.97369384765625,2.7813720703125,-4.59075927734375,-0.590667724609375,1.0,2.0,1.0,1.0,2.0,95.0,event
10:19:04.376,0.7488833,1.2513685,0.9899352,0.74920267,-0.26025718,0.09572473,0.234718,0.0002297784,0.21550603,0.06751318,-0.32448354,0.27689528,0.73528856,-0.11483583,-0.3711011,0.4914367,0.30932054,-0.6624964,-0.58929086,0.18785802,804.2491,813.1135,824.3956,807.47253,705.9341,-0.19146728515625,0.0860595703125,0.96246337890625,1.682281494140625,-3.461761474609375,-0.276641845703125,1.0,2.0,1.0,1.0,2.0,95.0,event
10:19:04.378,0.7488833,1.2513685,0.9899352,0.74920267,-0.26025718,0.09572473,0.234718,0.0002297784,0.21550603,0.06751318,-0.32448354,0.27689528,0.73528856,-0.11483583,-0.3711011,0.4914367,0.30932054,-0.6624964,-0.58929086,0.18785802,771.6117,810.293,822.381,765.16486,701.9048,-0.19146728515625,0.0860595703125,0.96246337890625,1.682281494140625,-3.461761474609375,-0.276641845703125,1.0,2.0,1.0,1.0,2.0,95.0,event
10:19:04.378,0.7488833,1.2513685,0.9899352,0.74920267,-0.26025718,0.09572473,0.234718,0.0002297784,0.21550603,0.06751318,-0.32448354,0.27689528,0.73528856,-0.11483583,-0.3711011,0.4914367,0.30932054,-0.6624964,-0.58929086,0.18785802,769.59705,816.7399,822.381,774.83514,738.97437,-0.19146728515625,0.0860595703125,0.96246337890625,1.682281494140625,-3.461761474609375,-0.276641845703125,1.0,2.0,1.0,1.0,2.0,95.0,event
10:19:04.379,0.7488833,1.2513685,0.9899352,0.74920267,-0.26025718,0.09572473,0.234718,0.0002297784,0.21550603,0.06751318,-0.32448354,0.27689528,0.73528856,-0.11483583,-0.3711011,0.4914367,0.30932054,-0.6624964,-0.58929086,0.18785802,792.1612,819.15753,822.7839,782.8938,700.696,-0.19146728515625,0.0860595703125,0.96246337890625,1.682281494140625,-3.461761474609375,-0.276641845703125,1.0,2.0,1.0,1.0,2.0,95.0,event
10:19:04.380,0.7488833,1.2513685,0.9899352,0.74920267,-0.26025718,0.09572473,0.234718,0.0002297784,0.21550603,0.06751318,-0.32448354,0.27689528,0.73528856,-0.11483583,-0.3711011,0.4914367,0.30932054,-0.6624964,-0.58929086,0.18785802,804.2491,813.5165,823.5897,776.4469,735.34796,-0.19146728515625,0.0860595703125,0.96246337890625,1.682281494140625,-3.461761474609375,-0.276641845703125,1.0,2.0,1.0,1.0,2.0,95.0,event
10:19:04.380,0.7488833,1.2513685,0.9899352,0.74920267,-0.26025718,0.09572473,0.234718,0.0002297784,0.21550603,0.06751318,-0.32448354,0.27689528,0.73528856,-0.11483583,-0.3711011,0.4914367,0.30932054,-0.6624964,-0.58929086,0.18785802,794.57874,811.9048,826.4103,789.34064,950.5128,-0.19146728515625,0.0860595703125,0.96246337890625,1.682281494140625,-3.461761474609375,-0.276641845703125,1.0,2.0,1.0,1.0,2.0,95.0,event
10:19:04.381,0.7488833,1.2513685,0.9899352,0.74920267,-0.26025718,0.09572473,0.234718,0.0002297784,0.21550603,0.06751318,-0.32448354,0.27689528,0.73528856,-0.11483583,-0.3711011,0.4914367,0.30932054,-0.6624964,-0.58929086,0.18785802,790.54944,817.5458,830.0366,792.1612,1041.5751,-0.19146728515625,0.0860595703125,0.96246337890625,1.682281494140625,-3.461761474609375,-0.276641845703125,1.0,2.0,1.0,1.0,2.0,95.0,event
10:19:04.381,0.7488833,1.2513685,0.9899352,0.74920267,-0.26025718,0.09572473,0.234718,0.0002297784,0.21550603,0.06751318,-0.32448354,0.27689528,0.73528856,-0.11483583,-0.3711011,0.4914367,0.30932054,-0.6624964,-0.58929086,0.18785802,797.3993,819.5604,827.2161,788.1319,890.87915,-0.19146728515625,0.0860595703125,0.96246337890625,1.682281494140625,-3.461761474609375,-0.276641845703125,1.0,2.0,1.0,1.0,2.0,95.0,event
10:19:04.382,0.7488833,1.2513685,0.9899352,0.74920267,-0.26025718,0.09572473,0.234718,0.0002297784,0.21550603,0.06751318,-0.32448354,0.27689528,0.73528856,-0.11483583,-0.3711011,0.4914367,0.30932054,-0.6624964,-0.58929086,0.18785802,795.38464,815.5311,822.381,780.4762,726.4835,-0.19146728515625,0.0860595703125,0.96246337890625,1.682281494140625,-3.461761474609375,-0.276641845703125,1.0,2.0,1.0,1.0,2.0,95.0,event
10:19:04.383,0.7488833,1.2513685,0.9899352,0.74920267,-0.26025718,0.09572473,0.234718,0.0002297784,0.21550603,0.06751318,-0.32448354,0.27689528,0.73528856,-0.11483583,-0.3711011,0.4914367,0.30932054,-0.6624964,-0.58929086,0.18785802,815.12823,805.4579,819.9634,801.02563,988.3883,-0.19146728515625,0.0860595703125,0.96246337890625,1.682281494140625,-3.461761474609375,-0.276641845703125,1.0,2.0,1.0,1.0,2.0,95.0,event
10:19:04.383,0.7488833,1.2513685,0.9899352,0.74920267,-0.26025718,0.09572473,0.234718,0.0002297784,0.21550603,0.06751318,-0.32448354,0.27689528,0.73528856,-0.11483583,-0.3711011,0.4914367,0.30932054,-0.6624964,-0.58929086,0.18785802,802.23444,809.89014,819.5604,787.72894,728.0952,-0.19146728515625,0.0860595703125,0.96246337890625,1.682281494140625,-3.461761474609375,-0.276641845703125,1.0,2.0,1.0,1.0,2.0,95.0,event
10:19:04.384,0.7488833,1.2513685,0.9899352,0.74920267,-0.26025718,0.09572473,0.234718,0.0002297784,0.21550603,0.06751318,-0.32448354,0.27689528,0.73528856,-0.11483583,-0.3711011,0.4914367,0.30932054,-0.6624964,-0.58929086,0.18785802,803.8461,815.12823,828.022,796.1905,850.18317,-0.19146728515625,0.0860595703125,0.96246337890625,1.682281494140625,-3.461761474609375,-0.276641845703125,1.0,2.0,1.0,1.0,2.0,95.0,event
10:19:04.414,0.7488833,1.2513685,0.9899352,0.74920267,-0.26025718,0.09572473,0.234718,0.0002297784,0.21550603,0.06751318,-0.32448354,0.27689528,0.73528856,-0.11483583,-0.3711011,0.4914367,0.30932054,-0.6624964,-0.58929086,0.18785802,797.3993,820.3663,831.6484,794.57874,636.2271,-0.1895751953125,0.09149169921875,0.9730224609375,2.803802490234375,-3.611297607421875,0.478515625,1.0,2.0,1.0,1.0,2.0,95.0,event
10:19:04.415,0.7488833,1.2513685,0.9899352,0.74920267,-0.26025718,0.09572473,0.234718,0.0002297784,0.21550603,0.06751318,-0.32448354,0.27689528,0.73528856,-0.11483583,-0.3711011,0.4914367,0.30932054,-0.6624964,-0.58929086,0.18785802,803.44324,816.7399,829.6337,794.57874,710.3663,-0.1895751953125,0.09149169921875,0.9730224609375,2.803802490234375,-3.611297607421875,0.478515625,1.0,2.0,1.0,1.0,2.0,95.0,event
10:19:04.416,0.7488833,1.2513685,0.9899352,0.74920267,-0.26025718,0.09572473,0.234718,0.0002297784,0.21550603,0.06751318,-0.32448354,0.27689528,0.73528856,-0.11483583,-0.3711011,0.4914367,0.30932054,-0.6624964,-0.58929086,0.18785802,813.5165,816.7399,824.3956,805.05493,724.87177,-0.1895751953125,0.09149169921875,0.9730224609375,2.803802490234375,-3.611297607421875,0.478515625,1.0,2.0,1.0,1.0,2.0,95.0,event
10:19:04.417,0.7488833,1.2513685,1.0097884,0.74920267,-0.26025718,0.09572473,0.27576992,0.0002297784,0.21550603,0.06751318,-0.32448354,0.27689528,0.73528856,-0.11483583,-0.36181062,0.4914367,0.30932054,-0.6624964,-0.5879251,0.18785802,818.7546,816.337,821.5751,800.2198,698.2784,-0.1895751953125,0.09149169921875,0.9730224609375,2.803802490234375,-3.611297607421875,0.478515625,1.0,2.0,1.0,1.0,2.0,95.0,event
10:19:04.421,0.7488833,1.2513685,1.0097884,0.74920267,-0.26025718,0.09572473,0.27576992,0.0002297784,0.21550603,0.06751318,-0.32448354,0.27689528,0.73528856,-0.11483583,-0.36181062,0.4914367,0.30932054,-0.6624964,-0.5879251,0.18785802,799.81683,810.293,822.7839,790.54944,719.6337,-0.1895751953125,0.09149169921875,0.9730224609375,2.803802490234375,-3.611297607421875,0.478515625,1.0,2.0,1.0,1.0,2.0,95.0,event
10:19:04.422,0.7488833,1.2513685,1.0097884,0.74920267,-0.26025718,0.09572473,0.27576992,0.0002297784,0.21550603,0.06751318,-0.32448354,0.27689528,0.73528856,-0.11483583,-0.36181062,0.4914367,0.30932054,-0.6624964,-0.5879251,0.18785802,794.17584,805.05493,822.7839,800.2198,839.707,-0.1895751953125,0.09149169921875,0.9730224609375,2.803802490234375,-3.611297607421875,0.478515625,1.0,2.0,1.0,1.0,2.0,95.0,event
10:19:04.423,0.7488833,1.2513685,1.0097884,0.74920267,-0.26025718,0.09572473,0.27576992,0.0002297784,0.21550603,0.06751318,-0.32448354,0.27689528,0.73528856,-0.11483583,-0.36181062,0.4914367,0.30932054,-0.6624964,-0.5879251,0.18785802,801.02563,811.50183,823.9927,800.6227,874.35895,-0.1895751953125,0.09149169921875,0.9730224609375,2.803802490234375,-3.611297607421875,0.478515625,1.0,2.0,1.0,1.0,2.0,95.0,event
10:19:04.424,0.7488833,1.2513685,1.0097884,0.74920267,-0.26025718,0.09572473,0.27576992,0.0002297784,0.21550603,0.06751318,-0.32448354,0.27689528,0.73528856,-0.11483583,-0.36181062,0.4914367,0.30932054,-0.6624964,-0.5879251,0.18785802,800.2198,813.5165,823.1868,799.011,771.6117,-0.1895751953125,0.09149169921875,0.9730224609375,2.803802490234375,-3.611297607421875,0.478515625,1.0,2.0,1.0,1.0,2.0,95.0,event
10:19:04.424,0.7488833,1.2513685,1.0097884,0.74920267,-0.26025718,0.09572473,0.27576992,0.0002297784,0.21550603,0.06751318,-0.32448354,0.27689528,0.73528856,-0.11483583,-0.36181062,0.4914367,0.30932054,-0.6624964,-0.5879251,0.18785802,819.15753,808.2784,825.2015,806.6667,721.2454,-0.1895751953125,0.09149169921875,0.9730224609375,2.803802490234375,-3.611297607421875,0.478515625,1.0,2.0,1.0,1.0,2.0,95.0,event
10:19:04.425,0.7488833,1.2513685,1.0097884,0.74920267,-0.26025718,0.09572473,0.27576992,0.0002297784,0.21550603,0.06751318,-0.32448354,0.27689528,0.73528856,-0.11483583,-0.36181062,0.4914367,0.30932054,-0.6624964,-0.5879251,0.18785802,827.619,805.8608,826.4103,798.20514,921.9048,-0.1895751953125,0.09149169921875,0.9730224609375,2.803802490234375,-3.611297607421875,0.478515625,1.0,2.0,1.0,1.0,2.0,95.0,event
10:19:04.426,0.7488833,1.2513685,1.0097884,0.74920267,-0.26025718,0.09572473,0.27576992,0.0002297784,0.21550603,0.06751318,-0.32448354,0.27689528,0.73528856,-0.11483583,-0.36181062,0.4914367,0.30932054,-0.6624964,-0.5879251,0.18785802,801.4286,817.9487,824.7985,796.99634,1005.31134,-0.1895751953125,0.09149169921875,0.9730224609375,2.803802490234375,-3.611297607421875,0.478515625,1.0,2.0,1.0,1.0,2.0,95.0,event
10:19:04.426,0.7488833,1.2513685,1.0097884,0.74920267,-0.26025718,0.09572473,0.27576992,0.0002297784,0.21550603,0.06751318,-0.32448354,0.27689528,0.73528856,-0.11483583,-0.36181062,0.4914367,0.30932054,-0.6624964,-0.5879251,0.18785802,796.99634,816.337,821.978,800.6227,717.2161,-0.1895751953125,0.09149169921875,0.9730224609375,2.803802490234375,-3.611297607421875,0.478515625,1.0,2.0,1.0,1.0,2.0,95.0,event
10:19:04.456,0.7488833,1.2513685,1.0097884,0.74920267,-0.26025718,0.09572473,0.27576992,0.0002297784,0.21550603,0.06751318,-0.32448354,0.27689528,0.73528856,-0.11483583,-0.36181062,0.4914367,0.30932054,-0.6624964,-0.5879251,0.18785802,817.5458,807.8755,820.7692,799.011,701.0989,-0.1861572265625,0.0908203125,0.96807861328125,2.1234130859375,-4.418792724609375,1.128997802734375,1.0,2.0,1.0,1.0,2.0,95.0,event
10:19:04.457,0.7488833,1.2513685,1.0097884,0.74920267,-0.26025718,0.09572473,0.27576992,0.0002297784,0.21550603,0.06751318,-0.32448354,0.27689528,0.73528856,-0.11483583,-0.36181062,0.4914367,0.30932054,-0.6624964,-0.5879251,0.18785802,810.293,810.696,815.9341,808.2784,858.6447,-0.1861572265625,0.0908203125,0.96807861328125,2.1234130859375,-4.418792724609375,1.128997802734375,1.0,2.0,1.0,1.0,2.0,95.0,event
10:19:04.458,0.7488833,1.2513685,1.0097884,0.74920267,-0.26025718,0.09572473,0.27576992,0.0002297784,0.21550603,0.06751318,-0.32448354,0.27689528,0.73528856,-0.11483583,-0.36181062,0.4914367,0.30932054,-0.6624964,-0.5879251,0.18785802,801.02563,816.337,821.5751,803.0403,794.17584,-0.1861572265625,0.0908203125,0.96807861328125,2.1234130859375,-4.418792724609375,1.128997802734375,1.0,2.0,1.0,1.0,2.0,95.0,event
10:19:04.458,0.7488833,1.2513685,1.0097884,0.74920267,-0.26025718,0.09572473,0.27576992,0.0002297784,0.21550603,0.06751318,-0.32448354,0.27689528,0.73528856,-0.11483583,-0.36181062,0.4914367,0.30932054,-0.6624964,-0.5879251,0.18785802,791.75824,815.5311,823.5897,796.5934,726.08057,-0.1861572265625,0.0908203125,0.96807861328125,2.1234130859375,-4.418792724609375,1.128997802734375,1.0,2.0,1.0,1.0,2.0,95.0,event
10:19:04.459,0.7488833,1.2513685,1.0097884,0.74920267,-0.26025718,0.09572473,0.27576992,0.0002297784,0.21550603,0.06751318,-0.32448354,0.27689528,0.73528856,-0.11483583,-0.36181062,0.4914367,0.30932054,-0.6624964,-0.5879251,0.18785802,802.6374,807.8755,815.9341,809.0842,747.03296,-0.1861572265625,0.0908203125,0.96807861328125,2.1234130859375,-4.418792724609375,1.128997802734375,1.0,2.0,1.0,1.0,2.0,95.0,event
10:19:04.459,0.7488833,1.2513685,1.0097884,0.74920267,-0.26025718,0.09572473,0.27576992,0.0002297784,0.21550603,0.06751318,-0.32448354,0.27689528,0.73528856,-0.11483583,-0.36181062,0.4914367,0.30932054,-0.6624964,-0.5879251,0.18785802,813.91943,807.8755,817.5458,818.7546,860.65936,-0.1861572265625,0.0908203125,0.96807861328125,2.1234130859375,-4.418792724609375,1.128997802734375,1.0,2.0,1.0,1.0,2.0,95.0,event
10:19:04.460,0.7488833,1.2513685,1.0097884,0.74920267,-0.26025718,0.09572473,0.27576992,0.0002297784,0.21550603,0.06751318,-0.32448354,0.27689528,0.73528856,-0.11483583,-0.36181062,0.4914367,0.30932054,-0.6624964,-0.5879251,0.18785802,812.71063,811.50183,821.978,817.1429,874.35895,-0.1861572265625,0.0908203125,0.96807861328125,2.1234130859375,-4.418792724609375,1.128997802734375,1.0,2.0,1.0,1.0,2.0,95.0,event
10:19:04.461,0.7488833,1.2513685,1.0097884,0.74920267,-0.26025718,0.09572473,0.27576992,0.0002297784,0.21550603,0.06751318,-0.32448354,0.27689528,0.73528856,-0.11483583,-0.36181062,0.4914367,0.30932054,-0.6624964,-0.5879251,0.18785802,799.81683,807.8755,830.84247,791.3553,742.6007,-0.1861572265625,0.0908203125,0.96807861328125,2.1234130859375,-4.418792724609375,1.128997802734375,1.0,2.0,1.0,1.0,2.0,95.0,event
10:19:04.461,0.7488833,1.2513685,1.0097884,0.74920267,-0.26025718,0.09572473,0.27576992,0.0002297784,0.21550603,0.06751318,-0.32448354,0.27689528,0.73528856,-0.11483583,-0.36181062,0.4914367,0.30932054,-0.6624964,-0.5879251,0.18785802,831.2454,813.5165,826.4103,799.81683,739.7802,-0.1861572265625,0.0908203125,0.96807861328125,2.1234130859375,-4.418792724609375,1.128997802734375,1.0,2.0,1.0,1.0,2.0,95.0,event
10:19:04.462,0.7488833,1.2513685,1.0097884,0.74920267,-0.26025718,0.09572473,0.27576992,0.0002297784,0.21550603,0.06751318,-0.32448354,0.27689528,0.73528856,-0.11483583,-0.36181062,0.4914367,0.30932054,-0.6624964,-0.5879251,0.18785802,780.07324,812.3077,831.2454,794.9817,910.2198,-0.1861572265625,0.0908203125,0.96807861328125,2.1234130859375,-4.418792724609375,1.128997802734375,1.0,2.0,1.0,1.0,2.0,95.0,event
10:19:04.462,0.7488833,1.2513685,1.0097884,0.74920267,-0.26025718,0.09572473,0.27576992,0.0002297784,0.21550603,0.06751318,-0.32448354,0.27689528,0.73528856,-0.11483583,-0.36181062,0.4914367,0.30932054,-0.6624964,-0.5879251,0.18785802,804.2491,819.9634,834.0659,805.05493,725.2747,-0.1861572265625,0.0908203125,0.96807861328125,2.1234130859375,-4.418792724609375,1.128997802734375,1.0,2.0,1.0,1.0,2.0,95.0,event
10:19:04.463,0.7488833,1.2513685,1.0097884,0.74920267,-0.26025718,0.09572473,0.27576992,0.0002297784,0.21550603,0.06751318,-0.32448354,0.27689528,0.73528856,-0.11483583,-0.36181062,0.4914367,0.30932054,-0.6624964,-0.5879251,0.18785802,810.293,814.7253,832.4542,808.68134,609.6337,-0.1861572265625,0.0908203125,0.96807861328125,2.1234130859375,-4.418792724609375,1.128997802734375,1.0,2.0,1.0,1.0,2.0,95.0,event
10:19:04.487,0.7488833,1.2513685,1.0097884,0.74920267,-0.26025718,0.09572473,0.27576992,0.0002297784,0.21550603,0.06751318,-0.32448354,0.27689528,0.73528856,-0.11483583,-0.36181062,0.4914367,0.30932054,-0.6624964,-0.5879251,0.18785802,812.71063,809.89014,833.2601,807.0696,782.8938,-0.1920166015625,0.09344482421875,0.9627685546875,2.145843505859375,-3.043060302734375,0.216827392578125,1.0,2.0,1.0,1.0,2.0,95.0,event
10:19:04.488,0.7488833,1.2513685,1.0097884,0.74920267,-0.26025718,0.09572473,0.27576992,0.0002297784,0.21550603,0.06751318,-0.32448354,0.27689528,0.73528856,-0.11483583,-0.36181062,0.4914367,0.30932054,-0.6624964,-0.5879251,0.18785802,805.8608,811.0989,840.10986,808.2784,887.6557,-0.1920166015625,0.09344482421875,0.9627685546875,2.145843505859375,-3.043060302734375,0.216827392578125,1.0,2.0,1.0,1.0,2.0,95.0,event
10:19:04.489,0.7488833,1.2513685,1.0097884,0.74920267,-0.26025718,0.09572473,0.27576992,0.0002297784,0.21550603,0.06751318,-0.32448354,0.27689528,0.73528856,-0.11483583,-0.36181062,0.4914367,0.30932054,-0.6624964,-0.5879251,0.18785802,807.0696,817.5458,837.6923,801.4286,751.06226,-0.1920166015625,0.09344482421875,0.9627685546875,2.145843505859375,-3.043060302734375,0.216827392578125,1.0,2.0,1.0,1.0,2.0,95.0,event
10:19:04.490,0.7488833,1.2513685,1.0097884,0.74920267,-0.26025718,0.09572473,0.27576992,0.0002297784,0.21550603,0.06751318,-0.32448354,0.27689528,0.73528856,-0.11483583,-0.36181062,0.4914367,0.30932054,-0.6624964,-0.5879251,0.18785802,808.68134,817.5458,829.2308,814.3223,693.44324,-0.1920166015625,0.09344482421875,0.9627685546875,2.145843505859375,-3.043060302734375,0.216827392578125,1.0,2.0,1.0,1.0,2.0,95.0,event
10:19:04.490,0.7488833,1.2513685,1.0097884,0.74920267,-0.26025718,0.09572473,0.27576992,0.0002297784,0.21550603,0.06751318,-0.32448354,0.27689528,0.73528856,-0.11483583,-0.36181062,0.4914367,0.30932054,-0.6624964,-0.5879251,0.18785802,807.47253,810.696,844.5421,830.0366,842.9304,-0.1920166015625,0.09344482421875,0.9627685546875,2.145843505859375,-3.043060302734375,0.216827392578125,1.0,2.0,1.0,1.0,2.0,95.0,event
10:19:04.491,0.7488833,1.2513685,1.0273974,0.74920267,-0.26025718,0.09572473,0.32650602,0.0002297784,0.21550603,0.06751318,-0.34249803,0.27689528,0.73528856,-0.11483583,-0.35344586,0.4914367,0.30932054,-0.6624964,-0.58838236,0.18785802,806.26373,813.5165,854.21246,811.9048,927.1429,-0.1920166015625,0.09344482421875,0.9627685546875,2.145843505859375,-3.043060302734375,0.216827392578125,1.0,2.0,1.0,1.0,2.0,95.0,event
10:19:04.495,0.7488833,1.2513685,1.0273974,0.74920267,-0.26025718,0.09572473,0.32650602,0.0002297784,0.21550603,0.06751318,-0.34249803,0.27689528,0.73528856,-0.11483583,-0.35344586,0.4914367,0.30932054,-0.6624964,-0.58838236,0.18785802,809.4872,819.5604,856.2271,792.1612,870.32965,-0.1920166015625,0.09344482421875,0.9627685546875,2.145843505859375,-3.043060302734375,0.216827392578125,1.0,2.0,1.0,1.0,2.0,95.0,event
10:19:04.495,0.7488833,1.2513685,1.0273974,0.74920267,-0.26025718,0.09572473,0.32650602,0.0002297784,0.21550603,0.06751318,-0.34249803,0.27689528,0.73528856,-0.11483583,-0.35344586,0.4914367,0.30932054,-0.6624964,-0.58838236,0.18785802,805.05493,819.15753,861.4652,793.7729,772.4176,-0.1920166015625,0.09344482421875,0.9627685546875,2.145843505859375,-3.043060302734375,0.216827392578125,1.0,2.0,1.0,1.0,2.0,95.0,event
10:19:04.496,0.7488833,1.2513685,1.0273974,0.74920267,-0.26025718,0.09572473,0.32650602,0.0002297784,0.21550603,0.06751318,-0.34249803,0.27689528,0.73528856,-0.11483583,-0.35344586,0.4914367,0.30932054,-0.6624964,-0.58838236,0.18785802,813.5165,816.7399,867.1062,816.337,962.1978,-0.1920166015625,0.09344482421875,0.9627685546875,2.145843505859375,-3.043060302734375,0.216827392578125,1.0,2.0,1.0,1.0,2.0,95.0,event
10:19:04.496,0.7488833,1.2513685,1.0273974,0.74920267,-0.26025718,0.09572473,0.32650602,0.0002297784,0.21550603,0.06751318,-0.34249803,0.27689528,0.73528856,-0.11483583,-0.35344586,0.4914367,0.30932054,-0.6624964,-0.58838236,0.18785802,804.2491,807.8755,863.8828,808.2784,891.685,-0.1920166015625,0.09344482421875,0.9627685546875,2.145843505859375,-3.043060302734375,0.216827392578125,1.0,2.0,1.0,1.0,2.0,95.0,event
10:19:04.497,0.7488833,1.2513685,1.0273974,0.74920267,-0.26025718,0.09572473,0.32650602,0.0002297784,0.21550603,0.06751318,-0.34249803,0.27689528,0.73528856,-0.11483583,-0.35344586,0.4914367,0.30932054,-0.6624964,-0.58838236,0.18785802,813.5165,817.9487,875.9707,795.78754,745.0183,-0.1920166015625,0.09344482421875,0.9627685546875,2.145843505859375,-3.043060302734375,0.216827392578125,1.0,2.0,1.0,1.0,2.0,95.0,event
10:19:04.497,0.7488833,1.2513685,1.0273974,0.74920267,-0.26025718,0.09572473,0.32650602,0.0002297784,0.21550603,0.06751318,-0.34249803,0.27689528,0.73528856,-0.11483583,-0.35344586,0.4914367,0.30932054,-0.6624964,-0.58838236,0.18785802,793.7729,807.8755,885.2381,786.1172,721.2454,-0.1920166015625,0.09344482421875,0.9627685546875,2.145843505859375,-3.043060302734375,0.216827392578125,1.0,2.0,1.0,1.0,2.0,95.0,event
10:19:04.524,0.7488833,1.2513685,1.0273974,0.74920267,-0.26025718,0.09572473,0.32650602,0.0002297784,0.21550603,0.06751318,-0.34249803,0.27689528,0.73528856,-0.11483583,-0.35344586,0.4914367,0.30932054,-0.6624964,-0.58838236,0.18785802,778.86444,814.3223,886.4469,797.8022,809.4872,-0.1920166015625,0.09344482421875,0.9627685546875,2.145843505859375,-3.043060302734375,0.216827392578125,1.0,2.0,1.0,1.0,2.0,95.0,event
10:19:04.525,0.7488833,1.2513685,1.0273974,0.74920267,-0.26025718,0.09572473,0.32650602,0.0002297784,0.21550603,0.06751318,-0.34249803,0.27689528,0.73528856,-0.11483583,-0.35344586,0.4914367,0.30932054,-0.6624964,-0.58838236,0.18785802,796.5934,815.9341,888.86444,800.2198,808.2784,-0.1920166015625,0.09344482421875,0.9627685546875,2.145843505859375,-3.043060302734375,0.216827392578125,1.0,2.0,1.0,1.0,2.0,95.0,event
10:19:04.525,0.7488833,1.2513685,1.0273974,0.74920267,-0.26025718,0.09572473,0.32650602,0.0002297784,0.21550603,0.06751318,-0.34249803,0.27689528,0.73528856,-0.11483583,-0.35344586,0.4914367,0.30932054,-0.6624964,-0.58838236,0.18785802,813.1135,812.71063,895.31134,808.2784,744.21246,-0.1920166015625,0.09344482421875,0.9627685546875,2.145843505859375,-3.043060302734375,0.216827392578125,1.0,2.0,1.0,1.0,2.0,95.0,event
10:19:04.526,0.7488833,1.2513685,1.0273974,0.74920267,-0.26025718,0.09572473,0.32650602,0.0002297784,0.21550603,0.06751318,-0.34249803,0.27689528,0.73528856,-0.11483583,-0.35344586,0.4914367,0.30932054,-0.6624964,-0.58838236,0.18785802,802.23444,811.0989,898.5348,790.54944,741.79486,-0.1920166015625,0.09344482421875,0.9627685546875,2.145843505859375,-3.043060302734375,0.216827392578125,1.0,2.0,1.0,1.0,2.0,95.0,event
10:19:04.526,0.7488833,1.2513685,1.0273974,0.74920267,-0.26025718,0.09572473,0.32650602,0.0002297784,0.21550603,0.06751318,-0.34249803,0.27689528,0.73528856,-0.11483583,-0.35344586,0.4914367,0.30932054,-0.6624964,-0.58838236,0.18785802,790.14655,811.50183,900.9524,774.83514,847.76556,-0.1920166015625,0.09344482421875,0.9627685546875,2.145843505859375,-3.043060302734375,0.216827392578125,1.0,2.0,1.0,1.0,2.0,95.0,event
10:19:04.527,0.7488833,1.2513685,1.0273974,0.74920267,-0.26025718,0.09572473,0.32650602,0.0002297784,0.21550603,0.06751318,-0.34249803,0.27689528,0.73528856,-0.11483583,-0.35344586,0.4914367,0.30932054,-0.6624964,-0.58838236,0.18785802,761.13556,812.71063,908.60803,779.2674,876.77655,-0.1920166015625,0.09344482421875,0.9627685546875,2.145843505859375,-3.043060302734375,0.216827392578125,1.0,2.0,1.0,1.0,2.0,95.0,event
10:19:04.527,0.7488833,1.2513685,1.0273974,0.74920267,-0.26025718,0.09572473,0.32650602,0.0002297784,0.21550603,0.06751318,-0.34249803,0.27689528,0.73528856,-0.11483583,-0.35344586,0.4914367,0.30932054,-0.6624964,-0.58838236,0.18785802,770.80585,816.337,920.696,786.52014,861.4652,-0.1920166015625,0.09344482421875,0.9627685546875,2.145843505859375,-3.043060302734375,0.216827392578125,1.0,2.0,1.0,1.0,2.0,95.0,event
10:19:04.528,0.7488833,1.2513685,1.0273974,0.74920267,-0.26025718,0.09572473,0.32650602,0.0002297784,0.21550603,0.06751318,-0.34249803,0.27689528,0.73528856,-0.11483583,-0.35344586,0.4914367,0.30932054,-0.6624964,-0.58838236,0.18785802,805.4579,806.26373,929.9634,808.2784,1103.6263,-0.1920166015625,0.09344482421875,0.9627685546875,2.145843505859375,-3.043060302734375,0.216827392578125,1.0,2.0,1.0,1.0,2.0,95.0,event
10:19:04.528,0.7488833,1.2513685,1.0273974,0.74920267,-0.26025718,0.09572473,0.32650602,0.0002297784,0.21550603,0.06751318,-0.34249803,0.27689528,0.73528856,-0.11483583,-0.35344586,0.4914367,0.30932054,-0.6624964,-0.58838236,0.18785802,803.44324,812.71063,927.5458,800.6227,872.74725,-0.1920166015625,0.09344482421875,0.9627685546875,2.145843505859375,-3.043060302734375,0.216827392578125,1.0,2.0,1.0,1.0,2.0,95.0,event
10:19:04.529,0.7488833,1.2513685,1.0273974,0.74920267,-0.26025718,0.09572473,0.32650602,0.0002297784,0.21550603,0.06751318,-0.34249803,0.27689528,0.73528856,-0.11483583,-0.35344586,0.4914367,0.30932054,-0.6624964,-0.58838236,0.18785802,784.90845,821.978,934.3956,782.8938,746.2271,-0.1920166015625,0.09344482421875,0.9627685546875,2.145843505859375,-3.043060302734375,0.216827392578125,1.0,2.0,1.0,1.0,2.0,95.0,event
10:19:04.529,0.7488833,1.2513685,1.0273974,0.74920267,-0.26025718,0.09572473,0.32650602,0.0002297784,0.21550603,0.06751318,-0.34249803,0.27689528,0.73528856,-0.11483583,-0.35344586,0.4914367,0.30932054,-0.6624964,-0.58838236,0.18785802,792.5641,819.5604,935.6044,793.7729,1054.4689,-0.1920166015625,0.09344482421875,0.9627685546875,2.145843505859375,-3.043060302734375,0.216827392578125,1.0,2.0,1.0,1.0,2.0,95.0,event
10:19:04.530,0.7488833,1.2513685,1.0273974,0.74920267,-0.26025718,0.09572473,0.32650602,0.0002297784,0.21550603,0.06751318,-0.34249803,0.27689528,0.73528856,-0.11483583,-0.35344586,0.4914367,0.30932054,-0.6624964,-0.58838236,0.18785802,774.43225,812.3077,934.3956,789.7436,742.1978,-0.1920166015625,0.09344482421875,0.9627685546875,2.145843505859375,-3.043060302734375,0.216827392578125,1.0,2.0,1.0,1.0,2.0,95.0,event
10:19:04.590,0.7488833,1.2513685,1.0273974,0.74920267,-0.26025718,0.09572473,0.32650602,0.0002297784,0.21550603,0.06751318,-0.34249803,0.27689528,0.73528856,-0.11483583,-0.35344586,0.4914367,0.30932054,-0.6624964,-0.58838236,0.18785802,781.28204,811.50183,935.2015,790.54944,730.5128,-0.192138671875,0.09442138671875,0.9693603515625,2.6318359375,-3.51409912109375,0.46356201171875,1.0,2.0,1.0,1.0,2.0,95.0,event
10:19:04.592,0.7488833,1.2513685,1.0273974,0.74920267,-0.26025718,0.09572473,0.32650602,0.0002297784,0.21550603,0.06751318,-0.34249803,0.27689528,0.73528856,-0.11483583,-0.35344586,0.4914367,0.30932054,-0.6624964,-0.58838236,0.18785802,804.65204,813.5165,935.6044,789.34064,655.9707,-0.192138671875,0.09442138671875,0.9693603515625,2.6318359375,-3.51409912109375,0.46356201171875,1.0,2.0,1.0,1.0,2.0,95.0,event
10:19:04.592,0.7488833,1.2513685,1.0273974,0.74920267,-0.26025718,0.09572473,0.32650602,0.0002297784,0.21550603,0.06751318,-0.34249803,0.27689528,0.73528856,-0.11483583,-0.35344586,0.4914367,0.30932054,-0.6624964,-0.58838236,0.18785802,801.02563,814.7253,939.2308,786.1172,678.5348,-0.192138671875,0.09442138671875,0.9693603515625,2.6318359375,-3.51409912109375,0.46356201171875,1.0,2.0,1.0,1.0,2.0,95.0,event
10:19:04.593,0.7488833,1.2513685,1.0273974,0.74920267,-0.26025718,0.09572473,0.32650602,0.0002297784,0.21550603,0.06751318,-0.34249803,0.27689528,0.73528856,-0.11483583,-0.35344586,0.4914367,0.30932054,-0.6624964,-0.58838236,0.18785802,781.28204,816.7399,940.4396,786.52014,691.8315,-0.192138671875,0.09442138671875,0.9693603515625,2.6318359375,-3.51409912109375,0.46356201171875,1.0,2.0,1.0,1.0,2.0,95.0,event
10:19:04.593,0.7488833,1.2513685,1.0273974,0.74920267,-0.26025718,0.09572473,0.32650602,0.0002297784,0.21550603,0.06751318,-0.34249803,0.27689528,0.73528856,-0.11483583,-0.35344586,0.4914367,0.30932054,-0.6624964,-0.58838236,0.18785802,766.3736,819.15753,940.0366,778.46155,663.6264,-0.192138671875,0.09442138671875,0.9693603515625,2.6318359375,-3.51409912109375,0.46356201171875,1.0,2.0,1.0,1.0,2.0,95.0,event
10:19:04.594,0.7488833,1.2513685,1.0273974,0.74920267,-0.26025718,0.09572473,0.32650602,0.0002297784,0.21550603,0.06751318,-0.34249803,0.27689528,0.73528856,-0.11483583,-0.35344586,0.4914367,0.30932054,-0.6624964,-0.58838236,0.18785802,779.2674,817.9487,937.619,783.69965,786.52014,-0.192138671875,0.09442138671875,0.9693603515625,2.6318359375,-3.51409912109375,0.46356201171875,1.0,2.0,1.0,1.0,2.0,95.0,event
10:19:04.595,0.7488833,1.2513685,1.0273974,0.74920267,-0.26025718,0.09572473,0.32650602,0.0002297784,0.21550603,0.06751318,-0.34249803,0.27689528,0.73528856,-0.11483583,-0.35344586,0.4914367,0.30932054,-0.6624964,-0.58838236,0.18785802,791.3553,816.337,933.1868,789.7436,799.011,-0.192138671875,0.09442138671875,0.9693603515625,2.6318359375,-3.51409912109375,0.46356201171875,1.0,2.0,1.0,1.0,2.0,95.0,event
10:19:04.595,0.7488833,1.2513685,1.0688008,0.74920267,-0.26025718,0.09572473,0.38113832,0.0002297784,0.21550603,0.06751318,-0.41010597,0.27689528,0.73528856,-0.11483583,-0.34264302,0.4914367,0.30932054,-0.6624964,-0.5857601,0.18785802,790.14655,810.293,931.1722,786.52014,901.75824,-0.192138671875,0.09442138671875,0.9693603515625,2.6318359375,-3.51409912109375,0.46356201171875,1.0,2.0,1.0,1.0,2.0,95.0,event
10:19:04.600,0.7488833,1.2513685,1.0688008,0.74920267,-0.26025718,0.09572473,0.38113832,0.0002297784,0.21550603,0.06751318,-0.41010597,0.27689528,0.73528856,-0.11483583,-0.34264302,0.4914367,0.30932054,-0.6624964,-0.5857601,0.18785802,786.1172,816.7399,927.5458,788.1319,1058.4982,-0.192138671875,0.09442138671875,0.9693603515625,2.6318359375,-3.51409912109375,0.46356201171875,1.0,2.0,1.0,1.0,2.0,95.0,event
10:19:04.601,0.7488833,1.2513685,1.0688008,0.74920267,-0.26025718,0.09572473,0.38113832,0.0002297784,0.21550603,0.06751318,-0.41010597,0.27689528,0.73528856,-0.11483583,-0.34264302,0.4914367,0.30932054,-0.6624964,-0.5857601,0.18785802,787.326,823.9927,922.71063,784.5055,778.46155,-0.192138671875,0.09442138671875,0.9693603515625,2.6318359375,-3.51409912109375,0.46356201171875,1.0,2.0,1.0,1.0,2.0,95.0,event
10:19:04.602,0.7488833,1.2513685,1.0688008,0.74920267,-0.26025718,0.09572473,0.38113832,0.0002297784,0.21550603,0.06751318,-0.41010597,0.27689528,0.73528856,-0.11483583,-0.34264302,0.4914367,0.30932054,-0.6624964,-0.5857601,0.18785802,787.72894,813.91943,917.8755,787.326,673.2967,-0.192138671875,0.09442138671875,0.9693603515625,2.6318359375,-3.51409912109375,0.46356201171875,1.0,2.0,1.0,1.0,2.0,95.0,event
10:19:04.603,0.7488833,1.2513685,1.0688008,0.74920267,-0.26025718,0.09572473,0.38113832,0.0002297784,0.21550603,0.06751318,-0.41010597,0.27689528,0.73528856,-0.11483583,-0.34264302,0.4914367,0.30932054,-0.6624964,-0.5857601,0.18785802,793.7729,813.5165,915.4579,790.14655,832.0513,-0.192138671875,0.09442138671875,0.9693603515625,2.6318359375,-3.51409912109375,0.46356201171875,1.0,2.0,1.0,1.0,2.0,95.0,event
10:19:04.634,0.7488833,1.2513685,1.0688008,0.74920267,-0.26025718,0.09572473,0.38113832,0.0002297784,0.21550603,0.06751318,-0.41010597,0.27689528,0.73528856,-0.11483583,-0.34264302,0.4914367,0.30932054,-0.6624964,-0.5857601,0.18785802,798.60803,817.5458,915.4579,788.5348,774.43225,-0.189453125,0.0950927734375,0.96270751953125,2.175750732421875,-3.431854248046875,0.515899658203125,1.0,2.0,1.0,1.0,2.0,95.0,event
10:19:04.635,0.7488833,1.2513685,1.0688008,0.74920267,-0.26025718,0.09572473,0.38113832,0.0002297784,0.21550603,0.06751318,-0.41010597,0.27689528,0.73528856,-0.11483583,-0.34264302,0.4914367,0.30932054,-0.6624964,-0.5857601,0.18785802,780.07324,813.5165,909.41394,778.86444,660.0,-0.189453125,0.0950927734375,0.96270751953125,2.175750732421875,-3.431854248046875,0.515899658203125,1.0,2.0,1.0,1.0,2.0,95.0,event
10:19:04.636,0.7488833,1.2513685,1.0688008,0.74920267,-0.26025718,0.09572473,0.38113832,0.0002297784,0.21550603,0.06751318,-0.41010597,0.27689528,0.73528856,-0.11483583,-0.34264302,0.4914367,0.30932054,-0.6624964,-0.5857601,0.18785802,793.36993,813.5165,903.7729,778.0586,702.71063,-0.189453125,0.0950927734375,0.96270751953125,2.175750732421875,-3.431854248046875,0.515899658203125,1.0,2.0,1.0,1.0,2.0,95.0,event
10:19:04.636,0.7488833,1.2513685,1.0688008,0.74920267,-0.26025718,0.09572473,0.38113832,0.0002297784,0.21550603,0.06751318,-0.41010597,0.27689528,0.73528856,-0.11483583,-0.34264302,0.4914367,0.30932054,-0.6624964,-0.5857601,0.18785802,799.81683,816.7399,902.5641,782.8938,752.27106,-0.189453125,0.0950927734375,0.96270751953125,2.175750732421875,-3.431854248046875,0.515899658203125,1.0,2.0,1.0,1.0,2.0,95.0,event
10:19:04.637,0.7488833,1.2513685,1.0688008,0.74920267,-0.26025718,0.09572473,0.38113832,0.0002297784,0.21550603,0.06751318,-0.41010597,0.27689528,0.73528856,-0.11483583,-0.34264302,0.4914367,0.30932054,-0.6624964,-0.5857601,0.18785802,798.20514,816.337,900.14655,789.34064,720.4396,-0.189453125,0.0950927734375,0.96270751953125,2.175750732421875,-3.431854248046875,0.515899658203125,1.0,2.0,1.0,1.0,2.0,95.0,event
10:19:04.637,0.7488833,1.2513685,1.0688008,0.74920267,-0.26025718,0.09572473,0.38113832,0.0002297784,0.21550603,0.06751318,-0.41010597,0.27689528,0.73528856,-0.11483583,-0.34264302,0.4914367,0.30932054,-0.6624964,-0.5857601,0.18785802,808.2784,813.91943,894.10254,789.34064,745.82416,-0.189453125,0.0950927734375,0.96270751953125,2.175750732421875,-3.431854248046875,0.515899658203125,1.0,2.0,1.0,1.0,2.0,95.0,event
10:19:04.638,0.7488833,1.2513685,1.0688008,0.74920267,-0.26025718,0.09572473,0.38113832,0.0002297784,0.21550603,0.06751318,-0.41010597,0.27689528,0.73528856,-0.11483583,-0.34264302,0.4914367,0.30932054,-0.6624964,-0.5857601,0.18785802,790.54944,811.9048,892.49084,781.28204,846.1539,-0.189453125,0.0950927734375,0.96270751953125,2.175750732421875,-3.431854248046875,0.515899658203125,1.0,2.0,1.0,1.0,2.0,95.0,event
10:19:04.638,0.7488833,1.2513685,1.0688008,0.74920267,-0.26025718,0.09572473,0.38113832,0.0002297784,0.21550603,0.06751318,-0.41010597,0.27689528,0.73528856,-0.11483583,-0.34264302,0.4914367,0.30932054,-0.6624964,-0.5857601,0.18785802,774.43225,815.12823,888.46155,771.6117,1020.6227,-0.189453125,0.0950927734375,0.96270751953125,2.175750732421875,-3.431854248046875,0.515899658203125,1.0,2.0,1.0,1.0,2.0,95.0,event
10:19:04.639,0.7488833,1.2513685,1.0688008,0.74920267,-0.26025718,0.09572473,0.38113832,0.0002297784,0.21550603,0.06751318,-0.41010597,0.27689528,0.73528856,-0.11483583,-0.34264302,0.4914367,0.30932054,-0.6624964,-0.5857601,0.18785802,784.10254,821.1722,886.04395,778.0586,868.71796,-0.189453125,0.0950927734375,0.96270751953125,2.175750732421875,-3.431854248046875,0.515899658203125,1.0,2.0,1.0,1.0,2.0,95.0,event
10:19:04.640,0.7488833,1.2513685,1.0688008,0.74920267,-0.26025718,0.09572473,0.38113832,0.0002297784,0.21550603,0.06751318,-0.41010597,0.27689528,0.73528856,-0.11483583,-0.34264302,0.4914367,0.30932054,-0.6624964,-0.5857601,0.18785802,795.38464,815.9341,878.7912,788.1319,745.82416,-0.189453125,0.0950927734375,0.96270751953125,2.175750732421875,-3.431854248046875,0.515899658203125,1.0,2.0,1.0,1.0,2.0,95.0,event
10:19:04.640,0.7488833,1.2513685,1.0688008,0.74920267,-0.26025718,0.09572473,0.38113832,0.0002297784,0.21550603,0.06751318,-0.41010597,0.27689528,0.73528856,-0.11483583,-0.34264302,0.4914367,0.30932054,-0.6624964,-0.5857601,0.18785802,803.0403,817.5458,881.6117,790.54944,666.04395,-0.189453125,0.0950927734375,0.96270751953125,2.175750732421875,-3.431854248046875,0.515899658203125,1.0,2.0,1.0,1.0,2.0,95.0,event
10:19:04.641,0.7488833,1.2513685,1.0688008,0.74920267,-0.26025718,0.09572473,0.38113832,0.0002297784,0.21550603,0.06751318,-0.41010597,0.27689528,0.73528856,-0.11483583,-0.34264302,0.4914367,0.30932054,-0.6624964,-0.5857601,0.18785802,783.69965,821.5751,876.77655,776.04395,765.16486,-0.189453125,0.0950927734375,0.96270751953125,2.175750732421875,-3.431854248046875,0.515899658203125,1.0,2.0,1.0,1.0,2.0,95.0,event
10:19:04.669,0.7488833,1.2513685,1.0688008,0.74920267,-0.26025718,0.09572473,0.38113832,0.0002297784,0.21550603,0.06751318,-0.41010597,0.27689528,0.73528856,-0.11483583,-0.34264302,0.4914367,0.30932054,-0.6624964,-0.5857601,0.18785802,786.1172,825.6044,871.53845,773.22345,653.95605,-0.1990966796875,0.0902099609375,0.97119140625,1.2860107421875,-3.297271728515625,-0.246734619140625,1.0,2.0,1.0,1.0,2.0,95.0,event
10:19:04.669,0.7488833,1.2513685,1.0688008,0.74920267,-0.26025718,0.09572473,0.38113832,0.0002297784,0.21550603,0.06751318,-0.41010597,0.27689528,0.73528856,-0.11483583,-0.34264302,0.4914367,0.30932054,-0.6624964,-0.5857601,0.18785802,798.20514,824.7985,873.5531,791.3553,662.4176,-0.1990966796875,0.0902099609375,0.97119140625,1.2860107421875,-3.297271728515625,-0.246734619140625,1.0,2.0,1.0,1.0,2.0,95.0,event
10:19:04.670,0.7488833,1.2513685,1.0688008,0.74920267,-0.26025718,0.09572473,0.38113832,0.0002297784,0.21550603,0.06751318,-0.41010597,0.27689528,0.73528856,-0.11483583,-0.34264302,0.4914367,0.30932054,-0.6624964,-0.5857601,0.18785802,794.9817,821.1722,877.1795,798.20514,774.0293,-0.1990966796875,0.0902099609375,0.97119140625,1.2860107421875,-3.297271728515625,-0.246734619140625,1.0,2.0,1.0,1.0,2.0,95.0,event
10:19:04.671,0.7488833,1.2513685,1.0688008,0.74920267,-0.26025718,0.09572473,0.38113832,0.0002297784,0.21550603,0.06751318,-0.41010597,0.27689528,0.73528856,-0.11483583,-0.34264302,0.4914367,0.30932054,-0.6624964,-0.5857601,0.18785802,803.44324,825.6044,873.5531,794.57874,797.3993,-0.1990966796875,0.0902099609375,0.97119140625,1.2860107421875,-3.297271728515625,-0.246734619140625,1.0,2.0,1.0,1.0,2.0,95.0,event
10:19:04.671,0.7488833,1.2513685,1.0688008,0.74920267,-0.26025718,0.09572473,0.38113832,0.0002297784,0.21550603,0.06751318,-0.41010597,0.27689528,0.73528856,-0.11483583,-0.34264302,0.4914367,0.30932054,-0.6624964,-0.5857601,0.18785802,804.2491,827.619,869.12085,805.8608,727.6923,-0.1990966796875,0.0902099609375,0.97119140625,1.2860107421875,-3.297271728515625,-0.246734619140625,1.0,2.0,1.0,1.0,2.0,95.0,event
10:19:04.672,0.7488833,1.2513685,1.0688008,0.74920267,-0.26025718,0.09572473,0.38113832,0.0002297784,0.21550603,0.06751318,-0.41010597,0.27689528,0.73528856,-0.11483583,-0.34264302,0.4914367,0.30932054,-0.6624964,-0.5857601,0.18785802,779.67035,820.3663,864.2857,769.19415,748.24176,-0.1990966796875,0.0902099609375,0.97119140625,1.2860107421875,-3.297271728515625,-0.246734619140625,1.0,2.0,1.0,1.0,2.0,95.0,event
10:19:04.672,0.7488833,1.2513685,1.0688008,0.74920267,-0.26025718,0.09572473,0.38113832,0.0002297784,0.21550603,0.06751318,-0.41010597,0.27689528,0.73528856,-0.11483583,-0.34264302,0.4914367,0.30932054,-0.6624964,-0.5857601,0.18785802,772.4176,816.7399,858.24176,750.65936,981.13556,-0.1990966796875,0.0902099609375,0.97119140625,1.2860107421875,-3.297271728515625,-0.246734619140625,1.0,2.0,1.0,1.0,2.0,95.0,event
10:19:04.673,0.7488833,1.2513685,1.0688008,0.74920267,-0.26025718,0.09572473,0.38113832,0.0002297784,0.21550603,0.06751318,-0.41010597,0.27689528,0.73528856,-0.11483583,-0.34264302,0.4914367,0.30932054,-0.6624964,-0.5857601,0.18785802,786.1172,827.619,857.03296,771.2088,1028.6813,-0.1990966796875,0.0902099609375,0.97119140625,1.2860107421875,-3.297271728515625,-0.246734619140625,1.0,2.0,1.0,1.0,2.0,95.0,event
10:19:04.674,0.7488833,1.2513685,1.1479763,0.74920267,-0.26025718,0.09572473,0.4335519,0.0002297784,0.21550603,0.06751318,-0.4695464,0.27689528,0.73528856,-0.11483583,-0.3210577,0.4914367,0.30932054,-0.6624964,-0.57437515,0.18785802,766.77655,826.0073,855.82416,758.315,749.85345,-0.1990966796875,0.0902099609375,0.97119140625,1.2860107421875,-3.297271728515625,-0.246734619140625,1.0,2.0,1.0,1.0,2.0,95.0,event
10:19:04.674,0.7488833,1.2513685,1.0688008,0.74920267,-0.26025718,0.09572473,0.38113832,0.0002297784,0.21550603,0.06751318,-0.41010597,0.27689528,0.73528856,-0.11483583,-0.34264302,0.4914367,0.30932054,-0.6624964,-0.5857601,0.18785802,791.75824,832.4542,857.03296,780.4762,751.06226,-0.1990966796875,0.0902099609375,0.97119140625,1.2860107421875,-3.297271728515625,-0.246734619140625,1.0,2.0,1.0,1.0,2.0,95.0,event
10:19:04.678,0.7488833,1.2513685,1.1479763,0.74920267,-0.26025718,0.09572473,0.4335519,0.0002297784,0.21550603,0.06751318,-0.4695464,0.27689528,0.73528856,-0.11483583,-0.3210577,0.4914367,0.30932054,-0.6624964,-0.57437515,0.18785802,782.49084,828.022,848.5714,757.50916,802.6374,-0.1990966796875,0.0902099609375,0.97119140625,1.2860107421875,-3.297271728515625,-0.246734619140625,1.0,2.0,1.0,1.0,2.0,95.0,event
10:19:04.678,0.7488833,1.2513685,1.1479763,0.74920267,-0.26025718,0.09572473,0.4335519,0.0002297784,0.21550603,0.06751318,-0.4695464,0.27689528,0.73528856,-0.11483583,-0.3210577,0.4914367,0.30932054,-0.6624964,-0.57437515,0.18785802,772.01465,825.2015,850.58606,753.47986,881.2088,-0.1990966796875,0.0902099609375,0.97119140625,1.2860107421875,-3.297271728515625,-0.246734619140625,1.0,2.0,1.0,1.0,2.0,95.0,event
10:19:04.737,0.7488833,1.2513685,1.1479763,0.74920267,-0.26025718,0.09572473,0.4335519,0.0002297784,0.21550603,0.06751318,-0.4695464,0.27689528,0.73528856,-0.11483583,-0.3210577,0.4914367,0.30932054,-0.6624964,-0.57437515,0.18785802,769.19415,823.5897,846.55676,753.47986,730.5128,-0.1929931640625,0.086669921875,0.9625244140625,1.996307373046875,-4.08233642578125,-0.336456298828125,1.0,2.0,1.0,1.0,2.0,95.0,event
10:19:04.738,0.7488833,1.2513685,1.1479763,0.74920267,-0.26025718,0.09572473,0.4335519,0.0002297784,0.21550603,0.06751318,-0.4695464,0.27689528,0.73528856,-0.11483583,-0.3210577,0.4914367,0.30932054,-0.6624964,-0.57437515,0.18785802,774.43225,818.3516,840.5128,753.8828,782.0879,-0.1929931640625,0.086669921875,0.9625244140625,1.996307373046875,-4.08233642578125,-0.336456298828125,1.0,2.0,1.0,1.0,2.0,95.0,event
10:19:04.739,0.7488833,1.2513685,1.1479763,0.74920267,-0.26025718,0.09572473,0.4335519,0.0002297784,0.21550603,0.06751318,-0.4695464,0.27689528,0.73528856,-0.11483583,-0.3210577,0.4914367,0.30932054,-0.6624964,-0.57437515,0.18785802,766.77655,821.978,844.1392,757.1062,933.9927,-0.1929931640625,0.086669921875,0.9625244140625,1.996307373046875,-4.08233642578125,-0.336456298828125,1.0,2.0,1.0,1.0,2.0,95.0,event
10:19:04.739,0.7488833,1.2513685,1.1479763,0.74920267,-0.26025718,0.09572473,0.4335519,0.0002297784,0.21550603,0.06751318,-0.4695464,0.27689528,0.73528856,-0.11483583,-0.3210577,0.4914367,0.30932054,-0.6624964,-0.57437515,0.18785802,754.2857,826.0073,844.94507,748.24176,823.5897,-0.1929931640625,0.086669921875,0.9625244140625,1.996307373046875,-4.08233642578125,-0.336456298828125,1.0,2.0,1.0,1.0,2.0,95.0,event
10:19:04.740,0.7488833,1.2513685,1.1479763,0.74920267,-0.26025718,0.09572473,0.4335519,0.0002297784,0.21550603,0.06751318,-0.4695464,0.27689528,0.73528856,-0.11483583,-0.3210577,0.4914367,0.30932054,-0.6624964,-0.57437515,0.18785802,758.71796,823.1868,839.707,748.6447,685.38464,-0.1929931640625,0.086669921875,0.9625244140625,1.996307373046875,-4.08233642578125,-0.336456298828125,1.0,2.0,1.0,1.0,2.0,95.0,event
10:19:04.741,0.7488833,1.2513685,1.1479763,0.74920267,-0.26025718,0.09572473,0.4335519,0.0002297784,0.21550603,0.06751318,-0.4695464,0.27689528,0.73528856,-0.11483583,-0.3210577,0.4914367,0.30932054,-0.6624964,-0.57437515,0.18785802,770.40295,819.15753,839.304,765.16486,833.663,-0.1929931640625,0.086669921875,0.9625244140625,1.996307373046875,-4.08233642578125,-0.336456298828125,1.0,2.0,1.0,1.0,2.0,95.0,event
10:19:04.741,0.7488833,1.2513685,1.1479763,0.74920267,-0.26025718,0.09572473,0.4335519,0.0002297784,0.21550603,0.06751318,-0.4695464,0.27689528,0.73528856,-0.11483583,-0.3210577,0.4914367,0.30932054,-0.6624964,-0.57437515,0.18785802,777.25275,817.5458,839.304,777.6557,1035.5311,-0.1929931640625,0.086669921875,0.9625244140625,1.996307373046875,-4.08233642578125,-0.336456298828125,1.0,2.0,1.0,1.0,2.0,95.0,event
10:19:04.742,0.7488833,1.2513685,1.1479763,0.74920267,-0.26025718,0.09572473,0.4335519,0.0002297784,0.21550603,0.06751318,-0.4695464,0.27689528,0.73528856,-0.11483583,-0.3210577,0.4914367,0.30932054,-0.6624964,-0.57437515,0.18785802,778.46155,825.6044,838.0952,781.685,815.9341,-0.1929931640625,0.086669921875,0.9625244140625,1.996307373046875,-4.08233642578125,-0.336456298828125,1.0,2.0,1.0,1.0,2.0,95.0,event
10:19:04.743,0.7488833,1.2513685,1.1479763,0.74920267,-0.26025718,0.09572473,0.4335519,0.0002297784,0.21550603,0.06751318,-0.4695464,0.27689528,0.73528856,-0.11483583,-0.3210577,0.4914367,0.30932054,-0.6624964,-0.57437515,0.18785802,762.3443,823.5897,838.9011,765.56775,659.59705,-0.1929931640625,0.086669921875,0.9625244140625,1.996307373046875,-4.08233642578125,-0.336456298828125,1.0,2.0,1.0,1.0,2.0,95.0,event
10:19:04.743,0.7488833,1.2513685,1.1479763,0.74920267,-0.26025718,0.09572473,0.4335519,0.0002297784,0.21550603,0.06751318,-0.4695464,0.27689528,0.73528856,-0.11483583,-0.3210577,0.4914367,0.30932054,-0.6624964,-0.57437515,0.18785802,780.4762,818.7546,836.08057,765.56775,723.663,-0.1929931640625,0.086669921875,0.9625244140625,1.996307373046875,-4.08233642578125,-0.336456298828125,1.0,2.0,1.0,1.0,2.0,95.0,event
10:19:04.744,0.7488833,1.2513685,1.1479763,0.74920267,-0.26025718,0.09572473,0.4335519,0.0002297784,0.21550603,0.06751318,-0.4695464,0.27689528,0.73528856,-0.11483583,-0.3210577,0.4914367,0.30932054,-0.6624964,-0.57437515,0.18785802,801.02563,824.3956,833.663,772.4176,830.84247,-0.1929931640625,0.086669921875,0.9625244140625,1.996307373046875,-4.08233642578125,-0.336456298828125,1.0,2.0,1.0,1.0,2.0,95.0,event
10:19:04.745,0.7488833,1.2513685,1.1479763,0.74920267,-0.26025718,0.09572473,0.4335519,0.0002297784,0.21550603,0.06751318,-0.4695464,0.27689528,0.73528856,-0.11483583,-0.3210577,0.4914367,0.30932054,-0.6624964,-0.57437515,0.18785802,794.17584,823.9927,835.6777,772.4176,872.74725,-0.1929931640625,0.086669921875,0.9625244140625,1.996307373046875,-4.08233642578125,-0.336456298828125,1.0,2.0,1.0,1.0,2.0,95.0,event
10:19:04.770,0.7488833,1.2513685,1.1479763,0.74920267,-0.26025718,0.09572473,0.4335519,0.0002297784,0.21550603,0.06751318,-0.4695464,0.27689528,0.73528856,-0.11483583,-0.3210577,0.4914367,0.30932054,-0.6624964,-0.57437515,0.18785802,786.1172,822.7839,836.8865,774.43225,760.7326,-0.1929931640625,0.086669921875,0.9625244140625,1.996307373046875,-4.08233642578125,-0.336456298828125,1.0,2.0,1.0,1.0,2.0,95.0,event
10:19:04.771,0.7488833,1.2513685,1.1479763,0.74920267,-0.26025718,0.09572473,0.4335519,0.0002297784,0.21550603,0.06751318,-0.4695464,0.27689528,0.73528856,-0.11483583,-0.3210577,0.4914367,0.30932054,-0.6624964,-0.57437515,0.18785802,772.8205,820.7692,834.87177,765.9707,745.42126,-0.1929931640625,0.086669921875,0.9625244140625,1.996307373046875,-4.08233642578125,-0.336456298828125,1.0,2.0,1.0,1.0,2.0,95.0,event
10:19:04.772,0.7488833,1.2513685,1.1479763,0.74920267,-0.26025718,0.09572473,0.4335519,0.0002297784,0.21550603,0.06751318,-0.4695464,0.27689528,0.73528856,-0.11483583,-0.3210577,0.4914367,0.30932054,-0.6624964,-0.57437515,0.18785802,775.64105,821.1722,832.4542,774.83514,755.09155,-0.1929931640625,0.086669921875,0.9625244140625,1.996307373046875,-4.08233642578125,-0.336456298828125,1.0,2.0,1.0,1.0,2.0,95.0,event
10:19:04.772,0.7488833,1.2513685,1.1479763,0.74920267,-0.26025718,0.09572473,0.4335519,0.0002297784,0.21550603,0.06751318,-0.4695464,0.27689528,0.73528856,-0.11483583,-0.3210577,0.4914367,0.30932054,-0.6624964,-0.57437515,0.18785802,783.69965,823.5897,830.0366,779.67035,674.5055,-0.1929931640625,0.086669921875,0.9625244140625,1.996307373046875,-4.08233642578125,-0.336456298828125,1.0,2.0,1.0,1.0,2.0,95.0,event
10:19:04.773,0.7488833,1.2513685,1.1479763,0.74920267,-0.26025718,0.09572473,0.4335519,0.0002297784,0.21550603,0.06751318,-0.4695464,0.27689528,0.73528856,-0.11483583,-0.3210577,0.4914367,0.30932054,-0.6624964,-0.57437515,0.18785802,784.5055,823.1868,830.84247,782.49084,676.52014,-0.1929931640625,0.086669921875,0.9625244140625,1.996307373046875,-4.08233642578125,-0.336456298828125,1.0,2.0,1.0,1.0,2.0,95.0,event
10:19:04.774,0.7488833,1.2513685,1.1479763,0.74920267,-0.26025718,0.09572473,0.4335519,0.0002297784,0.21550603,0.06751318,-0.4695464,0.27689528,0.73528856,-0.11483583,-0.3210577,0.4914367,0.30932054,-0.6624964,-0.57437515,0.18785802,789.34064,816.337,832.4542,781.28204,934.7985,-0.1929931640625,0.086669921875,0.9625244140625,1.996307373046875,-4.08233642578125,-0.336456298828125,1.0,2.0,1.0,1.0,2.0,95.0,event
10:19:04.774,0.7488833,1.2513685,1.1479763,0.74920267,-0.26025718,0.09572473,0.4335519,0.0002297784,0.21550603,0.06751318,-0.4695464,0.27689528,0.73528856,-0.11483583,-0.3210577,0.4914367,0.30932054,-0.6624964,-0.57437515,0.18785802,785.31134,820.3663,831.6484,785.31134,1062.5275,-0.1929931640625,0.086669921875,0.9625244140625,1.996307373046875,-4.08233642578125,-0.336456298828125,1.0,2.0,1.0,1.0,2.0,95.0,event
10:19:04.775,0.7488833,1.2513685,1.1479763,0.74920267,-0.26025718,0.09572473,0.4335519,0.0002297784,0.21550603,0.06751318,-0.4695464,0.27689528,0.73528856,-0.11483583,-0.3210577,0.4914367,0.30932054,-0.6624964,-0.57437515,0.18785802,774.0293,823.9927,828.4249,784.90845,834.0659,-0.1929931640625,0.086669921875,0.9625244140625,1.996307373046875,-4.08233642578125,-0.336456298828125,1.0,2.0,1.0,1.0,2.0,95.0,event
10:19:04.776,0.7488833,1.2513685,1.1479763,0.74920267,-0.26025718,0.09572473,0.4335519,0.0002297784,0.21550603,0.06751318,-0.4695464,0.27689528,0.73528856,-0.11483583,-0.3210577,0.4914367,0.30932054,-0.6624964,-0.57437515,0.18785802,783.2967,823.1868,826.4103,772.01465,673.2967,-0.1929931640625,0.086669921875,0.9625244140625,1.996307373046875,-4.08233642578125,-0.336456298828125,1.0,2.0,1.0,1.0,2.0,95.0,event
10:19:04.776,0.7488833,1.2513685,1.1479763,0.74920267,-0.26025718,0.09572473,0.4335519,0.0002297784,0.21550603,0.06751318,-0.4695464,0.27689528,0.73528856,-0.11483583,-0.3210577,0.4914367,0.30932054,-0.6624964,-0.57437515,0.18785802,802.6374,820.3663,825.6044,778.46155,867.9121,-0.1929931640625,0.086669921875,0.9625244140625,1.996307373046875,-4.08233642578125,-0.336456298828125,1.0,2.0,1.0,1.0,2.0,95.0,event
10:19:04.777,0.7488833,1.2513685,1.1479763,0.74920267,-0.26025718,0.09572473,0.4335519,0.0002297784,0.21550603,0.06751318,-0.4695464,0.27689528,0.73528856,-0.11483583,-0.3210577,0.4914367,0.30932054,-0.6624964,-0.57437515,0.18785802,798.20514,824.7985,828.022,770.80585,880.0,-0.1929931640625,0.086669921875,0.9625244140625,1.996307373046875,-4.08233642578125,-0.336456298828125,1.0,2.0,1.0,1.0,2.0,95.0,event
10:19:04.778,0.7488833,1.15108,1.1479763,0.74920267,-0.26025718,0.04793683,0.4335519,0.0002297784,0.21550603,0.098365225,-0.4695464,0.27689528,0.73528856,-0.09715097,-0.3210577,0.4914367,0.30932054,-0.6290124,-0.57437515,0.18785802,775.64105,826.0073,830.84247,772.01465,678.93774,-0.1929931640625,0.086669921875,0.9625244140625,1.996307373046875,-4.08233642578125,-0.336456298828125,1.0,2.0,1.0,1.0,2.0,95.0,event
10:19:04.803,0.7488833,1.15108,1.1479763,0.74920267,-0.26025718,0.04793683,0.4335519,0.0002297784,0.21550603,0.098365225,-0.4695464,0.27689528,0.73528856,-0.09715097,-0.3210577,0.4914367,0.30932054,-0.6290124,-0.57437515,0.18785802,762.74725,823.5897,824.7985,775.2381,681.75824,-0.19024658203125,0.093017578125,0.96533203125,2.100982666015625,-4.164581298828125,0.49346923828125,1.0,2.0,1.0,1.0,2.0,95.0,event
10:19:04.804,0.7488833,1.15108,1.1479763,0.74920267,-0.26025718,0.04793683,0.4335519,0.0002297784,0.21550603,0.098365225,-0.4695464,0.27689528,0.73528856,-0.09715097,-0.3210577,0.4914367,0.30932054,-0.6290124,-0.57437515,0.18785802,771.2088,822.7839,817.1429,779.2674,710.7692,-0.19024658203125,0.093017578125,0.96533203125,2.100982666015625,-4.164581298828125,0.49346923828125,1.0,2.0,1.0,1.0,2.0,95.0,event
10:19:04.805,0.7488833,1.15108,1.1479763,0.74920267,-0.26025718,0.04793683,0.4335519,0.0002297784,0.21550603,0.098365225,-0.4695464,0.27689528,0.73528856,-0.09715097,-0.3210577,0.4914367,0.30932054,-0.6290124,-0.57437515,0.18785802,776.8498,825.6044,818.7546,792.1612,718.4249,-0.19024658203125,0.093017578125,0.96533203125,2.100982666015625,-4.164581298828125,0.49346923828125,1.0,2.0,1.0,1.0,2.0,95.0,event
10:19:04.805,0.7488833,1.15108,1.1479763,0.74920267,-0.26025718,0.04793683,0.4335519,0.0002297784,0.21550603,0.098365225,-0.4695464,0.27689528,0.73528856,-0.09715097,-0.3210577,0.4914367,0.30932054,-0.6290124,-0.57437515,0.18785802,784.10254,830.4396,824.3956,778.0586,690.2198,-0.19024658203125,0.093017578125,0.96533203125,2.100982666015625,-4.164581298828125,0.49346923828125,1.0,2.0,1.0,1.0,2.0,95.0,event
10:19:04.806,0.7488833,1.15108,1.1479763,0.74920267,-0.26025718,0.04793683,0.4335519,0.0002297784,0.21550603,0.098365225,-0.4695464,0.27689528,0.73528856,-0.09715097,-0.3210577,0.4914367,0.30932054,-0.6290124,-0.57437515,0.18785802,783.69965,830.84247,821.978,770.0,715.2015,-0.19024658203125,0.093017578125,0.96533203125,2.100982666015625,-4.164581298828125,0.49346923828125,1.0,2.0,1.0,1.0,2.0,95.0,event
10:19:04.806,0.7488833,1.15108,1.1479763,0.74920267,-0.26025718,0.04793683,0.4335519,0.0002297784,0.21550603,0.098365225,-0.4695464,0.27689528,0.73528856,-0.09715097,-0.3210577,0.4914367,0.30932054,-0.6290124,-0.57437515,0.18785802,788.5348,826.0073,819.9634,769.59705,872.74725,-0.19024658203125,0.093017578125,0.96533203125,2.100982666015625,-4.164581298828125,0.49346923828125,1.0,2.0,1.0,1.0,2.0,95.0,event
10:19:04.807,0.7488833,1.15108,1.1479763,0.74920267,-0.26025718,0.04793683,0.4335519,0.0002297784,0.21550603,0.098365225,-0.4695464,0.27689528,0.73528856,-0.09715097,-0.3210577,0.4914367,0.30932054,-0.6290124,-0.57437515,0.18785802,792.1612,824.7985,824.3956,767.5824,869.5238,-0.19024658203125,0.093017578125,0.96533203125,2.100982666015625,-4.164581298828125,0.49346923828125,1.0,2.0,1.0,1.0,2.0,95.0,event
10:19:04.808,0.7488833,1.15108,1.1479763,0.74920267,-0.26025718,0.04793683,0.4335519,0.0002297784,0.21550603,0.098365225,-0.4695464,0.27689528,0.73528856,-0.09715097,-0.3210577,0.4914367,0.30932054,-0.6290124,-0.57437515,0.18785802,800.2198,828.4249,824.3956,785.31134,747.8388,-0.19024658203125,0.093017578125,0.96533203125,2.100982666015625,-4.164581298828125,0.49346923828125,1.0,2.0,1.0,1.0,2.0,95.0,event
10:19:04.808,0.7488833,1.15108,1.1479763,0.74920267,-0.26025718,0.04793683,0.4335519,0.0002297784,0.21550603,0.098365225,-0.4695464,0.27689528,0.73528856,-0.09715097,-0.3210577,0.4914367,0.30932054,-0.6290124,-0.57437515,0.18785802,799.81683,822.381,819.5604,793.36993,852.1978,-0.19024658203125,0.093017578125,0.96533203125,2.100982666015625,-4.164581298828125,0.49346923828125,1.0,2.0,1.0,1.0,2.0,95.0,event
10:19:04.809,0.7488833,1.15108,1.1479763,0.74920267,-0.26025718,0.04793683,0.4335519,0.0002297784,0.21550603,0.098365225,-0.4695464,0.27689528,0.73528856,-0.09715097,-0.3210577,0.4914367,0.30932054,-0.6290124,-0.57437515,0.18785802,778.86444,819.9634,819.15753,780.07324,1146.7399,-0.19024658203125,0.093017578125,0.96533203125,2.100982666015625,-4.164581298828125,0.49346923828125,1.0,2.0,1.0,1.0,2.0,95.0,event
10:19:04.810,0.7488833,1.15108,1.1479763,0.74920267,-0.26025718,0.04793683,0.4335519,0.0002297784,0.21550603,0.098365225,-0.4695464,0.27689528,0.73528856,-0.09715097,-0.3210577,0.4914367,0.30932054,-0.6290124,-0.57437515,0.18785802,792.1612,828.4249,822.381,774.83514,720.84247,-0.19024658203125,0.093017578125,0.96533203125,2.100982666015625,-4.164581298828125,0.49346923828125,1.0,2.0,1.0,1.0,2.0,95.0,event
10:19:04.810,0.7488833,1.15108,1.1479763,0.74920267,-0.26025718,0.04793683,0.4335519,0.0002297784,0.21550603,0.098365225,-0.4695464,0.27689528,0.73528856,-0.09715097,-0.3210577,0.4914367,0.30932054,-0.6290124,-0.57437515,0.18785802,779.2674,829.6337,820.3663,769.59705,969.85345,-0.19024658203125,0.093017578125,0.96533203125,2.100982666015625,-4.164581298828125,0.49346923828125,1.0,2.0,1.0,1.0,2.0,95.0,event
10:19:04.881,0.7488833,1.15108,1.1479763,0.74920267,-0.26025718,0.04793683,0.4335519,0.0002297784,0.21550603,0.098365225,-0.4695464,0.27689528,0.73528856,-0.09715097,-0.3210577,0.4914367,0.30932054,-0.6290124,-0.57437515,0.18785802,791.75824,822.381,823.5897,781.685,784.5055,-0.18963623046875,0.0889892578125,0.96539306640625,2.130889892578125,-3.7982177734375,0.897216796875,1.0,2.0,1.0,1.0,2.0,95.0,event
10:19:04.882,0.7488833,1.15108,1.1479763,0.74920267,-0.26025718,0.04793683,0.4335519,0.0002297784,0.21550603,0.098365225,-0.4695464,0.27689528,0.73528856,-0.09715097,-0.3210577,0.4914367,0.30932054,-0.6290124,-0.57437515,0.18785802,777.25275,821.978,821.1722,768.7912,781.28204,-0.18963623046875,0.0889892578125,0.96539306640625,2.130889892578125,-3.7982177734375,0.897216796875,1.0,2.0,1.0,1.0,2.0,95.0,event
10:19:04.883,0.7488833,1.15108,1.1479763,0.74920267,-0.26025718,0.04793683,0.4335519,0.0002297784,0.21550603,0.098365225,-0.4695464,0.27689528,0.73528856,-0.09715097,-0.3210577,0.4914367,0.30932054,-0.6290124,-0.57437515,0.18785802,779.2674,824.3956,819.5604,767.5824,764.35895,-0.18963623046875,0.0889892578125,0.96539306640625,2.130889892578125,-3.7982177734375,0.897216796875,1.0,2.0,1.0,1.0,2.0,95.0,event
10:19:04.885,0.7488833,1.15108,1.1479763,0.74920267,-0.26025718,0.04793683,0.4335519,0.0002297784,0.21550603,0.098365225,-0.4695464,0.27689528,0.73528856,-0.09715097,-0.3210577,0.4914367,0.30932054,-0.6290124,-0.57437515,0.18785802,777.25275,820.7692,819.5604,773.6264,775.2381,-0.18963623046875,0.0889892578125,0.96539306640625,2.130889892578125,-3.7982177734375,0.897216796875,1.0,2.0,1.0,1.0,2.0,95.0,event
10:19:04.886,0.7488833,1.15108,1.1479763,0.74920267,-0.26025718,0.04793683,0.4335519,0.0002297784,0.21550603,0.098365225,-0.4695464,0.27689528,0.73528856,-0.09715097,-0.3210577,0.4914367,0.30932054,-0.6290124,-0.57437515,0.18785802,770.80585,817.9487,818.3516,774.43225,848.97437,-0.18963623046875,0.0889892578125,0.96539306640625,2.130889892578125,-3.7982177734375,0.897216796875,1.0,2.0,1.0,1.0,2.0,95.0,event
10:19:04.887,0.7488833,1.15108,1.1479763,0.74920267,-0.26025718,0.04793683,0.4335519,0.0002297784,0.21550603,0.098365225,-0.4695464,0.27689528,0.73528856,-0.09715097,-0.3210577,0.4914367,0.30932054,-0.6290124,-0.57437515,0.18785802,785.31134,825.6044,819.15753,787.326,960.18317,-0.18963623046875,0.0889892578125,0.96539306640625,2.130889892578125,-3.7982177734375,0.897216796875,1.0,2.0,1.0,1.0,2.0,95.0,event
10:19:04.888,0.7488833,1.15108,1.1479763,0.74920267,-0.26025718,0.04793683,0.4335519,0.0002297784,0.21550603,0.098365225,-0.4695464,0.27689528,0.73528856,-0.09715097,-0.3210577,0.4914367,0.30932054,-0.6290124,-0.57437515,0.18785802,791.3553,827.2161,819.9634,794.17584,902.5641,-0.18963623046875,0.0889892578125,0.96539306640625,2.130889892578125,-3.7982177734375,0.897216796875,1.0,2.0,1.0,1.0,2.0,95.0,event
10:19:04.889,0.7488833,1.15108,1.1479763,0.74920267,-0.26025718,0.04793683,0.4335519,0.0002297784,0.21550603,0.098365225,-0.4695464,0.27689528,0.73528856,-0.09715097,-0.3210577,0.4914367,0.30932054,-0.6290124,-0.57437515,0.18785802,784.10254,821.1722,817.5458,787.326,803.0403,-0.18963623046875,0.0889892578125,0.96539306640625,2.130889892578125,-3.7982177734375,0.897216796875,1.0,2.0,1.0,1.0,2.0,95.0,event
10:19:04.889,0.7488833,1.15108,1.1479763,0.74920267,-0.26025718,0.04793683,0.4335519,0.0002297784,0.21550603,0.098365225,-0.4695464,0.27689528,0.73528856,-0.09715097,-0.3210577,0.4914367,0.30932054,-0.6290124,-0.57437515,0.18785802,776.04395,815.5311,819.15753,787.326,929.15753,-0.18963623046875,0.0889892578125,0.96539306640625,2.130889892578125,-3.7982177734375,0.897216796875,1.0,2.0,1.0,1.0,2.0,95.0,event
10:19:04.890,0.7488833,1.15108,1.1479763,0.74920267,-0.26025718,0.04793683,0.4335519,0.0002297784,0.21550603,0.098365225,-0.4695464,0.27689528,0.73528856,-0.09715097,-0.3210577,0.4914367,0.30932054,-0.6290124,-0.57437515,0.18785802,767.98535,826.0073,819.5604,782.0879,968.24176,-0.18963623046875,0.0889892578125,0.96539306640625,2.130889892578125,-3.7982177734375,0.897216796875,1.0,2.0,1.0,1.0,2.0,95.0,event
10:19:04.891,0.7488833,1.15108,1.1479763,0.74920267,-0.26025718,0.04793683,0.4335519,0.0002297784,0.21550603,0.098365225,-0.4695464,0.27689528,0.73528856,-0.09715097,-0.3210577,0.4914367,0.30932054,-0.6290124,-0.57437515,0.18785802,795.78754,817.5458,818.7546,776.4469,830.0366,-0.18963623046875,0.0889892578125,0.96539306640625,2.130889892578125,-3.7982177734375,0.897216796875,1.0,2.0,1.0,1.0,2.0,95.0,event
10:19:04.891,0.7488833,1.15108,1.1479763,0.74920267,-0.26025718,0.04793683,0.4335519,0.0002297784,0.21550603,0.098365225,-0.4695464,0.27689528,0.73528856,-0.09715097,-0.3210577,0.4914367,0.30932054,-0.6290124,-0.57437515,0.18785802,786.52014,827.2161,819.9634,782.0879,778.0586,-0.18963623046875,0.0889892578125,0.96539306640625,2.130889892578125,-3.7982177734375,0.897216796875,1.0,2.0,1.0,1.0,2.0,95.0,event
10:19:04.928,0.7488833,1.15108,1.1479763,0.74920267,-0.26025718,0.04793683,0.4335519,0.0002297784,0.21550603,0.098365225,-0.4695464,0.27689528,0.73528856,-0.09715097,-0.3210577,0.4914367,0.30932054,-0.6290124,-0.57437515,0.18785802,783.69965,819.15753,815.9341,778.46155,968.6447,-0.18536376953125,0.09136962890625,0.96478271484375,2.34771728515625,-3.970184326171875,0.246734619140625,1.0,2.0,1.0,1.0,2.0,95.0,event
10:19:04.929,0.7488833,1.0742824,1.1479763,0.74920267,-0.26025718,-0.028147485,0.4335519,0.0002297784,0.21550603,0.098365225,-0.4695464,0.27689528,0.73528856,-0.12889552,-0.3210577,0.4914367,0.30932054,-0.6227918,-0.57437515,0.18785802,768.3883,823.1868,817.5458,793.36993,855.42126,-0.18536376953125,0.09136962890625,0.96478271484375,2.34771728515625,-3.970184326171875,0.246734619140625,1.0,2.0,1.0,1.0,2.0,95.0,event
10:19:04.934,0.7488833,1.0742824,1.1479763,0.74920267,-0.26025718,-0.028147485,0.4335519,0.0002297784,0.21550603,0.098365225,-0.4695464,0.27689528,0.73528856,-0.12889552,-0.3210577,0.4914367,0.30932054,-0.6227918,-0.57437515,0.18785802,778.46155,818.7546,816.337,784.10254,732.1245,-0.18536376953125,0.09136962890625,0.96478271484375,2.34771728515625,-3.970184326171875,0.246734619140625,1.0,2.0,1.0,1.0,2.0,95.0,event
10:19:04.935,0.7488833,1.0742824,1.1479763,0.74920267,-0.26025718,-0.028147485,0.4335519,0.0002297784,0.21550603,0.098365225,-0.4695464,0.27689528,0.73528856,-0.12889552,-0.3210577,0.4914367,0.30932054,-0.6227918,-0.57437515,0.18785802,795.38464,819.5604,812.71063,772.4176,762.74725,-0.18536376953125,0.09136962890625,0.96478271484375,2.34771728515625,-3.970184326171875,0.246734619140625,1.0,2.0,1.0,1.0,2.0,95.0,event
10:19:04.936,0.7488833,1.0742824,1.1479763,0.74920267,-0.26025718,-0.028147485,0.4335519,0.0002297784,0.21550603,0.098365225,-0.4695464,0.27689528,0.73528856,-0.12889552,-0.3210577,0.4914367,0.30932054,-0.6227918,-0.57437515,0.18785802,782.0879,819.5604,813.5165,777.25275,789.34064,-0.18536376953125,0.09136962890625,0.96478271484375,2.34771728515625,-3.970184326171875,0.246734619140625,1.0,2.0,1.0,1.0,2.0,95.0,event
10:19:04.936,0.7488833,1.0742824,1.1479763,0.74920267,-0.26025718,-0.028147485,0.4335519,0.0002297784,0.21550603,0.098365225,-0.4695464,0.27689528,0.73528856,-0.12889552,-0.3210577,0.4914367,0.30932054,-0.6227918,-0.57437515,0.18785802,770.0,815.9341,814.7253,776.8498,811.0989,-0.18536376953125,0.09136962890625,0.96478271484375,2.34771728515625,-3.970184326171875,0.246734619140625,1.0,2.0,1.0,1.0,2.0,95.0,event
10:19:04.937,0.7488833,1.0742824,1.1479763,0.74920267,-0.26025718,-0.028147485,0.4335519,0.0002297784,0.21550603,0.098365225,-0.4695464,0.27689528,0.73528856,-0.12889552,-0.3210577,0.4914367,0.30932054,-0.6227918,-0.57437515,0.18785802,780.07324,819.5604,811.50183,777.6557,838.9011,-0.18536376953125,0.09136962890625,0.96478271484375,2.34771728515625,-3.970184326171875,0.246734619140625,1.0,2.0,1.0,1.0,2.0,95.0,event
10:19:04.938,0.7488833,1.0742824,1.1479763,0.74920267,-0.26025718,-0.028147485,0.4335519,0.0002297784,0.21550603,0.098365225,-0.4695464,0.27689528,0.73528856,-0.12889552,-0.3210577,0.4914367,0.30932054,-0.6227918,-0.57437515,0.18785802,776.8498,821.1722,813.5165,786.1172,850.989,-0.18536376953125,0.09136962890625,0.96478271484375,2.34771728515625,-3.970184326171875,0.246734619140625,1.0,2.0,1.0,1.0,2.0,95.0,event
10:19:04.939,0.7488833,1.0742824,1.1479763,0.74920267,-0.26025718,-0.028147485,0.4335519,0.0002297784,0.21550603,0.098365225,-0.4695464,0.27689528,0.73528856,-0.12889552,-0.3210577,0.4914367,0.30932054,-0.6227918,-0.57437515,0.18785802,773.6264,814.7253,811.0989,776.4469,1047.619,-0.18536376953125,0.09136962890625,0.96478271484375,2.34771728515625,-3.970184326171875,0.246734619140625,1.0,2.0,1.0,1.0,2.0,95.0,event
10:19:04.940,0.7488833,1.0742824,1.1479763,0.74920267,-0.26025718,-0.028147485,0.4335519,0.0002297784,0.21550603,0.098365225,-0.4695464,0.27689528,0.73528856,-0.12889552,-0.3210577,0.4914367,0.30932054,-0.6227918,-0.57437515,0.18785802,794.57874,814.7253,811.50183,777.25275,631.39197,-0.18536376953125,0.09136962890625,0.96478271484375,2.34771728515625,-3.970184326171875,0.246734619140625,1.0,2.0,1.0,1.0,2.0,95.0,event
10:19:04.940,0.7488833,1.0742824,1.1479763,0.74920267,-0.26025718,-0.028147485,0.4335519,0.0002297784,0.21550603,0.098365225,-0.4695464,0.27689528,0.73528856,-0.12889552,-0.3210577,0.4914367,0.30932054,-0.6227918,-0.57437515,0.18785802,796.1905,819.15753,808.2784,769.59705,861.8681,-0.18536376953125,0.09136962890625,0.96478271484375,2.34771728515625,-3.970184326171875,0.246734619140625,1.0,2.0,1.0,1.0,2.0,95.0,event
10:19:04.941,0.7488833,1.0742824,1.1479763,0.74920267,-0.26025718,-0.028147485,0.4335519,0.0002297784,0.21550603,0.098365225,-0.4695464,0.27689528,0.73528856,-0.12889552,-0.3210577,0.4914367,0.30932054,-0.6227918,-0.57437515,0.18785802,781.28204,809.4872,808.68134,767.5824,709.9634,-0.18536376953125,0.09136962890625,0.96478271484375,2.34771728515625,-3.970184326171875,0.246734619140625,1.0,2.0,1.0,1.0,2.0,95.0,event
10:19:04.971,0.7488833,1.0742824,1.1479763,0.74920267,-0.26025718,-0.028147485,0.4335519,0.0002297784,0.21550603,0.098365225,-0.4695464,0.27689528,0.73528856,-0.12889552,-0.3210577,0.4914367,0.30932054,-0.6227918,-0.57437515,0.18785802,782.49084,815.5311,808.68134,761.9414,724.4689,-0.18536376953125,0.09136962890625,0.96478271484375,2.34771728515625,-3.970184326171875,0.246734619140625,1.0,2.0,1.0,1.0,2.0,95.0,event
10:19:04.973,0.7488833,1.0742824,1.1479763,0.74920267,-0.26025718,-0.028147485,0.4335519,0.0002297784,0.21550603,0.098365225,-0.4695464,0.27689528,0.73528856,-0.12889552,-0.3210577,0.4914367,0.30932054,-0.6227918,-0.57437515,0.18785802,789.7436,814.3223,812.3077,767.98535,678.93774,-0.18536376953125,0.09136962890625,0.96478271484375,2.34771728515625,-3.970184326171875,0.246734619140625,1.0,2.0,1.0,1.0,2.0,95.0,event
10:19:04.973,0.7488833,1.0742824,1.1479763,0.74920267,-0.26025718,-0.028147485,0.4335519,0.0002297784,0.21550603,0.098365225,-0.4695464,0.27689528,0.73528856,-0.12889552,-0.3210577,0.4914367,0.30932054,-0.6227918,-0.57437515,0.18785802,788.1319,810.696,811.50183,776.8498,785.31134,-0.18536376953125,0.09136962890625,0.96478271484375,2.34771728515625,-3.970184326171875,0.246734619140625,1.0,2.0,1.0,1.0,2.0,95.0,event
10:19:04.974,0.7488833,1.0742824,1.1479763,0.74920267,-0.26025718,-0.028147485,0.4335519,0.0002297784,0.21550603,0.098365225,-0.4695464,0.27689528,0.73528856,-0.12889552,-0.3210577,0.4914367,0.30932054,-0.6227918,-0.57437515,0.18785802,782.49084,807.47253,810.293,768.7912,898.93774,-0.18536376953125,0.09136962890625,0.96478271484375,2.34771728515625,-3.970184326171875,0.246734619140625,1.0,2.0,1.0,1.0,2.0,95.0,event
10:19:04.975,0.7488833,1.0742824,1.1479763,0.74920267,-0.26025718,-0.028147485,0.4335519,0.0002297784,0.21550603,0.098365225,-0.4695464,0.27689528,0.73528856,-0.12889552,-0.3210577,0.4914367,0.30932054,-0.6227918,-0.57437515,0.18785802,767.5824,808.68134,809.89014,765.56775,855.0183,-0.18536376953125,0.09136962890625,0.96478271484375,2.34771728515625,-3.970184326171875,0.246734619140625,1.0,2.0,1.0,1.0,2.0,95.0,event
10:19:04.976,0.7488833,1.0742824,1.1479763,0.74920267,-0.26025718,-0.028147485,0.4335519,0.0002297784,0.21550603,0.098365225,-0.4695464,0.27689528,0.73528856,-0.12889552,-0.3210577,0.4914367,0.30932054,-0.6227918,-0.57437515,0.18785802,765.9707,811.50183,806.26373,772.4176,865.89746,-0.18536376953125,0.09136962890625,0.96478271484375,2.34771728515625,-3.970184326171875,0.246734619140625,1.0,2.0,1.0,1.0,2.0,95.0,event
10:19:04.976,0.7488833,1.0742824,1.1479763,0.74920267,-0.26025718,-0.028147485,0.4335519,0.0002297784,0.21550603,0.098365225,-0.4695464,0.27689528,0.73528856,-0.12889552,-0.3210577,0.4914367,0.30932054,-0.6227918,-0.57437515,0.18785802,769.59705,811.0989,809.0842,774.43225,870.7326,-0.18536376953125,0.09136962890625,0.96478271484375,2.34771728515625,-3.970184326171875,0.246734619140625,1.0,2.0,1.0,1.0,2.0,95.0,event
10:19:04.977,0.7488833,1.0742824,1.1479763,0.74920267,-0.26025718,-0.028147485,0.4335519,0.0002297784,0.21550603,0.098365225,-0.4695464,0.27689528,0.73528856,-0.12889552,-0.3210577,0.4914367,0.30932054,-0.6227918,-0.57437515,0.18785802,774.83514,805.8608,812.3077,772.4176,954.5421,-0.18536376953125,0.09136962890625,0.96478271484375,2.34771728515625,-3.970184326171875,0.246734619140625,1.0,2.0,1.0,1.0,2.0,95.0,event
10:19:04.978,0.7488833,1.0742824,1.1479763,0.74920267,-0.26025718,-0.028147485,0.4335519,0.0002297784,0.21550603,0.098365225,-0.4695464,0.27689528,0.73528856,-0.12889552,-0.3210577,0.4914367,0.30932054,-0.6227918,-0.57437515,0.18785802,786.1172,816.7399,807.8755,782.0879,1016.5934,-0.18536376953125,0.09136962890625,0.96478271484375,2.34771728515625,-3.970184326171875,0.246734619140625,1.0,2.0,1.0,1.0,2.0,95.0,event
10:19:04.979,0.7488833,1.0742824,1.1479763,0.74920267,-0.26025718,-0.028147485,0.4335519,0.0002297784,0.21550603,0.098365225,-0.4695464,0.27689528,0.73528856,-0.12889552,-0.3210577,0.4914367,0.30932054,-0.6227918,-0.57437515,0.18785802,762.74725,821.978,809.89014,776.04395,743.8095,-0.18536376953125,0.09136962890625,0.96478271484375,2.34771728515625,-3.970184326171875,0.246734619140625,1.0,2.0,1.0,1.0,2.0,95.0,event
10:19:04.980,0.7488833,1.0742824,1.1479763,0.74920267,-0.26025718,-0.028147485,0.4335519,0.0002297784,0.21550603,0.098365225,-0.4695464,0.27689528,0.73528856,-0.12889552,-0.3210577,0.4914367,0.30932054,-0.6227918,-0.57437515,0.18785802,754.2857,816.337,813.91943,765.56775,670.87915,-0.18536376953125,0.09136962890625,0.96478271484375,2.34771728515625,-3.970184326171875,0.246734619140625,1.0,2.0,1.0,1.0,2.0,95.0,event
10:19:04.981,0.7488833,1.0742824,1.1479763,0.74920267,-0.26025718,-0.028147485,0.4335519,0.0002297784,0.21550603,0.098365225,-0.4695464,0.27689528,0.73528856,-0.12889552,-0.3210577,0.4914367,0.30932054,-0.6227918,-0.57437515,0.18785802,778.0586,819.15753,812.71063,769.19415,753.0769,-0.18536376953125,0.09136962890625,0.96478271484375,2.34771728515625,-3.970184326171875,0.246734619140625,1.0,2.0,1.0,1.0,2.0,95.0,event
10:19:05.012,0.7488833,1.0742824,1.1479763,0.74920267,-0.26025718,-0.028147485,0.4335519,0.0002297784,0.21550603,0.098365225,-0.4695464,0.27689528,0.73528856,-0.12889552,-0.3210577,0.4914367,0.30932054,-0.6227918,-0.57437515,0.18785802,787.72894,819.9634,809.4872,775.64105,753.8828,-0.18719482421875,0.09515380859375,0.965087890625,2.37762451171875,-2.938385009765625,0.665435791015625,1.0,2.0,1.0,1.0,2.0,95.0,event
10:19:05.013,0.7488833,1.0742824,1.1479763,0.74920267,-0.26025718,-0.028147485,0.4335519,0.0002297784,0.21550603,0.098365225,-0.4695464,0.27689528,0.73528856,-0.12889552,-0.3210577,0.4914367,0.30932054,-0.6227918,-0.57437515,0.18785802,792.96704,818.3516,811.9048,774.83514,727.28937,-0.18719482421875,0.09515380859375,0.965087890625,2.37762451171875,-2.938385009765625,0.665435791015625,1.0,2.0,1.0,1.0,2.0,95.0,event
10:19:05.014,0.7488833,1.0742824,1.1479763,0.74920267,-0.26025718,-0.028147485,0.4335519,0.0002297784,0.21550603,0.098365225,-0.4695464,0.27689528,0.73528856,-0.12889552,-0.3210577,0.4914367,0.30932054,-0.6227918,-0.57437515,0.18785802,787.72894,817.1429,817.9487,775.64105,726.4835,-0.18719482421875,0.09515380859375,0.965087890625,2.37762451171875,-2.938385009765625,0.665435791015625,1.0,2.0,1.0,1.0,2.0,95.0,event
10:19:05.015,0.7488833,0.96903265,1.1479763,0.74920267,-0.26025718,-0.19827434,0.4335519,0.0002297784,0.21550603,-0.0077735786,-0.4695464,0.27689528,0.73528856,-0.17079245,-0.3210577,0.4914367,0.30932054,-0.5889426,-0.57437515,0.18785802,764.7619,823.9927,819.5604,775.2381,734.1392,-0.18719482421875,0.09515380859375,0.965087890625,2.37762451171875,-2.938385009765625,0.665435791015625,1.0,2.0,1.0,1.0,2.0,95.0,event
10:19:05.019,0.7488833,0.96903265,1.1479763,0.74920267,-0.26025718,-0.19827434,0.4335519,0.0002297784,0.21550603,-0.0077735786,-0.4695464,0.27689528,0.73528856,-0.17079245,-0.3210577,0.4914367,0.30932054,-0.5889426,-0.57437515,0.18785802,762.3443,829.2308,813.5165,767.1795,732.9304,-0.18719482421875,0.09515380859375,0.965087890625,2.37762451171875,-2.938385009765625,0.665435791015625,1.0,2.0,1.0,1.0,2.0,95.0,event
10:19:05.020,0.7488833,0.96903265,1.1479763,0.74920267,-0.26025718,-0.19827434,0.4335519,0.0002297784,0.21550603,-0.0077735786,-0.4695464,0.27689528,0.73528856,-0.17079245,-0.3210577,0.4914367,0.30932054,-0.5889426,-0.57437515,0.18785802,767.1795,830.0366,814.3223,765.9707,794.17584,-0.18719482421875,0.09515380859375,0.965087890625,2.37762451171875,-2.938385009765625,0.665435791015625,1.0,2.0,1.0,1.0,2.0,95.0,event
10:19:05.020,0.7488833,0.96903265,1.1479763,0.74920267,-0.26025718,-0.19827434,0.4335519,0.0002297784,0.21550603,-0.0077735786,-0.4695464,0.27689528,0.73528856,-0.17079245,-0.3210577,0.4914367,0.30932054,-0.5889426,-0.57437515,0.18785802,763.1502,826.4103,816.7399,757.50916,885.64105,-0.18719482421875,0.09515380859375,0.965087890625,2.37762451171875,-2.938385009765625,0.665435791015625,1.0,2.0,1.0,1.0,2.0,95.0,event
10:19:05.021,0.7488833,0.96903265,1.1479763,0.74920267,-0.26025718,-0.19827434,0.4335519,0.0002297784,0.21550603,-0.0077735786,-0.4695464,0.27689528,0.73528856,-0.17079245,-0.3210577,0.4914367,0.30932054,-0.5889426,-0.57437515,0.18785802,747.4359,826.8132,809.4872,755.4945,1083.8828,-0.18719482421875,0.09515380859375,0.965087890625,2.37762451171875,-2.938385009765625,0.665435791015625,1.0,2.0,1.0,1.0,2.0,95.0,event
10:19:05.022,0.7488833,0.96903265,1.1479763,0.74920267,-0.26025718,-0.19827434,0.4335519,0.0002297784,0.21550603,-0.0077735786,-0.4695464,0.27689528,0.73528856,-0.17079245,-0.3210577,0.4914367,0.30932054,-0.5889426,-0.57437515,0.18785802,724.4689,844.94507,809.4872,760.7326,966.63007,-0.18719482421875,0.09515380859375,0.965087890625,2.37762451171875,-2.938385009765625,0.665435791015625,1.0,2.0,1.0,1.0,2.0,95.0,event
10:19:05.022,0.7488833,0.96903265,1.1479763,0.74920267,-0.26025718,-0.19827434,0.4335519,0.0002297784,0.21550603,-0.0077735786,-0.4695464,0.27689528,0.73528856,-0.17079245,-0.3210577,0.4914367,0.30932054,-0.5889426,-0.57437515,0.18785802,734.94507,847.3626,812.71063,736.9597,706.337,-0.18719482421875,0.09515380859375,0.965087890625,2.37762451171875,-2.938385009765625,0.665435791015625,1.0,2.0,1.0,1.0,2.0,95.0,event
10:19:05.023,0.7488833,0.96903265,1.1479763,0.74920267,-0.26025718,-0.19827434,0.4335519,0.0002297784,0.21550603,-0.0077735786,-0.4695464,0.27689528,0.73528856,-0.17079245,-0.3210577,0.4914367,0.30932054,-0.5889426,-0.57437515,0.18785802,745.42126,847.3626,811.50183,730.5128,729.707,-0.18719482421875,0.09515380859375,0.965087890625,2.37762451171875,-2.938385009765625,0.665435791015625,1.0,2.0,1.0,1.0,2.0,95.0,event
10:19:05.024,0.7488833,0.96903265,1.1479763,0.74920267,-0.26025718,-0.19827434,0.4335519,0.0002297784,0.21550603,-0.0077735786,-0.4695464,0.27689528,0.73528856,-0.17079245,-0.3210577,0.4914367,0.30932054,-0.5889426,-0.57437515,0.18785802,728.49817,849.7802,811.0989,726.8865,740.58606,-0.18719482421875,0.09515380859375,0.965087890625,2.37762451171875,-2.938385009765625,0.665435791015625,1.0,2.0,1.0,1.0,2.0,95.0,event
10:19:05.056,0.7488833,0.96903265,1.1479763,0.74920267,-0.26025718,-0.19827434,0.4335519,0.0002297784,0.21550603,-0.0077735786,-0.4695464,0.27689528,0.73528856,-0.17079245,-0.3210577,0.4914367,0.30932054,-0.5889426,-0.57437515,0.18785802,702.3077,850.18317,819.5604,703.91943,675.7143,-0.19195556640625,0.09326171875,0.96282958984375,2.175750732421875,-3.648681640625,0.4486083984375,1.0,2.0,1.0,1.0,2.0,95.0,event
10:19:05.057,0.7488833,0.96903265,1.1479763,0.74920267,-0.26025718,-0.19827434,0.4335519,0.0002297784,0.21550603,-0.0077735786,-0.4695464,0.27689528,0.73528856,-0.17079245,-0.3210577,0.4914367,0.30932054,-0.5889426,-0.57437515,0.18785802,682.96704,851.39197,821.5751,691.4286,694.2491,-0.19195556640625,0.09326171875,0.96282958984375,2.175750732421875,-3.648681640625,0.4486083984375,1.0,2.0,1.0,1.0,2.0,95.0,event
10:19:05.058,0.7488833,0.96903265,1.1479763,0.74920267,-0.26025718,-0.19827434,0.4335519,0.0002297784,0.21550603,-0.0077735786,-0.4695464,0.27689528,0.73528856,-0.17079245,-0.3210577,0.4914367,0.30932054,-0.5889426,-0.57437515,0.18785802,668.86444,850.58606,816.7399,685.38464,740.18317,-0.19195556640625,0.09326171875,0.96282958984375,2.175750732421875,-3.648681640625,0.4486083984375,1.0,2.0,1.0,1.0,2.0,95.0,event
10:19:05.059,0.7488833,0.96903265,1.1479763,0.74920267,-0.26025718,-0.19827434,0.4335519,0.0002297784,0.21550603,-0.0077735786,-0.4695464,0.27689528,0.73528856,-0.17079245,-0.3210577,0.4914367,0.30932054,-0.5889426,-0.57437515,0.18785802,658.3883,860.2564,821.5751,670.07324,717.619,-0.19195556640625,0.09326171875,0.96282958984375,2.175750732421875,-3.648681640625,0.4486083984375,1.0,2.0,1.0,1.0,2.0,95.0,event
10:19:05.060,0.7488833,0.96903265,1.1479763,0.74920267,-0.26025718,-0.19827434,0.4335519,0.0002297784,0.21550603,-0.0077735786,-0.4695464,0.27689528,0.73528856,-0.17079245,-0.3210577,0.4914367,0.30932054,-0.5889426,-0.57437515,0.18785802,662.8205,865.89746,824.3956,666.8498,686.99634,-0.19195556640625,0.09326171875,0.96282958984375,2.175750732421875,-3.648681640625,0.4486083984375,1.0,2.0,1.0,1.0,2.0,95.0,event
10:19:05.060,0.7488833,0.96903265,1.1479763,0.74920267,-0.26025718,-0.19827434,0.4335519,0.0002297784,0.21550603,-0.0077735786,-0.4695464,0.27689528,0.73528856,-0.17079245,-0.3210577,0.4914367,0.30932054,-0.5889426,-0.57437515,0.18785802,647.50916,862.27106,821.5751,654.7619,800.2198,-0.19195556640625,0.09326171875,0.96282958984375,2.175750732421875,-3.648681640625,0.4486083984375,1.0,2.0,1.0,1.0,2.0,95.0,event
10:19:05.061,0.7488833,0.96903265,1.1479763,0.74920267,-0.26025718,-0.19827434,0.4335519,0.0002297784,0.21550603,-0.0077735786,-0.4695464,0.27689528,0.73528856,-0.17079245,-0.3210577,0.4914367,0.30932054,-0.5889426,-0.57437515,0.18785802,629.3773,865.09155,825.2015,643.0769,933.5897,-0.19195556640625,0.09326171875,0.96282958984375,2.175750732421875,-3.648681640625,0.4486083984375,1.0,2.0,1.0,1.0,2.0,95.0,event
10:19:05.062,0.7488833,0.96903265,1.1479763,0.74920267,-0.26025718,-0.19827434,0.4335519,0.0002297784,0.21550603,-0.0077735786,-0.4695464,0.27689528,0.73528856,-0.17079245,-0.3210577,0.4914367,0.30932054,-0.5889426,-0.57437515,0.18785802,618.49817,868.71796,828.8278,640.65936,819.15753,-0.19195556640625,0.09326171875,0.96282958984375,2.175750732421875,-3.648681640625,0.4486083984375,1.0,2.0,1.0,1.0,2.0,95.0,event
10:19:05.062,0.7488833,0.96903265,1.1479763,0.74920267,-0.26025718,-0.19827434,0.4335519,0.0002297784,0.21550603,-0.0077735786,-0.4695464,0.27689528,0.73528856,-0.17079245,-0.3210577,0.4914367,0.30932054,-0.5889426,-0.57437515,0.18785802,616.8865,869.92676,823.9927,637.4359,762.3443,-0.19195556640625,0.09326171875,0.96282958984375,2.175750732421875,-3.648681640625,0.4486083984375,1.0,2.0,1.0,1.0,2.0,95.0,event
10:19:05.063,0.7488833,0.96903265,1.1479763,0.74920267,-0.26025718,-0.19827434,0.4335519,0.0002297784,0.21550603,-0.0077735786,-0.4695464,0.27689528,0.73528856,-0.17079245,-0.3210577,0.4914367,0.30932054,-0.5889426,-0.57437515,0.18785802,641.4652,870.7326,817.5458,638.24176,733.3333,-0.19195556640625,0.09326171875,0.96282958984375,2.175750732421875,-3.648681640625,0.4486083984375,1.0,2.0,1.0,1.0,2.0,95.0,event
10:19:05.064,0.7488833,0.96903265,1.1479763,0.74920267,-0.26025718,-0.19827434,0.4335519,0.0002297784,0.21550603,-0.0077735786,-0.4695464,0.27689528,0.73528856,-0.17079245,-0.3210577,0.4914367,0.30932054,-0.5889426,-0.57437515,0.18785802,610.0366,858.24176,815.9341,628.1685,925.12823,-0.19195556640625,0.09326171875,0.96282958984375,2.175750732421875,-3.648681640625,0.4486083984375,1.0,2.0,1.0,1.0,2.0,95.0,event
10:19:05.064,0.7488833,0.96903265,1.1479763,0.74920267,-0.26025718,-0.19827434,0.4335519,0.0002297784,0.21550603,-0.0077735786,-0.4695464,0.27689528,0.73528856,-0.17079245,-0.3210577,0.4914367,0.30932054,-0.5889426,-0.57437515,0.18785802,590.696,870.7326,816.7399,626.1539,1067.7656,-0.19195556640625,0.09326171875,0.96282958984375,2.175750732421875,-3.648681640625,0.4486083984375,1.0,2.0,1.0,1.0,2.0,95.0,event
10:19:05.104,0.7488833,0.96903265,1.1479763,0.74920267,-0.26025718,-0.19827434,0.4335519,0.0002297784,0.21550603,-0.0077735786,-0.4695464,0.27689528,0.73528856,-0.17079245,-0.3210577,0.4914367,0.30932054,-0.5889426,-0.57437515,0.18785802,608.022,873.1502,812.71063,626.1539,659.59705,-0.188720703125,0.09149169921875,0.9700927734375,2.31781005859375,-3.5888671875,0.28411865234375,1.0,2.0,1.0,1.0,2.0,95.0,event
10:19:05.104,0.7488833,0.96903265,1.1479763,0.74920267,-0.26025718,-0.19827434,0.4335519,0.0002297784,0.21550603,-0.0077735786,-0.4695464,0.27689528,0.73528856,-0.17079245,-0.3210577,0.4914367,0.30932054,-0.5889426,-0.57437515,0.18785802,603.5897,879.19415,817.1429,624.5421,759.92676,-0.188720703125,0.09149169921875,0.9700927734375,2.31781005859375,-3.5888671875,0.28411865234375,1.0,2.0,1.0,1.0,2.0,95.0,event
10:19:05.105,0.7488833,0.96903265,1.1479763,0.74920267,-0.26025718,-0.19827434,0.4335519,0.0002297784,0.21550603,-0.0077735786,-0.4695464,0.27689528,0.73528856,-0.17079245,-0.3210577,0.4914367,0.30932054,-0.5889426,-0.57437515,0.18785802,635.82416,876.77655,813.5165,637.03296,731.31866,-0.188720703125,0.09149169921875,0.9700927734375,2.31781005859375,-3.5888671875,0.28411865234375,1.0,2.0,1.0,1.0,2.0,95.0,event
10:19:05.106,0.7488833,0.96903265,1.1479763,0.74920267,-0.26025718,-0.19827434,0.4335519,0.0002297784,0.21550603,-0.0077735786,-0.4695464,0.27689528,0.73528856,-0.17079245,-0.3210577,0.4914367,0.30932054,-0.5889426,-0.57437515,0.18785802,645.4945,874.35895,817.1429,640.2564,711.1722,-0.188720703125,0.09149169921875,0.9700927734375,2.31781005859375,-3.5888671875,0.28411865234375,1.0,2.0,1.0,1.0,2.0,95.0,event
10:19:05.106,0.7488833,0.96903265,1.1479763,0.74920267,-0.26025718,-0.19827434,0.4335519,0.0002297784,0.21550603,-0.0077735786,-0.4695464,0.27689528,0.73528856,-0.17079245,-0.3210577,0.4914367,0.30932054,-0.5889426,-0.57437515,0.18785802,635.82416,869.5238,811.50183,652.3443,637.8388,-0.188720703125,0.09149169921875,0.9700927734375,2.31781005859375,-3.5888671875,0.28411865234375,1.0,2.0,1.0,1.0,2.0,95.0,event
10:19:05.107,0.7488833,0.8195263,1.1479763,0.74920267,-0.26025718,-0.3344012,0.4335519,0.0002297784,0.21550603,-0.10695762,-0.4695464,0.27689528,0.73528856,-0.25795242,-0.3210577,0.4914367,0.30932054,-0.5680145,-0.57437515,0.18785802,635.82416,865.4945,804.65204,664.83514,761.13556,-0.188720703125,0.09149169921875,0.9700927734375,2.31781005859375,-3.5888671875,0.28411865234375,1.0,2.0,1.0,1.0,2.0,95.0,event
10:19:05.111,0.7488833,0.8195263,1.1479763,0.74920267,-0.26025718,-0.3344012,0.4335519,0.0002297784,0.21550603,-0.10695762,-0.4695464,0.27689528,0.73528856,-0.25795242,-0.3210577,0.4914367,0.30932054,-0.5680145,-0.57437515,0.18785802,649.5238,868.71796,799.81683,670.4762,973.0769,-0.188720703125,0.09149169921875,0.9700927734375,2.31781005859375,-3.5888671875,0.28411865234375,1.0,2.0,1.0,1.0,2.0,95.0,event
10:19:05.111,0.7488833,0.8195263,1.1479763,0.74920267,-0.26025718,-0.3344012,0.4335519,0.0002297784,0.21550603,-0.10695762,-0.4695464,0.27689528,0.73528856,-0.25795242,-0.3210577,0.4914367,0.30932054,-0.5680145,-0.57437515,0.18785802,686.5934,873.1502,800.2198,683.7729,829.2308,-0.188720703125,0.09149169921875,0.9700927734375,2.31781005859375,-3.5888671875,0.28411865234375,1.0,2.0,1.0,1.0,2.0,95.0,event
