TimeStamp,Delta_TP9,Delta_AF7,Delta_AF8,Delta_TP10,Theta_TP9,Theta_AF7,Theta_AF8,Theta_TP10,Alpha_TP9,Alpha_AF7,Alpha_AF8,Alpha_TP10,Beta_TP9,Beta_AF7,Beta_AF8,Beta_TP10,Gamma_TP9,Gamma_AF7,Gamma_AF8,Gamma_TP10,RAW_TP9,RAW_AF7,RAW_AF8,RAW_TP10,AUX_RIGHT,Accelerometer_X,Accelerometer_Y,Accelerometer_Z,Gyro_X,Gyro_Y,Gyro_Z,HeadBandOn,HSI_TP9,HSI_AF7,HSI_AF8,HSI_TP10,Battery,Elements
10:44:04.384,1.1352116,0.7842221,1.2692605,0.9219916,0.59822243,0.74541616,1.067667,1.0210733,1.0885099,0.7793102,0.13990743,1.1024917,1.5113465,0.8121927,-0.20065238,0.5912406,0.7211893,0.23924837,-0.42159328,0.35353312,1266.8132,1249.0842,801.8315,828.4249,727.6923,-0.23309326171875,0.07891845703125,0.966064453125,2.093505859375,-3.461761474609375,-0.0897216796875,1.0,2.0,4.0,1.0,2.0,85.0,event
10:44:04.385,1.1352116,0.7842221,1.2692605,0.9219916,0.59822243,0.74541616,1.067667,1.0210733,1.0885099,0.7793102,0.13990743,1.1024917,1.5113465,0.8121927,-0.20065238,0.5912406,0.7211893,0.23924837,-0.42159328,0.35353312,1114.9084,1041.5751,805.4579,833.2601,714.7985,-0.23309326171875,0.07891845703125,0.966064453125,2.093505859375,-3.461761474609375,-0.0897216796875,1.0,2.0,4.0,1.0,2.0,85.0,event
10:44:04.385,1.1352116,0.7842221,1.2692605,0.9219916,0.59822243,0.74541616,1.067667,1.0210733,1.0885099,0.7793102,0.13990743,1.1024917,1.5113465,0.8121927,-0.20065238,0.5912406,0.7211893,0.23924837,-0.42159328,0.35353312,684.9817,774.0293,808.68134,834.87177,743.4066,-0.23309326171875,0.07891845703125,0.966064453125,2.093505859375,-3.461761474609375,-0.0897216796875,1.0,2.0,4.0,1.0,2.0,85.0,event
10:44:04.386,1.1352116,0.7842221,1.2692605,0.9219916,0.59822243,0.74541616,1.067667,1.0210733,1.0885099,0.7793102,0.13990743,1.1024917,1.5113465,0.8121927,-0.20065238,0.5912406,0.7211893,0.23924837,-0.42159328,0.35353312,590.293,909.81683,803.8461,818.7546,703.5165,-0.23309326171875,0.07891845703125,0.966064453125,2.093505859375,-3.461761474609375,-0.0897216796875,1.0,2.0,4.0,1.0,2.0,85.0,event
10:44:04.387,1.1352116,0.7842221,1.2692605,0.9219916,0.59822243,0.74541616,1.067667,1.0210733,1.0885099,0.7793102,0.13990743,1.1024917,1.5113465,0.8121927,-0.20065238,0.5912406,0.7211893,0.23924837,-0.42159328,0.35353312,886.4469,1060.1099,805.05493,824.7985,645.4945,-0.23309326171875,0.07891845703125,0.966064453125,2.093505859375,-3.461761474609375,-0.0897216796875,1.0,2.0,4.0,1.0,2.0,85.0,event
10:44:04.387,1.1352116,0.7842221,1.2692605,0.9219916,0.59822243,0.74541616,1.067667,1.0210733,1.0885099,0.7793102,0.13990743,1.1024917,1.5113465,0.8121927,-0.20065238,0.5912406,0.7211893,0.23924837,-0.42159328,0.35353312,1205.1648,786.52014,803.8461,834.87177,785.7143,-0.23309326171875,0.07891845703125,0.966064453125,2.093505859375,-3.461761474609375,-0.0897216796875,1.0,2.0,4.0,1.0,2.0,85.0,event
10:44:04.388,1.1352116,0.7842221,1.2692605,0.9219916,0.59822243,0.74541616,1.067667,1.0210733,1.0885099,0.7793102,0.13990743,1.1024917,1.5113465,0.8121927,-0.20065238,0.5912406,0.7211893,0.23924837,-0.42159328,0.35353312,1103.2234,245.78755,799.81683,809.0842,973.47986,-0.23309326171875,0.07891845703125,0.966064453125,2.093505859375,-3.461761474609375,-0.0897216796875,1.0,2.0,4.0,1.0,2.0,85.0,event
10:44:04.389,1.1352116,0.7842221,1.2692605,0.9219916,0.59822243,0.74541616,1.067667,1.0210733,1.0885099,0.7793102,0.13990743,1.1024917,1.5113465,0.8121927,-0.20065238,0.5912406,0.7211893,0.23924837,-0.42159328,0.35353312,690.2198,587.8755,803.44324,808.2784,807.47253,-0.23309326171875,0.07891845703125,0.966064453125,2.093505859375,-3.461761474609375,-0.0897216796875,1.0,2.0,4.0,1.0,2.0,85.0,event
10:44:04.389,1.1352116,0.7842221,1.2692605,0.9219916,0.59822243,0.74541616,1.067667,1.0210733,1.0885099,0.7793102,0.13990743,1.1024917,1.5113465,0.8121927,-0.20065238,0.5912406,0.7211893,0.23924837,-0.42159328,0.35353312,564.90845,1039.1575,805.4579,828.4249,648.315,-0.23309326171875,0.07891845703125,0.966064453125,2.093505859375,-3.461761474609375,-0.0897216796875,1.0,2.0,4.0,1.0,2.0,85.0,event
10:44:04.390,1.1352116,0.7842221,1.2692605,0.9219916,0.59822243,0.74541616,1.067667,1.0210733,1.0885099,0.7793102,0.13990743,1.1024917,1.5113465,0.8121927,-0.20065238,0.5912406,0.7211893,0.23924837,-0.42159328,0.35353312,1176.9597,537.50916,801.4286,811.9048,815.5311,-0.23309326171875,0.07891845703125,0.966064453125,2.093505859375,-3.461761474609375,-0.0897216796875,1.0,2.0,4.0,1.0,2.0,85.0,event
10:44:04.390,1.1352116,0.7842221,1.2692605,0.9219916,0.59822243,0.74541616,1.067667,1.0210733,1.0885099,0.7793102,0.13990743,1.1024917,1.5113465,0.8121927,-0.20065238,0.5912406,0.7211893,0.23924837,-0.42159328,0.35353312,831.6484,786.9231,802.6374,813.91943,688.60803,-0.23309326171875,0.07891845703125,0.966064453125,2.093505859375,-3.461761474609375,-0.0897216796875,1.0,2.0,4.0,1.0,2.0,85.0,event
10:44:04.391,1.1352116,0.7842221,1.2819993,0.9219916,0.59822243,0.74541616,1.0723809,1.0210733,1.0885099,0.7793102,0.14635372,1.1024917,1.5113465,0.8121927,-0.2214721,0.5912406,0.7211893,0.23924837,-0.5020274,0.35353312,1196.7032,901.3553,801.02563,817.5458,781.28204,-0.23309326171875,0.07891845703125,0.966064453125,2.093505859375,-3.461761474609375,-0.0897216796875,1.0,2.0,4.0,1.0,2.0,85.0,event
10:44:04.396,1.1352116,0.7842221,1.2819993,0.9219916,0.59822243,0.74541616,1.0723809,1.0210733,1.0885099,0.7793102,0.14635372,1.1024917,1.5113465,0.8121927,-0.2214721,0.5912406,0.7211893,0.23924837,-0.5020274,0.35353312,761.13556,1068.9744,797.8022,805.8608,720.84247,-0.2408447265625,0.0791015625,0.94635009765625,2.714080810546875,-6.198272705078125,-0.61309814453125,1.0,2.0,4.0,1.0,2.0,85.0,event
10:44:04.396,1.1352116,0.7842221,1.2819993,0.9219916,0.59822243,0.74541616,1.0723809,1.0210733,1.0885099,0.7793102,0.14635372,1.1024917,1.5113465,0.8121927,-0.2214721,0.5912406,0.7211893,0.23924837,-0.5020274,0.35353312,502.05127,736.55676,797.8022,806.6667,799.41394,-0.2408447265625,0.0791015625,0.94635009765625,2.714080810546875,-6.198272705078125,-0.61309814453125,1.0,2.0,4.0,1.0,2.0,85.0,event
10:44:04.397,1.1352116,0.7842221,1.2819993,0.9219916,0.59822243,0.74541616,1.0723809,1.0210733,1.0885099,0.7793102,0.14635372,1.1024917,1.5113465,0.8121927,-0.2214721,0.5912406,0.7211893,0.23924837,-0.5020274,0.35353312,687.8022,626.55676,799.011,803.0403,798.60803,-0.2408447265625,0.0791015625,0.94635009765625,2.714080810546875,-6.198272705078125,-0.61309814453125,1.0,2.0,4.0,1.0,2.0,85.0,event
10:44:04.398,1.1352116,0.7842221,1.2819993,0.9219916,0.59822243,0.74541616,1.0723809,1.0210733,1.0885099,0.7793102,0.14635372,1.1024917,1.5113465,0.8121927,-0.2214721,0.5912406,0.7211893,0.23924837,-0.5020274,0.35353312,993.6264,1028.2784,799.81683,786.52014,736.9597,-0.2408447265625,0.0791015625,0.94635009765625,2.714080810546875,-6.198272705078125,-0.61309814453125,1.0,2.0,4.0,1.0,2.0,85.0,event
10:44:04.398,1.1352116,0.7842221,1.2819993,0.9219916,0.59822243,0.74541616,1.0723809,1.0210733,1.0885099,0.7793102,0.14635372,1.1024917,1.5113465,0.8121927,-0.2214721,0.5912406,0.7211893,0.23924837,-0.5020274,0.35353312,845.7509,1122.967,801.8315,796.5934,804.65204,-0.2408447265625,0.0791015625,0.94635009765625,2.714080810546875,-6.198272705078125,-0.61309814453125,1.0,2.0,4.0,1.0,2.0,85.0,event
10:44:04.399,1.1352116,0.7842221,1.2819993,0.9219916,0.59822243,0.74541616,1.0723809,1.0210733,1.0885099,0.7793102,0.14635372,1.1024917,1.5113465,0.8121927,-0.2214721,0.5912406,0.7211893,0.23924837,-0.5020274,0.35353312,191.39194,585.8608,802.23444,779.67035,924.3223,-0.2408447265625,0.0791015625,0.94635009765625,2.714080810546875,-6.198272705078125,-0.61309814453125,1.0,2.0,4.0,1.0,2.0,85.0,event
10:44:04.400,1.1352116,0.7842221,1.2819993,0.9219916,0.59822243,0.74541616,1.0723809,1.0210733,1.0885099,0.7793102,0.14635372,1.1024917,1.5113465,0.8121927,-0.2214721,0.5912406,0.7211893,0.23924837,-0.5020274,0.35353312,0.0,385.6044,797.8022,788.5348,890.4762,-0.2408447265625,0.0791015625,0.94635009765625,2.714080810546875,-6.198272705078125,-0.61309814453125,1.0,2.0,4.0,1.0,2.0,85.0,event
10:44:04.400,1.1352116,0.7842221,1.2819993,0.9219916,0.59822243,0.74541616,1.0723809,1.0210733,1.0885099,0.7793102,0.14635372,1.1024917,1.5113465,0.8121927,-0.2214721,0.5912406,0.7211893,0.23924837,-0.5020274,0.35353312,23.772894,756.30035,801.8315,820.3663,746.2271,-0.2408447265625,0.0791015625,0.94635009765625,2.714080810546875,-6.198272705078125,-0.61309814453125,1.0,2.0,4.0,1.0,2.0,85.0,event
10:44:04.401,1.1352116,0.7842221,1.2819993,0.9219916,0.59822243,0.74541616,1.0723809,1.0210733,1.0885099,0.7793102,0.14635372,1.1024917,1.5113465,0.8121927,-0.2214721,0.5912406,0.7211893,0.23924837,-0.5020274,0.35353312,0.0,952.52747,805.05493,811.50183,726.4835,-0.2408447265625,0.0791015625,0.94635009765625,2.714080810546875,-6.198272705078125,-0.61309814453125,1.0,2.0,4.0,1.0,2.0,85.0,event
10:44:04.402,1.1352116,0.7842221,1.2819993,0.9219916,0.59822243,0.74541616,1.0723809,1.0210733,1.0885099,0.7793102,0.14635372,1.1024917,1.5113465,0.8121927,-0.2214721,0.5912406,0.7211893,0.23924837,-0.5020274,0.35353312,0.0,259.48718,801.4286,805.05493,858.6447,-0.2408447265625,0.0791015625,0.94635009765625,2.714080810546875,-6.198272705078125,-0.61309814453125,1.0,2.0,4.0,1.0,2.0,85.0,event
10:44:04.402,1.1352116,0.7842221,1.2819993,0.9219916,0.59822243,0.74541616,1.0723809,1.0210733,1.0885099,0.7793102,0.14635372,1.1024917,1.5113465,0.8121927,-0.2214721,0.5912406,0.7211893,0.23924837,-0.5020274,0.35353312,0.0,428.71796,799.81683,805.4579,946.08057,-0.2408447265625,0.0791015625,0.94635009765625,2.714080810546875,-6.198272705078125,-0.61309814453125,1.0,2.0,4.0,1.0,2.0,85.0,event
10:44:04.403,1.1352116,0.7842221,1.2819993,0.9219916,0.59822243,0.74541616,1.0723809,1.0210733,1.0885099,0.7793102,0.14635372,1.1024917,1.5113465,0.8121927,-0.2214721,0.5912406,0.7211893,0.23924837,-0.5020274,0.35353312,0.0,729.707,807.47253,791.3553,667.6557,-0.2408447265625,0.0791015625,0.94635009765625,2.714080810546875,-6.198272705078125,-0.61309814453125,1.0,2.0,4.0,1.0,2.0,85.0,event
10:44:04.430,1.1352116,0.7842221,1.2819993,0.9219916,0.59822243,0.74541616,1.0723809,1.0210733,1.0885099,0.7793102,0.14635372,1.1024917,1.5113465,0.8121927,-0.2214721,0.5912406,0.7211893,0.23924837,-0.5020274,0.35353312,0.0,749.45056,802.6374,773.22345,749.0476,-0.2384033203125,0.0804443359375,0.96673583984375,2.67669677734375,-2.94586181640625,0.201873779296875,1.0,2.0,4.0,1.0,2.0,85.0,event
10:44:04.433,1.1352116,0.7842221,1.2819993,0.9219916,0.59822243,0.74541616,1.0723809,1.0210733,1.0885099,0.7793102,0.14635372,1.1024917,1.5113465,0.8121927,-0.2214721,0.5912406,0.7211893,0.23924837,-0.5020274,0.35353312,0.0,503.663,802.6374,792.1612,824.7985,-0.2384033203125,0.0804443359375,0.96673583984375,2.67669677734375,-2.94586181640625,0.201873779296875,1.0,2.0,4.0,1.0,2.0,85.0,event
10:44:04.434,1.1352116,0.7842221,1.2819993,0.9219916,0.59822243,0.74541616,1.0723809,1.0210733,1.0885099,0.7793102,0.14635372,1.1024917,1.5113465,0.8121927,-0.2214721,0.5912406,0.7211893,0.23924837,-0.5020274,0.35353312,0.0,669.67035,809.4872,805.8608,778.86444,-0.2384033203125,0.0804443359375,0.96673583984375,2.67669677734375,-2.94586181640625,0.201873779296875,1.0,2.0,4.0,1.0,2.0,85.0,event
10:44:04.436,1.1352116,0.7842221,1.2819993,0.9219916,0.59822243,0.74541616,1.0723809,1.0210733,1.0885099,0.7793102,0.14635372,1.1024917,1.5113465,0.8121927,-0.2214721,0.5912406,0.7211893,0.23924837,-0.5020274,0.35353312,0.0,877.1795,807.0696,798.60803,706.337,-0.2384033203125,0.0804443359375,0.96673583984375,2.67669677734375,-2.94586181640625,0.201873779296875,1.0,2.0,4.0,1.0,2.0,85.0,event
10:44:04.437,1.1352116,0.7842221,1.2819993,0.9219916,0.59822243,0.74541616,1.0723809,1.0210733,1.0885099,0.7793102,0.14635372,1.1024917,1.5113465,0.8121927,-0.2214721,0.5912406,0.7211893,0.23924837,-0.5020274,0.35353312,0.0,720.84247,805.4579,801.02563,806.6667,-0.2384033203125,0.0804443359375,0.96673583984375,2.67669677734375,-2.94586181640625,0.201873779296875,1.0,2.0,4.0,1.0,2.0,85.0,event
10:44:04.438,1.1352116,0.7842221,1.2819993,0.9219916,0.59822243,0.74541616,1.0723809,1.0210733,1.0885099,0.7793102,0.14635372,1.1024917,1.5113465,0.8121927,-0.2214721,0.5912406,0.7211893,0.23924837,-0.5020274,0.35353312,0.0,236.11722,804.2491,818.7546,1032.7106,-0.2384033203125,0.0804443359375,0.96673583984375,2.67669677734375,-2.94586181640625,0.201873779296875,1.0,2.0,4.0,1.0,2.0,85.0,event
10:44:04.439,1.1352116,0.7842221,1.2819993,0.9219916,0.59822243,0.74541616,1.0723809,1.0210733,1.0885099,0.7793102,0.14635372,1.1024917,1.5113465,0.8121927,-0.2214721,0.5912406,0.7211893,0.23924837,-0.5020274,0.35353312,0.0,404.5421,803.44324,823.1868,963.00366,-0.2384033203125,0.0804443359375,0.96673583984375,2.67669677734375,-2.94586181640625,0.201873779296875,1.0,2.0,4.0,1.0,2.0,85.0,event
10:44:04.440,1.1352116,0.7842221,1.2819993,0.9219916,0.59822243,0.74541616,1.0723809,1.0210733,1.0885099,0.7793102,0.14635372,1.1024917,1.5113465,0.8121927,-0.2214721,0.5912406,0.7211893,0.23924837,-0.5020274,0.35353312,2.8205128,956.1539,802.23444,813.5165,764.7619,-0.2384033203125,0.0804443359375,0.96673583984375,2.67669677734375,-2.94586181640625,0.201873779296875,1.0,2.0,4.0,1.0,2.0,85.0,event
10:44:04.441,1.1352116,0.7842221,1.2819993,0.9219916,0.59822243,0.74541616,1.0723809,1.0210733,1.0885099,0.7793102,0.14635372,1.1024917,1.5113465,0.8121927,-0.2214721,0.5912406,0.7211893,0.23924837,-0.5020274,0.35353312,0.0,214.35898,798.20514,801.8315,956.55676,-0.2384033203125,0.0804443359375,0.96673583984375,2.67669677734375,-2.94586181640625,0.201873779296875,1.0,2.0,4.0,1.0,2.0,85.0,event
10:44:04.441,1.1352116,0.7842221,1.2819993,0.9219916,0.59822243,0.74541616,1.0723809,1.0210733,1.0885099,0.7793102,0.14635372,1.1024917,1.5113465,0.8121927,-0.2214721,0.5912406,0.7211893,0.23924837,-0.5020274,0.35353312,14.102564,786.52014,799.41394,801.02563,787.326,-0.2384033203125,0.0804443359375,0.96673583984375,2.67669677734375,-2.94586181640625,0.201873779296875,1.0,2.0,4.0,1.0,2.0,85.0,event
10:44:04.442,1.1352116,0.7842221,1.2819993,0.9219916,0.59822243,0.74541616,1.0723809,1.0210733,1.0885099,0.7793102,0.14635372,1.1024917,1.5113465,0.8121927,-0.2214721,0.5912406,0.7211893,0.23924837,-0.5020274,0.35353312,443.62637,1129.414,794.57874,813.5165,718.022,-0.2384033203125,0.0804443359375,0.96673583984375,2.67669677734375,-2.94586181640625,0.201873779296875,1.0,2.0,4.0,1.0,2.0,85.0,event
10:44:04.442,1.1352116,0.7842221,1.2819993,0.9219916,0.59822243,0.74541616,1.0723809,1.0210733,1.0885099,0.7793102,0.14635372,1.1024917,1.5113465,0.8121927,-0.2214721,0.5912406,0.7211893,0.23924837,-0.5020274,0.35353312,41.0989,706.337,797.3993,811.9048,838.9011,-0.2384033203125,0.0804443359375,0.96673583984375,2.67669677734375,-2.94586181640625,0.201873779296875,1.0,2.0,4.0,1.0,2.0,85.0,event
10:44:04.469,1.1352116,0.7842221,1.2819993,0.9219916,0.59822243,0.74541616,1.0723809,1.0210733,1.0885099,0.7793102,0.14635372,1.1024917,1.5113465,0.8121927,-0.2214721,0.5912406,0.7211893,0.23924837,-0.5020274,0.35353312,837.28937,920.293,796.1905,803.44324,765.56775,-0.2384033203125,0.0804443359375,0.96673583984375,2.67669677734375,-2.94586181640625,0.201873779296875,1.0,2.0,4.0,1.0,2.0,85.0,event
10:44:04.470,1.1352116,0.7842221,1.3024554,0.9219916,0.59822243,0.74541616,1.0812265,1.0210733,1.0885099,0.7793102,0.15163413,1.1024917,1.5113465,0.8121927,-0.24334535,0.5912406,0.7211893,0.23924837,-0.5830431,0.35353312,687.3993,879.19415,797.3993,800.2198,787.326,-0.2384033203125,0.0804443359375,0.96673583984375,2.67669677734375,-2.94586181640625,0.201873779296875,1.0,4.0,4.0,1.0,2.0,85.0,event
10:44:04.472,,,,,,,,,,,,,,,,,,,,,,,,,,,,,,,,,,,,,,jaw_clench
10:44:04.474,1.1352116,0.7842221,1.3024554,0.9219916,0.59822243,0.74541616,1.0812265,1.0210733,1.0885099,0.7793102,0.15163413,1.1024917,1.5113465,0.8121927,-0.24334535,0.5912406,0.7211893,0.23924837,-0.5830431,0.35353312,359.4139,941.6484,799.011,804.65204,678.5348,-0.2384033203125,0.0804443359375,0.96673583984375,2.67669677734375,-2.94586181640625,0.201873779296875,1.0,4.0,4.0,1.0,2.0,85.0,event
10:44:04.475,1.1352116,0.7842221,1.3024554,0.9219916,0.59822243,0.74541616,1.0812265,1.0210733,1.0885099,0.7793102,0.15163413,1.1024917,1.5113465,0.8121927,-0.24334535,0.5912406,0.7211893,0.23924837,-0.5830431,0.35353312,416.63004,931.5751,800.6227,797.8022,637.03296,-0.2384033203125,0.0804443359375,0.96673583984375,2.67669677734375,-2.94586181640625,0.201873779296875,1.0,4.0,4.0,1.0,2.0,85.0,event
10:44:04.475,1.1352116,0.7842221,1.3024554,0.9219916,0.59822243,0.74541616,1.0812265,1.0210733,1.0885099,0.7793102,0.15163413,1.1024917,1.5113465,0.8121927,-0.24334535,0.5912406,0.7211893,0.23924837,-0.5830431,0.35353312,796.99634,677.72894,799.011,796.5934,826.4103,-0.2384033203125,0.0804443359375,0.96673583984375,2.67669677734375,-2.94586181640625,0.201873779296875,1.0,4.0,4.0,1.0,2.0,85.0,event
10:44:04.476,1.1352116,0.7842221,1.3024554,0.9219916,0.59822243,0.74541616,1.0812265,1.0210733,1.0885099,0.7793102,0.15163413,1.1024917,1.5113465,0.8121927,-0.24334535,0.5912406,0.7211893,0.23924837,-0.5830431,0.35353312,1143.5165,616.4835,799.011,807.47253,922.71063,-0.2384033203125,0.0804443359375,0.96673583984375,2.67669677734375,-2.94586181640625,0.201873779296875,1.0,4.0,4.0,1.0,2.0,85.0,event
10:44:04.476,1.1352116,0.7842221,1.3024554,0.9219916,0.59822243,0.74541616,1.0812265,1.0210733,1.0885099,0.7793102,0.15163413,1.1024917,1.5113465,0.8121927,-0.24334535,0.5912406,0.7211893,0.23924837,-0.5830431,0.35353312,993.6264,696.6667,798.20514,793.36993,886.04395,-0.2384033203125,0.0804443359375,0.96673583984375,2.67669677734375,-2.94586181640625,0.201873779296875,1.0,4.0,4.0,1.0,2.0,85.0,event
10:44:04.477,1.1352116,0.7842221,1.3024554,0.9219916,0.59822243,0.74541616,1.0812265,1.0210733,1.0885099,0.7793102,0.15163413,1.1024917,1.5113465,0.8121927,-0.24334535,0.5912406,0.7211893,0.23924837,-0.5830431,0.35353312,539.5238,454.10257,800.2198,794.57874,939.6337,-0.2384033203125,0.0804443359375,0.96673583984375,2.67669677734375,-2.94586181640625,0.201873779296875,1.0,4.0,4.0,1.0,2.0,85.0,event
10:44:04.477,1.1352116,0.7842221,1.3024554,0.9219916,0.59822243,0.74541616,1.0812265,1.0210733,1.0885099,0.7793102,0.15163413,1.1024917,1.5113465,0.8121927,-0.24334535,0.5912406,0.7211893,0.23924837,-0.5830431,0.35353312,592.71063,799.011,798.20514,780.4762,788.5348,-0.2384033203125,0.0804443359375,0.96673583984375,2.67669677734375,-2.94586181640625,0.201873779296875,1.0,4.0,4.0,1.0,2.0,85.0,event
10:44:04.478,1.1352116,0.7842221,1.3024554,0.9219916,0.59822243,0.74541616,1.0812265,1.0210733,1.0885099,0.7793102,0.15163413,1.1024917,1.5113465,0.8121927,-0.24334535,0.5912406,0.7211893,0.23924837,-0.5830431,0.35353312,848.97437,174.46887,802.6374,799.011,1093.1501,-0.2384033203125,0.0804443359375,0.96673583984375,2.67669677734375,-2.94586181640625,0.201873779296875,1.0,4.0,4.0,1.0,2.0,85.0,event
10:44:04.479,1.1352116,0.7842221,1.3024554,0.9219916,0.59822243,0.74541616,1.0812265,1.0210733,1.0885099,0.7793102,0.15163413,1.1024917,1.5113465,0.8121927,-0.24334535,0.5912406,0.7211893,0.23924837,-0.5830431,0.35353312,1251.5018,887.6557,801.02563,794.9817,834.4689,-0.2384033203125,0.0804443359375,0.96673583984375,2.67669677734375,-2.94586181640625,0.201873779296875,1.0,4.0,4.0,1.0,2.0,85.0,event
10:44:04.479,1.1352116,0.7842221,1.3024554,0.9219916,0.59822243,0.74541616,1.0812265,1.0210733,1.0885099,0.7793102,0.15163413,1.1024917,1.5113465,0.8121927,-0.24334535,0.5912406,0.7211893,0.23924837,-0.5830431,0.35353312,1199.1208,1056.0806,802.23444,801.8315,725.6777,-0.2384033203125,0.0804443359375,0.96673583984375,2.67669677734375,-2.94586181640625,0.201873779296875,1.0,4.0,4.0,1.0,2.0,85.0,event
10:44:04.527,1.1352116,0.7842221,1.3024554,0.9219916,0.59822243,0.74541616,1.0812265,1.0210733,1.0885099,0.7793102,0.15163413,1.1024917,1.5113465,0.8121927,-0.24334535,0.5912406,0.7211893,0.23924837,-0.5830431,0.35353312,775.64105,664.0293,804.2491,799.81683,749.45056,-0.23150634765625,0.07769775390625,0.95703125,2.58697509765625,-4.08233642578125,1.233673095703125,1.0,4.0,4.0,1.0,2.0,85.0,event
10:44:04.528,1.1352116,0.7842221,1.3024554,0.9219916,0.59822243,0.74541616,1.0812265,1.0210733,1.0885099,0.7793102,0.15163413,1.1024917,1.5113465,0.8121927,-0.24334535,0.5912406,0.7211893,0.23924837,-0.5830431,0.35353312,731.31866,846.9597,801.8315,792.96704,680.54944,-0.23150634765625,0.07769775390625,0.95703125,2.58697509765625,-4.08233642578125,1.233673095703125,1.0,4.0,4.0,1.0,2.0,85.0,event
10:44:04.529,1.1352116,0.7842221,1.3024554,0.9219916,0.59822243,0.74541616,1.0812265,1.0210733,1.0885099,0.7793102,0.15163413,1.1024917,1.5113465,0.8121927,-0.24334535,0.5912406,0.7211893,0.23924837,-0.5830431,0.35353312,1096.7766,1126.5934,800.2198,802.6374,670.4762,-0.23150634765625,0.07769775390625,0.95703125,2.58697509765625,-4.08233642578125,1.233673095703125,1.0,4.0,4.0,1.0,2.0,85.0,event
10:44:04.529,1.1352116,0.7842221,1.3024554,0.9219916,0.59822243,0.74541616,1.0812265,1.0210733,1.0885099,0.7793102,0.15163413,1.1024917,1.5113465,0.8121927,-0.24334535,0.5912406,0.7211893,0.23924837,-0.5830431,0.35353312,1457.8022,1070.586,796.99634,800.2198,737.76556,-0.23150634765625,0.07769775390625,0.95703125,2.58697509765625,-4.08233642578125,1.233673095703125,1.0,4.0,4.0,1.0,2.0,85.0,event
10:44:04.530,1.1352116,0.7842221,1.3024554,0.9219916,0.59822243,0.74541616,1.0812265,1.0210733,1.0885099,0.7793102,0.15163413,1.1024917,1.5113465,0.8121927,-0.24334535,0.5912406,0.7211893,0.23924837,-0.5830431,0.35353312,1441.2821,877.5824,797.8022,790.9524,855.0183,-0.23150634765625,0.07769775390625,0.95703125,2.58697509765625,-4.08233642578125,1.233673095703125,1.0,4.0,4.0,1.0,2.0,85.0,event
10:44:04.531,1.1352116,0.7842221,1.3024554,0.9219916,0.59822243,0.74541616,1.0812265,1.0210733,1.0885099,0.7793102,0.15163413,1.1024917,1.5113465,0.8121927,-0.24334535,0.5912406,0.7211893,0.23924837,-0.5830431,0.35353312,1043.1868,746.63007,799.41394,790.14655,910.2198,-0.23150634765625,0.07769775390625,0.95703125,2.58697509765625,-4.08233642578125,1.233673095703125,1.0,4.0,4.0,1.0,2.0,85.0,event
10:44:04.531,1.1352116,0.7842221,1.3024554,0.9219916,0.59822243,0.74541616,1.0812265,1.0210733,1.0885099,0.7793102,0.15163413,1.1024917,1.5113465,0.8121927,-0.24334535,0.5912406,0.7211893,0.23924837,-0.5830431,0.35353312,854.21246,725.6777,796.1905,790.9524,874.35895,-0.23150634765625,0.07769775390625,0.95703125,2.58697509765625,-4.08233642578125,1.233673095703125,1.0,4.0,4.0,1.0,2.0,85.0,event
10:44:04.532,1.1352116,0.7842221,1.3024554,0.9219916,0.59822243,0.74541616,1.0812265,1.0210733,1.0885099,0.7793102,0.15163413,1.1024917,1.5113465,0.8121927,-0.24334535,0.5912406,0.7211893,0.23924837,-0.5830431,0.35353312,1481.978,203.47986,799.41394,811.9048,1118.1318,-0.23150634765625,0.07769775390625,0.95703125,2.58697509765625,-4.08233642578125,1.233673095703125,1.0,4.0,4.0,1.0,2.0,85.0,event
10:44:04.532,1.1352116,0.7842221,1.3024554,0.9219916,0.59822243,0.74541616,1.0812265,1.0210733,1.0885099,0.7793102,0.15163413,1.1024917,1.5113465,0.8121927,-0.24334535,0.5912406,0.7211893,0.23924837,-0.5830431,0.35353312,1123.37,696.6667,794.17584,790.9524,853.4066,-0.23150634765625,0.07769775390625,0.95703125,2.58697509765625,-4.08233642578125,1.233673095703125,1.0,4.0,4.0,1.0,2.0,85.0,event
10:44:04.533,1.1352116,0.7842221,1.3024554,0.9219916,0.59822243,0.74541616,1.0812265,1.0210733,1.0885099,0.7793102,0.15163413,1.1024917,1.5113465,0.8121927,-0.24334535,0.5912406,0.7211893,0.23924837,-0.5830431,0.35353312,1540.0,470.6227,800.6227,814.7253,994.43225,-0.23150634765625,0.07769775390625,0.95703125,2.58697509765625,-4.08233642578125,1.233673095703125,1.0,4.0,4.0,1.0,2.0,85.0,event
10:44:04.534,1.1352116,0.7842221,1.3024554,0.9219916,0.59822243,0.74541616,1.0812265,1.0210733,1.0885099,0.7793102,0.15163413,1.1024917,1.5113465,0.8121927,-0.24334535,0.5912406,0.7211893,0.23924837,-0.5830431,0.35353312,1004.10254,919.0842,803.8461,817.5458,737.76556,-0.23150634765625,0.07769775390625,0.95703125,2.58697509765625,-4.08233642578125,1.233673095703125,1.0,4.0,4.0,1.0,2.0,85.0,event
10:44:04.534,1.1352116,0.7842221,1.3024554,0.9219916,0.59822243,0.74541616,1.0812265,1.0210733,1.0885099,0.7793102,0.15163413,1.1024917,1.5113465,0.8121927,-0.24334535,0.5912406,0.7211893,0.23924837,-0.5830431,0.35353312,1205.5677,1060.5128,802.6374,809.4872,678.93774,-0.23150634765625,0.07769775390625,0.95703125,2.58697509765625,-4.08233642578125,1.233673095703125,1.0,4.0,4.0,1.0,2.0,85.0,event
10:44:04.562,1.1352116,0.7842221,1.3024554,0.9219916,0.59822243,0.74541616,1.0812265,1.0210733,1.0885099,0.7793102,0.15163413,1.1024917,1.5113465,0.8121927,-0.24334535,0.5912406,0.7211893,0.23924837,-0.5830431,0.35353312,1286.5568,976.7033,803.44324,812.71063,805.8608,-0.24017333984375,0.08453369140625,0.95751953125,2.429962158203125,-4.3963623046875,0.2392578125,1.0,4.0,4.0,1.0,2.0,85.0,event
10:44:04.563,1.1352116,0.7842221,1.3024554,0.9219916,0.59822243,0.74541616,1.0812265,1.0210733,1.0885099,0.7793102,0.15163413,1.1024917,1.5113465,0.8121927,-0.24334535,0.5912406,0.7211893,0.23924837,-0.5830431,0.35353312,1604.4689,1257.1428,803.8461,804.2491,753.47986,-0.24017333984375,0.08453369140625,0.95751953125,2.429962158203125,-4.3963623046875,0.2392578125,1.0,4.0,4.0,1.0,2.0,85.0,event
10:44:04.563,1.1352116,0.7842221,1.3024554,0.9219916,0.59822243,0.74541616,1.0812265,1.0210733,1.0885099,0.7793102,0.15163413,1.1024917,1.5113465,0.8121927,-0.24334535,0.5912406,0.7211893,0.23924837,-0.5830431,0.35353312,1626.63,1212.0146,808.68134,804.2491,732.9304,-0.24017333984375,0.08453369140625,0.95751953125,2.429962158203125,-4.3963623046875,0.2392578125,1.0,4.0,4.0,1.0,2.0,85.0,event
10:44:04.564,1.1352116,0.7842221,1.3204662,0.9219916,0.59822243,0.74541616,1.0846322,1.0210733,1.0885099,0.7793102,0.15708266,1.1024917,1.5113465,0.8121927,-0.26869926,0.5912406,0.7211893,0.23924837,-0.6484358,0.35353312,1325.641,902.1612,808.68134,809.0842,807.8755,-0.24017333984375,0.08453369140625,0.95751953125,2.429962158203125,-4.3963623046875,0.2392578125,1.0,4.0,4.0,1.0,2.0,85.0,event
10:44:04.568,1.1352116,0.7842221,1.3204662,0.9219916,0.59822243,0.74541616,1.0846322,1.0210733,1.0885099,0.7793102,0.15708266,1.1024917,1.5113465,0.8121927,-0.26869926,0.5912406,0.7211893,0.23924837,-0.6484358,0.35353312,1042.7839,870.32965,803.44324,797.3993,786.1172,-0.24017333984375,0.08453369140625,0.95751953125,2.429962158203125,-4.3963623046875,0.2392578125,1.0,4.0,4.0,1.0,2.0,85.0,event
10:44:04.569,1.1352116,0.7842221,1.3204662,0.9219916,0.59822243,0.74541616,1.0846322,1.0210733,1.0885099,0.7793102,0.15708266,1.1024917,1.5113465,0.8121927,-0.26869926,0.5912406,0.7211893,0.23924837,-0.6484358,0.35353312,1175.751,837.6923,803.0403,792.5641,763.5531,-0.24017333984375,0.08453369140625,0.95751953125,2.429962158203125,-4.3963623046875,0.2392578125,1.0,4.0,4.0,1.0,2.0,85.0,event
10:44:04.570,1.1352116,0.7842221,1.3204662,0.9219916,0.59822243,0.74541616,1.0846322,1.0210733,1.0885099,0.7793102,0.15708266,1.1024917,1.5113465,0.8121927,-0.26869926,0.5912406,0.7211893,0.23924837,-0.6484358,0.35353312,1532.3444,852.6007,804.65204,803.0403,821.978,-0.24017333984375,0.08453369140625,0.95751953125,2.429962158203125,-4.3963623046875,0.2392578125,1.0,4.0,4.0,1.0,2.0,85.0,event
10:44:04.570,1.1352116,0.7842221,1.3204662,0.9219916,0.59822243,0.74541616,1.0846322,1.0210733,1.0885099,0.7793102,0.15708266,1.1024917,1.5113465,0.8121927,-0.26869926,0.5912406,0.7211893,0.23924837,-0.6484358,0.35353312,1648.3883,510.51282,803.8461,809.4872,956.1539,-0.24017333984375,0.08453369140625,0.95751953125,2.429962158203125,-4.3963623046875,0.2392578125,1.0,4.0,4.0,1.0,2.0,85.0,event
10:44:04.571,1.1352116,0.7842221,1.3204662,0.9219916,0.59822243,0.74541616,1.0846322,1.0210733,1.0885099,0.7793102,0.15708266,1.1024917,1.5113465,0.8121927,-0.26869926,0.5912406,0.7211893,0.23924837,-0.6484358,0.35353312,1369.1575,281.24542,804.65204,799.011,936.0073,-0.24017333984375,0.08453369140625,0.95751953125,2.429962158203125,-4.3963623046875,0.2392578125,1.0,4.0,4.0,1.0,2.0,85.0,event
10:44:04.572,1.1352116,0.7842221,1.3204662,0.9219916,0.59822243,0.74541616,1.0846322,1.0210733,1.0885099,0.7793102,0.15708266,1.1024917,1.5113465,0.8121927,-0.26869926,0.5912406,0.7211893,0.23924837,-0.6484358,0.35353312,1072.6007,930.3663,807.8755,796.1905,704.3223,-0.24017333984375,0.08453369140625,0.95751953125,2.429962158203125,-4.3963623046875,0.2392578125,1.0,4.0,4.0,1.0,2.0,85.0,event
10:44:04.573,1.1352116,0.7842221,1.3204662,0.9219916,0.59822243,0.74541616,1.0846322,1.0210733,1.0885099,0.7793102,0.15708266,1.1024917,1.5113465,0.8121927,-0.26869926,0.5912406,0.7211893,0.23924837,-0.6484358,0.35353312,1211.6117,995.2381,808.68134,799.011,738.97437,-0.24017333984375,0.08453369140625,0.95751953125,2.429962158203125,-4.3963623046875,0.2392578125,1.0,4.0,4.0,1.0,2.0,85.0,event
10:44:04.573,1.1352116,0.7842221,1.3204662,0.9219916,0.59822243,0.74541616,1.0846322,1.0210733,1.0885099,0.7793102,0.15708266,1.1024917,1.5113465,0.8121927,-0.26869926,0.5912406,0.7211893,0.23924837,-0.6484358,0.35353312,1517.4359,581.4286,810.293,798.20514,912.6374,-0.24017333984375,0.08453369140625,0.95751953125,2.429962158203125,-4.3963623046875,0.2392578125,1.0,4.0,4.0,1.0,2.0,85.0,event
10:44:04.617,1.1352116,0.7842221,1.3204662,0.9219916,0.59822243,0.74541616,1.0846322,1.0210733,1.0885099,0.7793102,0.15708266,1.1024917,1.5113465,0.8121927,-0.26869926,0.5912406,0.7211893,0.23924837,-0.6484358,0.35353312,1638.7179,916.6667,807.8755,806.6667,810.293,-0.23553466796875,0.08465576171875,0.95526123046875,2.07855224609375,-3.162689208984375,0.306549072265625,1.0,4.0,4.0,1.0,2.0,85.0,event
10:44:04.618,1.1352116,0.7842221,1.3204662,0.9219916,0.59822243,0.74541616,1.0846322,1.0210733,1.0885099,0.7793102,0.15708266,1.1024917,1.5113465,0.8121927,-0.26869926,0.5912406,0.7211893,0.23924837,-0.6484358,0.35353312,1400.1831,1177.3627,804.65204,796.5934,693.8461,-0.23553466796875,0.08465576171875,0.95526123046875,2.07855224609375,-3.162689208984375,0.306549072265625,1.0,4.0,4.0,1.0,2.0,85.0,event
10:44:04.619,1.1352116,0.7842221,1.3204662,0.9219916,0.59822243,0.74541616,1.0846322,1.0210733,1.0885099,0.7793102,0.15708266,1.1024917,1.5113465,0.8121927,-0.26869926,0.5912406,0.7211893,0.23924837,-0.6484358,0.35353312,1033.5165,939.2308,809.0842,786.52014,736.55676,-0.23553466796875,0.08465576171875,0.95526123046875,2.07855224609375,-3.162689208984375,0.306549072265625,1.0,4.0,4.0,1.0,2.0,85.0,event
10:44:04.620,1.1352116,0.7842221,1.3204662,0.9219916,0.59822243,0.74541616,1.0846322,1.0210733,1.0885099,0.7793102,0.15708266,1.1024917,1.5113465,0.8121927,-0.26869926,0.5912406,0.7211893,0.23924837,-0.6484358,0.35353312,1092.7472,846.55676,811.50183,801.4286,791.75824,-0.23553466796875,0.08465576171875,0.95526123046875,2.07855224609375,-3.162689208984375,0.306549072265625,1.0,4.0,4.0,1.0,2.0,85.0,event
10:44:04.620,1.1352116,0.7842221,1.3204662,0.9219916,0.59822243,0.74541616,1.0846322,1.0210733,1.0885099,0.7793102,0.15708266,1.1024917,1.5113465,0.8121927,-0.26869926,0.5912406,0.7211893,0.23924837,-0.6484358,0.35353312,1413.4799,1020.6227,809.4872,803.0403,729.304,-0.23553466796875,0.08465576171875,0.95526123046875,2.07855224609375,-3.162689208984375,0.306549072265625,1.0,4.0,4.0,1.0,2.0,85.0,event
10:44:04.621,1.1352116,0.7842221,1.3204662,0.9219916,0.59822243,0.74541616,1.0846322,1.0210733,1.0885099,0.7793102,0.15708266,1.1024917,1.5113465,0.8121927,-0.26869926,0.5912406,0.7211893,0.23924837,-0.6484358,0.35353312,1597.619,972.674,807.0696,784.5055,826.4103,-0.23553466796875,0.08465576171875,0.95526123046875,2.07855224609375,-3.162689208984375,0.306549072265625,1.0,4.0,4.0,1.0,2.0,85.0,event
10:44:04.622,1.1352116,0.7842221,1.3204662,0.9219916,0.59822243,0.74541616,1.0846322,1.0210733,1.0885099,0.7793102,0.15708266,1.1024917,1.5113465,0.8121927,-0.26869926,0.5912406,0.7211893,0.23924837,-0.6484358,0.35353312,1279.7069,671.28204,804.2491,786.1172,965.42126,-0.23553466796875,0.08465576171875,0.95526123046875,2.07855224609375,-3.162689208984375,0.306549072265625,1.0,4.0,4.0,1.0,2.0,85.0,event
10:44:04.623,1.1352116,0.7842221,1.3204662,0.9219916,0.59822243,0.74541616,1.0846322,1.0210733,1.0885099,0.7793102,0.15708266,1.1024917,1.5113465,0.8121927,-0.26869926,0.5912406,0.7211893,0.23924837,-0.6484358,0.35353312,765.9707,159.56044,806.6667,803.0403,997.25275,-0.23553466796875,0.08465576171875,0.95526123046875,2.07855224609375,-3.162689208984375,0.306549072265625,1.0,4.0,4.0,1.0,2.0,85.0,event
10:44:04.623,1.1352116,0.7842221,1.3204662,0.9219916,0.59822243,0.74541616,1.0846322,1.0210733,1.0885099,0.7793102,0.15708266,1.1024917,1.5113465,0.8121927,-0.26869926,0.5912406,0.7211893,0.23924837,-0.6484358,0.35353312,819.9634,563.2967,807.47253,799.41394,806.26373,-0.23553466796875,0.08465576171875,0.95526123046875,2.07855224609375,-3.162689208984375,0.306549072265625,1.0,4.0,4.0,1.0,2.0,85.0,event
10:44:04.624,1.1352116,0.7842221,1.3204662,0.9219916,0.59822243,0.74541616,1.0846322,1.0210733,1.0885099,0.7793102,0.15708266,1.1024917,1.5113465,0.8121927,-0.26869926,0.5912406,0.7211893,0.23924837,-0.6484358,0.35353312,1318.7913,1001.28204,803.44324,777.6557,752.674,-0.23553466796875,0.08465576171875,0.95526123046875,2.07855224609375,-3.162689208984375,0.306549072265625,1.0,4.0,4.0,1.0,2.0,85.0,event
10:44:04.624,1.1352116,0.7842221,1.3204662,0.9219916,0.59822243,0.74541616,1.0846322,1.0210733,1.0885099,0.7793102,0.15708266,1.1024917,1.5113465,0.8121927,-0.26869926,0.5912406,0.7211893,0.23924837,-0.6484358,0.35353312,1160.4396,1141.9048,805.4579,792.96704,671.685,-0.23553466796875,0.08465576171875,0.95526123046875,2.07855224609375,-3.162689208984375,0.306549072265625,1.0,4.0,4.0,1.0,2.0,85.0,event
10:44:04.625,1.1352116,0.7842221,1.3204662,0.9219916,0.59822243,0.74541616,1.0846322,1.0210733,1.0885099,0.7793102,0.15708266,1.1024917,1.5113465,0.8121927,-0.26869926,0.5912406,0.7211893,0.23924837,-0.6484358,0.35353312,1041.1721,866.7033,807.8755,786.1172,730.10986,-0.23553466796875,0.08465576171875,0.95526123046875,2.07855224609375,-3.162689208984375,0.306549072265625,1.0,4.0,4.0,1.0,2.0,85.0,event
10:44:04.689,1.1352116,0.7842221,1.3204662,0.9219916,0.59822243,0.74541616,1.0846322,1.0210733,1.0885099,0.7793102,0.15708266,1.1024917,1.5113465,0.8121927,-0.26869926,0.5912406,0.7211893,0.23924837,-0.6484358,0.35353312,545.16486,949.304,810.696,801.8315,673.69965,-0.23199462890625,0.08062744140625,0.968994140625,1.487884521484375,-3.050537109375,0.28411865234375,1.0,4.0,4.0,1.0,2.0,80.0,event
10:44:04.690,1.1352116,0.7842221,1.3204662,0.9219916,0.59822243,0.74541616,1.0846322,1.0210733,1.0885099,0.7793102,0.15708266,1.1024917,1.5113465,0.8121927,-0.26869926,0.5912406,0.7211893,0.23924837,-0.6484358,0.35353312,384.3956,900.14655,809.89014,808.68134,699.0842,-0.23199462890625,0.08062744140625,0.968994140625,1.487884521484375,-3.050537109375,0.28411865234375,1.0,4.0,4.0,1.0,2.0,80.0,event
10:44:04.692,1.1352116,0.7842221,1.3204662,0.9219916,0.59822243,0.74541616,1.0846322,1.0210733,1.0885099,0.7793102,0.15708266,1.1024917,1.5113465,0.8121927,-0.26869926,0.5912406,0.7211893,0.23924837,-0.6484358,0.35353312,514.94507,611.6484,811.0989,805.05493,847.3626,-0.23199462890625,0.08062744140625,0.968994140625,1.487884521484375,-3.050537109375,0.28411865234375,1.0,4.0,4.0,1.0,2.0,80.0,event
10:44:04.693,1.1352116,0.7842221,1.3204662,0.9219916,0.59822243,0.74541616,1.0846322,1.0210733,1.0885099,0.7793102,0.15708266,1.1024917,1.5113465,0.8121927,-0.26869926,0.5912406,0.7211893,0.23924837,-0.6484358,0.35353312,690.2198,706.337,810.696,800.2198,839.304,-0.23199462890625,0.08062744140625,0.968994140625,1.487884521484375,-3.050537109375,0.28411865234375,1.0,4.0,4.0,1.0,2.0,80.0,event
10:44:04.694,1.1352116,0.7842221,1.3204662,0.9219916,0.59822243,0.74541616,1.0846322,1.0210733,1.0885099,0.7793102,0.15708266,1.1024917,1.5113465,0.8121927,-0.26869926,0.5912406,0.7211893,0.23924837,-0.6484358,0.35353312,412.60074,943.663,809.4872,792.1612,720.4396,-0.23199462890625,0.08062744140625,0.968994140625,1.487884521484375,-3.050537109375,0.28411865234375,1.0,4.0,4.0,1.0,2.0,80.0,event
10:44:04.695,1.1352116,0.7842221,1.3198969,0.9219916,0.59822243,0.74541616,1.0683987,1.0210733,1.0885099,0.7793102,0.16260327,1.1024917,1.5113465,0.8121927,-0.29632983,0.5912406,0.7211893,0.23924837,-0.68479574,0.35353312,13.699634,710.3663,806.26373,778.86444,791.3553,-0.23199462890625,0.08062744140625,0.968994140625,1.487884521484375,-3.050537109375,0.28411865234375,1.0,4.0,4.0,1.0,2.0,80.0,event
10:44:04.700,1.1352116,0.7842221,1.3198969,0.9219916,0.59822243,0.74541616,1.0683987,1.0210733,1.0885099,0.7793102,0.16260327,1.1024917,1.5113465,0.8121927,-0.29632983,0.5912406,0.7211893,0.23924837,-0.68479574,0.35353312,0.0,237.326,807.0696,785.31134,1000.07324,-0.23199462890625,0.08062744140625,0.968994140625,1.487884521484375,-3.050537109375,0.28411865234375,1.0,4.0,4.0,1.0,2.0,80.0,event
10:44:04.701,1.1352116,0.7842221,1.3198969,0.9219916,0.59822243,0.74541616,1.0683987,1.0210733,1.0885099,0.7793102,0.16260327,1.1024917,1.5113465,0.8121927,-0.29632983,0.5912406,0.7211893,0.23924837,-0.68479574,0.35353312,20.54945,898.5348,812.71063,795.78754,693.0403,-0.23199462890625,0.08062744140625,0.968994140625,1.487884521484375,-3.050537109375,0.28411865234375,1.0,4.0,4.0,1.0,2.0,80.0,event
10:44:04.701,1.1352116,0.7842221,1.3198969,0.9219916,0.59822243,0.74541616,1.0683987,1.0210733,1.0885099,0.7793102,0.16260327,1.1024917,1.5113465,0.8121927,-0.29632983,0.5912406,0.7211893,0.23924837,-0.68479574,0.35353312,9.267399,240.14651,810.696,789.7436,990.0,-0.23199462890625,0.08062744140625,0.968994140625,1.487884521484375,-3.050537109375,0.28411865234375,1.0,4.0,4.0,1.0,2.0,80.0,event
10:44:04.702,1.1352116,0.7842221,1.3198969,0.9219916,0.59822243,0.74541616,1.0683987,1.0210733,1.0885099,0.7793102,0.16260327,1.1024917,1.5113465,0.8121927,-0.29632983,0.5912406,0.7211893,0.23924837,-0.68479574,0.35353312,10.476191,956.55676,810.696,801.8315,649.12085,-0.23199462890625,0.08062744140625,0.968994140625,1.487884521484375,-3.050537109375,0.28411865234375,1.0,4.0,4.0,1.0,2.0,80.0,event
10:44:04.703,1.1352116,0.7842221,1.3198969,0.9219916,0.59822243,0.74541616,1.0683987,1.0210733,1.0885099,0.7793102,0.16260327,1.1024917,1.5113465,0.8121927,-0.29632983,0.5912406,0.7211893,0.23924837,-0.68479574,0.35353312,0.0,579.81683,805.05493,790.9524,708.7546,-0.23199462890625,0.08062744140625,0.968994140625,1.487884521484375,-3.050537109375,0.28411865234375,1.0,4.0,4.0,1.0,2.0,80.0,event
10:44:04.704,1.1352116,0.7842221,1.3198969,0.9219916,0.59822243,0.74541616,1.0683987,1.0210733,1.0885099,0.7793102,0.16260327,1.1024917,1.5113465,0.8121927,-0.29632983,0.5912406,0.7211893,0.23924837,-0.68479574,0.35353312,8.864469,721.2454,805.05493,792.96704,662.8205,-0.23199462890625,0.08062744140625,0.968994140625,1.487884521484375,-3.050537109375,0.28411865234375,1.0,4.0,4.0,1.0,2.0,80.0,event
10:44:04.733,1.1352116,0.7842221,1.3198969,0.9219916,0.59822243,0.74541616,1.0683987,1.0210733,1.0885099,0.7793102,0.16260327,1.1024917,1.5113465,0.8121927,-0.29632983,0.5912406,0.7211893,0.23924837,-0.68479574,0.35353312,0.0,944.87177,809.89014,805.8608,628.1685,-0.23199462890625,0.08062744140625,0.968994140625,1.487884521484375,-3.050537109375,0.28411865234375,1.0,4.0,4.0,1.0,2.0,80.0,event
10:44:04.735,1.1352116,0.7842221,1.3198969,0.9219916,0.59822243,0.74541616,1.0683987,1.0210733,1.0885099,0.7793102,0.16260327,1.1024917,1.5113465,0.8121927,-0.29632983,0.5912406,0.7211893,0.23924837,-0.68479574,0.35353312,108.388275,722.4542,811.0989,815.5311,701.0989,-0.23199462890625,0.08062744140625,0.968994140625,1.487884521484375,-3.050537109375,0.28411865234375,1.0,4.0,4.0,1.0,2.0,80.0,event
10:44:04.736,1.1352116,0.7842221,1.3198969,0.9219916,0.59822243,0.74541616,1.0683987,1.0210733,1.0885099,0.7793102,0.16260327,1.1024917,1.5113465,0.8121927,-0.29632983,0.5912406,0.7211893,0.23924837,-0.68479574,0.35353312,284.46887,633.00366,810.696,811.9048,794.9817,-0.23199462890625,0.08062744140625,0.968994140625,1.487884521484375,-3.050537109375,0.28411865234375,1.0,4.0,4.0,1.0,2.0,80.0,event
10:44:04.737,1.1352116,0.7842221,1.3198969,0.9219916,0.59822243,0.74541616,1.0683987,1.0210733,1.0885099,0.7793102,0.16260327,1.1024917,1.5113465,0.8121927,-0.29632983,0.5912406,0.7211893,0.23924837,-0.68479574,0.35353312,129.74359,856.63007,807.47253,794.9817,804.2491,-0.23199462890625,0.08062744140625,0.968994140625,1.487884521484375,-3.050537109375,0.28411865234375,1.0,4.0,4.0,1.0,2.0,80.0,event
10:44:04.738,1.1352116,0.7842221,1.3198969,0.9219916,0.59822243,0.74541616,1.0683987,1.0210733,1.0885099,0.7793102,0.16260327,1.1024917,1.5113465,0.8121927,-0.29632983,0.5912406,0.7211893,0.23924837,-0.68479574,0.35353312,35.860806,819.15753,807.47253,801.4286,798.20514,-0.23199462890625,0.08062744140625,0.968994140625,1.487884521484375,-3.050537109375,0.28411865234375,1.0,4.0,4.0,1.0,2.0,80.0,event
10:44:04.738,1.1352116,0.7842221,1.3198969,0.9219916,0.59822243,0.74541616,1.0683987,1.0210733,1.0885099,0.7793102,0.16260327,1.1024917,1.5113465,0.8121927,-0.29632983,0.5912406,0.7211893,0.23924837,-0.68479574,0.35353312,344.5055,680.54944,810.293,807.8755,806.26373,-0.23199462890625,0.08062744140625,0.968994140625,1.487884521484375,-3.050537109375,0.28411865234375,1.0,4.0,4.0,1.0,2.0,80.0,event
10:44:04.739,1.1352116,0.7842221,1.3198969,0.9219916,0.59822243,0.74541616,1.0683987,1.0210733,1.0885099,0.7793102,0.16260327,1.1024917,1.5113465,0.8121927,-0.29632983,0.5912406,0.7211893,0.23924837,-0.68479574,0.35353312,777.25275,143.44322,807.47253,798.60803,1073.0037,-0.23199462890625,0.08062744140625,0.968994140625,1.487884521484375,-3.050537109375,0.28411865234375,1.0,4.0,4.0,1.0,2.0,80.0,event
10:44:04.740,1.1352116,0.7842221,1.3198969,0.9219916,0.59822243,0.74541616,1.0683987,1.0210733,1.0885099,0.7793102,0.16260327,1.1024917,1.5113465,0.8121927,-0.29632983,0.5912406,0.7211893,0.23924837,-0.68479574,0.35353312,720.0366,977.9121,811.50183,792.96704,740.989,-0.23199462890625,0.08062744140625,0.968994140625,1.487884521484375,-3.050537109375,0.28411865234375,1.0,4.0,4.0,1.0,2.0,80.0,event
10:44:04.740,1.1352116,0.7842221,1.3198969,0.9219916,0.59822243,0.74541616,1.0683987,1.0210733,1.0885099,0.7793102,0.16260327,1.1024917,1.5113465,0.8121927,-0.29632983,0.5912406,0.7211893,0.23924837,-0.68479574,0.35353312,952.52747,290.91574,809.4872,800.6227,1062.1245,-0.23199462890625,0.08062744140625,0.968994140625,1.487884521484375,-3.050537109375,0.28411865234375,1.0,4.0,4.0,1.0,2.0,80.0,event
10:44:04.741,1.1352116,0.7842221,1.3198969,0.9219916,0.59822243,0.74541616,1.0683987,1.0210733,1.0885099,0.7793102,0.16260327,1.1024917,1.5113465,0.8121927,-0.29632983,0.5912406,0.7211893,0.23924837,-0.68479574,0.35353312,583.0403,860.65936,809.89014,794.57874,712.7839,-0.23199462890625,0.08062744140625,0.968994140625,1.487884521484375,-3.050537109375,0.28411865234375,1.0,4.0,4.0,1.0,2.0,80.0,event
10:44:04.742,1.1352116,0.7842221,1.3198969,0.9219916,0.59822243,0.74541616,1.0683987,1.0210733,1.0885099,0.7793102,0.16260327,1.1024917,1.5113465,0.8121927,-0.29632983,0.5912406,0.7211893,0.23924837,-0.68479574,0.35353312,1389.7069,1148.7546,804.2491,815.9341,688.20514,-0.23199462890625,0.08062744140625,0.968994140625,1.487884521484375,-3.050537109375,0.28411865234375,1.0,4.0,4.0,1.0,2.0,80.0,event
10:44:04.742,1.1352116,0.7842221,1.3198969,0.9219916,0.59822243,0.74541616,1.0683987,1.0210733,1.0885099,0.7793102,0.16260327,1.1024917,1.5113465,0.8121927,-0.29632983,0.5912406,0.7211893,0.23924837,-0.68479574,0.35353312,920.696,830.84247,806.26373,806.26373,736.1539,-0.23199462890625,0.08062744140625,0.968994140625,1.487884521484375,-3.050537109375,0.28411865234375,1.0,4.0,4.0,1.0,2.0,80.0,event
10:44:04.771,1.1352116,0.7842221,1.3198969,0.9219916,0.59822243,0.74541616,1.0683987,1.0210733,1.0885099,0.7793102,0.16260327,1.1024917,1.5113465,0.8121927,-0.29632983,0.5912406,0.7211893,0.23924837,-0.68479574,0.35353312,1523.8828,1246.2638,803.44324,806.26373,765.9707,-0.24090576171875,0.0791015625,0.96197509765625,2.534637451171875,-2.27294921875,-0.58319091796875,1.0,4.0,4.0,1.0,2.0,80.0,event
10:44:04.772,1.1352116,0.7842221,1.3198969,0.9219916,0.59822243,0.74541616,1.0683987,1.0210733,1.0885099,0.7793102,0.16260327,1.1024917,1.5113465,0.8121927,-0.29632983,0.5912406,0.7211893,0.23924837,-0.68479574,0.35353312,1140.2931,936.0073,802.6374,803.0403,823.1868,-0.24090576171875,0.0791015625,0.96197509765625,2.534637451171875,-2.27294921875,-0.58319091796875,1.0,4.0,4.0,1.0,2.0,80.0,event
10:44:04.772,1.1352116,0.7842221,1.3198969,0.9219916,0.59822243,0.74541616,1.0683987,1.0210733,1.0885099,0.7793102,0.16260327,1.1024917,1.5113465,0.8121927,-0.29632983,0.5912406,0.7211893,0.23924837,-0.68479574,0.35353312,856.2271,767.5824,804.65204,805.4579,713.1868,-0.24090576171875,0.0791015625,0.96197509765625,2.534637451171875,-2.27294921875,-0.58319091796875,1.0,4.0,4.0,1.0,2.0,80.0,event
10:44:04.773,1.1352116,0.7842221,1.3198969,0.9219916,0.59822243,0.74541616,1.0683987,1.0210733,1.0885099,0.7793102,0.16260327,1.1024917,1.5113465,0.8121927,-0.29632983,0.5912406,0.7211893,0.23924837,-0.68479574,0.35353312,1101.6117,1023.8461,807.8755,805.8608,659.59705,-0.24090576171875,0.0791015625,0.96197509765625,2.534637451171875,-2.27294921875,-0.58319091796875,1.0,4.0,4.0,1.0,2.0,80.0,event
10:44:04.773,1.1352116,0.7842221,1.3198969,0.9219916,0.59822243,0.74541616,1.0683987,1.0210733,1.0885099,0.7793102,0.16260327,1.1024917,1.5113465,0.8121927,-0.29632983,0.5912406,0.7211893,0.23924837,-0.68479574,0.35353312,1495.2748,1162.8572,807.0696,806.26373,736.9597,-0.24090576171875,0.0791015625,0.96197509765625,2.534637451171875,-2.27294921875,-0.58319091796875,1.0,4.0,4.0,1.0,2.0,80.0,event
10:44:04.774,1.1352116,0.7842221,1.3198969,0.9219916,0.59822243,0.74541616,1.0683987,1.0210733,1.0885099,0.7793102,0.16260327,1.1024917,1.5113465,0.8121927,-0.29632983,0.5912406,0.7211893,0.23924837,-0.68479574,0.35353312,1645.5677,801.8315,806.26373,803.8461,950.10986,-0.24090576171875,0.0791015625,0.96197509765625,2.534637451171875,-2.27294921875,-0.58319091796875,1.0,4.0,4.0,1.0,2.0,80.0,event
10:44:04.774,1.1352116,0.7842221,1.3198969,0.9219916,0.59822243,0.74541616,1.0683987,1.0210733,1.0885099,0.7793102,0.16260327,1.1024917,1.5113465,0.8121927,-0.29632983,0.5912406,0.7211893,0.23924837,-0.68479574,0.35353312,1452.967,585.8608,807.47253,801.02563,936.8132,-0.24090576171875,0.0791015625,0.96197509765625,2.534637451171875,-2.27294921875,-0.58319091796875,1.0,4.0,4.0,1.0,2.0,80.0,event
10:44:04.775,1.1352116,0.7842221,1.2889614,0.9219916,0.59822243,0.74541616,1.025681,1.0210733,1.0885099,0.7793102,0.1335686,1.1024917,1.5113465,0.8121927,-0.32157585,0.5912406,0.7211893,0.23924837,-0.696059,0.35353312,1228.1318,788.1319,808.2784,803.8461,738.97437,-0.24090576171875,0.0791015625,0.96197509765625,2.534637451171875,-2.27294921875,-0.58319091796875,1.0,4.0,4.0,1.0,2.0,80.0,event
10:44:04.778,1.1352116,0.7842221,1.2889614,0.9219916,0.59822243,0.74541616,1.025681,1.0210733,1.0885099,0.7793102,0.1335686,1.1024917,1.5113465,0.8121927,-0.32157585,0.5912406,0.7211893,0.23924837,-0.696059,0.35353312,1409.0476,863.0769,809.4872,796.5934,755.4945,-0.24090576171875,0.0791015625,0.96197509765625,2.534637451171875,-2.27294921875,-0.58319091796875,1.0,4.0,4.0,1.0,2.0,80.0,event
10:44:04.779,1.1352116,0.7842221,1.2889614,0.9219916,0.59822243,0.74541616,1.025681,1.0210733,1.0885099,0.7793102,0.1335686,1.1024917,1.5113465,0.8121927,-0.32157585,0.5912406,0.7211893,0.23924837,-0.696059,0.35353312,1634.6886,256.26373,815.9341,807.8755,989.19415,-0.24090576171875,0.0791015625,0.96197509765625,2.534637451171875,-2.27294921875,-0.58319091796875,1.0,4.0,4.0,1.0,2.0,80.0,event
10:44:04.779,1.1352116,0.7842221,1.2889614,0.9219916,0.59822243,0.74541616,1.025681,1.0210733,1.0885099,0.7793102,0.1335686,1.1024917,1.5113465,0.8121927,-0.32157585,0.5912406,0.7211893,0.23924837,-0.696059,0.35353312,1617.3627,418.24176,810.696,799.011,941.6484,-0.24090576171875,0.0791015625,0.96197509765625,2.534637451171875,-2.27294921875,-0.58319091796875,1.0,4.0,4.0,1.0,2.0,80.0,event
10:44:04.780,1.1352116,0.7842221,1.2889614,0.9219916,0.59822243,0.74541616,1.025681,1.0210733,1.0885099,0.7793102,0.1335686,1.1024917,1.5113465,0.8121927,-0.32157585,0.5912406,0.7211893,0.23924837,-0.696059,0.35353312,1603.2601,941.6484,813.91943,804.2491,749.45056,-0.24090576171875,0.0791015625,0.96197509765625,2.534637451171875,-2.27294921875,-0.58319091796875,1.0,4.0,4.0,1.0,2.0,80.0,event
10:44:04.816,1.1352116,0.7842221,1.2889614,0.9219916,0.59822243,0.74541616,1.025681,1.0210733,1.0885099,0.7793102,0.1335686,1.1024917,1.5113465,0.8121927,-0.32157585,0.5912406,0.7211893,0.23924837,-0.696059,0.35353312,1361.9048,1016.5934,808.68134,802.23444,740.18317,-0.2352294921875,0.0777587890625,0.9661865234375,2.04864501953125,-5.046844482421875,0.515899658203125,1.0,4.0,4.0,1.0,2.0,80.0,event
10:44:04.817,1.1352116,0.7842221,1.2889614,0.9219916,0.59822243,0.74541616,1.025681,1.0210733,1.0885099,0.7793102,0.1335686,1.1024917,1.5113465,0.8121927,-0.32157585,0.5912406,0.7211893,0.23924837,-0.696059,0.35353312,1383.663,826.0073,807.8755,796.1905,774.43225,-0.2352294921875,0.0777587890625,0.9661865234375,2.04864501953125,-5.046844482421875,0.515899658203125,1.0,4.0,4.0,1.0,2.0,80.0,event
10:44:04.817,1.1352116,0.7842221,1.2889614,0.9219916,0.59822243,0.74541616,1.025681,1.0210733,1.0885099,0.7793102,0.1335686,1.1024917,1.5113465,0.8121927,-0.32157585,0.5912406,0.7211893,0.23924837,-0.696059,0.35353312,1603.2601,1043.1868,805.4579,788.93774,671.685,-0.2352294921875,0.0777587890625,0.9661865234375,2.04864501953125,-5.046844482421875,0.515899658203125,1.0,4.0,4.0,1.0,2.0,80.0,event
10:44:04.818,1.1352116,0.7842221,1.2889614,0.9219916,0.59822243,0.74541616,1.025681,1.0210733,1.0885099,0.7793102,0.1335686,1.1024917,1.5113465,0.8121927,-0.32157585,0.5912406,0.7211893,0.23924837,-0.696059,0.35353312,1646.7766,1251.5018,802.6374,797.8022,742.1978,-0.2352294921875,0.0777587890625,0.9661865234375,2.04864501953125,-5.046844482421875,0.515899658203125,1.0,4.0,4.0,1.0,2.0,80.0,event
10:44:04.819,1.1352116,0.7842221,1.2889614,0.9219916,0.59822243,0.74541616,1.025681,1.0210733,1.0885099,0.7793102,0.1335686,1.1024917,1.5113465,0.8121927,-0.32157585,0.5912406,0.7211893,0.23924837,-0.696059,0.35353312,1557.326,1075.8242,804.2491,791.3553,807.47253,-0.2352294921875,0.0777587890625,0.9661865234375,2.04864501953125,-5.046844482421875,0.515899658203125,1.0,4.0,4.0,1.0,2.0,80.0,event
10:44:04.821,1.1352116,0.7842221,1.2889614,0.9219916,0.59822243,0.74541616,1.025681,1.0210733,1.0885099,0.7793102,0.1335686,1.1024917,1.5113465,0.8121927,-0.32157585,0.5912406,0.7211893,0.23924837,-0.696059,0.35353312,1240.2197,655.16486,802.6374,777.25275,888.0586,-0.2352294921875,0.0777587890625,0.9661865234375,2.04864501953125,-5.046844482421875,0.515899658203125,1.0,4.0,4.0,1.0,2.0,80.0,event
10:44:04.822,1.1352116,0.7842221,1.2889614,0.9219916,0.59822243,0.74541616,1.025681,1.0210733,1.0885099,0.7793102,0.1335686,1.1024917,1.5113465,0.8121927,-0.32157585,0.5912406,0.7211893,0.23924837,-0.696059,0.35353312,1218.4615,645.09155,802.23444,785.7143,896.52014,-0.2352294921875,0.0777587890625,0.9661865234375,2.04864501953125,-5.046844482421875,0.515899658203125,1.0,4.0,4.0,1.0,2.0,80.0,event
10:44:04.823,1.1352116,0.7842221,1.2889614,0.9219916,0.59822243,0.74541616,1.025681,1.0210733,1.0885099,0.7793102,0.1335686,1.1024917,1.5113465,0.8121927,-0.32157585,0.5912406,0.7211893,0.23924837,-0.696059,0.35353312,1492.4542,1027.8755,804.2491,795.78754,725.2747,-0.2352294921875,0.0777587890625,0.9661865234375,2.04864501953125,-5.046844482421875,0.515899658203125,1.0,4.0,4.0,1.0,2.0,80.0,event
10:44:04.823,1.1352116,0.7842221,1.2889614,0.9219916,0.59822243,0.74541616,1.025681,1.0210733,1.0885099,0.7793102,0.1335686,1.1024917,1.5113465,0.8121927,-0.32157585,0.5912406,0.7211893,0.23924837,-0.696059,0.35353312,1631.0623,963.4066,804.2491,794.9817,751.06226,-0.2352294921875,0.0777587890625,0.9661865234375,2.04864501953125,-5.046844482421875,0.515899658203125,1.0,4.0,4.0,1.0,2.0,80.0,event
10:44:04.824,1.1352116,0.7842221,1.2889614,0.9219916,0.59822243,0.74541616,1.025681,1.0210733,1.0885099,0.7793102,0.1335686,1.1024917,1.5113465,0.8121927,-0.32157585,0.5912406,0.7211893,0.23924837,-0.696059,0.35353312,1446.9231,242.96703,803.0403,794.57874,1018.20514,-0.2352294921875,0.0777587890625,0.9661865234375,2.04864501953125,-5.046844482421875,0.515899658203125,1.0,4.0,4.0,1.0,2.0,80.0,event
10:44:04.825,1.1352116,0.7842221,1.2889614,0.9219916,0.59822243,0.74541616,1.025681,1.0210733,1.0885099,0.7793102,0.1335686,1.1024917,1.5113465,0.8121927,-0.32157585,0.5912406,0.7211893,0.23924837,-0.696059,0.35353312,1079.4506,493.99268,807.47253,790.14655,820.7692,-0.2352294921875,0.0777587890625,0.9661865234375,2.04864501953125,-5.046844482421875,0.515899658203125,1.0,4.0,4.0,1.0,2.0,80.0,event
10:44:04.826,1.1352116,0.7842221,1.2889614,0.9219916,0.59822243,0.74541616,1.025681,1.0210733,1.0885099,0.7793102,0.1335686,1.1024917,1.5113465,0.8121927,-0.32157585,0.5912406,0.7211893,0.23924837,-0.696059,0.35353312,1044.7986,849.3773,808.2784,794.57874,691.02563,-0.2352294921875,0.0777587890625,0.9661865234375,2.04864501953125,-5.046844482421875,0.515899658203125,1.0,4.0,4.0,1.0,2.0,80.0,event
10:44:04.880,1.1352116,0.7842221,1.2889614,0.9219916,0.59822243,0.74541616,1.025681,1.0210733,1.0885099,0.7793102,0.1335686,1.1024917,1.5113465,0.8121927,-0.32157585,0.5912406,0.7211893,0.23924837,-0.696059,0.35353312,1361.5018,709.15753,807.47253,801.4286,793.36993,-0.24334716796875,0.0736083984375,0.96044921875,2.026214599609375,-3.48419189453125,0.40374755859375,1.0,4.0,4.0,1.0,2.0,80.0,event
10:44:04.881,1.1352116,0.7842221,1.2889614,0.9219916,0.59822243,0.74541616,1.025681,1.0210733,1.0885099,0.7793102,0.1335686,1.1024917,1.5113465,0.8121927,-0.32157585,0.5912406,0.7211893,0.23924837,-0.696059,0.35353312,1619.7803,809.0842,805.8608,795.78754,788.93774,-0.24334716796875,0.0736083984375,0.96044921875,2.026214599609375,-3.48419189453125,0.40374755859375,1.0,4.0,4.0,1.0,2.0,80.0,event
10:44:04.882,1.1352116,0.7842221,1.2889614,0.9219916,0.59822243,0.74541616,1.025681,1.0210733,1.0885099,0.7793102,0.1335686,1.1024917,1.5113465,0.8121927,-0.32157585,0.5912406,0.7211893,0.23924837,-0.696059,0.35353312,1544.4323,1081.8682,801.4286,789.34064,731.31866,-0.24334716796875,0.0736083984375,0.96044921875,2.026214599609375,-3.48419189453125,0.40374755859375,1.0,4.0,4.0,1.0,2.0,80.0,event
10:44:04.883,1.1352116,0.7842221,1.2889614,0.9219916,0.59822243,0.74541616,1.025681,1.0210733,1.0885099,0.7793102,0.1335686,1.1024917,1.5113465,0.8121927,-0.32157585,0.5912406,0.7211893,0.23924837,-0.696059,0.35353312,1145.1282,1033.5165,802.6374,784.90845,713.1868,-0.24334716796875,0.0736083984375,0.96044921875,2.026214599609375,-3.48419189453125,0.40374755859375,1.0,4.0,4.0,1.0,2.0,80.0,event
10:44:04.883,1.1352116,0.7842221,1.2889614,0.9219916,0.59822243,0.74541616,1.025681,1.0210733,1.0885099,0.7793102,0.1335686,1.1024917,1.5113465,0.8121927,-0.32157585,0.5912406,0.7211893,0.23924837,-0.696059,0.35353312,1008.93774,806.6667,802.23444,788.93774,774.0293,-0.24334716796875,0.0736083984375,0.96044921875,2.026214599609375,-3.48419189453125,0.40374755859375,1.0,4.0,4.0,1.0,2.0,80.0,event
10:44:04.884,1.1352116,0.7842221,1.2889614,0.9219916,0.59822243,0.74541616,1.025681,1.0210733,1.0885099,0.7793102,0.1335686,1.1024917,1.5113465,0.8121927,-0.32157585,0.5912406,0.7211893,0.23924837,-0.696059,0.35353312,1297.033,723.663,802.6374,807.8755,810.293,-0.24334716796875,0.0736083984375,0.96044921875,2.026214599609375,-3.48419189453125,0.40374755859375,1.0,4.0,4.0,1.0,2.0,80.0,event
10:44:04.885,1.1352116,0.7842221,1.2889614,0.9219916,0.59822243,0.74541616,1.025681,1.0210733,1.0885099,0.7793102,0.1335686,1.1024917,1.5113465,0.8121927,-0.32157585,0.5912406,0.7211893,0.23924837,-0.696059,0.35353312,1601.2454,793.7729,806.6667,813.5165,792.96704,-0.24334716796875,0.0736083984375,0.96044921875,2.026214599609375,-3.48419189453125,0.40374755859375,1.0,4.0,4.0,1.0,2.0,80.0,event
10:44:04.885,1.1352116,0.7842221,1.2889614,0.9219916,0.59822243,0.74541616,1.025681,1.0210733,1.0885099,0.7793102,0.1335686,1.1024917,1.5113465,0.8121927,-0.32157585,0.5912406,0.7211893,0.23924837,-0.696059,0.35353312,1568.608,1004.90845,807.0696,800.2198,731.31866,-0.24334716796875,0.0736083984375,0.96044921875,2.026214599609375,-3.48419189453125,0.40374755859375,1.0,4.0,4.0,1.0,2.0,80.0,event
10:44:04.886,1.1352116,0.7842221,1.2889614,0.9219916,0.59822243,0.74541616,1.025681,1.0210733,1.0885099,0.7793102,0.1335686,1.1024917,1.5113465,0.8121927,-0.32157585,0.5912406,0.7211893,0.23924837,-0.696059,0.35353312,1124.1758,527.4359,807.0696,795.38464,949.707,-0.24334716796875,0.0736083984375,0.96044921875,2.026214599609375,-3.48419189453125,0.40374755859375,1.0,4.0,4.0,1.0,2.0,80.0,event
10:44:04.887,1.1352116,0.7842221,1.2309453,0.9219916,0.59822243,0.74541616,0.961867,1.0210733,1.0885099,0.7793102,0.10477202,1.1024917,1.5113465,0.8121927,-0.33895397,0.5912406,0.7211893,0.23924837,-0.6979827,0.35353312,898.1319,311.86813,809.4872,799.011,982.74725,-0.24334716796875,0.0736083984375,0.96044921875,2.026214599609375,-3.48419189453125,0.40374755859375,1.0,4.0,4.0,1.0,2.0,80.0,event
10:44:04.891,1.1352116,0.7842221,1.2309453,0.9219916,0.59822243,0.74541616,0.961867,1.0210733,1.0885099,0.7793102,0.10477202,1.1024917,1.5113465,0.8121927,-0.33895397,0.5912406,0.7211893,0.23924837,-0.6979827,0.35353312,1189.4506,1002.49084,813.5165,805.05493,648.315,-0.24334716796875,0.0736083984375,0.96044921875,2.026214599609375,-3.48419189453125,0.40374755859375,1.0,4.0,4.0,1.0,2.0,80.0,event
10:44:04.892,1.1352116,0.7842221,1.2309453,0.9219916,0.59822243,0.74541616,0.961867,1.0210733,1.0885099,0.7793102,0.10477202,1.1024917,1.5113465,0.8121927,-0.33895397,0.5912406,0.7211893,0.23924837,-0.6979827,0.35353312,1540.403,1122.967,811.9048,813.1135,666.04395,-0.24334716796875,0.0736083984375,0.96044921875,2.026214599609375,-3.48419189453125,0.40374755859375,1.0,4.0,4.0,1.0,2.0,80.0,event
10:44:04.915,1.1352116,0.7842221,1.2309453,0.9219916,0.59822243,0.74541616,0.961867,1.0210733,1.0885099,0.7793102,0.10477202,1.1024917,1.5113465,0.8121927,-0.33895397,0.5912406,0.7211893,0.23924837,-0.6979827,0.35353312,1519.0476,881.6117,811.0989,813.1135,745.82416,-0.24334716796875,0.0736083984375,0.96044921875,2.026214599609375,-3.48419189453125,0.40374755859375,1.0,4.0,4.0,1.0,2.0,80.0,event
10:44:04.916,1.1352116,0.7842221,1.2309453,0.9219916,0.59822243,0.74541616,0.961867,1.0210733,1.0885099,0.7793102,0.10477202,1.1024917,1.5113465,0.8121927,-0.33895397,0.5912406,0.7211893,0.23924837,-0.6979827,0.35353312,1089.9268,880.40295,809.0842,810.696,701.50183,-0.24334716796875,0.0736083984375,0.96044921875,2.026214599609375,-3.48419189453125,0.40374755859375,1.0,4.0,4.0,1.0,2.0,80.0,event
10:44:04.917,1.1352116,0.7842221,1.2309453,0.9219916,0.59822243,0.74541616,0.961867,1.0210733,1.0885099,0.7793102,0.10477202,1.1024917,1.5113465,0.8121927,-0.33895397,0.5912406,0.7211893,0.23924837,-0.6979827,0.35353312,850.58606,892.49084,807.8755,807.8755,748.24176,-0.24334716796875,0.0736083984375,0.96044921875,2.026214599609375,-3.48419189453125,0.40374755859375,1.0,4.0,4.0,1.0,2.0,80.0,event
10:44:04.918,1.1352116,0.7842221,1.2309453,0.9219916,0.59822243,0.74541616,0.961867,1.0210733,1.0885099,0.7793102,0.10477202,1.1024917,1.5113465,0.8121927,-0.33895397,0.5912406,0.7211893,0.23924837,-0.6979827,0.35353312,1031.5018,877.5824,808.68134,799.81683,802.6374,-0.24334716796875,0.0736083984375,0.96044921875,2.026214599609375,-3.48419189453125,0.40374755859375,1.0,4.0,4.0,1.0,2.0,80.0,event
10:44:04.918,1.1352116,0.7842221,1.2309453,0.9219916,0.59822243,0.74541616,0.961867,1.0210733,1.0885099,0.7793102,0.10477202,1.1024917,1.5113465,0.8121927,-0.33895397,0.5912406,0.7211893,0.23924837,-0.6979827,0.35353312,1358.6813,676.9231,808.68134,815.12823,857.03296,-0.24334716796875,0.0736083984375,0.96044921875,2.026214599609375,-3.48419189453125,0.40374755859375,1.0,4.0,4.0,1.0,2.0,80.0,event
10:44:04.919,1.1352116,0.7842221,1.2309453,0.9219916,0.59822243,0.74541616,0.961867,1.0210733,1.0885099,0.7793102,0.10477202,1.1024917,1.5113465,0.8121927,-0.33895397,0.5912406,0.7211893,0.23924837,-0.6979827,0.35353312,1419.5238,723.2601,813.5165,831.2454,846.55676,-0.24334716796875,0.0736083984375,0.96044921875,2.026214599609375,-3.48419189453125,0.40374755859375,1.0,4.0,4.0,1.0,2.0,80.0,event
10:44:04.920,1.1352116,0.7842221,1.2309453,0.9219916,0.59822243,0.74541616,0.961867,1.0210733,1.0885099,0.7793102,0.10477202,1.1024917,1.5113465,0.8121927,-0.33895397,0.5912406,0.7211893,0.23924837,-0.6979827,0.35353312,995.64105,747.4359,809.0842,826.0073,857.4359,-0.24334716796875,0.0736083984375,0.96044921875,2.026214599609375,-3.48419189453125,0.40374755859375,1.0,4.0,4.0,1.0,2.0,80.0,event
10:44:04.920,1.1352116,0.7842221,1.2309453,0.9219916,0.59822243,0.74541616,0.961867,1.0210733,1.0885099,0.7793102,0.10477202,1.1024917,1.5113465,0.8121927,-0.33895397,0.5912406,0.7211893,0.23924837,-0.6979827,0.35353312,676.1172,579.81683,807.0696,815.9341,824.3956,-0.24334716796875,0.0736083984375,0.96044921875,2.026214599609375,-3.48419189453125,0.40374755859375,1.0,4.0,4.0,1.0,2.0,80.0,event
10:44:04.921,1.1352116,0.7842221,1.2309453,0.9219916,0.59822243,0.74541616,0.961867,1.0210733,1.0885099,0.7793102,0.10477202,1.1024917,1.5113465,0.8121927,-0.33895397,0.5912406,0.7211893,0.23924837,-0.6979827,0.35353312,805.8608,220.80586,808.68134,814.7253,969.85345,-0.24334716796875,0.0736083984375,0.96044921875,2.026214599609375,-3.48419189453125,0.40374755859375,1.0,4.0,4.0,1.0,2.0,80.0,event
10:44:04.922,1.1352116,0.7842221,1.2309453,0.9219916,0.59822243,0.74541616,0.961867,1.0210733,1.0885099,0.7793102,0.10477202,1.1024917,1.5113465,0.8121927,-0.33895397,0.5912406,0.7211893,0.23924837,-0.6979827,0.35353312,1195.0916,710.3663,805.05493,816.7399,896.1172,-0.24334716796875,0.0736083984375,0.96044921875,2.026214599609375,-3.48419189453125,0.40374755859375,1.0,4.0,4.0,1.0,2.0,80.0,event
10:44:04.922,1.1352116,0.7842221,1.2309453,0.9219916,0.59822243,0.74541616,0.961867,1.0210733,1.0885099,0.7793102,0.10477202,1.1024917,1.5113465,0.8121927,-0.33895397,0.5912406,0.7211893,0.23924837,-0.6979827,0.35353312,1331.6849,1165.2748,806.6667,809.0842,772.8205,-0.24334716796875,0.0736083984375,0.96044921875,2.026214599609375,-3.48419189453125,0.40374755859375,1.0,4.0,4.0,1.0,2.0,80.0,event
10:44:04.923,1.1352116,0.7842221,1.2309453,0.9219916,0.59822243,0.74541616,0.961867,1.0210733,1.0885099,0.7793102,0.10477202,1.1024917,1.5113465,0.8121927,-0.33895397,0.5912406,0.7211893,0.23924837,-0.6979827,0.35353312,902.5641,884.43225,808.2784,809.89014,811.9048,-0.24334716796875,0.0736083984375,0.96044921875,2.026214599609375,-3.48419189453125,0.40374755859375,1.0,4.0,4.0,1.0,2.0,80.0,event
10:44:04.945,1.1352116,0.7842221,1.2309453,0.9219916,0.59822243,0.74541616,0.961867,1.0210733,1.0885099,0.7793102,0.10477202,1.1024917,1.5113465,0.8121927,-0.33895397,0.5912406,0.7211893,0.23924837,-0.6979827,0.35353312,528.6447,850.18317,806.6667,816.7399,816.7399,-0.23358154296875,0.08270263671875,0.9617919921875,2.2430419921875,-3.476715087890625,-0.859832763671875,1.0,4.0,4.0,1.0,2.0,80.0,event
10:44:04.946,1.1352116,0.7842221,1.2309453,0.9219916,0.59822243,0.74541616,0.961867,1.0210733,1.0885099,0.7793102,0.10477202,1.1024917,1.5113465,0.8121927,-0.33895397,0.5912406,0.7211893,0.23924837,-0.6979827,0.35353312,624.1392,1112.8938,807.8755,807.0696,736.9597,-0.23358154296875,0.08270263671875,0.9617919921875,2.2430419921875,-3.476715087890625,-0.859832763671875,1.0,4.0,4.0,1.0,2.0,80.0,event
10:44:04.947,1.1352116,0.7842221,1.2309453,0.9219916,0.59822243,0.74541616,0.961867,1.0210733,1.0885099,0.7793102,0.10477202,1.1024917,1.5113465,0.8121927,-0.33895397,0.5912406,0.7211893,0.23924837,-0.6979827,0.35353312,925.5311,1191.4652,806.6667,800.6227,734.5421,-0.23358154296875,0.08270263671875,0.9617919921875,2.2430419921875,-3.476715087890625,-0.859832763671875,1.0,4.0,4.0,1.0,2.0,80.0,event
10:44:04.948,1.1352116,0.7842221,1.2309453,0.9219916,0.59822243,0.74541616,0.961867,1.0210733,1.0885099,0.7793102,0.10477202,1.1024917,1.5113465,0.8121927,-0.33895397,0.5912406,0.7211893,0.23924837,-0.6979827,0.35353312,1025.4579,991.2088,805.4579,803.0403,838.9011,-0.23358154296875,0.08270263671875,0.9617919921875,2.2430419921875,-3.476715087890625,-0.859832763671875,1.0,4.0,4.0,1.0,2.0,80.0,event
10:44:04.948,1.1352116,0.7842221,1.2309453,0.9219916,0.59822243,0.74541616,0.961867,1.0210733,1.0885099,0.7793102,0.10477202,1.1024917,1.5113465,0.8121927,-0.33895397,0.5912406,0.7211893,0.23924837,-0.6979827,0.35353312,599.9634,880.0,805.8608,793.7729,809.4872,-0.23358154296875,0.08270263671875,0.9617919921875,2.2430419921875,-3.476715087890625,-0.859832763671875,1.0,4.0,4.0,1.0,2.0,80.0,event
10:44:04.949,1.1352116,0.7842221,1.2309453,0.9219916,0.59822243,0.74541616,0.961867,1.0210733,1.0885099,0.7793102,0.10477202,1.1024917,1.5113465,0.8121927,-0.33895397,0.5912406,0.7211893,0.23924837,-0.6979827,0.35353312,173.26007,735.7509,808.2784,794.57874,727.28937,-0.23358154296875,0.08270263671875,0.9617919921875,2.2430419921875,-3.476715087890625,-0.859832763671875,1.0,4.0,4.0,1.0,2.0,80.0,event
10:44:04.950,1.1352116,0.7842221,1.2309453,0.9219916,0.59822243,0.74541616,0.961867,1.0210733,1.0885099,0.7793102,0.10477202,1.1024917,1.5113465,0.8121927,-0.33895397,0.5912406,0.7211893,0.23924837,-0.6979827,0.35353312,176.48352,675.7143,811.50183,801.4286,720.4396,-0.23358154296875,0.08270263671875,0.9617919921875,2.2430419921875,-3.476715087890625,-0.859832763671875,1.0,4.0,4.0,1.0,2.0,80.0,event
10:44:04.950,1.1352116,0.7842221,1.2309453,0.9219916,0.59822243,0.74541616,0.961867,1.0210733,1.0885099,0.7793102,0.10477202,1.1024917,1.5113465,0.8121927,-0.33895397,0.5912406,0.7211893,0.23924837,-0.6979827,0.35353312,385.6044,392.45422,812.3077,805.4579,989.19415,-0.23358154296875,0.08270263671875,0.9617919921875,2.2430419921875,-3.476715087890625,-0.859832763671875,1.0,4.0,4.0,1.0,2.0,80.0,event
10:44:04.951,1.1352116,0.7842221,1.2309453,0.9219916,0.59822243,0.74541616,0.961867,1.0210733,1.0885099,0.7793102,0.10477202,1.1024917,1.5113465,0.8121927,-0.33895397,0.5912406,0.7211893,0.23924837,-0.6979827,0.35353312,547.1795,67.289375,811.50183,807.0696,1162.0513,-0.23358154296875,0.08270263671875,0.9617919921875,2.2430419921875,-3.476715087890625,-0.859832763671875,1.0,4.0,4.0,1.0,2.0,80.0,event
10:44:04.951,1.1352116,0.7842221,1.2309453,0.9219916,0.59822243,0.74541616,0.961867,1.0210733,1.0885099,0.7793102,0.10477202,1.1024917,1.5113465,0.8121927,-0.33895397,0.5912406,0.7211893,0.23924837,-0.6979827,0.35353312,288.9011,733.73627,808.68134,799.41394,833.663,-0.23358154296875,0.08270263671875,0.9617919921875,2.2430419921875,-3.476715087890625,-0.859832763671875,1.0,4.0,4.0,1.0,2.0,80.0,event
10:44:04.952,1.1352116,0.7842221,1.2309453,0.9219916,0.59822243,0.74541616,0.961867,1.0210733,1.0885099,0.7793102,0.10477202,1.1024917,1.5113465,0.8121927,-0.33895397,0.5912406,0.7211893,0.23924837,-0.6979827,0.35353312,0.8058608,1002.0879,805.8608,792.5641,716.8132,-0.23358154296875,0.08270263671875,0.9617919921875,2.2430419921875,-3.476715087890625,-0.859832763671875,1.0,4.0,4.0,1.0,2.0,80.0,event
10:44:04.953,1.1352116,0.7842221,1.1612444,0.9219916,0.59822243,0.74541616,0.8862148,1.0210733,1.0885099,0.7793102,0.10323623,1.1024917,1.5113465,0.8121927,-0.34540078,0.5912406,0.7211893,0.23924837,-0.7015084,0.35353312,0.0,770.80585,805.05493,790.54944,765.9707,-0.23358154296875,0.08270263671875,0.9617919921875,2.2430419921875,-3.476715087890625,-0.859832763671875,1.0,4.0,4.0,1.0,2.0,80.0,event
10:44:04.983,1.1352116,0.7842221,1.1612444,0.9219916,0.59822243,0.74541616,0.8862148,1.0210733,1.0885099,0.7793102,0.10323623,1.1024917,1.5113465,0.8121927,-0.34540078,0.5912406,0.7211893,0.23924837,-0.7015084,0.35353312,166.81319,1006.52014,805.8608,792.5641,720.4396,-0.23443603515625,0.0819091796875,0.95843505859375,1.308441162109375,-5.0543212890625,0.82244873046875,1.0,4.0,4.0,1.0,2.0,80.0,event
10:44:04.985,1.1352116,0.7842221,1.1612444,0.9219916,0.59822243,0.74541616,0.8862148,1.0210733,1.0885099,0.7793102,0.10323623,1.1024917,1.5113465,0.8121927,-0.34540078,0.5912406,0.7211893,0.23924837,-0.7015084,0.35353312,340.07327,1216.8499,807.0696,798.60803,738.97437,-0.23443603515625,0.0819091796875,0.95843505859375,1.308441162109375,-5.0543212890625,0.82244873046875,1.0,4.0,4.0,1.0,2.0,80.0,event
10:44:04.986,1.1352116,0.7842221,1.1612444,0.9219916,0.59822243,0.74541616,0.8862148,1.0210733,1.0885099,0.7793102,0.10323623,1.1024917,1.5113465,0.8121927,-0.34540078,0.5912406,0.7211893,0.23924837,-0.7015084,0.35353312,116.446884,974.2857,806.6667,799.41394,770.40295,-0.23443603515625,0.0819091796875,0.95843505859375,1.308441162109375,-5.0543212890625,0.82244873046875,1.0,4.0,4.0,1.0,2.0,80.0,event
10:44:04.987,1.1352116,0.7842221,1.1612444,0.9219916,0.59822243,0.74541616,0.8862148,1.0210733,1.0885099,0.7793102,0.10323623,1.1024917,1.5113465,0.8121927,-0.34540078,0.5912406,0.7211893,0.23924837,-0.7015084,0.35353312,0.0,724.87177,807.47253,794.57874,792.96704,-0.23443603515625,0.0819091796875,0.95843505859375,1.308441162109375,-5.0543212890625,0.82244873046875,1.0,4.0,4.0,1.0,2.0,80.0,event
10:44:04.988,1.1352116,0.7842221,1.1612444,0.9219916,0.59822243,0.74541616,0.8862148,1.0210733,1.0885099,0.7793102,0.10323623,1.1024917,1.5113465,0.8121927,-0.34540078,0.5912406,0.7211893,0.23924837,-0.7015084,0.35353312,4.029304,869.12085,809.4872,802.23444,734.1392,-0.23443603515625,0.0819091796875,0.95843505859375,1.308441162109375,-5.0543212890625,0.82244873046875,1.0,4.0,4.0,1.0,2.0,80.0,event
10:44:04.989,1.1352116,0.7842221,1.1612444,0.9219916,0.59822243,0.74541616,0.8862148,1.0210733,1.0885099,0.7793102,0.10323623,1.1024917,1.5113465,0.8121927,-0.34540078,0.5912406,0.7211893,0.23924837,-0.7015084,0.35353312,8.461538,872.74725,811.9048,802.23444,761.13556,-0.23443603515625,0.0819091796875,0.95843505859375,1.308441162109375,-5.0543212890625,0.82244873046875,1.0,4.0,4.0,1.0,2.0,80.0,event
10:44:04.990,1.1352116,0.7842221,1.1612444,0.9219916,0.59822243,0.74541616,0.8862148,1.0210733,1.0885099,0.7793102,0.10323623,1.1024917,1.5113465,0.8121927,-0.34540078,0.5912406,0.7211893,0.23924837,-0.7015084,0.35353312,125.71429,697.8755,811.0989,799.011,946.4835,-0.23443603515625,0.0819091796875,0.95843505859375,1.308441162109375,-5.0543212890625,0.82244873046875,1.0,4.0,4.0,1.0,2.0,80.0,event
10:44:04.991,1.1352116,0.7842221,1.1612444,0.9219916,0.59822243,0.74541616,0.8862148,1.0210733,1.0885099,0.7793102,0.10323623,1.1024917,1.5113465,0.8121927,-0.34540078,0.5912406,0.7211893,0.23924837,-0.7015084,0.35353312,50.3663,213.95604,805.8608,797.3993,1114.9084,-0.23443603515625,0.0819091796875,0.95843505859375,1.308441162109375,-5.0543212890625,0.82244873046875,1.0,4.0,4.0,1.0,2.0,80.0,event
10:44:04.992,1.1352116,0.7842221,1.1612444,0.9219916,0.59822243,0.74541616,0.8862148,1.0210733,1.0885099,0.7793102,0.10323623,1.1024917,1.5113465,0.8121927,-0.34540078,0.5912406,0.7211893,0.23924837,-0.7015084,0.35353312,0.0,371.90475,804.2491,793.36993,924.7253,-0.23443603515625,0.0819091796875,0.95843505859375,1.308441162109375,-5.0543212890625,0.82244873046875,1.0,4.0,4.0,1.0,2.0,80.0,event
10:44:04.993,1.1352116,0.7842221,1.1612444,0.9219916,0.59822243,0.74541616,0.8862148,1.0210733,1.0885099,0.7793102,0.10323623,1.1024917,1.5113465,0.8121927,-0.34540078,0.5912406,0.7211893,0.23924837,-0.7015084,0.35353312,3.2234433,921.0989,806.26373,786.1172,740.18317,-0.23443603515625,0.0819091796875,0.95843505859375,1.308441162109375,-5.0543212890625,0.82244873046875,1.0,4.0,4.0,1.0,2.0,80.0,event
10:44:04.994,1.1352116,0.7842221,1.1612444,0.9219916,0.59822243,0.74541616,0.8862148,1.0210733,1.0885099,0.7793102,0.10323623,1.1024917,1.5113465,0.8121927,-0.34540078,0.5912406,0.7211893,0.23924837,-0.7015084,0.35353312,0.0,919.4872,806.26373,793.7729,807.47253,-0.23443603515625,0.0819091796875,0.95843505859375,1.308441162109375,-5.0543212890625,0.82244873046875,1.0,4.0,4.0,1.0,2.0,80.0,event
10:44:04.995,1.1352116,0.7842221,1.1612444,0.9219916,0.59822243,0.74541616,0.8862148,1.0210733,1.0885099,0.7793102,0.10323623,1.1024917,1.5113465,0.8121927,-0.34540078,0.5912406,0.7211893,0.23924837,-0.7015084,0.35353312,284.06595,790.9524,805.4579,803.44324,850.18317,-0.23443603515625,0.0819091796875,0.95843505859375,1.308441162109375,-5.0543212890625,0.82244873046875,1.0,4.0,4.0,1.0,2.0,80.0,event
10:44:05.048,1.1352116,0.7842221,1.1612444,0.9219916,0.59822243,0.74541616,0.8862148,1.0210733,1.0885099,0.7793102,0.10323623,1.1024917,1.5113465,0.8121927,-0.34540078,0.5912406,0.7211893,0.23924837,-0.7015084,0.35353312,336.4469,1019.81683,808.2784,798.60803,759.5238,-0.2392578125,0.07659912109375,0.95465087890625,2.04864501953125,-3.940277099609375,-0.785064697265625,1.0,4.0,4.0,1.0,2.0,80.0,event
10:44:05.050,1.1352116,0.7842221,1.1612444,0.9219916,0.59822243,0.74541616,0.8862148,1.0210733,1.0885099,0.7793102,0.10323623,1.1024917,1.5113465,0.8121927,-0.34540078,0.5912406,0.7211893,0.23924837,-0.7015084,0.35353312,8.461538,814.7253,814.3223,804.65204,772.8205,-0.2392578125,0.07659912109375,0.95465087890625,2.04864501953125,-3.940277099609375,-0.785064697265625,1.0,4.0,4.0,1.0,2.0,80.0,event
10:44:05.050,1.1352116,0.7842221,1.1612444,0.9219916,0.59822243,0.74541616,0.8862148,1.0210733,1.0885099,0.7793102,0.10323623,1.1024917,1.5113465,0.8121927,-0.34540078,0.5912406,0.7211893,0.23924837,-0.7015084,0.35353312,33.846153,1034.7252,812.3077,810.293,740.989,-0.2392578125,0.07659912109375,0.95465087890625,2.04864501953125,-3.940277099609375,-0.785064697265625,1.0,4.0,4.0,1.0,2.0,80.0,event
10:44:05.051,1.1352116,0.7842221,1.1612444,0.9219916,0.59822243,0.74541616,0.8862148,1.0210733,1.0885099,0.7793102,0.10323623,1.1024917,1.5113465,0.8121927,-0.34540078,0.5912406,0.7211893,0.23924837,-0.7015084,0.35353312,406.95972,929.5604,811.9048,791.3553,752.674,-0.2392578125,0.07659912109375,0.95465087890625,2.04864501953125,-3.940277099609375,-0.785064697265625,1.0,4.0,4.0,1.0,2.0,80.0,event
10:44:05.051,1.1352116,0.7842221,1.1612444,0.9219916,0.59822243,0.74541616,0.8862148,1.0210733,1.0885099,0.7793102,0.10323623,1.1024917,1.5113465,0.8121927,-0.34540078,0.5912406,0.7211893,0.23924837,-0.7015084,0.35353312,901.3553,1130.6227,808.2784,795.38464,721.2454,-0.2392578125,0.07659912109375,0.95465087890625,2.04864501953125,-3.940277099609375,-0.785064697265625,1.0,4.0,4.0,1.0,2.0,80.0,event
10:44:05.052,1.1352116,0.7842221,1.1612444,0.9219916,0.59822243,0.74541616,0.8862148,1.0210733,1.0885099,0.7793102,0.10323623,1.1024917,1.5113465,0.8121927,-0.34540078,0.5912406,0.7211893,0.23924837,-0.7015084,0.35353312,979.5238,942.0513,803.44324,792.96704,834.87177,-0.2392578125,0.07659912109375,0.95465087890625,2.04864501953125,-3.940277099609375,-0.785064697265625,1.0,4.0,4.0,1.0,2.0,80.0,event
10:44:05.053,1.1352116,0.7842221,1.1612444,0.9219916,0.59822243,0.74541616,0.8862148,1.0210733,1.0885099,0.7793102,0.10323623,1.1024917,1.5113465,0.8121927,-0.34540078,0.5912406,0.7211893,0.23924837,-0.7015084,0.35353312,626.9597,371.90475,801.4286,795.78754,1035.9341,-0.2392578125,0.07659912109375,0.95465087890625,2.04864501953125,-3.940277099609375,-0.785064697265625,1.0,4.0,4.0,1.0,2.0,80.0,event
10:44:05.053,1.1352116,0.7842221,1.1612444,0.9219916,0.59822243,0.74541616,0.8862148,1.0210733,1.0885099,0.7793102,0.10323623,1.1024917,1.5113465,0.8121927,-0.34540078,0.5912406,0.7211893,0.23924837,-0.7015084,0.35353312,527.4359,244.57875,807.47253,807.0696,960.989,-0.2392578125,0.07659912109375,0.95465087890625,2.04864501953125,-3.940277099609375,-0.785064697265625,1.0,4.0,4.0,1.0,2.0,80.0,event
10:44:05.054,1.1352116,0.7842221,1.1612444,0.9219916,0.59822243,0.74541616,0.8862148,1.0210733,1.0885099,0.7793102,0.10323623,1.1024917,1.5113465,0.8121927,-0.34540078,0.5912406,0.7211893,0.23924837,-0.7015084,0.35353312,919.89014,1007.326,808.2784,795.38464,740.989,-0.2392578125,0.07659912109375,0.95465087890625,2.04864501953125,-3.940277099609375,-0.785064697265625,1.0,4.0,4.0,1.0,2.0,80.0,event
10:44:05.055,1.1352116,0.7842221,1.1612444,0.9219916,0.59822243,0.74541616,0.8862148,1.0210733,1.0885099,0.7793102,0.10323623,1.1024917,1.5113465,0.8121927,-0.34540078,0.5912406,0.7211893,0.23924837,-0.7015084,0.35353312,1333.2968,1216.8499,806.6667,790.14655,760.7326,-0.2392578125,0.07659912109375,0.95465087890625,2.04864501953125,-3.940277099609375,-0.785064697265625,1.0,4.0,4.0,1.0,2.0,80.0,event
10:44:05.055,1.1352116,0.7842221,1.1612444,0.9219916,0.59822243,0.74541616,0.8862148,1.0210733,1.0885099,0.7793102,0.10323623,1.1024917,1.5113465,0.8121927,-0.34540078,0.5912406,0.7211893,0.23924837,-0.7015084,0.35353312,1405.0183,949.304,802.23444,792.5641,836.8865,-0.2392578125,0.07659912109375,0.95465087890625,2.04864501953125,-3.940277099609375,-0.785064697265625,1.0,4.0,4.0,1.0,2.0,80.0,event
10:44:05.056,1.1352116,0.7842221,1.1612444,0.9219916,0.59822243,0.74541616,0.8862148,1.0210733,1.0885099,0.7793102,0.10323623,1.1024917,1.5113465,0.8121927,-0.34540078,0.5912406,0.7211893,0.23924837,-0.7015084,0.35353312,1080.2565,860.65936,802.23444,796.5934,852.1978,-0.2392578125,0.07659912109375,0.95465087890625,2.04864501953125,-3.940277099609375,-0.785064697265625,1.0,4.0,4.0,1.0,2.0,80.0,event
10:44:05.083,1.1352116,0.7842221,1.1612444,0.9219916,0.59822243,0.74541616,0.8862148,1.0210733,1.0885099,0.7793102,0.10323623,1.1024917,1.5113465,0.8121927,-0.34540078,0.5912406,0.7211893,0.23924837,-0.7015084,0.35353312,903.7729,919.89014,805.4579,800.2198,784.5055,-0.2274169921875,0.079345703125,0.96221923828125,2.953338623046875,-4.523468017578125,-0.97198486328125,1.0,4.0,4.0,1.0,2.0,80.0,event
10:44:05.084,1.1352116,0.7842221,1.0999352,0.9219916,0.59822243,0.74541616,0.8008666,1.0210733,1.0885099,0.7793102,0.10818388,1.1024917,1.5113465,0.8121927,-0.3405669,0.5912406,0.7211893,0.23924837,-0.7083256,0.35353312,1183.4066,962.1978,803.8461,793.36993,693.8461,-0.2274169921875,0.079345703125,0.96221923828125,2.953338623046875,-4.523468017578125,-0.97198486328125,1.0,4.0,4.0,1.0,2.0,80.0,event
10:44:05.088,1.1352116,0.7842221,1.0999352,0.9219916,0.59822243,0.74541616,0.8008666,1.0210733,1.0885099,0.7793102,0.10818388,1.1024917,1.5113465,0.8121927,-0.3405669,0.5912406,0.7211893,0.23924837,-0.7083256,0.35353312,1534.359,660.0,805.8608,795.78754,833.2601,-0.2274169921875,0.079345703125,0.96221923828125,2.953338623046875,-4.523468017578125,-0.97198486328125,1.0,4.0,4.0,1.0,2.0,80.0,event
10:44:05.089,1.1352116,0.7842221,1.0999352,0.9219916,0.59822243,0.74541616,0.8008666,1.0210733,1.0885099,0.7793102,0.10818388,1.1024917,1.5113465,0.8121927,-0.3405669,0.5912406,0.7211893,0.23924837,-0.7083256,0.35353312,1641.5385,922.3077,804.2491,793.36993,803.0403,-0.2274169921875,0.079345703125,0.96221923828125,2.953338623046875,-4.523468017578125,-0.97198486328125,1.0,4.0,4.0,1.0,2.0,80.0,event
10:44:05.089,1.1352116,0.7842221,1.0999352,0.9219916,0.59822243,0.74541616,0.8008666,1.0210733,1.0885099,0.7793102,0.10818388,1.1024917,1.5113465,0.8121927,-0.3405669,0.5912406,0.7211893,0.23924837,-0.7083256,0.35353312,1419.5238,1104.4323,803.44324,791.75824,670.07324,-0.2274169921875,0.079345703125,0.96221923828125,2.953338623046875,-4.523468017578125,-0.97198486328125,1.0,4.0,4.0,1.0,2.0,80.0,event
10:44:05.090,1.1352116,0.7842221,1.0999352,0.9219916,0.59822243,0.74541616,0.8008666,1.0210733,1.0885099,0.7793102,0.10818388,1.1024917,1.5113465,0.8121927,-0.3405669,0.5912406,0.7211893,0.23924837,-0.7083256,0.35353312,1177.7656,740.18317,805.8608,793.36993,870.32965,-0.2274169921875,0.079345703125,0.96221923828125,2.953338623046875,-4.523468017578125,-0.97198486328125,1.0,4.0,4.0,1.0,2.0,80.0,event
10:44:05.090,1.1352116,0.7842221,1.0999352,0.9219916,0.59822243,0.74541616,0.8008666,1.0210733,1.0885099,0.7793102,0.10818388,1.1024917,1.5113465,0.8121927,-0.3405669,0.5912406,0.7211893,0.23924837,-0.7083256,0.35353312,1351.0256,270.76923,803.8461,803.44324,1175.348,-0.2274169921875,0.079345703125,0.96221923828125,2.953338623046875,-4.523468017578125,-0.97198486328125,1.0,4.0,4.0,1.0,2.0,80.0,event
10:44:05.091,1.1352116,0.7842221,1.0999352,0.9219916,0.59822243,0.74541616,0.8008666,1.0210733,1.0885099,0.7793102,0.10818388,1.1024917,1.5113465,0.8121927,-0.3405669,0.5912406,0.7211893,0.23924837,-0.7083256,0.35353312,1600.0366,771.2088,806.26373,801.8315,895.31134,-0.2274169921875,0.079345703125,0.96221923828125,2.953338623046875,-4.523468017578125,-0.97198486328125,1.0,4.0,4.0,1.0,2.0,80.0,event
10:44:05.092,1.1352116,0.7842221,1.0999352,0.9219916,0.59822243,0.74541616,0.8008666,1.0210733,1.0885099,0.7793102,0.10818388,1.1024917,1.5113465,0.8121927,-0.3405669,0.5912406,0.7211893,0.23924837,-0.7083256,0.35353312,1649.597,1199.5238,804.2491,803.44324,612.4542,-0.2274169921875,0.079345703125,0.96221923828125,2.953338623046875,-4.523468017578125,-0.97198486328125,1.0,4.0,4.0,1.0,2.0,80.0,event
10:44:05.092,1.1352116,0.7842221,1.0999352,0.9219916,0.59822243,0.74541616,0.8008666,1.0210733,1.0885099,0.7793102,0.10818388,1.1024917,1.5113465,0.8121927,-0.3405669,0.5912406,0.7211893,0.23924837,-0.7083256,0.35353312,1553.6996,903.7729,804.2491,810.293,731.31866,-0.2274169921875,0.079345703125,0.96221923828125,2.953338623046875,-4.523468017578125,-0.97198486328125,1.0,4.0,4.0,1.0,2.0,80.0,event
10:44:05.093,1.1352116,0.7842221,1.0999352,0.9219916,0.59822243,0.74541616,0.8008666,1.0210733,1.0885099,0.7793102,0.10818388,1.1024917,1.5113465,0.8121927,-0.3405669,0.5912406,0.7211893,0.23924837,-0.7083256,0.35353312,1381.6483,830.84247,807.8755,802.23444,766.77655,-0.2274169921875,0.079345703125,0.96221923828125,2.953338623046875,-4.523468017578125,-0.97198486328125,1.0,4.0,4.0,1.0,2.0,80.0,event
10:44:05.094,1.1352116,0.7842221,1.0999352,0.9219916,0.59822243,0.74541616,0.8008666,1.0210733,1.0885099,0.7793102,0.10818388,1.1024917,1.5113465,0.8121927,-0.3405669,0.5912406,0.7211893,0.23924837,-0.7083256,0.35353312,1535.9707,1065.751,807.0696,795.38464,667.6557,-0.2274169921875,0.079345703125,0.96221923828125,2.953338623046875,-4.523468017578125,-0.97198486328125,1.0,4.0,4.0,1.0,2.0,80.0,event
10:44:05.149,1.1352116,0.7842221,1.0999352,0.9219916,0.59822243,0.74541616,0.8008666,1.0210733,1.0885099,0.7793102,0.10818388,1.1024917,1.5113465,0.8121927,-0.3405669,0.5912406,0.7211893,0.23924837,-0.7083256,0.35353312,1639.1208,1215.238,805.05493,801.8315,729.304,-0.2274169921875,0.079345703125,0.96221923828125,2.953338623046875,-4.523468017578125,-0.97198486328125,1.0,4.0,4.0,1.0,2.0,80.0,event
10:44:05.150,1.1352116,0.7842221,1.0999352,0.9219916,0.59822243,0.74541616,0.8008666,1.0210733,1.0885099,0.7793102,0.10818388,1.1024917,1.5113465,0.8121927,-0.3405669,0.5912406,0.7211893,0.23924837,-0.7083256,0.35353312,1613.7362,851.79486,802.23444,802.6374,789.7436,-0.2274169921875,0.079345703125,0.96221923828125,2.953338623046875,-4.523468017578125,-0.97198486328125,1.0,4.0,4.0,1.0,2.0,80.0,event
10:44:05.150,1.1352116,0.7842221,1.0999352,0.9219916,0.59822243,0.74541616,0.8008666,1.0210733,1.0885099,0.7793102,0.10818388,1.1024917,1.5113465,0.8121927,-0.3405669,0.5912406,0.7211893,0.23924837,-0.7083256,0.35353312,1627.4359,1070.989,803.0403,812.3077,830.4396,-0.2274169921875,0.079345703125,0.96221923828125,2.953338623046875,-4.523468017578125,-0.97198486328125,1.0,4.0,4.0,1.0,2.0,80.0,event
10:44:05.151,1.1352116,0.7842221,1.0999352,0.9219916,0.59822243,0.74541616,0.8008666,1.0210733,1.0885099,0.7793102,0.10818388,1.1024917,1.5113465,0.8121927,-0.3405669,0.5912406,0.7211893,0.23924837,-0.7083256,0.35353312,1361.0989,718.4249,803.8461,799.81683,764.35895,-0.2274169921875,0.079345703125,0.96221923828125,2.953338623046875,-4.523468017578125,-0.97198486328125,1.0,4.0,4.0,1.0,2.0,80.0,event
10:44:05.152,1.1352116,0.7842221,1.0999352,0.9219916,0.59822243,0.74541616,0.8008666,1.0210733,1.0885099,0.7793102,0.10818388,1.1024917,1.5113465,0.8121927,-0.3405669,0.5912406,0.7211893,0.23924837,-0.7083256,0.35353312,1403.0037,896.1172,804.65204,799.81683,697.8755,-0.2274169921875,0.079345703125,0.96221923828125,2.953338623046875,-4.523468017578125,-0.97198486328125,1.0,4.0,4.0,1.0,2.0,80.0,event
10:44:05.152,1.1352116,0.7842221,1.0999352,0.9219916,0.59822243,0.74541616,0.8008666,1.0210733,1.0885099,0.7793102,0.10818388,1.1024917,1.5113465,0.8121927,-0.3405669,0.5912406,0.7211893,0.23924837,-0.7083256,0.35353312,1616.5568,638.6447,799.81683,798.20514,848.1685,-0.2274169921875,0.079345703125,0.96221923828125,2.953338623046875,-4.523468017578125,-0.97198486328125,1.0,4.0,4.0,1.0,2.0,80.0,event
10:44:05.153,1.1352116,0.7842221,1.0999352,0.9219916,0.59822243,0.74541616,0.8008666,1.0210733,1.0885099,0.7793102,0.10818388,1.1024917,1.5113465,0.8121927,-0.3405669,0.5912406,0.7211893,0.23924837,-0.7083256,0.35353312,1637.5092,47.545788,795.38464,796.99634,1178.5714,-0.2274169921875,0.079345703125,0.96221923828125,2.953338623046875,-4.523468017578125,-0.97198486328125,1.0,4.0,4.0,1.0,2.0,80.0,event
10:44:05.154,1.1352116,0.7842221,1.0999352,0.9219916,0.59822243,0.74541616,0.8008666,1.0210733,1.0885099,0.7793102,0.10818388,1.1024917,1.5113465,0.8121927,-0.3405669,0.5912406,0.7211893,0.23924837,-0.7083256,0.35353312,1593.1868,637.03296,799.011,796.5934,885.64105,-0.2274169921875,0.079345703125,0.96221923828125,2.953338623046875,-4.523468017578125,-0.97198486328125,1.0,4.0,4.0,1.0,2.0,80.0,event
10:44:05.154,1.1352116,0.7842221,1.0999352,0.9219916,0.59822243,0.74541616,0.8008666,1.0210733,1.0885099,0.7793102,0.10818388,1.1024917,1.5113465,0.8121927,-0.3405669,0.5912406,0.7211893,0.23924837,-0.7083256,0.35353312,1312.3444,1048.8279,800.6227,808.2784,664.0293,-0.2274169921875,0.079345703125,0.96221923828125,2.953338623046875,-4.523468017578125,-0.97198486328125,1.0,4.0,4.0,1.0,2.0,80.0,event
10:44:05.155,1.1352116,0.7842221,1.0999352,0.9219916,0.59822243,0.74541616,0.8008666,1.0210733,1.0885099,0.7793102,0.10818388,1.1024917,1.5113465,0.8121927,-0.3405669,0.5912406,0.7211893,0.23924837,-0.7083256,0.35353312,1258.3517,749.0476,798.20514,799.81683,793.36993,-0.2274169921875,0.079345703125,0.96221923828125,2.953338623046875,-4.523468017578125,-0.97198486328125,1.0,4.0,4.0,1.0,2.0,80.0,event
10:44:05.156,1.1352116,0.7842221,1.0999352,0.9219916,0.59822243,0.74541616,0.8008666,1.0210733,1.0885099,0.7793102,0.10818388,1.1024917,1.5113465,0.8121927,-0.3405669,0.5912406,0.7211893,0.23924837,-0.7083256,0.35353312,1521.8682,982.74725,801.02563,788.93774,730.9158,-0.2274169921875,0.079345703125,0.96221923828125,2.953338623046875,-4.523468017578125,-0.97198486328125,1.0,4.0,4.0,1.0,2.0,80.0,event
10:44:05.157,1.1352116,0.7842221,1.0999352,0.9219916,0.59822243,0.74541616,0.8008666,1.0210733,1.0885099,0.7793102,0.10818388,1.1024917,1.5113465,0.8121927,-0.3405669,0.5912406,0.7211893,0.23924837,-0.7083256,0.35353312,2.4175825,1239.414,803.44324,796.1905,670.4762,-0.2274169921875,0.079345703125,0.96221923828125,2.953338623046875,-4.523468017578125,-0.97198486328125,1.0,4.0,4.0,1.0,2.0,80.0,event
10:44:05.180,1.1352116,0.7842221,1.0999352,0.9219916,0.59822243,0.74541616,0.8008666,1.0210733,1.0885099,0.7793102,0.10818388,1.1024917,1.5113465,0.8121927,-0.3405669,0.5912406,0.7211893,0.23924837,-0.7083256,0.35353312,1521.4652,1009.7436,802.23444,798.20514,706.337,-0.23583984375,0.0726318359375,0.96258544921875,2.340240478515625,-3.45428466796875,1.487884521484375,1.0,4.0,4.0,1.0,2.0,80.0,event
10:44:05.181,1.1352116,0.7842221,1.0999352,0.9219916,0.59822243,0.74541616,0.8008666,1.0210733,1.0885099,0.7793102,0.10818388,1.1024917,1.5113465,0.8121927,-0.3405669,0.5912406,0.7211893,0.23924837,-0.7083256,0.35353312,1061.7216,970.65936,800.6227,792.5641,751.4652,-0.23583984375,0.0726318359375,0.96258544921875,2.340240478515625,-3.45428466796875,1.487884521484375,1.0,4.0,4.0,1.0,2.0,80.0,event
10:44:05.181,1.1352116,0.7842221,1.0999352,0.9219916,0.59822243,0.74541616,0.8008666,1.0210733,1.0885099,0.7793102,0.10818388,1.1024917,1.5113465,0.8121927,-0.3405669,0.5912406,0.7211893,0.23924837,-0.7083256,0.35353312,1131.0256,756.30035,799.41394,795.78754,737.76556,-0.23583984375,0.0726318359375,0.96258544921875,2.340240478515625,-3.45428466796875,1.487884521484375,1.0,4.0,4.0,1.0,2.0,80.0,event
10:44:05.182,1.1352116,0.7842221,1.0536652,0.9219916,0.59822243,0.74541616,0.6976659,1.0210733,1.0885099,0.7793102,0.10818388,1.1024917,1.5113465,0.8121927,-0.32745945,0.5912406,0.7211893,0.23924837,-0.71643233,0.35353312,1388.0952,1190.2565,802.6374,796.5934,743.8095,-0.23583984375,0.0726318359375,0.96258544921875,2.340240478515625,-3.45428466796875,1.487884521484375,1.0,4.0,4.0,1.0,2.0,80.0,event
10:44:05.185,1.1352116,0.7842221,1.0536652,0.9219916,0.59822243,0.74541616,0.6976659,1.0210733,1.0885099,0.7793102,0.10818388,1.1024917,1.5113465,0.8121927,-0.32745945,0.5912406,0.7211893,0.23924837,-0.71643233,0.35353312,1624.6154,1087.5092,798.60803,800.6227,778.46155,-0.23583984375,0.0726318359375,0.96258544921875,2.340240478515625,-3.45428466796875,1.487884521484375,1.0,4.0,4.0,1.0,2.0,80.0,event
10:44:05.186,1.1352116,0.7842221,1.0536652,0.9219916,0.59822243,0.74541616,0.6976659,1.0210733,1.0885099,0.7793102,0.10818388,1.1024917,1.5113465,0.8121927,-0.32745945,0.5912406,0.7211893,0.23924837,-0.71643233,0.35353312,1433.2234,672.8938,796.99634,791.75824,793.36993,-0.23583984375,0.0726318359375,0.96258544921875,2.340240478515625,-3.45428466796875,1.487884521484375,1.0,4.0,4.0,1.0,2.0,80.0,event
10:44:05.187,1.1352116,0.7842221,1.0536652,0.9219916,0.59822243,0.74541616,0.6976659,1.0210733,1.0885099,0.7793102,0.10818388,1.1024917,1.5113465,0.8121927,-0.32745945,0.5912406,0.7211893,0.23924837,-0.71643233,0.35353312,1058.0952,557.6557,799.81683,786.9231,751.8681,-0.23583984375,0.0726318359375,0.96258544921875,2.340240478515625,-3.45428466796875,1.487884521484375,1.0,4.0,4.0,1.0,2.0,80.0,event
10:44:05.188,1.1352116,0.7842221,1.0536652,0.9219916,0.59822243,0.74541616,0.6976659,1.0210733,1.0885099,0.7793102,0.10818388,1.1024917,1.5113465,0.8121927,-0.32745945,0.5912406,0.7211893,0.23924837,-0.71643233,0.35353312,981.13556,694.65204,794.17584,773.6264,794.17584,-0.23583984375,0.0726318359375,0.96258544921875,2.340240478515625,-3.45428466796875,1.487884521484375,1.0,4.0,4.0,1.0,2.0,80.0,event
10:44:05.189,1.1352116,0.7842221,1.0536652,0.9219916,0.59822243,0.74541616,0.6976659,1.0210733,1.0885099,0.7793102,0.10818388,1.1024917,1.5113465,0.8121927,-0.32745945,0.5912406,0.7211893,0.23924837,-0.71643233,0.35353312,1234.1758,730.5128,790.54944,775.2381,819.9634,-0.23583984375,0.0726318359375,0.96258544921875,2.340240478515625,-3.45428466796875,1.487884521484375,1.0,4.0,4.0,1.0,2.0,80.0,event
10:44:05.190,1.1352116,0.7842221,1.0536652,0.9219916,0.59822243,0.74541616,0.6976659,1.0210733,1.0885099,0.7793102,0.10818388,1.1024917,1.5113465,0.8121927,-0.32745945,0.5912406,0.7211893,0.23924837,-0.71643233,0.35353312,1571.8315,804.2491,801.4286,794.9817,805.4579,-0.23583984375,0.0726318359375,0.96258544921875,2.340240478515625,-3.45428466796875,1.487884521484375,1.0,4.0,4.0,1.0,2.0,80.0,event
10:44:05.192,1.1352116,0.7842221,1.0536652,0.9219916,0.59822243,0.74541616,0.6976659,1.0210733,1.0885099,0.7793102,0.10818388,1.1024917,1.5113465,0.8121927,-0.32745945,0.5912406,0.7211893,0.23924837,-0.71643233,0.35353312,1521.8682,965.0183,802.23444,790.9524,768.3883,-0.23583984375,0.0726318359375,0.96258544921875,2.340240478515625,-3.45428466796875,1.487884521484375,1.0,4.0,4.0,1.0,2.0,80.0,event
10:44:05.193,1.1352116,0.7842221,1.0536652,0.9219916,0.59822243,0.74541616,0.6976659,1.0210733,1.0885099,0.7793102,0.10818388,1.1024917,1.5113465,0.8121927,-0.32745945,0.5912406,0.7211893,0.23924837,-0.71643233,0.35353312,1073.0037,1054.8718,799.011,787.326,682.96704,-0.23583984375,0.0726318359375,0.96258544921875,2.340240478515625,-3.45428466796875,1.487884521484375,1.0,4.0,4.0,1.0,2.0,80.0,event
10:44:05.217,1.1352116,0.7842221,1.0536652,0.9219916,0.59822243,0.74541616,0.6976659,1.0210733,1.0885099,0.7793102,0.10818388,1.1024917,1.5113465,0.8121927,-0.32745945,0.5912406,0.7211893,0.23924837,-0.71643233,0.35353312,886.04395,802.6374,799.41394,799.41394,785.31134,-0.2401123046875,0.08209228515625,0.956298828125,2.908477783203125,-3.2000732421875,1.00189208984375,1.0,4.0,4.0,1.0,2.0,80.0,event
10:44:05.218,1.1352116,0.7842221,1.0536652,0.9219916,0.59822243,0.74541616,0.6976659,1.0210733,1.0885099,0.7793102,0.10818388,1.1024917,1.5113465,0.8121927,-0.32745945,0.5912406,0.7211893,0.23924837,-0.71643233,0.35353312,1121.7583,138.20512,798.60803,803.44324,1098.7913,-0.2401123046875,0.08209228515625,0.956298828125,2.908477783203125,-3.2000732421875,1.00189208984375,1.0,4.0,4.0,1.0,2.0,80.0,event
10:44:05.219,1.1352116,0.7842221,1.0536652,0.9219916,0.59822243,0.74541616,0.6976659,1.0210733,1.0885099,0.7793102,0.10818388,1.1024917,1.5113465,0.8121927,-0.32745945,0.5912406,0.7211893,0.23924837,-0.71643233,0.35353312,1489.6337,611.6484,801.8315,799.011,921.9048,-0.2401123046875,0.08209228515625,0.956298828125,2.908477783203125,-3.2000732421875,1.00189208984375,1.0,4.0,4.0,1.0,2.0,80.0,event
10:44:05.220,1.1352116,0.7842221,1.0536652,0.9219916,0.59822243,0.74541616,0.6976659,1.0210733,1.0885099,0.7793102,0.10818388,1.1024917,1.5113465,0.8121927,-0.32745945,0.5912406,0.7211893,0.23924837,-0.71643233,0.35353312,1486.4103,1155.6044,800.2198,791.75824,741.79486,-0.2401123046875,0.08209228515625,0.956298828125,2.908477783203125,-3.2000732421875,1.00189208984375,1.0,4.0,4.0,1.0,2.0,80.0,event
10:44:05.221,1.1352116,0.7842221,1.0536652,0.9219916,0.59822243,0.74541616,0.6976659,1.0210733,1.0885099,0.7793102,0.10818388,1.1024917,1.5113465,0.8121927,-0.32745945,0.5912406,0.7211893,0.23924837,-0.71643233,0.35353312,1053.663,846.9597,798.20514,789.7436,831.2454,-0.2401123046875,0.08209228515625,0.956298828125,2.908477783203125,-3.2000732421875,1.00189208984375,1.0,4.0,4.0,1.0,2.0,80.0,event
10:44:05.221,1.1352116,0.7842221,1.0536652,0.9219916,0.59822243,0.74541616,0.6976659,1.0210733,1.0885099,0.7793102,0.10818388,1.1024917,1.5113465,0.8121927,-0.32745945,0.5912406,0.7211893,0.23924837,-0.71643233,0.35353312,850.18317,673.69965,800.2198,788.5348,850.989,-0.2401123046875,0.08209228515625,0.956298828125,2.908477783203125,-3.2000732421875,1.00189208984375,1.0,4.0,4.0,1.0,2.0,80.0,event
10:44:05.222,1.1352116,0.7842221,1.0536652,0.9219916,0.59822243,0.74541616,0.6976659,1.0210733,1.0885099,0.7793102,0.10818388,1.1024917,1.5113465,0.8121927,-0.32745945,0.5912406,0.7211893,0.23924837,-0.71643233,0.35353312,1055.6776,735.34796,797.3993,780.07324,793.36993,-0.2401123046875,0.08209228515625,0.956298828125,2.908477783203125,-3.2000732421875,1.00189208984375,1.0,4.0,4.0,1.0,2.0,80.0,event
10:44:05.222,1.1352116,0.7842221,1.0536652,0.9219916,0.59822243,0.74541616,0.6976659,1.0210733,1.0885099,0.7793102,0.10818388,1.1024917,1.5113465,0.8121927,-0.32745945,0.5912406,0.7211893,0.23924837,-0.71643233,0.35353312,1402.1978,1071.392,796.5934,789.7436,713.1868,-0.2401123046875,0.08209228515625,0.956298828125,2.908477783203125,-3.2000732421875,1.00189208984375,1.0,4.0,4.0,1.0,2.0,80.0,event
10:44:05.223,1.1352116,0.7842221,1.0536652,0.9219916,0.59822243,0.74541616,0.6976659,1.0210733,1.0885099,0.7793102,0.10818388,1.1024917,1.5113465,0.8121927,-0.32745945,0.5912406,0.7211893,0.23924837,-0.71643233,0.35353312,1423.956,641.8681,797.8022,801.8315,959.7802,-0.2401123046875,0.08209228515625,0.956298828125,2.908477783203125,-3.2000732421875,1.00189208984375,1.0,4.0,4.0,1.0,2.0,80.0,event
10:44:05.223,1.1352116,0.7842221,1.0536652,0.9219916,0.59822243,0.74541616,0.6976659,1.0210733,1.0885099,0.7793102,0.10818388,1.1024917,1.5113465,0.8121927,-0.32745945,0.5912406,0.7211893,0.23924837,-0.71643233,0.35353312,994.83514,155.1282,801.4286,789.34064,1071.392,-0.2401123046875,0.08209228515625,0.956298828125,2.908477783203125,-3.2000732421875,1.00189208984375,1.0,4.0,4.0,1.0,2.0,80.0,event
10:44:05.224,1.1352116,0.7842221,1.0536652,0.9219916,0.59822243,0.74541616,0.6976659,1.0210733,1.0885099,0.7793102,0.10818388,1.1024917,1.5113465,0.8121927,-0.32745945,0.5912406,0.7211893,0.23924837,-0.71643233,0.35353312,771.6117,866.30035,805.05493,795.78754,703.1135,-0.2401123046875,0.08209228515625,0.956298828125,2.908477783203125,-3.2000732421875,1.00189208984375,1.0,4.0,4.0,1.0,2.0,80.0,event
10:44:05.224,1.1352116,0.7842221,1.0536652,0.9219916,0.59822243,0.74541616,0.6976659,1.0210733,1.0885099,0.7793102,0.10818388,1.1024917,1.5113465,0.8121927,-0.32745945,0.5912406,0.7211893,0.23924837,-0.71643233,0.35353312,938.8278,1104.0293,806.6667,808.68134,642.674,-0.2401123046875,0.08209228515625,0.956298828125,2.908477783203125,-3.2000732421875,1.00189208984375,1.0,4.0,4.0,1.0,2.0,80.0,event
10:44:05.281,1.1352116,0.7842221,1.0536652,0.9219916,0.59822243,0.74541616,0.6976659,1.0210733,1.0885099,0.7793102,0.10818388,1.1024917,1.5113465,0.8121927,-0.32745945,0.5912406,0.7211893,0.23924837,-0.71643233,0.35353312,1266.4103,843.3333,808.68134,791.75824,770.40295,-0.23492431640625,0.0831298828125,0.96441650390625,2.27294921875,-3.207550048828125,0.351409912109375,1.0,4.0,4.0,1.0,2.0,80.0,event
10:44:05.282,1.1352116,0.7842221,1.0536652,0.9219916,0.59822243,0.74541616,0.6976659,1.0210733,1.0885099,0.7793102,0.10818388,1.1024917,1.5113465,0.8121927,-0.32745945,0.5912406,0.7211893,0.23924837,-0.71643233,0.35353312,1398.1685,1038.7546,804.65204,790.9524,768.7912,-0.23492431640625,0.0831298828125,0.96441650390625,2.27294921875,-3.207550048828125,0.351409912109375,1.0,4.0,4.0,1.0,2.0,80.0,event
10:44:05.283,1.1352116,0.7842221,1.0536652,0.9219916,0.59822243,0.74541616,0.6976659,1.0210733,1.0885099,0.7793102,0.10818388,1.1024917,1.5113465,0.8121927,-0.32745945,0.5912406,0.7211893,0.23924837,-0.71643233,0.35353312,719.6337,967.03296,809.89014,807.0696,716.4103,-0.23492431640625,0.0831298828125,0.96441650390625,2.27294921875,-3.207550048828125,0.351409912109375,1.0,4.0,4.0,1.0,2.0,80.0,event
10:44:05.283,1.1352116,0.7842221,1.0536652,0.9219916,0.59822243,0.74541616,0.6976659,1.0210733,1.0885099,0.7793102,0.10818388,1.1024917,1.5113465,0.8121927,-0.32745945,0.5912406,0.7211893,0.23924837,-0.71643233,0.35353312,1033.9194,1149.5604,804.65204,796.99634,702.71063,-0.23492431640625,0.0831298828125,0.96441650390625,2.27294921875,-3.207550048828125,0.351409912109375,1.0,4.0,4.0,1.0,2.0,80.0,event
10:44:05.284,1.1352116,0.7842221,1.0536652,0.9219916,0.59822243,0.74541616,0.6976659,1.0210733,1.0885099,0.7793102,0.10818388,1.1024917,1.5113465,0.8121927,-0.32745945,0.5912406,0.7211893,0.23924837,-0.71643233,0.35353312,830.0366,838.49817,809.89014,811.50183,817.9487,-0.23492431640625,0.0831298828125,0.96441650390625,2.27294921875,-3.207550048828125,0.351409912109375,1.0,4.0,4.0,1.0,2.0,80.0,event
10:44:05.284,1.1352116,0.7842221,1.0109328,0.9219916,0.59822243,0.74541616,0.5781067,1.0210733,1.0885099,0.7793102,0.10818388,1.1024917,1.5113465,0.8121927,-0.30892763,0.5912406,0.7211893,0.23924837,-0.72043574,0.35353312,1151.978,855.0183,807.0696,794.57874,862.674,-0.23492431640625,0.0831298828125,0.96441650390625,2.27294921875,-3.207550048828125,0.351409912109375,1.0,4.0,4.0,1.0,2.0,80.0,event
10:44:05.287,,,,,,,,,,,,,,,,,,,,,,,,,,,,,,,,,,,,,,jaw_clench
10:44:05.288,1.1352116,0.7842221,1.0109328,0.9219916,0.59822243,0.74541616,0.5781067,1.0210733,1.0885099,0.7793102,0.10818388,1.1024917,1.5113465,0.8121927,-0.30892763,0.5912406,0.7211893,0.23924837,-0.72043574,0.35353312,1336.1172,868.315,801.4286,802.6374,845.7509,-0.23492431640625,0.0831298828125,0.96441650390625,2.27294921875,-3.207550048828125,0.351409912109375,1.0,4.0,4.0,1.0,2.0,80.0,event
10:44:05.289,1.1352116,0.7842221,1.0109328,0.9219916,0.59822243,0.74541616,0.5781067,1.0210733,1.0885099,0.7793102,0.10818388,1.1024917,1.5113465,0.8121927,-0.30892763,0.5912406,0.7211893,0.23924837,-0.72043574,0.35353312,1006.1172,719.2308,801.02563,811.9048,824.3956,-0.23492431640625,0.0831298828125,0.96441650390625,2.27294921875,-3.207550048828125,0.351409912109375,1.0,4.0,4.0,1.0,2.0,80.0,event
10:44:05.289,1.1352116,0.7842221,1.0109328,0.9219916,0.59822243,0.74541616,0.5781067,1.0210733,1.0885099,0.7793102,0.10818388,1.1024917,1.5113465,0.8121927,-0.30892763,0.5912406,0.7211893,0.23924837,-0.72043574,0.35353312,609.2308,202.27106,807.47253,805.4579,1006.9231,-0.23492431640625,0.0831298828125,0.96441650390625,2.27294921875,-3.207550048828125,0.351409912109375,1.0,4.0,4.0,1.0,2.0,80.0,event
10:44:05.290,1.1352116,0.7842221,1.0109328,0.9219916,0.59822243,0.74541616,0.5781067,1.0210733,1.0885099,0.7793102,0.10818388,1.1024917,1.5113465,0.8121927,-0.30892763,0.5912406,0.7211893,0.23924837,-0.72043574,0.35353312,729.304,653.1502,810.293,802.6374,857.8388,-0.23492431640625,0.0831298828125,0.96441650390625,2.27294921875,-3.207550048828125,0.351409912109375,1.0,4.0,4.0,1.0,2.0,80.0,event
10:44:05.290,1.1352116,0.7842221,1.0109328,0.9219916,0.59822243,0.74541616,0.5781067,1.0210733,1.0885099,0.7793102,0.10818388,1.1024917,1.5113465,0.8121927,-0.30892763,0.5912406,0.7211893,0.23924837,-0.72043574,0.35353312,1063.3334,1263.1868,807.8755,798.60803,687.8022,-0.23492431640625,0.0831298828125,0.96441650390625,2.27294921875,-3.207550048828125,0.351409912109375,1.0,4.0,4.0,1.0,2.0,80.0,event
10:44:05.291,1.1352116,0.7842221,1.0109328,0.9219916,0.59822243,0.74541616,0.5781067,1.0210733,1.0885099,0.7793102,0.10818388,1.1024917,1.5113465,0.8121927,-0.30892763,0.5912406,0.7211893,0.23924837,-0.72043574,0.35353312,1237.8022,1022.6374,803.8461,796.5934,811.0989,-0.23492431640625,0.0831298828125,0.96441650390625,2.27294921875,-3.207550048828125,0.351409912109375,1.0,4.0,4.0,1.0,2.0,80.0,event
10:44:05.317,1.1352116,0.7842221,1.0109328,0.9219916,0.59822243,0.74541616,0.5781067,1.0210733,1.0885099,0.7793102,0.10818388,1.1024917,1.5113465,0.8121927,-0.30892763,0.5912406,0.7211893,0.23924837,-0.72043574,0.35353312,979.5238,748.24176,804.65204,807.0696,877.98535,-0.2357177734375,0.0792236328125,0.951904296875,2.265472412109375,-3.24493408203125,0.485992431640625,1.0,4.0,4.0,1.0,2.0,80.0,event
10:44:05.318,1.1352116,0.7842221,1.0109328,0.9219916,0.59822243,0.74541616,0.5781067,1.0210733,1.0885099,0.7793102,0.10818388,1.1024917,1.5113465,0.8121927,-0.30892763,0.5912406,0.7211893,0.23924837,-0.72043574,0.35353312,612.4542,969.45056,806.6667,801.02563,799.011,-0.2357177734375,0.0792236328125,0.951904296875,2.265472412109375,-3.24493408203125,0.485992431640625,1.0,4.0,4.0,1.0,2.0,80.0,event
10:44:05.319,1.1352116,0.7842221,1.0109328,0.9219916,0.59822243,0.74541616,0.5781067,1.0210733,1.0885099,0.7793102,0.10818388,1.1024917,1.5113465,0.8121927,-0.30892763,0.5912406,0.7211893,0.23924837,-0.72043574,0.35353312,949.304,892.49084,804.2491,807.47253,805.8608,-0.2357177734375,0.0792236328125,0.951904296875,2.265472412109375,-3.24493408203125,0.485992431640625,1.0,4.0,4.0,1.0,2.0,80.0,event
10:44:05.319,1.1352116,0.7842221,1.0109328,0.9219916,0.59822243,0.74541616,0.5781067,1.0210733,1.0885099,0.7793102,0.10818388,1.1024917,1.5113465,0.8121927,-0.30892763,0.5912406,0.7211893,0.23924837,-0.72043574,0.35353312,670.4762,1165.6776,805.4579,796.1905,718.4249,-0.2357177734375,0.0792236328125,0.951904296875,2.265472412109375,-3.24493408203125,0.485992431640625,1.0,4.0,4.0,1.0,2.0,80.0,event
10:44:05.320,1.1352116,0.7842221,1.0109328,0.9219916,0.59822243,0.74541616,0.5781067,1.0210733,1.0885099,0.7793102,0.10818388,1.1024917,1.5113465,0.8121927,-0.30892763,0.5912406,0.7211893,0.23924837,-0.72043574,0.35353312,1191.8682,826.4103,803.8461,811.0989,870.32965,-0.2357177734375,0.0792236328125,0.951904296875,2.265472412109375,-3.24493408203125,0.485992431640625,1.0,4.0,4.0,1.0,2.0,80.0,event
10:44:05.320,1.1352116,0.7842221,1.0109328,0.9219916,0.59822243,0.74541616,0.5781067,1.0210733,1.0885099,0.7793102,0.10818388,1.1024917,1.5113465,0.8121927,-0.30892763,0.5912406,0.7211893,0.23924837,-0.72043574,0.35353312,1020.2198,882.01465,804.2491,808.2784,872.3443,-0.2357177734375,0.0792236328125,0.951904296875,2.265472412109375,-3.24493408203125,0.485992431640625,1.0,4.0,4.0,1.0,2.0,80.0,event
10:44:05.321,1.1352116,0.7842221,1.0109328,0.9219916,0.59822243,0.74541616,0.5781067,1.0210733,1.0885099,0.7793102,0.10818388,1.1024917,1.5113465,0.8121927,-0.30892763,0.5912406,0.7211893,0.23924837,-0.72043574,0.35353312,589.0842,782.49084,805.8608,808.2784,827.2161,-0.2357177734375,0.0792236328125,0.951904296875,2.265472412109375,-3.24493408203125,0.485992431640625,1.0,4.0,4.0,1.0,2.0,80.0,event
10:44:05.322,1.1352116,0.7842221,1.0109328,0.9219916,0.59822243,0.74541616,0.5781067,1.0210733,1.0885099,0.7793102,0.10818388,1.1024917,1.5113465,0.8121927,-0.30892763,0.5912406,0.7211893,0.23924837,-0.72043574,0.35353312,534.68866,446.84982,807.47253,809.4872,938.8278,-0.2357177734375,0.0792236328125,0.951904296875,2.265472412109375,-3.24493408203125,0.485992431640625,1.0,4.0,4.0,1.0,2.0,80.0,event
10:44:05.322,1.1352116,0.7842221,1.0109328,0.9219916,0.59822243,0.74541616,0.5781067,1.0210733,1.0885099,0.7793102,0.10818388,1.1024917,1.5113465,0.8121927,-0.30892763,0.5912406,0.7211893,0.23924837,-0.72043574,0.35353312,853.00366,348.93774,808.2784,825.6044,937.619,-0.2357177734375,0.0792236328125,0.951904296875,2.265472412109375,-3.24493408203125,0.485992431640625,1.0,4.0,4.0,1.0,2.0,80.0,event
10:44:05.323,1.1352116,0.7842221,1.0109328,0.9219916,0.59822243,0.74541616,0.5781067,1.0210733,1.0885099,0.7793102,0.10818388,1.1024917,1.5113465,0.8121927,-0.30892763,0.5912406,0.7211893,0.23924837,-0.72043574,0.35353312,1177.3627,996.04395,809.4872,818.7546,694.65204,-0.2357177734375,0.0792236328125,0.951904296875,2.265472412109375,-3.24493408203125,0.485992431640625,1.0,4.0,4.0,1.0,2.0,80.0,event
10:44:05.323,1.1352116,0.7842221,1.0109328,0.9219916,0.59822243,0.74541616,0.5781067,1.0210733,1.0885099,0.7793102,0.10818388,1.1024917,1.5113465,0.8121927,-0.30892763,0.5912406,0.7211893,0.23924837,-0.72043574,0.35353312,1023.8461,921.0989,813.1135,801.4286,725.2747,-0.2357177734375,0.0792236328125,0.951904296875,2.265472412109375,-3.24493408203125,0.485992431640625,1.0,4.0,4.0,1.0,2.0,80.0,event
10:44:05.324,1.1352116,0.7842221,1.0109328,0.9219916,0.59822243,0.74541616,0.5781067,1.0210733,1.0885099,0.7793102,0.10818388,1.1024917,1.5113465,0.8121927,-0.30892763,0.5912406,0.7211893,0.23924837,-0.72043574,0.35353312,589.4872,605.2015,811.50183,797.3993,780.07324,-0.2357177734375,0.0792236328125,0.951904296875,2.265472412109375,-3.24493408203125,0.485992431640625,1.0,4.0,4.0,1.0,2.0,80.0,event
10:44:05.349,1.1352116,0.7842221,1.0109328,0.9219916,0.59822243,0.74541616,0.5781067,1.0210733,1.0885099,0.7793102,0.10818388,1.1024917,1.5113465,0.8121927,-0.30892763,0.5912406,0.7211893,0.23924837,-0.72043574,0.35353312,527.03296,928.3516,805.4579,800.6227,714.7985,-0.2357177734375,0.0792236328125,0.951904296875,2.265472412109375,-3.24493408203125,0.485992431640625,1.0,4.0,4.0,1.0,2.0,80.0,event
10:44:05.351,1.1352116,0.7842221,1.0109328,0.9219916,0.59822243,0.74541616,0.5781067,1.0210733,1.0885099,0.7793102,0.10818388,1.1024917,1.5113465,0.8121927,-0.30892763,0.5912406,0.7211893,0.23924837,-0.72043574,0.35353312,1123.773,1133.0403,808.2784,797.3993,798.60803,-0.2357177734375,0.0792236328125,0.951904296875,2.265472412109375,-3.24493408203125,0.485992431640625,1.0,4.0,4.0,1.0,2.0,80.0,event
10:44:05.351,1.1352116,0.7842221,1.0109328,0.9219916,0.59822243,0.74541616,0.5781067,1.0210733,1.0885099,0.7793102,0.10818388,1.1024917,1.5113465,0.8121927,-0.30892763,0.5912406,0.7211893,0.23924837,-0.72043574,0.35353312,833.2601,1212.4176,803.8461,800.2198,671.685,-0.2357177734375,0.0792236328125,0.951904296875,2.265472412109375,-3.24493408203125,0.485992431640625,1.0,4.0,4.0,1.0,2.0,80.0,event
10:44:05.352,1.1352116,0.7842221,1.0109328,0.9219916,0.59822243,0.74541616,0.5781067,1.0210733,1.0885099,0.7793102,0.10818388,1.1024917,1.5113465,0.8121927,-0.30892763,0.5912406,0.7211893,0.23924837,-0.72043574,0.35353312,1000.4762,795.78754,807.8755,800.2198,865.89746,-0.2357177734375,0.0792236328125,0.951904296875,2.265472412109375,-3.24493408203125,0.485992431640625,1.0,4.0,4.0,1.0,2.0,80.0,event
10:44:05.352,1.1352116,0.7842221,1.0109328,0.9219916,0.59822243,0.74541616,0.5781067,1.0210733,1.0885099,0.7793102,0.10818388,1.1024917,1.5113465,0.8121927,-0.30892763,0.5912406,0.7211893,0.23924837,-0.72043574,0.35353312,584.65204,837.28937,805.8608,813.1135,748.24176,-0.2357177734375,0.0792236328125,0.951904296875,2.265472412109375,-3.24493408203125,0.485992431640625,1.0,4.0,4.0,1.0,2.0,80.0,event
10:44:05.353,1.1352116,0.7842221,1.0109328,0.9219916,0.59822243,0.74541616,0.5781067,1.0210733,1.0885099,0.7793102,0.10818388,1.1024917,1.5113465,0.8121927,-0.30892763,0.5912406,0.7211893,0.23924837,-0.72043574,0.35353312,469.4139,888.0586,807.0696,811.9048,770.80585,-0.2357177734375,0.0792236328125,0.951904296875,2.265472412109375,-3.24493408203125,0.485992431640625,1.0,4.0,4.0,1.0,2.0,80.0,event
10:44:05.353,1.1352116,0.7842221,1.0109328,0.9219916,0.59822243,0.74541616,0.5781067,1.0210733,1.0885099,0.7793102,0.10818388,1.1024917,1.5113465,0.8121927,-0.30892763,0.5912406,0.7211893,0.23924837,-0.72043574,0.35353312,703.1135,700.696,809.89014,803.0403,794.17584,-0.2357177734375,0.0792236328125,0.951904296875,2.265472412109375,-3.24493408203125,0.485992431640625,1.0,4.0,4.0,1.0,2.0,80.0,event
10:44:05.354,1.1352116,0.7842221,0.96565455,0.9219916,0.59822243,0.74541616,0.4662711,1.0210733,1.0885099,0.7793102,0.10818388,1.1024917,1.5113465,0.8121927,-0.2896975,0.5912406,0.7211893,0.23924837,-0.7147254,0.35353312,937.2161,160.76923,806.26373,811.50183,993.22345,-0.2357177734375,0.0792236328125,0.951904296875,2.265472412109375,-3.24493408203125,0.485992431640625,1.0,4.0,4.0,1.0,2.0,80.0,event
10:44:05.358,1.1352116,0.7842221,0.96565455,0.9219916,0.59822243,0.74541616,0.4662711,1.0210733,1.0885099,0.7793102,0.10818388,1.1024917,1.5113465,0.8121927,-0.2896975,0.5912406,0.7211893,0.23924837,-0.7147254,0.35353312,915.05493,365.8608,806.6667,813.5165,915.05493,-0.2357177734375,0.0792236328125,0.951904296875,2.265472412109375,-3.24493408203125,0.485992431640625,1.0,4.0,4.0,1.0,2.0,80.0,event
10:44:05.358,1.1352116,0.7842221,0.96565455,0.9219916,0.59822243,0.74541616,0.4662711,1.0210733,1.0885099,0.7793102,0.10818388,1.1024917,1.5113465,0.8121927,-0.2896975,0.5912406,0.7211893,0.23924837,-0.7147254,0.35353312,544.7619,1017.3993,806.6667,807.8755,667.25275,-0.2357177734375,0.0792236328125,0.951904296875,2.265472412109375,-3.24493408203125,0.485992431640625,1.0,4.0,4.0,1.0,2.0,80.0,event
10:44:05.359,1.1352116,0.7842221,0.96565455,0.9219916,0.59822243,0.74541616,0.4662711,1.0210733,1.0885099,0.7793102,0.10818388,1.1024917,1.5113465,0.8121927,-0.2896975,0.5912406,0.7211893,0.23924837,-0.7147254,0.35353312,329.19415,921.9048,808.2784,818.7546,678.93774,-0.2357177734375,0.0792236328125,0.951904296875,2.265472412109375,-3.24493408203125,0.485992431640625,1.0,4.0,4.0,1.0,2.0,80.0,event
10:44:05.359,1.1352116,0.7842221,0.96565455,0.9219916,0.59822243,0.74541616,0.4662711,1.0210733,1.0885099,0.7793102,0.10818388,1.1024917,1.5113465,0.8121927,-0.2896975,0.5912406,0.7211893,0.23924837,-0.7147254,0.35353312,526.2271,937.2161,809.0842,813.91943,705.9341,-0.2357177734375,0.0792236328125,0.951904296875,2.265472412109375,-3.24493408203125,0.485992431640625,1.0,4.0,4.0,1.0,2.0,80.0,event
10:44:05.418,1.1352116,0.7842221,0.96565455,0.9219916,0.59822243,0.74541616,0.4662711,1.0210733,1.0885099,0.7793102,0.10818388,1.1024917,1.5113465,0.8121927,-0.2896975,0.5912406,0.7211893,0.23924837,-0.7147254,0.35353312,849.7802,1147.9487,802.23444,808.68134,688.60803,-0.23321533203125,0.0821533203125,0.9599609375,2.04864501953125,-3.050537109375,1.0467529296875,1.0,4.0,4.0,1.0,2.0,80.0,event
10:44:05.419,1.1352116,0.7842221,0.96565455,0.9219916,0.59822243,0.74541616,0.4662711,1.0210733,1.0885099,0.7793102,0.10818388,1.1024917,1.5113465,0.8121927,-0.2896975,0.5912406,0.7211893,0.23924837,-0.7147254,0.35353312,825.2015,1113.6996,797.8022,809.0842,658.7912,-0.23321533203125,0.0821533203125,0.9599609375,2.04864501953125,-3.050537109375,1.0467529296875,1.0,4.0,4.0,1.0,2.0,80.0,event
10:44:05.420,1.1352116,0.7842221,0.96565455,0.9219916,0.59822243,0.74541616,0.4662711,1.0210733,1.0885099,0.7793102,0.10818388,1.1024917,1.5113465,0.8121927,-0.2896975,0.5912406,0.7211893,0.23924837,-0.7147254,0.35353312,85.82417,832.8571,804.2491,800.6227,722.4542,-0.23321533203125,0.0821533203125,0.9599609375,2.04864501953125,-3.050537109375,1.0467529296875,1.0,4.0,4.0,1.0,2.0,80.0,event
10:44:05.420,1.1352116,0.7842221,0.96565455,0.9219916,0.59822243,0.74541616,0.4662711,1.0210733,1.0885099,0.7793102,0.10818388,1.1024917,1.5113465,0.8121927,-0.2896975,0.5912406,0.7211893,0.23924837,-0.7147254,0.35353312,334.43222,824.3956,801.02563,805.8608,731.31866,-0.23321533203125,0.0821533203125,0.9599609375,2.04864501953125,-3.050537109375,1.0467529296875,1.0,4.0,4.0,1.0,2.0,80.0,event
10:44:05.421,1.1352116,0.7842221,0.96565455,0.9219916,0.59822243,0.74541616,0.4662711,1.0210733,1.0885099,0.7793102,0.10818388,1.1024917,1.5113465,0.8121927,-0.2896975,0.5912406,0.7211893,0.23924837,-0.7147254,0.35353312,291.72162,1047.2161,804.2491,801.8315,702.3077,-0.23321533203125,0.0821533203125,0.9599609375,2.04864501953125,-3.050537109375,1.0467529296875,1.0,4.0,4.0,1.0,2.0,80.0,event
10:44:05.421,1.1352116,0.7842221,0.96565455,0.9219916,0.59822243,0.74541616,0.4662711,1.0210733,1.0885099,0.7793102,0.10818388,1.1024917,1.5113465,0.8121927,-0.2896975,0.5912406,0.7211893,0.23924837,-0.7147254,0.35353312,619.707,922.3077,805.4579,806.26373,776.4469,-0.23321533203125,0.0821533203125,0.9599609375,2.04864501953125,-3.050537109375,1.0467529296875,1.0,4.0,4.0,1.0,2.0,80.0,event
10:44:05.422,1.1352116,0.7842221,0.96565455,0.9219916,0.59822243,0.74541616,0.4662711,1.0210733,1.0885099,0.7793102,0.10818388,1.1024917,1.5113465,0.8121927,-0.2896975,0.5912406,0.7211893,0.23924837,-0.7147254,0.35353312,670.87915,464.1758,807.47253,805.8608,957.76556,-0.23321533203125,0.0821533203125,0.9599609375,2.04864501953125,-3.050537109375,1.0467529296875,1.0,4.0,4.0,1.0,2.0,80.0,event
10:44:05.423,1.1352116,0.7842221,0.96565455,0.9219916,0.59822243,0.74541616,0.4662711,1.0210733,1.0885099,0.7793102,0.10818388,1.1024917,1.5113465,0.8121927,-0.2896975,0.5912406,0.7211893,0.23924837,-0.7147254,0.35353312,262.71063,164.3956,807.47253,803.0403,1070.1831,-0.23321533203125,0.0821533203125,0.9599609375,2.04864501953125,-3.050537109375,1.0467529296875,1.0,4.0,4.0,1.0,2.0,80.0,event
10:44:05.423,1.1352116,0.7842221,0.96565455,0.9219916,0.59822243,0.74541616,0.4662711,1.0210733,1.0885099,0.7793102,0.10818388,1.1024917,1.5113465,0.8121927,-0.2896975,0.5912406,0.7211893,0.23924837,-0.7147254,0.35353312,3.2234433,784.10254,807.0696,803.0403,809.4872,-0.23321533203125,0.0821533203125,0.9599609375,2.04864501953125,-3.050537109375,1.0467529296875,1.0,4.0,4.0,1.0,2.0,80.0,event
10:44:05.424,1.1352116,0.7842221,0.96565455,0.9219916,0.59822243,0.74541616,0.4662711,1.0210733,1.0885099,0.7793102,0.10818388,1.1024917,1.5113465,0.8121927,-0.2896975,0.5912406,0.7211893,0.23924837,-0.7147254,0.35353312,103.553116,1110.0732,806.26373,804.2491,732.9304,-0.23321533203125,0.0821533203125,0.9599609375,2.04864501953125,-3.050537109375,1.0467529296875,1.0,4.0,4.0,1.0,2.0,80.0,event
10:44:05.425,1.1352116,0.7842221,0.96565455,0.9219916,0.59822243,0.74541616,0.4662711,1.0210733,1.0885099,0.7793102,0.10818388,1.1024917,1.5113465,0.8121927,-0.2896975,0.5912406,0.7211893,0.23924837,-0.7147254,0.35353312,356.1905,653.5531,806.26373,815.9341,899.34064,-0.23321533203125,0.0821533203125,0.9599609375,2.04864501953125,-3.050537109375,1.0467529296875,1.0,4.0,4.0,1.0,2.0,80.0,event
10:44:05.426,1.1352116,0.7842221,0.96565455,0.9219916,0.59822243,0.74541616,0.4662711,1.0210733,1.0885099,0.7793102,0.10818388,1.1024917,1.5113465,0.8121927,-0.2896975,0.5912406,0.7211893,0.23924837,-0.7147254,0.35353312,463.7729,820.7692,809.89014,819.9634,828.8278,-0.23321533203125,0.0821533203125,0.9599609375,2.04864501953125,-3.050537109375,1.0467529296875,1.0,4.0,4.0,1.0,2.0,80.0,event
10:44:05.452,1.1352116,0.7842221,0.96565455,0.9219916,0.59822243,0.74541616,0.4662711,1.0210733,1.0885099,0.7793102,0.10818388,1.1024917,1.5113465,0.8121927,-0.2896975,0.5912406,0.7211893,0.23924837,-0.7147254,0.35353312,133.36996,1107.2528,808.2784,812.3077,698.2784,-0.2349853515625,0.08154296875,0.95281982421875,2.25799560546875,-3.6187744140625,0.4486083984375,1.0,4.0,4.0,1.0,2.0,80.0,event
10:44:05.454,1.1352116,0.7842221,0.96565455,0.9219916,0.59822243,0.74541616,0.4662711,1.0210733,1.0885099,0.7793102,0.10818388,1.1024917,1.5113465,0.8121927,-0.2896975,0.5912406,0.7211893,0.23924837,-0.7147254,0.35353312,0.0,912.23444,804.65204,800.6227,718.022,-0.2349853515625,0.08154296875,0.95281982421875,2.25799560546875,-3.6187744140625,0.4486083984375,1.0,4.0,4.0,1.0,2.0,80.0,event
10:44:05.455,1.1352116,0.7842221,0.96565455,0.9219916,0.59822243,0.74541616,0.4662711,1.0210733,1.0885099,0.7793102,0.10818388,1.1024917,1.5113465,0.8121927,-0.2896975,0.5912406,0.7211893,0.23924837,-0.7147254,0.35353312,4.835165,774.43225,803.44324,798.60803,732.1245,-0.2349853515625,0.08154296875,0.95281982421875,2.25799560546875,-3.6187744140625,0.4486083984375,1.0,4.0,4.0,1.0,2.0,80.0,event
10:44:05.457,1.1352116,0.7842221,0.96565455,0.9219916,0.59822243,0.74541616,0.4662711,1.0210733,1.0885099,0.7793102,0.10818388,1.1024917,1.5113465,0.8121927,-0.2896975,0.5912406,0.7211893,0.23924837,-0.7147254,0.35353312,204.68864,985.9707,803.44324,804.65204,755.4945,-0.2349853515625,0.08154296875,0.95281982421875,2.25799560546875,-3.6187744140625,0.4486083984375,1.0,4.0,4.0,1.0,2.0,80.0,event
10:44:05.459,1.1352116,0.7842221,0.96565455,0.9219916,0.59822243,0.74541616,0.4662711,1.0210733,1.0885099,0.7793102,0.10818388,1.1024917,1.5113465,0.8121927,-0.2896975,0.5912406,0.7211893,0.23924837,-0.7147254,0.35353312,432.74725,1178.9744,803.8461,811.50183,798.20514,-0.2349853515625,0.08154296875,0.95281982421875,2.25799560546875,-3.6187744140625,0.4486083984375,1.0,4.0,4.0,1.0,2.0,80.0,event
10:44:05.460,1.1352116,0.7842221,0.96565455,0.9219916,0.59822243,0.74541616,0.4662711,1.0210733,1.0885099,0.7793102,0.10818388,1.1024917,1.5113465,0.8121927,-0.2896975,0.5912406,0.7211893,0.23924837,-0.7147254,0.35353312,155.53113,764.35895,800.2198,799.41394,899.7436,-0.2349853515625,0.08154296875,0.95281982421875,2.25799560546875,-3.6187744140625,0.4486083984375,1.0,4.0,4.0,1.0,2.0,80.0,event
10:44:05.461,1.1352116,0.7842221,0.96565455,0.9219916,0.59822243,0.74541616,0.4662711,1.0210733,1.0885099,0.7793102,0.10818388,1.1024917,1.5113465,0.8121927,-0.2896975,0.5912406,0.7211893,0.23924837,-0.7147254,0.35353312,0.0,151.0989,800.2198,803.44324,1094.762,-0.2349853515625,0.08154296875,0.95281982421875,2.25799560546875,-3.6187744140625,0.4486083984375,1.0,4.0,4.0,1.0,2.0,80.0,event
10:44:05.461,1.1352116,0.7842221,0.96565455,0.9219916,0.59822243,0.74541616,0.4662711,1.0210733,1.0885099,0.7793102,0.10818388,1.1024917,1.5113465,0.8121927,-0.2896975,0.5912406,0.7211893,0.23924837,-0.7147254,0.35353312,1.2087913,600.3663,805.05493,819.15753,855.82416,-0.2349853515625,0.08154296875,0.95281982421875,2.25799560546875,-3.6187744140625,0.4486083984375,1.0,4.0,4.0,1.0,2.0,80.0,event
10:44:05.463,1.1352116,0.7842221,0.96565455,0.9219916,0.59822243,0.74541616,0.4662711,1.0210733,1.0885099,0.7793102,0.10818388,1.1024917,1.5113465,0.8121927,-0.2896975,0.5912406,0.7211893,0.23924837,-0.7147254,0.35353312,179.70695,1108.4615,807.8755,817.1429,622.52747,-0.2349853515625,0.08154296875,0.95281982421875,2.25799560546875,-3.6187744140625,0.4486083984375,1.0,4.0,4.0,1.0,2.0,80.0,event
10:44:05.464,1.1352116,0.7842221,0.9207044,0.9219916,0.59822243,0.74541616,0.39108297,1.0210733,1.0885099,0.7793102,0.10818388,1.1024917,1.5113465,0.8121927,-0.2751012,0.5912406,0.7211893,0.23924837,-0.69886905,0.35353312,354.9817,772.8205,809.0842,813.1135,774.0293,-0.2349853515625,0.08154296875,0.95281982421875,2.25799560546875,-3.6187744140625,0.4486083984375,1.0,4.0,4.0,1.0,2.0,80.0,event
