TimeStamp,Delta_TP9,Delta_AF7,Delta_AF8,Delta_TP10,Theta_TP9,Theta_AF7,Theta_AF8,Theta_TP10,Alpha_TP9,Alpha_AF7,Alpha_AF8,Alpha_TP10,Beta_TP9,Beta_AF7,Beta_AF8,Beta_TP10,Gamma_TP9,Gamma_AF7,Gamma_AF8,Gamma_TP10,RAW_TP9,RAW_AF7,RAW_AF8,RAW_TP10,AUX_RIGHT,Accelerometer_X,Accelerometer_Y,Accelerometer_Z,Gyro_X,Gyro_Y,Gyro_Z,HeadBandOn,HSI_TP9,HSI_AF7,HSI_AF8,HSI_TP10,Battery,Elements
11:49:46.010,-0.026705446,0.27797636,0.2666644,0.33108374,-0.09094201,0.011793942,-0.05414608,0.3506682,0.17325592,0.14575307,0.03145142,0.19476458,0.44032657,0.07690437,0.38953325,0.43775895,0.24896464,0.052347615,0.48580918,0.019408505,810.293,794.9817,773.6264,807.47253,773.6264,-0.1771240234375,0.0474853515625,0.9781494140625,1.6748046875,-3.386993408203125,0.7177734375,1.0,1.0,1.0,1.0,1.0,80.0,event
11:49:46.012,-0.026705446,0.27797636,0.2666644,0.33108374,-0.09094201,0.011793942,-0.05414608,0.3506682,0.17325592,0.14575307,0.03145142,0.19476458,0.44032657,0.07690437,0.38953325,0.43775895,0.24896464,0.052347615,0.48580918,0.019408505,817.1429,795.78754,764.7619,817.1429,882.8205,-0.1771240234375,0.0474853515625,0.9781494140625,1.6748046875,-3.386993408203125,0.7177734375,1.0,1.0,1.0,1.0,1.0,80.0,event
11:49:46.013,-0.026705446,0.27797636,0.2666644,0.33108374,-0.09094201,0.011793942,-0.05414608,0.3506682,0.17325592,0.14575307,0.03145142,0.19476458,0.44032657,0.07690437,0.38953325,0.43775895,0.24896464,0.052347615,0.48580918,0.019408505,800.6227,801.8315,792.1612,803.0403,763.1502,-0.1771240234375,0.0474853515625,0.9781494140625,1.6748046875,-3.386993408203125,0.7177734375,1.0,1.0,1.0,1.0,1.0,80.0,event
11:49:46.013,-0.026705446,0.27797636,0.2666644,0.33108374,-0.09094201,0.011793942,-0.05414608,0.3506682,0.17325592,0.14575307,0.03145142,0.19476458,0.44032657,0.07690437,0.38953325,0.43775895,0.24896464,0.052347615,0.48580918,0.019408505,817.5458,801.4286,788.93774,819.15753,861.06226,-0.1771240234375,0.0474853515625,0.9781494140625,1.6748046875,-3.386993408203125,0.7177734375,1.0,1.0,1.0,1.0,1.0,80.0,event
11:49:46.014,-0.026705446,0.27797636,0.2666644,0.33108374,-0.09094201,0.011793942,-0.05414608,0.3506682,0.17325592,0.14575307,0.03145142,0.19476458,0.44032657,0.07690437,0.38953325,0.43775895,0.24896464,0.052347615,0.48580918,0.019408505,791.75824,804.65204,771.2088,799.41394,724.4689,-0.1771240234375,0.0474853515625,0.9781494140625,1.6748046875,-3.386993408203125,0.7177734375,1.0,1.0,1.0,1.0,1.0,80.0,event
11:49:46.014,-0.026705446,0.27797636,0.2666644,0.33108374,-0.09094201,0.011793942,-0.05414608,0.3506682,0.17325592,0.14575307,0.03145142,0.19476458,0.44032657,0.07690437,0.38953325,0.43775895,0.24896464,0.052347615,0.48580918,0.019408505,801.4286,818.7546,775.2381,809.4872,897.72894,-0.1771240234375,0.0474853515625,0.9781494140625,1.6748046875,-3.386993408203125,0.7177734375,1.0,1.0,1.0,1.0,1.0,80.0,event
11:49:46.015,-0.026705446,0.27797636,0.2666644,0.33108374,-0.09094201,0.011793942,-0.05414608,0.3506682,0.17325592,0.14575307,0.03145142,0.19476458,0.44032657,0.07690437,0.38953325,0.43775895,0.24896464,0.052347615,0.48580918,0.019408505,806.26373,813.5165,797.8022,807.0696,917.0696,-0.1771240234375,0.0474853515625,0.9781494140625,1.6748046875,-3.386993408203125,0.7177734375,1.0,1.0,1.0,1.0,1.0,80.0,event
11:49:46.016,-0.026705446,0.27797636,0.2666644,0.33108374,-0.09094201,0.011793942,-0.05414608,0.3506682,0.17325592,0.14575307,0.03145142,0.19476458,0.44032657,0.07690437,0.38953325,0.43775895,0.24896464,0.052347615,0.48580918,0.019408505,811.50183,796.5934,805.05493,806.6667,799.011,-0.1771240234375,0.0474853515625,0.9781494140625,1.6748046875,-3.386993408203125,0.7177734375,1.0,1.0,1.0,1.0,1.0,80.0,event
11:49:46.016,-0.026705446,0.27797636,0.2666644,0.33108374,-0.09094201,0.011793942,-0.05414608,0.3506682,0.17325592,0.14575307,0.03145142,0.19476458,0.44032657,0.07690437,0.38953325,0.43775895,0.24896464,0.052347615,0.48580918,0.019408505,809.0842,801.02563,771.2088,807.8755,767.98535,-0.1771240234375,0.0474853515625,0.9781494140625,1.6748046875,-3.386993408203125,0.7177734375,1.0,1.0,1.0,1.0,1.0,80.0,event
11:49:46.017,-0.026705446,0.27797636,0.2666644,0.33108374,-0.09094201,0.011793942,-0.05414608,0.3506682,0.17325592,0.14575307,0.03145142,0.19476458,0.44032657,0.07690437,0.38953325,0.43775895,0.24896464,0.052347615,0.48580918,0.019408505,788.93774,805.8608,748.6447,799.81683,952.9304,-0.1771240234375,0.0474853515625,0.9781494140625,1.6748046875,-3.386993408203125,0.7177734375,1.0,1.0,1.0,1.0,1.0,80.0,event
11:49:46.018,-0.026705446,0.27797636,0.2666644,0.33108374,-0.09094201,0.011793942,-0.05414608,0.3506682,0.17325592,0.14575307,0.03145142,0.19476458,0.44032657,0.07690437,0.38953325,0.43775895,0.24896464,0.052347615,0.48580918,0.019408505,786.52014,806.6667,806.26373,802.6374,902.96704,-0.1771240234375,0.0474853515625,0.9781494140625,1.6748046875,-3.386993408203125,0.7177734375,1.0,1.0,1.0,1.0,1.0,80.0,event
11:49:46.019,-0.026705446,0.27797636,0.2666644,0.33108374,-0.09094201,0.011793942,-0.05414608,0.3506682,0.17325592,0.14575307,0.03145142,0.19476458,0.44032657,0.07690437,0.38953325,0.43775895,0.24896464,0.052347615,0.48580918,0.019408505,808.2784,809.0842,798.20514,810.293,682.96704,-0.1771240234375,0.0474853515625,0.9781494140625,1.6748046875,-3.386993408203125,0.7177734375,1.0,1.0,1.0,1.0,1.0,80.0,event
11:49:46.046,-0.026705446,0.27797636,0.2666644,0.33108374,-0.09094201,0.011793942,-0.05414608,0.3506682,0.17325592,0.14575307,0.03145142,0.19476458,0.44032657,0.07690437,0.38953325,0.43775895,0.24896464,0.052347615,0.48580918,0.019408505,821.978,808.68134,775.64105,804.65204,712.7839,-0.1771240234375,0.0474853515625,0.9781494140625,1.6748046875,-3.386993408203125,0.7177734375,1.0,1.0,1.0,1.0,1.0,80.0,event
11:49:46.047,-0.026705446,0.27797636,0.2666644,0.33108374,-0.09094201,0.011793942,-0.05414608,0.3506682,0.17325592,0.14575307,0.03145142,0.19476458,0.44032657,0.07690437,0.38953325,0.43775895,0.24896464,0.052347615,0.48580918,0.019408505,815.9341,813.5165,794.9817,796.1905,761.13556,-0.1771240234375,0.0474853515625,0.9781494140625,1.6748046875,-3.386993408203125,0.7177734375,1.0,1.0,1.0,1.0,1.0,80.0,event
11:49:46.048,-0.026705446,0.27994058,0.2666644,0.33108374,-0.09094201,0.024954157,-0.05414608,0.3506682,0.17325592,0.15525253,0.03145142,0.19476458,0.44032657,0.07651028,0.38953325,0.43775895,0.24896464,0.046336103,0.48580918,0.019408505,811.0989,808.2784,782.8938,789.34064,731.31866,-0.1771240234375,0.0474853515625,0.9781494140625,1.6748046875,-3.386993408203125,0.7177734375,1.0,1.0,1.0,1.0,1.0,80.0,event
11:49:46.048,-0.026705446,0.27797636,0.2666644,0.33108374,-0.09094201,0.011793942,-0.05414608,0.3506682,0.17325592,0.14575307,0.03145142,0.19476458,0.44032657,0.07690437,0.38953325,0.43775895,0.24896464,0.052347615,0.48580918,0.019408505,809.89014,821.978,789.7436,796.5934,744.21246,-0.1771240234375,0.0474853515625,0.9781494140625,1.6748046875,-3.386993408203125,0.7177734375,1.0,1.0,1.0,1.0,1.0,80.0,event
11:49:46.052,-0.026705446,0.27994058,0.2666644,0.33108374,-0.09094201,0.024954157,-0.05414608,0.3506682,0.17325592,0.15525253,0.03145142,0.19476458,0.44032657,0.07651028,0.38953325,0.43775895,0.24896464,0.046336103,0.48580918,0.019408505,819.15753,802.23444,791.3553,781.685,812.3077,-0.1771240234375,0.0474853515625,0.9781494140625,1.6748046875,-3.386993408203125,0.7177734375,1.0,1.0,1.0,1.0,1.0,80.0,event
11:49:46.053,-0.026705446,0.27994058,0.2666644,0.33108374,-0.09094201,0.024954157,-0.05414608,0.3506682,0.17325592,0.15525253,0.03145142,0.19476458,0.44032657,0.07651028,0.38953325,0.43775895,0.24896464,0.046336103,0.48580918,0.019408505,825.2015,807.0696,798.20514,792.1612,979.12085,-0.1771240234375,0.0474853515625,0.9781494140625,1.6748046875,-3.386993408203125,0.7177734375,1.0,1.0,1.0,1.0,1.0,80.0,event
11:49:46.053,-0.026705446,0.27994058,0.2666644,0.33108374,-0.09094201,0.024954157,-0.05414608,0.3506682,0.17325592,0.15525253,0.03145142,0.19476458,0.44032657,0.07651028,0.38953325,0.43775895,0.24896464,0.046336103,0.48580918,0.019408505,817.5458,806.6667,793.7729,790.9524,936.0073,-0.1771240234375,0.0474853515625,0.9781494140625,1.6748046875,-3.386993408203125,0.7177734375,1.0,1.0,1.0,1.0,1.0,80.0,event
11:49:46.054,-0.026705446,0.27994058,0.2666644,0.33108374,-0.09094201,0.024954157,-0.05414608,0.3506682,0.17325592,0.15525253,0.03145142,0.19476458,0.44032657,0.07651028,0.38953325,0.43775895,0.24896464,0.046336103,0.48580918,0.019408505,805.4579,805.4579,790.14655,781.28204,763.1502,-0.1771240234375,0.0474853515625,0.9781494140625,1.6748046875,-3.386993408203125,0.7177734375,1.0,1.0,1.0,1.0,1.0,80.0,event
11:49:46.054,-0.026705446,0.27994058,0.2666644,0.33108374,-0.09094201,0.024954157,-0.05414608,0.3506682,0.17325592,0.15525253,0.03145142,0.19476458,0.44032657,0.07651028,0.38953325,0.43775895,0.24896464,0.046336103,0.48580918,0.019408505,800.2198,804.2491,765.56775,787.326,752.27106,-0.1771240234375,0.0474853515625,0.9781494140625,1.6748046875,-3.386993408203125,0.7177734375,1.0,1.0,1.0,1.0,1.0,80.0,event
11:49:46.055,-0.026705446,0.27994058,0.2666644,0.33108374,-0.09094201,0.024954157,-0.05414608,0.3506682,0.17325592,0.15525253,0.03145142,0.19476458,0.44032657,0.07651028,0.38953325,0.43775895,0.24896464,0.046336103,0.48580918,0.019408505,809.4872,806.6667,790.54944,793.7729,923.1135,-0.1771240234375,0.0474853515625,0.9781494140625,1.6748046875,-3.386993408203125,0.7177734375,1.0,1.0,1.0,1.0,1.0,80.0,event
11:49:46.056,-0.026705446,0.27994058,0.2666644,0.33108374,-0.09094201,0.024954157,-0.05414608,0.3506682,0.17325592,0.15525253,0.03145142,0.19476458,0.44032657,0.07651028,0.38953325,0.43775895,0.24896464,0.046336103,0.48580918,0.019408505,822.7839,806.6667,821.5751,792.5641,824.7985,-0.1771240234375,0.0474853515625,0.9781494140625,1.6748046875,-3.386993408203125,0.7177734375,1.0,1.0,1.0,1.0,1.0,80.0,event
11:49:46.056,-0.026705446,0.27994058,0.2666644,0.33108374,-0.09094201,0.024954157,-0.05414608,0.3506682,0.17325592,0.15525253,0.03145142,0.19476458,0.44032657,0.07651028,0.38953325,0.43775895,0.24896464,0.046336103,0.48580918,0.019408505,812.71063,811.50183,774.0293,799.81683,707.5458,-0.1771240234375,0.0474853515625,0.9781494140625,1.6748046875,-3.386993408203125,0.7177734375,1.0,1.0,1.0,1.0,1.0,80.0,event
11:49:46.083,-0.026705446,0.27994058,0.2666644,0.33108374,-0.09094201,0.024954157,-0.05414608,0.3506682,0.17325592,0.15525253,0.03145142,0.19476458,0.44032657,0.07651028,0.38953325,0.43775895,0.24896464,0.046336103,0.48580918,0.019408505,798.20514,808.68134,762.74725,805.05493,731.7216,-0.17218017578125,0.0440673828125,0.968505859375,1.532745361328125,-3.63372802734375,0.246734619140625,1.0,1.0,1.0,1.0,1.0,80.0,event
11:49:46.084,-0.026705446,0.27994058,0.2666644,0.33108374,-0.09094201,0.024954157,-0.05414608,0.3506682,0.17325592,0.15525253,0.03145142,0.19476458,0.44032657,0.07651028,0.38953325,0.43775895,0.24896464,0.046336103,0.48580918,0.019408505,791.75824,796.1905,805.4579,802.23444,703.1135,-0.17218017578125,0.0440673828125,0.968505859375,1.532745361328125,-3.63372802734375,0.246734619140625,1.0,1.0,1.0,1.0,1.0,80.0,event
11:49:46.084,-0.026705446,0.27994058,0.2666644,0.33108374,-0.09094201,0.024954157,-0.05414608,0.3506682,0.17325592,0.15525253,0.03145142,0.19476458,0.44032657,0.07651028,0.38953325,0.43775895,0.24896464,0.046336103,0.48580918,0.019408505,797.8022,799.011,801.02563,803.8461,734.94507,-0.17218017578125,0.0440673828125,0.968505859375,1.532745361328125,-3.63372802734375,0.246734619140625,1.0,1.0,1.0,1.0,1.0,80.0,event
11:49:46.085,-0.026705446,0.27994058,0.2666644,0.33108374,-0.09094201,0.024954157,-0.05414608,0.3506682,0.17325592,0.15525253,0.03145142,0.19476458,0.44032657,0.07651028,0.38953325,0.43775895,0.24896464,0.046336103,0.48580918,0.019408505,800.6227,796.1905,783.2967,806.6667,722.8571,-0.17218017578125,0.0440673828125,0.968505859375,1.532745361328125,-3.63372802734375,0.246734619140625,1.0,1.0,1.0,1.0,1.0,80.0,event
11:49:46.086,-0.026705446,0.27994058,0.2666644,0.33108374,-0.09094201,0.024954157,-0.05414608,0.3506682,0.17325592,0.15525253,0.03145142,0.19476458,0.44032657,0.07651028,0.38953325,0.43775895,0.24896464,0.046336103,0.48580918,0.019408505,803.8461,800.6227,770.0,810.696,774.43225,-0.17218017578125,0.0440673828125,0.968505859375,1.532745361328125,-3.63372802734375,0.246734619140625,1.0,1.0,1.0,1.0,1.0,80.0,event
11:49:46.086,-0.026705446,0.27994058,0.2666644,0.33108374,-0.09094201,0.024954157,-0.05414608,0.3506682,0.17325592,0.15525253,0.03145142,0.19476458,0.44032657,0.07651028,0.38953325,0.43775895,0.24896464,0.046336103,0.48580918,0.019408505,792.5641,812.71063,777.6557,797.8022,797.3993,-0.17218017578125,0.0440673828125,0.968505859375,1.532745361328125,-3.63372802734375,0.246734619140625,1.0,1.0,1.0,1.0,1.0,80.0,event
11:49:46.087,-0.026705446,0.27994058,0.2666644,0.33108374,-0.09094201,0.024954157,-0.05414608,0.3506682,0.17325592,0.15525253,0.03145142,0.19476458,0.44032657,0.07651028,0.38953325,0.43775895,0.24896464,0.046336103,0.48580918,0.019408505,791.3553,815.12823,796.99634,796.5934,810.293,-0.17218017578125,0.0440673828125,0.968505859375,1.532745361328125,-3.63372802734375,0.246734619140625,1.0,1.0,1.0,1.0,1.0,80.0,event
11:49:46.087,-0.026705446,0.27994058,0.2666644,0.33108374,-0.09094201,0.024954157,-0.05414608,0.3506682,0.17325592,0.15525253,0.03145142,0.19476458,0.44032657,0.07651028,0.38953325,0.43775895,0.24896464,0.046336103,0.48580918,0.019408505,799.81683,808.2784,787.326,804.65204,798.60803,-0.17218017578125,0.0440673828125,0.968505859375,1.532745361328125,-3.63372802734375,0.246734619140625,1.0,1.0,1.0,1.0,1.0,80.0,event
11:49:46.088,-0.026705446,0.27994058,0.2666644,0.33108374,-0.09094201,0.024954157,-0.05414608,0.3506682,0.17325592,0.15525253,0.03145142,0.19476458,0.44032657,0.07651028,0.38953325,0.43775895,0.24896464,0.046336103,0.48580918,0.019408505,809.89014,808.68134,758.315,807.0696,985.56775,-0.17218017578125,0.0440673828125,0.968505859375,1.532745361328125,-3.63372802734375,0.246734619140625,1.0,1.0,1.0,1.0,1.0,80.0,event
11:49:46.088,-0.026705446,0.27994058,0.2666644,0.33108374,-0.09094201,0.024954157,-0.05414608,0.3506682,0.17325592,0.15525253,0.03145142,0.19476458,0.44032657,0.07651028,0.38953325,0.43775895,0.24896464,0.046336103,0.48580918,0.019408505,816.337,803.44324,812.3077,799.81683,1004.10254,-0.17218017578125,0.0440673828125,0.968505859375,1.532745361328125,-3.63372802734375,0.246734619140625,1.0,1.0,1.0,1.0,1.0,80.0,event
11:49:46.090,-0.026705446,0.27994058,0.2666644,0.33108374,-0.09094201,0.024954157,-0.05414608,0.3506682,0.17325592,0.15525253,0.03145142,0.19476458,0.44032657,0.07651028,0.38953325,0.43775895,0.24896464,0.046336103,0.48580918,0.019408505,805.4579,799.81683,807.8755,788.93774,683.7729,-0.17218017578125,0.0440673828125,0.968505859375,1.532745361328125,-3.63372802734375,0.246734619140625,1.0,1.0,1.0,1.0,1.0,80.0,event
11:49:46.091,-0.026705446,0.27994058,0.2666644,0.33108374,-0.09094201,0.024954157,-0.05414608,0.3506682,0.17325592,0.15525253,0.03145142,0.19476458,0.44032657,0.07651028,0.38953325,0.43775895,0.24896464,0.046336103,0.48580918,0.019408505,798.20514,803.44324,778.86444,786.1172,623.73627,-0.17218017578125,0.0440673828125,0.968505859375,1.532745361328125,-3.63372802734375,0.246734619140625,1.0,1.0,1.0,1.0,1.0,80.0,event
11:49:46.162,-0.026705446,0.27994058,0.2666644,0.33108374,-0.09094201,0.024954157,-0.05414608,0.3506682,0.17325592,0.15525253,0.03145142,0.19476458,0.44032657,0.07651028,0.38953325,0.43775895,0.24896464,0.046336103,0.48580918,0.019408505,807.47253,801.8315,803.44324,788.5348,689.41394,-0.170654296875,0.04388427734375,0.9727783203125,2.4224853515625,-3.170166015625,0.94207763671875,1.0,1.0,1.0,1.0,1.0,80.0,event
11:49:46.163,-0.026705446,0.27994058,0.2666644,0.33108374,-0.09094201,0.024954157,-0.05414608,0.3506682,0.17325592,0.15525253,0.03145142,0.19476458,0.44032657,0.07651028,0.38953325,0.43775895,0.24896464,0.046336103,0.48580918,0.019408505,807.8755,802.23444,798.20514,792.5641,647.9121,-0.170654296875,0.04388427734375,0.9727783203125,2.4224853515625,-3.170166015625,0.94207763671875,1.0,1.0,1.0,1.0,1.0,80.0,event
11:49:46.164,-0.026705446,0.27994058,0.2666644,0.33108374,-0.09094201,0.024954157,-0.05414608,0.3506682,0.17325592,0.15525253,0.03145142,0.19476458,0.44032657,0.07651028,0.38953325,0.43775895,0.24896464,0.046336103,0.48580918,0.019408505,816.337,807.47253,768.7912,798.60803,724.87177,-0.170654296875,0.04388427734375,0.9727783203125,2.4224853515625,-3.170166015625,0.94207763671875,1.0,1.0,1.0,1.0,1.0,80.0,event
11:49:46.164,-0.026705446,0.27994058,0.2666644,0.33108374,-0.09094201,0.024954157,-0.05414608,0.3506682,0.17325592,0.15525253,0.03145142,0.19476458,0.44032657,0.07651028,0.38953325,0.43775895,0.24896464,0.046336103,0.48580918,0.019408505,819.15753,803.0403,781.685,798.20514,690.6227,-0.170654296875,0.04388427734375,0.9727783203125,2.4224853515625,-3.170166015625,0.94207763671875,1.0,1.0,1.0,1.0,1.0,80.0,event
11:49:46.165,-0.026705446,0.27994058,0.2666644,0.33108374,-0.09094201,0.024954157,-0.05414608,0.3506682,0.17325592,0.15525253,0.03145142,0.19476458,0.44032657,0.07651028,0.38953325,0.43775895,0.24896464,0.046336103,0.48580918,0.019408505,803.44324,815.5311,792.5641,800.2198,733.3333,-0.170654296875,0.04388427734375,0.9727783203125,2.4224853515625,-3.170166015625,0.94207763671875,1.0,1.0,1.0,1.0,1.0,80.0,event
11:49:46.166,-0.026705446,0.28022885,0.2666644,0.33108374,-0.09094201,0.041066255,-0.05414608,0.3506682,0.17325592,0.21001908,0.03145142,0.19476458,0.44032657,0.07343161,0.38953325,0.43775895,0.24896464,0.02971847,0.48580918,0.019408505,815.9341,803.8461,788.93774,809.4872,886.4469,-0.170654296875,0.04388427734375,0.9727783203125,2.4224853515625,-3.170166015625,0.94207763671875,1.0,1.0,1.0,1.0,1.0,80.0,event
11:49:46.170,-0.026705446,0.28022885,0.2666644,0.33108374,-0.09094201,0.041066255,-0.05414608,0.3506682,0.17325592,0.21001908,0.03145142,0.19476458,0.44032657,0.07343161,0.38953325,0.43775895,0.24896464,0.02971847,0.48580918,0.019408505,824.3956,795.38464,785.7143,813.1135,844.5421,-0.170654296875,0.04388427734375,0.9727783203125,2.4224853515625,-3.170166015625,0.94207763671875,1.0,1.0,1.0,1.0,1.0,80.0,event
11:49:46.172,-0.026705446,0.28022885,0.2666644,0.33108374,-0.09094201,0.041066255,-0.05414608,0.3506682,0.17325592,0.21001908,0.03145142,0.19476458,0.44032657,0.07343161,0.38953325,0.43775895,0.24896464,0.02971847,0.48580918,0.019408505,811.9048,801.02563,773.6264,820.7692,840.9158,-0.170654296875,0.04388427734375,0.9727783203125,2.4224853515625,-3.170166015625,0.94207763671875,1.0,1.0,1.0,1.0,1.0,80.0,event
11:49:46.172,-0.026705446,0.28022885,0.2666644,0.33108374,-0.09094201,0.041066255,-0.05414608,0.3506682,0.17325592,0.21001908,0.03145142,0.19476458,0.44032657,0.07343161,0.38953325,0.43775895,0.24896464,0.02971847,0.48580918,0.019408505,801.8315,803.0403,776.04395,813.5165,1045.6044,-0.170654296875,0.04388427734375,0.9727783203125,2.4224853515625,-3.170166015625,0.94207763671875,1.0,1.0,1.0,1.0,1.0,80.0,event
11:49:46.173,-0.026705446,0.28022885,0.2666644,0.33108374,-0.09094201,0.041066255,-0.05414608,0.3506682,0.17325592,0.21001908,0.03145142,0.19476458,0.44032657,0.07343161,0.38953325,0.43775895,0.24896464,0.02971847,0.48580918,0.019408505,796.5934,797.8022,802.6374,799.41394,854.61536,-0.170654296875,0.04388427734375,0.9727783203125,2.4224853515625,-3.170166015625,0.94207763671875,1.0,1.0,1.0,1.0,1.0,80.0,event
11:49:46.174,-0.026705446,0.28022885,0.2666644,0.33108374,-0.09094201,0.041066255,-0.05414608,0.3506682,0.17325592,0.21001908,0.03145142,0.19476458,0.44032657,0.07343161,0.38953325,0.43775895,0.24896464,0.02971847,0.48580918,0.019408505,796.1905,799.41394,800.2198,799.81683,676.9231,-0.170654296875,0.04388427734375,0.9727783203125,2.4224853515625,-3.170166015625,0.94207763671875,1.0,1.0,1.0,1.0,1.0,80.0,event
11:49:46.174,-0.026705446,0.28022885,0.2666644,0.33108374,-0.09094201,0.041066255,-0.05414608,0.3506682,0.17325592,0.21001908,0.03145142,0.19476458,0.44032657,0.07343161,0.38953325,0.43775895,0.24896464,0.02971847,0.48580918,0.019408505,811.50183,808.68134,775.64105,809.4872,808.68134,-0.170654296875,0.04388427734375,0.9727783203125,2.4224853515625,-3.170166015625,0.94207763671875,1.0,1.0,1.0,1.0,1.0,80.0,event
11:49:46.206,-0.026705446,0.28022885,0.2666644,0.33108374,-0.09094201,0.041066255,-0.05414608,0.3506682,0.17325592,0.21001908,0.03145142,0.19476458,0.44032657,0.07343161,0.38953325,0.43775895,0.24896464,0.02971847,0.48580918,0.019408505,811.0989,808.2784,791.3553,812.71063,851.79486,-0.17169189453125,0.0457763671875,0.973388671875,1.786956787109375,-3.3795166015625,0.814971923828125,1.0,1.0,1.0,1.0,1.0,80.0,event
11:49:46.207,-0.026705446,0.28022885,0.2666644,0.33108374,-0.09094201,0.041066255,-0.05414608,0.3506682,0.17325592,0.21001908,0.03145142,0.19476458,0.44032657,0.07343161,0.38953325,0.43775895,0.24896464,0.02971847,0.48580918,0.019408505,798.20514,809.89014,794.57874,803.8461,716.4103,-0.17169189453125,0.0457763671875,0.973388671875,1.786956787109375,-3.3795166015625,0.814971923828125,1.0,1.0,1.0,1.0,1.0,80.0,event
11:49:46.208,-0.026705446,0.28022885,0.2666644,0.33108374,-0.09094201,0.041066255,-0.05414608,0.3506682,0.17325592,0.21001908,0.03145142,0.19476458,0.44032657,0.07343161,0.38953325,0.43775895,0.24896464,0.02971847,0.48580918,0.019408505,791.75824,808.68134,771.6117,799.41394,689.41394,-0.17169189453125,0.0457763671875,0.973388671875,1.786956787109375,-3.3795166015625,0.814971923828125,1.0,1.0,1.0,1.0,1.0,80.0,event
11:49:46.209,-0.026705446,0.28022885,0.2666644,0.33108374,-0.09094201,0.041066255,-0.05414608,0.3506682,0.17325592,0.21001908,0.03145142,0.19476458,0.44032657,0.07343161,0.38953325,0.43775895,0.24896464,0.02971847,0.48580918,0.019408505,799.81683,802.6374,794.17584,791.75824,821.1722,-0.17169189453125,0.0457763671875,0.973388671875,1.786956787109375,-3.3795166015625,0.814971923828125,1.0,1.0,1.0,1.0,1.0,80.0,event
11:49:46.209,-0.026705446,0.28022885,0.2666644,0.33108374,-0.09094201,0.041066255,-0.05414608,0.3506682,0.17325592,0.21001908,0.03145142,0.19476458,0.44032657,0.07343161,0.38953325,0.43775895,0.24896464,0.02971847,0.48580918,0.019408505,791.3553,803.0403,778.86444,792.96704,795.38464,-0.17169189453125,0.0457763671875,0.973388671875,1.786956787109375,-3.3795166015625,0.814971923828125,1.0,1.0,1.0,1.0,1.0,80.0,event
11:49:46.210,-0.026705446,0.28022885,0.2666644,0.33108374,-0.09094201,0.041066255,-0.05414608,0.3506682,0.17325592,0.21001908,0.03145142,0.19476458,0.44032657,0.07343161,0.38953325,0.43775895,0.24896464,0.02971847,0.48580918,0.019408505,803.44324,801.4286,778.86444,800.6227,854.21246,-0.17169189453125,0.0457763671875,0.973388671875,1.786956787109375,-3.3795166015625,0.814971923828125,1.0,1.0,1.0,1.0,1.0,80.0,event
11:49:46.210,-0.026705446,0.28022885,0.2666644,0.33108374,-0.09094201,0.041066255,-0.05414608,0.3506682,0.17325592,0.21001908,0.03145142,0.19476458,0.44032657,0.07343161,0.38953325,0.43775895,0.24896464,0.02971847,0.48580918,0.019408505,795.38464,806.26373,765.16486,794.9817,989.19415,-0.17169189453125,0.0457763671875,0.973388671875,1.786956787109375,-3.3795166015625,0.814971923828125,1.0,1.0,1.0,1.0,1.0,80.0,event
11:49:46.211,-0.026705446,0.28022885,0.2666644,0.33108374,-0.09094201,0.041066255,-0.05414608,0.3506682,0.17325592,0.21001908,0.03145142,0.19476458,0.44032657,0.07343161,0.38953325,0.43775895,0.24896464,0.02971847,0.48580918,0.019408505,796.99634,815.5311,785.7143,784.5055,939.2308,-0.17169189453125,0.0457763671875,0.973388671875,1.786956787109375,-3.3795166015625,0.814971923828125,1.0,1.0,1.0,1.0,1.0,80.0,event
11:49:46.212,-0.026705446,0.28022885,0.2666644,0.33108374,-0.09094201,0.041066255,-0.05414608,0.3506682,0.17325592,0.21001908,0.03145142,0.19476458,0.44032657,0.07343161,0.38953325,0.43775895,0.24896464,0.02971847,0.48580918,0.019408505,804.65204,809.0842,805.4579,785.7143,722.4542,-0.17169189453125,0.0457763671875,0.973388671875,1.786956787109375,-3.3795166015625,0.814971923828125,1.0,1.0,1.0,1.0,1.0,80.0,event
11:49:46.212,-0.026705446,0.28022885,0.2666644,0.33108374,-0.09094201,0.041066255,-0.05414608,0.3506682,0.17325592,0.21001908,0.03145142,0.19476458,0.44032657,0.07343161,0.38953325,0.43775895,0.24896464,0.02971847,0.48580918,0.019408505,796.5934,802.23444,801.02563,787.72894,699.0842,-0.17169189453125,0.0457763671875,0.973388671875,1.786956787109375,-3.3795166015625,0.814971923828125,1.0,1.0,1.0,1.0,1.0,80.0,event
11:49:46.213,-0.026705446,0.28022885,0.2666644,0.33108374,-0.09094201,0.041066255,-0.05414608,0.3506682,0.17325592,0.21001908,0.03145142,0.19476458,0.44032657,0.07343161,0.38953325,0.43775895,0.24896464,0.02971847,0.48580918,0.019408505,809.4872,806.6667,770.40295,802.6374,776.04395,-0.17169189453125,0.0457763671875,0.973388671875,1.786956787109375,-3.3795166015625,0.814971923828125,1.0,1.0,1.0,1.0,1.0,80.0,event
11:49:46.214,-0.026705446,0.28022885,0.2666644,0.33108374,-0.09094201,0.041066255,-0.05414608,0.3506682,0.17325592,0.21001908,0.03145142,0.19476458,0.44032657,0.07343161,0.38953325,0.43775895,0.24896464,0.02971847,0.48580918,0.019408505,819.15753,800.6227,746.2271,812.71063,945.6777,-0.17169189453125,0.0457763671875,0.973388671875,1.786956787109375,-3.3795166015625,0.814971923828125,1.0,1.0,1.0,1.0,1.0,80.0,event
11:49:46.246,-0.026705446,0.28022885,0.2666644,0.33108374,-0.09094201,0.041066255,-0.05414608,0.3506682,0.17325592,0.21001908,0.03145142,0.19476458,0.44032657,0.07343161,0.38953325,0.43775895,0.24896464,0.02971847,0.48580918,0.019408505,796.1905,798.20514,796.99634,801.8315,960.989,-0.16943359375,0.04248046875,0.97393798828125,2.175750732421875,-3.5888671875,0.097198486328125,1.0,1.0,1.0,1.0,1.0,80.0,event
11:49:46.248,-0.026705446,0.28022885,0.2666644,0.33108374,-0.09094201,0.041066255,-0.05414608,0.3506682,0.17325592,0.21001908,0.03145142,0.19476458,0.44032657,0.07343161,0.38953325,0.43775895,0.24896464,0.02971847,0.48580918,0.019408505,784.5055,807.47253,807.0696,793.36993,807.8755,-0.16943359375,0.04248046875,0.97393798828125,2.175750732421875,-3.5888671875,0.097198486328125,1.0,1.0,1.0,1.0,1.0,80.0,event
11:49:46.248,-0.026705446,0.28022885,0.2666644,0.33108374,-0.09094201,0.041066255,-0.05414608,0.3506682,0.17325592,0.21001908,0.03145142,0.19476458,0.44032657,0.07343161,0.38953325,0.43775895,0.24896464,0.02971847,0.48580918,0.019408505,807.47253,810.293,782.8938,796.5934,794.17584,-0.16943359375,0.04248046875,0.97393798828125,2.175750732421875,-3.5888671875,0.097198486328125,1.0,1.0,1.0,1.0,1.0,80.0,event
11:49:46.249,-0.026705446,0.28022885,0.2666644,0.33108374,-0.09094201,0.041066255,-0.05414608,0.3506682,0.17325592,0.21001908,0.03145142,0.19476458,0.44032657,0.07343161,0.38953325,0.43775895,0.24896464,0.02971847,0.48580918,0.019408505,823.9927,809.0842,792.1612,808.2784,701.9048,-0.16943359375,0.04248046875,0.97393798828125,2.175750732421875,-3.5888671875,0.097198486328125,1.0,1.0,1.0,1.0,1.0,80.0,event
11:49:46.249,-0.026705446,0.28022885,0.2666644,0.33108374,-0.09094201,0.041066255,-0.05414608,0.3506682,0.17325592,0.21001908,0.03145142,0.19476458,0.44032657,0.07343161,0.38953325,0.43775895,0.24896464,0.02971847,0.48580918,0.019408505,832.0513,811.9048,803.44324,808.2784,842.1245,-0.16943359375,0.04248046875,0.97393798828125,2.175750732421875,-3.5888671875,0.097198486328125,1.0,1.0,1.0,1.0,1.0,80.0,event
11:49:46.250,-0.026705446,0.28022885,0.2666644,0.33108374,-0.09094201,0.041066255,-0.05414608,0.3506682,0.17325592,0.21001908,0.03145142,0.19476458,0.44032657,0.07343161,0.38953325,0.43775895,0.24896464,0.02971847,0.48580918,0.019408505,803.44324,817.5458,769.59705,801.4286,730.10986,-0.16943359375,0.04248046875,0.97393798828125,2.175750732421875,-3.5888671875,0.097198486328125,1.0,1.0,1.0,1.0,1.0,80.0,event
11:49:46.251,-0.026705446,0.28022885,0.2666644,0.33108374,-0.09094201,0.041066255,-0.05414608,0.3506682,0.17325592,0.21001908,0.03145142,0.19476458,0.44032657,0.07343161,0.38953325,0.43775895,0.24896464,0.02971847,0.48580918,0.019408505,794.9817,813.1135,778.86444,799.011,987.1795,-0.16943359375,0.04248046875,0.97393798828125,2.175750732421875,-3.5888671875,0.097198486328125,1.0,1.0,1.0,1.0,1.0,80.0,event
11:49:46.251,-0.026705446,0.2800833,0.2666644,0.33108374,-0.09094201,0.06350768,-0.05414608,0.3506682,0.17325592,0.2830681,0.03145142,0.19476458,0.44032657,0.06922581,0.38953325,0.43775895,0.24896464,0.009027152,0.48580918,0.019408505,802.6374,794.57874,794.9817,799.81683,1014.57874,-0.16943359375,0.04248046875,0.97393798828125,2.175750732421875,-3.5888671875,0.097198486328125,1.0,1.0,1.0,1.0,1.0,80.0,event
11:49:46.256,-0.026705446,0.2800833,0.2666644,0.33108374,-0.09094201,0.06350768,-0.05414608,0.3506682,0.17325592,0.2830681,0.03145142,0.19476458,0.44032657,0.06922581,0.38953325,0.43775895,0.24896464,0.009027152,0.48580918,0.019408505,826.0073,799.011,794.17584,811.0989,910.6227,-0.16943359375,0.04248046875,0.97393798828125,2.175750732421875,-3.5888671875,0.097198486328125,1.0,1.0,1.0,1.0,1.0,80.0,event
11:49:46.257,-0.026705446,0.2800833,0.2666644,0.33108374,-0.09094201,0.06350768,-0.05414608,0.3506682,0.17325592,0.2830681,0.03145142,0.19476458,0.44032657,0.06922581,0.38953325,0.43775895,0.24896464,0.009027152,0.48580918,0.019408505,838.49817,806.26373,773.22345,826.8132,807.47253,-0.16943359375,0.04248046875,0.97393798828125,2.175750732421875,-3.5888671875,0.097198486328125,1.0,1.0,1.0,1.0,1.0,80.0,event
11:49:46.257,-0.026705446,0.2800833,0.2666644,0.33108374,-0.09094201,0.06350768,-0.05414608,0.3506682,0.17325592,0.2830681,0.03145142,0.19476458,0.44032657,0.06922581,0.38953325,0.43775895,0.24896464,0.009027152,0.48580918,0.019408505,802.6374,808.68134,751.06226,818.3516,815.12823,-0.16943359375,0.04248046875,0.97393798828125,2.175750732421875,-3.5888671875,0.097198486328125,1.0,1.0,1.0,1.0,1.0,80.0,event
11:49:46.258,-0.026705446,0.2800833,0.2666644,0.33108374,-0.09094201,0.06350768,-0.05414608,0.3506682,0.17325592,0.2830681,0.03145142,0.19476458,0.44032657,0.06922581,0.38953325,0.43775895,0.24896464,0.009027152,0.48580918,0.019408505,771.2088,804.2491,797.8022,795.78754,950.9158,-0.16943359375,0.04248046875,0.97393798828125,2.175750732421875,-3.5888671875,0.097198486328125,1.0,1.0,1.0,1.0,1.0,80.0,event
11:49:46.285,-0.026705446,0.2800833,0.2666644,0.33108374,-0.09094201,0.06350768,-0.05414608,0.3506682,0.17325592,0.2830681,0.03145142,0.19476458,0.44032657,0.06922581,0.38953325,0.43775895,0.24896464,0.009027152,0.48580918,0.019408505,799.41394,806.26373,821.5751,803.0403,721.6484,-0.16943359375,0.04248046875,0.97393798828125,2.175750732421875,-3.5888671875,0.097198486328125,1.0,1.0,1.0,1.0,1.0,80.0,event
11:49:46.289,-0.026705446,0.2800833,0.2666644,0.33108374,-0.09094201,0.06350768,-0.05414608,0.3506682,0.17325592,0.2830681,0.03145142,0.19476458,0.44032657,0.06922581,0.38953325,0.43775895,0.24896464,0.009027152,0.48580918,0.019408505,813.1135,810.293,782.49084,807.8755,706.337,-0.16943359375,0.04248046875,0.97393798828125,2.175750732421875,-3.5888671875,0.097198486328125,1.0,1.0,1.0,1.0,1.0,80.0,event
11:49:46.291,-0.026705446,0.2800833,0.2666644,0.33108374,-0.09094201,0.06350768,-0.05414608,0.3506682,0.17325592,0.2830681,0.03145142,0.19476458,0.44032657,0.06922581,0.38953325,0.43775895,0.24896464,0.009027152,0.48580918,0.019408505,788.1319,799.81683,767.98535,800.2198,873.95605,-0.16943359375,0.04248046875,0.97393798828125,2.175750732421875,-3.5888671875,0.097198486328125,1.0,1.0,1.0,1.0,1.0,80.0,event
11:49:46.293,-0.026705446,0.2800833,0.2666644,0.33108374,-0.09094201,0.06350768,-0.05414608,0.3506682,0.17325592,0.2830681,0.03145142,0.19476458,0.44032657,0.06922581,0.38953325,0.43775895,0.24896464,0.009027152,0.48580918,0.019408505,766.3736,792.1612,767.98535,796.1905,824.7985,-0.16943359375,0.04248046875,0.97393798828125,2.175750732421875,-3.5888671875,0.097198486328125,1.0,1.0,1.0,1.0,1.0,80.0,event
11:49:46.295,-0.026705446,0.2800833,0.2666644,0.33108374,-0.09094201,0.06350768,-0.05414608,0.3506682,0.17325592,0.2830681,0.03145142,0.19476458,0.44032657,0.06922581,0.38953325,0.43775895,0.24896464,0.009027152,0.48580918,0.019408505,771.6117,799.81683,782.49084,800.2198,809.4872,-0.16943359375,0.04248046875,0.97393798828125,2.175750732421875,-3.5888671875,0.097198486328125,1.0,1.0,1.0,1.0,1.0,80.0,event
11:49:46.296,-0.026705446,0.2800833,0.2666644,0.33108374,-0.09094201,0.06350768,-0.05414608,0.3506682,0.17325592,0.2830681,0.03145142,0.19476458,0.44032657,0.06922581,0.38953325,0.43775895,0.24896464,0.009027152,0.48580918,0.019408505,778.46155,802.23444,779.2674,806.6667,774.83514,-0.16943359375,0.04248046875,0.97393798828125,2.175750732421875,-3.5888671875,0.097198486328125,1.0,1.0,1.0,1.0,1.0,80.0,event
11:49:46.296,-0.026705446,0.2800833,0.2666644,0.33108374,-0.09094201,0.06350768,-0.05414608,0.3506682,0.17325592,0.2830681,0.03145142,0.19476458,0.44032657,0.06922581,0.38953325,0.43775895,0.24896464,0.009027152,0.48580918,0.019408505,791.3553,793.36993,743.8095,808.2784,1034.3224,-0.16943359375,0.04248046875,0.97393798828125,2.175750732421875,-3.5888671875,0.097198486328125,1.0,1.0,1.0,1.0,1.0,80.0,event
11:49:46.297,-0.026705446,0.2800833,0.2666644,0.33108374,-0.09094201,0.06350768,-0.05414608,0.3506682,0.17325592,0.2830681,0.03145142,0.19476458,0.44032657,0.06922581,0.38953325,0.43775895,0.24896464,0.009027152,0.48580918,0.019408505,797.3993,799.81683,788.93774,811.9048,1151.5751,-0.16943359375,0.04248046875,0.97393798828125,2.175750732421875,-3.5888671875,0.097198486328125,1.0,1.0,1.0,1.0,1.0,80.0,event
11:49:46.298,-0.026705446,0.2800833,0.2666644,0.33108374,-0.09094201,0.06350768,-0.05414608,0.3506682,0.17325592,0.2830681,0.03145142,0.19476458,0.44032657,0.06922581,0.38953325,0.43775895,0.24896464,0.009027152,0.48580918,0.019408505,784.90845,814.3223,810.293,808.68134,773.22345,-0.16943359375,0.04248046875,0.97393798828125,2.175750732421875,-3.5888671875,0.097198486328125,1.0,1.0,1.0,1.0,1.0,80.0,event
11:49:46.298,-0.026705446,0.2800833,0.2666644,0.33108374,-0.09094201,0.06350768,-0.05414608,0.3506682,0.17325592,0.2830681,0.03145142,0.19476458,0.44032657,0.06922581,0.38953325,0.43775895,0.24896464,0.009027152,0.48580918,0.019408505,782.0879,802.6374,774.83514,801.8315,634.61536,-0.16943359375,0.04248046875,0.97393798828125,2.175750732421875,-3.5888671875,0.097198486328125,1.0,1.0,1.0,1.0,1.0,80.0,event
11:49:46.299,-0.026705446,0.2800833,0.2666644,0.33108374,-0.09094201,0.06350768,-0.05414608,0.3506682,0.17325592,0.2830681,0.03145142,0.19476458,0.44032657,0.06922581,0.38953325,0.43775895,0.24896464,0.009027152,0.48580918,0.019408505,782.0879,790.9524,788.1319,796.99634,700.293,-0.16943359375,0.04248046875,0.97393798828125,2.175750732421875,-3.5888671875,0.097198486328125,1.0,1.0,1.0,1.0,1.0,80.0,event
11:49:46.300,-0.026705446,0.2800833,0.2666644,0.33108374,-0.09094201,0.06350768,-0.05414608,0.3506682,0.17325592,0.2830681,0.03145142,0.19476458,0.44032657,0.06922581,0.38953325,0.43775895,0.24896464,0.009027152,0.48580918,0.019408505,790.9524,808.2784,793.7729,800.2198,696.26373,-0.16943359375,0.04248046875,0.97393798828125,2.175750732421875,-3.5888671875,0.097198486328125,1.0,1.0,1.0,1.0,1.0,80.0,event
11:49:46.327,-0.026705446,0.2800833,0.2666644,0.33108374,-0.09094201,0.06350768,-0.05414608,0.3506682,0.17325592,0.2830681,0.03145142,0.19476458,0.44032657,0.06922581,0.38953325,0.43775895,0.24896464,0.009027152,0.48580918,0.019408505,801.4286,800.2198,772.8205,809.89014,717.2161,-0.17266845703125,0.0421142578125,0.97381591796875,2.130889892578125,-3.222503662109375,0.186920166015625,1.0,1.0,1.0,1.0,1.0,80.0,event
11:49:46.328,-0.026705446,0.2800833,0.2666644,0.33108374,-0.09094201,0.06350768,-0.05414608,0.3506682,0.17325592,0.2830681,0.03145142,0.19476458,0.44032657,0.06922581,0.38953325,0.43775895,0.24896464,0.009027152,0.48580918,0.019408505,800.2198,790.9524,764.7619,805.05493,730.5128,-0.17266845703125,0.0421142578125,0.97381591796875,2.130889892578125,-3.222503662109375,0.186920166015625,1.0,1.0,1.0,1.0,1.0,80.0,event
11:49:46.329,-0.026705446,0.2800833,0.2666644,0.33108374,-0.09094201,0.06350768,-0.05414608,0.3506682,0.17325592,0.2830681,0.03145142,0.19476458,0.44032657,0.06922581,0.38953325,0.43775895,0.24896464,0.009027152,0.48580918,0.019408505,788.93774,800.2198,790.14655,801.02563,700.293,-0.17266845703125,0.0421142578125,0.97381591796875,2.130889892578125,-3.222503662109375,0.186920166015625,1.0,1.0,1.0,1.0,1.0,80.0,event
11:49:46.330,-0.026705446,0.2800833,0.2666644,0.33108374,-0.09094201,0.06350768,-0.05414608,0.3506682,0.17325592,0.2830681,0.03145142,0.19476458,0.44032657,0.06922581,0.38953325,0.43775895,0.24896464,0.009027152,0.48580918,0.019408505,798.20514,807.0696,780.4762,814.7253,684.57874,-0.17266845703125,0.0421142578125,0.97381591796875,2.130889892578125,-3.222503662109375,0.186920166015625,1.0,1.0,1.0,1.0,1.0,80.0,event
11:49:46.330,-0.026705446,0.2800833,0.2666644,0.33108374,-0.09094201,0.06350768,-0.05414608,0.3506682,0.17325592,0.2830681,0.03145142,0.19476458,0.44032657,0.06922581,0.38953325,0.43775895,0.24896464,0.009027152,0.48580918,0.019408505,783.69965,805.05493,795.78754,807.0696,685.38464,-0.17266845703125,0.0421142578125,0.97381591796875,2.130889892578125,-3.222503662109375,0.186920166015625,1.0,1.0,1.0,1.0,1.0,80.0,event
11:49:46.331,-0.026705446,0.2800833,0.2666644,0.33108374,-0.09094201,0.06350768,-0.05414608,0.3506682,0.17325592,0.2830681,0.03145142,0.19476458,0.44032657,0.06922581,0.38953325,0.43775895,0.24896464,0.009027152,0.48580918,0.019408505,815.12823,803.0403,765.56775,814.3223,854.61536,-0.17266845703125,0.0421142578125,0.97381591796875,2.130889892578125,-3.222503662109375,0.186920166015625,1.0,1.0,1.0,1.0,1.0,80.0,event
11:49:46.332,-0.026705446,0.2800833,0.2666644,0.33108374,-0.09094201,0.06350768,-0.05414608,0.3506682,0.17325592,0.2830681,0.03145142,0.19476458,0.44032657,0.06922581,0.38953325,0.43775895,0.24896464,0.009027152,0.48580918,0.019408505,803.0403,795.78754,776.4469,804.2491,1005.7143,-0.17266845703125,0.0421142578125,0.97381591796875,2.130889892578125,-3.222503662109375,0.186920166015625,1.0,1.0,1.0,1.0,1.0,80.0,event
11:49:46.332,-0.026705446,0.2800833,0.2666644,0.33108374,-0.09094201,0.06350768,-0.05414608,0.3506682,0.17325592,0.2830681,0.03145142,0.19476458,0.44032657,0.06922581,0.38953325,0.43775895,0.24896464,0.009027152,0.48580918,0.019408505,788.93774,797.3993,786.1172,801.02563,851.39197,-0.17266845703125,0.0421142578125,0.97381591796875,2.130889892578125,-3.222503662109375,0.186920166015625,1.0,1.0,1.0,1.0,1.0,80.0,event
11:49:46.333,-0.026705446,0.2800833,0.2666644,0.33108374,-0.09094201,0.06350768,-0.05414608,0.3506682,0.17325592,0.2830681,0.03145142,0.19476458,0.44032657,0.06922581,0.38953325,0.43775895,0.24896464,0.009027152,0.48580918,0.019408505,799.011,802.23444,785.7143,804.2491,701.50183,-0.17266845703125,0.0421142578125,0.97381591796875,2.130889892578125,-3.222503662109375,0.186920166015625,1.0,1.0,1.0,1.0,1.0,80.0,event
11:49:46.333,-0.026705446,0.28016692,0.2666644,0.33108374,-0.09094201,0.09016071,-0.05414608,0.3506682,0.17325592,0.3305696,0.03145142,0.19476458,0.44032657,0.065356106,0.38953325,0.43775895,0.24896464,-0.004011102,0.48580918,0.019408505,811.9048,803.0403,761.13556,803.0403,806.26373,-0.17266845703125,0.0421142578125,0.97381591796875,2.130889892578125,-3.222503662109375,0.186920166015625,1.0,1.0,1.0,1.0,1.0,80.0,event
11:49:46.338,-0.026705446,0.28016692,0.2666644,0.33108374,-0.09094201,0.09016071,-0.05414608,0.3506682,0.17325592,0.3305696,0.03145142,0.19476458,0.44032657,0.065356106,0.38953325,0.43775895,0.24896464,-0.004011102,0.48580918,0.019408505,813.91943,805.8608,787.326,808.68134,992.8205,-0.17266845703125,0.0421142578125,0.97381591796875,2.130889892578125,-3.222503662109375,0.186920166015625,1.0,1.0,1.0,1.0,1.0,80.0,event
11:49:46.339,-0.026705446,0.28016692,0.2666644,0.33108374,-0.09094201,0.09016071,-0.05414608,0.3506682,0.17325592,0.3305696,0.03145142,0.19476458,0.44032657,0.065356106,0.38953325,0.43775895,0.24896464,-0.004011102,0.48580918,0.019408505,806.6667,803.8461,791.3553,808.68134,804.2491,-0.17266845703125,0.0421142578125,0.97381591796875,2.130889892578125,-3.222503662109375,0.186920166015625,1.0,1.0,1.0,1.0,1.0,80.0,event
11:49:46.364,-0.026705446,0.28016692,0.2666644,0.33108374,-0.09094201,0.09016071,-0.05414608,0.3506682,0.17325592,0.3305696,0.03145142,0.19476458,0.44032657,0.065356106,0.38953325,0.43775895,0.24896464,-0.004011102,0.48580918,0.019408505,793.7729,798.60803,761.13556,804.65204,699.89014,-0.17108154296875,0.04248046875,0.96966552734375,1.68975830078125,-3.312225341796875,0.022430419921875,1.0,1.0,1.0,1.0,1.0,80.0,event
11:49:46.365,-0.026705446,0.28016692,0.2666644,0.33108374,-0.09094201,0.09016071,-0.05414608,0.3506682,0.17325592,0.3305696,0.03145142,0.19476458,0.44032657,0.065356106,0.38953325,0.43775895,0.24896464,-0.004011102,0.48580918,0.019408505,793.7729,803.0403,760.32965,804.65204,766.3736,-0.17108154296875,0.04248046875,0.96966552734375,1.68975830078125,-3.312225341796875,0.022430419921875,1.0,1.0,1.0,1.0,1.0,80.0,event
11:49:46.365,-0.026705446,0.28016692,0.2666644,0.33108374,-0.09094201,0.09016071,-0.05414608,0.3506682,0.17325592,0.3305696,0.03145142,0.19476458,0.44032657,0.065356106,0.38953325,0.43775895,0.24896464,-0.004011102,0.48580918,0.019408505,807.47253,807.47253,777.25275,811.50183,749.0476,-0.17108154296875,0.04248046875,0.96966552734375,1.68975830078125,-3.312225341796875,0.022430419921875,1.0,1.0,1.0,1.0,1.0,80.0,event
11:49:46.366,-0.026705446,0.28016692,0.2666644,0.33108374,-0.09094201,0.09016071,-0.05414608,0.3506682,0.17325592,0.3305696,0.03145142,0.19476458,0.44032657,0.065356106,0.38953325,0.43775895,0.24896464,-0.004011102,0.48580918,0.019408505,821.5751,805.4579,757.1062,807.47253,716.0073,-0.17108154296875,0.04248046875,0.96966552734375,1.68975830078125,-3.312225341796875,0.022430419921875,1.0,1.0,1.0,1.0,1.0,80.0,event
11:49:46.366,-0.026705446,0.28016692,0.2666644,0.33108374,-0.09094201,0.09016071,-0.05414608,0.3506682,0.17325592,0.3305696,0.03145142,0.19476458,0.44032657,0.065356106,0.38953325,0.43775895,0.24896464,-0.004011102,0.48580918,0.019408505,822.7839,806.26373,775.64105,814.7253,698.2784,-0.17108154296875,0.04248046875,0.96966552734375,1.68975830078125,-3.312225341796875,0.022430419921875,1.0,1.0,1.0,1.0,1.0,80.0,event
11:49:46.367,-0.026705446,0.28016692,0.2666644,0.33108374,-0.09094201,0.09016071,-0.05414608,0.3506682,0.17325592,0.3305696,0.03145142,0.19476458,0.44032657,0.065356106,0.38953325,0.43775895,0.24896464,-0.004011102,0.48580918,0.019408505,795.78754,804.65204,753.0769,803.8461,846.9597,-0.17108154296875,0.04248046875,0.96966552734375,1.68975830078125,-3.312225341796875,0.022430419921875,1.0,1.0,1.0,1.0,1.0,80.0,event
11:49:46.368,-0.026705446,0.28016692,0.2666644,0.33108374,-0.09094201,0.09016071,-0.05414608,0.3506682,0.17325592,0.3305696,0.03145142,0.19476458,0.44032657,0.065356106,0.38953325,0.43775895,0.24896464,-0.004011102,0.48580918,0.019408505,795.78754,805.8608,774.0293,805.8608,830.4396,-0.17108154296875,0.04248046875,0.96966552734375,1.68975830078125,-3.312225341796875,0.022430419921875,1.0,1.0,1.0,1.0,1.0,80.0,event
11:49:46.368,-0.026705446,0.28016692,0.2666644,0.33108374,-0.09094201,0.09016071,-0.05414608,0.3506682,0.17325592,0.3305696,0.03145142,0.19476458,0.44032657,0.065356106,0.38953325,0.43775895,0.24896464,-0.004011102,0.48580918,0.019408505,823.5897,818.7546,801.02563,811.0989,720.0366,-0.17108154296875,0.04248046875,0.96966552734375,1.68975830078125,-3.312225341796875,0.022430419921875,1.0,1.0,1.0,1.0,1.0,80.0,event
11:49:46.369,-0.026705446,0.28016692,0.2666644,0.33108374,-0.09094201,0.09016071,-0.05414608,0.3506682,0.17325592,0.3305696,0.03145142,0.19476458,0.44032657,0.065356106,0.38953325,0.43775895,0.24896464,-0.004011102,0.48580918,0.019408505,833.663,817.5458,774.0293,809.89014,666.04395,-0.17108154296875,0.04248046875,0.96966552734375,1.68975830078125,-3.312225341796875,0.022430419921875,1.0,1.0,1.0,1.0,1.0,80.0,event
11:49:46.369,-0.026705446,0.28016692,0.2666644,0.33108374,-0.09094201,0.09016071,-0.05414608,0.3506682,0.17325592,0.3305696,0.03145142,0.19476458,0.44032657,0.065356106,0.38953325,0.43775895,0.24896464,-0.004011102,0.48580918,0.019408505,824.7985,807.8755,736.1539,817.1429,923.91943,-0.17108154296875,0.04248046875,0.96966552734375,1.68975830078125,-3.312225341796875,0.022430419921875,1.0,1.0,1.0,1.0,1.0,80.0,event
11:49:46.370,-0.026705446,0.28016692,0.2666644,0.33108374,-0.09094201,0.09016071,-0.05414608,0.3506682,0.17325592,0.3305696,0.03145142,0.19476458,0.44032657,0.065356106,0.38953325,0.43775895,0.24896464,-0.004011102,0.48580918,0.019408505,812.3077,802.23444,799.81683,815.5311,978.315,-0.17108154296875,0.04248046875,0.96966552734375,1.68975830078125,-3.312225341796875,0.022430419921875,1.0,1.0,1.0,1.0,1.0,80.0,event
11:49:46.370,-0.026705446,0.28016692,0.2666644,0.33108374,-0.09094201,0.09016071,-0.05414608,0.3506682,0.17325592,0.3305696,0.03145142,0.19476458,0.44032657,0.065356106,0.38953325,0.43775895,0.24896464,-0.004011102,0.48580918,0.019408505,812.71063,801.02563,801.4286,799.011,640.2564,-0.17108154296875,0.04248046875,0.96966552734375,1.68975830078125,-3.312225341796875,0.022430419921875,1.0,1.0,1.0,1.0,1.0,80.0,event
11:49:46.426,-0.026705446,0.28016692,0.2666644,0.33108374,-0.09094201,0.09016071,-0.05414608,0.3506682,0.17325592,0.3305696,0.03145142,0.19476458,0.44032657,0.065356106,0.38953325,0.43775895,0.24896464,-0.004011102,0.48580918,0.019408505,821.978,801.02563,763.5531,808.68134,668.0586,-0.1712646484375,0.04644775390625,0.97271728515625,2.7813720703125,-3.66363525390625,0.82244873046875,1.0,1.0,1.0,1.0,1.0,80.0,event
11:49:46.428,-0.026705446,0.28016692,0.2666644,0.33108374,-0.09094201,0.09016071,-0.05414608,0.3506682,0.17325592,0.3305696,0.03145142,0.19476458,0.44032657,0.065356106,0.38953325,0.43775895,0.24896464,-0.004011102,0.48580918,0.019408505,831.2454,806.26373,791.75824,822.7839,848.97437,-0.1712646484375,0.04644775390625,0.97271728515625,2.7813720703125,-3.66363525390625,0.82244873046875,1.0,1.0,1.0,1.0,1.0,80.0,event
11:49:46.429,-0.026705446,0.28016692,0.2666644,0.33108374,-0.09094201,0.09016071,-0.05414608,0.3506682,0.17325592,0.3305696,0.03145142,0.19476458,0.44032657,0.065356106,0.38953325,0.43775895,0.24896464,-0.004011102,0.48580918,0.019408505,791.3553,799.81683,772.8205,813.1135,682.5641,-0.1712646484375,0.04644775390625,0.97271728515625,2.7813720703125,-3.66363525390625,0.82244873046875,1.0,1.0,1.0,1.0,1.0,80.0,event
11:49:46.429,-0.026705446,0.28016692,0.2666644,0.33108374,-0.09094201,0.09016071,-0.05414608,0.3506682,0.17325592,0.3305696,0.03145142,0.19476458,0.44032657,0.065356106,0.38953325,0.43775895,0.24896464,-0.004011102,0.48580918,0.019408505,813.1135,808.68134,793.7729,818.3516,773.6264,-0.1712646484375,0.04644775390625,0.97271728515625,2.7813720703125,-3.66363525390625,0.82244873046875,1.0,1.0,1.0,1.0,1.0,80.0,event
11:49:46.430,-0.026705446,0.28016692,0.2666644,0.33108374,-0.09094201,0.09016071,-0.05414608,0.3506682,0.17325592,0.3305696,0.03145142,0.19476458,0.44032657,0.065356106,0.38953325,0.43775895,0.24896464,-0.004011102,0.48580918,0.019408505,805.05493,797.3993,769.59705,808.68134,696.26373,-0.1712646484375,0.04644775390625,0.97271728515625,2.7813720703125,-3.66363525390625,0.82244873046875,1.0,1.0,1.0,1.0,1.0,80.0,event
11:49:46.431,-0.026705446,0.28016692,0.2666644,0.33108374,-0.09094201,0.09016071,-0.05414608,0.3506682,0.17325592,0.3305696,0.03145142,0.19476458,0.44032657,0.065356106,0.38953325,0.43775895,0.24896464,-0.004011102,0.48580918,0.019408505,816.337,804.65204,781.28204,804.65204,841.31866,-0.1712646484375,0.04644775390625,0.97271728515625,2.7813720703125,-3.66363525390625,0.82244873046875,1.0,1.0,1.0,1.0,1.0,80.0,event
11:49:46.431,-0.026705446,0.28016692,0.2666644,0.33108374,-0.09094201,0.09016071,-0.05414608,0.3506682,0.17325592,0.3305696,0.03145142,0.19476458,0.44032657,0.065356106,0.38953325,0.43775895,0.24896464,-0.004011102,0.48580918,0.019408505,818.3516,807.8755,786.1172,809.89014,866.30035,-0.1712646484375,0.04644775390625,0.97271728515625,2.7813720703125,-3.66363525390625,0.82244873046875,1.0,1.0,1.0,1.0,1.0,80.0,event
11:49:46.432,-0.026705446,0.28016692,0.2666644,0.33108374,-0.09094201,0.09016071,-0.05414608,0.3506682,0.17325592,0.3305696,0.03145142,0.19476458,0.44032657,0.065356106,0.38953325,0.43775895,0.24896464,-0.004011102,0.48580918,0.019408505,821.978,803.44324,776.04395,805.05493,745.42126,-0.1712646484375,0.04644775390625,0.97271728515625,2.7813720703125,-3.66363525390625,0.82244873046875,1.0,1.0,1.0,1.0,1.0,80.0,event
11:49:46.432,-0.026705446,0.28016692,0.2666644,0.33108374,-0.09094201,0.09016071,-0.05414608,0.3506682,0.17325592,0.3305696,0.03145142,0.19476458,0.44032657,0.065356106,0.38953325,0.43775895,0.24896464,-0.004011102,0.48580918,0.019408505,809.0842,802.6374,745.42126,802.6374,810.293,-0.1712646484375,0.04644775390625,0.97271728515625,2.7813720703125,-3.66363525390625,0.82244873046875,1.0,1.0,1.0,1.0,1.0,80.0,event
11:49:46.433,-0.026705446,0.28016692,0.2666644,0.33108374,-0.09094201,0.09016071,-0.05414608,0.3506682,0.17325592,0.3305696,0.03145142,0.19476458,0.44032657,0.065356106,0.38953325,0.43775895,0.24896464,-0.004011102,0.48580918,0.019408505,799.41394,806.6667,779.2674,812.71063,1016.99634,-0.1712646484375,0.04644775390625,0.97271728515625,2.7813720703125,-3.66363525390625,0.82244873046875,1.0,1.0,1.0,1.0,1.0,80.0,event
11:49:46.434,-0.026705446,0.28016692,0.2666644,0.33108374,-0.09094201,0.09016071,-0.05414608,0.3506682,0.17325592,0.3305696,0.03145142,0.19476458,0.44032657,0.065356106,0.38953325,0.43775895,0.24896464,-0.004011102,0.48580918,0.019408505,813.5165,809.89014,816.7399,810.696,842.9304,-0.1712646484375,0.04644775390625,0.97271728515625,2.7813720703125,-3.66363525390625,0.82244873046875,1.0,1.0,1.0,1.0,1.0,80.0,event
11:49:46.434,-0.026705446,0.27643856,0.2666644,0.33108374,-0.09094201,0.113245316,-0.05414608,0.3506682,0.17325592,0.3323149,0.03145142,0.19476458,0.44032657,0.062454678,0.38953325,0.43775895,0.24896464,0.00013360073,0.48580918,0.019408505,830.4396,810.293,774.83514,812.3077,687.3993,-0.1712646484375,0.04644775390625,0.97271728515625,2.7813720703125,-3.66363525390625,0.82244873046875,1.0,1.0,1.0,1.0,1.0,80.0,event
11:49:46.464,-0.026705446,0.27643856,0.2666644,0.33108374,-0.09094201,0.113245316,-0.05414608,0.3506682,0.17325592,0.3323149,0.03145142,0.19476458,0.44032657,0.062454678,0.38953325,0.43775895,0.24896464,0.00013360073,0.48580918,0.019408505,829.2308,804.2491,751.8681,813.1135,782.8938,-0.175048828125,0.044677734375,0.97283935546875,2.415008544921875,-3.252410888671875,1.77947998046875,1.0,1.0,1.0,1.0,1.0,80.0,event
11:49:46.466,-0.026705446,0.27643856,0.2666644,0.33108374,-0.09094201,0.113245316,-0.05414608,0.3506682,0.17325592,0.3323149,0.03145142,0.19476458,0.44032657,0.062454678,0.38953325,0.43775895,0.24896464,0.00013360073,0.48580918,0.019408505,811.9048,796.99634,767.5824,800.2198,832.8571,-0.175048828125,0.044677734375,0.97283935546875,2.415008544921875,-3.252410888671875,1.77947998046875,1.0,1.0,1.0,1.0,1.0,80.0,event
11:49:46.467,-0.026705446,0.27643856,0.2666644,0.33108374,-0.09094201,0.113245316,-0.05414608,0.3506682,0.17325592,0.3323149,0.03145142,0.19476458,0.44032657,0.062454678,0.38953325,0.43775895,0.24896464,0.00013360073,0.48580918,0.019408505,800.6227,807.8755,784.5055,794.17584,718.8278,-0.175048828125,0.044677734375,0.97283935546875,2.415008544921875,-3.252410888671875,1.77947998046875,1.0,1.0,1.0,1.0,1.0,80.0,event
11:49:46.467,-0.026705446,0.27643856,0.2666644,0.33108374,-0.09094201,0.113245316,-0.05414608,0.3506682,0.17325592,0.3323149,0.03145142,0.19476458,0.44032657,0.062454678,0.38953325,0.43775895,0.24896464,0.00013360073,0.48580918,0.019408505,805.8608,803.0403,794.17584,792.1612,751.8681,-0.175048828125,0.044677734375,0.97283935546875,2.415008544921875,-3.252410888671875,1.77947998046875,1.0,1.0,1.0,1.0,1.0,80.0,event
11:49:46.468,-0.026705446,0.27643856,0.2666644,0.33108374,-0.09094201,0.113245316,-0.05414608,0.3506682,0.17325592,0.3323149,0.03145142,0.19476458,0.44032657,0.062454678,0.38953325,0.43775895,0.24896464,0.00013360073,0.48580918,0.019408505,809.4872,805.4579,756.7033,806.6667,898.5348,-0.175048828125,0.044677734375,0.97283935546875,2.415008544921875,-3.252410888671875,1.77947998046875,1.0,1.0,1.0,1.0,1.0,80.0,event
11:49:46.469,-0.026705446,0.27643856,0.2666644,0.33108374,-0.09094201,0.113245316,-0.05414608,0.3506682,0.17325592,0.3323149,0.03145142,0.19476458,0.44032657,0.062454678,0.38953325,0.43775895,0.24896464,0.00013360073,0.48580918,0.019408505,817.9487,803.44324,774.43225,807.47253,948.9011,-0.175048828125,0.044677734375,0.97283935546875,2.415008544921875,-3.252410888671875,1.77947998046875,1.0,1.0,1.0,1.0,1.0,80.0,event
11:49:46.470,-0.026705446,0.27643856,0.2666644,0.33108374,-0.09094201,0.113245316,-0.05414608,0.3506682,0.17325592,0.3323149,0.03145142,0.19476458,0.44032657,0.062454678,0.38953325,0.43775895,0.24896464,0.00013360073,0.48580918,0.019408505,799.81683,809.4872,786.52014,801.4286,870.32965,-0.175048828125,0.044677734375,0.97283935546875,2.415008544921875,-3.252410888671875,1.77947998046875,1.0,1.0,1.0,1.0,1.0,80.0,event
11:49:46.471,-0.026705446,0.27643856,0.2666644,0.33108374,-0.09094201,0.113245316,-0.05414608,0.3506682,0.17325592,0.3323149,0.03145142,0.19476458,0.44032657,0.062454678,0.38953325,0.43775895,0.24896464,0.00013360073,0.48580918,0.019408505,792.1612,809.4872,772.01465,795.38464,789.7436,-0.175048828125,0.044677734375,0.97283935546875,2.415008544921875,-3.252410888671875,1.77947998046875,1.0,1.0,1.0,1.0,1.0,80.0,event
11:49:46.472,-0.026705446,0.27643856,0.2666644,0.33108374,-0.09094201,0.113245316,-0.05414608,0.3506682,0.17325592,0.3323149,0.03145142,0.19476458,0.44032657,0.062454678,0.38953325,0.43775895,0.24896464,0.00013360073,0.48580918,0.019408505,817.1429,799.011,759.12085,801.02563,869.92676,-0.175048828125,0.044677734375,0.97283935546875,2.415008544921875,-3.252410888671875,1.77947998046875,1.0,1.0,1.0,1.0,1.0,80.0,event
11:49:46.472,-0.026705446,0.27643856,0.2666644,0.33108374,-0.09094201,0.113245316,-0.05414608,0.3506682,0.17325592,0.3323149,0.03145142,0.19476458,0.44032657,0.062454678,0.38953325,0.43775895,0.24896464,0.00013360073,0.48580918,0.019408505,825.6044,799.81683,811.50183,810.293,836.08057,-0.175048828125,0.044677734375,0.97283935546875,2.415008544921875,-3.252410888671875,1.77947998046875,1.0,1.0,1.0,1.0,1.0,80.0,event
11:49:46.473,-0.026705446,0.27643856,0.2666644,0.33108374,-0.09094201,0.113245316,-0.05414608,0.3506682,0.17325592,0.3323149,0.03145142,0.19476458,0.44032657,0.062454678,0.38953325,0.43775895,0.24896464,0.00013360073,0.48580918,0.019408505,820.3663,801.4286,794.17584,801.02563,670.87915,-0.175048828125,0.044677734375,0.97283935546875,2.415008544921875,-3.252410888671875,1.77947998046875,1.0,1.0,1.0,1.0,1.0,80.0,event
11:49:46.474,-0.026705446,0.27643856,0.2666644,0.33108374,-0.09094201,0.113245316,-0.05414608,0.3506682,0.17325592,0.3323149,0.03145142,0.19476458,0.44032657,0.062454678,0.38953325,0.43775895,0.24896464,0.00013360073,0.48580918,0.019408505,808.68134,812.71063,771.6117,794.9817,668.46155,-0.175048828125,0.044677734375,0.97283935546875,2.415008544921875,-3.252410888671875,1.77947998046875,1.0,1.0,1.0,1.0,1.0,80.0,event
11:49:46.500,-0.026705446,0.27643856,0.2666644,0.33108374,-0.09094201,0.113245316,-0.05414608,0.3506682,0.17325592,0.3323149,0.03145142,0.19476458,0.44032657,0.062454678,0.38953325,0.43775895,0.24896464,0.00013360073,0.48580918,0.019408505,796.1905,821.978,801.8315,793.7729,727.6923,-0.175048828125,0.044677734375,0.97283935546875,2.415008544921875,-3.252410888671875,1.77947998046875,1.0,1.0,1.0,1.0,1.0,80.0,event
11:49:46.501,-0.026705446,0.27643856,0.2666644,0.33108374,-0.09094201,0.113245316,-0.05414608,0.3506682,0.17325592,0.3323149,0.03145142,0.19476458,0.44032657,0.062454678,0.38953325,0.43775895,0.24896464,0.00013360073,0.48580918,0.019408505,797.3993,806.6667,801.4286,789.34064,678.93774,-0.175048828125,0.044677734375,0.97283935546875,2.415008544921875,-3.252410888671875,1.77947998046875,1.0,1.0,1.0,1.0,1.0,80.0,event
11:49:46.502,-0.026705446,0.27643856,0.2666644,0.33108374,-0.09094201,0.113245316,-0.05414608,0.3506682,0.17325592,0.3323149,0.03145142,0.19476458,0.44032657,0.062454678,0.38953325,0.43775895,0.24896464,0.00013360073,0.48580918,0.019408505,804.2491,805.05493,792.5641,790.9524,655.16486,-0.175048828125,0.044677734375,0.97283935546875,2.415008544921875,-3.252410888671875,1.77947998046875,1.0,1.0,1.0,1.0,1.0,80.0,event
11:49:46.503,-0.026705446,0.27643856,0.2666644,0.33108374,-0.09094201,0.113245316,-0.05414608,0.3506682,0.17325592,0.3323149,0.03145142,0.19476458,0.44032657,0.062454678,0.38953325,0.43775895,0.24896464,0.00013360073,0.48580918,0.019408505,799.41394,800.6227,772.01465,801.02563,879.59705,-0.175048828125,0.044677734375,0.97283935546875,2.415008544921875,-3.252410888671875,1.77947998046875,1.0,1.0,1.0,1.0,1.0,80.0,event
11:49:46.503,-0.026705446,0.27643856,0.2666644,0.33108374,-0.09094201,0.113245316,-0.05414608,0.3506682,0.17325592,0.3323149,0.03145142,0.19476458,0.44032657,0.062454678,0.38953325,0.43775895,0.24896464,0.00013360073,0.48580918,0.019408505,814.3223,803.8461,773.22345,796.5934,789.7436,-0.175048828125,0.044677734375,0.97283935546875,2.415008544921875,-3.252410888671875,1.77947998046875,1.0,1.0,1.0,1.0,1.0,80.0,event
11:49:46.504,-0.026705446,0.27643856,0.2666644,0.33108374,-0.09094201,0.113245316,-0.05414608,0.3506682,0.17325592,0.3323149,0.03145142,0.19476458,0.44032657,0.062454678,0.38953325,0.43775895,0.24896464,0.00013360073,0.48580918,0.019408505,787.326,802.23444,785.31134,800.6227,921.0989,-0.175048828125,0.044677734375,0.97283935546875,2.415008544921875,-3.252410888671875,1.77947998046875,1.0,1.0,1.0,1.0,1.0,80.0,event
11:49:46.504,-0.026705446,0.27643856,0.2666644,0.33108374,-0.09094201,0.113245316,-0.05414608,0.3506682,0.17325592,0.3323149,0.03145142,0.19476458,0.44032657,0.062454678,0.38953325,0.43775895,0.24896464,0.00013360073,0.48580918,0.019408505,802.23444,805.05493,799.41394,803.0403,870.7326,-0.175048828125,0.044677734375,0.97283935546875,2.415008544921875,-3.252410888671875,1.77947998046875,1.0,1.0,1.0,1.0,1.0,80.0,event
11:49:46.505,-0.026705446,0.27643856,0.2666644,0.33108374,-0.09094201,0.113245316,-0.05414608,0.3506682,0.17325592,0.3323149,0.03145142,0.19476458,0.44032657,0.062454678,0.38953325,0.43775895,0.24896464,0.00013360073,0.48580918,0.019408505,814.7253,815.5311,782.0879,807.0696,852.6007,-0.175048828125,0.044677734375,0.97283935546875,2.415008544921875,-3.252410888671875,1.77947998046875,1.0,1.0,1.0,1.0,1.0,80.0,event
11:49:46.505,-0.026705446,0.27643856,0.2666644,0.33108374,-0.09094201,0.113245316,-0.05414608,0.3506682,0.17325592,0.3323149,0.03145142,0.19476458,0.44032657,0.062454678,0.38953325,0.43775895,0.24896464,0.00013360073,0.48580918,0.019408505,821.1722,812.3077,769.59705,809.4872,1089.9268,-0.175048828125,0.044677734375,0.97283935546875,2.415008544921875,-3.252410888671875,1.77947998046875,1.0,1.0,1.0,1.0,1.0,80.0,event
11:49:46.506,-0.026705446,0.27643856,0.2666644,0.33108374,-0.09094201,0.113245316,-0.05414608,0.3506682,0.17325592,0.3323149,0.03145142,0.19476458,0.44032657,0.062454678,0.38953325,0.43775895,0.24896464,0.00013360073,0.48580918,0.019408505,819.15753,809.0842,815.12823,803.8461,940.84247,-0.175048828125,0.044677734375,0.97283935546875,2.415008544921875,-3.252410888671875,1.77947998046875,1.0,1.0,1.0,1.0,1.0,80.0,event
11:49:46.507,-0.026705446,0.27643856,0.2666644,0.33108374,-0.09094201,0.113245316,-0.05414608,0.3506682,0.17325592,0.3323149,0.03145142,0.19476458,0.44032657,0.062454678,0.38953325,0.43775895,0.24896464,0.00013360073,0.48580918,0.019408505,805.05493,809.89014,794.57874,798.60803,692.23444,-0.175048828125,0.044677734375,0.97283935546875,2.415008544921875,-3.252410888671875,1.77947998046875,1.0,1.0,1.0,1.0,1.0,80.0,event
11:49:46.507,-0.026705446,0.27643856,0.2666644,0.33108374,-0.09094201,0.113245316,-0.05414608,0.3506682,0.17325592,0.3323149,0.03145142,0.19476458,0.44032657,0.062454678,0.38953325,0.43775895,0.24896464,0.00013360073,0.48580918,0.019408505,801.4286,808.68134,774.83514,796.1905,747.03296,-0.175048828125,0.044677734375,0.97283935546875,2.415008544921875,-3.252410888671875,1.77947998046875,1.0,1.0,1.0,1.0,1.0,80.0,event
11:49:46.581,-0.026705446,0.27643856,0.2666644,0.33108374,-0.09094201,0.113245316,-0.05414608,0.3506682,0.17325592,0.3323149,0.03145142,0.19476458,0.44032657,0.062454678,0.38953325,0.43775895,0.24896464,0.00013360073,0.48580918,0.019408505,813.1135,805.4579,796.99634,803.44324,778.86444,-0.17333984375,0.0478515625,0.97705078125,1.772003173828125,-4.658050537109375,0.3887939453125,1.0,1.0,1.0,1.0,1.0,80.0,event
11:49:46.582,-0.026705446,0.2689942,0.2666644,0.6482537,-0.09094201,0.12540358,-0.05414608,0.25495344,0.17325592,0.3323149,0.03145142,0.5835694,0.44032657,0.05894231,0.38953325,0.8872567,0.24896464,0.022665055,0.48580918,0.15324658,814.7253,803.44324,786.52014,807.8755,710.3663,-0.17333984375,0.0478515625,0.97705078125,1.772003173828125,-4.658050537109375,0.3887939453125,1.0,1.0,1.0,1.0,1.0,80.0,event
11:49:46.587,-0.026705446,0.2689942,0.2666644,0.6482537,-0.09094201,0.12540358,-0.05414608,0.25495344,0.17325592,0.3323149,0.03145142,0.5835694,0.44032657,0.05894231,0.38953325,0.8872567,0.24896464,0.022665055,0.48580918,0.15324658,815.12823,807.47253,781.28204,807.47253,685.78754,-0.17333984375,0.0478515625,0.97705078125,1.772003173828125,-4.658050537109375,0.3887939453125,1.0,1.0,1.0,1.0,1.0,80.0,event
11:49:46.588,-0.026705446,0.2689942,0.2666644,0.6482537,-0.09094201,0.12540358,-0.05414608,0.25495344,0.17325592,0.3323149,0.03145142,0.5835694,0.44032657,0.05894231,0.38953325,0.8872567,0.24896464,0.022665055,0.48580918,0.15324658,800.6227,813.91943,789.7436,808.68134,758.315,-0.17333984375,0.0478515625,0.97705078125,1.772003173828125,-4.658050537109375,0.3887939453125,1.0,1.0,1.0,1.0,1.0,80.0,event
11:49:46.589,-0.026705446,0.2689942,0.2666644,0.6482537,-0.09094201,0.12540358,-0.05414608,0.25495344,0.17325592,0.3323149,0.03145142,0.5835694,0.44032657,0.05894231,0.38953325,0.8872567,0.24896464,0.022665055,0.48580918,0.15324658,788.93774,807.8755,796.5934,802.23444,711.978,-0.17333984375,0.0478515625,0.97705078125,1.772003173828125,-4.658050537109375,0.3887939453125,1.0,1.0,1.0,1.0,1.0,80.0,event
11:49:46.589,-0.026705446,0.2689942,0.2666644,0.6482537,-0.09094201,0.12540358,-0.05414608,0.25495344,0.17325592,0.3323149,0.03145142,0.5835694,0.44032657,0.05894231,0.38953325,0.8872567,0.24896464,0.022665055,0.48580918,0.15324658,804.2491,804.2491,792.1612,800.6227,744.21246,-0.17333984375,0.0478515625,0.97705078125,1.772003173828125,-4.658050537109375,0.3887939453125,1.0,1.0,1.0,1.0,1.0,80.0,event
11:49:46.590,-0.026705446,0.2689942,0.2666644,0.6482537,-0.09094201,0.12540358,-0.05414608,0.25495344,0.17325592,0.3323149,0.03145142,0.5835694,0.44032657,0.05894231,0.38953325,0.8872567,0.24896464,0.022665055,0.48580918,0.15324658,823.5897,801.4286,783.2967,806.26373,850.989,-0.17333984375,0.0478515625,0.97705078125,1.772003173828125,-4.658050537109375,0.3887939453125,1.0,1.0,1.0,1.0,1.0,80.0,event
11:49:46.591,-0.026705446,0.2689942,0.2666644,0.6482537,-0.09094201,0.12540358,-0.05414608,0.25495344,0.17325592,0.3323149,0.03145142,0.5835694,0.44032657,0.05894231,0.38953325,0.8872567,0.24896464,0.022665055,0.48580918,0.15324658,823.1868,795.38464,753.0769,811.50183,1012.1612,-0.17333984375,0.0478515625,0.97705078125,1.772003173828125,-4.658050537109375,0.3887939453125,1.0,1.0,1.0,1.0,1.0,80.0,event
11:49:46.591,-0.026705446,0.2689942,0.2666644,0.6482537,-0.09094201,0.12540358,-0.05414608,0.25495344,0.17325592,0.3323149,0.03145142,0.5835694,0.44032657,0.05894231,0.38953325,0.8872567,0.24896464,0.022665055,0.48580918,0.15324658,802.23444,800.2198,817.9487,808.68134,1065.348,-0.17333984375,0.0478515625,0.97705078125,1.772003173828125,-4.658050537109375,0.3887939453125,1.0,1.0,1.0,1.0,1.0,80.0,event
11:49:46.592,-0.026705446,0.2689942,0.2666644,0.6482537,-0.09094201,0.12540358,-0.05414608,0.25495344,0.17325592,0.3323149,0.03145142,0.5835694,0.44032657,0.05894231,0.38953325,0.8872567,0.24896464,0.022665055,0.48580918,0.15324658,790.14655,807.47253,837.6923,800.2198,777.6557,-0.17333984375,0.0478515625,0.97705078125,1.772003173828125,-4.658050537109375,0.3887939453125,1.0,1.0,1.0,1.0,1.0,80.0,event
11:49:46.593,-0.026705446,0.2689942,0.2666644,0.6482537,-0.09094201,0.12540358,-0.05414608,0.25495344,0.17325592,0.3323149,0.03145142,0.5835694,0.44032657,0.05894231,0.38953325,0.8872567,0.24896464,0.022665055,0.48580918,0.15324658,798.60803,814.7253,797.8022,809.0842,690.6227,-0.17333984375,0.0478515625,0.97705078125,1.772003173828125,-4.658050537109375,0.3887939453125,1.0,1.0,1.0,1.0,1.0,80.0,event
11:49:46.593,-0.026705446,0.2689942,0.2666644,0.6482537,-0.09094201,0.12540358,-0.05414608,0.25495344,0.17325592,0.3323149,0.03145142,0.5835694,0.44032657,0.05894231,0.38953325,0.8872567,0.24896464,0.022665055,0.48580918,0.15324658,813.91943,817.1429,809.89014,818.3516,784.10254,-0.17333984375,0.0478515625,0.97705078125,1.772003173828125,-4.658050537109375,0.3887939453125,1.0,1.0,1.0,1.0,1.0,80.0,event
11:49:46.628,-0.026705446,0.2689942,0.2666644,0.6482537,-0.09094201,0.12540358,-0.05414608,0.25495344,0.17325592,0.3323149,0.03145142,0.5835694,0.44032657,0.05894231,0.38953325,0.8872567,0.24896464,0.022665055,0.48580918,0.15324658,813.91943,807.0696,817.5458,805.8608,781.28204,-0.164306640625,0.04779052734375,0.96649169921875,2.13836669921875,-4.717864990234375,0.3887939453125,1.0,1.0,1.0,1.0,1.0,80.0,event
11:49:46.629,-0.026705446,0.2689942,0.2666644,0.6482537,-0.09094201,0.12540358,-0.05414608,0.25495344,0.17325592,0.3323149,0.03145142,0.5835694,0.44032657,0.05894231,0.38953325,0.8872567,0.24896464,0.022665055,0.48580918,0.15324658,795.38464,795.38464,802.23444,796.5934,750.2564,-0.164306640625,0.04779052734375,0.96649169921875,2.13836669921875,-4.717864990234375,0.3887939453125,1.0,1.0,1.0,1.0,1.0,80.0,event
11:49:46.630,-0.026705446,0.2689942,0.2666644,0.6482537,-0.09094201,0.12540358,-0.05414608,0.25495344,0.17325592,0.3323149,0.03145142,0.5835694,0.44032657,0.05894231,0.38953325,0.8872567,0.24896464,0.022665055,0.48580918,0.15324658,775.64105,798.20514,791.75824,790.54944,782.0879,-0.164306640625,0.04779052734375,0.96649169921875,2.13836669921875,-4.717864990234375,0.3887939453125,1.0,1.0,1.0,1.0,1.0,80.0,event
11:49:46.631,-0.026705446,0.2689942,0.2666644,0.6482537,-0.09094201,0.12540358,-0.05414608,0.25495344,0.17325592,0.3323149,0.03145142,0.5835694,0.44032657,0.05894231,0.38953325,0.8872567,0.24896464,0.022665055,0.48580918,0.15324658,814.3223,800.2198,805.4579,793.7729,834.87177,-0.164306640625,0.04779052734375,0.96649169921875,2.13836669921875,-4.717864990234375,0.3887939453125,1.0,1.0,1.0,1.0,1.0,80.0,event
11:49:46.631,-0.026705446,0.2689942,0.2666644,0.6482537,-0.09094201,0.12540358,-0.05414608,0.25495344,0.17325592,0.3323149,0.03145142,0.5835694,0.44032657,0.05894231,0.38953325,0.8872567,0.24896464,0.022665055,0.48580918,0.15324658,788.93774,799.41394,819.5604,786.52014,831.6484,-0.164306640625,0.04779052734375,0.96649169921875,2.13836669921875,-4.717864990234375,0.3887939453125,1.0,1.0,1.0,1.0,1.0,80.0,event
11:49:46.632,-0.026705446,0.2689942,0.2666644,0.6482537,-0.09094201,0.12540358,-0.05414608,0.25495344,0.17325592,0.3323149,0.03145142,0.5835694,0.44032657,0.05894231,0.38953325,0.8872567,0.24896464,0.022665055,0.48580918,0.15324658,815.12823,813.1135,788.93774,796.5934,792.1612,-0.164306640625,0.04779052734375,0.96649169921875,2.13836669921875,-4.717864990234375,0.3887939453125,1.0,1.0,1.0,1.0,1.0,80.0,event
11:49:46.633,-0.026705446,0.2689942,0.2666644,0.6482537,-0.09094201,0.12540358,-0.05414608,0.25495344,0.17325592,0.3323149,0.03145142,0.5835694,0.44032657,0.05894231,0.38953325,0.8872567,0.24896464,0.022665055,0.48580918,0.15324658,797.8022,813.1135,779.2674,797.8022,843.73627,-0.164306640625,0.04779052734375,0.96649169921875,2.13836669921875,-4.717864990234375,0.3887939453125,1.0,1.0,1.0,1.0,1.0,80.0,event
11:49:46.633,-0.026705446,0.2689942,0.2666644,0.6482537,-0.09094201,0.12540358,-0.05414608,0.25495344,0.17325592,0.3323149,0.03145142,0.5835694,0.44032657,0.05894231,0.38953325,0.8872567,0.24896464,0.022665055,0.48580918,0.15324658,788.1319,810.293,802.23444,803.44324,1010.54944,-0.164306640625,0.04779052734375,0.96649169921875,2.13836669921875,-4.717864990234375,0.3887939453125,1.0,1.0,1.0,1.0,1.0,80.0,event
11:49:46.634,-0.026705446,0.2689942,0.2666644,0.6482537,-0.09094201,0.12540358,-0.05414608,0.25495344,0.17325592,0.3323149,0.03145142,0.5835694,0.44032657,0.05894231,0.38953325,0.8872567,0.24896464,0.022665055,0.48580918,0.15324658,794.9817,812.71063,842.1245,799.011,827.2161,-0.164306640625,0.04779052734375,0.96649169921875,2.13836669921875,-4.717864990234375,0.3887939453125,1.0,1.0,1.0,1.0,1.0,80.0,event
11:49:46.635,-0.026705446,0.2689942,0.2666644,0.6482537,-0.09094201,0.12540358,-0.05414608,0.25495344,0.17325592,0.3323149,0.03145142,0.5835694,0.44032657,0.05894231,0.38953325,0.8872567,0.24896464,0.022665055,0.48580918,0.15324658,802.23444,809.89014,803.0403,797.3993,730.5128,-0.164306640625,0.04779052734375,0.96649169921875,2.13836669921875,-4.717864990234375,0.3887939453125,1.0,1.0,1.0,1.0,1.0,80.0,event
11:49:46.635,-0.026705446,0.2689942,0.2666644,0.6482537,-0.09094201,0.12540358,-0.05414608,0.25495344,0.17325592,0.3323149,0.03145142,0.5835694,0.44032657,0.05894231,0.38953325,0.8872567,0.24896464,0.022665055,0.48580918,0.15324658,815.12823,802.6374,769.59705,799.41394,892.0879,-0.164306640625,0.04779052734375,0.96649169921875,2.13836669921875,-4.717864990234375,0.3887939453125,1.0,1.0,1.0,1.0,1.0,80.0,event
11:49:46.636,-0.026705446,0.2689942,0.2666644,0.6482537,-0.09094201,0.12540358,-0.05414608,0.25495344,0.17325592,0.3323149,0.03145142,0.5835694,0.44032657,0.05894231,0.38953325,0.8872567,0.24896464,0.022665055,0.48580918,0.15324658,797.3993,803.8461,796.99634,792.1612,852.1978,-0.164306640625,0.04779052734375,0.96649169921875,2.13836669921875,-4.717864990234375,0.3887939453125,1.0,1.0,1.0,1.0,1.0,80.0,event
11:49:46.666,-0.026705446,0.2689942,0.2666644,0.6482537,-0.09094201,0.12540358,-0.05414608,0.25495344,0.17325592,0.3323149,0.03145142,0.5835694,0.44032657,0.05894231,0.38953325,0.8872567,0.24896464,0.022665055,0.48580918,0.15324658,774.83514,809.4872,811.0989,785.31134,654.35895,-0.16119384765625,0.04693603515625,0.973876953125,2.6318359375,-4.08233642578125,1.487884521484375,1.0,1.0,1.0,1.0,1.0,80.0,event
11:49:46.667,-0.026705446,0.2689942,0.2666644,0.6482537,-0.09094201,0.12540358,-0.05414608,0.25495344,0.17325592,0.3323149,0.03145142,0.5835694,0.44032657,0.05894231,0.38953325,0.8872567,0.24896464,0.022665055,0.48580918,0.15324658,788.1319,810.696,799.41394,790.9524,627.3626,-0.16119384765625,0.04693603515625,0.973876953125,2.6318359375,-4.08233642578125,1.487884521484375,1.0,1.0,1.0,1.0,1.0,80.0,event
11:49:46.667,-0.026705446,0.2689942,0.2666644,0.6482537,-0.09094201,0.12540358,-0.05414608,0.25495344,0.17325592,0.3323149,0.03145142,0.5835694,0.44032657,0.05894231,0.38953325,0.8872567,0.24896464,0.022665055,0.48580918,0.15324658,801.8315,817.1429,783.2967,801.4286,799.81683,-0.16119384765625,0.04693603515625,0.973876953125,2.6318359375,-4.08233642578125,1.487884521484375,1.0,1.0,1.0,1.0,1.0,80.0,event
11:49:46.668,0.4277898,0.24456276,0.2666644,0.6208542,0.55933815,0.11897971,-0.05414608,0.25257063,1.1060781,0.3323149,0.03145142,0.6188447,0.45961788,0.05099081,0.38953325,0.85606813,0.11596424,0.05359662,0.48580918,0.097708456,803.0403,820.3663,802.23444,796.99634,813.5165,-0.16119384765625,0.04693603515625,0.973876953125,2.6318359375,-4.08233642578125,1.487884521484375,1.0,1.0,1.0,1.0,1.0,80.0,event
11:49:46.672,0.4277898,0.24456276,0.2666644,0.6208542,0.55933815,0.11897971,-0.05414608,0.25257063,1.1060781,0.3323149,0.03145142,0.6188447,0.45961788,0.05099081,0.38953325,0.85606813,0.11596424,0.05359662,0.48580918,0.097708456,802.6374,821.1722,810.293,792.5641,765.56775,-0.16119384765625,0.04693603515625,0.973876953125,2.6318359375,-4.08233642578125,1.487884521484375,1.0,1.0,1.0,1.0,1.0,80.0,event
11:49:46.673,0.4277898,0.24456276,0.2666644,0.6208542,0.55933815,0.11897971,-0.05414608,0.25257063,1.1060781,0.3323149,0.03145142,0.6188447,0.45961788,0.05099081,0.38953325,0.85606813,0.11596424,0.05359662,0.48580918,0.097708456,799.81683,811.0989,782.49084,798.20514,844.94507,-0.16119384765625,0.04693603515625,0.973876953125,2.6318359375,-4.08233642578125,1.487884521484375,1.0,1.0,1.0,1.0,1.0,80.0,event
11:49:46.673,0.4277898,0.24456276,0.2666644,0.6208542,0.55933815,0.11897971,-0.05414608,0.25257063,1.1060781,0.3323149,0.03145142,0.6188447,0.45961788,0.05099081,0.38953325,0.85606813,0.11596424,0.05359662,0.48580918,0.097708456,796.99634,805.05493,775.2381,799.81683,1057.2894,-0.16119384765625,0.04693603515625,0.973876953125,2.6318359375,-4.08233642578125,1.487884521484375,1.0,1.0,1.0,1.0,1.0,80.0,event
11:49:46.674,0.4277898,0.24456276,0.2666644,0.6208542,0.55933815,0.11897971,-0.05414608,0.25257063,1.1060781,0.3323149,0.03145142,0.6188447,0.45961788,0.05099081,0.38953325,0.85606813,0.11596424,0.05359662,0.48580918,0.097708456,799.011,801.4286,829.2308,795.78754,989.59705,-0.16119384765625,0.04693603515625,0.973876953125,2.6318359375,-4.08233642578125,1.487884521484375,1.0,1.0,1.0,1.0,1.0,80.0,event
11:49:46.675,0.4277898,0.24456276,0.2666644,0.6208542,0.55933815,0.11897971,-0.05414608,0.25257063,1.1060781,0.3323149,0.03145142,0.6188447,0.45961788,0.05099081,0.38953325,0.85606813,0.11596424,0.05359662,0.48580918,0.097708456,803.0403,801.8315,815.5311,799.011,751.4652,-0.16119384765625,0.04693603515625,0.973876953125,2.6318359375,-4.08233642578125,1.487884521484375,1.0,1.0,1.0,1.0,1.0,80.0,event
11:49:46.676,0.4277898,0.24456276,0.2666644,0.6208542,0.55933815,0.11897971,-0.05414608,0.25257063,1.1060781,0.3323149,0.03145142,0.6188447,0.45961788,0.05099081,0.38953325,0.85606813,0.11596424,0.05359662,0.48580918,0.097708456,799.41394,811.0989,776.4469,800.2198,781.685,-0.16119384765625,0.04693603515625,0.973876953125,2.6318359375,-4.08233642578125,1.487884521484375,1.0,1.0,1.0,1.0,1.0,80.0,event
11:49:46.677,0.4277898,0.24456276,0.2666644,0.6208542,0.55933815,0.11897971,-0.05414608,0.25257063,1.1060781,0.3323149,0.03145142,0.6188447,0.45961788,0.05099081,0.38953325,0.85606813,0.11596424,0.05359662,0.48580918,0.097708456,796.1905,809.0842,794.9817,800.2198,747.8388,-0.16119384765625,0.04693603515625,0.973876953125,2.6318359375,-4.08233642578125,1.487884521484375,1.0,1.0,1.0,1.0,1.0,80.0,event
11:49:46.678,0.4277898,0.24456276,0.2666644,0.6208542,0.55933815,0.11897971,-0.05414608,0.25257063,1.1060781,0.3323149,0.03145142,0.6188447,0.45961788,0.05099081,0.38953325,0.85606813,0.11596424,0.05359662,0.48580918,0.097708456,797.3993,808.2784,809.4872,800.6227,639.0476,-0.16119384765625,0.04693603515625,0.973876953125,2.6318359375,-4.08233642578125,1.487884521484375,1.0,1.0,1.0,1.0,1.0,80.0,event
11:49:46.710,0.4277898,0.24456276,0.2666644,0.6208542,0.55933815,0.11897971,-0.05414608,0.25257063,1.1060781,0.3323149,0.03145142,0.6188447,0.45961788,0.05099081,0.38953325,0.85606813,0.11596424,0.05359662,0.48580918,0.097708456,811.0989,804.65204,794.17584,799.41394,641.8681,-0.16925048828125,0.04705810546875,0.97454833984375,2.28790283203125,-3.33465576171875,1.278533935546875,1.0,1.0,1.0,1.0,1.0,80.0,event
11:49:46.711,0.4277898,0.24456276,0.2666644,0.6208542,0.55933815,0.11897971,-0.05414608,0.25257063,1.1060781,0.3323149,0.03145142,0.6188447,0.45961788,0.05099081,0.38953325,0.85606813,0.11596424,0.05359662,0.48580918,0.097708456,809.89014,797.8022,781.28204,796.5934,765.9707,-0.16925048828125,0.04705810546875,0.97454833984375,2.28790283203125,-3.33465576171875,1.278533935546875,1.0,1.0,1.0,1.0,1.0,80.0,event
11:49:46.712,0.4277898,0.24456276,0.2666644,0.6208542,0.55933815,0.11897971,-0.05414608,0.25257063,1.1060781,0.3323149,0.03145142,0.6188447,0.45961788,0.05099081,0.38953325,0.85606813,0.11596424,0.05359662,0.48580918,0.097708456,796.1905,798.60803,794.9817,794.17584,881.6117,-0.16925048828125,0.04705810546875,0.97454833984375,2.28790283203125,-3.33465576171875,1.278533935546875,1.0,1.0,1.0,1.0,1.0,80.0,event
11:49:46.712,0.4277898,0.24456276,0.2666644,0.6208542,0.55933815,0.11897971,-0.05414608,0.25257063,1.1060781,0.3323149,0.03145142,0.6188447,0.45961788,0.05099081,0.38953325,0.85606813,0.11596424,0.05359662,0.48580918,0.097708456,786.52014,799.41394,786.52014,799.011,786.1172,-0.16925048828125,0.04705810546875,0.97454833984375,2.28790283203125,-3.33465576171875,1.278533935546875,1.0,1.0,1.0,1.0,1.0,80.0,event
11:49:46.713,0.4277898,0.24456276,0.2666644,0.6208542,0.55933815,0.11897971,-0.05414608,0.25257063,1.1060781,0.3323149,0.03145142,0.6188447,0.45961788,0.05099081,0.38953325,0.85606813,0.11596424,0.05359662,0.48580918,0.097708456,787.326,792.1612,780.07324,790.9524,666.4469,-0.16925048828125,0.04705810546875,0.97454833984375,2.28790283203125,-3.33465576171875,1.278533935546875,1.0,1.0,1.0,1.0,1.0,80.0,event
11:49:46.714,0.4277898,0.24456276,0.2666644,0.6208542,0.55933815,0.11897971,-0.05414608,0.25257063,1.1060781,0.3323149,0.03145142,0.6188447,0.45961788,0.05099081,0.38953325,0.85606813,0.11596424,0.05359662,0.48580918,0.097708456,808.68134,799.81683,766.3736,797.8022,857.4359,-0.16925048828125,0.04705810546875,0.97454833984375,2.28790283203125,-3.33465576171875,1.278533935546875,1.0,1.0,1.0,1.0,1.0,80.0,event
11:49:46.714,0.4277898,0.24456276,0.2666644,0.6208542,0.55933815,0.11897971,-0.05414608,0.25257063,1.1060781,0.3323149,0.03145142,0.6188447,0.45961788,0.05099081,0.38953325,0.85606813,0.11596424,0.05359662,0.48580918,0.097708456,823.9927,806.6667,772.01465,811.50183,1103.6263,-0.16925048828125,0.04705810546875,0.97454833984375,2.28790283203125,-3.33465576171875,1.278533935546875,1.0,1.0,1.0,1.0,1.0,80.0,event
11:49:46.715,0.4277898,0.24456276,0.2666644,0.6208542,0.55933815,0.11897971,-0.05414608,0.25257063,1.1060781,0.3323149,0.03145142,0.6188447,0.45961788,0.05099081,0.38953325,0.85606813,0.11596424,0.05359662,0.48580918,0.097708456,801.02563,804.65204,811.9048,803.0403,838.49817,-0.16925048828125,0.04705810546875,0.97454833984375,2.28790283203125,-3.33465576171875,1.278533935546875,1.0,1.0,1.0,1.0,1.0,80.0,event
11:49:46.716,0.4277898,0.24456276,0.2666644,0.6208542,0.55933815,0.11897971,-0.05414608,0.25257063,1.1060781,0.3323149,0.03145142,0.6188447,0.45961788,0.05099081,0.38953325,0.85606813,0.11596424,0.05359662,0.48580918,0.097708456,795.78754,809.89014,785.7143,804.65204,668.46155,-0.16925048828125,0.04705810546875,0.97454833984375,2.28790283203125,-3.33465576171875,1.278533935546875,1.0,1.0,1.0,1.0,1.0,80.0,event
11:49:46.716,0.4277898,0.24456276,0.2666644,0.6208542,0.55933815,0.11897971,-0.05414608,0.25257063,1.1060781,0.3323149,0.03145142,0.6188447,0.45961788,0.05099081,0.38953325,0.85606813,0.11596424,0.05359662,0.48580918,0.097708456,808.68134,808.2784,767.1795,801.02563,726.8865,-0.16925048828125,0.04705810546875,0.97454833984375,2.28790283203125,-3.33465576171875,1.278533935546875,1.0,1.0,1.0,1.0,1.0,80.0,event
11:49:46.717,0.4277898,0.24456276,0.2666644,0.6208542,0.55933815,0.11897971,-0.05414608,0.25257063,1.1060781,0.3323149,0.03145142,0.6188447,0.45961788,0.05099081,0.38953325,0.85606813,0.11596424,0.05359662,0.48580918,0.097708456,808.2784,801.4286,791.75824,798.60803,713.5897,-0.16925048828125,0.04705810546875,0.97454833984375,2.28790283203125,-3.33465576171875,1.278533935546875,1.0,1.0,1.0,1.0,1.0,80.0,event
11:49:46.717,0.4277898,0.24456276,0.2666644,0.6208542,0.55933815,0.11897971,-0.05414608,0.25257063,1.1060781,0.3323149,0.03145142,0.6188447,0.45961788,0.05099081,0.38953325,0.85606813,0.11596424,0.05359662,0.48580918,0.097708456,818.3516,804.2491,798.60803,804.2491,706.7399,-0.16925048828125,0.04705810546875,0.97454833984375,2.28790283203125,-3.33465576171875,1.278533935546875,1.0,1.0,1.0,1.0,1.0,80.0,event
11:49:46.758,0.4277898,0.24456276,0.2666644,0.6208542,0.55933815,0.11897971,-0.05414608,0.25257063,1.1060781,0.3323149,0.03145142,0.6188447,0.45961788,0.05099081,0.38953325,0.85606813,0.11596424,0.05359662,0.48580918,0.097708456,813.5165,807.0696,770.0,804.2491,732.1245,-0.16925048828125,0.04705810546875,0.97454833984375,2.28790283203125,-3.33465576171875,1.278533935546875,1.0,1.0,1.0,1.0,1.0,80.0,event
11:49:46.759,0.4277898,0.24456276,0.2666644,0.6208542,0.55933815,0.11897971,-0.05414608,0.25257063,1.1060781,0.3323149,0.03145142,0.6188447,0.45961788,0.05099081,0.38953325,0.85606813,0.11596424,0.05359662,0.48580918,0.097708456,791.3553,801.02563,753.8828,804.2491,763.95605,-0.16925048828125,0.04705810546875,0.97454833984375,2.28790283203125,-3.33465576171875,1.278533935546875,1.0,1.0,1.0,1.0,1.0,80.0,event
11:49:46.760,0.4277898,0.24456276,0.2666644,0.6208542,0.55933815,0.11897971,-0.05414608,0.25257063,1.1060781,0.3323149,0.03145142,0.6188447,0.45961788,0.05099081,0.38953325,0.85606813,0.11596424,0.05359662,0.48580918,0.097708456,793.36993,804.2491,784.90845,809.0842,769.59705,-0.16925048828125,0.04705810546875,0.97454833984375,2.28790283203125,-3.33465576171875,1.278533935546875,1.0,1.0,1.0,1.0,1.0,80.0,event
11:49:46.761,0.4277898,0.24456276,0.2666644,0.6208542,0.55933815,0.11897971,-0.05414608,0.25257063,1.1060781,0.3323149,0.03145142,0.6188447,0.45961788,0.05099081,0.38953325,0.85606813,0.11596424,0.05359662,0.48580918,0.097708456,815.5311,809.89014,763.1502,816.337,783.69965,-0.16925048828125,0.04705810546875,0.97454833984375,2.28790283203125,-3.33465576171875,1.278533935546875,1.0,1.0,1.0,1.0,1.0,80.0,event
11:49:46.761,0.4277898,0.24456276,0.2666644,0.6208542,0.55933815,0.11897971,-0.05414608,0.25257063,1.1060781,0.3323149,0.03145142,0.6188447,0.45961788,0.05099081,0.38953325,0.85606813,0.11596424,0.05359662,0.48580918,0.097708456,807.0696,809.4872,791.75824,813.91943,729.304,-0.16925048828125,0.04705810546875,0.97454833984375,2.28790283203125,-3.33465576171875,1.278533935546875,1.0,1.0,1.0,1.0,1.0,80.0,event
11:49:46.762,0.5278572,0.1861693,0.2666644,0.58792806,0.5854567,0.0874411,-0.05414608,0.24409087,1.1060781,0.3323149,0.03145142,0.6188447,0.43922678,0.03734925,0.38953325,0.819948,0.09538186,0.082740486,0.48580918,0.059111584,805.8608,809.0842,742.6007,810.696,961.79486,-0.16925048828125,0.04705810546875,0.97454833984375,2.28790283203125,-3.33465576171875,1.278533935546875,1.0,1.0,1.0,1.0,1.0,80.0,event
11:49:46.766,0.5278572,0.1861693,0.2666644,0.58792806,0.5854567,0.0874411,-0.05414608,0.24409087,1.1060781,0.3323149,0.03145142,0.6188447,0.43922678,0.03734925,0.38953325,0.819948,0.09538186,0.082740486,0.48580918,0.059111584,792.5641,807.0696,770.80585,803.0403,890.07324,-0.16925048828125,0.04705810546875,0.97454833984375,2.28790283203125,-3.33465576171875,1.278533935546875,1.0,1.0,1.0,1.0,1.0,80.0,event
11:49:46.767,0.5278572,0.1861693,0.2666644,0.58792806,0.5854567,0.0874411,-0.05414608,0.24409087,1.1060781,0.3323149,0.03145142,0.6188447,0.43922678,0.03734925,0.38953325,0.819948,0.09538186,0.082740486,0.48580918,0.059111584,789.7436,797.3993,806.26373,801.02563,736.9597,-0.16925048828125,0.04705810546875,0.97454833984375,2.28790283203125,-3.33465576171875,1.278533935546875,1.0,1.0,1.0,1.0,1.0,80.0,event
11:49:46.767,0.5278572,0.1861693,0.2666644,0.58792806,0.5854567,0.0874411,-0.05414608,0.24409087,1.1060781,0.3323149,0.03145142,0.6188447,0.43922678,0.03734925,0.38953325,0.819948,0.09538186,0.082740486,0.48580918,0.059111584,808.2784,799.81683,785.7143,805.05493,733.3333,-0.16925048828125,0.04705810546875,0.97454833984375,2.28790283203125,-3.33465576171875,1.278533935546875,1.0,1.0,1.0,1.0,1.0,80.0,event
11:49:46.768,0.5278572,0.1861693,0.2666644,0.58792806,0.5854567,0.0874411,-0.05414608,0.24409087,1.1060781,0.3323149,0.03145142,0.6188447,0.43922678,0.03734925,0.38953325,0.819948,0.09538186,0.082740486,0.48580918,0.059111584,827.619,809.0842,749.0476,807.8755,937.619,-0.16925048828125,0.04705810546875,0.97454833984375,2.28790283203125,-3.33465576171875,1.278533935546875,1.0,1.0,1.0,1.0,1.0,80.0,event
11:49:46.769,0.5278572,0.1861693,0.2666644,0.58792806,0.5854567,0.0874411,-0.05414608,0.24409087,1.1060781,0.3323149,0.03145142,0.6188447,0.43922678,0.03734925,0.38953325,0.819948,0.09538186,0.082740486,0.48580918,0.059111584,812.71063,809.89014,801.4286,801.4286,942.4542,-0.16925048828125,0.04705810546875,0.97454833984375,2.28790283203125,-3.33465576171875,1.278533935546875,1.0,1.0,1.0,1.0,1.0,80.0,event
11:49:46.769,0.5278572,0.1861693,0.2666644,0.58792806,0.5854567,0.0874411,-0.05414608,0.24409087,1.1060781,0.3323149,0.03145142,0.6188447,0.43922678,0.03734925,0.38953325,0.819948,0.09538186,0.082740486,0.48580918,0.059111584,783.2967,806.6667,787.72894,794.9817,755.09155,-0.16925048828125,0.04705810546875,0.97454833984375,2.28790283203125,-3.33465576171875,1.278533935546875,1.0,1.0,1.0,1.0,1.0,80.0,event
11:49:46.791,0.5278572,0.1861693,0.2666644,0.58792806,0.5854567,0.0874411,-0.05414608,0.24409087,1.1060781,0.3323149,0.03145142,0.6188447,0.43922678,0.03734925,0.38953325,0.819948,0.09538186,0.082740486,0.48580918,0.059111584,790.14655,809.4872,769.19415,799.81683,714.7985,-0.16448974609375,0.04345703125,0.974853515625,2.22808837890625,-3.327178955078125,-0.097198486328125,1.0,1.0,1.0,1.0,1.0,80.0,event
11:49:46.791,0.5278572,0.1861693,0.2666644,0.58792806,0.5854567,0.0874411,-0.05414608,0.24409087,1.1060781,0.3323149,0.03145142,0.6188447,0.43922678,0.03734925,0.38953325,0.819948,0.09538186,0.082740486,0.48580918,0.059111584,807.47253,815.12823,796.5934,809.89014,748.24176,-0.16448974609375,0.04345703125,0.974853515625,2.22808837890625,-3.327178955078125,-0.097198486328125,1.0,1.0,1.0,1.0,1.0,80.0,event
11:49:46.792,0.5278572,0.1861693,0.2666644,0.58792806,0.5854567,0.0874411,-0.05414608,0.24409087,1.1060781,0.3323149,0.03145142,0.6188447,0.43922678,0.03734925,0.38953325,0.819948,0.09538186,0.082740486,0.48580918,0.059111584,822.7839,813.5165,791.3553,819.5604,736.9597,-0.16448974609375,0.04345703125,0.974853515625,2.22808837890625,-3.327178955078125,-0.097198486328125,1.0,1.0,1.0,1.0,1.0,80.0,event
11:49:46.793,0.5278572,0.1861693,0.2666644,0.58792806,0.5854567,0.0874411,-0.05414608,0.24409087,1.1060781,0.3323149,0.03145142,0.6188447,0.43922678,0.03734925,0.38953325,0.819948,0.09538186,0.082740486,0.48580918,0.059111584,815.12823,806.26373,752.674,809.0842,789.7436,-0.16448974609375,0.04345703125,0.974853515625,2.22808837890625,-3.327178955078125,-0.097198486328125,1.0,1.0,1.0,1.0,1.0,80.0,event
11:49:46.793,0.5278572,0.1861693,0.2666644,0.58792806,0.5854567,0.0874411,-0.05414608,0.24409087,1.1060781,0.3323149,0.03145142,0.6188447,0.43922678,0.03734925,0.38953325,0.819948,0.09538186,0.082740486,0.48580918,0.059111584,828.022,804.65204,772.8205,817.1429,705.9341,-0.16448974609375,0.04345703125,0.974853515625,2.22808837890625,-3.327178955078125,-0.097198486328125,1.0,1.0,1.0,1.0,1.0,80.0,event
11:49:46.794,0.5278572,0.1861693,0.2666644,0.58792806,0.5854567,0.0874411,-0.05414608,0.24409087,1.1060781,0.3323149,0.03145142,0.6188447,0.43922678,0.03734925,0.38953325,0.819948,0.09538186,0.082740486,0.48580918,0.059111584,792.96704,800.6227,765.9707,799.011,892.8938,-0.16448974609375,0.04345703125,0.974853515625,2.22808837890625,-3.327178955078125,-0.097198486328125,1.0,1.0,1.0,1.0,1.0,80.0,event
11:49:46.795,0.5278572,0.1861693,0.2666644,0.58792806,0.5854567,0.0874411,-0.05414608,0.24409087,1.1060781,0.3323149,0.03145142,0.6188447,0.43922678,0.03734925,0.38953325,0.819948,0.09538186,0.082740486,0.48580918,0.059111584,796.5934,792.96704,776.4469,798.20514,838.0952,-0.16448974609375,0.04345703125,0.974853515625,2.22808837890625,-3.327178955078125,-0.097198486328125,1.0,1.0,1.0,1.0,1.0,80.0,event
11:49:46.795,0.5278572,0.1861693,0.2666644,0.58792806,0.5854567,0.0874411,-0.05414608,0.24409087,1.1060781,0.3323149,0.03145142,0.6188447,0.43922678,0.03734925,0.38953325,0.819948,0.09538186,0.082740486,0.48580918,0.059111584,817.1429,801.8315,780.4762,804.2491,823.9927,-0.16448974609375,0.04345703125,0.974853515625,2.22808837890625,-3.327178955078125,-0.097198486328125,1.0,1.0,1.0,1.0,1.0,80.0,event
11:49:46.796,0.5278572,0.1861693,0.2666644,0.58792806,0.5854567,0.0874411,-0.05414608,0.24409087,1.1060781,0.3323149,0.03145142,0.6188447,0.43922678,0.03734925,0.38953325,0.819948,0.09538186,0.082740486,0.48580918,0.059111584,820.7692,799.41394,754.2857,801.4286,874.35895,-0.16448974609375,0.04345703125,0.974853515625,2.22808837890625,-3.327178955078125,-0.097198486328125,1.0,1.0,1.0,1.0,1.0,80.0,event
11:49:46.796,0.5278572,0.1861693,0.2666644,0.58792806,0.5854567,0.0874411,-0.05414608,0.24409087,1.1060781,0.3323149,0.03145142,0.6188447,0.43922678,0.03734925,0.38953325,0.819948,0.09538186,0.082740486,0.48580918,0.059111584,807.0696,801.4286,739.7802,804.2491,1109.2675,-0.16448974609375,0.04345703125,0.974853515625,2.22808837890625,-3.327178955078125,-0.097198486328125,1.0,1.0,1.0,1.0,1.0,80.0,event
11:49:46.797,0.5278572,0.1861693,0.2666644,0.58792806,0.5854567,0.0874411,-0.05414608,0.24409087,1.1060781,0.3323149,0.03145142,0.6188447,0.43922678,0.03734925,0.38953325,0.819948,0.09538186,0.082740486,0.48580918,0.059111584,794.9817,807.47253,806.6667,805.4579,982.3443,-0.16448974609375,0.04345703125,0.974853515625,2.22808837890625,-3.327178955078125,-0.097198486328125,1.0,1.0,1.0,1.0,1.0,80.0,event
11:49:46.797,0.5278572,0.1861693,0.2666644,0.58792806,0.5854567,0.0874411,-0.05414608,0.24409087,1.1060781,0.3323149,0.03145142,0.6188447,0.43922678,0.03734925,0.38953325,0.819948,0.09538186,0.082740486,0.48580918,0.059111584,796.1905,802.6374,797.3993,803.8461,700.293,-0.16448974609375,0.04345703125,0.974853515625,2.22808837890625,-3.327178955078125,-0.097198486328125,1.0,1.0,1.0,1.0,1.0,80.0,event
11:49:46.823,0.5278572,0.1861693,0.2666644,0.58792806,0.5854567,0.0874411,-0.05414608,0.24409087,1.1060781,0.3323149,0.03145142,0.6188447,0.43922678,0.03734925,0.38953325,0.819948,0.09538186,0.082740486,0.48580918,0.059111584,811.9048,805.8608,759.5238,805.05493,768.3883,-0.16632080078125,0.04901123046875,0.9766845703125,1.353302001953125,-3.1402587890625,0.35888671875,1.0,1.0,1.0,1.0,1.0,80.0,event
11:49:46.825,0.5278572,0.1861693,0.2666644,0.58792806,0.5854567,0.0874411,-0.05414608,0.24409087,1.1060781,0.3323149,0.03145142,0.6188447,0.43922678,0.03734925,0.38953325,0.819948,0.09538186,0.082740486,0.48580918,0.059111584,808.2784,797.3993,775.2381,798.60803,678.93774,-0.16632080078125,0.04901123046875,0.9766845703125,1.353302001953125,-3.1402587890625,0.35888671875,1.0,1.0,1.0,1.0,1.0,80.0,event
11:49:46.825,0.5278572,0.1861693,0.2666644,0.58792806,0.5854567,0.0874411,-0.05414608,0.24409087,1.1060781,0.3323149,0.03145142,0.6188447,0.43922678,0.03734925,0.38953325,0.819948,0.09538186,0.082740486,0.48580918,0.059111584,825.6044,799.41394,776.4469,803.8461,712.381,-0.16632080078125,0.04901123046875,0.9766845703125,1.353302001953125,-3.1402587890625,0.35888671875,1.0,1.0,1.0,1.0,1.0,80.0,event
11:49:46.826,0.5278572,0.1861693,0.2666644,0.58792806,0.5854567,0.0874411,-0.05414608,0.24409087,1.1060781,0.3323149,0.03145142,0.6188447,0.43922678,0.03734925,0.38953325,0.819948,0.09538186,0.082740486,0.48580918,0.059111584,800.2198,800.6227,759.92676,794.9817,852.1978,-0.16632080078125,0.04901123046875,0.9766845703125,1.353302001953125,-3.1402587890625,0.35888671875,1.0,1.0,1.0,1.0,1.0,80.0,event
11:49:46.826,0.5278572,0.1861693,0.2666644,0.58792806,0.5854567,0.0874411,-0.05414608,0.24409087,1.1060781,0.3323149,0.03145142,0.6188447,0.43922678,0.03734925,0.38953325,0.819948,0.09538186,0.082740486,0.48580918,0.059111584,790.54944,802.23444,760.32965,794.17584,745.0183,-0.16632080078125,0.04901123046875,0.9766845703125,1.353302001953125,-3.1402587890625,0.35888671875,1.0,1.0,1.0,1.0,1.0,80.0,event
11:49:46.827,0.5278572,0.1861693,0.2666644,0.58792806,0.5854567,0.0874411,-0.05414608,0.24409087,1.1060781,0.3323149,0.03145142,0.6188447,0.43922678,0.03734925,0.38953325,0.819948,0.09538186,0.082740486,0.48580918,0.059111584,812.71063,807.47253,765.9707,805.05493,897.326,-0.16632080078125,0.04901123046875,0.9766845703125,1.353302001953125,-3.1402587890625,0.35888671875,1.0,1.0,1.0,1.0,1.0,80.0,event
11:49:46.828,0.5278572,0.1861693,0.2666644,0.58792806,0.5854567,0.0874411,-0.05414608,0.24409087,1.1060781,0.3323149,0.03145142,0.6188447,0.43922678,0.03734925,0.38953325,0.819948,0.09538186,0.082740486,0.48580918,0.059111584,816.337,805.8608,774.83514,808.68134,782.0879,-0.16632080078125,0.04901123046875,0.9766845703125,1.353302001953125,-3.1402587890625,0.35888671875,1.0,1.0,1.0,1.0,1.0,80.0,event
11:49:46.828,0.604087,0.083540164,0.2666644,0.5603337,0.60524726,0.03234675,-0.05414608,0.2422577,1.1060781,0.31240937,0.03145142,0.6188447,0.4356798,0.020481847,0.38953325,0.7820125,0.08100893,0.11039408,0.48580918,0.039724976,806.26373,799.41394,766.77655,801.8315,684.57874,-0.16632080078125,0.04901123046875,0.9766845703125,1.353302001953125,-3.1402587890625,0.35888671875,1.0,1.0,1.0,1.0,1.0,80.0,event
11:49:46.832,0.604087,0.083540164,0.2666644,0.5603337,0.60524726,0.03234675,-0.05414608,0.2422577,1.1060781,0.31240937,0.03145142,0.6188447,0.4356798,0.020481847,0.38953325,0.7820125,0.08100893,0.11039408,0.48580918,0.039724976,787.326,794.9817,735.7509,793.7729,904.17584,-0.16632080078125,0.04901123046875,0.9766845703125,1.353302001953125,-3.1402587890625,0.35888671875,1.0,1.0,1.0,1.0,1.0,80.0,event
11:49:46.833,0.604087,0.083540164,0.2666644,0.5603337,0.60524726,0.03234675,-0.05414608,0.2422577,1.1060781,0.31240937,0.03145142,0.6188447,0.4356798,0.020481847,0.38953325,0.7820125,0.08100893,0.11039408,0.48580918,0.039724976,785.31134,794.57874,792.1612,794.9817,928.7546,-0.16632080078125,0.04901123046875,0.9766845703125,1.353302001953125,-3.1402587890625,0.35888671875,1.0,1.0,1.0,1.0,1.0,80.0,event
11:49:46.834,0.604087,0.083540164,0.2666644,0.5603337,0.60524726,0.03234675,-0.05414608,0.2422577,1.1060781,0.31240937,0.03145142,0.6188447,0.4356798,0.020481847,0.38953325,0.7820125,0.08100893,0.11039408,0.48580918,0.039724976,803.0403,793.36993,784.5055,800.2198,716.8132,-0.16632080078125,0.04901123046875,0.9766845703125,1.353302001953125,-3.1402587890625,0.35888671875,1.0,1.0,1.0,1.0,1.0,80.0,event
11:49:46.835,0.604087,0.083540164,0.2666644,0.5603337,0.60524726,0.03234675,-0.05414608,0.2422577,1.1060781,0.31240937,0.03145142,0.6188447,0.4356798,0.020481847,0.38953325,0.7820125,0.08100893,0.11039408,0.48580918,0.039724976,822.381,802.23444,744.61536,802.6374,791.3553,-0.16632080078125,0.04901123046875,0.9766845703125,1.353302001953125,-3.1402587890625,0.35888671875,1.0,1.0,1.0,1.0,1.0,80.0,event
11:49:46.896,0.604087,0.083540164,0.2666644,0.5603337,0.60524726,0.03234675,-0.05414608,0.2422577,1.1060781,0.31240937,0.03145142,0.6188447,0.4356798,0.020481847,0.38953325,0.7820125,0.08100893,0.11039408,0.48580918,0.039724976,819.9634,813.1135,772.4176,804.2491,872.3443,-0.16802978515625,0.04510498046875,0.9737548828125,1.57012939453125,-3.289794921875,-0.07476806640625,1.0,1.0,1.0,1.0,1.0,80.0,event
11:49:46.897,0.604087,0.083540164,0.2666644,0.5603337,0.60524726,0.03234675,-0.05414608,0.2422577,1.1060781,0.31240937,0.03145142,0.6188447,0.4356798,0.020481847,0.38953325,0.7820125,0.08100893,0.11039408,0.48580918,0.039724976,790.54944,801.8315,782.0879,804.2491,767.98535,-0.16802978515625,0.04510498046875,0.9737548828125,1.57012939453125,-3.289794921875,-0.07476806640625,1.0,1.0,1.0,1.0,1.0,80.0,event
11:49:46.898,0.604087,0.083540164,0.2666644,0.5603337,0.60524726,0.03234675,-0.05414608,0.2422577,1.1060781,0.31240937,0.03145142,0.6188447,0.4356798,0.020481847,0.38953325,0.7820125,0.08100893,0.11039408,0.48580918,0.039724976,811.9048,793.36993,759.92676,811.0989,748.24176,-0.16802978515625,0.04510498046875,0.9737548828125,1.57012939453125,-3.289794921875,-0.07476806640625,1.0,1.0,1.0,1.0,1.0,80.0,event
11:49:46.898,0.604087,0.083540164,0.2666644,0.5603337,0.60524726,0.03234675,-0.05414608,0.2422577,1.1060781,0.31240937,0.03145142,0.6188447,0.4356798,0.020481847,0.38953325,0.7820125,0.08100893,0.11039408,0.48580918,0.039724976,792.5641,790.14655,764.35895,806.6667,707.5458,-0.16802978515625,0.04510498046875,0.9737548828125,1.57012939453125,-3.289794921875,-0.07476806640625,1.0,1.0,1.0,1.0,1.0,80.0,event
11:49:46.899,0.604087,0.083540164,0.2666644,0.5603337,0.60524726,0.03234675,-0.05414608,0.2422577,1.1060781,0.31240937,0.03145142,0.6188447,0.4356798,0.020481847,0.38953325,0.7820125,0.08100893,0.11039408,0.48580918,0.039724976,806.6667,791.3553,751.06226,803.8461,820.3663,-0.16802978515625,0.04510498046875,0.9737548828125,1.57012939453125,-3.289794921875,-0.07476806640625,1.0,1.0,1.0,1.0,1.0,80.0,event
11:49:46.899,0.604087,0.083540164,0.2666644,0.5603337,0.60524726,0.03234675,-0.05414608,0.2422577,1.1060781,0.31240937,0.03145142,0.6188447,0.4356798,0.020481847,0.38953325,0.7820125,0.08100893,0.11039408,0.48580918,0.039724976,813.5165,797.3993,772.01465,807.8755,774.0293,-0.16802978515625,0.04510498046875,0.9737548828125,1.57012939453125,-3.289794921875,-0.07476806640625,1.0,1.0,1.0,1.0,1.0,80.0,event
11:49:46.900,0.604087,0.083540164,0.2666644,0.5603337,0.60524726,0.03234675,-0.05414608,0.2422577,1.1060781,0.31240937,0.03145142,0.6188447,0.4356798,0.020481847,0.38953325,0.7820125,0.08100893,0.11039408,0.48580918,0.039724976,794.57874,794.57874,757.9121,805.05493,862.27106,-0.16802978515625,0.04510498046875,0.9737548828125,1.57012939453125,-3.289794921875,-0.07476806640625,1.0,1.0,1.0,1.0,1.0,80.0,event
11:49:46.901,0.604087,0.083540164,0.2666644,0.5603337,0.60524726,0.03234675,-0.05414608,0.2422577,1.1060781,0.31240937,0.03145142,0.6188447,0.4356798,0.020481847,0.38953325,0.7820125,0.08100893,0.11039408,0.48580918,0.039724976,794.57874,801.02563,758.71796,808.2784,910.6227,-0.16802978515625,0.04510498046875,0.9737548828125,1.57012939453125,-3.289794921875,-0.07476806640625,1.0,1.0,1.0,1.0,1.0,80.0,event
11:49:46.901,0.604087,0.083540164,0.2666644,0.5603337,0.60524726,0.03234675,-0.05414608,0.2422577,1.1060781,0.31240937,0.03145142,0.6188447,0.4356798,0.020481847,0.38953325,0.7820125,0.08100893,0.11039408,0.48580918,0.039724976,814.7253,806.26373,765.56775,813.91943,1021.02563,-0.16802978515625,0.04510498046875,0.9737548828125,1.57012939453125,-3.289794921875,-0.07476806640625,1.0,1.0,1.0,1.0,1.0,80.0,event
11:49:46.902,0.604087,0.083540164,0.2666644,0.5603337,0.60524726,0.03234675,-0.05414608,0.2422577,1.1060781,0.31240937,0.03145142,0.6188447,0.4356798,0.020481847,0.38953325,0.7820125,0.08100893,0.11039408,0.48580918,0.039724976,816.337,813.91943,796.99634,805.4579,804.65204,-0.16802978515625,0.04510498046875,0.9737548828125,1.57012939453125,-3.289794921875,-0.07476806640625,1.0,1.0,1.0,1.0,1.0,80.0,event
11:49:46.903,0.604087,0.083540164,0.2666644,0.5603337,0.60524726,0.03234675,-0.05414608,0.2422577,1.1060781,0.31240937,0.03145142,0.6188447,0.4356798,0.020481847,0.38953325,0.7820125,0.08100893,0.11039408,0.48580918,0.039724976,805.8608,801.8315,757.1062,797.8022,660.80585,-0.16802978515625,0.04510498046875,0.9737548828125,1.57012939453125,-3.289794921875,-0.07476806640625,1.0,1.0,1.0,1.0,1.0,80.0,event
11:49:46.904,0.604087,0.083540164,0.2666644,0.5603337,0.60524726,0.03234675,-0.05414608,0.2422577,1.1060781,0.31240937,0.03145142,0.6188447,0.4356798,0.020481847,0.38953325,0.7820125,0.08100893,0.11039408,0.48580918,0.039724976,799.41394,793.7729,740.989,801.02563,778.0586,-0.16802978515625,0.04510498046875,0.9737548828125,1.57012939453125,-3.289794921875,-0.07476806640625,1.0,1.0,1.0,1.0,1.0,80.0,event
11:49:46.929,0.604087,0.083540164,0.2666644,0.5603337,0.60524726,0.03234675,-0.05414608,0.2422577,1.1060781,0.31240937,0.03145142,0.6188447,0.4356798,0.020481847,0.38953325,0.7820125,0.08100893,0.11039408,0.48580918,0.039724976,789.34064,793.36993,767.1795,800.6227,775.64105,-0.16802978515625,0.04510498046875,0.9737548828125,1.57012939453125,-3.289794921875,-0.07476806640625,1.0,1.0,1.0,1.0,1.0,80.0,event
11:49:46.930,0.604087,0.083540164,0.2666644,0.5603337,0.60524726,0.03234675,-0.05414608,0.2422577,1.1060781,0.31240937,0.03145142,0.6188447,0.4356798,0.020481847,0.38953325,0.7820125,0.08100893,0.11039408,0.48580918,0.039724976,800.2198,794.9817,763.5531,797.8022,729.304,-0.16802978515625,0.04510498046875,0.9737548828125,1.57012939453125,-3.289794921875,-0.07476806640625,1.0,1.0,1.0,1.0,1.0,80.0,event
11:49:46.931,0.604087,0.083540164,0.2666644,0.5603337,0.60524726,0.03234675,-0.05414608,0.2422577,1.1060781,0.31240937,0.03145142,0.6188447,0.4356798,0.020481847,0.38953325,0.7820125,0.08100893,0.11039408,0.48580918,0.039724976,826.4103,803.8461,746.2271,804.2491,778.0586,-0.16802978515625,0.04510498046875,0.9737548828125,1.57012939453125,-3.289794921875,-0.07476806640625,1.0,1.0,1.0,1.0,1.0,80.0,event
11:49:46.932,0.604087,0.083540164,0.2666644,0.5603337,0.60524726,0.03234675,-0.05414608,0.2422577,1.1060781,0.31240937,0.03145142,0.6188447,0.4356798,0.020481847,0.38953325,0.7820125,0.08100893,0.11039408,0.48580918,0.039724976,817.1429,806.6667,738.1685,806.26373,857.8388,-0.16802978515625,0.04510498046875,0.9737548828125,1.57012939453125,-3.289794921875,-0.07476806640625,1.0,1.0,1.0,1.0,1.0,80.0,event
11:49:46.932,0.604087,0.083540164,0.2666644,0.5603337,0.60524726,0.03234675,-0.05414608,0.2422577,1.1060781,0.31240937,0.03145142,0.6188447,0.4356798,0.020481847,0.38953325,0.7820125,0.08100893,0.11039408,0.48580918,0.039724976,795.38464,812.71063,762.74725,797.3993,791.75824,-0.16802978515625,0.04510498046875,0.9737548828125,1.57012939453125,-3.289794921875,-0.07476806640625,1.0,1.0,1.0,1.0,1.0,80.0,event
11:49:46.933,0.604087,0.083540164,0.2666644,0.5603337,0.60524726,0.03234675,-0.05414608,0.2422577,1.1060781,0.31240937,0.03145142,0.6188447,0.4356798,0.020481847,0.38953325,0.7820125,0.08100893,0.11039408,0.48580918,0.039724976,798.20514,812.3077,772.4176,799.81683,745.42126,-0.16802978515625,0.04510498046875,0.9737548828125,1.57012939453125,-3.289794921875,-0.07476806640625,1.0,1.0,1.0,1.0,1.0,80.0,event
11:49:46.935,0.604087,0.083540164,0.2666644,0.5603337,0.60524726,0.03234675,-0.05414608,0.2422577,1.1060781,0.31240937,0.03145142,0.6188447,0.4356798,0.020481847,0.38953325,0.7820125,0.08100893,0.11039408,0.48580918,0.039724976,805.4579,799.81683,758.71796,804.65204,834.87177,-0.16802978515625,0.04510498046875,0.9737548828125,1.57012939453125,-3.289794921875,-0.07476806640625,1.0,1.0,1.0,1.0,1.0,80.0,event
11:49:46.936,0.604087,0.083540164,0.2666644,0.5603337,0.60524726,0.03234675,-0.05414608,0.2422577,1.1060781,0.31240937,0.03145142,0.6188447,0.4356798,0.020481847,0.38953325,0.7820125,0.08100893,0.11039408,0.48580918,0.039724976,806.6667,799.81683,743.8095,807.47253,1028.2784,-0.16802978515625,0.04510498046875,0.9737548828125,1.57012939453125,-3.289794921875,-0.07476806640625,1.0,1.0,1.0,1.0,1.0,80.0,event
11:49:46.937,0.604087,0.083540164,0.2666644,0.5603337,0.60524726,0.03234675,-0.05414608,0.2422577,1.1060781,0.31240937,0.03145142,0.6188447,0.4356798,0.020481847,0.38953325,0.7820125,0.08100893,0.11039408,0.48580918,0.039724976,813.91943,806.26373,786.52014,812.3077,979.12085,-0.16802978515625,0.04510498046875,0.9737548828125,1.57012939453125,-3.289794921875,-0.07476806640625,1.0,1.0,1.0,1.0,1.0,80.0,event
11:49:46.938,0.6451836,-0.055412695,0.2666644,0.53878665,0.5989803,-0.02937983,-0.05414608,0.25013584,1.1060781,0.2631272,0.03145142,0.6188447,0.43677077,0.0066723097,0.38953325,0.745826,0.07126166,0.14297143,0.48580918,0.036614098,795.78754,800.2198,779.67035,798.60803,733.73627,-0.16802978515625,0.04510498046875,0.9737548828125,1.57012939453125,-3.289794921875,-0.07476806640625,1.0,1.0,1.0,1.0,1.0,80.0,event
11:49:46.944,0.6451836,-0.055412695,0.2666644,0.53878665,0.5989803,-0.02937983,-0.05414608,0.25013584,1.1060781,0.2631272,0.03145142,0.6188447,0.43677077,0.0066723097,0.38953325,0.745826,0.07126166,0.14297143,0.48580918,0.036614098,786.9231,798.60803,758.71796,790.54944,740.18317,-0.16802978515625,0.04510498046875,0.9737548828125,1.57012939453125,-3.289794921875,-0.07476806640625,1.0,1.0,1.0,1.0,1.0,80.0,event
11:49:46.945,0.6451836,-0.055412695,0.2666644,0.53878665,0.5989803,-0.02937983,-0.05414608,0.25013584,1.1060781,0.2631272,0.03145142,0.6188447,0.43677077,0.0066723097,0.38953325,0.745826,0.07126166,0.14297143,0.48580918,0.036614098,817.9487,795.78754,776.8498,812.71063,765.9707,-0.16802978515625,0.04510498046875,0.9737548828125,1.57012939453125,-3.289794921875,-0.07476806640625,1.0,1.0,1.0,1.0,1.0,80.0,event
11:49:46.971,0.6451836,-0.055412695,0.2666644,0.53878665,0.5989803,-0.02937983,-0.05414608,0.25013584,1.1060781,0.2631272,0.03145142,0.6188447,0.43677077,0.0066723097,0.38953325,0.745826,0.07126166,0.14297143,0.48580918,0.036614098,829.6337,807.0696,778.0586,823.1868,781.685,-0.160400390625,0.04840087890625,0.972412109375,2.51220703125,-4.314117431640625,0.76263427734375,1.0,1.0,1.0,1.0,1.0,80.0,event
11:49:46.972,0.6451836,-0.055412695,0.2666644,0.53878665,0.5989803,-0.02937983,-0.05414608,0.25013584,1.1060781,0.2631272,0.03145142,0.6188447,0.43677077,0.0066723097,0.38953325,0.745826,0.07126166,0.14297143,0.48580918,0.036614098,798.60803,819.5604,756.30035,792.1612,776.8498,-0.160400390625,0.04840087890625,0.972412109375,2.51220703125,-4.314117431640625,0.76263427734375,1.0,1.0,1.0,1.0,1.0,80.0,event
11:49:46.972,0.6451836,-0.055412695,0.2666644,0.53878665,0.5989803,-0.02937983,-0.05414608,0.25013584,1.1060781,0.2631272,0.03145142,0.6188447,0.43677077,0.0066723097,0.38953325,0.745826,0.07126166,0.14297143,0.48580918,0.036614098,767.98535,805.8608,745.0183,765.16486,732.1245,-0.160400390625,0.04840087890625,0.972412109375,2.51220703125,-4.314117431640625,0.76263427734375,1.0,1.0,1.0,1.0,1.0,80.0,event
11:49:46.973,0.6451836,-0.055412695,0.2666644,0.53878665,0.5989803,-0.02937983,-0.05414608,0.25013584,1.1060781,0.2631272,0.03145142,0.6188447,0.43677077,0.0066723097,0.38953325,0.745826,0.07126166,0.14297143,0.48580918,0.036614098,776.04395,799.81683,770.40295,776.8498,745.42126,-0.160400390625,0.04840087890625,0.972412109375,2.51220703125,-4.314117431640625,0.76263427734375,1.0,1.0,1.0,1.0,1.0,80.0,event
11:49:46.973,0.6451836,-0.055412695,0.2666644,0.53878665,0.5989803,-0.02937983,-0.05414608,0.25013584,1.1060781,0.2631272,0.03145142,0.6188447,0.43677077,0.0066723097,0.38953325,0.745826,0.07126166,0.14297143,0.48580918,0.036614098,794.17584,809.89014,769.19415,782.0879,761.13556,-0.160400390625,0.04840087890625,0.972412109375,2.51220703125,-4.314117431640625,0.76263427734375,1.0,1.0,1.0,1.0,1.0,80.0,event
11:49:46.974,0.6451836,-0.055412695,0.2666644,0.53878665,0.5989803,-0.02937983,-0.05414608,0.25013584,1.1060781,0.2631272,0.03145142,0.6188447,0.43677077,0.0066723097,0.38953325,0.745826,0.07126166,0.14297143,0.48580918,0.036614098,808.2784,815.5311,744.61536,779.67035,915.05493,-0.160400390625,0.04840087890625,0.972412109375,2.51220703125,-4.314117431640625,0.76263427734375,1.0,1.0,1.0,1.0,1.0,80.0,event
11:49:46.974,0.6451836,-0.055412695,0.2666644,0.53878665,0.5989803,-0.02937983,-0.05414608,0.25013584,1.1060781,0.2631272,0.03145142,0.6188447,0.43677077,0.0066723097,0.38953325,0.745826,0.07126166,0.14297143,0.48580918,0.036614098,793.7729,812.3077,762.3443,774.0293,791.3553,-0.160400390625,0.04840087890625,0.972412109375,2.51220703125,-4.314117431640625,0.76263427734375,1.0,1.0,1.0,1.0,1.0,80.0,event
11:49:46.975,0.6451836,-0.055412695,0.2666644,0.53878665,0.5989803,-0.02937983,-0.05414608,0.25013584,1.1060781,0.2631272,0.03145142,0.6188447,0.43677077,0.0066723097,0.38953325,0.745826,0.07126166,0.14297143,0.48580918,0.036614098,798.60803,816.337,732.9304,790.14655,1137.0696,-0.160400390625,0.04840087890625,0.972412109375,2.51220703125,-4.314117431640625,0.76263427734375,1.0,1.0,1.0,1.0,1.0,80.0,event
11:49:46.975,0.6451836,-0.055412695,0.2666644,0.53878665,0.5989803,-0.02937983,-0.05414608,0.25013584,1.1060781,0.2631272,0.03145142,0.6188447,0.43677077,0.0066723097,0.38953325,0.745826,0.07126166,0.14297143,0.48580918,0.036614098,784.90845,811.9048,791.75824,784.10254,899.7436,-0.160400390625,0.04840087890625,0.972412109375,2.51220703125,-4.314117431640625,0.76263427734375,1.0,1.0,1.0,1.0,1.0,80.0,event
11:49:46.976,0.6451836,-0.055412695,0.2666644,0.53878665,0.5989803,-0.02937983,-0.05414608,0.25013584,1.1060781,0.2631272,0.03145142,0.6188447,0.43677077,0.0066723097,0.38953325,0.745826,0.07126166,0.14297143,0.48580918,0.036614098,792.5641,810.696,776.04395,778.0586,665.64105,-0.160400390625,0.04840087890625,0.972412109375,2.51220703125,-4.314117431640625,0.76263427734375,1.0,1.0,1.0,1.0,1.0,80.0,event
11:49:46.976,0.6451836,-0.055412695,0.2666644,0.53878665,0.5989803,-0.02937983,-0.05414608,0.25013584,1.1060781,0.2631272,0.03145142,0.6188447,0.43677077,0.0066723097,0.38953325,0.745826,0.07126166,0.14297143,0.48580918,0.036614098,805.05493,805.05493,747.03296,783.69965,713.1868,-0.160400390625,0.04840087890625,0.972412109375,2.51220703125,-4.314117431640625,0.76263427734375,1.0,1.0,1.0,1.0,1.0,80.0,event
11:49:46.977,0.6451836,-0.055412695,0.2666644,0.53878665,0.5989803,-0.02937983,-0.05414608,0.25013584,1.1060781,0.2631272,0.03145142,0.6188447,0.43677077,0.0066723097,0.38953325,0.745826,0.07126166,0.14297143,0.48580918,0.036614098,811.50183,807.8755,759.5238,786.1172,746.63007,-0.160400390625,0.04840087890625,0.972412109375,2.51220703125,-4.314117431640625,0.76263427734375,1.0,1.0,1.0,1.0,1.0,80.0,event
11:49:47.048,0.6451836,-0.055412695,0.2666644,0.53878665,0.5989803,-0.02937983,-0.05414608,0.25013584,1.1060781,0.2631272,0.03145142,0.6188447,0.43677077,0.0066723097,0.38953325,0.745826,0.07126166,0.14297143,0.48580918,0.036614098,797.8022,807.47253,761.13556,781.28204,792.96704,-0.16680908203125,0.048828125,0.968994140625,2.572021484375,-3.54400634765625,1.667327880859375,1.0,1.0,1.0,1.0,1.0,80.0,event
11:49:47.049,0.6451836,-0.055412695,0.2666644,0.53878665,0.5989803,-0.02937983,-0.05414608,0.25013584,1.1060781,0.2631272,0.03145142,0.6188447,0.43677077,0.0066723097,0.38953325,0.745826,0.07126166,0.14297143,0.48580918,0.036614098,786.1172,806.26373,749.45056,780.4762,782.0879,-0.16680908203125,0.048828125,0.968994140625,2.572021484375,-3.54400634765625,1.667327880859375,1.0,1.0,1.0,1.0,1.0,80.0,event
11:49:47.050,0.6451836,-0.055412695,0.2666644,0.53878665,0.5989803,-0.02937983,-0.05414608,0.25013584,1.1060781,0.2631272,0.03145142,0.6188447,0.43677077,0.0066723097,0.38953325,0.745826,0.07126166,0.14297143,0.48580918,0.036614098,792.5641,807.8755,744.21246,791.3553,778.86444,-0.16680908203125,0.048828125,0.968994140625,2.572021484375,-3.54400634765625,1.667327880859375,1.0,1.0,1.0,1.0,1.0,80.0,event
11:49:47.050,0.6451836,-0.055412695,0.2666644,0.53878665,0.5989803,-0.02937983,-0.05414608,0.25013584,1.1060781,0.2631272,0.03145142,0.6188447,0.43677077,0.0066723097,0.38953325,0.745826,0.07126166,0.14297143,0.48580918,0.036614098,807.47253,812.3077,767.98535,803.44324,707.1429,-0.16680908203125,0.048828125,0.968994140625,2.572021484375,-3.54400634765625,1.667327880859375,1.0,1.0,1.0,1.0,1.0,80.0,event
11:49:47.051,0.6451836,-0.055412695,0.2666644,0.53878665,0.5989803,-0.02937983,-0.05414608,0.25013584,1.1060781,0.2631272,0.03145142,0.6188447,0.43677077,0.0066723097,0.38953325,0.745826,0.07126166,0.14297143,0.48580918,0.036614098,817.9487,820.3663,762.74725,804.65204,684.17584,-0.16680908203125,0.048828125,0.968994140625,2.572021484375,-3.54400634765625,1.667327880859375,1.0,1.0,1.0,1.0,1.0,80.0,event
11:49:47.052,0.6451836,-0.055412695,0.2666644,0.53878665,0.5989803,-0.02937983,-0.05414608,0.25013584,1.1060781,0.2631272,0.03145142,0.6188447,0.43677077,0.0066723097,0.38953325,0.745826,0.07126166,0.14297143,0.48580918,0.036614098,800.2198,803.44324,717.2161,802.23444,1028.2784,-0.16680908203125,0.048828125,0.968994140625,2.572021484375,-3.54400634765625,1.667327880859375,1.0,1.0,1.0,1.0,1.0,80.0,event
11:49:47.052,0.6451836,-0.055412695,0.2666644,0.53878665,0.5989803,-0.02937983,-0.05414608,0.25013584,1.1060781,0.2631272,0.03145142,0.6188447,0.43677077,0.0066723097,0.38953325,0.745826,0.07126166,0.14297143,0.48580918,0.036614098,811.9048,805.8608,728.49817,794.17584,814.3223,-0.16680908203125,0.048828125,0.968994140625,2.572021484375,-3.54400634765625,1.667327880859375,1.0,1.0,1.0,1.0,1.0,80.0,event
11:49:47.053,0.6451836,-0.055412695,0.2666644,0.53878665,0.5989803,-0.02937983,-0.05414608,0.25013584,1.1060781,0.2631272,0.03145142,0.6188447,0.43677077,0.0066723097,0.38953325,0.745826,0.07126166,0.14297143,0.48580918,0.036614098,807.8755,816.337,786.9231,810.293,992.01465,-0.16680908203125,0.048828125,0.968994140625,2.572021484375,-3.54400634765625,1.667327880859375,1.0,1.0,1.0,1.0,1.0,80.0,event
11:49:47.054,0.6451836,-0.055412695,0.2666644,0.53878665,0.5989803,-0.02937983,-0.05414608,0.25013584,1.1060781,0.2631272,0.03145142,0.6188447,0.43677077,0.0066723097,0.38953325,0.745826,0.07126166,0.14297143,0.48580918,0.036614098,828.022,812.71063,796.1905,808.2784,767.98535,-0.16680908203125,0.048828125,0.968994140625,2.572021484375,-3.54400634765625,1.667327880859375,1.0,1.0,1.0,1.0,1.0,80.0,event
11:49:47.055,0.6451836,-0.055412695,0.2666644,0.53878665,0.5989803,-0.02937983,-0.05414608,0.25013584,1.1060781,0.2631272,0.03145142,0.6188447,0.43677077,0.0066723097,0.38953325,0.745826,0.07126166,0.14297143,0.48580918,0.036614098,831.2454,807.0696,751.8681,818.3516,763.5531,-0.16680908203125,0.048828125,0.968994140625,2.572021484375,-3.54400634765625,1.667327880859375,1.0,1.0,1.0,1.0,1.0,80.0,event
11:49:47.055,0.6451836,-0.055412695,0.2666644,0.53878665,0.5989803,-0.02937983,-0.05414608,0.25013584,1.1060781,0.2631272,0.03145142,0.6188447,0.43677077,0.0066723097,0.38953325,0.745826,0.07126166,0.14297143,0.48580918,0.036614098,812.3077,801.8315,749.0476,813.91943,872.3443,-0.16680908203125,0.048828125,0.968994140625,2.572021484375,-3.54400634765625,1.667327880859375,1.0,1.0,1.0,1.0,1.0,80.0,event
11:49:47.056,0.6547889,-0.1946009,0.2666644,0.51691955,0.5700811,-0.071639724,-0.05414608,0.2611302,1.1060781,0.23604266,0.03145142,0.6188447,0.43220422,-3.611401e-06,0.38953325,0.7149588,0.06716895,0.18081436,0.48580918,0.04125544,803.44324,806.26373,766.77655,803.8461,774.0293,-0.16680908203125,0.048828125,0.968994140625,2.572021484375,-3.54400634765625,1.667327880859375,1.0,1.0,1.0,1.0,1.0,80.0,event
11:49:47.089,0.6547889,-0.1946009,0.2666644,0.51691955,0.5700811,-0.071639724,-0.05414608,0.2611302,1.1060781,0.23604266,0.03145142,0.6188447,0.43220422,-3.611401e-06,0.38953325,0.7149588,0.06716895,0.18081436,0.48580918,0.04125544,807.47253,805.4579,756.30035,806.6667,658.7912,-0.16363525390625,0.04998779296875,0.97412109375,1.637420654296875,-4.179534912109375,0.34393310546875,1.0,1.0,1.0,1.0,1.0,80.0,event
11:49:47.090,0.6547889,-0.1946009,0.2666644,0.51691955,0.5700811,-0.071639724,-0.05414608,0.2611302,1.1060781,0.23604266,0.03145142,0.6188447,0.43220422,-3.611401e-06,0.38953325,0.7149588,0.06716895,0.18081436,0.48580918,0.04125544,820.3663,813.5165,761.9414,809.89014,741.39197,-0.16363525390625,0.04998779296875,0.97412109375,1.637420654296875,-4.179534912109375,0.34393310546875,1.0,1.0,1.0,1.0,1.0,80.0,event
11:49:47.091,0.6547889,-0.1946009,0.2666644,0.51691955,0.5700811,-0.071639724,-0.05414608,0.2611302,1.1060781,0.23604266,0.03145142,0.6188447,0.43220422,-3.611401e-06,0.38953325,0.7149588,0.06716895,0.18081436,0.48580918,0.04125544,835.6777,815.5311,770.0,813.5165,797.3993,-0.16363525390625,0.04998779296875,0.97412109375,1.637420654296875,-4.179534912109375,0.34393310546875,1.0,1.0,1.0,1.0,1.0,80.0,event
11:49:47.092,0.6547889,-0.1946009,0.2666644,0.51691955,0.5700811,-0.071639724,-0.05414608,0.2611302,1.1060781,0.23604266,0.03145142,0.6188447,0.43220422,-3.611401e-06,0.38953325,0.7149588,0.06716895,0.18081436,0.48580918,0.04125544,823.1868,803.8461,755.89746,805.4579,714.3956,-0.16363525390625,0.04998779296875,0.97412109375,1.637420654296875,-4.179534912109375,0.34393310546875,1.0,1.0,1.0,1.0,1.0,80.0,event
11:49:47.092,0.6547889,-0.1946009,0.2666644,0.51691955,0.5700811,-0.071639724,-0.05414608,0.2611302,1.1060781,0.23604266,0.03145142,0.6188447,0.43220422,-3.611401e-06,0.38953325,0.7149588,0.06716895,0.18081436,0.48580918,0.04125544,802.23444,808.68134,746.63007,792.5641,646.7033,-0.16363525390625,0.04998779296875,0.97412109375,1.637420654296875,-4.179534912109375,0.34393310546875,1.0,1.0,1.0,1.0,1.0,80.0,event
11:49:47.093,0.6547889,-0.1946009,0.2666644,0.51691955,0.5700811,-0.071639724,-0.05414608,0.2611302,1.1060781,0.23604266,0.03145142,0.6188447,0.43220422,-3.611401e-06,0.38953325,0.7149588,0.06716895,0.18081436,0.48580918,0.04125544,803.44324,810.293,738.97437,801.02563,838.9011,-0.16363525390625,0.04998779296875,0.97412109375,1.637420654296875,-4.179534912109375,0.34393310546875,1.0,1.0,1.0,1.0,1.0,80.0,event
11:49:47.094,0.6547889,-0.1946009,0.2666644,0.51691955,0.5700811,-0.071639724,-0.05414608,0.2611302,1.1060781,0.23604266,0.03145142,0.6188447,0.43220422,-3.611401e-06,0.38953325,0.7149588,0.06716895,0.18081436,0.48580918,0.04125544,812.71063,802.23444,767.5824,806.6667,1033.9194,-0.16363525390625,0.04998779296875,0.97412109375,1.637420654296875,-4.179534912109375,0.34393310546875,1.0,1.0,1.0,1.0,1.0,80.0,event
11:49:47.094,0.6547889,-0.1946009,0.2666644,0.51691955,0.5700811,-0.071639724,-0.05414608,0.2611302,1.1060781,0.23604266,0.03145142,0.6188447,0.43220422,-3.611401e-06,0.38953325,0.7149588,0.06716895,0.18081436,0.48580918,0.04125544,823.9927,809.89014,784.10254,809.4872,863.0769,-0.16363525390625,0.04998779296875,0.97412109375,1.637420654296875,-4.179534912109375,0.34393310546875,1.0,1.0,1.0,1.0,1.0,80.0,event
11:49:47.095,0.6547889,-0.1946009,0.2666644,0.51691955,0.5700811,-0.071639724,-0.05414608,0.2611302,1.1060781,0.23604266,0.03145142,0.6188447,0.43220422,-3.611401e-06,0.38953325,0.7149588,0.06716895,0.18081436,0.48580918,0.04125544,823.9927,813.1135,752.27106,808.68134,688.60803,-0.16363525390625,0.04998779296875,0.97412109375,1.637420654296875,-4.179534912109375,0.34393310546875,1.0,1.0,1.0,1.0,1.0,80.0,event
11:49:47.096,0.6547889,-0.1946009,0.2666644,0.51691955,0.5700811,-0.071639724,-0.05414608,0.2611302,1.1060781,0.23604266,0.03145142,0.6188447,0.43220422,-3.611401e-06,0.38953325,0.7149588,0.06716895,0.18081436,0.48580918,0.04125544,805.05493,795.78754,739.7802,799.81683,765.16486,-0.16363525390625,0.04998779296875,0.97412109375,1.637420654296875,-4.179534912109375,0.34393310546875,1.0,1.0,1.0,1.0,1.0,80.0,event
11:49:47.096,0.6547889,-0.1946009,0.2666644,0.51691955,0.5700811,-0.071639724,-0.05414608,0.2611302,1.1060781,0.23604266,0.03145142,0.6188447,0.43220422,-3.611401e-06,0.38953325,0.7149588,0.06716895,0.18081436,0.48580918,0.04125544,802.23444,793.36993,759.12085,800.6227,848.97437,-0.16363525390625,0.04998779296875,0.97412109375,1.637420654296875,-4.179534912109375,0.34393310546875,1.0,1.0,1.0,1.0,1.0,80.0,event
11:49:47.097,0.6547889,-0.1946009,0.2666644,0.51691955,0.5700811,-0.071639724,-0.05414608,0.2611302,1.1060781,0.23604266,0.03145142,0.6188447,0.43220422,-3.611401e-06,0.38953325,0.7149588,0.06716895,0.18081436,0.48580918,0.04125544,813.91943,801.02563,765.16486,803.44324,800.2198,-0.16363525390625,0.04998779296875,0.97412109375,1.637420654296875,-4.179534912109375,0.34393310546875,1.0,1.0,1.0,1.0,1.0,80.0,event
11:49:47.132,0.6547889,-0.1946009,0.2666644,0.51691955,0.5700811,-0.071639724,-0.05414608,0.2611302,1.1060781,0.23604266,0.03145142,0.6188447,0.43220422,-3.611401e-06,0.38953325,0.7149588,0.06716895,0.18081436,0.48580918,0.04125544,827.619,809.4872,763.95605,803.44324,799.41394,-0.1624755859375,0.04681396484375,0.9722900390625,2.3028564453125,-3.72344970703125,0.2691650390625,1.0,1.0,1.0,1.0,1.0,80.0,event
11:49:47.133,0.6547889,-0.1946009,0.2666644,0.51691955,0.5700811,-0.071639724,-0.05414608,0.2611302,1.1060781,0.23604266,0.03145142,0.6188447,0.43220422,-3.611401e-06,0.38953325,0.7149588,0.06716895,0.18081436,0.48580918,0.04125544,828.4249,813.91943,724.87177,815.12823,901.3553,-0.1624755859375,0.04681396484375,0.9722900390625,2.3028564453125,-3.72344970703125,0.2691650390625,1.0,1.0,1.0,1.0,1.0,80.0,event
