TimeStamp,Delta_TP9,Delta_AF7,Delta_AF8,Delta_TP10,Theta_TP9,Theta_AF7,Theta_AF8,Theta_TP10,Alpha_TP9,Alpha_AF7,Alpha_AF8,Alpha_TP10,Beta_TP9,Beta_AF7,Beta_AF8,Beta_TP10,Gamma_TP9,Gamma_AF7,Gamma_AF8,Gamma_TP10,RAW_TP9,RAW_AF7,RAW_AF8,RAW_TP10,AUX_RIGHT,Accelerometer_X,Accelerometer_Y,Accelerometer_Z,Gyro_X,Gyro_Y,Gyro_Z,HeadBandOn,HSI_TP9,HSI_AF7,HSI_AF8,HSI_TP10,Battery,Elements
09:41:23.097,0.60901415,0.0,-0.2434237,0.5393886,0.48910788,0.0,-0.7511237,0.3968106,0.33546847,0.0,0.072524935,0.7046652,0.7084951,0.0,0.15641168,0.47809035,0.4434214,0.0,-0.11927749,0.1209277,687.8022,829.2308,765.9707,781.685,755.09155,-0.19012451171875,0.0948486328125,0.96380615234375,2.87109375,-2.5421142578125,-0.351409912109375,1.0,1.0,4.0,1.0,1.0,80.0,event
09:41:23.098,0.60901415,0.0,-0.2434237,0.5393886,0.48910788,0.0,-0.7511237,0.3968106,0.33546847,0.0,0.072524935,0.7046652,0.7084951,0.0,0.15641168,0.47809035,0.4434214,0.0,-0.11927749,0.1209277,653.5531,917.0696,763.1502,780.4762,639.45056,-0.19012451171875,0.0948486328125,0.96380615234375,2.87109375,-2.5421142578125,-0.351409912109375,1.0,1.0,4.0,1.0,1.0,80.0,event
09:41:23.099,0.60901415,0.0,-0.2434237,0.5393886,0.48910788,0.0,-0.7511237,0.3968106,0.33546847,0.0,0.072524935,0.7046652,0.7084951,0.0,0.15641168,0.47809035,0.4434214,0.0,-0.11927749,0.1209277,791.3553,805.8608,756.7033,792.96704,666.8498,-0.19012451171875,0.0948486328125,0.96380615234375,2.87109375,-2.5421142578125,-0.351409912109375,1.0,1.0,4.0,1.0,1.0,80.0,event
09:41:23.099,0.60901415,0.0,-0.2434237,0.5393886,0.48910788,0.0,-0.7511237,0.3968106,0.33546847,0.0,0.072524935,0.7046652,0.7084951,0.0,0.15641168,0.47809035,0.4434214,0.0,-0.11927749,0.1209277,948.9011,801.02563,762.74725,806.26373,791.75824,-0.19012451171875,0.0948486328125,0.96380615234375,2.87109375,-2.5421142578125,-0.351409912109375,1.0,1.0,4.0,1.0,1.0,80.0,event
09:41:23.100,0.60901415,0.0,-0.2434237,0.5393886,0.48910788,0.0,-0.7511237,0.3968106,0.33546847,0.0,0.072524935,0.7046652,0.7084951,0.0,0.15641168,0.47809035,0.4434214,0.0,-0.11927749,0.1209277,895.31134,880.0,759.92676,807.47253,728.9011,-0.19012451171875,0.0948486328125,0.96380615234375,2.87109375,-2.5421142578125,-0.351409912109375,1.0,1.0,4.0,1.0,1.0,80.0,event
09:41:23.100,0.60901415,0.0,-0.2434237,0.5393886,0.48910788,0.0,-0.7511237,0.3968106,0.33546847,0.0,0.072524935,0.7046652,0.7084951,0.0,0.15641168,0.47809035,0.4434214,0.0,-0.11927749,0.1209277,688.60803,611.6484,760.32965,789.7436,681.75824,-0.19012451171875,0.0948486328125,0.96380615234375,2.87109375,-2.5421142578125,-0.351409912109375,1.0,1.0,4.0,1.0,1.0,80.0,event
09:41:23.101,0.60901415,0.0,-0.2434237,0.5393886,0.48910788,0.0,-0.7511237,0.3968106,0.33546847,0.0,0.072524935,0.7046652,0.7084951,0.0,0.15641168,0.47809035,0.4434214,0.0,-0.11927749,0.1209277,635.42126,408.1685,758.315,787.72894,794.57874,-0.19012451171875,0.0948486328125,0.96380615234375,2.87109375,-2.5421142578125,-0.351409912109375,1.0,1.0,4.0,1.0,1.0,80.0,event
09:41:23.101,0.60901415,0.0,-0.2434237,0.5393886,0.48910788,0.0,-0.7511237,0.3968106,0.33546847,0.0,0.072524935,0.7046652,0.7084951,0.0,0.15641168,0.47809035,0.4434214,0.0,-0.11927749,0.1209277,751.8681,22.967033,756.30035,802.6374,1112.0879,-0.19012451171875,0.0948486328125,0.96380615234375,2.87109375,-2.5421142578125,-0.351409912109375,1.0,1.0,4.0,1.0,1.0,80.0,event
09:41:23.102,0.60901415,0.0,-0.2434237,0.5393886,0.48910788,0.0,-0.7511237,0.3968106,0.33546847,0.0,0.072524935,0.7046652,0.7084951,0.0,0.15641168,0.47809035,0.4434214,0.0,-0.11927749,0.1209277,938.4249,353.36996,786.9231,816.7399,1060.5128,-0.19012451171875,0.0948486328125,0.96380615234375,2.87109375,-2.5421142578125,-0.351409912109375,1.0,1.0,4.0,1.0,1.0,80.0,event
09:41:23.103,0.60901415,0.0,-0.2434237,0.5393886,0.48910788,0.0,-0.7511237,0.3968106,0.33546847,0.0,0.072524935,0.7046652,0.7084951,0.0,0.15641168,0.47809035,0.4434214,0.0,-0.11927749,0.1209277,718.8278,724.0659,756.30035,797.8022,703.1135,-0.19012451171875,0.0948486328125,0.96380615234375,2.87109375,-2.5421142578125,-0.351409912109375,1.0,1.0,4.0,1.0,1.0,80.0,event
09:41:23.103,0.60901415,0.0,-0.2434237,0.5393886,0.48910788,0.0,-0.7511237,0.3968106,0.33546847,0.0,0.072524935,0.7046652,0.7084951,0.0,0.15641168,0.47809035,0.4434214,0.0,-0.11927749,0.1209277,933.5897,1021.4286,767.5824,813.1135,716.8132,-0.19012451171875,0.0948486328125,0.96380615234375,2.87109375,-2.5421142578125,-0.351409912109375,1.0,1.0,4.0,1.0,1.0,80.0,event
09:41:23.104,0.60901415,0.0,-0.16999862,0.56958956,0.48910788,0.0,-0.7704762,0.3957332,0.33546847,0.0,0.0644757,0.7046652,0.7084951,0.0,0.14884943,0.4630449,0.4434214,0.0,-0.12487281,0.107858405,647.50916,628.97437,774.43225,790.14655,713.1868,-0.19012451171875,0.0948486328125,0.96380615234375,2.87109375,-2.5421142578125,-0.351409912109375,1.0,1.0,4.0,1.0,1.0,80.0,event
09:41:23.166,0.60901415,0.0,-0.16999862,0.56958956,0.48910788,0.0,-0.7704762,0.3957332,0.33546847,0.0,0.0644757,0.7046652,0.7084951,0.0,0.14884943,0.4630449,0.4434214,0.0,-0.12487281,0.107858405,763.95605,918.68134,772.4176,801.02563,665.2381,-0.18902587890625,0.101318359375,0.96673583984375,2.55706787109375,-1.98883056640625,-0.067291259765625,1.0,1.0,4.0,1.0,1.0,80.0,event
09:41:23.167,0.60901415,0.0,-0.16999862,0.56958956,0.48910788,0.0,-0.7704762,0.3957332,0.33546847,0.0,0.0644757,0.7046652,0.7084951,0.0,0.14884943,0.4630449,0.4434214,0.0,-0.12487281,0.107858405,936.4103,1086.3004,767.1795,817.1429,752.674,-0.18902587890625,0.101318359375,0.96673583984375,2.55706787109375,-1.98883056640625,-0.067291259765625,1.0,1.0,4.0,1.0,1.0,80.0,event
09:41:23.168,0.60901415,0.0,-0.16999862,0.56958956,0.48910788,0.0,-0.7704762,0.3957332,0.33546847,0.0,0.0644757,0.7046652,0.7084951,0.0,0.14884943,0.4630449,0.4434214,0.0,-0.12487281,0.107858405,942.0513,870.32965,762.3443,817.5458,838.9011,-0.18902587890625,0.101318359375,0.96673583984375,2.55706787109375,-1.98883056640625,-0.067291259765625,1.0,1.0,4.0,1.0,1.0,80.0,event
09:41:23.169,0.60901415,0.0,-0.16999862,0.56958956,0.48910788,0.0,-0.7704762,0.3957332,0.33546847,0.0,0.0644757,0.7046652,0.7084951,0.0,0.14884943,0.4630449,0.4434214,0.0,-0.12487281,0.107858405,737.76556,719.2308,763.5531,802.23444,770.40295,-0.18902587890625,0.101318359375,0.96673583984375,2.55706787109375,-1.98883056640625,-0.067291259765625,1.0,1.0,4.0,1.0,1.0,80.0,event
09:41:23.169,0.60901415,0.0,-0.16999862,0.56958956,0.48910788,0.0,-0.7704762,0.3957332,0.33546847,0.0,0.0644757,0.7046652,0.7084951,0.0,0.14884943,0.4630449,0.4434214,0.0,-0.12487281,0.107858405,642.27106,803.8461,759.12085,789.34064,705.5311,-0.18902587890625,0.101318359375,0.96673583984375,2.55706787109375,-1.98883056640625,-0.067291259765625,1.0,1.0,4.0,1.0,1.0,80.0,event
09:41:23.170,0.60901415,0.0,-0.16999862,0.56958956,0.48910788,0.0,-0.7704762,0.3957332,0.33546847,0.0,0.0644757,0.7046652,0.7084951,0.0,0.14884943,0.4630449,0.4434214,0.0,-0.12487281,0.107858405,743.4066,718.4249,761.13556,789.7436,785.31134,-0.18902587890625,0.101318359375,0.96673583984375,2.55706787109375,-1.98883056640625,-0.067291259765625,1.0,1.0,4.0,1.0,1.0,80.0,event
09:41:23.170,0.60901415,0.0,-0.16999862,0.56958956,0.48910788,0.0,-0.7704762,0.3957332,0.33546847,0.0,0.0644757,0.7046652,0.7084951,0.0,0.14884943,0.4630449,0.4434214,0.0,-0.12487281,0.107858405,907.3993,321.13553,759.12085,809.89014,1039.5604,-0.18902587890625,0.101318359375,0.96673583984375,2.55706787109375,-1.98883056640625,-0.067291259765625,1.0,1.0,4.0,1.0,1.0,80.0,event
09:41:23.171,0.60901415,0.0,-0.16999862,0.56958956,0.48910788,0.0,-0.7704762,0.3957332,0.33546847,0.0,0.0644757,0.7046652,0.7084951,0.0,0.14884943,0.4630449,0.4434214,0.0,-0.12487281,0.107858405,948.49817,242.96703,767.1795,819.9634,1026.2638,-0.18902587890625,0.101318359375,0.96673583984375,2.55706787109375,-1.98883056640625,-0.067291259765625,1.0,1.0,4.0,1.0,1.0,80.0,event
09:41:23.172,0.60901415,0.0,-0.16999862,0.56958956,0.48910788,0.0,-0.7704762,0.3957332,0.33546847,0.0,0.0644757,0.7046652,0.7084951,0.0,0.14884943,0.4630449,0.4434214,0.0,-0.12487281,0.107858405,767.98535,742.6007,767.98535,792.96704,838.9011,-0.18902587890625,0.101318359375,0.96673583984375,2.55706787109375,-1.98883056640625,-0.067291259765625,1.0,1.0,4.0,1.0,1.0,80.0,event
09:41:23.172,0.60901415,0.0,-0.16999862,0.56958956,0.48910788,0.0,-0.7704762,0.3957332,0.33546847,0.0,0.0644757,0.7046652,0.7084951,0.0,0.14884943,0.4630449,0.4434214,0.0,-0.12487281,0.107858405,624.5421,660.80585,755.4945,776.4469,833.2601,-0.18902587890625,0.101318359375,0.96673583984375,2.55706787109375,-1.98883056640625,-0.067291259765625,1.0,1.0,4.0,1.0,1.0,80.0,event
09:41:23.173,0.60901415,0.0,-0.16999862,0.56958956,0.48910788,0.0,-0.7704762,0.3957332,0.33546847,0.0,0.0644757,0.7046652,0.7084951,0.0,0.14884943,0.4630449,0.4434214,0.0,-0.12487281,0.107858405,693.44324,442.82053,772.01465,786.9231,791.75824,-0.18902587890625,0.101318359375,0.96673583984375,2.55706787109375,-1.98883056640625,-0.067291259765625,1.0,1.0,4.0,1.0,1.0,80.0,event
09:41:23.174,0.60901415,0.0,-0.16999862,0.56958956,0.48910788,0.0,-0.7704762,0.3957332,0.33546847,0.0,0.0644757,0.7046652,0.7084951,0.0,0.14884943,0.4630449,0.4434214,0.0,-0.12487281,0.107858405,881.6117,727.28937,784.10254,808.2784,768.7912,-0.18902587890625,0.101318359375,0.96673583984375,2.55706787109375,-1.98883056640625,-0.067291259765625,1.0,1.0,4.0,1.0,1.0,80.0,event
09:41:23.200,0.60901415,0.0,-0.16999862,0.56958956,0.48910788,0.0,-0.7704762,0.3957332,0.33546847,0.0,0.0644757,0.7046652,0.7084951,0.0,0.14884943,0.4630449,0.4434214,0.0,-0.12487281,0.107858405,948.0952,1086.3004,767.1795,812.71063,739.7802,-0.20159912109375,0.094970703125,0.96234130859375,1.1962890625,-2.699127197265625,0.396270751953125,1.0,1.0,4.0,1.0,1.0,80.0,event
09:41:23.201,0.60901415,0.0,-0.16999862,0.56958956,0.48910788,0.0,-0.7704762,0.3957332,0.33546847,0.0,0.0644757,0.7046652,0.7084951,0.0,0.14884943,0.4630449,0.4434214,0.0,-0.12487281,0.107858405,783.2967,861.8681,749.45056,794.9817,743.4066,-0.20159912109375,0.094970703125,0.96234130859375,1.1962890625,-2.699127197265625,0.396270751953125,1.0,1.0,4.0,1.0,1.0,80.0,event
09:41:23.202,0.60901415,0.0,-0.16999862,0.56958956,0.48910788,0.0,-0.7704762,0.3957332,0.33546847,0.0,0.0644757,0.7046652,0.7084951,0.0,0.14884943,0.4630449,0.4434214,0.0,-0.12487281,0.107858405,631.79486,611.6484,757.9121,788.5348,722.8571,-0.20159912109375,0.094970703125,0.96234130859375,1.1962890625,-2.699127197265625,0.396270751953125,1.0,1.0,4.0,1.0,1.0,80.0,event
09:41:23.202,0.60901415,0.0,-0.16999862,0.56958956,0.48910788,0.0,-0.7704762,0.3957332,0.33546847,0.0,0.0644757,0.7046652,0.7084951,0.0,0.14884943,0.4630449,0.4434214,0.0,-0.12487281,0.107858405,680.54944,776.04395,774.83514,791.75824,680.54944,-0.20159912109375,0.094970703125,0.96234130859375,1.1962890625,-2.699127197265625,0.396270751953125,1.0,1.0,4.0,1.0,1.0,80.0,event
09:41:23.203,0.60901415,0.0,-0.16999862,0.56958956,0.48910788,0.0,-0.7704762,0.3957332,0.33546847,0.0,0.0644757,0.7046652,0.7084951,0.0,0.14884943,0.4630449,0.4434214,0.0,-0.12487281,0.107858405,863.8828,969.45056,770.40295,803.44324,693.0403,-0.20159912109375,0.094970703125,0.96234130859375,1.1962890625,-2.699127197265625,0.396270751953125,1.0,1.0,4.0,1.0,1.0,80.0,event
09:41:23.204,0.60901415,0.0,-0.16999862,0.56958956,0.48910788,0.0,-0.7704762,0.3957332,0.33546847,0.0,0.0644757,0.7046652,0.7084951,0.0,0.14884943,0.4630449,0.4434214,0.0,-0.12487281,0.107858405,948.9011,727.28937,749.45056,817.9487,860.2564,-0.20159912109375,0.094970703125,0.96234130859375,1.1962890625,-2.699127197265625,0.396270751953125,1.0,1.0,4.0,1.0,1.0,80.0,event
09:41:23.204,0.60901415,0.0,-0.16999862,0.56958956,0.48910788,0.0,-0.7704762,0.3957332,0.33546847,0.0,0.0644757,0.7046652,0.7084951,0.0,0.14884943,0.4630449,0.4434214,0.0,-0.12487281,0.107858405,789.7436,193.00366,760.32965,805.05493,1019.41394,-0.20159912109375,0.094970703125,0.96234130859375,1.1962890625,-2.699127197265625,0.396270751953125,1.0,1.0,4.0,1.0,1.0,80.0,event
09:41:23.205,0.60901415,0.0,-0.16999862,0.56958956,0.48910788,0.0,-0.7704762,0.3957332,0.33546847,0.0,0.0644757,0.7046652,0.7084951,0.0,0.14884943,0.4630449,0.4434214,0.0,-0.12487281,0.107858405,647.50916,507.28937,786.52014,785.31134,879.19415,-0.20159912109375,0.094970703125,0.96234130859375,1.1962890625,-2.699127197265625,0.396270751953125,1.0,1.0,4.0,1.0,1.0,80.0,event
09:41:23.206,0.60901415,0.0,-0.16999862,0.56958956,0.48910788,0.0,-0.7704762,0.3957332,0.33546847,0.0,0.0644757,0.7046652,0.7084951,0.0,0.14884943,0.4630449,0.4434214,0.0,-0.12487281,0.107858405,698.68134,1002.49084,770.40295,790.14655,764.7619,-0.20159912109375,0.094970703125,0.96234130859375,1.1962890625,-2.699127197265625,0.396270751953125,1.0,1.0,4.0,1.0,1.0,80.0,event
09:41:23.206,0.60901415,0.0,-0.16999862,0.56958956,0.48910788,0.0,-0.7704762,0.3957332,0.33546847,0.0,0.0644757,0.7046652,0.7084951,0.0,0.14884943,0.4630449,0.4434214,0.0,-0.12487281,0.107858405,864.68866,790.9524,767.1795,807.47253,818.3516,-0.20159912109375,0.094970703125,0.96234130859375,1.1962890625,-2.699127197265625,0.396270751953125,1.0,1.0,4.0,1.0,1.0,80.0,event
09:41:23.207,0.60901415,0.0,-0.16999862,0.56958956,0.48910788,0.0,-0.7704762,0.3957332,0.33546847,0.0,0.0644757,0.7046652,0.7084951,0.0,0.14884943,0.4630449,0.4434214,0.0,-0.12487281,0.107858405,979.5238,736.9597,772.01465,817.1429,902.96704,-0.20159912109375,0.094970703125,0.96234130859375,1.1962890625,-2.699127197265625,0.396270751953125,1.0,1.0,4.0,1.0,1.0,80.0,event
09:41:23.208,0.60901415,0.0,-0.16999862,0.56958956,0.48910788,0.0,-0.7704762,0.3957332,0.33546847,0.0,0.0644757,0.7046652,0.7084951,0.0,0.14884943,0.4630449,0.4434214,0.0,-0.12487281,0.107858405,854.61536,775.2381,759.5238,805.8608,940.84247,-0.20159912109375,0.094970703125,0.96234130859375,1.1962890625,-2.699127197265625,0.396270751953125,1.0,1.0,4.0,1.0,1.0,80.0,event
09:41:23.300,0.60901415,0.0,-0.16999862,0.56958956,0.48910788,0.0,-0.7704762,0.3957332,0.33546847,0.0,0.0644757,0.7046652,0.7084951,0.0,0.14884943,0.4630449,0.4434214,0.0,-0.12487281,0.107858405,667.6557,774.0293,763.1502,786.9231,847.3626,-0.2025146484375,0.09600830078125,0.9508056640625,1.7047119140625,-2.88604736328125,-1.00189208984375,1.0,1.0,4.0,1.0,1.0,80.0,event
09:41:23.301,0.7046507,0.0,-0.06485409,0.569993,0.53830874,0.0,-0.7867343,0.3751436,0.5412864,0.0,0.063330434,0.7046652,0.70884514,0.0,0.14866094,0.43941763,0.4254518,0.0,-0.12682234,0.09277529,668.0586,467.8022,755.09155,794.17584,863.8828,-0.2025146484375,0.09600830078125,0.9508056640625,1.7047119140625,-2.88604736328125,-1.00189208984375,1.0,1.0,4.0,1.0,1.0,80.0,event
09:41:23.306,0.7046507,0.0,-0.06485409,0.569993,0.53830874,0.0,-0.7867343,0.3751436,0.5412864,0.0,0.063330434,0.7046652,0.70884514,0.0,0.14866094,0.43941763,0.4254518,0.0,-0.12682234,0.09277529,825.2015,317.50916,770.40295,819.15753,920.696,-0.2025146484375,0.09600830078125,0.9508056640625,1.7047119140625,-2.88604736328125,-1.00189208984375,1.0,1.0,4.0,1.0,1.0,80.0,event
09:41:23.306,0.7046507,0.0,-0.06485409,0.569993,0.53830874,0.0,-0.7867343,0.3751436,0.5412864,0.0,0.063330434,0.7046652,0.70884514,0.0,0.14866094,0.43941763,0.4254518,0.0,-0.12682234,0.09277529,968.24176,909.81683,777.6557,819.5604,730.10986,-0.2025146484375,0.09600830078125,0.9508056640625,1.7047119140625,-2.88604736328125,-1.00189208984375,1.0,1.0,4.0,1.0,1.0,80.0,event
09:41:23.307,0.7046507,0.0,-0.06485409,0.569993,0.53830874,0.0,-0.7867343,0.3751436,0.5412864,0.0,0.063330434,0.7046652,0.70884514,0.0,0.14866094,0.43941763,0.4254518,0.0,-0.12682234,0.09277529,885.2381,947.28937,755.89746,795.78754,667.6557,-0.2025146484375,0.09600830078125,0.9508056640625,1.7047119140625,-2.88604736328125,-1.00189208984375,1.0,1.0,4.0,1.0,1.0,80.0,event
09:41:23.308,0.7046507,0.0,-0.06485409,0.569993,0.53830874,0.0,-0.7867343,0.3751436,0.5412864,0.0,0.063330434,0.7046652,0.70884514,0.0,0.14866094,0.43941763,0.4254518,0.0,-0.12682234,0.09277529,676.1172,558.0586,759.5238,781.28204,803.0403,-0.2025146484375,0.09600830078125,0.9508056640625,1.7047119140625,-2.88604736328125,-1.00189208984375,1.0,1.0,4.0,1.0,1.0,80.0,event
09:41:23.308,0.7046507,0.0,-0.06485409,0.569993,0.53830874,0.0,-0.7867343,0.3751436,0.5412864,0.0,0.063330434,0.7046652,0.70884514,0.0,0.14866094,0.43941763,0.4254518,0.0,-0.12682234,0.09277529,659.59705,336.84982,767.5824,790.9524,868.71796,-0.2025146484375,0.09600830078125,0.9508056640625,1.7047119140625,-2.88604736328125,-1.00189208984375,1.0,1.0,4.0,1.0,1.0,80.0,event
09:41:23.309,0.7046507,0.0,-0.06485409,0.569993,0.53830874,0.0,-0.7867343,0.3751436,0.5412864,0.0,0.063330434,0.7046652,0.70884514,0.0,0.14866094,0.43941763,0.4254518,0.0,-0.12682234,0.09277529,831.2454,703.91943,776.8498,807.8755,784.90845,-0.2025146484375,0.09600830078125,0.9508056640625,1.7047119140625,-2.88604736328125,-1.00189208984375,1.0,1.0,4.0,1.0,1.0,80.0,event
09:41:23.310,0.7046507,0.0,-0.06485409,0.569993,0.53830874,0.0,-0.7867343,0.3751436,0.5412864,0.0,0.063330434,0.7046652,0.70884514,0.0,0.14866094,0.43941763,0.4254518,0.0,-0.12682234,0.09277529,979.5238,1040.3663,759.92676,825.6044,723.663,-0.2025146484375,0.09600830078125,0.9508056640625,1.7047119140625,-2.88604736328125,-1.00189208984375,1.0,1.0,4.0,1.0,1.0,80.0,event
09:41:23.310,0.7046507,0.0,-0.06485409,0.569993,0.53830874,0.0,-0.7867343,0.3751436,0.5412864,0.0,0.063330434,0.7046652,0.70884514,0.0,0.14866094,0.43941763,0.4254518,0.0,-0.12682234,0.09277529,892.49084,432.34433,752.27106,824.7985,859.0476,-0.2025146484375,0.09600830078125,0.9508056640625,1.7047119140625,-2.88604736328125,-1.00189208984375,1.0,1.0,4.0,1.0,1.0,80.0,event
09:41:23.311,0.7046507,0.0,-0.06485409,0.569993,0.53830874,0.0,-0.7867343,0.3751436,0.5412864,0.0,0.063330434,0.7046652,0.70884514,0.0,0.14866094,0.43941763,0.4254518,0.0,-0.12682234,0.09277529,680.54944,246.99634,781.28204,800.2198,849.3773,-0.2025146484375,0.09600830078125,0.9508056640625,1.7047119140625,-2.88604736328125,-1.00189208984375,1.0,1.0,4.0,1.0,1.0,80.0,event
09:41:23.312,0.7046507,0.0,-0.06485409,0.569993,0.53830874,0.0,-0.7867343,0.3751436,0.5412864,0.0,0.063330434,0.7046652,0.70884514,0.0,0.14866094,0.43941763,0.4254518,0.0,-0.12682234,0.09277529,651.13556,829.6337,779.67035,788.5348,645.4945,-0.2025146484375,0.09600830078125,0.9508056640625,1.7047119140625,-2.88604736328125,-1.00189208984375,1.0,1.0,4.0,1.0,1.0,80.0,event
09:41:23.335,0.7046507,0.0,-0.06485409,0.569993,0.53830874,0.0,-0.7867343,0.3751436,0.5412864,0.0,0.063330434,0.7046652,0.70884514,0.0,0.14866094,0.43941763,0.4254518,0.0,-0.12682234,0.09277529,805.8608,845.7509,759.92676,805.8608,712.381,-0.2025146484375,0.09600830078125,0.9508056640625,1.7047119140625,-2.88604736328125,-1.00189208984375,1.0,1.0,4.0,1.0,1.0,80.0,event
09:41:23.337,0.7046507,0.0,-0.06485409,0.569993,0.53830874,0.0,-0.7867343,0.3751436,0.5412864,0.0,0.063330434,0.7046652,0.70884514,0.0,0.14866094,0.43941763,0.4254518,0.0,-0.12682234,0.09277529,928.7546,866.30035,760.7326,822.7839,792.1612,-0.2025146484375,0.09600830078125,0.9508056640625,1.7047119140625,-2.88604736328125,-1.00189208984375,1.0,1.0,4.0,1.0,1.0,80.0,event
09:41:23.337,0.7046507,0.0,-0.06485409,0.569993,0.53830874,0.0,-0.7867343,0.3751436,0.5412864,0.0,0.063330434,0.7046652,0.70884514,0.0,0.14866094,0.43941763,0.4254518,0.0,-0.12682234,0.09277529,963.00366,803.44324,760.7326,826.4103,798.60803,-0.2025146484375,0.09600830078125,0.9508056640625,1.7047119140625,-2.88604736328125,-1.00189208984375,1.0,1.0,4.0,1.0,1.0,80.0,event
09:41:23.338,0.7046507,0.0,-0.06485409,0.569993,0.53830874,0.0,-0.7867343,0.3751436,0.5412864,0.0,0.063330434,0.7046652,0.70884514,0.0,0.14866094,0.43941763,0.4254518,0.0,-0.12682234,0.09277529,738.1685,720.0366,762.74725,802.6374,716.4103,-0.2025146484375,0.09600830078125,0.9508056640625,1.7047119140625,-2.88604736328125,-1.00189208984375,1.0,1.0,4.0,1.0,1.0,80.0,event
09:41:23.339,0.7046507,0.0,-0.06485409,0.569993,0.53830874,0.0,-0.7867343,0.3751436,0.5412864,0.0,0.063330434,0.7046652,0.70884514,0.0,0.14866094,0.43941763,0.4254518,0.0,-0.12682234,0.09277529,665.64105,630.58606,760.32965,806.6667,750.2564,-0.2025146484375,0.09600830078125,0.9508056640625,1.7047119140625,-2.88604736328125,-1.00189208984375,1.0,1.0,4.0,1.0,1.0,80.0,event
09:41:23.339,0.7046507,0.0,-0.06485409,0.569993,0.53830874,0.0,-0.7867343,0.3751436,0.5412864,0.0,0.063330434,0.7046652,0.70884514,0.0,0.14866094,0.43941763,0.4254518,0.0,-0.12682234,0.09277529,771.6117,255.45787,759.5238,825.6044,1006.9231,-0.2025146484375,0.09600830078125,0.9508056640625,1.7047119140625,-2.88604736328125,-1.00189208984375,1.0,1.0,4.0,1.0,1.0,80.0,event
09:41:23.340,0.7046507,0.0,-0.06485409,0.569993,0.53830874,0.0,-0.7867343,0.3751436,0.5412864,0.0,0.063330434,0.7046652,0.70884514,0.0,0.14866094,0.43941763,0.4254518,0.0,-0.12682234,0.09277529,962.6007,384.79852,784.10254,835.2747,979.12085,-0.2025146484375,0.09600830078125,0.9508056640625,1.7047119140625,-2.88604736328125,-1.00189208984375,1.0,1.0,4.0,1.0,1.0,80.0,event
09:41:23.340,0.7046507,0.0,-0.06485409,0.569993,0.53830874,0.0,-0.7867343,0.3751436,0.5412864,0.0,0.063330434,0.7046652,0.70884514,0.0,0.14866094,0.43941763,0.4254518,0.0,-0.12682234,0.09277529,981.53845,963.4066,776.04395,836.08057,761.53845,-0.2025146484375,0.09600830078125,0.9508056640625,1.7047119140625,-2.88604736328125,-1.00189208984375,1.0,1.0,4.0,1.0,1.0,80.0,event
09:41:23.341,0.7046507,0.0,-0.06485409,0.569993,0.53830874,0.0,-0.7867343,0.3751436,0.5412864,0.0,0.063330434,0.7046652,0.70884514,0.0,0.14866094,0.43941763,0.4254518,0.0,-0.12682234,0.09277529,753.47986,716.8132,749.85345,815.5311,803.44324,-0.2025146484375,0.09600830078125,0.9508056640625,1.7047119140625,-2.88604736328125,-1.00189208984375,1.0,1.0,4.0,1.0,1.0,80.0,event
09:41:23.342,0.7046507,0.0,-0.06485409,0.569993,0.53830874,0.0,-0.7867343,0.3751436,0.5412864,0.0,0.063330434,0.7046652,0.70884514,0.0,0.14866094,0.43941763,0.4254518,0.0,-0.12682234,0.09277529,659.59705,266.73993,755.4945,800.2198,850.58606,-0.2025146484375,0.09600830078125,0.9508056640625,1.7047119140625,-2.88604736328125,-1.00189208984375,1.0,1.0,4.0,1.0,1.0,80.0,event
09:41:23.342,0.7046507,0.0,-0.06485409,0.569993,0.53830874,0.0,-0.7867343,0.3751436,0.5412864,0.0,0.063330434,0.7046652,0.70884514,0.0,0.14866094,0.43941763,0.4254518,0.0,-0.12682234,0.09277529,775.2381,688.60803,779.2674,805.05493,665.2381,-0.2025146484375,0.09600830078125,0.9508056640625,1.7047119140625,-2.88604736328125,-1.00189208984375,1.0,1.0,4.0,1.0,1.0,80.0,event
09:41:23.343,0.7046507,0.0,-0.06485409,0.569993,0.53830874,0.0,-0.7867343,0.3751436,0.5412864,0.0,0.063330434,0.7046652,0.70884514,0.0,0.14866094,0.43941763,0.4254518,0.0,-0.12682234,0.09277529,945.6777,1031.5018,763.95605,824.7985,665.2381,-0.2025146484375,0.09600830078125,0.9508056640625,1.7047119140625,-2.88604736328125,-1.00189208984375,1.0,1.0,4.0,1.0,1.0,80.0,event
09:41:23.344,0.7046507,0.0,-0.06485409,0.569993,0.53830874,0.0,-0.7867343,0.3751436,0.5412864,0.0,0.063330434,0.7046652,0.70884514,0.0,0.14866094,0.43941763,0.4254518,0.0,-0.12682234,0.09277529,776.4469,682.5641,760.7326,813.91943,732.1245,-0.20361328125,0.095947265625,0.97015380859375,1.622467041015625,-4.463653564453125,0.904693603515625,1.0,1.0,4.0,1.0,1.0,80.0,event
09:41:23.344,0.7046507,0.0,-0.06485409,0.569993,0.53830874,0.0,-0.7867343,0.3751436,0.5412864,0.0,0.063330434,0.7046652,0.70884514,0.0,0.14866094,0.43941763,0.4254518,0.0,-0.12682234,0.09277529,980.32965,812.3077,755.4945,836.8865,778.0586,-0.20361328125,0.095947265625,0.97015380859375,1.622467041015625,-4.463653564453125,0.904693603515625,1.0,1.0,4.0,1.0,1.0,80.0,event
09:41:23.345,0.7621371,0.0,0.04274311,0.5569667,0.5495779,0.0,-0.79357934,0.35195786,0.5967831,0.0,0.063330434,0.7046652,0.69797033,0.0,0.15277602,0.4178687,0.419846,0.0,-0.123110734,0.07726855,732.9304,842.9304,762.3443,811.50183,646.30035,-0.20361328125,0.095947265625,0.97015380859375,1.622467041015625,-4.463653564453125,0.904693603515625,1.0,1.0,4.0,1.0,1.0,80.0,event
09:41:23.345,0.7046507,0.0,-0.06485409,0.569993,0.53830874,0.0,-0.7867343,0.3751436,0.5412864,0.0,0.063330434,0.7046652,0.70884514,0.0,0.14866094,0.43941763,0.4254518,0.0,-0.12682234,0.09277529,639.85345,817.5458,762.74725,796.99634,653.95605,-0.20361328125,0.095947265625,0.97015380859375,1.622467041015625,-4.463653564453125,0.904693603515625,1.0,1.0,4.0,1.0,1.0,80.0,event
09:41:23.349,0.7621371,0.0,0.04274311,0.5569667,0.5495779,0.0,-0.79357934,0.35195786,0.5967831,0.0,0.063330434,0.7046652,0.69797033,0.0,0.15277602,0.4178687,0.419846,0.0,-0.123110734,0.07726855,913.44324,705.12823,760.7326,830.4396,720.0366,-0.20361328125,0.095947265625,0.97015380859375,1.622467041015625,-4.463653564453125,0.904693603515625,1.0,1.0,4.0,1.0,1.0,80.0,event
09:41:23.350,0.7621371,0.0,0.04274311,0.5569667,0.5495779,0.0,-0.79357934,0.35195786,0.5967831,0.0,0.063330434,0.7046652,0.69797033,0.0,0.15277602,0.4178687,0.419846,0.0,-0.123110734,0.07726855,971.4652,563.2967,768.7912,836.08057,857.03296,-0.20361328125,0.095947265625,0.97015380859375,1.622467041015625,-4.463653564453125,0.904693603515625,1.0,1.0,4.0,1.0,1.0,80.0,event
09:41:23.350,0.7621371,0.0,0.04274311,0.5569667,0.5495779,0.0,-0.79357934,0.35195786,0.5967831,0.0,0.063330434,0.7046652,0.69797033,0.0,0.15277602,0.4178687,0.419846,0.0,-0.123110734,0.07726855,809.4872,552.4176,765.16486,817.1429,873.95605,-0.20361328125,0.095947265625,0.97015380859375,1.622467041015625,-4.463653564453125,0.904693603515625,1.0,1.0,4.0,1.0,1.0,80.0,event
09:41:23.351,0.7621371,0.0,0.04274311,0.5569667,0.5495779,0.0,-0.79357934,0.35195786,0.5967831,0.0,0.063330434,0.7046652,0.69797033,0.0,0.15277602,0.4178687,0.419846,0.0,-0.123110734,0.07726855,645.4945,556.8498,760.7326,799.011,818.3516,-0.20361328125,0.095947265625,0.97015380859375,1.622467041015625,-4.463653564453125,0.904693603515625,1.0,1.0,4.0,1.0,1.0,80.0,event
09:41:23.352,0.7621371,0.0,0.04274311,0.5569667,0.5495779,0.0,-0.79357934,0.35195786,0.5967831,0.0,0.063330434,0.7046652,0.69797033,0.0,0.15277602,0.4178687,0.419846,0.0,-0.123110734,0.07726855,703.91943,268.35165,757.9121,803.0403,987.1795,-0.20361328125,0.095947265625,0.97015380859375,1.622467041015625,-4.463653564453125,0.904693603515625,1.0,1.0,4.0,1.0,1.0,80.0,event
09:41:23.352,0.7621371,0.0,0.04274311,0.5569667,0.5495779,0.0,-0.79357934,0.35195786,0.5967831,0.0,0.063330434,0.7046652,0.69797033,0.0,0.15277602,0.4178687,0.419846,0.0,-0.123110734,0.07726855,905.78754,153.51648,774.0293,825.6044,1131.8315,-0.20361328125,0.095947265625,0.97015380859375,1.622467041015625,-4.463653564453125,0.904693603515625,1.0,1.0,4.0,1.0,1.0,80.0,event
09:41:23.353,0.7621371,0.0,0.04274311,0.5569667,0.5495779,0.0,-0.79357934,0.35195786,0.5967831,0.0,0.063330434,0.7046652,0.69797033,0.0,0.15277602,0.4178687,0.419846,0.0,-0.123110734,0.07726855,980.32965,790.9524,782.8938,834.0659,842.9304,-0.20361328125,0.095947265625,0.97015380859375,1.622467041015625,-4.463653564453125,0.904693603515625,1.0,1.0,4.0,1.0,1.0,80.0,event
09:41:23.353,0.7621371,0.0,0.04274311,0.5569667,0.5495779,0.0,-0.79357934,0.35195786,0.5967831,0.0,0.063330434,0.7046652,0.69797033,0.0,0.15277602,0.4178687,0.419846,0.0,-0.123110734,0.07726855,827.619,914.65204,752.27106,810.293,705.12823,-0.20361328125,0.095947265625,0.97015380859375,1.622467041015625,-4.463653564453125,0.904693603515625,1.0,1.0,4.0,1.0,1.0,80.0,event
09:41:23.375,0.7621371,0.0,0.04274311,0.5569667,0.5495779,0.0,-0.79357934,0.35195786,0.5967831,0.0,0.063330434,0.7046652,0.69797033,0.0,0.15277602,0.4178687,0.419846,0.0,-0.123110734,0.07726855,667.25275,674.5055,757.1062,789.7436,753.0769,-0.20806884765625,0.0946044921875,0.9617919921875,1.31591796875,-5.540313720703125,-0.456085205078125,1.0,1.0,4.0,1.0,1.0,80.0,event
09:41:23.376,0.7621371,0.0,0.04274311,0.5569667,0.5495779,0.0,-0.79357934,0.35195786,0.5967831,0.0,0.063330434,0.7046652,0.69797033,0.0,0.15277602,0.4178687,0.419846,0.0,-0.123110734,0.07726855,879.59705,1046.4103,768.7912,828.8278,751.06226,-0.20806884765625,0.0946044921875,0.9617919921875,1.31591796875,-5.540313720703125,-0.456085205078125,1.0,1.0,4.0,1.0,1.0,80.0,event
09:41:23.376,0.7621371,0.0,0.04274311,0.5569667,0.5495779,0.0,-0.79357934,0.35195786,0.5967831,0.0,0.063330434,0.7046652,0.69797033,0.0,0.15277602,0.4178687,0.419846,0.0,-0.123110734,0.07726855,693.0403,803.44324,772.01465,796.5934,713.5897,-0.20806884765625,0.0946044921875,0.9617919921875,1.31591796875,-5.540313720703125,-0.456085205078125,1.0,1.0,4.0,1.0,1.0,80.0,event
09:41:23.377,0.7621371,0.0,0.04274311,0.5569667,0.5495779,0.0,-0.79357934,0.35195786,0.5967831,0.0,0.063330434,0.7046652,0.69797033,0.0,0.15277602,0.4178687,0.419846,0.0,-0.123110734,0.07726855,978.71796,935.2015,755.89746,852.6007,801.4286,-0.20806884765625,0.0946044921875,0.9617919921875,1.31591796875,-5.540313720703125,-0.456085205078125,1.0,1.0,4.0,1.0,1.0,80.0,event
09:41:23.378,0.7621371,0.0,0.04274311,0.5569667,0.5495779,0.0,-0.79357934,0.35195786,0.5967831,0.0,0.063330434,0.7046652,0.69797033,0.0,0.15277602,0.4178687,0.419846,0.0,-0.123110734,0.07726855,839.304,705.9341,751.06226,836.4835,828.022,-0.20806884765625,0.0946044921875,0.9617919921875,1.31591796875,-5.540313720703125,-0.456085205078125,1.0,1.0,4.0,1.0,1.0,80.0,event
09:41:23.379,0.7621371,0.0,0.04274311,0.5569667,0.5495779,0.0,-0.79357934,0.35195786,0.5967831,0.0,0.063330434,0.7046652,0.69797033,0.0,0.15277602,0.4178687,0.419846,0.0,-0.123110734,0.07726855,649.12085,596.337,754.2857,813.5165,871.9414,-0.20806884765625,0.0946044921875,0.9617919921875,1.31591796875,-5.540313720703125,-0.456085205078125,1.0,1.0,4.0,1.0,1.0,80.0,event
09:41:23.380,0.7621371,0.0,0.04274311,0.5569667,0.5495779,0.0,-0.79357934,0.35195786,0.5967831,0.0,0.063330434,0.7046652,0.69797033,0.0,0.15277602,0.4178687,0.419846,0.0,-0.123110734,0.07726855,672.8938,549.19415,761.53845,809.4872,810.293,-0.20806884765625,0.0946044921875,0.9617919921875,1.31591796875,-5.540313720703125,-0.456085205078125,1.0,1.0,4.0,1.0,1.0,80.0,event
09:41:23.380,0.7621371,0.0,0.04274311,0.5569667,0.5495779,0.0,-0.79357934,0.35195786,0.5967831,0.0,0.063330434,0.7046652,0.69797033,0.0,0.15277602,0.4178687,0.419846,0.0,-0.123110734,0.07726855,847.3626,569.34064,753.0769,819.15753,826.8132,-0.20806884765625,0.0946044921875,0.9617919921875,1.31591796875,-5.540313720703125,-0.456085205078125,1.0,1.0,4.0,1.0,1.0,80.0,event
09:41:23.381,0.7621371,0.0,0.04274311,0.5569667,0.5495779,0.0,-0.79357934,0.35195786,0.5967831,0.0,0.063330434,0.7046652,0.69797033,0.0,0.15277602,0.4178687,0.419846,0.0,-0.123110734,0.07726855,952.1245,220.0,752.674,831.6484,998.46155,-0.20806884765625,0.0946044921875,0.9617919921875,1.31591796875,-5.540313720703125,-0.456085205078125,1.0,1.0,4.0,1.0,1.0,80.0,event
09:41:23.381,0.7621371,0.0,0.04274311,0.5569667,0.5495779,0.0,-0.79357934,0.35195786,0.5967831,0.0,0.063330434,0.7046652,0.69797033,0.0,0.15277602,0.4178687,0.419846,0.0,-0.123110734,0.07726855,868.71796,360.6227,778.86444,816.7399,904.9817,-0.20806884765625,0.0946044921875,0.9617919921875,1.31591796875,-5.540313720703125,-0.456085205078125,1.0,1.0,4.0,1.0,1.0,80.0,event
09:41:23.382,0.7621371,0.0,0.04274311,0.5569667,0.5495779,0.0,-0.79357934,0.35195786,0.5967831,0.0,0.063330434,0.7046652,0.69797033,0.0,0.15277602,0.4178687,0.419846,0.0,-0.123110734,0.07726855,685.38464,853.4066,768.3883,784.10254,664.43225,-0.20806884765625,0.0946044921875,0.9617919921875,1.31591796875,-5.540313720703125,-0.456085205078125,1.0,1.0,4.0,1.0,1.0,80.0,event
09:41:23.382,0.7621371,0.0,0.04274311,0.5569667,0.5495779,0.0,-0.79357934,0.35195786,0.5967831,0.0,0.063330434,0.7046652,0.69797033,0.0,0.15277602,0.4178687,0.419846,0.0,-0.123110734,0.07726855,667.6557,572.96704,753.8828,788.93774,728.49817,-0.20806884765625,0.0946044921875,0.9617919921875,1.31591796875,-5.540313720703125,-0.456085205078125,1.0,1.0,4.0,1.0,1.0,80.0,event
09:41:23.430,0.7621371,0.0,0.04274311,0.5569667,0.5495779,0.0,-0.79357934,0.35195786,0.5967831,0.0,0.063330434,0.7046652,0.69797033,0.0,0.15277602,0.4178687,0.419846,0.0,-0.123110734,0.07726855,828.022,425.89743,772.4176,815.9341,781.28204,-0.1890869140625,0.09893798828125,0.96466064453125,1.443023681640625,-5.93658447265625,-1.203765869140625,1.0,1.0,4.0,1.0,1.0,80.0,event
09:41:23.431,0.7621371,0.0,0.04274311,0.5569667,0.5495779,0.0,-0.79357934,0.35195786,0.5967831,0.0,0.063330434,0.7046652,0.69797033,0.0,0.15277602,0.4178687,0.419846,0.0,-0.123110734,0.07726855,976.7033,937.619,778.0586,825.2015,670.07324,-0.1890869140625,0.09893798828125,0.96466064453125,1.443023681640625,-5.93658447265625,-1.203765869140625,1.0,1.0,4.0,1.0,1.0,80.0,event
09:41:23.432,0.7621371,0.0,0.04274311,0.5569667,0.5495779,0.0,-0.79357934,0.35195786,0.5967831,0.0,0.063330434,0.7046652,0.69797033,0.0,0.15277602,0.4178687,0.419846,0.0,-0.123110734,0.07726855,682.5641,743.8095,759.12085,796.5934,758.71796,-0.1890869140625,0.09893798828125,0.96466064453125,1.443023681640625,-5.93658447265625,-1.203765869140625,1.0,1.0,4.0,1.0,1.0,80.0,event
09:41:23.432,0.7621371,0.0,0.04274311,0.5569667,0.5495779,0.0,-0.79357934,0.35195786,0.5967831,0.0,0.063330434,0.7046652,0.69797033,0.0,0.15277602,0.4178687,0.419846,0.0,-0.123110734,0.07726855,887.6557,1021.4286,757.50916,813.5165,715.2015,-0.1890869140625,0.09893798828125,0.96466064453125,1.443023681640625,-5.93658447265625,-1.203765869140625,1.0,1.0,4.0,1.0,1.0,80.0,event
09:41:23.433,0.7621371,0.0,0.04274311,0.5569667,0.5495779,0.0,-0.79357934,0.35195786,0.5967831,0.0,0.063330434,0.7046652,0.69797033,0.0,0.15277602,0.4178687,0.419846,0.0,-0.123110734,0.07726855,662.8205,687.3993,764.7619,796.1905,744.21246,-0.1890869140625,0.09893798828125,0.96466064453125,1.443023681640625,-5.93658447265625,-1.203765869140625,1.0,1.0,4.0,1.0,1.0,80.0,event
09:41:23.433,0.80924106,0.0,0.06671833,0.5439876,0.5406501,0.0,-0.78031474,0.33079198,0.63483274,0.0,0.063330434,0.7046652,0.68246907,0.0,0.15526211,0.40193745,0.4234437,0.0,-0.11331619,0.06205084,808.2784,678.5348,759.5238,805.05493,805.4579,-0.1890869140625,0.09893798828125,0.96466064453125,1.443023681640625,-5.93658447265625,-1.203765869140625,1.0,1.0,4.0,1.0,1.0,80.0,event
09:41:23.437,0.80924106,0.0,0.06671833,0.5439876,0.5406501,0.0,-0.78031474,0.33079198,0.63483274,0.0,0.063330434,0.7046652,0.68246907,0.0,0.15526211,0.40193745,0.4234437,0.0,-0.11331619,0.06205084,952.9304,724.87177,769.19415,822.7839,882.8205,-0.1890869140625,0.09893798828125,0.96466064453125,1.443023681640625,-5.93658447265625,-1.203765869140625,1.0,1.0,4.0,1.0,1.0,80.0,event
09:41:23.438,0.80924106,0.0,0.06671833,0.5439876,0.5406501,0.0,-0.78031474,0.33079198,0.63483274,0.0,0.063330434,0.7046652,0.68246907,0.0,0.15526211,0.40193745,0.4234437,0.0,-0.11331619,0.06205084,888.86444,399.30402,754.2857,827.619,1015.38464,-0.1890869140625,0.09893798828125,0.96466064453125,1.443023681640625,-5.93658447265625,-1.203765869140625,1.0,1.0,4.0,1.0,1.0,80.0,event
09:41:23.438,0.80924106,0.0,0.06671833,0.5439876,0.5406501,0.0,-0.78031474,0.33079198,0.63483274,0.0,0.063330434,0.7046652,0.68246907,0.0,0.15526211,0.40193745,0.4234437,0.0,-0.11331619,0.06205084,705.5311,152.71062,767.5824,799.41394,1060.1099,-0.1890869140625,0.09893798828125,0.96466064453125,1.443023681640625,-5.93658447265625,-1.203765869140625,1.0,1.0,4.0,1.0,1.0,80.0,event
09:41:23.439,0.80924106,0.0,0.06671833,0.5439876,0.5406501,0.0,-0.78031474,0.33079198,0.63483274,0.0,0.063330434,0.7046652,0.68246907,0.0,0.15526211,0.40193745,0.4234437,0.0,-0.11331619,0.06205084,673.69965,761.9414,787.326,792.1612,772.4176,-0.1890869140625,0.09893798828125,0.96466064453125,1.443023681640625,-5.93658447265625,-1.203765869140625,1.0,1.0,4.0,1.0,1.0,80.0,event
09:41:23.439,0.80924106,0.0,0.06671833,0.5439876,0.5406501,0.0,-0.78031474,0.33079198,0.63483274,0.0,0.063330434,0.7046652,0.68246907,0.0,0.15526211,0.40193745,0.4234437,0.0,-0.11331619,0.06205084,796.99634,915.05493,766.3736,809.89014,686.99634,-0.1890869140625,0.09893798828125,0.96466064453125,1.443023681640625,-5.93658447265625,-1.203765869140625,1.0,1.0,4.0,1.0,1.0,80.0,event
09:41:23.440,0.80924106,0.0,0.06671833,0.5439876,0.5406501,0.0,-0.78031474,0.33079198,0.63483274,0.0,0.063330434,0.7046652,0.68246907,0.0,0.15526211,0.40193745,0.4234437,0.0,-0.11331619,0.06205084,970.65936,813.5165,767.1795,823.5897,738.5714,-0.1890869140625,0.09893798828125,0.96466064453125,1.443023681640625,-5.93658447265625,-1.203765869140625,1.0,1.0,4.0,1.0,1.0,80.0,event
09:41:23.499,0.80924106,0.0,0.06671833,0.5439876,0.5406501,0.0,-0.78031474,0.33079198,0.63483274,0.0,0.063330434,0.7046652,0.68246907,0.0,0.15526211,0.40193745,0.4234437,0.0,-0.11331619,0.06205084,950.10986,744.61536,772.8205,821.5751,783.2967,-0.18267822265625,0.0902099609375,0.967529296875,0.478515625,-6.572113037109375,-0.710296630859375,1.0,1.0,4.0,1.0,1.0,80.0,event
09:41:23.500,0.80924106,0.0,0.06671833,0.5439876,0.5406501,0.0,-0.78031474,0.33079198,0.63483274,0.0,0.063330434,0.7046652,0.68246907,0.0,0.15526211,0.40193745,0.4234437,0.0,-0.11331619,0.06205084,734.1392,813.1135,775.2381,800.6227,786.9231,-0.18267822265625,0.0902099609375,0.967529296875,0.478515625,-6.572113037109375,-0.710296630859375,1.0,1.0,4.0,1.0,1.0,80.0,event
09:41:23.501,0.80924106,0.0,0.06671833,0.5439876,0.5406501,0.0,-0.78031474,0.33079198,0.63483274,0.0,0.063330434,0.7046652,0.68246907,0.0,0.15526211,0.40193745,0.4234437,0.0,-0.11331619,0.06205084,761.13556,542.74725,763.1502,805.4579,811.0989,-0.18267822265625,0.0902099609375,0.967529296875,0.478515625,-6.572113037109375,-0.710296630859375,1.0,1.0,4.0,1.0,1.0,80.0,event
09:41:23.501,0.80924106,0.0,0.06671833,0.5439876,0.5406501,0.0,-0.78031474,0.33079198,0.63483274,0.0,0.063330434,0.7046652,0.68246907,0.0,0.15526211,0.40193745,0.4234437,0.0,-0.11331619,0.06205084,660.40295,845.34796,757.9121,788.93774,777.6557,-0.18267822265625,0.0902099609375,0.967529296875,0.478515625,-6.572113037109375,-0.710296630859375,1.0,1.0,4.0,1.0,1.0,80.0,event
09:41:23.502,0.80924106,0.0,0.06671833,0.5439876,0.5406501,0.0,-0.78031474,0.33079198,0.63483274,0.0,0.063330434,0.7046652,0.68246907,0.0,0.15526211,0.40193745,0.4234437,0.0,-0.11331619,0.06205084,944.0659,829.2308,781.685,824.7985,822.7839,-0.18267822265625,0.0902099609375,0.967529296875,0.478515625,-6.572113037109375,-0.710296630859375,1.0,1.0,4.0,1.0,1.0,80.0,event
09:41:23.503,0.80924106,0.0,0.06671833,0.5439876,0.5406501,0.0,-0.78031474,0.33079198,0.63483274,0.0,0.063330434,0.7046652,0.68246907,0.0,0.15526211,0.40193745,0.4234437,0.0,-0.11331619,0.06205084,957.76556,906.99634,765.56775,823.1868,775.64105,-0.18267822265625,0.0902099609375,0.967529296875,0.478515625,-6.572113037109375,-0.710296630859375,1.0,1.0,4.0,1.0,1.0,80.0,event
09:41:23.504,0.80924106,0.0,0.06671833,0.5439876,0.5406501,0.0,-0.78031474,0.33079198,0.63483274,0.0,0.063330434,0.7046652,0.68246907,0.0,0.15526211,0.40193745,0.4234437,0.0,-0.11331619,0.06205084,743.00366,468.20514,745.0183,811.0989,860.65936,-0.18267822265625,0.0902099609375,0.967529296875,0.478515625,-6.572113037109375,-0.710296630859375,1.0,1.0,4.0,1.0,1.0,80.0,event
09:41:23.504,0.80924106,0.0,0.06671833,0.5439876,0.5406501,0.0,-0.78031474,0.33079198,0.63483274,0.0,0.063330434,0.7046652,0.68246907,0.0,0.15526211,0.40193745,0.4234437,0.0,-0.11331619,0.06205084,630.58606,120.87912,762.74725,802.6374,1061.7216,-0.18267822265625,0.0902099609375,0.967529296875,0.478515625,-6.572113037109375,-0.710296630859375,1.0,1.0,4.0,1.0,1.0,80.0,event
09:41:23.505,0.80924106,0.0,0.06671833,0.5439876,0.5406501,0.0,-0.78031474,0.33079198,0.63483274,0.0,0.063330434,0.7046652,0.68246907,0.0,0.15526211,0.40193745,0.4234437,0.0,-0.11331619,0.06205084,734.5421,521.79486,794.57874,809.0842,842.52747,-0.18267822265625,0.0902099609375,0.967529296875,0.478515625,-6.572113037109375,-0.710296630859375,1.0,1.0,4.0,1.0,1.0,80.0,event
09:41:23.505,0.80924106,0.0,0.06671833,0.5439876,0.5406501,0.0,-0.78031474,0.33079198,0.63483274,0.0,0.063330434,0.7046652,0.68246907,0.0,0.15526211,0.40193745,0.4234437,0.0,-0.11331619,0.06205084,933.1868,1052.4542,770.80585,817.1429,688.60803,-0.18267822265625,0.0902099609375,0.967529296875,0.478515625,-6.572113037109375,-0.710296630859375,1.0,1.0,4.0,1.0,1.0,80.0,event
09:41:23.506,0.80924106,0.0,0.06671833,0.5439876,0.5406501,0.0,-0.78031474,0.33079198,0.63483274,0.0,0.063330434,0.7046652,0.68246907,0.0,0.15526211,0.40193745,0.4234437,0.0,-0.11331619,0.06205084,970.65936,899.34064,764.35895,812.3077,822.381,-0.18267822265625,0.0902099609375,0.967529296875,0.478515625,-6.572113037109375,-0.710296630859375,1.0,1.0,4.0,1.0,1.0,80.0,event
09:41:23.507,0.80924106,0.0,0.06671833,0.5439876,0.5406501,0.0,-0.78031474,0.33079198,0.63483274,0.0,0.063330434,0.7046652,0.68246907,0.0,0.15526211,0.40193745,0.4234437,0.0,-0.11331619,0.06205084,778.46155,813.5165,767.98535,791.3553,844.94507,-0.18267822265625,0.0902099609375,0.967529296875,0.478515625,-6.572113037109375,-0.710296630859375,1.0,1.0,4.0,1.0,1.0,80.0,event
09:41:23.533,0.80924106,0.0,0.06671833,0.5439876,0.5406501,0.0,-0.78031474,0.33079198,0.63483274,0.0,0.063330434,0.7046652,0.68246907,0.0,0.15526211,0.40193745,0.4234437,0.0,-0.11331619,0.06205084,653.1502,901.75824,759.12085,779.2674,717.2161,-0.18267822265625,0.0902099609375,0.967529296875,0.478515625,-6.572113037109375,-0.710296630859375,1.0,1.0,4.0,1.0,1.0,80.0,event
09:41:23.534,0.80924106,0.0,0.06671833,0.5439876,0.5406501,0.0,-0.78031474,0.33079198,0.63483274,0.0,0.063330434,0.7046652,0.68246907,0.0,0.15526211,0.40193745,0.4234437,0.0,-0.11331619,0.06205084,725.6777,893.2967,764.7619,794.17584,645.09155,-0.18267822265625,0.0902099609375,0.967529296875,0.478515625,-6.572113037109375,-0.710296630859375,1.0,1.0,4.0,1.0,1.0,80.0,event
09:41:23.535,0.80924106,0.0,0.06671833,0.5439876,0.5406501,0.0,-0.78031474,0.33079198,0.63483274,0.0,0.063330434,0.7046652,0.68246907,0.0,0.15526211,0.40193745,0.4234437,0.0,-0.11331619,0.06205084,907.3993,754.68866,769.59705,813.91943,723.2601,-0.18267822265625,0.0902099609375,0.967529296875,0.478515625,-6.572113037109375,-0.710296630859375,1.0,1.0,4.0,1.0,1.0,80.0,event
09:41:23.536,0.80924106,0.0,0.06671833,0.5439876,0.5406501,0.0,-0.78031474,0.33079198,0.63483274,0.0,0.063330434,0.7046652,0.68246907,0.0,0.15526211,0.40193745,0.4234437,0.0,-0.11331619,0.06205084,811.50183,711.1722,765.9707,807.47253,735.34796,-0.18267822265625,0.0902099609375,0.967529296875,0.478515625,-6.572113037109375,-0.710296630859375,1.0,1.0,4.0,1.0,1.0,80.0,event
09:41:23.536,0.80924106,0.0,0.06671833,0.5439876,0.5406501,0.0,-0.78031474,0.33079198,0.63483274,0.0,0.063330434,0.7046652,0.68246907,0.0,0.15526211,0.40193745,0.4234437,0.0,-0.11331619,0.06205084,974.2857,620.5128,767.98535,816.337,798.20514,-0.18267822265625,0.0902099609375,0.967529296875,0.478515625,-6.572113037109375,-0.710296630859375,1.0,1.0,4.0,1.0,1.0,80.0,event
09:41:23.537,0.80924106,0.0,0.06671833,0.5439876,0.5406501,0.0,-0.78031474,0.33079198,0.63483274,0.0,0.063330434,0.7046652,0.68246907,0.0,0.15526211,0.40193745,0.4234437,0.0,-0.11331619,0.06205084,662.4176,657.1795,761.13556,794.57874,669.2674,-0.18267822265625,0.0902099609375,0.967529296875,0.478515625,-6.572113037109375,-0.710296630859375,1.0,1.0,4.0,1.0,1.0,80.0,event
09:41:23.537,0.80924106,0.0,0.06671833,0.5439876,0.5406501,0.0,-0.78031474,0.33079198,0.63483274,0.0,0.063330434,0.7046652,0.68246907,0.0,0.15526211,0.40193745,0.4234437,0.0,-0.11331619,0.06205084,701.50183,259.48718,757.9121,793.7729,970.65936,-0.18267822265625,0.0902099609375,0.967529296875,0.478515625,-6.572113037109375,-0.710296630859375,1.0,1.0,4.0,1.0,1.0,80.0,event
09:41:23.538,0.85424083,0.0,0.093113326,0.5602693,0.55074304,0.0,-0.7619425,0.33541542,0.68597573,0.0,0.06125975,0.7046652,0.6738833,0.0,0.15153201,0.3999405,0.44954208,0.0,-0.100293435,0.051610462,872.3443,71.72161,782.0879,810.696,1143.9194,-0.18267822265625,0.0902099609375,0.967529296875,0.478515625,-6.572113037109375,-0.710296630859375,1.0,1.0,4.0,1.0,1.0,80.0,event
09:41:23.542,0.85424083,0.0,0.093113326,0.5602693,0.55074304,0.0,-0.7619425,0.33541542,0.68597573,0.0,0.06125975,0.7046652,0.6738833,0.0,0.15153201,0.3999405,0.44954208,0.0,-0.100293435,0.051610462,973.0769,707.1429,790.14655,812.3077,797.8022,-0.18267822265625,0.0902099609375,0.967529296875,0.478515625,-6.572113037109375,-0.710296630859375,1.0,1.0,4.0,1.0,1.0,80.0,event
09:41:23.543,0.85424083,0.0,0.093113326,0.5602693,0.55074304,0.0,-0.7619425,0.33541542,0.68597573,0.0,0.06125975,0.7046652,0.6738833,0.0,0.15153201,0.3999405,0.44954208,0.0,-0.100293435,0.051610462,836.08057,958.97437,760.7326,794.9817,668.46155,-0.18267822265625,0.0902099609375,0.967529296875,0.478515625,-6.572113037109375,-0.710296630859375,1.0,1.0,4.0,1.0,1.0,80.0,event
09:41:23.544,0.85424083,0.0,0.093113326,0.5602693,0.55074304,0.0,-0.7619425,0.33541542,0.68597573,0.0,0.06125975,0.7046652,0.6738833,0.0,0.15153201,0.3999405,0.44954208,0.0,-0.100293435,0.051610462,682.1612,664.43225,759.12085,790.9524,687.3993,-0.18267822265625,0.0902099609375,0.967529296875,0.478515625,-6.572113037109375,-0.710296630859375,1.0,1.0,4.0,1.0,1.0,80.0,event
09:41:23.544,0.85424083,0.0,0.093113326,0.5602693,0.55074304,0.0,-0.7619425,0.33541542,0.68597573,0.0,0.06125975,0.7046652,0.6738833,0.0,0.15153201,0.3999405,0.44954208,0.0,-0.100293435,0.051610462,709.15753,723.663,774.43225,794.57874,614.87177,-0.18267822265625,0.0902099609375,0.967529296875,0.478515625,-6.572113037109375,-0.710296630859375,1.0,1.0,4.0,1.0,1.0,80.0,event
09:41:23.600,0.85424083,0.0,0.093113326,0.5602693,0.55074304,0.0,-0.7619425,0.33541542,0.68597573,0.0,0.06125975,0.7046652,0.6738833,0.0,0.15153201,0.3999405,0.44954208,0.0,-0.100293435,0.051610462,872.74725,954.5421,780.87915,812.71063,658.3883,-0.17816162109375,0.08697509765625,0.96539306640625,1.039276123046875,-5.779571533203125,-0.142059326171875,1.0,1.0,4.0,1.0,1.0,80.0,event
09:41:23.601,0.85424083,0.0,0.093113326,0.5602693,0.55074304,0.0,-0.7619425,0.33541542,0.68597573,0.0,0.06125975,0.7046652,0.6738833,0.0,0.15153201,0.3999405,0.44954208,0.0,-0.100293435,0.051610462,995.64105,923.1135,761.13556,831.2454,754.68866,-0.17816162109375,0.08697509765625,0.96539306640625,1.039276123046875,-5.779571533203125,-0.142059326171875,1.0,1.0,4.0,1.0,1.0,80.0,event
09:41:23.602,0.85424083,0.0,0.093113326,0.5602693,0.55074304,0.0,-0.7619425,0.33541542,0.68597573,0.0,0.06125975,0.7046652,0.6738833,0.0,0.15153201,0.3999405,0.44954208,0.0,-0.100293435,0.051610462,884.83514,748.6447,753.8828,812.71063,778.0586,-0.17816162109375,0.08697509765625,0.96539306640625,1.039276123046875,-5.779571533203125,-0.142059326171875,1.0,1.0,4.0,1.0,1.0,80.0,event
09:41:23.602,0.85424083,0.0,0.093113326,0.5602693,0.55074304,0.0,-0.7619425,0.33541542,0.68597573,0.0,0.06125975,0.7046652,0.6738833,0.0,0.15153201,0.3999405,0.44954208,0.0,-0.100293435,0.051610462,704.7253,793.7729,767.5824,792.5641,713.5897,-0.17816162109375,0.08697509765625,0.96539306640625,1.039276123046875,-5.779571533203125,-0.142059326171875,1.0,1.0,4.0,1.0,1.0,80.0,event
09:41:23.603,0.85424083,0.0,0.093113326,0.5602693,0.55074304,0.0,-0.7619425,0.33541542,0.68597573,0.0,0.06125975,0.7046652,0.6738833,0.0,0.15153201,0.3999405,0.44954208,0.0,-0.100293435,0.051610462,708.7546,844.5421,763.95605,794.9817,656.77655,-0.17816162109375,0.08697509765625,0.96539306640625,1.039276123046875,-5.779571533203125,-0.142059326171875,1.0,1.0,4.0,1.0,1.0,80.0,event
09:41:23.604,0.85424083,0.0,0.093113326,0.5602693,0.55074304,0.0,-0.7619425,0.33541542,0.68597573,0.0,0.06125975,0.7046652,0.6738833,0.0,0.15153201,0.3999405,0.44954208,0.0,-0.100293435,0.051610462,857.8388,596.7399,751.4652,807.47253,784.5055,-0.17816162109375,0.08697509765625,0.96539306640625,1.039276123046875,-5.779571533203125,-0.142059326171875,1.0,1.0,4.0,1.0,1.0,80.0,event
09:41:23.605,0.85424083,0.0,0.093113326,0.5602693,0.55074304,0.0,-0.7619425,0.33541542,0.68597573,0.0,0.06125975,0.7046652,0.6738833,0.0,0.15153201,0.3999405,0.44954208,0.0,-0.100293435,0.051610462,984.35895,211.13553,765.56775,817.5458,1037.1428,-0.17816162109375,0.08697509765625,0.96539306640625,1.039276123046875,-5.779571533203125,-0.142059326171875,1.0,1.0,4.0,1.0,1.0,80.0,event
09:41:23.605,0.85424083,0.0,0.093113326,0.5602693,0.55074304,0.0,-0.7619425,0.33541542,0.68597573,0.0,0.06125975,0.7046652,0.6738833,0.0,0.15153201,0.3999405,0.44954208,0.0,-0.100293435,0.051610462,895.7143,422.67398,781.685,809.0842,1028.2784,-0.17816162109375,0.08697509765625,0.96539306640625,1.039276123046875,-5.779571533203125,-0.142059326171875,1.0,1.0,4.0,1.0,1.0,80.0,event
09:41:23.606,0.85424083,0.0,0.093113326,0.5602693,0.55074304,0.0,-0.7619425,0.33541542,0.68597573,0.0,0.06125975,0.7046652,0.6738833,0.0,0.15153201,0.3999405,0.44954208,0.0,-0.100293435,0.051610462,706.337,852.1978,771.2088,787.72894,747.03296,-0.17816162109375,0.08697509765625,0.96539306640625,1.039276123046875,-5.779571533203125,-0.142059326171875,1.0,1.0,4.0,1.0,1.0,80.0,event
09:41:23.607,0.85424083,0.0,0.093113326,0.5602693,0.55074304,0.0,-0.7619425,0.33541542,0.68597573,0.0,0.06125975,0.7046652,0.6738833,0.0,0.15153201,0.3999405,0.44954208,0.0,-0.100293435,0.051610462,668.86444,595.9341,751.06226,784.5055,732.1245,-0.17816162109375,0.08697509765625,0.96539306640625,1.039276123046875,-5.779571533203125,-0.142059326171875,1.0,1.0,4.0,1.0,1.0,80.0,event
09:41:23.608,0.85424083,0.0,0.093113326,0.5602693,0.55074304,0.0,-0.7619425,0.33541542,0.68597573,0.0,0.06125975,0.7046652,0.6738833,0.0,0.15153201,0.3999405,0.44954208,0.0,-0.100293435,0.051610462,784.5055,284.8718,762.3443,803.44324,881.2088,-0.17816162109375,0.08697509765625,0.96539306640625,1.039276123046875,-5.779571533203125,-0.142059326171875,1.0,1.0,4.0,1.0,1.0,80.0,event
09:41:23.608,0.85424083,0.0,0.093113326,0.5602693,0.55074304,0.0,-0.7619425,0.33541542,0.68597573,0.0,0.06125975,0.7046652,0.6738833,0.0,0.15153201,0.3999405,0.44954208,0.0,-0.100293435,0.051610462,967.03296,856.63007,780.4762,823.9927,809.89014,-0.17816162109375,0.08697509765625,0.96539306640625,1.039276123046875,-5.779571533203125,-0.142059326171875,1.0,1.0,4.0,1.0,1.0,80.0,event
09:41:23.640,0.85424083,0.0,0.093113326,0.5602693,0.55074304,0.0,-0.7619425,0.33541542,0.68597573,0.0,0.06125975,0.7046652,0.6738833,0.0,0.15153201,0.3999405,0.44954208,0.0,-0.100293435,0.051610462,942.4542,1068.5714,759.5238,812.3077,711.978,-0.176513671875,0.0836181640625,0.9644775390625,1.06170654296875,-5.495452880859375,0.83740234375,1.0,1.0,4.0,1.0,1.0,80.0,event
09:41:23.642,0.85424083,0.0,0.093113326,0.5602693,0.55074304,0.0,-0.7619425,0.33541542,0.68597573,0.0,0.06125975,0.7046652,0.6738833,0.0,0.15153201,0.3999405,0.44954208,0.0,-0.100293435,0.051610462,728.9011,697.47253,758.315,786.9231,729.304,-0.176513671875,0.0836181640625,0.9644775390625,1.06170654296875,-5.495452880859375,0.83740234375,1.0,1.0,4.0,1.0,1.0,80.0,event
09:41:23.642,0.85424083,0.0,0.093113326,0.5602693,0.55074304,0.0,-0.7619425,0.33541542,0.68597573,0.0,0.06125975,0.7046652,0.6738833,0.0,0.15153201,0.3999405,0.44954208,0.0,-0.100293435,0.051610462,670.4762,658.7912,770.80585,778.46155,754.2857,-0.176513671875,0.0836181640625,0.9644775390625,1.06170654296875,-5.495452880859375,0.83740234375,1.0,1.0,4.0,1.0,1.0,80.0,event
09:41:23.643,0.85424083,0.0,0.093113326,0.5602693,0.55074304,0.0,-0.7619425,0.33541542,0.68597573,0.0,0.06125975,0.7046652,0.6738833,0.0,0.15153201,0.3999405,0.44954208,0.0,-0.100293435,0.051610462,819.9634,890.87915,770.40295,796.5934,715.6044,-0.176513671875,0.0836181640625,0.9644775390625,1.06170654296875,-5.495452880859375,0.83740234375,1.0,1.0,4.0,1.0,1.0,80.0,event
09:41:23.644,0.85424083,0.0,0.093113326,0.5602693,0.55074304,0.0,-0.7619425,0.33541542,0.68597573,0.0,0.06125975,0.7046652,0.6738833,0.0,0.15153201,0.3999405,0.44954208,0.0,-0.100293435,0.051610462,987.5824,941.6484,759.5238,815.5311,729.707,-0.176513671875,0.0836181640625,0.9644775390625,1.06170654296875,-5.495452880859375,0.83740234375,1.0,1.0,4.0,1.0,1.0,80.0,event
09:41:23.645,0.85424083,0.0,0.093113326,0.5602693,0.55074304,0.0,-0.7619425,0.33541542,0.68597573,0.0,0.06125975,0.7046652,0.6738833,0.0,0.15153201,0.3999405,0.44954208,0.0,-0.100293435,0.051610462,947.28937,634.21246,751.4652,814.3223,855.0183,-0.176513671875,0.0836181640625,0.9644775390625,1.06170654296875,-5.495452880859375,0.83740234375,1.0,1.0,4.0,1.0,1.0,80.0,event
09:41:23.645,0.85424083,0.0,0.093113326,0.5602693,0.55074304,0.0,-0.7619425,0.33541542,0.68597573,0.0,0.06125975,0.7046652,0.6738833,0.0,0.15153201,0.3999405,0.44954208,0.0,-0.100293435,0.051610462,737.3626,380.3663,763.5531,801.8315,846.55676,-0.176513671875,0.0836181640625,0.9644775390625,1.06170654296875,-5.495452880859375,0.83740234375,1.0,1.0,4.0,1.0,1.0,80.0,event
09:41:23.646,0.85424083,0.0,0.093113326,0.5602693,0.55074304,0.0,-0.7619425,0.33541542,0.68597573,0.0,0.06125975,0.7046652,0.6738833,0.0,0.15153201,0.3999405,0.44954208,0.0,-0.100293435,0.051610462,676.1172,663.22345,770.80585,786.52014,742.1978,-0.176513671875,0.0836181640625,0.9644775390625,1.06170654296875,-5.495452880859375,0.83740234375,1.0,1.0,4.0,1.0,1.0,80.0,event
09:41:23.647,0.85424083,0.0,0.093113326,0.5602693,0.55074304,0.0,-0.7619425,0.33541542,0.68597573,0.0,0.06125975,0.7046652,0.6738833,0.0,0.15153201,0.3999405,0.44954208,0.0,-0.100293435,0.051610462,792.5641,906.1905,761.53845,799.011,687.3993,-0.176513671875,0.0836181640625,0.9644775390625,1.06170654296875,-5.495452880859375,0.83740234375,1.0,1.0,4.0,1.0,1.0,80.0,event
09:41:23.647,0.94647354,0.0,0.11366293,0.5972883,0.5675598,0.0,-0.7471085,0.34154257,0.7353018,0.0,0.04433111,0.7049627,0.66461664,0.0,0.13824107,0.40121332,0.4693605,0.0,-0.09114391,0.04448451,933.5897,394.06595,753.8828,830.0366,922.71063,-0.176513671875,0.0836181640625,0.9644775390625,1.06170654296875,-5.495452880859375,0.83740234375,1.0,1.0,4.0,1.0,1.0,80.0,event
09:41:23.652,0.94647354,0.0,0.11366293,0.5972883,0.5675598,0.0,-0.7471085,0.34154257,0.7353018,0.0,0.04433111,0.7049627,0.66461664,0.0,0.13824107,0.40121332,0.4693605,0.0,-0.09114391,0.04448451,938.022,213.55312,763.95605,823.9927,1048.8279,-0.176513671875,0.0836181640625,0.9644775390625,1.06170654296875,-5.495452880859375,0.83740234375,1.0,1.0,4.0,1.0,1.0,80.0,event
09:41:23.653,0.94647354,0.0,0.11366293,0.5972883,0.5675598,0.0,-0.7471085,0.34154257,0.7353018,0.0,0.04433111,0.7049627,0.66461664,0.0,0.13824107,0.40121332,0.4693605,0.0,-0.09114391,0.04448451,772.8205,747.8388,763.1502,799.81683,789.7436,-0.176513671875,0.0836181640625,0.9644775390625,1.06170654296875,-5.495452880859375,0.83740234375,1.0,1.0,4.0,1.0,1.0,80.0,event
09:41:23.679,0.94647354,0.0,0.11366293,0.5972883,0.5675598,0.0,-0.7471085,0.34154257,0.7353018,0.0,0.04433111,0.7049627,0.66461664,0.0,0.13824107,0.40121332,0.4693605,0.0,-0.09114391,0.04448451,694.2491,757.50916,755.09155,797.8022,676.9231,-0.17755126953125,0.089111328125,0.97210693359375,1.24114990234375,-4.613189697265625,0.590667724609375,1.0,1.0,4.0,1.0,1.0,80.0,event
09:41:23.680,0.94647354,0.0,0.11366293,0.5972883,0.5675598,0.0,-0.7471085,0.34154257,0.7353018,0.0,0.04433111,0.7049627,0.66461664,0.0,0.13824107,0.40121332,0.4693605,0.0,-0.09114391,0.04448451,765.16486,488.35165,762.3443,809.89014,766.3736,-0.17755126953125,0.089111328125,0.97210693359375,1.24114990234375,-4.613189697265625,0.590667724609375,1.0,1.0,4.0,1.0,1.0,80.0,event
09:41:23.681,0.94647354,0.0,0.11366293,0.5972883,0.5675598,0.0,-0.7471085,0.34154257,0.7353018,0.0,0.04433111,0.7049627,0.66461664,0.0,0.13824107,0.40121332,0.4693605,0.0,-0.09114391,0.04448451,952.52747,712.7839,774.0293,824.3956,790.54944,-0.17755126953125,0.089111328125,0.97210693359375,1.24114990234375,-4.613189697265625,0.590667724609375,1.0,1.0,4.0,1.0,1.0,80.0,event
09:41:23.681,0.94647354,0.0,0.11366293,0.5972883,0.5675598,0.0,-0.7471085,0.34154257,0.7353018,0.0,0.04433111,0.7049627,0.66461664,0.0,0.13824107,0.40121332,0.4693605,0.0,-0.09114391,0.04448451,1000.87915,1077.4359,759.5238,820.7692,730.10986,-0.17755126953125,0.089111328125,0.97210693359375,1.24114990234375,-4.613189697265625,0.590667724609375,1.0,1.0,4.0,1.0,1.0,80.0,event
09:41:23.682,0.94647354,0.0,0.11366293,0.5972883,0.5675598,0.0,-0.7471085,0.34154257,0.7353018,0.0,0.04433111,0.7049627,0.66461664,0.0,0.13824107,0.40121332,0.4693605,0.0,-0.09114391,0.04448451,786.1172,849.7802,737.76556,801.4286,797.8022,-0.17755126953125,0.089111328125,0.97210693359375,1.24114990234375,-4.613189697265625,0.590667724609375,1.0,1.0,4.0,1.0,1.0,80.0,event
09:41:23.683,0.94647354,0.0,0.11366293,0.5972883,0.5675598,0.0,-0.7471085,0.34154257,0.7353018,0.0,0.04433111,0.7049627,0.66461664,0.0,0.13824107,0.40121332,0.4693605,0.0,-0.09114391,0.04448451,659.59705,454.10257,741.79486,794.17584,845.7509,-0.17755126953125,0.089111328125,0.97210693359375,1.24114990234375,-4.613189697265625,0.590667724609375,1.0,1.0,4.0,1.0,1.0,80.0,event
09:41:23.683,0.94647354,0.0,0.11366293,0.5972883,0.5675598,0.0,-0.7471085,0.34154257,0.7353018,0.0,0.04433111,0.7049627,0.66461664,0.0,0.13824107,0.40121332,0.4693605,0.0,-0.09114391,0.04448451,745.42126,430.32968,760.32965,799.81683,759.12085,-0.17755126953125,0.089111328125,0.97210693359375,1.24114990234375,-4.613189697265625,0.590667724609375,1.0,1.0,4.0,1.0,1.0,80.0,event
09:41:23.684,0.94647354,0.0,0.11366293,0.5972883,0.5675598,0.0,-0.7471085,0.34154257,0.7353018,0.0,0.04433111,0.7049627,0.66461664,0.0,0.13824107,0.40121332,0.4693605,0.0,-0.09114391,0.04448451,933.9927,824.7985,775.2381,819.5604,700.293,-0.17755126953125,0.089111328125,0.97210693359375,1.24114990234375,-4.613189697265625,0.590667724609375,1.0,1.0,4.0,1.0,1.0,80.0,event
09:41:23.684,0.94647354,0.0,0.11366293,0.5972883,0.5675598,0.0,-0.7471085,0.34154257,0.7353018,0.0,0.04433111,0.7049627,0.66461664,0.0,0.13824107,0.40121332,0.4693605,0.0,-0.09114391,0.04448451,975.4945,842.9304,750.2564,828.8278,832.0513,-0.17755126953125,0.089111328125,0.97210693359375,1.24114990234375,-4.613189697265625,0.590667724609375,1.0,1.0,4.0,1.0,1.0,80.0,event
09:41:23.685,0.94647354,0.0,0.11366293,0.5972883,0.5675598,0.0,-0.7471085,0.34154257,0.7353018,0.0,0.04433111,0.7049627,0.66461664,0.0,0.13824107,0.40121332,0.4693605,0.0,-0.09114391,0.04448451,809.89014,222.41759,749.0476,808.2784,1018.20514,-0.17755126953125,0.089111328125,0.97210693359375,1.24114990234375,-4.613189697265625,0.590667724609375,1.0,1.0,4.0,1.0,1.0,80.0,event
09:41:23.686,0.94647354,0.0,0.11366293,0.5972883,0.5675598,0.0,-0.7471085,0.34154257,0.7353018,0.0,0.04433111,0.7049627,0.66461664,0.0,0.13824107,0.40121332,0.4693605,0.0,-0.09114391,0.04448451,690.6227,467.39926,780.4762,791.75824,806.6667,-0.17755126953125,0.089111328125,0.97210693359375,1.24114990234375,-4.613189697265625,0.590667724609375,1.0,1.0,4.0,1.0,1.0,80.0,event
09:41:23.687,0.94647354,0.0,0.11366293,0.5972883,0.5675598,0.0,-0.7471085,0.34154257,0.7353018,0.0,0.04433111,0.7049627,0.66461664,0.0,0.13824107,0.40121332,0.4693605,0.0,-0.09114391,0.04448451,743.8095,942.4542,763.5531,787.72894,650.7326,-0.17755126953125,0.089111328125,0.97210693359375,1.24114990234375,-4.613189697265625,0.590667724609375,1.0,1.0,4.0,1.0,1.0,80.0,event
09:41:23.728,0.94647354,0.0,0.11366293,0.5972883,0.5675598,0.0,-0.7471085,0.34154257,0.7353018,0.0,0.04433111,0.7049627,0.66461664,0.0,0.13824107,0.40121332,0.4693605,0.0,-0.09114391,0.04448451,921.9048,639.85345,753.47986,806.6667,803.0403,-0.1824951171875,0.08721923828125,0.97802734375,0.171966552734375,-3.551483154296875,-0.306549072265625,1.0,1.0,4.0,1.0,1.0,80.0,event
09:41:23.730,0.94647354,0.0,0.11366293,0.5972883,0.5675598,0.0,-0.7471085,0.34154257,0.7353018,0.0,0.04433111,0.7049627,0.66461664,0.0,0.13824107,0.40121332,0.4693605,0.0,-0.09114391,0.04448451,996.4469,614.87177,765.56775,829.6337,889.67035,-0.1824951171875,0.08721923828125,0.97802734375,0.171966552734375,-3.551483154296875,-0.306549072265625,1.0,1.0,4.0,1.0,1.0,80.0,event
09:41:23.730,0.94647354,0.0,0.11366293,0.5972883,0.5675598,0.0,-0.7471085,0.34154257,0.7353018,0.0,0.04433111,0.7049627,0.66461664,0.0,0.13824107,0.40121332,0.4693605,0.0,-0.09114391,0.04448451,849.7802,967.4359,760.7326,803.0403,775.64105,-0.1824951171875,0.08721923828125,0.97802734375,0.171966552734375,-3.551483154296875,-0.306549072265625,1.0,1.0,4.0,1.0,1.0,80.0,event
09:41:23.731,0.94647354,0.0,0.11366293,0.5972883,0.5675598,0.0,-0.7471085,0.34154257,0.7353018,0.0,0.04433111,0.7049627,0.66461664,0.0,0.13824107,0.40121332,0.4693605,0.0,-0.09114391,0.04448451,692.23444,913.44324,755.09155,778.86444,697.47253,-0.1824951171875,0.08721923828125,0.97802734375,0.171966552734375,-3.551483154296875,-0.306549072265625,1.0,1.0,4.0,1.0,1.0,80.0,event
09:41:23.732,0.94647354,0.0,0.11366293,0.5972883,0.5675598,0.0,-0.7471085,0.34154257,0.7353018,0.0,0.04433111,0.7049627,0.66461664,0.0,0.13824107,0.40121332,0.4693605,0.0,-0.09114391,0.04448451,723.663,600.7692,762.74725,784.10254,744.21246,-0.1824951171875,0.08721923828125,0.97802734375,0.171966552734375,-3.551483154296875,-0.306549072265625,1.0,1.0,4.0,1.0,1.0,80.0,event
09:41:23.733,0.94647354,0.0,0.11366293,0.5972883,0.5675598,0.0,-0.7471085,0.34154257,0.7353018,0.0,0.04433111,0.7049627,0.66461664,0.0,0.13824107,0.40121332,0.4693605,0.0,-0.09114391,0.04448451,871.13556,499.6337,772.01465,802.6374,844.94507,-0.1824951171875,0.08721923828125,0.97802734375,0.171966552734375,-3.551483154296875,-0.306549072265625,1.0,1.0,4.0,1.0,1.0,80.0,event
09:41:23.734,0.94647354,0.0,0.11366293,0.5972883,0.5675598,0.0,-0.7471085,0.34154257,0.7353018,0.0,0.04433111,0.7049627,0.66461664,0.0,0.13824107,0.40121332,0.4693605,0.0,-0.09114391,0.04448451,971.06226,668.86444,767.98535,821.5751,853.00366,-0.1824951171875,0.08721923828125,0.97802734375,0.171966552734375,-3.551483154296875,-0.306549072265625,1.0,1.0,4.0,1.0,1.0,80.0,event
09:41:23.734,0.94647354,0.0,0.11366293,0.5972883,0.5675598,0.0,-0.7471085,0.34154257,0.7353018,0.0,0.04433111,0.7049627,0.66461664,0.0,0.13824107,0.40121332,0.4693605,0.0,-0.09114391,0.04448451,865.09155,702.3077,760.32965,805.8608,784.5055,-0.1824951171875,0.08721923828125,0.97802734375,0.171966552734375,-3.551483154296875,-0.306549072265625,1.0,1.0,4.0,1.0,1.0,80.0,event
09:41:23.735,0.94647354,0.0,0.11366293,0.5972883,0.5675598,0.0,-0.7471085,0.34154257,0.7353018,0.0,0.04433111,0.7049627,0.66461664,0.0,0.13824107,0.40121332,0.4693605,0.0,-0.09114391,0.04448451,687.3993,312.67398,753.0769,794.9817,875.56775,-0.1824951171875,0.08721923828125,0.97802734375,0.171966552734375,-3.551483154296875,-0.306549072265625,1.0,1.0,4.0,1.0,1.0,80.0,event
09:41:23.736,0.94647354,0.0,0.11366293,0.5972883,0.5675598,0.0,-0.7471085,0.34154257,0.7353018,0.0,0.04433111,0.7049627,0.66461664,0.0,0.13824107,0.40121332,0.4693605,0.0,-0.09114391,0.04448451,699.89014,205.09157,763.95605,797.8022,917.8755,-0.1824951171875,0.08721923828125,0.97802734375,0.171966552734375,-3.551483154296875,-0.306549072265625,1.0,1.0,4.0,1.0,1.0,80.0,event
09:41:23.737,0.94647354,0.0,0.11366293,0.5972883,0.5675598,0.0,-0.7471085,0.34154257,0.7353018,0.0,0.04433111,0.7049627,0.66461664,0.0,0.13824107,0.40121332,0.4693605,0.0,-0.09114391,0.04448451,881.2088,881.6117,773.6264,808.68134,744.21246,-0.1824951171875,0.08721923828125,0.97802734375,0.171966552734375,-3.551483154296875,-0.306549072265625,1.0,1.0,4.0,1.0,1.0,80.0,event
09:41:23.737,0.9991531,0.0,0.11798684,0.6495955,0.5770462,0.0,-0.7289801,0.34704965,0.7353018,0.0,0.02345899,0.70892507,0.649504,0.0,0.13221896,0.40763432,0.47045243,0.0,-0.08975014,0.040773593,988.7912,1020.2198,757.50916,817.9487,743.00366,-0.1824951171875,0.08721923828125,0.97802734375,0.171966552734375,-3.551483154296875,-0.306549072265625,1.0,1.0,4.0,1.0,1.0,80.0,event
09:41:23.772,0.9991531,0.0,0.11798684,0.6495955,0.5770462,0.0,-0.7289801,0.34704965,0.7353018,0.0,0.02345899,0.70892507,0.649504,0.0,0.13221896,0.40763432,0.47045243,0.0,-0.08975014,0.040773593,873.95605,790.14655,755.89746,801.02563,751.8681,-0.1824951171875,0.08721923828125,0.97802734375,0.171966552734375,-3.551483154296875,-0.306549072265625,1.0,1.0,4.0,1.0,1.0,80.0,event
09:41:23.773,0.9991531,0.0,0.11798684,0.6495955,0.5770462,0.0,-0.7289801,0.34704965,0.7353018,0.0,0.02345899,0.70892507,0.649504,0.0,0.13221896,0.40763432,0.47045243,0.0,-0.08975014,0.040773593,706.7399,805.8608,765.9707,787.72894,702.3077,-0.1824951171875,0.08721923828125,0.97802734375,0.171966552734375,-3.551483154296875,-0.306549072265625,1.0,1.0,4.0,1.0,1.0,80.0,event
09:41:23.774,0.9991531,0.0,0.11798684,0.6495955,0.5770462,0.0,-0.7289801,0.34704965,0.7353018,0.0,0.02345899,0.70892507,0.649504,0.0,0.13221896,0.40763432,0.47045243,0.0,-0.08975014,0.040773593,701.0989,924.3223,768.3883,788.5348,679.7436,-0.1824951171875,0.08721923828125,0.97802734375,0.171966552734375,-3.551483154296875,-0.306549072265625,1.0,1.0,4.0,1.0,1.0,80.0,event
09:41:23.774,0.9991531,0.0,0.11798684,0.6495955,0.5770462,0.0,-0.7289801,0.34704965,0.7353018,0.0,0.02345899,0.70892507,0.649504,0.0,0.13221896,0.40763432,0.47045243,0.0,-0.08975014,0.040773593,844.5421,826.0073,757.1062,811.50183,817.1429,-0.1824951171875,0.08721923828125,0.97802734375,0.171966552734375,-3.551483154296875,-0.306549072265625,1.0,1.0,4.0,1.0,1.0,80.0,event
09:41:23.775,0.9991531,0.0,0.11798684,0.6495955,0.5770462,0.0,-0.7289801,0.34704965,0.7353018,0.0,0.02345899,0.70892507,0.649504,0.0,0.13221896,0.40763432,0.47045243,0.0,-0.08975014,0.040773593,999.2674,715.6044,756.30035,830.0366,899.7436,-0.1824951171875,0.08721923828125,0.97802734375,0.171966552734375,-3.551483154296875,-0.306549072265625,1.0,1.0,4.0,1.0,1.0,80.0,event
09:41:23.776,0.9991531,0.0,0.11798684,0.6495955,0.5770462,0.0,-0.7289801,0.34704965,0.7353018,0.0,0.02345899,0.70892507,0.649504,0.0,0.13221896,0.40763432,0.47045243,0.0,-0.08975014,0.040773593,915.05493,725.6777,751.8681,807.47253,846.1539,-0.1824951171875,0.08721923828125,0.97802734375,0.171966552734375,-3.551483154296875,-0.306549072265625,1.0,1.0,4.0,1.0,1.0,80.0,event
09:41:23.777,0.9991531,0.0,0.11798684,0.6495955,0.5770462,0.0,-0.7289801,0.34704965,0.7353018,0.0,0.02345899,0.70892507,0.649504,0.0,0.13221896,0.40763432,0.47045243,0.0,-0.08975014,0.040773593,706.337,582.23444,756.7033,774.0293,793.36993,-0.1824951171875,0.08721923828125,0.97802734375,0.171966552734375,-3.551483154296875,-0.306549072265625,1.0,1.0,4.0,1.0,1.0,80.0,event
09:41:23.777,0.9991531,0.0,0.11798684,0.6495955,0.5770462,0.0,-0.7289801,0.34704965,0.7353018,0.0,0.02345899,0.70892507,0.649504,0.0,0.13221896,0.40763432,0.47045243,0.0,-0.08975014,0.040773593,682.96704,504.8718,754.68866,767.5824,796.99634,-0.1824951171875,0.08721923828125,0.97802734375,0.171966552734375,-3.551483154296875,-0.306549072265625,1.0,1.0,4.0,1.0,1.0,80.0,event
09:41:23.778,0.9991531,0.0,0.11798684,0.6495955,0.5770462,0.0,-0.7289801,0.34704965,0.7353018,0.0,0.02345899,0.70892507,0.649504,0.0,0.13221896,0.40763432,0.47045243,0.0,-0.08975014,0.040773593,807.8755,73.73627,747.4359,799.81683,1062.9304,-0.1824951171875,0.08721923828125,0.97802734375,0.171966552734375,-3.551483154296875,-0.306549072265625,1.0,1.0,4.0,1.0,1.0,80.0,event
09:41:23.778,0.9991531,0.0,0.11798684,0.6495955,0.5770462,0.0,-0.7289801,0.34704965,0.7353018,0.0,0.02345899,0.70892507,0.649504,0.0,0.13221896,0.40763432,0.47045243,0.0,-0.08975014,0.040773593,968.6447,356.5934,787.326,831.2454,1006.52014,-0.1824951171875,0.08721923828125,0.97802734375,0.171966552734375,-3.551483154296875,-0.306549072265625,1.0,1.0,4.0,1.0,1.0,80.0,event
09:41:23.779,0.9991531,0.0,0.11798684,0.6495955,0.5770462,0.0,-0.7289801,0.34704965,0.7353018,0.0,0.02345899,0.70892507,0.649504,0.0,0.13221896,0.40763432,0.47045243,0.0,-0.08975014,0.040773593,953.3333,1057.2894,773.22345,824.3956,727.6923,-0.1824951171875,0.08721923828125,0.97802734375,0.171966552734375,-3.551483154296875,-0.306549072265625,1.0,1.0,4.0,1.0,1.0,80.0,event
09:41:23.780,0.9991531,0.0,0.11798684,0.6495955,0.5770462,0.0,-0.7289801,0.34704965,0.7353018,0.0,0.02345899,0.70892507,0.649504,0.0,0.13221896,0.40763432,0.47045243,0.0,-0.08975014,0.040773593,748.24176,769.19415,755.09155,794.57874,720.4396,-0.1824951171875,0.08721923828125,0.97802734375,0.171966552734375,-3.551483154296875,-0.306549072265625,1.0,1.0,4.0,1.0,1.0,80.0,event
09:41:23.808,0.9991531,0.0,0.11798684,0.6495955,0.5770462,0.0,-0.7289801,0.34704965,0.7353018,0.0,0.02345899,0.70892507,0.649504,0.0,0.13221896,0.40763432,0.47045243,0.0,-0.08975014,0.040773593,682.96704,640.2564,771.6117,784.90845,709.9634,-0.18243408203125,0.08514404296875,0.967041015625,-0.127105712890625,-4.000091552734375,-1.338348388671875,1.0,1.0,4.0,1.0,1.0,80.0,event
09:41:23.809,0.9991531,0.0,0.11798684,0.6495955,0.5770462,0.0,-0.7289801,0.34704965,0.7353018,0.0,0.02345899,0.70892507,0.649504,0.0,0.13221896,0.40763432,0.47045243,0.0,-0.08975014,0.040773593,809.89014,908.60803,774.0293,795.78754,680.14655,-0.18243408203125,0.08514404296875,0.967041015625,-0.127105712890625,-4.000091552734375,-1.338348388671875,1.0,1.0,4.0,1.0,1.0,80.0,event
09:41:23.810,0.9991531,0.0,0.11798684,0.6495955,0.5770462,0.0,-0.7289801,0.34704965,0.7353018,0.0,0.02345899,0.70892507,0.649504,0.0,0.13221896,0.40763432,0.47045243,0.0,-0.08975014,0.040773593,974.2857,1015.78754,768.3883,819.5604,697.47253,-0.18243408203125,0.08514404296875,0.967041015625,-0.127105712890625,-4.000091552734375,-1.338348388671875,1.0,1.0,4.0,1.0,1.0,80.0,event
09:41:23.810,0.9991531,0.0,0.11798684,0.6495955,0.5770462,0.0,-0.7289801,0.34704965,0.7353018,0.0,0.02345899,0.70892507,0.649504,0.0,0.13221896,0.40763432,0.47045243,0.0,-0.08975014,0.040773593,957.76556,838.9011,771.2088,819.9634,730.5128,-0.18243408203125,0.08514404296875,0.967041015625,-0.127105712890625,-4.000091552734375,-1.338348388671875,1.0,1.0,4.0,1.0,1.0,80.0,event
09:41:23.811,0.9991531,0.0,0.11798684,0.6495955,0.5770462,0.0,-0.7289801,0.34704965,0.7353018,0.0,0.02345899,0.70892507,0.649504,0.0,0.13221896,0.40763432,0.47045243,0.0,-0.08975014,0.040773593,752.674,728.9011,769.19415,800.6227,756.30035,-0.18243408203125,0.08514404296875,0.967041015625,-0.127105712890625,-4.000091552734375,-1.338348388671875,1.0,1.0,4.0,1.0,1.0,80.0,event
09:41:23.812,0.9991531,0.0,0.11798684,0.6495955,0.5770462,0.0,-0.7289801,0.34704965,0.7353018,0.0,0.02345899,0.70892507,0.649504,0.0,0.13221896,0.40763432,0.47045243,0.0,-0.08975014,0.040773593,774.83514,583.44324,770.40295,805.05493,829.6337,-0.18243408203125,0.08514404296875,0.967041015625,-0.127105712890625,-4.000091552734375,-1.338348388671875,1.0,1.0,4.0,1.0,1.0,80.0,event
09:41:23.812,0.9991531,0.0,0.11798684,0.6495955,0.5770462,0.0,-0.7289801,0.34704965,0.7353018,0.0,0.02345899,0.70892507,0.649504,0.0,0.13221896,0.40763432,0.47045243,0.0,-0.08975014,0.040773593,666.04395,617.28937,761.9414,801.02563,825.2015,-0.18243408203125,0.08514404296875,0.967041015625,-0.127105712890625,-4.000091552734375,-1.338348388671875,1.0,1.0,4.0,1.0,1.0,80.0,event
09:41:23.813,0.9991531,0.0,0.11798684,0.6495955,0.5770462,0.0,-0.7289801,0.34704965,0.7353018,0.0,0.02345899,0.70892507,0.649504,0.0,0.13221896,0.40763432,0.47045243,0.0,-0.08975014,0.040773593,944.4689,339.67032,759.92676,823.9927,978.315,-0.18243408203125,0.08514404296875,0.967041015625,-0.127105712890625,-4.000091552734375,-1.338348388671875,1.0,1.0,4.0,1.0,1.0,80.0,event
09:41:23.813,0.9991531,0.0,0.11798684,0.6495955,0.5770462,0.0,-0.7289801,0.34704965,0.7353018,0.0,0.02345899,0.70892507,0.649504,0.0,0.13221896,0.40763432,0.47045243,0.0,-0.08975014,0.040773593,952.1245,87.83883,769.19415,819.9634,1112.4908,-0.18243408203125,0.08514404296875,0.967041015625,-0.127105712890625,-4.000091552734375,-1.338348388671875,1.0,1.0,4.0,1.0,1.0,80.0,event
09:41:23.814,0.9991531,0.0,0.11798684,0.6495955,0.5770462,0.0,-0.7289801,0.34704965,0.7353018,0.0,0.02345899,0.70892507,0.649504,0.0,0.13221896,0.40763432,0.47045243,0.0,-0.08975014,0.040773593,778.46155,662.01465,779.67035,792.96704,765.9707,-0.18243408203125,0.08514404296875,0.967041015625,-0.127105712890625,-4.000091552734375,-1.338348388671875,1.0,1.0,4.0,1.0,1.0,80.0,event
09:41:23.814,0.9991531,0.0,0.11798684,0.6495955,0.5770462,0.0,-0.7289801,0.34704965,0.7353018,0.0,0.02345899,0.70892507,0.649504,0.0,0.13221896,0.40763432,0.47045243,0.0,-0.08975014,0.040773593,674.90845,859.45056,761.13556,788.1319,642.674,-0.18243408203125,0.08514404296875,0.967041015625,-0.127105712890625,-4.000091552734375,-1.338348388671875,1.0,1.0,4.0,1.0,1.0,80.0,event
09:41:23.815,0.9991531,0.0,0.11798684,0.6495955,0.5770462,0.0,-0.7289801,0.34704965,0.7353018,0.0,0.02345899,0.70892507,0.649504,0.0,0.13221896,0.40763432,0.47045243,0.0,-0.08975014,0.040773593,765.9707,667.25275,763.1502,795.38464,698.2784,-0.18243408203125,0.08514404296875,0.967041015625,-0.127105712890625,-4.000091552734375,-1.338348388671875,1.0,1.0,4.0,1.0,1.0,80.0,event
09:41:23.853,0.9991531,0.0,0.11798684,0.6495955,0.5770462,0.0,-0.7289801,0.34704965,0.7353018,0.0,0.02345899,0.70892507,0.649504,0.0,0.13221896,0.40763432,0.47045243,0.0,-0.08975014,0.040773593,949.304,871.9414,776.04395,816.7399,677.72894,-0.18524169921875,0.07611083984375,0.96270751953125,-0.2392578125,-4.194488525390625,-1.9439697265625,1.0,1.0,4.0,1.0,1.0,80.0,event
09:41:23.854,1.0527043,0.0,0.1136331,0.69810224,0.5807102,0.0,-0.7257408,0.35006618,0.73470706,0.0,0.02495391,0.71606344,0.6325081,0.0,0.12934667,0.41827658,0.45654616,0.0,-0.09186596,0.03410005,982.74725,1114.5055,768.7912,823.5897,712.7839,-0.18524169921875,0.07611083984375,0.96270751953125,-0.2392578125,-4.194488525390625,-1.9439697265625,1.0,1.0,4.0,1.0,1.0,80.0,event
09:41:23.859,1.0527043,0.0,0.1136331,0.69810224,0.5807102,0.0,-0.7257408,0.35006618,0.73470706,0.0,0.02495391,0.71606344,0.6325081,0.0,0.12934667,0.41827658,0.45654616,0.0,-0.09186596,0.03410005,790.14655,892.8938,752.27106,794.17584,747.03296,-0.18524169921875,0.07611083984375,0.96270751953125,-0.2392578125,-4.194488525390625,-1.9439697265625,1.0,1.0,4.0,1.0,1.0,80.0,event
09:41:23.859,1.0527043,0.0,0.1136331,0.69810224,0.5807102,0.0,-0.7257408,0.35006618,0.73470706,0.0,0.02495391,0.71606344,0.6325081,0.0,0.12934667,0.41827658,0.45654616,0.0,-0.09186596,0.03410005,654.7619,664.0293,759.92676,778.46155,764.35895,-0.18524169921875,0.07611083984375,0.96270751953125,-0.2392578125,-4.194488525390625,-1.9439697265625,1.0,1.0,4.0,1.0,1.0,80.0,event
09:41:23.860,1.0527043,0.0,0.1136331,0.69810224,0.5807102,0.0,-0.7257408,0.35006618,0.73470706,0.0,0.02495391,0.71606344,0.6325081,0.0,0.12934667,0.41827658,0.45654616,0.0,-0.09186596,0.03410005,738.97437,795.78754,765.9707,795.78754,746.63007,-0.18524169921875,0.07611083984375,0.96270751953125,-0.2392578125,-4.194488525390625,-1.9439697265625,1.0,1.0,4.0,1.0,1.0,80.0,event
09:41:23.861,1.0527043,0.0,0.1136331,0.69810224,0.5807102,0.0,-0.7257408,0.35006618,0.73470706,0.0,0.02495391,0.71606344,0.6325081,0.0,0.12934667,0.41827658,0.45654616,0.0,-0.09186596,0.03410005,976.30035,619.707,751.06226,829.2308,877.5824,-0.18524169921875,0.07611083984375,0.96270751953125,-0.2392578125,-4.194488525390625,-1.9439697265625,1.0,1.0,4.0,1.0,1.0,80.0,event
09:41:23.861,1.0527043,0.0,0.1136331,0.69810224,0.5807102,0.0,-0.7257408,0.35006618,0.73470706,0.0,0.02495391,0.71606344,0.6325081,0.0,0.12934667,0.41827658,0.45654616,0.0,-0.09186596,0.03410005,919.4872,795.38464,765.56775,822.7839,757.9121,-0.18524169921875,0.07611083984375,0.96270751953125,-0.2392578125,-4.194488525390625,-1.9439697265625,1.0,1.0,4.0,1.0,1.0,80.0,event
09:41:23.862,1.0527043,0.0,0.1136331,0.69810224,0.5807102,0.0,-0.7257408,0.35006618,0.73470706,0.0,0.02495391,0.71606344,0.6325081,0.0,0.12934667,0.41827658,0.45654616,0.0,-0.09186596,0.03410005,834.87177,115.64103,745.0183,802.6374,1102.4176,-0.18524169921875,0.07611083984375,0.96270751953125,-0.2392578125,-4.194488525390625,-1.9439697265625,1.0,1.0,4.0,1.0,1.0,80.0,event
09:41:23.863,1.0527043,0.0,0.1136331,0.69810224,0.5807102,0.0,-0.7257408,0.35006618,0.73470706,0.0,0.02495391,0.71606344,0.6325081,0.0,0.12934667,0.41827658,0.45654616,0.0,-0.09186596,0.03410005,689.011,321.9414,784.5055,780.4762,929.9634,-0.18524169921875,0.07611083984375,0.96270751953125,-0.2392578125,-4.194488525390625,-1.9439697265625,1.0,1.0,4.0,1.0,1.0,80.0,event
09:41:23.863,1.0527043,0.0,0.1136331,0.69810224,0.5807102,0.0,-0.7257408,0.35006618,0.73470706,0.0,0.02495391,0.71606344,0.6325081,0.0,0.12934667,0.41827658,0.45654616,0.0,-0.09186596,0.03410005,714.7985,928.7546,775.2381,787.326,664.0293,-0.18524169921875,0.07611083984375,0.96270751953125,-0.2392578125,-4.194488525390625,-1.9439697265625,1.0,1.0,4.0,1.0,1.0,80.0,event
09:41:23.864,1.0527043,0.0,0.1136331,0.69810224,0.5807102,0.0,-0.7257408,0.35006618,0.73470706,0.0,0.02495391,0.71606344,0.6325081,0.0,0.12934667,0.41827658,0.45654616,0.0,-0.09186596,0.03410005,892.49084,628.1685,751.06226,812.71063,865.4945,-0.18524169921875,0.07611083984375,0.96270751953125,-0.2392578125,-4.194488525390625,-1.9439697265625,1.0,1.0,4.0,1.0,1.0,80.0,event
09:41:23.865,1.0527043,0.0,0.1136331,0.69810224,0.5807102,0.0,-0.7257408,0.35006618,0.73470706,0.0,0.02495391,0.71606344,0.6325081,0.0,0.12934667,0.41827658,0.45654616,0.0,-0.09186596,0.03410005,996.8498,543.5531,764.35895,822.381,940.84247,-0.18524169921875,0.07611083984375,0.96270751953125,-0.2392578125,-4.194488525390625,-1.9439697265625,1.0,1.0,4.0,1.0,1.0,80.0,event
09:41:23.956,1.0527043,0.0,0.1136331,0.69810224,0.5807102,0.0,-0.7257408,0.35006618,0.73470706,0.0,0.02495391,0.71606344,0.6325081,0.0,0.12934667,0.41827658,0.45654616,0.0,-0.09186596,0.03410005,847.76556,965.42126,771.6117,788.93774,732.9304,-0.1849365234375,0.08026123046875,0.968017578125,0.4486083984375,-3.93280029296875,-1.443023681640625,1.0,1.0,4.0,1.0,1.0,80.0,event
09:41:23.957,1.0527043,0.0,0.1136331,0.69810224,0.5807102,0.0,-0.7257408,0.35006618,0.73470706,0.0,0.02495391,0.71606344,0.6325081,0.0,0.12934667,0.41827658,0.45654616,0.0,-0.09186596,0.03410005,681.75824,944.87177,760.32965,776.04395,672.49084,-0.1849365234375,0.08026123046875,0.968017578125,0.4486083984375,-3.93280029296875,-1.443023681640625,1.0,1.0,4.0,1.0,1.0,80.0,event
09:41:23.958,1.0527043,0.0,0.1136331,0.69810224,0.5807102,0.0,-0.7257408,0.35006618,0.73470706,0.0,0.02495391,0.71606344,0.6325081,0.0,0.12934667,0.41827658,0.45654616,0.0,-0.09186596,0.03410005,714.7985,683.7729,769.59705,790.9524,749.85345,-0.1849365234375,0.08026123046875,0.968017578125,0.4486083984375,-3.93280029296875,-1.443023681640625,1.0,1.0,4.0,1.0,1.0,80.0,event
09:41:23.960,1.0527043,0.0,0.1136331,0.69810224,0.5807102,0.0,-0.7257408,0.35006618,0.73470706,0.0,0.02495391,0.71606344,0.6325081,0.0,0.12934667,0.41827658,0.45654616,0.0,-0.09186596,0.03410005,888.86444,820.3663,785.31134,802.6374,824.3956,-0.1849365234375,0.08026123046875,0.968017578125,0.4486083984375,-3.93280029296875,-1.443023681640625,1.0,1.0,4.0,1.0,1.0,80.0,event
09:41:23.961,1.0527043,0.0,0.1136331,0.69810224,0.5807102,0.0,-0.7257408,0.35006618,0.73470706,0.0,0.02495391,0.71606344,0.6325081,0.0,0.12934667,0.41827658,0.45654616,0.0,-0.09186596,0.03410005,884.83514,808.68134,758.71796,796.5934,770.0,-0.1849365234375,0.08026123046875,0.968017578125,0.4486083984375,-3.93280029296875,-1.443023681640625,1.0,1.0,4.0,1.0,1.0,80.0,event
09:41:23.961,1.0527043,0.0,0.1136331,0.69810224,0.5807102,0.0,-0.7257408,0.35006618,0.73470706,0.0,0.02495391,0.71606344,0.6325081,0.0,0.12934667,0.41827658,0.45654616,0.0,-0.09186596,0.03410005,992.01465,1031.0989,768.3883,807.0696,759.92676,-0.1849365234375,0.08026123046875,0.968017578125,0.4486083984375,-3.93280029296875,-1.443023681640625,1.0,1.0,4.0,1.0,1.0,80.0,event
09:41:23.962,1.0527043,0.0,0.1136331,0.69810224,0.5807102,0.0,-0.7257408,0.35006618,0.73470706,0.0,0.02495391,0.71606344,0.6325081,0.0,0.12934667,0.41827658,0.45654616,0.0,-0.09186596,0.03410005,703.5165,303.8095,753.47986,787.72894,1029.0842,-0.1849365234375,0.08026123046875,0.968017578125,0.4486083984375,-3.93280029296875,-1.443023681640625,1.0,1.0,4.0,1.0,1.0,80.0,event
09:41:23.963,1.0527043,0.0,0.1136331,0.69810224,0.5807102,0.0,-0.7257408,0.35006618,0.73470706,0.0,0.02495391,0.71606344,0.6325081,0.0,0.12934667,0.41827658,0.45654616,0.0,-0.09186596,0.03410005,684.9817,180.1099,769.59705,790.54944,1024.249,-0.1849365234375,0.08026123046875,0.968017578125,0.4486083984375,-3.93280029296875,-1.443023681640625,1.0,1.0,4.0,1.0,1.0,80.0,event
09:41:23.964,1.0527043,0.0,0.1136331,0.69810224,0.5807102,0.0,-0.7257408,0.35006618,0.73470706,0.0,0.02495391,0.71606344,0.6325081,0.0,0.12934667,0.41827658,0.45654616,0.0,-0.09186596,0.03410005,854.61536,810.293,780.87915,806.26373,700.696,-0.1849365234375,0.08026123046875,0.968017578125,0.4486083984375,-3.93280029296875,-1.443023681640625,1.0,1.0,4.0,1.0,1.0,80.0,event
09:41:23.964,1.0527043,0.0,0.1136331,0.69810224,0.5807102,0.0,-0.7257408,0.35006618,0.73470706,0.0,0.02495391,0.71606344,0.6325081,0.0,0.12934667,0.41827658,0.45654616,0.0,-0.09186596,0.03410005,983.5531,1021.4286,756.30035,817.1429,709.5604,-0.1849365234375,0.08026123046875,0.968017578125,0.4486083984375,-3.93280029296875,-1.443023681640625,1.0,1.0,4.0,1.0,1.0,80.0,event
09:41:23.965,1.0527043,0.0,0.1136331,0.69810224,0.5807102,0.0,-0.7257408,0.35006618,0.73470706,0.0,0.02495391,0.71606344,0.6325081,0.0,0.12934667,0.41827658,0.45654616,0.0,-0.09186596,0.03410005,902.1612,814.3223,749.45056,805.8608,771.2088,-0.1849365234375,0.08026123046875,0.968017578125,0.4486083984375,-3.93280029296875,-1.443023681640625,1.0,1.0,4.0,1.0,1.0,80.0,event
09:41:23.966,1.0527043,0.0,0.1136331,0.69810224,0.5807102,0.0,-0.7257408,0.35006618,0.73470706,0.0,0.02495391,0.71606344,0.6325081,0.0,0.12934667,0.41827658,0.45654616,0.0,-0.09186596,0.03410005,748.6447,790.54944,764.35895,790.14655,685.38464,-0.1849365234375,0.08026123046875,0.968017578125,0.4486083984375,-3.93280029296875,-1.443023681640625,1.0,1.0,4.0,1.0,1.0,80.0,event
09:41:23.990,1.0527043,0.0,0.1136331,0.69810224,0.5807102,0.0,-0.7257408,0.35006618,0.73470706,0.0,0.02495391,0.71606344,0.6325081,0.0,0.12934667,0.41827658,0.45654616,0.0,-0.09186596,0.03410005,712.381,886.04395,762.3443,788.5348,688.60803,-0.172607421875,0.07257080078125,0.95501708984375,-0.13458251953125,-6.048736572265625,0.61309814453125,1.0,1.0,4.0,1.0,1.0,80.0,event
09:41:23.991,1.0527043,0.0,0.1136331,0.69810224,0.5807102,0.0,-0.7257408,0.35006618,0.73470706,0.0,0.02495391,0.71606344,0.6325081,0.0,0.12934667,0.41827658,0.45654616,0.0,-0.09186596,0.03410005,838.9011,749.45056,754.68866,802.23444,825.6044,-0.172607421875,0.07257080078125,0.95501708984375,-0.13458251953125,-6.048736572265625,0.61309814453125,1.0,1.0,4.0,1.0,1.0,80.0,event
09:41:23.992,1.0527043,0.0,0.1136331,0.69810224,0.5807102,0.0,-0.7257408,0.35006618,0.73470706,0.0,0.02495391,0.71606344,0.6325081,0.0,0.12934667,0.41827658,0.45654616,0.0,-0.09186596,0.03410005,991.6117,608.022,763.95605,811.50183,917.0696,-0.172607421875,0.07257080078125,0.95501708984375,-0.13458251953125,-6.048736572265625,0.61309814453125,1.0,1.0,4.0,1.0,1.0,80.0,event
09:41:23.992,1.0899621,0.0,0.12108226,0.7338231,0.5837195,0.0,-0.7294582,0.35079548,0.73357433,0.0,0.022077598,0.71693665,0.62506676,0.0,0.13226697,0.42704454,0.4244474,0.0,-0.09185314,0.024907045,934.3956,843.3333,765.9707,798.60803,830.84247,-0.172607421875,0.07257080078125,0.95501708984375,-0.13458251953125,-6.048736572265625,0.61309814453125,1.0,1.0,4.0,1.0,1.0,80.0,event
09:41:23.997,1.0899621,0.0,0.12108226,0.7338231,0.5837195,0.0,-0.7294582,0.35079548,0.73357433,0.0,0.022077598,0.71693665,0.62506676,0.0,0.13226697,0.42704454,0.4244474,0.0,-0.09185314,0.024907045,740.18317,985.9707,757.9121,782.8938,732.52747,-0.172607421875,0.07257080078125,0.95501708984375,-0.13458251953125,-6.048736572265625,0.61309814453125,1.0,1.0,4.0,1.0,1.0,80.0,event
09:41:23.998,1.0899621,0.0,0.12108226,0.7338231,0.5837195,0.0,-0.7294582,0.35079548,0.73357433,0.0,0.022077598,0.71693665,0.62506676,0.0,0.13226697,0.42704454,0.4244474,0.0,-0.09185314,0.024907045,679.34064,614.4689,743.4066,780.87915,830.0366,-0.172607421875,0.07257080078125,0.95501708984375,-0.13458251953125,-6.048736572265625,0.61309814453125,1.0,1.0,4.0,1.0,1.0,80.0,event
09:41:23.999,1.0899621,0.0,0.12108226,0.7338231,0.5837195,0.0,-0.7294582,0.35079548,0.73357433,0.0,0.022077598,0.71693665,0.62506676,0.0,0.13226697,0.42704454,0.4244474,0.0,-0.09185314,0.024907045,801.8315,222.82051,755.4945,798.60803,1021.02563,-0.172607421875,0.07257080078125,0.95501708984375,-0.13458251953125,-6.048736572265625,0.61309814453125,1.0,1.0,4.0,1.0,1.0,80.0,event
09:41:24.000,1.0899621,0.0,0.12108226,0.7338231,0.5837195,0.0,-0.7294582,0.35079548,0.73357433,0.0,0.022077598,0.71693665,0.62506676,0.0,0.13226697,0.42704454,0.4244474,0.0,-0.09185314,0.024907045,980.32965,643.47986,781.28204,828.022,908.60803,-0.172607421875,0.07257080078125,0.95501708984375,-0.13458251953125,-6.048736572265625,0.61309814453125,1.0,1.0,4.0,1.0,1.0,80.0,event
09:41:24.001,1.0899621,0.0,0.12108226,0.7338231,0.5837195,0.0,-0.7294582,0.35079548,0.73357433,0.0,0.022077598,0.71693665,0.62506676,0.0,0.13226697,0.42704454,0.4244474,0.0,-0.09185314,0.024907045,956.1539,1116.1172,767.1795,828.4249,722.8571,-0.172607421875,0.07257080078125,0.95501708984375,-0.13458251953125,-6.048736572265625,0.61309814453125,1.0,1.0,4.0,1.0,1.0,80.0,event
09:41:24.002,1.0899621,0.0,0.12108226,0.7338231,0.5837195,0.0,-0.7294582,0.35079548,0.73357433,0.0,0.022077598,0.71693665,0.62506676,0.0,0.13226697,0.42704454,0.4244474,0.0,-0.09185314,0.024907045,714.7985,692.23444,741.39197,792.1612,802.6374,-0.172607421875,0.07257080078125,0.95501708984375,-0.13458251953125,-6.048736572265625,0.61309814453125,1.0,1.0,4.0,1.0,1.0,80.0,event
09:41:24.003,1.0899621,0.0,0.12108226,0.7338231,0.5837195,0.0,-0.7294582,0.35079548,0.73357433,0.0,0.022077598,0.71693665,0.62506676,0.0,0.13226697,0.42704454,0.4244474,0.0,-0.09185314,0.024907045,638.24176,336.4469,750.65936,780.87915,836.8865,-0.172607421875,0.07257080078125,0.95501708984375,-0.13458251953125,-6.048736572265625,0.61309814453125,1.0,1.0,4.0,1.0,1.0,80.0,event
09:41:24.004,1.0899621,0.0,0.12108226,0.7338231,0.5837195,0.0,-0.7294582,0.35079548,0.73357433,0.0,0.022077598,0.71693665,0.62506676,0.0,0.13226697,0.42704454,0.4244474,0.0,-0.09185314,0.024907045,813.1135,778.86444,772.01465,801.02563,695.4579,-0.172607421875,0.07257080078125,0.95501708984375,-0.13458251953125,-6.048736572265625,0.61309814453125,1.0,1.0,4.0,1.0,1.0,80.0,event
09:41:24.005,1.0899621,0.0,0.12108226,0.7338231,0.5837195,0.0,-0.7294582,0.35079548,0.73357433,0.0,0.022077598,0.71693665,0.62506676,0.0,0.13226697,0.42704454,0.4244474,0.0,-0.09185314,0.024907045,985.56775,1031.0989,761.53845,812.3077,686.5934,-0.172607421875,0.07257080078125,0.95501708984375,-0.13458251953125,-6.048736572265625,0.61309814453125,1.0,1.0,4.0,1.0,1.0,80.0,event
09:41:24.006,1.0899621,0.0,0.12108226,0.7338231,0.5837195,0.0,-0.7294582,0.35079548,0.73357433,0.0,0.022077598,0.71693665,0.62506676,0.0,0.13226697,0.42704454,0.4244474,0.0,-0.09185314,0.024907045,971.4652,861.4652,755.89746,810.696,819.15753,-0.172607421875,0.07257080078125,0.95501708984375,-0.13458251953125,-6.048736572265625,0.61309814453125,1.0,1.0,4.0,1.0,1.0,80.0,event
09:41:24.006,1.0899621,0.0,0.12108226,0.7338231,0.5837195,0.0,-0.7294582,0.35079548,0.73357433,0.0,0.022077598,0.71693665,0.62506676,0.0,0.13226697,0.42704454,0.4244474,0.0,-0.09185314,0.024907045,767.98535,759.92676,759.12085,791.3553,818.7546,-0.172607421875,0.07257080078125,0.95501708984375,-0.13458251953125,-6.048736572265625,0.61309814453125,1.0,1.0,4.0,1.0,1.0,80.0,event
09:41:24.007,1.0899621,0.0,0.12108226,0.7338231,0.5837195,0.0,-0.7294582,0.35079548,0.73357433,0.0,0.022077598,0.71693665,0.62506676,0.0,0.13226697,0.42704454,0.4244474,0.0,-0.09185314,0.024907045,667.25275,808.2784,754.68866,781.28204,701.0989,-0.172607421875,0.07257080078125,0.95501708984375,-0.13458251953125,-6.048736572265625,0.61309814453125,1.0,1.0,4.0,1.0,1.0,80.0,event
09:41:24.008,1.0899621,0.0,0.12108226,0.7338231,0.5837195,0.0,-0.7294582,0.35079548,0.73357433,0.0,0.022077598,0.71693665,0.62506676,0.0,0.13226697,0.42704454,0.4244474,0.0,-0.09185314,0.024907045,763.1502,757.50916,750.2564,798.20514,762.74725,-0.172607421875,0.07257080078125,0.95501708984375,-0.13458251953125,-6.048736572265625,0.61309814453125,1.0,1.0,4.0,1.0,1.0,80.0,event
09:41:24.009,1.0899621,0.0,0.12108226,0.7338231,0.5837195,0.0,-0.7294582,0.35079548,0.73357433,0.0,0.022077598,0.71693665,0.62506676,0.0,0.13226697,0.42704454,0.4244474,0.0,-0.09185314,0.024907045,925.12823,351.75824,744.61536,816.7399,993.6264,-0.172607421875,0.07257080078125,0.95501708984375,-0.13458251953125,-6.048736572265625,0.61309814453125,1.0,1.0,4.0,1.0,1.0,80.0,event
09:41:24.009,1.0899621,0.0,0.12108226,0.7338231,0.5837195,0.0,-0.7294582,0.35079548,0.73357433,0.0,0.022077598,0.71693665,0.62506676,0.0,0.13226697,0.42704454,0.4244474,0.0,-0.09185314,0.024907045,967.8388,141.02563,761.53845,814.7253,1039.5604,-0.172607421875,0.07257080078125,0.95501708984375,-0.13458251953125,-6.048736572265625,0.61309814453125,1.0,1.0,4.0,1.0,1.0,80.0,event
09:41:24.010,1.0899621,0.0,0.12108226,0.7338231,0.5837195,0.0,-0.7294582,0.35079548,0.73357433,0.0,0.022077598,0.71693665,0.62506676,0.0,0.13226697,0.42704454,0.4244474,0.0,-0.09185314,0.024907045,781.685,655.9707,766.77655,799.41394,747.03296,-0.172607421875,0.07257080078125,0.95501708984375,-0.13458251953125,-6.048736572265625,0.61309814453125,1.0,1.0,4.0,1.0,1.0,80.0,event
09:41:24.011,1.0899621,0.0,0.12108226,0.7338231,0.5837195,0.0,-0.7294582,0.35079548,0.73357433,0.0,0.022077598,0.71693665,0.62506676,0.0,0.13226697,0.42704454,0.4244474,0.0,-0.09185314,0.024907045,655.56775,857.4359,748.24176,789.7436,661.2088,-0.172607421875,0.07257080078125,0.95501708984375,-0.13458251953125,-6.048736572265625,0.61309814453125,1.0,1.0,4.0,1.0,1.0,80.0,event
09:41:24.012,1.0899621,0.0,0.12108226,0.7338231,0.5837195,0.0,-0.7294582,0.35079548,0.73357433,0.0,0.022077598,0.71693665,0.62506676,0.0,0.13226697,0.42704454,0.4244474,0.0,-0.09185314,0.024907045,749.85345,402.52747,761.9414,803.44324,850.989,-0.172607421875,0.07257080078125,0.95501708984375,-0.13458251953125,-6.048736572265625,0.61309814453125,1.0,1.0,4.0,1.0,1.0,80.0,event
09:41:24.012,1.0899621,0.0,0.12108226,0.7338231,0.5837195,0.0,-0.7294582,0.35079548,0.73357433,0.0,0.022077598,0.71693665,0.62506676,0.0,0.13226697,0.42704454,0.4244474,0.0,-0.09185314,0.024907045,936.8132,503.663,780.4762,823.1868,846.9597,-0.172607421875,0.07257080078125,0.95501708984375,-0.13458251953125,-6.048736572265625,0.61309814453125,1.0,1.0,4.0,1.0,1.0,80.0,event
09:41:24.013,1.0899621,0.0,0.12108226,0.7338231,0.5837195,0.0,-0.7294582,0.35079548,0.73357433,0.0,0.022077598,0.71693665,0.62506676,0.0,0.13226697,0.42704454,0.4244474,0.0,-0.09185314,0.024907045,974.2857,1039.5604,761.13556,822.7839,686.1905,-0.172607421875,0.07257080078125,0.95501708984375,-0.13458251953125,-6.048736572265625,0.61309814453125,1.0,1.0,4.0,1.0,1.0,80.0,event
09:41:24.067,1.0899621,0.0,0.12108226,0.7338231,0.5837195,0.0,-0.7294582,0.35079548,0.73357433,0.0,0.022077598,0.71693665,0.62506676,0.0,0.13226697,0.42704454,0.4244474,0.0,-0.09185314,0.024907045,801.02563,879.19415,739.3773,804.65204,698.68134,-0.18011474609375,0.06854248046875,0.97003173828125,0.94207763671875,-4.8748779296875,0.7476806640625,1.0,1.0,4.0,1.0,1.0,80.0,event
09:41:24.068,1.0899621,0.0,0.12108226,0.7338231,0.5837195,0.0,-0.7294582,0.35079548,0.73357433,0.0,0.022077598,0.71693665,0.62506676,0.0,0.13226697,0.42704454,0.4244474,0.0,-0.09185314,0.024907045,683.36993,617.28937,743.4066,792.1612,744.21246,-0.18011474609375,0.06854248046875,0.97003173828125,0.94207763671875,-4.8748779296875,0.7476806640625,1.0,1.0,4.0,1.0,1.0,80.0,event
09:41:24.069,1.0899621,0.0,0.12108226,0.7338231,0.5837195,0.0,-0.7294582,0.35079548,0.73357433,0.0,0.022077598,0.71693665,0.62506676,0.0,0.13226697,0.42704454,0.4244474,0.0,-0.09185314,0.024907045,738.97437,741.79486,762.3443,796.99634,712.7839,-0.18011474609375,0.06854248046875,0.97003173828125,0.94207763671875,-4.8748779296875,0.7476806640625,1.0,1.0,4.0,1.0,1.0,80.0,event
09:41:24.070,1.0899621,0.0,0.12108226,0.7338231,0.5837195,0.0,-0.7294582,0.35079548,0.73357433,0.0,0.022077598,0.71693665,0.62506676,0.0,0.13226697,0.42704454,0.4244474,0.0,-0.09185314,0.024907045,931.978,1007.326,761.13556,823.1868,717.619,-0.18011474609375,0.06854248046875,0.97003173828125,0.94207763671875,-4.8748779296875,0.7476806640625,1.0,1.0,4.0,1.0,1.0,80.0,event
09:41:24.070,1.0899621,0.0,0.12108226,0.7338231,0.5837195,0.0,-0.7294582,0.35079548,0.73357433,0.0,0.022077598,0.71693665,0.62506676,0.0,0.13226697,0.42704454,0.4244474,0.0,-0.09185314,0.024907045,999.2674,911.02563,743.8095,828.022,785.31134,-0.18011474609375,0.06854248046875,0.97003173828125,0.94207763671875,-4.8748779296875,0.7476806640625,1.0,1.0,4.0,1.0,1.0,80.0,event
09:41:24.071,1.0899621,0.0,0.14666803,0.7512011,0.5837195,0.0,-0.73957604,0.34839803,0.73357433,0.0,0.030134251,0.71693665,0.62506676,0.0,0.13867247,0.42738312,0.4244474,0.0,-0.08449071,0.02710677,842.52747,542.74725,739.3773,805.8608,849.7802,-0.18011474609375,0.06854248046875,0.97003173828125,0.94207763671875,-4.8748779296875,0.7476806640625,1.0,1.0,4.0,1.0,1.0,80.0,event
09:41:24.075,1.0899621,0.0,0.14666803,0.7512011,0.5837195,0.0,-0.73957604,0.34839803,0.73357433,0.0,0.030134251,0.71693665,0.62506676,0.0,0.13867247,0.42738312,0.4244474,0.0,-0.08449071,0.02710677,685.78754,381.17215,751.4652,800.2198,777.25275,-0.18011474609375,0.06854248046875,0.97003173828125,0.94207763671875,-4.8748779296875,0.7476806640625,1.0,1.0,4.0,1.0,1.0,80.0,event
09:41:24.076,1.0899621,0.0,0.14666803,0.7512011,0.5837195,0.0,-0.73957604,0.34839803,0.73357433,0.0,0.030134251,0.71693665,0.62506676,0.0,0.13867247,0.42738312,0.4244474,0.0,-0.08449071,0.02710677,718.4249,470.2198,762.74725,801.4286,738.97437,-0.18011474609375,0.06854248046875,0.97003173828125,0.94207763671875,-4.8748779296875,0.7476806640625,1.0,1.0,4.0,1.0,1.0,80.0,event
09:41:24.076,1.0899621,0.0,0.14666803,0.7512011,0.5837195,0.0,-0.73957604,0.34839803,0.73357433,0.0,0.030134251,0.71693665,0.62506676,0.0,0.13867247,0.42738312,0.4244474,0.0,-0.08449071,0.02710677,906.5934,554.83514,749.0476,822.7839,844.5421,-0.18011474609375,0.06854248046875,0.97003173828125,0.94207763671875,-4.8748779296875,0.7476806640625,1.0,1.0,4.0,1.0,1.0,80.0,event
09:41:24.077,1.0899621,0.0,0.14666803,0.7512011,0.5837195,0.0,-0.73957604,0.34839803,0.73357433,0.0,0.030134251,0.71693665,0.62506676,0.0,0.13867247,0.42738312,0.4244474,0.0,-0.08449071,0.02710677,856.2271,276.8132,767.5824,823.1868,936.8132,-0.18011474609375,0.06854248046875,0.97003173828125,0.94207763671875,-4.8748779296875,0.7476806640625,1.0,1.0,4.0,1.0,1.0,80.0,event
09:41:24.077,1.0899621,0.0,0.14666803,0.7512011,0.5837195,0.0,-0.73957604,0.34839803,0.73357433,0.0,0.030134251,0.71693665,0.62506676,0.0,0.13867247,0.42738312,0.4244474,0.0,-0.08449071,0.02710677,990.40295,119.2674,743.8095,840.9158,1060.1099,-0.18011474609375,0.06854248046875,0.97003173828125,0.94207763671875,-4.8748779296875,0.7476806640625,1.0,1.0,4.0,1.0,1.0,80.0,event
09:41:24.078,1.0899621,0.0,0.14666803,0.7512011,0.5837195,0.0,-0.73957604,0.34839803,0.73357433,0.0,0.030134251,0.71693665,0.62506676,0.0,0.13867247,0.42738312,0.4244474,0.0,-0.08449071,0.02710677,691.4286,755.09155,753.8828,790.14655,683.7729,-0.18011474609375,0.06854248046875,0.97003173828125,0.94207763671875,-4.8748779296875,0.7476806640625,1.0,1.0,4.0,1.0,1.0,80.0,event
09:41:24.100,1.0899621,0.0,0.14666803,0.7512011,0.5837195,0.0,-0.73957604,0.34839803,0.73357433,0.0,0.030134251,0.71693665,0.62506676,0.0,0.13867247,0.42738312,0.4244474,0.0,-0.08449071,0.02710677,694.2491,548.7912,754.68866,789.7436,720.0366,-0.17413330078125,0.0699462890625,0.96771240234375,1.697235107421875,-4.42626953125,0.1495361328125,1.0,1.0,4.0,1.0,1.0,80.0,event
09:41:24.100,1.0899621,0.0,0.14666803,0.7512011,0.5837195,0.0,-0.73957604,0.34839803,0.73357433,0.0,0.030134251,0.71693665,0.62506676,0.0,0.13867247,0.42738312,0.4244474,0.0,-0.08449071,0.02710677,859.0476,655.9707,769.59705,814.7253,748.24176,-0.17413330078125,0.0699462890625,0.96771240234375,1.697235107421875,-4.42626953125,0.1495361328125,1.0,1.0,4.0,1.0,1.0,80.0,event
09:41:24.101,1.0899621,0.0,0.14666803,0.7512011,0.5837195,0.0,-0.73957604,0.34839803,0.73357433,0.0,0.030134251,0.71693665,0.62506676,0.0,0.13867247,0.42738312,0.4244474,0.0,-0.08449071,0.02710677,981.9414,1041.5751,761.9414,826.0073,728.49817,-0.17413330078125,0.0699462890625,0.96771240234375,1.697235107421875,-4.42626953125,0.1495361328125,1.0,1.0,4.0,1.0,1.0,80.0,event
09:41:24.101,1.0899621,0.0,0.14666803,0.7512011,0.5837195,0.0,-0.73957604,0.34839803,0.73357433,0.0,0.030134251,0.71693665,0.62506676,0.0,0.13867247,0.42738312,0.4244474,0.0,-0.08449071,0.02710677,887.6557,1049.6337,750.2564,813.91943,727.28937,-0.17413330078125,0.0699462890625,0.96771240234375,1.697235107421875,-4.42626953125,0.1495361328125,1.0,1.0,4.0,1.0,1.0,80.0,event
09:41:24.102,1.0899621,0.0,0.14666803,0.7512011,0.5837195,0.0,-0.73957604,0.34839803,0.73357433,0.0,0.030134251,0.71693665,0.62506676,0.0,0.13867247,0.42738312,0.4244474,0.0,-0.08449071,0.02710677,672.0879,711.5751,746.2271,792.5641,792.96704,-0.17413330078125,0.0699462890625,0.96771240234375,1.697235107421875,-4.42626953125,0.1495361328125,1.0,1.0,4.0,1.0,1.0,80.0,event
09:41:24.103,1.0899621,0.0,0.14666803,0.7512011,0.5837195,0.0,-0.73957604,0.34839803,0.73357433,0.0,0.030134251,0.71693665,0.62506676,0.0,0.13867247,0.42738312,0.4244474,0.0,-0.08449071,0.02710677,667.6557,522.6007,751.06226,795.38464,891.685,-0.17413330078125,0.0699462890625,0.96771240234375,1.697235107421875,-4.42626953125,0.1495361328125,1.0,1.0,4.0,1.0,1.0,80.0,event
09:41:24.103,1.0899621,0.0,0.14666803,0.7512011,0.5837195,0.0,-0.73957604,0.34839803,0.73357433,0.0,0.030134251,0.71693665,0.62506676,0.0,0.13867247,0.42738312,0.4244474,0.0,-0.08449071,0.02710677,862.27106,630.18317,755.89746,801.4286,924.3223,-0.17413330078125,0.0699462890625,0.96771240234375,1.697235107421875,-4.42626953125,0.1495361328125,1.0,1.0,4.0,1.0,1.0,80.0,event
09:41:24.104,1.0899621,0.0,0.14666803,0.7512011,0.5837195,0.0,-0.73957604,0.34839803,0.73357433,0.0,0.030134251,0.71693665,0.62506676,0.0,0.13867247,0.42738312,0.4244474,0.0,-0.08449071,0.02710677,989.59705,904.57874,753.47986,808.68134,812.71063,-0.17413330078125,0.0699462890625,0.96771240234375,1.697235107421875,-4.42626953125,0.1495361328125,1.0,1.0,4.0,1.0,1.0,80.0,event
09:41:24.104,1.0899621,0.0,0.14666803,0.7512011,0.5837195,0.0,-0.73957604,0.34839803,0.73357433,0.0,0.030134251,0.71693665,0.62506676,0.0,0.13867247,0.42738312,0.4244474,0.0,-0.08449071,0.02710677,899.34064,521.79486,731.7216,812.3077,925.9341,-0.17413330078125,0.0699462890625,0.96771240234375,1.697235107421875,-4.42626953125,0.1495361328125,1.0,1.0,4.0,1.0,1.0,80.0,event
09:41:24.105,1.0899621,0.0,0.14666803,0.7512011,0.5837195,0.0,-0.73957604,0.34839803,0.73357433,0.0,0.030134251,0.71693665,0.62506676,0.0,0.13867247,0.42738312,0.4244474,0.0,-0.08449071,0.02710677,794.17584,723.2601,749.85345,796.99634,753.0769,-0.17413330078125,0.0699462890625,0.96771240234375,1.697235107421875,-4.42626953125,0.1495361328125,1.0,1.0,4.0,1.0,1.0,80.0,event
09:41:24.105,1.0899621,0.0,0.14666803,0.7512011,0.5837195,0.0,-0.73957604,0.34839803,0.73357433,0.0,0.030134251,0.71693665,0.62506676,0.0,0.13867247,0.42738312,0.4244474,0.0,-0.08449071,0.02710677,694.65204,227.25275,745.0183,793.7729,967.8388,-0.17413330078125,0.0699462890625,0.96771240234375,1.697235107421875,-4.42626953125,0.1495361328125,1.0,1.0,4.0,1.0,1.0,80.0,event
09:41:24.105,1.0899621,0.0,0.14666803,0.7512011,0.5837195,0.0,-0.73957604,0.34839803,0.73357433,0.0,0.030134251,0.71693665,0.62506676,0.0,0.13867247,0.42738312,0.4244474,0.0,-0.08449071,0.02710677,648.71796,670.4762,760.7326,784.5055,722.4542,-0.17413330078125,0.0699462890625,0.96771240234375,1.697235107421875,-4.42626953125,0.1495361328125,1.0,1.0,4.0,1.0,1.0,80.0,event
09:41:24.141,1.0899621,0.0,0.14666803,0.7512011,0.5837195,0.0,-0.73957604,0.34839803,0.73357433,0.0,0.030134251,0.71693665,0.62506676,0.0,0.13867247,0.42738312,0.4244474,0.0,-0.08449071,0.02710677,963.00366,386.41025,754.68866,813.91943,928.7546,-0.16802978515625,0.076416015625,0.98382568359375,1.3458251953125,-6.56463623046875,0.201873779296875,1.0,1.0,4.0,1.0,1.0,80.0,event
09:41:24.142,1.0899621,0.0,0.14666803,0.7512011,0.5837195,0.0,-0.73957604,0.34839803,0.73357433,0.0,0.030134251,0.71693665,0.62506676,0.0,0.13867247,0.42738312,0.4244474,0.0,-0.08449071,0.02710677,919.0842,477.47253,768.7912,798.20514,879.59705,-0.16802978515625,0.076416015625,0.98382568359375,1.3458251953125,-6.56463623046875,0.201873779296875,1.0,1.0,4.0,1.0,1.0,80.0,event
09:41:24.143,1.0899621,0.0,0.14666803,0.7512011,0.5837195,0.0,-0.73957604,0.34839803,0.73357433,0.0,0.030134251,0.71693665,0.62506676,0.0,0.13867247,0.42738312,0.4244474,0.0,-0.08449071,0.02710677,723.2601,950.9158,750.2564,759.5238,676.9231,-0.16802978515625,0.076416015625,0.98382568359375,1.3458251953125,-6.56463623046875,0.201873779296875,1.0,1.0,4.0,1.0,1.0,80.0,event
09:41:24.143,1.0899621,0.0,0.14666803,0.7512011,0.5837195,0.0,-0.73957604,0.34839803,0.73357433,0.0,0.030134251,0.71693665,0.62506676,0.0,0.13867247,0.42738312,0.4244474,0.0,-0.08449071,0.02710677,621.7216,793.36993,743.00366,759.92676,747.8388,-0.16802978515625,0.076416015625,0.98382568359375,1.3458251953125,-6.56463623046875,0.201873779296875,1.0,1.0,4.0,1.0,1.0,80.0,event
09:41:24.144,1.0899621,0.0,0.14666803,0.7512011,0.5837195,0.0,-0.73957604,0.34839803,0.73357433,0.0,0.030134251,0.71693665,0.62506676,0.0,0.13867247,0.42738312,0.4244474,0.0,-0.08449071,0.02710677,720.0366,715.6044,752.27106,771.2088,803.0403,-0.16802978515625,0.076416015625,0.98382568359375,1.3458251953125,-6.56463623046875,0.201873779296875,1.0,1.0,4.0,1.0,1.0,80.0,event
09:41:24.145,1.0899621,0.0,0.14666803,0.7512011,0.5837195,0.0,-0.73957604,0.34839803,0.73357433,0.0,0.030134251,0.71693665,0.62506676,0.0,0.13867247,0.42738312,0.4244474,0.0,-0.08449071,0.02710677,921.50183,765.9707,754.68866,779.2674,855.0183,-0.16802978515625,0.076416015625,0.98382568359375,1.3458251953125,-6.56463623046875,0.201873779296875,1.0,1.0,4.0,1.0,1.0,80.0,event
09:41:24.145,1.0899621,0.0,0.14666803,0.7512011,0.5837195,0.0,-0.73957604,0.34839803,0.73357433,0.0,0.030134251,0.71693665,0.62506676,0.0,0.13867247,0.42738312,0.4244474,0.0,-0.08449071,0.02710677,896.52014,785.7143,756.30035,774.43225,944.87177,-0.16802978515625,0.076416015625,0.98382568359375,1.3458251953125,-6.56463623046875,0.201873779296875,1.0,1.0,4.0,1.0,1.0,80.0,event
09:41:24.146,1.0899621,0.0,0.18023378,0.7727694,0.5837195,0.0,-0.7477787,0.35160604,0.73357433,0.0,0.035601698,0.71693665,0.62506676,0.0,0.14690071,0.42061487,0.4244474,0.0,-0.07101893,0.018737094,684.9817,619.707,737.3626,737.76556,879.19415,-0.16802978515625,0.076416015625,0.98382568359375,1.3458251953125,-6.56463623046875,0.201873779296875,1.0,1.0,4.0,1.0,1.0,80.0,event
09:41:24.151,1.0899621,0.0,0.18023378,0.7727694,0.5837195,0.0,-0.7477787,0.35160604,0.73357433,0.0,0.035601698,0.71693665,0.62506676,0.0,0.14690071,0.42061487,0.4244474,0.0,-0.07101893,0.018737094,589.0842,105.16483,755.89746,718.022,959.3773,-0.16802978515625,0.076416015625,0.98382568359375,1.3458251953125,-6.56463623046875,0.201873779296875,1.0,1.0,4.0,1.0,1.0,80.0,event
09:41:24.152,1.0899621,0.0,0.18023378,0.7727694,0.5837195,0.0,-0.7477787,0.35160604,0.73357433,0.0,0.035601698,0.71693665,0.62506676,0.0,0.14690071,0.42061487,0.4244474,0.0,-0.07101893,0.018737094,862.674,1114.5055,760.7326,753.0769,721.6484,-0.16802978515625,0.076416015625,0.98382568359375,1.3458251953125,-6.56463623046875,0.201873779296875,1.0,1.0,4.0,1.0,1.0,80.0,event
09:41:24.152,1.0899621,0.0,0.18023378,0.7727694,0.5837195,0.0,-0.7477787,0.35160604,0.73357433,0.0,0.035601698,0.71693665,0.62506676,0.0,0.14690071,0.42061487,0.4244474,0.0,-0.07101893,0.018737094,707.1429,451.68497,792.5641,742.6007,862.27106,-0.16802978515625,0.076416015625,0.98382568359375,1.3458251953125,-6.56463623046875,0.201873779296875,1.0,1.0,4.0,1.0,1.0,80.0,event
09:41:24.153,1.0899621,0.0,0.18023378,0.7727694,0.5837195,0.0,-0.7477787,0.35160604,0.73357433,0.0,0.035601698,0.71693665,0.62506676,0.0,0.14690071,0.42061487,0.4244474,0.0,-0.07101893,0.018737094,861.4652,940.0366,751.06226,742.1978,825.6044,-0.16802978515625,0.076416015625,0.98382568359375,1.3458251953125,-6.56463623046875,0.201873779296875,1.0,1.0,4.0,1.0,1.0,80.0,event
09:41:24.179,1.0899621,0.0,0.18023378,0.7727694,0.5837195,0.0,-0.7477787,0.35160604,0.73357433,0.0,0.035601698,0.71693665,0.62506676,0.0,0.14690071,0.42061487,0.4244474,0.0,-0.07101893,0.018737094,697.8755,819.15753,756.30035,714.7985,809.4872,-0.15924072265625,0.06927490234375,0.96038818359375,0.127105712890625,-7.514190673828125,0.755157470703125,1.0,1.0,4.0,1.0,1.0,80.0,event
09:41:24.180,1.0899621,0.0,0.18023378,0.7727694,0.5837195,0.0,-0.7477787,0.35160604,0.73357433,0.0,0.035601698,0.71693665,0.62506676,0.0,0.14690071,0.42061487,0.4244474,0.0,-0.07101893,0.018737094,581.4286,776.04395,746.2271,696.6667,763.5531,-0.15924072265625,0.06927490234375,0.96038818359375,0.127105712890625,-7.514190673828125,0.755157470703125,1.0,1.0,4.0,1.0,1.0,80.0,event
09:41:24.180,1.0899621,0.0,0.18023378,0.7727694,0.5837195,0.0,-0.7477787,0.35160604,0.73357433,0.0,0.035601698,0.71693665,0.62506676,0.0,0.14690071,0.42061487,0.4244474,0.0,-0.07101893,0.018737094,646.30035,740.989,751.8681,697.8755,727.28937,-0.15924072265625,0.06927490234375,0.96038818359375,0.127105712890625,-7.514190673828125,0.755157470703125,1.0,1.0,4.0,1.0,1.0,80.0,event
09:41:24.181,1.0899621,0.0,0.18023378,0.7727694,0.5837195,0.0,-0.7477787,0.35160604,0.73357433,0.0,0.035601698,0.71693665,0.62506676,0.0,0.14690071,0.42061487,0.4244474,0.0,-0.07101893,0.018737094,800.6227,635.42126,757.9121,700.696,817.5458,-0.15924072265625,0.06927490234375,0.96038818359375,0.127105712890625,-7.514190673828125,0.755157470703125,1.0,1.0,4.0,1.0,1.0,80.0,event
09:41:24.182,1.0899621,0.0,0.18023378,0.7727694,0.5837195,0.0,-0.7477787,0.35160604,0.73357433,0.0,0.035601698,0.71693665,0.62506676,0.0,0.14690071,0.42061487,0.4244474,0.0,-0.07101893,0.018737094,853.8095,615.6777,758.71796,695.05493,863.47986,-0.15924072265625,0.06927490234375,0.96038818359375,0.127105712890625,-7.514190673828125,0.755157470703125,1.0,1.0,4.0,1.0,1.0,80.0,event
09:41:24.182,1.0899621,0.0,0.18023378,0.7727694,0.5837195,0.0,-0.7477787,0.35160604,0.73357433,0.0,0.035601698,0.71693665,0.62506676,0.0,0.14690071,0.42061487,0.4244474,0.0,-0.07101893,0.018737094,680.9524,666.04395,747.8388,681.3553,745.42126,-0.15924072265625,0.06927490234375,0.96038818359375,0.127105712890625,-7.514190673828125,0.755157470703125,1.0,1.0,4.0,1.0,1.0,80.0,event
09:41:24.183,1.0899621,0.0,0.18023378,0.7727694,0.5837195,0.0,-0.7477787,0.35160604,0.73357433,0.0,0.035601698,0.71693665,0.62506676,0.0,0.14690071,0.42061487,0.4244474,0.0,-0.07101893,0.018737094,537.9121,554.43225,756.30035,674.10254,772.01465,-0.15924072265625,0.06927490234375,0.96038818359375,0.127105712890625,-7.514190673828125,0.755157470703125,1.0,1.0,4.0,1.0,1.0,80.0,event
09:41:24.183,1.0899621,0.0,0.18023378,0.7727694,0.5837195,0.0,-0.7477787,0.35160604,0.73357433,0.0,0.035601698,0.71693665,0.62506676,0.0,0.14690071,0.42061487,0.4244474,0.0,-0.07101893,0.018737094,599.9634,277.21613,755.4945,686.1905,925.9341,-0.15924072265625,0.06927490234375,0.96038818359375,0.127105712890625,-7.514190673828125,0.755157470703125,1.0,1.0,4.0,1.0,1.0,80.0,event
09:41:24.184,1.0899621,0.0,0.18023378,0.7727694,0.5837195,0.0,-0.7477787,0.35160604,0.73357433,0.0,0.035601698,0.71693665,0.62506676,0.0,0.14690071,0.42061487,0.4244474,0.0,-0.07101893,0.018737094,774.43225,253.44322,766.3736,708.3516,956.55676,-0.15924072265625,0.06927490234375,0.96038818359375,0.127105712890625,-7.514190673828125,0.755157470703125,1.0,1.0,4.0,1.0,1.0,80.0,event
09:41:24.185,1.0899621,0.0,0.18023378,0.7727694,0.5837195,0.0,-0.7477787,0.35160604,0.73357433,0.0,0.035601698,0.71693665,0.62506676,0.0,0.14690071,0.42061487,0.4244474,0.0,-0.07101893,0.018737094,868.315,983.1502,771.2088,709.15753,741.39197,-0.15924072265625,0.06927490234375,0.96038818359375,0.127105712890625,-7.514190673828125,0.755157470703125,1.0,1.0,4.0,1.0,1.0,80.0,event
09:41:24.186,1.0899621,0.0,0.18023378,0.7727694,0.5837195,0.0,-0.7477787,0.35160604,0.73357433,0.0,0.035601698,0.71693665,0.62506676,0.0,0.14690071,0.42061487,0.4244474,0.0,-0.07101893,0.018737094,565.7143,699.4872,749.45056,698.2784,769.19415,-0.15924072265625,0.06927490234375,0.96038818359375,0.127105712890625,-7.514190673828125,0.755157470703125,1.0,1.0,4.0,1.0,1.0,80.0,event
09:41:24.186,1.0899621,0.0,0.18023378,0.7727694,0.5837195,0.0,-0.7477787,0.35160604,0.73357433,0.0,0.035601698,0.71693665,0.62506676,0.0,0.14690071,0.42061487,0.4244474,0.0,-0.07101893,0.018737094,728.0952,1018.60803,745.82416,700.696,744.61536,-0.15924072265625,0.06927490234375,0.96038818359375,0.127105712890625,-7.514190673828125,0.755157470703125,1.0,1.0,4.0,1.0,1.0,80.0,event
09:41:24.238,1.0899621,0.0,0.18023378,0.7727694,0.5837195,0.0,-0.7477787,0.35160604,0.73357433,0.0,0.035601698,0.71693665,0.62506676,0.0,0.14690071,0.42061487,0.4244474,0.0,-0.07101893,0.018737094,606.8132,820.7692,766.77655,708.7546,715.2015,-0.15924072265625,0.06927490234375,0.96038818359375,0.127105712890625,-7.514190673828125,0.755157470703125,1.0,1.0,4.0,1.0,1.0,80.0,event
09:41:24.239,1.0899621,0.0,0.18023378,0.7727694,0.5837195,0.0,-0.7477787,0.35160604,0.73357433,0.0,0.035601698,0.71693665,0.62506676,0.0,0.14690071,0.42061487,0.4244474,0.0,-0.07101893,0.018737094,792.96704,1048.022,765.56775,726.8865,695.8608,-0.15924072265625,0.06927490234375,0.96038818359375,0.127105712890625,-7.514190673828125,0.755157470703125,1.0,1.0,4.0,1.0,1.0,80.0,event
09:41:24.240,1.0899621,0.0,0.18023378,0.7727694,0.5837195,0.0,-0.7477787,0.35160604,0.73357433,0.0,0.035601698,0.71693665,0.62506676,0.0,0.14690071,0.42061487,0.4244474,0.0,-0.07101893,0.018737094,900.54944,991.6117,754.2857,738.5714,776.4469,-0.15924072265625,0.06927490234375,0.96038818359375,0.127105712890625,-7.514190673828125,0.755157470703125,1.0,1.0,4.0,1.0,1.0,80.0,event
09:41:24.241,1.0899621,0.0,0.18023378,0.7727694,0.5837195,0.0,-0.7477787,0.35160604,0.73357433,0.0,0.035601698,0.71693665,0.62506676,0.0,0.14690071,0.42061487,0.4244474,0.0,-0.07101893,0.018737094,758.71796,816.337,747.4359,724.4689,850.989,-0.15924072265625,0.06927490234375,0.96038818359375,0.127105712890625,-7.514190673828125,0.755157470703125,1.0,1.0,4.0,1.0,1.0,80.0,event
09:41:24.241,1.0899621,0.0,0.18023378,0.7727694,0.5837195,0.0,-0.7477787,0.35160604,0.73357433,0.0,0.035601698,0.71693665,0.62506676,0.0,0.14690071,0.42061487,0.4244474,0.0,-0.07101893,0.018737094,587.0696,709.15753,750.2564,712.381,761.13556,-0.15924072265625,0.06927490234375,0.96038818359375,0.127105712890625,-7.514190673828125,0.755157470703125,1.0,1.0,4.0,1.0,1.0,80.0,event
09:41:24.242,1.0899621,0.0,0.18023378,0.7727694,0.5837195,0.0,-0.7477787,0.35160604,0.73357433,0.0,0.035601698,0.71693665,0.62506676,0.0,0.14690071,0.42061487,0.4244474,0.0,-0.07101893,0.018737094,608.8278,625.34796,759.92676,730.9158,824.3956,-0.15924072265625,0.06927490234375,0.96038818359375,0.127105712890625,-7.514190673828125,0.755157470703125,1.0,1.0,4.0,1.0,1.0,80.0,event
09:41:24.243,1.0899621,0.0,0.18023378,0.7727694,0.5837195,0.0,-0.7477787,0.35160604,0.73357433,0.0,0.035601698,0.71693665,0.62506676,0.0,0.14690071,0.42061487,0.4244474,0.0,-0.07101893,0.018737094,792.1612,599.5604,746.63007,757.1062,887.25275,-0.15924072265625,0.06927490234375,0.96038818359375,0.127105712890625,-7.514190673828125,0.755157470703125,1.0,1.0,4.0,1.0,1.0,80.0,event
09:41:24.244,1.0899621,0.0,0.18023378,0.7727694,0.5837195,0.0,-0.7477787,0.35160604,0.73357433,0.0,0.035601698,0.71693665,0.62506676,0.0,0.14690071,0.42061487,0.4244474,0.0,-0.07101893,0.018737094,919.0842,131.75824,736.55676,768.7912,1115.7142,-0.15924072265625,0.06927490234375,0.96038818359375,0.127105712890625,-7.514190673828125,0.755157470703125,1.0,1.0,4.0,1.0,1.0,80.0,event
09:41:24.244,1.0899621,0.0,0.18023378,0.7727694,0.5837195,0.0,-0.7477787,0.35160604,0.73357433,0.0,0.035601698,0.71693665,0.62506676,0.0,0.14690071,0.42061487,0.4244474,0.0,-0.07101893,0.018737094,818.3516,278.4249,763.1502,769.19415,1090.7325,-0.15924072265625,0.06927490234375,0.96038818359375,0.127105712890625,-7.514190673828125,0.755157470703125,1.0,1.0,4.0,1.0,1.0,80.0,event
09:41:24.245,1.0899621,0.0,0.22031644,0.78305906,0.5837195,0.0,-0.7542533,0.3229148,0.73357433,0.0,0.055586386,0.71693665,0.62506676,0.0,0.1595284,0.3990922,0.4244474,0.0,-0.05642799,0.012200631,653.5531,911.8315,759.12085,762.3443,743.4066,-0.15924072265625,0.06927490234375,0.96038818359375,0.127105712890625,-7.514190673828125,0.755157470703125,1.0,1.0,4.0,1.0,1.0,80.0,event
09:41:24.250,1.0899621,0.0,0.22031644,0.78305906,0.5837195,0.0,-0.7542533,0.3229148,0.73357433,0.0,0.055586386,0.71693665,0.62506676,0.0,0.1595284,0.3990922,0.4244474,0.0,-0.05642799,0.012200631,652.74725,776.4469,758.71796,768.7912,772.01465,-0.15924072265625,0.06927490234375,0.96038818359375,0.127105712890625,-7.514190673828125,0.755157470703125,1.0,1.0,4.0,1.0,1.0,80.0,event
09:41:24.251,1.0899621,0.0,0.22031644,0.78305906,0.5837195,0.0,-0.7542533,0.3229148,0.73357433,0.0,0.055586386,0.71693665,0.62506676,0.0,0.1595284,0.3990922,0.4244474,0.0,-0.05642799,0.012200631,831.2454,801.4286,763.95605,794.9817,833.663,-0.15924072265625,0.06927490234375,0.96038818359375,0.127105712890625,-7.514190673828125,0.755157470703125,1.0,1.0,4.0,1.0,1.0,80.0,event
09:41:24.301,1.0899621,0.0,0.22031644,0.78305906,0.5837195,0.0,-0.7542533,0.3229148,0.73357433,0.0,0.055586386,0.71693665,0.62506676,0.0,0.1595284,0.3990922,0.4244474,0.0,-0.05642799,0.012200631,976.7033,1085.0916,756.30035,819.5604,744.61536,-0.16070556640625,0.06378173828125,0.97027587890625,1.009368896484375,-2.714080810546875,0.4486083984375,1.0,1.0,4.0,1.0,1.0,80.0,event
09:41:24.302,1.0899621,0.0,0.22031644,0.78305906,0.5837195,0.0,-0.7542533,0.3229148,0.73357433,0.0,0.055586386,0.71693665,0.62506676,0.0,0.1595284,0.3990922,0.4244474,0.0,-0.05642799,0.012200631,898.93774,1050.8425,748.6447,821.1722,703.91943,-0.16070556640625,0.06378173828125,0.97027587890625,1.009368896484375,-2.714080810546875,0.4486083984375,1.0,1.0,4.0,1.0,1.0,80.0,event
09:41:24.303,1.0899621,0.0,0.22031644,0.78305906,0.5837195,0.0,-0.7542533,0.3229148,0.73357433,0.0,0.055586386,0.71693665,0.62506676,0.0,0.1595284,0.3990922,0.4244474,0.0,-0.05642799,0.012200631,718.4249,736.9597,752.27106,803.8461,792.5641,-0.16070556640625,0.06378173828125,0.97027587890625,1.009368896484375,-2.714080810546875,0.4486083984375,1.0,1.0,4.0,1.0,1.0,80.0,event
09:41:24.303,1.0899621,0.0,0.22031644,0.78305906,0.5837195,0.0,-0.7542533,0.3229148,0.73357433,0.0,0.055586386,0.71693665,0.62506676,0.0,0.1595284,0.3990922,0.4244474,0.0,-0.05642799,0.012200631,695.4579,686.5934,762.74725,796.1905,745.42126,-0.16070556640625,0.06378173828125,0.97027587890625,1.009368896484375,-2.714080810546875,0.4486083984375,1.0,1.0,4.0,1.0,1.0,80.0,event
09:41:24.303,1.0899621,0.0,0.22031644,0.78305906,0.5837195,0.0,-0.7542533,0.3229148,0.73357433,0.0,0.055586386,0.71693665,0.62506676,0.0,0.1595284,0.3990922,0.4244474,0.0,-0.05642799,0.012200631,825.6044,897.72894,753.0769,818.3516,716.0073,-0.16070556640625,0.06378173828125,0.97027587890625,1.009368896484375,-2.714080810546875,0.4486083984375,1.0,1.0,4.0,1.0,1.0,80.0,event
09:41:24.304,1.0899621,0.0,0.22031644,0.78305906,0.5837195,0.0,-0.7542533,0.3229148,0.73357433,0.0,0.055586386,0.71693665,0.62506676,0.0,0.1595284,0.3990922,0.4244474,0.0,-0.05642799,0.012200631,983.5531,882.4176,749.45056,841.31866,843.73627,-0.16070556640625,0.06378173828125,0.97027587890625,1.009368896484375,-2.714080810546875,0.4486083984375,1.0,1.0,4.0,1.0,1.0,80.0,event
09:41:24.304,1.0899621,0.0,0.22031644,0.78305906,0.5837195,0.0,-0.7542533,0.3229148,0.73357433,0.0,0.055586386,0.71693665,0.62506676,0.0,0.1595284,0.3990922,0.4244474,0.0,-0.05642799,0.012200631,940.84247,429.5238,736.1539,842.1245,1087.1062,-0.16070556640625,0.06378173828125,0.97027587890625,1.009368896484375,-2.714080810546875,0.4486083984375,1.0,1.0,4.0,1.0,1.0,80.0,event
09:41:24.305,1.0899621,0.0,0.22031644,0.78305906,0.5837195,0.0,-0.7542533,0.3229148,0.73357433,0.0,0.055586386,0.71693665,0.62506676,0.0,0.1595284,0.3990922,0.4244474,0.0,-0.05642799,0.012200631,722.4542,497.21613,778.86444,847.3626,799.011,-0.16070556640625,0.06378173828125,0.97027587890625,1.009368896484375,-2.714080810546875,0.4486083984375,1.0,1.0,4.0,1.0,1.0,80.0,event
09:41:24.305,1.0899621,0.0,0.22031644,0.78305906,0.5837195,0.0,-0.7542533,0.3229148,0.73357433,0.0,0.055586386,0.71693665,0.62506676,0.0,0.1595284,0.3990922,0.4244474,0.0,-0.05642799,0.012200631,854.61536,896.1172,761.53845,862.674,682.96704,-0.16070556640625,0.06378173828125,0.97027587890625,1.009368896484375,-2.714080810546875,0.4486083984375,1.0,1.0,4.0,1.0,1.0,80.0,event
09:41:24.305,1.0899621,0.0,0.22031644,0.78305906,0.5837195,0.0,-0.7542533,0.3229148,0.73357433,0.0,0.055586386,0.71693665,0.62506676,0.0,0.1595284,0.3990922,0.4244474,0.0,-0.05642799,0.012200631,742.1978,38.68132,746.2271,835.2747,1126.9963,-0.16070556640625,0.06378173828125,0.97027587890625,1.009368896484375,-2.714080810546875,0.4486083984375,1.0,1.0,4.0,1.0,1.0,80.0,event
09:41:24.306,1.0899621,0.0,0.22031644,0.78305906,0.5837195,0.0,-0.7542533,0.3229148,0.73357433,0.0,0.055586386,0.71693665,0.62506676,0.0,0.1595284,0.3990922,0.4244474,0.0,-0.05642799,0.012200631,990.40295,822.7839,764.7619,873.5531,846.55676,-0.16070556640625,0.06378173828125,0.97027587890625,1.009368896484375,-2.714080810546875,0.4486083984375,1.0,1.0,4.0,1.0,1.0,80.0,event
09:41:24.306,1.0899621,0.0,0.22031644,0.78305906,0.5837195,0.0,-0.7542533,0.3229148,0.73357433,0.0,0.055586386,0.71693665,0.62506676,0.0,0.1595284,0.3990922,0.4244474,0.0,-0.05642799,0.012200631,1003.69965,729.707,761.13556,879.59705,816.7399,-0.16070556640625,0.06378173828125,0.97027587890625,1.009368896484375,-2.714080810546875,0.4486083984375,1.0,1.0,4.0,1.0,1.0,80.0,event
09:41:24.339,1.0899621,0.0,0.22031644,0.78305906,0.5837195,0.0,-0.7542533,0.3229148,0.73357433,0.0,0.055586386,0.71693665,0.62506676,0.0,0.1595284,0.3990922,0.4244474,0.0,-0.05642799,0.012200631,805.05493,987.5824,747.03296,851.79486,682.96704,-0.17364501953125,0.05938720703125,0.962890625,2.9010009765625,-0.994415283203125,0.291595458984375,1.0,1.0,4.0,1.0,1.0,80.0,event
09:41:24.340,1.0899621,0.0,0.22031644,0.78305906,0.5837195,0.0,-0.7542533,0.3229148,0.73357433,0.0,0.055586386,0.71693665,0.62506676,0.0,0.1595284,0.3990922,0.4244474,0.0,-0.05642799,0.012200631,710.3663,786.9231,744.61536,847.76556,644.2857,-0.17364501953125,0.05938720703125,0.962890625,2.9010009765625,-0.994415283203125,0.291595458984375,1.0,1.0,4.0,1.0,1.0,80.0,event
09:41:24.341,1.0899621,0.0,0.22031644,0.78305906,0.5837195,0.0,-0.7542533,0.3229148,0.73357433,0.0,0.055586386,0.71693665,0.62506676,0.0,0.1595284,0.3990922,0.4244474,0.0,-0.05642799,0.012200631,810.696,666.04395,752.674,857.03296,678.1319,-0.17364501953125,0.05938720703125,0.962890625,2.9010009765625,-0.994415283203125,0.291595458984375,1.0,1.0,4.0,1.0,1.0,80.0,event
09:41:24.342,1.0899621,0.0,0.22031644,0.78305906,0.5837195,0.0,-0.7542533,0.3229148,0.73357433,0.0,0.055586386,0.71693665,0.62506676,0.0,0.1595284,0.3990922,0.4244474,0.0,-0.05642799,0.012200631,992.4176,914.65204,762.74725,878.7912,693.8461,-0.17364501953125,0.05938720703125,0.962890625,2.9010009765625,-0.994415283203125,0.291595458984375,1.0,1.0,4.0,1.0,1.0,80.0,event
09:41:24.342,1.0899621,0.0,0.22031644,0.78305906,0.5837195,0.0,-0.7542533,0.3229148,0.73357433,0.0,0.055586386,0.71693665,0.62506676,0.0,0.1595284,0.3990922,0.4244474,0.0,-0.05642799,0.012200631,1005.31134,1054.0659,750.65936,883.22345,737.3626,-0.17364501953125,0.05938720703125,0.962890625,2.9010009765625,-0.994415283203125,0.291595458984375,1.0,1.0,4.0,1.0,1.0,80.0,event
