TimeStamp,Delta_TP9,Delta_AF7,Delta_AF8,Delta_TP10,Theta_TP9,Theta_AF7,Theta_AF8,Theta_TP10,Alpha_TP9,Alpha_AF7,Alpha_AF8,Alpha_TP10,Beta_TP9,Beta_AF7,Beta_AF8,Beta_TP10,Gamma_TP9,Gamma_AF7,Gamma_AF8,Gamma_TP10,RAW_TP9,RAW_AF7,RAW_AF8,RAW_TP10,AUX_RIGHT,Accelerometer_X,Accelerometer_Y,Accelerometer_Z,Gyro_X,Gyro_Y,Gyro_Z,HeadBandOn,HSI_TP9,HSI_AF7,HSI_AF8,HSI_TP10,Battery,Elements
10:23:48.383,0.5648609,0.54958683,1.1184577,0.8469732,0.79068863,-0.1726594,-0.19817771,0.8246779,0.80368865,0.07264927,0.018767258,0.5581356,0.8180879,-0.28133366,-0.2793696,0.6906693,0.6511638,-0.5738309,-0.6937067,0.12713239,771.2088,775.2381,780.4762,764.7619,759.5238,-0.3992919921875,0.100830078125,0.90106201171875,2.3626708984375,-7.82073974609375,2.355194091796875,1.0,2.0,1.0,1.0,2.0,100.0,event
10:23:48.385,0.5648609,0.54958683,1.1184577,0.8469732,0.79068863,-0.1726594,-0.19817771,0.8246779,0.80368865,0.07264927,0.018767258,0.5581356,0.8180879,-0.28133366,-0.2793696,0.6906693,0.6511638,-0.5738309,-0.6937067,0.12713239,753.0769,774.83514,780.4762,763.1502,692.23444,-0.3992919921875,0.100830078125,0.90106201171875,2.3626708984375,-7.82073974609375,2.355194091796875,1.0,2.0,1.0,1.0,2.0,100.0,event
10:23:48.386,0.5648609,0.54958683,1.1184577,0.8469732,0.79068863,-0.1726594,-0.19817771,0.8246779,0.80368865,0.07264927,0.018767258,0.5581356,0.8180879,-0.28133366,-0.2793696,0.6906693,0.6511638,-0.5738309,-0.6937067,0.12713239,722.4542,775.2381,783.69965,747.4359,705.12823,-0.3992919921875,0.100830078125,0.90106201171875,2.3626708984375,-7.82073974609375,2.355194091796875,1.0,2.0,1.0,1.0,2.0,100.0,event
10:23:48.386,0.5648609,0.54958683,1.1184577,0.8469732,0.79068863,-0.1726594,-0.19817771,0.8246779,0.80368865,0.07264927,0.018767258,0.5581356,0.8180879,-0.28133366,-0.2793696,0.6906693,0.6511638,-0.5738309,-0.6937067,0.12713239,703.5165,776.04395,783.2967,747.8388,720.4396,-0.3992919921875,0.100830078125,0.90106201171875,2.3626708984375,-7.82073974609375,2.355194091796875,1.0,2.0,1.0,1.0,2.0,100.0,event
10:23:48.387,0.5648609,0.54958683,1.1184577,0.8469732,0.79068863,-0.1726594,-0.19817771,0.8246779,0.80368865,0.07264927,0.018767258,0.5581356,0.8180879,-0.28133366,-0.2793696,0.6906693,0.6511638,-0.5738309,-0.6937067,0.12713239,727.28937,773.22345,778.46155,751.4652,718.022,-0.3992919921875,0.100830078125,0.90106201171875,2.3626708984375,-7.82073974609375,2.355194091796875,1.0,2.0,1.0,1.0,2.0,100.0,event
10:23:48.388,0.5648609,0.54958683,1.1184577,0.8469732,0.79068863,-0.1726594,-0.19817771,0.8246779,0.80368865,0.07264927,0.018767258,0.5581356,0.8180879,-0.28133366,-0.2793696,0.6906693,0.6511638,-0.5738309,-0.6937067,0.12713239,781.28204,773.22345,780.07324,747.03296,846.9597,-0.3992919921875,0.100830078125,0.90106201171875,2.3626708984375,-7.82073974609375,2.355194091796875,1.0,2.0,1.0,1.0,2.0,100.0,event
10:23:48.388,0.5648609,0.54958683,1.1184577,0.8469732,0.79068863,-0.1726594,-0.19817771,0.8246779,0.80368865,0.07264927,0.018767258,0.5581356,0.8180879,-0.28133366,-0.2793696,0.6906693,0.6511638,-0.5738309,-0.6937067,0.12713239,770.40295,772.8205,776.4469,754.68866,950.5128,-0.3992919921875,0.100830078125,0.90106201171875,2.3626708984375,-7.82073974609375,2.355194091796875,1.0,2.0,1.0,1.0,2.0,100.0,event
10:23:48.389,0.5648609,0.54958683,1.1184577,0.8469732,0.79068863,-0.1726594,-0.19817771,0.8246779,0.80368865,0.07264927,0.018767258,0.5581356,0.8180879,-0.28133366,-0.2793696,0.6906693,0.6511638,-0.5738309,-0.6937067,0.12713239,742.6007,768.7912,773.22345,761.13556,882.8205,-0.3992919921875,0.100830078125,0.90106201171875,2.3626708984375,-7.82073974609375,2.355194091796875,1.0,2.0,1.0,1.0,2.0,100.0,event
10:23:48.390,0.5648609,0.54958683,1.1184577,0.8469732,0.79068863,-0.1726594,-0.19817771,0.8246779,0.80368865,0.07264927,0.018767258,0.5581356,0.8180879,-0.28133366,-0.2793696,0.6906693,0.6511638,-0.5738309,-0.6937067,0.12713239,744.61536,770.40295,778.0586,765.56775,771.2088,-0.3992919921875,0.100830078125,0.90106201171875,2.3626708984375,-7.82073974609375,2.355194091796875,1.0,2.0,1.0,1.0,2.0,100.0,event
10:23:48.390,0.5648609,0.54958683,1.1184577,0.8469732,0.79068863,-0.1726594,-0.19817771,0.8246779,0.80368865,0.07264927,0.018767258,0.5581356,0.8180879,-0.28133366,-0.2793696,0.6906693,0.6511638,-0.5738309,-0.6937067,0.12713239,749.0476,772.01465,777.6557,770.80585,745.42126,-0.3992919921875,0.100830078125,0.90106201171875,2.3626708984375,-7.82073974609375,2.355194091796875,1.0,2.0,1.0,1.0,2.0,100.0,event
10:23:48.391,0.5648609,0.54958683,1.1184577,0.8469732,0.79068863,-0.1726594,-0.19817771,0.8246779,0.80368865,0.07264927,0.018767258,0.5581356,0.8180879,-0.28133366,-0.2793696,0.6906693,0.6511638,-0.5738309,-0.6937067,0.12713239,762.3443,773.6264,776.8498,780.07324,699.89014,-0.3992919921875,0.100830078125,0.90106201171875,2.3626708984375,-7.82073974609375,2.355194091796875,1.0,2.0,1.0,1.0,2.0,100.0,event
10:23:48.391,0.5648609,0.50882334,1.1042422,0.8469732,0.79068863,-0.1692333,-0.22567798,0.8246779,0.80368865,0.05044408,0.015102218,0.5581356,0.8180879,-0.25539953,-0.2822273,0.6906693,0.6511638,-0.60193056,-0.68879443,0.12713239,787.326,776.04395,778.46155,770.40295,845.34796,-0.3992919921875,0.100830078125,0.90106201171875,2.3626708984375,-7.82073974609375,2.355194091796875,1.0,2.0,1.0,1.0,2.0,100.0,event
10:23:48.420,0.5648609,0.50882334,1.1042422,0.8469732,0.79068863,-0.1692333,-0.22567798,0.8246779,0.80368865,0.05044408,0.015102218,0.5581356,0.8180879,-0.25539953,-0.2822273,0.6906693,0.6511638,-0.60193056,-0.68879443,0.12713239,740.989,777.6557,778.46155,765.16486,1131.8315,-0.37823486328125,0.09197998046875,0.88836669921875,2.130889892578125,-4.26177978515625,2.953338623046875,1.0,2.0,1.0,1.0,2.0,100.0,event
10:23:48.421,0.5648609,0.50882334,1.1042422,0.8469732,0.79068863,-0.1692333,-0.22567798,0.8246779,0.80368865,0.05044408,0.015102218,0.5581356,0.8180879,-0.25539953,-0.2822273,0.6906693,0.6511638,-0.60193056,-0.68879443,0.12713239,726.8865,780.07324,780.07324,767.1795,847.3626,-0.37823486328125,0.09197998046875,0.88836669921875,2.130889892578125,-4.26177978515625,2.953338623046875,1.0,2.0,1.0,1.0,2.0,100.0,event
10:23:48.422,0.5648609,0.50882334,1.1042422,0.8469732,0.79068863,-0.1692333,-0.22567798,0.8246779,0.80368865,0.05044408,0.015102218,0.5581356,0.8180879,-0.25539953,-0.2822273,0.6906693,0.6511638,-0.60193056,-0.68879443,0.12713239,751.06226,776.04395,777.6557,759.12085,697.8755,-0.37823486328125,0.09197998046875,0.88836669921875,2.130889892578125,-4.26177978515625,2.953338623046875,1.0,2.0,1.0,1.0,2.0,100.0,event
10:23:48.423,0.5648609,0.50882334,1.1042422,0.8469732,0.79068863,-0.1692333,-0.22567798,0.8246779,0.80368865,0.05044408,0.015102218,0.5581356,0.8180879,-0.25539953,-0.2822273,0.6906693,0.6511638,-0.60193056,-0.68879443,0.12713239,743.4066,774.43225,774.43225,751.8681,781.685,-0.37823486328125,0.09197998046875,0.88836669921875,2.130889892578125,-4.26177978515625,2.953338623046875,1.0,2.0,1.0,1.0,2.0,100.0,event
10:23:48.424,0.5648609,0.50882334,1.1042422,0.8469732,0.79068863,-0.1692333,-0.22567798,0.8246779,0.80368865,0.05044408,0.015102218,0.5581356,0.8180879,-0.25539953,-0.2822273,0.6906693,0.6511638,-0.60193056,-0.68879443,0.12713239,750.65936,774.0293,774.43225,745.82416,758.71796,-0.37823486328125,0.09197998046875,0.88836669921875,2.130889892578125,-4.26177978515625,2.953338623046875,1.0,2.0,1.0,1.0,2.0,100.0,event
10:23:48.425,0.5648609,0.50882334,1.1042422,0.8469732,0.79068863,-0.1692333,-0.22567798,0.8246779,0.80368865,0.05044408,0.015102218,0.5581356,0.8180879,-0.25539953,-0.2822273,0.6906693,0.6511638,-0.60193056,-0.68879443,0.12713239,760.32965,767.5824,774.83514,746.63007,744.61536,-0.37823486328125,0.09197998046875,0.88836669921875,2.130889892578125,-4.26177978515625,2.953338623046875,1.0,2.0,1.0,1.0,2.0,100.0,event
10:23:48.426,0.5648609,0.50882334,1.1042422,0.8469732,0.79068863,-0.1692333,-0.22567798,0.8246779,0.80368865,0.05044408,0.015102218,0.5581356,0.8180879,-0.25539953,-0.2822273,0.6906693,0.6511638,-0.60193056,-0.68879443,0.12713239,762.74725,768.3883,776.8498,751.06226,806.26373,-0.37823486328125,0.09197998046875,0.88836669921875,2.130889892578125,-4.26177978515625,2.953338623046875,1.0,2.0,1.0,1.0,2.0,100.0,event
10:23:48.426,0.5648609,0.50882334,1.1042422,0.8469732,0.79068863,-0.1692333,-0.22567798,0.8246779,0.80368865,0.05044408,0.015102218,0.5581356,0.8180879,-0.25539953,-0.2822273,0.6906693,0.6511638,-0.60193056,-0.68879443,0.12713239,748.6447,770.40295,778.46155,749.85345,1015.38464,-0.37823486328125,0.09197998046875,0.88836669921875,2.130889892578125,-4.26177978515625,2.953338623046875,1.0,2.0,1.0,1.0,2.0,100.0,event
10:23:48.427,0.5648609,0.50882334,1.1042422,0.8469732,0.79068863,-0.1692333,-0.22567798,0.8246779,0.80368865,0.05044408,0.015102218,0.5581356,0.8180879,-0.25539953,-0.2822273,0.6906693,0.6511638,-0.60193056,-0.68879443,0.12713239,734.5421,768.3883,778.86444,756.30035,938.4249,-0.37823486328125,0.09197998046875,0.88836669921875,2.130889892578125,-4.26177978515625,2.953338623046875,1.0,2.0,1.0,1.0,2.0,100.0,event
10:23:48.428,0.5648609,0.50882334,1.1042422,0.8469732,0.79068863,-0.1692333,-0.22567798,0.8246779,0.80368865,0.05044408,0.015102218,0.5581356,0.8180879,-0.25539953,-0.2822273,0.6906693,0.6511638,-0.60193056,-0.68879443,0.12713239,745.42126,762.74725,779.67035,752.27106,728.0952,-0.37823486328125,0.09197998046875,0.88836669921875,2.130889892578125,-4.26177978515625,2.953338623046875,1.0,2.0,1.0,1.0,2.0,100.0,event
10:23:48.428,0.5648609,0.50882334,1.1042422,0.8469732,0.79068863,-0.1692333,-0.22567798,0.8246779,0.80368865,0.05044408,0.015102218,0.5581356,0.8180879,-0.25539953,-0.2822273,0.6906693,0.6511638,-0.60193056,-0.68879443,0.12713239,759.92676,772.8205,783.69965,736.1539,733.3333,-0.37823486328125,0.09197998046875,0.88836669921875,2.130889892578125,-4.26177978515625,2.953338623046875,1.0,2.0,1.0,1.0,2.0,100.0,event
10:23:48.429,0.5648609,0.50882334,1.1042422,0.8469732,0.79068863,-0.1692333,-0.22567798,0.8246779,0.80368865,0.05044408,0.015102218,0.5581356,0.8180879,-0.25539953,-0.2822273,0.6906693,0.6511638,-0.60193056,-0.68879443,0.12713239,749.85345,781.28204,785.7143,734.94507,732.9304,-0.37823486328125,0.09197998046875,0.88836669921875,2.130889892578125,-4.26177978515625,2.953338623046875,1.0,2.0,1.0,1.0,2.0,100.0,event
10:23:48.476,0.5648609,0.50882334,1.1042422,0.8469732,0.79068863,-0.1692333,-0.22567798,0.8246779,0.80368865,0.05044408,0.015102218,0.5581356,0.8180879,-0.25539953,-0.2822273,0.6906693,0.6511638,-0.60193056,-0.68879443,0.12713239,759.92676,772.01465,783.2967,734.1392,660.40295,-0.37823486328125,0.09197998046875,0.88836669921875,2.130889892578125,-4.26177978515625,2.953338623046875,1.0,2.0,1.0,1.0,2.0,100.0,event
10:23:48.477,0.5648609,0.50882334,1.1042422,0.8469732,0.79068863,-0.1692333,-0.22567798,0.8246779,0.80368865,0.05044408,0.015102218,0.5581356,0.8180879,-0.25539953,-0.2822273,0.6906693,0.6511638,-0.60193056,-0.68879443,0.12713239,771.2088,773.6264,783.69965,738.5714,638.24176,-0.37823486328125,0.09197998046875,0.88836669921875,2.130889892578125,-4.26177978515625,2.953338623046875,1.0,2.0,1.0,1.0,2.0,100.0,event
10:23:48.478,0.5648609,0.50882334,1.1042422,0.8469732,0.79068863,-0.1692333,-0.22567798,0.8246779,0.80368865,0.05044408,0.015102218,0.5581356,0.8180879,-0.25539953,-0.2822273,0.6906693,0.6511638,-0.60193056,-0.68879443,0.12713239,760.7326,778.86444,783.69965,742.1978,809.4872,-0.37823486328125,0.09197998046875,0.88836669921875,2.130889892578125,-4.26177978515625,2.953338623046875,1.0,2.0,1.0,1.0,2.0,100.0,event
10:23:48.479,0.5648609,0.50882334,1.1042422,0.8469732,0.79068863,-0.1692333,-0.22567798,0.8246779,0.80368865,0.05044408,0.015102218,0.5581356,0.8180879,-0.25539953,-0.2822273,0.6906693,0.6511638,-0.60193056,-0.68879443,0.12713239,778.86444,776.8498,782.0879,739.7802,904.17584,-0.37823486328125,0.09197998046875,0.88836669921875,2.130889892578125,-4.26177978515625,2.953338623046875,1.0,2.0,1.0,1.0,2.0,100.0,event
10:23:48.480,0.5648609,0.50882334,1.1042422,0.8469732,0.79068863,-0.1692333,-0.22567798,0.8246779,0.80368865,0.05044408,0.015102218,0.5581356,0.8180879,-0.25539953,-0.2822273,0.6906693,0.6511638,-0.60193056,-0.68879443,0.12713239,754.2857,777.25275,783.2967,742.6007,796.99634,-0.37823486328125,0.09197998046875,0.88836669921875,2.130889892578125,-4.26177978515625,2.953338623046875,1.0,2.0,1.0,1.0,2.0,100.0,event
10:23:48.480,0.5648609,0.50882334,1.1042422,0.8469732,0.79068863,-0.1692333,-0.22567798,0.8246779,0.80368865,0.05044408,0.015102218,0.5581356,0.8180879,-0.25539953,-0.2822273,0.6906693,0.6511638,-0.60193056,-0.68879443,0.12713239,773.22345,778.86444,783.2967,744.61536,739.7802,-0.37823486328125,0.09197998046875,0.88836669921875,2.130889892578125,-4.26177978515625,2.953338623046875,1.0,2.0,1.0,1.0,2.0,100.0,event
10:23:48.481,0.5648609,0.50882334,1.1042422,0.8469732,0.79068863,-0.1692333,-0.22567798,0.8246779,0.80368865,0.05044408,0.015102218,0.5581356,0.8180879,-0.25539953,-0.2822273,0.6906693,0.6511638,-0.60193056,-0.68879443,0.12713239,761.9414,769.19415,782.0879,738.5714,983.5531,-0.37823486328125,0.09197998046875,0.88836669921875,2.130889892578125,-4.26177978515625,2.953338623046875,1.0,2.0,1.0,1.0,2.0,100.0,event
10:23:48.481,0.5648609,0.50882334,1.1042422,0.8469732,0.79068863,-0.1692333,-0.22567798,0.8246779,0.80368865,0.05044408,0.015102218,0.5581356,0.8180879,-0.25539953,-0.2822273,0.6906693,0.6511638,-0.60193056,-0.68879443,0.12713239,745.0183,771.6117,782.8938,745.0183,1137.8755,-0.37823486328125,0.09197998046875,0.88836669921875,2.130889892578125,-4.26177978515625,2.953338623046875,1.0,2.0,1.0,1.0,2.0,100.0,event
10:23:48.482,0.5648609,0.50882334,1.1042422,0.8469732,0.79068863,-0.1692333,-0.22567798,0.8246779,0.80368865,0.05044408,0.015102218,0.5581356,0.8180879,-0.25539953,-0.2822273,0.6906693,0.6511638,-0.60193056,-0.68879443,0.12713239,744.61536,778.0586,784.10254,736.55676,941.6484,-0.37823486328125,0.09197998046875,0.88836669921875,2.130889892578125,-4.26177978515625,2.953338623046875,1.0,2.0,1.0,1.0,2.0,100.0,event
10:23:48.483,0.5648609,0.50882334,1.1042422,0.8469732,0.79068863,-0.1692333,-0.22567798,0.8246779,0.80368865,0.05044408,0.015102218,0.5581356,0.8180879,-0.25539953,-0.2822273,0.6906693,0.6511638,-0.60193056,-0.68879443,0.12713239,745.0183,779.2674,784.90845,724.4689,721.2454,-0.37823486328125,0.09197998046875,0.88836669921875,2.130889892578125,-4.26177978515625,2.953338623046875,1.0,2.0,1.0,1.0,2.0,100.0,event
10:23:48.483,0.5648609,0.50882334,1.1042422,0.8469732,0.79068863,-0.1692333,-0.22567798,0.8246779,0.80368865,0.05044408,0.015102218,0.5581356,0.8180879,-0.25539953,-0.2822273,0.6906693,0.6511638,-0.60193056,-0.68879443,0.12713239,738.97437,777.25275,786.1172,744.61536,774.83514,-0.37823486328125,0.09197998046875,0.88836669921875,2.130889892578125,-4.26177978515625,2.953338623046875,1.0,2.0,1.0,1.0,2.0,100.0,event
10:23:48.484,0.5648609,0.50882334,1.1042422,0.8469732,0.79068863,-0.1692333,-0.22567798,0.8246779,0.80368865,0.05044408,0.015102218,0.5581356,0.8180879,-0.25539953,-0.2822273,0.6906693,0.6511638,-0.60193056,-0.68879443,0.12713239,748.24176,776.8498,784.10254,761.9414,750.65936,-0.37823486328125,0.09197998046875,0.88836669921875,2.130889892578125,-4.26177978515625,2.953338623046875,1.0,2.0,1.0,1.0,2.0,100.0,event
10:23:48.541,0.5648609,0.50882334,1.1042422,0.8469732,0.79068863,-0.1692333,-0.22567798,0.8246779,0.80368865,0.05044408,0.015102218,0.5581356,0.8180879,-0.25539953,-0.2822273,0.6906693,0.6511638,-0.60193056,-0.68879443,0.12713239,751.4652,776.8498,781.685,752.674,729.707,-0.4034423828125,0.1044921875,0.8995361328125,4.68048095703125,-4.882354736328125,6.3104248046875,1.0,2.0,1.0,1.0,2.0,100.0,event
10:23:48.542,0.5648609,0.46801266,1.0687728,0.8469732,0.79068863,-0.16690582,-0.26578015,0.8246779,0.80368865,0.03421543,0.011264413,0.5581356,0.8180879,-0.23155926,-0.2845989,0.6906693,0.6511638,-0.6265076,-0.683601,0.12713239,730.9158,778.0586,783.2967,737.3626,749.45056,-0.4034423828125,0.1044921875,0.8995361328125,4.68048095703125,-4.882354736328125,6.3104248046875,1.0,2.0,1.0,1.0,2.0,100.0,event
10:23:48.546,0.5648609,0.46801266,1.0687728,0.8469732,0.79068863,-0.16690582,-0.26578015,0.8246779,0.80368865,0.03421543,0.011264413,0.5581356,0.8180879,-0.23155926,-0.2845989,0.6906693,0.6511638,-0.6265076,-0.683601,0.12713239,729.304,778.46155,781.685,722.8571,779.2674,-0.4034423828125,0.1044921875,0.8995361328125,4.68048095703125,-4.882354736328125,6.3104248046875,1.0,2.0,1.0,1.0,2.0,100.0,event
10:23:48.546,0.5648609,0.46801266,1.0687728,0.8469732,0.79068863,-0.16690582,-0.26578015,0.8246779,0.80368865,0.03421543,0.011264413,0.5581356,0.8180879,-0.23155926,-0.2845989,0.6906693,0.6511638,-0.6265076,-0.683601,0.12713239,753.47986,776.8498,780.07324,729.304,778.0586,-0.4034423828125,0.1044921875,0.8995361328125,4.68048095703125,-4.882354736328125,6.3104248046875,1.0,2.0,1.0,1.0,2.0,100.0,event
10:23:48.547,0.5648609,0.46801266,1.0687728,0.8469732,0.79068863,-0.16690582,-0.26578015,0.8246779,0.80368865,0.03421543,0.011264413,0.5581356,0.8180879,-0.23155926,-0.2845989,0.6906693,0.6511638,-0.6265076,-0.683601,0.12713239,759.12085,773.22345,781.28204,747.03296,727.28937,-0.4034423828125,0.1044921875,0.8995361328125,4.68048095703125,-4.882354736328125,6.3104248046875,1.0,2.0,1.0,1.0,2.0,100.0,event
10:23:48.547,0.5648609,0.46801266,1.0687728,0.8469732,0.79068863,-0.16690582,-0.26578015,0.8246779,0.80368865,0.03421543,0.011264413,0.5581356,0.8180879,-0.23155926,-0.2845989,0.6906693,0.6511638,-0.6265076,-0.683601,0.12713239,755.09155,771.6117,778.86444,747.03296,783.69965,-0.4034423828125,0.1044921875,0.8995361328125,4.68048095703125,-4.882354736328125,6.3104248046875,1.0,2.0,1.0,1.0,2.0,100.0,event
10:23:48.548,0.5648609,0.46801266,1.0687728,0.8469732,0.79068863,-0.16690582,-0.26578015,0.8246779,0.80368865,0.03421543,0.011264413,0.5581356,0.8180879,-0.23155926,-0.2845989,0.6906693,0.6511638,-0.6265076,-0.683601,0.12713239,772.8205,774.83514,781.28204,749.85345,1020.6227,-0.4034423828125,0.1044921875,0.8995361328125,4.68048095703125,-4.882354736328125,6.3104248046875,1.0,2.0,1.0,1.0,2.0,100.0,event
10:23:48.548,0.5648609,0.46801266,1.0687728,0.8469732,0.79068863,-0.16690582,-0.26578015,0.8246779,0.80368865,0.03421543,0.011264413,0.5581356,0.8180879,-0.23155926,-0.2845989,0.6906693,0.6511638,-0.6265076,-0.683601,0.12713239,777.6557,782.49084,782.8938,751.06226,1013.7729,-0.4034423828125,0.1044921875,0.8995361328125,4.68048095703125,-4.882354736328125,6.3104248046875,1.0,2.0,1.0,1.0,2.0,100.0,event
10:23:48.549,0.5648609,0.46801266,1.0687728,0.8469732,0.79068863,-0.16690582,-0.26578015,0.8246779,0.80368865,0.03421543,0.011264413,0.5581356,0.8180879,-0.23155926,-0.2845989,0.6906693,0.6511638,-0.6265076,-0.683601,0.12713239,764.7619,784.10254,781.28204,740.58606,716.4103,-0.4034423828125,0.1044921875,0.8995361328125,4.68048095703125,-4.882354736328125,6.3104248046875,1.0,2.0,1.0,1.0,2.0,100.0,event
10:23:48.549,0.5648609,0.46801266,1.0687728,0.8469732,0.79068863,-0.16690582,-0.26578015,0.8246779,0.80368865,0.03421543,0.011264413,0.5581356,0.8180879,-0.23155926,-0.2845989,0.6906693,0.6511638,-0.6265076,-0.683601,0.12713239,761.9414,778.86444,778.46155,734.94507,713.1868,-0.4034423828125,0.1044921875,0.8995361328125,4.68048095703125,-4.882354736328125,6.3104248046875,1.0,2.0,1.0,1.0,2.0,100.0,event
10:23:48.550,0.5648609,0.46801266,1.0687728,0.8469732,0.79068863,-0.16690582,-0.26578015,0.8246779,0.80368865,0.03421543,0.011264413,0.5581356,0.8180879,-0.23155926,-0.2845989,0.6906693,0.6511638,-0.6265076,-0.683601,0.12713239,779.2674,781.28204,781.28204,747.03296,738.1685,-0.4034423828125,0.1044921875,0.8995361328125,4.68048095703125,-4.882354736328125,6.3104248046875,1.0,2.0,1.0,1.0,2.0,100.0,event
10:23:48.550,0.5648609,0.46801266,1.0687728,0.8469732,0.79068863,-0.16690582,-0.26578015,0.8246779,0.80368865,0.03421543,0.011264413,0.5581356,0.8180879,-0.23155926,-0.2845989,0.6906693,0.6511638,-0.6265076,-0.683601,0.12713239,777.6557,777.6557,776.4469,745.0183,875.16486,-0.4034423828125,0.1044921875,0.8995361328125,4.68048095703125,-4.882354736328125,6.3104248046875,1.0,2.0,1.0,1.0,2.0,100.0,event
10:23:48.595,0.5648609,0.46801266,1.0687728,0.8469732,0.79068863,-0.16690582,-0.26578015,0.8246779,0.80368865,0.03421543,0.011264413,0.5581356,0.8180879,-0.23155926,-0.2845989,0.6906693,0.6511638,-0.6265076,-0.683601,0.12713239,774.83514,783.69965,783.2967,744.61536,645.4945,-0.39178466796875,0.10693359375,0.90380859375,2.818756103515625,-3.768310546875,5.435638427734375,1.0,2.0,1.0,1.0,2.0,100.0,event
10:23:48.596,0.5648609,0.46801266,1.0687728,0.8469732,0.79068863,-0.16690582,-0.26578015,0.8246779,0.80368865,0.03421543,0.011264413,0.5581356,0.8180879,-0.23155926,-0.2845989,0.6906693,0.6511638,-0.6265076,-0.683601,0.12713239,752.674,781.28204,783.69965,748.24176,730.10986,-0.39178466796875,0.10693359375,0.90380859375,2.818756103515625,-3.768310546875,5.435638427734375,1.0,2.0,1.0,1.0,2.0,100.0,event
10:23:48.597,0.5648609,0.46801266,1.0687728,0.8469732,0.79068863,-0.16690582,-0.26578015,0.8246779,0.80368865,0.03421543,0.011264413,0.5581356,0.8180879,-0.23155926,-0.2845989,0.6906693,0.6511638,-0.6265076,-0.683601,0.12713239,743.00366,777.6557,786.1172,753.0769,757.9121,-0.39178466796875,0.10693359375,0.90380859375,2.818756103515625,-3.768310546875,5.435638427734375,1.0,2.0,1.0,1.0,2.0,100.0,event
10:23:48.598,0.5648609,0.46801266,1.0687728,0.8469732,0.79068863,-0.16690582,-0.26578015,0.8246779,0.80368865,0.03421543,0.011264413,0.5581356,0.8180879,-0.23155926,-0.2845989,0.6906693,0.6511638,-0.6265076,-0.683601,0.12713239,766.77655,782.0879,786.9231,767.1795,703.91943,-0.39178466796875,0.10693359375,0.90380859375,2.818756103515625,-3.768310546875,5.435638427734375,1.0,2.0,1.0,1.0,2.0,100.0,event
10:23:48.599,0.5648609,0.46801266,1.0687728,0.8469732,0.79068863,-0.16690582,-0.26578015,0.8246779,0.80368865,0.03421543,0.011264413,0.5581356,0.8180879,-0.23155926,-0.2845989,0.6906693,0.6511638,-0.6265076,-0.683601,0.12713239,790.54944,784.5055,784.5055,765.16486,720.0366,-0.39178466796875,0.10693359375,0.90380859375,2.818756103515625,-3.768310546875,5.435638427734375,1.0,2.0,1.0,1.0,2.0,100.0,event
10:23:48.599,0.5648609,0.46801266,1.0687728,0.8469732,0.79068863,-0.16690582,-0.26578015,0.8246779,0.80368865,0.03421543,0.011264413,0.5581356,0.8180879,-0.23155926,-0.2845989,0.6906693,0.6511638,-0.6265076,-0.683601,0.12713239,791.75824,781.28204,783.2967,760.32965,873.95605,-0.39178466796875,0.10693359375,0.90380859375,2.818756103515625,-3.768310546875,5.435638427734375,1.0,2.0,1.0,1.0,2.0,100.0,event
10:23:48.600,0.5648609,0.46801266,1.0687728,0.8469732,0.79068863,-0.16690582,-0.26578015,0.8246779,0.80368865,0.03421543,0.011264413,0.5581356,0.8180879,-0.23155926,-0.2845989,0.6906693,0.6511638,-0.6265076,-0.683601,0.12713239,776.4469,779.67035,784.90845,759.92676,1012.1612,-0.39178466796875,0.10693359375,0.90380859375,2.818756103515625,-3.768310546875,5.435638427734375,1.0,2.0,1.0,1.0,2.0,100.0,event
10:23:48.601,0.5648609,0.46801266,1.0687728,0.8469732,0.79068863,-0.16690582,-0.26578015,0.8246779,0.80368865,0.03421543,0.011264413,0.5581356,0.8180879,-0.23155926,-0.2845989,0.6906693,0.6511638,-0.6265076,-0.683601,0.12713239,748.24176,777.6557,786.1172,767.98535,875.56775,-0.39178466796875,0.10693359375,0.90380859375,2.818756103515625,-3.768310546875,5.435638427734375,1.0,2.0,1.0,1.0,2.0,100.0,event
10:23:48.602,0.5648609,0.46801266,1.0687728,0.8469732,0.79068863,-0.16690582,-0.26578015,0.8246779,0.80368865,0.03421543,0.011264413,0.5581356,0.8180879,-0.23155926,-0.2845989,0.6906693,0.6511638,-0.6265076,-0.683601,0.12713239,750.65936,778.0586,783.69965,762.74725,796.99634,-0.39178466796875,0.10693359375,0.90380859375,2.818756103515625,-3.768310546875,5.435638427734375,1.0,2.0,1.0,1.0,2.0,100.0,event
10:23:48.603,0.5648609,0.46801266,1.0687728,0.8469732,0.79068863,-0.16690582,-0.26578015,0.8246779,0.80368865,0.03421543,0.011264413,0.5581356,0.8180879,-0.23155926,-0.2845989,0.6906693,0.6511638,-0.6265076,-0.683601,0.12713239,774.0293,781.685,783.69965,755.89746,1000.4762,-0.39178466796875,0.10693359375,0.90380859375,2.818756103515625,-3.768310546875,5.435638427734375,1.0,2.0,1.0,1.0,2.0,100.0,event
10:23:48.605,0.5648609,0.46801266,1.0687728,0.8469732,0.79068863,-0.16690582,-0.26578015,0.8246779,0.80368865,0.03421543,0.011264413,0.5581356,0.8180879,-0.23155926,-0.2845989,0.6906693,0.6511638,-0.6265076,-0.683601,0.12713239,764.7619,780.87915,784.90845,762.74725,1073.4066,-0.39178466796875,0.10693359375,0.90380859375,2.818756103515625,-3.768310546875,5.435638427734375,1.0,2.0,1.0,1.0,2.0,100.0,event
10:23:48.606,0.5648609,0.46801266,1.0687728,0.8469732,0.79068863,-0.16690582,-0.26578015,0.8246779,0.80368865,0.03421543,0.011264413,0.5581356,0.8180879,-0.23155926,-0.2845989,0.6906693,0.6511638,-0.6265076,-0.683601,0.12713239,739.7802,778.86444,784.10254,762.3443,745.82416,-0.39178466796875,0.10693359375,0.90380859375,2.818756103515625,-3.768310546875,5.435638427734375,1.0,2.0,1.0,1.0,2.0,100.0,event
10:23:48.648,0.5648609,0.46801266,1.0687728,0.8469732,0.79068863,-0.16690582,-0.26578015,0.8246779,0.80368865,0.03421543,0.011264413,0.5581356,0.8180879,-0.23155926,-0.2845989,0.6906693,0.6511638,-0.6265076,-0.683601,0.12713239,733.3333,778.46155,784.90845,758.71796,623.3333,-0.40771484375,0.11151123046875,0.8956298828125,2.9010009765625,-6.422576904296875,5.2337646484375,1.0,2.0,1.0,1.0,2.0,100.0,event
10:23:48.649,0.5648609,0.46801266,1.0687728,0.8469732,0.79068863,-0.16690582,-0.26578015,0.8246779,0.80368865,0.03421543,0.011264413,0.5581356,0.8180879,-0.23155926,-0.2845989,0.6906693,0.6511638,-0.6265076,-0.683601,0.12713239,759.5238,778.46155,787.326,761.53845,757.9121,-0.40771484375,0.11151123046875,0.8956298828125,2.9010009765625,-6.422576904296875,5.2337646484375,1.0,2.0,1.0,1.0,2.0,100.0,event
10:23:48.649,0.5648609,0.44183782,1.0006044,0.8469732,0.79068863,-0.16543695,-0.2932288,0.8246779,0.80368865,0.03174936,-0.019821495,0.5581356,0.8180879,-0.20463808,-0.28593677,0.6906693,0.6511638,-0.64814824,-0.6829907,0.12713239,769.19415,783.69965,784.90845,752.674,756.30035,-0.40771484375,0.11151123046875,0.8956298828125,2.9010009765625,-6.422576904296875,5.2337646484375,1.0,2.0,1.0,1.0,2.0,100.0,event
10:23:48.649,0.5648609,0.46801266,1.0687728,0.8469732,0.79068863,-0.16690582,-0.26578015,0.8246779,0.80368865,0.03421543,0.011264413,0.5581356,0.8180879,-0.23155926,-0.2845989,0.6906693,0.6511638,-0.6265076,-0.683601,0.12713239,771.2088,780.07324,786.9231,757.1062,804.65204,-0.40771484375,0.11151123046875,0.8956298828125,2.9010009765625,-6.422576904296875,5.2337646484375,1.0,2.0,1.0,1.0,2.0,100.0,event
10:23:48.652,0.5648609,0.44183782,1.0006044,0.8469732,0.79068863,-0.16543695,-0.2932288,0.8246779,0.80368865,0.03174936,-0.019821495,0.5581356,0.8180879,-0.20463808,-0.28593677,0.6906693,0.6511638,-0.64814824,-0.6829907,0.12713239,747.03296,781.685,789.34064,761.9414,877.1795,-0.40771484375,0.11151123046875,0.8956298828125,2.9010009765625,-6.422576904296875,5.2337646484375,1.0,2.0,1.0,1.0,2.0,100.0,event
10:23:48.652,0.5648609,0.44183782,1.0006044,0.8469732,0.79068863,-0.16543695,-0.2932288,0.8246779,0.80368865,0.03174936,-0.019821495,0.5581356,0.8180879,-0.20463808,-0.28593677,0.6906693,0.6511638,-0.64814824,-0.6829907,0.12713239,767.5824,785.7143,785.7143,752.674,684.57874,-0.40771484375,0.11151123046875,0.8956298828125,2.9010009765625,-6.422576904296875,5.2337646484375,1.0,2.0,1.0,1.0,2.0,100.0,event
10:23:48.652,0.5648609,0.44183782,1.0006044,0.8469732,0.79068863,-0.16543695,-0.2932288,0.8246779,0.80368865,0.03174936,-0.019821495,0.5581356,0.8180879,-0.20463808,-0.28593677,0.6906693,0.6511638,-0.64814824,-0.6829907,0.12713239,753.8828,784.10254,789.7436,749.0476,803.0403,-0.40771484375,0.11151123046875,0.8956298828125,2.9010009765625,-6.422576904296875,5.2337646484375,1.0,2.0,1.0,1.0,2.0,100.0,event
10:23:48.653,0.5648609,0.44183782,1.0006044,0.8469732,0.79068863,-0.16543695,-0.2932288,0.8246779,0.80368865,0.03174936,-0.019821495,0.5581356,0.8180879,-0.20463808,-0.28593677,0.6906693,0.6511638,-0.64814824,-0.6829907,0.12713239,765.16486,782.0879,786.52014,758.71796,755.89746,-0.40771484375,0.11151123046875,0.8956298828125,2.9010009765625,-6.422576904296875,5.2337646484375,1.0,2.0,1.0,1.0,2.0,100.0,event
10:23:48.653,0.5648609,0.44183782,1.0006044,0.8469732,0.79068863,-0.16543695,-0.2932288,0.8246779,0.80368865,0.03174936,-0.019821495,0.5581356,0.8180879,-0.20463808,-0.28593677,0.6906693,0.6511638,-0.64814824,-0.6829907,0.12713239,790.14655,781.685,786.9231,751.8681,779.2674,-0.40771484375,0.11151123046875,0.8956298828125,2.9010009765625,-6.422576904296875,5.2337646484375,1.0,2.0,1.0,1.0,2.0,100.0,event
10:23:48.653,0.5648609,0.44183782,1.0006044,0.8469732,0.79068863,-0.16543695,-0.2932288,0.8246779,0.80368865,0.03174936,-0.019821495,0.5581356,0.8180879,-0.20463808,-0.28593677,0.6906693,0.6511638,-0.64814824,-0.6829907,0.12713239,777.25275,783.2967,786.9231,755.89746,977.9121,-0.40771484375,0.11151123046875,0.8956298828125,2.9010009765625,-6.422576904296875,5.2337646484375,1.0,2.0,1.0,1.0,2.0,100.0,event
10:23:48.654,0.5648609,0.44183782,1.0006044,0.8469732,0.79068863,-0.16543695,-0.2932288,0.8246779,0.80368865,0.03174936,-0.019821495,0.5581356,0.8180879,-0.20463808,-0.28593677,0.6906693,0.6511638,-0.64814824,-0.6829907,0.12713239,765.16486,784.5055,787.72894,759.12085,850.18317,-0.40771484375,0.11151123046875,0.8956298828125,2.9010009765625,-6.422576904296875,5.2337646484375,1.0,2.0,1.0,1.0,2.0,100.0,event
10:23:48.654,0.5648609,0.44183782,1.0006044,0.8469732,0.79068863,-0.16543695,-0.2932288,0.8246779,0.80368865,0.03174936,-0.019821495,0.5581356,0.8180879,-0.20463808,-0.28593677,0.6906693,0.6511638,-0.64814824,-0.6829907,0.12713239,767.1795,782.0879,785.31134,757.50916,672.8938,-0.40771484375,0.11151123046875,0.8956298828125,2.9010009765625,-6.422576904296875,5.2337646484375,1.0,2.0,1.0,1.0,2.0,100.0,event
10:23:48.695,0.5648609,0.44183782,1.0006044,0.8469732,0.79068863,-0.16543695,-0.2932288,0.8246779,0.80368865,0.03174936,-0.019821495,0.5581356,0.8180879,-0.20463808,-0.28593677,0.6906693,0.6511638,-0.64814824,-0.6829907,0.12713239,759.12085,779.2674,783.69965,749.45056,773.6264,-0.390869140625,0.12298583984375,0.903564453125,4.66552734375,-4.044952392578125,5.241241455078125,1.0,2.0,1.0,1.0,2.0,100.0,event
10:23:48.696,0.5648609,0.44183782,1.0006044,0.8469732,0.79068863,-0.16543695,-0.2932288,0.8246779,0.80368865,0.03174936,-0.019821495,0.5581356,0.8180879,-0.20463808,-0.28593677,0.6906693,0.6511638,-0.64814824,-0.6829907,0.12713239,780.07324,778.46155,786.1172,744.61536,951.7216,-0.390869140625,0.12298583984375,0.903564453125,4.66552734375,-4.044952392578125,5.241241455078125,1.0,2.0,1.0,1.0,2.0,100.0,event
10:23:48.697,0.5648609,0.44183782,1.0006044,0.8469732,0.79068863,-0.16543695,-0.2932288,0.8246779,0.80368865,0.03174936,-0.019821495,0.5581356,0.8180879,-0.20463808,-0.28593677,0.6906693,0.6511638,-0.64814824,-0.6829907,0.12713239,786.9231,782.8938,791.3553,746.63007,811.9048,-0.390869140625,0.12298583984375,0.903564453125,4.66552734375,-4.044952392578125,5.241241455078125,1.0,2.0,1.0,1.0,2.0,100.0,event
10:23:48.698,0.5648609,0.44183782,1.0006044,0.8469732,0.79068863,-0.16543695,-0.2932288,0.8246779,0.80368865,0.03174936,-0.019821495,0.5581356,0.8180879,-0.20463808,-0.28593677,0.6906693,0.6511638,-0.64814824,-0.6829907,0.12713239,775.2381,781.685,791.75824,749.85345,677.326,-0.390869140625,0.12298583984375,0.903564453125,4.66552734375,-4.044952392578125,5.241241455078125,1.0,2.0,1.0,1.0,2.0,100.0,event
10:23:48.698,0.5648609,0.44183782,1.0006044,0.8469732,0.79068863,-0.16543695,-0.2932288,0.8246779,0.80368865,0.03174936,-0.019821495,0.5581356,0.8180879,-0.20463808,-0.28593677,0.6906693,0.6511638,-0.64814824,-0.6829907,0.12713239,789.34064,781.685,787.326,753.8828,753.0769,-0.390869140625,0.12298583984375,0.903564453125,4.66552734375,-4.044952392578125,5.241241455078125,1.0,2.0,1.0,1.0,2.0,100.0,event
10:23:48.699,0.5648609,0.44183782,1.0006044,0.8469732,0.79068863,-0.16543695,-0.2932288,0.8246779,0.80368865,0.03174936,-0.019821495,0.5581356,0.8180879,-0.20463808,-0.28593677,0.6906693,0.6511638,-0.64814824,-0.6829907,0.12713239,789.7436,788.1319,785.7143,751.4652,844.94507,-0.390869140625,0.12298583984375,0.903564453125,4.66552734375,-4.044952392578125,5.241241455078125,1.0,2.0,1.0,1.0,2.0,100.0,event
10:23:48.699,0.5648609,0.44183782,1.0006044,0.8469732,0.79068863,-0.16543695,-0.2932288,0.8246779,0.80368865,0.03174936,-0.019821495,0.5581356,0.8180879,-0.20463808,-0.28593677,0.6906693,0.6511638,-0.64814824,-0.6829907,0.12713239,758.315,789.34064,786.52014,753.0769,839.707,-0.390869140625,0.12298583984375,0.903564453125,4.66552734375,-4.044952392578125,5.241241455078125,1.0,2.0,1.0,1.0,2.0,100.0,event
10:23:48.700,0.5648609,0.44183782,1.0006044,0.8469732,0.79068863,-0.16543695,-0.2932288,0.8246779,0.80368865,0.03174936,-0.019821495,0.5581356,0.8180879,-0.20463808,-0.28593677,0.6906693,0.6511638,-0.64814824,-0.6829907,0.12713239,770.40295,781.685,787.326,753.0769,734.5421,-0.390869140625,0.12298583984375,0.903564453125,4.66552734375,-4.044952392578125,5.241241455078125,1.0,2.0,1.0,1.0,2.0,100.0,event
10:23:48.700,0.5648609,0.44183782,1.0006044,0.8469732,0.79068863,-0.16543695,-0.2932288,0.8246779,0.80368865,0.03174936,-0.019821495,0.5581356,0.8180879,-0.20463808,-0.28593677,0.6906693,0.6511638,-0.64814824,-0.6829907,0.12713239,744.21246,785.7143,786.9231,757.9121,710.7692,-0.390869140625,0.12298583984375,0.903564453125,4.66552734375,-4.044952392578125,5.241241455078125,1.0,2.0,1.0,1.0,2.0,100.0,event
10:23:48.701,0.5648609,0.44183782,1.0006044,0.8469732,0.79068863,-0.16543695,-0.2932288,0.8246779,0.80368865,0.03174936,-0.019821495,0.5581356,0.8180879,-0.20463808,-0.28593677,0.6906693,0.6511638,-0.64814824,-0.6829907,0.12713239,764.35895,782.49084,781.28204,742.1978,850.58606,-0.390869140625,0.12298583984375,0.903564453125,4.66552734375,-4.044952392578125,5.241241455078125,1.0,2.0,1.0,1.0,2.0,100.0,event
10:23:48.701,0.5648609,0.44183782,1.0006044,0.8469732,0.79068863,-0.16543695,-0.2932288,0.8246779,0.80368865,0.03174936,-0.019821495,0.5581356,0.8180879,-0.20463808,-0.28593677,0.6906693,0.6511638,-0.64814824,-0.6829907,0.12713239,771.2088,781.28204,782.8938,748.24176,960.18317,-0.390869140625,0.12298583984375,0.903564453125,4.66552734375,-4.044952392578125,5.241241455078125,1.0,2.0,1.0,1.0,2.0,100.0,event
10:23:48.702,0.5648609,0.44183782,1.0006044,0.8469732,0.79068863,-0.16543695,-0.2932288,0.8246779,0.80368865,0.03174936,-0.019821495,0.5581356,0.8180879,-0.20463808,-0.28593677,0.6906693,0.6511638,-0.64814824,-0.6829907,0.12713239,747.4359,780.4762,784.90845,746.2271,697.0696,-0.390869140625,0.12298583984375,0.903564453125,4.66552734375,-4.044952392578125,5.241241455078125,1.0,2.0,1.0,1.0,2.0,100.0,event
10:23:48.726,0.5648609,0.44183782,1.0006044,0.8469732,0.79068863,-0.16543695,-0.2932288,0.8246779,0.80368865,0.03174936,-0.019821495,0.5581356,0.8180879,-0.20463808,-0.28593677,0.6906693,0.6511638,-0.64814824,-0.6829907,0.12713239,740.989,776.8498,782.8938,744.21246,740.58606,-0.390869140625,0.12298583984375,0.903564453125,4.66552734375,-4.044952392578125,5.241241455078125,1.0,2.0,1.0,1.0,2.0,100.0,event
10:23:48.727,0.5648609,0.44183782,1.0006044,0.8469732,0.79068863,-0.16543695,-0.2932288,0.8246779,0.80368865,0.03174936,-0.019821495,0.5581356,0.8180879,-0.20463808,-0.28593677,0.6906693,0.6511638,-0.64814824,-0.6829907,0.12713239,730.10986,774.43225,780.4762,734.5421,747.8388,-0.390869140625,0.12298583984375,0.903564453125,4.66552734375,-4.044952392578125,5.241241455078125,1.0,2.0,1.0,1.0,2.0,100.0,event
10:23:48.727,0.5648609,0.44183782,1.0006044,0.8469732,0.79068863,-0.16543695,-0.2932288,0.8246779,0.80368865,0.03174936,-0.019821495,0.5581356,0.8180879,-0.20463808,-0.28593677,0.6906693,0.6511638,-0.64814824,-0.6829907,0.12713239,749.0476,775.64105,779.67035,718.4249,695.05493,-0.390869140625,0.12298583984375,0.903564453125,4.66552734375,-4.044952392578125,5.241241455078125,1.0,2.0,1.0,1.0,2.0,100.0,event
10:23:48.728,0.5648609,0.44183782,1.0006044,0.8469732,0.79068863,-0.16543695,-0.2932288,0.8246779,0.80368865,0.03174936,-0.019821495,0.5581356,0.8180879,-0.20463808,-0.28593677,0.6906693,0.6511638,-0.64814824,-0.6829907,0.12713239,768.7912,774.83514,777.6557,722.4542,796.5934,-0.390869140625,0.12298583984375,0.903564453125,4.66552734375,-4.044952392578125,5.241241455078125,1.0,2.0,1.0,1.0,2.0,100.0,event
10:23:48.728,0.5648609,0.44183782,1.0006044,0.8469732,0.79068863,-0.16543695,-0.2932288,0.8246779,0.80368865,0.03174936,-0.019821495,0.5581356,0.8180879,-0.20463808,-0.28593677,0.6906693,0.6511638,-0.64814824,-0.6829907,0.12713239,748.24176,776.4469,777.6557,719.6337,914.2491,-0.390869140625,0.12298583984375,0.903564453125,4.66552734375,-4.044952392578125,5.241241455078125,1.0,2.0,1.0,1.0,2.0,100.0,event
10:23:48.729,0.5648609,0.41285414,0.88801533,0.8469732,0.79068863,-0.16182832,-0.29302827,0.8246779,0.80368865,0.03174936,-0.13156357,0.5581356,0.8180879,-0.17393248,-0.2845687,0.6906693,0.6511638,-0.67154866,-0.6905996,0.12713239,703.91943,775.64105,776.04395,703.5165,892.49084,-0.390869140625,0.12298583984375,0.903564453125,4.66552734375,-4.044952392578125,5.241241455078125,1.0,2.0,1.0,1.0,2.0,100.0,event
10:23:48.732,0.5648609,0.41285414,0.88801533,0.8469732,0.79068863,-0.16182832,-0.29302827,0.8246779,0.80368865,0.03174936,-0.13156357,0.5581356,0.8180879,-0.17393248,-0.2845687,0.6906693,0.6511638,-0.67154866,-0.6905996,0.12713239,664.0293,773.6264,774.83514,683.7729,854.61536,-0.390869140625,0.12298583984375,0.903564453125,4.66552734375,-4.044952392578125,5.241241455078125,1.0,2.0,1.0,1.0,2.0,100.0,event
10:23:48.733,0.5648609,0.41285414,0.88801533,0.8469732,0.79068863,-0.16182832,-0.29302827,0.8246779,0.80368865,0.03174936,-0.13156357,0.5581356,0.8180879,-0.17393248,-0.2845687,0.6906693,0.6511638,-0.67154866,-0.6905996,0.12713239,685.78754,778.46155,773.22345,660.40295,737.3626,-0.390869140625,0.12298583984375,0.903564453125,4.66552734375,-4.044952392578125,5.241241455078125,1.0,2.0,1.0,1.0,2.0,100.0,event
10:23:48.734,0.5648609,0.41285414,0.88801533,0.8469732,0.79068863,-0.16182832,-0.29302827,0.8246779,0.80368865,0.03174936,-0.13156357,0.5581356,0.8180879,-0.17393248,-0.2845687,0.6906693,0.6511638,-0.67154866,-0.6905996,0.12713239,697.8755,780.87915,773.22345,645.4945,896.52014,-0.390869140625,0.12298583984375,0.903564453125,4.66552734375,-4.044952392578125,5.241241455078125,1.0,2.0,1.0,1.0,2.0,100.0,event
10:23:48.734,0.5648609,0.41285414,0.88801533,0.8469732,0.79068863,-0.16182832,-0.29302827,0.8246779,0.80368865,0.03174936,-0.13156357,0.5581356,0.8180879,-0.17393248,-0.2845687,0.6906693,0.6511638,-0.67154866,-0.6905996,0.12713239,670.4762,777.25275,775.2381,632.6007,920.696,-0.390869140625,0.12298583984375,0.903564453125,4.66552734375,-4.044952392578125,5.241241455078125,1.0,2.0,1.0,1.0,2.0,100.0,event
10:23:48.735,0.5648609,0.41285414,0.88801533,0.8469732,0.79068863,-0.16182832,-0.29302827,0.8246779,0.80368865,0.03174936,-0.13156357,0.5581356,0.8180879,-0.17393248,-0.2845687,0.6906693,0.6511638,-0.67154866,-0.6905996,0.12713239,620.9158,771.6117,771.6117,611.6484,706.337,-0.390869140625,0.12298583984375,0.903564453125,4.66552734375,-4.044952392578125,5.241241455078125,1.0,2.0,1.0,1.0,2.0,100.0,event
10:23:48.736,0.5648609,0.41285414,0.88801533,0.8469732,0.79068863,-0.16182832,-0.29302827,0.8246779,0.80368865,0.03174936,-0.13156357,0.5581356,0.8180879,-0.17393248,-0.2845687,0.6906693,0.6511638,-0.67154866,-0.6905996,0.12713239,634.21246,774.83514,767.5824,591.50183,668.86444,-0.390869140625,0.12298583984375,0.903564453125,4.66552734375,-4.044952392578125,5.241241455078125,1.0,2.0,1.0,1.0,2.0,100.0,event
10:23:48.763,0.5648609,0.41285414,0.88801533,0.8469732,0.79068863,-0.16182832,-0.29302827,0.8246779,0.80368865,0.03174936,-0.13156357,0.5581356,0.8180879,-0.17393248,-0.2845687,0.6906693,0.6511638,-0.67154866,-0.6905996,0.12713239,627.3626,775.2381,766.3736,593.91943,784.90845,-0.3944091796875,0.131591796875,0.908935546875,4.433746337890625,-4.844970703125,3.970184326171875,1.0,2.0,1.0,1.0,2.0,100.0,event
10:23:48.764,0.5648609,0.41285414,0.88801533,0.8469732,0.79068863,-0.16182832,-0.29302827,0.8246779,0.80368865,0.03174936,-0.13156357,0.5581356,0.8180879,-0.17393248,-0.2845687,0.6906693,0.6511638,-0.67154866,-0.6905996,0.12713239,616.08057,775.64105,767.1795,583.8461,837.6923,-0.3944091796875,0.131591796875,0.908935546875,4.433746337890625,-4.844970703125,3.970184326171875,1.0,2.0,1.0,1.0,2.0,100.0,event
10:23:48.765,0.5648609,0.41285414,0.88801533,0.8469732,0.79068863,-0.16182832,-0.29302827,0.8246779,0.80368865,0.03174936,-0.13156357,0.5581356,0.8180879,-0.17393248,-0.2845687,0.6906693,0.6511638,-0.67154866,-0.6905996,0.12713239,611.6484,772.01465,767.98535,593.1135,767.1795,-0.3944091796875,0.131591796875,0.908935546875,4.433746337890625,-4.844970703125,3.970184326171875,1.0,2.0,1.0,1.0,2.0,100.0,event
10:23:48.765,0.5648609,0.41285414,0.88801533,0.8469732,0.79068863,-0.16182832,-0.29302827,0.8246779,0.80368865,0.03174936,-0.13156357,0.5581356,0.8180879,-0.17393248,-0.2845687,0.6906693,0.6511638,-0.67154866,-0.6905996,0.12713239,631.39197,776.04395,768.7912,581.4286,779.67035,-0.3944091796875,0.131591796875,0.908935546875,4.433746337890625,-4.844970703125,3.970184326171875,1.0,2.0,1.0,1.0,2.0,100.0,event
10:23:48.766,0.5648609,0.41285414,0.88801533,0.8469732,0.79068863,-0.16182832,-0.29302827,0.8246779,0.80368865,0.03174936,-0.13156357,0.5581356,0.8180879,-0.17393248,-0.2845687,0.6906693,0.6511638,-0.67154866,-0.6905996,0.12713239,604.7985,775.2381,770.0,587.8755,749.0476,-0.3944091796875,0.131591796875,0.908935546875,4.433746337890625,-4.844970703125,3.970184326171875,1.0,2.0,1.0,1.0,2.0,100.0,event
10:23:48.769,0.5648609,0.41285414,0.88801533,0.8469732,0.79068863,-0.16182832,-0.29302827,0.8246779,0.80368865,0.03174936,-0.13156357,0.5581356,0.8180879,-0.17393248,-0.2845687,0.6906693,0.6511638,-0.67154866,-0.6905996,0.12713239,607.619,774.83514,770.80585,590.293,843.3333,-0.3944091796875,0.131591796875,0.908935546875,4.433746337890625,-4.844970703125,3.970184326171875,1.0,2.0,1.0,1.0,2.0,100.0,event
10:23:48.770,0.5648609,0.41285414,0.88801533,0.8469732,0.79068863,-0.16182832,-0.29302827,0.8246779,0.80368865,0.03174936,-0.13156357,0.5581356,0.8180879,-0.17393248,-0.2845687,0.6906693,0.6511638,-0.67154866,-0.6905996,0.12713239,587.0696,771.6117,769.59705,608.022,911.8315,-0.3944091796875,0.131591796875,0.908935546875,4.433746337890625,-4.844970703125,3.970184326171875,1.0,2.0,1.0,1.0,2.0,100.0,event
10:23:48.772,0.5648609,0.41285414,0.88801533,0.8469732,0.79068863,-0.16182832,-0.29302827,0.8246779,0.80368865,0.03174936,-0.13156357,0.5581356,0.8180879,-0.17393248,-0.2845687,0.6906693,0.6511638,-0.67154866,-0.6905996,0.12713239,624.94507,778.86444,769.59705,612.8571,965.0183,-0.3944091796875,0.131591796875,0.908935546875,4.433746337890625,-4.844970703125,3.970184326171875,1.0,2.0,1.0,1.0,2.0,100.0,event
10:23:48.773,0.5648609,0.41285414,0.88801533,0.8469732,0.79068863,-0.16182832,-0.29302827,0.8246779,0.80368865,0.03174936,-0.13156357,0.5581356,0.8180879,-0.17393248,-0.2845687,0.6906693,0.6511638,-0.67154866,-0.6905996,0.12713239,650.32965,779.2674,770.80585,620.10986,1110.8792,-0.3944091796875,0.131591796875,0.908935546875,4.433746337890625,-4.844970703125,3.970184326171875,1.0,2.0,1.0,1.0,2.0,100.0,event
10:23:48.774,0.5648609,0.41285414,0.88801533,0.8469732,0.79068863,-0.16182832,-0.29302827,0.8246779,0.80368865,0.03174936,-0.13156357,0.5581356,0.8180879,-0.17393248,-0.2845687,0.6906693,0.6511638,-0.67154866,-0.6905996,0.12713239,631.39197,777.6557,769.19415,619.707,853.8095,-0.3944091796875,0.131591796875,0.908935546875,4.433746337890625,-4.844970703125,3.970184326171875,1.0,2.0,1.0,1.0,2.0,100.0,event
10:23:48.775,0.5648609,0.41285414,0.88801533,0.8469732,0.79068863,-0.16182832,-0.29302827,0.8246779,0.80368865,0.03174936,-0.13156357,0.5581356,0.8180879,-0.17393248,-0.2845687,0.6906693,0.6511638,-0.67154866,-0.6905996,0.12713239,639.45056,778.86444,768.7912,616.8865,674.10254,-0.3944091796875,0.131591796875,0.908935546875,4.433746337890625,-4.844970703125,3.970184326171875,1.0,2.0,1.0,1.0,2.0,100.0,event
10:23:48.775,0.5648609,0.41285414,0.88801533,0.8469732,0.79068863,-0.16182832,-0.29302827,0.8246779,0.80368865,0.03174936,-0.13156357,0.5581356,0.8180879,-0.17393248,-0.2845687,0.6906693,0.6511638,-0.67154866,-0.6905996,0.12713239,655.9707,774.43225,768.3883,626.55676,825.2015,-0.3944091796875,0.131591796875,0.908935546875,4.433746337890625,-4.844970703125,3.970184326171875,1.0,2.0,1.0,1.0,2.0,100.0,event
10:23:48.816,0.5648609,0.41285414,0.88801533,0.8469732,0.79068863,-0.16182832,-0.29302827,0.8246779,0.80368865,0.03174936,-0.13156357,0.5581356,0.8180879,-0.17393248,-0.2845687,0.6906693,0.6511638,-0.67154866,-0.6905996,0.12713239,650.32965,770.80585,766.3736,641.4652,803.44324,-0.380859375,0.13458251953125,0.91229248046875,2.818756103515625,-3.626251220703125,1.9439697265625,1.0,2.0,1.0,1.0,2.0,100.0,event
10:23:48.817,0.5648609,0.41285414,0.88801533,0.8469732,0.79068863,-0.16182832,-0.29302827,0.8246779,0.80368865,0.03174936,-0.13156357,0.5581356,0.8180879,-0.17393248,-0.2845687,0.6906693,0.6511638,-0.67154866,-0.6905996,0.12713239,667.25275,766.77655,761.9414,651.53845,747.03296,-0.380859375,0.13458251953125,0.91229248046875,2.818756103515625,-3.626251220703125,1.9439697265625,1.0,2.0,1.0,1.0,2.0,100.0,event
10:23:48.818,0.5648609,0.41285414,0.88801533,0.8469732,0.79068863,-0.16182832,-0.29302827,0.8246779,0.80368865,0.03174936,-0.13156357,0.5581356,0.8180879,-0.17393248,-0.2845687,0.6906693,0.6511638,-0.67154866,-0.6905996,0.12713239,665.64105,765.16486,761.53845,650.32965,784.90845,-0.380859375,0.13458251953125,0.91229248046875,2.818756103515625,-3.626251220703125,1.9439697265625,1.0,2.0,1.0,1.0,2.0,100.0,event
10:23:48.819,0.5648609,0.41285414,0.88801533,0.8469732,0.79068863,-0.16182832,-0.29302827,0.8246779,0.80368865,0.03174936,-0.13156357,0.5581356,0.8180879,-0.17393248,-0.2845687,0.6906693,0.6511638,-0.67154866,-0.6905996,0.12713239,675.7143,765.9707,764.35895,660.80585,840.10986,-0.380859375,0.13458251953125,0.91229248046875,2.818756103515625,-3.626251220703125,1.9439697265625,1.0,2.0,1.0,1.0,2.0,100.0,event
10:23:48.820,0.5648609,0.41285414,0.88801533,0.8469732,0.79068863,-0.16182832,-0.29302827,0.8246779,0.80368865,0.03174936,-0.13156357,0.5581356,0.8180879,-0.17393248,-0.2845687,0.6906693,0.6511638,-0.67154866,-0.6905996,0.12713239,689.41394,769.59705,767.1795,675.7143,796.1905,-0.380859375,0.13458251953125,0.91229248046875,2.818756103515625,-3.626251220703125,1.9439697265625,1.0,2.0,1.0,1.0,2.0,100.0,event
10:23:48.820,0.5648609,0.41285414,0.88801533,0.8469732,0.79068863,-0.16182832,-0.29302827,0.8246779,0.80368865,0.03174936,-0.13156357,0.5581356,0.8180879,-0.17393248,-0.2845687,0.6906693,0.6511638,-0.67154866,-0.6905996,0.12713239,691.8315,771.2088,769.59705,677.72894,797.8022,-0.380859375,0.13458251953125,0.91229248046875,2.818756103515625,-3.626251220703125,1.9439697265625,1.0,2.0,1.0,1.0,2.0,100.0,event
10:23:48.821,0.5648609,0.41285414,0.88801533,0.8469732,0.79068863,-0.16182832,-0.29302827,0.8246779,0.80368865,0.03174936,-0.13156357,0.5581356,0.8180879,-0.17393248,-0.2845687,0.6906693,0.6511638,-0.67154866,-0.6905996,0.12713239,711.5751,769.19415,772.4176,683.36993,823.1868,-0.380859375,0.13458251953125,0.91229248046875,2.818756103515625,-3.626251220703125,1.9439697265625,1.0,2.0,1.0,1.0,2.0,100.0,event
10:23:48.822,0.5648609,0.35589242,0.7119815,0.8469732,0.79068863,-0.1646125,-0.27457505,0.8246779,0.80368865,0.03174936,-0.26888025,0.5581356,0.8180879,-0.14523125,-0.28117454,0.6906693,0.6511638,-0.7023016,-0.7063693,0.12713239,686.99634,767.1795,774.43225,701.9048,928.7546,-0.380859375,0.13458251953125,0.91229248046875,2.818756103515625,-3.626251220703125,1.9439697265625,1.0,2.0,1.0,1.0,2.0,100.0,event
10:23:48.826,0.5648609,0.35589242,0.7119815,0.8469732,0.79068863,-0.1646125,-0.27457505,0.8246779,0.80368865,0.03174936,-0.26888025,0.5581356,0.8180879,-0.14523125,-0.28117454,0.6906693,0.6511638,-0.7023016,-0.7063693,0.12713239,703.1135,765.9707,772.01465,713.5897,895.7143,-0.380859375,0.13458251953125,0.91229248046875,2.818756103515625,-3.626251220703125,1.9439697265625,1.0,2.0,1.0,1.0,2.0,100.0,event
10:23:48.826,0.5648609,0.35589242,0.7119815,0.8469732,0.79068863,-0.1646125,-0.27457505,0.8246779,0.80368865,0.03174936,-0.26888025,0.5581356,0.8180879,-0.14523125,-0.28117454,0.6906693,0.6511638,-0.7023016,-0.7063693,0.12713239,746.63007,767.98535,771.2088,713.5897,788.5348,-0.380859375,0.13458251953125,0.91229248046875,2.818756103515625,-3.626251220703125,1.9439697265625,1.0,2.0,1.0,1.0,2.0,100.0,event
10:23:48.827,0.5648609,0.35589242,0.7119815,0.8469732,0.79068863,-0.1646125,-0.27457505,0.8246779,0.80368865,0.03174936,-0.26888025,0.5581356,0.8180879,-0.14523125,-0.28117454,0.6906693,0.6511638,-0.7023016,-0.7063693,0.12713239,763.5531,772.01465,771.6117,728.0952,878.3883,-0.380859375,0.13458251953125,0.91229248046875,2.818756103515625,-3.626251220703125,1.9439697265625,1.0,2.0,1.0,1.0,2.0,100.0,event
10:23:48.828,0.5648609,0.35589242,0.7119815,0.8469732,0.79068863,-0.1646125,-0.27457505,0.8246779,0.80368865,0.03174936,-0.26888025,0.5581356,0.8180879,-0.14523125,-0.28117454,0.6906693,0.6511638,-0.7023016,-0.7063693,0.12713239,756.7033,772.4176,775.2381,751.4652,858.24176,-0.380859375,0.13458251953125,0.91229248046875,2.818756103515625,-3.626251220703125,1.9439697265625,1.0,2.0,1.0,1.0,2.0,100.0,event
10:23:48.862,0.5648609,0.35589242,0.7119815,0.8469732,0.79068863,-0.1646125,-0.27457505,0.8246779,0.80368865,0.03174936,-0.26888025,0.5581356,0.8180879,-0.14523125,-0.28117454,0.6906693,0.6511638,-0.7023016,-0.7063693,0.12713239,748.24176,770.0,776.4469,747.4359,680.14655,-0.39154052734375,0.12286376953125,0.90753173828125,0.306549072265625,-5.72723388671875,0.70281982421875,1.0,2.0,1.0,1.0,2.0,100.0,event
10:23:48.863,0.5648609,0.35589242,0.7119815,0.8469732,0.79068863,-0.1646125,-0.27457505,0.8246779,0.80368865,0.03174936,-0.26888025,0.5581356,0.8180879,-0.14523125,-0.28117454,0.6906693,0.6511638,-0.7023016,-0.7063693,0.12713239,753.8828,770.0,774.83514,742.1978,674.10254,-0.39154052734375,0.12286376953125,0.90753173828125,0.306549072265625,-5.72723388671875,0.70281982421875,1.0,2.0,1.0,1.0,2.0,100.0,event
10:23:48.864,0.5648609,0.35589242,0.7119815,0.8469732,0.79068863,-0.1646125,-0.27457505,0.8246779,0.80368865,0.03174936,-0.26888025,0.5581356,0.8180879,-0.14523125,-0.28117454,0.6906693,0.6511638,-0.7023016,-0.7063693,0.12713239,772.4176,773.22345,775.2381,751.4652,757.9121,-0.39154052734375,0.12286376953125,0.90753173828125,0.306549072265625,-5.72723388671875,0.70281982421875,1.0,2.0,1.0,1.0,2.0,100.0,event
10:23:48.865,0.5648609,0.35589242,0.7119815,0.8469732,0.79068863,-0.1646125,-0.27457505,0.8246779,0.80368865,0.03174936,-0.26888025,0.5581356,0.8180879,-0.14523125,-0.28117454,0.6906693,0.6511638,-0.7023016,-0.7063693,0.12713239,812.3077,776.04395,776.04395,751.06226,782.8938,-0.39154052734375,0.12286376953125,0.90753173828125,0.306549072265625,-5.72723388671875,0.70281982421875,1.0,2.0,1.0,1.0,2.0,100.0,event
10:23:48.866,0.5648609,0.35589242,0.7119815,0.8469732,0.79068863,-0.1646125,-0.27457505,0.8246779,0.80368865,0.03174936,-0.26888025,0.5581356,0.8180879,-0.14523125,-0.28117454,0.6906693,0.6511638,-0.7023016,-0.7063693,0.12713239,805.8608,772.8205,778.0586,751.4652,788.1319,-0.39154052734375,0.12286376953125,0.90753173828125,0.306549072265625,-5.72723388671875,0.70281982421875,1.0,2.0,1.0,1.0,2.0,100.0,event
10:23:48.867,0.5648609,0.35589242,0.7119815,0.8469732,0.79068863,-0.1646125,-0.27457505,0.8246779,0.80368865,0.03174936,-0.26888025,0.5581356,0.8180879,-0.14523125,-0.28117454,0.6906693,0.6511638,-0.7023016,-0.7063693,0.12713239,784.5055,770.80585,776.8498,757.1062,835.6777,-0.39154052734375,0.12286376953125,0.90753173828125,0.306549072265625,-5.72723388671875,0.70281982421875,1.0,2.0,1.0,1.0,2.0,100.0,event
10:23:48.867,0.5648609,0.35589242,0.7119815,0.8469732,0.79068863,-0.1646125,-0.27457505,0.8246779,0.80368865,0.03174936,-0.26888025,0.5581356,0.8180879,-0.14523125,-0.28117454,0.6906693,0.6511638,-0.7023016,-0.7063693,0.12713239,801.02563,772.8205,774.0293,752.27106,925.5311,-0.39154052734375,0.12286376953125,0.90753173828125,0.306549072265625,-5.72723388671875,0.70281982421875,1.0,2.0,1.0,1.0,2.0,100.0,event
10:23:48.868,0.5648609,0.35589242,0.7119815,0.8469732,0.79068863,-0.1646125,-0.27457505,0.8246779,0.80368865,0.03174936,-0.26888025,0.5581356,0.8180879,-0.14523125,-0.28117454,0.6906693,0.6511638,-0.7023016,-0.7063693,0.12713239,773.22345,771.6117,772.4176,761.9414,1126.9963,-0.39154052734375,0.12286376953125,0.90753173828125,0.306549072265625,-5.72723388671875,0.70281982421875,1.0,2.0,1.0,1.0,2.0,100.0,event
10:23:48.868,0.5648609,0.35589242,0.7119815,0.8469732,0.79068863,-0.1646125,-0.27457505,0.8246779,0.80368865,0.03174936,-0.26888025,0.5581356,0.8180879,-0.14523125,-0.28117454,0.6906693,0.6511638,-0.7023016,-0.7063693,0.12713239,776.04395,771.2088,772.4176,769.59705,959.7802,-0.39154052734375,0.12286376953125,0.90753173828125,0.306549072265625,-5.72723388671875,0.70281982421875,1.0,2.0,1.0,1.0,2.0,100.0,event
10:23:48.869,0.5648609,0.35589242,0.7119815,0.8469732,0.79068863,-0.1646125,-0.27457505,0.8246779,0.80368865,0.03174936,-0.26888025,0.5581356,0.8180879,-0.14523125,-0.28117454,0.6906693,0.6511638,-0.7023016,-0.7063693,0.12713239,818.3516,770.80585,776.04395,770.0,740.18317,-0.39154052734375,0.12286376953125,0.90753173828125,0.306549072265625,-5.72723388671875,0.70281982421875,1.0,2.0,1.0,1.0,2.0,100.0,event
10:23:48.870,0.5648609,0.35589242,0.7119815,0.8469732,0.79068863,-0.1646125,-0.27457505,0.8246779,0.80368865,0.03174936,-0.26888025,0.5581356,0.8180879,-0.14523125,-0.28117454,0.6906693,0.6511638,-0.7023016,-0.7063693,0.12713239,801.02563,772.01465,778.46155,771.2088,767.5824,-0.39154052734375,0.12286376953125,0.90753173828125,0.306549072265625,-5.72723388671875,0.70281982421875,1.0,2.0,1.0,1.0,2.0,100.0,event
10:23:48.870,0.5648609,0.35589242,0.7119815,0.8469732,0.79068863,-0.1646125,-0.27457505,0.8246779,0.80368865,0.03174936,-0.26888025,0.5581356,0.8180879,-0.14523125,-0.28117454,0.6906693,0.6511638,-0.7023016,-0.7063693,0.12713239,750.65936,774.0293,778.46155,775.2381,737.3626,-0.39154052734375,0.12286376953125,0.90753173828125,0.306549072265625,-5.72723388671875,0.70281982421875,1.0,2.0,1.0,1.0,2.0,100.0,event
10:23:48.896,0.5648609,0.35589242,0.7119815,0.8469732,0.79068863,-0.1646125,-0.27457505,0.8246779,0.80368865,0.03174936,-0.26888025,0.5581356,0.8180879,-0.14523125,-0.28117454,0.6906693,0.6511638,-0.7023016,-0.7063693,0.12713239,793.36993,773.6264,780.07324,791.75824,762.3443,-0.4033203125,0.1158447265625,0.91998291015625,1.0467529296875,-2.848663330078125,-3.192596435546875,1.0,2.0,1.0,1.0,2.0,100.0,event
10:23:48.897,0.5648609,0.35589242,0.7119815,0.8469732,0.79068863,-0.1646125,-0.27457505,0.8246779,0.80368865,0.03174936,-0.26888025,0.5581356,0.8180879,-0.14523125,-0.28117454,0.6906693,0.6511638,-0.7023016,-0.7063693,0.12713239,822.7839,774.43225,779.67035,789.7436,869.5238,-0.4033203125,0.1158447265625,0.91998291015625,1.0467529296875,-2.848663330078125,-3.192596435546875,1.0,2.0,1.0,1.0,2.0,100.0,event
10:23:48.898,0.5648609,0.35589242,0.7119815,0.8469732,0.79068863,-0.1646125,-0.27457505,0.8246779,0.80368865,0.03174936,-0.26888025,0.5581356,0.8180879,-0.14523125,-0.28117454,0.6906693,0.6511638,-0.7023016,-0.7063693,0.12713239,804.2491,774.0293,778.46155,781.28204,920.293,-0.4033203125,0.1158447265625,0.91998291015625,1.0467529296875,-2.848663330078125,-3.192596435546875,1.0,2.0,1.0,1.0,2.0,100.0,event
10:23:48.898,0.5648609,0.35589242,0.7119815,0.8469732,0.79068863,-0.1646125,-0.27457505,0.8246779,0.80368865,0.03174936,-0.26888025,0.5581356,0.8180879,-0.14523125,-0.28117454,0.6906693,0.6511638,-0.7023016,-0.7063693,0.12713239,809.4872,775.64105,779.67035,782.0879,786.9231,-0.4033203125,0.1158447265625,0.91998291015625,1.0467529296875,-2.848663330078125,-3.192596435546875,1.0,2.0,1.0,1.0,2.0,100.0,event
10:23:48.899,0.5648609,0.35589242,0.7119815,0.8469732,0.79068863,-0.1646125,-0.27457505,0.8246779,0.80368865,0.03174936,-0.26888025,0.5581356,0.8180879,-0.14523125,-0.28117454,0.6906693,0.6511638,-0.7023016,-0.7063693,0.12713239,791.75824,774.43225,778.86444,790.54944,682.96704,-0.4033203125,0.1158447265625,0.91998291015625,1.0467529296875,-2.848663330078125,-3.192596435546875,1.0,2.0,1.0,1.0,2.0,100.0,event
10:23:48.900,0.5648609,0.35589242,0.7119815,0.8469732,0.79068863,-0.1646125,-0.27457505,0.8246779,0.80368865,0.03174936,-0.26888025,0.5581356,0.8180879,-0.14523125,-0.28117454,0.6906693,0.6511638,-0.7023016,-0.7063693,0.12713239,780.87915,771.2088,777.6557,787.72894,820.7692,-0.4033203125,0.1158447265625,0.91998291015625,1.0467529296875,-2.848663330078125,-3.192596435546875,1.0,2.0,1.0,1.0,2.0,100.0,event
10:23:48.900,0.5648609,0.35589242,0.7119815,0.8469732,0.79068863,-0.1646125,-0.27457505,0.8246779,0.80368865,0.03174936,-0.26888025,0.5581356,0.8180879,-0.14523125,-0.28117454,0.6906693,0.6511638,-0.7023016,-0.7063693,0.12713239,802.6374,768.7912,780.4762,783.2967,1089.5238,-0.4033203125,0.1158447265625,0.91998291015625,1.0467529296875,-2.848663330078125,-3.192596435546875,1.0,2.0,1.0,1.0,2.0,100.0,event
10:23:48.901,0.5648609,0.35589242,0.7119815,0.8469732,0.79068863,-0.1646125,-0.27457505,0.8246779,0.80368865,0.03174936,-0.26888025,0.5581356,0.8180879,-0.14523125,-0.28117454,0.6906693,0.6511638,-0.7023016,-0.7063693,0.12713239,814.3223,772.4176,780.07324,778.86444,1034.3224,-0.4033203125,0.1158447265625,0.91998291015625,1.0467529296875,-2.848663330078125,-3.192596435546875,1.0,2.0,1.0,1.0,2.0,100.0,event
10:23:48.902,0.5648609,0.35589242,0.7119815,0.8469732,0.79068863,-0.1646125,-0.27457505,0.8246779,0.80368865,0.03174936,-0.26888025,0.5581356,0.8180879,-0.14523125,-0.28117454,0.6906693,0.6511638,-0.7023016,-0.7063693,0.12713239,813.91943,773.6264,779.2674,774.0293,791.3553,-0.4033203125,0.1158447265625,0.91998291015625,1.0467529296875,-2.848663330078125,-3.192596435546875,1.0,2.0,1.0,1.0,2.0,100.0,event
10:23:48.902,0.5648609,0.2815926,0.46028942,0.8469732,0.79068863,-0.18228082,-0.24943401,0.8246779,0.80368865,0.03174936,-0.2981484,0.5581356,0.8180879,-0.12453735,-0.2796932,0.6906693,0.6511638,-0.73910475,-0.7260391,0.12713239,775.64105,770.80585,779.2674,780.87915,727.28937,-0.4033203125,0.1158447265625,0.91998291015625,1.0467529296875,-2.848663330078125,-3.192596435546875,1.0,2.0,1.0,1.0,2.0,100.0,event
10:23:48.905,,,,,,,,,,,,,,,,,,,,,,,,,,,,,,,,,,,,,,blink
10:23:48.907,0.5648609,0.2815926,0.46028942,0.8469732,0.79068863,-0.18228082,-0.24943401,0.8246779,0.80368865,0.03174936,-0.2981484,0.5581356,0.8180879,-0.12453735,-0.2796932,0.6906693,0.6511638,-0.73910475,-0.7260391,0.12713239,779.2674,774.43225,780.07324,774.83514,743.00366,-0.4033203125,0.1158447265625,0.91998291015625,1.0467529296875,-2.848663330078125,-3.192596435546875,1.0,2.0,1.0,1.0,2.0,100.0,event
10:23:48.907,0.5648609,0.2815926,0.46028942,0.8469732,0.79068863,-0.18228082,-0.24943401,0.8246779,0.80368865,0.03174936,-0.2981484,0.5581356,0.8180879,-0.12453735,-0.2796932,0.6906693,0.6511638,-0.73910475,-0.7260391,0.12713239,824.3956,778.0586,782.8938,774.43225,698.2784,-0.4033203125,0.1158447265625,0.91998291015625,1.0467529296875,-2.848663330078125,-3.192596435546875,1.0,2.0,1.0,1.0,2.0,100.0,event
10:23:48.931,0.5648609,0.2815926,0.46028942,0.8469732,0.79068863,-0.18228082,-0.24943401,0.8246779,0.80368865,0.03174936,-0.2981484,0.5581356,0.8180879,-0.12453735,-0.2796932,0.6906693,0.6511638,-0.73910475,-0.7260391,0.12713239,806.6667,776.4469,781.685,788.5348,707.5458,-0.4033203125,0.1158447265625,0.91998291015625,1.0467529296875,-2.848663330078125,-3.192596435546875,1.0,2.0,1.0,1.0,2.0,100.0,event
10:23:48.932,0.5648609,0.2815926,0.46028942,0.8469732,0.79068863,-0.18228082,-0.24943401,0.8246779,0.80368865,0.03174936,-0.2981484,0.5581356,0.8180879,-0.12453735,-0.2796932,0.6906693,0.6511638,-0.73910475,-0.7260391,0.12713239,797.3993,778.0586,781.685,780.07324,799.011,-0.4033203125,0.1158447265625,0.91998291015625,1.0467529296875,-2.848663330078125,-3.192596435546875,1.0,2.0,1.0,1.0,2.0,100.0,event
10:23:48.933,0.5648609,0.2815926,0.46028942,0.8469732,0.79068863,-0.18228082,-0.24943401,0.8246779,0.80368865,0.03174936,-0.2981484,0.5581356,0.8180879,-0.12453735,-0.2796932,0.6906693,0.6511638,-0.73910475,-0.7260391,0.12713239,813.91943,782.8938,782.49084,758.315,763.5531,-0.4033203125,0.1158447265625,0.91998291015625,1.0467529296875,-2.848663330078125,-3.192596435546875,1.0,2.0,1.0,1.0,2.0,100.0,event
10:23:48.934,0.5648609,0.2815926,0.46028942,0.8469732,0.79068863,-0.18228082,-0.24943401,0.8246779,0.80368865,0.03174936,-0.2981484,0.5581356,0.8180879,-0.12453735,-0.2796932,0.6906693,0.6511638,-0.73910475,-0.7260391,0.12713239,798.60803,781.28204,781.685,774.43225,749.45056,-0.4033203125,0.1158447265625,0.91998291015625,1.0467529296875,-2.848663330078125,-3.192596435546875,1.0,2.0,1.0,1.0,2.0,100.0,event
10:23:48.935,0.5648609,0.2815926,0.46028942,0.8469732,0.79068863,-0.18228082,-0.24943401,0.8246779,0.80368865,0.03174936,-0.2981484,0.5581356,0.8180879,-0.12453735,-0.2796932,0.6906693,0.6511638,-0.73910475,-0.7260391,0.12713239,798.20514,780.87915,783.2967,784.90845,848.1685,-0.4033203125,0.1158447265625,0.91998291015625,1.0467529296875,-2.848663330078125,-3.192596435546875,1.0,2.0,1.0,1.0,2.0,100.0,event
10:23:48.936,0.5648609,0.2815926,0.46028942,0.8469732,0.79068863,-0.18228082,-0.24943401,0.8246779,0.80368865,0.03174936,-0.2981484,0.5581356,0.8180879,-0.12453735,-0.2796932,0.6906693,0.6511638,-0.73910475,-0.7260391,0.12713239,814.3223,778.46155,782.49084,771.6117,962.6007,-0.4033203125,0.1158447265625,0.91998291015625,1.0467529296875,-2.848663330078125,-3.192596435546875,1.0,2.0,1.0,1.0,2.0,100.0,event
10:23:48.937,0.5648609,0.2815926,0.46028942,0.8469732,0.79068863,-0.18228082,-0.24943401,0.8246779,0.80368865,0.03174936,-0.2981484,0.5581356,0.8180879,-0.12453735,-0.2796932,0.6906693,0.6511638,-0.73910475,-0.7260391,0.12713239,798.20514,774.83514,780.87915,773.6264,1201.9414,-0.4033203125,0.1158447265625,0.91998291015625,1.0467529296875,-2.848663330078125,-3.192596435546875,1.0,2.0,1.0,1.0,2.0,100.0,event
10:23:48.937,0.5648609,0.2815926,0.46028942,0.8469732,0.79068863,-0.18228082,-0.24943401,0.8246779,0.80368865,0.03174936,-0.2981484,0.5581356,0.8180879,-0.12453735,-0.2796932,0.6906693,0.6511638,-0.73910475,-0.7260391,0.12713239,768.3883,777.6557,781.28204,757.50916,934.7985,-0.4033203125,0.1158447265625,0.91998291015625,1.0467529296875,-2.848663330078125,-3.192596435546875,1.0,2.0,1.0,1.0,2.0,100.0,event
10:23:48.938,0.5648609,0.2815926,0.46028942,0.8469732,0.79068863,-0.18228082,-0.24943401,0.8246779,0.80368865,0.03174936,-0.2981484,0.5581356,0.8180879,-0.12453735,-0.2796932,0.6906693,0.6511638,-0.73910475,-0.7260391,0.12713239,769.19415,777.6557,782.8938,756.30035,639.85345,-0.4033203125,0.1158447265625,0.91998291015625,1.0467529296875,-2.848663330078125,-3.192596435546875,1.0,2.0,1.0,1.0,2.0,100.0,event
10:23:48.939,0.5648609,0.2815926,0.46028942,0.8469732,0.79068863,-0.18228082,-0.24943401,0.8246779,0.80368865,0.03174936,-0.2981484,0.5581356,0.8180879,-0.12453735,-0.2796932,0.6906693,0.6511638,-0.73910475,-0.7260391,0.12713239,830.84247,776.8498,777.6557,763.95605,731.31866,-0.4033203125,0.1158447265625,0.91998291015625,1.0467529296875,-2.848663330078125,-3.192596435546875,1.0,2.0,1.0,1.0,2.0,100.0,event
10:23:48.940,0.5648609,0.2815926,0.46028942,0.8469732,0.79068863,-0.18228082,-0.24943401,0.8246779,0.80368865,0.03174936,-0.2981484,0.5581356,0.8180879,-0.12453735,-0.2796932,0.6906693,0.6511638,-0.73910475,-0.7260391,0.12713239,843.73627,780.07324,777.25275,756.30035,749.85345,-0.4033203125,0.1158447265625,0.91998291015625,1.0467529296875,-2.848663330078125,-3.192596435546875,1.0,2.0,1.0,1.0,2.0,100.0,event
10:23:48.941,0.5648609,0.2815926,0.46028942,0.8469732,0.79068863,-0.18228082,-0.24943401,0.8246779,0.80368865,0.03174936,-0.2981484,0.5581356,0.8180879,-0.12453735,-0.2796932,0.6906693,0.6511638,-0.73910475,-0.7260391,0.12713239,805.4579,777.6557,784.90845,772.4176,682.96704,-0.4033203125,0.1158447265625,0.91998291015625,1.0467529296875,-2.848663330078125,-3.192596435546875,1.0,2.0,1.0,1.0,2.0,100.0,event
10:23:48.998,0.5648609,0.2815926,0.46028942,0.8469732,0.79068863,-0.18228082,-0.24943401,0.8246779,0.80368865,0.03174936,-0.2981484,0.5581356,0.8180879,-0.12453735,-0.2796932,0.6906693,0.6511638,-0.73910475,-0.7260391,0.12713239,797.8022,780.87915,786.52014,775.2381,668.46155,-0.37030029296875,0.1217041015625,0.8994140625,3.72344970703125,-2.7215576171875,-3.78326416015625,1.0,2.0,1.0,1.0,2.0,100.0,event
10:23:48.999,0.5648609,0.2815926,0.46028942,0.8469732,0.79068863,-0.18228082,-0.24943401,0.8246779,0.80368865,0.03174936,-0.2981484,0.5581356,0.8180879,-0.12453735,-0.2796932,0.6906693,0.6511638,-0.73910475,-0.7260391,0.12713239,802.23444,781.685,786.52014,766.3736,770.0,-0.37030029296875,0.1217041015625,0.8994140625,3.72344970703125,-2.7215576171875,-3.78326416015625,1.0,2.0,1.0,1.0,2.0,100.0,event
10:23:49.000,0.5648609,0.2815926,0.46028942,0.8469732,0.79068863,-0.18228082,-0.24943401,0.8246779,0.80368865,0.03174936,-0.2981484,0.5581356,0.8180879,-0.12453735,-0.2796932,0.6906693,0.6511638,-0.73910475,-0.7260391,0.12713239,810.696,782.49084,788.1319,780.07324,755.09155,-0.37030029296875,0.1217041015625,0.8994140625,3.72344970703125,-2.7215576171875,-3.78326416015625,1.0,2.0,1.0,1.0,2.0,100.0,event
10:23:49.000,0.5648609,0.2815926,0.46028942,0.8469732,0.79068863,-0.18228082,-0.24943401,0.8246779,0.80368865,0.03174936,-0.2981484,0.5581356,0.8180879,-0.12453735,-0.2796932,0.6906693,0.6511638,-0.73910475,-0.7260391,0.12713239,811.50183,781.28204,782.8938,772.8205,734.94507,-0.37030029296875,0.1217041015625,0.8994140625,3.72344970703125,-2.7215576171875,-3.78326416015625,1.0,2.0,1.0,1.0,2.0,100.0,event
10:23:49.001,0.5648609,0.2815926,0.46028942,0.8469732,0.79068863,-0.18228082,-0.24943401,0.8246779,0.80368865,0.03174936,-0.2981484,0.5581356,0.8180879,-0.12453735,-0.2796932,0.6906693,0.6511638,-0.73910475,-0.7260391,0.12713239,786.1172,775.64105,779.67035,760.7326,773.6264,-0.37030029296875,0.1217041015625,0.8994140625,3.72344970703125,-2.7215576171875,-3.78326416015625,1.0,2.0,1.0,1.0,2.0,100.0,event
10:23:49.002,0.5648609,0.2815926,0.46028942,0.8469732,0.79068863,-0.18228082,-0.24943401,0.8246779,0.80368865,0.03174936,-0.2981484,0.5581356,0.8180879,-0.12453735,-0.2796932,0.6906693,0.6511638,-0.73910475,-0.7260391,0.12713239,790.14655,777.6557,784.10254,765.16486,867.1062,-0.37030029296875,0.1217041015625,0.8994140625,3.72344970703125,-2.7215576171875,-3.78326416015625,1.0,2.0,1.0,1.0,2.0,100.0,event
10:23:49.002,0.5648609,0.2815926,0.46028942,0.8469732,0.79068863,-0.18228082,-0.24943401,0.8246779,0.80368865,0.03174936,-0.2981484,0.5581356,0.8180879,-0.12453735,-0.2796932,0.6906693,0.6511638,-0.73910475,-0.7260391,0.12713239,799.011,780.07324,784.90845,768.3883,905.78754,-0.37030029296875,0.1217041015625,0.8994140625,3.72344970703125,-2.7215576171875,-3.78326416015625,1.0,2.0,1.0,1.0,2.0,100.0,event
10:23:49.003,0.5648609,0.2815926,0.46028942,0.8469732,0.79068863,-0.18228082,-0.24943401,0.8246779,0.80368865,0.03174936,-0.2981484,0.5581356,0.8180879,-0.12453735,-0.2796932,0.6906693,0.6511638,-0.73910475,-0.7260391,0.12713239,774.83514,777.6557,785.31134,774.43225,829.6337,-0.37030029296875,0.1217041015625,0.8994140625,3.72344970703125,-2.7215576171875,-3.78326416015625,1.0,2.0,1.0,1.0,2.0,100.0,event
10:23:49.004,0.5648609,0.2815926,0.46028942,0.8469732,0.79068863,-0.18228082,-0.24943401,0.8246779,0.80368865,0.03174936,-0.2981484,0.5581356,0.8180879,-0.12453735,-0.2796932,0.6906693,0.6511638,-0.73910475,-0.7260391,0.12713239,824.7985,780.87915,781.685,771.6117,988.7912,-0.37030029296875,0.1217041015625,0.8994140625,3.72344970703125,-2.7215576171875,-3.78326416015625,1.0,2.0,1.0,1.0,2.0,100.0,event
10:23:49.004,0.5648609,0.2815926,0.46028942,0.8469732,0.79068863,-0.18228082,-0.24943401,0.8246779,0.80368865,0.03174936,-0.2981484,0.5581356,0.8180879,-0.12453735,-0.2796932,0.6906693,0.6511638,-0.73910475,-0.7260391,0.12713239,803.8461,781.685,785.31134,772.8205,774.0293,-0.37030029296875,0.1217041015625,0.8994140625,3.72344970703125,-2.7215576171875,-3.78326416015625,1.0,2.0,1.0,1.0,2.0,100.0,event
10:23:49.005,0.5648609,0.2815926,0.46028942,0.8469732,0.79068863,-0.18228082,-0.24943401,0.8246779,0.80368865,0.03174936,-0.2981484,0.5581356,0.8180879,-0.12453735,-0.2796932,0.6906693,0.6511638,-0.73910475,-0.7260391,0.12713239,792.96704,780.87915,785.7143,778.0586,933.1868,-0.37030029296875,0.1217041015625,0.8994140625,3.72344970703125,-2.7215576171875,-3.78326416015625,1.0,2.0,1.0,1.0,2.0,100.0,event
10:23:49.006,0.5648609,0.23135385,0.4629565,0.8469732,0.79068863,-0.21999665,-0.23030078,0.8246779,0.80368865,0.029134186,-0.29431617,0.5581356,0.8180879,-0.113088384,-0.28847066,0.6906693,0.6511638,-0.7720113,-0.7338327,0.12713239,782.8938,782.49084,788.93774,758.71796,678.1319,-0.37030029296875,0.1217041015625,0.8994140625,3.72344970703125,-2.7215576171875,-3.78326416015625,1.0,2.0,1.0,1.0,2.0,100.0,event
10:23:49.031,0.5648609,0.23135385,0.4629565,0.8469732,0.79068863,-0.21999665,-0.23030078,0.8246779,0.80368865,0.029134186,-0.29431617,0.5581356,0.8180879,-0.113088384,-0.28847066,0.6906693,0.6511638,-0.7720113,-0.7338327,0.12713239,785.31134,776.4469,785.7143,757.50916,740.58606,-0.38580322265625,0.123291015625,0.90765380859375,0.545806884765625,-0.186920166015625,-1.487884521484375,1.0,2.0,1.0,1.0,2.0,100.0,event
10:23:49.032,0.5648609,0.23135385,0.4629565,0.8469732,0.79068863,-0.21999665,-0.23030078,0.8246779,0.80368865,0.029134186,-0.29431617,0.5581356,0.8180879,-0.113088384,-0.28847066,0.6906693,0.6511638,-0.7720113,-0.7338327,0.12713239,794.17584,775.64105,784.90845,767.98535,774.83514,-0.38580322265625,0.123291015625,0.90765380859375,0.545806884765625,-0.186920166015625,-1.487884521484375,1.0,2.0,1.0,1.0,2.0,100.0,event
10:23:49.033,0.5648609,0.23135385,0.4629565,0.8469732,0.79068863,-0.21999665,-0.23030078,0.8246779,0.80368865,0.029134186,-0.29431617,0.5581356,0.8180879,-0.113088384,-0.28847066,0.6906693,0.6511638,-0.7720113,-0.7338327,0.12713239,801.4286,776.8498,782.0879,755.4945,734.5421,-0.38580322265625,0.123291015625,0.90765380859375,0.545806884765625,-0.186920166015625,-1.487884521484375,1.0,2.0,1.0,1.0,2.0,100.0,event
10:23:49.034,0.5648609,0.23135385,0.4629565,0.8469732,0.79068863,-0.21999665,-0.23030078,0.8246779,0.80368865,0.029134186,-0.29431617,0.5581356,0.8180879,-0.113088384,-0.28847066,0.6906693,0.6511638,-0.7720113,-0.7338327,0.12713239,788.93774,774.43225,780.07324,765.9707,727.28937,-0.38580322265625,0.123291015625,0.90765380859375,0.545806884765625,-0.186920166015625,-1.487884521484375,1.0,2.0,1.0,1.0,2.0,100.0,event
10:23:49.034,0.5648609,0.23135385,0.4629565,0.8469732,0.79068863,-0.21999665,-0.23030078,0.8246779,0.80368865,0.029134186,-0.29431617,0.5581356,0.8180879,-0.113088384,-0.28847066,0.6906693,0.6511638,-0.7720113,-0.7338327,0.12713239,799.011,779.67035,783.2967,765.9707,753.0769,-0.38580322265625,0.123291015625,0.90765380859375,0.545806884765625,-0.186920166015625,-1.487884521484375,1.0,2.0,1.0,1.0,2.0,100.0,event
10:23:49.035,0.5648609,0.23135385,0.4629565,0.8469732,0.79068863,-0.21999665,-0.23030078,0.8246779,0.80368865,0.029134186,-0.29431617,0.5581356,0.8180879,-0.113088384,-0.28847066,0.6906693,0.6511638,-0.7720113,-0.7338327,0.12713239,816.7399,784.5055,784.10254,758.315,859.85345,-0.38580322265625,0.123291015625,0.90765380859375,0.545806884765625,-0.186920166015625,-1.487884521484375,1.0,2.0,1.0,1.0,2.0,100.0,event
10:23:49.036,0.5648609,0.23135385,0.4629565,0.8469732,0.79068863,-0.21999665,-0.23030078,0.8246779,0.80368865,0.029134186,-0.29431617,0.5581356,0.8180879,-0.113088384,-0.28847066,0.6906693,0.6511638,-0.7720113,-0.7338327,0.12713239,796.99634,783.69965,782.0879,762.3443,913.0403,-0.38580322265625,0.123291015625,0.90765380859375,0.545806884765625,-0.186920166015625,-1.487884521484375,1.0,2.0,1.0,1.0,2.0,100.0,event
10:23:49.036,0.5648609,0.23135385,0.4629565,0.8469732,0.79068863,-0.21999665,-0.23030078,0.8246779,0.80368865,0.029134186,-0.29431617,0.5581356,0.8180879,-0.113088384,-0.28847066,0.6906693,0.6511638,-0.7720113,-0.7338327,0.12713239,795.78754,784.10254,783.69965,763.5531,753.47986,-0.38580322265625,0.123291015625,0.90765380859375,0.545806884765625,-0.186920166015625,-1.487884521484375,1.0,2.0,1.0,1.0,2.0,100.0,event
10:23:49.037,0.5648609,0.23135385,0.4629565,0.8469732,0.79068863,-0.21999665,-0.23030078,0.8246779,0.80368865,0.029134186,-0.29431617,0.5581356,0.8180879,-0.113088384,-0.28847066,0.6906693,0.6511638,-0.7720113,-0.7338327,0.12713239,807.8755,784.90845,782.49084,760.32965,768.3883,-0.38580322265625,0.123291015625,0.90765380859375,0.545806884765625,-0.186920166015625,-1.487884521484375,1.0,2.0,1.0,1.0,2.0,100.0,event
10:23:49.038,0.5648609,0.23135385,0.4629565,0.8469732,0.79068863,-0.21999665,-0.23030078,0.8246779,0.80368865,0.029134186,-0.29431617,0.5581356,0.8180879,-0.113088384,-0.28847066,0.6906693,0.6511638,-0.7720113,-0.7338327,0.12713239,807.8755,782.8938,780.4762,750.65936,1012.96704,-0.38580322265625,0.123291015625,0.90765380859375,0.545806884765625,-0.186920166015625,-1.487884521484375,1.0,2.0,1.0,1.0,2.0,100.0,event
10:23:49.039,0.5648609,0.23135385,0.4629565,0.8469732,0.79068863,-0.21999665,-0.23030078,0.8246779,0.80368865,0.029134186,-0.29431617,0.5581356,0.8180879,-0.113088384,-0.28847066,0.6906693,0.6511638,-0.7720113,-0.7338327,0.12713239,789.7436,787.326,785.31134,755.09155,948.0952,-0.38580322265625,0.123291015625,0.90765380859375,0.545806884765625,-0.186920166015625,-1.487884521484375,1.0,2.0,1.0,1.0,2.0,100.0,event
10:23:49.040,0.5648609,0.23135385,0.4629565,0.8469732,0.79068863,-0.21999665,-0.23030078,0.8246779,0.80368865,0.029134186,-0.29431617,0.5581356,0.8180879,-0.113088384,-0.28847066,0.6906693,0.6511638,-0.7720113,-0.7338327,0.12713239,782.0879,785.7143,788.1319,761.53845,786.52014,-0.38580322265625,0.123291015625,0.90765380859375,0.545806884765625,-0.186920166015625,-1.487884521484375,1.0,2.0,1.0,1.0,2.0,100.0,event
10:23:49.097,0.5648609,0.23135385,0.4629565,0.8469732,0.79068863,-0.21999665,-0.23030078,0.8246779,0.80368865,0.029134186,-0.29431617,0.5581356,0.8180879,-0.113088384,-0.28847066,0.6906693,0.6511638,-0.7720113,-0.7338327,0.12713239,781.685,782.0879,786.1172,763.5531,821.5751,-0.4017333984375,0.11016845703125,0.9022216796875,-0.19439697265625,-5.39825439453125,-1.1663818359375,1.0,2.0,1.0,1.0,2.0,100.0,event
10:23:49.098,0.5648609,0.23135385,0.4629565,0.8469732,0.79068863,-0.21999665,-0.23030078,0.8246779,0.80368865,0.029134186,-0.29431617,0.5581356,0.8180879,-0.113088384,-0.28847066,0.6906693,0.6511638,-0.7720113,-0.7338327,0.12713239,785.31134,786.1172,788.5348,752.674,879.19415,-0.4017333984375,0.11016845703125,0.9022216796875,-0.19439697265625,-5.39825439453125,-1.1663818359375,1.0,2.0,1.0,1.0,2.0,100.0,event
10:23:49.099,0.5648609,0.23135385,0.4629565,0.8469732,0.79068863,-0.21999665,-0.23030078,0.8246779,0.80368865,0.029134186,-0.29431617,0.5581356,0.8180879,-0.113088384,-0.28847066,0.6906693,0.6511638,-0.7720113,-0.7338327,0.12713239,797.8022,786.9231,790.14655,753.8828,761.53845,-0.4017333984375,0.11016845703125,0.9022216796875,-0.19439697265625,-5.39825439453125,-1.1663818359375,1.0,2.0,1.0,1.0,2.0,100.0,event
10:23:49.100,0.5648609,0.23135385,0.4629565,0.8469732,0.79068863,-0.21999665,-0.23030078,0.8246779,0.80368865,0.029134186,-0.29431617,0.5581356,0.8180879,-0.113088384,-0.28847066,0.6906693,0.6511638,-0.7720113,-0.7338327,0.12713239,786.1172,779.67035,787.72894,763.5531,754.68866,-0.4017333984375,0.11016845703125,0.9022216796875,-0.19439697265625,-5.39825439453125,-1.1663818359375,1.0,2.0,1.0,1.0,2.0,100.0,event
10:23:49.100,0.5648609,0.23135385,0.4629565,0.8469732,0.79068863,-0.21999665,-0.23030078,0.8246779,0.80368865,0.029134186,-0.29431617,0.5581356,0.8180879,-0.113088384,-0.28847066,0.6906693,0.6511638,-0.7720113,-0.7338327,0.12713239,767.98535,777.25275,786.52014,745.82416,862.674,-0.4017333984375,0.11016845703125,0.9022216796875,-0.19439697265625,-5.39825439453125,-1.1663818359375,1.0,2.0,1.0,1.0,2.0,100.0,event
10:23:49.101,0.5648609,0.23135385,0.4629565,0.8469732,0.79068863,-0.21999665,-0.23030078,0.8246779,0.80368865,0.029134186,-0.29431617,0.5581356,0.8180879,-0.113088384,-0.28847066,0.6906693,0.6511638,-0.7720113,-0.7338327,0.12713239,784.10254,779.67035,785.31134,743.00366,861.06226,-0.4017333984375,0.11016845703125,0.9022216796875,-0.19439697265625,-5.39825439453125,-1.1663818359375,1.0,2.0,1.0,1.0,2.0,100.0,event
10:23:49.102,0.5648609,0.23135385,0.4629565,0.8469732,0.79068863,-0.21999665,-0.23030078,0.8246779,0.80368865,0.029134186,-0.29431617,0.5581356,0.8180879,-0.113088384,-0.28847066,0.6906693,0.6511638,-0.7720113,-0.7338327,0.12713239,783.2967,780.87915,782.8938,751.4652,796.5934,-0.4017333984375,0.11016845703125,0.9022216796875,-0.19439697265625,-5.39825439453125,-1.1663818359375,1.0,2.0,1.0,1.0,2.0,100.0,event
10:23:49.102,0.5648609,0.23135385,0.4629565,0.8469732,0.79068863,-0.21999665,-0.23030078,0.8246779,0.80368865,0.029134186,-0.29431617,0.5581356,0.8180879,-0.113088384,-0.28847066,0.6906693,0.6511638,-0.7720113,-0.7338327,0.12713239,770.40295,782.49084,784.90845,745.82416,707.1429,-0.4017333984375,0.11016845703125,0.9022216796875,-0.19439697265625,-5.39825439453125,-1.1663818359375,1.0,2.0,1.0,1.0,2.0,100.0,event
10:23:49.103,0.5648609,0.23135385,0.4629565,0.8469732,0.79068863,-0.21999665,-0.23030078,0.8246779,0.80368865,0.029134186,-0.29431617,0.5581356,0.8180879,-0.113088384,-0.28847066,0.6906693,0.6511638,-0.7720113,-0.7338327,0.12713239,760.7326,782.8938,788.1319,758.315,877.5824,-0.4017333984375,0.11016845703125,0.9022216796875,-0.19439697265625,-5.39825439453125,-1.1663818359375,1.0,2.0,1.0,1.0,2.0,100.0,event
10:23:49.104,0.5648609,0.23135385,0.4629565,0.8469732,0.79068863,-0.21999665,-0.23030078,0.8246779,0.80368865,0.029134186,-0.29431617,0.5581356,0.8180879,-0.113088384,-0.28847066,0.6906693,0.6511638,-0.7720113,-0.7338327,0.12713239,743.00366,784.90845,787.72894,766.3736,886.8498,-0.4017333984375,0.11016845703125,0.9022216796875,-0.19439697265625,-5.39825439453125,-1.1663818359375,1.0,2.0,1.0,1.0,2.0,100.0,event
10:23:49.105,0.5648609,0.23135385,0.4629565,0.8469732,0.79068863,-0.21999665,-0.23030078,0.8246779,0.80368865,0.029134186,-0.29431617,0.5581356,0.8180879,-0.113088384,-0.28847066,0.6906693,0.6511638,-0.7720113,-0.7338327,0.12713239,773.6264,789.7436,786.52014,745.0183,682.5641,-0.4017333984375,0.11016845703125,0.9022216796875,-0.19439697265625,-5.39825439453125,-1.1663818359375,1.0,2.0,1.0,1.0,2.0,100.0,event
10:23:49.105,0.5648609,0.23135385,0.4629565,0.8469732,0.79068863,-0.21999665,-0.23030078,0.8246779,0.80368865,0.029134186,-0.29431617,0.5581356,0.8180879,-0.113088384,-0.28847066,0.6906693,0.6511638,-0.7720113,-0.7338327,0.12713239,790.14655,788.93774,788.5348,743.00366,735.34796,-0.4017333984375,0.11016845703125,0.9022216796875,-0.19439697265625,-5.39825439453125,-1.1663818359375,1.0,2.0,1.0,1.0,2.0,100.0,event
10:23:49.132,0.5648609,0.23135385,0.4629565,0.8469732,0.79068863,-0.21999665,-0.23030078,0.8246779,0.80368865,0.029134186,-0.29431617,0.5581356,0.8180879,-0.113088384,-0.28847066,0.6906693,0.6511638,-0.7720113,-0.7338327,0.12713239,755.89746,784.10254,793.36993,754.2857,740.18317,-0.39501953125,0.11224365234375,0.8955078125,1.263580322265625,-5.166473388671875,-2.295379638671875,1.0,2.0,1.0,1.0,2.0,100.0,event
10:23:49.133,0.5648609,0.2274515,0.40642774,0.8469732,0.79068863,-0.27907157,-0.19045168,0.8246779,0.80368865,0.0005536908,-0.29888725,0.5581356,0.8180879,-0.1075954,-0.29655612,0.6906693,0.6511638,-0.79065466,-0.74542314,0.12713239,765.16486,788.5348,795.38464,748.24176,735.34796,-0.39501953125,0.11224365234375,0.8955078125,1.263580322265625,-5.166473388671875,-2.295379638671875,1.0,2.0,1.0,1.0,2.0,100.0,event
10:23:49.137,0.5648609,0.2274515,0.40642774,0.8469732,0.79068863,-0.27907157,-0.19045168,0.8246779,0.80368865,0.0005536908,-0.29888725,0.5581356,0.8180879,-0.1075954,-0.29655612,0.6906693,0.6511638,-0.79065466,-0.74542314,0.12713239,801.8315,791.75824,789.7436,743.8095,793.7729,-0.39501953125,0.11224365234375,0.8955078125,1.263580322265625,-5.166473388671875,-2.295379638671875,1.0,2.0,1.0,1.0,2.0,100.0,event
10:23:49.138,0.5648609,0.2274515,0.40642774,0.8469732,0.79068863,-0.27907157,-0.19045168,0.8246779,0.80368865,0.0005536908,-0.29888725,0.5581356,0.8180879,-0.1075954,-0.29655612,0.6906693,0.6511638,-0.79065466,-0.74542314,0.12713239,805.8608,788.1319,786.1172,748.6447,830.0366,-0.39501953125,0.11224365234375,0.8955078125,1.263580322265625,-5.166473388671875,-2.295379638671875,1.0,2.0,1.0,1.0,2.0,100.0,event
10:23:49.139,0.5648609,0.2274515,0.40642774,0.8469732,0.79068863,-0.27907157,-0.19045168,0.8246779,0.80368865,0.0005536908,-0.29888725,0.5581356,0.8180879,-0.1075954,-0.29655612,0.6906693,0.6511638,-0.79065466,-0.74542314,0.12713239,812.71063,790.14655,789.7436,753.47986,912.6374,-0.39501953125,0.11224365234375,0.8955078125,1.263580322265625,-5.166473388671875,-2.295379638671875,1.0,2.0,1.0,1.0,2.0,100.0,event
10:23:49.140,0.5648609,0.2274515,0.40642774,0.8469732,0.79068863,-0.27907157,-0.19045168,0.8246779,0.80368865,0.0005536908,-0.29888725,0.5581356,0.8180879,-0.1075954,-0.29655612,0.6906693,0.6511638,-0.79065466,-0.74542314,0.12713239,791.75824,790.54944,790.14655,745.42126,834.87177,-0.39501953125,0.11224365234375,0.8955078125,1.263580322265625,-5.166473388671875,-2.295379638671875,1.0,2.0,1.0,1.0,2.0,100.0,event
10:23:49.140,0.5648609,0.2274515,0.40642774,0.8469732,0.79068863,-0.27907157,-0.19045168,0.8246779,0.80368865,0.0005536908,-0.29888725,0.5581356,0.8180879,-0.1075954,-0.29655612,0.6906693,0.6511638,-0.79065466,-0.74542314,0.12713239,788.1319,789.7436,787.72894,747.4359,730.9158,-0.39501953125,0.11224365234375,0.8955078125,1.263580322265625,-5.166473388671875,-2.295379638671875,1.0,2.0,1.0,1.0,2.0,100.0,event
10:23:49.141,0.5648609,0.2274515,0.40642774,0.8469732,0.79068863,-0.27907157,-0.19045168,0.8246779,0.80368865,0.0005536908,-0.29888725,0.5581356,0.8180879,-0.1075954,-0.29655612,0.6906693,0.6511638,-0.79065466,-0.74542314,0.12713239,792.1612,788.5348,786.9231,751.4652,865.09155,-0.39501953125,0.11224365234375,0.8955078125,1.263580322265625,-5.166473388671875,-2.295379638671875,1.0,2.0,1.0,1.0,2.0,100.0,event
10:23:49.143,0.5648609,0.2274515,0.40642774,0.8469732,0.79068863,-0.27907157,-0.19045168,0.8246779,0.80368865,0.0005536908,-0.29888725,0.5581356,0.8180879,-0.1075954,-0.29655612,0.6906693,0.6511638,-0.79065466,-0.74542314,0.12713239,771.6117,786.9231,788.1319,751.4652,1028.2784,-0.39501953125,0.11224365234375,0.8955078125,1.263580322265625,-5.166473388671875,-2.295379638671875,1.0,2.0,1.0,1.0,2.0,100.0,event
10:23:49.144,0.5648609,0.2274515,0.40642774,0.8469732,0.79068863,-0.27907157,-0.19045168,0.8246779,0.80368865,0.0005536908,-0.29888725,0.5581356,0.8180879,-0.1075954,-0.29655612,0.6906693,0.6511638,-0.79065466,-0.74542314,0.12713239,785.7143,787.72894,786.1172,747.4359,789.7436,-0.39501953125,0.11224365234375,0.8955078125,1.263580322265625,-5.166473388671875,-2.295379638671875,1.0,2.0,1.0,1.0,2.0,100.0,event
10:23:49.145,0.5648609,0.2274515,0.40642774,0.8469732,0.79068863,-0.27907157,-0.19045168,0.8246779,0.80368865,0.0005536908,-0.29888725,0.5581356,0.8180879,-0.1075954,-0.29655612,0.6906693,0.6511638,-0.79065466,-0.74542314,0.12713239,772.4176,785.31134,785.7143,736.1539,673.69965,-0.39501953125,0.11224365234375,0.8955078125,1.263580322265625,-5.166473388671875,-2.295379638671875,1.0,2.0,1.0,1.0,2.0,100.0,event
10:23:49.146,0.5648609,0.2274515,0.40642774,0.8469732,0.79068863,-0.27907157,-0.19045168,0.8246779,0.80368865,0.0005536908,-0.29888725,0.5581356,0.8180879,-0.1075954,-0.29655612,0.6906693,0.6511638,-0.79065466,-0.74542314,0.12713239,779.2674,786.1172,786.52014,728.49817,802.23444,-0.39501953125,0.11224365234375,0.8955078125,1.263580322265625,-5.166473388671875,-2.295379638671875,1.0,2.0,1.0,1.0,2.0,100.0,event
10:23:49.169,0.5648609,0.2274515,0.40642774,0.8469732,0.79068863,-0.27907157,-0.19045168,0.8246779,0.80368865,0.0005536908,-0.29888725,0.5581356,0.8180879,-0.1075954,-0.29655612,0.6906693,0.6511638,-0.79065466,-0.74542314,0.12713239,795.38464,791.3553,788.93774,732.1245,850.989,-0.39501953125,0.11224365234375,0.8955078125,1.263580322265625,-5.166473388671875,-2.295379638671875,1.0,2.0,1.0,1.0,2.0,100.0,event
10:23:49.171,0.5648609,0.2274515,0.40642774,0.8469732,0.79068863,-0.27907157,-0.19045168,0.8246779,0.80368865,0.0005536908,-0.29888725,0.5581356,0.8180879,-0.1075954,-0.29655612,0.6906693,0.6511638,-0.79065466,-0.74542314,0.12713239,780.4762,788.1319,789.7436,744.61536,755.89746,-0.39501953125,0.11224365234375,0.8955078125,1.263580322265625,-5.166473388671875,-2.295379638671875,1.0,2.0,1.0,1.0,2.0,100.0,event
10:23:49.172,0.5648609,0.2274515,0.40642774,0.8469732,0.79068863,-0.27907157,-0.19045168,0.8246779,0.80368865,0.0005536908,-0.29888725,0.5581356,0.8180879,-0.1075954,-0.29655612,0.6906693,0.6511638,-0.79065466,-0.74542314,0.12713239,774.0293,787.326,786.9231,743.00366,723.2601,-0.39501953125,0.11224365234375,0.8955078125,1.263580322265625,-5.166473388671875,-2.295379638671875,1.0,2.0,1.0,1.0,2.0,100.0,event
10:23:49.173,0.5648609,0.2274515,0.40642774,0.8469732,0.79068863,-0.27907157,-0.19045168,0.8246779,0.80368865,0.0005536908,-0.29888725,0.5581356,0.8180879,-0.1075954,-0.29655612,0.6906693,0.6511638,-0.79065466,-0.74542314,0.12713239,768.3883,787.326,788.1319,745.42126,825.2015,-0.39501953125,0.11224365234375,0.8955078125,1.263580322265625,-5.166473388671875,-2.295379638671875,1.0,2.0,1.0,1.0,2.0,100.0,event
10:23:49.173,0.5648609,0.2274515,0.40642774,0.8469732,0.79068863,-0.27907157,-0.19045168,0.8246779,0.80368865,0.0005536908,-0.29888725,0.5581356,0.8180879,-0.1075954,-0.29655612,0.6906693,0.6511638,-0.79065466,-0.74542314,0.12713239,762.74725,784.5055,787.326,738.97437,825.6044,-0.39501953125,0.11224365234375,0.8955078125,1.263580322265625,-5.166473388671875,-2.295379638671875,1.0,2.0,1.0,1.0,2.0,100.0,event
10:23:49.174,0.5648609,0.2274515,0.40642774,0.8469732,0.79068863,-0.27907157,-0.19045168,0.8246779,0.80368865,0.0005536908,-0.29888725,0.5581356,0.8180879,-0.1075954,-0.29655612,0.6906693,0.6511638,-0.79065466,-0.74542314,0.12713239,771.6117,784.5055,781.685,736.1539,807.47253,-0.39501953125,0.11224365234375,0.8955078125,1.263580322265625,-5.166473388671875,-2.295379638671875,1.0,2.0,1.0,1.0,2.0,100.0,event
10:23:49.175,0.5648609,0.2274515,0.40642774,0.8469732,0.79068863,-0.27907157,-0.19045168,0.8246779,0.80368865,0.0005536908,-0.29888725,0.5581356,0.8180879,-0.1075954,-0.29655612,0.6906693,0.6511638,-0.79065466,-0.74542314,0.12713239,782.49084,783.69965,783.2967,741.79486,865.89746,-0.39501953125,0.11224365234375,0.8955078125,1.263580322265625,-5.166473388671875,-2.295379638671875,1.0,2.0,1.0,1.0,2.0,100.0,event
10:23:49.175,0.5648609,0.2274515,0.40642774,0.8469732,0.79068863,-0.27907157,-0.19045168,0.8246779,0.80368865,0.0005536908,-0.29888725,0.5581356,0.8180879,-0.1075954,-0.29655612,0.6906693,0.6511638,-0.79065466,-0.74542314,0.12713239,776.8498,778.86444,783.69965,733.3333,1062.5275,-0.39501953125,0.11224365234375,0.8955078125,1.263580322265625,-5.166473388671875,-2.295379638671875,1.0,2.0,1.0,1.0,2.0,100.0,event
10:23:49.176,0.5648609,0.2274515,0.40642774,0.8469732,0.79068863,-0.27907157,-0.19045168,0.8246779,0.80368865,0.0005536908,-0.29888725,0.5581356,0.8180879,-0.1075954,-0.29655612,0.6906693,0.6511638,-0.79065466,-0.74542314,0.12713239,758.71796,778.86444,783.2967,728.0952,1094.762,-0.39501953125,0.11224365234375,0.8955078125,1.263580322265625,-5.166473388671875,-2.295379638671875,1.0,2.0,1.0,1.0,2.0,100.0,event
10:23:49.177,0.5648609,0.2274515,0.40642774,0.8469732,0.79068863,-0.27907157,-0.19045168,0.8246779,0.80368865,0.0005536908,-0.29888725,0.5581356,0.8180879,-0.1075954,-0.29655612,0.6906693,0.6511638,-0.79065466,-0.74542314,0.12713239,752.27106,780.4762,784.90845,725.2747,774.83514,-0.39501953125,0.11224365234375,0.8955078125,1.263580322265625,-5.166473388671875,-2.295379638671875,1.0,2.0,1.0,1.0,2.0,100.0,event
10:23:49.177,0.5648609,0.2274515,0.40642774,0.8469732,0.79068863,-0.27907157,-0.19045168,0.8246779,0.80368865,0.0005536908,-0.29888725,0.5581356,0.8180879,-0.1075954,-0.29655612,0.6906693,0.6511638,-0.79065466,-0.74542314,0.12713239,768.7912,776.8498,785.31134,740.58606,698.2784,-0.39501953125,0.11224365234375,0.8955078125,1.263580322265625,-5.166473388671875,-2.295379638671875,1.0,2.0,1.0,1.0,2.0,100.0,event
10:23:49.178,0.5648609,0.2274515,0.40642774,0.8469732,0.79068863,-0.27907157,-0.19045168,0.8246779,0.80368865,0.0005536908,-0.29888725,0.5581356,0.8180879,-0.1075954,-0.29655612,0.6906693,0.6511638,-0.79065466,-0.74542314,0.12713239,781.685,780.07324,785.7143,751.4652,809.4872,-0.39501953125,0.11224365234375,0.8955078125,1.263580322265625,-5.166473388671875,-2.295379638671875,1.0,2.0,1.0,1.0,2.0,100.0,event
10:23:49.200,0.5648609,0.2274515,0.40642774,0.8469732,0.79068863,-0.27907157,-0.19045168,0.8246779,0.80368865,0.0005536908,-0.29888725,0.5581356,0.8180879,-0.1075954,-0.29655612,0.6906693,0.6511638,-0.79065466,-0.74542314,0.12713239,778.0586,784.10254,783.2967,742.1978,736.1539,-0.38714599609375,0.114501953125,0.91461181640625,1.338348388671875,-2.743988037109375,-2.04864501953125,1.0,2.0,1.0,1.0,2.0,100.0,event
10:23:49.202,0.5648609,0.2274515,0.40642774,0.8469732,0.79068863,-0.27907157,-0.19045168,0.8246779,0.80368865,0.0005536908,-0.29888725,0.5581356,0.8180879,-0.1075954,-0.29655612,0.6906693,0.6511638,-0.79065466,-0.74542314,0.12713239,765.16486,780.4762,785.31134,730.9158,740.58606,-0.38714599609375,0.114501953125,0.91461181640625,1.338348388671875,-2.743988037109375,-2.04864501953125,1.0,2.0,1.0,1.0,2.0,100.0,event
10:23:49.202,0.5648609,0.2274515,0.40642774,0.8469732,0.79068863,-0.27907157,-0.19045168,0.8246779,0.80368865,0.0005536908,-0.29888725,0.5581356,0.8180879,-0.1075954,-0.29655612,0.6906693,0.6511638,-0.79065466,-0.74542314,0.12713239,767.1795,782.0879,784.5055,732.9304,654.7619,-0.38714599609375,0.114501953125,0.91461181640625,1.338348388671875,-2.743988037109375,-2.04864501953125,1.0,2.0,1.0,1.0,2.0,100.0,event
10:23:49.203,0.5648609,0.25999326,0.45745876,0.8469732,0.79068863,-0.35286272,-0.14896406,0.8246779,0.80368865,-0.06754452,-0.29888725,0.5581356,0.8180879,-0.10360059,-0.30734208,0.6906693,0.6511638,-0.79535365,-0.75083685,0.12713239,774.83514,778.46155,784.10254,739.7802,793.36993,-0.38714599609375,0.114501953125,0.91461181640625,1.338348388671875,-2.743988037109375,-2.04864501953125,1.0,2.0,1.0,1.0,2.0,100.0,event
10:23:49.208,0.5648609,0.25999326,0.45745876,0.8469732,0.79068863,-0.35286272,-0.14896406,0.8246779,0.80368865,-0.06754452,-0.29888725,0.5581356,0.8180879,-0.10360059,-0.30734208,0.6906693,0.6511638,-0.79535365,-0.75083685,0.12713239,779.2674,782.0879,785.31134,731.7216,786.52014,-0.38714599609375,0.114501953125,0.91461181640625,1.338348388671875,-2.743988037109375,-2.04864501953125,1.0,2.0,1.0,1.0,2.0,100.0,event
10:23:49.209,0.5648609,0.25999326,0.45745876,0.8469732,0.79068863,-0.35286272,-0.14896406,0.8246779,0.80368865,-0.06754452,-0.29888725,0.5581356,0.8180879,-0.10360059,-0.30734208,0.6906693,0.6511638,-0.79535365,-0.75083685,0.12713239,791.3553,784.90845,784.5055,719.6337,793.7729,-0.38714599609375,0.114501953125,0.91461181640625,1.338348388671875,-2.743988037109375,-2.04864501953125,1.0,2.0,1.0,1.0,2.0,100.0,event
10:23:49.209,0.5648609,0.25999326,0.45745876,0.8469732,0.79068863,-0.35286272,-0.14896406,0.8246779,0.80368865,-0.06754452,-0.29888725,0.5581356,0.8180879,-0.10360059,-0.30734208,0.6906693,0.6511638,-0.79535365,-0.75083685,0.12713239,764.7619,783.69965,784.90845,742.1978,838.9011,-0.38714599609375,0.114501953125,0.91461181640625,1.338348388671875,-2.743988037109375,-2.04864501953125,1.0,2.0,1.0,1.0,2.0,100.0,event
10:23:49.210,0.5648609,0.25999326,0.45745876,0.8469732,0.79068863,-0.35286272,-0.14896406,0.8246779,0.80368865,-0.06754452,-0.29888725,0.5581356,0.8180879,-0.10360059,-0.30734208,0.6906693,0.6511638,-0.79535365,-0.75083685,0.12713239,742.1978,780.4762,784.10254,756.30035,1038.3517,-0.38714599609375,0.114501953125,0.91461181640625,1.338348388671875,-2.743988037109375,-2.04864501953125,1.0,2.0,1.0,1.0,2.0,100.0,event
10:23:49.210,0.5648609,0.25999326,0.45745876,0.8469732,0.79068863,-0.35286272,-0.14896406,0.8246779,0.80368865,-0.06754452,-0.29888725,0.5581356,0.8180879,-0.10360059,-0.30734208,0.6906693,0.6511638,-0.79535365,-0.75083685,0.12713239,777.6557,780.4762,784.10254,740.18317,844.94507,-0.38714599609375,0.114501953125,0.91461181640625,1.338348388671875,-2.743988037109375,-2.04864501953125,1.0,2.0,1.0,1.0,2.0,100.0,event
10:23:49.211,0.5648609,0.25999326,0.45745876,0.8469732,0.79068863,-0.35286272,-0.14896406,0.8246779,0.80368865,-0.06754452,-0.29888725,0.5581356,0.8180879,-0.10360059,-0.30734208,0.6906693,0.6511638,-0.79535365,-0.75083685,0.12713239,786.52014,779.67035,785.31134,740.18317,673.69965,-0.38714599609375,0.114501953125,0.91461181640625,1.338348388671875,-2.743988037109375,-2.04864501953125,1.0,2.0,1.0,1.0,2.0,100.0,event
10:23:49.212,0.5648609,0.25999326,0.45745876,0.8469732,0.79068863,-0.35286272,-0.14896406,0.8246779,0.80368865,-0.06754452,-0.29888725,0.5581356,0.8180879,-0.10360059,-0.30734208,0.6906693,0.6511638,-0.79535365,-0.75083685,0.12713239,785.31134,781.685,782.8938,743.00366,829.2308,-0.38714599609375,0.114501953125,0.91461181640625,1.338348388671875,-2.743988037109375,-2.04864501953125,1.0,2.0,1.0,1.0,2.0,100.0,event
10:23:49.212,0.5648609,0.25999326,0.45745876,0.8469732,0.79068863,-0.35286272,-0.14896406,0.8246779,0.80368865,-0.06754452,-0.29888725,0.5581356,0.8180879,-0.10360059,-0.30734208,0.6906693,0.6511638,-0.79535365,-0.75083685,0.12713239,796.99634,778.46155,783.2967,749.85345,817.5458,-0.38714599609375,0.114501953125,0.91461181640625,1.338348388671875,-2.743988037109375,-2.04864501953125,1.0,2.0,1.0,1.0,2.0,100.0,event
10:23:49.307,0.5648609,0.25999326,0.45745876,0.8469732,0.79068863,-0.35286272,-0.14896406,0.8246779,0.80368865,-0.06754452,-0.29888725,0.5581356,0.8180879,-0.10360059,-0.30734208,0.6906693,0.6511638,-0.79535365,-0.75083685,0.12713239,772.4176,782.0879,785.31134,751.8681,726.08057,-0.3800048828125,0.1082763671875,0.8953857421875,0.545806884765625,-3.03558349609375,-1.45050048828125,1.0,2.0,1.0,1.0,2.0,100.0,event
10:23:49.308,0.5648609,0.25999326,0.45745876,0.8469732,0.79068863,-0.35286272,-0.14896406,0.8246779,0.80368865,-0.06754452,-0.29888725,0.5581356,0.8180879,-0.10360059,-0.30734208,0.6906693,0.6511638,-0.79535365,-0.75083685,0.12713239,764.7619,781.28204,783.2967,751.06226,703.5165,-0.3800048828125,0.1082763671875,0.8953857421875,0.545806884765625,-3.03558349609375,-1.45050048828125,1.0,2.0,1.0,1.0,2.0,100.0,event
10:23:49.309,0.5648609,0.25999326,0.45745876,0.8469732,0.79068863,-0.35286272,-0.14896406,0.8246779,0.80368865,-0.06754452,-0.29888725,0.5581356,0.8180879,-0.10360059,-0.30734208,0.6906693,0.6511638,-0.79535365,-0.75083685,0.12713239,765.16486,780.07324,781.685,750.2564,774.43225,-0.3800048828125,0.1082763671875,0.8953857421875,0.545806884765625,-3.03558349609375,-1.45050048828125,1.0,2.0,1.0,1.0,2.0,100.0,event
10:23:49.310,0.5648609,0.25999326,0.45745876,0.8469732,0.79068863,-0.35286272,-0.14896406,0.8246779,0.80368865,-0.06754452,-0.29888725,0.5581356,0.8180879,-0.10360059,-0.30734208,0.6906693,0.6511638,-0.79535365,-0.75083685,0.12713239,770.80585,778.46155,782.49084,753.47986,775.2381,-0.3800048828125,0.1082763671875,0.8953857421875,0.545806884765625,-3.03558349609375,-1.45050048828125,1.0,2.0,1.0,1.0,2.0,100.0,event
10:23:49.310,0.5648609,0.25999326,0.45745876,0.8469732,0.79068863,-0.35286272,-0.14896406,0.8246779,0.80368865,-0.06754452,-0.29888725,0.5581356,0.8180879,-0.10360059,-0.30734208,0.6906693,0.6511638,-0.79535365,-0.75083685,0.12713239,764.35895,786.1172,779.67035,741.39197,710.7692,-0.3800048828125,0.1082763671875,0.8953857421875,0.545806884765625,-3.03558349609375,-1.45050048828125,1.0,2.0,1.0,1.0,2.0,100.0,event
10:23:49.311,0.5648609,0.25999326,0.45745876,0.8469732,0.79068863,-0.35286272,-0.14896406,0.8246779,0.80368865,-0.06754452,-0.29888725,0.5581356,0.8180879,-0.10360059,-0.30734208,0.6906693,0.6511638,-0.79535365,-0.75083685,0.12713239,764.7619,786.1172,777.25275,740.18317,780.07324,-0.3800048828125,0.1082763671875,0.8953857421875,0.545806884765625,-3.03558349609375,-1.45050048828125,1.0,2.0,1.0,1.0,2.0,100.0,event
10:23:49.312,0.5648609,0.25999326,0.45745876,0.8469732,0.79068863,-0.35286272,-0.14896406,0.8246779,0.80368865,-0.06754452,-0.29888725,0.5581356,0.8180879,-0.10360059,-0.30734208,0.6906693,0.6511638,-0.79535365,-0.75083685,0.12713239,782.8938,781.685,778.0586,746.63007,1020.2198,-0.3800048828125,0.1082763671875,0.8953857421875,0.545806884765625,-3.03558349609375,-1.45050048828125,1.0,2.0,1.0,1.0,2.0,100.0,event
10:23:49.313,0.5648609,0.25999326,0.45745876,0.8469732,0.79068863,-0.35286272,-0.14896406,0.8246779,0.80368865,-0.06754452,-0.29888725,0.5581356,0.8180879,-0.10360059,-0.30734208,0.6906693,0.6511638,-0.79535365,-0.75083685,0.12713239,813.5165,784.10254,778.46155,749.0476,763.1502,-0.3800048828125,0.1082763671875,0.8953857421875,0.545806884765625,-3.03558349609375,-1.45050048828125,1.0,2.0,1.0,1.0,2.0,100.0,event
10:23:49.313,0.5648609,0.25999326,0.45745876,0.8469732,0.79068863,-0.35286272,-0.14896406,0.8246779,0.80368865,-0.06754452,-0.29888725,0.5581356,0.8180879,-0.10360059,-0.30734208,0.6906693,0.6511638,-0.79535365,-0.75083685,0.12713239,808.2784,782.0879,779.67035,749.85345,990.40295,-0.3800048828125,0.1082763671875,0.8953857421875,0.545806884765625,-3.03558349609375,-1.45050048828125,1.0,2.0,1.0,1.0,2.0,100.0,event
10:23:49.314,0.5648609,0.25999326,0.45745876,0.8469732,0.79068863,-0.35286272,-0.14896406,0.8246779,0.80368865,-0.06754452,-0.29888725,0.5581356,0.8180879,-0.10360059,-0.30734208,0.6906693,0.6511638,-0.79535365,-0.75083685,0.12713239,757.1062,780.4762,779.2674,747.4359,751.06226,-0.3800048828125,0.1082763671875,0.8953857421875,0.545806884765625,-3.03558349609375,-1.45050048828125,1.0,2.0,1.0,1.0,2.0,100.0,event
10:23:49.315,0.5648609,0.25999326,0.45745876,0.8469732,0.79068863,-0.35286272,-0.14896406,0.8246779,0.80368865,-0.06754452,-0.29888725,0.5581356,0.8180879,-0.10360059,-0.30734208,0.6906693,0.6511638,-0.79535365,-0.75083685,0.12713239,769.59705,778.86444,780.07324,758.71796,813.91943,-0.3800048828125,0.1082763671875,0.8953857421875,0.545806884765625,-3.03558349609375,-1.45050048828125,1.0,2.0,1.0,1.0,2.0,100.0,event
10:23:49.316,0.5648609,0.25999326,0.45745876,0.8469732,0.79068863,-0.35286272,-0.14896406,0.8246779,0.80368865,-0.06754452,-0.29888725,0.5581356,0.8180879,-0.10360059,-0.30734208,0.6906693,0.6511638,-0.79535365,-0.75083685,0.12713239,790.14655,778.0586,778.86444,755.4945,761.53845,-0.3800048828125,0.1082763671875,0.8953857421875,0.545806884765625,-3.03558349609375,-1.45050048828125,1.0,2.0,1.0,1.0,2.0,100.0,event
10:23:49.346,0.5648609,0.25999326,0.45745876,0.8469732,0.79068863,-0.35286272,-0.14896406,0.8246779,0.80368865,-0.06754452,-0.29888725,0.5581356,0.8180879,-0.10360059,-0.30734208,0.6906693,0.6511638,-0.79535365,-0.75083685,0.12713239,765.16486,776.04395,774.83514,745.0183,706.7399,-0.39141845703125,0.1029052734375,0.91259765625,0.635528564453125,-1.622467041015625,-0.112152099609375,1.0,2.0,1.0,1.0,2.0,100.0,event
10:23:49.347,0.5648609,0.25999326,0.45745876,0.8469732,0.79068863,-0.35286272,-0.14896406,0.8246779,0.80368865,-0.06754452,-0.29888725,0.5581356,0.8180879,-0.10360059,-0.30734208,0.6906693,0.6511638,-0.79535365,-0.75083685,0.12713239,765.9707,774.43225,774.43225,745.82416,802.6374,-0.39141845703125,0.1029052734375,0.91259765625,0.635528564453125,-1.622467041015625,-0.112152099609375,1.0,2.0,1.0,1.0,2.0,100.0,event
10:23:49.348,0.5648609,0.25999326,0.45745876,0.8469732,0.79068863,-0.35286272,-0.14896406,0.8246779,0.80368865,-0.06754452,-0.29888725,0.5581356,0.8180879,-0.10360059,-0.30734208,0.6906693,0.6511638,-0.79535365,-0.75083685,0.12713239,772.4176,778.0586,778.0586,753.0769,943.2601,-0.39141845703125,0.1029052734375,0.91259765625,0.635528564453125,-1.622467041015625,-0.112152099609375,1.0,2.0,1.0,1.0,2.0,100.0,event
10:23:49.349,0.5648609,0.25999326,0.45745876,0.8469732,0.79068863,-0.35286272,-0.14896406,0.8246779,0.80368865,-0.06754452,-0.29888725,0.5581356,0.8180879,-0.10360059,-0.30734208,0.6906693,0.6511638,-0.79535365,-0.75083685,0.12713239,768.3883,782.8938,777.6557,747.8388,842.1245,-0.39141845703125,0.1029052734375,0.91259765625,0.635528564453125,-1.622467041015625,-0.112152099609375,1.0,2.0,1.0,1.0,2.0,100.0,event
10:23:49.350,0.5648609,0.25999326,0.45745876,0.8469732,0.79068863,-0.35286272,-0.14896406,0.8246779,0.80368865,-0.06754452,-0.29888725,0.5581356,0.8180879,-0.10360059,-0.30734208,0.6906693,0.6511638,-0.79535365,-0.75083685,0.12713239,765.16486,782.49084,776.4469,735.7509,759.5238,-0.39141845703125,0.1029052734375,0.91259765625,0.635528564453125,-1.622467041015625,-0.112152099609375,1.0,2.0,1.0,1.0,2.0,100.0,event
10:23:49.351,0.5648609,0.29916394,0.52471113,0.8469732,0.79068863,-0.43166283,-0.1172782,0.8246779,0.80368865,-0.1263703,-0.29888725,0.5581356,0.8180879,-0.09828146,-0.3196649,0.6906693,0.6511638,-0.79448664,-0.74811864,0.12713239,771.2088,783.69965,780.07324,746.2271,956.9597,-0.39141845703125,0.1029052734375,0.91259765625,0.635528564453125,-1.622467041015625,-0.112152099609375,1.0,2.0,1.0,1.0,2.0,100.0,event
10:23:49.356,0.5648609,0.29916394,0.52471113,0.8469732,0.79068863,-0.43166283,-0.1172782,0.8246779,0.80368865,-0.1263703,-0.29888725,0.5581356,0.8180879,-0.09828146,-0.3196649,0.6906693,0.6511638,-0.79448664,-0.74811864,0.12713239,784.10254,786.52014,783.2967,750.65936,1094.359,-0.39141845703125,0.1029052734375,0.91259765625,0.635528564453125,-1.622467041015625,-0.112152099609375,1.0,2.0,1.0,1.0,2.0,100.0,event
10:23:49.357,0.5648609,0.29916394,0.52471113,0.8469732,0.79068863,-0.43166283,-0.1172782,0.8246779,0.80368865,-0.1263703,-0.29888725,0.5581356,0.8180879,-0.09828146,-0.3196649,0.6906693,0.6511638,-0.79448664,-0.74811864,0.12713239,778.86444,788.1319,784.5055,737.3626,845.34796,-0.39141845703125,0.1029052734375,0.91259765625,0.635528564453125,-1.622467041015625,-0.112152099609375,1.0,2.0,1.0,1.0,2.0,100.0,event
10:23:49.358,0.5648609,0.29916394,0.52471113,0.8469732,0.79068863,-0.43166283,-0.1172782,0.8246779,0.80368865,-0.1263703,-0.29888725,0.5581356,0.8180879,-0.09828146,-0.3196649,0.6906693,0.6511638,-0.79448664,-0.74811864,0.12713239,763.5531,782.49084,782.8938,729.304,702.3077,-0.39141845703125,0.1029052734375,0.91259765625,0.635528564453125,-1.622467041015625,-0.112152099609375,1.0,2.0,1.0,1.0,2.0,100.0,event
10:23:49.358,0.5648609,0.29916394,0.52471113,0.8469732,0.79068863,-0.43166283,-0.1172782,0.8246779,0.80368865,-0.1263703,-0.29888725,0.5581356,0.8180879,-0.09828146,-0.3196649,0.6906693,0.6511638,-0.79448664,-0.74811864,0.12713239,761.9414,782.8938,781.685,728.0952,768.3883,-0.39141845703125,0.1029052734375,0.91259765625,0.635528564453125,-1.622467041015625,-0.112152099609375,1.0,2.0,1.0,1.0,2.0,100.0,event
10:23:49.359,0.5648609,0.29916394,0.52471113,0.8469732,0.79068863,-0.43166283,-0.1172782,0.8246779,0.80368865,-0.1263703,-0.29888725,0.5581356,0.8180879,-0.09828146,-0.3196649,0.6906693,0.6511638,-0.79448664,-0.74811864,0.12713239,781.28204,786.9231,782.8938,738.5714,784.5055,-0.39141845703125,0.1029052734375,0.91259765625,0.635528564453125,-1.622467041015625,-0.112152099609375,1.0,2.0,1.0,1.0,2.0,100.0,event
10:23:49.360,0.5648609,0.29916394,0.52471113,0.8469732,0.79068863,-0.43166283,-0.1172782,0.8246779,0.80368865,-0.1263703,-0.29888725,0.5581356,0.8180879,-0.09828146,-0.3196649,0.6906693,0.6511638,-0.79448664,-0.74811864,0.12713239,790.54944,784.90845,782.0879,741.39197,760.32965,-0.39141845703125,0.1029052734375,0.91259765625,0.635528564453125,-1.622467041015625,-0.112152099609375,1.0,2.0,1.0,1.0,2.0,100.0,event
10:23:49.390,0.5648609,0.29916394,0.52471113,0.8469732,0.79068863,-0.43166283,-0.1172782,0.8246779,0.80368865,-0.1263703,-0.29888725,0.5581356,0.8180879,-0.09828146,-0.3196649,0.6906693,0.6511638,-0.79448664,-0.74811864,0.12713239,772.01465,782.8938,780.87915,733.3333,812.3077,-0.39990234375,0.10845947265625,0.89471435546875,1.188812255859375,-2.22808837890625,-1.368255615234375,1.0,2.0,1.0,1.0,2.0,100.0,event
10:23:49.392,0.5648609,0.29916394,0.52471113,0.8469732,0.79068863,-0.43166283,-0.1172782,0.8246779,0.80368865,-0.1263703,-0.29888725,0.5581356,0.8180879,-0.09828146,-0.3196649,0.6906693,0.6511638,-0.79448664,-0.74811864,0.12713239,760.32965,779.2674,779.67035,733.3333,903.36993,-0.39990234375,0.10845947265625,0.89471435546875,1.188812255859375,-2.22808837890625,-1.368255615234375,1.0,2.0,1.0,1.0,2.0,100.0,event
10:23:49.393,0.5648609,0.29916394,0.52471113,0.8469732,0.79068863,-0.43166283,-0.1172782,0.8246779,0.80368865,-0.1263703,-0.29888725,0.5581356,0.8180879,-0.09828146,-0.3196649,0.6906693,0.6511638,-0.79448664,-0.74811864,0.12713239,769.19415,780.87915,777.6557,735.34796,881.6117,-0.39990234375,0.10845947265625,0.89471435546875,1.188812255859375,-2.22808837890625,-1.368255615234375,1.0,2.0,1.0,1.0,2.0,100.0,event
10:23:49.394,0.5648609,0.29916394,0.52471113,0.8469732,0.79068863,-0.43166283,-0.1172782,0.8246779,0.80368865,-0.1263703,-0.29888725,0.5581356,0.8180879,-0.09828146,-0.3196649,0.6906693,0.6511638,-0.79448664,-0.74811864,0.12713239,775.2381,783.2967,778.0586,732.9304,855.0183,-0.39990234375,0.10845947265625,0.89471435546875,1.188812255859375,-2.22808837890625,-1.368255615234375,1.0,2.0,1.0,1.0,2.0,100.0,event
10:23:49.395,0.5648609,0.29916394,0.52471113,0.8469732,0.79068863,-0.43166283,-0.1172782,0.8246779,0.80368865,-0.1263703,-0.29888725,0.5581356,0.8180879,-0.09828146,-0.3196649,0.6906693,0.6511638,-0.79448664,-0.74811864,0.12713239,752.27106,780.4762,777.25275,733.3333,863.47986,-0.39990234375,0.10845947265625,0.89471435546875,1.188812255859375,-2.22808837890625,-1.368255615234375,1.0,2.0,1.0,1.0,2.0,100.0,event
10:23:49.396,0.5648609,0.29916394,0.52471113,0.8469732,0.79068863,-0.43166283,-0.1172782,0.8246779,0.80368865,-0.1263703,-0.29888725,0.5581356,0.8180879,-0.09828146,-0.3196649,0.6906693,0.6511638,-0.79448664,-0.74811864,0.12713239,759.92676,779.67035,773.22345,735.34796,1064.1392,-0.39990234375,0.10845947265625,0.89471435546875,1.188812255859375,-2.22808837890625,-1.368255615234375,1.0,2.0,1.0,1.0,2.0,100.0,event
10:23:49.399,0.5648609,0.29916394,0.52471113,0.8469732,0.79068863,-0.43166283,-0.1172782,0.8246779,0.80368865,-0.1263703,-0.29888725,0.5581356,0.8180879,-0.09828146,-0.3196649,0.6906693,0.6511638,-0.79448664,-0.74811864,0.12713239,781.28204,780.07324,770.0,726.4835,1069.7803,-0.39990234375,0.10845947265625,0.89471435546875,1.188812255859375,-2.22808837890625,-1.368255615234375,1.0,2.0,1.0,1.0,2.0,100.0,event
10:23:49.401,0.5648609,0.29916394,0.52471113,0.8469732,0.79068863,-0.43166283,-0.1172782,0.8246779,0.80368865,-0.1263703,-0.29888725,0.5581356,0.8180879,-0.09828146,-0.3196649,0.6906693,0.6511638,-0.79448664,-0.74811864,0.12713239,765.56775,776.8498,773.22345,722.8571,701.0989,-0.39990234375,0.10845947265625,0.89471435546875,1.188812255859375,-2.22808837890625,-1.368255615234375,1.0,2.0,1.0,1.0,2.0,100.0,event
10:23:49.402,0.5648609,0.29916394,0.52471113,0.8469732,0.79068863,-0.43166283,-0.1172782,0.8246779,0.80368865,-0.1263703,-0.29888725,0.5581356,0.8180879,-0.09828146,-0.3196649,0.6906693,0.6511638,-0.79448664,-0.74811864,0.12713239,785.7143,775.2381,778.46155,728.9011,687.3993,-0.39990234375,0.10845947265625,0.89471435546875,1.188812255859375,-2.22808837890625,-1.368255615234375,1.0,2.0,1.0,1.0,2.0,100.0,event
10:23:49.403,0.5648609,0.29916394,0.52471113,0.8469732,0.79068863,-0.43166283,-0.1172782,0.8246779,0.80368865,-0.1263703,-0.29888725,0.5581356,0.8180879,-0.09828146,-0.3196649,0.6906693,0.6511638,-0.79448664,-0.74811864,0.12713239,781.28204,779.67035,780.4762,734.94507,851.39197,-0.39990234375,0.10845947265625,0.89471435546875,1.188812255859375,-2.22808837890625,-1.368255615234375,1.0,2.0,1.0,1.0,2.0,100.0,event
10:23:49.405,0.5648609,0.29916394,0.52471113,0.8469732,0.79068863,-0.43166283,-0.1172782,0.8246779,0.80368865,-0.1263703,-0.29888725,0.5581356,0.8180879,-0.09828146,-0.3196649,0.6906693,0.6511638,-0.79448664,-0.74811864,0.12713239,770.80585,783.69965,779.2674,728.49817,781.685,-0.39990234375,0.10845947265625,0.89471435546875,1.188812255859375,-2.22808837890625,-1.368255615234375,1.0,2.0,1.0,1.0,2.0,100.0,event
10:23:49.406,0.5648609,0.29916394,0.52471113,0.8469732,0.79068863,-0.43166283,-0.1172782,0.8246779,0.80368865,-0.1263703,-0.29888725,0.5581356,0.8180879,-0.09828146,-0.3196649,0.6906693,0.6511638,-0.79448664,-0.74811864,0.12713239,779.2674,782.0879,777.6557,728.49817,723.2601,-0.39990234375,0.10845947265625,0.89471435546875,1.188812255859375,-2.22808837890625,-1.368255615234375,1.0,2.0,1.0,1.0,2.0,100.0,event
10:23:49.432,0.5648609,0.29916394,0.52471113,0.8469732,0.79068863,-0.43166283,-0.1172782,0.8246779,0.80368865,-0.1263703,-0.29888725,0.5581356,0.8180879,-0.09828146,-0.3196649,0.6906693,0.6511638,-0.79448664,-0.74811864,0.12713239,750.65936,782.0879,779.67035,742.6007,724.87177,-0.39990234375,0.10845947265625,0.89471435546875,1.188812255859375,-2.22808837890625,-1.368255615234375,1.0,2.0,1.0,1.0,2.0,100.0,event
10:23:49.434,0.5648609,0.29916394,0.52471113,0.8469732,0.79068863,-0.43166283,-0.1172782,0.8246779,0.80368865,-0.1263703,-0.29888725,0.5581356,0.8180879,-0.09828146,-0.3196649,0.6906693,0.6511638,-0.79448664,-0.74811864,0.12713239,741.39197,782.49084,780.4762,732.1245,758.71796,-0.39990234375,0.10845947265625,0.89471435546875,1.188812255859375,-2.22808837890625,-1.368255615234375,1.0,2.0,1.0,1.0,2.0,100.0,event
10:23:49.434,0.5648609,0.29916394,0.52471113,0.8469732,0.79068863,-0.43166283,-0.1172782,0.8246779,0.80368865,-0.1263703,-0.29888725,0.5581356,0.8180879,-0.09828146,-0.3196649,0.6906693,0.6511638,-0.79448664,-0.74811864,0.12713239,752.27106,778.46155,780.87915,721.2454,777.25275,-0.39990234375,0.10845947265625,0.89471435546875,1.188812255859375,-2.22808837890625,-1.368255615234375,1.0,2.0,1.0,1.0,2.0,100.0,event
10:23:49.435,0.5648609,0.29916394,0.52471113,0.8469732,0.79068863,-0.43166283,-0.1172782,0.8246779,0.80368865,-0.1263703,-0.29888725,0.5581356,0.8180879,-0.09828146,-0.3196649,0.6906693,0.6511638,-0.79448664,-0.74811864,0.12713239,734.1392,776.4469,780.87915,722.0513,701.0989,-0.39990234375,0.10845947265625,0.89471435546875,1.188812255859375,-2.22808837890625,-1.368255615234375,1.0,2.0,1.0,1.0,2.0,100.0,event
10:23:49.435,0.5648609,0.29916394,0.52471113,0.8469732,0.79068863,-0.43166283,-0.1172782,0.8246779,0.80368865,-0.1263703,-0.29888725,0.5581356,0.8180879,-0.09828146,-0.3196649,0.6906693,0.6511638,-0.79448664,-0.74811864,0.12713239,714.7985,776.4469,780.87915,726.08057,760.32965,-0.39990234375,0.10845947265625,0.89471435546875,1.188812255859375,-2.22808837890625,-1.368255615234375,1.0,2.0,1.0,1.0,2.0,100.0,event
10:23:49.436,0.5648609,0.29916394,0.52471113,0.8469732,0.79068863,-0.43166283,-0.1172782,0.8246779,0.80368865,-0.1263703,-0.29888725,0.5581356,0.8180879,-0.09828146,-0.3196649,0.6906693,0.6511638,-0.79448664,-0.74811864,0.12713239,713.9927,774.0293,779.67035,731.31866,882.01465,-0.39990234375,0.10845947265625,0.89471435546875,1.188812255859375,-2.22808837890625,-1.368255615234375,1.0,2.0,1.0,1.0,2.0,100.0,event
10:23:49.436,0.5648609,0.29916394,0.52471113,0.8469732,0.79068863,-0.43166283,-0.1172782,0.8246779,0.80368865,-0.1263703,-0.29888725,0.5581356,0.8180879,-0.09828146,-0.3196649,0.6906693,0.6511638,-0.79448664,-0.74811864,0.12713239,718.4249,775.2381,778.0586,724.4689,859.45056,-0.39990234375,0.10845947265625,0.89471435546875,1.188812255859375,-2.22808837890625,-1.368255615234375,1.0,2.0,1.0,1.0,2.0,100.0,event
10:23:49.437,0.5648609,0.3332178,0.5687607,0.8469732,0.79068863,-0.48869446,-0.10107588,0.8246779,0.80368865,-0.13839418,-0.29888725,0.5581356,0.8180879,-0.09280187,-0.33274463,0.6906693,0.6511638,-0.7953383,-0.73835987,0.12713239,734.94507,774.83514,779.2674,722.8571,864.68866,-0.39990234375,0.10845947265625,0.89471435546875,1.188812255859375,-2.22808837890625,-1.368255615234375,1.0,2.0,1.0,1.0,2.0,100.0,event
10:23:49.441,0.5648609,0.3332178,0.5687607,0.8469732,0.79068863,-0.48869446,-0.10107588,0.8246779,0.80368865,-0.13839418,-0.29888725,0.5581356,0.8180879,-0.09280187,-0.33274463,0.6906693,0.6511638,-0.7953383,-0.73835987,0.12713239,749.85345,774.0293,774.83514,720.0366,853.8095,-0.39990234375,0.10845947265625,0.89471435546875,1.188812255859375,-2.22808837890625,-1.368255615234375,1.0,2.0,1.0,1.0,2.0,100.0,event
10:23:49.441,0.5648609,0.3332178,0.5687607,0.8469732,0.79068863,-0.48869446,-0.10107588,0.8246779,0.80368865,-0.13839418,-0.29888725,0.5581356,0.8180879,-0.09280187,-0.33274463,0.6906693,0.6511638,-0.7953383,-0.73835987,0.12713239,735.7509,773.6264,776.04395,738.1685,1046.0073,-0.39990234375,0.10845947265625,0.89471435546875,1.188812255859375,-2.22808837890625,-1.368255615234375,1.0,2.0,1.0,1.0,2.0,100.0,event
10:23:49.442,0.5648609,0.3332178,0.5687607,0.8469732,0.79068863,-0.48869446,-0.10107588,0.8246779,0.80368865,-0.13839418,-0.29888725,0.5581356,0.8180879,-0.09280187,-0.33274463,0.6906693,0.6511638,-0.7953383,-0.73835987,0.12713239,763.1502,777.6557,782.49084,736.9597,854.21246,-0.39990234375,0.10845947265625,0.89471435546875,1.188812255859375,-2.22808837890625,-1.368255615234375,1.0,2.0,1.0,1.0,2.0,100.0,event
10:23:49.443,0.5648609,0.3332178,0.5687607,0.8469732,0.79068863,-0.48869446,-0.10107588,0.8246779,0.80368865,-0.13839418,-0.29888725,0.5581356,0.8180879,-0.09280187,-0.33274463,0.6906693,0.6511638,-0.7953383,-0.73835987,0.12713239,766.77655,776.4469,783.2967,741.39197,667.25275,-0.39990234375,0.10845947265625,0.89471435546875,1.188812255859375,-2.22808837890625,-1.368255615234375,1.0,2.0,1.0,1.0,2.0,100.0,event
10:23:49.468,0.5648609,0.3332178,0.5687607,0.8469732,0.79068863,-0.48869446,-0.10107588,0.8246779,0.80368865,-0.13839418,-0.29888725,0.5581356,0.8180879,-0.09280187,-0.33274463,0.6906693,0.6511638,-0.7953383,-0.73835987,0.12713239,758.315,777.6557,782.0879,748.24176,776.04395,-0.40185546875,0.099609375,0.9078369140625,-0.01495361328125,-2.145843505859375,-4.59075927734375,1.0,2.0,1.0,1.0,2.0,100.0,event
10:23:49.469,0.5648609,0.3332178,0.5687607,0.8469732,0.79068863,-0.48869446,-0.10107588,0.8246779,0.80368865,-0.13839418,-0.29888725,0.5581356,0.8180879,-0.09280187,-0.33274463,0.6906693,0.6511638,-0.7953383,-0.73835987,0.12713239,754.68866,780.07324,780.4762,731.7216,820.3663,-0.40185546875,0.099609375,0.9078369140625,-0.01495361328125,-2.145843505859375,-4.59075927734375,1.0,2.0,1.0,1.0,2.0,100.0,event
10:23:49.469,0.5648609,0.3332178,0.5687607,0.8469732,0.79068863,-0.48869446,-0.10107588,0.8246779,0.80368865,-0.13839418,-0.29888725,0.5581356,0.8180879,-0.09280187,-0.33274463,0.6906693,0.6511638,-0.7953383,-0.73835987,0.12713239,753.47986,778.86444,782.49084,723.2601,770.40295,-0.40185546875,0.099609375,0.9078369140625,-0.01495361328125,-2.145843505859375,-4.59075927734375,1.0,2.0,1.0,1.0,2.0,100.0,event
10:23:49.470,0.5648609,0.3332178,0.5687607,0.8469732,0.79068863,-0.48869446,-0.10107588,0.8246779,0.80368865,-0.13839418,-0.29888725,0.5581356,0.8180879,-0.09280187,-0.33274463,0.6906693,0.6511638,-0.7953383,-0.73835987,0.12713239,753.8828,777.6557,785.7143,726.4835,755.89746,-0.40185546875,0.099609375,0.9078369140625,-0.01495361328125,-2.145843505859375,-4.59075927734375,1.0,2.0,1.0,1.0,2.0,100.0,event
10:23:49.470,0.5648609,0.3332178,0.5687607,0.8469732,0.79068863,-0.48869446,-0.10107588,0.8246779,0.80368865,-0.13839418,-0.29888725,0.5581356,0.8180879,-0.09280187,-0.33274463,0.6906693,0.6511638,-0.7953383,-0.73835987,0.12713239,770.40295,776.8498,784.90845,723.2601,761.9414,-0.40185546875,0.099609375,0.9078369140625,-0.01495361328125,-2.145843505859375,-4.59075927734375,1.0,2.0,1.0,1.0,2.0,100.0,event
10:23:49.471,0.5648609,0.3332178,0.5687607,0.8469732,0.79068863,-0.48869446,-0.10107588,0.8246779,0.80368865,-0.13839418,-0.29888725,0.5581356,0.8180879,-0.09280187,-0.33274463,0.6906693,0.6511638,-0.7953383,-0.73835987,0.12713239,762.3443,778.0586,783.69965,730.10986,799.81683,-0.40185546875,0.099609375,0.9078369140625,-0.01495361328125,-2.145843505859375,-4.59075927734375,1.0,2.0,1.0,1.0,2.0,100.0,event
10:23:49.472,0.5648609,0.3332178,0.5687607,0.8469732,0.79068863,-0.48869446,-0.10107588,0.8246779,0.80368865,-0.13839418,-0.29888725,0.5581356,0.8180879,-0.09280187,-0.33274463,0.6906693,0.6511638,-0.7953383,-0.73835987,0.12713239,750.2564,779.2674,784.10254,739.7802,840.9158,-0.40185546875,0.099609375,0.9078369140625,-0.01495361328125,-2.145843505859375,-4.59075927734375,1.0,2.0,1.0,1.0,2.0,100.0,event
10:23:49.472,0.5648609,0.3332178,0.5687607,0.8469732,0.79068863,-0.48869446,-0.10107588,0.8246779,0.80368865,-0.13839418,-0.29888725,0.5581356,0.8180879,-0.09280187,-0.33274463,0.6906693,0.6511638,-0.7953383,-0.73835987,0.12713239,776.4469,780.4762,786.9231,736.1539,751.06226,-0.40185546875,0.099609375,0.9078369140625,-0.01495361328125,-2.145843505859375,-4.59075927734375,1.0,2.0,1.0,1.0,2.0,100.0,event
10:23:49.473,0.5648609,0.3332178,0.5687607,0.8469732,0.79068863,-0.48869446,-0.10107588,0.8246779,0.80368865,-0.13839418,-0.29888725,0.5581356,0.8180879,-0.09280187,-0.33274463,0.6906693,0.6511638,-0.7953383,-0.73835987,0.12713239,765.16486,784.90845,786.52014,732.52747,974.2857,-0.40185546875,0.099609375,0.9078369140625,-0.01495361328125,-2.145843505859375,-4.59075927734375,1.0,2.0,1.0,1.0,2.0,100.0,event
10:23:49.473,0.5648609,0.3332178,0.5687607,0.8469732,0.79068863,-0.48869446,-0.10107588,0.8246779,0.80368865,-0.13839418,-0.29888725,0.5581356,0.8180879,-0.09280187,-0.33274463,0.6906693,0.6511638,-0.7953383,-0.73835987,0.12713239,748.24176,785.31134,786.52014,745.0183,1048.8279,-0.40185546875,0.099609375,0.9078369140625,-0.01495361328125,-2.145843505859375,-4.59075927734375,1.0,2.0,1.0,1.0,2.0,100.0,event
10:23:49.474,0.5648609,0.3332178,0.5687607,0.8469732,0.79068863,-0.48869446,-0.10107588,0.8246779,0.80368865,-0.13839418,-0.29888725,0.5581356,0.8180879,-0.09280187,-0.33274463,0.6906693,0.6511638,-0.7953383,-0.73835987,0.12713239,746.2271,783.2967,786.52014,744.21246,726.8865,-0.40185546875,0.099609375,0.9078369140625,-0.01495361328125,-2.145843505859375,-4.59075927734375,1.0,2.0,1.0,1.0,2.0,100.0,event
10:23:49.474,0.5648609,0.3332178,0.5687607,0.8469732,0.79068863,-0.48869446,-0.10107588,0.8246779,0.80368865,-0.13839418,-0.29888725,0.5581356,0.8180879,-0.09280187,-0.33274463,0.6906693,0.6511638,-0.7953383,-0.73835987,0.12713239,746.2271,780.87915,784.90845,744.21246,724.0659,-0.40185546875,0.099609375,0.9078369140625,-0.01495361328125,-2.145843505859375,-4.59075927734375,1.0,2.0,1.0,1.0,2.0,100.0,event
10:23:49.504,0.5648609,0.3332178,0.5687607,0.8469732,0.79068863,-0.48869446,-0.10107588,0.8246779,0.80368865,-0.13839418,-0.29888725,0.5581356,0.8180879,-0.09280187,-0.33274463,0.6906693,0.6511638,-0.7953383,-0.73835987,0.12713239,763.5531,786.9231,790.54944,747.03296,799.81683,-0.39239501953125,0.10650634765625,0.89923095703125,1.338348388671875,-3.686065673828125,-2.714080810546875,1.0,2.0,1.0,1.0,2.0,100.0,event
10:23:49.506,0.5648609,0.3332178,0.5687607,0.8469732,0.79068863,-0.48869446,-0.10107588,0.8246779,0.80368865,-0.13839418,-0.29888725,0.5581356,0.8180879,-0.09280187,-0.33274463,0.6906693,0.6511638,-0.7953383,-0.73835987,0.12713239,780.07324,784.10254,786.9231,733.73627,694.2491,-0.39239501953125,0.10650634765625,0.89923095703125,1.338348388671875,-3.686065673828125,-2.714080810546875,1.0,2.0,1.0,1.0,2.0,100.0,event
