TimeStamp,Delta_TP9,Delta_AF7,Delta_AF8,Delta_TP10,Theta_TP9,Theta_AF7,Theta_AF8,Theta_TP10,Alpha_TP9,Alpha_AF7,Alpha_AF8,Alpha_TP10,Beta_TP9,Beta_AF7,Beta_AF8,Beta_TP10,Gamma_TP9,Gamma_AF7,Gamma_AF8,Gamma_TP10,RAW_TP9,RAW_AF7,RAW_AF8,RAW_TP10,AUX_RIGHT,Accelerometer_X,Accelerometer_Y,Accelerometer_Z,Gyro_X,Gyro_Y,Gyro_Z,HeadBandOn,HSI_TP9,HSI_AF7,HSI_AF8,HSI_TP10,Battery,Elements
13:44:21.441,0.0,0.0,0.0,0.0,0.0,0.0,0.0,0.0,0.0,0.0,0.0,0.0,0.0,0.0,0.0,0.0,0.0,0.0,0.0,0.0,809.89014,833.2601,802.23444,801.4286,814.3223,-0.01495361328125,0.017822265625,0.9884033203125,2.250518798828125,-3.30474853515625,0.0299072265625,0.0,4.0,4.0,4.0,4.0,75.0,event
13:44:21.442,0.0,0.0,0.0,0.0,0.0,0.0,0.0,0.0,0.0,0.0,0.0,0.0,0.0,0.0,0.0,0.0,0.0,0.0,0.0,0.0,798.60803,813.5165,772.8205,792.5641,786.52014,-0.01495361328125,0.017822265625,0.9884033203125,2.250518798828125,-3.30474853515625,0.0299072265625,0.0,4.0,4.0,4.0,4.0,75.0,event
13:44:21.442,0.0,0.0,0.0,0.0,0.0,0.0,0.0,0.0,0.0,0.0,0.0,0.0,0.0,0.0,0.0,0.0,0.0,0.0,0.0,0.0,773.22345,839.304,765.16486,771.2088,728.49817,-0.01495361328125,0.017822265625,0.9884033203125,2.250518798828125,-3.30474853515625,0.0299072265625,0.0,4.0,4.0,4.0,4.0,75.0,event
13:44:21.443,0.0,0.0,0.0,0.0,0.0,0.0,0.0,0.0,0.0,0.0,0.0,0.0,0.0,0.0,0.0,0.0,0.0,0.0,0.0,0.0,778.86444,856.2271,807.8755,773.6264,732.1245,-0.01495361328125,0.017822265625,0.9884033203125,2.250518798828125,-3.30474853515625,0.0299072265625,0.0,4.0,4.0,4.0,4.0,75.0,event
13:44:21.444,0.0,0.0,0.0,0.0,0.0,0.0,0.0,0.0,0.0,0.0,0.0,0.0,0.0,0.0,0.0,0.0,0.0,0.0,0.0,0.0,795.78754,850.18317,836.08057,779.2674,741.79486,-0.01495361328125,0.017822265625,0.9884033203125,2.250518798828125,-3.30474853515625,0.0299072265625,0.0,4.0,4.0,4.0,4.0,75.0,event
13:44:21.445,0.0,0.0,0.0,0.0,0.0,0.0,0.0,0.0,0.0,0.0,0.0,0.0,0.0,0.0,0.0,0.0,0.0,0.0,0.0,0.0,792.96704,818.3516,831.6484,775.2381,823.1868,-0.01495361328125,0.017822265625,0.9884033203125,2.250518798828125,-3.30474853515625,0.0299072265625,0.0,4.0,4.0,4.0,4.0,75.0,event
13:44:21.445,0.0,0.0,0.0,0.0,0.0,0.0,0.0,0.0,0.0,0.0,0.0,0.0,0.0,0.0,0.0,0.0,0.0,0.0,0.0,0.0,788.5348,826.4103,842.9304,777.6557,851.79486,-0.01495361328125,0.017822265625,0.9884033203125,2.250518798828125,-3.30474853515625,0.0299072265625,0.0,4.0,4.0,4.0,4.0,75.0,event
13:44:21.446,0.0,0.0,0.0,0.0,0.0,0.0,0.0,0.0,0.0,0.0,0.0,0.0,0.0,0.0,0.0,0.0,0.0,0.0,0.0,0.0,786.52014,849.7802,802.6374,780.4762,711.1722,-0.01495361328125,0.017822265625,0.9884033203125,2.250518798828125,-3.30474853515625,0.0299072265625,0.0,4.0,4.0,4.0,4.0,75.0,event
13:44:21.447,0.0,0.0,0.0,0.0,0.0,0.0,0.0,0.0,0.0,0.0,0.0,0.0,0.0,0.0,0.0,0.0,0.0,0.0,0.0,0.0,806.26373,805.05493,790.9524,801.02563,811.9048,-0.01495361328125,0.017822265625,0.9884033203125,2.250518798828125,-3.30474853515625,0.0299072265625,0.0,4.0,4.0,4.0,4.0,75.0,event
13:44:21.448,0.0,0.0,0.0,0.0,0.0,0.0,0.0,0.0,0.0,0.0,0.0,0.0,0.0,0.0,0.0,0.0,0.0,0.0,0.0,0.0,813.91943,793.7729,823.9927,805.05493,872.3443,-0.01495361328125,0.017822265625,0.9884033203125,2.250518798828125,-3.30474853515625,0.0299072265625,0.0,4.0,4.0,4.0,4.0,75.0,event
13:44:21.448,0.0,0.0,0.0,0.0,0.0,0.0,0.0,0.0,0.0,0.0,0.0,0.0,0.0,0.0,0.0,0.0,0.0,0.0,0.0,0.0,812.71063,851.79486,779.67035,799.011,695.05493,-0.01495361328125,0.017822265625,0.9884033203125,2.250518798828125,-3.30474853515625,0.0299072265625,0.0,4.0,4.0,4.0,4.0,75.0,event
13:44:21.449,0.0,0.0,0.0,0.0,0.0,0.0,0.0,0.0,0.0,0.0,0.0,0.0,0.0,0.0,0.0,0.0,0.0,0.0,0.0,0.0,804.2491,841.31866,765.9707,795.38464,764.7619,-0.01495361328125,0.017822265625,0.9884033203125,2.250518798828125,-3.30474853515625,0.0299072265625,0.0,4.0,4.0,4.0,4.0,75.0,event
13:44:21.494,0.0,0.0,0.0,0.0,0.0,0.0,0.0,0.0,0.0,0.0,0.0,0.0,0.0,0.0,0.0,0.0,0.0,0.0,0.0,0.0,788.1319,826.0073,789.34064,790.9524,862.674,-0.01751708984375,0.0146484375,0.98284912109375,2.10845947265625,-3.93280029296875,0.8074951171875,0.0,4.0,4.0,4.0,4.0,75.0,event
13:44:21.495,0.0,0.0,0.0,0.0,0.0,0.0,0.0,0.0,0.0,0.0,0.0,0.0,0.0,0.0,0.0,0.0,0.0,0.0,0.0,0.0,795.78754,861.8681,803.44324,792.96704,760.32965,-0.01751708984375,0.0146484375,0.98284912109375,2.10845947265625,-3.93280029296875,0.8074951171875,0.0,4.0,4.0,4.0,4.0,75.0,event
13:44:21.496,0.0,0.0,0.0,0.0,0.0,0.0,0.0,0.0,0.0,0.0,0.0,0.0,0.0,0.0,0.0,0.0,0.0,0.0,0.0,0.0,820.7692,859.85345,839.304,794.17584,640.2564,-0.01751708984375,0.0146484375,0.98284912109375,2.10845947265625,-3.93280029296875,0.8074951171875,0.0,4.0,4.0,4.0,4.0,75.0,event
13:44:21.497,0.0,0.0,0.0,0.0,0.0,0.0,0.0,0.0,0.0,0.0,0.0,0.0,0.0,0.0,0.0,0.0,0.0,0.0,0.0,0.0,816.337,828.4249,851.39197,798.20514,747.03296,-0.01751708984375,0.0146484375,0.98284912109375,2.10845947265625,-3.93280029296875,0.8074951171875,0.0,4.0,4.0,4.0,4.0,75.0,event
13:44:21.499,0.0,0.0,0.0,0.0,0.0,0.0,0.0,0.0,0.0,0.0,0.0,0.0,0.0,0.0,0.0,0.0,0.0,0.0,0.0,0.0,790.9524,789.7436,827.619,791.75824,824.7985,-0.01751708984375,0.0146484375,0.98284912109375,2.10845947265625,-3.93280029296875,0.8074951171875,0.0,4.0,4.0,4.0,4.0,75.0,event
13:44:21.500,0.0,0.0,0.0,0.0,0.0,0.0,0.0,0.0,0.0,0.0,0.0,0.0,0.0,0.0,0.0,0.0,0.0,0.0,0.0,0.0,787.326,786.52014,792.1612,781.28204,777.25275,-0.01751708984375,0.0146484375,0.98284912109375,2.10845947265625,-3.93280029296875,0.8074951171875,0.0,4.0,4.0,4.0,4.0,75.0,event
13:44:21.501,0.0,0.0,0.0,0.0,0.0,0.0,0.0,0.0,0.0,0.0,0.0,0.0,0.0,0.0,0.0,0.0,0.0,0.0,0.0,0.0,789.34064,805.8608,796.5934,788.1319,695.8608,-0.01751708984375,0.0146484375,0.98284912109375,2.10845947265625,-3.93280029296875,0.8074951171875,0.0,4.0,4.0,4.0,4.0,75.0,event
13:44:21.503,0.0,0.0,0.0,0.0,0.0,0.0,0.0,0.0,0.0,0.0,0.0,0.0,0.0,0.0,0.0,0.0,0.0,0.0,0.0,0.0,799.81683,786.9231,794.17584,788.93774,746.63007,-0.01751708984375,0.0146484375,0.98284912109375,2.10845947265625,-3.93280029296875,0.8074951171875,0.0,4.0,4.0,4.0,4.0,75.0,event
13:44:21.504,0.0,0.0,0.0,0.0,0.0,0.0,0.0,0.0,0.0,0.0,0.0,0.0,0.0,0.0,0.0,0.0,0.0,0.0,0.0,0.0,820.3663,787.72894,793.7729,804.65204,915.05493,-0.01751708984375,0.0146484375,0.98284912109375,2.10845947265625,-3.93280029296875,0.8074951171875,0.0,4.0,4.0,4.0,4.0,75.0,event
13:44:21.504,0.0,0.0,0.0,0.0,0.0,0.0,0.0,0.0,0.0,0.0,0.0,0.0,0.0,0.0,0.0,0.0,0.0,0.0,0.0,0.0,819.9634,822.381,788.5348,815.12823,813.91943,-0.01751708984375,0.0146484375,0.98284912109375,2.10845947265625,-3.93280029296875,0.8074951171875,0.0,4.0,4.0,4.0,4.0,75.0,event
13:44:21.508,0.0,0.0,0.0,0.0,0.0,0.0,0.0,0.0,0.0,0.0,0.0,0.0,0.0,0.0,0.0,0.0,0.0,0.0,0.0,0.0,811.9048,839.707,790.54944,805.8608,698.2784,-0.01751708984375,0.0146484375,0.98284912109375,2.10845947265625,-3.93280029296875,0.8074951171875,0.0,4.0,4.0,4.0,4.0,75.0,event
13:44:21.508,0.0,0.0,0.0,0.0,0.0,0.0,0.0,0.0,0.0,0.0,0.0,0.0,0.0,0.0,0.0,0.0,0.0,0.0,0.0,0.0,799.81683,842.1245,821.978,793.7729,775.64105,-0.01751708984375,0.0146484375,0.98284912109375,2.10845947265625,-3.93280029296875,0.8074951171875,0.0,4.0,4.0,4.0,4.0,75.0,event
13:44:21.538,0.0,0.0,0.0,0.0,0.0,0.0,0.0,0.0,0.0,0.0,0.0,0.0,0.0,0.0,0.0,0.0,0.0,0.0,0.0,0.0,804.65204,852.1978,826.8132,786.9231,757.9121,-0.01751708984375,0.0146484375,0.98284912109375,2.10845947265625,-3.93280029296875,0.8074951171875,0.0,4.0,4.0,4.0,4.0,75.0,event
13:44:21.539,0.0,0.0,0.0,0.0,0.0,0.0,0.0,0.0,0.0,0.0,0.0,0.0,0.0,0.0,0.0,0.0,0.0,0.0,0.0,0.0,826.0073,855.82416,842.9304,802.23444,631.39197,-0.01751708984375,0.0146484375,0.98284912109375,2.10845947265625,-3.93280029296875,0.8074951171875,0.0,4.0,4.0,4.0,4.0,75.0,event
13:44:21.540,0.0,0.0,0.0,0.0,0.0,0.0,0.0,0.0,0.0,0.0,0.0,0.0,0.0,0.0,0.0,0.0,0.0,0.0,0.0,0.0,817.5458,814.3223,825.6044,813.5165,761.53845,-0.01751708984375,0.0146484375,0.98284912109375,2.10845947265625,-3.93280029296875,0.8074951171875,0.0,4.0,4.0,4.0,4.0,75.0,event
13:44:21.540,0.0,0.0,0.0,0.0,0.0,0.0,0.0,0.0,0.0,0.0,0.0,0.0,0.0,0.0,0.0,0.0,0.0,0.0,0.0,0.0,794.17584,787.326,797.3993,804.2491,945.6777,-0.01751708984375,0.0146484375,0.98284912109375,2.10845947265625,-3.93280029296875,0.8074951171875,0.0,4.0,4.0,4.0,4.0,75.0,event
13:44:21.541,0.0,0.0,0.0,0.0,0.0,0.0,0.0,0.0,0.0,0.0,0.0,0.0,0.0,0.0,0.0,0.0,0.0,0.0,0.0,0.0,767.98535,780.87915,780.87915,775.64105,823.5897,-0.01751708984375,0.0146484375,0.98284912109375,2.10845947265625,-3.93280029296875,0.8074951171875,0.0,4.0,4.0,4.0,4.0,75.0,event
13:44:21.542,0.0,0.0,0.0,0.0,0.0,0.0,0.0,0.0,0.0,0.0,0.0,0.0,0.0,0.0,0.0,0.0,0.0,0.0,0.0,0.0,784.5055,803.44324,740.989,772.8205,766.77655,-0.01751708984375,0.0146484375,0.98284912109375,2.10845947265625,-3.93280029296875,0.8074951171875,0.0,4.0,4.0,4.0,4.0,75.0,event
13:44:21.542,0.0,0.0,0.0,0.0,0.0,0.0,0.0,0.0,0.0,0.0,0.0,0.0,0.0,0.0,0.0,0.0,0.0,0.0,0.0,0.0,801.02563,843.3333,740.989,791.75824,843.3333,-0.01751708984375,0.0146484375,0.98284912109375,2.10845947265625,-3.93280029296875,0.8074951171875,0.0,4.0,4.0,4.0,4.0,75.0,event
13:44:21.544,0.0,0.0,0.0,0.0,0.0,0.0,0.0,0.0,0.0,0.0,0.0,0.0,0.0,0.0,0.0,0.0,0.0,0.0,0.0,0.0,806.6667,821.1722,833.2601,808.68134,999.2674,-0.01751708984375,0.0146484375,0.98284912109375,2.10845947265625,-3.93280029296875,0.8074951171875,0.0,4.0,4.0,4.0,4.0,75.0,event
13:44:21.544,0.0,0.0,0.0,0.0,0.0,0.0,0.0,0.0,0.0,0.0,0.0,0.0,0.0,0.0,0.0,0.0,0.0,0.0,0.0,0.0,803.0403,818.7546,863.47986,803.0403,1046.8132,-0.01751708984375,0.0146484375,0.98284912109375,2.10845947265625,-3.93280029296875,0.8074951171875,0.0,4.0,4.0,4.0,4.0,75.0,event
13:44:21.545,0.0,0.0,0.0,0.0,0.0,0.0,0.0,0.0,0.0,0.0,0.0,0.0,0.0,0.0,0.0,0.0,0.0,0.0,0.0,0.0,792.5641,851.39197,818.3516,782.8938,736.9597,-0.01751708984375,0.0146484375,0.98284912109375,2.10845947265625,-3.93280029296875,0.8074951171875,0.0,4.0,4.0,4.0,4.0,75.0,event
13:44:21.545,0.0,0.0,0.0,0.0,0.0,0.0,0.0,0.0,0.0,0.0,0.0,0.0,0.0,0.0,0.0,0.0,0.0,0.0,0.0,0.0,795.78754,834.4689,827.619,779.67035,685.38464,-0.01751708984375,0.0146484375,0.98284912109375,2.10845947265625,-3.93280029296875,0.8074951171875,0.0,4.0,4.0,4.0,4.0,75.0,event
13:44:21.546,0.0,0.0,0.0,0.0,0.0,0.0,0.0,0.0,0.0,0.0,0.0,0.0,0.0,0.0,0.0,0.0,0.0,0.0,0.0,0.0,794.57874,801.4286,818.7546,782.0879,768.3883,-0.01751708984375,0.0146484375,0.98284912109375,2.10845947265625,-3.93280029296875,0.8074951171875,0.0,4.0,4.0,4.0,4.0,75.0,event
13:44:21.587,0.0,0.0,0.0,0.0,0.0,0.0,0.0,0.0,0.0,0.0,0.0,0.0,0.0,0.0,0.0,0.0,0.0,0.0,0.0,0.0,810.696,810.696,763.1502,799.011,705.9341,-0.0146484375,0.02081298828125,0.9959716796875,2.7813720703125,-3.895416259765625,0.91217041015625,0.0,4.0,4.0,4.0,4.0,75.0,event
13:44:21.588,0.0,0.0,0.0,0.0,0.0,0.0,0.0,0.0,0.0,0.0,0.0,0.0,0.0,0.0,0.0,0.0,0.0,0.0,0.0,0.0,814.7253,796.1905,786.1172,813.1135,612.0513,-0.0146484375,0.02081298828125,0.9959716796875,2.7813720703125,-3.895416259765625,0.91217041015625,0.0,4.0,4.0,4.0,4.0,75.0,event
13:44:21.589,0.0,0.0,0.0,0.0,0.0,0.0,0.0,0.0,0.0,0.0,0.0,0.0,0.0,0.0,0.0,0.0,0.0,0.0,0.0,0.0,811.0989,823.9927,826.0073,819.15753,696.6667,-0.0146484375,0.02081298828125,0.9959716796875,2.7813720703125,-3.895416259765625,0.91217041015625,0.0,4.0,4.0,4.0,4.0,75.0,event
13:44:21.589,0.0,0.0,0.0,0.0,0.0,0.0,0.0,0.0,0.0,0.0,0.0,0.0,0.0,0.0,0.0,0.0,0.0,0.0,0.0,0.0,811.50183,888.0586,803.8461,802.6374,738.97437,-0.0146484375,0.02081298828125,0.9959716796875,2.7813720703125,-3.895416259765625,0.91217041015625,0.0,4.0,4.0,4.0,4.0,75.0,event
13:44:21.590,0.0,0.0,0.0,0.0,0.0,0.0,0.0,0.0,0.0,0.0,0.0,0.0,0.0,0.0,0.0,0.0,0.0,0.0,0.0,0.0,781.28204,813.5165,829.2308,782.8938,777.25275,-0.0146484375,0.02081298828125,0.9959716796875,2.7813720703125,-3.895416259765625,0.91217041015625,0.0,4.0,4.0,4.0,4.0,75.0,event
13:44:21.590,0.0,0.0,0.0,0.0,0.0,0.0,0.0,0.0,0.0,0.0,0.0,0.0,0.0,0.0,0.0,0.0,0.0,0.0,0.0,0.0,782.49084,848.5714,797.8022,770.80585,693.0403,-0.0146484375,0.02081298828125,0.9959716796875,2.7813720703125,-3.895416259765625,0.91217041015625,0.0,4.0,4.0,4.0,4.0,75.0,event
13:44:21.591,0.0,0.0,0.0,0.0,0.0,0.0,0.0,0.0,0.0,0.0,0.0,0.0,0.0,0.0,0.0,0.0,0.0,0.0,0.0,0.0,797.8022,808.2784,826.4103,807.8755,952.52747,-0.0146484375,0.02081298828125,0.9959716796875,2.7813720703125,-3.895416259765625,0.91217041015625,0.0,4.0,4.0,4.0,4.0,75.0,event
13:44:21.591,0.0,0.0,0.0,0.0,0.0,0.0,0.0,0.0,0.0,0.0,0.0,0.0,0.0,0.0,0.0,0.0,0.0,0.0,0.0,0.0,805.8608,799.011,805.8608,813.91943,1158.8279,-0.0146484375,0.02081298828125,0.9959716796875,2.7813720703125,-3.895416259765625,0.91217041015625,0.0,4.0,4.0,4.0,4.0,75.0,event
13:44:21.592,0.0,0.0,0.0,0.0,0.0,0.0,0.0,0.0,0.0,0.0,0.0,0.0,0.0,0.0,0.0,0.0,0.0,0.0,0.0,0.0,817.1429,793.36993,807.47253,810.696,882.01465,-0.0146484375,0.02081298828125,0.9959716796875,2.7813720703125,-3.895416259765625,0.91217041015625,0.0,4.0,4.0,4.0,4.0,75.0,event
13:44:21.593,0.0,0.0,0.0,0.0,0.0,0.0,0.0,0.0,0.0,0.0,0.0,0.0,0.0,0.0,0.0,0.0,0.0,0.0,0.0,0.0,805.05493,801.4286,781.685,789.7436,629.3773,-0.0146484375,0.02081298828125,0.9959716796875,2.7813720703125,-3.895416259765625,0.91217041015625,0.0,4.0,4.0,4.0,4.0,75.0,event
13:44:21.593,0.0,0.0,0.0,0.0,0.0,0.0,0.0,0.0,0.0,0.0,0.0,0.0,0.0,0.0,0.0,0.0,0.0,0.0,0.0,0.0,802.6374,844.1392,782.0879,792.96704,755.4945,-0.0146484375,0.02081298828125,0.9959716796875,2.7813720703125,-3.895416259765625,0.91217041015625,0.0,4.0,4.0,4.0,4.0,75.0,event
13:44:21.594,0.0,0.0,0.0,0.0,0.0,0.0,0.0,0.0,0.0,0.0,0.0,0.0,0.0,0.0,0.0,0.0,0.0,0.0,0.0,0.0,805.4579,847.76556,786.9231,806.26373,750.2564,-0.0146484375,0.02081298828125,0.9959716796875,2.7813720703125,-3.895416259765625,0.91217041015625,0.0,4.0,4.0,4.0,4.0,75.0,event
13:44:21.644,0.0,0.0,0.0,0.0,0.0,0.0,0.0,0.0,0.0,0.0,0.0,0.0,0.0,0.0,0.0,0.0,0.0,0.0,0.0,0.0,784.90845,842.9304,786.1172,786.52014,652.74725,-0.0177001953125,0.0155029296875,0.986572265625,2.145843505859375,-3.4991455078125,0.37384033203125,0.0,4.0,4.0,4.0,4.0,75.0,event
13:44:21.646,0.0,0.0,0.0,0.0,0.0,0.0,0.0,0.0,0.0,0.0,0.0,0.0,0.0,0.0,0.0,0.0,0.0,0.0,0.0,0.0,777.6557,846.1539,821.5751,775.64105,649.5238,-0.0177001953125,0.0155029296875,0.986572265625,2.145843505859375,-3.4991455078125,0.37384033203125,0.0,4.0,4.0,4.0,4.0,75.0,event
13:44:21.647,0.0,0.0,0.0,0.0,0.0,0.0,0.0,0.0,0.0,0.0,0.0,0.0,0.0,0.0,0.0,0.0,0.0,0.0,0.0,0.0,798.60803,805.4579,846.9597,793.7729,720.4396,-0.0177001953125,0.0155029296875,0.986572265625,2.145843505859375,-3.4991455078125,0.37384033203125,0.0,4.0,4.0,4.0,4.0,75.0,event
13:44:21.649,0.0,0.0,0.0,0.0,0.0,0.0,0.0,0.0,0.0,0.0,0.0,0.0,0.0,0.0,0.0,0.0,0.0,0.0,0.0,0.0,821.5751,807.0696,838.9011,825.6044,761.13556,-0.0177001953125,0.0155029296875,0.986572265625,2.145843505859375,-3.4991455078125,0.37384033203125,0.0,4.0,4.0,4.0,4.0,75.0,event
13:44:21.650,0.0,0.0,0.0,0.0,0.0,0.0,0.0,0.0,0.0,0.0,0.0,0.0,0.0,0.0,0.0,0.0,0.0,0.0,0.0,0.0,819.9634,815.12823,787.326,834.4689,779.67035,-0.0177001953125,0.0155029296875,0.986572265625,2.145843505859375,-3.4991455078125,0.37384033203125,0.0,4.0,4.0,4.0,4.0,75.0,event
13:44:21.652,0.0,0.0,0.0,0.0,0.0,0.0,0.0,0.0,0.0,0.0,0.0,0.0,0.0,0.0,0.0,0.0,0.0,0.0,0.0,0.0,811.0989,809.89014,779.67035,820.7692,829.2308,-0.0177001953125,0.0155029296875,0.986572265625,2.145843505859375,-3.4991455078125,0.37384033203125,0.0,4.0,4.0,4.0,4.0,75.0,event
13:44:21.653,0.0,0.0,0.0,0.0,0.0,0.0,0.0,0.0,0.0,0.0,0.0,0.0,0.0,0.0,0.0,0.0,0.0,0.0,0.0,0.0,795.38464,830.0366,790.9524,796.1905,1006.1172,-0.0177001953125,0.0155029296875,0.986572265625,2.145843505859375,-3.4991455078125,0.37384033203125,0.0,4.0,4.0,4.0,4.0,75.0,event
13:44:21.654,0.0,0.0,0.0,0.0,0.0,0.0,0.0,0.0,0.0,0.0,0.0,0.0,0.0,0.0,0.0,0.0,0.0,0.0,0.0,0.0,779.2674,819.5604,798.20514,772.01465,976.7033,-0.0177001953125,0.0155029296875,0.986572265625,2.145843505859375,-3.4991455078125,0.37384033203125,0.0,4.0,4.0,4.0,4.0,75.0,event
13:44:21.655,0.0,0.0,0.0,0.0,0.0,0.0,0.0,0.0,0.0,0.0,0.0,0.0,0.0,0.0,0.0,0.0,0.0,0.0,0.0,0.0,785.7143,818.3516,819.15753,786.52014,733.73627,-0.0177001953125,0.0155029296875,0.986572265625,2.145843505859375,-3.4991455078125,0.37384033203125,0.0,4.0,4.0,4.0,4.0,75.0,event
13:44:21.656,0.0,0.0,0.0,0.0,0.0,0.0,0.0,0.0,0.0,0.0,0.0,0.0,0.0,0.0,0.0,0.0,0.0,0.0,0.0,0.0,795.38464,802.6374,826.8132,807.0696,841.7216,-0.0177001953125,0.0155029296875,0.986572265625,2.145843505859375,-3.4991455078125,0.37384033203125,0.0,4.0,4.0,4.0,4.0,75.0,event
13:44:21.657,0.0,0.0,0.0,0.0,0.0,0.0,0.0,0.0,0.0,0.0,0.0,0.0,0.0,0.0,0.0,0.0,0.0,0.0,0.0,0.0,790.14655,789.7436,806.6667,794.17584,964.21246,-0.0177001953125,0.0155029296875,0.986572265625,2.145843505859375,-3.4991455078125,0.37384033203125,0.0,4.0,4.0,4.0,4.0,75.0,event
13:44:21.657,0.0,0.0,0.0,0.0,0.0,0.0,0.0,0.0,0.0,0.0,0.0,0.0,0.0,0.0,0.0,0.0,0.0,0.0,0.0,0.0,792.5641,830.4396,788.1319,788.1319,844.94507,-0.0177001953125,0.0155029296875,0.986572265625,2.145843505859375,-3.4991455078125,0.37384033203125,0.0,4.0,4.0,4.0,4.0,75.0,event
13:44:21.690,0.0,0.0,0.0,0.0,0.0,0.0,0.0,0.0,0.0,0.0,0.0,0.0,0.0,0.0,0.0,0.0,0.0,0.0,0.0,0.0,788.1319,813.91943,776.8498,779.2674,666.4469,-0.0118408203125,0.0198974609375,0.9879150390625,2.026214599609375,-3.69354248046875,0.142059326171875,0.0,4.0,4.0,4.0,4.0,75.0,event
13:44:21.691,0.0,0.0,0.0,0.0,0.0,0.0,0.0,0.0,0.0,0.0,0.0,0.0,0.0,0.0,0.0,0.0,0.0,0.0,0.0,0.0,793.36993,800.2198,778.86444,782.8938,737.76556,-0.0118408203125,0.0198974609375,0.9879150390625,2.026214599609375,-3.69354248046875,0.142059326171875,0.0,4.0,4.0,4.0,4.0,75.0,event
13:44:21.691,0.0,0.0,0.0,0.0,0.0,0.0,0.0,0.0,0.0,0.0,0.0,0.0,0.0,0.0,0.0,0.0,0.0,0.0,0.0,0.0,806.26373,843.3333,813.1135,800.6227,809.89014,-0.0118408203125,0.0198974609375,0.9879150390625,2.026214599609375,-3.69354248046875,0.142059326171875,0.0,4.0,4.0,4.0,4.0,75.0,event
13:44:21.692,0.0,0.0,0.0,0.0,0.0,0.0,0.0,0.0,0.0,0.0,0.0,0.0,0.0,0.0,0.0,0.0,0.0,0.0,0.0,0.0,791.75824,804.65204,796.5934,786.52014,667.6557,-0.0118408203125,0.0198974609375,0.9879150390625,2.026214599609375,-3.69354248046875,0.142059326171875,0.0,4.0,4.0,4.0,4.0,75.0,event
13:44:21.692,0.0,0.0,0.0,0.0,0.0,0.0,0.0,0.0,0.0,0.0,0.0,0.0,0.0,0.0,0.0,0.0,0.0,0.0,0.0,0.0,787.326,824.3956,823.1868,786.52014,707.9487,-0.0118408203125,0.0198974609375,0.9879150390625,2.026214599609375,-3.69354248046875,0.142059326171875,0.0,4.0,4.0,4.0,4.0,75.0,event
13:44:21.693,0.0,0.0,0.0,0.0,0.0,0.0,0.0,0.0,0.0,0.0,0.0,0.0,0.0,0.0,0.0,0.0,0.0,0.0,0.0,0.0,799.011,795.38464,805.8608,789.7436,841.7216,-0.0118408203125,0.0198974609375,0.9879150390625,2.026214599609375,-3.69354248046875,0.142059326171875,0.0,4.0,4.0,4.0,4.0,75.0,event
13:44:21.694,0.0,0.0,0.0,0.0,0.0,0.0,0.0,0.0,0.0,0.0,0.0,0.0,0.0,0.0,0.0,0.0,0.0,0.0,0.0,0.0,821.5751,843.73627,792.96704,821.5751,882.8205,-0.0118408203125,0.0198974609375,0.9879150390625,2.026214599609375,-3.69354248046875,0.142059326171875,0.0,4.0,4.0,4.0,4.0,75.0,event
13:44:21.694,0.0,0.0,0.0,0.0,0.0,0.0,0.0,0.0,0.0,0.0,0.0,0.0,0.0,0.0,0.0,0.0,0.0,0.0,0.0,0.0,816.7399,827.2161,814.7253,808.68134,1066.1538,-0.0118408203125,0.0198974609375,0.9879150390625,2.026214599609375,-3.69354248046875,0.142059326171875,0.0,4.0,4.0,4.0,4.0,75.0,event
13:44:21.695,0.0,0.0,0.0,0.0,0.0,0.0,0.0,0.0,0.0,0.0,0.0,0.0,0.0,0.0,0.0,0.0,0.0,0.0,0.0,0.0,801.4286,810.696,797.3993,807.47253,705.9341,-0.0118408203125,0.0198974609375,0.9879150390625,2.026214599609375,-3.69354248046875,0.142059326171875,0.0,4.0,4.0,4.0,4.0,75.0,event
13:44:21.696,0.0,0.0,0.0,0.0,0.0,0.0,0.0,0.0,0.0,0.0,0.0,0.0,0.0,0.0,0.0,0.0,0.0,0.0,0.0,0.0,798.20514,831.2454,795.78754,802.23444,778.46155,-0.0118408203125,0.0198974609375,0.9879150390625,2.026214599609375,-3.69354248046875,0.142059326171875,0.0,4.0,4.0,4.0,4.0,75.0,event
13:44:21.696,0.0,0.0,0.0,0.0,0.0,0.0,0.0,0.0,0.0,0.0,0.0,0.0,0.0,0.0,0.0,0.0,0.0,0.0,0.0,0.0,795.78754,845.7509,812.71063,800.6227,781.28204,-0.0118408203125,0.0198974609375,0.9879150390625,2.026214599609375,-3.69354248046875,0.142059326171875,0.0,4.0,4.0,4.0,4.0,75.0,event
13:44:21.697,0.0,0.0,0.0,0.0,0.0,0.0,0.0,0.0,0.0,0.0,0.0,0.0,0.0,0.0,0.0,0.0,0.0,0.0,0.0,0.0,797.8022,774.83514,844.1392,796.99634,736.9597,-0.0118408203125,0.0198974609375,0.9879150390625,2.026214599609375,-3.69354248046875,0.142059326171875,0.0,4.0,4.0,4.0,4.0,75.0,event
13:44:21.743,0.0,0.0,0.0,0.0,0.0,0.0,0.0,0.0,0.0,0.0,0.0,0.0,0.0,0.0,0.0,0.0,0.0,0.0,0.0,0.0,798.60803,765.56775,819.15753,809.0842,784.5055,-0.0159912109375,0.0172119140625,0.98699951171875,2.31781005859375,-3.648681640625,0.755157470703125,0.0,4.0,4.0,4.0,4.0,75.0,event
13:44:21.744,0.0,0.0,0.0,0.0,0.0,0.0,0.0,0.0,0.0,0.0,0.0,0.0,0.0,0.0,0.0,0.0,0.0,0.0,0.0,0.0,784.90845,830.4396,763.95605,802.6374,857.03296,-0.0159912109375,0.0172119140625,0.98699951171875,2.31781005859375,-3.648681640625,0.755157470703125,0.0,4.0,4.0,4.0,4.0,75.0,event
13:44:21.748,0.0,0.0,0.0,0.0,0.0,0.0,0.0,0.0,0.0,0.0,0.0,0.0,0.0,0.0,0.0,0.0,0.0,0.0,0.0,0.0,762.74725,807.47253,787.72894,778.46155,832.0513,-0.0159912109375,0.0172119140625,0.98699951171875,2.31781005859375,-3.648681640625,0.755157470703125,0.0,4.0,4.0,4.0,4.0,75.0,event
13:44:21.749,0.0,0.0,0.0,0.0,0.0,0.0,0.0,0.0,0.0,0.0,0.0,0.0,0.0,0.0,0.0,0.0,0.0,0.0,0.0,0.0,778.0586,777.6557,837.28937,781.685,684.17584,-0.0159912109375,0.0172119140625,0.98699951171875,2.31781005859375,-3.648681640625,0.755157470703125,0.0,4.0,4.0,4.0,4.0,75.0,event
13:44:21.750,0.0,0.0,0.0,0.0,0.0,0.0,0.0,0.0,0.0,0.0,0.0,0.0,0.0,0.0,0.0,0.0,0.0,0.0,0.0,0.0,809.4872,813.91943,817.9487,798.20514,678.93774,-0.0159912109375,0.0172119140625,0.98699951171875,2.31781005859375,-3.648681640625,0.755157470703125,0.0,4.0,4.0,4.0,4.0,75.0,event
13:44:21.751,0.0,0.0,0.0,0.0,0.0,0.0,0.0,0.0,0.0,0.0,0.0,0.0,0.0,0.0,0.0,0.0,0.0,0.0,0.0,0.0,823.1868,864.68866,767.5824,827.2161,822.381,-0.0159912109375,0.0172119140625,0.98699951171875,2.31781005859375,-3.648681640625,0.755157470703125,0.0,4.0,4.0,4.0,4.0,75.0,event
13:44:21.752,0.0,0.0,0.0,0.0,0.0,0.0,0.0,0.0,0.0,0.0,0.0,0.0,0.0,0.0,0.0,0.0,0.0,0.0,0.0,0.0,814.7253,825.2015,770.80585,834.87177,945.2747,-0.0159912109375,0.0172119140625,0.98699951171875,2.31781005859375,-3.648681640625,0.755157470703125,0.0,4.0,4.0,4.0,4.0,75.0,event
13:44:21.753,0.0,0.0,0.0,0.0,0.0,0.0,0.0,0.0,0.0,0.0,0.0,0.0,0.0,0.0,0.0,0.0,0.0,0.0,0.0,0.0,812.3077,818.7546,813.1135,798.20514,612.0513,-0.0159912109375,0.0172119140625,0.98699951171875,2.31781005859375,-3.648681640625,0.755157470703125,0.0,4.0,4.0,4.0,4.0,75.0,event
13:44:21.753,0.0,0.0,0.0,0.0,0.0,0.0,0.0,0.0,0.0,0.0,0.0,0.0,0.0,0.0,0.0,0.0,0.0,0.0,0.0,0.0,794.17584,775.2381,802.23444,794.17584,787.326,-0.0159912109375,0.0172119140625,0.98699951171875,2.31781005859375,-3.648681640625,0.755157470703125,0.0,4.0,4.0,4.0,4.0,75.0,event
13:44:21.754,0.0,0.0,0.0,0.0,0.0,0.0,0.0,0.0,0.0,0.0,0.0,0.0,0.0,0.0,0.0,0.0,0.0,0.0,0.0,0.0,819.15753,779.67035,804.65204,815.12823,852.1978,-0.0159912109375,0.0172119140625,0.98699951171875,2.31781005859375,-3.648681640625,0.755157470703125,0.0,4.0,4.0,4.0,4.0,75.0,event
13:44:21.755,0.0,0.0,0.0,0.0,0.0,0.0,0.0,0.0,0.0,0.0,0.0,0.0,0.0,0.0,0.0,0.0,0.0,0.0,0.0,0.0,801.02563,746.2271,820.3663,799.81683,924.3223,-0.0159912109375,0.0172119140625,0.98699951171875,2.31781005859375,-3.648681640625,0.755157470703125,0.0,4.0,4.0,4.0,4.0,75.0,event
13:44:21.755,0.0,0.0,0.0,0.0,0.0,0.0,0.0,0.0,0.0,0.0,0.0,0.0,0.0,0.0,0.0,0.0,0.0,0.0,0.0,0.0,791.3553,811.9048,820.7692,792.96704,742.1978,-0.0159912109375,0.0172119140625,0.98699951171875,2.31781005859375,-3.648681640625,0.755157470703125,0.0,4.0,4.0,4.0,4.0,75.0,event
13:44:21.790,0.0,0.0,0.0,0.0,0.0,0.0,0.0,0.0,0.0,0.0,0.0,0.0,0.0,0.0,0.0,0.0,0.0,0.0,0.0,0.0,791.75824,841.31866,795.38464,801.4286,727.6923,-0.0159912109375,0.0172119140625,0.98699951171875,2.31781005859375,-3.648681640625,0.755157470703125,0.0,4.0,4.0,4.0,4.0,75.0,event
13:44:21.791,0.0,0.0,0.0,0.0,0.0,0.0,0.0,0.0,0.0,0.0,0.0,0.0,0.0,0.0,0.0,0.0,0.0,0.0,0.0,0.0,813.1135,861.8681,801.8315,818.3516,739.7802,-0.0159912109375,0.0172119140625,0.98699951171875,2.31781005859375,-3.648681640625,0.755157470703125,0.0,4.0,4.0,4.0,4.0,75.0,event
13:44:21.792,0.0,0.0,0.0,0.0,0.0,0.0,0.0,0.0,0.0,0.0,0.0,0.0,0.0,0.0,0.0,0.0,0.0,0.0,0.0,0.0,809.4872,840.10986,809.89014,804.2491,751.8681,-0.0159912109375,0.0172119140625,0.98699951171875,2.31781005859375,-3.648681640625,0.755157470703125,0.0,4.0,4.0,4.0,4.0,75.0,event
13:44:21.792,0.0,0.0,0.0,0.0,0.0,0.0,0.0,0.0,0.0,0.0,0.0,0.0,0.0,0.0,0.0,0.0,0.0,0.0,0.0,0.0,797.3993,822.7839,788.1319,801.02563,861.8681,-0.0159912109375,0.0172119140625,0.98699951171875,2.31781005859375,-3.648681640625,0.755157470703125,0.0,4.0,4.0,4.0,4.0,75.0,event
13:44:21.793,0.0,0.0,0.0,0.0,0.0,0.0,0.0,0.0,0.0,0.0,0.0,0.0,0.0,0.0,0.0,0.0,0.0,0.0,0.0,0.0,792.5641,780.4762,786.9231,805.8608,948.0952,-0.0159912109375,0.0172119140625,0.98699951171875,2.31781005859375,-3.648681640625,0.755157470703125,0.0,4.0,4.0,4.0,4.0,75.0,event
13:44:21.793,0.0,0.0,0.0,0.0,0.0,0.0,0.0,0.0,0.0,0.0,0.0,0.0,0.0,0.0,0.0,0.0,0.0,0.0,0.0,0.0,773.6264,741.79486,815.9341,785.31134,1091.1355,-0.0159912109375,0.0172119140625,0.98699951171875,2.31781005859375,-3.648681640625,0.755157470703125,0.0,4.0,4.0,4.0,4.0,75.0,event
13:44:21.794,0.0,0.0,0.0,0.0,0.0,0.0,0.0,0.0,0.0,0.0,0.0,0.0,0.0,0.0,0.0,0.0,0.0,0.0,0.0,0.0,787.72894,807.0696,819.5604,783.69965,1021.8315,-0.0159912109375,0.0172119140625,0.98699951171875,2.31781005859375,-3.648681640625,0.755157470703125,0.0,4.0,4.0,4.0,4.0,75.0,event
13:44:21.795,0.0,0.0,0.0,0.0,0.0,0.0,0.0,0.0,0.0,0.0,0.0,0.0,0.0,0.0,0.0,0.0,0.0,0.0,0.0,0.0,797.3993,835.6777,809.4872,794.57874,818.7546,-0.0159912109375,0.0172119140625,0.98699951171875,2.31781005859375,-3.648681640625,0.755157470703125,0.0,4.0,4.0,4.0,4.0,75.0,event
13:44:21.795,0.0,0.0,0.0,0.0,0.0,0.0,0.0,0.0,0.0,0.0,0.0,0.0,0.0,0.0,0.0,0.0,0.0,0.0,0.0,0.0,810.293,855.82416,818.7546,799.81683,732.1245,-0.0159912109375,0.0172119140625,0.98699951171875,2.31781005859375,-3.648681640625,0.755157470703125,0.0,4.0,4.0,4.0,4.0,75.0,event
13:44:21.796,0.0,0.0,0.0,0.0,0.0,0.0,0.0,0.0,0.0,0.0,0.0,0.0,0.0,0.0,0.0,0.0,0.0,0.0,0.0,0.0,785.31134,812.3077,803.8461,801.02563,952.9304,-0.0159912109375,0.0172119140625,0.98699951171875,2.31781005859375,-3.648681640625,0.755157470703125,0.0,4.0,4.0,4.0,4.0,75.0,event
13:44:21.797,0.0,0.0,0.0,0.0,0.0,0.0,0.0,0.0,0.0,0.0,0.0,0.0,0.0,0.0,0.0,0.0,0.0,0.0,0.0,0.0,799.011,819.5604,805.8608,816.7399,753.8828,-0.0159912109375,0.0172119140625,0.98699951171875,2.31781005859375,-3.648681640625,0.755157470703125,0.0,4.0,4.0,4.0,4.0,75.0,event
13:44:21.797,0.0,0.0,0.0,0.0,0.0,0.0,0.0,0.0,0.0,0.0,0.0,0.0,0.0,0.0,0.0,0.0,0.0,0.0,0.0,0.0,815.9341,816.7399,787.72894,827.2161,681.75824,-0.0159912109375,0.0172119140625,0.98699951171875,2.31781005859375,-3.648681640625,0.755157470703125,0.0,4.0,4.0,4.0,4.0,75.0,event
13:44:21.843,0.0,0.0,0.0,0.0,0.0,0.0,0.0,0.0,0.0,0.0,0.0,0.0,0.0,0.0,0.0,0.0,0.0,0.0,0.0,0.0,806.6667,835.6777,761.53845,807.47253,766.77655,-0.016357421875,0.014892578125,0.984619140625,2.145843505859375,-3.21502685546875,0.34393310546875,0.0,4.0,4.0,4.0,4.0,75.0,event
13:44:21.845,0.0,0.0,0.0,0.0,0.0,0.0,0.0,0.0,0.0,0.0,0.0,0.0,0.0,0.0,0.0,0.0,0.0,0.0,0.0,0.0,807.8755,836.4835,800.6227,802.23444,722.8571,-0.016357421875,0.014892578125,0.984619140625,2.145843505859375,-3.21502685546875,0.34393310546875,0.0,4.0,4.0,4.0,4.0,75.0,event
13:44:21.847,0.0,0.0,0.0,0.0,0.0,0.0,0.0,0.0,0.0,0.0,0.0,0.0,0.0,0.0,0.0,0.0,0.0,0.0,0.0,0.0,838.49817,844.1392,823.1868,840.10986,699.4872,-0.016357421875,0.014892578125,0.984619140625,2.145843505859375,-3.21502685546875,0.34393310546875,0.0,4.0,4.0,4.0,4.0,75.0,event
13:44:21.848,0.0,0.0,0.0,0.0,0.0,0.0,0.0,0.0,0.0,0.0,0.0,0.0,0.0,0.0,0.0,0.0,0.0,0.0,0.0,0.0,827.2161,854.61536,819.9634,830.84247,788.1319,-0.016357421875,0.014892578125,0.984619140625,2.145843505859375,-3.21502685546875,0.34393310546875,0.0,4.0,4.0,4.0,4.0,75.0,event
13:44:21.852,0.0,0.0,0.0,0.0,0.0,0.0,0.0,0.0,0.0,0.0,0.0,0.0,0.0,0.0,0.0,0.0,0.0,0.0,0.0,0.0,793.36993,820.7692,810.696,788.1319,821.978,-0.016357421875,0.014892578125,0.984619140625,2.145843505859375,-3.21502685546875,0.34393310546875,0.0,4.0,4.0,4.0,4.0,75.0,event
13:44:21.853,0.0,0.0,0.0,0.0,0.0,0.0,0.0,0.0,0.0,0.0,0.0,0.0,0.0,0.0,0.0,0.0,0.0,0.0,0.0,0.0,796.1905,813.91943,782.49084,785.7143,905.78754,-0.016357421875,0.014892578125,0.984619140625,2.145843505859375,-3.21502685546875,0.34393310546875,0.0,4.0,4.0,4.0,4.0,75.0,event
13:44:21.855,0.0,0.0,0.0,0.0,0.0,0.0,0.0,0.0,0.0,0.0,0.0,0.0,0.0,0.0,0.0,0.0,0.0,0.0,0.0,0.0,830.4396,824.3956,809.4872,825.2015,929.15753,-0.016357421875,0.014892578125,0.984619140625,2.145843505859375,-3.21502685546875,0.34393310546875,0.0,4.0,4.0,4.0,4.0,75.0,event
13:44:21.856,0.0,0.0,0.0,0.0,0.0,0.0,0.0,0.0,0.0,0.0,0.0,0.0,0.0,0.0,0.0,0.0,0.0,0.0,0.0,0.0,839.304,789.34064,815.5311,842.52747,809.4872,-0.016357421875,0.014892578125,0.984619140625,2.145843505859375,-3.21502685546875,0.34393310546875,0.0,4.0,4.0,4.0,4.0,75.0,event
13:44:21.857,0.0,0.0,0.0,0.0,0.0,0.0,0.0,0.0,0.0,0.0,0.0,0.0,0.0,0.0,0.0,0.0,0.0,0.0,0.0,0.0,814.7253,792.5641,782.8938,827.619,963.00366,-0.016357421875,0.014892578125,0.984619140625,2.145843505859375,-3.21502685546875,0.34393310546875,0.0,4.0,4.0,4.0,4.0,75.0,event
13:44:21.857,0.0,0.0,0.0,0.0,0.0,0.0,0.0,0.0,0.0,0.0,0.0,0.0,0.0,0.0,0.0,0.0,0.0,0.0,0.0,0.0,786.9231,855.42126,802.23444,797.3993,1038.3517,-0.016357421875,0.014892578125,0.984619140625,2.145843505859375,-3.21502685546875,0.34393310546875,0.0,4.0,4.0,4.0,4.0,75.0,event
13:44:21.858,0.0,0.0,0.0,0.0,0.0,0.0,0.0,0.0,0.0,0.0,0.0,0.0,0.0,0.0,0.0,0.0,0.0,0.0,0.0,0.0,790.9524,883.6264,825.2015,781.685,759.5238,-0.016357421875,0.014892578125,0.984619140625,2.145843505859375,-3.21502685546875,0.34393310546875,0.0,4.0,4.0,4.0,4.0,75.0,event
13:44:21.858,0.0,0.0,0.0,0.0,0.0,0.0,0.0,0.0,0.0,0.0,0.0,0.0,0.0,0.0,0.0,0.0,0.0,0.0,0.0,0.0,799.81683,847.76556,811.0989,787.326,719.2308,-0.016357421875,0.014892578125,0.984619140625,2.145843505859375,-3.21502685546875,0.34393310546875,0.0,4.0,4.0,4.0,4.0,75.0,event
13:44:21.913,0.0,0.0,0.0,0.0,0.0,0.0,0.0,0.0,0.0,0.0,0.0,0.0,0.0,0.0,0.0,0.0,0.0,0.0,0.0,0.0,793.36993,798.20514,801.8315,803.0403,803.44324,-0.0152587890625,0.0157470703125,0.99200439453125,2.370147705078125,-3.72344970703125,0.91217041015625,0.0,4.0,4.0,4.0,4.0,75.0,event
13:44:21.915,0.0,0.0,0.0,0.0,0.0,0.0,0.0,0.0,0.0,0.0,0.0,0.0,0.0,0.0,0.0,0.0,0.0,0.0,0.0,0.0,796.5934,796.5934,788.93774,811.50183,803.8461,-0.0152587890625,0.0157470703125,0.99200439453125,2.370147705078125,-3.72344970703125,0.91217041015625,0.0,4.0,4.0,4.0,4.0,75.0,event
13:44:21.916,0.0,0.0,0.0,0.0,0.0,0.0,0.0,0.0,0.0,0.0,0.0,0.0,0.0,0.0,0.0,0.0,0.0,0.0,0.0,0.0,804.65204,809.0842,783.2967,810.696,729.304,-0.0152587890625,0.0157470703125,0.99200439453125,2.370147705078125,-3.72344970703125,0.91217041015625,0.0,4.0,4.0,4.0,4.0,75.0,event
13:44:21.918,0.0,0.0,0.0,0.0,0.0,0.0,0.0,0.0,0.0,0.0,0.0,0.0,0.0,0.0,0.0,0.0,0.0,0.0,0.0,0.0,811.50183,819.5604,813.5165,806.6667,709.5604,-0.0152587890625,0.0157470703125,0.99200439453125,2.370147705078125,-3.72344970703125,0.91217041015625,0.0,4.0,4.0,4.0,4.0,75.0,event
13:44:21.919,0.0,0.0,0.0,0.0,0.0,0.0,0.0,0.0,0.0,0.0,0.0,0.0,0.0,0.0,0.0,0.0,0.0,0.0,0.0,0.0,821.1722,848.5714,843.73627,811.0989,759.12085,-0.0152587890625,0.0157470703125,0.99200439453125,2.370147705078125,-3.72344970703125,0.91217041015625,0.0,4.0,4.0,4.0,4.0,75.0,event
13:44:21.922,0.0,0.0,0.0,0.0,0.0,0.0,0.0,0.0,0.0,0.0,0.0,0.0,0.0,0.0,0.0,0.0,0.0,0.0,0.0,0.0,826.8132,831.6484,814.7253,832.4542,845.7509,-0.0152587890625,0.0157470703125,0.99200439453125,2.370147705078125,-3.72344970703125,0.91217041015625,0.0,4.0,4.0,4.0,4.0,75.0,event
13:44:21.924,0.0,0.0,0.0,0.0,0.0,0.0,0.0,0.0,0.0,0.0,0.0,0.0,0.0,0.0,0.0,0.0,0.0,0.0,0.0,0.0,821.5751,818.3516,766.3736,831.2454,876.3736,-0.0152587890625,0.0157470703125,0.99200439453125,2.370147705078125,-3.72344970703125,0.91217041015625,0.0,4.0,4.0,4.0,4.0,75.0,event
13:44:21.925,0.0,0.0,0.0,0.0,0.0,0.0,0.0,0.0,0.0,0.0,0.0,0.0,0.0,0.0,0.0,0.0,0.0,0.0,0.0,0.0,780.07324,816.337,792.96704,785.31134,908.20514,-0.0152587890625,0.0157470703125,0.99200439453125,2.370147705078125,-3.72344970703125,0.91217041015625,0.0,4.0,4.0,4.0,4.0,75.0,event
13:44:21.927,0.0,0.0,0.0,0.0,0.0,0.0,0.0,0.0,0.0,0.0,0.0,0.0,0.0,0.0,0.0,0.0,0.0,0.0,0.0,0.0,745.0183,815.12823,809.89014,749.0476,1018.60803,-0.0152587890625,0.0157470703125,0.99200439453125,2.370147705078125,-3.72344970703125,0.91217041015625,0.0,4.0,4.0,4.0,4.0,75.0,event
13:44:21.928,0.0,0.0,0.0,0.0,0.0,0.0,0.0,0.0,0.0,0.0,0.0,0.0,0.0,0.0,0.0,0.0,0.0,0.0,0.0,0.0,764.7619,838.49817,801.8315,763.5531,904.57874,-0.0152587890625,0.0157470703125,0.99200439453125,2.370147705078125,-3.72344970703125,0.91217041015625,0.0,4.0,4.0,4.0,4.0,75.0,event
13:44:21.930,0.0,0.0,0.0,0.0,0.0,0.0,0.0,0.0,0.0,0.0,0.0,0.0,0.0,0.0,0.0,0.0,0.0,0.0,0.0,0.0,806.26373,844.1392,813.1135,803.0403,767.1795,-0.0152587890625,0.0157470703125,0.99200439453125,2.370147705078125,-3.72344970703125,0.91217041015625,0.0,4.0,4.0,4.0,4.0,75.0,event
13:44:21.932,0.0,0.0,0.0,0.0,0.0,0.0,0.0,0.0,0.0,0.0,0.0,0.0,0.0,0.0,0.0,0.0,0.0,0.0,0.0,0.0,796.99634,825.6044,792.5641,802.23444,835.2747,-0.0152587890625,0.0157470703125,0.99200439453125,2.370147705078125,-3.72344970703125,0.91217041015625,0.0,4.0,4.0,4.0,4.0,75.0,event
13:44:21.934,0.0,0.0,0.0,0.0,0.0,0.0,0.0,0.0,0.0,0.0,0.0,0.0,0.0,0.0,0.0,0.0,0.0,0.0,0.0,0.0,761.13556,815.9341,780.07324,766.3736,789.7436,-0.0177001953125,0.01959228515625,0.98284912109375,2.093505859375,-3.521575927734375,0.13458251953125,0.0,4.0,4.0,4.0,4.0,75.0,event
13:44:21.935,0.0,0.0,0.0,0.0,0.0,0.0,0.0,0.0,0.0,0.0,0.0,0.0,0.0,0.0,0.0,0.0,0.0,0.0,0.0,0.0,778.46155,825.6044,797.3993,778.0586,633.8095,-0.0177001953125,0.01959228515625,0.98284912109375,2.093505859375,-3.521575927734375,0.13458251953125,0.0,4.0,4.0,4.0,4.0,75.0,event
13:44:21.936,0.0,0.0,0.0,0.0,0.0,0.0,0.0,0.0,0.0,0.0,0.0,0.0,0.0,0.0,0.0,0.0,0.0,0.0,0.0,0.0,818.7546,787.326,797.3993,812.71063,651.53845,-0.0177001953125,0.01959228515625,0.98284912109375,2.093505859375,-3.521575927734375,0.13458251953125,0.0,4.0,4.0,4.0,4.0,75.0,event
13:44:21.937,0.0,0.0,0.0,0.0,0.0,0.0,0.0,0.0,0.0,0.0,0.0,0.0,0.0,0.0,0.0,0.0,0.0,0.0,0.0,0.0,819.9634,784.10254,808.2784,823.5897,742.1978,-0.0177001953125,0.01959228515625,0.98284912109375,2.093505859375,-3.521575927734375,0.13458251953125,0.0,4.0,4.0,4.0,4.0,75.0,event
13:44:21.938,0.0,0.0,0.0,0.0,0.0,0.0,0.0,0.0,0.0,0.0,0.0,0.0,0.0,0.0,0.0,0.0,0.0,0.0,0.0,0.0,791.3553,828.8278,820.7692,801.02563,791.3553,-0.0177001953125,0.01959228515625,0.98284912109375,2.093505859375,-3.521575927734375,0.13458251953125,0.0,4.0,4.0,4.0,4.0,75.0,event
13:44:21.940,0.0,0.0,0.0,0.0,0.0,0.0,0.0,0.0,0.0,0.0,0.0,0.0,0.0,0.0,0.0,0.0,0.0,0.0,0.0,0.0,781.28204,828.8278,809.0842,788.5348,831.2454,-0.0177001953125,0.01959228515625,0.98284912109375,2.093505859375,-3.521575927734375,0.13458251953125,0.0,4.0,4.0,4.0,4.0,75.0,event
13:44:21.943,0.0,0.0,0.0,0.0,0.0,0.0,0.0,0.0,0.0,0.0,0.0,0.0,0.0,0.0,0.0,0.0,0.0,0.0,0.0,0.0,784.5055,815.5311,800.6227,789.34064,828.4249,-0.0177001953125,0.01959228515625,0.98284912109375,2.093505859375,-3.521575927734375,0.13458251953125,0.0,4.0,4.0,4.0,4.0,75.0,event
13:44:21.944,0.0,0.0,0.0,0.0,0.0,0.0,0.0,0.0,0.0,0.0,0.0,0.0,0.0,0.0,0.0,0.0,0.0,0.0,0.0,0.0,815.5311,799.41394,801.8315,812.3077,919.4872,-0.0177001953125,0.01959228515625,0.98284912109375,2.093505859375,-3.521575927734375,0.13458251953125,0.0,4.0,4.0,4.0,4.0,75.0,event
13:44:21.944,0.0,0.0,0.0,0.0,0.0,0.0,0.0,0.0,0.0,0.0,0.0,0.0,0.0,0.0,0.0,0.0,0.0,0.0,0.0,0.0,814.7253,791.3553,801.4286,817.9487,932.7839,-0.0177001953125,0.01959228515625,0.98284912109375,2.093505859375,-3.521575927734375,0.13458251953125,0.0,4.0,4.0,4.0,4.0,75.0,event
13:44:21.945,0.0,0.0,0.0,0.0,0.0,0.0,0.0,0.0,0.0,0.0,0.0,0.0,0.0,0.0,0.0,0.0,0.0,0.0,0.0,0.0,784.10254,808.2784,794.9817,790.14655,727.28937,-0.0177001953125,0.01959228515625,0.98284912109375,2.093505859375,-3.521575927734375,0.13458251953125,0.0,4.0,4.0,4.0,4.0,75.0,event
13:44:21.945,0.0,0.0,0.0,0.0,0.0,0.0,0.0,0.0,0.0,0.0,0.0,0.0,0.0,0.0,0.0,0.0,0.0,0.0,0.0,0.0,775.64105,800.6227,777.25275,788.1319,747.4359,-0.0177001953125,0.01959228515625,0.98284912109375,2.093505859375,-3.521575927734375,0.13458251953125,0.0,4.0,4.0,4.0,4.0,75.0,event
13:44:21.946,0.0,0.0,0.0,0.0,0.0,0.0,0.0,0.0,0.0,0.0,0.0,0.0,0.0,0.0,0.0,0.0,0.0,0.0,0.0,0.0,796.1905,819.9634,828.8278,799.81683,734.94507,-0.0177001953125,0.01959228515625,0.98284912109375,2.093505859375,-3.521575927734375,0.13458251953125,0.0,4.0,4.0,4.0,4.0,75.0,event
13:44:21.993,0.0,0.0,0.0,0.0,0.0,0.0,0.0,0.0,0.0,0.0,0.0,0.0,0.0,0.0,0.0,0.0,0.0,0.0,0.0,0.0,795.38464,828.4249,799.81683,799.011,765.16486,-0.011962890625,0.02044677734375,0.9884033203125,2.07855224609375,-3.7982177734375,0.276641845703125,0.0,4.0,4.0,4.0,4.0,75.0,event
13:44:21.994,0.0,0.0,0.0,0.0,0.0,0.0,0.0,0.0,0.0,0.0,0.0,0.0,0.0,0.0,0.0,0.0,0.0,0.0,0.0,0.0,798.60803,794.57874,778.0586,803.0403,749.0476,-0.011962890625,0.02044677734375,0.9884033203125,2.07855224609375,-3.7982177734375,0.276641845703125,0.0,4.0,4.0,4.0,4.0,75.0,event
13:44:21.995,0.0,0.0,0.0,0.0,0.0,0.0,0.0,0.0,0.0,0.0,0.0,0.0,0.0,0.0,0.0,0.0,0.0,0.0,0.0,0.0,803.8461,760.7326,815.12823,813.5165,803.44324,-0.011962890625,0.02044677734375,0.9884033203125,2.07855224609375,-3.7982177734375,0.276641845703125,0.0,4.0,4.0,4.0,4.0,75.0,event
13:44:21.997,0.0,0.0,0.0,0.0,0.0,0.0,0.0,0.0,0.0,0.0,0.0,0.0,0.0,0.0,0.0,0.0,0.0,0.0,0.0,0.0,798.60803,791.75824,846.1539,807.8755,915.05493,-0.011962890625,0.02044677734375,0.9884033203125,2.07855224609375,-3.7982177734375,0.276641845703125,0.0,4.0,4.0,4.0,4.0,75.0,event
13:44:21.998,0.0,0.0,0.0,0.0,0.0,0.0,0.0,0.0,0.0,0.0,0.0,0.0,0.0,0.0,0.0,0.0,0.0,0.0,0.0,0.0,792.5641,812.71063,826.0073,794.57874,757.50916,-0.011962890625,0.02044677734375,0.9884033203125,2.07855224609375,-3.7982177734375,0.276641845703125,0.0,4.0,4.0,4.0,4.0,75.0,event
13:44:21.999,0.0,0.0,0.0,0.0,0.0,0.0,0.0,0.0,0.0,0.0,0.0,0.0,0.0,0.0,0.0,0.0,0.0,0.0,0.0,0.0,798.60803,793.36993,790.54944,790.54944,727.28937,-0.011962890625,0.02044677734375,0.9884033203125,2.07855224609375,-3.7982177734375,0.276641845703125,0.0,4.0,4.0,4.0,4.0,75.0,event
13:44:22.000,0.0,0.0,0.0,0.0,0.0,0.0,0.0,0.0,0.0,0.0,0.0,0.0,0.0,0.0,0.0,0.0,0.0,0.0,0.0,0.0,838.49817,831.6484,803.44324,839.304,851.39197,-0.011962890625,0.02044677734375,0.9884033203125,2.07855224609375,-3.7982177734375,0.276641845703125,0.0,4.0,4.0,4.0,4.0,75.0,event
13:44:22.000,0.0,0.0,0.0,0.0,0.0,0.0,0.0,0.0,0.0,0.0,0.0,0.0,0.0,0.0,0.0,0.0,0.0,0.0,0.0,0.0,821.978,824.7985,780.87915,836.08057,969.85345,-0.011962890625,0.02044677734375,0.9884033203125,2.07855224609375,-3.7982177734375,0.276641845703125,0.0,4.0,4.0,4.0,4.0,75.0,event
13:44:22.001,0.0,0.0,0.0,0.0,0.0,0.0,0.0,0.0,0.0,0.0,0.0,0.0,0.0,0.0,0.0,0.0,0.0,0.0,0.0,0.0,763.95605,805.4579,778.0586,768.7912,824.3956,-0.011962890625,0.02044677734375,0.9884033203125,2.07855224609375,-3.7982177734375,0.276641845703125,0.0,4.0,4.0,4.0,4.0,75.0,event
13:44:22.002,0.0,0.0,0.0,0.0,0.0,0.0,0.0,0.0,0.0,0.0,0.0,0.0,0.0,0.0,0.0,0.0,0.0,0.0,0.0,0.0,786.52014,791.3553,759.5238,786.1172,731.31866,-0.011962890625,0.02044677734375,0.9884033203125,2.07855224609375,-3.7982177734375,0.276641845703125,0.0,4.0,4.0,4.0,4.0,75.0,event
13:44:22.002,0.0,0.0,0.0,0.0,0.0,0.0,0.0,0.0,0.0,0.0,0.0,0.0,0.0,0.0,0.0,0.0,0.0,0.0,0.0,0.0,763.1502,819.9634,793.7729,760.7326,667.25275,-0.011962890625,0.02044677734375,0.9884033203125,2.07855224609375,-3.7982177734375,0.276641845703125,0.0,4.0,4.0,4.0,4.0,75.0,event
13:44:22.003,0.0,0.0,0.0,0.0,0.0,0.0,0.0,0.0,0.0,0.0,0.0,0.0,0.0,0.0,0.0,0.0,0.0,0.0,0.0,0.0,815.5311,794.57874,810.293,813.91943,746.2271,-0.011962890625,0.02044677734375,0.9884033203125,2.07855224609375,-3.7982177734375,0.276641845703125,0.0,4.0,4.0,4.0,4.0,75.0,event
13:44:22.024,0.0,0.0,0.0,0.0,0.0,0.0,0.0,0.0,0.0,0.0,0.0,0.0,0.0,0.0,0.0,0.0,0.0,0.0,0.0,0.0,823.1868,826.0073,877.5824,825.2015,691.4286,-0.011962890625,0.02044677734375,0.9884033203125,2.07855224609375,-3.7982177734375,0.276641845703125,0.0,4.0,4.0,4.0,4.0,75.0,event
13:44:22.025,0.0,0.0,0.0,0.0,0.0,0.0,0.0,0.0,0.0,0.0,0.0,0.0,0.0,0.0,0.0,0.0,0.0,0.0,0.0,0.0,801.4286,842.52747,833.663,814.3223,709.15753,-0.011962890625,0.02044677734375,0.9884033203125,2.07855224609375,-3.7982177734375,0.276641845703125,0.0,4.0,4.0,4.0,4.0,75.0,event
13:44:22.026,0.0,0.0,0.0,0.0,0.0,0.0,0.0,0.0,0.0,0.0,0.0,0.0,0.0,0.0,0.0,0.0,0.0,0.0,0.0,0.0,805.8608,844.1392,793.36993,814.7253,687.3993,-0.011962890625,0.02044677734375,0.9884033203125,2.07855224609375,-3.7982177734375,0.276641845703125,0.0,4.0,4.0,4.0,4.0,75.0,event
13:44:22.027,0.0,0.0,0.0,0.0,0.0,0.0,0.0,0.0,0.0,0.0,0.0,0.0,0.0,0.0,0.0,0.0,0.0,0.0,0.0,0.0,811.0989,827.2161,764.7619,801.8315,692.6374,-0.011962890625,0.02044677734375,0.9884033203125,2.07855224609375,-3.7982177734375,0.276641845703125,0.0,4.0,4.0,4.0,4.0,75.0,event
13:44:22.027,0.0,0.0,0.0,0.0,0.0,0.0,0.0,0.0,0.0,0.0,0.0,0.0,0.0,0.0,0.0,0.0,0.0,0.0,0.0,0.0,793.7729,820.7692,749.85345,782.8938,761.53845,-0.011962890625,0.02044677734375,0.9884033203125,2.07855224609375,-3.7982177734375,0.276641845703125,0.0,4.0,4.0,4.0,4.0,75.0,event
13:44:22.028,0.0,0.0,0.0,0.0,0.0,0.0,0.0,0.0,0.0,0.0,0.0,0.0,0.0,0.0,0.0,0.0,0.0,0.0,0.0,0.0,795.78754,797.8022,771.6117,795.78754,815.12823,-0.011962890625,0.02044677734375,0.9884033203125,2.07855224609375,-3.7982177734375,0.276641845703125,0.0,4.0,4.0,4.0,4.0,75.0,event
13:44:22.028,0.0,0.0,0.0,0.0,0.0,0.0,0.0,0.0,0.0,0.0,0.0,0.0,0.0,0.0,0.0,0.0,0.0,0.0,0.0,0.0,823.1868,774.0293,813.5165,829.2308,1014.9817,-0.011962890625,0.02044677734375,0.9884033203125,2.07855224609375,-3.7982177734375,0.276641845703125,0.0,4.0,4.0,4.0,4.0,75.0,event
13:44:22.029,0.0,0.0,0.0,0.0,0.0,0.0,0.0,0.0,0.0,0.0,0.0,0.0,0.0,0.0,0.0,0.0,0.0,0.0,0.0,0.0,838.9011,828.8278,844.94507,837.28937,1107.2528,-0.011962890625,0.02044677734375,0.9884033203125,2.07855224609375,-3.7982177734375,0.276641845703125,0.0,4.0,4.0,4.0,4.0,75.0,event
13:44:22.032,0.0,0.0,0.0,0.0,0.0,0.0,0.0,0.0,0.0,0.0,0.0,0.0,0.0,0.0,0.0,0.0,0.0,0.0,0.0,0.0,797.3993,876.3736,842.9304,794.17584,829.2308,-0.011962890625,0.02044677734375,0.9884033203125,2.07855224609375,-3.7982177734375,0.276641845703125,0.0,4.0,4.0,4.0,4.0,75.0,event
13:44:22.033,0.0,0.0,0.0,0.0,0.0,0.0,0.0,0.0,0.0,0.0,0.0,0.0,0.0,0.0,0.0,0.0,0.0,0.0,0.0,0.0,774.43225,866.30035,811.9048,783.2967,768.7912,-0.011962890625,0.02044677734375,0.9884033203125,2.07855224609375,-3.7982177734375,0.276641845703125,0.0,4.0,4.0,4.0,4.0,75.0,event
13:44:22.034,0.0,0.0,0.0,0.0,0.0,0.0,0.0,0.0,0.0,0.0,0.0,0.0,0.0,0.0,0.0,0.0,0.0,0.0,0.0,0.0,807.0696,856.63007,807.0696,816.337,733.73627,-0.011962890625,0.02044677734375,0.9884033203125,2.07855224609375,-3.7982177734375,0.276641845703125,0.0,4.0,4.0,4.0,4.0,75.0,event
13:44:22.034,0.0,0.0,0.0,0.0,0.0,0.0,0.0,0.0,0.0,0.0,0.0,0.0,0.0,0.0,0.0,0.0,0.0,0.0,0.0,0.0,810.696,869.12085,802.6374,826.8132,832.8571,-0.011962890625,0.02044677734375,0.9884033203125,2.07855224609375,-3.7982177734375,0.276641845703125,0.0,4.0,4.0,4.0,4.0,75.0,event
13:44:22.035,0.0,0.0,0.0,0.0,0.0,0.0,0.0,0.0,0.0,0.0,0.0,0.0,0.0,0.0,0.0,0.0,0.0,0.0,0.0,0.0,782.8938,827.2161,786.1172,786.1172,676.52014,-0.01446533203125,0.02142333984375,0.9906005859375,2.011260986328125,-3.60382080078125,0.904693603515625,0.0,4.0,4.0,4.0,4.0,75.0,event
13:44:22.036,0.0,0.0,0.0,0.0,0.0,0.0,0.0,0.0,0.0,0.0,0.0,0.0,0.0,0.0,0.0,0.0,0.0,0.0,0.0,0.0,775.2381,813.91943,785.31134,781.28204,736.55676,-0.01446533203125,0.02142333984375,0.9906005859375,2.011260986328125,-3.60382080078125,0.904693603515625,0.0,4.0,4.0,4.0,4.0,75.0,event
13:44:22.037,0.0,0.0,0.0,0.0,0.0,0.0,0.0,0.0,0.0,0.0,0.0,0.0,0.0,0.0,0.0,0.0,0.0,0.0,0.0,0.0,771.6117,791.3553,798.60803,775.2381,763.1502,-0.01446533203125,0.02142333984375,0.9906005859375,2.011260986328125,-3.60382080078125,0.904693603515625,0.0,4.0,4.0,4.0,4.0,75.0,event
13:44:22.037,0.0,0.0,0.0,0.0,0.0,0.0,0.0,0.0,0.0,0.0,0.0,0.0,0.0,0.0,0.0,0.0,0.0,0.0,0.0,0.0,817.5458,810.696,797.3993,819.9634,692.23444,-0.01446533203125,0.02142333984375,0.9906005859375,2.011260986328125,-3.60382080078125,0.904693603515625,0.0,4.0,4.0,4.0,4.0,75.0,event
13:44:22.038,0.0,0.0,0.0,0.0,0.0,0.0,0.0,0.0,0.0,0.0,0.0,0.0,0.0,0.0,0.0,0.0,0.0,0.0,0.0,0.0,831.6484,853.00366,783.69965,850.18317,697.47253,-0.01446533203125,0.02142333984375,0.9906005859375,2.011260986328125,-3.60382080078125,0.904693603515625,0.0,4.0,4.0,4.0,4.0,75.0,event
13:44:22.039,0.0,0.0,0.0,0.0,0.0,0.0,0.0,0.0,0.0,0.0,0.0,0.0,0.0,0.0,0.0,0.0,0.0,0.0,0.0,0.0,770.0,844.1392,782.0879,794.9817,886.04395,-0.01446533203125,0.02142333984375,0.9906005859375,2.011260986328125,-3.60382080078125,0.904693603515625,0.0,4.0,4.0,4.0,4.0,75.0,event
13:44:22.039,0.0,0.0,0.0,0.0,0.0,0.0,0.0,0.0,0.0,0.0,0.0,0.0,0.0,0.0,0.0,0.0,0.0,0.0,0.0,0.0,734.5421,830.84247,766.77655,749.45056,1079.0476,-0.01446533203125,0.02142333984375,0.9906005859375,2.011260986328125,-3.60382080078125,0.904693603515625,0.0,4.0,4.0,4.0,4.0,75.0,event
13:44:22.040,0.0,0.0,0.0,0.0,0.0,0.0,0.0,0.0,0.0,0.0,0.0,0.0,0.0,0.0,0.0,0.0,0.0,0.0,0.0,0.0,762.3443,848.5714,780.07324,773.22345,964.21246,-0.01446533203125,0.02142333984375,0.9906005859375,2.011260986328125,-3.60382080078125,0.904693603515625,0.0,4.0,4.0,4.0,4.0,75.0,event
13:44:22.040,0.0,0.0,0.0,0.0,0.0,0.0,0.0,0.0,0.0,0.0,0.0,0.0,0.0,0.0,0.0,0.0,0.0,0.0,0.0,0.0,799.81683,821.5751,811.50183,805.05493,780.4762,-0.01446533203125,0.02142333984375,0.9906005859375,2.011260986328125,-3.60382080078125,0.904693603515625,0.0,4.0,4.0,4.0,4.0,75.0,event
13:44:22.041,0.0,0.0,0.0,0.0,0.0,0.0,0.0,0.0,0.0,0.0,0.0,0.0,0.0,0.0,0.0,0.0,0.0,0.0,0.0,0.0,811.9048,792.1612,816.7399,827.2161,857.8388,-0.01446533203125,0.02142333984375,0.9906005859375,2.011260986328125,-3.60382080078125,0.904693603515625,0.0,4.0,4.0,4.0,4.0,75.0,event
13:44:22.042,0.0,0.0,0.0,0.0,0.0,0.0,0.0,0.0,0.0,0.0,0.0,0.0,0.0,0.0,0.0,0.0,0.0,0.0,0.0,0.0,801.8315,811.50183,788.5348,812.71063,780.07324,-0.01446533203125,0.02142333984375,0.9906005859375,2.011260986328125,-3.60382080078125,0.904693603515625,0.0,4.0,4.0,4.0,4.0,75.0,event
13:44:22.042,0.0,0.0,0.0,0.0,0.0,0.0,0.0,0.0,0.0,0.0,0.0,0.0,0.0,0.0,0.0,0.0,0.0,0.0,0.0,0.0,811.9048,811.0989,827.619,837.28937,964.61536,-0.01446533203125,0.02142333984375,0.9906005859375,2.011260986328125,-3.60382080078125,0.904693603515625,0.0,4.0,4.0,4.0,4.0,75.0,event
13:44:22.101,0.0,0.0,0.0,0.0,0.0,0.0,0.0,0.0,0.0,0.0,0.0,0.0,0.0,0.0,0.0,0.0,0.0,0.0,0.0,0.0,805.4579,836.08057,772.8205,807.0696,659.19415,-0.0184326171875,0.02044677734375,0.9869384765625,1.906585693359375,-3.446807861328125,0.127105712890625,0.0,4.0,4.0,4.0,4.0,75.0,event
13:44:22.102,0.0,0.0,0.0,0.0,0.0,0.0,0.0,0.0,0.0,0.0,0.0,0.0,0.0,0.0,0.0,0.0,0.0,0.0,0.0,0.0,825.2015,865.4945,794.57874,830.84247,770.80585,-0.0184326171875,0.02044677734375,0.9869384765625,1.906585693359375,-3.446807861328125,0.127105712890625,0.0,4.0,4.0,4.0,4.0,75.0,event
13:44:22.102,0.0,0.0,0.0,0.0,0.0,0.0,0.0,0.0,0.0,0.0,0.0,0.0,0.0,0.0,0.0,0.0,0.0,0.0,0.0,0.0,799.41394,850.58606,794.9817,809.89014,867.50916,-0.0184326171875,0.02044677734375,0.9869384765625,1.906585693359375,-3.446807861328125,0.127105712890625,0.0,4.0,4.0,4.0,4.0,75.0,event
13:44:22.103,0.0,0.0,0.0,0.0,0.0,0.0,0.0,0.0,0.0,0.0,0.0,0.0,0.0,0.0,0.0,0.0,0.0,0.0,0.0,0.0,782.0879,851.39197,786.1172,793.36993,763.5531,-0.0184326171875,0.02044677734375,0.9869384765625,1.906585693359375,-3.446807861328125,0.127105712890625,0.0,4.0,4.0,4.0,4.0,75.0,event
13:44:22.104,0.0,0.0,0.0,0.0,0.0,0.0,0.0,0.0,0.0,0.0,0.0,0.0,0.0,0.0,0.0,0.0,0.0,0.0,0.0,0.0,816.7399,844.94507,796.99634,811.9048,682.5641,-0.0184326171875,0.02044677734375,0.9869384765625,1.906585693359375,-3.446807861328125,0.127105712890625,0.0,4.0,4.0,4.0,4.0,75.0,event
13:44:22.104,0.0,0.0,0.0,0.0,0.0,0.0,0.0,0.0,0.0,0.0,0.0,0.0,0.0,0.0,0.0,0.0,0.0,0.0,0.0,0.0,805.05493,782.8938,811.50183,790.14655,875.56775,-0.0184326171875,0.02044677734375,0.9869384765625,1.906585693359375,-3.446807861328125,0.127105712890625,0.0,4.0,4.0,4.0,4.0,75.0,event
13:44:22.105,0.0,0.0,0.0,0.0,0.0,0.0,0.0,0.0,0.0,0.0,0.0,0.0,0.0,0.0,0.0,0.0,0.0,0.0,0.0,0.0,802.6374,799.011,811.50183,798.20514,923.91943,-0.0184326171875,0.02044677734375,0.9869384765625,1.906585693359375,-3.446807861328125,0.127105712890625,0.0,4.0,4.0,4.0,4.0,75.0,event
13:44:22.106,0.0,0.0,0.0,0.0,0.0,0.0,0.0,0.0,0.0,0.0,0.0,0.0,0.0,0.0,0.0,0.0,0.0,0.0,0.0,0.0,816.337,863.8828,827.619,823.9927,787.326,-0.0184326171875,0.02044677734375,0.9869384765625,1.906585693359375,-3.446807861328125,0.127105712890625,0.0,4.0,4.0,4.0,4.0,75.0,event
13:44:22.107,0.0,0.0,0.0,0.0,0.0,0.0,0.0,0.0,0.0,0.0,0.0,0.0,0.0,0.0,0.0,0.0,0.0,0.0,0.0,0.0,790.9524,862.27106,791.75824,809.4872,682.5641,-0.0184326171875,0.02044677734375,0.9869384765625,1.906585693359375,-3.446807861328125,0.127105712890625,0.0,4.0,4.0,4.0,4.0,75.0,event
13:44:22.107,0.0,0.0,0.0,0.0,0.0,0.0,0.0,0.0,0.0,0.0,0.0,0.0,0.0,0.0,0.0,0.0,0.0,0.0,0.0,0.0,795.78754,879.19415,772.4176,804.65204,925.12823,-0.0184326171875,0.02044677734375,0.9869384765625,1.906585693359375,-3.446807861328125,0.127105712890625,0.0,4.0,4.0,4.0,4.0,75.0,event
13:44:22.111,0.0,0.0,0.0,0.0,0.0,0.0,0.0,0.0,0.0,0.0,0.0,0.0,0.0,0.0,0.0,0.0,0.0,0.0,0.0,0.0,795.38464,796.99634,778.0586,797.8022,728.0952,-0.0184326171875,0.02044677734375,0.9869384765625,1.906585693359375,-3.446807861328125,0.127105712890625,0.0,4.0,4.0,4.0,4.0,75.0,event
13:44:22.111,0.0,0.0,0.0,0.0,0.0,0.0,0.0,0.0,0.0,0.0,0.0,0.0,0.0,0.0,0.0,0.0,0.0,0.0,0.0,0.0,805.4579,867.1062,782.8938,804.2491,1030.6959,-0.0184326171875,0.02044677734375,0.9869384765625,1.906585693359375,-3.446807861328125,0.127105712890625,0.0,4.0,4.0,4.0,4.0,75.0,event
13:44:22.140,0.0,0.0,0.0,0.0,0.0,0.0,0.0,0.0,0.0,0.0,0.0,0.0,0.0,0.0,0.0,0.0,0.0,0.0,0.0,0.0,795.78754,780.07324,817.1429,801.02563,782.0879,-0.01458740234375,0.01580810546875,0.98699951171875,1.592559814453125,-3.63372802734375,-0.471038818359375,0.0,4.0,4.0,4.0,4.0,75.0,event
13:44:22.142,0.0,0.0,0.0,0.0,0.0,0.0,0.0,0.0,0.0,0.0,0.0,0.0,0.0,0.0,0.0,0.0,0.0,0.0,0.0,0.0,790.54944,797.8022,859.0476,794.57874,861.8681,-0.01458740234375,0.01580810546875,0.98699951171875,1.592559814453125,-3.63372802734375,-0.471038818359375,0.0,4.0,4.0,4.0,4.0,75.0,event
13:44:22.142,0.0,0.0,0.0,0.0,0.0,0.0,0.0,0.0,0.0,0.0,0.0,0.0,0.0,0.0,0.0,0.0,0.0,0.0,0.0,0.0,790.14655,837.28937,837.6923,792.5641,712.7839,-0.01458740234375,0.01580810546875,0.98699951171875,1.592559814453125,-3.63372802734375,-0.471038818359375,0.0,4.0,4.0,4.0,4.0,75.0,event
13:44:22.144,0.0,0.0,0.0,0.0,0.0,0.0,0.0,0.0,0.0,0.0,0.0,0.0,0.0,0.0,0.0,0.0,0.0,0.0,0.0,0.0,819.5604,870.32965,790.54944,819.15753,649.5238,-0.01458740234375,0.01580810546875,0.98699951171875,1.592559814453125,-3.63372802734375,-0.471038818359375,0.0,4.0,4.0,4.0,4.0,75.0,event
13:44:22.145,0.0,0.0,0.0,0.0,0.0,0.0,0.0,0.0,0.0,0.0,0.0,0.0,0.0,0.0,0.0,0.0,0.0,0.0,0.0,0.0,840.5128,850.58606,786.9231,842.1245,735.34796,-0.01458740234375,0.01580810546875,0.98699951171875,1.592559814453125,-3.63372802734375,-0.471038818359375,0.0,4.0,4.0,4.0,4.0,75.0,event
13:44:22.146,0.0,0.0,0.0,0.0,0.0,0.0,0.0,0.0,0.0,0.0,0.0,0.0,0.0,0.0,0.0,0.0,0.0,0.0,0.0,0.0,826.4103,827.619,784.90845,841.31866,857.4359,-0.01458740234375,0.01580810546875,0.98699951171875,1.592559814453125,-3.63372802734375,-0.471038818359375,0.0,4.0,4.0,4.0,4.0,75.0,event
13:44:22.146,0.0,0.0,0.0,0.0,0.0,0.0,0.0,0.0,0.0,0.0,0.0,0.0,0.0,0.0,0.0,0.0,0.0,0.0,0.0,0.0,792.5641,827.2161,786.1172,811.9048,874.35895,-0.01458740234375,0.01580810546875,0.98699951171875,1.592559814453125,-3.63372802734375,-0.471038818359375,0.0,4.0,4.0,4.0,4.0,75.0,event
13:44:22.147,0.0,0.0,0.0,0.0,0.0,0.0,0.0,0.0,0.0,0.0,0.0,0.0,0.0,0.0,0.0,0.0,0.0,0.0,0.0,0.0,766.3736,820.3663,803.44324,781.28204,789.34064,-0.01458740234375,0.01580810546875,0.98699951171875,1.592559814453125,-3.63372802734375,-0.471038818359375,0.0,4.0,4.0,4.0,4.0,75.0,event
13:44:22.148,0.0,0.0,0.0,0.0,0.0,0.0,0.0,0.0,0.0,0.0,0.0,0.0,0.0,0.0,0.0,0.0,0.0,0.0,0.0,0.0,768.7912,763.95605,809.4872,783.2967,883.6264,-0.01458740234375,0.01580810546875,0.98699951171875,1.592559814453125,-3.63372802734375,-0.471038818359375,0.0,4.0,4.0,4.0,4.0,75.0,event
13:44:22.149,0.0,0.0,0.0,0.0,0.0,0.0,0.0,0.0,0.0,0.0,0.0,0.0,0.0,0.0,0.0,0.0,0.0,0.0,0.0,0.0,811.50183,791.75824,821.5751,824.3956,1017.3993,-0.01458740234375,0.01580810546875,0.98699951171875,1.592559814453125,-3.63372802734375,-0.471038818359375,0.0,4.0,4.0,4.0,4.0,75.0,event
13:44:22.150,0.0,0.0,0.0,0.0,0.0,0.0,0.0,0.0,0.0,0.0,0.0,0.0,0.0,0.0,0.0,0.0,0.0,0.0,0.0,0.0,803.44324,868.315,810.293,824.3956,655.56775,-0.01458740234375,0.01580810546875,0.98699951171875,1.592559814453125,-3.63372802734375,-0.471038818359375,0.0,4.0,4.0,4.0,4.0,75.0,event
13:44:22.150,0.0,0.0,0.0,0.0,0.0,0.0,0.0,0.0,0.0,0.0,0.0,0.0,0.0,0.0,0.0,0.0,0.0,0.0,0.0,0.0,829.2308,880.40295,829.2308,842.1245,809.89014,-0.01458740234375,0.01580810546875,0.98699951171875,1.592559814453125,-3.63372802734375,-0.471038818359375,0.0,4.0,4.0,4.0,4.0,75.0,event
13:44:22.193,0.0,0.0,0.0,0.0,0.0,0.0,0.0,0.0,0.0,0.0,0.0,0.0,0.0,0.0,0.0,0.0,0.0,0.0,0.0,0.0,782.0879,834.4689,803.44324,805.4579,763.1502,-0.01385498046875,0.010986328125,0.98577880859375,1.801910400390625,-3.581390380859375,0.25421142578125,0.0,4.0,4.0,4.0,4.0,75.0,event
13:44:22.194,0.0,0.0,0.0,0.0,0.0,0.0,0.0,0.0,0.0,0.0,0.0,0.0,0.0,0.0,0.0,0.0,0.0,0.0,0.0,0.0,781.28204,809.89014,816.7399,789.34064,814.3223,-0.01385498046875,0.010986328125,0.98577880859375,1.801910400390625,-3.581390380859375,0.25421142578125,0.0,4.0,4.0,4.0,4.0,75.0,event
13:44:22.196,0.0,0.0,0.0,0.0,0.0,0.0,0.0,0.0,0.0,0.0,0.0,0.0,0.0,0.0,0.0,0.0,0.0,0.0,0.0,0.0,801.8315,813.1135,796.99634,792.5641,750.65936,-0.01385498046875,0.010986328125,0.98577880859375,1.801910400390625,-3.581390380859375,0.25421142578125,0.0,4.0,4.0,4.0,4.0,75.0,event
13:44:22.197,0.0,0.0,0.0,0.0,0.0,0.0,0.0,0.0,0.0,0.0,0.0,0.0,0.0,0.0,0.0,0.0,0.0,0.0,0.0,0.0,813.91943,797.8022,793.7729,814.3223,708.7546,-0.01385498046875,0.010986328125,0.98577880859375,1.801910400390625,-3.581390380859375,0.25421142578125,0.0,4.0,4.0,4.0,4.0,75.0,event
13:44:22.199,0.0,0.0,0.0,0.0,0.0,0.0,0.0,0.0,0.0,0.0,0.0,0.0,0.0,0.0,0.0,0.0,0.0,0.0,0.0,0.0,807.47253,774.43225,834.87177,828.022,849.3773,-0.01385498046875,0.010986328125,0.98577880859375,1.801910400390625,-3.581390380859375,0.25421142578125,0.0,4.0,4.0,4.0,4.0,75.0,event
13:44:22.200,0.0,0.0,0.0,0.0,0.0,0.0,0.0,0.0,0.0,0.0,0.0,0.0,0.0,0.0,0.0,0.0,0.0,0.0,0.0,0.0,811.50183,790.54944,825.6044,824.7985,959.3773,-0.01385498046875,0.010986328125,0.98577880859375,1.801910400390625,-3.581390380859375,0.25421142578125,0.0,4.0,4.0,4.0,4.0,75.0,event
13:44:22.200,0.0,0.0,0.0,0.0,0.0,0.0,0.0,0.0,0.0,0.0,0.0,0.0,0.0,0.0,0.0,0.0,0.0,0.0,0.0,0.0,821.978,821.5751,758.71796,821.978,832.4542,-0.01385498046875,0.010986328125,0.98577880859375,1.801910400390625,-3.581390380859375,0.25421142578125,0.0,4.0,4.0,4.0,4.0,75.0,event
13:44:22.201,0.0,0.0,0.0,0.0,0.0,0.0,0.0,0.0,0.0,0.0,0.0,0.0,0.0,0.0,0.0,0.0,0.0,0.0,0.0,0.0,807.8755,821.978,736.55676,812.3077,764.7619,-0.01385498046875,0.010986328125,0.98577880859375,1.801910400390625,-3.581390380859375,0.25421142578125,0.0,4.0,4.0,4.0,4.0,75.0,event
13:44:22.202,0.0,0.0,0.0,0.0,0.0,0.0,0.0,0.0,0.0,0.0,0.0,0.0,0.0,0.0,0.0,0.0,0.0,0.0,0.0,0.0,805.05493,849.3773,839.707,821.978,1012.5641,-0.01385498046875,0.010986328125,0.98577880859375,1.801910400390625,-3.581390380859375,0.25421142578125,0.0,4.0,4.0,4.0,4.0,75.0,event
13:44:22.202,0.0,0.0,0.0,0.0,0.0,0.0,0.0,0.0,0.0,0.0,0.0,0.0,0.0,0.0,0.0,0.0,0.0,0.0,0.0,0.0,808.2784,811.0989,799.41394,822.381,931.1722,-0.01385498046875,0.010986328125,0.98577880859375,1.801910400390625,-3.581390380859375,0.25421142578125,0.0,4.0,4.0,4.0,4.0,75.0,event
13:44:22.203,0.0,0.0,0.0,0.0,0.0,0.0,0.0,0.0,0.0,0.0,0.0,0.0,0.0,0.0,0.0,0.0,0.0,0.0,0.0,0.0,799.81683,840.9158,819.9634,809.4872,743.4066,-0.01385498046875,0.010986328125,0.98577880859375,1.801910400390625,-3.581390380859375,0.25421142578125,0.0,4.0,4.0,4.0,4.0,75.0,event
13:44:22.204,0.0,0.0,0.0,0.0,0.0,0.0,0.0,0.0,0.0,0.0,0.0,0.0,0.0,0.0,0.0,0.0,0.0,0.0,0.0,0.0,794.17584,752.674,807.8755,804.2491,699.89014,-0.01385498046875,0.010986328125,0.98577880859375,1.801910400390625,-3.581390380859375,0.25421142578125,0.0,4.0,4.0,4.0,4.0,75.0,event
13:44:22.241,0.0,0.0,0.0,0.0,0.0,0.0,0.0,0.0,0.0,0.0,0.0,0.0,0.0,0.0,0.0,0.0,0.0,0.0,0.0,0.0,808.68134,766.77655,811.50183,813.91943,747.8388,-0.01385498046875,0.010986328125,0.98577880859375,1.801910400390625,-3.581390380859375,0.25421142578125,0.0,4.0,4.0,4.0,4.0,75.0,event
13:44:22.242,0.0,0.0,0.0,0.0,0.0,0.0,0.0,0.0,0.0,0.0,0.0,0.0,0.0,0.0,0.0,0.0,0.0,0.0,0.0,0.0,812.3077,836.08057,816.337,811.0989,694.2491,-0.01385498046875,0.010986328125,0.98577880859375,1.801910400390625,-3.581390380859375,0.25421142578125,0.0,4.0,4.0,4.0,4.0,75.0,event
13:44:22.243,0.0,0.0,0.0,0.0,0.0,0.0,0.0,0.0,0.0,0.0,0.0,0.0,0.0,0.0,0.0,0.0,0.0,0.0,0.0,0.0,790.54944,837.6923,797.3993,793.36993,681.3553,-0.01385498046875,0.010986328125,0.98577880859375,1.801910400390625,-3.581390380859375,0.25421142578125,0.0,4.0,4.0,4.0,4.0,75.0,event
13:44:22.244,0.0,0.0,0.0,0.0,0.0,0.0,0.0,0.0,0.0,0.0,0.0,0.0,0.0,0.0,0.0,0.0,0.0,0.0,0.0,0.0,816.7399,805.8608,790.9524,817.1429,745.82416,-0.01385498046875,0.010986328125,0.98577880859375,1.801910400390625,-3.581390380859375,0.25421142578125,0.0,4.0,4.0,4.0,4.0,75.0,event
13:44:22.244,0.0,0.0,0.0,0.0,0.0,0.0,0.0,0.0,0.0,0.0,0.0,0.0,0.0,0.0,0.0,0.0,0.0,0.0,0.0,0.0,811.0989,793.7729,784.10254,807.8755,778.86444,-0.01385498046875,0.010986328125,0.98577880859375,1.801910400390625,-3.581390380859375,0.25421142578125,0.0,4.0,4.0,4.0,4.0,75.0,event
13:44:22.245,0.0,0.0,0.0,0.0,0.0,0.0,0.0,0.0,0.0,0.0,0.0,0.0,0.0,0.0,0.0,0.0,0.0,0.0,0.0,0.0,762.74725,796.99634,797.3993,755.89746,783.2967,-0.01385498046875,0.010986328125,0.98577880859375,1.801910400390625,-3.581390380859375,0.25421142578125,0.0,4.0,4.0,4.0,4.0,75.0,event
13:44:22.245,0.0,0.0,0.0,0.0,0.0,0.0,0.0,0.0,0.0,0.0,0.0,0.0,0.0,0.0,0.0,0.0,0.0,0.0,0.0,0.0,790.14655,832.4542,807.0696,785.31134,805.05493,-0.01385498046875,0.010986328125,0.98577880859375,1.801910400390625,-3.581390380859375,0.25421142578125,0.0,4.0,4.0,4.0,4.0,75.0,event
13:44:22.246,0.0,0.0,0.0,0.0,0.0,0.0,0.0,0.0,0.0,0.0,0.0,0.0,0.0,0.0,0.0,0.0,0.0,0.0,0.0,0.0,795.38464,826.8132,758.315,794.57874,793.36993,-0.01385498046875,0.010986328125,0.98577880859375,1.801910400390625,-3.581390380859375,0.25421142578125,0.0,4.0,4.0,4.0,4.0,75.0,event
13:44:22.246,0.0,0.0,0.0,0.0,0.0,0.0,0.0,0.0,0.0,0.0,0.0,0.0,0.0,0.0,0.0,0.0,0.0,0.0,0.0,0.0,755.89746,789.7436,761.9414,761.53845,986.3736,-0.01385498046875,0.010986328125,0.98577880859375,1.801910400390625,-3.581390380859375,0.25421142578125,0.0,4.0,4.0,4.0,4.0,75.0,event
13:44:22.247,0.0,0.0,0.0,0.0,0.0,0.0,0.0,0.0,0.0,0.0,0.0,0.0,0.0,0.0,0.0,0.0,0.0,0.0,0.0,0.0,759.12085,842.9304,789.7436,745.0183,694.2491,-0.01385498046875,0.010986328125,0.98577880859375,1.801910400390625,-3.581390380859375,0.25421142578125,0.0,4.0,4.0,4.0,4.0,75.0,event
13:44:22.247,0.0,0.0,0.0,0.0,0.0,0.0,0.0,0.0,0.0,0.0,0.0,0.0,0.0,0.0,0.0,0.0,0.0,0.0,0.0,0.0,768.3883,834.4689,804.65204,765.56775,891.685,-0.01385498046875,0.010986328125,0.98577880859375,1.801910400390625,-3.581390380859375,0.25421142578125,0.0,4.0,4.0,4.0,4.0,75.0,event
13:44:22.248,0.0,0.0,0.0,0.0,0.0,0.0,0.0,0.0,0.0,0.0,0.0,0.0,0.0,0.0,0.0,0.0,0.0,0.0,0.0,0.0,736.55676,801.02563,789.7436,737.3626,779.2674,-0.01385498046875,0.010986328125,0.98577880859375,1.801910400390625,-3.581390380859375,0.25421142578125,0.0,4.0,4.0,4.0,4.0,75.0,event
13:44:22.295,0.0,0.0,0.0,0.0,0.0,0.0,0.0,0.0,0.0,0.0,0.0,0.0,0.0,0.0,0.0,0.0,0.0,0.0,0.0,0.0,758.315,765.16486,809.89014,774.0293,803.8461,-0.0166015625,0.01373291015625,0.98541259765625,2.572021484375,-3.715972900390625,0.650482177734375,0.0,4.0,4.0,4.0,4.0,75.0,event
13:44:22.296,0.0,0.0,0.0,0.0,0.0,0.0,0.0,0.0,0.0,0.0,0.0,0.0,0.0,0.0,0.0,0.0,0.0,0.0,0.0,0.0,794.17584,797.3993,830.0366,806.26373,794.17584,-0.0166015625,0.01373291015625,0.98541259765625,2.572021484375,-3.715972900390625,0.650482177734375,0.0,4.0,4.0,4.0,4.0,75.0,event
13:44:22.297,0.0,0.0,0.0,0.0,0.0,0.0,0.0,0.0,0.0,0.0,0.0,0.0,0.0,0.0,0.0,0.0,0.0,0.0,0.0,0.0,805.4579,867.9121,804.65204,805.8608,751.06226,-0.0166015625,0.01373291015625,0.98541259765625,2.572021484375,-3.715972900390625,0.650482177734375,0.0,4.0,4.0,4.0,4.0,75.0,event
13:44:22.299,0.0,0.0,0.0,0.0,0.0,0.0,0.0,0.0,0.0,0.0,0.0,0.0,0.0,0.0,0.0,0.0,0.0,0.0,0.0,0.0,799.41394,846.55676,759.5238,796.1905,786.52014,-0.0166015625,0.01373291015625,0.98541259765625,2.572021484375,-3.715972900390625,0.650482177734375,0.0,4.0,4.0,4.0,4.0,75.0,event
13:44:22.300,0.0,0.0,0.0,0.0,0.0,0.0,0.0,0.0,0.0,0.0,0.0,0.0,0.0,0.0,0.0,0.0,0.0,0.0,0.0,0.0,808.2784,812.71063,758.71796,808.68134,782.8938,-0.0166015625,0.01373291015625,0.98541259765625,2.572021484375,-3.715972900390625,0.650482177734375,0.0,4.0,4.0,4.0,4.0,75.0,event
13:44:22.301,0.0,0.0,0.0,0.0,0.0,0.0,0.0,0.0,0.0,0.0,0.0,0.0,0.0,0.0,0.0,0.0,0.0,0.0,0.0,0.0,823.9927,765.9707,807.8755,821.5751,788.1319,-0.0166015625,0.01373291015625,0.98541259765625,2.572021484375,-3.715972900390625,0.650482177734375,0.0,4.0,4.0,4.0,4.0,75.0,event
13:44:22.303,0.0,0.0,0.0,0.0,0.0,0.0,0.0,0.0,0.0,0.0,0.0,0.0,0.0,0.0,0.0,0.0,0.0,0.0,0.0,0.0,810.293,767.98535,824.7985,811.0989,840.5128,-0.0166015625,0.01373291015625,0.98541259765625,2.572021484375,-3.715972900390625,0.650482177734375,0.0,4.0,4.0,4.0,4.0,75.0,event
13:44:22.304,0.0,0.0,0.0,0.0,0.0,0.0,0.0,0.0,0.0,0.0,0.0,0.0,0.0,0.0,0.0,0.0,0.0,0.0,0.0,0.0,796.1905,823.5897,789.34064,802.23444,1005.31134,-0.0166015625,0.01373291015625,0.98541259765625,2.572021484375,-3.715972900390625,0.650482177734375,0.0,4.0,4.0,4.0,4.0,75.0,event
13:44:22.305,0.0,0.0,0.0,0.0,0.0,0.0,0.0,0.0,0.0,0.0,0.0,0.0,0.0,0.0,0.0,0.0,0.0,0.0,0.0,0.0,808.68134,808.68134,780.4762,809.4872,1064.9451,-0.0166015625,0.01373291015625,0.98541259765625,2.572021484375,-3.715972900390625,0.650482177734375,0.0,4.0,4.0,4.0,4.0,75.0,event
13:44:22.307,0.0,0.0,0.0,0.0,0.0,0.0,0.0,0.0,0.0,0.0,0.0,0.0,0.0,0.0,0.0,0.0,0.0,0.0,0.0,0.0,793.36993,807.47253,806.26373,796.1905,780.4762,-0.0166015625,0.01373291015625,0.98541259765625,2.572021484375,-3.715972900390625,0.650482177734375,0.0,4.0,4.0,4.0,4.0,75.0,event
13:44:22.308,0.0,0.0,0.0,0.0,0.0,0.0,0.0,0.0,0.0,0.0,0.0,0.0,0.0,0.0,0.0,0.0,0.0,0.0,0.0,0.0,777.6557,821.978,828.8278,788.5348,747.4359,-0.0166015625,0.01373291015625,0.98541259765625,2.572021484375,-3.715972900390625,0.650482177734375,0.0,4.0,4.0,4.0,4.0,75.0,event
13:44:22.309,0.0,0.0,0.0,0.0,0.0,0.0,0.0,0.0,0.0,0.0,0.0,0.0,0.0,0.0,0.0,0.0,0.0,0.0,0.0,0.0,779.2674,812.71063,793.36993,795.38464,767.5824,-0.0166015625,0.01373291015625,0.98541259765625,2.572021484375,-3.715972900390625,0.650482177734375,0.0,4.0,4.0,4.0,4.0,75.0,event
13:44:22.341,0.0,0.0,0.0,0.0,0.0,0.0,0.0,0.0,0.0,0.0,0.0,0.0,0.0,0.0,0.0,0.0,0.0,0.0,0.0,0.0,773.6264,797.8022,766.3736,781.685,713.9927,-0.01739501953125,0.01678466796875,0.98907470703125,2.10845947265625,-3.715972900390625,0.70281982421875,0.0,4.0,4.0,4.0,4.0,75.0,event
13:44:22.342,0.0,0.0,0.0,0.0,0.0,0.0,0.0,0.0,0.0,0.0,0.0,0.0,0.0,0.0,0.0,0.0,0.0,0.0,0.0,0.0,768.7912,800.6227,801.02563,765.16486,679.34064,-0.01739501953125,0.01678466796875,0.98907470703125,2.10845947265625,-3.715972900390625,0.70281982421875,0.0,4.0,4.0,4.0,4.0,75.0,event
13:44:22.345,0.0,0.0,0.0,0.0,0.0,0.0,0.0,0.0,0.0,0.0,0.0,0.0,0.0,0.0,0.0,0.0,0.0,0.0,0.0,0.0,805.8608,805.05493,816.7399,807.47253,745.82416,-0.01739501953125,0.01678466796875,0.98907470703125,2.10845947265625,-3.715972900390625,0.70281982421875,0.0,4.0,4.0,4.0,4.0,75.0,event
13:44:22.346,0.0,0.0,0.0,0.0,0.0,0.0,0.0,0.0,0.0,0.0,0.0,0.0,0.0,0.0,0.0,0.0,0.0,0.0,0.0,0.0,806.26373,788.93774,785.31134,819.5604,826.0073,-0.01739501953125,0.01678466796875,0.98907470703125,2.10845947265625,-3.715972900390625,0.70281982421875,0.0,4.0,4.0,4.0,4.0,75.0,event
13:44:22.346,0.0,0.0,0.0,0.0,0.0,0.0,0.0,0.0,0.0,0.0,0.0,0.0,0.0,0.0,0.0,0.0,0.0,0.0,0.0,0.0,816.7399,817.9487,813.91943,826.8132,750.65936,-0.01739501953125,0.01678466796875,0.98907470703125,2.10845947265625,-3.715972900390625,0.70281982421875,0.0,4.0,4.0,4.0,4.0,75.0,event
13:44:22.347,0.0,0.0,0.0,0.0,0.0,0.0,0.0,0.0,0.0,0.0,0.0,0.0,0.0,0.0,0.0,0.0,0.0,0.0,0.0,0.0,820.3663,832.4542,829.6337,824.3956,711.978,-0.01739501953125,0.01678466796875,0.98907470703125,2.10845947265625,-3.715972900390625,0.70281982421875,0.0,4.0,4.0,4.0,4.0,75.0,event
13:44:22.348,0.0,0.0,0.0,0.0,0.0,0.0,0.0,0.0,0.0,0.0,0.0,0.0,0.0,0.0,0.0,0.0,0.0,0.0,0.0,0.0,773.22345,799.81683,783.69965,776.8498,853.4066,-0.01739501953125,0.01678466796875,0.98907470703125,2.10845947265625,-3.715972900390625,0.70281982421875,0.0,4.0,4.0,4.0,4.0,75.0,event
13:44:22.348,0.0,0.0,0.0,0.0,0.0,0.0,0.0,0.0,0.0,0.0,0.0,0.0,0.0,0.0,0.0,0.0,0.0,0.0,0.0,0.0,771.6117,799.41394,776.04395,767.5824,976.7033,-0.01739501953125,0.01678466796875,0.98907470703125,2.10845947265625,-3.715972900390625,0.70281982421875,0.0,4.0,4.0,4.0,4.0,75.0,event
13:44:22.349,0.0,0.0,0.0,0.0,0.0,0.0,0.0,0.0,0.0,0.0,0.0,0.0,0.0,0.0,0.0,0.0,0.0,0.0,0.0,0.0,785.7143,805.4579,805.05493,779.67035,803.0403,-0.01739501953125,0.01678466796875,0.98907470703125,2.10845947265625,-3.715972900390625,0.70281982421875,0.0,4.0,4.0,4.0,4.0,75.0,event
13:44:22.349,0.0,0.0,0.0,0.0,0.0,0.0,0.0,0.0,0.0,0.0,0.0,0.0,0.0,0.0,0.0,0.0,0.0,0.0,0.0,0.0,790.9524,758.315,815.9341,792.96704,725.6777,-0.01739501953125,0.01678466796875,0.98907470703125,2.10845947265625,-3.715972900390625,0.70281982421875,0.0,4.0,4.0,4.0,4.0,75.0,event
13:44:22.350,0.0,0.0,0.0,0.0,0.0,0.0,0.0,0.0,0.0,0.0,0.0,0.0,0.0,0.0,0.0,0.0,0.0,0.0,0.0,0.0,810.293,772.8205,777.6557,806.6667,863.47986,-0.01739501953125,0.01678466796875,0.98907470703125,2.10845947265625,-3.715972900390625,0.70281982421875,0.0,4.0,4.0,4.0,4.0,75.0,event
13:44:22.351,0.0,0.0,0.0,0.0,0.0,0.0,0.0,0.0,0.0,0.0,0.0,0.0,0.0,0.0,0.0,0.0,0.0,0.0,0.0,0.0,821.1722,846.1539,771.6117,809.0842,826.4103,-0.01739501953125,0.01678466796875,0.98907470703125,2.10845947265625,-3.715972900390625,0.70281982421875,0.0,4.0,4.0,4.0,4.0,75.0,event
13:44:22.393,0.0,0.0,0.0,0.0,0.0,0.0,0.0,0.0,0.0,0.0,0.0,0.0,0.0,0.0,0.0,0.0,0.0,0.0,0.0,0.0,807.8755,856.2271,833.2601,802.6374,689.41394,-0.0147705078125,0.01568603515625,0.986572265625,2.22808837890625,-3.170166015625,-0.059814453125,0.0,4.0,4.0,4.0,4.0,75.0,event
13:44:22.394,0.0,0.0,0.0,0.0,0.0,0.0,0.0,0.0,0.0,0.0,0.0,0.0,0.0,0.0,0.0,0.0,0.0,0.0,0.0,0.0,828.8278,832.4542,840.10986,818.7546,727.6923,-0.0147705078125,0.01568603515625,0.986572265625,2.22808837890625,-3.170166015625,-0.059814453125,0.0,4.0,4.0,4.0,4.0,75.0,event
13:44:22.395,0.0,0.0,0.0,0.0,0.0,0.0,0.0,0.0,0.0,0.0,0.0,0.0,0.0,0.0,0.0,0.0,0.0,0.0,0.0,0.0,801.02563,801.4286,811.0989,800.2198,768.7912,-0.0147705078125,0.01568603515625,0.986572265625,2.22808837890625,-3.170166015625,-0.059814453125,0.0,4.0,4.0,4.0,4.0,75.0,event
13:44:22.396,0.0,0.0,0.0,0.0,0.0,0.0,0.0,0.0,0.0,0.0,0.0,0.0,0.0,0.0,0.0,0.0,0.0,0.0,0.0,0.0,782.0879,801.4286,815.9341,785.7143,771.6117,-0.0147705078125,0.01568603515625,0.986572265625,2.22808837890625,-3.170166015625,-0.059814453125,0.0,4.0,4.0,4.0,4.0,75.0,event
13:44:22.397,0.0,0.0,0.0,0.0,0.0,0.0,0.0,0.0,0.0,0.0,0.0,0.0,0.0,0.0,0.0,0.0,0.0,0.0,0.0,0.0,811.9048,803.0403,807.8755,801.4286,770.80585,-0.0147705078125,0.01568603515625,0.986572265625,2.22808837890625,-3.170166015625,-0.059814453125,0.0,4.0,4.0,4.0,4.0,75.0,event
13:44:22.399,0.0,0.0,0.0,0.0,0.0,0.0,0.0,0.0,0.0,0.0,0.0,0.0,0.0,0.0,0.0,0.0,0.0,0.0,0.0,0.0,812.3077,778.46155,795.78754,796.99634,764.35895,-0.0147705078125,0.01568603515625,0.986572265625,2.22808837890625,-3.170166015625,-0.059814453125,0.0,4.0,4.0,4.0,4.0,75.0,event
13:44:22.400,0.0,0.0,0.0,0.0,0.0,0.0,0.0,0.0,0.0,0.0,0.0,0.0,0.0,0.0,0.0,0.0,0.0,0.0,0.0,0.0,834.4689,770.0,767.1795,826.0073,941.2454,-0.0147705078125,0.01568603515625,0.986572265625,2.22808837890625,-3.170166015625,-0.059814453125,0.0,4.0,4.0,4.0,4.0,75.0,event
13:44:22.401,0.0,0.0,0.0,0.0,0.0,0.0,0.0,0.0,0.0,0.0,0.0,0.0,0.0,0.0,0.0,0.0,0.0,0.0,0.0,0.0,849.3773,769.19415,740.58606,859.85345,948.0952,-0.0147705078125,0.01568603515625,0.986572265625,2.22808837890625,-3.170166015625,-0.059814453125,0.0,4.0,4.0,4.0,4.0,75.0,event
13:44:22.402,0.0,0.0,0.0,0.0,0.0,0.0,0.0,0.0,0.0,0.0,0.0,0.0,0.0,0.0,0.0,0.0,0.0,0.0,0.0,0.0,805.4579,803.8461,774.0293,813.1135,664.0293,-0.0147705078125,0.01568603515625,0.986572265625,2.22808837890625,-3.170166015625,-0.059814453125,0.0,4.0,4.0,4.0,4.0,75.0,event
13:44:22.403,0.0,0.0,0.0,0.0,0.0,0.0,0.0,0.0,0.0,0.0,0.0,0.0,0.0,0.0,0.0,0.0,0.0,0.0,0.0,0.0,799.81683,835.6777,796.99634,786.1172,662.4176,-0.0147705078125,0.01568603515625,0.986572265625,2.22808837890625,-3.170166015625,-0.059814453125,0.0,4.0,4.0,4.0,4.0,75.0,event
13:44:22.404,0.0,0.0,0.0,0.0,0.0,0.0,0.0,0.0,0.0,0.0,0.0,0.0,0.0,0.0,0.0,0.0,0.0,0.0,0.0,0.0,821.1722,826.8132,807.8755,803.0403,751.06226,-0.0147705078125,0.01568603515625,0.986572265625,2.22808837890625,-3.170166015625,-0.059814453125,0.0,4.0,4.0,4.0,4.0,75.0,event
13:44:22.405,0.0,0.0,0.0,0.0,0.0,0.0,0.0,0.0,0.0,0.0,0.0,0.0,0.0,0.0,0.0,0.0,0.0,0.0,0.0,0.0,798.60803,803.0403,824.7985,796.1905,735.34796,-0.0147705078125,0.01568603515625,0.986572265625,2.22808837890625,-3.170166015625,-0.059814453125,0.0,4.0,4.0,4.0,4.0,75.0,event
13:44:22.434,0.0,0.0,0.0,0.0,0.0,0.0,0.0,0.0,0.0,0.0,0.0,0.0,0.0,0.0,0.0,0.0,0.0,0.0,0.0,0.0,796.1905,801.4286,832.0513,801.02563,692.6374,-0.0140380859375,0.01824951171875,0.99029541015625,2.175750732421875,-3.611297607421875,0.411224365234375,0.0,4.0,4.0,4.0,4.0,75.0,event
13:44:22.435,0.0,0.0,0.0,0.0,0.0,0.0,0.0,0.0,0.0,0.0,0.0,0.0,0.0,0.0,0.0,0.0,0.0,0.0,0.0,0.0,789.7436,811.0989,812.3077,795.78754,796.5934,-0.0140380859375,0.01824951171875,0.99029541015625,2.175750732421875,-3.611297607421875,0.411224365234375,0.0,4.0,4.0,4.0,4.0,75.0,event
13:44:22.436,0.0,0.0,0.0,0.0,0.0,0.0,0.0,0.0,0.0,0.0,0.0,0.0,0.0,0.0,0.0,0.0,0.0,0.0,0.0,0.0,806.26373,775.64105,785.7143,801.02563,827.619,-0.0140380859375,0.01824951171875,0.99029541015625,2.175750732421875,-3.611297607421875,0.411224365234375,0.0,4.0,4.0,4.0,4.0,75.0,event
13:44:22.437,0.0,0.0,0.0,0.0,0.0,0.0,0.0,0.0,0.0,0.0,0.0,0.0,0.0,0.0,0.0,0.0,0.0,0.0,0.0,0.0,836.08057,790.14655,785.7143,828.8278,714.3956,-0.0140380859375,0.01824951171875,0.99029541015625,2.175750732421875,-3.611297607421875,0.411224365234375,0.0,4.0,4.0,4.0,4.0,75.0,event
13:44:22.440,0.0,0.0,0.0,0.0,0.0,0.0,0.0,0.0,0.0,0.0,0.0,0.0,0.0,0.0,0.0,0.0,0.0,0.0,0.0,0.0,828.8278,832.0513,794.17584,836.8865,731.31866,-0.0140380859375,0.01824951171875,0.99029541015625,2.175750732421875,-3.611297607421875,0.411224365234375,0.0,4.0,4.0,4.0,4.0,75.0,event
13:44:22.441,0.0,0.0,0.0,0.0,0.0,0.0,0.0,0.0,0.0,0.0,0.0,0.0,0.0,0.0,0.0,0.0,0.0,0.0,0.0,0.0,804.65204,787.326,808.2784,814.7253,890.4762,-0.0140380859375,0.01824951171875,0.99029541015625,2.175750732421875,-3.611297607421875,0.411224365234375,0.0,4.0,4.0,4.0,4.0,75.0,event
13:44:22.442,0.0,0.0,0.0,0.0,0.0,0.0,0.0,0.0,0.0,0.0,0.0,0.0,0.0,0.0,0.0,0.0,0.0,0.0,0.0,0.0,776.8498,770.0,799.81683,778.86444,1035.1282,-0.0140380859375,0.01824951171875,0.99029541015625,2.175750732421875,-3.611297607421875,0.411224365234375,0.0,4.0,4.0,4.0,4.0,75.0,event
13:44:22.442,0.0,0.0,0.0,0.0,0.0,0.0,0.0,0.0,0.0,0.0,0.0,0.0,0.0,0.0,0.0,0.0,0.0,0.0,0.0,0.0,765.16486,808.68134,806.26373,756.30035,819.15753,-0.0140380859375,0.01824951171875,0.99029541015625,2.175750732421875,-3.611297607421875,0.411224365234375,0.0,4.0,4.0,4.0,4.0,75.0,event
13:44:22.443,0.0,0.0,0.0,0.0,0.0,0.0,0.0,0.0,0.0,0.0,0.0,0.0,0.0,0.0,0.0,0.0,0.0,0.0,0.0,0.0,784.10254,818.7546,822.7839,764.7619,664.83514,-0.0140380859375,0.01824951171875,0.99029541015625,2.175750732421875,-3.611297607421875,0.411224365234375,0.0,4.0,4.0,4.0,4.0,75.0,event
13:44:22.444,0.0,0.0,0.0,0.0,0.0,0.0,0.0,0.0,0.0,0.0,0.0,0.0,0.0,0.0,0.0,0.0,0.0,0.0,0.0,0.0,826.0073,800.2198,797.8022,810.293,880.40295,-0.0140380859375,0.01824951171875,0.99029541015625,2.175750732421875,-3.611297607421875,0.411224365234375,0.0,4.0,4.0,4.0,4.0,75.0,event
13:44:22.444,0.0,0.0,0.0,0.0,0.0,0.0,0.0,0.0,0.0,0.0,0.0,0.0,0.0,0.0,0.0,0.0,0.0,0.0,0.0,0.0,836.08057,791.75824,786.1172,832.4542,950.9158,-0.0140380859375,0.01824951171875,0.99029541015625,2.175750732421875,-3.611297607421875,0.411224365234375,0.0,4.0,4.0,4.0,4.0,75.0,event
13:44:22.445,0.0,0.0,0.0,0.0,0.0,0.0,0.0,0.0,0.0,0.0,0.0,0.0,0.0,0.0,0.0,0.0,0.0,0.0,0.0,0.0,820.3663,810.293,807.8755,821.5751,713.9927,-0.0140380859375,0.01824951171875,0.99029541015625,2.175750732421875,-3.611297607421875,0.411224365234375,0.0,4.0,4.0,4.0,4.0,75.0,event
13:44:22.476,0.0,0.0,0.0,0.0,0.0,0.0,0.0,0.0,0.0,0.0,0.0,0.0,0.0,0.0,0.0,0.0,0.0,0.0,0.0,0.0,819.9634,818.7546,822.7839,809.89014,643.47986,-0.0140380859375,0.01824951171875,0.99029541015625,2.175750732421875,-3.611297607421875,0.411224365234375,0.0,4.0,4.0,4.0,4.0,75.0,event
13:44:22.477,0.0,0.0,0.0,0.0,0.0,0.0,0.0,0.0,0.0,0.0,0.0,0.0,0.0,0.0,0.0,0.0,0.0,0.0,0.0,0.0,808.68134,823.5897,783.2967,797.8022,743.4066,-0.0140380859375,0.01824951171875,0.99029541015625,2.175750732421875,-3.611297607421875,0.411224365234375,0.0,4.0,4.0,4.0,4.0,75.0,event
13:44:22.478,0.0,0.0,0.0,0.0,0.0,0.0,0.0,0.0,0.0,0.0,0.0,0.0,0.0,0.0,0.0,0.0,0.0,0.0,0.0,0.0,803.0403,814.3223,816.7399,806.6667,743.00366,-0.0140380859375,0.01824951171875,0.99029541015625,2.175750732421875,-3.611297607421875,0.411224365234375,0.0,4.0,4.0,4.0,4.0,75.0,event
13:44:22.478,0.0,0.0,0.0,0.0,0.0,0.0,0.0,0.0,0.0,0.0,0.0,0.0,0.0,0.0,0.0,0.0,0.0,0.0,0.0,0.0,796.99634,835.2747,753.8828,798.60803,771.2088,-0.0140380859375,0.01824951171875,0.99029541015625,2.175750732421875,-3.611297607421875,0.411224365234375,0.0,4.0,4.0,4.0,4.0,75.0,event
13:44:22.479,0.0,0.0,0.0,0.0,0.0,0.0,0.0,0.0,0.0,0.0,0.0,0.0,0.0,0.0,0.0,0.0,0.0,0.0,0.0,0.0,819.9634,804.2491,850.989,823.5897,832.4542,-0.0140380859375,0.01824951171875,0.99029541015625,2.175750732421875,-3.611297607421875,0.411224365234375,0.0,4.0,4.0,4.0,4.0,75.0,event
13:44:22.480,0.0,0.0,0.0,0.0,0.0,0.0,0.0,0.0,0.0,0.0,0.0,0.0,0.0,0.0,0.0,0.0,0.0,0.0,0.0,0.0,808.2784,811.9048,803.0403,817.1429,1029.0842,-0.0140380859375,0.01824951171875,0.99029541015625,2.175750732421875,-3.611297607421875,0.411224365234375,0.0,4.0,4.0,4.0,4.0,75.0,event
13:44:22.481,0.0,0.0,0.0,0.0,0.0,0.0,0.0,0.0,0.0,0.0,0.0,0.0,0.0,0.0,0.0,0.0,0.0,0.0,0.0,0.0,776.04395,805.4579,806.26373,779.67035,1019.81683,-0.0140380859375,0.01824951171875,0.99029541015625,2.175750732421875,-3.611297607421875,0.411224365234375,0.0,4.0,4.0,4.0,4.0,75.0,event
13:44:22.482,0.0,0.0,0.0,0.0,0.0,0.0,0.0,0.0,0.0,0.0,0.0,0.0,0.0,0.0,0.0,0.0,0.0,0.0,0.0,0.0,801.4286,811.0989,816.7399,806.26373,800.6227,-0.0140380859375,0.01824951171875,0.99029541015625,2.175750732421875,-3.611297607421875,0.411224365234375,0.0,4.0,4.0,4.0,4.0,75.0,event
13:44:22.483,0.0,0.0,0.0,0.0,0.0,0.0,0.0,0.0,0.0,0.0,0.0,0.0,0.0,0.0,0.0,0.0,0.0,0.0,0.0,0.0,821.1722,815.9341,786.52014,829.2308,802.6374,-0.0140380859375,0.01824951171875,0.99029541015625,2.175750732421875,-3.611297607421875,0.411224365234375,0.0,4.0,4.0,4.0,4.0,75.0,event
13:44:22.484,0.0,0.0,0.0,0.0,0.0,0.0,0.0,0.0,0.0,0.0,0.0,0.0,0.0,0.0,0.0,0.0,0.0,0.0,0.0,0.0,786.1172,824.3956,763.1502,790.9524,973.0769,-0.0140380859375,0.01824951171875,0.99029541015625,2.175750732421875,-3.611297607421875,0.411224365234375,0.0,4.0,4.0,4.0,4.0,75.0,event
13:44:22.485,0.0,0.0,0.0,0.0,0.0,0.0,0.0,0.0,0.0,0.0,0.0,0.0,0.0,0.0,0.0,0.0,0.0,0.0,0.0,0.0,765.9707,834.87177,781.28204,770.0,888.0586,-0.0140380859375,0.01824951171875,0.99029541015625,2.175750732421875,-3.611297607421875,0.411224365234375,0.0,4.0,4.0,4.0,4.0,75.0,event
13:44:22.485,0.0,0.0,0.0,0.0,0.0,0.0,0.0,0.0,0.0,0.0,0.0,0.0,0.0,0.0,0.0,0.0,0.0,0.0,0.0,0.0,775.2381,821.978,819.5604,770.80585,720.84247,-0.0140380859375,0.01824951171875,0.99029541015625,2.175750732421875,-3.611297607421875,0.411224365234375,0.0,4.0,4.0,4.0,4.0,75.0,event
13:44:22.524,0.0,0.0,0.0,0.0,0.0,0.0,0.0,0.0,0.0,0.0,0.0,0.0,0.0,0.0,0.0,0.0,0.0,0.0,0.0,0.0,823.1868,786.52014,838.9011,812.3077,821.1722,-0.01666259765625,0.0166015625,0.98419189453125,1.973876953125,-3.491668701171875,0.40374755859375,0.0,4.0,4.0,4.0,4.0,75.0,event
13:44:22.525,0.0,0.0,0.0,0.0,0.0,0.0,0.0,0.0,0.0,0.0,0.0,0.0,0.0,0.0,0.0,0.0,0.0,0.0,0.0,0.0,831.6484,803.0403,850.18317,839.304,868.315,-0.01666259765625,0.0166015625,0.98419189453125,1.973876953125,-3.491668701171875,0.40374755859375,0.0,4.0,4.0,4.0,4.0,75.0,event
13:44:22.526,0.0,0.0,0.0,0.0,0.0,0.0,0.0,0.0,0.0,0.0,0.0,0.0,0.0,0.0,0.0,0.0,0.0,0.0,0.0,0.0,793.36993,836.4835,784.10254,807.47253,820.7692,-0.01666259765625,0.0166015625,0.98419189453125,1.973876953125,-3.491668701171875,0.40374755859375,0.0,4.0,4.0,4.0,4.0,75.0,event
13:44:22.527,0.0,0.0,0.0,0.0,0.0,0.0,0.0,0.0,0.0,0.0,0.0,0.0,0.0,0.0,0.0,0.0,0.0,0.0,0.0,0.0,801.02563,806.26373,784.90845,793.36993,729.707,-0.01666259765625,0.0166015625,0.98419189453125,1.973876953125,-3.491668701171875,0.40374755859375,0.0,4.0,4.0,4.0,4.0,75.0,event
13:44:22.527,0.0,0.0,0.0,0.0,0.0,0.0,0.0,0.0,0.0,0.0,0.0,0.0,0.0,0.0,0.0,0.0,0.0,0.0,0.0,0.0,792.1612,823.9927,756.30035,790.54944,724.87177,-0.01666259765625,0.0166015625,0.98419189453125,1.973876953125,-3.491668701171875,0.40374755859375,0.0,4.0,4.0,4.0,4.0,75.0,event
13:44:22.528,0.0,0.0,0.0,0.0,0.0,0.0,0.0,0.0,0.0,0.0,0.0,0.0,0.0,0.0,0.0,0.0,0.0,0.0,0.0,0.0,827.619,814.7253,762.3443,819.9634,898.1319,-0.01666259765625,0.0166015625,0.98419189453125,1.973876953125,-3.491668701171875,0.40374755859375,0.0,4.0,4.0,4.0,4.0,75.0,event
13:44:22.531,0.0,0.0,0.0,0.0,0.0,0.0,0.0,0.0,0.0,0.0,0.0,0.0,0.0,0.0,0.0,0.0,0.0,0.0,0.0,0.0,850.989,830.84247,779.2674,846.1539,931.978,-0.01666259765625,0.0166015625,0.98419189453125,1.973876953125,-3.491668701171875,0.40374755859375,0.0,4.0,4.0,4.0,4.0,75.0,event
13:44:22.532,0.0,0.0,0.0,0.0,0.0,0.0,0.0,0.0,0.0,0.0,0.0,0.0,0.0,0.0,0.0,0.0,0.0,0.0,0.0,0.0,831.6484,855.82416,830.84247,830.4396,880.40295,-0.01666259765625,0.0166015625,0.98419189453125,1.973876953125,-3.491668701171875,0.40374755859375,0.0,4.0,4.0,4.0,4.0,75.0,event
13:44:22.533,0.0,0.0,0.0,0.0,0.0,0.0,0.0,0.0,0.0,0.0,0.0,0.0,0.0,0.0,0.0,0.0,0.0,0.0,0.0,0.0,784.5055,853.00366,834.4689,790.14655,860.65936,-0.01666259765625,0.0166015625,0.98419189453125,1.973876953125,-3.491668701171875,0.40374755859375,0.0,4.0,4.0,4.0,4.0,75.0,event
13:44:22.533,0.0,0.0,0.0,0.0,0.0,0.0,0.0,0.0,0.0,0.0,0.0,0.0,0.0,0.0,0.0,0.0,0.0,0.0,0.0,0.0,781.28204,819.5604,849.7802,781.685,984.35895,-0.01666259765625,0.0166015625,0.98419189453125,1.973876953125,-3.491668701171875,0.40374755859375,0.0,4.0,4.0,4.0,4.0,75.0,event
13:44:22.534,0.0,0.0,0.0,0.0,0.0,0.0,0.0,0.0,0.0,0.0,0.0,0.0,0.0,0.0,0.0,0.0,0.0,0.0,0.0,0.0,797.3993,815.12823,821.5751,785.31134,833.663,-0.01666259765625,0.0166015625,0.98419189453125,1.973876953125,-3.491668701171875,0.40374755859375,0.0,4.0,4.0,4.0,4.0,75.0,event
13:44:22.535,0.0,0.0,0.0,0.0,0.0,0.0,0.0,0.0,0.0,0.0,0.0,0.0,0.0,0.0,0.0,0.0,0.0,0.0,0.0,0.0,809.4872,799.41394,782.8938,807.0696,642.674,-0.01666259765625,0.0166015625,0.98419189453125,1.973876953125,-3.491668701171875,0.40374755859375,0.0,4.0,4.0,4.0,4.0,75.0,event
13:44:22.578,0.0,0.0,0.0,0.0,0.0,0.0,0.0,0.0,0.0,0.0,0.0,0.0,0.0,0.0,0.0,0.0,0.0,0.0,0.0,0.0,820.7692,813.91943,794.57874,827.619,747.8388,-0.0162353515625,0.0186767578125,0.9862060546875,2.213134765625,-3.416900634765625,0.261688232421875,0.0,4.0,4.0,4.0,4.0,75.0,event
13:44:22.579,0.0,0.0,0.0,0.0,0.0,0.0,0.0,0.0,0.0,0.0,0.0,0.0,0.0,0.0,0.0,0.0,0.0,0.0,0.0,0.0,804.65204,828.8278,782.0879,801.4286,704.3223,-0.0162353515625,0.0186767578125,0.9862060546875,2.213134765625,-3.416900634765625,0.261688232421875,0.0,4.0,4.0,4.0,4.0,75.0,event
13:44:22.580,0.0,0.0,0.0,0.0,0.0,0.0,0.0,0.0,0.0,0.0,0.0,0.0,0.0,0.0,0.0,0.0,0.0,0.0,0.0,0.0,796.1905,798.20514,784.10254,784.10254,628.5714,-0.0162353515625,0.0186767578125,0.9862060546875,2.213134765625,-3.416900634765625,0.261688232421875,0.0,4.0,4.0,4.0,4.0,75.0,event
13:44:22.582,0.0,0.0,0.0,0.0,0.0,0.0,0.0,0.0,0.0,0.0,0.0,0.0,0.0,0.0,0.0,0.0,0.0,0.0,0.0,0.0,801.8315,797.8022,801.8315,790.9524,655.56775,-0.0162353515625,0.0186767578125,0.9862060546875,2.213134765625,-3.416900634765625,0.261688232421875,0.0,4.0,4.0,4.0,4.0,75.0,event
13:44:22.583,0.0,0.0,0.0,0.0,0.0,0.0,0.0,0.0,0.0,0.0,0.0,0.0,0.0,0.0,0.0,0.0,0.0,0.0,0.0,0.0,816.7399,842.9304,790.9524,819.15753,747.4359,-0.0162353515625,0.0186767578125,0.9862060546875,2.213134765625,-3.416900634765625,0.261688232421875,0.0,4.0,4.0,4.0,4.0,75.0,event
13:44:22.584,0.0,0.0,0.0,0.0,0.0,0.0,0.0,0.0,0.0,0.0,0.0,0.0,0.0,0.0,0.0,0.0,0.0,0.0,0.0,0.0,829.6337,854.21246,809.89014,835.2747,836.8865,-0.0162353515625,0.0186767578125,0.9862060546875,2.213134765625,-3.416900634765625,0.261688232421875,0.0,4.0,4.0,4.0,4.0,75.0,event
13:44:22.585,0.0,0.0,0.0,0.0,0.0,0.0,0.0,0.0,0.0,0.0,0.0,0.0,0.0,0.0,0.0,0.0,0.0,0.0,0.0,0.0,807.8755,819.5604,799.011,807.8755,866.7033,-0.0162353515625,0.0186767578125,0.9862060546875,2.213134765625,-3.416900634765625,0.261688232421875,0.0,4.0,4.0,4.0,4.0,75.0,event
13:44:22.587,0.0,0.0,0.0,0.0,0.0,0.0,0.0,0.0,0.0,0.0,0.0,0.0,0.0,0.0,0.0,0.0,0.0,0.0,0.0,0.0,803.8461,800.2198,794.57874,798.20514,755.89746,-0.0162353515625,0.0186767578125,0.9862060546875,2.213134765625,-3.416900634765625,0.261688232421875,0.0,4.0,4.0,4.0,4.0,75.0,event
13:44:22.588,0.0,0.0,0.0,0.0,0.0,0.0,0.0,0.0,0.0,0.0,0.0,0.0,0.0,0.0,0.0,0.0,0.0,0.0,0.0,0.0,789.34064,797.8022,816.337,789.7436,867.1062,-0.0162353515625,0.0186767578125,0.9862060546875,2.213134765625,-3.416900634765625,0.261688232421875,0.0,4.0,4.0,4.0,4.0,75.0,event
13:44:22.589,0.0,0.0,0.0,0.0,0.0,0.0,0.0,0.0,0.0,0.0,0.0,0.0,0.0,0.0,0.0,0.0,0.0,0.0,0.0,0.0,787.72894,809.4872,814.7253,796.5934,988.7912,-0.0162353515625,0.0186767578125,0.9862060546875,2.213134765625,-3.416900634765625,0.261688232421875,0.0,4.0,4.0,4.0,4.0,75.0,event
13:44:22.590,0.0,0.0,0.0,0.0,0.0,0.0,0.0,0.0,0.0,0.0,0.0,0.0,0.0,0.0,0.0,0.0,0.0,0.0,0.0,0.0,819.15753,839.707,794.17584,823.1868,819.5604,-0.0162353515625,0.0186767578125,0.9862060546875,2.213134765625,-3.416900634765625,0.261688232421875,0.0,4.0,4.0,4.0,4.0,75.0,event
13:44:22.591,0.0,0.0,0.0,0.0,0.0,0.0,0.0,0.0,0.0,0.0,0.0,0.0,0.0,0.0,0.0,0.0,0.0,0.0,0.0,0.0,819.9634,844.1392,794.9817,824.7985,817.1429,-0.0162353515625,0.0186767578125,0.9862060546875,2.213134765625,-3.416900634765625,0.261688232421875,0.0,4.0,4.0,4.0,4.0,75.0,event
13:44:22.626,0.0,0.0,0.0,0.0,0.0,0.0,0.0,0.0,0.0,0.0,0.0,0.0,0.0,0.0,0.0,0.0,0.0,0.0,0.0,0.0,808.2784,810.696,783.2967,806.26373,831.6484,-0.016357421875,0.01690673828125,0.99114990234375,1.622467041015625,-3.7982177734375,0.5084228515625,0.0,4.0,4.0,4.0,4.0,75.0,event
13:44:22.627,0.0,0.0,0.0,0.0,0.0,0.0,0.0,0.0,0.0,0.0,0.0,0.0,0.0,0.0,0.0,0.0,0.0,0.0,0.0,0.0,824.3956,830.0366,782.0879,813.91943,703.1135,-0.016357421875,0.01690673828125,0.99114990234375,1.622467041015625,-3.7982177734375,0.5084228515625,0.0,4.0,4.0,4.0,4.0,75.0,event
13:44:22.628,0.0,0.0,0.0,0.0,0.0,0.0,0.0,0.0,0.0,0.0,0.0,0.0,0.0,0.0,0.0,0.0,0.0,0.0,0.0,0.0,807.8755,801.02563,821.5751,815.5311,747.03296,-0.016357421875,0.01690673828125,0.99114990234375,1.622467041015625,-3.7982177734375,0.5084228515625,0.0,4.0,4.0,4.0,4.0,75.0,event
13:44:22.628,0.0,0.0,0.0,0.0,0.0,0.0,0.0,0.0,0.0,0.0,0.0,0.0,0.0,0.0,0.0,0.0,0.0,0.0,0.0,0.0,826.4103,834.4689,809.89014,826.0073,645.89746,-0.016357421875,0.01690673828125,0.99114990234375,1.622467041015625,-3.7982177734375,0.5084228515625,0.0,4.0,4.0,4.0,4.0,75.0,event
13:44:22.629,0.0,0.0,0.0,0.0,0.0,0.0,0.0,0.0,0.0,0.0,0.0,0.0,0.0,0.0,0.0,0.0,0.0,0.0,0.0,0.0,801.02563,805.4579,812.3077,802.6374,776.8498,-0.016357421875,0.01690673828125,0.99114990234375,1.622467041015625,-3.7982177734375,0.5084228515625,0.0,4.0,4.0,4.0,4.0,75.0,event
13:44:22.630,0.0,0.0,0.0,0.0,0.0,0.0,0.0,0.0,0.0,0.0,0.0,0.0,0.0,0.0,0.0,0.0,0.0,0.0,0.0,0.0,793.7729,834.0659,770.0,792.5641,807.47253,-0.016357421875,0.01690673828125,0.99114990234375,1.622467041015625,-3.7982177734375,0.5084228515625,0.0,4.0,4.0,4.0,4.0,75.0,event
13:44:22.630,0.0,0.0,0.0,0.0,0.0,0.0,0.0,0.0,0.0,0.0,0.0,0.0,0.0,0.0,0.0,0.0,0.0,0.0,0.0,0.0,793.36993,832.0513,774.0293,786.9231,798.20514,-0.016357421875,0.01690673828125,0.99114990234375,1.622467041015625,-3.7982177734375,0.5084228515625,0.0,4.0,4.0,4.0,4.0,75.0,event
13:44:22.631,0.0,0.0,0.0,0.0,0.0,0.0,0.0,0.0,0.0,0.0,0.0,0.0,0.0,0.0,0.0,0.0,0.0,0.0,0.0,0.0,806.26373,751.06226,821.5751,798.60803,834.87177,-0.016357421875,0.01690673828125,0.99114990234375,1.622467041015625,-3.7982177734375,0.5084228515625,0.0,4.0,4.0,4.0,4.0,75.0,event
13:44:22.634,0.0,0.0,0.0,0.0,0.0,0.0,0.0,0.0,0.0,0.0,0.0,0.0,0.0,0.0,0.0,0.0,0.0,0.0,0.0,0.0,815.5311,761.13556,828.4249,823.9927,1019.011,-0.016357421875,0.01690673828125,0.99114990234375,1.622467041015625,-3.7982177734375,0.5084228515625,0.0,4.0,4.0,4.0,4.0,75.0,event
13:44:22.635,0.0,0.0,0.0,0.0,0.0,0.0,0.0,0.0,0.0,0.0,0.0,0.0,0.0,0.0,0.0,0.0,0.0,0.0,0.0,0.0,808.68134,821.5751,813.91943,814.7253,851.39197,-0.016357421875,0.01690673828125,0.99114990234375,1.622467041015625,-3.7982177734375,0.5084228515625,0.0,4.0,4.0,4.0,4.0,75.0,event
13:44:22.636,0.0,0.0,0.0,0.0,0.0,0.0,0.0,0.0,0.0,0.0,0.0,0.0,0.0,0.0,0.0,0.0,0.0,0.0,0.0,0.0,788.5348,797.8022,755.89746,786.1172,697.0696,-0.016357421875,0.01690673828125,0.99114990234375,1.622467041015625,-3.7982177734375,0.5084228515625,0.0,4.0,4.0,4.0,4.0,75.0,event
13:44:22.636,0.0,0.0,0.0,0.0,0.0,0.0,0.0,0.0,0.0,0.0,0.0,0.0,0.0,0.0,0.0,0.0,0.0,0.0,0.0,0.0,794.57874,822.7839,752.27106,787.326,750.65936,-0.016357421875,0.01690673828125,0.99114990234375,1.622467041015625,-3.7982177734375,0.5084228515625,0.0,4.0,4.0,4.0,4.0,75.0,event
13:44:22.678,0.0,0.0,0.0,0.0,0.0,0.0,0.0,0.0,0.0,0.0,0.0,0.0,0.0,0.0,0.0,0.0,0.0,0.0,0.0,0.0,800.2198,833.663,805.4579,795.38464,747.4359,-0.01788330078125,0.01513671875,0.986572265625,1.973876953125,-3.132781982421875,-0.246734619140625,0.0,4.0,4.0,4.0,4.0,75.0,event
13:44:22.679,0.0,0.0,0.0,0.0,0.0,0.0,0.0,0.0,0.0,0.0,0.0,0.0,0.0,0.0,0.0,0.0,0.0,0.0,0.0,0.0,809.0842,805.05493,834.4689,813.1135,749.0476,-0.01788330078125,0.01513671875,0.986572265625,1.973876953125,-3.132781982421875,-0.246734619140625,0.0,4.0,4.0,4.0,4.0,75.0,event
13:44:22.680,0.0,0.0,0.0,0.0,0.0,0.0,0.0,0.0,0.0,0.0,0.0,0.0,0.0,0.0,0.0,0.0,0.0,0.0,0.0,0.0,811.9048,779.67035,832.4542,820.7692,777.25275,-0.01788330078125,0.01513671875,0.986572265625,1.973876953125,-3.132781982421875,-0.246734619140625,0.0,4.0,4.0,4.0,4.0,75.0,event
13:44:22.681,0.0,0.0,0.0,0.0,0.0,0.0,0.0,0.0,0.0,0.0,0.0,0.0,0.0,0.0,0.0,0.0,0.0,0.0,0.0,0.0,806.6667,768.7912,815.9341,817.9487,835.2747,-0.01788330078125,0.01513671875,0.986572265625,1.973876953125,-3.132781982421875,-0.246734619140625,0.0,4.0,4.0,4.0,4.0,75.0,event
13:44:22.683,0.0,0.0,0.0,0.0,0.0,0.0,0.0,0.0,0.0,0.0,0.0,0.0,0.0,0.0,0.0,0.0,0.0,0.0,0.0,0.0,812.3077,789.7436,793.36993,815.12823,761.53845,-0.01788330078125,0.01513671875,0.986572265625,1.973876953125,-3.132781982421875,-0.246734619140625,0.0,4.0,4.0,4.0,4.0,75.0,event
13:44:22.684,0.0,0.0,0.0,0.0,0.0,0.0,0.0,0.0,0.0,0.0,0.0,0.0,0.0,0.0,0.0,0.0,0.0,0.0,0.0,0.0,825.2015,826.8132,767.5824,825.2015,757.1062,-0.01788330078125,0.01513671875,0.986572265625,1.973876953125,-3.132781982421875,-0.246734619140625,0.0,4.0,4.0,4.0,4.0,75.0,event
13:44:22.685,0.0,0.0,0.0,0.0,0.0,0.0,0.0,0.0,0.0,0.0,0.0,0.0,0.0,0.0,0.0,0.0,0.0,0.0,0.0,0.0,843.3333,837.6923,775.2381,841.7216,840.10986,-0.01788330078125,0.01513671875,0.986572265625,1.973876953125,-3.132781982421875,-0.246734619140625,0.0,4.0,4.0,4.0,4.0,75.0,event
13:44:22.687,0.0,0.0,0.0,0.0,0.0,0.0,0.0,0.0,0.0,0.0,0.0,0.0,0.0,0.0,0.0,0.0,0.0,0.0,0.0,0.0,791.75824,815.12823,774.0293,797.8022,999.67035,-0.01788330078125,0.01513671875,0.986572265625,1.973876953125,-3.132781982421875,-0.246734619140625,0.0,4.0,4.0,4.0,4.0,75.0,event
13:44:22.688,0.0,0.0,0.0,0.0,0.0,0.0,0.0,0.0,0.0,0.0,0.0,0.0,0.0,0.0,0.0,0.0,0.0,0.0,0.0,0.0,747.8388,789.34064,782.8938,755.4945,1003.2967,-0.01788330078125,0.01513671875,0.986572265625,1.973876953125,-3.132781982421875,-0.246734619140625,0.0,4.0,4.0,4.0,4.0,75.0,event
13:44:22.688,0.0,0.0,0.0,0.0,0.0,0.0,0.0,0.0,0.0,0.0,0.0,0.0,0.0,0.0,0.0,0.0,0.0,0.0,0.0,0.0,776.8498,774.43225,827.2161,771.6117,725.6777,-0.01788330078125,0.01513671875,0.986572265625,1.973876953125,-3.132781982421875,-0.246734619140625,0.0,4.0,4.0,4.0,4.0,75.0,event
13:44:22.689,0.0,0.0,0.0,0.0,0.0,0.0,0.0,0.0,0.0,0.0,0.0,0.0,0.0,0.0,0.0,0.0,0.0,0.0,0.0,0.0,805.4579,776.4469,813.1135,806.26373,747.8388,-0.01788330078125,0.01513671875,0.986572265625,1.973876953125,-3.132781982421875,-0.246734619140625,0.0,4.0,4.0,4.0,4.0,75.0,event
13:44:22.689,0.0,0.0,0.0,0.0,0.0,0.0,0.0,0.0,0.0,0.0,0.0,0.0,0.0,0.0,0.0,0.0,0.0,0.0,0.0,0.0,825.2015,782.8938,796.5934,838.0952,826.4103,-0.01788330078125,0.01513671875,0.986572265625,1.973876953125,-3.132781982421875,-0.246734619140625,0.0,4.0,4.0,4.0,4.0,75.0,event
13:44:22.719,0.0,0.0,0.0,0.0,0.0,0.0,0.0,0.0,0.0,0.0,0.0,0.0,0.0,0.0,0.0,0.0,0.0,0.0,0.0,0.0,816.7399,773.22345,850.18317,825.6044,804.65204,-0.01788330078125,0.01513671875,0.986572265625,1.973876953125,-3.132781982421875,-0.246734619140625,0.0,4.0,4.0,4.0,4.0,75.0,event
13:44:22.720,0.0,0.0,0.0,0.0,0.0,0.0,0.0,0.0,0.0,0.0,0.0,0.0,0.0,0.0,0.0,0.0,0.0,0.0,0.0,0.0,795.78754,796.1905,840.5128,792.1612,710.7692,-0.01788330078125,0.01513671875,0.986572265625,1.973876953125,-3.132781982421875,-0.246734619140625,0.0,4.0,4.0,4.0,4.0,75.0,event
13:44:22.721,0.0,0.0,0.0,0.0,0.0,0.0,0.0,0.0,0.0,0.0,0.0,0.0,0.0,0.0,0.0,0.0,0.0,0.0,0.0,0.0,791.3553,823.1868,783.69965,787.326,659.19415,-0.01788330078125,0.01513671875,0.986572265625,1.973876953125,-3.132781982421875,-0.246734619140625,0.0,4.0,4.0,4.0,4.0,75.0,event
13:44:22.723,0.0,0.0,0.0,0.0,0.0,0.0,0.0,0.0,0.0,0.0,0.0,0.0,0.0,0.0,0.0,0.0,0.0,0.0,0.0,0.0,802.6374,832.8571,787.326,808.68134,705.12823,-0.01788330078125,0.01513671875,0.986572265625,1.973876953125,-3.132781982421875,-0.246734619140625,0.0,4.0,4.0,4.0,4.0,75.0,event
13:44:22.724,0.0,0.0,0.0,0.0,0.0,0.0,0.0,0.0,0.0,0.0,0.0,0.0,0.0,0.0,0.0,0.0,0.0,0.0,0.0,0.0,833.2601,812.3077,807.8755,848.1685,825.2015,-0.01788330078125,0.01513671875,0.986572265625,1.973876953125,-3.132781982421875,-0.246734619140625,0.0,4.0,4.0,4.0,4.0,75.0,event
13:44:22.725,0.0,0.0,0.0,0.0,0.0,0.0,0.0,0.0,0.0,0.0,0.0,0.0,0.0,0.0,0.0,0.0,0.0,0.0,0.0,0.0,826.0073,809.89014,778.86444,838.49817,823.1868,-0.01788330078125,0.01513671875,0.986572265625,1.973876953125,-3.132781982421875,-0.246734619140625,0.0,4.0,4.0,4.0,4.0,75.0,event
13:44:22.727,0.0,0.0,0.0,0.0,0.0,0.0,0.0,0.0,0.0,0.0,0.0,0.0,0.0,0.0,0.0,0.0,0.0,0.0,0.0,0.0,791.75824,799.41394,760.32965,792.1612,795.78754,-0.01788330078125,0.01513671875,0.986572265625,1.973876953125,-3.132781982421875,-0.246734619140625,0.0,4.0,4.0,4.0,4.0,75.0,event
13:44:22.728,0.0,0.0,0.0,0.0,0.0,0.0,0.0,0.0,0.0,0.0,0.0,0.0,0.0,0.0,0.0,0.0,0.0,0.0,0.0,0.0,778.86444,753.47986,766.77655,777.25275,1079.4506,-0.01788330078125,0.01513671875,0.986572265625,1.973876953125,-3.132781982421875,-0.246734619140625,0.0,4.0,4.0,4.0,4.0,75.0,event
13:44:22.729,0.0,0.0,0.0,0.0,0.0,0.0,0.0,0.0,0.0,0.0,0.0,0.0,0.0,0.0,0.0,0.0,0.0,0.0,0.0,0.0,797.8022,799.011,805.05493,801.02563,960.58606,-0.01788330078125,0.01513671875,0.986572265625,1.973876953125,-3.132781982421875,-0.246734619140625,0.0,4.0,4.0,4.0,4.0,75.0,event
13:44:22.730,0.0,0.0,0.0,0.0,0.0,0.0,0.0,0.0,0.0,0.0,0.0,0.0,0.0,0.0,0.0,0.0,0.0,0.0,0.0,0.0,822.7839,829.6337,841.31866,828.8278,628.1685,-0.01788330078125,0.01513671875,0.986572265625,1.973876953125,-3.132781982421875,-0.246734619140625,0.0,4.0,4.0,4.0,4.0,75.0,event
13:44:22.735,0.0,0.0,0.0,0.0,0.0,0.0,0.0,0.0,0.0,0.0,0.0,0.0,0.0,0.0,0.0,0.0,0.0,0.0,0.0,0.0,817.5458,806.26373,831.2454,830.0366,718.4249,-0.01788330078125,0.01513671875,0.986572265625,1.973876953125,-3.132781982421875,-0.246734619140625,0.0,4.0,4.0,4.0,4.0,75.0,event
13:44:22.736,0.0,0.0,0.0,0.0,0.0,0.0,0.0,0.0,0.0,0.0,0.0,0.0,0.0,0.0,0.0,0.0,0.0,0.0,0.0,0.0,800.2198,809.0842,823.1868,811.9048,788.93774,-0.01788330078125,0.01513671875,0.986572265625,1.973876953125,-3.132781982421875,-0.246734619140625,0.0,4.0,4.0,4.0,4.0,75.0,event
13:44:22.777,0.0,0.0,0.0,0.0,0.0,0.0,0.0,0.0,0.0,0.0,0.0,0.0,0.0,0.0,0.0,0.0,0.0,0.0,0.0,0.0,797.3993,780.87915,794.9817,797.8022,699.4872,-0.01458740234375,0.018310546875,0.988525390625,2.235565185546875,-3.835601806640625,0.471038818359375,0.0,4.0,4.0,4.0,4.0,75.0,event
13:44:22.778,0.0,0.0,0.0,0.0,0.0,0.0,0.0,0.0,0.0,0.0,0.0,0.0,0.0,0.0,0.0,0.0,0.0,0.0,0.0,0.0,819.5604,772.4176,750.2564,813.91943,663.6264,-0.01458740234375,0.018310546875,0.988525390625,2.235565185546875,-3.835601806640625,0.471038818359375,0.0,4.0,4.0,4.0,4.0,75.0,event
13:44:22.779,0.0,0.0,0.0,0.0,0.0,0.0,0.0,0.0,0.0,0.0,0.0,0.0,0.0,0.0,0.0,0.0,0.0,0.0,0.0,0.0,821.978,811.0989,753.47986,819.5604,765.16486,-0.01458740234375,0.018310546875,0.988525390625,2.235565185546875,-3.835601806640625,0.471038818359375,0.0,4.0,4.0,4.0,4.0,75.0,event
13:44:22.781,0.0,0.0,0.0,0.0,0.0,0.0,0.0,0.0,0.0,0.0,0.0,0.0,0.0,0.0,0.0,0.0,0.0,0.0,0.0,0.0,818.7546,817.1429,815.12823,820.7692,782.49084,-0.01458740234375,0.018310546875,0.988525390625,2.235565185546875,-3.835601806640625,0.471038818359375,0.0,4.0,4.0,4.0,4.0,75.0,event
13:44:22.782,0.0,0.0,0.0,0.0,0.0,0.0,0.0,0.0,0.0,0.0,0.0,0.0,0.0,0.0,0.0,0.0,0.0,0.0,0.0,0.0,816.7399,807.0696,855.0183,816.337,718.8278,-0.01458740234375,0.018310546875,0.988525390625,2.235565185546875,-3.835601806640625,0.471038818359375,0.0,4.0,4.0,4.0,4.0,75.0,event
13:44:22.784,0.0,0.0,0.0,0.0,0.0,0.0,0.0,0.0,0.0,0.0,0.0,0.0,0.0,0.0,0.0,0.0,0.0,0.0,0.0,0.0,814.3223,811.50183,845.34796,802.23444,753.47986,-0.01458740234375,0.018310546875,0.988525390625,2.235565185546875,-3.835601806640625,0.471038818359375,0.0,4.0,4.0,4.0,4.0,75.0,event
13:44:22.785,0.0,0.0,0.0,0.0,0.0,0.0,0.0,0.0,0.0,0.0,0.0,0.0,0.0,0.0,0.0,0.0,0.0,0.0,0.0,0.0,794.17584,778.86444,813.91943,791.3553,934.7985,-0.01458740234375,0.018310546875,0.988525390625,2.235565185546875,-3.835601806640625,0.471038818359375,0.0,4.0,4.0,4.0,4.0,75.0,event
13:44:22.787,0.0,0.0,0.0,0.0,0.0,0.0,0.0,0.0,0.0,0.0,0.0,0.0,0.0,0.0,0.0,0.0,0.0,0.0,0.0,0.0,790.54944,739.7802,774.0293,798.20514,1012.96704,-0.01458740234375,0.018310546875,0.988525390625,2.235565185546875,-3.835601806640625,0.471038818359375,0.0,4.0,4.0,4.0,4.0,75.0,event
13:44:22.788,0.0,0.0,0.0,0.0,0.0,0.0,0.0,0.0,0.0,0.0,0.0,0.0,0.0,0.0,0.0,0.0,0.0,0.0,0.0,0.0,805.05493,770.40295,746.2271,811.0989,852.6007,-0.01458740234375,0.018310546875,0.988525390625,2.235565185546875,-3.835601806640625,0.471038818359375,0.0,4.0,4.0,4.0,4.0,75.0,event
13:44:22.789,0.0,0.0,0.0,0.0,0.0,0.0,0.0,0.0,0.0,0.0,0.0,0.0,0.0,0.0,0.0,0.0,0.0,0.0,0.0,0.0,795.38464,819.5604,788.5348,802.23444,769.59705,-0.01458740234375,0.018310546875,0.988525390625,2.235565185546875,-3.835601806640625,0.471038818359375,0.0,4.0,4.0,4.0,4.0,75.0,event
13:44:22.791,0.0,0.0,0.0,0.0,0.0,0.0,0.0,0.0,0.0,0.0,0.0,0.0,0.0,0.0,0.0,0.0,0.0,0.0,0.0,0.0,801.4286,843.3333,822.7839,800.6227,851.79486,-0.01458740234375,0.018310546875,0.988525390625,2.235565185546875,-3.835601806640625,0.471038818359375,0.0,4.0,4.0,4.0,4.0,75.0,event
13:44:22.792,0.0,0.0,0.0,0.0,0.0,0.0,0.0,0.0,0.0,0.0,0.0,0.0,0.0,0.0,0.0,0.0,0.0,0.0,0.0,0.0,820.7692,842.9304,805.05493,812.3077,800.6227,-0.01458740234375,0.018310546875,0.988525390625,2.235565185546875,-3.835601806640625,0.471038818359375,0.0,4.0,4.0,4.0,4.0,75.0,event
13:44:22.834,0.0,0.0,0.0,0.0,0.0,0.0,0.0,0.0,0.0,0.0,0.0,0.0,0.0,0.0,0.0,0.0,0.0,0.0,0.0,0.0,823.1868,815.9341,786.1172,829.6337,726.4835,-0.0177001953125,0.01702880859375,0.99005126953125,2.03369140625,-3.566436767578125,0.59814453125,0.0,4.0,4.0,4.0,4.0,75.0,event
13:44:22.836,0.0,0.0,0.0,0.0,0.0,0.0,0.0,0.0,0.0,0.0,0.0,0.0,0.0,0.0,0.0,0.0,0.0,0.0,0.0,0.0,805.05493,796.5934,809.89014,833.2601,768.7912,-0.0177001953125,0.01702880859375,0.99005126953125,2.03369140625,-3.566436767578125,0.59814453125,0.0,4.0,4.0,4.0,4.0,75.0,event
13:44:22.837,0.0,0.0,0.0,0.0,0.0,0.0,0.0,0.0,0.0,0.0,0.0,0.0,0.0,0.0,0.0,0.0,0.0,0.0,0.0,0.0,794.9817,774.83514,836.08057,809.4872,765.16486,-0.0177001953125,0.01702880859375,0.99005126953125,2.03369140625,-3.566436767578125,0.59814453125,0.0,4.0,4.0,4.0,4.0,75.0,event
13:44:22.839,0.0,0.0,0.0,0.0,0.0,0.0,0.0,0.0,0.0,0.0,0.0,0.0,0.0,0.0,0.0,0.0,0.0,0.0,0.0,0.0,783.2967,763.5531,788.5348,783.69965,690.2198,-0.0177001953125,0.01702880859375,0.99005126953125,2.03369140625,-3.566436767578125,0.59814453125,0.0,4.0,4.0,4.0,4.0,75.0,event
13:44:22.840,0.0,0.0,0.0,0.0,0.0,0.0,0.0,0.0,0.0,0.0,0.0,0.0,0.0,0.0,0.0,0.0,0.0,0.0,0.0,0.0,776.8498,799.011,750.65936,786.1172,632.1978,-0.0177001953125,0.01702880859375,0.99005126953125,2.03369140625,-3.566436767578125,0.59814453125,0.0,4.0,4.0,4.0,4.0,75.0,event
13:44:22.841,0.0,0.0,0.0,0.0,0.0,0.0,0.0,0.0,0.0,0.0,0.0,0.0,0.0,0.0,0.0,0.0,0.0,0.0,0.0,0.0,797.8022,788.5348,791.3553,811.50183,846.55676,-0.0177001953125,0.01702880859375,0.99005126953125,2.03369140625,-3.566436767578125,0.59814453125,0.0,4.0,4.0,4.0,4.0,75.0,event
13:44:22.842,0.0,0.0,0.0,0.0,0.0,0.0,0.0,0.0,0.0,0.0,0.0,0.0,0.0,0.0,0.0,0.0,0.0,0.0,0.0,0.0,821.1722,807.47253,844.94507,835.2747,1020.2198,-0.0177001953125,0.01702880859375,0.99005126953125,2.03369140625,-3.566436767578125,0.59814453125,0.0,4.0,4.0,4.0,4.0,75.0,event
13:44:22.844,0.0,0.0,0.0,0.0,0.0,0.0,0.0,0.0,0.0,0.0,0.0,0.0,0.0,0.0,0.0,0.0,0.0,0.0,0.0,0.0,819.9634,865.09155,833.663,832.4542,815.5311,-0.0177001953125,0.01702880859375,0.99005126953125,2.03369140625,-3.566436767578125,0.59814453125,0.0,4.0,4.0,4.0,4.0,75.0,event
13:44:22.845,0.0,0.0,0.0,0.0,0.0,0.0,0.0,0.0,0.0,0.0,0.0,0.0,0.0,0.0,0.0,0.0,0.0,0.0,0.0,0.0,799.011,859.0476,805.05493,811.9048,689.011,-0.0177001953125,0.01702880859375,0.99005126953125,2.03369140625,-3.566436767578125,0.59814453125,0.0,4.0,4.0,4.0,4.0,75.0,event
13:44:22.846,0.0,0.0,0.0,0.0,0.0,0.0,0.0,0.0,0.0,0.0,0.0,0.0,0.0,0.0,0.0,0.0,0.0,0.0,0.0,0.0,801.8315,827.2161,819.5604,806.6667,838.49817,-0.0177001953125,0.01702880859375,0.99005126953125,2.03369140625,-3.566436767578125,0.59814453125,0.0,4.0,4.0,4.0,4.0,75.0,event
13:44:22.847,0.0,0.0,0.0,0.0,0.0,0.0,0.0,0.0,0.0,0.0,0.0,0.0,0.0,0.0,0.0,0.0,0.0,0.0,0.0,0.0,821.5751,802.6374,745.0183,828.8278,923.5165,-0.0177001953125,0.01702880859375,0.99005126953125,2.03369140625,-3.566436767578125,0.59814453125,0.0,4.0,4.0,4.0,4.0,75.0,event
13:44:22.848,0.0,0.0,0.0,0.0,0.0,0.0,0.0,0.0,0.0,0.0,0.0,0.0,0.0,0.0,0.0,0.0,0.0,0.0,0.0,0.0,828.4249,774.43225,694.2491,844.5421,847.3626,-0.0177001953125,0.01702880859375,0.99005126953125,2.03369140625,-3.566436767578125,0.59814453125,0.0,4.0,4.0,4.0,4.0,75.0,event
13:44:22.854,0.0,0.0,0.0,0.0,0.0,0.0,0.0,0.0,0.0,0.0,0.0,0.0,0.0,0.0,0.0,0.0,0.0,0.0,0.0,0.0,807.8755,733.3333,823.1868,823.5897,756.7033,-0.017578125,0.01849365234375,0.98736572265625,1.742095947265625,-3.282318115234375,-0.10467529296875,0.0,4.0,4.0,4.0,4.0,75.0,event
13:44:22.855,0.0,0.0,0.0,0.0,0.0,0.0,0.0,0.0,0.0,0.0,0.0,0.0,0.0,0.0,0.0,0.0,0.0,0.0,0.0,0.0,775.2381,768.7912,874.7619,784.10254,805.8608,-0.017578125,0.01849365234375,0.98736572265625,1.742095947265625,-3.282318115234375,-0.10467529296875,0.0,4.0,4.0,4.0,4.0,75.0,event
13:44:22.857,0.0,0.0,0.0,0.0,0.0,0.0,0.0,0.0,0.0,0.0,0.0,0.0,0.0,0.0,0.0,0.0,0.0,0.0,0.0,0.0,770.40295,839.707,803.0403,772.4176,822.381,-0.017578125,0.01849365234375,0.98736572265625,1.742095947265625,-3.282318115234375,-0.10467529296875,0.0,4.0,4.0,4.0,4.0,75.0,event
13:44:22.858,0.0,0.0,0.0,0.0,0.0,0.0,0.0,0.0,0.0,0.0,0.0,0.0,0.0,0.0,0.0,0.0,0.0,0.0,0.0,0.0,800.2198,864.2857,793.7729,794.17584,710.7692,-0.017578125,0.01849365234375,0.98736572265625,1.742095947265625,-3.282318115234375,-0.10467529296875,0.0,4.0,4.0,4.0,4.0,75.0,event
13:44:22.859,0.0,0.0,0.0,0.0,0.0,0.0,0.0,0.0,0.0,0.0,0.0,0.0,0.0,0.0,0.0,0.0,0.0,0.0,0.0,0.0,831.6484,855.82416,815.9341,823.1868,732.52747,-0.017578125,0.01849365234375,0.98736572265625,1.742095947265625,-3.282318115234375,-0.10467529296875,0.0,4.0,4.0,4.0,4.0,75.0,event
13:44:22.860,0.0,0.0,0.0,0.0,0.0,0.0,0.0,0.0,0.0,0.0,0.0,0.0,0.0,0.0,0.0,0.0,0.0,0.0,0.0,0.0,818.3516,817.9487,803.8461,830.84247,837.28937,-0.017578125,0.01849365234375,0.98736572265625,1.742095947265625,-3.282318115234375,-0.10467529296875,0.0,4.0,4.0,4.0,4.0,75.0,event
13:44:22.861,0.0,0.0,0.0,0.0,0.0,0.0,0.0,0.0,0.0,0.0,0.0,0.0,0.0,0.0,0.0,0.0,0.0,0.0,0.0,0.0,790.14655,765.56775,801.02563,810.293,904.57874,-0.017578125,0.01849365234375,0.98736572265625,1.742095947265625,-3.282318115234375,-0.10467529296875,0.0,4.0,4.0,4.0,4.0,75.0,event
13:44:22.863,0.0,0.0,0.0,0.0,0.0,0.0,0.0,0.0,0.0,0.0,0.0,0.0,0.0,0.0,0.0,0.0,0.0,0.0,0.0,0.0,776.4469,763.95605,764.35895,789.34064,798.20514,-0.017578125,0.01849365234375,0.98736572265625,1.742095947265625,-3.282318115234375,-0.10467529296875,0.0,4.0,4.0,4.0,4.0,75.0,event
13:44:22.864,0.0,0.0,0.0,0.0,0.0,0.0,0.0,0.0,0.0,0.0,0.0,0.0,0.0,0.0,0.0,0.0,0.0,0.0,0.0,0.0,787.326,781.685,745.82416,797.3993,751.4652,-0.017578125,0.01849365234375,0.98736572265625,1.742095947265625,-3.282318115234375,-0.10467529296875,0.0,4.0,4.0,4.0,4.0,75.0,event
13:44:22.865,0.0,0.0,0.0,0.0,0.0,0.0,0.0,0.0,0.0,0.0,0.0,0.0,0.0,0.0,0.0,0.0,0.0,0.0,0.0,0.0,817.1429,781.685,772.4176,835.2747,921.0989,-0.017578125,0.01849365234375,0.98736572265625,1.742095947265625,-3.282318115234375,-0.10467529296875,0.0,4.0,4.0,4.0,4.0,75.0,event
13:44:22.867,0.0,0.0,0.0,0.0,0.0,0.0,0.0,0.0,0.0,0.0,0.0,0.0,0.0,0.0,0.0,0.0,0.0,0.0,0.0,0.0,814.7253,805.8608,803.0403,837.6923,935.2015,-0.017578125,0.01849365234375,0.98736572265625,1.742095947265625,-3.282318115234375,-0.10467529296875,0.0,4.0,4.0,4.0,4.0,75.0,event
13:44:22.867,0.0,0.0,0.0,0.0,0.0,0.0,0.0,0.0,0.0,0.0,0.0,0.0,0.0,0.0,0.0,0.0,0.0,0.0,0.0,0.0,795.38464,810.696,823.1868,808.68134,722.8571,-0.017578125,0.01849365234375,0.98736572265625,1.742095947265625,-3.282318115234375,-0.10467529296875,0.0,4.0,4.0,4.0,4.0,75.0,event
13:44:22.891,0.0,0.0,0.0,0.0,0.0,0.0,0.0,0.0,0.0,0.0,0.0,0.0,0.0,0.0,0.0,0.0,0.0,0.0,0.0,0.0,792.5641,806.26373,836.08057,799.011,700.293,-0.017578125,0.01849365234375,0.98736572265625,1.742095947265625,-3.282318115234375,-0.10467529296875,0.0,4.0,4.0,4.0,4.0,75.0,event
13:44:22.892,0.0,0.0,0.0,0.0,0.0,0.0,0.0,0.0,0.0,0.0,0.0,0.0,0.0,0.0,0.0,0.0,0.0,0.0,0.0,0.0,806.6667,805.05493,823.5897,805.05493,753.47986,-0.017578125,0.01849365234375,0.98736572265625,1.742095947265625,-3.282318115234375,-0.10467529296875,0.0,4.0,4.0,4.0,4.0,75.0,event
13:44:22.893,0.0,0.0,0.0,0.0,0.0,0.0,0.0,0.0,0.0,0.0,0.0,0.0,0.0,0.0,0.0,0.0,0.0,0.0,0.0,0.0,804.2491,786.9231,794.17584,814.3223,815.5311,-0.017578125,0.01849365234375,0.98736572265625,1.742095947265625,-3.282318115234375,-0.10467529296875,0.0,4.0,4.0,4.0,4.0,75.0,event
13:44:22.894,0.0,0.0,0.0,0.0,0.0,0.0,0.0,0.0,0.0,0.0,0.0,0.0,0.0,0.0,0.0,0.0,0.0,0.0,0.0,0.0,790.54944,799.41394,817.5458,809.4872,773.22345,-0.017578125,0.01849365234375,0.98736572265625,1.742095947265625,-3.282318115234375,-0.10467529296875,0.0,4.0,4.0,4.0,4.0,75.0,event
13:44:22.894,0.0,0.0,0.0,0.0,0.0,0.0,0.0,0.0,0.0,0.0,0.0,0.0,0.0,0.0,0.0,0.0,0.0,0.0,0.0,0.0,776.4469,786.1172,771.6117,793.7729,780.07324,-0.017578125,0.01849365234375,0.98736572265625,1.742095947265625,-3.282318115234375,-0.10467529296875,0.0,4.0,4.0,4.0,4.0,75.0,event
13:44:22.895,0.0,0.0,0.0,0.0,0.0,0.0,0.0,0.0,0.0,0.0,0.0,0.0,0.0,0.0,0.0,0.0,0.0,0.0,0.0,0.0,790.14655,796.5934,728.49817,797.3993,971.06226,-0.017578125,0.01849365234375,0.98736572265625,1.742095947265625,-3.282318115234375,-0.10467529296875,0.0,4.0,4.0,4.0,4.0,75.0,event
13:44:22.896,0.0,0.0,0.0,0.0,0.0,0.0,0.0,0.0,0.0,0.0,0.0,0.0,0.0,0.0,0.0,0.0,0.0,0.0,0.0,0.0,819.5604,840.5128,782.0879,816.337,887.25275,-0.017578125,0.01849365234375,0.98736572265625,1.742095947265625,-3.282318115234375,-0.10467529296875,0.0,4.0,4.0,4.0,4.0,75.0,event
13:44:22.896,0.0,0.0,0.0,0.0,0.0,0.0,0.0,0.0,0.0,0.0,0.0,0.0,0.0,0.0,0.0,0.0,0.0,0.0,0.0,0.0,841.7216,845.7509,828.022,836.8865,738.1685,-0.017578125,0.01849365234375,0.98736572265625,1.742095947265625,-3.282318115234375,-0.10467529296875,0.0,4.0,4.0,4.0,4.0,75.0,event
13:44:22.897,0.0,0.0,0.0,0.0,0.0,0.0,0.0,0.0,0.0,0.0,0.0,0.0,0.0,0.0,0.0,0.0,0.0,0.0,0.0,0.0,821.978,804.2491,833.663,822.7839,860.2564,-0.017578125,0.01849365234375,0.98736572265625,1.742095947265625,-3.282318115234375,-0.10467529296875,0.0,4.0,4.0,4.0,4.0,75.0,event
13:44:22.897,0.0,0.0,0.0,0.0,0.0,0.0,0.0,0.0,0.0,0.0,0.0,0.0,0.0,0.0,0.0,0.0,0.0,0.0,0.0,0.0,789.34064,758.71796,824.3956,789.34064,1039.5604,-0.017578125,0.01849365234375,0.98736572265625,1.742095947265625,-3.282318115234375,-0.10467529296875,0.0,4.0,4.0,4.0,4.0,75.0,event
13:44:22.898,0.0,0.0,0.0,0.0,0.0,0.0,0.0,0.0,0.0,0.0,0.0,0.0,0.0,0.0,0.0,0.0,0.0,0.0,0.0,0.0,808.2784,813.1135,820.3663,790.9524,823.5897,-0.017578125,0.01849365234375,0.98736572265625,1.742095947265625,-3.282318115234375,-0.10467529296875,0.0,4.0,4.0,4.0,4.0,75.0,event
13:44:22.899,0.0,0.0,0.0,0.0,0.0,0.0,0.0,0.0,0.0,0.0,0.0,0.0,0.0,0.0,0.0,0.0,0.0,0.0,0.0,0.0,823.1868,851.79486,814.3223,802.6374,680.14655,-0.017578125,0.01849365234375,0.98736572265625,1.742095947265625,-3.282318115234375,-0.10467529296875,0.0,4.0,4.0,4.0,4.0,75.0,event
13:44:22.944,0.0,0.0,0.0,0.0,0.0,0.0,0.0,0.0,0.0,0.0,0.0,0.0,0.0,0.0,0.0,0.0,0.0,0.0,0.0,0.0,816.337,772.01465,805.8608,802.6374,805.05493,-0.015869140625,0.01739501953125,0.98602294921875,1.62994384765625,-3.648681640625,0.059814453125,0.0,4.0,4.0,4.0,4.0,75.0,event
13:44:22.945,0.0,0.0,0.0,0.0,0.0,0.0,0.0,0.0,0.0,0.0,0.0,0.0,0.0,0.0,0.0,0.0,0.0,0.0,0.0,0.0,825.6044,761.53845,783.2967,820.7692,782.8938,-0.015869140625,0.01739501953125,0.98602294921875,1.62994384765625,-3.648681640625,0.059814453125,0.0,4.0,4.0,4.0,4.0,75.0,event
13:44:22.950,0.0,0.0,0.0,0.0,0.0,0.0,0.0,0.0,0.0,0.0,0.0,0.0,0.0,0.0,0.0,0.0,0.0,0.0,0.0,0.0,836.4835,830.4396,765.9707,841.31866,672.0879,-0.015869140625,0.01739501953125,0.98602294921875,1.62994384765625,-3.648681640625,0.059814453125,0.0,4.0,4.0,4.0,4.0,75.0,event
13:44:22.951,0.0,0.0,0.0,0.0,0.0,0.0,0.0,0.0,0.0,0.0,0.0,0.0,0.0,0.0,0.0,0.0,0.0,0.0,0.0,0.0,800.6227,821.1722,758.315,793.36993,680.14655,-0.015869140625,0.01739501953125,0.98602294921875,1.62994384765625,-3.648681640625,0.059814453125,0.0,4.0,4.0,4.0,4.0,75.0,event
13:44:22.952,0.0,0.0,0.0,0.0,0.0,0.0,0.0,0.0,0.0,0.0,0.0,0.0,0.0,0.0,0.0,0.0,0.0,0.0,0.0,0.0,786.9231,799.81683,784.90845,780.4762,703.1135,-0.015869140625,0.01739501953125,0.98602294921875,1.62994384765625,-3.648681640625,0.059814453125,0.0,4.0,4.0,4.0,4.0,75.0,event
13:44:22.953,0.0,0.0,0.0,0.0,0.0,0.0,0.0,0.0,0.0,0.0,0.0,0.0,0.0,0.0,0.0,0.0,0.0,0.0,0.0,0.0,820.3663,816.7399,799.41394,824.7985,824.7985,-0.015869140625,0.01739501953125,0.98602294921875,1.62994384765625,-3.648681640625,0.059814453125,0.0,4.0,4.0,4.0,4.0,75.0,event
13:44:22.955,0.0,0.0,0.0,0.0,0.0,0.0,0.0,0.0,0.0,0.0,0.0,0.0,0.0,0.0,0.0,0.0,0.0,0.0,0.0,0.0,812.71063,805.4579,796.99634,812.3077,877.5824,-0.015869140625,0.01739501953125,0.98602294921875,1.62994384765625,-3.648681640625,0.059814453125,0.0,4.0,4.0,4.0,4.0,75.0,event
13:44:22.956,0.0,0.0,0.0,0.0,0.0,0.0,0.0,0.0,0.0,0.0,0.0,0.0,0.0,0.0,0.0,0.0,0.0,0.0,0.0,0.0,802.23444,782.0879,826.4103,794.9817,792.5641,-0.015869140625,0.01739501953125,0.98602294921875,1.62994384765625,-3.648681640625,0.059814453125,0.0,4.0,4.0,4.0,4.0,75.0,event
13:44:22.956,0.0,0.0,0.0,0.0,0.0,0.0,0.0,0.0,0.0,0.0,0.0,0.0,0.0,0.0,0.0,0.0,0.0,0.0,0.0,0.0,803.0403,747.8388,830.0366,804.2491,914.65204,-0.015869140625,0.01739501953125,0.98602294921875,1.62994384765625,-3.648681640625,0.059814453125,0.0,4.0,4.0,4.0,4.0,75.0,event
13:44:22.957,0.0,0.0,0.0,0.0,0.0,0.0,0.0,0.0,0.0,0.0,0.0,0.0,0.0,0.0,0.0,0.0,0.0,0.0,0.0,0.0,813.1135,771.6117,807.8755,816.337,983.5531,-0.015869140625,0.01739501953125,0.98602294921875,1.62994384765625,-3.648681640625,0.059814453125,0.0,4.0,4.0,4.0,4.0,75.0,event
13:44:22.958,0.0,0.0,0.0,0.0,0.0,0.0,0.0,0.0,0.0,0.0,0.0,0.0,0.0,0.0,0.0,0.0,0.0,0.0,0.0,0.0,834.4689,853.4066,769.59705,831.6484,768.7912,-0.015869140625,0.01739501953125,0.98602294921875,1.62994384765625,-3.648681640625,0.059814453125,0.0,4.0,4.0,4.0,4.0,75.0,event
13:44:22.958,0.0,0.0,0.0,0.0,0.0,0.0,0.0,0.0,0.0,0.0,0.0,0.0,0.0,0.0,0.0,0.0,0.0,0.0,0.0,0.0,828.8278,830.4396,756.30035,831.6484,781.28204,-0.015869140625,0.01739501953125,0.98602294921875,1.62994384765625,-3.648681640625,0.059814453125,0.0,4.0,4.0,4.0,4.0,75.0,event
13:44:22.991,0.0,0.0,0.0,0.0,0.0,0.0,0.0,0.0,0.0,0.0,0.0,0.0,0.0,0.0,0.0,0.0,0.0,0.0,0.0,0.0,792.96704,803.8461,770.80585,799.81683,843.73627,-0.021484375,0.01123046875,0.98394775390625,2.086029052734375,-4.007568359375,0.171966552734375,0.0,4.0,4.0,4.0,4.0,75.0,event
13:44:22.992,0.0,0.0,0.0,0.0,0.0,0.0,0.0,0.0,0.0,0.0,0.0,0.0,0.0,0.0,0.0,0.0,0.0,0.0,0.0,0.0,774.43225,820.7692,801.4286,778.0586,747.03296,-0.021484375,0.01123046875,0.98394775390625,2.086029052734375,-4.007568359375,0.171966552734375,0.0,4.0,4.0,4.0,4.0,75.0,event
13:44:22.992,0.0,0.0,0.0,0.0,0.0,0.0,0.0,0.0,0.0,0.0,0.0,0.0,0.0,0.0,0.0,0.0,0.0,0.0,0.0,0.0,803.44324,811.9048,823.5897,796.1905,686.5934,-0.021484375,0.01123046875,0.98394775390625,2.086029052734375,-4.007568359375,0.171966552734375,0.0,4.0,4.0,4.0,4.0,75.0,event
13:44:22.993,0.0,0.0,0.0,0.0,0.0,0.0,0.0,0.0,0.0,0.0,0.0,0.0,0.0,0.0,0.0,0.0,0.0,0.0,0.0,0.0,815.5311,796.1905,795.38464,813.1135,790.54944,-0.021484375,0.01123046875,0.98394775390625,2.086029052734375,-4.007568359375,0.171966552734375,0.0,4.0,4.0,4.0,4.0,75.0,event
13:44:22.994,0.0,0.0,0.0,0.0,0.0,0.0,0.0,0.0,0.0,0.0,0.0,0.0,0.0,0.0,0.0,0.0,0.0,0.0,0.0,0.0,816.337,787.72894,792.1612,824.3956,838.49817,-0.021484375,0.01123046875,0.98394775390625,2.086029052734375,-4.007568359375,0.171966552734375,0.0,4.0,4.0,4.0,4.0,75.0,event
13:44:22.994,0.0,0.0,0.0,0.0,0.0,0.0,0.0,0.0,0.0,0.0,0.0,0.0,0.0,0.0,0.0,0.0,0.0,0.0,0.0,0.0,821.1722,798.60803,804.2491,833.2601,861.8681,-0.021484375,0.01123046875,0.98394775390625,2.086029052734375,-4.007568359375,0.171966552734375,0.0,4.0,4.0,4.0,4.0,75.0,event
13:44:22.995,0.0,0.0,0.0,0.0,0.0,0.0,0.0,0.0,0.0,0.0,0.0,0.0,0.0,0.0,0.0,0.0,0.0,0.0,0.0,0.0,820.7692,769.59705,779.67035,828.4249,909.41394,-0.021484375,0.01123046875,0.98394775390625,2.086029052734375,-4.007568359375,0.171966552734375,0.0,4.0,4.0,4.0,4.0,75.0,event
13:44:22.996,0.0,0.0,0.0,0.0,0.0,0.0,0.0,0.0,0.0,0.0,0.0,0.0,0.0,0.0,0.0,0.0,0.0,0.0,0.0,0.0,830.84247,766.3736,763.5531,828.022,849.3773,-0.021484375,0.01123046875,0.98394775390625,2.086029052734375,-4.007568359375,0.171966552734375,0.0,4.0,4.0,4.0,4.0,75.0,event
13:44:22.996,0.0,0.0,0.0,0.0,0.0,0.0,0.0,0.0,0.0,0.0,0.0,0.0,0.0,0.0,0.0,0.0,0.0,0.0,0.0,0.0,830.4396,797.8022,817.5458,833.2601,919.4872,-0.021484375,0.01123046875,0.98394775390625,2.086029052734375,-4.007568359375,0.171966552734375,0.0,4.0,4.0,4.0,4.0,75.0,event
13:44:22.997,0.0,0.0,0.0,0.0,0.0,0.0,0.0,0.0,0.0,0.0,0.0,0.0,0.0,0.0,0.0,0.0,0.0,0.0,0.0,0.0,821.5751,770.0,861.8681,832.8571,844.1392,-0.021484375,0.01123046875,0.98394775390625,2.086029052734375,-4.007568359375,0.171966552734375,0.0,4.0,4.0,4.0,4.0,75.0,event
13:44:22.997,0.0,0.0,0.0,0.0,0.0,0.0,0.0,0.0,0.0,0.0,0.0,0.0,0.0,0.0,0.0,0.0,0.0,0.0,0.0,0.0,797.3993,784.10254,824.7985,809.0842,730.5128,-0.021484375,0.01123046875,0.98394775390625,2.086029052734375,-4.007568359375,0.171966552734375,0.0,4.0,4.0,4.0,4.0,75.0,event
13:44:22.998,0.0,0.0,0.0,0.0,0.0,0.0,0.0,0.0,0.0,0.0,0.0,0.0,0.0,0.0,0.0,0.0,0.0,0.0,0.0,0.0,790.9524,820.3663,768.3883,797.8022,886.8498,-0.021484375,0.01123046875,0.98394775390625,2.086029052734375,-4.007568359375,0.171966552734375,0.0,4.0,4.0,4.0,4.0,75.0,event
13:44:23.044,0.0,0.0,0.0,0.0,0.0,0.0,0.0,0.0,0.0,0.0,0.0,0.0,0.0,0.0,0.0,0.0,0.0,0.0,0.0,0.0,807.0696,826.8132,760.32965,804.2491,1010.54944,-0.01611328125,0.01409912109375,0.9844970703125,2.669219970703125,-4.224395751953125,0.418701171875,0.0,4.0,4.0,4.0,4.0,75.0,event
13:44:23.045,0.0,0.0,0.0,0.0,0.0,0.0,0.0,0.0,0.0,0.0,0.0,0.0,0.0,0.0,0.0,0.0,0.0,0.0,0.0,0.0,815.9341,818.7546,802.23444,814.7253,801.02563,-0.01611328125,0.01409912109375,0.9844970703125,2.669219970703125,-4.224395751953125,0.418701171875,0.0,4.0,4.0,4.0,4.0,75.0,event
13:44:23.046,0.0,0.0,0.0,0.0,0.0,0.0,0.0,0.0,0.0,0.0,0.0,0.0,0.0,0.0,0.0,0.0,0.0,0.0,0.0,0.0,822.381,770.0,809.89014,819.9634,763.1502,-0.01611328125,0.01409912109375,0.9844970703125,2.669219970703125,-4.224395751953125,0.418701171875,0.0,4.0,4.0,4.0,4.0,75.0,event
13:44:23.048,0.0,0.0,0.0,0.0,0.0,0.0,0.0,0.0,0.0,0.0,0.0,0.0,0.0,0.0,0.0,0.0,0.0,0.0,0.0,0.0,809.89014,779.67035,803.0403,812.71063,835.2747,-0.01611328125,0.01409912109375,0.9844970703125,2.669219970703125,-4.224395751953125,0.418701171875,0.0,4.0,4.0,4.0,4.0,75.0,event
13:44:23.052,0.0,0.0,0.0,0.0,0.0,0.0,0.0,0.0,0.0,0.0,0.0,0.0,0.0,0.0,0.0,0.0,0.0,0.0,0.0,0.0,816.7399,802.23444,821.1722,826.8132,720.0366,-0.01611328125,0.01409912109375,0.9844970703125,2.669219970703125,-4.224395751953125,0.418701171875,0.0,4.0,4.0,4.0,4.0,75.0,event
13:44:23.053,0.0,0.0,0.0,0.0,0.0,0.0,0.0,0.0,0.0,0.0,0.0,0.0,0.0,0.0,0.0,0.0,0.0,0.0,0.0,0.0,827.619,780.87915,815.9341,831.6484,738.97437,-0.01611328125,0.01409912109375,0.9844970703125,2.669219970703125,-4.224395751953125,0.418701171875,0.0,4.0,4.0,4.0,4.0,75.0,event
13:44:23.054,0.0,0.0,0.0,0.0,0.0,0.0,0.0,0.0,0.0,0.0,0.0,0.0,0.0,0.0,0.0,0.0,0.0,0.0,0.0,0.0,811.0989,803.0403,806.26373,811.0989,759.12085,-0.01611328125,0.01409912109375,0.9844970703125,2.669219970703125,-4.224395751953125,0.418701171875,0.0,4.0,4.0,4.0,4.0,75.0,event
13:44:23.055,0.0,0.0,0.0,0.0,0.0,0.0,0.0,0.0,0.0,0.0,0.0,0.0,0.0,0.0,0.0,0.0,0.0,0.0,0.0,0.0,810.293,802.23444,776.04395,823.1868,940.0366,-0.01611328125,0.01409912109375,0.9844970703125,2.669219970703125,-4.224395751953125,0.418701171875,0.0,4.0,4.0,4.0,4.0,75.0,event
13:44:23.056,0.0,0.0,0.0,0.0,0.0,0.0,0.0,0.0,0.0,0.0,0.0,0.0,0.0,0.0,0.0,0.0,0.0,0.0,0.0,0.0,812.71063,801.8315,776.4469,823.9927,998.86444,-0.01611328125,0.01409912109375,0.9844970703125,2.669219970703125,-4.224395751953125,0.418701171875,0.0,4.0,4.0,4.0,4.0,75.0,event
13:44:23.057,0.0,0.0,0.0,0.0,0.0,0.0,0.0,0.0,0.0,0.0,0.0,0.0,0.0,0.0,0.0,0.0,0.0,0.0,0.0,0.0,801.02563,843.3333,807.8755,799.011,724.0659,-0.01611328125,0.01409912109375,0.9844970703125,2.669219970703125,-4.224395751953125,0.418701171875,0.0,4.0,4.0,4.0,4.0,75.0,event
13:44:23.057,0.0,0.0,0.0,0.0,0.0,0.0,0.0,0.0,0.0,0.0,0.0,0.0,0.0,0.0,0.0,0.0,0.0,0.0,0.0,0.0,805.4579,841.7216,796.1905,797.3993,694.65204,-0.01611328125,0.01409912109375,0.9844970703125,2.669219970703125,-4.224395751953125,0.418701171875,0.0,4.0,4.0,4.0,4.0,75.0,event
13:44:23.058,0.0,0.0,0.0,0.0,0.0,0.0,0.0,0.0,0.0,0.0,0.0,0.0,0.0,0.0,0.0,0.0,0.0,0.0,0.0,0.0,828.022,830.0366,799.41394,812.3077,785.31134,-0.01611328125,0.01409912109375,0.9844970703125,2.669219970703125,-4.224395751953125,0.418701171875,0.0,4.0,4.0,4.0,4.0,75.0,event
13:44:23.092,0.0,0.0,0.0,0.0,0.0,0.0,0.0,0.0,0.0,0.0,0.0,0.0,0.0,0.0,0.0,0.0,0.0,0.0,0.0,0.0,836.08057,821.1722,815.12823,833.2601,765.56775,-0.01739501953125,0.0191650390625,0.98260498046875,2.40753173828125,-4.23187255859375,0.620574951171875,0.0,4.0,4.0,4.0,4.0,75.0,event
13:44:23.094,0.0,0.0,0.0,0.0,0.0,0.0,0.0,0.0,0.0,0.0,0.0,0.0,0.0,0.0,0.0,0.0,0.0,0.0,0.0,0.0,846.9597,805.8608,816.337,852.6007,736.1539,-0.01739501953125,0.0191650390625,0.98260498046875,2.40753173828125,-4.23187255859375,0.620574951171875,0.0,4.0,4.0,4.0,4.0,75.0,event
13:44:23.095,0.0,0.0,0.0,0.0,0.0,0.0,0.0,0.0,0.0,0.0,0.0,0.0,0.0,0.0,0.0,0.0,0.0,0.0,0.0,0.0,837.28937,796.1905,803.0403,840.10986,815.12823,-0.01739501953125,0.0191650390625,0.98260498046875,2.40753173828125,-4.23187255859375,0.620574951171875,0.0,4.0,4.0,4.0,4.0,75.0,event
13:44:23.096,0.0,0.0,0.0,0.0,0.0,0.0,0.0,0.0,0.0,0.0,0.0,0.0,0.0,0.0,0.0,0.0,0.0,0.0,0.0,0.0,816.7399,771.6117,815.12823,809.89014,847.76556,-0.01739501953125,0.0191650390625,0.98260498046875,2.40753173828125,-4.23187255859375,0.620574951171875,0.0,4.0,4.0,4.0,4.0,75.0,event
13:44:23.096,0.0,0.0,0.0,0.0,0.0,0.0,0.0,0.0,0.0,0.0,0.0,0.0,0.0,0.0,0.0,0.0,0.0,0.0,0.0,0.0,822.381,784.10254,811.9048,810.293,749.45056,-0.01739501953125,0.0191650390625,0.98260498046875,2.40753173828125,-4.23187255859375,0.620574951171875,0.0,4.0,4.0,4.0,4.0,75.0,event
13:44:23.097,0.0,0.0,0.0,0.0,0.0,0.0,0.0,0.0,0.0,0.0,0.0,0.0,0.0,0.0,0.0,0.0,0.0,0.0,0.0,0.0,821.1722,845.34796,786.9231,816.7399,751.8681,-0.01739501953125,0.0191650390625,0.98260498046875,2.40753173828125,-4.23187255859375,0.620574951171875,0.0,4.0,4.0,4.0,4.0,75.0,event
13:44:23.098,0.0,0.0,0.0,0.0,0.0,0.0,0.0,0.0,0.0,0.0,0.0,0.0,0.0,0.0,0.0,0.0,0.0,0.0,0.0,0.0,805.8608,864.68866,774.0293,815.12823,916.26373,-0.01739501953125,0.0191650390625,0.98260498046875,2.40753173828125,-4.23187255859375,0.620574951171875,0.0,4.0,4.0,4.0,4.0,75.0,event
13:44:23.099,0.0,0.0,0.0,0.0,0.0,0.0,0.0,0.0,0.0,0.0,0.0,0.0,0.0,0.0,0.0,0.0,0.0,0.0,0.0,0.0,787.72894,840.9158,763.5531,797.8022,1002.8938,-0.01739501953125,0.0191650390625,0.98260498046875,2.40753173828125,-4.23187255859375,0.620574951171875,0.0,4.0,4.0,4.0,4.0,75.0,event
13:44:23.100,0.0,0.0,0.0,0.0,0.0,0.0,0.0,0.0,0.0,0.0,0.0,0.0,0.0,0.0,0.0,0.0,0.0,0.0,0.0,0.0,852.6007,826.8132,792.5641,838.0952,676.52014,-0.01739501953125,0.0191650390625,0.98260498046875,2.40753173828125,-4.23187255859375,0.620574951171875,0.0,4.0,4.0,4.0,4.0,75.0,event
13:44:23.100,0.0,0.0,0.0,0.0,0.0,0.0,0.0,0.0,0.0,0.0,0.0,0.0,0.0,0.0,0.0,0.0,0.0,0.0,0.0,0.0,811.0989,827.619,765.16486,804.2491,793.7729,-0.01739501953125,0.0191650390625,0.98260498046875,2.40753173828125,-4.23187255859375,0.620574951171875,0.0,4.0,4.0,4.0,4.0,75.0,event
13:44:23.101,0.0,0.0,0.0,0.0,0.0,0.0,0.0,0.0,0.0,0.0,0.0,0.0,0.0,0.0,0.0,0.0,0.0,0.0,0.0,0.0,869.12085,830.84247,861.4652,860.65936,776.8498,-0.01739501953125,0.0191650390625,0.98260498046875,2.40753173828125,-4.23187255859375,0.620574951171875,0.0,4.0,4.0,4.0,4.0,75.0,event
13:44:23.102,0.0,0.0,0.0,0.0,0.0,0.0,0.0,0.0,0.0,0.0,0.0,0.0,0.0,0.0,0.0,0.0,0.0,0.0,0.0,0.0,840.5128,808.2784,848.5714,841.7216,844.94507,-0.01739501953125,0.0191650390625,0.98260498046875,2.40753173828125,-4.23187255859375,0.620574951171875,0.0,4.0,4.0,4.0,4.0,75.0,event
13:44:23.141,0.0,0.0,0.0,0.0,0.0,0.0,0.0,0.0,0.0,0.0,0.0,0.0,0.0,0.0,0.0,0.0,0.0,0.0,0.0,0.0,828.022,838.49817,830.0366,826.4103,788.93774,-0.01739501953125,0.0191650390625,0.98260498046875,2.40753173828125,-4.23187255859375,0.620574951171875,0.0,4.0,4.0,4.0,4.0,75.0,event
13:44:23.142,0.0,0.0,0.0,0.0,0.0,0.0,0.0,0.0,0.0,0.0,0.0,0.0,0.0,0.0,0.0,0.0,0.0,0.0,0.0,0.0,828.4249,850.18317,831.2454,817.9487,676.9231,-0.01739501953125,0.0191650390625,0.98260498046875,2.40753173828125,-4.23187255859375,0.620574951171875,0.0,4.0,4.0,4.0,4.0,75.0,event
13:44:23.143,0.0,0.0,0.0,0.0,0.0,0.0,0.0,0.0,0.0,0.0,0.0,0.0,0.0,0.0,0.0,0.0,0.0,0.0,0.0,0.0,791.3553,809.89014,812.3077,779.2674,814.3223,-0.01739501953125,0.0191650390625,0.98260498046875,2.40753173828125,-4.23187255859375,0.620574951171875,0.0,4.0,4.0,4.0,4.0,75.0,event
13:44:23.144,0.0,0.0,0.0,0.0,0.0,0.0,0.0,0.0,0.0,0.0,0.0,0.0,0.0,0.0,0.0,0.0,0.0,0.0,0.0,0.0,784.5055,806.26373,778.46155,771.2088,872.3443,-0.01739501953125,0.0191650390625,0.98260498046875,2.40753173828125,-4.23187255859375,0.620574951171875,0.0,4.0,4.0,4.0,4.0,75.0,event
13:44:23.144,0.0,0.0,0.0,0.0,0.0,0.0,0.0,0.0,0.0,0.0,0.0,0.0,0.0,0.0,0.0,0.0,0.0,0.0,0.0,0.0,811.0989,809.0842,769.19415,805.05493,774.0293,-0.01739501953125,0.0191650390625,0.98260498046875,2.40753173828125,-4.23187255859375,0.620574951171875,0.0,4.0,4.0,4.0,4.0,75.0,event
13:44:23.145,0.0,0.0,0.0,0.0,0.0,0.0,0.0,0.0,0.0,0.0,0.0,0.0,0.0,0.0,0.0,0.0,0.0,0.0,0.0,0.0,817.5458,800.2198,803.0403,819.15753,798.20514,-0.01739501953125,0.0191650390625,0.98260498046875,2.40753173828125,-4.23187255859375,0.620574951171875,0.0,4.0,4.0,4.0,4.0,75.0,event
13:44:23.148,0.0,0.0,0.0,0.0,0.0,0.0,0.0,0.0,0.0,0.0,0.0,0.0,0.0,0.0,0.0,0.0,0.0,0.0,0.0,0.0,812.3077,788.93774,808.2784,809.89014,958.5714,-0.01739501953125,0.0191650390625,0.98260498046875,2.40753173828125,-4.23187255859375,0.620574951171875,0.0,4.0,4.0,4.0,4.0,75.0,event
