TimeStamp,Delta_TP9,Delta_AF7,Delta_AF8,Delta_TP10,Theta_TP9,Theta_AF7,Theta_AF8,Theta_TP10,Alpha_TP9,Alpha_AF7,Alpha_AF8,Alpha_TP10,Beta_TP9,Beta_AF7,Beta_AF8,Beta_TP10,Gamma_TP9,Gamma_AF7,Gamma_AF8,Gamma_TP10,RAW_TP9,RAW_AF7,RAW_AF8,RAW_TP10,AUX_RIGHT,Accelerometer_X,Accelerometer_Y,Accelerometer_Z,Gyro_X,Gyro_Y,Gyro_Z,HeadBandOn,HSI_TP9,HSI_AF7,HSI_AF8,HSI_TP10,Battery,Elements
11:32:07.555,0.84626883,1.0268947,0.939972,1.2189975,0.48953888,-0.11275024,0.7774047,0.7281764,0.7267194,0.11826289,0.7936313,0.7471447,0.85330516,0.18351461,-0.09003437,0.7375441,0.63485366,0.1036511,-0.043255385,0.74949884,832.0513,811.50183,797.3993,830.4396,736.55676,-0.11175537109375,0.07147216796875,0.985595703125,3.06549072265625,-4.725341796875,0.246734619140625,1.0,2.0,1.0,1.0,2.0,100.0,event
11:32:07.556,0.84626883,1.0268947,0.939972,1.2189975,0.48953888,-0.11275024,0.7774047,0.7281764,0.7267194,0.11826289,0.7936313,0.7471447,0.85330516,0.18351461,-0.09003437,0.7375441,0.63485366,0.1036511,-0.043255385,0.74949884,832.0513,805.8608,803.44324,828.4249,765.16486,-0.11175537109375,0.07147216796875,0.985595703125,3.06549072265625,-4.725341796875,0.246734619140625,1.0,2.0,1.0,1.0,2.0,100.0,event
11:32:07.557,0.84626883,1.0268947,0.939972,1.2189975,0.48953888,-0.11275024,0.7774047,0.7281764,0.7267194,0.11826289,0.7936313,0.7471447,0.85330516,0.18351461,-0.09003437,0.7375441,0.63485366,0.1036511,-0.043255385,0.74949884,804.2491,799.81683,796.1905,819.15753,688.20514,-0.11175537109375,0.07147216796875,0.985595703125,3.06549072265625,-4.725341796875,0.246734619140625,1.0,2.0,1.0,1.0,2.0,100.0,event
11:32:07.557,0.84626883,1.0268947,0.939972,1.2189975,0.48953888,-0.11275024,0.7774047,0.7281764,0.7267194,0.11826289,0.7936313,0.7471447,0.85330516,0.18351461,-0.09003437,0.7375441,0.63485366,0.1036511,-0.043255385,0.74949884,820.3663,798.20514,800.6227,818.3516,664.0293,-0.11175537109375,0.07147216796875,0.985595703125,3.06549072265625,-4.725341796875,0.246734619140625,1.0,2.0,1.0,1.0,2.0,100.0,event
11:32:07.558,0.84626883,1.0268947,0.939972,1.2189975,0.48953888,-0.11275024,0.7774047,0.7281764,0.7267194,0.11826289,0.7936313,0.7471447,0.85330516,0.18351461,-0.09003437,0.7375441,0.63485366,0.1036511,-0.043255385,0.74949884,813.5165,799.81683,792.5641,827.2161,848.97437,-0.11175537109375,0.07147216796875,0.985595703125,3.06549072265625,-4.725341796875,0.246734619140625,1.0,2.0,1.0,1.0,2.0,100.0,event
11:32:07.559,0.84626883,1.0268947,0.939972,1.2189975,0.48953888,-0.11275024,0.7774047,0.7281764,0.7267194,0.11826289,0.7936313,0.7471447,0.85330516,0.18351461,-0.09003437,0.7375441,0.63485366,0.1036511,-0.043255385,0.74949884,854.21246,799.41394,790.9524,845.34796,894.90845,-0.11175537109375,0.07147216796875,0.985595703125,3.06549072265625,-4.725341796875,0.246734619140625,1.0,2.0,1.0,1.0,2.0,100.0,event
11:32:07.559,0.84626883,1.0268947,0.939972,1.2189975,0.48953888,-0.11275024,0.7774047,0.7281764,0.7267194,0.11826289,0.7936313,0.7471447,0.85330516,0.18351461,-0.09003437,0.7375441,0.63485366,0.1036511,-0.043255385,0.74949884,865.89746,796.5934,805.4579,864.2857,778.86444,-0.11175537109375,0.07147216796875,0.985595703125,3.06549072265625,-4.725341796875,0.246734619140625,1.0,2.0,1.0,1.0,2.0,100.0,event
11:32:07.560,0.84626883,1.0268947,0.7576293,1.2189975,0.48953888,-0.11275024,0.5113516,0.7281764,0.7267194,0.11826289,0.65483797,0.7471447,0.85330516,0.18351461,-0.17926402,0.7375441,0.63485366,0.1036511,-0.034757372,0.74949884,827.619,800.2198,815.5311,837.6923,714.3956,-0.11175537109375,0.07147216796875,0.985595703125,3.06549072265625,-4.725341796875,0.246734619140625,1.0,2.0,1.0,1.0,2.0,100.0,event
11:32:07.565,0.84626883,1.0268947,0.7576293,1.2189975,0.48953888,-0.11275024,0.5113516,0.7281764,0.7267194,0.11826289,0.65483797,0.7471447,0.85330516,0.18351461,-0.17926402,0.7375441,0.63485366,0.1036511,-0.034757372,0.74949884,794.17584,803.8461,808.2784,805.8608,815.5311,-0.11175537109375,0.07147216796875,0.985595703125,3.06549072265625,-4.725341796875,0.246734619140625,1.0,2.0,1.0,1.0,2.0,100.0,event
11:32:07.566,0.84626883,1.0268947,0.7576293,1.2189975,0.48953888,-0.11275024,0.5113516,0.7281764,0.7267194,0.11826289,0.65483797,0.7471447,0.85330516,0.18351461,-0.17926402,0.7375441,0.63485366,0.1036511,-0.034757372,0.74949884,803.8461,801.4286,808.2784,820.3663,785.31134,-0.11175537109375,0.07147216796875,0.985595703125,3.06549072265625,-4.725341796875,0.246734619140625,1.0,2.0,1.0,1.0,2.0,100.0,event
11:32:07.566,0.84626883,1.0268947,0.7576293,1.2189975,0.48953888,-0.11275024,0.5113516,0.7281764,0.7267194,0.11826289,0.65483797,0.7471447,0.85330516,0.18351461,-0.17926402,0.7375441,0.63485366,0.1036511,-0.034757372,0.74949884,829.2308,800.2198,807.0696,837.6923,689.81683,-0.11175537109375,0.07147216796875,0.985595703125,3.06549072265625,-4.725341796875,0.246734619140625,1.0,2.0,1.0,1.0,2.0,100.0,event
11:32:07.567,0.84626883,1.0268947,0.7576293,1.2189975,0.48953888,-0.11275024,0.5113516,0.7281764,0.7267194,0.11826289,0.65483797,0.7471447,0.85330516,0.18351461,-0.17926402,0.7375441,0.63485366,0.1036511,-0.034757372,0.74949884,832.4542,798.20514,804.2491,837.28937,682.96704,-0.11175537109375,0.07147216796875,0.985595703125,3.06549072265625,-4.725341796875,0.246734619140625,1.0,2.0,1.0,1.0,2.0,100.0,event
11:32:07.595,0.84626883,1.0268947,0.7576293,1.2189975,0.48953888,-0.11275024,0.5113516,0.7281764,0.7267194,0.11826289,0.65483797,0.7471447,0.85330516,0.18351461,-0.17926402,0.7375441,0.63485366,0.1036511,-0.034757372,0.74949884,820.7692,792.1612,807.0696,825.6044,909.011,-0.10736083984375,0.07537841796875,0.97491455078125,3.24493408203125,-5.271148681640625,0.19439697265625,1.0,2.0,1.0,1.0,2.0,100.0,event
11:32:07.596,0.84626883,1.0268947,0.7576293,1.2189975,0.48953888,-0.11275024,0.5113516,0.7281764,0.7267194,0.11826289,0.65483797,0.7471447,0.85330516,0.18351461,-0.17926402,0.7375441,0.63485366,0.1036511,-0.034757372,0.74949884,805.4579,796.1905,807.0696,815.12823,941.6484,-0.10736083984375,0.07537841796875,0.97491455078125,3.24493408203125,-5.271148681640625,0.19439697265625,1.0,2.0,1.0,1.0,2.0,100.0,event
11:32:07.597,0.84626883,1.0268947,0.7576293,1.2189975,0.48953888,-0.11275024,0.5113516,0.7281764,0.7267194,0.11826289,0.65483797,0.7471447,0.85330516,0.18351461,-0.17926402,0.7375441,0.63485366,0.1036511,-0.034757372,0.74949884,819.9634,799.41394,806.26373,819.5604,700.696,-0.10736083984375,0.07537841796875,0.97491455078125,3.24493408203125,-5.271148681640625,0.19439697265625,1.0,2.0,1.0,1.0,2.0,100.0,event
11:32:07.597,0.84626883,1.0268947,0.7576293,1.2189975,0.48953888,-0.11275024,0.5113516,0.7281764,0.7267194,0.11826289,0.65483797,0.7471447,0.85330516,0.18351461,-0.17926402,0.7375441,0.63485366,0.1036511,-0.034757372,0.74949884,839.304,798.60803,811.0989,841.7216,690.6227,-0.10736083984375,0.07537841796875,0.97491455078125,3.24493408203125,-5.271148681640625,0.19439697265625,1.0,2.0,1.0,1.0,2.0,100.0,event
11:32:07.598,0.84626883,1.0268947,0.7576293,1.2189975,0.48953888,-0.11275024,0.5113516,0.7281764,0.7267194,0.11826289,0.65483797,0.7471447,0.85330516,0.18351461,-0.17926402,0.7375441,0.63485366,0.1036511,-0.034757372,0.74949884,838.9011,799.41394,813.91943,847.76556,745.42126,-0.10736083984375,0.07537841796875,0.97491455078125,3.24493408203125,-5.271148681640625,0.19439697265625,1.0,2.0,1.0,1.0,2.0,100.0,event
11:32:07.598,0.84626883,1.0268947,0.7576293,1.2189975,0.48953888,-0.11275024,0.5113516,0.7281764,0.7267194,0.11826289,0.65483797,0.7471447,0.85330516,0.18351461,-0.17926402,0.7375441,0.63485366,0.1036511,-0.034757372,0.74949884,824.7985,798.60803,809.4872,830.4396,804.2491,-0.10736083984375,0.07537841796875,0.97491455078125,3.24493408203125,-5.271148681640625,0.19439697265625,1.0,2.0,1.0,1.0,2.0,100.0,event
11:32:07.599,0.84626883,1.0268947,0.7576293,1.2189975,0.48953888,-0.11275024,0.5113516,0.7281764,0.7267194,0.11826289,0.65483797,0.7471447,0.85330516,0.18351461,-0.17926402,0.7375441,0.63485366,0.1036511,-0.034757372,0.74949884,807.0696,798.60803,807.47253,825.6044,840.10986,-0.10736083984375,0.07537841796875,0.97491455078125,3.24493408203125,-5.271148681640625,0.19439697265625,1.0,2.0,1.0,1.0,2.0,100.0,event
11:32:07.599,0.84626883,1.0268947,0.7576293,1.2189975,0.48953888,-0.11275024,0.5113516,0.7281764,0.7267194,0.11826289,0.65483797,0.7471447,0.85330516,0.18351461,-0.17926402,0.7375441,0.63485366,0.1036511,-0.034757372,0.74949884,807.47253,801.4286,809.0842,831.6484,841.31866,-0.10736083984375,0.07537841796875,0.97491455078125,3.24493408203125,-5.271148681640625,0.19439697265625,1.0,2.0,1.0,1.0,2.0,100.0,event
11:32:07.600,0.84626883,1.0268947,0.7576293,1.2189975,0.48953888,-0.11275024,0.5113516,0.7281764,0.7267194,0.11826289,0.65483797,0.7471447,0.85330516,0.18351461,-0.17926402,0.7375441,0.63485366,0.1036511,-0.034757372,0.74949884,818.7546,794.9817,809.4872,844.94507,1007.326,-0.10736083984375,0.07537841796875,0.97491455078125,3.24493408203125,-5.271148681640625,0.19439697265625,1.0,2.0,1.0,1.0,2.0,100.0,event
11:32:07.600,0.84626883,1.0268947,0.7576293,1.2189975,0.48953888,-0.11275024,0.5113516,0.7281764,0.7267194,0.11826289,0.65483797,0.7471447,0.85330516,0.18351461,-0.17926402,0.7375441,0.63485366,0.1036511,-0.034757372,0.74949884,828.4249,797.8022,813.5165,848.1685,936.8132,-0.10736083984375,0.07537841796875,0.97491455078125,3.24493408203125,-5.271148681640625,0.19439697265625,1.0,2.0,1.0,1.0,2.0,100.0,event
11:32:07.601,0.84626883,1.0268947,0.7576293,1.2189975,0.48953888,-0.11275024,0.5113516,0.7281764,0.7267194,0.11826289,0.65483797,0.7471447,0.85330516,0.18351461,-0.17926402,0.7375441,0.63485366,0.1036511,-0.034757372,0.74949884,810.696,809.89014,809.89014,830.0366,743.00366,-0.10736083984375,0.07537841796875,0.97491455078125,3.24493408203125,-5.271148681640625,0.19439697265625,1.0,2.0,1.0,1.0,2.0,100.0,event
11:32:07.602,0.84626883,1.0268947,0.7576293,1.2189975,0.48953888,-0.11275024,0.5113516,0.7281764,0.7267194,0.11826289,0.65483797,0.7471447,0.85330516,0.18351461,-0.17926402,0.7375441,0.63485366,0.1036511,-0.034757372,0.74949884,789.34064,799.011,809.89014,817.9487,813.1135,-0.10736083984375,0.07537841796875,0.97491455078125,3.24493408203125,-5.271148681640625,0.19439697265625,1.0,2.0,1.0,1.0,2.0,100.0,event
11:32:07.629,0.84626883,1.0268947,0.7576293,1.2189975,0.48953888,-0.11275024,0.5113516,0.7281764,0.7267194,0.11826289,0.65483797,0.7471447,0.85330516,0.18351461,-0.17926402,0.7375441,0.63485366,0.1036511,-0.034757372,0.74949884,809.4872,796.1905,811.0989,823.5897,875.9707,-0.105224609375,0.07672119140625,0.9798583984375,2.27294921875,-3.656158447265625,0.800018310546875,1.0,2.0,1.0,1.0,2.0,100.0,event
11:32:07.631,0.84626883,1.0268947,0.7576293,1.2189975,0.48953888,-0.11275024,0.5113516,0.7281764,0.7267194,0.11826289,0.65483797,0.7471447,0.85330516,0.18351461,-0.17926402,0.7375441,0.63485366,0.1036511,-0.034757372,0.74949884,828.022,802.6374,808.2784,828.022,707.9487,-0.105224609375,0.07672119140625,0.9798583984375,2.27294921875,-3.656158447265625,0.800018310546875,1.0,2.0,1.0,1.0,2.0,100.0,event
11:32:07.632,0.84626883,1.0268947,0.7576293,1.2189975,0.48953888,-0.11275024,0.5113516,0.7281764,0.7267194,0.11826289,0.65483797,0.7471447,0.85330516,0.18351461,-0.17926402,0.7375441,0.63485366,0.1036511,-0.034757372,0.74949884,829.2308,801.02563,810.293,829.6337,704.7253,-0.105224609375,0.07672119140625,0.9798583984375,2.27294921875,-3.656158447265625,0.800018310546875,1.0,2.0,1.0,1.0,2.0,100.0,event
11:32:07.634,0.84626883,1.0268947,0.7576293,1.2189975,0.48953888,-0.11275024,0.5113516,0.7281764,0.7267194,0.11826289,0.65483797,0.7471447,0.85330516,0.18351461,-0.17926402,0.7375441,0.63485366,0.1036511,-0.034757372,0.74949884,832.0513,803.8461,811.0989,830.4396,800.6227,-0.105224609375,0.07672119140625,0.9798583984375,2.27294921875,-3.656158447265625,0.800018310546875,1.0,2.0,1.0,1.0,2.0,100.0,event
11:32:07.636,0.84626883,1.0268947,0.7576293,1.2189975,0.48953888,-0.11275024,0.5113516,0.7281764,0.7267194,0.11826289,0.65483797,0.7471447,0.85330516,0.18351461,-0.17926402,0.7375441,0.63485366,0.1036511,-0.034757372,0.74949884,817.5458,808.2784,812.71063,820.7692,754.2857,-0.105224609375,0.07672119140625,0.9798583984375,2.27294921875,-3.656158447265625,0.800018310546875,1.0,2.0,1.0,1.0,2.0,100.0,event
11:32:07.637,0.84626883,1.0268947,0.7576293,1.2189975,0.48953888,-0.11275024,0.5113516,0.7281764,0.7267194,0.11826289,0.65483797,0.7471447,0.85330516,0.18351461,-0.17926402,0.7375441,0.63485366,0.1036511,-0.034757372,0.74949884,810.696,803.0403,804.65204,815.9341,755.89746,-0.105224609375,0.07672119140625,0.9798583984375,2.27294921875,-3.656158447265625,0.800018310546875,1.0,2.0,1.0,1.0,2.0,100.0,event
11:32:07.637,0.84626883,1.0268947,0.7576293,1.2189975,0.48953888,-0.11275024,0.5113516,0.7281764,0.7267194,0.11826289,0.65483797,0.7471447,0.85330516,0.18351461,-0.17926402,0.7375441,0.63485366,0.1036511,-0.034757372,0.74949884,828.8278,799.81683,802.6374,830.84247,826.0073,-0.105224609375,0.07672119140625,0.9798583984375,2.27294921875,-3.656158447265625,0.800018310546875,1.0,2.0,1.0,1.0,2.0,100.0,event
11:32:07.638,0.84626883,1.0268947,0.7576293,1.2189975,0.48953888,-0.11275024,0.5113516,0.7281764,0.7267194,0.11826289,0.65483797,0.7471447,0.85330516,0.18351461,-0.17926402,0.7375441,0.63485366,0.1036511,-0.034757372,0.74949884,823.5897,801.4286,805.4579,833.663,998.86444,-0.105224609375,0.07672119140625,0.9798583984375,2.27294921875,-3.656158447265625,0.800018310546875,1.0,2.0,1.0,1.0,2.0,100.0,event
11:32:07.639,0.84626883,1.0268947,0.7576293,1.2189975,0.48953888,-0.11275024,0.5113516,0.7281764,0.7267194,0.11826289,0.65483797,0.7471447,0.85330516,0.18351461,-0.17926402,0.7375441,0.63485366,0.1036511,-0.034757372,0.74949884,805.8608,805.05493,800.2198,818.7546,1005.7143,-0.105224609375,0.07672119140625,0.9798583984375,2.27294921875,-3.656158447265625,0.800018310546875,1.0,2.0,1.0,1.0,2.0,100.0,event
11:32:07.639,0.84626883,1.0268947,0.46003145,1.2189975,0.48953888,-0.11275024,-0.040832702,0.7281764,0.7267194,0.11826289,0.038711727,0.7471447,0.85330516,0.18351461,-0.258179,0.7375441,0.63485366,0.1036511,-0.028228633,0.74949884,799.81683,805.8608,801.8315,800.6227,691.8315,-0.105224609375,0.07672119140625,0.9798583984375,2.27294921875,-3.656158447265625,0.800018310546875,1.0,2.0,1.0,1.0,2.0,100.0,event
11:32:07.644,0.84626883,1.0268947,0.46003145,1.2189975,0.48953888,-0.11275024,-0.040832702,0.7281764,0.7267194,0.11826289,0.038711727,0.7471447,0.85330516,0.18351461,-0.258179,0.7375441,0.63485366,0.1036511,-0.028228633,0.74949884,829.2308,810.293,807.8755,833.663,805.4579,-0.105224609375,0.07672119140625,0.9798583984375,2.27294921875,-3.656158447265625,0.800018310546875,1.0,2.0,1.0,1.0,2.0,100.0,event
11:32:07.644,0.84626883,1.0268947,0.46003145,1.2189975,0.48953888,-0.11275024,-0.040832702,0.7281764,0.7267194,0.11826289,0.038711727,0.7471447,0.85330516,0.18351461,-0.258179,0.7375441,0.63485366,0.1036511,-0.028228633,0.74949884,810.696,808.68134,803.44324,803.8461,648.71796,-0.105224609375,0.07672119140625,0.9798583984375,2.27294921875,-3.656158447265625,0.800018310546875,1.0,2.0,1.0,1.0,2.0,100.0,event
11:32:07.672,0.84626883,1.0268947,0.46003145,1.2189975,0.48953888,-0.11275024,-0.040832702,0.7281764,0.7267194,0.11826289,0.038711727,0.7471447,0.85330516,0.18351461,-0.258179,0.7375441,0.63485366,0.1036511,-0.028228633,0.74949884,838.0952,811.0989,816.337,847.76556,784.90845,-0.105224609375,0.07672119140625,0.9798583984375,2.27294921875,-3.656158447265625,0.800018310546875,1.0,2.0,1.0,1.0,2.0,100.0,event
11:32:07.673,0.84626883,1.0268947,0.46003145,1.2189975,0.48953888,-0.11275024,-0.040832702,0.7281764,0.7267194,0.11826289,0.038711727,0.7471447,0.85330516,0.18351461,-0.258179,0.7375441,0.63485366,0.1036511,-0.028228633,0.74949884,822.381,809.89014,812.71063,825.2015,709.9634,-0.105224609375,0.07672119140625,0.9798583984375,2.27294921875,-3.656158447265625,0.800018310546875,1.0,2.0,1.0,1.0,2.0,100.0,event
11:32:07.674,0.84626883,1.0268947,0.46003145,1.2189975,0.48953888,-0.11275024,-0.040832702,0.7281764,0.7267194,0.11826289,0.038711727,0.7471447,0.85330516,0.18351461,-0.258179,0.7375441,0.63485366,0.1036511,-0.028228633,0.74949884,806.26373,801.02563,803.0403,809.89014,746.63007,-0.105224609375,0.07672119140625,0.9798583984375,2.27294921875,-3.656158447265625,0.800018310546875,1.0,2.0,1.0,1.0,2.0,100.0,event
11:32:07.674,0.84626883,1.0268947,0.46003145,1.2189975,0.48953888,-0.11275024,-0.040832702,0.7281764,0.7267194,0.11826289,0.038711727,0.7471447,0.85330516,0.18351461,-0.258179,0.7375441,0.63485366,0.1036511,-0.028228633,0.74949884,799.81683,799.81683,802.23444,805.05493,796.1905,-0.105224609375,0.07672119140625,0.9798583984375,2.27294921875,-3.656158447265625,0.800018310546875,1.0,2.0,1.0,1.0,2.0,100.0,event
11:32:07.675,0.84626883,1.0268947,0.46003145,1.2189975,0.48953888,-0.11275024,-0.040832702,0.7281764,0.7267194,0.11826289,0.038711727,0.7471447,0.85330516,0.18351461,-0.258179,0.7375441,0.63485366,0.1036511,-0.028228633,0.74949884,813.1135,803.44324,808.68134,814.7253,801.02563,-0.105224609375,0.07672119140625,0.9798583984375,2.27294921875,-3.656158447265625,0.800018310546875,1.0,2.0,1.0,1.0,2.0,100.0,event
11:32:07.675,0.84626883,1.0268947,0.46003145,1.2189975,0.48953888,-0.11275024,-0.040832702,0.7281764,0.7267194,0.11826289,0.038711727,0.7471447,0.85330516,0.18351461,-0.258179,0.7375441,0.63485366,0.1036511,-0.028228633,0.74949884,823.9927,802.23444,807.8755,825.2015,869.92676,-0.105224609375,0.07672119140625,0.9798583984375,2.27294921875,-3.656158447265625,0.800018310546875,1.0,2.0,1.0,1.0,2.0,100.0,event
11:32:07.676,0.84626883,1.0268947,0.46003145,1.2189975,0.48953888,-0.11275024,-0.040832702,0.7281764,0.7267194,0.11826289,0.038711727,0.7471447,0.85330516,0.18351461,-0.258179,0.7375441,0.63485366,0.1036511,-0.028228633,0.74949884,805.05493,804.2491,811.0989,808.68134,949.304,-0.105224609375,0.07672119140625,0.9798583984375,2.27294921875,-3.656158447265625,0.800018310546875,1.0,2.0,1.0,1.0,2.0,100.0,event
11:32:07.676,0.84626883,1.0268947,0.46003145,1.2189975,0.48953888,-0.11275024,-0.040832702,0.7281764,0.7267194,0.11826289,0.038711727,0.7471447,0.85330516,0.18351461,-0.258179,0.7375441,0.63485366,0.1036511,-0.028228633,0.74949884,793.36993,801.4286,810.696,801.02563,1064.1392,-0.105224609375,0.07672119140625,0.9798583984375,2.27294921875,-3.656158447265625,0.800018310546875,1.0,2.0,1.0,1.0,2.0,100.0,event
11:32:07.677,0.84626883,1.0268947,0.46003145,1.2189975,0.48953888,-0.11275024,-0.040832702,0.7281764,0.7267194,0.11826289,0.038711727,0.7471447,0.85330516,0.18351461,-0.258179,0.7375441,0.63485366,0.1036511,-0.028228633,0.74949884,813.91943,809.89014,804.2491,815.9341,659.19415,-0.105224609375,0.07672119140625,0.9798583984375,2.27294921875,-3.656158447265625,0.800018310546875,1.0,2.0,1.0,1.0,2.0,100.0,event
11:32:07.677,0.84626883,1.0268947,0.46003145,1.2189975,0.48953888,-0.11275024,-0.040832702,0.7281764,0.7267194,0.11826289,0.038711727,0.7471447,0.85330516,0.18351461,-0.258179,0.7375441,0.63485366,0.1036511,-0.028228633,0.74949884,797.8022,809.0842,801.02563,800.6227,865.89746,-0.105224609375,0.07672119140625,0.9798583984375,2.27294921875,-3.656158447265625,0.800018310546875,1.0,2.0,1.0,1.0,2.0,100.0,event
11:32:07.678,0.84626883,1.0268947,0.46003145,1.2189975,0.48953888,-0.11275024,-0.040832702,0.7281764,0.7267194,0.11826289,0.038711727,0.7471447,0.85330516,0.18351461,-0.258179,0.7375441,0.63485366,0.1036511,-0.028228633,0.74949884,820.3663,807.47253,809.4872,820.7692,757.50916,-0.105224609375,0.07672119140625,0.9798583984375,2.27294921875,-3.656158447265625,0.800018310546875,1.0,2.0,1.0,1.0,2.0,100.0,event
11:32:07.678,0.84626883,1.0268947,0.46003145,1.2189975,0.48953888,-0.11275024,-0.040832702,0.7281764,0.7267194,0.11826289,0.038711727,0.7471447,0.85330516,0.18351461,-0.258179,0.7375441,0.63485366,0.1036511,-0.028228633,0.74949884,789.7436,814.3223,804.65204,805.4579,802.6374,-0.105224609375,0.07672119140625,0.9798583984375,2.27294921875,-3.656158447265625,0.800018310546875,1.0,2.0,1.0,1.0,2.0,100.0,event
11:32:07.740,0.84626883,1.0268947,0.46003145,1.2189975,0.48953888,-0.11275024,-0.040832702,0.7281764,0.7267194,0.11826289,0.038711727,0.7471447,0.85330516,0.18351461,-0.258179,0.7375441,0.63485366,0.1036511,-0.028228633,0.74949884,780.87915,804.65204,807.47253,793.36993,713.1868,-0.10540771484375,0.08026123046875,0.9808349609375,2.071075439453125,-2.729034423828125,0.01495361328125,1.0,2.0,1.0,1.0,2.0,100.0,event
11:32:07.742,0.84626883,1.0268947,0.46003145,1.2189975,0.48953888,-0.11275024,-0.040832702,0.7281764,0.7267194,0.11826289,0.038711727,0.7471447,0.85330516,0.18351461,-0.258179,0.7375441,0.63485366,0.1036511,-0.028228633,0.74949884,785.7143,801.02563,813.1135,792.5641,686.5934,-0.10540771484375,0.08026123046875,0.9808349609375,2.071075439453125,-2.729034423828125,0.01495361328125,1.0,2.0,1.0,1.0,2.0,100.0,event
11:32:07.742,0.84626883,1.0268947,0.46003145,1.2189975,0.48953888,-0.11275024,-0.040832702,0.7281764,0.7267194,0.11826289,0.038711727,0.7471447,0.85330516,0.18351461,-0.258179,0.7375441,0.63485366,0.1036511,-0.028228633,0.74949884,795.38464,804.65204,812.3077,806.6667,759.12085,-0.10540771484375,0.08026123046875,0.9808349609375,2.071075439453125,-2.729034423828125,0.01495361328125,1.0,2.0,1.0,1.0,2.0,100.0,event
11:32:07.743,0.84626883,1.0268947,0.46003145,1.2189975,0.48953888,-0.11275024,-0.040832702,0.7281764,0.7267194,0.11826289,0.038711727,0.7471447,0.85330516,0.18351461,-0.258179,0.7375441,0.63485366,0.1036511,-0.028228633,0.74949884,810.696,815.5311,806.6667,820.7692,788.5348,-0.10540771484375,0.08026123046875,0.9808349609375,2.071075439453125,-2.729034423828125,0.01495361328125,1.0,2.0,1.0,1.0,2.0,100.0,event
11:32:07.744,0.84626883,1.0268947,0.46003145,1.2189975,0.48953888,-0.11275024,-0.040832702,0.7281764,0.7267194,0.11826289,0.038711727,0.7471447,0.85330516,0.18351461,-0.258179,0.7375441,0.63485366,0.1036511,-0.028228633,0.74949884,826.0073,811.0989,808.68134,819.9634,707.5458,-0.10540771484375,0.08026123046875,0.9808349609375,2.071075439453125,-2.729034423828125,0.01495361328125,1.0,2.0,1.0,1.0,2.0,100.0,event
11:32:07.744,0.84626883,1.0268947,0.46003145,1.2189975,0.48953888,-0.11275024,-0.040832702,0.7281764,0.7267194,0.11826289,0.038711727,0.7471447,0.85330516,0.18351461,-0.258179,0.7375441,0.63485366,0.1036511,-0.028228633,0.74949884,815.12823,809.89014,808.2784,799.011,767.1795,-0.10540771484375,0.08026123046875,0.9808349609375,2.071075439453125,-2.729034423828125,0.01495361328125,1.0,2.0,1.0,1.0,2.0,100.0,event
11:32:07.745,0.84626883,1.0268947,0.46003145,1.2189975,0.48953888,-0.11275024,-0.040832702,0.7281764,0.7267194,0.11826289,0.038711727,0.7471447,0.85330516,0.18351461,-0.258179,0.7375441,0.63485366,0.1036511,-0.028228633,0.74949884,795.78754,811.9048,809.0842,792.96704,981.53845,-0.10540771484375,0.08026123046875,0.9808349609375,2.071075439453125,-2.729034423828125,0.01495361328125,1.0,2.0,1.0,1.0,2.0,100.0,event
11:32:07.746,0.84626883,1.0268947,0.46003145,1.2189975,0.48953888,-0.11275024,-0.040832702,0.7281764,0.7267194,0.11826289,0.038711727,0.7471447,0.85330516,0.18351461,-0.258179,0.7375441,0.63485366,0.1036511,-0.028228633,0.74949884,809.0842,808.2784,818.3516,824.3956,1072.1978,-0.10540771484375,0.08026123046875,0.9808349609375,2.071075439453125,-2.729034423828125,0.01495361328125,1.0,2.0,1.0,1.0,2.0,100.0,event
11:32:07.747,0.84626883,1.0268947,0.46003145,1.2189975,0.48953888,-0.11275024,-0.040832702,0.7281764,0.7267194,0.11826289,0.038711727,0.7471447,0.85330516,0.18351461,-0.258179,0.7375441,0.63485366,0.1036511,-0.028228633,0.74949884,841.31866,811.9048,817.1429,845.34796,778.86444,-0.10540771484375,0.08026123046875,0.9808349609375,2.071075439453125,-2.729034423828125,0.01495361328125,1.0,2.0,1.0,1.0,2.0,100.0,event
11:32:07.747,0.84626883,1.0268947,0.46003145,1.2189975,0.48953888,-0.11275024,-0.040832702,0.7281764,0.7267194,0.11826289,0.038711727,0.7471447,0.85330516,0.18351461,-0.258179,0.7375441,0.63485366,0.1036511,-0.028228633,0.74949884,853.8095,823.1868,811.0989,855.42126,711.978,-0.10540771484375,0.08026123046875,0.9808349609375,2.071075439453125,-2.729034423828125,0.01495361328125,1.0,2.0,1.0,1.0,2.0,100.0,event
11:32:07.748,0.84626883,1.0268947,0.46003145,1.2189975,0.48953888,-0.11275024,-0.040832702,0.7281764,0.7267194,0.11826289,0.038711727,0.7471447,0.85330516,0.18351461,-0.258179,0.7375441,0.63485366,0.1036511,-0.028228633,0.74949884,810.293,828.4249,814.3223,814.7253,852.6007,-0.10540771484375,0.08026123046875,0.9808349609375,2.071075439453125,-2.729034423828125,0.01495361328125,1.0,2.0,1.0,1.0,2.0,100.0,event
11:32:07.749,0.84626883,1.0268947,0.46003145,1.2189975,0.48953888,-0.11275024,-0.040832702,0.7281764,0.7267194,0.11826289,0.038711727,0.7471447,0.85330516,0.18351461,-0.258179,0.7375441,0.63485366,0.1036511,-0.028228633,0.74949884,765.16486,833.2601,820.3663,765.56775,768.3883,-0.10540771484375,0.08026123046875,0.9808349609375,2.071075439453125,-2.729034423828125,0.01495361328125,1.0,2.0,1.0,1.0,2.0,100.0,event
11:32:07.782,0.84626883,1.0268947,0.46003145,1.2189975,0.48953888,-0.11275024,-0.040832702,0.7281764,0.7267194,0.11826289,0.038711727,0.7471447,0.85330516,0.18351461,-0.258179,0.7375441,0.63485366,0.1036511,-0.028228633,0.74949884,776.8498,837.28937,817.1429,761.9414,677.72894,-0.10406494140625,0.0758056640625,0.9827880859375,1.80938720703125,-1.846771240234375,-0.299072265625,1.0,2.0,1.0,1.0,2.0,100.0,event
11:32:07.786,0.84626883,1.0268947,0.46003145,1.2189975,0.48953888,-0.11275024,-0.040832702,0.7281764,0.7267194,0.11826289,0.038711727,0.7471447,0.85330516,0.18351461,-0.258179,0.7375441,0.63485366,0.1036511,-0.028228633,0.74949884,784.90845,827.2161,813.5165,772.01465,734.94507,-0.10406494140625,0.0758056640625,0.9827880859375,1.80938720703125,-1.846771240234375,-0.299072265625,1.0,2.0,1.0,1.0,2.0,100.0,event
11:32:07.787,0.84626883,1.0268947,0.46003145,1.2189975,0.48953888,-0.11275024,-0.040832702,0.7281764,0.7267194,0.11826289,0.038711727,0.7471447,0.85330516,0.18351461,-0.258179,0.7375441,0.63485366,0.1036511,-0.028228633,0.74949884,783.2967,834.4689,810.696,772.8205,775.64105,-0.10406494140625,0.0758056640625,0.9827880859375,1.80938720703125,-1.846771240234375,-0.299072265625,1.0,2.0,1.0,1.0,2.0,100.0,event
11:32:07.788,0.84626883,1.0268947,0.46003145,1.2189975,0.48953888,-0.11275024,-0.040832702,0.7281764,0.7267194,0.11826289,0.038711727,0.7471447,0.85330516,0.18351461,-0.258179,0.7375441,0.63485366,0.1036511,-0.028228633,0.74949884,763.95605,827.2161,807.0696,754.68866,743.8095,-0.10406494140625,0.0758056640625,0.9827880859375,1.80938720703125,-1.846771240234375,-0.299072265625,1.0,2.0,1.0,1.0,2.0,100.0,event
11:32:07.789,0.84626883,1.0268947,0.46003145,1.2189975,0.48953888,-0.11275024,-0.040832702,0.7281764,0.7267194,0.11826289,0.038711727,0.7471447,0.85330516,0.18351461,-0.258179,0.7375441,0.63485366,0.1036511,-0.028228633,0.74949884,751.8681,818.3516,807.8755,738.1685,683.7729,-0.10406494140625,0.0758056640625,0.9827880859375,1.80938720703125,-1.846771240234375,-0.299072265625,1.0,2.0,1.0,1.0,2.0,100.0,event
11:32:07.791,0.84626883,1.0268947,0.46003145,1.2189975,0.48953888,-0.11275024,-0.040832702,0.7281764,0.7267194,0.11826289,0.038711727,0.7471447,0.85330516,0.18351461,-0.258179,0.7375441,0.63485366,0.1036511,-0.028228633,0.74949884,762.3443,825.6044,808.68134,747.03296,803.0403,-0.10406494140625,0.0758056640625,0.9827880859375,1.80938720703125,-1.846771240234375,-0.299072265625,1.0,2.0,1.0,1.0,2.0,100.0,event
11:32:07.792,0.84626883,1.0268947,0.46003145,1.2189975,0.48953888,-0.11275024,-0.040832702,0.7281764,0.7267194,0.11826289,0.038711727,0.7471447,0.85330516,0.18351461,-0.258179,0.7375441,0.63485366,0.1036511,-0.028228633,0.74949884,779.2674,826.0073,807.47253,764.7619,1059.3041,-0.10406494140625,0.0758056640625,0.9827880859375,1.80938720703125,-1.846771240234375,-0.299072265625,1.0,2.0,1.0,1.0,2.0,100.0,event
11:32:07.793,0.84626883,1.0268947,0.46003145,1.2189975,0.48953888,-0.11275024,-0.040832702,0.7281764,0.7267194,0.11826289,0.038711727,0.7471447,0.85330516,0.18351461,-0.258179,0.7375441,0.63485366,0.1036511,-0.028228633,0.74949884,792.96704,828.4249,816.7399,769.19415,877.1795,-0.10406494140625,0.0758056640625,0.9827880859375,1.80938720703125,-1.846771240234375,-0.299072265625,1.0,2.0,1.0,1.0,2.0,100.0,event
11:32:07.794,0.84626883,1.0268947,0.46003145,1.2189975,0.48953888,-0.11275024,-0.040832702,0.7281764,0.7267194,0.11826289,0.038711727,0.7471447,0.85330516,0.18351461,-0.258179,0.7375441,0.63485366,0.1036511,-0.028228633,0.74949884,777.6557,838.49817,815.9341,759.92676,709.5604,-0.10406494140625,0.0758056640625,0.9827880859375,1.80938720703125,-1.846771240234375,-0.299072265625,1.0,2.0,1.0,1.0,2.0,100.0,event
11:32:07.795,0.84626883,1.0268947,0.46003145,1.2189975,0.48953888,-0.11275024,-0.040832702,0.7281764,0.7267194,0.11826289,0.038711727,0.7471447,0.85330516,0.18351461,-0.258179,0.7375441,0.63485366,0.1036511,-0.028228633,0.74949884,772.01465,826.8132,810.293,757.50916,781.685,-0.10406494140625,0.0758056640625,0.9827880859375,1.80938720703125,-1.846771240234375,-0.299072265625,1.0,2.0,1.0,1.0,2.0,100.0,event
11:32:07.795,0.84626883,1.0268947,0.46003145,1.2189975,0.48953888,-0.11275024,-0.040832702,0.7281764,0.7267194,0.11826289,0.038711727,0.7471447,0.85330516,0.18351461,-0.258179,0.7375441,0.63485366,0.1036511,-0.028228633,0.74949884,799.41394,816.337,813.1135,778.86444,854.61536,-0.10406494140625,0.0758056640625,0.9827880859375,1.80938720703125,-1.846771240234375,-0.299072265625,1.0,2.0,1.0,1.0,2.0,100.0,event
11:32:07.796,0.84626883,1.0268947,0.46003145,1.2189975,0.48953888,-0.11275024,-0.040832702,0.7281764,0.7267194,0.11826289,0.038711727,0.7471447,0.85330516,0.18351461,-0.258179,0.7375441,0.63485366,0.1036511,-0.028228633,0.74949884,812.3077,822.7839,809.0842,795.78754,694.65204,-0.10406494140625,0.0758056640625,0.9827880859375,1.80938720703125,-1.846771240234375,-0.299072265625,1.0,2.0,1.0,1.0,2.0,100.0,event
11:32:07.824,0.84626883,1.0268947,0.46003145,1.2189975,0.48953888,-0.11275024,-0.040832702,0.7281764,0.7267194,0.11826289,0.038711727,0.7471447,0.85330516,0.18351461,-0.258179,0.7375441,0.63485366,0.1036511,-0.028228633,0.74949884,808.2784,816.337,803.44324,800.6227,687.8022,-0.107177734375,0.08026123046875,0.97589111328125,2.504730224609375,-2.0037841796875,-0.231781005859375,1.0,2.0,1.0,1.0,2.0,100.0,event
11:32:07.825,0.84626883,1.0268947,0.46003145,1.2189975,0.48953888,-0.11275024,-0.040832702,0.7281764,0.7267194,0.11826289,0.038711727,0.7471447,0.85330516,0.18351461,-0.258179,0.7375441,0.63485366,0.1036511,-0.028228633,0.74949884,801.8315,821.1722,805.8608,794.9817,830.84247,-0.107177734375,0.08026123046875,0.97589111328125,2.504730224609375,-2.0037841796875,-0.231781005859375,1.0,2.0,1.0,1.0,2.0,100.0,event
11:32:07.826,0.84626883,1.0268947,0.46003145,1.2189975,0.48953888,-0.11275024,-0.040832702,0.7281764,0.7267194,0.11826289,0.038711727,0.7471447,0.85330516,0.18351461,-0.258179,0.7375441,0.63485366,0.1036511,-0.028228633,0.74949884,797.8022,817.5458,808.68134,780.07324,721.6484,-0.107177734375,0.08026123046875,0.97589111328125,2.504730224609375,-2.0037841796875,-0.231781005859375,1.0,2.0,1.0,1.0,2.0,100.0,event
11:32:07.826,0.84626883,1.0268947,0.46003145,1.2189975,0.48953888,-0.11275024,-0.040832702,0.7281764,0.7267194,0.11826289,0.038711727,0.7471447,0.85330516,0.18351461,-0.258179,0.7375441,0.63485366,0.1036511,-0.028228633,0.74949884,797.8022,830.4396,805.8608,776.4469,736.9597,-0.107177734375,0.08026123046875,0.97589111328125,2.504730224609375,-2.0037841796875,-0.231781005859375,1.0,2.0,1.0,1.0,2.0,100.0,event
11:32:07.827,0.84626883,1.0268947,0.46003145,1.2189975,0.48953888,-0.11275024,-0.040832702,0.7281764,0.7267194,0.11826289,0.038711727,0.7471447,0.85330516,0.18351461,-0.258179,0.7375441,0.63485366,0.1036511,-0.028228633,0.74949884,812.71063,813.1135,806.6667,803.44324,756.30035,-0.107177734375,0.08026123046875,0.97589111328125,2.504730224609375,-2.0037841796875,-0.231781005859375,1.0,2.0,1.0,1.0,2.0,100.0,event
11:32:07.827,0.84626883,1.0268947,0.46003145,1.2189975,0.48953888,-0.11275024,-0.040832702,0.7281764,0.7267194,0.11826289,0.038711727,0.7471447,0.85330516,0.18351461,-0.258179,0.7375441,0.63485366,0.1036511,-0.028228633,0.74949884,821.1722,831.2454,802.23444,811.9048,870.32965,-0.107177734375,0.08026123046875,0.97589111328125,2.504730224609375,-2.0037841796875,-0.231781005859375,1.0,2.0,1.0,1.0,2.0,100.0,event
11:32:07.828,0.84626883,1.0268947,0.46003145,1.2189975,0.48953888,-0.11275024,-0.040832702,0.7281764,0.7267194,0.11826289,0.038711727,0.7471447,0.85330516,0.18351461,-0.258179,0.7375441,0.63485366,0.1036511,-0.028228633,0.74949884,801.8315,819.9634,805.05493,809.4872,979.5238,-0.107177734375,0.08026123046875,0.97589111328125,2.504730224609375,-2.0037841796875,-0.231781005859375,1.0,2.0,1.0,1.0,2.0,100.0,event
11:32:07.829,0.84626883,1.0268947,0.46003145,1.2189975,0.48953888,-0.11275024,-0.040832702,0.7281764,0.7267194,0.11826289,0.038711727,0.7471447,0.85330516,0.18351461,-0.258179,0.7375441,0.63485366,0.1036511,-0.028228633,0.74949884,788.5348,812.71063,802.6374,790.54944,794.57874,-0.107177734375,0.08026123046875,0.97589111328125,2.504730224609375,-2.0037841796875,-0.231781005859375,1.0,2.0,1.0,1.0,2.0,100.0,event
11:32:07.829,0.84626883,1.0268947,0.46003145,1.2189975,0.48953888,-0.11275024,-0.040832702,0.7281764,0.7267194,0.11826289,0.038711727,0.7471447,0.85330516,0.18351461,-0.258179,0.7375441,0.63485366,0.1036511,-0.028228633,0.74949884,797.3993,815.9341,802.6374,788.1319,725.6777,-0.107177734375,0.08026123046875,0.97589111328125,2.504730224609375,-2.0037841796875,-0.231781005859375,1.0,2.0,1.0,1.0,2.0,100.0,event
11:32:07.830,0.84626883,1.0268947,0.46003145,1.2189975,0.48953888,-0.11275024,-0.040832702,0.7281764,0.7267194,0.11826289,0.038711727,0.7471447,0.85330516,0.18351461,-0.258179,0.7375441,0.63485366,0.1036511,-0.028228633,0.74949884,811.9048,805.8608,806.6667,805.4579,870.7326,-0.107177734375,0.08026123046875,0.97589111328125,2.504730224609375,-2.0037841796875,-0.231781005859375,1.0,2.0,1.0,1.0,2.0,100.0,event
11:32:07.830,0.84626883,1.0268947,0.46003145,1.2189975,0.48953888,-0.11275024,-0.040832702,0.7281764,0.7267194,0.11826289,0.038711727,0.7471447,0.85330516,0.18351461,-0.258179,0.7375441,0.63485366,0.1036511,-0.028228633,0.74949884,823.9927,809.89014,807.8755,813.1135,846.55676,-0.107177734375,0.08026123046875,0.97589111328125,2.504730224609375,-2.0037841796875,-0.231781005859375,1.0,2.0,1.0,1.0,2.0,100.0,event
11:32:07.831,0.84626883,1.0268947,0.46003145,1.2189975,0.48953888,-0.11275024,-0.040832702,0.7281764,0.7267194,0.11826289,0.038711727,0.7471447,0.85330516,0.18351461,-0.258179,0.7375441,0.63485366,0.1036511,-0.028228633,0.74949884,800.2198,823.9927,806.6667,807.0696,791.3553,-0.107177734375,0.08026123046875,0.97589111328125,2.504730224609375,-2.0037841796875,-0.231781005859375,1.0,2.0,1.0,1.0,2.0,100.0,event
11:32:07.894,0.84626883,1.0268947,0.46003145,1.2189975,0.48953888,-0.11275024,-0.040832702,0.7281764,0.7267194,0.11826289,0.038711727,0.7471447,0.85330516,0.18351461,-0.258179,0.7375441,0.63485366,0.1036511,-0.028228633,0.74949884,786.1172,820.3663,805.05493,787.326,788.93774,-0.1114501953125,0.07574462890625,0.981201171875,1.592559814453125,-3.147735595703125,0.34393310546875,1.0,2.0,1.0,1.0,2.0,100.0,event
11:32:07.896,0.84626883,1.0268947,0.46003145,1.2189975,0.48953888,-0.11275024,-0.040832702,0.7281764,0.7267194,0.11826289,0.038711727,0.7471447,0.85330516,0.18351461,-0.258179,0.7375441,0.63485366,0.1036511,-0.028228633,0.74949884,791.75824,809.0842,804.65204,783.2967,836.4835,-0.1114501953125,0.07574462890625,0.981201171875,1.592559814453125,-3.147735595703125,0.34393310546875,1.0,2.0,1.0,1.0,2.0,100.0,event
11:32:07.901,0.84626883,1.0268947,0.46003145,1.2189975,0.48953888,-0.11275024,-0.040832702,0.7281764,0.7267194,0.11826289,0.038711727,0.7471447,0.85330516,0.18351461,-0.258179,0.7375441,0.63485366,0.1036511,-0.028228633,0.74949884,799.011,812.71063,811.0989,800.2198,765.56775,-0.1114501953125,0.07574462890625,0.981201171875,1.592559814453125,-3.147735595703125,0.34393310546875,1.0,2.0,1.0,1.0,2.0,100.0,event
11:32:07.902,0.84626883,1.0268947,0.46003145,1.2189975,0.48953888,-0.11275024,-0.040832702,0.7281764,0.7267194,0.11826289,0.038711727,0.7471447,0.85330516,0.18351461,-0.258179,0.7375441,0.63485366,0.1036511,-0.028228633,0.74949884,815.12823,819.15753,811.0989,812.71063,721.2454,-0.1114501953125,0.07574462890625,0.981201171875,1.592559814453125,-3.147735595703125,0.34393310546875,1.0,2.0,1.0,1.0,2.0,100.0,event
11:32:07.903,0.84626883,1.0268947,0.46003145,1.2189975,0.48953888,-0.11275024,-0.040832702,0.7281764,0.7267194,0.11826289,0.038711727,0.7471447,0.85330516,0.18351461,-0.258179,0.7375441,0.63485366,0.1036511,-0.028228633,0.74949884,806.6667,811.9048,806.6667,804.2491,768.7912,-0.1114501953125,0.07574462890625,0.981201171875,1.592559814453125,-3.147735595703125,0.34393310546875,1.0,2.0,1.0,1.0,2.0,100.0,event
11:32:07.904,0.84626883,1.0268947,0.46003145,1.2189975,0.48953888,-0.11275024,-0.040832702,0.7281764,0.7267194,0.11826289,0.038711727,0.7471447,0.85330516,0.18351461,-0.258179,0.7375441,0.63485366,0.1036511,-0.028228633,0.74949884,778.46155,813.91943,807.8755,789.7436,838.9011,-0.1114501953125,0.07574462890625,0.981201171875,1.592559814453125,-3.147735595703125,0.34393310546875,1.0,2.0,1.0,1.0,2.0,100.0,event
11:32:07.905,0.84626883,1.0268947,0.46003145,1.2189975,0.48953888,-0.11275024,-0.040832702,0.7281764,0.7267194,0.11826289,0.038711727,0.7471447,0.85330516,0.18351461,-0.258179,0.7375441,0.63485366,0.1036511,-0.028228633,0.74949884,779.2674,829.6337,807.0696,782.8938,850.989,-0.1114501953125,0.07574462890625,0.981201171875,1.592559814453125,-3.147735595703125,0.34393310546875,1.0,2.0,1.0,1.0,2.0,100.0,event
11:32:07.905,0.84626883,1.0268947,0.46003145,1.2189975,0.48953888,-0.11275024,-0.040832702,0.7281764,0.7267194,0.11826289,0.038711727,0.7471447,0.85330516,0.18351461,-0.258179,0.7375441,0.63485366,0.1036511,-0.028228633,0.74949884,800.6227,821.5751,803.44324,795.78754,713.5897,-0.1114501953125,0.07574462890625,0.981201171875,1.592559814453125,-3.147735595703125,0.34393310546875,1.0,2.0,1.0,1.0,2.0,100.0,event
11:32:07.906,0.84626883,1.0268947,0.46003145,1.2189975,0.48953888,-0.11275024,-0.040832702,0.7281764,0.7267194,0.11826289,0.038711727,0.7471447,0.85330516,0.18351461,-0.258179,0.7375441,0.63485366,0.1036511,-0.028228633,0.74949884,812.71063,805.05493,803.0403,812.71063,768.7912,-0.1114501953125,0.07574462890625,0.981201171875,1.592559814453125,-3.147735595703125,0.34393310546875,1.0,2.0,1.0,1.0,2.0,100.0,event
11:32:07.907,0.84626883,1.0268947,0.46003145,1.2189975,0.48953888,-0.11275024,-0.040832702,0.7281764,0.7267194,0.11826289,0.038711727,0.7471447,0.85330516,0.18351461,-0.258179,0.7375441,0.63485366,0.1036511,-0.028228633,0.74949884,799.41394,800.6227,803.44324,810.696,1028.6813,-0.1114501953125,0.07574462890625,0.981201171875,1.592559814453125,-3.147735595703125,0.34393310546875,1.0,2.0,1.0,1.0,2.0,100.0,event
11:32:07.907,0.84626883,1.0268947,0.46003145,1.2189975,0.48953888,-0.11275024,-0.040832702,0.7281764,0.7267194,0.11826289,0.038711727,0.7471447,0.85330516,0.18351461,-0.258179,0.7375441,0.63485366,0.1036511,-0.028228633,0.74949884,779.67035,814.3223,800.2198,794.57874,912.23444,-0.1114501953125,0.07574462890625,0.981201171875,1.592559814453125,-3.147735595703125,0.34393310546875,1.0,2.0,1.0,1.0,2.0,100.0,event
11:32:07.908,0.84626883,1.0268947,0.46003145,1.2189975,0.48953888,-0.11275024,-0.040832702,0.7281764,0.7267194,0.11826289,0.038711727,0.7471447,0.85330516,0.18351461,-0.258179,0.7375441,0.63485366,0.1036511,-0.028228633,0.74949884,778.46155,821.978,804.2491,790.14655,730.10986,-0.1114501953125,0.07574462890625,0.981201171875,1.592559814453125,-3.147735595703125,0.34393310546875,1.0,2.0,1.0,1.0,2.0,100.0,event
11:32:07.939,0.84626883,1.0268947,0.46003145,1.2189975,0.48953888,-0.11275024,-0.040832702,0.7281764,0.7267194,0.11826289,0.038711727,0.7471447,0.85330516,0.18351461,-0.258179,0.7375441,0.63485366,0.1036511,-0.028228633,0.74949884,791.3553,816.7399,814.7253,794.17584,746.63007,-0.1114501953125,0.07574462890625,0.981201171875,1.592559814453125,-3.147735595703125,0.34393310546875,1.0,2.0,1.0,1.0,2.0,100.0,event
11:32:07.940,0.84626883,1.0268947,0.46003145,1.2189975,0.48953888,-0.11275024,-0.040832702,0.7281764,0.7267194,0.11826289,0.038711727,0.7471447,0.85330516,0.18351461,-0.258179,0.7375441,0.63485366,0.1036511,-0.028228633,0.74949884,805.4579,815.12823,812.3077,796.1905,772.4176,-0.1114501953125,0.07574462890625,0.981201171875,1.592559814453125,-3.147735595703125,0.34393310546875,1.0,2.0,1.0,1.0,2.0,100.0,event
11:32:07.941,0.84626883,1.0268947,0.46003145,1.2189975,0.48953888,-0.11275024,-0.040832702,0.7281764,0.7267194,0.11826289,0.038711727,0.7471447,0.85330516,0.18351461,-0.258179,0.7375441,0.63485366,0.1036511,-0.028228633,0.74949884,804.65204,814.3223,801.4286,797.8022,790.14655,-0.1114501953125,0.07574462890625,0.981201171875,1.592559814453125,-3.147735595703125,0.34393310546875,1.0,2.0,1.0,1.0,2.0,100.0,event
11:32:07.942,0.84626883,1.0268947,0.46003145,1.2189975,0.48953888,-0.11275024,-0.040832702,0.7281764,0.7267194,0.11826289,0.038711727,0.7471447,0.85330516,0.18351461,-0.258179,0.7375441,0.63485366,0.1036511,-0.028228633,0.74949884,792.5641,816.337,800.2198,782.8938,748.24176,-0.1114501953125,0.07574462890625,0.981201171875,1.592559814453125,-3.147735595703125,0.34393310546875,1.0,2.0,1.0,1.0,2.0,100.0,event
11:32:07.942,0.84626883,1.0268947,0.46003145,1.2189975,0.48953888,-0.11275024,-0.040832702,0.7281764,0.7267194,0.11826289,0.038711727,0.7471447,0.85330516,0.18351461,-0.258179,0.7375441,0.63485366,0.1036511,-0.028228633,0.74949884,785.31134,814.3223,801.02563,775.64105,783.2967,-0.1114501953125,0.07574462890625,0.981201171875,1.592559814453125,-3.147735595703125,0.34393310546875,1.0,2.0,1.0,1.0,2.0,100.0,event
11:32:07.943,0.84626883,1.0268947,0.46003145,1.2189975,0.48953888,-0.11275024,-0.040832702,0.7281764,0.7267194,0.11826289,0.038711727,0.7471447,0.85330516,0.18351461,-0.258179,0.7375441,0.63485366,0.1036511,-0.028228633,0.74949884,792.5641,817.5458,802.6374,791.3553,850.58606,-0.1114501953125,0.07574462890625,0.981201171875,1.592559814453125,-3.147735595703125,0.34393310546875,1.0,2.0,1.0,1.0,2.0,100.0,event
11:32:07.944,0.84626883,1.0268947,0.46003145,1.2189975,0.48953888,-0.11275024,-0.040832702,0.7281764,0.7267194,0.11826289,0.038711727,0.7471447,0.85330516,0.18351461,-0.258179,0.7375441,0.63485366,0.1036511,-0.028228633,0.74949884,809.4872,823.9927,804.65204,811.50183,805.05493,-0.1114501953125,0.07574462890625,0.981201171875,1.592559814453125,-3.147735595703125,0.34393310546875,1.0,2.0,1.0,1.0,2.0,100.0,event
11:32:07.945,0.84626883,1.0268947,0.46003145,1.2189975,0.48953888,-0.11275024,-0.040832702,0.7281764,0.7267194,0.11826289,0.038711727,0.7471447,0.85330516,0.18351461,-0.258179,0.7375441,0.63485366,0.1036511,-0.028228633,0.74949884,805.4579,825.6044,807.0696,809.0842,734.94507,-0.1114501953125,0.07574462890625,0.981201171875,1.592559814453125,-3.147735595703125,0.34393310546875,1.0,2.0,1.0,1.0,2.0,100.0,event
11:32:07.945,0.84626883,1.0268947,0.46003145,1.2189975,0.48953888,-0.11275024,-0.040832702,0.7281764,0.7267194,0.11826289,0.038711727,0.7471447,0.85330516,0.18351461,-0.258179,0.7375441,0.63485366,0.1036511,-0.028228633,0.74949884,790.54944,815.12823,803.0403,803.0403,889.2674,-0.1114501953125,0.07574462890625,0.981201171875,1.592559814453125,-3.147735595703125,0.34393310546875,1.0,2.0,1.0,1.0,2.0,100.0,event
11:32:07.946,0.84626883,1.0268947,0.46003145,1.2189975,0.48953888,-0.11275024,-0.040832702,0.7281764,0.7267194,0.11826289,0.038711727,0.7471447,0.85330516,0.18351461,-0.258179,0.7375441,0.63485366,0.1036511,-0.028228633,0.74949884,788.93774,819.15753,801.8315,792.1612,950.9158,-0.1114501953125,0.07574462890625,0.981201171875,1.592559814453125,-3.147735595703125,0.34393310546875,1.0,2.0,1.0,1.0,2.0,100.0,event
11:32:07.946,0.84626883,1.0268947,0.46003145,1.2189975,0.48953888,-0.11275024,-0.040832702,0.7281764,0.7267194,0.11826289,0.038711727,0.7471447,0.85330516,0.18351461,-0.258179,0.7375441,0.63485366,0.1036511,-0.028228633,0.74949884,801.4286,824.7985,808.68134,790.14655,716.8132,-0.1114501953125,0.07574462890625,0.981201171875,1.592559814453125,-3.147735595703125,0.34393310546875,1.0,2.0,1.0,1.0,2.0,100.0,event
11:32:07.947,0.84626883,1.0268947,0.46003145,1.2189975,0.48953888,-0.11275024,-0.040832702,0.7281764,0.7267194,0.11826289,0.038711727,0.7471447,0.85330516,0.18351461,-0.258179,0.7375441,0.63485366,0.1036511,-0.028228633,0.74949884,811.9048,822.381,809.0842,817.9487,696.6667,-0.1114501953125,0.07574462890625,0.981201171875,1.592559814453125,-3.147735595703125,0.34393310546875,1.0,2.0,1.0,1.0,2.0,100.0,event
11:32:07.975,0.84626883,1.0268947,0.46003145,1.2189975,0.48953888,-0.11275024,-0.040832702,0.7281764,0.7267194,0.11826289,0.038711727,0.7471447,0.85330516,0.18351461,-0.258179,0.7375441,0.63485366,0.1036511,-0.028228633,0.74949884,823.1868,816.7399,813.91943,826.4103,815.12823,-0.112548828125,0.07904052734375,0.98382568359375,2.489776611328125,-4.164581298828125,0.366363525390625,1.0,2.0,1.0,1.0,2.0,100.0,event
11:32:07.976,0.84626883,1.0268947,0.46003145,1.2189975,0.48953888,-0.11275024,-0.040832702,0.7281764,0.7267194,0.11826289,0.038711727,0.7471447,0.85330516,0.18351461,-0.258179,0.7375441,0.63485366,0.1036511,-0.028228633,0.74949884,820.7692,822.381,812.3077,805.8608,788.5348,-0.112548828125,0.07904052734375,0.98382568359375,2.489776611328125,-4.164581298828125,0.366363525390625,1.0,2.0,1.0,1.0,2.0,100.0,event
11:32:07.977,0.84626883,1.0268947,0.46003145,1.2189975,0.48953888,-0.11275024,-0.040832702,0.7281764,0.7267194,0.11826289,0.038711727,0.7471447,0.85330516,0.18351461,-0.258179,0.7375441,0.63485366,0.1036511,-0.028228633,0.74949884,796.5934,824.7985,808.68134,796.5934,727.6923,-0.112548828125,0.07904052734375,0.98382568359375,2.489776611328125,-4.164581298828125,0.366363525390625,1.0,2.0,1.0,1.0,2.0,100.0,event
11:32:07.978,0.84626883,1.0268947,0.46003145,1.2189975,0.48953888,-0.11275024,-0.040832702,0.7281764,0.7267194,0.11826289,0.038711727,0.7471447,0.85330516,0.18351461,-0.258179,0.7375441,0.63485366,0.1036511,-0.028228633,0.74949884,794.17584,810.293,806.6667,800.2198,834.4689,-0.112548828125,0.07904052734375,0.98382568359375,2.489776611328125,-4.164581298828125,0.366363525390625,1.0,2.0,1.0,1.0,2.0,100.0,event
11:32:07.982,0.84626883,1.0268947,0.46003145,1.2189975,0.48953888,-0.11275024,-0.040832702,0.7281764,0.7267194,0.11826289,0.038711727,0.7471447,0.85330516,0.18351461,-0.258179,0.7375441,0.63485366,0.1036511,-0.028228633,0.74949884,803.8461,808.68134,803.44324,814.7253,879.19415,-0.112548828125,0.07904052734375,0.98382568359375,2.489776611328125,-4.164581298828125,0.366363525390625,1.0,2.0,1.0,1.0,2.0,100.0,event
11:32:07.982,0.84626883,1.0268947,0.46003145,1.2189975,0.48953888,-0.11275024,-0.040832702,0.7281764,0.7267194,0.11826289,0.038711727,0.7471447,0.85330516,0.18351461,-0.258179,0.7375441,0.63485366,0.1036511,-0.028228633,0.74949884,806.6667,811.0989,804.65204,818.7546,817.5458,-0.112548828125,0.07904052734375,0.98382568359375,2.489776611328125,-4.164581298828125,0.366363525390625,1.0,2.0,1.0,1.0,2.0,100.0,event
11:32:07.983,0.84626883,1.0268947,0.46003145,1.2189975,0.48953888,-0.11275024,-0.040832702,0.7281764,0.7267194,0.11826289,0.038711727,0.7471447,0.85330516,0.18351461,-0.258179,0.7375441,0.63485366,0.1036511,-0.028228633,0.74949884,794.9817,816.7399,809.0842,803.44324,871.9414,-0.112548828125,0.07904052734375,0.98382568359375,2.489776611328125,-4.164581298828125,0.366363525390625,1.0,2.0,1.0,1.0,2.0,100.0,event
11:32:07.984,0.84626883,1.0268947,0.46003145,1.2189975,0.48953888,-0.11275024,-0.040832702,0.7281764,0.7267194,0.11826289,0.038711727,0.7471447,0.85330516,0.18351461,-0.258179,0.7375441,0.63485366,0.1036511,-0.028228633,0.74949884,788.5348,813.5165,811.50183,791.75824,956.1539,-0.112548828125,0.07904052734375,0.98382568359375,2.489776611328125,-4.164581298828125,0.366363525390625,1.0,2.0,1.0,1.0,2.0,100.0,event
11:32:07.986,0.84626883,1.0268947,0.46003145,1.2189975,0.48953888,-0.11275024,-0.040832702,0.7281764,0.7267194,0.11826289,0.038711727,0.7471447,0.85330516,0.18351461,-0.258179,0.7375441,0.63485366,0.1036511,-0.028228633,0.74949884,802.23444,810.696,813.5165,794.9817,1073.4066,-0.112548828125,0.07904052734375,0.98382568359375,2.489776611328125,-4.164581298828125,0.366363525390625,1.0,2.0,1.0,1.0,2.0,100.0,event
11:32:07.986,0.84626883,1.0268947,0.46003145,1.2189975,0.48953888,-0.11275024,-0.040832702,0.7281764,0.7267194,0.11826289,0.038711727,0.7471447,0.85330516,0.18351461,-0.258179,0.7375441,0.63485366,0.1036511,-0.028228633,0.74949884,809.0842,834.0659,813.91943,804.65204,917.8755,-0.112548828125,0.07904052734375,0.98382568359375,2.489776611328125,-4.164581298828125,0.366363525390625,1.0,2.0,1.0,1.0,2.0,100.0,event
11:32:07.987,0.84626883,1.0268947,0.46003145,1.2189975,0.48953888,-0.11275024,-0.040832702,0.7281764,0.7267194,0.11826289,0.038711727,0.7471447,0.85330516,0.18351461,-0.258179,0.7375441,0.63485366,0.1036511,-0.028228633,0.74949884,816.337,821.1722,816.337,813.91943,665.2381,-0.112548828125,0.07904052734375,0.98382568359375,2.489776611328125,-4.164581298828125,0.366363525390625,1.0,2.0,1.0,1.0,2.0,100.0,event
11:32:07.988,0.84626883,1.0268947,0.46003145,1.2189975,0.48953888,-0.11275024,-0.040832702,0.7281764,0.7267194,0.11826289,0.038711727,0.7471447,0.85330516,0.18351461,-0.258179,0.7375441,0.63485366,0.1036511,-0.028228633,0.74949884,797.8022,806.6667,811.9048,804.65204,723.663,-0.112548828125,0.07904052734375,0.98382568359375,2.489776611328125,-4.164581298828125,0.366363525390625,1.0,2.0,1.0,1.0,2.0,100.0,event
11:32:08.009,0.84626883,1.0268947,0.46003145,1.2189975,0.48953888,-0.11275024,-0.040832702,0.7281764,0.7267194,0.11826289,0.038711727,0.7471447,0.85330516,0.18351461,-0.258179,0.7375441,0.63485366,0.1036511,-0.028228633,0.74949884,774.0293,817.1429,808.68134,782.8938,767.1795,-0.10772705078125,0.07940673828125,0.9761962890625,1.607513427734375,-3.147735595703125,-0.7476806640625,1.0,2.0,1.0,1.0,2.0,100.0,event
11:32:08.010,0.84626883,1.0268947,0.46003145,1.2189975,0.48953888,-0.11275024,-0.040832702,0.7281764,0.7267194,0.11826289,0.038711727,0.7471447,0.85330516,0.18351461,-0.258179,0.7375441,0.63485366,0.1036511,-0.028228633,0.74949884,791.3553,807.8755,810.293,782.8938,705.5311,-0.10772705078125,0.07940673828125,0.9761962890625,1.607513427734375,-3.147735595703125,-0.7476806640625,1.0,2.0,1.0,1.0,2.0,100.0,event
11:32:08.011,0.84626883,1.0268947,0.46003145,1.2189975,0.48953888,-0.11275024,-0.040832702,0.7281764,0.7267194,0.11826289,0.038711727,0.7471447,0.85330516,0.18351461,-0.258179,0.7375441,0.63485366,0.1036511,-0.028228633,0.74949884,802.23444,807.0696,811.0989,796.99634,700.696,-0.10772705078125,0.07940673828125,0.9761962890625,1.607513427734375,-3.147735595703125,-0.7476806640625,1.0,2.0,1.0,1.0,2.0,100.0,event
11:32:08.011,0.84626883,1.0268947,0.46003145,1.2189975,0.48953888,-0.11275024,-0.040832702,0.7281764,0.7267194,0.11826289,0.038711727,0.7471447,0.85330516,0.18351461,-0.258179,0.7375441,0.63485366,0.1036511,-0.028228633,0.74949884,799.011,811.50183,815.12823,814.7253,755.89746,-0.10772705078125,0.07940673828125,0.9761962890625,1.607513427734375,-3.147735595703125,-0.7476806640625,1.0,2.0,1.0,1.0,2.0,100.0,event
11:32:08.011,0.84626883,1.0268947,0.46003145,1.2189975,0.48953888,-0.11275024,-0.040832702,0.7281764,0.7267194,0.11826289,0.038711727,0.7471447,0.85330516,0.18351461,-0.258179,0.7375441,0.63485366,0.1036511,-0.028228633,0.74949884,796.1905,813.5165,813.1135,810.293,791.3553,-0.10772705078125,0.07940673828125,0.9761962890625,1.607513427734375,-3.147735595703125,-0.7476806640625,1.0,2.0,1.0,1.0,2.0,100.0,event
11:32:08.012,0.84626883,1.0268947,0.46003145,1.2189975,0.48953888,-0.11275024,-0.040832702,0.7281764,0.7267194,0.11826289,0.038711727,0.7471447,0.85330516,0.18351461,-0.258179,0.7375441,0.63485366,0.1036511,-0.028228633,0.74949884,785.31134,815.9341,808.2784,788.1319,805.05493,-0.10772705078125,0.07940673828125,0.9761962890625,1.607513427734375,-3.147735595703125,-0.7476806640625,1.0,2.0,1.0,1.0,2.0,100.0,event
11:32:08.013,0.84626883,1.0268947,0.46003145,1.2189975,0.48953888,-0.11275024,-0.040832702,0.7281764,0.7267194,0.11826289,0.038711727,0.7471447,0.85330516,0.18351461,-0.258179,0.7375441,0.63485366,0.1036511,-0.028228633,0.74949884,794.17584,814.7253,809.0842,788.93774,764.35895,-0.10772705078125,0.07940673828125,0.9761962890625,1.607513427734375,-3.147735595703125,-0.7476806640625,1.0,2.0,1.0,1.0,2.0,100.0,event
11:32:08.013,0.84626883,1.0268947,0.46003145,1.2189975,0.48953888,-0.11275024,-0.040832702,0.7281764,0.7267194,0.11826289,0.038711727,0.7471447,0.85330516,0.18351461,-0.258179,0.7375441,0.63485366,0.1036511,-0.028228633,0.74949884,804.65204,809.0842,810.293,804.2491,851.39197,-0.10772705078125,0.07940673828125,0.9761962890625,1.607513427734375,-3.147735595703125,-0.7476806640625,1.0,2.0,1.0,1.0,2.0,100.0,event
11:32:08.014,0.84626883,1.0268947,0.46003145,1.2189975,0.48953888,-0.11275024,-0.040832702,0.7281764,0.7267194,0.11826289,0.038711727,0.7471447,0.85330516,0.18351461,-0.258179,0.7375441,0.63485366,0.1036511,-0.028228633,0.74949884,771.6117,821.1722,801.4286,771.6117,697.0696,-0.10772705078125,0.07940673828125,0.9761962890625,1.607513427734375,-3.147735595703125,-0.7476806640625,1.0,2.0,1.0,1.0,2.0,100.0,event
11:32:08.014,0.84626883,1.0268947,0.46003145,1.2189975,0.48953888,-0.11275024,-0.040832702,0.7281764,0.7267194,0.11826289,0.038711727,0.7471447,0.85330516,0.18351461,-0.258179,0.7375441,0.63485366,0.1036511,-0.028228633,0.74949884,834.87177,803.44324,810.696,841.31866,979.5238,-0.10772705078125,0.07940673828125,0.9761962890625,1.607513427734375,-3.147735595703125,-0.7476806640625,1.0,2.0,1.0,1.0,2.0,100.0,event
11:32:08.014,0.84626883,1.0268947,0.46003145,1.2189975,0.48953888,-0.11275024,-0.040832702,0.7281764,0.7267194,0.11826289,0.038711727,0.7471447,0.85330516,0.18351461,-0.258179,0.7375441,0.63485366,0.1036511,-0.028228633,0.74949884,837.6923,808.2784,808.68134,846.1539,851.39197,-0.10772705078125,0.07940673828125,0.9761962890625,1.607513427734375,-3.147735595703125,-0.7476806640625,1.0,2.0,1.0,1.0,2.0,100.0,event
11:32:08.015,0.84626883,1.0268947,0.46003145,1.2189975,0.48953888,-0.11275024,-0.040832702,0.7281764,0.7267194,0.11826289,0.038711727,0.7471447,0.85330516,0.18351461,-0.258179,0.7375441,0.63485366,0.1036511,-0.028228633,0.74949884,755.09155,816.7399,795.38464,730.5128,798.20514,-0.10772705078125,0.07940673828125,0.9761962890625,1.607513427734375,-3.147735595703125,-0.7476806640625,1.0,2.0,1.0,1.0,2.0,100.0,event
11:32:08.106,0.84626883,1.0268947,0.46003145,1.2189975,0.48953888,-0.11275024,-0.040832702,0.7281764,0.7267194,0.11826289,0.038711727,0.7471447,0.85330516,0.18351461,-0.258179,0.7375441,0.63485366,0.1036511,-0.028228633,0.74949884,786.9231,811.50183,796.5934,751.8681,796.1905,-0.10675048828125,0.07757568359375,0.97698974609375,1.5252685546875,-2.385101318359375,-1.68975830078125,1.0,2.0,1.0,1.0,2.0,100.0,event
11:32:08.107,0.84626883,1.0268947,0.46003145,1.2189975,0.48953888,-0.11275024,-0.040832702,0.7281764,0.7267194,0.11826289,0.038711727,0.7471447,0.85330516,0.18351461,-0.258179,0.7375441,0.63485366,0.1036511,-0.028228633,0.74949884,793.7729,829.6337,802.23444,768.3883,692.6374,-0.10675048828125,0.07757568359375,0.97698974609375,1.5252685546875,-2.385101318359375,-1.68975830078125,1.0,2.0,1.0,1.0,2.0,100.0,event
11:32:08.108,0.84626883,1.0268947,0.46003145,1.2189975,0.48953888,-0.11275024,-0.040832702,0.7281764,0.7267194,0.11826289,0.038711727,0.7471447,0.85330516,0.18351461,-0.258179,0.7375441,0.63485366,0.1036511,-0.028228633,0.74949884,782.8938,842.9304,803.44324,770.0,737.76556,-0.10675048828125,0.07757568359375,0.97698974609375,1.5252685546875,-2.385101318359375,-1.68975830078125,1.0,2.0,1.0,1.0,2.0,100.0,event
11:32:08.109,0.84626883,1.0268947,0.46003145,1.2189975,0.48953888,-0.11275024,-0.040832702,0.7281764,0.7267194,0.11826289,0.038711727,0.7471447,0.85330516,0.18351461,-0.258179,0.7375441,0.63485366,0.1036511,-0.028228633,0.74949884,783.69965,820.3663,805.4579,771.6117,780.07324,-0.10675048828125,0.07757568359375,0.97698974609375,1.5252685546875,-2.385101318359375,-1.68975830078125,1.0,2.0,1.0,1.0,2.0,100.0,event
11:32:08.109,0.84626883,1.0268947,0.46003145,1.2189975,0.48953888,-0.11275024,-0.040832702,0.7281764,0.7267194,0.11826289,0.038711727,0.7471447,0.85330516,0.18351461,-0.258179,0.7375441,0.63485366,0.1036511,-0.028228633,0.74949884,771.2088,816.337,809.4872,765.16486,729.304,-0.10675048828125,0.07757568359375,0.97698974609375,1.5252685546875,-2.385101318359375,-1.68975830078125,1.0,2.0,1.0,1.0,2.0,100.0,event
11:32:08.110,0.84626883,1.0268947,0.48124155,1.2189975,0.48953888,-0.11275024,-0.010636271,0.7281764,0.7267194,0.11826289,0.038678925,0.7471447,0.85330516,0.18351461,-0.27899954,0.7375441,0.63485366,0.1036511,-0.009071819,0.74949884,779.67035,823.1868,809.0842,780.07324,719.6337,-0.10675048828125,0.07757568359375,0.97698974609375,1.5252685546875,-2.385101318359375,-1.68975830078125,1.0,2.0,1.0,1.0,2.0,100.0,event
11:32:08.114,0.84626883,1.0268947,0.48124155,1.2189975,0.48953888,-0.11275024,-0.010636271,0.7281764,0.7267194,0.11826289,0.038678925,0.7471447,0.85330516,0.18351461,-0.27899954,0.7375441,0.63485366,0.1036511,-0.009071819,0.74949884,802.23444,818.3516,811.9048,791.3553,816.7399,-0.10675048828125,0.07757568359375,0.97698974609375,1.5252685546875,-2.385101318359375,-1.68975830078125,1.0,2.0,1.0,1.0,2.0,100.0,event
11:32:08.115,0.84626883,1.0268947,0.48124155,1.2189975,0.48953888,-0.11275024,-0.010636271,0.7281764,0.7267194,0.11826289,0.038678925,0.7471447,0.85330516,0.18351461,-0.27899954,0.7375441,0.63485366,0.1036511,-0.009071819,0.74949884,791.75824,817.1429,813.5165,790.54944,1000.07324,-0.10675048828125,0.07757568359375,0.97698974609375,1.5252685546875,-2.385101318359375,-1.68975830078125,1.0,2.0,1.0,1.0,2.0,100.0,event
11:32:08.116,0.84626883,1.0268947,0.48124155,1.2189975,0.48953888,-0.11275024,-0.010636271,0.7281764,0.7267194,0.11826289,0.038678925,0.7471447,0.85330516,0.18351461,-0.27899954,0.7375441,0.63485366,0.1036511,-0.009071819,0.74949884,772.8205,818.7546,810.696,786.1172,800.2198,-0.10675048828125,0.07757568359375,0.97698974609375,1.5252685546875,-2.385101318359375,-1.68975830078125,1.0,2.0,1.0,1.0,2.0,100.0,event
11:32:08.116,0.84626883,1.0268947,0.48124155,1.2189975,0.48953888,-0.11275024,-0.010636271,0.7281764,0.7267194,0.11826289,0.038678925,0.7471447,0.85330516,0.18351461,-0.27899954,0.7375441,0.63485366,0.1036511,-0.009071819,0.74949884,775.2381,813.91943,809.4872,766.77655,576.5934,-0.10675048828125,0.07757568359375,0.97698974609375,1.5252685546875,-2.385101318359375,-1.68975830078125,1.0,2.0,1.0,1.0,2.0,100.0,event
11:32:08.117,0.84626883,1.0268947,0.48124155,1.2189975,0.48953888,-0.11275024,-0.010636271,0.7281764,0.7267194,0.11826289,0.038678925,0.7471447,0.85330516,0.18351461,-0.27899954,0.7375441,0.63485366,0.1036511,-0.009071819,0.74949884,793.7729,811.50183,808.68134,779.2674,674.10254,-0.10675048828125,0.07757568359375,0.97698974609375,1.5252685546875,-2.385101318359375,-1.68975830078125,1.0,2.0,1.0,1.0,2.0,100.0,event
11:32:08.118,0.84626883,1.0268947,0.48124155,1.2189975,0.48953888,-0.11275024,-0.010636271,0.7281764,0.7267194,0.11826289,0.038678925,0.7471447,0.85330516,0.18351461,-0.27899954,0.7375441,0.63485366,0.1036511,-0.009071819,0.74949884,794.57874,815.12823,808.2784,803.8461,756.30035,-0.10675048828125,0.07757568359375,0.97698974609375,1.5252685546875,-2.385101318359375,-1.68975830078125,1.0,2.0,1.0,1.0,2.0,100.0,event
11:32:08.119,0.84626883,1.0268947,0.48124155,1.2189975,0.48953888,-0.11275024,-0.010636271,0.7281764,0.7267194,0.11826289,0.038678925,0.7471447,0.85330516,0.18351461,-0.27899954,0.7375441,0.63485366,0.1036511,-0.009071819,0.74949884,799.81683,812.3077,805.05493,801.8315,738.1685,-0.11328125,0.0765380859375,0.97900390625,1.614990234375,-2.714080810546875,-0.874786376953125,1.0,2.0,1.0,1.0,2.0,100.0,event
11:32:08.120,0.84626883,1.0268947,0.48124155,1.2189975,0.48953888,-0.11275024,-0.010636271,0.7281764,0.7267194,0.11826289,0.038678925,0.7471447,0.85330516,0.18351461,-0.27899954,0.7375441,0.63485366,0.1036511,-0.009071819,0.74949884,796.99634,815.12823,806.26373,794.57874,686.1905,-0.11328125,0.0765380859375,0.97900390625,1.614990234375,-2.714080810546875,-0.874786376953125,1.0,2.0,1.0,1.0,2.0,100.0,event
11:32:08.121,0.84626883,1.0268947,0.48124155,1.2189975,0.48953888,-0.11275024,-0.010636271,0.7281764,0.7267194,0.11826289,0.038678925,0.7471447,0.85330516,0.18351461,-0.27899954,0.7375441,0.63485366,0.1036511,-0.009071819,0.74949884,772.4176,823.9927,810.696,781.685,761.53845,-0.11328125,0.0765380859375,0.97900390625,1.614990234375,-2.714080810546875,-0.874786376953125,1.0,2.0,1.0,1.0,2.0,100.0,event
11:32:08.122,0.84626883,1.0268947,0.48124155,1.2189975,0.48953888,-0.11275024,-0.010636271,0.7281764,0.7267194,0.11826289,0.038678925,0.7471447,0.85330516,0.18351461,-0.27899954,0.7375441,0.63485366,0.1036511,-0.009071819,0.74949884,783.2967,814.3223,809.0842,792.1612,807.47253,-0.11328125,0.0765380859375,0.97900390625,1.614990234375,-2.714080810546875,-0.874786376953125,1.0,2.0,1.0,1.0,2.0,100.0,event
11:32:08.122,0.84626883,1.0268947,0.48124155,1.2189975,0.48953888,-0.11275024,-0.010636271,0.7281764,0.7267194,0.11826289,0.038678925,0.7471447,0.85330516,0.18351461,-0.27899954,0.7375441,0.63485366,0.1036511,-0.009071819,0.74949884,810.293,811.0989,807.8755,805.05493,768.3883,-0.11328125,0.0765380859375,0.97900390625,1.614990234375,-2.714080810546875,-0.874786376953125,1.0,2.0,1.0,1.0,2.0,100.0,event
11:32:08.123,0.84626883,1.0268947,0.48124155,1.2189975,0.48953888,-0.11275024,-0.010636271,0.7281764,0.7267194,0.11826289,0.038678925,0.7471447,0.85330516,0.18351461,-0.27899954,0.7375441,0.63485366,0.1036511,-0.009071819,0.74949884,787.72894,810.696,809.89014,795.78754,987.98535,-0.11328125,0.0765380859375,0.97900390625,1.614990234375,-2.714080810546875,-0.874786376953125,1.0,2.0,1.0,1.0,2.0,100.0,event
11:32:08.123,0.84626883,1.0268947,0.48124155,1.2189975,0.48953888,-0.11275024,-0.010636271,0.7281764,0.7267194,0.11826289,0.038678925,0.7471447,0.85330516,0.18351461,-0.27899954,0.7375441,0.63485366,0.1036511,-0.009071819,0.74949884,802.6374,810.696,809.89014,807.47253,832.8571,-0.11328125,0.0765380859375,0.97900390625,1.614990234375,-2.714080810546875,-0.874786376953125,1.0,2.0,1.0,1.0,2.0,100.0,event
11:32:08.124,0.84626883,1.0268947,0.48124155,1.2189975,0.48953888,-0.11275024,-0.010636271,0.7281764,0.7267194,0.11826289,0.038678925,0.7471447,0.85330516,0.18351461,-0.27899954,0.7375441,0.63485366,0.1036511,-0.009071819,0.74949884,778.46155,816.7399,810.293,776.4469,844.1392,-0.11328125,0.0765380859375,0.97900390625,1.614990234375,-2.714080810546875,-0.874786376953125,1.0,2.0,1.0,1.0,2.0,100.0,event
11:32:08.125,0.84626883,1.0268947,0.48124155,1.2189975,0.48953888,-0.11275024,-0.010636271,0.7281764,0.7267194,0.11826289,0.038678925,0.7471447,0.85330516,0.18351461,-0.27899954,0.7375441,0.63485366,0.1036511,-0.009071819,0.74949884,783.2967,816.7399,806.26373,787.326,637.4359,-0.11328125,0.0765380859375,0.97900390625,1.614990234375,-2.714080810546875,-0.874786376953125,1.0,2.0,1.0,1.0,2.0,100.0,event
11:32:08.125,0.84626883,1.0268947,0.48124155,1.2189975,0.48953888,-0.11275024,-0.010636271,0.7281764,0.7267194,0.11826289,0.038678925,0.7471447,0.85330516,0.18351461,-0.27899954,0.7375441,0.63485366,0.1036511,-0.009071819,0.74949884,805.05493,815.9341,805.8608,808.2784,683.7729,-0.11328125,0.0765380859375,0.97900390625,1.614990234375,-2.714080810546875,-0.874786376953125,1.0,2.0,1.0,1.0,2.0,100.0,event
11:32:08.126,0.84626883,1.0268947,0.48124155,1.2189975,0.48953888,-0.11275024,-0.010636271,0.7281764,0.7267194,0.11826289,0.038678925,0.7471447,0.85330516,0.18351461,-0.27899954,0.7375441,0.63485366,0.1036511,-0.009071819,0.74949884,795.38464,808.2784,807.0696,807.0696,842.1245,-0.11328125,0.0765380859375,0.97900390625,1.614990234375,-2.714080810546875,-0.874786376953125,1.0,2.0,1.0,1.0,2.0,100.0,event
11:32:08.126,0.84626883,1.0268947,0.48124155,1.2189975,0.48953888,-0.11275024,-0.010636271,0.7281764,0.7267194,0.11826289,0.038678925,0.7471447,0.85330516,0.18351461,-0.27899954,0.7375441,0.63485366,0.1036511,-0.009071819,0.74949884,777.6557,809.4872,805.05493,798.20514,784.90845,-0.11328125,0.0765380859375,0.97900390625,1.614990234375,-2.714080810546875,-0.874786376953125,1.0,2.0,1.0,1.0,2.0,100.0,event
11:32:08.153,0.84626883,1.0268947,0.48124155,1.2189975,0.48953888,-0.11275024,-0.010636271,0.7281764,0.7267194,0.11826289,0.038678925,0.7471447,0.85330516,0.18351461,-0.27899954,0.7375441,0.63485366,0.1036511,-0.009071819,0.74949884,772.01465,817.9487,802.23444,790.14655,637.8388,-0.11328125,0.0765380859375,0.97900390625,1.614990234375,-2.714080810546875,-0.874786376953125,1.0,2.0,1.0,1.0,2.0,100.0,event
11:32:08.154,0.84626883,1.0268947,0.48124155,1.2189975,0.48953888,-0.11275024,-0.010636271,0.7281764,0.7267194,0.11826289,0.038678925,0.7471447,0.85330516,0.18351461,-0.27899954,0.7375441,0.63485366,0.1036511,-0.009071819,0.74949884,781.28204,812.71063,805.8608,790.54944,659.59705,-0.11328125,0.0765380859375,0.97900390625,1.614990234375,-2.714080810546875,-0.874786376953125,1.0,2.0,1.0,1.0,2.0,100.0,event
11:32:08.155,0.84626883,1.0268947,0.48124155,1.2189975,0.48953888,-0.11275024,-0.010636271,0.7281764,0.7267194,0.11826289,0.038678925,0.7471447,0.85330516,0.18351461,-0.27899954,0.7375441,0.63485366,0.1036511,-0.009071819,0.74949884,798.60803,805.4579,809.4872,810.293,943.2601,-0.11328125,0.0765380859375,0.97900390625,1.614990234375,-2.714080810546875,-0.874786376953125,1.0,2.0,1.0,1.0,2.0,100.0,event
11:32:08.156,0.84626883,1.0268947,0.48124155,1.2189975,0.48953888,-0.11275024,-0.010636271,0.7281764,0.7267194,0.11826289,0.038678925,0.7471447,0.85330516,0.18351461,-0.27899954,0.7375441,0.63485366,0.1036511,-0.009071819,0.74949884,789.7436,804.65204,805.4579,802.6374,768.7912,-0.11328125,0.0765380859375,0.97900390625,1.614990234375,-2.714080810546875,-0.874786376953125,1.0,2.0,1.0,1.0,2.0,100.0,event
11:32:08.156,0.84626883,1.0268947,0.48124155,1.2189975,0.48953888,-0.11275024,-0.010636271,0.7281764,0.7267194,0.11826289,0.038678925,0.7471447,0.85330516,0.18351461,-0.27899954,0.7375441,0.63485366,0.1036511,-0.009071819,0.74949884,796.99634,806.26373,805.4579,811.50183,983.5531,-0.11328125,0.0765380859375,0.97900390625,1.614990234375,-2.714080810546875,-0.874786376953125,1.0,2.0,1.0,1.0,2.0,100.0,event
11:32:08.157,0.84626883,1.0268947,0.48124155,1.2189975,0.48953888,-0.11275024,-0.010636271,0.7281764,0.7267194,0.11826289,0.038678925,0.7471447,0.85330516,0.18351461,-0.27899954,0.7375441,0.63485366,0.1036511,-0.009071819,0.74949884,785.31134,805.05493,805.4579,792.96704,797.3993,-0.11328125,0.0765380859375,0.97900390625,1.614990234375,-2.714080810546875,-0.874786376953125,1.0,2.0,1.0,1.0,2.0,100.0,event
11:32:08.158,0.84626883,1.0268947,0.48124155,1.2189975,0.48953888,-0.11275024,-0.010636271,0.7281764,0.7267194,0.11826289,0.038678925,0.7471447,0.85330516,0.18351461,-0.27899954,0.7375441,0.63485366,0.1036511,-0.009071819,0.74949884,786.52014,807.0696,805.05493,792.1612,1080.6593,-0.11328125,0.0765380859375,0.97900390625,1.614990234375,-2.714080810546875,-0.874786376953125,1.0,2.0,1.0,1.0,2.0,100.0,event
11:32:08.158,0.84626883,1.0268947,0.5153845,1.2189975,0.48953888,-0.11275024,0.022895524,0.7281764,0.7267194,0.11826289,0.037863676,0.7471447,0.85330516,0.18351461,-0.28887317,0.7375441,0.63485366,0.1036511,0.019924406,0.74949884,800.2198,810.696,807.0696,801.8315,1022.23444,-0.11328125,0.0765380859375,0.97900390625,1.614990234375,-2.714080810546875,-0.874786376953125,1.0,2.0,1.0,1.0,2.0,100.0,event
11:32:08.162,0.84626883,1.0268947,0.5153845,1.2189975,0.48953888,-0.11275024,0.022895524,0.7281764,0.7267194,0.11826289,0.037863676,0.7471447,0.85330516,0.18351461,-0.28887317,0.7375441,0.63485366,0.1036511,0.019924406,0.74949884,809.4872,811.50183,810.293,811.50183,737.3626,-0.11328125,0.0765380859375,0.97900390625,1.614990234375,-2.714080810546875,-0.874786376953125,1.0,2.0,1.0,1.0,2.0,100.0,event
11:32:08.163,0.84626883,1.0268947,0.5153845,1.2189975,0.48953888,-0.11275024,0.022895524,0.7281764,0.7267194,0.11826289,0.037863676,0.7471447,0.85330516,0.18351461,-0.28887317,0.7375441,0.63485366,0.1036511,0.019924406,0.74949884,796.1905,808.68134,812.71063,809.4872,737.3626,-0.11328125,0.0765380859375,0.97900390625,1.614990234375,-2.714080810546875,-0.874786376953125,1.0,2.0,1.0,1.0,2.0,100.0,event
11:32:08.163,0.84626883,1.0268947,0.5153845,1.2189975,0.48953888,-0.11275024,0.022895524,0.7281764,0.7267194,0.11826289,0.037863676,0.7471447,0.85330516,0.18351461,-0.28887317,0.7375441,0.63485366,0.1036511,0.019924406,0.74949884,786.9231,821.5751,810.696,790.9524,747.4359,-0.11328125,0.0765380859375,0.97900390625,1.614990234375,-2.714080810546875,-0.874786376953125,1.0,2.0,1.0,1.0,2.0,100.0,event
11:32:08.166,0.84626883,1.0268947,0.5153845,1.2189975,0.48953888,-0.11275024,0.022895524,0.7281764,0.7267194,0.11826289,0.037863676,0.7471447,0.85330516,0.18351461,-0.28887317,0.7375441,0.63485366,0.1036511,0.019924406,0.74949884,782.8938,818.3516,807.47253,795.38464,713.9927,-0.11328125,0.0765380859375,0.97900390625,1.614990234375,-2.714080810546875,-0.874786376953125,1.0,2.0,1.0,1.0,2.0,100.0,event
11:32:08.225,0.84626883,1.0268947,0.5153845,1.2189975,0.48953888,-0.11275024,0.022895524,0.7281764,0.7267194,0.11826289,0.037863676,0.7471447,0.85330516,0.18351461,-0.28887317,0.7375441,0.63485366,0.1036511,0.019924406,0.74949884,793.7729,805.8608,813.1135,811.50183,710.7692,-0.1141357421875,0.07232666015625,0.9736328125,1.5850830078125,-2.773895263671875,-2.115936279296875,1.0,2.0,1.0,1.0,2.0,100.0,event
11:32:08.226,0.84626883,1.0268947,0.5153845,1.2189975,0.48953888,-0.11275024,0.022895524,0.7281764,0.7267194,0.11826289,0.037863676,0.7471447,0.85330516,0.18351461,-0.28887317,0.7375441,0.63485366,0.1036511,0.019924406,0.74949884,805.4579,809.0842,816.7399,809.89014,791.3553,-0.1141357421875,0.07232666015625,0.9736328125,1.5850830078125,-2.773895263671875,-2.115936279296875,1.0,2.0,1.0,1.0,2.0,100.0,event
11:32:08.227,0.84626883,1.0268947,0.5153845,1.2189975,0.48953888,-0.11275024,0.022895524,0.7281764,0.7267194,0.11826289,0.037863676,0.7471447,0.85330516,0.18351461,-0.28887317,0.7375441,0.63485366,0.1036511,0.019924406,0.74949884,782.8938,806.6667,810.696,791.75824,711.5751,-0.1141357421875,0.07232666015625,0.9736328125,1.5850830078125,-2.773895263671875,-2.115936279296875,1.0,2.0,1.0,1.0,2.0,100.0,event
11:32:08.227,0.84626883,1.0268947,0.5153845,1.2189975,0.48953888,-0.11275024,0.022895524,0.7281764,0.7267194,0.11826289,0.037863676,0.7471447,0.85330516,0.18351461,-0.28887317,0.7375441,0.63485366,0.1036511,0.019924406,0.74949884,793.36993,808.68134,813.91943,799.41394,827.619,-0.1141357421875,0.07232666015625,0.9736328125,1.5850830078125,-2.773895263671875,-2.115936279296875,1.0,2.0,1.0,1.0,2.0,100.0,event
11:32:08.228,0.84626883,1.0268947,0.5153845,1.2189975,0.48953888,-0.11275024,0.022895524,0.7281764,0.7267194,0.11826289,0.037863676,0.7471447,0.85330516,0.18351461,-0.28887317,0.7375441,0.63485366,0.1036511,0.019924406,0.74949884,778.46155,812.3077,810.696,786.9231,651.13556,-0.1141357421875,0.07232666015625,0.9736328125,1.5850830078125,-2.773895263671875,-2.115936279296875,1.0,2.0,1.0,1.0,2.0,100.0,event
11:32:08.229,0.84626883,1.0268947,0.5153845,1.2189975,0.48953888,-0.11275024,0.022895524,0.7281764,0.7267194,0.11826289,0.037863676,0.7471447,0.85330516,0.18351461,-0.28887317,0.7375441,0.63485366,0.1036511,0.019924406,0.74949884,795.38464,815.9341,811.50183,800.2198,853.4066,-0.1141357421875,0.07232666015625,0.9736328125,1.5850830078125,-2.773895263671875,-2.115936279296875,1.0,2.0,1.0,1.0,2.0,100.0,event
11:32:08.229,0.84626883,1.0268947,0.5153845,1.2189975,0.48953888,-0.11275024,0.022895524,0.7281764,0.7267194,0.11826289,0.037863676,0.7471447,0.85330516,0.18351461,-0.28887317,0.7375441,0.63485366,0.1036511,0.019924406,0.74949884,805.8608,812.71063,803.8461,817.1429,1034.3224,-0.1141357421875,0.07232666015625,0.9736328125,1.5850830078125,-2.773895263671875,-2.115936279296875,1.0,2.0,1.0,1.0,2.0,100.0,event
11:32:08.230,0.84626883,1.0268947,0.5153845,1.2189975,0.48953888,-0.11275024,0.022895524,0.7281764,0.7267194,0.11826289,0.037863676,0.7471447,0.85330516,0.18351461,-0.28887317,0.7375441,0.63485366,0.1036511,0.019924406,0.74949884,797.3993,809.89014,802.23444,813.91943,947.28937,-0.1141357421875,0.07232666015625,0.9736328125,1.5850830078125,-2.773895263671875,-2.115936279296875,1.0,2.0,1.0,1.0,2.0,100.0,event
11:32:08.230,0.84626883,1.0268947,0.5153845,1.2189975,0.48953888,-0.11275024,0.022895524,0.7281764,0.7267194,0.11826289,0.037863676,0.7471447,0.85330516,0.18351461,-0.28887317,0.7375441,0.63485366,0.1036511,0.019924406,0.74949884,789.34064,803.44324,805.4579,808.68134,780.87915,-0.1141357421875,0.07232666015625,0.9736328125,1.5850830078125,-2.773895263671875,-2.115936279296875,1.0,2.0,1.0,1.0,2.0,100.0,event
11:32:08.231,0.84626883,1.0268947,0.5153845,1.2189975,0.48953888,-0.11275024,0.022895524,0.7281764,0.7267194,0.11826289,0.037863676,0.7471447,0.85330516,0.18351461,-0.28887317,0.7375441,0.63485366,0.1036511,0.019924406,0.74949884,786.9231,810.293,803.44324,805.8608,896.52014,-0.1141357421875,0.07232666015625,0.9736328125,1.5850830078125,-2.773895263671875,-2.115936279296875,1.0,2.0,1.0,1.0,2.0,100.0,event
11:32:08.232,0.84626883,1.0268947,0.5153845,1.2189975,0.48953888,-0.11275024,0.022895524,0.7281764,0.7267194,0.11826289,0.037863676,0.7471447,0.85330516,0.18351461,-0.28887317,0.7375441,0.63485366,0.1036511,0.019924406,0.74949884,779.2674,827.619,804.2491,784.5055,979.92676,-0.1141357421875,0.07232666015625,0.9736328125,1.5850830078125,-2.773895263671875,-2.115936279296875,1.0,2.0,1.0,1.0,2.0,100.0,event
11:32:08.232,0.84626883,1.0268947,0.5153845,1.2189975,0.48953888,-0.11275024,0.022895524,0.7281764,0.7267194,0.11826289,0.037863676,0.7471447,0.85330516,0.18351461,-0.28887317,0.7375441,0.63485366,0.1036511,0.019924406,0.74949884,796.1905,818.7546,808.68134,792.5641,724.4689,-0.1141357421875,0.07232666015625,0.9736328125,1.5850830078125,-2.773895263671875,-2.115936279296875,1.0,2.0,1.0,1.0,2.0,100.0,event
11:32:08.257,0.84626883,1.0268947,0.5153845,1.2189975,0.48953888,-0.11275024,0.022895524,0.7281764,0.7267194,0.11826289,0.037863676,0.7471447,0.85330516,0.18351461,-0.28887317,0.7375441,0.63485366,0.1036511,0.019924406,0.74949884,805.8608,805.05493,814.7253,811.9048,676.52014,-0.10821533203125,0.07208251953125,0.9822998046875,1.614990234375,-3.9776611328125,-2.16827392578125,1.0,2.0,1.0,1.0,2.0,100.0,event
11:32:08.258,0.84626883,1.0268947,0.5153845,1.2189975,0.48953888,-0.11275024,0.022895524,0.7281764,0.7267194,0.11826289,0.037863676,0.7471447,0.85330516,0.18351461,-0.28887317,0.7375441,0.63485366,0.1036511,0.019924406,0.74949884,784.90845,807.8755,811.9048,803.0403,726.4835,-0.10821533203125,0.07208251953125,0.9822998046875,1.614990234375,-3.9776611328125,-2.16827392578125,1.0,2.0,1.0,1.0,2.0,100.0,event
11:32:08.259,0.84626883,1.0268947,0.5153845,1.2189975,0.48953888,-0.11275024,0.022895524,0.7281764,0.7267194,0.11826289,0.037863676,0.7471447,0.85330516,0.18351461,-0.28887317,0.7375441,0.63485366,0.1036511,0.019924406,0.74949884,787.72894,811.50183,806.26373,799.41394,654.35895,-0.10821533203125,0.07208251953125,0.9822998046875,1.614990234375,-3.9776611328125,-2.16827392578125,1.0,2.0,1.0,1.0,2.0,100.0,event
11:32:08.259,0.84626883,1.0268947,0.5153845,1.2189975,0.48953888,-0.11275024,0.022895524,0.7281764,0.7267194,0.11826289,0.037863676,0.7471447,0.85330516,0.18351461,-0.28887317,0.7375441,0.63485366,0.1036511,0.019924406,0.74949884,794.17584,807.47253,807.8755,804.2491,671.28204,-0.10821533203125,0.07208251953125,0.9822998046875,1.614990234375,-3.9776611328125,-2.16827392578125,1.0,2.0,1.0,1.0,2.0,100.0,event
11:32:08.260,0.84626883,1.0268947,0.5153845,1.2189975,0.48953888,-0.11275024,0.022895524,0.7281764,0.7267194,0.11826289,0.037863676,0.7471447,0.85330516,0.18351461,-0.28887317,0.7375441,0.63485366,0.1036511,0.019924406,0.74949884,809.0842,804.65204,806.26373,823.9927,766.77655,-0.10821533203125,0.07208251953125,0.9822998046875,1.614990234375,-3.9776611328125,-2.16827392578125,1.0,2.0,1.0,1.0,2.0,100.0,event
11:32:08.260,0.84626883,1.0268947,0.5153845,1.2189975,0.48953888,-0.11275024,0.022895524,0.7281764,0.7267194,0.11826289,0.037863676,0.7471447,0.85330516,0.18351461,-0.28887317,0.7375441,0.63485366,0.1036511,0.019924406,0.74949884,810.696,805.4579,805.4579,827.619,918.2784,-0.10821533203125,0.07208251953125,0.9822998046875,1.614990234375,-3.9776611328125,-2.16827392578125,1.0,2.0,1.0,1.0,2.0,100.0,event
11:32:08.261,0.84626883,1.0268947,0.5153845,1.2189975,0.48953888,-0.11275024,0.022895524,0.7281764,0.7267194,0.11826289,0.037863676,0.7471447,0.85330516,0.18351461,-0.28887317,0.7375441,0.63485366,0.1036511,0.019924406,0.74949884,789.7436,808.68134,808.2784,801.4286,870.7326,-0.10821533203125,0.07208251953125,0.9822998046875,1.614990234375,-3.9776611328125,-2.16827392578125,1.0,2.0,1.0,1.0,2.0,100.0,event
11:32:08.262,0.84626883,1.0268947,0.5153845,1.2189975,0.48953888,-0.11275024,0.022895524,0.7281764,0.7267194,0.11826289,0.037863676,0.7471447,0.85330516,0.18351461,-0.28887317,0.7375441,0.63485366,0.1036511,0.019924406,0.74949884,795.78754,813.91943,809.4872,789.34064,711.5751,-0.10821533203125,0.07208251953125,0.9822998046875,1.614990234375,-3.9776611328125,-2.16827392578125,1.0,2.0,1.0,1.0,2.0,100.0,event
11:32:08.262,0.84626883,1.0268947,0.5153845,1.2189975,0.48953888,-0.11275024,0.022895524,0.7281764,0.7267194,0.11826289,0.037863676,0.7471447,0.85330516,0.18351461,-0.28887317,0.7375441,0.63485366,0.1036511,0.019924406,0.74949884,801.4286,809.89014,808.68134,802.23444,745.0183,-0.10821533203125,0.07208251953125,0.9822998046875,1.614990234375,-3.9776611328125,-2.16827392578125,1.0,2.0,1.0,1.0,2.0,100.0,event
11:32:08.263,0.84626883,1.0268947,0.5454595,1.2189975,0.48953888,-0.11275024,0.06356222,0.7281764,0.7267194,0.11826289,0.03676071,0.7471447,0.85330516,0.18351461,-0.28058088,0.7375441,0.63485366,0.1036511,0.052085824,0.74949884,805.8608,804.2491,806.26373,825.2015,1017.8022,-0.10821533203125,0.07208251953125,0.9822998046875,1.614990234375,-3.9776611328125,-2.16827392578125,1.0,2.0,1.0,1.0,2.0,100.0,event
11:32:08.266,0.84626883,1.0268947,0.5454595,1.2189975,0.48953888,-0.11275024,0.06356222,0.7281764,0.7267194,0.11826289,0.03676071,0.7471447,0.85330516,0.18351461,-0.28058088,0.7375441,0.63485366,0.1036511,0.052085824,0.74949884,813.1135,811.50183,800.6227,826.0073,923.1135,-0.10821533203125,0.07208251953125,0.9822998046875,1.614990234375,-3.9776611328125,-2.16827392578125,1.0,2.0,1.0,1.0,2.0,100.0,event
11:32:08.267,0.84626883,1.0268947,0.5454595,1.2189975,0.48953888,-0.11275024,0.06356222,0.7281764,0.7267194,0.11826289,0.03676071,0.7471447,0.85330516,0.18351461,-0.28058088,0.7375441,0.63485366,0.1036511,0.052085824,0.74949884,803.0403,811.50183,804.65204,811.50183,695.05493,-0.10821533203125,0.07208251953125,0.9822998046875,1.614990234375,-3.9776611328125,-2.16827392578125,1.0,2.0,1.0,1.0,2.0,100.0,event
11:32:08.292,0.84626883,1.0268947,0.5454595,1.2189975,0.48953888,-0.11275024,0.06356222,0.7281764,0.7267194,0.11826289,0.03676071,0.7471447,0.85330516,0.18351461,-0.28058088,0.7375441,0.63485366,0.1036511,0.052085824,0.74949884,792.5641,807.47253,808.2784,802.23444,729.304,-0.111083984375,0.07354736328125,0.9774169921875,1.801910400390625,-3.170166015625,-1.398162841796875,1.0,2.0,1.0,1.0,2.0,100.0,event
11:32:08.293,0.84626883,1.0268947,0.5454595,1.2189975,0.48953888,-0.11275024,0.06356222,0.7281764,0.7267194,0.11826289,0.03676071,0.7471447,0.85330516,0.18351461,-0.28058088,0.7375441,0.63485366,0.1036511,0.052085824,0.74949884,805.8608,811.0989,809.0842,812.3077,821.5751,-0.111083984375,0.07354736328125,0.9774169921875,1.801910400390625,-3.170166015625,-1.398162841796875,1.0,2.0,1.0,1.0,2.0,100.0,event
11:32:08.294,0.84626883,1.0268947,0.5454595,1.2189975,0.48953888,-0.11275024,0.06356222,0.7281764,0.7267194,0.11826289,0.03676071,0.7471447,0.85330516,0.18351461,-0.28058088,0.7375441,0.63485366,0.1036511,0.052085824,0.74949884,824.3956,813.5165,812.3077,832.4542,776.8498,-0.111083984375,0.07354736328125,0.9774169921875,1.801910400390625,-3.170166015625,-1.398162841796875,1.0,2.0,1.0,1.0,2.0,100.0,event
11:32:08.294,0.84626883,1.0268947,0.5454595,1.2189975,0.48953888,-0.11275024,0.06356222,0.7281764,0.7267194,0.11826289,0.03676071,0.7471447,0.85330516,0.18351461,-0.28058088,0.7375441,0.63485366,0.1036511,0.052085824,0.74949884,807.8755,811.9048,808.2784,826.0073,757.9121,-0.111083984375,0.07354736328125,0.9774169921875,1.801910400390625,-3.170166015625,-1.398162841796875,1.0,2.0,1.0,1.0,2.0,100.0,event
11:32:08.295,0.84626883,1.0268947,0.5454595,1.2189975,0.48953888,-0.11275024,0.06356222,0.7281764,0.7267194,0.11826289,0.03676071,0.7471447,0.85330516,0.18351461,-0.28058088,0.7375441,0.63485366,0.1036511,0.052085824,0.74949884,788.5348,809.0842,805.8608,814.7253,778.46155,-0.111083984375,0.07354736328125,0.9774169921875,1.801910400390625,-3.170166015625,-1.398162841796875,1.0,2.0,1.0,1.0,2.0,100.0,event
11:32:08.295,0.84626883,1.0268947,0.5454595,1.2189975,0.48953888,-0.11275024,0.06356222,0.7281764,0.7267194,0.11826289,0.03676071,0.7471447,0.85330516,0.18351461,-0.28058088,0.7375441,0.63485366,0.1036511,0.052085824,0.74949884,779.67035,809.4872,805.8608,801.4286,850.18317,-0.111083984375,0.07354736328125,0.9774169921875,1.801910400390625,-3.170166015625,-1.398162841796875,1.0,2.0,1.0,1.0,2.0,100.0,event
11:32:08.296,0.84626883,1.0268947,0.5454595,1.2189975,0.48953888,-0.11275024,0.06356222,0.7281764,0.7267194,0.11826289,0.03676071,0.7471447,0.85330516,0.18351461,-0.28058088,0.7375441,0.63485366,0.1036511,0.052085824,0.74949884,788.5348,814.3223,805.05493,802.23444,901.3553,-0.111083984375,0.07354736328125,0.9774169921875,1.801910400390625,-3.170166015625,-1.398162841796875,1.0,2.0,1.0,1.0,2.0,100.0,event
11:32:08.296,0.84626883,1.0268947,0.5454595,1.2189975,0.48953888,-0.11275024,0.06356222,0.7281764,0.7267194,0.11826289,0.03676071,0.7471447,0.85330516,0.18351461,-0.28058088,0.7375441,0.63485366,0.1036511,0.052085824,0.74949884,809.0842,815.12823,809.0842,814.3223,854.61536,-0.111083984375,0.07354736328125,0.9774169921875,1.801910400390625,-3.170166015625,-1.398162841796875,1.0,2.0,1.0,1.0,2.0,100.0,event
11:32:08.297,0.84626883,1.0268947,0.5454595,1.2189975,0.48953888,-0.11275024,0.06356222,0.7281764,0.7267194,0.11826289,0.03676071,0.7471447,0.85330516,0.18351461,-0.28058088,0.7375441,0.63485366,0.1036511,0.052085824,0.74949884,813.91943,811.50183,814.3223,824.3956,982.74725,-0.111083984375,0.07354736328125,0.9774169921875,1.801910400390625,-3.170166015625,-1.398162841796875,1.0,2.0,1.0,1.0,2.0,100.0,event
11:32:08.298,0.84626883,1.0268947,0.5454595,1.2189975,0.48953888,-0.11275024,0.06356222,0.7281764,0.7267194,0.11826289,0.03676071,0.7471447,0.85330516,0.18351461,-0.28058088,0.7375441,0.63485366,0.1036511,0.052085824,0.74949884,783.69965,807.0696,808.2784,800.2198,748.6447,-0.111083984375,0.07354736328125,0.9774169921875,1.801910400390625,-3.170166015625,-1.398162841796875,1.0,2.0,1.0,1.0,2.0,100.0,event
11:32:08.298,0.84626883,1.0268947,0.5454595,1.2189975,0.48953888,-0.11275024,0.06356222,0.7281764,0.7267194,0.11826289,0.03676071,0.7471447,0.85330516,0.18351461,-0.28058088,0.7375441,0.63485366,0.1036511,0.052085824,0.74949884,798.60803,809.89014,812.3077,820.7692,1050.4396,-0.111083984375,0.07354736328125,0.9774169921875,1.801910400390625,-3.170166015625,-1.398162841796875,1.0,2.0,1.0,1.0,2.0,100.0,event
11:32:08.300,0.84626883,1.0268947,0.5454595,1.2189975,0.48953888,-0.11275024,0.06356222,0.7281764,0.7267194,0.11826289,0.03676071,0.7471447,0.85330516,0.18351461,-0.28058088,0.7375441,0.63485366,0.1036511,0.052085824,0.74949884,789.7436,809.4872,810.293,801.8315,696.6667,-0.111083984375,0.07354736328125,0.9774169921875,1.801910400390625,-3.170166015625,-1.398162841796875,1.0,2.0,1.0,1.0,2.0,100.0,event
11:32:08.339,0.84626883,1.0268947,0.5454595,1.2189975,0.48953888,-0.11275024,0.06356222,0.7281764,0.7267194,0.11826289,0.03676071,0.7471447,0.85330516,0.18351461,-0.28058088,0.7375441,0.63485366,0.1036511,0.052085824,0.74949884,815.9341,811.9048,811.0989,821.1722,857.03296,-0.11572265625,0.06982421875,0.974853515625,2.19818115234375,-2.392578125,-2.355194091796875,1.0,2.0,1.0,1.0,2.0,100.0,event
11:32:08.340,0.84626883,1.0268947,0.5454595,1.2189975,0.48953888,-0.11275024,0.06356222,0.7281764,0.7267194,0.11826289,0.03676071,0.7471447,0.85330516,0.18351461,-0.28058088,0.7375441,0.63485366,0.1036511,0.052085824,0.74949884,812.3077,811.0989,807.47253,827.2161,747.4359,-0.11572265625,0.06982421875,0.974853515625,2.19818115234375,-2.392578125,-2.355194091796875,1.0,2.0,1.0,1.0,2.0,100.0,event
11:32:08.341,0.84626883,1.0268947,0.5454595,1.2189975,0.48953888,-0.11275024,0.06356222,0.7281764,0.7267194,0.11826289,0.03676071,0.7471447,0.85330516,0.18351461,-0.28058088,0.7375441,0.63485366,0.1036511,0.052085824,0.74949884,787.326,808.2784,806.6667,813.5165,696.6667,-0.11572265625,0.06982421875,0.974853515625,2.19818115234375,-2.392578125,-2.355194091796875,1.0,2.0,1.0,1.0,2.0,100.0,event
11:32:08.341,0.84626883,1.0268947,0.5454595,1.2189975,0.48953888,-0.11275024,0.06356222,0.7281764,0.7267194,0.11826289,0.03676071,0.7471447,0.85330516,0.18351461,-0.28058088,0.7375441,0.63485366,0.1036511,0.052085824,0.74949884,775.64105,811.9048,811.50183,792.96704,738.5714,-0.11572265625,0.06982421875,0.974853515625,2.19818115234375,-2.392578125,-2.355194091796875,1.0,2.0,1.0,1.0,2.0,100.0,event
11:32:08.342,0.84626883,1.0268947,0.5454595,1.2189975,0.48953888,-0.11275024,0.06356222,0.7281764,0.7267194,0.11826289,0.03676071,0.7471447,0.85330516,0.18351461,-0.28058088,0.7375441,0.63485366,0.1036511,0.052085824,0.74949884,787.72894,808.68134,815.5311,796.1905,799.41394,-0.11572265625,0.06982421875,0.974853515625,2.19818115234375,-2.392578125,-2.355194091796875,1.0,2.0,1.0,1.0,2.0,100.0,event
11:32:08.342,0.84626883,1.0268947,0.5454595,1.2189975,0.48953888,-0.11275024,0.06356222,0.7281764,0.7267194,0.11826289,0.03676071,0.7471447,0.85330516,0.18351461,-0.28058088,0.7375441,0.63485366,0.1036511,0.052085824,0.74949884,803.0403,803.44324,811.9048,811.9048,859.45056,-0.11572265625,0.06982421875,0.974853515625,2.19818115234375,-2.392578125,-2.355194091796875,1.0,2.0,1.0,1.0,2.0,100.0,event
11:32:08.343,0.84626883,1.0268947,0.5454595,1.2189975,0.48953888,-0.11275024,0.06356222,0.7281764,0.7267194,0.11826289,0.03676071,0.7471447,0.85330516,0.18351461,-0.28058088,0.7375441,0.63485366,0.1036511,0.052085824,0.74949884,809.89014,808.68134,807.0696,822.7839,861.06226,-0.11572265625,0.06982421875,0.974853515625,2.19818115234375,-2.392578125,-2.355194091796875,1.0,2.0,1.0,1.0,2.0,100.0,event
11:32:08.343,0.84626883,1.0268947,0.5454595,1.2189975,0.48953888,-0.11275024,0.06356222,0.7281764,0.7267194,0.11826289,0.03676071,0.7471447,0.85330516,0.18351461,-0.28058088,0.7375441,0.63485366,0.1036511,0.052085824,0.74949884,800.6227,812.71063,805.8608,813.1135,842.9304,-0.11572265625,0.06982421875,0.974853515625,2.19818115234375,-2.392578125,-2.355194091796875,1.0,2.0,1.0,1.0,2.0,100.0,event
11:32:08.344,0.84626883,1.0268947,0.5454595,1.2189975,0.48953888,-0.11275024,0.06356222,0.7281764,0.7267194,0.11826289,0.03676071,0.7471447,0.85330516,0.18351461,-0.28058088,0.7375441,0.63485366,0.1036511,0.052085824,0.74949884,776.8498,810.696,805.05493,799.011,904.9817,-0.11572265625,0.06982421875,0.974853515625,2.19818115234375,-2.392578125,-2.355194091796875,1.0,2.0,1.0,1.0,2.0,100.0,event
11:32:08.344,0.84626883,1.0268947,0.5454595,1.2189975,0.48953888,-0.11275024,0.06356222,0.7281764,0.7267194,0.11826289,0.03676071,0.7471447,0.85330516,0.18351461,-0.28058088,0.7375441,0.63485366,0.1036511,0.052085824,0.74949884,775.64105,806.6667,805.4579,805.4579,983.1502,-0.11572265625,0.06982421875,0.974853515625,2.19818115234375,-2.392578125,-2.355194091796875,1.0,2.0,1.0,1.0,2.0,100.0,event
11:32:08.345,0.84626883,1.0268947,0.5454595,1.2189975,0.48953888,-0.11275024,0.06356222,0.7281764,0.7267194,0.11826289,0.03676071,0.7471447,0.85330516,0.18351461,-0.28058088,0.7375441,0.63485366,0.1036511,0.052085824,0.74949884,797.3993,812.3077,806.6667,798.60803,730.5128,-0.11572265625,0.06982421875,0.974853515625,2.19818115234375,-2.392578125,-2.355194091796875,1.0,2.0,1.0,1.0,2.0,100.0,event
11:32:08.346,0.84626883,1.0268947,0.57028526,1.2189975,0.48953888,-0.11275024,0.113717355,0.7281764,0.7267194,0.11826289,0.032055717,0.7471447,0.85330516,0.18351461,-0.26244104,0.7375441,0.63485366,0.1036511,0.0793318,0.74949884,816.7399,809.0842,807.47253,809.89014,754.2857,-0.11572265625,0.06982421875,0.974853515625,2.19818115234375,-2.392578125,-2.355194091796875,1.0,2.0,1.0,1.0,2.0,100.0,event
11:32:08.385,0.84626883,1.0268947,0.57028526,1.2189975,0.48953888,-0.11275024,0.113717355,0.7281764,0.7267194,0.11826289,0.032055717,0.7471447,0.85330516,0.18351461,-0.26244104,0.7375441,0.63485366,0.1036511,0.0793318,0.74949884,806.26373,811.0989,802.23444,801.8315,745.82416,-0.11572265625,0.06982421875,0.974853515625,2.19818115234375,-2.392578125,-2.355194091796875,1.0,2.0,1.0,1.0,2.0,100.0,event
11:32:08.386,0.84626883,1.0268947,0.57028526,1.2189975,0.48953888,-0.11275024,0.113717355,0.7281764,0.7267194,0.11826289,0.032055717,0.7471447,0.85330516,0.18351461,-0.26244104,0.7375441,0.63485366,0.1036511,0.0793318,0.74949884,788.1319,808.68134,803.0403,792.5641,724.87177,-0.11572265625,0.06982421875,0.974853515625,2.19818115234375,-2.392578125,-2.355194091796875,1.0,2.0,1.0,1.0,2.0,100.0,event
11:32:08.387,0.84626883,1.0268947,0.57028526,1.2189975,0.48953888,-0.11275024,0.113717355,0.7281764,0.7267194,0.11826289,0.032055717,0.7471447,0.85330516,0.18351461,-0.26244104,0.7375441,0.63485366,0.1036511,0.0793318,0.74949884,793.36993,811.9048,802.23444,790.14655,719.2308,-0.11572265625,0.06982421875,0.974853515625,2.19818115234375,-2.392578125,-2.355194091796875,1.0,2.0,1.0,1.0,2.0,100.0,event
11:32:08.387,0.84626883,1.0268947,0.57028526,1.2189975,0.48953888,-0.11275024,0.113717355,0.7281764,0.7267194,0.11826289,0.032055717,0.7471447,0.85330516,0.18351461,-0.26244104,0.7375441,0.63485366,0.1036511,0.0793318,0.74949884,792.1612,813.5165,798.20514,797.3993,796.99634,-0.11572265625,0.06982421875,0.974853515625,2.19818115234375,-2.392578125,-2.355194091796875,1.0,2.0,1.0,1.0,2.0,100.0,event
11:32:08.388,0.84626883,1.0268947,0.57028526,1.2189975,0.48953888,-0.11275024,0.113717355,0.7281764,0.7267194,0.11826289,0.032055717,0.7471447,0.85330516,0.18351461,-0.26244104,0.7375441,0.63485366,0.1036511,0.0793318,0.74949884,799.41394,811.9048,805.05493,809.89014,838.49817,-0.11572265625,0.06982421875,0.974853515625,2.19818115234375,-2.392578125,-2.355194091796875,1.0,2.0,1.0,1.0,2.0,100.0,event
11:32:08.389,0.84626883,1.0268947,0.57028526,1.2189975,0.48953888,-0.11275024,0.113717355,0.7281764,0.7267194,0.11826289,0.032055717,0.7471447,0.85330516,0.18351461,-0.26244104,0.7375441,0.63485366,0.1036511,0.0793318,0.74949884,801.8315,809.0842,802.23444,802.23444,835.2747,-0.11572265625,0.06982421875,0.974853515625,2.19818115234375,-2.392578125,-2.355194091796875,1.0,2.0,1.0,1.0,2.0,100.0,event
11:32:08.389,0.84626883,1.0268947,0.57028526,1.2189975,0.48953888,-0.11275024,0.113717355,0.7281764,0.7267194,0.11826289,0.032055717,0.7471447,0.85330516,0.18351461,-0.26244104,0.7375441,0.63485366,0.1036511,0.0793318,0.74949884,787.326,807.8755,798.20514,789.7436,775.64105,-0.11572265625,0.06982421875,0.974853515625,2.19818115234375,-2.392578125,-2.355194091796875,1.0,2.0,1.0,1.0,2.0,100.0,event
11:32:08.390,0.84626883,1.0268947,0.57028526,1.2189975,0.48953888,-0.11275024,0.113717355,0.7281764,0.7267194,0.11826289,0.032055717,0.7471447,0.85330516,0.18351461,-0.26244104,0.7375441,0.63485366,0.1036511,0.0793318,0.74949884,789.7436,811.0989,802.6374,795.78754,937.2161,-0.11572265625,0.06982421875,0.974853515625,2.19818115234375,-2.392578125,-2.355194091796875,1.0,2.0,1.0,1.0,2.0,100.0,event
11:32:08.390,0.84626883,1.0268947,0.57028526,1.2189975,0.48953888,-0.11275024,0.113717355,0.7281764,0.7267194,0.11826289,0.032055717,0.7471447,0.85330516,0.18351461,-0.26244104,0.7375441,0.63485366,0.1036511,0.0793318,0.74949884,783.2967,808.68134,801.8315,784.5055,844.94507,-0.11572265625,0.06982421875,0.974853515625,2.19818115234375,-2.392578125,-2.355194091796875,1.0,2.0,1.0,1.0,2.0,100.0,event
11:32:08.391,0.84626883,1.0268947,0.57028526,1.2189975,0.48953888,-0.11275024,0.113717355,0.7281764,0.7267194,0.11826289,0.032055717,0.7471447,0.85330516,0.18351461,-0.26244104,0.7375441,0.63485366,0.1036511,0.0793318,0.74949884,800.6227,815.12823,807.8755,815.9341,709.15753,-0.11572265625,0.06982421875,0.974853515625,2.19818115234375,-2.392578125,-2.355194091796875,1.0,2.0,1.0,1.0,2.0,100.0,event
11:32:08.392,0.84626883,1.0268947,0.57028526,1.2189975,0.48953888,-0.11275024,0.113717355,0.7281764,0.7267194,0.11826289,0.032055717,0.7471447,0.85330516,0.18351461,-0.26244104,0.7375441,0.63485366,0.1036511,0.0793318,0.74949884,807.47253,813.5165,805.8608,806.6667,711.5751,-0.11572265625,0.06982421875,0.974853515625,2.19818115234375,-2.392578125,-2.355194091796875,1.0,2.0,1.0,1.0,2.0,100.0,event
11:32:08.392,0.84626883,1.0268947,0.57028526,1.2189975,0.48953888,-0.11275024,0.113717355,0.7281764,0.7267194,0.11826289,0.032055717,0.7471447,0.85330516,0.18351461,-0.26244104,0.7375441,0.63485366,0.1036511,0.0793318,0.74949884,792.96704,815.5311,802.23444,792.5641,778.0586,-0.11572265625,0.06982421875,0.974853515625,2.19818115234375,-2.392578125,-2.355194091796875,1.0,2.0,1.0,1.0,2.0,100.0,event
11:32:08.454,0.84626883,1.0268947,0.57028526,1.2189975,0.48953888,-0.11275024,0.113717355,0.7281764,0.7267194,0.11826289,0.032055717,0.7471447,0.85330516,0.18351461,-0.26244104,0.7375441,0.63485366,0.1036511,0.0793318,0.74949884,788.93774,819.15753,809.89014,799.011,646.30035,-0.1119384765625,0.0721435546875,0.97869873046875,2.370147705078125,-1.136474609375,-2.788848876953125,1.0,2.0,1.0,1.0,2.0,100.0,event
11:32:08.455,0.84626883,1.0268947,0.57028526,1.2189975,0.48953888,-0.11275024,0.113717355,0.7281764,0.7267194,0.11826289,0.032055717,0.7471447,0.85330516,0.18351461,-0.26244104,0.7375441,0.63485366,0.1036511,0.0793318,0.74949884,807.8755,817.9487,809.0842,801.8315,629.3773,-0.1119384765625,0.0721435546875,0.97869873046875,2.370147705078125,-1.136474609375,-2.788848876953125,1.0,2.0,1.0,1.0,2.0,100.0,event
11:32:08.455,0.84626883,1.0268947,0.57028526,1.2189975,0.48953888,-0.11275024,0.113717355,0.7281764,0.7267194,0.11826289,0.032055717,0.7471447,0.85330516,0.18351461,-0.26244104,0.7375441,0.63485366,0.1036511,0.0793318,0.74949884,822.7839,815.12823,803.0403,809.4872,737.76556,-0.1119384765625,0.0721435546875,0.97869873046875,2.370147705078125,-1.136474609375,-2.788848876953125,1.0,2.0,1.0,1.0,2.0,100.0,event
11:32:08.456,0.84626883,1.0268947,0.57028526,1.2189975,0.48953888,-0.11275024,0.113717355,0.7281764,0.7267194,0.11826289,0.032055717,0.7471447,0.85330516,0.18351461,-0.26244104,0.7375441,0.63485366,0.1036511,0.0793318,0.74949884,820.3663,820.3663,806.6667,819.5604,753.0769,-0.1119384765625,0.0721435546875,0.97869873046875,2.370147705078125,-1.136474609375,-2.788848876953125,1.0,2.0,1.0,1.0,2.0,100.0,event
11:32:08.457,0.84626883,1.0268947,0.57028526,1.2189975,0.48953888,-0.11275024,0.113717355,0.7281764,0.7267194,0.11826289,0.032055717,0.7471447,0.85330516,0.18351461,-0.26244104,0.7375441,0.63485366,0.1036511,0.0793318,0.74949884,803.0403,821.1722,804.2491,811.0989,726.4835,-0.1119384765625,0.0721435546875,0.97869873046875,2.370147705078125,-1.136474609375,-2.788848876953125,1.0,2.0,1.0,1.0,2.0,100.0,event
11:32:08.458,0.84626883,1.0268947,0.57028526,1.2189975,0.48953888,-0.11275024,0.113717355,0.7281764,0.7267194,0.11826289,0.032055717,0.7471447,0.85330516,0.18351461,-0.26244104,0.7375441,0.63485366,0.1036511,0.0793318,0.74949884,796.1905,814.3223,807.8755,794.9817,846.9597,-0.1119384765625,0.0721435546875,0.97869873046875,2.370147705078125,-1.136474609375,-2.788848876953125,1.0,2.0,1.0,1.0,2.0,100.0,event
11:32:08.458,0.84626883,1.0268947,0.57028526,1.2189975,0.48953888,-0.11275024,0.113717355,0.7281764,0.7267194,0.11826289,0.032055717,0.7471447,0.85330516,0.18351461,-0.26244104,0.7375441,0.63485366,0.1036511,0.0793318,0.74949884,788.1319,815.9341,806.26373,794.57874,799.81683,-0.1119384765625,0.0721435546875,0.97869873046875,2.370147705078125,-1.136474609375,-2.788848876953125,1.0,2.0,1.0,1.0,2.0,100.0,event
11:32:08.459,0.84626883,1.0268947,0.57028526,1.2189975,0.48953888,-0.11275024,0.113717355,0.7281764,0.7267194,0.11826289,0.032055717,0.7471447,0.85330516,0.18351461,-0.26244104,0.7375441,0.63485366,0.1036511,0.0793318,0.74949884,808.68134,815.12823,805.05493,814.7253,1155.6044,-0.1119384765625,0.0721435546875,0.97869873046875,2.370147705078125,-1.136474609375,-2.788848876953125,1.0,2.0,1.0,1.0,2.0,100.0,event
11:32:08.459,0.84626883,1.0268947,0.57028526,1.2189975,0.48953888,-0.11275024,0.113717355,0.7281764,0.7267194,0.11826289,0.032055717,0.7471447,0.85330516,0.18351461,-0.26244104,0.7375441,0.63485366,0.1036511,0.0793318,0.74949884,819.5604,822.381,807.47253,820.3663,1062.5275,-0.1119384765625,0.0721435546875,0.97869873046875,2.370147705078125,-1.136474609375,-2.788848876953125,1.0,2.0,1.0,1.0,2.0,100.0,event
11:32:08.460,0.84626883,1.0268947,0.57028526,1.2189975,0.48953888,-0.11275024,0.113717355,0.7281764,0.7267194,0.11826289,0.032055717,0.7471447,0.85330516,0.18351461,-0.26244104,0.7375441,0.63485366,0.1036511,0.0793318,0.74949884,801.4286,817.9487,809.89014,803.0403,727.28937,-0.1119384765625,0.0721435546875,0.97869873046875,2.370147705078125,-1.136474609375,-2.788848876953125,1.0,2.0,1.0,1.0,2.0,100.0,event
11:32:08.461,0.84626883,1.0268947,0.57028526,1.2189975,0.48953888,-0.11275024,0.113717355,0.7281764,0.7267194,0.11826289,0.032055717,0.7471447,0.85330516,0.18351461,-0.26244104,0.7375441,0.63485366,0.1036511,0.0793318,0.74949884,787.326,812.3077,806.6667,788.1319,770.40295,-0.1119384765625,0.0721435546875,0.97869873046875,2.370147705078125,-1.136474609375,-2.788848876953125,1.0,2.0,1.0,1.0,2.0,100.0,event
11:32:08.462,0.84626883,1.0268947,0.57028526,1.2189975,0.48953888,-0.11275024,0.113717355,0.7281764,0.7267194,0.11826289,0.032055717,0.7471447,0.85330516,0.18351461,-0.26244104,0.7375441,0.63485366,0.1036511,0.0793318,0.74949884,800.6227,815.9341,803.44324,790.14655,740.989,-0.1119384765625,0.0721435546875,0.97869873046875,2.370147705078125,-1.136474609375,-2.788848876953125,1.0,2.0,1.0,1.0,2.0,100.0,event
11:32:08.489,0.84626883,1.0268947,0.57028526,1.2189975,0.48953888,-0.11275024,0.113717355,0.7281764,0.7267194,0.11826289,0.032055717,0.7471447,0.85330516,0.18351461,-0.26244104,0.7375441,0.63485366,0.1036511,0.0793318,0.74949884,802.23444,815.5311,798.60803,799.011,697.0696,-0.11590576171875,0.07318115234375,0.9769287109375,2.444915771484375,-1.338348388671875,-1.5850830078125,1.0,2.0,1.0,1.0,2.0,100.0,event
11:32:08.491,0.84626883,1.0268947,0.521862,1.2189975,0.48953888,-0.11275024,0.123213805,0.7281764,0.7267194,0.11826289,0.12530598,0.7471447,0.85330516,0.18351461,-0.18148912,0.7375441,0.63485366,0.1036511,0.053196702,0.74949884,805.05493,811.50183,800.6227,808.68134,711.978,-0.11590576171875,0.07318115234375,0.9769287109375,2.444915771484375,-1.338348388671875,-1.5850830078125,1.0,2.0,1.0,1.0,2.0,100.0,event
11:32:08.496,0.84626883,1.0268947,0.521862,1.2189975,0.48953888,-0.11275024,0.123213805,0.7281764,0.7267194,0.11826289,0.12530598,0.7471447,0.85330516,0.18351461,-0.18148912,0.7375441,0.63485366,0.1036511,0.053196702,0.74949884,806.6667,805.8608,803.8461,809.0842,724.0659,-0.11590576171875,0.07318115234375,0.9769287109375,2.444915771484375,-1.338348388671875,-1.5850830078125,1.0,2.0,1.0,1.0,2.0,100.0,event
11:32:08.497,0.84626883,1.0268947,0.521862,1.2189975,0.48953888,-0.11275024,0.123213805,0.7281764,0.7267194,0.11826289,0.12530598,0.7471447,0.85330516,0.18351461,-0.18148912,0.7375441,0.63485366,0.1036511,0.053196702,0.74949884,799.011,805.4579,799.81683,803.44324,744.21246,-0.11590576171875,0.07318115234375,0.9769287109375,2.444915771484375,-1.338348388671875,-1.5850830078125,1.0,2.0,1.0,1.0,2.0,100.0,event
11:32:08.498,0.84626883,1.0268947,0.521862,1.2189975,0.48953888,-0.11275024,0.123213805,0.7281764,0.7267194,0.11826289,0.12530598,0.7471447,0.85330516,0.18351461,-0.18148912,0.7375441,0.63485366,0.1036511,0.053196702,0.74949884,795.78754,806.26373,800.6227,799.41394,739.3773,-0.11590576171875,0.07318115234375,0.9769287109375,2.444915771484375,-1.338348388671875,-1.5850830078125,1.0,2.0,1.0,1.0,2.0,100.0,event
11:32:08.501,0.84626883,1.0268947,0.521862,1.2189975,0.48953888,-0.11275024,0.123213805,0.7281764,0.7267194,0.11826289,0.12530598,0.7471447,0.85330516,0.18351461,-0.18148912,0.7375441,0.63485366,0.1036511,0.053196702,0.74949884,812.3077,801.02563,807.8755,809.89014,841.7216,-0.11590576171875,0.07318115234375,0.9769287109375,2.444915771484375,-1.338348388671875,-1.5850830078125,1.0,2.0,1.0,1.0,2.0,100.0,event
11:32:08.502,0.84626883,1.0268947,0.521862,1.2189975,0.48953888,-0.11275024,0.123213805,0.7281764,0.7267194,0.11826289,0.12530598,0.7471447,0.85330516,0.18351461,-0.18148912,0.7375441,0.63485366,0.1036511,0.053196702,0.74949884,819.5604,798.20514,808.2784,819.5604,1000.87915,-0.11590576171875,0.07318115234375,0.9769287109375,2.444915771484375,-1.338348388671875,-1.5850830078125,1.0,2.0,1.0,1.0,2.0,100.0,event
11:32:08.503,0.84626883,1.0268947,0.521862,1.2189975,0.48953888,-0.11275024,0.123213805,0.7281764,0.7267194,0.11826289,0.12530598,0.7471447,0.85330516,0.18351461,-0.18148912,0.7375441,0.63485366,0.1036511,0.053196702,0.74949884,809.4872,807.47253,805.4579,812.3077,876.3736,-0.11590576171875,0.07318115234375,0.9769287109375,2.444915771484375,-1.338348388671875,-1.5850830078125,1.0,2.0,1.0,1.0,2.0,100.0,event
11:32:08.503,0.84626883,1.0268947,0.521862,1.2189975,0.48953888,-0.11275024,0.123213805,0.7281764,0.7267194,0.11826289,0.12530598,0.7471447,0.85330516,0.18351461,-0.18148912,0.7375441,0.63485366,0.1036511,0.053196702,0.74949884,800.6227,815.5311,805.8608,805.8608,694.2491,-0.11590576171875,0.07318115234375,0.9769287109375,2.444915771484375,-1.338348388671875,-1.5850830078125,1.0,2.0,1.0,1.0,2.0,100.0,event
11:32:08.506,0.84626883,1.0268947,0.521862,1.2189975,0.48953888,-0.11275024,0.123213805,0.7281764,0.7267194,0.11826289,0.12530598,0.7471447,0.85330516,0.18351461,-0.18148912,0.7375441,0.63485366,0.1036511,0.053196702,0.74949884,809.4872,811.9048,801.4286,814.7253,693.8461,-0.11590576171875,0.07318115234375,0.9769287109375,2.444915771484375,-1.338348388671875,-1.5850830078125,1.0,2.0,1.0,1.0,2.0,100.0,event
11:32:08.508,0.84626883,1.0268947,0.521862,1.2189975,0.48953888,-0.11275024,0.123213805,0.7281764,0.7267194,0.11826289,0.12530598,0.7471447,0.85330516,0.18351461,-0.18148912,0.7375441,0.63485366,0.1036511,0.053196702,0.74949884,850.18317,805.8608,808.2784,845.34796,847.76556,-0.11590576171875,0.07318115234375,0.9769287109375,2.444915771484375,-1.338348388671875,-1.5850830078125,1.0,2.0,1.0,1.0,2.0,100.0,event
11:32:08.509,0.84626883,1.0268947,0.521862,1.2189975,0.48953888,-0.11275024,0.123213805,0.7281764,0.7267194,0.11826289,0.12530598,0.7471447,0.85330516,0.18351461,-0.18148912,0.7375441,0.63485366,0.1036511,0.053196702,0.74949884,838.9011,813.91943,821.1722,834.0659,859.45056,-0.11590576171875,0.07318115234375,0.9769287109375,2.444915771484375,-1.338348388671875,-1.5850830078125,1.0,2.0,1.0,1.0,2.0,100.0,event
11:32:08.537,0.84626883,1.0268947,0.521862,1.2189975,0.48953888,-0.11275024,0.123213805,0.7281764,0.7267194,0.11826289,0.12530598,0.7471447,0.85330516,0.18351461,-0.18148912,0.7375441,0.63485366,0.1036511,0.053196702,0.74949884,786.52014,816.337,809.89014,797.3993,724.87177,-0.119140625,0.07330322265625,0.9803466796875,1.57012939453125,-3.349609375,-0.306549072265625,1.0,2.0,1.0,1.0,2.0,100.0,event
11:32:08.538,0.84626883,1.0268947,0.521862,1.2189975,0.48953888,-0.11275024,0.123213805,0.7281764,0.7267194,0.11826289,0.12530598,0.7471447,0.85330516,0.18351461,-0.18148912,0.7375441,0.63485366,0.1036511,0.053196702,0.74949884,791.3553,807.47253,797.8022,796.5934,705.9341,-0.119140625,0.07330322265625,0.9803466796875,1.57012939453125,-3.349609375,-0.306549072265625,1.0,2.0,1.0,1.0,2.0,100.0,event
11:32:08.539,0.84626883,1.0268947,0.521862,1.2189975,0.48953888,-0.11275024,0.123213805,0.7281764,0.7267194,0.11826289,0.12530598,0.7471447,0.85330516,0.18351461,-0.18148912,0.7375441,0.63485366,0.1036511,0.053196702,0.74949884,805.05493,811.0989,807.47253,804.65204,853.00366,-0.119140625,0.07330322265625,0.9803466796875,1.57012939453125,-3.349609375,-0.306549072265625,1.0,2.0,1.0,1.0,2.0,100.0,event
11:32:08.539,0.84626883,1.0268947,0.521862,1.2189975,0.48953888,-0.11275024,0.123213805,0.7281764,0.7267194,0.11826289,0.12530598,0.7471447,0.85330516,0.18351461,-0.18148912,0.7375441,0.63485366,0.1036511,0.053196702,0.74949884,800.6227,808.68134,803.8461,797.3993,890.87915,-0.119140625,0.07330322265625,0.9803466796875,1.57012939453125,-3.349609375,-0.306549072265625,1.0,2.0,1.0,1.0,2.0,100.0,event
11:32:08.540,0.84626883,1.0268947,0.521862,1.2189975,0.48953888,-0.11275024,0.123213805,0.7281764,0.7267194,0.11826289,0.12530598,0.7471447,0.85330516,0.18351461,-0.18148912,0.7375441,0.63485366,0.1036511,0.053196702,0.74949884,818.7546,808.2784,808.2784,809.89014,734.5421,-0.119140625,0.07330322265625,0.9803466796875,1.57012939453125,-3.349609375,-0.306549072265625,1.0,2.0,1.0,1.0,2.0,100.0,event
11:32:08.541,0.84626883,1.0268947,0.521862,1.2189975,0.48953888,-0.11275024,0.123213805,0.7281764,0.7267194,0.11826289,0.12530598,0.7471447,0.85330516,0.18351461,-0.18148912,0.7375441,0.63485366,0.1036511,0.053196702,0.74949884,805.05493,803.8461,811.0989,796.5934,824.7985,-0.119140625,0.07330322265625,0.9803466796875,1.57012939453125,-3.349609375,-0.306549072265625,1.0,2.0,1.0,1.0,2.0,100.0,event
11:32:08.541,0.84626883,1.0268947,0.521862,1.2189975,0.48953888,-0.11275024,0.123213805,0.7281764,0.7267194,0.11826289,0.12530598,0.7471447,0.85330516,0.18351461,-0.18148912,0.7375441,0.63485366,0.1036511,0.053196702,0.74949884,781.28204,807.0696,814.7253,798.20514,1018.20514,-0.119140625,0.07330322265625,0.9803466796875,1.57012939453125,-3.349609375,-0.306549072265625,1.0,2.0,1.0,1.0,2.0,100.0,event
11:32:08.542,0.84626883,1.0268947,0.521862,1.2189975,0.48953888,-0.11275024,0.123213805,0.7281764,0.7267194,0.11826289,0.12530598,0.7471447,0.85330516,0.18351461,-0.18148912,0.7375441,0.63485366,0.1036511,0.053196702,0.74949884,786.9231,807.0696,807.47253,796.5934,869.12085,-0.119140625,0.07330322265625,0.9803466796875,1.57012939453125,-3.349609375,-0.306549072265625,1.0,2.0,1.0,1.0,2.0,100.0,event
11:32:08.542,0.84626883,1.0268947,0.521862,1.2189975,0.48953888,-0.11275024,0.123213805,0.7281764,0.7267194,0.11826289,0.12530598,0.7471447,0.85330516,0.18351461,-0.18148912,0.7375441,0.63485366,0.1036511,0.053196702,0.74949884,792.96704,804.2491,800.6227,794.57874,678.5348,-0.119140625,0.07330322265625,0.9803466796875,1.57012939453125,-3.349609375,-0.306549072265625,1.0,2.0,1.0,1.0,2.0,100.0,event
11:32:08.543,0.84626883,1.0268947,0.521862,1.2189975,0.48953888,-0.11275024,0.123213805,0.7281764,0.7267194,0.11826289,0.12530598,0.7471447,0.85330516,0.18351461,-0.18148912,0.7375441,0.63485366,0.1036511,0.053196702,0.74949884,800.6227,806.6667,805.4579,806.26373,777.25275,-0.119140625,0.07330322265625,0.9803466796875,1.57012939453125,-3.349609375,-0.306549072265625,1.0,2.0,1.0,1.0,2.0,100.0,event
11:32:08.543,0.84626883,1.0268947,0.521862,1.2189975,0.48953888,-0.11275024,0.123213805,0.7281764,0.7267194,0.11826289,0.12530598,0.7471447,0.85330516,0.18351461,-0.18148912,0.7375441,0.63485366,0.1036511,0.053196702,0.74949884,800.2198,801.8315,807.47253,810.696,819.15753,-0.119140625,0.07330322265625,0.9803466796875,1.57012939453125,-3.349609375,-0.306549072265625,1.0,2.0,1.0,1.0,2.0,100.0,event
11:32:08.544,0.84626883,1.0268947,0.521862,1.2189975,0.48953888,-0.11275024,0.123213805,0.7281764,0.7267194,0.11826289,0.12530598,0.7471447,0.85330516,0.18351461,-0.18148912,0.7375441,0.63485366,0.1036511,0.053196702,0.74949884,785.7143,801.8315,807.47253,801.4286,769.59705,-0.119140625,0.07330322265625,0.9803466796875,1.57012939453125,-3.349609375,-0.306549072265625,1.0,2.0,1.0,1.0,2.0,100.0,event
11:32:08.612,0.84626883,1.0268947,0.521862,1.2189975,0.48953888,-0.11275024,0.123213805,0.7281764,0.7267194,0.11826289,0.12530598,0.7471447,0.85330516,0.18351461,-0.18148912,0.7375441,0.63485366,0.1036511,0.053196702,0.74949884,784.10254,806.6667,811.50183,799.81683,758.315,-0.11810302734375,0.068603515625,0.97711181640625,1.5252685546875,-3.955230712890625,-0.725250244140625,1.0,2.0,1.0,1.0,2.0,100.0,event
11:32:08.613,0.84626883,1.0268947,0.521862,1.2189975,0.48953888,-0.11275024,0.123213805,0.7281764,0.7267194,0.11826289,0.12530598,0.7471447,0.85330516,0.18351461,-0.18148912,0.7375441,0.63485366,0.1036511,0.053196702,0.74949884,800.2198,811.0989,817.5458,808.2784,855.0183,-0.11810302734375,0.068603515625,0.97711181640625,1.5252685546875,-3.955230712890625,-0.725250244140625,1.0,2.0,1.0,1.0,2.0,100.0,event
11:32:08.614,0.84626883,1.0268947,0.521862,1.2189975,0.48953888,-0.11275024,0.123213805,0.7281764,0.7267194,0.11826289,0.12530598,0.7471447,0.85330516,0.18351461,-0.18148912,0.7375441,0.63485366,0.1036511,0.053196702,0.74949884,808.2784,808.2784,813.1135,815.12823,902.5641,-0.11810302734375,0.068603515625,0.97711181640625,1.5252685546875,-3.955230712890625,-0.725250244140625,1.0,2.0,1.0,1.0,2.0,100.0,event
11:32:08.615,0.84626883,1.0268947,0.4624205,1.2189975,0.48953888,-0.11275024,0.11345638,0.7281764,0.7267194,0.11826289,0.13326341,0.7471447,0.85330516,0.18351461,-0.12783684,0.7375441,0.63485366,0.1036511,0.007822455,0.74949884,795.78754,805.4579,802.6374,806.6667,763.95605,-0.11810302734375,0.068603515625,0.97711181640625,1.5252685546875,-3.955230712890625,-0.725250244140625,1.0,2.0,1.0,1.0,2.0,100.0,event
11:32:08.620,0.84626883,1.0268947,0.4624205,1.2189975,0.48953888,-0.11275024,0.11345638,0.7281764,0.7267194,0.11826289,0.13326341,0.7471447,0.85330516,0.18351461,-0.12783684,0.7375441,0.63485366,0.1036511,0.007822455,0.74949884,803.44324,807.47253,804.65204,795.78754,708.7546,-0.11810302734375,0.068603515625,0.97711181640625,1.5252685546875,-3.955230712890625,-0.725250244140625,1.0,2.0,1.0,1.0,2.0,100.0,event
11:32:08.621,0.84626883,1.0268947,0.4624205,1.2189975,0.48953888,-0.11275024,0.11345638,0.7281764,0.7267194,0.11826289,0.13326341,0.7471447,0.85330516,0.18351461,-0.12783684,0.7375441,0.63485366,0.1036511,0.007822455,0.74949884,802.23444,805.8608,808.68134,795.78754,859.0476,-0.11810302734375,0.068603515625,0.97711181640625,1.5252685546875,-3.955230712890625,-0.725250244140625,1.0,2.0,1.0,1.0,2.0,100.0,event
11:32:08.621,0.84626883,1.0268947,0.4624205,1.2189975,0.48953888,-0.11275024,0.11345638,0.7281764,0.7267194,0.11826289,0.13326341,0.7471447,0.85330516,0.18351461,-0.12783684,0.7375441,0.63485366,0.1036511,0.007822455,0.74949884,807.8755,803.8461,811.0989,800.6227,872.74725,-0.11810302734375,0.068603515625,0.97711181640625,1.5252685546875,-3.955230712890625,-0.725250244140625,1.0,2.0,1.0,1.0,2.0,100.0,event
11:32:08.622,0.84626883,1.0268947,0.4624205,1.2189975,0.48953888,-0.11275024,0.11345638,0.7281764,0.7267194,0.11826289,0.13326341,0.7471447,0.85330516,0.18351461,-0.12783684,0.7375441,0.63485366,0.1036511,0.007822455,0.74949884,815.9341,803.8461,808.2784,809.0842,716.4103,-0.11810302734375,0.068603515625,0.97711181640625,1.5252685546875,-3.955230712890625,-0.725250244140625,1.0,2.0,1.0,1.0,2.0,100.0,event
11:32:08.623,0.84626883,1.0268947,0.4624205,1.2189975,0.48953888,-0.11275024,0.11345638,0.7281764,0.7267194,0.11826289,0.13326341,0.7471447,0.85330516,0.18351461,-0.12783684,0.7375441,0.63485366,0.1036511,0.007822455,0.74949884,799.011,808.2784,804.65204,807.0696,725.2747,-0.11810302734375,0.068603515625,0.97711181640625,1.5252685546875,-3.955230712890625,-0.725250244140625,1.0,2.0,1.0,1.0,2.0,100.0,event
11:32:08.623,0.84626883,1.0268947,0.4624205,1.2189975,0.48953888,-0.11275024,0.11345638,0.7281764,0.7267194,0.11826289,0.13326341,0.7471447,0.85330516,0.18351461,-0.12783684,0.7375441,0.63485366,0.1036511,0.007822455,0.74949884,786.52014,809.89014,806.26373,804.65204,926.337,-0.11810302734375,0.068603515625,0.97711181640625,1.5252685546875,-3.955230712890625,-0.725250244140625,1.0,2.0,1.0,1.0,2.0,100.0,event
11:32:08.624,0.84626883,1.0268947,0.4624205,1.2189975,0.48953888,-0.11275024,0.11345638,0.7281764,0.7267194,0.11826289,0.13326341,0.7471447,0.85330516,0.18351461,-0.12783684,0.7375441,0.63485366,0.1036511,0.007822455,0.74949884,783.69965,812.71063,809.4872,801.02563,936.4103,-0.11810302734375,0.068603515625,0.97711181640625,1.5252685546875,-3.955230712890625,-0.725250244140625,1.0,2.0,1.0,1.0,2.0,100.0,event
11:32:08.625,0.84626883,1.0268947,0.4624205,1.2189975,0.48953888,-0.11275024,0.11345638,0.7281764,0.7267194,0.11826289,0.13326341,0.7471447,0.85330516,0.18351461,-0.12783684,0.7375441,0.63485366,0.1036511,0.007822455,0.74949884,805.05493,817.5458,812.3077,799.011,723.663,-0.11810302734375,0.068603515625,0.97711181640625,1.5252685546875,-3.955230712890625,-0.725250244140625,1.0,2.0,1.0,1.0,2.0,100.0,event
11:32:08.655,0.84626883,1.0268947,0.4624205,1.2189975,0.48953888,-0.11275024,0.11345638,0.7281764,0.7267194,0.11826289,0.13326341,0.7471447,0.85330516,0.18351461,-0.12783684,0.7375441,0.63485366,0.1036511,0.007822455,0.74949884,830.4396,813.5165,810.293,817.5458,707.1429,-0.11810302734375,0.068603515625,0.97711181640625,1.5252685546875,-3.955230712890625,-0.725250244140625,1.0,2.0,1.0,1.0,2.0,100.0,event
11:32:08.655,0.84626883,1.0268947,0.4624205,1.2189975,0.48953888,-0.11275024,0.11345638,0.7281764,0.7267194,0.11826289,0.13326341,0.7471447,0.85330516,0.18351461,-0.12783684,0.7375441,0.63485366,0.1036511,0.007822455,0.74949884,824.3956,812.71063,813.91943,825.2015,787.72894,-0.11810302734375,0.068603515625,0.97711181640625,1.5252685546875,-3.955230712890625,-0.725250244140625,1.0,2.0,1.0,1.0,2.0,100.0,event
11:32:08.656,0.84626883,1.0268947,0.4624205,1.2189975,0.48953888,-0.11275024,0.11345638,0.7281764,0.7267194,0.11826289,0.13326341,0.7471447,0.85330516,0.18351461,-0.12783684,0.7375441,0.63485366,0.1036511,0.007822455,0.74949884,791.75824,814.7253,814.3223,807.0696,760.32965,-0.11810302734375,0.068603515625,0.97711181640625,1.5252685546875,-3.955230712890625,-0.725250244140625,1.0,2.0,1.0,1.0,2.0,100.0,event
11:32:08.657,0.84626883,1.0268947,0.4624205,1.2189975,0.48953888,-0.11275024,0.11345638,0.7281764,0.7267194,0.11826289,0.13326341,0.7471447,0.85330516,0.18351461,-0.12783684,0.7375441,0.63485366,0.1036511,0.007822455,0.74949884,781.28204,809.89014,808.2784,789.34064,736.9597,-0.11810302734375,0.068603515625,0.97711181640625,1.5252685546875,-3.955230712890625,-0.725250244140625,1.0,2.0,1.0,1.0,2.0,100.0,event
11:32:08.657,0.84626883,1.0268947,0.4624205,1.2189975,0.48953888,-0.11275024,0.11345638,0.7281764,0.7267194,0.11826289,0.13326341,0.7471447,0.85330516,0.18351461,-0.12783684,0.7375441,0.63485366,0.1036511,0.007822455,0.74949884,792.5641,808.68134,810.293,799.81683,859.85345,-0.11810302734375,0.068603515625,0.97711181640625,1.5252685546875,-3.955230712890625,-0.725250244140625,1.0,2.0,1.0,1.0,2.0,100.0,event
11:32:08.658,0.84626883,1.0268947,0.4624205,1.2189975,0.48953888,-0.11275024,0.11345638,0.7281764,0.7267194,0.11826289,0.13326341,0.7471447,0.85330516,0.18351461,-0.12783684,0.7375441,0.63485366,0.1036511,0.007822455,0.74949884,804.65204,804.65204,810.696,821.1722,1031.5018,-0.11810302734375,0.068603515625,0.97711181640625,1.5252685546875,-3.955230712890625,-0.725250244140625,1.0,2.0,1.0,1.0,2.0,100.0,event
11:32:08.659,0.84626883,1.0268947,0.4624205,1.2189975,0.48953888,-0.11275024,0.11345638,0.7281764,0.7267194,0.11826289,0.13326341,0.7471447,0.85330516,0.18351461,-0.12783684,0.7375441,0.63485366,0.1036511,0.007822455,0.74949884,806.6667,806.26373,807.47253,822.381,913.44324,-0.11810302734375,0.068603515625,0.97711181640625,1.5252685546875,-3.955230712890625,-0.725250244140625,1.0,2.0,1.0,1.0,2.0,100.0,event
11:32:08.659,0.84626883,1.0268947,0.4624205,1.2189975,0.48953888,-0.11275024,0.11345638,0.7281764,0.7267194,0.11826289,0.13326341,0.7471447,0.85330516,0.18351461,-0.12783684,0.7375441,0.63485366,0.1036511,0.007822455,0.74949884,786.52014,812.71063,807.0696,808.68134,734.1392,-0.11810302734375,0.068603515625,0.97711181640625,1.5252685546875,-3.955230712890625,-0.725250244140625,1.0,2.0,1.0,1.0,2.0,100.0,event
11:32:08.660,0.84626883,1.0268947,0.4624205,1.2189975,0.48953888,-0.11275024,0.11345638,0.7281764,0.7267194,0.11826289,0.13326341,0.7471447,0.85330516,0.18351461,-0.12783684,0.7375441,0.63485366,0.1036511,0.007822455,0.74949884,782.49084,814.7253,815.12823,796.5934,696.26373,-0.11810302734375,0.068603515625,0.97711181640625,1.5252685546875,-3.955230712890625,-0.725250244140625,1.0,2.0,1.0,1.0,2.0,100.0,event
11:32:08.661,0.84626883,1.0268947,0.4624205,1.2189975,0.48953888,-0.11275024,0.11345638,0.7281764,0.7267194,0.11826289,0.13326341,0.7471447,0.85330516,0.18351461,-0.12783684,0.7375441,0.63485366,0.1036511,0.007822455,0.74949884,795.38464,814.7253,813.5165,816.337,703.91943,-0.11810302734375,0.068603515625,0.97711181640625,1.5252685546875,-3.955230712890625,-0.725250244140625,1.0,2.0,1.0,1.0,2.0,100.0,event
11:32:08.661,0.84626883,1.0268947,0.4624205,1.2189975,0.48953888,-0.11275024,0.11345638,0.7281764,0.7267194,0.11826289,0.13326341,0.7471447,0.85330516,0.18351461,-0.12783684,0.7375441,0.63485366,0.1036511,0.007822455,0.74949884,789.7436,814.3223,820.3663,799.011,770.80585,-0.11810302734375,0.068603515625,0.97711181640625,1.5252685546875,-3.955230712890625,-0.725250244140625,1.0,2.0,1.0,1.0,2.0,100.0,event
11:32:08.662,0.84626883,1.0268947,0.4624205,1.2189975,0.48953888,-0.11275024,0.11345638,0.7281764,0.7267194,0.11826289,0.13326341,0.7471447,0.85330516,0.18351461,-0.12783684,0.7375441,0.63485366,0.1036511,0.007822455,0.74949884,799.41394,813.91943,806.6667,828.8278,659.59705,-0.11810302734375,0.068603515625,0.97711181640625,1.5252685546875,-3.955230712890625,-0.725250244140625,1.0,2.0,1.0,1.0,2.0,100.0,event
11:32:08.687,0.84626883,1.0268947,0.4624205,1.2189975,0.48953888,-0.11275024,0.11345638,0.7281764,0.7267194,0.11826289,0.13326341,0.7471447,0.85330516,0.18351461,-0.12783684,0.7375441,0.63485366,0.1036511,0.007822455,0.74949884,789.34064,813.1135,808.68134,821.5751,805.05493,-0.11138916015625,0.07098388671875,0.97808837890625,2.011260986328125,-3.880462646484375,-1.487884521484375,1.0,2.0,1.0,1.0,2.0,100.0,event
11:32:08.688,0.84626883,1.0268947,0.4624205,1.2189975,0.48953888,-0.11275024,0.11345638,0.7281764,0.7267194,0.11826289,0.13326341,0.7471447,0.85330516,0.18351461,-0.12783684,0.7375441,0.63485366,0.1036511,0.007822455,0.74949884,780.07324,814.3223,809.89014,797.8022,892.49084,-0.11138916015625,0.07098388671875,0.97808837890625,2.011260986328125,-3.880462646484375,-1.487884521484375,1.0,2.0,1.0,1.0,2.0,100.0,event
11:32:08.688,0.84626883,1.0268947,0.4624205,1.2189975,0.48953888,-0.11275024,0.11345638,0.7281764,0.7267194,0.11826289,0.13326341,0.7471447,0.85330516,0.18351461,-0.12783684,0.7375441,0.63485366,0.1036511,0.007822455,0.74949884,787.72894,818.3516,809.4872,788.93774,734.5421,-0.11138916015625,0.07098388671875,0.97808837890625,2.011260986328125,-3.880462646484375,-1.487884521484375,1.0,2.0,1.0,1.0,2.0,100.0,event
11:32:08.689,0.84626883,1.0268947,0.4624205,1.2189975,0.48953888,-0.11275024,0.11345638,0.7281764,0.7267194,0.11826289,0.13326341,0.7471447,0.85330516,0.18351461,-0.12783684,0.7375441,0.63485366,0.1036511,0.007822455,0.74949884,802.6374,817.5458,812.3077,806.26373,749.85345,-0.11138916015625,0.07098388671875,0.97808837890625,2.011260986328125,-3.880462646484375,-1.487884521484375,1.0,2.0,1.0,1.0,2.0,100.0,event
