TimeStamp,Delta_TP9,Delta_AF7,Delta_AF8,Delta_TP10,Theta_TP9,Theta_AF7,Theta_AF8,Theta_TP10,Alpha_TP9,Alpha_AF7,Alpha_AF8,Alpha_TP10,Beta_TP9,Beta_AF7,Beta_AF8,Beta_TP10,Gamma_TP9,Gamma_AF7,Gamma_AF8,Gamma_TP10,RAW_TP9,RAW_AF7,RAW_AF8,RAW_TP10,AUX_RIGHT,Accelerometer_X,Accelerometer_Y,Accelerometer_Z,Gyro_X,Gyro_Y,Gyro_Z,HeadBandOn,HSI_TP9,HSI_AF7,HSI_AF8,HSI_TP10,Battery,Elements
15:39:40.673,0.5608669,0.9632171,0.6608804,0.4289737,0.22549003,0.65925604,0.369678,0.5866187,0.26306173,0.68478155,0.43677837,0.61899513,0.67564034,0.5287405,0.45864007,0.51744866,0.37888372,0.13982332,0.23051254,0.35407978,885.2381,782.8938,795.38464,879.19415,700.293,-0.17718505859375,0.0992431640625,0.962158203125,2.5421142578125,-6.168365478515625,-0.680389404296875,1.0,1.0,1.0,1.0,1.0,100.0,event
15:39:40.674,0.5608669,0.9632171,0.6608804,0.4289737,0.22549003,0.65925604,0.369678,0.5866187,0.26306173,0.68478155,0.43677837,0.61899513,0.67564034,0.5287405,0.45864007,0.51744866,0.37888372,0.13982332,0.23051254,0.35407978,871.13556,777.25275,787.72894,877.1795,684.17584,-0.17718505859375,0.0992431640625,0.962158203125,2.5421142578125,-6.168365478515625,-0.680389404296875,1.0,1.0,1.0,1.0,1.0,100.0,event
15:39:40.674,0.5608669,0.9632171,0.6608804,0.4289737,0.22549003,0.65925604,0.369678,0.5866187,0.26306173,0.68478155,0.43677837,0.61899513,0.67564034,0.5287405,0.45864007,0.51744866,0.37888372,0.13982332,0.23051254,0.35407978,863.0769,767.98535,762.74725,865.89746,755.4945,-0.17718505859375,0.0992431640625,0.962158203125,2.5421142578125,-6.168365478515625,-0.680389404296875,1.0,1.0,1.0,1.0,1.0,100.0,event
15:39:40.675,0.5608669,0.9632171,0.6608804,0.4289737,0.22549003,0.65925604,0.369678,0.5866187,0.26306173,0.68478155,0.43677837,0.61899513,0.67564034,0.5287405,0.45864007,0.51744866,0.37888372,0.13982332,0.23051254,0.35407978,861.8681,768.7912,765.56775,856.63007,761.53845,-0.17718505859375,0.0992431640625,0.962158203125,2.5421142578125,-6.168365478515625,-0.680389404296875,1.0,1.0,1.0,1.0,1.0,100.0,event
15:39:40.675,0.5608669,0.9632171,0.6608804,0.4289737,0.22549003,0.65925604,0.369678,0.5866187,0.26306173,0.68478155,0.43677837,0.61899513,0.67564034,0.5287405,0.45864007,0.51744866,0.37888372,0.13982332,0.23051254,0.35407978,863.47986,771.6117,785.7143,863.8828,714.7985,-0.17718505859375,0.0992431640625,0.962158203125,2.5421142578125,-6.168365478515625,-0.680389404296875,1.0,1.0,1.0,1.0,1.0,100.0,event
15:39:40.676,0.5608669,0.9632171,0.6608804,0.4289737,0.22549003,0.65925604,0.369678,0.5866187,0.26306173,0.68478155,0.43677837,0.61899513,0.67564034,0.5287405,0.45864007,0.51744866,0.37888372,0.13982332,0.23051254,0.35407978,863.0769,770.40295,778.0586,874.7619,796.99634,-0.17718505859375,0.0992431640625,0.962158203125,2.5421142578125,-6.168365478515625,-0.680389404296875,1.0,1.0,1.0,1.0,1.0,100.0,event
15:39:40.676,0.5608669,0.9632171,0.6608804,0.4289737,0.22549003,0.65925604,0.369678,0.5866187,0.26306173,0.68478155,0.43677837,0.61899513,0.67564034,0.5287405,0.45864007,0.51744866,0.37888372,0.13982332,0.23051254,0.35407978,860.65936,767.98535,765.9707,872.74725,996.8498,-0.17718505859375,0.0992431640625,0.962158203125,2.5421142578125,-6.168365478515625,-0.680389404296875,1.0,1.0,1.0,1.0,1.0,100.0,event
15:39:40.677,0.5608669,0.9632171,0.6608804,0.4289737,0.22549003,0.65925604,0.369678,0.5866187,0.26306173,0.68478155,0.43677837,0.61899513,0.67564034,0.5287405,0.45864007,0.51744866,0.37888372,0.13982332,0.23051254,0.35407978,863.47986,767.5824,780.4762,870.7326,960.18317,-0.17718505859375,0.0992431640625,0.962158203125,2.5421142578125,-6.168365478515625,-0.680389404296875,1.0,1.0,1.0,1.0,1.0,100.0,event
15:39:40.677,0.5608669,0.9632171,0.6608804,0.4289737,0.22549003,0.65925604,0.369678,0.5866187,0.26306173,0.68478155,0.43677837,0.61899513,0.67564034,0.5287405,0.45864007,0.51744866,0.37888372,0.13982332,0.23051254,0.35407978,863.0769,773.6264,795.38464,867.1062,709.5604,-0.17718505859375,0.0992431640625,0.962158203125,2.5421142578125,-6.168365478515625,-0.680389404296875,1.0,1.0,1.0,1.0,1.0,100.0,event
15:39:40.678,0.5608669,0.9632171,0.6608804,0.4289737,0.22549003,0.65925604,0.369678,0.5866187,0.26306173,0.68478155,0.43677837,0.61899513,0.67564034,0.5287405,0.45864007,0.51744866,0.37888372,0.13982332,0.23051254,0.35407978,871.9414,784.5055,771.2088,856.63007,851.79486,-0.17718505859375,0.0992431640625,0.962158203125,2.5421142578125,-6.168365478515625,-0.680389404296875,1.0,1.0,1.0,1.0,1.0,100.0,event
15:39:40.678,0.5608669,0.9632171,0.6608804,0.4289737,0.22549003,0.65925604,0.369678,0.5866187,0.26306173,0.68478155,0.43677837,0.61899513,0.67564034,0.5287405,0.45864007,0.51744866,0.37888372,0.13982332,0.23051254,0.35407978,867.9121,783.2967,785.7143,855.82416,613.663,-0.17718505859375,0.0992431640625,0.962158203125,2.5421142578125,-6.168365478515625,-0.680389404296875,1.0,1.0,1.0,1.0,1.0,100.0,event
15:39:40.679,0.5608669,0.9632171,0.6608804,0.4289737,0.22549003,0.65925604,0.369678,0.5866187,0.26306173,0.68478155,0.43677837,0.61899513,0.67564034,0.5287405,0.45864007,0.51744866,0.37888372,0.13982332,0.23051254,0.35407978,871.13556,778.0586,786.1172,866.30035,953.3333,-0.17718505859375,0.0992431640625,0.962158203125,2.5421142578125,-6.168365478515625,-0.680389404296875,1.0,1.0,1.0,1.0,1.0,100.0,event
15:39:40.733,0.5608669,0.9632171,0.6608804,0.4289737,0.22549003,0.65925604,0.369678,0.5866187,0.26306173,0.68478155,0.43677837,0.61899513,0.67564034,0.5287405,0.45864007,0.51744866,0.37888372,0.13982332,0.23051254,0.35407978,885.64105,776.8498,795.38464,876.77655,713.1868,-0.16845703125,0.10284423828125,0.97344970703125,2.55706787109375,-3.94775390625,0.605621337890625,1.0,1.0,1.0,1.0,1.0,100.0,event
15:39:40.734,0.5608669,0.9632171,0.6608804,0.4289737,0.22549003,0.65925604,0.369678,0.5866187,0.26306173,0.68478155,0.43677837,0.61899513,0.67564034,0.5287405,0.45864007,0.51744866,0.37888372,0.13982332,0.23051254,0.35407978,868.315,786.1172,772.01465,862.674,714.3956,-0.16845703125,0.10284423828125,0.97344970703125,2.55706787109375,-3.94775390625,0.605621337890625,1.0,1.0,1.0,1.0,1.0,100.0,event
15:39:40.734,0.5608669,0.9632171,0.6608804,0.4289737,0.22549003,0.65925604,0.369678,0.5866187,0.26306173,0.68478155,0.43677837,0.61899513,0.67564034,0.5287405,0.45864007,0.51744866,0.37888372,0.13982332,0.23051254,0.35407978,831.6484,801.02563,783.69965,828.022,832.4542,-0.16845703125,0.10284423828125,0.97344970703125,2.55706787109375,-3.94775390625,0.605621337890625,1.0,1.0,1.0,1.0,1.0,100.0,event
15:39:40.735,0.5608669,0.9632171,0.6608804,0.4289737,0.22549003,0.65925604,0.369678,0.5866187,0.26306173,0.68478155,0.43677837,0.61899513,0.67564034,0.5287405,0.45864007,0.51744866,0.37888372,0.13982332,0.23051254,0.35407978,827.2161,811.9048,808.2784,827.2161,804.65204,-0.16845703125,0.10284423828125,0.97344970703125,2.55706787109375,-3.94775390625,0.605621337890625,1.0,1.0,1.0,1.0,1.0,100.0,event
15:39:40.735,0.5608669,0.9632171,0.6608804,0.4289737,0.22549003,0.65925604,0.369678,0.5866187,0.26306173,0.68478155,0.43677837,0.61899513,0.67564034,0.5287405,0.45864007,0.51744866,0.37888372,0.13982332,0.23051254,0.35407978,834.4689,807.8755,795.38464,828.8278,713.1868,-0.16845703125,0.10284423828125,0.97344970703125,2.55706787109375,-3.94775390625,0.605621337890625,1.0,1.0,1.0,1.0,1.0,100.0,event
15:39:40.736,0.5608669,0.9632171,0.6608804,0.4289737,0.22549003,0.65925604,0.369678,0.5866187,0.26306173,0.68478155,0.43677837,0.61899513,0.67564034,0.5287405,0.45864007,0.51744866,0.37888372,0.13982332,0.23051254,0.35407978,843.73627,805.05493,780.4762,825.2015,759.92676,-0.16845703125,0.10284423828125,0.97344970703125,2.55706787109375,-3.94775390625,0.605621337890625,1.0,1.0,1.0,1.0,1.0,100.0,event
15:39:40.736,0.5608669,0.9632171,0.6608804,0.4289737,0.22549003,0.65925604,0.369678,0.5866187,0.26306173,0.68478155,0.43677837,0.61899513,0.67564034,0.5287405,0.45864007,0.51744866,0.37888372,0.13982332,0.23051254,0.35407978,836.4835,809.4872,767.98535,819.9634,1048.022,-0.16845703125,0.10284423828125,0.97344970703125,2.55706787109375,-3.94775390625,0.605621337890625,1.0,1.0,1.0,1.0,1.0,100.0,event
15:39:40.737,0.5608669,0.9632171,0.6608804,0.4289737,0.22549003,0.65925604,0.369678,0.5866187,0.26306173,0.68478155,0.43677837,0.61899513,0.67564034,0.5287405,0.45864007,0.51744866,0.37888372,0.13982332,0.23051254,0.35407978,840.10986,815.5311,790.54944,821.5751,1035.1282,-0.16845703125,0.10284423828125,0.97344970703125,2.55706787109375,-3.94775390625,0.605621337890625,1.0,1.0,1.0,1.0,1.0,100.0,event
15:39:40.738,0.5608669,0.9632171,0.6608804,0.4289737,0.22549003,0.65925604,0.369678,0.5866187,0.26306173,0.68478155,0.43677837,0.61899513,0.67564034,0.5287405,0.45864007,0.51744866,0.37888372,0.13982332,0.23051254,0.35407978,841.7216,826.4103,812.71063,813.5165,718.4249,-0.16845703125,0.10284423828125,0.97344970703125,2.55706787109375,-3.94775390625,0.605621337890625,1.0,1.0,1.0,1.0,1.0,100.0,event
15:39:40.738,0.59890455,0.94096637,0.6520727,0.4378627,0.16193673,0.6566397,0.36774692,0.6192867,0.24921294,0.68478155,0.4338243,0.61899513,0.7004419,0.5294623,0.46728483,0.51332015,0.41644683,0.1655706,0.21260017,0.37977937,838.0952,821.5751,788.93774,804.2491,719.6337,-0.16845703125,0.10284423828125,0.97344970703125,2.55706787109375,-3.94775390625,0.605621337890625,1.0,1.0,1.0,1.0,1.0,100.0,event
15:39:40.741,,,,,,,,,,,,,,,,,,,,,,,,,,,,,,,,,,,,,,blink
15:39:40.743,0.59890455,0.94096637,0.6520727,0.4378627,0.16193673,0.6566397,0.36774692,0.6192867,0.24921294,0.68478155,0.4338243,0.61899513,0.7004419,0.5294623,0.46728483,0.51332015,0.41644683,0.1655706,0.21260017,0.37977937,837.28937,818.7546,789.34064,805.4579,749.0476,-0.16845703125,0.10284423828125,0.97344970703125,2.55706787109375,-3.94775390625,0.605621337890625,1.0,1.0,1.0,1.0,1.0,100.0,event
15:39:40.744,0.59890455,0.94096637,0.6520727,0.4378627,0.16193673,0.6566397,0.36774692,0.6192867,0.24921294,0.68478155,0.4338243,0.61899513,0.7004419,0.5294623,0.46728483,0.51332015,0.41644683,0.1655706,0.21260017,0.37977937,831.2454,823.9927,801.02563,798.20514,717.2161,-0.16845703125,0.10284423828125,0.97344970703125,2.55706787109375,-3.94775390625,0.605621337890625,1.0,1.0,1.0,1.0,1.0,100.0,event
15:39:40.769,0.59890455,0.94096637,0.6520727,0.4378627,0.16193673,0.6566397,0.36774692,0.6192867,0.24921294,0.68478155,0.4338243,0.61899513,0.7004419,0.5294623,0.46728483,0.51332015,0.41644683,0.1655706,0.21260017,0.37977937,822.7839,819.9634,811.0989,803.44324,693.44324,-0.16845703125,0.10284423828125,0.97344970703125,2.55706787109375,-3.94775390625,0.605621337890625,1.0,1.0,1.0,1.0,1.0,100.0,event
15:39:40.770,0.59890455,0.94096637,0.6520727,0.4378627,0.16193673,0.6566397,0.36774692,0.6192867,0.24921294,0.68478155,0.4338243,0.61899513,0.7004419,0.5294623,0.46728483,0.51332015,0.41644683,0.1655706,0.21260017,0.37977937,824.7985,815.5311,804.65204,809.4872,717.2161,-0.16845703125,0.10284423828125,0.97344970703125,2.55706787109375,-3.94775390625,0.605621337890625,1.0,1.0,1.0,1.0,1.0,100.0,event
15:39:40.771,0.59890455,0.94096637,0.6520727,0.4378627,0.16193673,0.6566397,0.36774692,0.6192867,0.24921294,0.68478155,0.4338243,0.61899513,0.7004419,0.5294623,0.46728483,0.51332015,0.41644683,0.1655706,0.21260017,0.37977937,830.4396,810.696,810.696,813.91943,771.2088,-0.16845703125,0.10284423828125,0.97344970703125,2.55706787109375,-3.94775390625,0.605621337890625,1.0,1.0,1.0,1.0,1.0,100.0,event
15:39:40.771,0.59890455,0.94096637,0.6520727,0.4378627,0.16193673,0.6566397,0.36774692,0.6192867,0.24921294,0.68478155,0.4338243,0.61899513,0.7004419,0.5294623,0.46728483,0.51332015,0.41644683,0.1655706,0.21260017,0.37977937,826.8132,804.2491,821.978,817.1429,728.49817,-0.16845703125,0.10284423828125,0.97344970703125,2.55706787109375,-3.94775390625,0.605621337890625,1.0,1.0,1.0,1.0,1.0,100.0,event
15:39:40.772,0.59890455,0.94096637,0.6520727,0.4378627,0.16193673,0.6566397,0.36774692,0.6192867,0.24921294,0.68478155,0.4338243,0.61899513,0.7004419,0.5294623,0.46728483,0.51332015,0.41644683,0.1655706,0.21260017,0.37977937,822.381,794.57874,803.44324,823.5897,900.9524,-0.16845703125,0.10284423828125,0.97344970703125,2.55706787109375,-3.94775390625,0.605621337890625,1.0,1.0,1.0,1.0,1.0,100.0,event
15:39:40.772,0.59890455,0.94096637,0.6520727,0.4378627,0.16193673,0.6566397,0.36774692,0.6192867,0.24921294,0.68478155,0.4338243,0.61899513,0.7004419,0.5294623,0.46728483,0.51332015,0.41644683,0.1655706,0.21260017,0.37977937,821.1722,800.2198,811.50183,816.337,660.80585,-0.16845703125,0.10284423828125,0.97344970703125,2.55706787109375,-3.94775390625,0.605621337890625,1.0,1.0,1.0,1.0,1.0,100.0,event
15:39:40.773,0.59890455,0.94096637,0.6520727,0.4378627,0.16193673,0.6566397,0.36774692,0.6192867,0.24921294,0.68478155,0.4338243,0.61899513,0.7004419,0.5294623,0.46728483,0.51332015,0.41644683,0.1655706,0.21260017,0.37977937,836.4835,811.50183,842.1245,829.6337,855.42126,-0.16845703125,0.10284423828125,0.97344970703125,2.55706787109375,-3.94775390625,0.605621337890625,1.0,1.0,1.0,1.0,1.0,100.0,event
15:39:40.773,0.59890455,0.94096637,0.6520727,0.4378627,0.16193673,0.6566397,0.36774692,0.6192867,0.24921294,0.68478155,0.4338243,0.61899513,0.7004419,0.5294623,0.46728483,0.51332015,0.41644683,0.1655706,0.21260017,0.37977937,830.84247,796.99634,823.9927,837.6923,1045.6044,-0.16845703125,0.10284423828125,0.97344970703125,2.55706787109375,-3.94775390625,0.605621337890625,1.0,1.0,1.0,1.0,1.0,100.0,event
15:39:40.774,0.59890455,0.94096637,0.6520727,0.4378627,0.16193673,0.6566397,0.36774692,0.6192867,0.24921294,0.68478155,0.4338243,0.61899513,0.7004419,0.5294623,0.46728483,0.51332015,0.41644683,0.1655706,0.21260017,0.37977937,842.9304,809.0842,837.6923,816.337,725.2747,-0.16845703125,0.10284423828125,0.97344970703125,2.55706787109375,-3.94775390625,0.605621337890625,1.0,1.0,1.0,1.0,1.0,100.0,event
15:39:40.774,0.59890455,0.94096637,0.6520727,0.4378627,0.16193673,0.6566397,0.36774692,0.6192867,0.24921294,0.68478155,0.4338243,0.61899513,0.7004419,0.5294623,0.46728483,0.51332015,0.41644683,0.1655706,0.21260017,0.37977937,844.5421,794.17584,822.7839,830.0366,823.5897,-0.16845703125,0.10284423828125,0.97344970703125,2.55706787109375,-3.94775390625,0.605621337890625,1.0,1.0,1.0,1.0,1.0,100.0,event
15:39:40.775,0.59890455,0.94096637,0.6520727,0.4378627,0.16193673,0.6566397,0.36774692,0.6192867,0.24921294,0.68478155,0.4338243,0.61899513,0.7004419,0.5294623,0.46728483,0.51332015,0.41644683,0.1655706,0.21260017,0.37977937,840.5128,792.5641,839.304,834.0659,973.47986,-0.16845703125,0.10284423828125,0.97344970703125,2.55706787109375,-3.94775390625,0.605621337890625,1.0,1.0,1.0,1.0,1.0,100.0,event
15:39:40.775,0.59890455,0.94096637,0.6520727,0.4378627,0.16193673,0.6566397,0.36774692,0.6192867,0.24921294,0.68478155,0.4338243,0.61899513,0.7004419,0.5294623,0.46728483,0.51332015,0.41644683,0.1655706,0.21260017,0.37977937,840.10986,799.81683,863.8828,822.7839,807.8755,-0.16845703125,0.10284423828125,0.97344970703125,2.55706787109375,-3.94775390625,0.605621337890625,1.0,1.0,1.0,1.0,1.0,100.0,event
15:39:40.802,0.59890455,0.94096637,0.6520727,0.4378627,0.16193673,0.6566397,0.36774692,0.6192867,0.24921294,0.68478155,0.4338243,0.61899513,0.7004419,0.5294623,0.46728483,0.51332015,0.41644683,0.1655706,0.21260017,0.37977937,843.3333,793.7729,829.2308,829.6337,738.97437,-0.18524169921875,0.097900390625,0.9620361328125,1.7645263671875,-3.96270751953125,1.21124267578125,1.0,1.0,1.0,1.0,1.0,100.0,event
15:39:40.803,0.59890455,0.94096637,0.6520727,0.4378627,0.16193673,0.6566397,0.36774692,0.6192867,0.24921294,0.68478155,0.4338243,0.61899513,0.7004419,0.5294623,0.46728483,0.51332015,0.41644683,0.1655706,0.21260017,0.37977937,842.52747,788.5348,814.3223,831.6484,770.40295,-0.18524169921875,0.097900390625,0.9620361328125,1.7645263671875,-3.96270751953125,1.21124267578125,1.0,1.0,1.0,1.0,1.0,100.0,event
15:39:40.803,0.59890455,0.94096637,0.6520727,0.4378627,0.16193673,0.6566397,0.36774692,0.6192867,0.24921294,0.68478155,0.4338243,0.61899513,0.7004419,0.5294623,0.46728483,0.51332015,0.41644683,0.1655706,0.21260017,0.37977937,843.3333,791.75824,809.4872,811.9048,689.41394,-0.18524169921875,0.097900390625,0.9620361328125,1.7645263671875,-3.96270751953125,1.21124267578125,1.0,1.0,1.0,1.0,1.0,100.0,event
15:39:40.804,0.59890455,0.94096637,0.6520727,0.4378627,0.16193673,0.6566397,0.36774692,0.6192867,0.24921294,0.68478155,0.4338243,0.61899513,0.7004419,0.5294623,0.46728483,0.51332015,0.41644683,0.1655706,0.21260017,0.37977937,836.4835,793.36993,811.50183,819.15753,711.5751,-0.18524169921875,0.097900390625,0.9620361328125,1.7645263671875,-3.96270751953125,1.21124267578125,1.0,1.0,1.0,1.0,1.0,100.0,event
15:39:40.804,0.59890455,0.94096637,0.6520727,0.4378627,0.16193673,0.6566397,0.36774692,0.6192867,0.24921294,0.68478155,0.4338243,0.61899513,0.7004419,0.5294623,0.46728483,0.51332015,0.41644683,0.1655706,0.21260017,0.37977937,838.9011,796.1905,811.9048,803.0403,644.68866,-0.18524169921875,0.097900390625,0.9620361328125,1.7645263671875,-3.96270751953125,1.21124267578125,1.0,1.0,1.0,1.0,1.0,100.0,event
15:39:40.805,0.59890455,0.94096637,0.6520727,0.4378627,0.16193673,0.6566397,0.36774692,0.6192867,0.24921294,0.68478155,0.4338243,0.61899513,0.7004419,0.5294623,0.46728483,0.51332015,0.41644683,0.1655706,0.21260017,0.37977937,836.4835,786.9231,804.65204,831.6484,857.03296,-0.18524169921875,0.097900390625,0.9620361328125,1.7645263671875,-3.96270751953125,1.21124267578125,1.0,1.0,1.0,1.0,1.0,100.0,event
15:39:40.805,0.59890455,0.94096637,0.6520727,0.4378627,0.16193673,0.6566397,0.36774692,0.6192867,0.24921294,0.68478155,0.4338243,0.61899513,0.7004419,0.5294623,0.46728483,0.51332015,0.41644683,0.1655706,0.21260017,0.37977937,832.8571,783.69965,811.0989,828.022,917.47253,-0.18524169921875,0.097900390625,0.9620361328125,1.7645263671875,-3.96270751953125,1.21124267578125,1.0,1.0,1.0,1.0,1.0,100.0,event
15:39:40.806,0.59890455,0.94096637,0.6520727,0.4378627,0.16193673,0.6566397,0.36774692,0.6192867,0.24921294,0.68478155,0.4338243,0.61899513,0.7004419,0.5294623,0.46728483,0.51332015,0.41644683,0.1655706,0.21260017,0.37977937,828.8278,782.0879,806.6667,829.2308,767.98535,-0.18524169921875,0.097900390625,0.9620361328125,1.7645263671875,-3.96270751953125,1.21124267578125,1.0,1.0,1.0,1.0,1.0,100.0,event
15:39:40.807,0.59890455,0.94096637,0.6520727,0.4378627,0.16193673,0.6566397,0.36774692,0.6192867,0.24921294,0.68478155,0.4338243,0.61899513,0.7004419,0.5294623,0.46728483,0.51332015,0.41644683,0.1655706,0.21260017,0.37977937,827.2161,776.04395,799.011,834.87177,720.0366,-0.18524169921875,0.097900390625,0.9620361328125,1.7645263671875,-3.96270751953125,1.21124267578125,1.0,1.0,1.0,1.0,1.0,100.0,event
15:39:40.808,0.59890455,0.94096637,0.6520727,0.4378627,0.16193673,0.6566397,0.36774692,0.6192867,0.24921294,0.68478155,0.4338243,0.61899513,0.7004419,0.5294623,0.46728483,0.51332015,0.41644683,0.1655706,0.21260017,0.37977937,829.2308,772.4176,788.93774,827.2161,981.53845,-0.18524169921875,0.097900390625,0.9620361328125,1.7645263671875,-3.96270751953125,1.21124267578125,1.0,1.0,1.0,1.0,1.0,100.0,event
15:39:40.808,0.59890455,0.94096637,0.6520727,0.4378627,0.16193673,0.6566397,0.36774692,0.6192867,0.24921294,0.68478155,0.4338243,0.61899513,0.7004419,0.5294623,0.46728483,0.51332015,0.41644683,0.1655706,0.21260017,0.37977937,837.6923,786.9231,815.12823,832.4542,1002.0879,-0.18524169921875,0.097900390625,0.9620361328125,1.7645263671875,-3.96270751953125,1.21124267578125,1.0,1.0,1.0,1.0,1.0,100.0,event
15:39:40.809,0.6449043,0.9168271,0.6409024,0.4595403,0.13043262,0.6391525,0.36638886,0.650785,0.23792787,0.68478155,0.43106058,0.61899513,0.7152972,0.5256851,0.4790713,0.5064894,0.4518944,0.18951657,0.19575836,0.41253045,835.6777,795.78754,818.3516,829.2308,740.18317,-0.18524169921875,0.097900390625,0.9620361328125,1.7645263671875,-3.96270751953125,1.21124267578125,1.0,1.0,1.0,1.0,1.0,100.0,event
15:39:40.838,0.6449043,0.9168271,0.6409024,0.4595403,0.13043262,0.6391525,0.36638886,0.650785,0.23792787,0.68478155,0.43106058,0.61899513,0.7152972,0.5256851,0.4790713,0.5064894,0.4518944,0.18951657,0.19575836,0.41253045,828.8278,789.34064,784.5055,818.7546,741.79486,-0.18048095703125,0.0989990234375,0.963623046875,2.310333251953125,-4.5159912109375,-0.31402587890625,1.0,1.0,1.0,1.0,1.0,100.0,event
15:39:40.839,0.6449043,0.9168271,0.6409024,0.4595403,0.13043262,0.6391525,0.36638886,0.650785,0.23792787,0.68478155,0.43106058,0.61899513,0.7152972,0.5256851,0.4790713,0.5064894,0.4518944,0.18951657,0.19575836,0.41253045,829.2308,791.3553,794.17584,821.5751,819.15753,-0.18048095703125,0.0989990234375,0.963623046875,2.310333251953125,-4.5159912109375,-0.31402587890625,1.0,1.0,1.0,1.0,1.0,100.0,event
15:39:40.840,0.6449043,0.9168271,0.6409024,0.4595403,0.13043262,0.6391525,0.36638886,0.650785,0.23792787,0.68478155,0.43106058,0.61899513,0.7152972,0.5256851,0.4790713,0.5064894,0.4518944,0.18951657,0.19575836,0.41253045,834.4689,803.0403,803.8461,829.6337,681.75824,-0.18048095703125,0.0989990234375,0.963623046875,2.310333251953125,-4.5159912109375,-0.31402587890625,1.0,1.0,1.0,1.0,1.0,100.0,event
15:39:40.840,0.6449043,0.9168271,0.6409024,0.4595403,0.13043262,0.6391525,0.36638886,0.650785,0.23792787,0.68478155,0.43106058,0.61899513,0.7152972,0.5256851,0.4790713,0.5064894,0.4518944,0.18951657,0.19575836,0.41253045,826.0073,798.20514,808.2784,821.978,757.1062,-0.18048095703125,0.0989990234375,0.963623046875,2.310333251953125,-4.5159912109375,-0.31402587890625,1.0,1.0,1.0,1.0,1.0,100.0,event
15:39:40.841,0.6449043,0.9168271,0.6409024,0.4595403,0.13043262,0.6391525,0.36638886,0.650785,0.23792787,0.68478155,0.43106058,0.61899513,0.7152972,0.5256851,0.4790713,0.5064894,0.4518944,0.18951657,0.19575836,0.41253045,838.0952,799.011,788.93774,821.978,766.3736,-0.18048095703125,0.0989990234375,0.963623046875,2.310333251953125,-4.5159912109375,-0.31402587890625,1.0,1.0,1.0,1.0,1.0,100.0,event
15:39:40.842,0.6449043,0.9168271,0.6409024,0.4595403,0.13043262,0.6391525,0.36638886,0.650785,0.23792787,0.68478155,0.43106058,0.61899513,0.7152972,0.5256851,0.4790713,0.5064894,0.4518944,0.18951657,0.19575836,0.41253045,828.4249,797.8022,788.93774,810.696,830.84247,-0.18048095703125,0.0989990234375,0.963623046875,2.310333251953125,-4.5159912109375,-0.31402587890625,1.0,1.0,1.0,1.0,1.0,100.0,event
15:39:40.843,0.6449043,0.9168271,0.6409024,0.4595403,0.13043262,0.6391525,0.36638886,0.650785,0.23792787,0.68478155,0.43106058,0.61899513,0.7152972,0.5256851,0.4790713,0.5064894,0.4518944,0.18951657,0.19575836,0.41253045,832.4542,805.8608,800.6227,815.5311,830.4396,-0.18048095703125,0.0989990234375,0.963623046875,2.310333251953125,-4.5159912109375,-0.31402587890625,1.0,1.0,1.0,1.0,1.0,100.0,event
15:39:40.844,0.6449043,0.9168271,0.6409024,0.4595403,0.13043262,0.6391525,0.36638886,0.650785,0.23792787,0.68478155,0.43106058,0.61899513,0.7152972,0.5256851,0.4790713,0.5064894,0.4518944,0.18951657,0.19575836,0.41253045,836.4835,810.293,805.4579,811.50183,769.59705,-0.18048095703125,0.0989990234375,0.963623046875,2.310333251953125,-4.5159912109375,-0.31402587890625,1.0,1.0,1.0,1.0,1.0,100.0,event
15:39:40.845,0.6449043,0.9168271,0.6409024,0.4595403,0.13043262,0.6391525,0.36638886,0.650785,0.23792787,0.68478155,0.43106058,0.61899513,0.7152972,0.5256851,0.4790713,0.5064894,0.4518944,0.18951657,0.19575836,0.41253045,832.0513,801.02563,774.43225,807.8755,848.1685,-0.18048095703125,0.0989990234375,0.963623046875,2.310333251953125,-4.5159912109375,-0.31402587890625,1.0,1.0,1.0,1.0,1.0,100.0,event
15:39:40.846,0.6449043,0.9168271,0.6409024,0.4595403,0.13043262,0.6391525,0.36638886,0.650785,0.23792787,0.68478155,0.43106058,0.61899513,0.7152972,0.5256851,0.4790713,0.5064894,0.4518944,0.18951657,0.19575836,0.41253045,834.87177,794.57874,780.4762,813.1135,976.7033,-0.18048095703125,0.0989990234375,0.963623046875,2.310333251953125,-4.5159912109375,-0.31402587890625,1.0,1.0,1.0,1.0,1.0,100.0,event
15:39:40.846,0.6449043,0.9168271,0.6409024,0.4595403,0.13043262,0.6391525,0.36638886,0.650785,0.23792787,0.68478155,0.43106058,0.61899513,0.7152972,0.5256851,0.4790713,0.5064894,0.4518944,0.18951657,0.19575836,0.41253045,824.3956,803.0403,814.3223,808.68134,738.5714,-0.18048095703125,0.0989990234375,0.963623046875,2.310333251953125,-4.5159912109375,-0.31402587890625,1.0,1.0,1.0,1.0,1.0,100.0,event
15:39:40.847,0.6449043,0.9168271,0.6409024,0.4595403,0.13043262,0.6391525,0.36638886,0.650785,0.23792787,0.68478155,0.43106058,0.61899513,0.7152972,0.5256851,0.4790713,0.5064894,0.4518944,0.18951657,0.19575836,0.41253045,816.337,794.17584,794.9817,796.99634,706.337,-0.18048095703125,0.0989990234375,0.963623046875,2.310333251953125,-4.5159912109375,-0.31402587890625,1.0,1.0,1.0,1.0,1.0,100.0,event
15:39:40.933,0.6449043,0.9168271,0.6409024,0.4595403,0.13043262,0.6391525,0.36638886,0.650785,0.23792787,0.68478155,0.43106058,0.61899513,0.7152972,0.5256851,0.4790713,0.5064894,0.4518944,0.18951657,0.19575836,0.41253045,815.5311,789.34064,797.8022,786.52014,849.7802,-0.1756591796875,0.09173583984375,0.9625244140625,2.714080810546875,-5.87677001953125,-0.37384033203125,1.0,1.0,1.0,1.0,1.0,100.0,event
15:39:40.935,0.6449043,0.9168271,0.6409024,0.4595403,0.13043262,0.6391525,0.36638886,0.650785,0.23792787,0.68478155,0.43106058,0.61899513,0.7152972,0.5256851,0.4790713,0.5064894,0.4518944,0.18951657,0.19575836,0.41253045,822.7839,803.8461,820.7692,803.0403,784.90845,-0.1756591796875,0.09173583984375,0.9625244140625,2.714080810546875,-5.87677001953125,-0.37384033203125,1.0,1.0,1.0,1.0,1.0,100.0,event
15:39:40.935,0.6449043,0.9168271,0.6409024,0.4595403,0.13043262,0.6391525,0.36638886,0.650785,0.23792787,0.68478155,0.43106058,0.61899513,0.7152972,0.5256851,0.4790713,0.5064894,0.4518944,0.18951657,0.19575836,0.41253045,826.0073,807.0696,818.7546,809.89014,691.02563,-0.1756591796875,0.09173583984375,0.9625244140625,2.714080810546875,-5.87677001953125,-0.37384033203125,1.0,1.0,1.0,1.0,1.0,100.0,event
15:39:40.936,0.6449043,0.9168271,0.6409024,0.4595403,0.13043262,0.6391525,0.36638886,0.650785,0.23792787,0.68478155,0.43106058,0.61899513,0.7152972,0.5256851,0.4790713,0.5064894,0.4518944,0.18951657,0.19575836,0.41253045,821.1722,800.6227,796.5934,809.0842,733.73627,-0.1756591796875,0.09173583984375,0.9625244140625,2.714080810546875,-5.87677001953125,-0.37384033203125,1.0,1.0,1.0,1.0,1.0,100.0,event
15:39:40.937,0.6449043,0.9168271,0.6409024,0.4595403,0.13043262,0.6391525,0.36638886,0.650785,0.23792787,0.68478155,0.43106058,0.61899513,0.7152972,0.5256851,0.4790713,0.5064894,0.4518944,0.18951657,0.19575836,0.41253045,821.5751,798.60803,794.17584,821.1722,760.32965,-0.1756591796875,0.09173583984375,0.9625244140625,2.714080810546875,-5.87677001953125,-0.37384033203125,1.0,1.0,1.0,1.0,1.0,100.0,event
15:39:40.937,0.6449043,0.9168271,0.6409024,0.4595403,0.13043262,0.6391525,0.36638886,0.650785,0.23792787,0.68478155,0.43106058,0.61899513,0.7152972,0.5256851,0.4790713,0.5064894,0.4518944,0.18951657,0.19575836,0.41253045,821.978,796.5934,805.4579,815.5311,803.8461,-0.1756591796875,0.09173583984375,0.9625244140625,2.714080810546875,-5.87677001953125,-0.37384033203125,1.0,1.0,1.0,1.0,1.0,100.0,event
15:39:40.938,0.6449043,0.9168271,0.6409024,0.4595403,0.13043262,0.6391525,0.36638886,0.650785,0.23792787,0.68478155,0.43106058,0.61899513,0.7152972,0.5256851,0.4790713,0.5064894,0.4518944,0.18951657,0.19575836,0.41253045,820.3663,799.41394,813.5165,819.9634,903.7729,-0.1756591796875,0.09173583984375,0.9625244140625,2.714080810546875,-5.87677001953125,-0.37384033203125,1.0,1.0,1.0,1.0,1.0,100.0,event
15:39:40.939,0.6449043,0.9168271,0.6409024,0.4595403,0.13043262,0.6391525,0.36638886,0.650785,0.23792787,0.68478155,0.43106058,0.61899513,0.7152972,0.5256851,0.4790713,0.5064894,0.4518944,0.18951657,0.19575836,0.41253045,820.7692,806.6667,807.0696,817.9487,857.4359,-0.1756591796875,0.09173583984375,0.9625244140625,2.714080810546875,-5.87677001953125,-0.37384033203125,1.0,1.0,1.0,1.0,1.0,100.0,event
15:39:40.939,0.6449043,0.9168271,0.6409024,0.4595403,0.13043262,0.6391525,0.36638886,0.650785,0.23792787,0.68478155,0.43106058,0.61899513,0.7152972,0.5256851,0.4790713,0.5064894,0.4518944,0.18951657,0.19575836,0.41253045,824.3956,802.23444,785.31134,811.50183,971.06226,-0.1756591796875,0.09173583984375,0.9625244140625,2.714080810546875,-5.87677001953125,-0.37384033203125,1.0,1.0,1.0,1.0,1.0,100.0,event
15:39:40.940,0.6449043,0.9168271,0.6409024,0.4595403,0.13043262,0.6391525,0.36638886,0.650785,0.23792787,0.68478155,0.43106058,0.61899513,0.7152972,0.5256851,0.4790713,0.5064894,0.4518944,0.18951657,0.19575836,0.41253045,815.9341,807.0696,808.68134,806.6667,974.68866,-0.1756591796875,0.09173583984375,0.9625244140625,2.714080810546875,-5.87677001953125,-0.37384033203125,1.0,1.0,1.0,1.0,1.0,100.0,event
15:39:40.940,0.6449043,0.9168271,0.6409024,0.4595403,0.13043262,0.6391525,0.36638886,0.650785,0.23792787,0.68478155,0.43106058,0.61899513,0.7152972,0.5256851,0.4790713,0.5064894,0.4518944,0.18951657,0.19575836,0.41253045,809.89014,811.50183,815.9341,801.4286,701.0989,-0.1756591796875,0.09173583984375,0.9625244140625,2.714080810546875,-5.87677001953125,-0.37384033203125,1.0,1.0,1.0,1.0,1.0,100.0,event
15:39:40.941,0.6449043,0.9168271,0.6409024,0.4595403,0.13043262,0.6391525,0.36638886,0.650785,0.23792787,0.68478155,0.43106058,0.61899513,0.7152972,0.5256851,0.4790713,0.5064894,0.4518944,0.18951657,0.19575836,0.41253045,813.91943,799.81683,790.9524,805.05493,693.8461,-0.1756591796875,0.09173583984375,0.9625244140625,2.714080810546875,-5.87677001953125,-0.37384033203125,1.0,1.0,1.0,1.0,1.0,100.0,event
15:39:40.968,0.6449043,0.9168271,0.6409024,0.4595403,0.13043262,0.6391525,0.36638886,0.650785,0.23792787,0.68478155,0.43106058,0.61899513,0.7152972,0.5256851,0.4790713,0.5064894,0.4518944,0.18951657,0.19575836,0.41253045,818.7546,799.81683,796.99634,807.0696,718.022,-0.1756591796875,0.09173583984375,0.9625244140625,2.714080810546875,-5.87677001953125,-0.37384033203125,1.0,1.0,1.0,1.0,1.0,100.0,event
15:39:40.969,0.69642866,0.9031514,0.6414351,0.4845241,0.11803081,0.59821624,0.3784205,0.6642687,0.22976258,0.68478155,0.43106058,0.61899513,0.7055604,0.5143836,0.48649994,0.49447957,0.47652188,0.20804253,0.18198481,0.44630107,822.381,805.05493,806.6667,820.7692,711.978,-0.1756591796875,0.09173583984375,0.9625244140625,2.714080810546875,-5.87677001953125,-0.37384033203125,1.0,1.0,1.0,1.0,1.0,100.0,event
15:39:40.975,0.69642866,0.9031514,0.6414351,0.4845241,0.11803081,0.59821624,0.3784205,0.6642687,0.22976258,0.68478155,0.43106058,0.61899513,0.7055604,0.5143836,0.48649994,0.49447957,0.47652188,0.20804253,0.18198481,0.44630107,810.696,804.65204,796.5934,823.1868,730.9158,-0.1756591796875,0.09173583984375,0.9625244140625,2.714080810546875,-5.87677001953125,-0.37384033203125,1.0,1.0,1.0,1.0,1.0,100.0,event
15:39:40.976,0.69642866,0.9031514,0.6414351,0.4845241,0.11803081,0.59821624,0.3784205,0.6642687,0.22976258,0.68478155,0.43106058,0.61899513,0.7055604,0.5143836,0.48649994,0.49447957,0.47652188,0.20804253,0.18198481,0.44630107,804.2491,804.65204,790.14655,805.4579,888.0586,-0.1756591796875,0.09173583984375,0.9625244140625,2.714080810546875,-5.87677001953125,-0.37384033203125,1.0,1.0,1.0,1.0,1.0,100.0,event
15:39:40.976,0.69642866,0.9031514,0.6414351,0.4845241,0.11803081,0.59821624,0.3784205,0.6642687,0.22976258,0.68478155,0.43106058,0.61899513,0.7055604,0.5143836,0.48649994,0.49447957,0.47652188,0.20804253,0.18198481,0.44630107,816.7399,805.4579,799.41394,802.6374,909.81683,-0.1756591796875,0.09173583984375,0.9625244140625,2.714080810546875,-5.87677001953125,-0.37384033203125,1.0,1.0,1.0,1.0,1.0,100.0,event
15:39:40.977,0.69642866,0.9031514,0.6414351,0.4845241,0.11803081,0.59821624,0.3784205,0.6642687,0.22976258,0.68478155,0.43106058,0.61899513,0.7055604,0.5143836,0.48649994,0.49447957,0.47652188,0.20804253,0.18198481,0.44630107,825.6044,812.71063,806.6667,810.293,828.022,-0.1756591796875,0.09173583984375,0.9625244140625,2.714080810546875,-5.87677001953125,-0.37384033203125,1.0,1.0,1.0,1.0,1.0,100.0,event
15:39:40.977,0.69642866,0.9031514,0.6414351,0.4845241,0.11803081,0.59821624,0.3784205,0.6642687,0.22976258,0.68478155,0.43106058,0.61899513,0.7055604,0.5143836,0.48649994,0.49447957,0.47652188,0.20804253,0.18198481,0.44630107,822.381,806.6667,802.6374,807.47253,835.2747,-0.1756591796875,0.09173583984375,0.9625244140625,2.714080810546875,-5.87677001953125,-0.37384033203125,1.0,1.0,1.0,1.0,1.0,100.0,event
15:39:40.978,0.69642866,0.9031514,0.6414351,0.4845241,0.11803081,0.59821624,0.3784205,0.6642687,0.22976258,0.68478155,0.43106058,0.61899513,0.7055604,0.5143836,0.48649994,0.49447957,0.47652188,0.20804253,0.18198481,0.44630107,810.293,794.57874,786.1172,797.8022,923.91943,-0.1756591796875,0.09173583984375,0.9625244140625,2.714080810546875,-5.87677001953125,-0.37384033203125,1.0,1.0,1.0,1.0,1.0,100.0,event
15:39:40.979,0.69642866,0.9031514,0.6414351,0.4845241,0.11803081,0.59821624,0.3784205,0.6642687,0.22976258,0.68478155,0.43106058,0.61899513,0.7055604,0.5143836,0.48649994,0.49447957,0.47652188,0.20804253,0.18198481,0.44630107,803.0403,805.4579,834.0659,813.1135,718.8278,-0.1756591796875,0.09173583984375,0.9625244140625,2.714080810546875,-5.87677001953125,-0.37384033203125,1.0,1.0,1.0,1.0,1.0,100.0,event
15:39:40.979,0.69642866,0.9031514,0.6414351,0.4845241,0.11803081,0.59821624,0.3784205,0.6642687,0.22976258,0.68478155,0.43106058,0.61899513,0.7055604,0.5143836,0.48649994,0.49447957,0.47652188,0.20804253,0.18198481,0.44630107,798.20514,793.36993,796.99634,802.6374,971.06226,-0.1756591796875,0.09173583984375,0.9625244140625,2.714080810546875,-5.87677001953125,-0.37384033203125,1.0,1.0,1.0,1.0,1.0,100.0,event
15:39:40.980,0.69642866,0.9031514,0.6414351,0.4845241,0.11803081,0.59821624,0.3784205,0.6642687,0.22976258,0.68478155,0.43106058,0.61899513,0.7055604,0.5143836,0.48649994,0.49447957,0.47652188,0.20804253,0.18198481,0.44630107,807.8755,805.05493,817.9487,810.293,681.75824,-0.1756591796875,0.09173583984375,0.9625244140625,2.714080810546875,-5.87677001953125,-0.37384033203125,1.0,1.0,1.0,1.0,1.0,100.0,event
15:39:40.980,0.69642866,0.9031514,0.6414351,0.4845241,0.11803081,0.59821624,0.3784205,0.6642687,0.22976258,0.68478155,0.43106058,0.61899513,0.7055604,0.5143836,0.48649994,0.49447957,0.47652188,0.20804253,0.18198481,0.44630107,808.68134,798.20514,813.1135,801.4286,857.03296,-0.1756591796875,0.09173583984375,0.9625244140625,2.714080810546875,-5.87677001953125,-0.37384033203125,1.0,1.0,1.0,1.0,1.0,100.0,event
15:39:41.005,0.69642866,0.9031514,0.6414351,0.4845241,0.11803081,0.59821624,0.3784205,0.6642687,0.22976258,0.68478155,0.43106058,0.61899513,0.7055604,0.5143836,0.48649994,0.49447957,0.47652188,0.20804253,0.18198481,0.44630107,798.60803,798.60803,814.7253,786.52014,789.7436,-0.16705322265625,0.09295654296875,0.9683837890625,2.4224853515625,-4.194488525390625,0.590667724609375,1.0,1.0,1.0,1.0,1.0,100.0,event
15:39:41.006,0.69642866,0.9031514,0.6414351,0.4845241,0.11803081,0.59821624,0.3784205,0.6642687,0.22976258,0.68478155,0.43106058,0.61899513,0.7055604,0.5143836,0.48649994,0.49447957,0.47652188,0.20804253,0.18198481,0.44630107,793.7729,795.38464,807.8755,790.14655,673.2967,-0.16705322265625,0.09295654296875,0.9683837890625,2.4224853515625,-4.194488525390625,0.590667724609375,1.0,1.0,1.0,1.0,1.0,100.0,event
15:39:41.007,0.69642866,0.9031514,0.6414351,0.4845241,0.11803081,0.59821624,0.3784205,0.6642687,0.22976258,0.68478155,0.43106058,0.61899513,0.7055604,0.5143836,0.48649994,0.49447957,0.47652188,0.20804253,0.18198481,0.44630107,795.78754,794.17584,796.5934,799.41394,708.3516,-0.16705322265625,0.09295654296875,0.9683837890625,2.4224853515625,-4.194488525390625,0.590667724609375,1.0,1.0,1.0,1.0,1.0,100.0,event
15:39:41.007,0.69642866,0.9031514,0.6414351,0.4845241,0.11803081,0.59821624,0.3784205,0.6642687,0.22976258,0.68478155,0.43106058,0.61899513,0.7055604,0.5143836,0.48649994,0.49447957,0.47652188,0.20804253,0.18198481,0.44630107,799.41394,797.8022,794.57874,797.8022,797.3993,-0.16705322265625,0.09295654296875,0.9683837890625,2.4224853515625,-4.194488525390625,0.590667724609375,1.0,1.0,1.0,1.0,1.0,100.0,event
15:39:41.008,0.69642866,0.9031514,0.6414351,0.4845241,0.11803081,0.59821624,0.3784205,0.6642687,0.22976258,0.68478155,0.43106058,0.61899513,0.7055604,0.5143836,0.48649994,0.49447957,0.47652188,0.20804253,0.18198481,0.44630107,811.50183,794.57874,800.6227,809.4872,825.2015,-0.16705322265625,0.09295654296875,0.9683837890625,2.4224853515625,-4.194488525390625,0.590667724609375,1.0,1.0,1.0,1.0,1.0,100.0,event
15:39:41.008,0.69642866,0.9031514,0.6414351,0.4845241,0.11803081,0.59821624,0.3784205,0.6642687,0.22976258,0.68478155,0.43106058,0.61899513,0.7055604,0.5143836,0.48649994,0.49447957,0.47652188,0.20804253,0.18198481,0.44630107,804.2491,792.1612,789.7436,803.44324,759.5238,-0.16705322265625,0.09295654296875,0.9683837890625,2.4224853515625,-4.194488525390625,0.590667724609375,1.0,1.0,1.0,1.0,1.0,100.0,event
15:39:41.009,0.69642866,0.9031514,0.6414351,0.4845241,0.11803081,0.59821624,0.3784205,0.6642687,0.22976258,0.68478155,0.43106058,0.61899513,0.7055604,0.5143836,0.48649994,0.49447957,0.47652188,0.20804253,0.18198481,0.44630107,808.2784,794.57874,795.78754,795.78754,1073.8096,-0.16705322265625,0.09295654296875,0.9683837890625,2.4224853515625,-4.194488525390625,0.590667724609375,1.0,1.0,1.0,1.0,1.0,100.0,event
15:39:41.009,0.69642866,0.9031514,0.6414351,0.4845241,0.11803081,0.59821624,0.3784205,0.6642687,0.22976258,0.68478155,0.43106058,0.61899513,0.7055604,0.5143836,0.48649994,0.49447957,0.47652188,0.20804253,0.18198481,0.44630107,802.6374,798.20514,789.34064,793.7729,843.73627,-0.16705322265625,0.09295654296875,0.9683837890625,2.4224853515625,-4.194488525390625,0.590667724609375,1.0,1.0,1.0,1.0,1.0,100.0,event
15:39:41.010,0.69642866,0.9031514,0.6414351,0.4845241,0.11803081,0.59821624,0.3784205,0.6642687,0.22976258,0.68478155,0.43106058,0.61899513,0.7055604,0.5143836,0.48649994,0.49447957,0.47652188,0.20804253,0.18198481,0.44630107,807.8755,794.17584,809.4872,804.65204,925.12823,-0.16705322265625,0.09295654296875,0.9683837890625,2.4224853515625,-4.194488525390625,0.590667724609375,1.0,1.0,1.0,1.0,1.0,100.0,event
15:39:41.010,0.69642866,0.9031514,0.6414351,0.4845241,0.11803081,0.59821624,0.3784205,0.6642687,0.22976258,0.68478155,0.43106058,0.61899513,0.7055604,0.5143836,0.48649994,0.49447957,0.47652188,0.20804253,0.18198481,0.44630107,801.8315,796.99634,804.65204,797.8022,711.978,-0.16705322265625,0.09295654296875,0.9683837890625,2.4224853515625,-4.194488525390625,0.590667724609375,1.0,1.0,1.0,1.0,1.0,100.0,event
15:39:41.011,0.69642866,0.9031514,0.6414351,0.4845241,0.11803081,0.59821624,0.3784205,0.6642687,0.22976258,0.68478155,0.43106058,0.61899513,0.7055604,0.5143836,0.48649994,0.49447957,0.47652188,0.20804253,0.18198481,0.44630107,788.93774,789.7436,770.0,776.04395,753.47986,-0.16705322265625,0.09295654296875,0.9683837890625,2.4224853515625,-4.194488525390625,0.590667724609375,1.0,1.0,1.0,1.0,1.0,100.0,event
15:39:41.012,0.69642866,0.9031514,0.6414351,0.4845241,0.11803081,0.59821624,0.3784205,0.6642687,0.22976258,0.68478155,0.43106058,0.61899513,0.7055604,0.5143836,0.48649994,0.49447957,0.47652188,0.20804253,0.18198481,0.44630107,808.68134,791.75824,763.1502,794.17584,921.0989,-0.16705322265625,0.09295654296875,0.9683837890625,2.4224853515625,-4.194488525390625,0.590667724609375,1.0,1.0,1.0,1.0,1.0,100.0,event
15:39:41.037,0.69642866,0.9031514,0.6414351,0.4845241,0.11803081,0.59821624,0.3784205,0.6642687,0.22976258,0.68478155,0.43106058,0.61899513,0.7055604,0.5143836,0.48649994,0.49447957,0.47652188,0.20804253,0.18198481,0.44630107,824.7985,803.0403,814.3223,817.9487,842.1245,-0.16619873046875,0.09478759765625,0.96826171875,2.863616943359375,-2.968292236328125,-0.657958984375,1.0,1.0,1.0,1.0,1.0,100.0,event
15:39:41.038,0.69642866,0.9031514,0.6414351,0.4845241,0.11803081,0.59821624,0.3784205,0.6642687,0.22976258,0.68478155,0.43106058,0.61899513,0.7055604,0.5143836,0.48649994,0.49447957,0.47652188,0.20804253,0.18198481,0.44630107,797.3993,802.6374,815.9341,796.5934,616.4835,-0.16619873046875,0.09478759765625,0.96826171875,2.863616943359375,-2.968292236328125,-0.657958984375,1.0,1.0,1.0,1.0,1.0,100.0,event
15:39:41.038,0.69642866,0.9031514,0.6414351,0.4845241,0.11803081,0.59821624,0.3784205,0.6642687,0.22976258,0.68478155,0.43106058,0.61899513,0.7055604,0.5143836,0.48649994,0.49447957,0.47652188,0.20804253,0.18198481,0.44630107,792.96704,793.7729,792.96704,782.49084,680.54944,-0.16619873046875,0.09478759765625,0.96826171875,2.863616943359375,-2.968292236328125,-0.657958984375,1.0,1.0,1.0,1.0,1.0,100.0,event
15:39:41.039,0.75413823,0.9077337,0.66865736,0.5258636,0.10018445,0.5375177,0.4062033,0.64412963,0.19280359,0.6794985,0.42690846,0.61899513,0.66520065,0.4972746,0.48709872,0.48102456,0.4906788,0.22159433,0.16709554,0.4737087,805.8608,795.38464,799.81683,791.75824,767.5824,-0.16619873046875,0.09478759765625,0.96826171875,2.863616943359375,-2.968292236328125,-0.657958984375,1.0,1.0,1.0,1.0,1.0,100.0,event
15:39:41.042,0.75413823,0.9077337,0.66865736,0.5258636,0.10018445,0.5375177,0.4062033,0.64412963,0.19280359,0.6794985,0.42690846,0.61899513,0.66520065,0.4972746,0.48709872,0.48102456,0.4906788,0.22159433,0.16709554,0.4737087,803.8461,800.2198,801.02563,796.1905,713.5897,-0.16619873046875,0.09478759765625,0.96826171875,2.863616943359375,-2.968292236328125,-0.657958984375,1.0,1.0,1.0,1.0,1.0,100.0,event
15:39:41.043,0.75413823,0.9077337,0.66865736,0.5258636,0.10018445,0.5375177,0.4062033,0.64412963,0.19280359,0.6794985,0.42690846,0.61899513,0.66520065,0.4972746,0.48709872,0.48102456,0.4906788,0.22159433,0.16709554,0.4737087,796.1905,800.6227,786.9231,799.011,973.8828,-0.16619873046875,0.09478759765625,0.96826171875,2.863616943359375,-2.968292236328125,-0.657958984375,1.0,1.0,1.0,1.0,1.0,100.0,event
15:39:41.043,0.75413823,0.9077337,0.66865736,0.5258636,0.10018445,0.5375177,0.4062033,0.64412963,0.19280359,0.6794985,0.42690846,0.61899513,0.66520065,0.4972746,0.48709872,0.48102456,0.4906788,0.22159433,0.16709554,0.4737087,800.6227,798.60803,793.7729,800.2198,744.61536,-0.16619873046875,0.09478759765625,0.96826171875,2.863616943359375,-2.968292236328125,-0.657958984375,1.0,1.0,1.0,1.0,1.0,100.0,event
15:39:41.044,0.75413823,0.9077337,0.66865736,0.5258636,0.10018445,0.5375177,0.4062033,0.64412963,0.19280359,0.6794985,0.42690846,0.61899513,0.66520065,0.4972746,0.48709872,0.48102456,0.4906788,0.22159433,0.16709554,0.4737087,795.78754,805.4579,799.41394,804.65204,1062.1245,-0.16619873046875,0.09478759765625,0.96826171875,2.863616943359375,-2.968292236328125,-0.657958984375,1.0,1.0,1.0,1.0,1.0,100.0,event
15:39:41.044,0.75413823,0.9077337,0.66865736,0.5258636,0.10018445,0.5375177,0.4062033,0.64412963,0.19280359,0.6794985,0.42690846,0.61899513,0.66520065,0.4972746,0.48709872,0.48102456,0.4906788,0.22159433,0.16709554,0.4737087,792.1612,803.8461,813.91943,804.65204,887.6557,-0.16619873046875,0.09478759765625,0.96826171875,2.863616943359375,-2.968292236328125,-0.657958984375,1.0,1.0,1.0,1.0,1.0,100.0,event
15:39:41.045,0.75413823,0.9077337,0.66865736,0.5258636,0.10018445,0.5375177,0.4062033,0.64412963,0.19280359,0.6794985,0.42690846,0.61899513,0.66520065,0.4972746,0.48709872,0.48102456,0.4906788,0.22159433,0.16709554,0.4737087,786.9231,801.02563,797.3993,792.1612,745.42126,-0.16619873046875,0.09478759765625,0.96826171875,2.863616943359375,-2.968292236328125,-0.657958984375,1.0,1.0,1.0,1.0,1.0,100.0,event
15:39:41.045,0.75413823,0.9077337,0.66865736,0.5258636,0.10018445,0.5375177,0.4062033,0.64412963,0.19280359,0.6794985,0.42690846,0.61899513,0.66520065,0.4972746,0.48709872,0.48102456,0.4906788,0.22159433,0.16709554,0.4737087,787.326,801.02563,791.3553,792.5641,804.65204,-0.16619873046875,0.09478759765625,0.96826171875,2.863616943359375,-2.968292236328125,-0.657958984375,1.0,1.0,1.0,1.0,1.0,100.0,event
15:39:41.046,0.75413823,0.9077337,0.66865736,0.5258636,0.10018445,0.5375177,0.4062033,0.64412963,0.19280359,0.6794985,0.42690846,0.61899513,0.66520065,0.4972746,0.48709872,0.48102456,0.4906788,0.22159433,0.16709554,0.4737087,788.1319,803.0403,803.8461,790.9524,835.2747,-0.16619873046875,0.09478759765625,0.96826171875,2.863616943359375,-2.968292236328125,-0.657958984375,1.0,1.0,1.0,1.0,1.0,100.0,event
15:39:41.100,0.75413823,0.9077337,0.66865736,0.5258636,0.10018445,0.5375177,0.4062033,0.64412963,0.19280359,0.6794985,0.42690846,0.61899513,0.66520065,0.4972746,0.48709872,0.48102456,0.4906788,0.22159433,0.16709554,0.4737087,798.60803,810.293,806.6667,792.1612,743.4066,-0.17523193359375,0.100830078125,0.97479248046875,2.833709716796875,-3.386993408203125,0.306549072265625,1.0,1.0,1.0,1.0,1.0,100.0,event
15:39:41.101,0.75413823,0.9077337,0.66865736,0.5258636,0.10018445,0.5375177,0.4062033,0.64412963,0.19280359,0.6794985,0.42690846,0.61899513,0.66520065,0.4972746,0.48709872,0.48102456,0.4906788,0.22159433,0.16709554,0.4737087,796.99634,811.50183,790.9524,792.1612,766.77655,-0.17523193359375,0.100830078125,0.97479248046875,2.833709716796875,-3.386993408203125,0.306549072265625,1.0,1.0,1.0,1.0,1.0,100.0,event
15:39:41.101,0.75413823,0.9077337,0.66865736,0.5258636,0.10018445,0.5375177,0.4062033,0.64412963,0.19280359,0.6794985,0.42690846,0.61899513,0.66520065,0.4972746,0.48709872,0.48102456,0.4906788,0.22159433,0.16709554,0.4737087,805.05493,817.1429,789.34064,804.2491,785.31134,-0.17523193359375,0.100830078125,0.97479248046875,2.833709716796875,-3.386993408203125,0.306549072265625,1.0,1.0,1.0,1.0,1.0,100.0,event
15:39:41.102,0.75413823,0.9077337,0.66865736,0.5258636,0.10018445,0.5375177,0.4062033,0.64412963,0.19280359,0.6794985,0.42690846,0.61899513,0.66520065,0.4972746,0.48709872,0.48102456,0.4906788,0.22159433,0.16709554,0.4737087,786.1172,802.6374,801.8315,790.54944,697.0696,-0.17523193359375,0.100830078125,0.97479248046875,2.833709716796875,-3.386993408203125,0.306549072265625,1.0,1.0,1.0,1.0,1.0,100.0,event
15:39:41.103,0.75413823,0.9077337,0.66865736,0.5258636,0.10018445,0.5375177,0.4062033,0.64412963,0.19280359,0.6794985,0.42690846,0.61899513,0.66520065,0.4972746,0.48709872,0.48102456,0.4906788,0.22159433,0.16709554,0.4737087,793.7729,797.8022,789.34064,793.36993,789.7436,-0.17523193359375,0.100830078125,0.97479248046875,2.833709716796875,-3.386993408203125,0.306549072265625,1.0,1.0,1.0,1.0,1.0,100.0,event
15:39:41.103,0.75413823,0.9077337,0.66865736,0.5258636,0.10018445,0.5375177,0.4062033,0.64412963,0.19280359,0.6794985,0.42690846,0.61899513,0.66520065,0.4972746,0.48709872,0.48102456,0.4906788,0.22159433,0.16709554,0.4737087,789.7436,799.011,793.7729,792.5641,666.8498,-0.17523193359375,0.100830078125,0.97479248046875,2.833709716796875,-3.386993408203125,0.306549072265625,1.0,1.0,1.0,1.0,1.0,100.0,event
15:39:41.104,0.75413823,0.9077337,0.66865736,0.5258636,0.10018445,0.5375177,0.4062033,0.64412963,0.19280359,0.6794985,0.42690846,0.61899513,0.66520065,0.4972746,0.48709872,0.48102456,0.4906788,0.22159433,0.16709554,0.4737087,798.20514,799.011,799.011,794.17584,945.2747,-0.17523193359375,0.100830078125,0.97479248046875,2.833709716796875,-3.386993408203125,0.306549072265625,1.0,1.0,1.0,1.0,1.0,100.0,event
15:39:41.104,0.75413823,0.9077337,0.66865736,0.5258636,0.10018445,0.5375177,0.4062033,0.64412963,0.19280359,0.6794985,0.42690846,0.61899513,0.66520065,0.4972746,0.48709872,0.48102456,0.4906788,0.22159433,0.16709554,0.4737087,791.75824,801.4286,805.8608,784.5055,867.50916,-0.17523193359375,0.100830078125,0.97479248046875,2.833709716796875,-3.386993408203125,0.306549072265625,1.0,1.0,1.0,1.0,1.0,100.0,event
15:39:41.105,0.75413823,0.9077337,0.66865736,0.5258636,0.10018445,0.5375177,0.4062033,0.64412963,0.19280359,0.6794985,0.42690846,0.61899513,0.66520065,0.4972746,0.48709872,0.48102456,0.4906788,0.22159433,0.16709554,0.4737087,790.14655,801.02563,807.0696,784.5055,727.28937,-0.17523193359375,0.100830078125,0.97479248046875,2.833709716796875,-3.386993408203125,0.306549072265625,1.0,1.0,1.0,1.0,1.0,100.0,event
15:39:41.105,0.75413823,0.9077337,0.66865736,0.5258636,0.10018445,0.5375177,0.4062033,0.64412963,0.19280359,0.6794985,0.42690846,0.61899513,0.66520065,0.4972746,0.48709872,0.48102456,0.4906788,0.22159433,0.16709554,0.4737087,811.9048,799.011,793.36993,799.011,709.5604,-0.17523193359375,0.100830078125,0.97479248046875,2.833709716796875,-3.386993408203125,0.306549072265625,1.0,1.0,1.0,1.0,1.0,100.0,event
15:39:41.106,0.75413823,0.9077337,0.66865736,0.5258636,0.10018445,0.5375177,0.4062033,0.64412963,0.19280359,0.6794985,0.42690846,0.61899513,0.66520065,0.4972746,0.48709872,0.48102456,0.4906788,0.22159433,0.16709554,0.4737087,811.9048,796.99634,785.7143,806.26373,944.4689,-0.17523193359375,0.100830078125,0.97479248046875,2.833709716796875,-3.386993408203125,0.306549072265625,1.0,1.0,1.0,1.0,1.0,100.0,event
15:39:41.106,0.75413823,0.9077337,0.66865736,0.5258636,0.10018445,0.5375177,0.4062033,0.64412963,0.19280359,0.6794985,0.42690846,0.61899513,0.66520065,0.4972746,0.48709872,0.48102456,0.4906788,0.22159433,0.16709554,0.4737087,803.44324,803.44324,815.5311,805.05493,990.0,-0.17523193359375,0.100830078125,0.97479248046875,2.833709716796875,-3.386993408203125,0.306549072265625,1.0,1.0,1.0,1.0,1.0,100.0,event
15:39:41.134,0.75413823,0.9077337,0.66865736,0.5258636,0.10018445,0.5375177,0.4062033,0.64412963,0.19280359,0.6794985,0.42690846,0.61899513,0.66520065,0.4972746,0.48709872,0.48102456,0.4906788,0.22159433,0.16709554,0.4737087,802.23444,806.6667,818.7546,797.3993,794.57874,-0.17889404296875,0.1016845703125,0.96044921875,2.429962158203125,-3.1402587890625,1.084136962890625,1.0,1.0,1.0,1.0,1.0,100.0,event
15:39:41.135,0.75413823,0.9077337,0.66865736,0.5258636,0.10018445,0.5375177,0.4062033,0.64412963,0.19280359,0.6794985,0.42690846,0.61899513,0.66520065,0.4972746,0.48709872,0.48102456,0.4906788,0.22159433,0.16709554,0.4737087,798.20514,798.20514,788.1319,789.7436,782.49084,-0.17889404296875,0.1016845703125,0.96044921875,2.429962158203125,-3.1402587890625,1.084136962890625,1.0,1.0,1.0,1.0,1.0,100.0,event
15:39:41.136,0.75413823,0.9077337,0.66865736,0.5258636,0.10018445,0.5375177,0.4062033,0.64412963,0.19280359,0.6794985,0.42690846,0.61899513,0.66520065,0.4972746,0.48709872,0.48102456,0.4906788,0.22159433,0.16709554,0.4737087,803.0403,797.3993,816.337,798.60803,763.5531,-0.17889404296875,0.1016845703125,0.96044921875,2.429962158203125,-3.1402587890625,1.084136962890625,1.0,1.0,1.0,1.0,1.0,100.0,event
15:39:41.136,0.75413823,0.9077337,0.66865736,0.5258636,0.10018445,0.5375177,0.4062033,0.64412963,0.19280359,0.6794985,0.42690846,0.61899513,0.66520065,0.4972746,0.48709872,0.48102456,0.4906788,0.22159433,0.16709554,0.4737087,799.011,794.57874,792.5641,793.7729,856.63007,-0.17889404296875,0.1016845703125,0.96044921875,2.429962158203125,-3.1402587890625,1.084136962890625,1.0,1.0,1.0,1.0,1.0,100.0,event
15:39:41.137,0.75413823,0.9077337,0.66865736,0.5258636,0.10018445,0.5375177,0.4062033,0.64412963,0.19280359,0.6794985,0.42690846,0.61899513,0.66520065,0.4972746,0.48709872,0.48102456,0.4906788,0.22159433,0.16709554,0.4737087,799.011,795.38464,799.41394,799.41394,654.35895,-0.17889404296875,0.1016845703125,0.96044921875,2.429962158203125,-3.1402587890625,1.084136962890625,1.0,1.0,1.0,1.0,1.0,100.0,event
15:39:41.137,0.75413823,0.9214291,0.7147336,0.577844,0.10018445,0.47892946,0.44028574,0.5789293,0.19280359,0.67057514,0.41358548,0.60964185,0.66520065,0.48122105,0.4845677,0.4773486,0.4906788,0.23437096,0.14221327,0.49263513,801.4286,790.9524,786.9231,807.0696,811.9048,-0.17889404296875,0.1016845703125,0.96044921875,2.429962158203125,-3.1402587890625,1.084136962890625,1.0,1.0,1.0,1.0,1.0,100.0,event
15:39:41.141,0.75413823,0.9214291,0.7147336,0.577844,0.10018445,0.47892946,0.44028574,0.5789293,0.19280359,0.67057514,0.41358548,0.60964185,0.66520065,0.48122105,0.4845677,0.4773486,0.4906788,0.23437096,0.14221327,0.49263513,807.47253,792.1612,801.8315,803.8461,974.2857,-0.17889404296875,0.1016845703125,0.96044921875,2.429962158203125,-3.1402587890625,1.084136962890625,1.0,1.0,1.0,1.0,1.0,100.0,event
15:39:41.142,0.75413823,0.9214291,0.7147336,0.577844,0.10018445,0.47892946,0.44028574,0.5789293,0.19280359,0.67057514,0.41358548,0.60964185,0.66520065,0.48122105,0.4845677,0.4773486,0.4906788,0.23437096,0.14221327,0.49263513,805.05493,803.44324,820.3663,801.8315,778.0586,-0.17889404296875,0.1016845703125,0.96044921875,2.429962158203125,-3.1402587890625,1.084136962890625,1.0,1.0,1.0,1.0,1.0,100.0,event
15:39:41.142,0.75413823,0.9214291,0.7147336,0.577844,0.10018445,0.47892946,0.44028574,0.5789293,0.19280359,0.67057514,0.41358548,0.60964185,0.66520065,0.48122105,0.4845677,0.4773486,0.4906788,0.23437096,0.14221327,0.49263513,800.2198,809.0842,813.1135,798.60803,657.5824,-0.17889404296875,0.1016845703125,0.96044921875,2.429962158203125,-3.1402587890625,1.084136962890625,1.0,1.0,1.0,1.0,1.0,100.0,event
15:39:41.143,0.75413823,0.9214291,0.7147336,0.577844,0.10018445,0.47892946,0.44028574,0.5789293,0.19280359,0.67057514,0.41358548,0.60964185,0.66520065,0.48122105,0.4845677,0.4773486,0.4906788,0.23437096,0.14221327,0.49263513,799.011,805.05493,785.31134,795.38464,846.1539,-0.17889404296875,0.1016845703125,0.96044921875,2.429962158203125,-3.1402587890625,1.084136962890625,1.0,1.0,1.0,1.0,1.0,100.0,event
15:39:41.143,0.75413823,0.9214291,0.7147336,0.577844,0.10018445,0.47892946,0.44028574,0.5789293,0.19280359,0.67057514,0.41358548,0.60964185,0.66520065,0.48122105,0.4845677,0.4773486,0.4906788,0.23437096,0.14221327,0.49263513,801.8315,804.2491,800.2198,805.05493,866.30035,-0.17889404296875,0.1016845703125,0.96044921875,2.429962158203125,-3.1402587890625,1.084136962890625,1.0,1.0,1.0,1.0,1.0,100.0,event
15:39:41.144,0.75413823,0.9214291,0.7147336,0.577844,0.10018445,0.47892946,0.44028574,0.5789293,0.19280359,0.67057514,0.41358548,0.60964185,0.66520065,0.48122105,0.4845677,0.4773486,0.4906788,0.23437096,0.14221327,0.49263513,810.293,807.0696,824.7985,807.47253,664.0293,-0.17889404296875,0.1016845703125,0.96044921875,2.429962158203125,-3.1402587890625,1.084136962890625,1.0,1.0,1.0,1.0,1.0,100.0,event
15:39:41.199,0.75413823,0.9214291,0.7147336,0.577844,0.10018445,0.47892946,0.44028574,0.5789293,0.19280359,0.67057514,0.41358548,0.60964185,0.66520065,0.48122105,0.4845677,0.4773486,0.4906788,0.23437096,0.14221327,0.49263513,815.12823,796.99634,804.65204,799.41394,706.337,-0.17889404296875,0.1016845703125,0.96044921875,2.429962158203125,-3.1402587890625,1.084136962890625,1.0,1.0,1.0,1.0,1.0,100.0,event
15:39:41.200,0.75413823,0.9214291,0.7147336,0.577844,0.10018445,0.47892946,0.44028574,0.5789293,0.19280359,0.67057514,0.41358548,0.60964185,0.66520065,0.48122105,0.4845677,0.4773486,0.4906788,0.23437096,0.14221327,0.49263513,813.5165,787.326,805.05493,803.44324,801.4286,-0.17889404296875,0.1016845703125,0.96044921875,2.429962158203125,-3.1402587890625,1.084136962890625,1.0,1.0,1.0,1.0,1.0,100.0,event
15:39:41.201,0.75413823,0.9214291,0.7147336,0.577844,0.10018445,0.47892946,0.44028574,0.5789293,0.19280359,0.67057514,0.41358548,0.60964185,0.66520065,0.48122105,0.4845677,0.4773486,0.4906788,0.23437096,0.14221327,0.49263513,809.4872,787.72894,803.8461,809.4872,785.7143,-0.17889404296875,0.1016845703125,0.96044921875,2.429962158203125,-3.1402587890625,1.084136962890625,1.0,1.0,1.0,1.0,1.0,100.0,event
15:39:41.202,0.75413823,0.9214291,0.7147336,0.577844,0.10018445,0.47892946,0.44028574,0.5789293,0.19280359,0.67057514,0.41358548,0.60964185,0.66520065,0.48122105,0.4845677,0.4773486,0.4906788,0.23437096,0.14221327,0.49263513,813.1135,792.5641,809.0842,801.02563,799.011,-0.17889404296875,0.1016845703125,0.96044921875,2.429962158203125,-3.1402587890625,1.084136962890625,1.0,1.0,1.0,1.0,1.0,100.0,event
15:39:41.202,0.75413823,0.9214291,0.7147336,0.577844,0.10018445,0.47892946,0.44028574,0.5789293,0.19280359,0.67057514,0.41358548,0.60964185,0.66520065,0.48122105,0.4845677,0.4773486,0.4906788,0.23437096,0.14221327,0.49263513,813.5165,797.8022,815.5311,801.4286,696.6667,-0.17889404296875,0.1016845703125,0.96044921875,2.429962158203125,-3.1402587890625,1.084136962890625,1.0,1.0,1.0,1.0,1.0,100.0,event
15:39:41.203,0.75413823,0.9214291,0.7147336,0.577844,0.10018445,0.47892946,0.44028574,0.5789293,0.19280359,0.67057514,0.41358548,0.60964185,0.66520065,0.48122105,0.4845677,0.4773486,0.4906788,0.23437096,0.14221327,0.49263513,805.8608,786.9231,787.72894,804.65204,949.304,-0.17889404296875,0.1016845703125,0.96044921875,2.429962158203125,-3.1402587890625,1.084136962890625,1.0,1.0,1.0,1.0,1.0,100.0,event
15:39:41.203,0.75413823,0.9214291,0.7147336,0.577844,0.10018445,0.47892946,0.44028574,0.5789293,0.19280359,0.67057514,0.41358548,0.60964185,0.66520065,0.48122105,0.4845677,0.4773486,0.4906788,0.23437096,0.14221327,0.49263513,800.6227,785.31134,807.0696,802.23444,1104.8352,-0.17889404296875,0.1016845703125,0.96044921875,2.429962158203125,-3.1402587890625,1.084136962890625,1.0,1.0,1.0,1.0,1.0,100.0,event
15:39:41.204,0.75413823,0.9214291,0.7147336,0.577844,0.10018445,0.47892946,0.44028574,0.5789293,0.19280359,0.67057514,0.41358548,0.60964185,0.66520065,0.48122105,0.4845677,0.4773486,0.4906788,0.23437096,0.14221327,0.49263513,803.0403,800.2198,830.0366,804.2491,791.75824,-0.17889404296875,0.1016845703125,0.96044921875,2.429962158203125,-3.1402587890625,1.084136962890625,1.0,1.0,1.0,1.0,1.0,100.0,event
15:39:41.204,0.75413823,0.9214291,0.7147336,0.577844,0.10018445,0.47892946,0.44028574,0.5789293,0.19280359,0.67057514,0.41358548,0.60964185,0.66520065,0.48122105,0.4845677,0.4773486,0.4906788,0.23437096,0.14221327,0.49263513,806.6667,797.3993,805.05493,805.8608,704.7253,-0.17889404296875,0.1016845703125,0.96044921875,2.429962158203125,-3.1402587890625,1.084136962890625,1.0,1.0,1.0,1.0,1.0,100.0,event
15:39:41.205,0.75413823,0.9214291,0.7147336,0.577844,0.10018445,0.47892946,0.44028574,0.5789293,0.19280359,0.67057514,0.41358548,0.60964185,0.66520065,0.48122105,0.4845677,0.4773486,0.4906788,0.23437096,0.14221327,0.49263513,801.8315,788.93774,800.6227,798.20514,793.7729,-0.17889404296875,0.1016845703125,0.96044921875,2.429962158203125,-3.1402587890625,1.084136962890625,1.0,1.0,1.0,1.0,1.0,100.0,event
15:39:41.206,0.75413823,0.9214291,0.7147336,0.577844,0.10018445,0.47892946,0.44028574,0.5789293,0.19280359,0.67057514,0.41358548,0.60964185,0.66520065,0.48122105,0.4845677,0.4773486,0.4906788,0.23437096,0.14221327,0.49263513,809.4872,800.6227,821.5751,796.99634,767.5824,-0.17889404296875,0.1016845703125,0.96044921875,2.429962158203125,-3.1402587890625,1.084136962890625,1.0,1.0,1.0,1.0,1.0,100.0,event
15:39:41.206,0.75413823,0.9214291,0.7147336,0.577844,0.10018445,0.47892946,0.44028574,0.5789293,0.19280359,0.67057514,0.41358548,0.60964185,0.66520065,0.48122105,0.4845677,0.4773486,0.4906788,0.23437096,0.14221327,0.49263513,815.5311,801.4286,820.3663,799.011,639.0476,-0.17889404296875,0.1016845703125,0.96044921875,2.429962158203125,-3.1402587890625,1.084136962890625,1.0,1.0,1.0,1.0,1.0,100.0,event
15:39:41.236,0.75413823,0.9214291,0.7147336,0.577844,0.10018445,0.47892946,0.44028574,0.5789293,0.19280359,0.67057514,0.41358548,0.60964185,0.66520065,0.48122105,0.4845677,0.4773486,0.4906788,0.23437096,0.14221327,0.49263513,806.26373,799.41394,800.2198,790.14655,747.03296,-0.17352294921875,0.10302734375,0.97174072265625,3.147735595703125,-4.20196533203125,2.250518798828125,1.0,1.0,1.0,1.0,1.0,100.0,event
15:39:41.237,0.75413823,0.9214291,0.7147336,0.577844,0.10018445,0.47892946,0.44028574,0.5789293,0.19280359,0.67057514,0.41358548,0.60964185,0.66520065,0.48122105,0.4845677,0.4773486,0.4906788,0.23437096,0.14221327,0.49263513,807.47253,802.6374,790.54944,790.14655,810.293,-0.17352294921875,0.10302734375,0.97174072265625,3.147735595703125,-4.20196533203125,2.250518798828125,1.0,1.0,1.0,1.0,1.0,100.0,event
15:39:41.237,0.75413823,0.9214291,0.7147336,0.577844,0.10018445,0.47892946,0.44028574,0.5789293,0.19280359,0.67057514,0.41358548,0.60964185,0.66520065,0.48122105,0.4845677,0.4773486,0.4906788,0.23437096,0.14221327,0.49263513,805.4579,800.2198,803.44324,798.20514,686.5934,-0.17352294921875,0.10302734375,0.97174072265625,3.147735595703125,-4.20196533203125,2.250518798828125,1.0,1.0,1.0,1.0,1.0,100.0,event
15:39:41.238,0.75413823,0.9214291,0.7147336,0.577844,0.10018445,0.47892946,0.44028574,0.5789293,0.19280359,0.67057514,0.41358548,0.60964185,0.66520065,0.48122105,0.4845677,0.4773486,0.4906788,0.23437096,0.14221327,0.49263513,802.6374,800.2198,798.60803,797.8022,655.9707,-0.17352294921875,0.10302734375,0.97174072265625,3.147735595703125,-4.20196533203125,2.250518798828125,1.0,1.0,1.0,1.0,1.0,100.0,event
15:39:41.239,0.75413823,0.9214291,0.7147336,0.577844,0.10018445,0.47892946,0.44028574,0.5789293,0.19280359,0.67057514,0.41358548,0.60964185,0.66520065,0.48122105,0.4845677,0.4773486,0.4906788,0.23437096,0.14221327,0.49263513,813.5165,797.3993,784.90845,796.99634,788.93774,-0.17352294921875,0.10302734375,0.97174072265625,3.147735595703125,-4.20196533203125,2.250518798828125,1.0,1.0,1.0,1.0,1.0,100.0,event
15:39:41.239,0.75413823,0.9214291,0.7147336,0.577844,0.10018445,0.47892946,0.44028574,0.5789293,0.19280359,0.67057514,0.41358548,0.60964185,0.66520065,0.48122105,0.4845677,0.4773486,0.4906788,0.23437096,0.14221327,0.49263513,815.12823,788.5348,792.1612,803.0403,904.17584,-0.17352294921875,0.10302734375,0.97174072265625,3.147735595703125,-4.20196533203125,2.250518798828125,1.0,1.0,1.0,1.0,1.0,100.0,event
15:39:41.241,0.75413823,0.9214291,0.7147336,0.577844,0.10018445,0.47892946,0.44028574,0.5789293,0.19280359,0.67057514,0.41358548,0.60964185,0.66520065,0.48122105,0.4845677,0.4773486,0.4906788,0.23437096,0.14221327,0.49263513,805.05493,790.54944,799.41394,805.4579,891.685,-0.17352294921875,0.10302734375,0.97174072265625,3.147735595703125,-4.20196533203125,2.250518798828125,1.0,1.0,1.0,1.0,1.0,100.0,event
15:39:41.242,0.75413823,0.93144643,0.76574653,0.577844,0.10018445,0.4550723,0.4668358,0.5789293,0.19280359,0.66634387,0.37183678,0.60964185,0.66520065,0.47277838,0.48726252,0.4773486,0.4906788,0.25057867,0.10435434,0.49263513,806.26373,795.78754,792.5641,802.6374,924.3223,-0.17352294921875,0.10302734375,0.97174072265625,3.147735595703125,-4.20196533203125,2.250518798828125,1.0,1.0,1.0,1.0,1.0,100.0,event
15:39:41.245,0.75413823,0.93144643,0.76574653,0.577844,0.10018445,0.4550723,0.4668358,0.5789293,0.19280359,0.66634387,0.37183678,0.60964185,0.66520065,0.47277838,0.48726252,0.4773486,0.4906788,0.25057867,0.10435434,0.49263513,805.4579,790.9524,773.22345,796.99634,963.00366,-0.17352294921875,0.10302734375,0.97174072265625,3.147735595703125,-4.20196533203125,2.250518798828125,1.0,1.0,1.0,1.0,1.0,100.0,event
15:39:41.246,0.75413823,0.93144643,0.76574653,0.577844,0.10018445,0.4550723,0.4668358,0.5789293,0.19280359,0.66634387,0.37183678,0.60964185,0.66520065,0.47277838,0.48726252,0.4773486,0.4906788,0.25057867,0.10435434,0.49263513,801.02563,782.8938,780.87915,795.38464,1073.4066,-0.17352294921875,0.10302734375,0.97174072265625,3.147735595703125,-4.20196533203125,2.250518798828125,1.0,1.0,1.0,1.0,1.0,100.0,event
15:39:41.247,0.75413823,0.93144643,0.76574653,0.577844,0.10018445,0.4550723,0.4668358,0.5789293,0.19280359,0.66634387,0.37183678,0.60964185,0.66520065,0.47277838,0.48726252,0.4773486,0.4906788,0.25057867,0.10435434,0.49263513,802.6374,801.4286,788.93774,801.4286,663.6264,-0.17352294921875,0.10302734375,0.97174072265625,3.147735595703125,-4.20196533203125,2.250518798828125,1.0,1.0,1.0,1.0,1.0,100.0,event
15:39:41.247,0.75413823,0.93144643,0.76574653,0.577844,0.10018445,0.4550723,0.4668358,0.5789293,0.19280359,0.66634387,0.37183678,0.60964185,0.66520065,0.47277838,0.48726252,0.4773486,0.4906788,0.25057867,0.10435434,0.49263513,805.05493,792.96704,813.1135,804.2491,889.2674,-0.17352294921875,0.10302734375,0.97174072265625,3.147735595703125,-4.20196533203125,2.250518798828125,1.0,1.0,1.0,1.0,1.0,100.0,event
15:39:41.268,0.75413823,0.93144643,0.76574653,0.577844,0.10018445,0.4550723,0.4668358,0.5789293,0.19280359,0.66634387,0.37183678,0.60964185,0.66520065,0.47277838,0.48726252,0.4773486,0.4906788,0.25057867,0.10435434,0.49263513,798.20514,796.1905,780.87915,797.3993,672.0879,-0.17596435546875,0.1090087890625,0.96026611328125,3.252410888671875,-4.20196533203125,1.83929443359375,1.0,1.0,1.0,1.0,1.0,100.0,event
15:39:41.269,0.75413823,0.93144643,0.76574653,0.577844,0.10018445,0.4550723,0.4668358,0.5789293,0.19280359,0.66634387,0.37183678,0.60964185,0.66520065,0.47277838,0.48726252,0.4773486,0.4906788,0.25057867,0.10435434,0.49263513,792.1612,796.5934,796.5934,796.5934,678.93774,-0.17596435546875,0.1090087890625,0.96026611328125,3.252410888671875,-4.20196533203125,1.83929443359375,1.0,1.0,1.0,1.0,1.0,100.0,event
15:39:41.271,0.75413823,0.93144643,0.76574653,0.577844,0.10018445,0.4550723,0.4668358,0.5789293,0.19280359,0.66634387,0.37183678,0.60964185,0.66520065,0.47277838,0.48726252,0.4773486,0.4906788,0.25057867,0.10435434,0.49263513,793.7729,797.8022,788.93774,796.99634,693.44324,-0.17596435546875,0.1090087890625,0.96026611328125,3.252410888671875,-4.20196533203125,1.83929443359375,1.0,1.0,1.0,1.0,1.0,100.0,event
15:39:41.271,0.75413823,0.93144643,0.76574653,0.577844,0.10018445,0.4550723,0.4668358,0.5789293,0.19280359,0.66634387,0.37183678,0.60964185,0.66520065,0.47277838,0.48726252,0.4773486,0.4906788,0.25057867,0.10435434,0.49263513,800.6227,793.7729,778.46155,800.2198,699.89014,-0.17596435546875,0.1090087890625,0.96026611328125,3.252410888671875,-4.20196533203125,1.83929443359375,1.0,1.0,1.0,1.0,1.0,100.0,event
15:39:41.272,0.75413823,0.93144643,0.76574653,0.577844,0.10018445,0.4550723,0.4668358,0.5789293,0.19280359,0.66634387,0.37183678,0.60964185,0.66520065,0.47277838,0.48726252,0.4773486,0.4906788,0.25057867,0.10435434,0.49263513,810.696,797.3993,783.2967,804.2491,778.0586,-0.17596435546875,0.1090087890625,0.96026611328125,3.252410888671875,-4.20196533203125,1.83929443359375,1.0,1.0,1.0,1.0,1.0,100.0,event
15:39:41.272,0.75413823,0.93144643,0.76574653,0.577844,0.10018445,0.4550723,0.4668358,0.5789293,0.19280359,0.66634387,0.37183678,0.60964185,0.66520065,0.47277838,0.48726252,0.4773486,0.4906788,0.25057867,0.10435434,0.49263513,806.26373,792.96704,789.7436,796.99634,835.6777,-0.17596435546875,0.1090087890625,0.96026611328125,3.252410888671875,-4.20196533203125,1.83929443359375,1.0,1.0,1.0,1.0,1.0,100.0,event
15:39:41.273,0.75413823,0.93144643,0.76574653,0.577844,0.10018445,0.4550723,0.4668358,0.5789293,0.19280359,0.66634387,0.37183678,0.60964185,0.66520065,0.47277838,0.48726252,0.4773486,0.4906788,0.25057867,0.10435434,0.49263513,792.96704,791.75824,800.2198,786.1172,812.3077,-0.17596435546875,0.1090087890625,0.96026611328125,3.252410888671875,-4.20196533203125,1.83929443359375,1.0,1.0,1.0,1.0,1.0,100.0,event
15:39:41.273,0.75413823,0.93144643,0.76574653,0.577844,0.10018445,0.4550723,0.4668358,0.5789293,0.19280359,0.66634387,0.37183678,0.60964185,0.66520065,0.47277838,0.48726252,0.4773486,0.4906788,0.25057867,0.10435434,0.49263513,796.5934,799.41394,803.0403,782.0879,703.1135,-0.17596435546875,0.1090087890625,0.96026611328125,3.252410888671875,-4.20196533203125,1.83929443359375,1.0,1.0,1.0,1.0,1.0,100.0,event
15:39:41.274,0.75413823,0.93144643,0.76574653,0.577844,0.10018445,0.4550723,0.4668358,0.5789293,0.19280359,0.66634387,0.37183678,0.60964185,0.66520065,0.47277838,0.48726252,0.4773486,0.4906788,0.25057867,0.10435434,0.49263513,795.78754,797.8022,809.0842,798.20514,1030.2931,-0.17596435546875,0.1090087890625,0.96026611328125,3.252410888671875,-4.20196533203125,1.83929443359375,1.0,1.0,1.0,1.0,1.0,100.0,event
15:39:41.274,0.75413823,0.93144643,0.76574653,0.577844,0.10018445,0.4550723,0.4668358,0.5789293,0.19280359,0.66634387,0.37183678,0.60964185,0.66520065,0.47277838,0.48726252,0.4773486,0.4906788,0.25057867,0.10435434,0.49263513,798.20514,793.7729,786.9231,788.1319,917.8755,-0.17596435546875,0.1090087890625,0.96026611328125,3.252410888671875,-4.20196533203125,1.83929443359375,1.0,1.0,1.0,1.0,1.0,100.0,event
15:39:41.275,0.75413823,0.93144643,0.76574653,0.577844,0.10018445,0.4550723,0.4668358,0.5789293,0.19280359,0.66634387,0.37183678,0.60964185,0.66520065,0.47277838,0.48726252,0.4773486,0.4906788,0.25057867,0.10435434,0.49263513,794.57874,807.0696,823.5897,792.96704,737.76556,-0.17596435546875,0.1090087890625,0.96026611328125,3.252410888671875,-4.20196533203125,1.83929443359375,1.0,1.0,1.0,1.0,1.0,100.0,event
15:39:41.275,0.75413823,0.93144643,0.76574653,0.577844,0.10018445,0.4550723,0.4668358,0.5789293,0.19280359,0.66634387,0.37183678,0.60964185,0.66520065,0.47277838,0.48726252,0.4773486,0.4906788,0.25057867,0.10435434,0.49263513,794.9817,799.011,794.9817,788.5348,725.2747,-0.17596435546875,0.1090087890625,0.96026611328125,3.252410888671875,-4.20196533203125,1.83929443359375,1.0,1.0,1.0,1.0,1.0,100.0,event
15:39:41.364,0.75413823,0.93144643,0.76574653,0.577844,0.10018445,0.4550723,0.4668358,0.5789293,0.19280359,0.66634387,0.37183678,0.60964185,0.66520065,0.47277838,0.48726252,0.4773486,0.4906788,0.25057867,0.10435434,0.49263513,819.9634,813.1135,783.69965,802.6374,819.5604,-0.18084716796875,0.11279296875,0.9737548828125,2.8411865234375,-3.835601806640625,0.28411865234375,1.0,1.0,1.0,1.0,1.0,100.0,event
15:39:41.365,0.75413823,0.93144643,0.76574653,0.577844,0.10018445,0.4550723,0.4668358,0.5789293,0.19280359,0.66634387,0.37183678,0.60964185,0.66520065,0.47277838,0.48726252,0.4773486,0.4906788,0.25057867,0.10435434,0.49263513,841.31866,819.5604,806.26373,819.15753,763.95605,-0.18084716796875,0.11279296875,0.9737548828125,2.8411865234375,-3.835601806640625,0.28411865234375,1.0,1.0,1.0,1.0,1.0,100.0,event
15:39:41.366,0.75413823,0.93144643,0.76574653,0.577844,0.10018445,0.4550723,0.4668358,0.5789293,0.19280359,0.66634387,0.37183678,0.60964185,0.66520065,0.47277838,0.48726252,0.4773486,0.4906788,0.25057867,0.10435434,0.49263513,809.4872,800.2198,811.9048,796.5934,732.9304,-0.18084716796875,0.11279296875,0.9737548828125,2.8411865234375,-3.835601806640625,0.28411865234375,1.0,1.0,1.0,1.0,1.0,100.0,event
15:39:41.367,0.75413823,0.93144643,0.76574653,0.577844,0.10018445,0.4550723,0.4668358,0.5789293,0.19280359,0.66634387,0.37183678,0.60964185,0.66520065,0.47277838,0.48726252,0.4773486,0.4906788,0.25057867,0.10435434,0.49263513,776.04395,791.75824,802.6374,770.40295,790.9524,-0.18084716796875,0.11279296875,0.9737548828125,2.8411865234375,-3.835601806640625,0.28411865234375,1.0,1.0,1.0,1.0,1.0,100.0,event
15:39:41.367,0.75413823,0.93144643,0.76574653,0.577844,0.10018445,0.4550723,0.4668358,0.5789293,0.19280359,0.66634387,0.37183678,0.60964185,0.66520065,0.47277838,0.48726252,0.4773486,0.4906788,0.25057867,0.10435434,0.49263513,773.22345,784.10254,806.26373,776.8498,810.293,-0.18084716796875,0.11279296875,0.9737548828125,2.8411865234375,-3.835601806640625,0.28411865234375,1.0,1.0,1.0,1.0,1.0,100.0,event
15:39:41.368,0.75413823,0.93144643,0.76574653,0.577844,0.10018445,0.4550723,0.4668358,0.5789293,0.19280359,0.66634387,0.37183678,0.60964185,0.66520065,0.47277838,0.48726252,0.4773486,0.4906788,0.25057867,0.10435434,0.49263513,784.90845,789.7436,812.3077,794.17584,917.0696,-0.18084716796875,0.11279296875,0.9737548828125,2.8411865234375,-3.835601806640625,0.28411865234375,1.0,1.0,1.0,1.0,1.0,100.0,event
15:39:41.368,0.75413823,0.93144643,0.76574653,0.577844,0.10018445,0.4550723,0.4668358,0.5789293,0.19280359,0.66634387,0.37183678,0.60964185,0.66520065,0.47277838,0.48726252,0.4773486,0.4906788,0.25057867,0.10435434,0.49263513,778.0586,779.2674,812.3077,786.9231,875.9707,-0.18084716796875,0.11279296875,0.9737548828125,2.8411865234375,-3.835601806640625,0.28411865234375,1.0,1.0,1.0,1.0,1.0,100.0,event
15:39:41.369,0.75413823,0.93144643,0.76574653,0.577844,0.10018445,0.4550723,0.4668358,0.5789293,0.19280359,0.66634387,0.37183678,0.60964185,0.66520065,0.47277838,0.48726252,0.4773486,0.4906788,0.25057867,0.10435434,0.49263513,788.5348,793.7729,789.7436,797.8022,911.8315,-0.18084716796875,0.11279296875,0.9737548828125,2.8411865234375,-3.835601806640625,0.28411865234375,1.0,1.0,1.0,1.0,1.0,100.0,event
15:39:41.370,0.75413823,0.93144643,0.76574653,0.577844,0.10018445,0.4550723,0.4668358,0.5789293,0.19280359,0.66634387,0.37183678,0.60964185,0.66520065,0.47277838,0.48726252,0.4773486,0.4906788,0.25057867,0.10435434,0.49263513,794.57874,789.7436,798.20514,795.78754,990.40295,-0.18084716796875,0.11279296875,0.9737548828125,2.8411865234375,-3.835601806640625,0.28411865234375,1.0,1.0,1.0,1.0,1.0,100.0,event
15:39:41.370,0.75413823,0.93367624,0.76574653,0.577844,0.10018445,0.4842136,0.4668358,0.5789293,0.19280359,0.5942807,0.37183678,0.60964185,0.66520065,0.47161692,0.48726252,0.4773486,0.4906788,0.26905817,0.10435434,0.49263513,796.99634,795.78754,821.978,781.28204,799.011,-0.18084716796875,0.11279296875,0.9737548828125,2.8411865234375,-3.835601806640625,0.28411865234375,1.0,1.0,1.0,1.0,1.0,100.0,event
15:39:41.374,0.75413823,0.93367624,0.76574653,0.577844,0.10018445,0.4842136,0.4668358,0.5789293,0.19280359,0.5942807,0.37183678,0.60964185,0.66520065,0.47161692,0.48726252,0.4773486,0.4906788,0.26905817,0.10435434,0.49263513,798.60803,798.60803,804.65204,786.9231,650.7326,-0.18084716796875,0.11279296875,0.9737548828125,2.8411865234375,-3.835601806640625,0.28411865234375,1.0,1.0,1.0,1.0,1.0,100.0,event
15:39:41.375,0.75413823,0.93367624,0.76574653,0.577844,0.10018445,0.4842136,0.4668358,0.5789293,0.19280359,0.5942807,0.37183678,0.60964185,0.66520065,0.47161692,0.48726252,0.4773486,0.4906788,0.26905817,0.10435434,0.49263513,797.8022,799.41394,808.68134,799.81683,730.5128,-0.18084716796875,0.11279296875,0.9737548828125,2.8411865234375,-3.835601806640625,0.28411865234375,1.0,1.0,1.0,1.0,1.0,100.0,event
15:39:41.400,0.75413823,0.93367624,0.76574653,0.577844,0.10018445,0.4842136,0.4668358,0.5789293,0.19280359,0.5942807,0.37183678,0.60964185,0.66520065,0.47161692,0.48726252,0.4773486,0.4906788,0.26905817,0.10435434,0.49263513,796.99634,801.02563,814.3223,800.2198,783.69965,-0.169921875,0.10845947265625,0.96929931640625,1.293487548828125,-5.12908935546875,-0.964508056640625,1.0,1.0,1.0,1.0,1.0,100.0,event
15:39:41.401,0.75413823,0.93367624,0.76574653,0.577844,0.10018445,0.4842136,0.4668358,0.5789293,0.19280359,0.5942807,0.37183678,0.60964185,0.66520065,0.47161692,0.48726252,0.4773486,0.4906788,0.26905817,0.10435434,0.49263513,797.8022,807.0696,792.5641,794.17584,672.0879,-0.169921875,0.10845947265625,0.96929931640625,1.293487548828125,-5.12908935546875,-0.964508056640625,1.0,1.0,1.0,1.0,1.0,100.0,event
15:39:41.401,0.75413823,0.93367624,0.76574653,0.577844,0.10018445,0.4842136,0.4668358,0.5789293,0.19280359,0.5942807,0.37183678,0.60964185,0.66520065,0.47161692,0.48726252,0.4773486,0.4906788,0.26905817,0.10435434,0.49263513,798.60803,808.68134,807.8755,800.2198,721.6484,-0.169921875,0.10845947265625,0.96929931640625,1.293487548828125,-5.12908935546875,-0.964508056640625,1.0,1.0,1.0,1.0,1.0,100.0,event
15:39:41.402,0.75413823,0.93367624,0.76574653,0.577844,0.10018445,0.4842136,0.4668358,0.5789293,0.19280359,0.5942807,0.37183678,0.60964185,0.66520065,0.47161692,0.48726252,0.4773486,0.4906788,0.26905817,0.10435434,0.49263513,791.3553,795.38464,802.23444,786.52014,775.64105,-0.169921875,0.10845947265625,0.96929931640625,1.293487548828125,-5.12908935546875,-0.964508056640625,1.0,1.0,1.0,1.0,1.0,100.0,event
15:39:41.403,0.75413823,0.93367624,0.76574653,0.577844,0.10018445,0.4842136,0.4668358,0.5789293,0.19280359,0.5942807,0.37183678,0.60964185,0.66520065,0.47161692,0.48726252,0.4773486,0.4906788,0.26905817,0.10435434,0.49263513,788.5348,794.9817,814.3223,797.8022,774.43225,-0.169921875,0.10845947265625,0.96929931640625,1.293487548828125,-5.12908935546875,-0.964508056640625,1.0,1.0,1.0,1.0,1.0,100.0,event
15:39:41.403,0.75413823,0.93367624,0.76574653,0.577844,0.10018445,0.4842136,0.4668358,0.5789293,0.19280359,0.5942807,0.37183678,0.60964185,0.66520065,0.47161692,0.48726252,0.4773486,0.4906788,0.26905817,0.10435434,0.49263513,798.60803,800.2198,796.5934,800.6227,802.6374,-0.169921875,0.10845947265625,0.96929931640625,1.293487548828125,-5.12908935546875,-0.964508056640625,1.0,1.0,1.0,1.0,1.0,100.0,event
15:39:41.404,0.75413823,0.93367624,0.76574653,0.577844,0.10018445,0.4842136,0.4668358,0.5789293,0.19280359,0.5942807,0.37183678,0.60964185,0.66520065,0.47161692,0.48726252,0.4773486,0.4906788,0.26905817,0.10435434,0.49263513,799.81683,803.44324,792.1612,788.93774,898.5348,-0.169921875,0.10845947265625,0.96929931640625,1.293487548828125,-5.12908935546875,-0.964508056640625,1.0,1.0,1.0,1.0,1.0,100.0,event
15:39:41.404,0.75413823,0.93367624,0.76574653,0.577844,0.10018445,0.4842136,0.4668358,0.5789293,0.19280359,0.5942807,0.37183678,0.60964185,0.66520065,0.47161692,0.48726252,0.4773486,0.4906788,0.26905817,0.10435434,0.49263513,801.8315,796.99634,782.8938,790.14655,1035.9341,-0.169921875,0.10845947265625,0.96929931640625,1.293487548828125,-5.12908935546875,-0.964508056640625,1.0,1.0,1.0,1.0,1.0,100.0,event
15:39:41.405,0.75413823,0.93367624,0.76574653,0.577844,0.10018445,0.4842136,0.4668358,0.5789293,0.19280359,0.5942807,0.37183678,0.60964185,0.66520065,0.47161692,0.48726252,0.4773486,0.4906788,0.26905817,0.10435434,0.49263513,802.23444,799.011,807.47253,796.1905,945.6777,-0.169921875,0.10845947265625,0.96929931640625,1.293487548828125,-5.12908935546875,-0.964508056640625,1.0,1.0,1.0,1.0,1.0,100.0,event
15:39:41.406,0.75413823,0.93367624,0.76574653,0.577844,0.10018445,0.4842136,0.4668358,0.5789293,0.19280359,0.5942807,0.37183678,0.60964185,0.66520065,0.47161692,0.48726252,0.4773486,0.4906788,0.26905817,0.10435434,0.49263513,802.6374,809.4872,818.3516,798.60803,684.57874,-0.169921875,0.10845947265625,0.96929931640625,1.293487548828125,-5.12908935546875,-0.964508056640625,1.0,1.0,1.0,1.0,1.0,100.0,event
15:39:41.406,0.75413823,0.93367624,0.76574653,0.577844,0.10018445,0.4842136,0.4668358,0.5789293,0.19280359,0.5942807,0.37183678,0.60964185,0.66520065,0.47161692,0.48726252,0.4773486,0.4906788,0.26905817,0.10435434,0.49263513,809.89014,801.4286,790.9524,799.41394,794.9817,-0.169921875,0.10845947265625,0.96929931640625,1.293487548828125,-5.12908935546875,-0.964508056640625,1.0,1.0,1.0,1.0,1.0,100.0,event
15:39:41.407,0.75413823,0.93367624,0.76574653,0.577844,0.10018445,0.4842136,0.4668358,0.5789293,0.19280359,0.5942807,0.37183678,0.60964185,0.66520065,0.47161692,0.48726252,0.4773486,0.4906788,0.26905817,0.10435434,0.49263513,804.65204,795.38464,789.7436,794.57874,878.7912,-0.169921875,0.10845947265625,0.96929931640625,1.293487548828125,-5.12908935546875,-0.964508056640625,1.0,1.0,1.0,1.0,1.0,100.0,event
15:39:41.408,0.75413823,0.93367624,0.76574653,0.577844,0.10018445,0.4842136,0.4668358,0.5789293,0.19280359,0.5942807,0.37183678,0.60964185,0.66520065,0.47161692,0.48726252,0.4773486,0.4906788,0.26905817,0.10435434,0.49263513,802.23444,800.6227,806.6667,785.31134,788.93774,-0.169921875,0.10845947265625,0.96929931640625,1.293487548828125,-5.12908935546875,-0.964508056640625,1.0,1.0,1.0,1.0,1.0,100.0,event
15:39:41.408,0.75413823,0.93367624,0.76574653,0.577844,0.10018445,0.4842136,0.4668358,0.5789293,0.19280359,0.5942807,0.37183678,0.60964185,0.66520065,0.47161692,0.48726252,0.4773486,0.4906788,0.26905817,0.10435434,0.49263513,808.2784,797.3993,807.8755,794.9817,773.6264,-0.169921875,0.10845947265625,0.96929931640625,1.293487548828125,-5.12908935546875,-0.964508056640625,1.0,1.0,1.0,1.0,1.0,100.0,event
15:39:41.409,0.75413823,0.93367624,0.76574653,0.577844,0.10018445,0.4842136,0.4668358,0.5789293,0.19280359,0.5942807,0.37183678,0.60964185,0.66520065,0.47161692,0.48726252,0.4773486,0.4906788,0.26905817,0.10435434,0.49263513,808.2784,790.54944,798.20514,811.0989,794.57874,-0.169921875,0.10845947265625,0.96929931640625,1.293487548828125,-5.12908935546875,-0.964508056640625,1.0,1.0,1.0,1.0,1.0,100.0,event
15:39:41.410,0.75413823,0.93367624,0.76574653,0.577844,0.10018445,0.4842136,0.4668358,0.5789293,0.19280359,0.5942807,0.37183678,0.60964185,0.66520065,0.47161692,0.48726252,0.4773486,0.4906788,0.26905817,0.10435434,0.49263513,800.6227,782.49084,802.23444,801.8315,921.9048,-0.169921875,0.10845947265625,0.96929931640625,1.293487548828125,-5.12908935546875,-0.964508056640625,1.0,1.0,1.0,1.0,1.0,100.0,event
15:39:41.411,0.75413823,0.93367624,0.76574653,0.577844,0.10018445,0.4842136,0.4668358,0.5789293,0.19280359,0.5942807,0.37183678,0.60964185,0.66520065,0.47161692,0.48726252,0.4773486,0.4906788,0.26905817,0.10435434,0.49263513,799.41394,787.326,794.9817,807.0696,782.49084,-0.169921875,0.10845947265625,0.96929931640625,1.293487548828125,-5.12908935546875,-0.964508056640625,1.0,1.0,1.0,1.0,1.0,100.0,event
15:39:41.411,0.75413823,0.93367624,0.76574653,0.577844,0.10018445,0.4842136,0.4668358,0.5789293,0.19280359,0.5942807,0.37183678,0.60964185,0.66520065,0.47161692,0.48726252,0.4773486,0.4906788,0.26905817,0.10435434,0.49263513,800.6227,784.5055,800.6227,802.6374,894.10254,-0.169921875,0.10845947265625,0.96929931640625,1.293487548828125,-5.12908935546875,-0.964508056640625,1.0,1.0,1.0,1.0,1.0,100.0,event
15:39:41.412,0.75413823,0.93367624,0.76574653,0.577844,0.10018445,0.4842136,0.4668358,0.5789293,0.19280359,0.5942807,0.37183678,0.60964185,0.66520065,0.47161692,0.48726252,0.4773486,0.4906788,0.26905817,0.10435434,0.49263513,790.9524,786.1172,786.1172,796.99634,925.12823,-0.169921875,0.10845947265625,0.96929931640625,1.293487548828125,-5.12908935546875,-0.964508056640625,1.0,1.0,1.0,1.0,1.0,100.0,event
15:39:41.413,0.75413823,0.93367624,0.76574653,0.577844,0.10018445,0.4842136,0.4668358,0.5789293,0.19280359,0.5942807,0.37183678,0.60964185,0.66520065,0.47161692,0.48726252,0.4773486,0.4906788,0.26905817,0.10435434,0.49263513,792.5641,780.07324,788.5348,798.60803,1077.4359,-0.169921875,0.10845947265625,0.96929931640625,1.293487548828125,-5.12908935546875,-0.964508056640625,1.0,1.0,1.0,1.0,1.0,100.0,event
15:39:41.413,0.75413823,0.93367624,0.76574653,0.577844,0.10018445,0.4842136,0.4668358,0.5789293,0.19280359,0.5942807,0.37183678,0.60964185,0.66520065,0.47161692,0.48726252,0.4773486,0.4906788,0.26905817,0.10435434,0.49263513,797.3993,780.4762,831.6484,800.2198,882.01465,-0.169921875,0.10845947265625,0.96929931640625,1.293487548828125,-5.12908935546875,-0.964508056640625,1.0,1.0,1.0,1.0,1.0,100.0,event
15:39:41.414,0.75413823,0.93367624,0.76574653,0.577844,0.10018445,0.4842136,0.4668358,0.5789293,0.19280359,0.5942807,0.37183678,0.60964185,0.66520065,0.47161692,0.48726252,0.4773486,0.4906788,0.26905817,0.10435434,0.49263513,796.5934,785.7143,814.3223,800.2198,722.0513,-0.169921875,0.10845947265625,0.96929931640625,1.293487548828125,-5.12908935546875,-0.964508056640625,1.0,1.0,1.0,1.0,1.0,100.0,event
15:39:41.415,0.75413823,0.93367624,0.76574653,0.577844,0.10018445,0.4842136,0.4668358,0.5789293,0.19280359,0.5942807,0.37183678,0.60964185,0.66520065,0.47161692,0.48726252,0.4773486,0.4906788,0.26905817,0.10435434,0.49263513,803.44324,781.685,801.4286,800.6227,753.8828,-0.169921875,0.10845947265625,0.96929931640625,1.293487548828125,-5.12908935546875,-0.964508056640625,1.0,1.0,1.0,1.0,1.0,100.0,event
15:39:41.415,0.75413823,0.93367624,0.76574653,0.577844,0.10018445,0.4842136,0.4668358,0.5789293,0.19280359,0.5942807,0.37183678,0.60964185,0.66520065,0.47161692,0.48726252,0.4773486,0.4906788,0.26905817,0.10435434,0.49263513,811.0989,786.52014,821.5751,796.1905,737.3626,-0.169921875,0.10845947265625,0.96929931640625,1.293487548828125,-5.12908935546875,-0.964508056640625,1.0,1.0,1.0,1.0,1.0,100.0,event
15:39:41.483,0.75413823,0.93367624,0.76574653,0.577844,0.10018445,0.4842136,0.4668358,0.5789293,0.19280359,0.5942807,0.37183678,0.60964185,0.66520065,0.47161692,0.48726252,0.4773486,0.4906788,0.26905817,0.10435434,0.49263513,803.8461,794.57874,821.978,798.20514,705.5311,-0.16961669921875,0.10223388671875,0.9608154296875,1.323394775390625,-3.327178955078125,-1.62994384765625,1.0,1.0,1.0,1.0,1.0,100.0,event
15:39:41.484,0.75413823,0.93367624,0.76574653,0.577844,0.10018445,0.4842136,0.4668358,0.5789293,0.19280359,0.5942807,0.37183678,0.60964185,0.66520065,0.47161692,0.48726252,0.4773486,0.4906788,0.26905817,0.10435434,0.49263513,812.3077,796.99634,811.9048,792.96704,802.6374,-0.16961669921875,0.10223388671875,0.9608154296875,1.323394775390625,-3.327178955078125,-1.62994384765625,1.0,1.0,1.0,1.0,1.0,100.0,event
15:39:41.484,0.75413823,0.93367624,0.76574653,0.577844,0.10018445,0.4842136,0.4668358,0.5789293,0.19280359,0.5942807,0.37183678,0.60964185,0.66520065,0.47161692,0.48726252,0.4773486,0.4906788,0.26905817,0.10435434,0.49263513,809.89014,799.41394,811.9048,805.8608,835.6777,-0.16961669921875,0.10223388671875,0.9608154296875,1.323394775390625,-3.327178955078125,-1.62994384765625,1.0,1.0,1.0,1.0,1.0,100.0,event
15:39:41.484,0.75413823,0.93367624,0.76574653,0.577844,0.10018445,0.4842136,0.4668358,0.5789293,0.19280359,0.5942807,0.37183678,0.60964185,0.66520065,0.47161692,0.48726252,0.4773486,0.4906788,0.26905817,0.10435434,0.49263513,801.4286,797.8022,814.3223,803.8461,744.61536,-0.16961669921875,0.10223388671875,0.9608154296875,1.323394775390625,-3.327178955078125,-1.62994384765625,1.0,1.0,1.0,1.0,1.0,100.0,event
15:39:41.485,0.75413823,0.93367624,0.76574653,0.577844,0.10018445,0.4842136,0.4668358,0.5789293,0.19280359,0.5942807,0.37183678,0.60964185,0.66520065,0.47161692,0.48726252,0.4773486,0.4906788,0.26905817,0.10435434,0.49263513,805.05493,800.2198,807.8755,784.5055,712.7839,-0.16961669921875,0.10223388671875,0.9608154296875,1.323394775390625,-3.327178955078125,-1.62994384765625,1.0,1.0,1.0,1.0,1.0,100.0,event
15:39:41.485,0.75413823,0.93367624,0.76574653,0.577844,0.10018445,0.4842136,0.4668358,0.5789293,0.19280359,0.5942807,0.37183678,0.60964185,0.66520065,0.47161692,0.48726252,0.4773486,0.4906788,0.26905817,0.10435434,0.49263513,796.1905,799.011,813.1135,784.90845,832.8571,-0.16961669921875,0.10223388671875,0.9608154296875,1.323394775390625,-3.327178955078125,-1.62994384765625,1.0,1.0,1.0,1.0,1.0,100.0,event
15:39:41.485,0.75413823,0.93367624,0.76574653,0.577844,0.10018445,0.4842136,0.4668358,0.5789293,0.19280359,0.5942807,0.37183678,0.60964185,0.66520065,0.47161692,0.48726252,0.4773486,0.4906788,0.26905817,0.10435434,0.49263513,804.65204,786.52014,803.44324,789.7436,1100.403,-0.16961669921875,0.10223388671875,0.9608154296875,1.323394775390625,-3.327178955078125,-1.62994384765625,1.0,1.0,1.0,1.0,1.0,100.0,event
15:39:41.486,0.75413823,0.93367624,0.76574653,0.577844,0.10018445,0.4842136,0.4668358,0.5789293,0.19280359,0.5942807,0.37183678,0.60964185,0.66520065,0.47161692,0.48726252,0.4773486,0.4906788,0.26905817,0.10435434,0.49263513,800.2198,785.31134,819.5604,790.54944,1032.3077,-0.16961669921875,0.10223388671875,0.9608154296875,1.323394775390625,-3.327178955078125,-1.62994384765625,1.0,1.0,1.0,1.0,1.0,100.0,event
15:39:41.486,0.75413823,0.93367624,0.76574653,0.577844,0.10018445,0.4842136,0.4668358,0.5789293,0.19280359,0.5942807,0.37183678,0.60964185,0.66520065,0.47161692,0.48726252,0.4773486,0.4906788,0.26905817,0.10435434,0.49263513,790.9524,796.5934,836.4835,785.31134,693.44324,-0.16961669921875,0.10223388671875,0.9608154296875,1.323394775390625,-3.327178955078125,-1.62994384765625,1.0,1.0,1.0,1.0,1.0,100.0,event
15:39:41.487,0.75413823,0.93367624,0.76574653,0.577844,0.10018445,0.4842136,0.4668358,0.5789293,0.19280359,0.5942807,0.37183678,0.60964185,0.66520065,0.47161692,0.48726252,0.4773486,0.4906788,0.26905817,0.10435434,0.49263513,796.99634,794.9817,811.9048,800.2198,662.01465,-0.16961669921875,0.10223388671875,0.9608154296875,1.323394775390625,-3.327178955078125,-1.62994384765625,1.0,1.0,1.0,1.0,1.0,100.0,event
15:39:41.487,0.75413823,0.93367624,0.76574653,0.577844,0.10018445,0.4842136,0.4668358,0.5789293,0.19280359,0.5942807,0.37183678,0.60964185,0.66520065,0.47161692,0.48726252,0.4773486,0.4906788,0.26905817,0.10435434,0.49263513,803.0403,784.5055,812.71063,817.9487,786.9231,-0.16961669921875,0.10223388671875,0.9608154296875,1.323394775390625,-3.327178955078125,-1.62994384765625,1.0,1.0,1.0,1.0,1.0,100.0,event
15:39:41.487,0.75413823,0.93367624,0.76574653,0.577844,0.10018445,0.4842136,0.4668358,0.5789293,0.19280359,0.5942807,0.37183678,0.60964185,0.66520065,0.47161692,0.48726252,0.4773486,0.4906788,0.26905817,0.10435434,0.49263513,800.6227,801.4286,827.2161,809.0842,709.15753,-0.16961669921875,0.10223388671875,0.9608154296875,1.323394775390625,-3.327178955078125,-1.62994384765625,1.0,1.0,1.0,1.0,1.0,100.0,event
15:39:41.552,0.75413823,0.93367624,0.76574653,0.577844,0.10018445,0.4842136,0.4668358,0.5789293,0.19280359,0.5942807,0.37183678,0.60964185,0.66520065,0.47161692,0.48726252,0.4773486,0.4906788,0.26905817,0.10435434,0.49263513,781.685,821.978,817.5458,776.4469,653.5531,-0.17193603515625,0.10504150390625,0.9716796875,1.68975830078125,-3.745880126953125,-1.368255615234375,1.0,1.0,1.0,1.0,1.0,100.0,event
15:39:41.553,0.75413823,0.93367624,0.76574653,0.577844,0.10018445,0.4842136,0.4668358,0.5789293,0.19280359,0.5942807,0.37183678,0.60964185,0.66520065,0.47161692,0.48726252,0.4773486,0.4906788,0.26905817,0.10435434,0.49263513,777.25275,809.0842,801.4286,775.64105,698.68134,-0.17193603515625,0.10504150390625,0.9716796875,1.68975830078125,-3.745880126953125,-1.368255615234375,1.0,1.0,1.0,1.0,1.0,100.0,event
15:39:41.554,0.75413823,0.93367624,0.76574653,0.577844,0.10018445,0.4842136,0.4668358,0.5789293,0.19280359,0.5942807,0.37183678,0.60964185,0.66520065,0.47161692,0.48726252,0.4773486,0.4906788,0.26905817,0.10435434,0.49263513,788.1319,802.23444,808.2784,782.8938,746.2271,-0.17193603515625,0.10504150390625,0.9716796875,1.68975830078125,-3.745880126953125,-1.368255615234375,1.0,1.0,1.0,1.0,1.0,100.0,event
15:39:41.555,0.75413823,0.93367624,0.76574653,0.577844,0.10018445,0.4842136,0.4668358,0.5789293,0.19280359,0.5942807,0.37183678,0.60964185,0.66520065,0.47161692,0.48726252,0.4773486,0.4906788,0.26905817,0.10435434,0.49263513,794.17584,810.696,821.978,778.86444,749.85345,-0.17193603515625,0.10504150390625,0.9716796875,1.68975830078125,-3.745880126953125,-1.368255615234375,1.0,1.0,1.0,1.0,1.0,100.0,event
15:39:41.555,0.75413823,0.93367624,0.76574653,0.577844,0.10018445,0.4842136,0.4668358,0.5789293,0.19280359,0.5942807,0.37183678,0.60964185,0.66520065,0.47161692,0.48726252,0.4773486,0.4906788,0.26905817,0.10435434,0.49263513,792.96704,812.3077,821.5751,784.5055,730.5128,-0.17193603515625,0.10504150390625,0.9716796875,1.68975830078125,-3.745880126953125,-1.368255615234375,1.0,1.0,1.0,1.0,1.0,100.0,event
15:39:41.556,0.75413823,0.93367624,0.76574653,0.577844,0.10018445,0.4842136,0.4668358,0.5789293,0.19280359,0.5942807,0.37183678,0.60964185,0.66520065,0.47161692,0.48726252,0.4773486,0.4906788,0.26905817,0.10435434,0.49263513,784.10254,806.6667,800.6227,780.87915,938.8278,-0.17193603515625,0.10504150390625,0.9716796875,1.68975830078125,-3.745880126953125,-1.368255615234375,1.0,1.0,1.0,1.0,1.0,100.0,event
15:39:41.556,0.75413823,0.93367624,0.76574653,0.577844,0.10018445,0.4842136,0.4668358,0.5789293,0.19280359,0.5942807,0.37183678,0.60964185,0.66520065,0.47161692,0.48726252,0.4773486,0.4906788,0.26905817,0.10435434,0.49263513,790.9524,803.44324,808.2784,786.9231,1083.0769,-0.17193603515625,0.10504150390625,0.9716796875,1.68975830078125,-3.745880126953125,-1.368255615234375,1.0,1.0,1.0,1.0,1.0,100.0,event
15:39:41.557,0.75413823,0.93367624,0.76574653,0.577844,0.10018445,0.4842136,0.4668358,0.5789293,0.19280359,0.5942807,0.37183678,0.60964185,0.66520065,0.47161692,0.48726252,0.4773486,0.4906788,0.26905817,0.10435434,0.49263513,797.3993,814.3223,836.8865,797.3993,796.5934,-0.17193603515625,0.10504150390625,0.9716796875,1.68975830078125,-3.745880126953125,-1.368255615234375,1.0,1.0,1.0,1.0,1.0,100.0,event
15:39:41.558,0.75413823,0.93367624,0.76574653,0.577844,0.10018445,0.4842136,0.4668358,0.5789293,0.19280359,0.5942807,0.37183678,0.60964185,0.66520065,0.47161692,0.48726252,0.4773486,0.4906788,0.26905817,0.10435434,0.49263513,794.9817,822.7839,834.0659,798.20514,632.6007,-0.17193603515625,0.10504150390625,0.9716796875,1.68975830078125,-3.745880126953125,-1.368255615234375,1.0,1.0,1.0,1.0,1.0,100.0,event
15:39:41.558,0.75413823,0.93367624,0.76574653,0.577844,0.10018445,0.4842136,0.4668358,0.5789293,0.19280359,0.5942807,0.37183678,0.60964185,0.66520065,0.47161692,0.48726252,0.4773486,0.4906788,0.26905817,0.10435434,0.49263513,796.5934,813.1135,804.65204,795.38464,916.6667,-0.17193603515625,0.10504150390625,0.9716796875,1.68975830078125,-3.745880126953125,-1.368255615234375,1.0,1.0,1.0,1.0,1.0,100.0,event
15:39:41.559,0.75413823,0.93367624,0.76574653,0.577844,0.10018445,0.4842136,0.4668358,0.5789293,0.19280359,0.5942807,0.37183678,0.60964185,0.66520065,0.47161692,0.48726252,0.4773486,0.4906788,0.26905817,0.10435434,0.49263513,785.31134,815.9341,835.2747,783.2967,794.17584,-0.17193603515625,0.10504150390625,0.9716796875,1.68975830078125,-3.745880126953125,-1.368255615234375,1.0,1.0,1.0,1.0,1.0,100.0,event
15:39:41.559,0.75413823,0.93367624,0.76574653,0.577844,0.10018445,0.4842136,0.4668358,0.5789293,0.19280359,0.5942807,0.37183678,0.60964185,0.66520065,0.47161692,0.48726252,0.4773486,0.4906788,0.26905817,0.10435434,0.49263513,794.9817,809.4872,812.3077,794.17584,1078.2417,-0.17193603515625,0.10504150390625,0.9716796875,1.68975830078125,-3.745880126953125,-1.368255615234375,1.0,1.0,1.0,1.0,1.0,100.0,event
15:39:41.590,0.75413823,0.93367624,0.76574653,0.577844,0.10018445,0.4842136,0.4668358,0.5789293,0.19280359,0.5942807,0.37183678,0.60964185,0.66520065,0.47161692,0.48726252,0.4773486,0.4906788,0.26905817,0.10435434,0.49263513,787.72894,809.0842,805.4579,777.25275,711.978,-0.1676025390625,0.10040283203125,0.96612548828125,1.2860107421875,-5.39825439453125,-1.323394775390625,1.0,1.0,1.0,1.0,1.0,100.0,event
15:39:41.591,0.75413823,0.93367624,0.76574653,0.577844,0.10018445,0.4842136,0.4668358,0.5789293,0.19280359,0.5942807,0.37183678,0.60964185,0.66520065,0.47161692,0.48726252,0.4773486,0.4906788,0.26905817,0.10435434,0.49263513,795.78754,807.47253,809.4872,789.7436,790.14655,-0.1676025390625,0.10040283203125,0.96612548828125,1.2860107421875,-5.39825439453125,-1.323394775390625,1.0,1.0,1.0,1.0,1.0,100.0,event
15:39:41.595,0.75413823,0.93367624,0.76574653,0.577844,0.10018445,0.4842136,0.4668358,0.5789293,0.19280359,0.5942807,0.37183678,0.60964185,0.66520065,0.47161692,0.48726252,0.4773486,0.4906788,0.26905817,0.10435434,0.49263513,799.41394,811.9048,826.0073,792.96704,788.93774,-0.1676025390625,0.10040283203125,0.96612548828125,1.2860107421875,-5.39825439453125,-1.323394775390625,1.0,1.0,1.0,1.0,1.0,100.0,event
15:39:41.595,0.75413823,0.93367624,0.76574653,0.577844,0.10018445,0.4842136,0.4668358,0.5789293,0.19280359,0.5942807,0.37183678,0.60964185,0.66520065,0.47161692,0.48726252,0.4773486,0.4906788,0.26905817,0.10435434,0.49263513,806.6667,805.05493,818.7546,786.9231,711.978,-0.1676025390625,0.10040283203125,0.96612548828125,1.2860107421875,-5.39825439453125,-1.323394775390625,1.0,1.0,1.0,1.0,1.0,100.0,event
15:39:41.596,0.75413823,0.93367624,0.76574653,0.577844,0.10018445,0.4842136,0.4668358,0.5789293,0.19280359,0.5942807,0.37183678,0.60964185,0.66520065,0.47161692,0.48726252,0.4773486,0.4906788,0.26905817,0.10435434,0.49263513,806.6667,792.96704,804.65204,784.10254,698.68134,-0.1676025390625,0.10040283203125,0.96612548828125,1.2860107421875,-5.39825439453125,-1.323394775390625,1.0,1.0,1.0,1.0,1.0,100.0,event
15:39:41.597,0.75413823,0.93367624,0.76574653,0.577844,0.10018445,0.4842136,0.4668358,0.5789293,0.19280359,0.5942807,0.37183678,0.60964185,0.66520065,0.47161692,0.48726252,0.4773486,0.4906788,0.26905817,0.10435434,0.49263513,804.2491,795.38464,805.8608,786.9231,818.3516,-0.1676025390625,0.10040283203125,0.96612548828125,1.2860107421875,-5.39825439453125,-1.323394775390625,1.0,1.0,1.0,1.0,1.0,100.0,event
15:39:41.597,0.75413823,0.93367624,0.76574653,0.577844,0.10018445,0.4842136,0.4668358,0.5789293,0.19280359,0.5942807,0.37183678,0.60964185,0.66520065,0.47161692,0.48726252,0.4773486,0.4906788,0.26905817,0.10435434,0.49263513,804.2491,801.4286,821.5751,791.75824,914.65204,-0.1676025390625,0.10040283203125,0.96612548828125,1.2860107421875,-5.39825439453125,-1.323394775390625,1.0,1.0,1.0,1.0,1.0,100.0,event
15:39:41.598,0.75413823,0.93367624,0.76574653,0.577844,0.10018445,0.4842136,0.4668358,0.5789293,0.19280359,0.5942807,0.37183678,0.60964185,0.66520065,0.47161692,0.48726252,0.4773486,0.4906788,0.26905817,0.10435434,0.49263513,801.4286,799.011,824.3956,795.78754,781.685,-0.1676025390625,0.10040283203125,0.96612548828125,1.2860107421875,-5.39825439453125,-1.323394775390625,1.0,1.0,1.0,1.0,1.0,100.0,event
15:39:41.599,0.75413823,0.93367624,0.76574653,0.577844,0.10018445,0.4842136,0.4668358,0.5789293,0.19280359,0.5942807,0.37183678,0.60964185,0.66520065,0.47161692,0.48726252,0.4773486,0.4906788,0.26905817,0.10435434,0.49263513,797.8022,795.38464,808.2784,798.60803,697.0696,-0.1676025390625,0.10040283203125,0.96612548828125,1.2860107421875,-5.39825439453125,-1.323394775390625,1.0,1.0,1.0,1.0,1.0,100.0,event
15:39:41.599,0.75413823,0.93367624,0.76574653,0.577844,0.10018445,0.4842136,0.4668358,0.5789293,0.19280359,0.5942807,0.37183678,0.60964185,0.66520065,0.47161692,0.48726252,0.4773486,0.4906788,0.26905817,0.10435434,0.49263513,794.17584,795.38464,806.26373,794.17584,830.4396,-0.1676025390625,0.10040283203125,0.96612548828125,1.2860107421875,-5.39825439453125,-1.323394775390625,1.0,1.0,1.0,1.0,1.0,100.0,event
15:39:41.600,0.75413823,0.93367624,0.76574653,0.577844,0.10018445,0.4842136,0.4668358,0.5789293,0.19280359,0.5942807,0.37183678,0.60964185,0.66520065,0.47161692,0.48726252,0.4773486,0.4906788,0.26905817,0.10435434,0.49263513,794.9817,801.8315,822.381,792.1612,799.41394,-0.1676025390625,0.10040283203125,0.96612548828125,1.2860107421875,-5.39825439453125,-1.323394775390625,1.0,1.0,1.0,1.0,1.0,100.0,event
15:39:41.602,0.75413823,0.93367624,0.76574653,0.577844,0.10018445,0.4842136,0.4668358,0.5789293,0.19280359,0.5942807,0.37183678,0.60964185,0.66520065,0.47161692,0.48726252,0.4773486,0.4906788,0.26905817,0.10435434,0.49263513,789.34064,796.1905,816.337,788.1319,682.1612,-0.1676025390625,0.10040283203125,0.96612548828125,1.2860107421875,-5.39825439453125,-1.323394775390625,1.0,1.0,1.0,1.0,1.0,100.0,event
15:39:41.629,0.75413823,0.93367624,0.76574653,0.577844,0.10018445,0.4842136,0.4668358,0.5789293,0.19280359,0.5942807,0.37183678,0.60964185,0.66520065,0.47161692,0.48726252,0.4773486,0.4906788,0.26905817,0.10435434,0.49263513,788.93774,790.14655,794.57874,791.3553,773.22345,-0.1544189453125,0.09930419921875,0.9725341796875,1.667327880859375,-4.0374755859375,-0.13458251953125,1.0,1.0,1.0,1.0,1.0,100.0,event
15:39:41.630,0.75413823,0.93367624,0.76574653,0.577844,0.10018445,0.4842136,0.4668358,0.5789293,0.19280359,0.5942807,0.37183678,0.60964185,0.66520065,0.47161692,0.48726252,0.4773486,0.4906788,0.26905817,0.10435434,0.49263513,800.6227,793.7729,799.41394,800.2198,924.3223,-0.1544189453125,0.09930419921875,0.9725341796875,1.667327880859375,-4.0374755859375,-0.13458251953125,1.0,1.0,1.0,1.0,1.0,100.0,event
15:39:41.632,0.75413823,0.93367624,0.76574653,0.577844,0.10018445,0.4842136,0.4668358,0.5789293,0.19280359,0.5942807,0.37183678,0.60964185,0.66520065,0.47161692,0.48726252,0.4773486,0.4906788,0.26905817,0.10435434,0.49263513,801.4286,796.5934,821.978,799.41394,785.7143,-0.1544189453125,0.09930419921875,0.9725341796875,1.667327880859375,-4.0374755859375,-0.13458251953125,1.0,1.0,1.0,1.0,1.0,100.0,event
15:39:41.634,0.75413823,0.93367624,0.76574653,0.577844,0.10018445,0.4842136,0.4668358,0.5789293,0.19280359,0.5942807,0.37183678,0.60964185,0.66520065,0.47161692,0.48726252,0.4773486,0.4906788,0.26905817,0.10435434,0.49263513,793.36993,799.81683,815.9341,797.3993,617.28937,-0.1544189453125,0.09930419921875,0.9725341796875,1.667327880859375,-4.0374755859375,-0.13458251953125,1.0,1.0,1.0,1.0,1.0,100.0,event
15:39:41.635,0.75413823,0.93367624,0.76574653,0.577844,0.10018445,0.4842136,0.4668358,0.5789293,0.19280359,0.5942807,0.37183678,0.60964185,0.66520065,0.47161692,0.48726252,0.4773486,0.4906788,0.26905817,0.10435434,0.49263513,796.1905,794.57874,792.1612,795.78754,713.1868,-0.1544189453125,0.09930419921875,0.9725341796875,1.667327880859375,-4.0374755859375,-0.13458251953125,1.0,1.0,1.0,1.0,1.0,100.0,event
15:39:41.635,0.75413823,0.93367624,0.76574653,0.577844,0.10018445,0.4842136,0.4668358,0.5789293,0.19280359,0.5942807,0.37183678,0.60964185,0.66520065,0.47161692,0.48726252,0.4773486,0.4906788,0.26905817,0.10435434,0.49263513,794.9817,790.14655,793.36993,796.1905,968.24176,-0.1544189453125,0.09930419921875,0.9725341796875,1.667327880859375,-4.0374755859375,-0.13458251953125,1.0,1.0,1.0,1.0,1.0,100.0,event
15:39:41.636,0.75413823,0.93367624,0.76574653,0.577844,0.10018445,0.4842136,0.4668358,0.5789293,0.19280359,0.5942807,0.37183678,0.60964185,0.66520065,0.47161692,0.48726252,0.4773486,0.4906788,0.26905817,0.10435434,0.49263513,799.011,802.23444,826.4103,798.20514,965.82416,-0.1544189453125,0.09930419921875,0.9725341796875,1.667327880859375,-4.0374755859375,-0.13458251953125,1.0,1.0,1.0,1.0,1.0,100.0,event
15:39:41.636,0.75413823,0.93367624,0.76574653,0.577844,0.10018445,0.4842136,0.4668358,0.5789293,0.19280359,0.5942807,0.37183678,0.60964185,0.66520065,0.47161692,0.48726252,0.4773486,0.4906788,0.26905817,0.10435434,0.49263513,809.4872,807.47253,824.3956,799.81683,787.326,-0.1544189453125,0.09930419921875,0.9725341796875,1.667327880859375,-4.0374755859375,-0.13458251953125,1.0,1.0,1.0,1.0,1.0,100.0,event
15:39:41.637,0.75413823,0.93367624,0.76574653,0.577844,0.10018445,0.4842136,0.4668358,0.5789293,0.19280359,0.5942807,0.37183678,0.60964185,0.66520065,0.47161692,0.48726252,0.4773486,0.4906788,0.26905817,0.10435434,0.49263513,796.5934,786.1172,797.3993,790.14655,942.4542,-0.1544189453125,0.09930419921875,0.9725341796875,1.667327880859375,-4.0374755859375,-0.13458251953125,1.0,1.0,1.0,1.0,1.0,100.0,event
15:39:41.637,0.75413823,0.93367624,0.76574653,0.577844,0.10018445,0.4842136,0.4668358,0.5789293,0.19280359,0.5942807,0.37183678,0.60964185,0.66520065,0.47161692,0.48726252,0.4773486,0.4906788,0.26905817,0.10435434,0.49263513,808.68134,797.8022,791.75824,800.2198,814.3223,-0.1544189453125,0.09930419921875,0.9725341796875,1.667327880859375,-4.0374755859375,-0.13458251953125,1.0,1.0,1.0,1.0,1.0,100.0,event
15:39:41.639,0.75413823,0.93367624,0.76574653,0.577844,0.10018445,0.4842136,0.4668358,0.5789293,0.19280359,0.5942807,0.37183678,0.60964185,0.66520065,0.47161692,0.48726252,0.4773486,0.4906788,0.26905817,0.10435434,0.49263513,796.1905,791.75824,830.0366,788.5348,736.1539,-0.1544189453125,0.09930419921875,0.9725341796875,1.667327880859375,-4.0374755859375,-0.13458251953125,1.0,1.0,1.0,1.0,1.0,100.0,event
15:39:41.639,0.75413823,0.93367624,0.76574653,0.577844,0.10018445,0.4842136,0.4668358,0.5789293,0.19280359,0.5942807,0.37183678,0.60964185,0.66520065,0.47161692,0.48726252,0.4773486,0.4906788,0.26905817,0.10435434,0.49263513,807.0696,796.1905,818.7546,798.20514,675.7143,-0.1544189453125,0.09930419921875,0.9725341796875,1.667327880859375,-4.0374755859375,-0.13458251953125,1.0,1.0,1.0,1.0,1.0,100.0,event
15:39:41.668,0.75413823,0.93367624,0.76574653,0.577844,0.10018445,0.4842136,0.4668358,0.5789293,0.19280359,0.5942807,0.37183678,0.60964185,0.66520065,0.47161692,0.48726252,0.4773486,0.4906788,0.26905817,0.10435434,0.49263513,805.4579,793.7729,821.978,797.8022,749.85345,-0.1544189453125,0.09930419921875,0.9725341796875,1.667327880859375,-4.0374755859375,-0.13458251953125,1.0,1.0,1.0,1.0,1.0,100.0,event
15:39:41.669,0.75413823,0.93367624,0.76574653,0.577844,0.10018445,0.4842136,0.4668358,0.5789293,0.19280359,0.5942807,0.37183678,0.60964185,0.66520065,0.47161692,0.48726252,0.4773486,0.4906788,0.26905817,0.10435434,0.49263513,809.4872,796.1905,828.8278,796.99634,713.1868,-0.1544189453125,0.09930419921875,0.9725341796875,1.667327880859375,-4.0374755859375,-0.13458251953125,1.0,1.0,1.0,1.0,1.0,100.0,event
15:39:41.670,0.75413823,0.93367624,0.76574653,0.577844,0.10018445,0.4842136,0.4668358,0.5789293,0.19280359,0.5942807,0.37183678,0.60964185,0.66520065,0.47161692,0.48726252,0.4773486,0.4906788,0.26905817,0.10435434,0.49263513,807.0696,792.5641,818.7546,800.6227,684.9817,-0.1544189453125,0.09930419921875,0.9725341796875,1.667327880859375,-4.0374755859375,-0.13458251953125,1.0,1.0,1.0,1.0,1.0,100.0,event
15:39:41.671,0.75413823,0.93367624,0.76574653,0.577844,0.10018445,0.4842136,0.4668358,0.5789293,0.19280359,0.5942807,0.37183678,0.60964185,0.66520065,0.47161692,0.48726252,0.4773486,0.4906788,0.26905817,0.10435434,0.49263513,798.20514,786.9231,807.47253,804.65204,712.381,-0.1544189453125,0.09930419921875,0.9725341796875,1.667327880859375,-4.0374755859375,-0.13458251953125,1.0,1.0,1.0,1.0,1.0,100.0,event
15:39:41.675,0.75413823,0.93367624,0.76574653,0.577844,0.10018445,0.4842136,0.4668358,0.5789293,0.19280359,0.5942807,0.37183678,0.60964185,0.66520065,0.47161692,0.48726252,0.4773486,0.4906788,0.26905817,0.10435434,0.49263513,806.26373,790.54944,814.3223,801.8315,768.7912,-0.1544189453125,0.09930419921875,0.9725341796875,1.667327880859375,-4.0374755859375,-0.13458251953125,1.0,1.0,1.0,1.0,1.0,100.0,event
15:39:41.675,0.75413823,0.93367624,0.76574653,0.577844,0.10018445,0.4842136,0.4668358,0.5789293,0.19280359,0.5942807,0.37183678,0.60964185,0.66520065,0.47161692,0.48726252,0.4773486,0.4906788,0.26905817,0.10435434,0.49263513,810.293,794.9817,816.337,800.6227,861.4652,-0.1544189453125,0.09930419921875,0.9725341796875,1.667327880859375,-4.0374755859375,-0.13458251953125,1.0,1.0,1.0,1.0,1.0,100.0,event
15:39:41.676,0.75413823,0.93367624,0.76574653,0.577844,0.10018445,0.4842136,0.4668358,0.5789293,0.19280359,0.5942807,0.37183678,0.60964185,0.66520065,0.47161692,0.48726252,0.4773486,0.4906788,0.26905817,0.10435434,0.49263513,805.4579,799.011,815.5311,803.44324,828.4249,-0.1544189453125,0.09930419921875,0.9725341796875,1.667327880859375,-4.0374755859375,-0.13458251953125,1.0,1.0,1.0,1.0,1.0,100.0,event
15:39:41.677,0.75413823,0.93367624,0.76574653,0.577844,0.10018445,0.4842136,0.4668358,0.5789293,0.19280359,0.5942807,0.37183678,0.60964185,0.66520065,0.47161692,0.48726252,0.4773486,0.4906788,0.26905817,0.10435434,0.49263513,805.4579,801.4286,803.0403,811.0989,933.5897,-0.1544189453125,0.09930419921875,0.9725341796875,1.667327880859375,-4.0374755859375,-0.13458251953125,1.0,1.0,1.0,1.0,1.0,100.0,event
15:39:41.677,0.75413823,0.93367624,0.76574653,0.577844,0.10018445,0.4842136,0.4668358,0.5789293,0.19280359,0.5942807,0.37183678,0.60964185,0.66520065,0.47161692,0.48726252,0.4773486,0.4906788,0.26905817,0.10435434,0.49263513,801.8315,803.44324,819.5604,799.011,727.6923,-0.1544189453125,0.09930419921875,0.9725341796875,1.667327880859375,-4.0374755859375,-0.13458251953125,1.0,1.0,1.0,1.0,1.0,100.0,event
15:39:41.678,0.75413823,0.93367624,0.76574653,0.577844,0.10018445,0.4842136,0.4668358,0.5789293,0.19280359,0.5942807,0.37183678,0.60964185,0.66520065,0.47161692,0.48726252,0.4773486,0.4906788,0.26905817,0.10435434,0.49263513,819.5604,805.4579,824.3956,814.3223,914.65204,-0.1544189453125,0.09930419921875,0.9725341796875,1.667327880859375,-4.0374755859375,-0.13458251953125,1.0,1.0,1.0,1.0,1.0,100.0,event
15:39:41.679,0.75413823,0.93367624,0.76574653,0.577844,0.10018445,0.4842136,0.4668358,0.5789293,0.19280359,0.5942807,0.37183678,0.60964185,0.66520065,0.47161692,0.48726252,0.4773486,0.4906788,0.26905817,0.10435434,0.49263513,815.5311,808.68134,831.2454,804.65204,646.7033,-0.1544189453125,0.09930419921875,0.9725341796875,1.667327880859375,-4.0374755859375,-0.13458251953125,1.0,1.0,1.0,1.0,1.0,100.0,event
15:39:41.679,0.75413823,0.93367624,0.76574653,0.577844,0.10018445,0.4842136,0.4668358,0.5789293,0.19280359,0.5942807,0.37183678,0.60964185,0.66520065,0.47161692,0.48726252,0.4773486,0.4906788,0.26905817,0.10435434,0.49263513,804.65204,797.3993,798.60803,803.44324,709.9634,-0.1544189453125,0.09930419921875,0.9725341796875,1.667327880859375,-4.0374755859375,-0.13458251953125,1.0,1.0,1.0,1.0,1.0,100.0,event
15:39:41.703,0.75413823,0.93367624,0.76574653,0.577844,0.10018445,0.4842136,0.4668358,0.5789293,0.19280359,0.5942807,0.37183678,0.60964185,0.66520065,0.47161692,0.48726252,0.4773486,0.4906788,0.26905817,0.10435434,0.49263513,799.81683,794.57874,799.41394,796.5934,715.6044,-0.14892578125,0.1024169921875,0.97314453125,1.547698974609375,-2.310333251953125,1.203765869140625,1.0,1.0,1.0,1.0,1.0,100.0,event
15:39:41.704,0.75413823,0.93367624,0.76574653,0.577844,0.10018445,0.4842136,0.4668358,0.5789293,0.19280359,0.5942807,0.37183678,0.60964185,0.66520065,0.47161692,0.48726252,0.4773486,0.4906788,0.26905817,0.10435434,0.49263513,796.5934,794.57874,811.9048,794.17584,659.59705,-0.14892578125,0.1024169921875,0.97314453125,1.547698974609375,-2.310333251953125,1.203765869140625,1.0,1.0,1.0,1.0,1.0,100.0,event
15:39:41.705,0.75413823,0.93367624,0.76574653,0.577844,0.10018445,0.4842136,0.4668358,0.5789293,0.19280359,0.5942807,0.37183678,0.60964185,0.66520065,0.47161692,0.48726252,0.4773486,0.4906788,0.26905817,0.10435434,0.49263513,792.1612,798.20514,804.2491,796.99634,665.64105,-0.14892578125,0.1024169921875,0.97314453125,1.547698974609375,-2.310333251953125,1.203765869140625,1.0,1.0,1.0,1.0,1.0,100.0,event
15:39:41.705,0.75413823,0.93367624,0.76574653,0.577844,0.10018445,0.4842136,0.4668358,0.5789293,0.19280359,0.5942807,0.37183678,0.60964185,0.66520065,0.47161692,0.48726252,0.4773486,0.4906788,0.26905817,0.10435434,0.49263513,798.20514,814.3223,795.78754,805.8608,736.1539,-0.14892578125,0.1024169921875,0.97314453125,1.547698974609375,-2.310333251953125,1.203765869140625,1.0,1.0,1.0,1.0,1.0,100.0,event
15:39:41.706,0.75413823,0.93367624,0.76574653,0.577844,0.10018445,0.4842136,0.4668358,0.5789293,0.19280359,0.5942807,0.37183678,0.60964185,0.66520065,0.47161692,0.48726252,0.4773486,0.4906788,0.26905817,0.10435434,0.49263513,803.0403,806.26373,799.41394,803.0403,778.86444,-0.14892578125,0.1024169921875,0.97314453125,1.547698974609375,-2.310333251953125,1.203765869140625,1.0,1.0,1.0,1.0,1.0,100.0,event
15:39:41.707,0.75413823,0.93367624,0.76574653,0.577844,0.10018445,0.4842136,0.4668358,0.5789293,0.19280359,0.5942807,0.37183678,0.60964185,0.66520065,0.47161692,0.48726252,0.4773486,0.4906788,0.26905817,0.10435434,0.49263513,797.8022,800.2198,800.6227,794.17584,915.8608,-0.14892578125,0.1024169921875,0.97314453125,1.547698974609375,-2.310333251953125,1.203765869140625,1.0,1.0,1.0,1.0,1.0,100.0,event
15:39:41.707,0.75413823,0.93367624,0.76574653,0.577844,0.10018445,0.4842136,0.4668358,0.5789293,0.19280359,0.5942807,0.37183678,0.60964185,0.66520065,0.47161692,0.48726252,0.4773486,0.4906788,0.26905817,0.10435434,0.49263513,802.23444,794.57874,796.5934,793.36993,830.4396,-0.14892578125,0.1024169921875,0.97314453125,1.547698974609375,-2.310333251953125,1.203765869140625,1.0,1.0,1.0,1.0,1.0,100.0,event
15:39:41.708,0.75413823,0.93367624,0.76574653,0.577844,0.10018445,0.4842136,0.4668358,0.5789293,0.19280359,0.5942807,0.37183678,0.60964185,0.66520065,0.47161692,0.48726252,0.4773486,0.4906788,0.26905817,0.10435434,0.49263513,802.23444,802.6374,791.3553,794.57874,1014.17584,-0.14892578125,0.1024169921875,0.97314453125,1.547698974609375,-2.310333251953125,1.203765869140625,1.0,1.0,1.0,1.0,1.0,100.0,event
15:39:41.708,0.75413823,0.93367624,0.76574653,0.577844,0.10018445,0.4842136,0.4668358,0.5789293,0.19280359,0.5942807,0.37183678,0.60964185,0.66520065,0.47161692,0.48726252,0.4773486,0.4906788,0.26905817,0.10435434,0.49263513,801.8315,799.41394,782.8938,802.6374,1185.8242,-0.14892578125,0.1024169921875,0.97314453125,1.547698974609375,-2.310333251953125,1.203765869140625,1.0,1.0,1.0,1.0,1.0,100.0,event
15:39:41.709,0.75413823,0.93367624,0.76574653,0.577844,0.10018445,0.4842136,0.4668358,0.5789293,0.19280359,0.5942807,0.37183678,0.60964185,0.66520065,0.47161692,0.48726252,0.4773486,0.4906788,0.26905817,0.10435434,0.49263513,801.4286,805.4579,813.91943,809.4872,904.17584,-0.14892578125,0.1024169921875,0.97314453125,1.547698974609375,-2.310333251953125,1.203765869140625,1.0,1.0,1.0,1.0,1.0,100.0,event
15:39:41.709,0.75413823,0.93367624,0.76574653,0.577844,0.10018445,0.4842136,0.4668358,0.5789293,0.19280359,0.5942807,0.37183678,0.60964185,0.66520065,0.47161692,0.48726252,0.4773486,0.4906788,0.26905817,0.10435434,0.49263513,807.47253,810.696,801.4286,796.99634,683.7729,-0.14892578125,0.1024169921875,0.97314453125,1.547698974609375,-2.310333251953125,1.203765869140625,1.0,1.0,1.0,1.0,1.0,100.0,event
15:39:41.710,0.75413823,0.93367624,0.76574653,0.577844,0.10018445,0.4842136,0.4668358,0.5789293,0.19280359,0.5942807,0.37183678,0.60964185,0.66520065,0.47161692,0.48726252,0.4773486,0.4906788,0.26905817,0.10435434,0.49263513,797.8022,805.05493,795.38464,797.8022,740.58606,-0.14892578125,0.1024169921875,0.97314453125,1.547698974609375,-2.310333251953125,1.203765869140625,1.0,1.0,1.0,1.0,1.0,100.0,event
15:39:41.750,0.75413823,0.93367624,0.76574653,0.577844,0.10018445,0.4842136,0.4668358,0.5789293,0.19280359,0.5942807,0.37183678,0.60964185,0.66520065,0.47161692,0.48726252,0.4773486,0.4906788,0.26905817,0.10435434,0.49263513,798.20514,803.44324,809.4872,799.011,654.7619,-0.16015625,0.099853515625,0.97021484375,2.011260986328125,-1.435546875,1.24114990234375,1.0,1.0,1.0,1.0,1.0,100.0,event
15:39:41.751,0.75413823,0.93367624,0.76574653,0.577844,0.10018445,0.4842136,0.4668358,0.5789293,0.19280359,0.5942807,0.37183678,0.60964185,0.66520065,0.47161692,0.48726252,0.4773486,0.4906788,0.26905817,0.10435434,0.49263513,799.011,804.65204,802.23444,796.1905,633.8095,-0.16015625,0.099853515625,0.97021484375,2.011260986328125,-1.435546875,1.24114990234375,1.0,1.0,1.0,1.0,1.0,100.0,event
15:39:41.752,0.75413823,0.93367624,0.76574653,0.577844,0.10018445,0.4842136,0.4668358,0.5789293,0.19280359,0.5942807,0.37183678,0.60964185,0.66520065,0.47161692,0.48726252,0.4773486,0.4906788,0.26905817,0.10435434,0.49263513,798.20514,796.1905,785.31134,800.6227,707.5458,-0.16015625,0.099853515625,0.97021484375,2.011260986328125,-1.435546875,1.24114990234375,1.0,1.0,1.0,1.0,1.0,100.0,event
15:39:41.753,0.75413823,0.93367624,0.76574653,0.577844,0.10018445,0.4842136,0.4668358,0.5789293,0.19280359,0.5942807,0.37183678,0.60964185,0.66520065,0.47161692,0.48726252,0.4773486,0.4906788,0.26905817,0.10435434,0.49263513,806.26373,792.5641,785.31134,804.65204,750.2564,-0.16015625,0.099853515625,0.97021484375,2.011260986328125,-1.435546875,1.24114990234375,1.0,1.0,1.0,1.0,1.0,100.0,event
15:39:41.754,0.75413823,0.93367624,0.76574653,0.577844,0.10018445,0.4842136,0.4668358,0.5789293,0.19280359,0.5942807,0.37183678,0.60964185,0.66520065,0.47161692,0.48726252,0.4773486,0.4906788,0.26905817,0.10435434,0.49263513,800.6227,791.3553,793.7729,803.8461,706.337,-0.16015625,0.099853515625,0.97021484375,2.011260986328125,-1.435546875,1.24114990234375,1.0,1.0,1.0,1.0,1.0,100.0,event
15:39:41.755,0.75413823,0.93367624,0.76574653,0.577844,0.10018445,0.4842136,0.4668358,0.5789293,0.19280359,0.5942807,0.37183678,0.60964185,0.66520065,0.47161692,0.48726252,0.4773486,0.4906788,0.26905817,0.10435434,0.49263513,796.99634,788.93774,790.9524,797.8022,708.3516,-0.16015625,0.099853515625,0.97021484375,2.011260986328125,-1.435546875,1.24114990234375,1.0,1.0,1.0,1.0,1.0,100.0,event
15:39:41.759,0.75413823,0.93367624,0.76574653,0.577844,0.10018445,0.4842136,0.4668358,0.5789293,0.19280359,0.5942807,0.37183678,0.60964185,0.66520065,0.47161692,0.48726252,0.4773486,0.4906788,0.26905817,0.10435434,0.49263513,812.3077,789.7436,796.99634,804.2491,774.0293,-0.16015625,0.099853515625,0.97021484375,2.011260986328125,-1.435546875,1.24114990234375,1.0,1.0,1.0,1.0,1.0,100.0,event
15:39:41.759,0.75413823,0.93367624,0.76574653,0.577844,0.10018445,0.4842136,0.4668358,0.5789293,0.19280359,0.5942807,0.37183678,0.60964185,0.66520065,0.47161692,0.48726252,0.4773486,0.4906788,0.26905817,0.10435434,0.49263513,810.293,786.9231,779.67035,809.89014,963.4066,-0.16015625,0.099853515625,0.97021484375,2.011260986328125,-1.435546875,1.24114990234375,1.0,1.0,1.0,1.0,1.0,100.0,event
15:39:41.760,0.75413823,0.93367624,0.76574653,0.577844,0.10018445,0.4842136,0.4668358,0.5789293,0.19280359,0.5942807,0.37183678,0.60964185,0.66520065,0.47161692,0.48726252,0.4773486,0.4906788,0.26905817,0.10435434,0.49263513,797.3993,798.60803,796.5934,794.17584,950.9158,-0.16015625,0.099853515625,0.97021484375,2.011260986328125,-1.435546875,1.24114990234375,1.0,1.0,1.0,1.0,1.0,100.0,event
15:39:41.761,0.75413823,0.93367624,0.76574653,0.577844,0.10018445,0.4842136,0.4668358,0.5789293,0.19280359,0.5942807,0.37183678,0.60964185,0.66520065,0.47161692,0.48726252,0.4773486,0.4906788,0.26905817,0.10435434,0.49263513,798.60803,809.4872,804.65204,785.31134,668.86444,-0.16015625,0.099853515625,0.97021484375,2.011260986328125,-1.435546875,1.24114990234375,1.0,1.0,1.0,1.0,1.0,100.0,event
15:39:41.762,0.75413823,0.93367624,0.76574653,0.577844,0.10018445,0.4842136,0.4668358,0.5789293,0.19280359,0.5942807,0.37183678,0.60964185,0.66520065,0.47161692,0.48726252,0.4773486,0.4906788,0.26905817,0.10435434,0.49263513,805.05493,809.0842,784.10254,791.75824,761.9414,-0.16015625,0.099853515625,0.97021484375,2.011260986328125,-1.435546875,1.24114990234375,1.0,1.0,1.0,1.0,1.0,100.0,event
15:39:41.762,0.75413823,0.93367624,0.76574653,0.577844,0.10018445,0.4842136,0.4668358,0.5789293,0.19280359,0.5942807,0.37183678,0.60964185,0.66520065,0.47161692,0.48726252,0.4773486,0.4906788,0.26905817,0.10435434,0.49263513,812.71063,810.696,797.3993,798.60803,896.9231,-0.16015625,0.099853515625,0.97021484375,2.011260986328125,-1.435546875,1.24114990234375,1.0,1.0,1.0,1.0,1.0,100.0,event
15:39:41.795,0.75413823,0.93367624,0.76574653,0.577844,0.10018445,0.4842136,0.4668358,0.5789293,0.19280359,0.5942807,0.37183678,0.60964185,0.66520065,0.47161692,0.48726252,0.4773486,0.4906788,0.26905817,0.10435434,0.49263513,807.8755,815.5311,815.9341,798.60803,811.50183,-0.165771484375,0.0999755859375,0.96636962890625,1.428070068359375,-1.95892333984375,1.622467041015625,1.0,1.0,1.0,1.0,1.0,100.0,event
15:39:41.796,0.75413823,0.93367624,0.76574653,0.577844,0.10018445,0.4842136,0.4668358,0.5789293,0.19280359,0.5942807,0.37183678,0.60964185,0.66520065,0.47161692,0.48726252,0.4773486,0.4906788,0.26905817,0.10435434,0.49263513,810.696,802.23444,788.1319,796.5934,773.6264,-0.165771484375,0.0999755859375,0.96636962890625,1.428070068359375,-1.95892333984375,1.622467041015625,1.0,1.0,1.0,1.0,1.0,100.0,event
15:39:41.796,0.75413823,0.93367624,0.76574653,0.577844,0.10018445,0.4842136,0.4668358,0.5789293,0.19280359,0.5942807,0.37183678,0.60964185,0.66520065,0.47161692,0.48726252,0.4773486,0.4906788,0.26905817,0.10435434,0.49263513,809.4872,815.9341,807.8755,797.8022,743.8095,-0.165771484375,0.0999755859375,0.96636962890625,1.428070068359375,-1.95892333984375,1.622467041015625,1.0,1.0,1.0,1.0,1.0,100.0,event
15:39:41.797,0.75413823,0.93367624,0.76574653,0.577844,0.10018445,0.4842136,0.4668358,0.5789293,0.19280359,0.5942807,0.37183678,0.60964185,0.66520065,0.47161692,0.48726252,0.4773486,0.4906788,0.26905817,0.10435434,0.49263513,807.0696,797.3993,796.1905,793.7729,802.23444,-0.165771484375,0.0999755859375,0.96636962890625,1.428070068359375,-1.95892333984375,1.622467041015625,1.0,1.0,1.0,1.0,1.0,100.0,event
15:39:41.797,0.75413823,0.93367624,0.76574653,0.577844,0.10018445,0.4842136,0.4668358,0.5789293,0.19280359,0.5942807,0.37183678,0.60964185,0.66520065,0.47161692,0.48726252,0.4773486,0.4906788,0.26905817,0.10435434,0.49263513,808.2784,803.8461,796.99634,792.96704,764.35895,-0.165771484375,0.0999755859375,0.96636962890625,1.428070068359375,-1.95892333984375,1.622467041015625,1.0,1.0,1.0,1.0,1.0,100.0,event
15:39:41.797,0.75413823,0.93367624,0.76574653,0.577844,0.10018445,0.4842136,0.4668358,0.5789293,0.19280359,0.5942807,0.37183678,0.60964185,0.66520065,0.47161692,0.48726252,0.4773486,0.4906788,0.26905817,0.10435434,0.49263513,807.0696,807.0696,779.67035,783.2967,815.9341,-0.165771484375,0.0999755859375,0.96636962890625,1.428070068359375,-1.95892333984375,1.622467041015625,1.0,1.0,1.0,1.0,1.0,100.0,event
15:39:41.798,0.75413823,0.93367624,0.76574653,0.577844,0.10018445,0.4842136,0.4668358,0.5789293,0.19280359,0.5942807,0.37183678,0.60964185,0.66520065,0.47161692,0.48726252,0.4773486,0.4906788,0.26905817,0.10435434,0.49263513,803.44324,800.2198,763.95605,779.67035,990.0,-0.165771484375,0.0999755859375,0.96636962890625,1.428070068359375,-1.95892333984375,1.622467041015625,1.0,1.0,1.0,1.0,1.0,100.0,event
