TimeStamp,Delta_TP9,Delta_AF7,Delta_AF8,Delta_TP10,Theta_TP9,Theta_AF7,Theta_AF8,Theta_TP10,Alpha_TP9,Alpha_AF7,Alpha_AF8,Alpha_TP10,Beta_TP9,Beta_AF7,Beta_AF8,Beta_TP10,Gamma_TP9,Gamma_AF7,Gamma_AF8,Gamma_TP10,RAW_TP9,RAW_AF7,RAW_AF8,RAW_TP10,AUX_RIGHT,Accelerometer_X,Accelerometer_Y,Accelerometer_Z,Gyro_X,Gyro_Y,Gyro_Z,HeadBandOn,HSI_TP9,HSI_AF7,HSI_AF8,HSI_TP10,Battery,Elements
10:33:47.741,0.0,0.0,0.0,0.0,0.0,0.0,0.0,0.0,0.0,0.0,0.0,0.0,0.0,0.0,0.0,0.0,0.0,0.0,0.0,0.0,778.46155,774.83514,802.23444,842.1245,823.9927,-0.40679931640625,0.1512451171875,0.88922119140625,3.0206298828125,-4.314117431640625,0.88226318359375,0.0,4.0,4.0,4.0,4.0,100.0,event
10:33:47.742,0.0,0.0,0.0,0.0,0.0,0.0,0.0,0.0,0.0,0.0,0.0,0.0,0.0,0.0,0.0,0.0,0.0,0.0,0.0,0.0,807.8755,776.4469,795.78754,864.68866,745.0183,-0.40679931640625,0.1512451171875,0.88922119140625,3.0206298828125,-4.314117431640625,0.88226318359375,0.0,4.0,4.0,4.0,4.0,100.0,event
10:33:47.743,0.0,0.0,0.0,0.0,0.0,0.0,0.0,0.0,0.0,0.0,0.0,0.0,0.0,0.0,0.0,0.0,0.0,0.0,0.0,0.0,843.3333,774.83514,796.5934,873.95605,742.1978,-0.40679931640625,0.1512451171875,0.88922119140625,3.0206298828125,-4.314117431640625,0.88226318359375,0.0,4.0,4.0,4.0,4.0,100.0,event
10:33:47.744,0.0,0.0,0.0,0.0,0.0,0.0,0.0,0.0,0.0,0.0,0.0,0.0,0.0,0.0,0.0,0.0,0.0,0.0,0.0,0.0,848.5714,774.83514,798.20514,830.4396,873.5531,-0.40679931640625,0.1512451171875,0.88922119140625,3.0206298828125,-4.314117431640625,0.88226318359375,0.0,4.0,4.0,4.0,4.0,100.0,event
10:33:47.745,0.0,0.0,0.0,0.0,0.0,0.0,0.0,0.0,0.0,0.0,0.0,0.0,0.0,0.0,0.0,0.0,0.0,0.0,0.0,0.0,806.6667,772.01465,799.011,784.10254,844.5421,-0.40679931640625,0.1512451171875,0.88922119140625,3.0206298828125,-4.314117431640625,0.88226318359375,0.0,4.0,4.0,4.0,4.0,100.0,event
10:33:47.746,0.0,0.0,0.0,0.0,0.0,0.0,0.0,0.0,0.0,0.0,0.0,0.0,0.0,0.0,0.0,0.0,0.0,0.0,0.0,0.0,772.8205,770.0,799.81683,799.41394,791.3553,-0.40679931640625,0.1512451171875,0.88922119140625,3.0206298828125,-4.314117431640625,0.88226318359375,0.0,4.0,4.0,4.0,4.0,100.0,event
10:33:47.746,0.0,0.0,0.0,0.0,0.0,0.0,0.0,0.0,0.0,0.0,0.0,0.0,0.0,0.0,0.0,0.0,0.0,0.0,0.0,0.0,784.90845,769.59705,796.5934,808.2784,801.02563,-0.40679931640625,0.1512451171875,0.88922119140625,3.0206298828125,-4.314117431640625,0.88226318359375,0.0,4.0,4.0,4.0,4.0,100.0,event
10:33:47.747,0.0,0.0,0.0,0.0,0.0,0.0,0.0,0.0,0.0,0.0,0.0,0.0,0.0,0.0,0.0,0.0,0.0,0.0,0.0,0.0,829.6337,767.5824,787.326,819.5604,963.00366,-0.40679931640625,0.1512451171875,0.88922119140625,3.0206298828125,-4.314117431640625,0.88226318359375,0.0,4.0,4.0,4.0,4.0,100.0,event
10:33:47.748,0.0,0.0,0.0,0.0,0.0,0.0,0.0,0.0,0.0,0.0,0.0,0.0,0.0,0.0,0.0,0.0,0.0,0.0,0.0,0.0,855.0183,767.5824,786.1172,851.39197,960.989,-0.40679931640625,0.1512451171875,0.88922119140625,3.0206298828125,-4.314117431640625,0.88226318359375,0.0,4.0,4.0,4.0,4.0,100.0,event
10:33:47.748,0.0,0.0,0.0,0.0,0.0,0.0,0.0,0.0,0.0,0.0,0.0,0.0,0.0,0.0,0.0,0.0,0.0,0.0,0.0,0.0,808.68134,768.7912,798.20514,838.9011,697.8755,-0.40679931640625,0.1512451171875,0.88922119140625,3.0206298828125,-4.314117431640625,0.88226318359375,0.0,4.0,4.0,4.0,4.0,100.0,event
10:33:47.749,0.0,0.0,0.0,0.0,0.0,0.0,0.0,0.0,0.0,0.0,0.0,0.0,0.0,0.0,0.0,0.0,0.0,0.0,0.0,0.0,768.7912,770.80585,801.02563,829.2308,789.7436,-0.40679931640625,0.1512451171875,0.88922119140625,3.0206298828125,-4.314117431640625,0.88226318359375,0.0,4.0,4.0,4.0,4.0,100.0,event
10:33:47.750,0.0,0.0,0.0,0.0,0.0,0.0,0.0,0.0,0.0,0.0,0.0,0.0,0.0,0.0,0.0,0.0,0.0,0.0,0.0,0.0,786.52014,775.2381,798.60803,847.76556,898.93774,-0.40679931640625,0.1512451171875,0.88922119140625,3.0206298828125,-4.314117431640625,0.88226318359375,0.0,4.0,4.0,4.0,4.0,100.0,event
10:33:47.779,0.0,0.0,0.0,0.0,0.0,0.0,0.0,0.0,0.0,0.0,0.0,0.0,0.0,0.0,0.0,0.0,0.0,0.0,0.0,0.0,826.4103,775.2381,799.011,847.76556,716.4103,-0.40679931640625,0.1512451171875,0.88922119140625,3.0206298828125,-4.314117431640625,0.88226318359375,0.0,4.0,4.0,4.0,4.0,100.0,event
10:33:47.780,0.0,0.0,0.0,0.0,0.0,0.0,0.0,0.0,0.0,0.0,0.0,0.0,0.0,0.0,0.0,0.0,0.0,0.0,0.0,0.0,863.0769,776.4469,800.2198,841.31866,697.47253,-0.40679931640625,0.1512451171875,0.88922119140625,3.0206298828125,-4.314117431640625,0.88226318359375,0.0,4.0,4.0,4.0,4.0,100.0,event
10:33:47.781,0.0,0.0,0.0,0.0,0.0,0.0,0.0,0.0,0.0,0.0,0.0,0.0,0.0,0.0,0.0,0.0,0.0,0.0,0.0,0.0,824.7985,778.46155,801.02563,812.71063,742.1978,-0.40679931640625,0.1512451171875,0.88922119140625,3.0206298828125,-4.314117431640625,0.88226318359375,0.0,4.0,4.0,4.0,4.0,100.0,event
10:33:47.782,0.0,0.0,0.0,0.0,0.0,0.0,0.0,0.0,0.0,0.0,0.0,0.0,0.0,0.0,0.0,0.0,0.0,0.0,0.0,0.0,768.3883,780.4762,799.81683,784.5055,807.47253,-0.40679931640625,0.1512451171875,0.88922119140625,3.0206298828125,-4.314117431640625,0.88226318359375,0.0,4.0,4.0,4.0,4.0,100.0,event
10:33:47.783,0.0,0.0,0.0,0.0,0.0,0.0,0.0,0.0,0.0,0.0,0.0,0.0,0.0,0.0,0.0,0.0,0.0,0.0,0.0,0.0,776.4469,781.28204,798.20514,796.1905,744.21246,-0.40679931640625,0.1512451171875,0.88922119140625,3.0206298828125,-4.314117431640625,0.88226318359375,0.0,4.0,4.0,4.0,4.0,100.0,event
10:33:47.784,0.0,0.0,0.0,0.0,0.0,0.0,0.0,0.0,0.0,0.0,0.0,0.0,0.0,0.0,0.0,0.0,0.0,0.0,0.0,0.0,821.978,778.86444,799.41394,816.337,703.1135,-0.40679931640625,0.1512451171875,0.88922119140625,3.0206298828125,-4.314117431640625,0.88226318359375,0.0,4.0,4.0,4.0,4.0,100.0,event
10:33:47.785,0.0,0.0,0.0,0.0,0.0,0.0,0.0,0.0,0.0,0.0,0.0,0.0,0.0,0.0,0.0,0.0,0.0,0.0,0.0,0.0,846.55676,774.83514,796.5934,852.6007,872.74725,-0.40679931640625,0.1512451171875,0.88922119140625,3.0206298828125,-4.314117431640625,0.88226318359375,0.0,4.0,4.0,4.0,4.0,100.0,event
10:33:47.789,0.0,0.0,0.0,0.0,0.0,0.0,0.0,0.0,0.0,0.0,0.0,0.0,0.0,0.0,0.0,0.0,0.0,0.0,0.0,0.0,809.89014,770.80585,798.20514,829.2308,1097.1794,-0.40679931640625,0.1512451171875,0.88922119140625,3.0206298828125,-4.314117431640625,0.88226318359375,0.0,4.0,4.0,4.0,4.0,100.0,event
10:33:47.790,0.0,0.0,0.0,0.0,0.0,0.0,0.0,0.0,0.0,0.0,0.0,0.0,0.0,0.0,0.0,0.0,0.0,0.0,0.0,0.0,771.6117,774.43225,796.1905,809.0842,910.2198,-0.40679931640625,0.1512451171875,0.88922119140625,3.0206298828125,-4.314117431640625,0.88226318359375,0.0,4.0,4.0,4.0,4.0,100.0,event
10:33:47.791,0.0,0.0,0.0,0.0,0.0,0.0,0.0,0.0,0.0,0.0,0.0,0.0,0.0,0.0,0.0,0.0,0.0,0.0,0.0,0.0,786.1172,778.46155,796.5934,814.3223,639.0476,-0.40679931640625,0.1512451171875,0.88922119140625,3.0206298828125,-4.314117431640625,0.88226318359375,0.0,4.0,4.0,4.0,4.0,100.0,event
10:33:47.792,0.0,0.0,0.0,0.0,0.0,0.0,0.0,0.0,0.0,0.0,0.0,0.0,0.0,0.0,0.0,0.0,0.0,0.0,0.0,0.0,824.3956,773.6264,802.6374,638.6447,731.31866,-0.40679931640625,0.1512451171875,0.88922119140625,3.0206298828125,-4.314117431640625,0.88226318359375,0.0,4.0,4.0,4.0,4.0,100.0,event
10:33:47.794,0.0,0.0,0.0,0.0,0.0,0.0,0.0,0.0,0.0,0.0,0.0,0.0,0.0,0.0,0.0,0.0,0.0,0.0,0.0,0.0,857.8388,770.40295,801.4286,554.43225,804.65204,-0.40679931640625,0.1512451171875,0.88922119140625,3.0206298828125,-4.314117431640625,0.88226318359375,0.0,4.0,4.0,4.0,4.0,100.0,event
10:33:47.817,0.0,0.0,0.0,0.0,0.0,0.0,0.0,0.0,0.0,0.0,0.0,0.0,0.0,0.0,0.0,0.0,0.0,0.0,0.0,0.0,835.2747,771.6117,803.8461,572.5641,739.3773,-0.40576171875,0.1556396484375,0.893310546875,2.086029052734375,-3.96270751953125,1.846771240234375,0.0,4.0,4.0,4.0,4.0,100.0,event
10:33:47.818,0.0,0.0,0.0,0.0,0.0,0.0,0.0,0.0,0.0,0.0,0.0,0.0,0.0,0.0,0.0,0.0,0.0,0.0,0.0,0.0,784.5055,774.0293,805.4579,590.696,687.8022,-0.40576171875,0.1556396484375,0.893310546875,2.086029052734375,-3.96270751953125,1.846771240234375,0.0,4.0,4.0,4.0,4.0,100.0,event
10:33:47.823,0.0,0.0,0.0,0.0,0.0,0.0,0.0,0.0,0.0,0.0,0.0,0.0,0.0,0.0,0.0,0.0,0.0,0.0,0.0,0.0,778.46155,774.43225,794.9817,629.7802,772.4176,-0.40576171875,0.1556396484375,0.893310546875,2.086029052734375,-3.96270751953125,1.846771240234375,0.0,4.0,4.0,4.0,4.0,100.0,event
10:33:47.824,0.0,0.0,0.0,0.0,0.0,0.0,0.0,0.0,0.0,0.0,0.0,0.0,0.0,0.0,0.0,0.0,0.0,0.0,0.0,0.0,821.1722,774.43225,790.54944,662.8205,751.4652,-0.40576171875,0.1556396484375,0.893310546875,2.086029052734375,-3.96270751953125,1.846771240234375,0.0,4.0,4.0,4.0,4.0,100.0,event
10:33:47.824,0.0,0.0,0.0,0.0,0.0,0.0,0.0,0.0,0.0,0.0,0.0,0.0,0.0,0.0,0.0,0.0,0.0,0.0,0.0,0.0,854.21246,772.8205,795.78754,637.8388,737.76556,-0.40576171875,0.1556396484375,0.893310546875,2.086029052734375,-3.96270751953125,1.846771240234375,0.0,4.0,4.0,4.0,4.0,100.0,event
10:33:47.825,0.0,0.0,0.0,0.0,0.0,0.0,0.0,0.0,0.0,0.0,0.0,0.0,0.0,0.0,0.0,0.0,0.0,0.0,0.0,0.0,787.72894,771.2088,804.65204,599.15753,1052.0513,-0.40576171875,0.1556396484375,0.893310546875,2.086029052734375,-3.96270751953125,1.846771240234375,0.0,4.0,4.0,4.0,4.0,100.0,event
10:33:47.825,0.0,0.0,0.0,0.0,0.0,0.0,0.0,0.0,0.0,0.0,0.0,0.0,0.0,0.0,0.0,0.0,0.0,0.0,0.0,0.0,837.28937,770.40295,800.6227,597.9487,872.3443,-0.40576171875,0.1556396484375,0.893310546875,2.086029052734375,-3.96270751953125,1.846771240234375,0.0,4.0,4.0,4.0,4.0,100.0,event
10:33:47.826,0.0,0.0,0.0,0.0,0.0,0.0,0.0,0.0,0.0,0.0,0.0,0.0,0.0,0.0,0.0,0.0,0.0,0.0,0.0,0.0,769.59705,774.83514,799.011,615.2747,1112.0879,-0.40576171875,0.1556396484375,0.893310546875,2.086029052734375,-3.96270751953125,1.846771240234375,0.0,4.0,4.0,4.0,4.0,100.0,event
10:33:47.827,0.0,0.0,0.0,0.0,0.0,0.0,0.0,0.0,0.0,0.0,0.0,0.0,0.0,0.0,0.0,0.0,0.0,0.0,0.0,0.0,813.5165,771.6117,793.7729,696.26373,789.7436,-0.40576171875,0.1556396484375,0.893310546875,2.086029052734375,-3.96270751953125,1.846771240234375,0.0,4.0,4.0,4.0,4.0,100.0,event
10:33:47.827,0.0,0.0,0.0,0.0,0.0,0.0,0.0,0.0,0.0,0.0,0.0,0.0,0.0,0.0,0.0,0.0,0.0,0.0,0.0,0.0,856.63007,774.0293,789.34064,816.337,718.4249,-0.40576171875,0.1556396484375,0.893310546875,2.086029052734375,-3.96270751953125,1.846771240234375,0.0,4.0,4.0,4.0,4.0,100.0,event
10:33:47.828,0.0,0.0,0.0,0.0,0.0,0.0,0.0,0.0,0.0,0.0,0.0,0.0,0.0,0.0,0.0,0.0,0.0,0.0,0.0,0.0,847.76556,779.2674,789.7436,787.326,826.8132,-0.40576171875,0.1556396484375,0.893310546875,2.086029052734375,-3.96270751953125,1.846771240234375,0.0,4.0,4.0,4.0,4.0,100.0,event
10:33:47.828,0.0,0.0,0.0,0.0,0.0,0.0,0.0,0.0,0.0,0.0,0.0,0.0,0.0,0.0,0.0,0.0,0.0,0.0,0.0,0.0,799.81683,780.07324,792.5641,734.5421,734.94507,-0.40576171875,0.1556396484375,0.893310546875,2.086029052734375,-3.96270751953125,1.846771240234375,0.0,4.0,4.0,4.0,4.0,100.0,event
10:33:47.872,0.0,0.0,0.0,0.0,0.0,0.0,0.0,0.0,0.0,0.0,0.0,0.0,0.0,0.0,0.0,0.0,0.0,0.0,0.0,0.0,778.0586,778.0586,792.5641,756.7033,716.8132,-0.4119873046875,0.156982421875,0.8892822265625,1.996307373046875,-4.17205810546875,1.353302001953125,0.0,4.0,4.0,4.0,4.0,100.0,event
10:33:47.873,0.0,0.0,0.0,0.0,0.0,0.0,0.0,0.0,0.0,0.0,0.0,0.0,0.0,0.0,0.0,0.0,0.0,0.0,0.0,0.0,810.696,771.2088,798.60803,793.7729,759.92676,-0.4119873046875,0.156982421875,0.8892822265625,1.996307373046875,-4.17205810546875,1.353302001953125,0.0,4.0,4.0,4.0,4.0,100.0,event
10:33:47.875,0.0,0.0,0.0,0.0,0.0,0.0,0.0,0.0,0.0,0.0,0.0,0.0,0.0,0.0,0.0,0.0,0.0,0.0,0.0,0.0,853.4066,771.6117,804.65204,815.9341,812.71063,-0.4119873046875,0.156982421875,0.8892822265625,1.996307373046875,-4.17205810546875,1.353302001953125,0.0,4.0,4.0,4.0,4.0,100.0,event
10:33:47.876,0.0,0.0,0.0,0.0,0.0,0.0,0.0,0.0,0.0,0.0,0.0,0.0,0.0,0.0,0.0,0.0,0.0,0.0,0.0,0.0,845.34796,775.2381,805.4579,826.0073,818.3516,-0.4119873046875,0.156982421875,0.8892822265625,1.996307373046875,-4.17205810546875,1.353302001953125,0.0,4.0,4.0,4.0,4.0,100.0,event
10:33:47.877,0.0,0.0,0.0,0.0,0.0,0.0,0.0,0.0,0.0,0.0,0.0,0.0,0.0,0.0,0.0,0.0,0.0,0.0,0.0,0.0,788.5348,776.4469,799.011,807.47253,799.011,-0.4119873046875,0.156982421875,0.8892822265625,1.996307373046875,-4.17205810546875,1.353302001953125,0.0,4.0,4.0,4.0,4.0,100.0,event
10:33:47.879,0.0,0.0,0.0,0.0,0.0,0.0,0.0,0.0,0.0,0.0,0.0,0.0,0.0,0.0,0.0,0.0,0.0,0.0,0.0,0.0,757.50916,775.2381,796.1905,800.2198,881.6117,-0.4119873046875,0.156982421875,0.8892822265625,1.996307373046875,-4.17205810546875,1.353302001953125,0.0,4.0,4.0,4.0,4.0,100.0,event
10:33:47.880,0.0,0.0,0.0,0.0,0.0,0.0,0.0,0.0,0.0,0.0,0.0,0.0,0.0,0.0,0.0,0.0,0.0,0.0,0.0,0.0,782.8938,773.22345,793.36993,859.45056,964.61536,-0.4119873046875,0.156982421875,0.8892822265625,1.996307373046875,-4.17205810546875,1.353302001953125,0.0,4.0,4.0,4.0,4.0,100.0,event
10:33:47.881,0.0,0.0,0.0,0.0,0.0,0.0,0.0,0.0,0.0,0.0,0.0,0.0,0.0,0.0,0.0,0.0,0.0,0.0,0.0,0.0,838.49817,772.8205,782.0879,887.6557,844.5421,-0.4119873046875,0.156982421875,0.8892822265625,1.996307373046875,-4.17205810546875,1.353302001953125,0.0,4.0,4.0,4.0,4.0,100.0,event
10:33:47.883,0.0,0.0,0.0,0.0,0.0,0.0,0.0,0.0,0.0,0.0,0.0,0.0,0.0,0.0,0.0,0.0,0.0,0.0,0.0,0.0,846.9597,776.04395,788.93774,884.43225,741.39197,-0.4119873046875,0.156982421875,0.8892822265625,1.996307373046875,-4.17205810546875,1.353302001953125,0.0,4.0,4.0,4.0,4.0,100.0,event
10:33:47.883,0.0,0.0,0.0,0.0,0.0,0.0,0.0,0.0,0.0,0.0,0.0,0.0,0.0,0.0,0.0,0.0,0.0,0.0,0.0,0.0,781.685,775.64105,794.9817,888.46155,887.6557,-0.4119873046875,0.156982421875,0.8892822265625,1.996307373046875,-4.17205810546875,1.353302001953125,0.0,4.0,4.0,4.0,4.0,100.0,event
10:33:47.884,0.0,0.0,0.0,0.0,0.0,0.0,0.0,0.0,0.0,0.0,0.0,0.0,0.0,0.0,0.0,0.0,0.0,0.0,0.0,0.0,747.8388,775.64105,788.5348,915.05493,1025.8608,-0.4119873046875,0.156982421875,0.8892822265625,1.996307373046875,-4.17205810546875,1.353302001953125,0.0,4.0,4.0,4.0,4.0,100.0,event
10:33:47.884,0.0,0.0,0.0,0.0,0.0,0.0,0.0,0.0,0.0,0.0,0.0,0.0,0.0,0.0,0.0,0.0,0.0,0.0,0.0,0.0,775.2381,776.04395,798.60803,935.2015,818.3516,-0.4119873046875,0.156982421875,0.8892822265625,1.996307373046875,-4.17205810546875,1.353302001953125,0.0,4.0,4.0,4.0,4.0,100.0,event
10:33:47.920,0.0,0.0,0.0,0.0,0.0,0.0,0.0,0.0,0.0,0.0,0.0,0.0,0.0,0.0,0.0,0.0,0.0,0.0,0.0,0.0,795.38464,772.4176,806.26373,904.9817,719.6337,-0.40972900390625,0.15728759765625,0.89031982421875,2.2430419921875,-3.87298583984375,0.64300537109375,0.0,4.0,4.0,4.0,4.0,100.0,event
10:33:47.921,0.0,0.0,0.0,0.0,0.0,0.0,0.0,0.0,0.0,0.0,0.0,0.0,0.0,0.0,0.0,0.0,0.0,0.0,0.0,0.0,793.7729,774.83514,799.41394,885.64105,823.5897,-0.40972900390625,0.15728759765625,0.89031982421875,2.2430419921875,-3.87298583984375,0.64300537109375,0.0,4.0,4.0,4.0,4.0,100.0,event
10:33:47.921,0.0,0.0,0.0,0.0,0.0,0.0,0.0,0.0,0.0,0.0,0.0,0.0,0.0,0.0,0.0,0.0,0.0,0.0,0.0,0.0,749.0476,774.43225,801.02563,870.7326,782.8938,-0.40972900390625,0.15728759765625,0.89031982421875,2.2430419921875,-3.87298583984375,0.64300537109375,0.0,4.0,4.0,4.0,4.0,100.0,event
10:33:47.922,0.0,0.0,0.0,0.0,0.0,0.0,0.0,0.0,0.0,0.0,0.0,0.0,0.0,0.0,0.0,0.0,0.0,0.0,0.0,0.0,713.9927,771.2088,802.6374,864.2857,704.3223,-0.40972900390625,0.15728759765625,0.89031982421875,2.2430419921875,-3.87298583984375,0.64300537109375,0.0,4.0,4.0,4.0,4.0,100.0,event
10:33:47.926,0.0,0.0,0.0,0.0,0.0,0.0,0.0,0.0,0.0,0.0,0.0,0.0,0.0,0.0,0.0,0.0,0.0,0.0,0.0,0.0,728.49817,776.8498,797.8022,869.92676,718.4249,-0.40972900390625,0.15728759765625,0.89031982421875,2.2430419921875,-3.87298583984375,0.64300537109375,0.0,4.0,4.0,4.0,4.0,100.0,event
10:33:47.927,0.0,0.0,0.0,0.0,0.0,0.0,0.0,0.0,0.0,0.0,0.0,0.0,0.0,0.0,0.0,0.0,0.0,0.0,0.0,0.0,772.8205,771.2088,799.011,911.4286,872.3443,-0.40972900390625,0.15728759765625,0.89031982421875,2.2430419921875,-3.87298583984375,0.64300537109375,0.0,4.0,4.0,4.0,4.0,100.0,event
10:33:47.927,0.0,0.0,0.0,0.0,0.0,0.0,0.0,0.0,0.0,0.0,0.0,0.0,0.0,0.0,0.0,0.0,0.0,0.0,0.0,0.0,760.32965,777.6557,800.6227,894.90845,825.6044,-0.40972900390625,0.15728759765625,0.89031982421875,2.2430419921875,-3.87298583984375,0.64300537109375,0.0,4.0,4.0,4.0,4.0,100.0,event
10:33:47.928,0.0,0.0,0.0,0.0,0.0,0.0,0.0,0.0,0.0,0.0,0.0,0.0,0.0,0.0,0.0,0.0,0.0,0.0,0.0,0.0,726.4835,770.80585,796.99634,909.81683,770.80585,-0.40972900390625,0.15728759765625,0.89031982421875,2.2430419921875,-3.87298583984375,0.64300537109375,0.0,4.0,4.0,4.0,4.0,100.0,event
10:33:47.929,0.0,0.0,0.0,0.0,0.0,0.0,0.0,0.0,0.0,0.0,0.0,0.0,0.0,0.0,0.0,0.0,0.0,0.0,0.0,0.0,670.07324,768.3883,797.8022,906.99634,647.9121,-0.40972900390625,0.15728759765625,0.89031982421875,2.2430419921875,-3.87298583984375,0.64300537109375,0.0,4.0,4.0,4.0,4.0,100.0,event
10:33:47.929,0.0,0.0,0.0,0.0,0.0,0.0,0.0,0.0,0.0,0.0,0.0,0.0,0.0,0.0,0.0,0.0,0.0,0.0,0.0,0.0,669.2674,769.59705,795.78754,905.38464,921.9048,-0.40972900390625,0.15728759765625,0.89031982421875,2.2430419921875,-3.87298583984375,0.64300537109375,0.0,4.0,4.0,4.0,4.0,100.0,event
10:33:47.930,0.0,0.0,0.0,0.0,0.0,0.0,0.0,0.0,0.0,0.0,0.0,0.0,0.0,0.0,0.0,0.0,0.0,0.0,0.0,0.0,706.7399,772.8205,788.1319,883.6264,985.56775,-0.40972900390625,0.15728759765625,0.89031982421875,2.2430419921875,-3.87298583984375,0.64300537109375,0.0,4.0,4.0,4.0,4.0,100.0,event
10:33:47.931,0.0,0.0,0.0,0.0,0.0,0.0,0.0,0.0,0.0,0.0,0.0,0.0,0.0,0.0,0.0,0.0,0.0,0.0,0.0,0.0,708.7546,770.0,785.7143,846.1539,756.30035,-0.40972900390625,0.15728759765625,0.89031982421875,2.2430419921875,-3.87298583984375,0.64300537109375,0.0,4.0,4.0,4.0,4.0,100.0,event
10:33:47.970,0.0,0.0,0.0,0.0,0.0,0.0,0.0,0.0,0.0,0.0,0.0,0.0,0.0,0.0,0.0,0.0,0.0,0.0,0.0,0.0,654.7619,769.59705,790.14655,801.02563,801.4286,-0.40704345703125,0.15594482421875,0.89471435546875,2.190704345703125,-4.59075927734375,-0.04486083984375,0.0,4.0,4.0,4.0,4.0,100.0,event
10:33:47.971,0.0,0.0,0.0,0.0,0.0,0.0,0.0,0.0,0.0,0.0,0.0,0.0,0.0,0.0,0.0,0.0,0.0,0.0,0.0,0.0,589.89014,769.19415,790.14655,753.47986,904.57874,-0.40704345703125,0.15594482421875,0.89471435546875,2.190704345703125,-4.59075927734375,-0.04486083984375,0.0,4.0,4.0,4.0,4.0,100.0,event
10:33:47.972,0.0,0.0,0.0,0.0,0.0,0.0,0.0,0.0,0.0,0.0,0.0,0.0,0.0,0.0,0.0,0.0,0.0,0.0,0.0,0.0,570.14655,769.59705,786.1172,720.0366,746.2271,-0.40704345703125,0.15594482421875,0.89471435546875,2.190704345703125,-4.59075927734375,-0.04486083984375,0.0,4.0,4.0,4.0,4.0,100.0,event
10:33:47.973,0.0,0.0,0.0,0.0,0.0,0.0,0.0,0.0,0.0,0.0,0.0,0.0,0.0,0.0,0.0,0.0,0.0,0.0,0.0,0.0,610.4396,769.59705,782.8938,726.08057,675.31134,-0.40704345703125,0.15594482421875,0.89471435546875,2.190704345703125,-4.59075927734375,-0.04486083984375,0.0,4.0,4.0,4.0,4.0,100.0,event
10:33:47.973,0.0,0.0,0.0,0.0,0.0,0.0,0.0,0.0,0.0,0.0,0.0,0.0,0.0,0.0,0.0,0.0,0.0,0.0,0.0,0.0,641.4652,770.40295,784.10254,723.663,779.2674,-0.40704345703125,0.15594482421875,0.89471435546875,2.190704345703125,-4.59075927734375,-0.04486083984375,0.0,4.0,4.0,4.0,4.0,100.0,event
10:33:47.974,0.0,0.0,0.0,0.0,0.0,0.0,0.0,0.0,0.0,0.0,0.0,0.0,0.0,0.0,0.0,0.0,0.0,0.0,0.0,0.0,611.2454,771.6117,787.72894,701.50183,824.7985,-0.40704345703125,0.15594482421875,0.89471435546875,2.190704345703125,-4.59075927734375,-0.04486083984375,0.0,4.0,4.0,4.0,4.0,100.0,event
10:33:47.975,0.0,0.0,0.0,0.0,0.0,0.0,0.0,0.0,0.0,0.0,0.0,0.0,0.0,0.0,0.0,0.0,0.0,0.0,0.0,0.0,571.75824,771.6117,790.9524,664.0293,890.07324,-0.40704345703125,0.15594482421875,0.89471435546875,2.190704345703125,-4.59075927734375,-0.04486083984375,0.0,4.0,4.0,4.0,4.0,100.0,event
10:33:47.976,0.0,0.0,0.0,0.0,0.0,0.0,0.0,0.0,0.0,0.0,0.0,0.0,0.0,0.0,0.0,0.0,0.0,0.0,0.0,0.0,584.2491,771.6117,800.2198,651.13556,878.3883,-0.40704345703125,0.15594482421875,0.89471435546875,2.190704345703125,-4.59075927734375,-0.04486083984375,0.0,4.0,4.0,4.0,4.0,100.0,event
10:33:47.977,0.0,0.0,0.0,0.0,0.0,0.0,0.0,0.0,0.0,0.0,0.0,0.0,0.0,0.0,0.0,0.0,0.0,0.0,0.0,0.0,624.94507,771.2088,813.5165,683.7729,822.381,-0.40704345703125,0.15594482421875,0.89471435546875,2.190704345703125,-4.59075927734375,-0.04486083984375,0.0,4.0,4.0,4.0,4.0,100.0,event
10:33:47.978,0.0,0.0,0.0,0.0,0.0,0.0,0.0,0.0,0.0,0.0,0.0,0.0,0.0,0.0,0.0,0.0,0.0,0.0,0.0,0.0,660.0,770.80585,808.2784,702.71063,1082.674,-0.40704345703125,0.15594482421875,0.89471435546875,2.190704345703125,-4.59075927734375,-0.04486083984375,0.0,4.0,4.0,4.0,4.0,100.0,event
10:33:47.979,0.0,0.0,0.0,0.0,0.0,0.0,0.0,0.0,0.0,0.0,0.0,0.0,0.0,0.0,0.0,0.0,0.0,0.0,0.0,0.0,669.67035,771.2088,797.8022,678.93774,891.28204,-0.40704345703125,0.15594482421875,0.89471435546875,2.190704345703125,-4.59075927734375,-0.04486083984375,0.0,4.0,4.0,4.0,4.0,100.0,event
10:33:47.980,0.0,0.0,0.0,0.0,0.0,0.0,0.0,0.0,0.0,0.0,0.0,0.0,0.0,0.0,0.0,0.0,0.0,0.0,0.0,0.0,650.32965,772.8205,792.96704,654.7619,618.49817,-0.40704345703125,0.15594482421875,0.89471435546875,2.190704345703125,-4.59075927734375,-0.04486083984375,0.0,4.0,4.0,4.0,4.0,100.0,event
10:33:48.018,0.0,0.0,0.0,0.0,0.0,0.0,0.0,0.0,0.0,0.0,0.0,0.0,0.0,0.0,0.0,0.0,0.0,0.0,0.0,0.0,660.80585,772.4176,789.7436,689.81683,709.15753,-0.40704345703125,0.15594482421875,0.89471435546875,2.190704345703125,-4.59075927734375,-0.04486083984375,0.0,4.0,4.0,4.0,4.0,100.0,event
10:33:48.019,0.0,0.0,0.0,0.0,0.0,0.0,0.0,0.0,0.0,0.0,0.0,0.0,0.0,0.0,0.0,0.0,0.0,0.0,0.0,0.0,723.663,772.4176,794.17584,753.0769,731.31866,-0.40704345703125,0.15594482421875,0.89471435546875,2.190704345703125,-4.59075927734375,-0.04486083984375,0.0,4.0,4.0,4.0,4.0,100.0,event
10:33:48.019,0.0,0.0,0.0,0.0,0.0,0.0,0.0,0.0,0.0,0.0,0.0,0.0,0.0,0.0,0.0,0.0,0.0,0.0,0.0,0.0,791.75824,775.64105,793.36993,791.75824,756.7033,-0.40704345703125,0.15594482421875,0.89471435546875,2.190704345703125,-4.59075927734375,-0.04486083984375,0.0,4.0,4.0,4.0,4.0,100.0,event
10:33:48.020,0.0,0.0,0.0,0.0,0.0,0.0,0.0,0.0,0.0,0.0,0.0,0.0,0.0,0.0,0.0,0.0,0.0,0.0,0.0,0.0,791.75824,774.83514,784.90845,807.8755,774.0293,-0.40704345703125,0.15594482421875,0.89471435546875,2.190704345703125,-4.59075927734375,-0.04486083984375,0.0,4.0,4.0,4.0,4.0,100.0,event
10:33:48.020,0.0,0.0,0.0,0.0,0.0,0.0,0.0,0.0,0.0,0.0,0.0,0.0,0.0,0.0,0.0,0.0,0.0,0.0,0.0,0.0,747.03296,773.22345,789.34064,838.0952,886.8498,-0.40704345703125,0.15594482421875,0.89471435546875,2.190704345703125,-4.59075927734375,-0.04486083984375,0.0,4.0,4.0,4.0,4.0,100.0,event
10:33:48.021,0.0,0.0,0.0,0.0,0.0,0.0,0.0,0.0,0.0,0.0,0.0,0.0,0.0,0.0,0.0,0.0,0.0,0.0,0.0,0.0,741.39197,771.6117,792.5641,847.76556,859.85345,-0.40704345703125,0.15594482421875,0.89471435546875,2.190704345703125,-4.59075927734375,-0.04486083984375,0.0,4.0,4.0,4.0,4.0,100.0,event
10:33:48.024,0.0,0.0,0.0,0.0,0.0,0.0,0.0,0.0,0.0,0.0,0.0,0.0,0.0,0.0,0.0,0.0,0.0,0.0,0.0,0.0,853.00366,773.6264,786.1172,897.72894,792.5641,-0.40704345703125,0.15594482421875,0.89471435546875,2.190704345703125,-4.59075927734375,-0.04486083984375,0.0,4.0,4.0,4.0,4.0,100.0,event
10:33:48.024,0.0,0.0,0.0,0.0,0.0,0.0,0.0,0.0,0.0,0.0,0.0,0.0,0.0,0.0,0.0,0.0,0.0,0.0,0.0,0.0,795.78754,772.01465,789.34064,864.68866,761.13556,-0.40704345703125,0.15594482421875,0.89471435546875,2.190704345703125,-4.59075927734375,-0.04486083984375,0.0,4.0,4.0,4.0,4.0,100.0,event
10:33:48.025,0.0,0.0,0.0,0.0,0.0,0.0,0.0,0.0,0.0,0.0,0.0,0.0,0.0,0.0,0.0,0.0,0.0,0.0,0.0,0.0,852.1978,774.0293,787.326,887.25275,942.4542,-0.40704345703125,0.15594482421875,0.89471435546875,2.190704345703125,-4.59075927734375,-0.04486083984375,0.0,4.0,4.0,4.0,4.0,100.0,event
10:33:48.025,0.0,0.0,0.0,0.0,0.0,0.0,0.0,0.0,0.0,0.0,0.0,0.0,0.0,0.0,0.0,0.0,0.0,0.0,0.0,0.0,808.2784,777.25275,790.9524,850.18317,912.23444,-0.40704345703125,0.15594482421875,0.89471435546875,2.190704345703125,-4.59075927734375,-0.04486083984375,0.0,4.0,4.0,4.0,4.0,100.0,event
10:33:48.026,0.0,0.0,0.0,0.0,0.0,0.0,0.0,0.0,0.0,0.0,0.0,0.0,0.0,0.0,0.0,0.0,0.0,0.0,0.0,0.0,794.17584,778.0586,792.1612,838.0952,646.7033,-0.40704345703125,0.15594482421875,0.89471435546875,2.190704345703125,-4.59075927734375,-0.04486083984375,0.0,4.0,4.0,4.0,4.0,100.0,event
10:33:48.026,0.0,0.0,0.0,0.0,0.0,0.0,0.0,0.0,0.0,0.0,0.0,0.0,0.0,0.0,0.0,0.0,0.0,0.0,0.0,0.0,834.0659,773.22345,790.54944,834.87177,620.9158,-0.40704345703125,0.15594482421875,0.89471435546875,2.190704345703125,-4.59075927734375,-0.04486083984375,0.0,4.0,4.0,4.0,4.0,100.0,event
10:33:48.050,0.0,0.0,0.0,0.0,0.0,0.0,0.0,0.0,0.0,0.0,0.0,0.0,0.0,0.0,0.0,0.0,0.0,0.0,0.0,0.0,882.8205,774.43225,792.5641,845.7509,708.7546,-0.4024658203125,0.15606689453125,0.8883056640625,1.906585693359375,-4.029998779296875,-0.844879150390625,0.0,4.0,4.0,4.0,4.0,100.0,event
10:33:48.051,0.0,0.0,0.0,0.0,0.0,0.0,0.0,0.0,0.0,0.0,0.0,0.0,0.0,0.0,0.0,0.0,0.0,0.0,0.0,0.0,896.9231,778.0586,792.1612,853.4066,695.8608,-0.4024658203125,0.15606689453125,0.8883056640625,1.906585693359375,-4.029998779296875,-0.844879150390625,0.0,4.0,4.0,4.0,4.0,100.0,event
10:33:48.051,0.0,0.0,0.0,0.0,0.0,0.0,0.0,0.0,0.0,0.0,0.0,0.0,0.0,0.0,0.0,0.0,0.0,0.0,0.0,0.0,850.18317,776.04395,790.54944,821.978,693.0403,-0.4024658203125,0.15606689453125,0.8883056640625,1.906585693359375,-4.029998779296875,-0.844879150390625,0.0,4.0,4.0,4.0,4.0,100.0,event
10:33:48.051,0.0,0.0,0.0,0.0,0.0,0.0,0.0,0.0,0.0,0.0,0.0,0.0,0.0,0.0,0.0,0.0,0.0,0.0,0.0,0.0,808.68134,773.6264,787.326,813.91943,707.1429,-0.4024658203125,0.15606689453125,0.8883056640625,1.906585693359375,-4.029998779296875,-0.844879150390625,0.0,4.0,4.0,4.0,4.0,100.0,event
10:33:48.051,0.0,0.0,0.0,0.0,0.0,0.0,0.0,0.0,0.0,0.0,0.0,0.0,0.0,0.0,0.0,0.0,0.0,0.0,0.0,0.0,830.4396,774.43225,786.1172,838.0952,754.2857,-0.4024658203125,0.15606689453125,0.8883056640625,1.906585693359375,-4.029998779296875,-0.844879150390625,0.0,4.0,4.0,4.0,4.0,100.0,event
10:33:48.052,0.0,0.0,0.0,0.0,0.0,0.0,0.0,0.0,0.0,0.0,0.0,0.0,0.0,0.0,0.0,0.0,0.0,0.0,0.0,0.0,835.6777,775.2381,788.93774,802.23444,903.36993,-0.4024658203125,0.15606689453125,0.8883056640625,1.906585693359375,-4.029998779296875,-0.844879150390625,0.0,4.0,4.0,4.0,4.0,100.0,event
10:33:48.052,0.0,0.0,0.0,0.0,0.0,0.0,0.0,0.0,0.0,0.0,0.0,0.0,0.0,0.0,0.0,0.0,0.0,0.0,0.0,0.0,792.1612,780.07324,787.72894,813.91943,1010.9524,-0.4024658203125,0.15606689453125,0.8883056640625,1.906585693359375,-4.029998779296875,-0.844879150390625,0.0,4.0,4.0,4.0,4.0,100.0,event
10:33:48.052,0.0,0.0,0.0,0.0,0.0,0.0,0.0,0.0,0.0,0.0,0.0,0.0,0.0,0.0,0.0,0.0,0.0,0.0,0.0,0.0,879.59705,774.0293,787.72894,855.0183,830.0366,-0.4024658203125,0.15606689453125,0.8883056640625,1.906585693359375,-4.029998779296875,-0.844879150390625,0.0,4.0,4.0,4.0,4.0,100.0,event
10:33:48.052,0.0,0.0,0.0,0.0,0.0,0.0,0.0,0.0,0.0,0.0,0.0,0.0,0.0,0.0,0.0,0.0,0.0,0.0,0.0,0.0,894.5055,774.0293,789.34064,842.52747,892.49084,-0.4024658203125,0.15606689453125,0.8883056640625,1.906585693359375,-4.029998779296875,-0.844879150390625,0.0,4.0,4.0,4.0,4.0,100.0,event
10:33:48.053,0.0,0.0,0.0,0.0,0.0,0.0,0.0,0.0,0.0,0.0,0.0,0.0,0.0,0.0,0.0,0.0,0.0,0.0,0.0,0.0,816.7399,780.07324,785.31134,851.79486,885.64105,-0.4024658203125,0.15606689453125,0.8883056640625,1.906585693359375,-4.029998779296875,-0.844879150390625,0.0,4.0,4.0,4.0,4.0,100.0,event
10:33:48.053,0.0,0.0,0.0,0.0,0.0,0.0,0.0,0.0,0.0,0.0,0.0,0.0,0.0,0.0,0.0,0.0,0.0,0.0,0.0,0.0,861.8681,776.8498,782.49084,867.9121,693.0403,-0.4024658203125,0.15606689453125,0.8883056640625,1.906585693359375,-4.029998779296875,-0.844879150390625,0.0,4.0,4.0,4.0,4.0,100.0,event
10:33:48.053,0.0,0.0,0.0,0.0,0.0,0.0,0.0,0.0,0.0,0.0,0.0,0.0,0.0,0.0,0.0,0.0,0.0,0.0,0.0,0.0,884.83514,780.07324,783.69965,880.80585,796.1905,-0.4024658203125,0.15606689453125,0.8883056640625,1.906585693359375,-4.029998779296875,-0.844879150390625,0.0,4.0,4.0,4.0,4.0,100.0,event
10:33:48.119,0.0,0.0,0.0,0.0,0.0,0.0,0.0,0.0,0.0,0.0,0.0,0.0,0.0,0.0,0.0,0.0,0.0,0.0,0.0,0.0,843.73627,780.87915,789.7436,871.13556,780.07324,-0.405517578125,0.15045166015625,0.892822265625,1.79443359375,-2.99072265625,-1.114044189453125,0.0,4.0,4.0,4.0,4.0,100.0,event
10:33:48.120,0.0,0.0,0.0,0.0,0.0,0.0,0.0,0.0,0.0,0.0,0.0,0.0,0.0,0.0,0.0,0.0,0.0,0.0,0.0,0.0,795.38464,775.2381,790.54944,849.7802,659.59705,-0.405517578125,0.15045166015625,0.892822265625,1.79443359375,-2.99072265625,-1.114044189453125,0.0,4.0,4.0,4.0,4.0,100.0,event
10:33:48.121,0.0,0.0,0.0,0.0,0.0,0.0,0.0,0.0,0.0,0.0,0.0,0.0,0.0,0.0,0.0,0.0,0.0,0.0,0.0,0.0,807.0696,775.2381,789.34064,820.7692,674.90845,-0.405517578125,0.15045166015625,0.892822265625,1.79443359375,-2.99072265625,-1.114044189453125,0.0,4.0,4.0,4.0,4.0,100.0,event
10:33:48.121,0.0,0.0,0.0,0.0,0.0,0.0,0.0,0.0,0.0,0.0,0.0,0.0,0.0,0.0,0.0,0.0,0.0,0.0,0.0,0.0,850.989,774.83514,790.9524,820.3663,780.4762,-0.405517578125,0.15045166015625,0.892822265625,1.79443359375,-2.99072265625,-1.114044189453125,0.0,4.0,4.0,4.0,4.0,100.0,event
10:33:48.122,0.0,0.0,0.0,0.0,0.0,0.0,0.0,0.0,0.0,0.0,0.0,0.0,0.0,0.0,0.0,0.0,0.0,0.0,0.0,0.0,874.35895,776.04395,797.8022,831.6484,811.9048,-0.405517578125,0.15045166015625,0.892822265625,1.79443359375,-2.99072265625,-1.114044189453125,0.0,4.0,4.0,4.0,4.0,100.0,event
10:33:48.122,0.0,0.0,0.0,0.0,0.0,0.0,0.0,0.0,0.0,0.0,0.0,0.0,0.0,0.0,0.0,0.0,0.0,0.0,0.0,0.0,823.5897,780.07324,796.1905,788.93774,825.6044,-0.405517578125,0.15045166015625,0.892822265625,1.79443359375,-2.99072265625,-1.114044189453125,0.0,4.0,4.0,4.0,4.0,100.0,event
10:33:48.123,0.0,0.0,0.0,0.0,0.0,0.0,0.0,0.0,0.0,0.0,0.0,0.0,0.0,0.0,0.0,0.0,0.0,0.0,0.0,0.0,765.16486,781.28204,786.9231,749.45056,836.08057,-0.405517578125,0.15045166015625,0.892822265625,1.79443359375,-2.99072265625,-1.114044189453125,0.0,4.0,4.0,4.0,4.0,100.0,event
10:33:48.124,0.0,0.0,0.0,0.0,0.0,0.0,0.0,0.0,0.0,0.0,0.0,0.0,0.0,0.0,0.0,0.0,0.0,0.0,0.0,0.0,762.74725,776.8498,792.5641,771.6117,958.5714,-0.405517578125,0.15045166015625,0.892822265625,1.79443359375,-2.99072265625,-1.114044189453125,0.0,4.0,4.0,4.0,4.0,100.0,event
10:33:48.127,0.0,0.0,0.0,0.0,0.0,0.0,0.0,0.0,0.0,0.0,0.0,0.0,0.0,0.0,0.0,0.0,0.0,0.0,0.0,0.0,794.9817,771.6117,796.1905,809.0842,971.4652,-0.405517578125,0.15045166015625,0.892822265625,1.79443359375,-2.99072265625,-1.114044189453125,0.0,4.0,4.0,4.0,4.0,100.0,event
10:33:48.128,0.0,0.0,0.0,0.0,0.0,0.0,0.0,0.0,0.0,0.0,0.0,0.0,0.0,0.0,0.0,0.0,0.0,0.0,0.0,0.0,823.9927,773.6264,802.23444,823.9927,798.20514,-0.405517578125,0.15045166015625,0.892822265625,1.79443359375,-2.99072265625,-1.114044189453125,0.0,4.0,4.0,4.0,4.0,100.0,event
10:33:48.128,0.0,0.0,0.0,0.0,0.0,0.0,0.0,0.0,0.0,0.0,0.0,0.0,0.0,0.0,0.0,0.0,0.0,0.0,0.0,0.0,794.17584,778.86444,805.4579,796.5934,833.663,-0.405517578125,0.15045166015625,0.892822265625,1.79443359375,-2.99072265625,-1.114044189453125,0.0,4.0,4.0,4.0,4.0,100.0,event
10:33:48.129,0.0,0.0,0.0,0.0,0.0,0.0,0.0,0.0,0.0,0.0,0.0,0.0,0.0,0.0,0.0,0.0,0.0,0.0,0.0,0.0,737.3626,783.69965,799.011,756.7033,902.5641,-0.405517578125,0.15045166015625,0.892822265625,1.79443359375,-2.99072265625,-1.114044189453125,0.0,4.0,4.0,4.0,4.0,100.0,event
10:33:48.170,0.0,0.0,0.0,0.0,0.0,0.0,0.0,0.0,0.0,0.0,0.0,0.0,0.0,0.0,0.0,0.0,0.0,0.0,0.0,0.0,744.61536,783.69965,791.75824,757.1062,717.619,-0.40167236328125,0.15155029296875,0.888916015625,1.742095947265625,-2.998199462890625,0.022430419921875,0.0,4.0,4.0,4.0,4.0,100.0,event
10:33:48.171,0.0,0.0,0.0,0.0,0.0,0.0,0.0,0.0,0.0,0.0,0.0,0.0,0.0,0.0,0.0,0.0,0.0,0.0,0.0,0.0,795.78754,780.07324,789.7436,752.27106,646.7033,-0.40167236328125,0.15155029296875,0.888916015625,1.742095947265625,-2.998199462890625,0.022430419921875,0.0,4.0,4.0,4.0,4.0,100.0,event
10:33:48.171,0.0,0.0,0.0,0.0,0.0,0.0,0.0,0.0,0.0,0.0,0.0,0.0,0.0,0.0,0.0,0.0,0.0,0.0,0.0,0.0,844.5421,779.2674,791.75824,770.0,768.7912,-0.40167236328125,0.15155029296875,0.888916015625,1.742095947265625,-2.998199462890625,0.022430419921875,0.0,4.0,4.0,4.0,4.0,100.0,event
10:33:48.172,0.0,0.0,0.0,0.0,0.0,0.0,0.0,0.0,0.0,0.0,0.0,0.0,0.0,0.0,0.0,0.0,0.0,0.0,0.0,0.0,828.022,779.2674,787.326,793.36993,846.55676,-0.40167236328125,0.15155029296875,0.888916015625,1.742095947265625,-2.998199462890625,0.022430419921875,0.0,4.0,4.0,4.0,4.0,100.0,event
10:33:48.173,0.0,0.0,0.0,0.0,0.0,0.0,0.0,0.0,0.0,0.0,0.0,0.0,0.0,0.0,0.0,0.0,0.0,0.0,0.0,0.0,771.2088,775.2381,796.99634,795.38464,738.97437,-0.40167236328125,0.15155029296875,0.888916015625,1.742095947265625,-2.998199462890625,0.022430419921875,0.0,4.0,4.0,4.0,4.0,100.0,event
10:33:48.173,0.0,0.0,0.0,0.0,0.0,0.0,0.0,0.0,0.0,0.0,0.0,0.0,0.0,0.0,0.0,0.0,0.0,0.0,0.0,0.0,764.35895,773.6264,803.8461,832.8571,776.4469,-0.40167236328125,0.15155029296875,0.888916015625,1.742095947265625,-2.998199462890625,0.022430419921875,0.0,4.0,4.0,4.0,4.0,100.0,event
10:33:48.174,0.0,0.0,0.0,0.0,0.0,0.0,0.0,0.0,0.0,0.0,0.0,0.0,0.0,0.0,0.0,0.0,0.0,0.0,0.0,0.0,817.1429,776.8498,781.685,859.85345,928.7546,-0.40167236328125,0.15155029296875,0.888916015625,1.742095947265625,-2.998199462890625,0.022430419921875,0.0,4.0,4.0,4.0,4.0,100.0,event
10:33:48.175,0.0,0.0,0.0,0.0,0.0,0.0,0.0,0.0,0.0,0.0,0.0,0.0,0.0,0.0,0.0,0.0,0.0,0.0,0.0,0.0,871.13556,775.2381,774.83514,851.79486,877.98535,-0.40167236328125,0.15155029296875,0.888916015625,1.742095947265625,-2.998199462890625,0.022430419921875,0.0,4.0,4.0,4.0,4.0,100.0,event
10:33:48.175,0.0,0.0,0.0,0.0,0.0,0.0,0.0,0.0,0.0,0.0,0.0,0.0,0.0,0.0,0.0,0.0,0.0,0.0,0.0,0.0,860.2564,776.04395,792.1612,832.4542,792.96704,-0.40167236328125,0.15155029296875,0.888916015625,1.742095947265625,-2.998199462890625,0.022430419921875,0.0,4.0,4.0,4.0,4.0,100.0,event
10:33:48.176,0.0,0.0,0.0,0.0,0.0,0.0,0.0,0.0,0.0,0.0,0.0,0.0,0.0,0.0,0.0,0.0,0.0,0.0,0.0,0.0,816.7399,778.86444,800.2198,796.99634,714.7985,-0.40167236328125,0.15155029296875,0.888916015625,1.742095947265625,-2.998199462890625,0.022430419921875,0.0,4.0,4.0,4.0,4.0,100.0,event
10:33:48.177,0.0,0.0,0.0,0.0,0.0,0.0,0.0,0.0,0.0,0.0,0.0,0.0,0.0,0.0,0.0,0.0,0.0,0.0,0.0,0.0,840.10986,773.6264,788.1319,813.91943,1087.1062,-0.40167236328125,0.15155029296875,0.888916015625,1.742095947265625,-2.998199462890625,0.022430419921875,0.0,4.0,4.0,4.0,4.0,100.0,event
10:33:48.177,0.0,0.0,0.0,0.0,0.0,0.0,0.0,0.0,0.0,0.0,0.0,0.0,0.0,0.0,0.0,0.0,0.0,0.0,0.0,0.0,799.81683,772.4176,799.81683,791.3553,834.87177,-0.40167236328125,0.15155029296875,0.888916015625,1.742095947265625,-2.998199462890625,0.022430419921875,0.0,4.0,4.0,4.0,4.0,100.0,event
10:33:48.221,0.0,0.0,0.0,0.0,0.0,0.0,0.0,0.0,0.0,0.0,0.0,0.0,0.0,0.0,0.0,0.0,0.0,0.0,0.0,0.0,911.02563,778.86444,766.3736,837.28937,908.60803,-0.40130615234375,0.14849853515625,0.884765625,1.786956787109375,-3.237457275390625,0.16448974609375,0.0,4.0,4.0,4.0,4.0,100.0,event
10:33:48.222,0.0,0.0,0.0,0.0,0.0,0.0,0.0,0.0,0.0,0.0,0.0,0.0,0.0,0.0,0.0,0.0,0.0,0.0,0.0,0.0,915.05493,775.2381,770.0,868.71796,801.4286,-0.40130615234375,0.14849853515625,0.884765625,1.786956787109375,-3.237457275390625,0.16448974609375,0.0,4.0,4.0,4.0,4.0,100.0,event
10:33:48.223,0.0,0.0,0.0,0.0,0.0,0.0,0.0,0.0,0.0,0.0,0.0,0.0,0.0,0.0,0.0,0.0,0.0,0.0,0.0,0.0,857.03296,772.01465,794.9817,863.47986,894.5055,-0.40130615234375,0.14849853515625,0.884765625,1.786956787109375,-3.237457275390625,0.16448974609375,0.0,4.0,4.0,4.0,4.0,100.0,event
10:33:48.223,0.0,0.0,0.0,0.0,0.0,0.0,0.0,0.0,0.0,0.0,0.0,0.0,0.0,0.0,0.0,0.0,0.0,0.0,0.0,0.0,834.0659,780.07324,793.36993,905.38464,791.75824,-0.40130615234375,0.14849853515625,0.884765625,1.786956787109375,-3.237457275390625,0.16448974609375,0.0,4.0,4.0,4.0,4.0,100.0,event
10:33:48.224,0.0,0.0,0.0,0.0,0.0,0.0,0.0,0.0,0.0,0.0,0.0,0.0,0.0,0.0,0.0,0.0,0.0,0.0,0.0,0.0,867.50916,782.8938,778.46155,947.28937,637.8388,-0.40130615234375,0.14849853515625,0.884765625,1.786956787109375,-3.237457275390625,0.16448974609375,0.0,4.0,4.0,4.0,4.0,100.0,event
10:33:48.225,0.0,0.0,0.0,0.0,0.0,0.0,0.0,0.0,0.0,0.0,0.0,0.0,0.0,0.0,0.0,0.0,0.0,0.0,0.0,0.0,894.90845,772.8205,794.57874,848.1685,693.8461,-0.40130615234375,0.14849853515625,0.884765625,1.786956787109375,-3.237457275390625,0.16448974609375,0.0,4.0,4.0,4.0,4.0,100.0,event
10:33:48.225,0.0,0.0,0.0,0.0,0.0,0.0,0.0,0.0,0.0,0.0,0.0,0.0,0.0,0.0,0.0,0.0,0.0,0.0,0.0,0.0,880.80585,772.4176,813.5165,752.674,938.022,-0.40130615234375,0.14849853515625,0.884765625,1.786956787109375,-3.237457275390625,0.16448974609375,0.0,4.0,4.0,4.0,4.0,100.0,event
10:33:48.226,0.0,0.0,0.0,0.0,0.0,0.0,0.0,0.0,0.0,0.0,0.0,0.0,0.0,0.0,0.0,0.0,0.0,0.0,0.0,0.0,840.9158,776.8498,809.4872,635.82416,925.5311,-0.40130615234375,0.14849853515625,0.884765625,1.786956787109375,-3.237457275390625,0.16448974609375,0.0,4.0,4.0,4.0,4.0,100.0,event
10:33:48.227,0.0,0.0,0.0,0.0,0.0,0.0,0.0,0.0,0.0,0.0,0.0,0.0,0.0,0.0,0.0,0.0,0.0,0.0,0.0,0.0,823.5897,779.2674,798.60803,477.0696,647.1062,-0.40130615234375,0.14849853515625,0.884765625,1.786956787109375,-3.237457275390625,0.16448974609375,0.0,4.0,4.0,4.0,4.0,100.0,event
10:33:48.227,0.0,0.0,0.0,0.0,0.0,0.0,0.0,0.0,0.0,0.0,0.0,0.0,0.0,0.0,0.0,0.0,0.0,0.0,0.0,0.0,838.49817,783.69965,779.2674,359.81686,670.87915,-0.40130615234375,0.14849853515625,0.884765625,1.786956787109375,-3.237457275390625,0.16448974609375,0.0,4.0,4.0,4.0,4.0,100.0,event
10:33:48.231,0.0,0.0,0.0,0.0,0.0,0.0,0.0,0.0,0.0,0.0,0.0,0.0,0.0,0.0,0.0,0.0,0.0,0.0,0.0,0.0,881.2088,782.0879,761.53845,357.39926,804.2491,-0.40130615234375,0.14849853515625,0.884765625,1.786956787109375,-3.237457275390625,0.16448974609375,0.0,4.0,4.0,4.0,4.0,100.0,event
10:33:48.232,0.0,0.0,0.0,0.0,0.0,0.0,0.0,0.0,0.0,0.0,0.0,0.0,0.0,0.0,0.0,0.0,0.0,0.0,0.0,0.0,895.7143,781.28204,779.2674,392.45422,768.7912,-0.40130615234375,0.14849853515625,0.884765625,1.786956787109375,-3.237457275390625,0.16448974609375,0.0,4.0,4.0,4.0,4.0,100.0,event
10:33:48.274,0.0,0.0,0.0,0.0,0.0,0.0,0.0,0.0,0.0,0.0,0.0,0.0,0.0,0.0,0.0,0.0,0.0,0.0,0.0,0.0,843.3333,781.685,793.7729,405.348,704.7253,-0.40130615234375,0.14849853515625,0.884765625,1.786956787109375,-3.237457275390625,0.16448974609375,0.0,4.0,4.0,4.0,4.0,100.0,event
10:33:48.275,0.0,0.0,0.0,0.0,0.0,0.0,0.0,0.0,0.0,0.0,0.0,0.0,0.0,0.0,0.0,0.0,0.0,0.0,0.0,0.0,809.89014,779.67035,778.86444,418.64468,719.6337,-0.40130615234375,0.14849853515625,0.884765625,1.786956787109375,-3.237457275390625,0.16448974609375,0.0,4.0,4.0,4.0,4.0,100.0,event
10:33:48.276,0.0,0.0,0.0,0.0,0.0,0.0,0.0,0.0,0.0,0.0,0.0,0.0,0.0,0.0,0.0,0.0,0.0,0.0,0.0,0.0,837.6923,778.0586,768.7912,453.69965,748.6447,-0.40130615234375,0.14849853515625,0.884765625,1.786956787109375,-3.237457275390625,0.16448974609375,0.0,4.0,4.0,4.0,4.0,100.0,event
10:33:48.278,0.0,0.0,0.0,0.0,0.0,0.0,0.0,0.0,0.0,0.0,0.0,0.0,0.0,0.0,0.0,0.0,0.0,0.0,0.0,0.0,875.9707,774.43225,778.86444,487.94873,756.7033,-0.40130615234375,0.14849853515625,0.884765625,1.786956787109375,-3.237457275390625,0.16448974609375,0.0,4.0,4.0,4.0,4.0,100.0,event
10:33:48.279,0.0,0.0,0.0,0.0,0.0,0.0,0.0,0.0,0.0,0.0,0.0,0.0,0.0,0.0,0.0,0.0,0.0,0.0,0.0,0.0,895.31134,775.64105,791.75824,496.8132,840.9158,-0.40130615234375,0.14849853515625,0.884765625,1.786956787109375,-3.237457275390625,0.16448974609375,0.0,4.0,4.0,4.0,4.0,100.0,event
10:33:48.280,0.0,0.0,0.0,0.0,0.0,0.0,0.0,0.0,0.0,0.0,0.0,0.0,0.0,0.0,0.0,0.0,0.0,0.0,0.0,0.0,854.61536,778.0586,793.7729,500.03662,948.49817,-0.40130615234375,0.14849853515625,0.884765625,1.786956787109375,-3.237457275390625,0.16448974609375,0.0,4.0,4.0,4.0,4.0,100.0,event
10:33:48.281,0.0,0.0,0.0,0.0,0.0,0.0,0.0,0.0,0.0,0.0,0.0,0.0,0.0,0.0,0.0,0.0,0.0,0.0,0.0,0.0,809.89014,777.25275,783.69965,515.7509,1164.4689,-0.40130615234375,0.14849853515625,0.884765625,1.786956787109375,-3.237457275390625,0.16448974609375,0.0,4.0,4.0,4.0,4.0,100.0,event
10:33:48.282,0.0,0.0,0.0,0.0,0.0,0.0,0.0,0.0,0.0,0.0,0.0,0.0,0.0,0.0,0.0,0.0,0.0,0.0,0.0,0.0,833.663,776.4469,779.2674,530.2564,990.40295,-0.40130615234375,0.14849853515625,0.884765625,1.786956787109375,-3.237457275390625,0.16448974609375,0.0,4.0,4.0,4.0,4.0,100.0,event
10:33:48.283,0.0,0.0,0.0,0.0,0.0,0.0,0.0,0.0,0.0,0.0,0.0,0.0,0.0,0.0,0.0,0.0,0.0,0.0,0.0,0.0,877.5824,773.22345,783.69965,578.60803,733.3333,-0.40130615234375,0.14849853515625,0.884765625,1.786956787109375,-3.237457275390625,0.16448974609375,0.0,4.0,4.0,4.0,4.0,100.0,event
10:33:48.284,0.0,0.0,0.0,0.0,0.0,0.0,0.0,0.0,0.0,0.0,0.0,0.0,0.0,0.0,0.0,0.0,0.0,0.0,0.0,0.0,901.75824,774.83514,782.49084,643.47986,817.1429,-0.40130615234375,0.14849853515625,0.884765625,1.786956787109375,-3.237457275390625,0.16448974609375,0.0,4.0,4.0,4.0,4.0,100.0,event
10:33:48.284,0.0,0.0,0.0,0.0,0.0,0.0,0.0,0.0,0.0,0.0,0.0,0.0,0.0,0.0,0.0,0.0,0.0,0.0,0.0,0.0,866.7033,774.0293,784.90845,637.03296,796.99634,-0.40130615234375,0.14849853515625,0.884765625,1.786956787109375,-3.237457275390625,0.16448974609375,0.0,4.0,4.0,4.0,4.0,100.0,event
10:33:48.285,0.0,0.0,0.0,0.0,0.0,0.0,0.0,0.0,0.0,0.0,0.0,0.0,0.0,0.0,0.0,0.0,0.0,0.0,0.0,0.0,811.0989,769.59705,781.685,635.82416,691.02563,-0.40130615234375,0.14849853515625,0.884765625,1.786956787109375,-3.237457275390625,0.16448974609375,0.0,4.0,4.0,4.0,4.0,100.0,event
10:33:48.320,0.0,0.0,0.0,0.0,0.0,0.0,0.0,0.0,0.0,0.0,0.0,0.0,0.0,0.0,0.0,0.0,0.0,0.0,0.0,0.0,823.1868,770.40295,769.59705,776.8498,701.0989,-0.411865234375,0.15386962890625,0.89862060546875,2.6019287109375,-3.521575927734375,0.35888671875,0.0,4.0,4.0,4.0,4.0,100.0,event
10:33:48.321,0.0,0.0,0.0,0.0,0.0,0.0,0.0,0.0,0.0,0.0,0.0,0.0,0.0,0.0,0.0,0.0,0.0,0.0,0.0,0.0,866.30035,770.40295,782.0879,761.13556,797.3993,-0.411865234375,0.15386962890625,0.89862060546875,2.6019287109375,-3.521575927734375,0.35888671875,0.0,4.0,4.0,4.0,4.0,100.0,event
10:33:48.322,0.0,0.0,0.0,0.0,0.0,0.0,0.0,0.0,0.0,0.0,0.0,0.0,0.0,0.0,0.0,0.0,0.0,0.0,0.0,0.0,894.90845,771.6117,790.14655,725.6777,790.9524,-0.411865234375,0.15386962890625,0.89862060546875,2.6019287109375,-3.521575927734375,0.35888671875,0.0,4.0,4.0,4.0,4.0,100.0,event
10:33:48.322,0.0,0.0,0.0,0.0,0.0,0.0,0.0,0.0,0.0,0.0,0.0,0.0,0.0,0.0,0.0,0.0,0.0,0.0,0.0,0.0,864.2857,775.64105,788.1319,767.1795,765.9707,-0.411865234375,0.15386962890625,0.89862060546875,2.6019287109375,-3.521575927734375,0.35888671875,0.0,4.0,4.0,4.0,4.0,100.0,event
10:33:48.323,0.0,0.0,0.0,0.0,0.0,0.0,0.0,0.0,0.0,0.0,0.0,0.0,0.0,0.0,0.0,0.0,0.0,0.0,0.0,0.0,807.47253,772.01465,788.1319,775.64105,771.2088,-0.411865234375,0.15386962890625,0.89862060546875,2.6019287109375,-3.521575927734375,0.35888671875,0.0,4.0,4.0,4.0,4.0,100.0,event
10:33:48.324,0.0,0.0,0.0,0.0,0.0,0.0,0.0,0.0,0.0,0.0,0.0,0.0,0.0,0.0,0.0,0.0,0.0,0.0,0.0,0.0,802.6374,770.80585,789.34064,867.9121,850.989,-0.411865234375,0.15386962890625,0.89862060546875,2.6019287109375,-3.521575927734375,0.35888671875,0.0,4.0,4.0,4.0,4.0,100.0,event
10:33:48.324,0.0,0.0,0.0,0.0,0.0,0.0,0.0,0.0,0.0,0.0,0.0,0.0,0.0,0.0,0.0,0.0,0.0,0.0,0.0,0.0,839.707,776.04395,789.7436,892.0879,893.2967,-0.411865234375,0.15386962890625,0.89862060546875,2.6019287109375,-3.521575927734375,0.35888671875,0.0,4.0,4.0,4.0,4.0,100.0,event
10:33:48.325,0.0,0.0,0.0,0.0,0.0,0.0,0.0,0.0,0.0,0.0,0.0,0.0,0.0,0.0,0.0,0.0,0.0,0.0,0.0,0.0,879.59705,778.86444,782.49084,826.4103,858.6447,-0.411865234375,0.15386962890625,0.89862060546875,2.6019287109375,-3.521575927734375,0.35888671875,0.0,4.0,4.0,4.0,4.0,100.0,event
10:33:48.326,0.0,0.0,0.0,0.0,0.0,0.0,0.0,0.0,0.0,0.0,0.0,0.0,0.0,0.0,0.0,0.0,0.0,0.0,0.0,0.0,869.5238,779.67035,784.10254,796.1905,812.3077,-0.411865234375,0.15386962890625,0.89862060546875,2.6019287109375,-3.521575927734375,0.35888671875,0.0,4.0,4.0,4.0,4.0,100.0,event
10:33:48.326,0.0,0.0,0.0,0.0,0.0,0.0,0.0,0.0,0.0,0.0,0.0,0.0,0.0,0.0,0.0,0.0,0.0,0.0,0.0,0.0,815.12823,779.67035,787.326,804.65204,944.0659,-0.411865234375,0.15386962890625,0.89862060546875,2.6019287109375,-3.521575927734375,0.35888671875,0.0,4.0,4.0,4.0,4.0,100.0,event
10:33:48.327,0.0,0.0,0.0,0.0,0.0,0.0,0.0,0.0,0.0,0.0,0.0,0.0,0.0,0.0,0.0,0.0,0.0,0.0,0.0,0.0,800.6227,780.4762,788.93774,817.5458,945.6777,-0.411865234375,0.15386962890625,0.89862060546875,2.6019287109375,-3.521575927734375,0.35888671875,0.0,4.0,4.0,4.0,4.0,100.0,event
10:33:48.328,0.0,0.0,0.0,0.0,0.0,0.0,0.0,0.0,0.0,0.0,0.0,0.0,0.0,0.0,0.0,0.0,0.0,0.0,0.0,0.0,846.9597,774.0293,796.5934,821.978,704.3223,-0.411865234375,0.15386962890625,0.89862060546875,2.6019287109375,-3.521575927734375,0.35888671875,0.0,4.0,4.0,4.0,4.0,100.0,event
10:33:48.372,0.0,0.0,0.0,0.0,0.0,0.0,0.0,0.0,0.0,0.0,0.0,0.0,0.0,0.0,0.0,0.0,0.0,0.0,0.0,0.0,894.90845,772.4176,801.8315,842.1245,755.89746,-0.410400390625,0.1439208984375,0.8880615234375,1.86920166015625,-3.1402587890625,-0.9271240234375,0.0,4.0,4.0,4.0,4.0,100.0,event
10:33:48.373,0.0,0.0,0.0,0.0,0.0,0.0,0.0,0.0,0.0,0.0,0.0,0.0,0.0,0.0,0.0,0.0,0.0,0.0,0.0,0.0,882.8205,776.8498,797.3993,847.3626,855.0183,-0.410400390625,0.1439208984375,0.8880615234375,1.86920166015625,-3.1402587890625,-0.9271240234375,0.0,4.0,4.0,4.0,4.0,100.0,event
10:33:48.374,0.0,0.0,0.0,0.0,0.0,0.0,0.0,0.0,0.0,0.0,0.0,0.0,0.0,0.0,0.0,0.0,0.0,0.0,0.0,0.0,830.84247,778.86444,805.4579,831.6484,733.3333,-0.410400390625,0.1439208984375,0.8880615234375,1.86920166015625,-3.1402587890625,-0.9271240234375,0.0,4.0,4.0,4.0,4.0,100.0,event
10:33:48.375,0.0,0.0,0.0,0.0,0.0,0.0,0.0,0.0,0.0,0.0,0.0,0.0,0.0,0.0,0.0,0.0,0.0,0.0,0.0,0.0,810.293,781.685,813.5165,823.1868,624.94507,-0.410400390625,0.1439208984375,0.8880615234375,1.86920166015625,-3.1402587890625,-0.9271240234375,0.0,4.0,4.0,4.0,4.0,100.0,event
10:33:48.375,0.0,0.0,0.0,0.0,0.0,0.0,0.0,0.0,0.0,0.0,0.0,0.0,0.0,0.0,0.0,0.0,0.0,0.0,0.0,0.0,841.31866,780.87915,803.44324,806.26373,715.2015,-0.410400390625,0.1439208984375,0.8880615234375,1.86920166015625,-3.1402587890625,-0.9271240234375,0.0,4.0,4.0,4.0,4.0,100.0,event
10:33:48.376,0.0,0.0,0.0,0.0,0.0,0.0,0.0,0.0,0.0,0.0,0.0,0.0,0.0,0.0,0.0,0.0,0.0,0.0,0.0,0.0,880.80585,778.46155,794.17584,797.8022,859.45056,-0.410400390625,0.1439208984375,0.8880615234375,1.86920166015625,-3.1402587890625,-0.9271240234375,0.0,4.0,4.0,4.0,4.0,100.0,event
10:33:48.377,0.0,0.0,0.0,0.0,0.0,0.0,0.0,0.0,0.0,0.0,0.0,0.0,0.0,0.0,0.0,0.0,0.0,0.0,0.0,0.0,873.95605,776.8498,790.9524,807.8755,873.95605,-0.410400390625,0.1439208984375,0.8880615234375,1.86920166015625,-3.1402587890625,-0.9271240234375,0.0,4.0,4.0,4.0,4.0,100.0,event
10:33:48.377,0.0,0.0,0.0,0.0,0.0,0.0,0.0,0.0,0.0,0.0,0.0,0.0,0.0,0.0,0.0,0.0,0.0,0.0,0.0,0.0,831.6484,778.0586,786.52014,804.2491,717.2161,-0.410400390625,0.1439208984375,0.8880615234375,1.86920166015625,-3.1402587890625,-0.9271240234375,0.0,4.0,4.0,4.0,4.0,100.0,event
10:33:48.378,0.0,0.0,0.0,0.0,0.0,0.0,0.0,0.0,0.0,0.0,0.0,0.0,0.0,0.0,0.0,0.0,0.0,0.0,0.0,0.0,807.47253,777.25275,781.685,795.38464,724.4689,-0.410400390625,0.1439208984375,0.8880615234375,1.86920166015625,-3.1402587890625,-0.9271240234375,0.0,4.0,4.0,4.0,4.0,100.0,event
10:33:48.379,0.0,0.0,0.0,0.0,0.0,0.0,0.0,0.0,0.0,0.0,0.0,0.0,0.0,0.0,0.0,0.0,0.0,0.0,0.0,0.0,836.8865,779.2674,790.54944,811.9048,994.83514,-0.410400390625,0.1439208984375,0.8880615234375,1.86920166015625,-3.1402587890625,-0.9271240234375,0.0,4.0,4.0,4.0,4.0,100.0,event
10:33:48.380,0.0,0.0,0.0,0.0,0.0,0.0,0.0,0.0,0.0,0.0,0.0,0.0,0.0,0.0,0.0,0.0,0.0,0.0,0.0,0.0,881.6117,784.10254,794.17584,817.5458,908.60803,-0.410400390625,0.1439208984375,0.8880615234375,1.86920166015625,-3.1402587890625,-0.9271240234375,0.0,4.0,4.0,4.0,4.0,100.0,event
10:33:48.381,0.0,0.0,0.0,0.0,0.0,0.0,0.0,0.0,0.0,0.0,0.0,0.0,0.0,0.0,0.0,0.0,0.0,0.0,0.0,0.0,878.3883,782.8938,799.81683,822.381,713.1868,-0.410400390625,0.1439208984375,0.8880615234375,1.86920166015625,-3.1402587890625,-0.9271240234375,0.0,4.0,4.0,4.0,4.0,100.0,event
10:33:48.403,0.0,0.0,0.0,0.0,0.0,0.0,0.0,0.0,0.0,0.0,0.0,0.0,0.0,0.0,0.0,0.0,0.0,0.0,0.0,0.0,821.1722,778.86444,807.47253,838.0952,775.64105,-0.4068603515625,0.1458740234375,0.890380859375,1.8243408203125,-3.51409912109375,-0.082244873046875,0.0,4.0,4.0,4.0,4.0,100.0,event
10:33:48.404,0.0,0.0,0.0,0.0,0.0,0.0,0.0,0.0,0.0,0.0,0.0,0.0,0.0,0.0,0.0,0.0,0.0,0.0,0.0,0.0,823.9927,778.0586,794.9817,870.7326,703.5165,-0.4068603515625,0.1458740234375,0.890380859375,1.8243408203125,-3.51409912109375,-0.082244873046875,0.0,4.0,4.0,4.0,4.0,100.0,event
10:33:48.404,0.0,0.0,0.0,0.0,0.0,0.0,0.0,0.0,0.0,0.0,0.0,0.0,0.0,0.0,0.0,0.0,0.0,0.0,0.0,0.0,785.7143,776.8498,804.65204,845.7509,783.2967,-0.4068603515625,0.1458740234375,0.890380859375,1.8243408203125,-3.51409912109375,-0.082244873046875,0.0,4.0,4.0,4.0,4.0,100.0,event
10:33:48.405,0.0,0.0,0.0,0.0,0.0,0.0,0.0,0.0,0.0,0.0,0.0,0.0,0.0,0.0,0.0,0.0,0.0,0.0,0.0,0.0,877.1795,778.86444,786.9231,906.1905,708.7546,-0.4068603515625,0.1458740234375,0.890380859375,1.8243408203125,-3.51409912109375,-0.082244873046875,0.0,4.0,4.0,4.0,4.0,100.0,event
10:33:48.406,0.0,0.0,0.0,0.0,0.0,0.0,0.0,0.0,0.0,0.0,0.0,0.0,0.0,0.0,0.0,0.0,0.0,0.0,0.0,0.0,873.1502,779.2674,795.78754,877.5824,843.73627,-0.4068603515625,0.1458740234375,0.890380859375,1.8243408203125,-3.51409912109375,-0.082244873046875,0.0,4.0,4.0,4.0,4.0,100.0,event
10:33:48.406,0.0,0.0,0.0,0.0,0.0,0.0,0.0,0.0,0.0,0.0,0.0,0.0,0.0,0.0,0.0,0.0,0.0,0.0,0.0,0.0,820.3663,780.07324,801.4286,770.80585,940.0366,-0.4068603515625,0.1458740234375,0.890380859375,1.8243408203125,-3.51409912109375,-0.082244873046875,0.0,4.0,4.0,4.0,4.0,100.0,event
10:33:48.407,0.0,0.0,0.0,0.0,0.0,0.0,0.0,0.0,0.0,0.0,0.0,0.0,0.0,0.0,0.0,0.0,0.0,0.0,0.0,0.0,788.1319,777.25275,796.1905,720.84247,833.663,-0.4068603515625,0.1458740234375,0.890380859375,1.8243408203125,-3.51409912109375,-0.082244873046875,0.0,4.0,4.0,4.0,4.0,100.0,event
10:33:48.408,0.0,0.0,0.0,0.0,0.0,0.0,0.0,0.0,0.0,0.0,0.0,0.0,0.0,0.0,0.0,0.0,0.0,0.0,0.0,0.0,810.293,775.64105,802.23444,746.2271,761.53845,-0.4068603515625,0.1458740234375,0.890380859375,1.8243408203125,-3.51409912109375,-0.082244873046875,0.0,4.0,4.0,4.0,4.0,100.0,event
10:33:48.408,0.0,0.0,0.0,0.0,0.0,0.0,0.0,0.0,0.0,0.0,0.0,0.0,0.0,0.0,0.0,0.0,0.0,0.0,0.0,0.0,843.3333,776.04395,802.6374,775.2381,936.0073,-0.4068603515625,0.1458740234375,0.890380859375,1.8243408203125,-3.51409912109375,-0.082244873046875,0.0,4.0,4.0,4.0,4.0,100.0,event
10:33:48.409,0.0,0.0,0.0,0.0,0.0,0.0,0.0,0.0,0.0,0.0,0.0,0.0,0.0,0.0,0.0,0.0,0.0,0.0,0.0,0.0,861.8681,777.25275,795.38464,799.41394,950.10986,-0.4068603515625,0.1458740234375,0.890380859375,1.8243408203125,-3.51409912109375,-0.082244873046875,0.0,4.0,4.0,4.0,4.0,100.0,event
10:33:48.410,0.0,0.0,0.0,0.0,0.0,0.0,0.0,0.0,0.0,0.0,0.0,0.0,0.0,0.0,0.0,0.0,0.0,0.0,0.0,0.0,832.4542,775.2381,792.5641,805.05493,690.2198,-0.4068603515625,0.1458740234375,0.890380859375,1.8243408203125,-3.51409912109375,-0.082244873046875,0.0,4.0,4.0,4.0,4.0,100.0,event
10:33:48.410,0.0,0.0,0.0,0.0,0.0,0.0,0.0,0.0,0.0,0.0,0.0,0.0,0.0,0.0,0.0,0.0,0.0,0.0,0.0,0.0,785.31134,779.2674,800.6227,799.011,646.30035,-0.4068603515625,0.1458740234375,0.890380859375,1.8243408203125,-3.51409912109375,-0.082244873046875,0.0,4.0,4.0,4.0,4.0,100.0,event
10:33:48.455,0.0,0.0,0.0,0.0,0.0,0.0,0.0,0.0,0.0,0.0,0.0,0.0,0.0,0.0,0.0,0.0,0.0,0.0,0.0,0.0,784.10254,780.87915,807.0696,800.6227,693.0403,-0.40802001953125,0.1402587890625,0.88555908203125,1.74957275390625,-3.349609375,0.82244873046875,0.0,4.0,4.0,4.0,4.0,100.0,event
10:33:48.456,0.0,0.0,0.0,0.0,0.0,0.0,0.0,0.0,0.0,0.0,0.0,0.0,0.0,0.0,0.0,0.0,0.0,0.0,0.0,0.0,828.4249,781.685,807.0696,806.6667,752.27106,-0.40802001953125,0.1402587890625,0.88555908203125,1.74957275390625,-3.349609375,0.82244873046875,0.0,4.0,4.0,4.0,4.0,100.0,event
10:33:48.459,0.0,0.0,0.0,0.0,0.0,0.0,0.0,0.0,0.0,0.0,0.0,0.0,0.0,0.0,0.0,0.0,0.0,0.0,0.0,0.0,865.4945,783.2967,799.81683,820.3663,735.34796,-0.40802001953125,0.1402587890625,0.88555908203125,1.74957275390625,-3.349609375,0.82244873046875,0.0,4.0,4.0,4.0,4.0,100.0,event
10:33:48.460,0.0,0.0,0.0,0.0,0.0,0.0,0.0,0.0,0.0,0.0,0.0,0.0,0.0,0.0,0.0,0.0,0.0,0.0,0.0,0.0,834.87177,782.8938,793.7729,828.8278,696.6667,-0.40802001953125,0.1402587890625,0.88555908203125,1.74957275390625,-3.349609375,0.82244873046875,0.0,4.0,4.0,4.0,4.0,100.0,event
10:33:48.461,0.0,0.0,0.0,0.0,0.0,0.0,0.0,0.0,0.0,0.0,0.0,0.0,0.0,0.0,0.0,0.0,0.0,0.0,0.0,0.0,788.5348,785.31134,793.36993,834.4689,838.9011,-0.40802001953125,0.1402587890625,0.88555908203125,1.74957275390625,-3.349609375,0.82244873046875,0.0,4.0,4.0,4.0,4.0,100.0,event
10:33:48.461,0.0,0.0,0.0,0.0,0.0,0.0,0.0,0.0,0.0,0.0,0.0,0.0,0.0,0.0,0.0,0.0,0.0,0.0,0.0,0.0,794.17584,782.49084,792.1612,842.52747,940.0366,-0.40802001953125,0.1402587890625,0.88555908203125,1.74957275390625,-3.349609375,0.82244873046875,0.0,4.0,4.0,4.0,4.0,100.0,event
10:33:48.462,0.0,0.0,0.0,0.0,0.0,0.0,0.0,0.0,0.0,0.0,0.0,0.0,0.0,0.0,0.0,0.0,0.0,0.0,0.0,0.0,832.0513,779.2674,799.011,846.1539,855.0183,-0.40802001953125,0.1402587890625,0.88555908203125,1.74957275390625,-3.349609375,0.82244873046875,0.0,4.0,4.0,4.0,4.0,100.0,event
10:33:48.462,0.0,0.0,0.0,0.0,0.0,0.0,0.0,0.0,0.0,0.0,0.0,0.0,0.0,0.0,0.0,0.0,0.0,0.0,0.0,0.0,854.21246,777.6557,798.60803,839.707,944.4689,-0.40802001953125,0.1402587890625,0.88555908203125,1.74957275390625,-3.349609375,0.82244873046875,0.0,4.0,4.0,4.0,4.0,100.0,event
10:33:48.463,0.0,0.0,0.0,0.0,0.0,0.0,0.0,0.0,0.0,0.0,0.0,0.0,0.0,0.0,0.0,0.0,0.0,0.0,0.0,0.0,823.9927,776.8498,801.4286,828.8278,1109.2675,-0.40802001953125,0.1402587890625,0.88555908203125,1.74957275390625,-3.349609375,0.82244873046875,0.0,4.0,4.0,4.0,4.0,100.0,event
10:33:48.464,0.0,0.0,0.0,0.0,0.0,0.0,0.0,0.0,0.0,0.0,0.0,0.0,0.0,0.0,0.0,0.0,0.0,0.0,0.0,0.0,784.90845,775.64105,803.44324,803.44324,773.22345,-0.40802001953125,0.1402587890625,0.88555908203125,1.74957275390625,-3.349609375,0.82244873046875,0.0,4.0,4.0,4.0,4.0,100.0,event
10:33:48.464,0.0,0.0,0.0,0.0,0.0,0.0,0.0,0.0,0.0,0.0,0.0,0.0,0.0,0.0,0.0,0.0,0.0,0.0,0.0,0.0,790.14655,775.2381,796.99634,800.6227,643.0769,-0.40802001953125,0.1402587890625,0.88555908203125,1.74957275390625,-3.349609375,0.82244873046875,0.0,4.0,4.0,4.0,4.0,100.0,event
10:33:48.465,0.0,0.0,0.0,0.0,0.0,0.0,0.0,0.0,0.0,0.0,0.0,0.0,0.0,0.0,0.0,0.0,0.0,0.0,0.0,0.0,831.2454,777.6557,792.5641,811.0989,741.79486,-0.40802001953125,0.1402587890625,0.88555908203125,1.74957275390625,-3.349609375,0.82244873046875,0.0,4.0,4.0,4.0,4.0,100.0,event
10:33:48.506,0.0,0.0,0.0,0.0,0.0,0.0,0.0,0.0,0.0,0.0,0.0,0.0,0.0,0.0,0.0,0.0,0.0,0.0,0.0,0.0,869.5238,778.86444,788.93774,799.81683,723.2601,-0.40802001953125,0.1402587890625,0.88555908203125,1.74957275390625,-3.349609375,0.82244873046875,0.0,4.0,4.0,4.0,4.0,100.0,event
10:33:48.507,0.0,0.0,0.0,0.0,0.0,0.0,0.0,0.0,0.0,0.0,0.0,0.0,0.0,0.0,0.0,0.0,0.0,0.0,0.0,0.0,853.4066,780.87915,790.14655,791.75824,720.84247,-0.40802001953125,0.1402587890625,0.88555908203125,1.74957275390625,-3.349609375,0.82244873046875,0.0,4.0,4.0,4.0,4.0,100.0,event
10:33:48.508,0.0,0.0,0.0,0.0,0.0,0.0,0.0,0.0,0.0,0.0,0.0,0.0,0.0,0.0,0.0,0.0,0.0,0.0,0.0,0.0,804.2491,777.25275,794.9817,782.8938,766.3736,-0.40802001953125,0.1402587890625,0.88555908203125,1.74957275390625,-3.349609375,0.82244873046875,0.0,4.0,4.0,4.0,4.0,100.0,event
10:33:48.509,0.0,0.0,0.0,0.0,0.0,0.0,0.0,0.0,0.0,0.0,0.0,0.0,0.0,0.0,0.0,0.0,0.0,0.0,0.0,0.0,790.9524,776.04395,803.8461,770.0,748.6447,-0.40802001953125,0.1402587890625,0.88555908203125,1.74957275390625,-3.349609375,0.82244873046875,0.0,4.0,4.0,4.0,4.0,100.0,event
10:33:48.510,0.0,0.0,0.0,0.0,0.0,0.0,0.0,0.0,0.0,0.0,0.0,0.0,0.0,0.0,0.0,0.0,0.0,0.0,0.0,0.0,834.4689,779.67035,808.2784,780.07324,757.50916,-0.40802001953125,0.1402587890625,0.88555908203125,1.74957275390625,-3.349609375,0.82244873046875,0.0,4.0,4.0,4.0,4.0,100.0,event
10:33:48.511,0.0,0.0,0.0,0.0,0.0,0.0,0.0,0.0,0.0,0.0,0.0,0.0,0.0,0.0,0.0,0.0,0.0,0.0,0.0,0.0,866.30035,778.0586,800.6227,801.8315,877.5824,-0.40802001953125,0.1402587890625,0.88555908203125,1.74957275390625,-3.349609375,0.82244873046875,0.0,4.0,4.0,4.0,4.0,100.0,event
10:33:48.513,0.0,0.0,0.0,0.0,0.0,0.0,0.0,0.0,0.0,0.0,0.0,0.0,0.0,0.0,0.0,0.0,0.0,0.0,0.0,0.0,838.0952,784.10254,805.05493,797.3993,923.91943,-0.40802001953125,0.1402587890625,0.88555908203125,1.74957275390625,-3.349609375,0.82244873046875,0.0,4.0,4.0,4.0,4.0,100.0,event
10:33:48.514,0.0,0.0,0.0,0.0,0.0,0.0,0.0,0.0,0.0,0.0,0.0,0.0,0.0,0.0,0.0,0.0,0.0,0.0,0.0,0.0,782.0879,786.1172,803.44324,759.5238,1064.5421,-0.40802001953125,0.1402587890625,0.88555908203125,1.74957275390625,-3.349609375,0.82244873046875,0.0,4.0,4.0,4.0,4.0,100.0,event
10:33:48.515,0.0,0.0,0.0,0.0,0.0,0.0,0.0,0.0,0.0,0.0,0.0,0.0,0.0,0.0,0.0,0.0,0.0,0.0,0.0,0.0,776.4469,784.5055,782.8938,754.2857,1099.597,-0.40802001953125,0.1402587890625,0.88555908203125,1.74957275390625,-3.349609375,0.82244873046875,0.0,4.0,4.0,4.0,4.0,100.0,event
10:33:48.516,0.0,0.0,0.0,0.0,0.0,0.0,0.0,0.0,0.0,0.0,0.0,0.0,0.0,0.0,0.0,0.0,0.0,0.0,0.0,0.0,828.8278,780.87915,786.1172,767.1795,749.0476,-0.40802001953125,0.1402587890625,0.88555908203125,1.74957275390625,-3.349609375,0.82244873046875,0.0,4.0,4.0,4.0,4.0,100.0,event
10:33:48.517,0.0,0.0,0.0,0.0,0.0,0.0,0.0,0.0,0.0,0.0,0.0,0.0,0.0,0.0,0.0,0.0,0.0,0.0,0.0,0.0,864.2857,775.2381,811.50183,772.8205,693.44324,-0.40802001953125,0.1402587890625,0.88555908203125,1.74957275390625,-3.349609375,0.82244873046875,0.0,4.0,4.0,4.0,4.0,100.0,event
10:33:48.518,0.0,0.0,0.0,0.0,0.0,0.0,0.0,0.0,0.0,0.0,0.0,0.0,0.0,0.0,0.0,0.0,0.0,0.0,0.0,0.0,844.1392,775.2381,800.2198,778.0586,835.6777,-0.40802001953125,0.1402587890625,0.88555908203125,1.74957275390625,-3.349609375,0.82244873046875,0.0,4.0,4.0,4.0,4.0,100.0,event
10:33:48.554,0.0,0.0,0.0,0.0,0.0,0.0,0.0,0.0,0.0,0.0,0.0,0.0,0.0,0.0,0.0,0.0,0.0,0.0,0.0,0.0,788.5348,776.8498,792.96704,761.53845,709.5604,-0.412353515625,0.1419677734375,0.89306640625,1.951446533203125,-3.09539794921875,0.515899658203125,0.0,4.0,4.0,4.0,4.0,100.0,event
10:33:48.555,0.0,0.0,0.0,0.0,0.0,0.0,0.0,0.0,0.0,0.0,0.0,0.0,0.0,0.0,0.0,0.0,0.0,0.0,0.0,0.0,794.57874,772.4176,799.81683,742.1978,703.1135,-0.412353515625,0.1419677734375,0.89306640625,1.951446533203125,-3.09539794921875,0.515899658203125,0.0,4.0,4.0,4.0,4.0,100.0,event
10:33:48.555,0.0,0.0,0.0,0.0,0.0,0.0,0.0,0.0,0.0,0.0,0.0,0.0,0.0,0.0,0.0,0.0,0.0,0.0,0.0,0.0,767.98535,777.25275,805.8608,739.3773,604.3956,-0.412353515625,0.1419677734375,0.89306640625,1.951446533203125,-3.09539794921875,0.515899658203125,0.0,4.0,4.0,4.0,4.0,100.0,event
10:33:48.556,0.0,0.0,0.0,0.0,0.0,0.0,0.0,0.0,0.0,0.0,0.0,0.0,0.0,0.0,0.0,0.0,0.0,0.0,0.0,0.0,839.707,771.6117,794.57874,758.71796,778.0586,-0.412353515625,0.1419677734375,0.89306640625,1.951446533203125,-3.09539794921875,0.515899658203125,0.0,4.0,4.0,4.0,4.0,100.0,event
10:33:48.559,0.0,0.0,0.0,0.0,0.0,0.0,0.0,0.0,0.0,0.0,0.0,0.0,0.0,0.0,0.0,0.0,0.0,0.0,0.0,0.0,855.0183,775.2381,796.99634,769.19415,729.707,-0.412353515625,0.1419677734375,0.89306640625,1.951446533203125,-3.09539794921875,0.515899658203125,0.0,4.0,4.0,4.0,4.0,100.0,event
10:33:48.560,0.0,0.0,0.0,0.0,0.0,0.0,0.0,0.0,0.0,0.0,0.0,0.0,0.0,0.0,0.0,0.0,0.0,0.0,0.0,0.0,806.6667,775.2381,797.3993,766.77655,755.4945,-0.412353515625,0.1419677734375,0.89306640625,1.951446533203125,-3.09539794921875,0.515899658203125,0.0,4.0,4.0,4.0,4.0,100.0,event
10:33:48.561,0.0,0.0,0.0,0.0,0.0,0.0,0.0,0.0,0.0,0.0,0.0,0.0,0.0,0.0,0.0,0.0,0.0,0.0,0.0,0.0,775.64105,774.43225,793.36993,766.77655,791.3553,-0.412353515625,0.1419677734375,0.89306640625,1.951446533203125,-3.09539794921875,0.515899658203125,0.0,4.0,4.0,4.0,4.0,100.0,event
10:33:48.562,0.0,0.0,0.0,0.0,0.0,0.0,0.0,0.0,0.0,0.0,0.0,0.0,0.0,0.0,0.0,0.0,0.0,0.0,0.0,0.0,802.23444,774.0293,793.36993,778.86444,982.3443,-0.412353515625,0.1419677734375,0.89306640625,1.951446533203125,-3.09539794921875,0.515899658203125,0.0,4.0,4.0,4.0,4.0,100.0,event
10:33:48.562,0.0,0.0,0.0,0.0,0.0,0.0,0.0,0.0,0.0,0.0,0.0,0.0,0.0,0.0,0.0,0.0,0.0,0.0,0.0,0.0,859.85345,778.46155,798.20514,802.6374,862.674,-0.412353515625,0.1419677734375,0.89306640625,1.951446533203125,-3.09539794921875,0.515899658203125,0.0,4.0,4.0,4.0,4.0,100.0,event
10:33:48.563,0.0,0.0,0.0,0.0,0.0,0.0,0.0,0.0,0.0,0.0,0.0,0.0,0.0,0.0,0.0,0.0,0.0,0.0,0.0,0.0,867.1062,779.67035,798.60803,799.81683,685.38464,-0.412353515625,0.1419677734375,0.89306640625,1.951446533203125,-3.09539794921875,0.515899658203125,0.0,4.0,4.0,4.0,4.0,100.0,event
10:33:48.563,0.0,0.0,0.0,0.0,0.0,0.0,0.0,0.0,0.0,0.0,0.0,0.0,0.0,0.0,0.0,0.0,0.0,0.0,0.0,0.0,806.26373,780.4762,802.6374,778.86444,759.92676,-0.412353515625,0.1419677734375,0.89306640625,1.951446533203125,-3.09539794921875,0.515899658203125,0.0,4.0,4.0,4.0,4.0,100.0,event
10:33:48.564,0.0,0.0,0.0,0.0,0.0,0.0,0.0,0.0,0.0,0.0,0.0,0.0,0.0,0.0,0.0,0.0,0.0,0.0,0.0,0.0,775.64105,780.4762,803.44324,779.2674,717.619,-0.412353515625,0.1419677734375,0.89306640625,1.951446533203125,-3.09539794921875,0.515899658203125,0.0,4.0,4.0,4.0,4.0,100.0,event
10:33:48.606,0.0,0.0,0.0,0.0,0.0,0.0,0.0,0.0,0.0,0.0,0.0,0.0,0.0,0.0,0.0,0.0,0.0,0.0,0.0,0.0,807.47253,780.07324,797.8022,790.14655,634.61536,-0.40570068359375,0.151611328125,0.89007568359375,2.5421142578125,-3.401947021484375,0.829925537109375,0.0,4.0,4.0,4.0,4.0,100.0,event
10:33:48.607,0.0,0.0,0.0,0.0,0.0,0.0,0.0,0.0,0.0,0.0,0.0,0.0,0.0,0.0,0.0,0.0,0.0,0.0,0.0,0.0,855.42126,778.46155,801.8315,806.26373,733.3333,-0.40570068359375,0.151611328125,0.89007568359375,2.5421142578125,-3.401947021484375,0.829925537109375,0.0,4.0,4.0,4.0,4.0,100.0,event
10:33:48.608,0.0,0.0,0.0,0.0,0.0,0.0,0.0,0.0,0.0,0.0,0.0,0.0,0.0,0.0,0.0,0.0,0.0,0.0,0.0,0.0,827.2161,784.10254,793.7729,784.5055,850.989,-0.40570068359375,0.151611328125,0.89007568359375,2.5421142578125,-3.401947021484375,0.829925537109375,0.0,4.0,4.0,4.0,4.0,100.0,event
10:33:48.608,0.0,0.0,0.0,0.0,0.0,0.0,0.0,0.0,0.0,0.0,0.0,0.0,0.0,0.0,0.0,0.0,0.0,0.0,0.0,0.0,870.7326,780.4762,800.2198,812.3077,885.2381,-0.40570068359375,0.151611328125,0.89007568359375,2.5421142578125,-3.401947021484375,0.829925537109375,0.0,4.0,4.0,4.0,4.0,100.0,event
10:33:48.609,0.0,0.0,0.0,0.0,0.0,0.0,0.0,0.0,0.0,0.0,0.0,0.0,0.0,0.0,0.0,0.0,0.0,0.0,0.0,0.0,786.52014,782.49084,791.3553,869.92676,740.18317,-0.40570068359375,0.151611328125,0.89007568359375,2.5421142578125,-3.401947021484375,0.829925537109375,0.0,4.0,4.0,4.0,4.0,100.0,event
10:33:48.610,0.0,0.0,0.0,0.0,0.0,0.0,0.0,0.0,0.0,0.0,0.0,0.0,0.0,0.0,0.0,0.0,0.0,0.0,0.0,0.0,791.75824,782.49084,801.8315,988.7912,782.49084,-0.40570068359375,0.151611328125,0.89007568359375,2.5421142578125,-3.401947021484375,0.829925537109375,0.0,4.0,4.0,4.0,4.0,100.0,event
10:33:48.611,0.0,0.0,0.0,0.0,0.0,0.0,0.0,0.0,0.0,0.0,0.0,0.0,0.0,0.0,0.0,0.0,0.0,0.0,0.0,0.0,824.3956,783.2967,810.293,922.71063,1038.3517,-0.40570068359375,0.151611328125,0.89007568359375,2.5421142578125,-3.401947021484375,0.829925537109375,0.0,4.0,4.0,4.0,4.0,100.0,event
10:33:48.611,0.0,0.0,0.0,0.0,0.0,0.0,0.0,0.0,0.0,0.0,0.0,0.0,0.0,0.0,0.0,0.0,0.0,0.0,0.0,0.0,849.7802,784.10254,799.81683,836.08057,1018.60803,-0.40570068359375,0.151611328125,0.89007568359375,2.5421142578125,-3.401947021484375,0.829925537109375,0.0,4.0,4.0,4.0,4.0,100.0,event
10:33:48.612,0.0,0.0,0.0,0.0,0.0,0.0,0.0,0.0,0.0,0.0,0.0,0.0,0.0,0.0,0.0,0.0,0.0,0.0,0.0,0.0,811.0989,781.28204,799.81683,865.4945,706.7399,-0.40570068359375,0.151611328125,0.89007568359375,2.5421142578125,-3.401947021484375,0.829925537109375,0.0,4.0,4.0,4.0,4.0,100.0,event
10:33:48.613,0.0,0.0,0.0,0.0,0.0,0.0,0.0,0.0,0.0,0.0,0.0,0.0,0.0,0.0,0.0,0.0,0.0,0.0,0.0,0.0,765.56775,776.04395,806.26373,909.81683,690.2198,-0.40570068359375,0.151611328125,0.89007568359375,2.5421142578125,-3.401947021484375,0.829925537109375,0.0,4.0,4.0,4.0,4.0,100.0,event
10:33:48.613,0.0,0.0,0.0,0.0,0.0,0.0,0.0,0.0,0.0,0.0,0.0,0.0,0.0,0.0,0.0,0.0,0.0,0.0,0.0,0.0,786.1172,780.4762,801.02563,917.47253,835.2747,-0.40570068359375,0.151611328125,0.89007568359375,2.5421142578125,-3.401947021484375,0.829925537109375,0.0,4.0,4.0,4.0,4.0,100.0,event
10:33:48.614,0.0,0.0,0.0,0.0,0.0,0.0,0.0,0.0,0.0,0.0,0.0,0.0,0.0,0.0,0.0,0.0,0.0,0.0,0.0,0.0,830.0366,784.5055,799.81683,924.3223,887.6557,-0.40570068359375,0.151611328125,0.89007568359375,2.5421142578125,-3.401947021484375,0.829925537109375,0.0,4.0,4.0,4.0,4.0,100.0,event
10:33:48.654,0.0,0.0,0.0,0.0,0.0,0.0,0.0,0.0,0.0,0.0,0.0,0.0,0.0,0.0,0.0,0.0,0.0,0.0,0.0,0.0,865.09155,783.69965,802.6374,909.011,800.6227,-0.4095458984375,0.15399169921875,0.89263916015625,1.682281494140625,-3.686065673828125,1.233673095703125,0.0,4.0,4.0,4.0,4.0,100.0,event
10:33:48.655,0.0,0.0,0.0,0.0,0.0,0.0,0.0,0.0,0.0,0.0,0.0,0.0,0.0,0.0,0.0,0.0,0.0,0.0,0.0,0.0,834.4689,782.49084,803.8461,870.32965,851.39197,-0.4095458984375,0.15399169921875,0.89263916015625,1.682281494140625,-3.686065673828125,1.233673095703125,0.0,4.0,4.0,4.0,4.0,100.0,event
10:33:48.656,0.0,0.0,0.0,0.0,0.0,0.0,0.0,0.0,0.0,0.0,0.0,0.0,0.0,0.0,0.0,0.0,0.0,0.0,0.0,0.0,776.4469,781.28204,803.0403,836.08057,917.47253,-0.4095458984375,0.15399169921875,0.89263916015625,1.682281494140625,-3.686065673828125,1.233673095703125,0.0,4.0,4.0,4.0,4.0,100.0,event
10:33:48.656,0.0,0.0,0.0,0.0,0.0,0.0,0.0,0.0,0.0,0.0,0.0,0.0,0.0,0.0,0.0,0.0,0.0,0.0,0.0,0.0,780.87915,780.07324,800.6227,844.1392,744.21246,-0.4095458984375,0.15399169921875,0.89263916015625,1.682281494140625,-3.686065673828125,1.233673095703125,0.0,4.0,4.0,4.0,4.0,100.0,event
10:33:48.657,0.0,0.0,0.0,0.0,0.0,0.0,0.0,0.0,0.0,0.0,0.0,0.0,0.0,0.0,0.0,0.0,0.0,0.0,0.0,0.0,820.7692,778.46155,799.81683,919.4872,693.8461,-0.4095458984375,0.15399169921875,0.89263916015625,1.682281494140625,-3.686065673828125,1.233673095703125,0.0,4.0,4.0,4.0,4.0,100.0,event
10:33:48.658,0.0,0.0,0.0,0.0,0.0,0.0,0.0,0.0,0.0,0.0,0.0,0.0,0.0,0.0,0.0,0.0,0.0,0.0,0.0,0.0,850.18317,779.67035,796.99634,1053.2601,911.02563,-0.4095458984375,0.15399169921875,0.89263916015625,1.682281494140625,-3.686065673828125,1.233673095703125,0.0,4.0,4.0,4.0,4.0,100.0,event
10:33:48.661,0.0,0.0,0.0,0.0,0.0,0.0,0.0,0.0,0.0,0.0,0.0,0.0,0.0,0.0,0.0,0.0,0.0,0.0,0.0,0.0,826.8132,781.685,791.75824,1143.9194,1031.0989,-0.4095458984375,0.15399169921875,0.89263916015625,1.682281494140625,-3.686065673828125,1.233673095703125,0.0,4.0,4.0,4.0,4.0,100.0,event
10:33:48.662,0.0,0.0,0.0,0.0,0.0,0.0,0.0,0.0,0.0,0.0,0.0,0.0,0.0,0.0,0.0,0.0,0.0,0.0,0.0,0.0,780.07324,780.07324,792.5641,1185.8242,845.7509,-0.4095458984375,0.15399169921875,0.89263916015625,1.682281494140625,-3.686065673828125,1.233673095703125,0.0,4.0,4.0,4.0,4.0,100.0,event
10:33:48.663,0.0,0.0,0.0,0.0,0.0,0.0,0.0,0.0,0.0,0.0,0.0,0.0,0.0,0.0,0.0,0.0,0.0,0.0,0.0,0.0,778.0586,778.86444,797.3993,1217.2528,703.1135,-0.4095458984375,0.15399169921875,0.89263916015625,1.682281494140625,-3.686065673828125,1.233673095703125,0.0,4.0,4.0,4.0,4.0,100.0,event
10:33:48.663,0.0,0.0,0.0,0.0,0.0,0.0,0.0,0.0,0.0,0.0,0.0,0.0,0.0,0.0,0.0,0.0,0.0,0.0,0.0,0.0,805.05493,775.2381,795.38464,1220.8792,815.5311,-0.4095458984375,0.15399169921875,0.89263916015625,1.682281494140625,-3.686065673828125,1.233673095703125,0.0,4.0,4.0,4.0,4.0,100.0,event
10:33:48.664,0.0,0.0,0.0,0.0,0.0,0.0,0.0,0.0,0.0,0.0,0.0,0.0,0.0,0.0,0.0,0.0,0.0,0.0,0.0,0.0,838.9011,773.22345,794.17584,1218.4615,1012.96704,-0.4095458984375,0.15399169921875,0.89263916015625,1.682281494140625,-3.686065673828125,1.233673095703125,0.0,4.0,4.0,4.0,4.0,100.0,event
10:33:48.664,0.0,0.0,0.0,0.0,0.0,0.0,0.0,0.0,0.0,0.0,0.0,0.0,0.0,0.0,0.0,0.0,0.0,0.0,0.0,0.0,833.2601,776.04395,790.9524,1191.8682,823.5897,-0.4095458984375,0.15399169921875,0.89263916015625,1.682281494140625,-3.686065673828125,1.233673095703125,0.0,4.0,4.0,4.0,4.0,100.0,event
10:33:48.706,0.0,0.0,0.0,0.0,0.0,0.0,0.0,0.0,0.0,0.0,0.0,0.0,0.0,0.0,0.0,0.0,0.0,0.0,0.0,0.0,781.28204,778.0586,790.9524,1176.9597,677.326,-0.41156005859375,0.15142822265625,0.8912353515625,1.547698974609375,-4.0972900390625,1.263580322265625,0.0,4.0,4.0,4.0,4.0,100.0,event
10:33:48.707,0.0,0.0,0.0,0.0,0.0,0.0,0.0,0.0,0.0,0.0,0.0,0.0,0.0,0.0,0.0,0.0,0.0,0.0,0.0,0.0,766.77655,778.46155,801.4286,1168.0952,815.12823,-0.41156005859375,0.15142822265625,0.8912353515625,1.547698974609375,-4.0972900390625,1.263580322265625,0.0,4.0,4.0,4.0,4.0,100.0,event
10:33:48.708,0.0,0.0,0.0,0.0,0.0,0.0,0.0,0.0,0.0,0.0,0.0,0.0,0.0,0.0,0.0,0.0,0.0,0.0,0.0,0.0,803.44324,778.0586,805.4579,1078.6447,900.14655,-0.41156005859375,0.15142822265625,0.8912353515625,1.547698974609375,-4.0972900390625,1.263580322265625,0.0,4.0,4.0,4.0,4.0,100.0,event
10:33:48.710,0.0,0.0,0.0,0.0,0.0,0.0,0.0,0.0,0.0,0.0,0.0,0.0,0.0,0.0,0.0,0.0,0.0,0.0,0.0,0.0,843.3333,782.49084,800.6227,1010.54944,765.56775,-0.41156005859375,0.15142822265625,0.8912353515625,1.547698974609375,-4.0972900390625,1.263580322265625,0.0,4.0,4.0,4.0,4.0,100.0,event
10:33:48.711,0.0,0.0,0.0,0.0,0.0,0.0,0.0,0.0,0.0,0.0,0.0,0.0,0.0,0.0,0.0,0.0,0.0,0.0,0.0,0.0,838.0952,786.52014,797.3993,1002.49084,737.76556,-0.41156005859375,0.15142822265625,0.8912353515625,1.547698974609375,-4.0972900390625,1.263580322265625,0.0,4.0,4.0,4.0,4.0,100.0,event
10:33:48.713,0.0,0.0,0.0,0.0,0.0,0.0,0.0,0.0,0.0,0.0,0.0,0.0,0.0,0.0,0.0,0.0,0.0,0.0,0.0,0.0,779.67035,788.1319,799.41394,982.74725,981.53845,-0.41156005859375,0.15142822265625,0.8912353515625,1.547698974609375,-4.0972900390625,1.263580322265625,0.0,4.0,4.0,4.0,4.0,100.0,event
10:33:48.714,0.0,0.0,0.0,0.0,0.0,0.0,0.0,0.0,0.0,0.0,0.0,0.0,0.0,0.0,0.0,0.0,0.0,0.0,0.0,0.0,747.4359,784.10254,801.4286,971.06226,1010.9524,-0.41156005859375,0.15142822265625,0.8912353515625,1.547698974609375,-4.0972900390625,1.263580322265625,0.0,4.0,4.0,4.0,4.0,100.0,event
10:33:48.715,0.0,0.0,0.0,0.0,0.0,0.0,0.0,0.0,0.0,0.0,0.0,0.0,0.0,0.0,0.0,0.0,0.0,0.0,0.0,0.0,786.9231,780.87915,797.3993,940.84247,777.6557,-0.41156005859375,0.15142822265625,0.8912353515625,1.547698974609375,-4.0972900390625,1.263580322265625,0.0,4.0,4.0,4.0,4.0,100.0,event
10:33:48.716,0.0,0.0,0.0,0.0,0.0,0.0,0.0,0.0,0.0,0.0,0.0,0.0,0.0,0.0,0.0,0.0,0.0,0.0,0.0,0.0,842.9304,781.685,800.2198,977.50916,796.5934,-0.41156005859375,0.15142822265625,0.8912353515625,1.547698974609375,-4.0972900390625,1.263580322265625,0.0,4.0,4.0,4.0,4.0,100.0,event
10:33:48.717,0.0,0.0,0.0,0.0,0.0,0.0,0.0,0.0,0.0,0.0,0.0,0.0,0.0,0.0,0.0,0.0,0.0,0.0,0.0,0.0,837.6923,780.4762,804.2491,946.4835,983.1502,-0.41156005859375,0.15142822265625,0.8912353515625,1.547698974609375,-4.0972900390625,1.263580322265625,0.0,4.0,4.0,4.0,4.0,100.0,event
10:33:48.718,0.0,0.0,0.0,0.0,0.0,0.0,0.0,0.0,0.0,0.0,0.0,0.0,0.0,0.0,0.0,0.0,0.0,0.0,0.0,0.0,784.10254,777.6557,799.011,639.85345,820.3663,-0.41156005859375,0.15142822265625,0.8912353515625,1.547698974609375,-4.0972900390625,1.263580322265625,0.0,4.0,4.0,4.0,4.0,100.0,event
10:33:48.718,0.0,0.0,0.0,0.0,0.0,0.0,0.0,0.0,0.0,0.0,0.0,0.0,0.0,0.0,0.0,0.0,0.0,0.0,0.0,0.0,770.40295,774.43225,790.54944,508.9011,606.8132,-0.41156005859375,0.15142822265625,0.8912353515625,1.547698974609375,-4.0972900390625,1.263580322265625,0.0,4.0,4.0,4.0,4.0,100.0,event
10:33:48.719,0.0,0.0,0.0,0.0,0.0,0.0,0.0,0.0,0.0,0.0,0.0,0.0,0.0,0.0,0.0,0.0,0.0,0.0,0.0,0.0,809.4872,775.64105,792.5641,571.75824,644.68866,-0.41156005859375,0.15142822265625,0.8912353515625,1.547698974609375,-4.0972900390625,1.263580322265625,0.0,4.0,4.0,4.0,4.0,100.0,event
10:33:48.720,0.0,0.0,0.0,0.0,0.0,0.0,0.0,0.0,0.0,0.0,0.0,0.0,0.0,0.0,0.0,0.0,0.0,0.0,0.0,0.0,836.4835,774.43225,799.81683,584.2491,723.2601,-0.41156005859375,0.15142822265625,0.8912353515625,1.547698974609375,-4.0972900390625,1.263580322265625,0.0,4.0,4.0,4.0,4.0,100.0,event
10:33:48.721,0.0,0.0,0.0,0.0,0.0,0.0,0.0,0.0,0.0,0.0,0.0,0.0,0.0,0.0,0.0,0.0,0.0,0.0,0.0,0.0,830.4396,773.22345,798.20514,580.2198,730.10986,-0.41156005859375,0.15142822265625,0.8912353515625,1.547698974609375,-4.0972900390625,1.263580322265625,0.0,4.0,4.0,4.0,4.0,100.0,event
10:33:48.722,0.0,0.0,0.0,0.0,0.0,0.0,0.0,0.0,0.0,0.0,0.0,0.0,0.0,0.0,0.0,0.0,0.0,0.0,0.0,0.0,786.1172,776.4469,801.8315,586.26373,700.696,-0.41156005859375,0.15142822265625,0.8912353515625,1.547698974609375,-4.0972900390625,1.263580322265625,0.0,4.0,4.0,4.0,4.0,100.0,event
10:33:48.723,0.0,0.0,0.0,0.0,0.0,0.0,0.0,0.0,0.0,0.0,0.0,0.0,0.0,0.0,0.0,0.0,0.0,0.0,0.0,0.0,749.0476,773.6264,799.81683,596.337,726.08057,-0.41156005859375,0.15142822265625,0.8912353515625,1.547698974609375,-4.0972900390625,1.263580322265625,0.0,4.0,4.0,4.0,4.0,100.0,event
10:33:48.723,0.0,0.0,0.0,0.0,0.0,0.0,0.0,0.0,0.0,0.0,0.0,0.0,0.0,0.0,0.0,0.0,0.0,0.0,0.0,0.0,771.6117,772.8205,789.34064,611.6484,838.49817,-0.41156005859375,0.15142822265625,0.8912353515625,1.547698974609375,-4.0972900390625,1.263580322265625,0.0,4.0,4.0,4.0,4.0,100.0,event
10:33:48.724,0.0,0.0,0.0,0.0,0.0,0.0,0.0,0.0,0.0,0.0,0.0,0.0,0.0,0.0,0.0,0.0,0.0,0.0,0.0,0.0,822.7839,772.4176,792.1612,638.24176,870.7326,-0.41156005859375,0.15142822265625,0.8912353515625,1.547698974609375,-4.0972900390625,1.263580322265625,0.0,4.0,4.0,4.0,4.0,100.0,event
10:33:48.725,0.0,0.0,0.0,0.0,0.0,0.0,0.0,0.0,0.0,0.0,0.0,0.0,0.0,0.0,0.0,0.0,0.0,0.0,0.0,0.0,845.7509,770.80585,796.99634,649.92676,767.98535,-0.41156005859375,0.15142822265625,0.8912353515625,1.547698974609375,-4.0972900390625,1.263580322265625,0.0,4.0,4.0,4.0,4.0,100.0,event
10:33:48.730,0.0,0.0,0.0,0.0,0.0,0.0,0.0,0.0,0.0,0.0,0.0,0.0,0.0,0.0,0.0,0.0,0.0,0.0,0.0,0.0,809.0842,771.2088,794.9817,667.25275,765.56775,-0.41156005859375,0.15142822265625,0.8912353515625,1.547698974609375,-4.0972900390625,1.263580322265625,0.0,4.0,4.0,4.0,4.0,100.0,event
10:33:48.731,0.0,0.0,0.0,0.0,0.0,0.0,0.0,0.0,0.0,0.0,0.0,0.0,0.0,0.0,0.0,0.0,0.0,0.0,0.0,0.0,765.9707,773.6264,792.96704,689.011,979.92676,-0.41156005859375,0.15142822265625,0.8912353515625,1.547698974609375,-4.0972900390625,1.263580322265625,0.0,4.0,4.0,4.0,4.0,100.0,event
10:33:48.733,0.0,0.0,0.0,0.0,0.0,0.0,0.0,0.0,0.0,0.0,0.0,0.0,0.0,0.0,0.0,0.0,0.0,0.0,0.0,0.0,792.1612,773.6264,790.14655,684.17584,837.6923,-0.41156005859375,0.15142822265625,0.8912353515625,1.547698974609375,-4.0972900390625,1.263580322265625,0.0,4.0,4.0,4.0,4.0,100.0,event
10:33:48.734,0.0,0.0,0.0,0.0,0.0,0.0,0.0,0.0,0.0,0.0,0.0,0.0,0.0,0.0,0.0,0.0,0.0,0.0,0.0,0.0,847.76556,774.0293,787.72894,792.96704,697.8755,-0.41156005859375,0.15142822265625,0.8912353515625,1.547698974609375,-4.0972900390625,1.263580322265625,0.0,4.0,4.0,4.0,4.0,100.0,event
10:33:48.771,0.0,0.0,0.0,0.0,0.0,0.0,0.0,0.0,0.0,0.0,0.0,0.0,0.0,0.0,0.0,0.0,0.0,0.0,0.0,0.0,870.32965,777.6557,782.8938,869.5238,804.2491,-0.41168212890625,0.14727783203125,0.88934326171875,1.92901611328125,-4.32159423828125,-0.179443359375,0.0,4.0,4.0,4.0,4.0,100.0,event
10:33:48.772,0.0,0.0,0.0,0.0,0.0,0.0,0.0,0.0,0.0,0.0,0.0,0.0,0.0,0.0,0.0,0.0,0.0,0.0,0.0,0.0,836.8865,779.2674,786.52014,848.1685,747.03296,-0.41168212890625,0.14727783203125,0.88934326171875,1.92901611328125,-4.32159423828125,-0.179443359375,0.0,4.0,4.0,4.0,4.0,100.0,event
10:33:48.773,0.0,0.0,0.0,0.0,0.0,0.0,0.0,0.0,0.0,0.0,0.0,0.0,0.0,0.0,0.0,0.0,0.0,0.0,0.0,0.0,794.9817,780.4762,799.81683,850.58606,665.64105,-0.41168212890625,0.14727783203125,0.88934326171875,1.92901611328125,-4.32159423828125,-0.179443359375,0.0,4.0,4.0,4.0,4.0,100.0,event
10:33:48.774,0.0,0.0,0.0,0.0,0.0,0.0,0.0,0.0,0.0,0.0,0.0,0.0,0.0,0.0,0.0,0.0,0.0,0.0,0.0,0.0,802.6374,775.64105,806.26373,841.31866,670.87915,-0.41168212890625,0.14727783203125,0.88934326171875,1.92901611328125,-4.32159423828125,-0.179443359375,0.0,4.0,4.0,4.0,4.0,100.0,event
10:33:48.775,0.0,0.0,0.0,0.0,0.0,0.0,0.0,0.0,0.0,0.0,0.0,0.0,0.0,0.0,0.0,0.0,0.0,0.0,0.0,0.0,840.9158,774.43225,799.41394,846.1539,718.4249,-0.41168212890625,0.14727783203125,0.88934326171875,1.92901611328125,-4.32159423828125,-0.179443359375,0.0,4.0,4.0,4.0,4.0,100.0,event
10:33:48.775,0.0,0.0,0.0,0.0,0.0,0.0,0.0,0.0,0.0,0.0,0.0,0.0,0.0,0.0,0.0,0.0,0.0,0.0,0.0,0.0,863.8828,779.67035,798.20514,838.0952,817.1429,-0.41168212890625,0.14727783203125,0.88934326171875,1.92901611328125,-4.32159423828125,-0.179443359375,0.0,4.0,4.0,4.0,4.0,100.0,event
10:33:48.776,0.0,0.0,0.0,0.0,0.0,0.0,0.0,0.0,0.0,0.0,0.0,0.0,0.0,0.0,0.0,0.0,0.0,0.0,0.0,0.0,824.7985,779.2674,807.47253,810.293,849.3773,-0.41168212890625,0.14727783203125,0.88934326171875,1.92901611328125,-4.32159423828125,-0.179443359375,0.0,4.0,4.0,4.0,4.0,100.0,event
10:33:48.776,0.0,0.0,0.0,0.0,0.0,0.0,0.0,0.0,0.0,0.0,0.0,0.0,0.0,0.0,0.0,0.0,0.0,0.0,0.0,0.0,771.2088,776.8498,801.4286,816.7399,727.28937,-0.41168212890625,0.14727783203125,0.88934326171875,1.92901611328125,-4.32159423828125,-0.179443359375,0.0,4.0,4.0,4.0,4.0,100.0,event
10:33:48.777,0.0,0.0,0.0,0.0,0.0,0.0,0.0,0.0,0.0,0.0,0.0,0.0,0.0,0.0,0.0,0.0,0.0,0.0,0.0,0.0,774.83514,777.6557,790.14655,832.8571,949.304,-0.41168212890625,0.14727783203125,0.88934326171875,1.92901611328125,-4.32159423828125,-0.179443359375,0.0,4.0,4.0,4.0,4.0,100.0,event
10:33:48.778,0.0,0.0,0.0,0.0,0.0,0.0,0.0,0.0,0.0,0.0,0.0,0.0,0.0,0.0,0.0,0.0,0.0,0.0,0.0,0.0,822.381,779.2674,790.14655,832.0513,1055.6776,-0.41168212890625,0.14727783203125,0.88934326171875,1.92901611328125,-4.32159423828125,-0.179443359375,0.0,4.0,4.0,4.0,4.0,100.0,event
10:33:48.778,0.0,0.0,0.0,0.0,0.0,0.0,0.0,0.0,0.0,0.0,0.0,0.0,0.0,0.0,0.0,0.0,0.0,0.0,0.0,0.0,858.6447,775.64105,795.38464,845.7509,803.8461,-0.41168212890625,0.14727783203125,0.88934326171875,1.92901611328125,-4.32159423828125,-0.179443359375,0.0,4.0,4.0,4.0,4.0,100.0,event
10:33:48.779,0.0,0.0,0.0,0.0,0.0,0.0,0.0,0.0,0.0,0.0,0.0,0.0,0.0,0.0,0.0,0.0,0.0,0.0,0.0,0.0,836.08057,775.2381,796.1905,836.4835,777.6557,-0.41168212890625,0.14727783203125,0.88934326171875,1.92901611328125,-4.32159423828125,-0.179443359375,0.0,4.0,4.0,4.0,4.0,100.0,event
10:33:48.827,0.0,0.0,0.0,0.0,0.0,0.0,0.0,0.0,0.0,0.0,0.0,0.0,0.0,0.0,0.0,0.0,0.0,0.0,0.0,0.0,812.3077,776.4469,790.14655,811.9048,804.65204,-0.40423583984375,0.14959716796875,0.8929443359375,2.385101318359375,-4.3365478515625,-0.261688232421875,0.0,4.0,4.0,4.0,4.0,100.0,event
10:33:48.828,0.0,0.0,0.0,0.0,0.0,0.0,0.0,0.0,0.0,0.0,0.0,0.0,0.0,0.0,0.0,0.0,0.0,0.0,0.0,0.0,808.68134,777.25275,785.31134,801.8315,711.978,-0.40423583984375,0.14959716796875,0.8929443359375,2.385101318359375,-4.3365478515625,-0.261688232421875,0.0,4.0,4.0,4.0,4.0,100.0,event
10:33:48.830,0.0,0.0,0.0,0.0,0.0,0.0,0.0,0.0,0.0,0.0,0.0,0.0,0.0,0.0,0.0,0.0,0.0,0.0,0.0,0.0,809.89014,776.4469,792.5641,763.1502,666.04395,-0.40423583984375,0.14959716796875,0.8929443359375,2.385101318359375,-4.3365478515625,-0.261688232421875,0.0,4.0,4.0,4.0,4.0,100.0,event
10:33:48.831,0.0,0.0,0.0,0.0,0.0,0.0,0.0,0.0,0.0,0.0,0.0,0.0,0.0,0.0,0.0,0.0,0.0,0.0,0.0,0.0,839.304,777.25275,798.60803,755.89746,724.87177,-0.40423583984375,0.14959716796875,0.8929443359375,2.385101318359375,-4.3365478515625,-0.261688232421875,0.0,4.0,4.0,4.0,4.0,100.0,event
10:33:48.833,0.0,0.0,0.0,0.0,0.0,0.0,0.0,0.0,0.0,0.0,0.0,0.0,0.0,0.0,0.0,0.0,0.0,0.0,0.0,0.0,817.1429,775.64105,796.5934,785.31134,730.10986,-0.40423583984375,0.14959716796875,0.8929443359375,2.385101318359375,-4.3365478515625,-0.261688232421875,0.0,4.0,4.0,4.0,4.0,100.0,event
10:33:48.835,0.0,0.0,0.0,0.0,0.0,0.0,0.0,0.0,0.0,0.0,0.0,0.0,0.0,0.0,0.0,0.0,0.0,0.0,0.0,0.0,748.6447,775.64105,786.9231,788.5348,768.7912,-0.40423583984375,0.14959716796875,0.8929443359375,2.385101318359375,-4.3365478515625,-0.261688232421875,0.0,4.0,4.0,4.0,4.0,100.0,event
10:33:48.835,0.0,0.0,0.0,0.0,0.0,0.0,0.0,0.0,0.0,0.0,0.0,0.0,0.0,0.0,0.0,0.0,0.0,0.0,0.0,0.0,745.0183,778.0586,786.1172,803.0403,800.2198,-0.40423583984375,0.14959716796875,0.8929443359375,2.385101318359375,-4.3365478515625,-0.261688232421875,0.0,4.0,4.0,4.0,4.0,100.0,event
10:33:48.836,0.0,0.0,0.0,0.0,0.0,0.0,0.0,0.0,0.0,0.0,0.0,0.0,0.0,0.0,0.0,0.0,0.0,0.0,0.0,0.0,784.10254,776.8498,797.3993,810.293,838.49817,-0.40423583984375,0.14959716796875,0.8929443359375,2.385101318359375,-4.3365478515625,-0.261688232421875,0.0,4.0,4.0,4.0,4.0,100.0,event
10:33:48.837,0.0,0.0,0.0,0.0,0.0,0.0,0.0,0.0,0.0,0.0,0.0,0.0,0.0,0.0,0.0,0.0,0.0,0.0,0.0,0.0,787.326,782.49084,806.26373,808.68134,852.6007,-0.40423583984375,0.14959716796875,0.8929443359375,2.385101318359375,-4.3365478515625,-0.261688232421875,0.0,4.0,4.0,4.0,4.0,100.0,event
10:33:48.837,0.0,0.0,0.0,0.0,0.0,0.0,0.0,0.0,0.0,0.0,0.0,0.0,0.0,0.0,0.0,0.0,0.0,0.0,0.0,0.0,798.60803,779.2674,805.4579,803.0403,1054.0659,-0.40423583984375,0.14959716796875,0.8929443359375,2.385101318359375,-4.3365478515625,-0.261688232421875,0.0,4.0,4.0,4.0,4.0,100.0,event
10:33:48.841,0.0,0.0,0.0,0.0,0.0,0.0,0.0,0.0,0.0,0.0,0.0,0.0,0.0,0.0,0.0,0.0,0.0,0.0,0.0,0.0,751.4652,776.8498,802.23444,802.6374,649.5238,-0.40423583984375,0.14959716796875,0.8929443359375,2.385101318359375,-4.3365478515625,-0.261688232421875,0.0,4.0,4.0,4.0,4.0,100.0,event
10:33:48.842,0.0,0.0,0.0,0.0,0.0,0.0,0.0,0.0,0.0,0.0,0.0,0.0,0.0,0.0,0.0,0.0,0.0,0.0,0.0,0.0,734.94507,776.4469,799.011,801.4286,833.663,-0.40423583984375,0.14959716796875,0.8929443359375,2.385101318359375,-4.3365478515625,-0.261688232421875,0.0,4.0,4.0,4.0,4.0,100.0,event
10:33:48.864,0.0,0.0,0.0,0.0,0.0,0.0,0.0,0.0,0.0,0.0,0.0,0.0,0.0,0.0,0.0,0.0,0.0,0.0,0.0,0.0,774.0293,780.87915,793.36993,797.3993,811.50183,-0.39813232421875,0.14764404296875,0.8922119140625,1.622467041015625,-3.895416259765625,0.657958984375,0.0,4.0,4.0,4.0,4.0,100.0,event
10:33:48.865,0.0,0.0,0.0,0.0,0.0,0.0,0.0,0.0,0.0,0.0,0.0,0.0,0.0,0.0,0.0,0.0,0.0,0.0,0.0,0.0,832.4542,782.8938,791.75824,794.57874,634.61536,-0.39813232421875,0.14764404296875,0.8922119140625,1.622467041015625,-3.895416259765625,0.657958984375,0.0,4.0,4.0,4.0,4.0,100.0,event
10:33:48.866,0.0,0.0,0.0,0.0,0.0,0.0,0.0,0.0,0.0,0.0,0.0,0.0,0.0,0.0,0.0,0.0,0.0,0.0,0.0,0.0,836.08057,781.28204,784.5055,794.57874,713.9927,-0.39813232421875,0.14764404296875,0.8922119140625,1.622467041015625,-3.895416259765625,0.657958984375,0.0,4.0,4.0,4.0,4.0,100.0,event
10:33:48.866,0.0,0.0,0.0,0.0,0.0,0.0,0.0,0.0,0.0,0.0,0.0,0.0,0.0,0.0,0.0,0.0,0.0,0.0,0.0,0.0,779.67035,780.87915,787.326,788.5348,809.4872,-0.39813232421875,0.14764404296875,0.8922119140625,1.622467041015625,-3.895416259765625,0.657958984375,0.0,4.0,4.0,4.0,4.0,100.0,event
10:33:48.867,0.0,0.0,0.0,0.0,0.0,0.0,0.0,0.0,0.0,0.0,0.0,0.0,0.0,0.0,0.0,0.0,0.0,0.0,0.0,0.0,754.2857,781.685,794.57874,804.65204,748.24176,-0.39813232421875,0.14764404296875,0.8922119140625,1.622467041015625,-3.895416259765625,0.657958984375,0.0,4.0,4.0,4.0,4.0,100.0,event
10:33:48.868,0.0,0.0,0.0,0.0,0.0,0.0,0.0,0.0,0.0,0.0,0.0,0.0,0.0,0.0,0.0,0.0,0.0,0.0,0.0,0.0,786.9231,779.67035,786.1172,831.2454,813.1135,-0.39813232421875,0.14764404296875,0.8922119140625,1.622467041015625,-3.895416259765625,0.657958984375,0.0,4.0,4.0,4.0,4.0,100.0,event
10:33:48.868,0.0,0.0,0.0,0.0,0.0,0.0,0.0,0.0,0.0,0.0,0.0,0.0,0.0,0.0,0.0,0.0,0.0,0.0,0.0,0.0,834.4689,776.04395,785.7143,832.4542,878.7912,-0.39813232421875,0.14764404296875,0.8922119140625,1.622467041015625,-3.895416259765625,0.657958984375,0.0,4.0,4.0,4.0,4.0,100.0,event
10:33:48.869,0.0,0.0,0.0,0.0,0.0,0.0,0.0,0.0,0.0,0.0,0.0,0.0,0.0,0.0,0.0,0.0,0.0,0.0,0.0,0.0,841.31866,775.64105,793.36993,830.0366,1026.2638,-0.39813232421875,0.14764404296875,0.8922119140625,1.622467041015625,-3.895416259765625,0.657958984375,0.0,4.0,4.0,4.0,4.0,100.0,event
10:33:48.870,0.0,0.0,0.0,0.0,0.0,0.0,0.0,0.0,0.0,0.0,0.0,0.0,0.0,0.0,0.0,0.0,0.0,0.0,0.0,0.0,791.3553,778.0586,797.3993,817.9487,1009.7436,-0.39813232421875,0.14764404296875,0.8922119140625,1.622467041015625,-3.895416259765625,0.657958984375,0.0,4.0,4.0,4.0,4.0,100.0,event
10:33:48.870,0.0,0.0,0.0,0.0,0.0,0.0,0.0,0.0,0.0,0.0,0.0,0.0,0.0,0.0,0.0,0.0,0.0,0.0,0.0,0.0,761.13556,780.07324,794.17584,805.8608,745.42126,-0.39813232421875,0.14764404296875,0.8922119140625,1.622467041015625,-3.895416259765625,0.657958984375,0.0,4.0,4.0,4.0,4.0,100.0,event
10:33:48.871,0.0,0.0,0.0,0.0,0.0,0.0,0.0,0.0,0.0,0.0,0.0,0.0,0.0,0.0,0.0,0.0,0.0,0.0,0.0,0.0,792.96704,781.28204,790.14655,809.89014,732.52747,-0.39813232421875,0.14764404296875,0.8922119140625,1.622467041015625,-3.895416259765625,0.657958984375,0.0,4.0,4.0,4.0,4.0,100.0,event
10:33:48.872,0.0,0.0,0.0,0.0,0.0,0.0,0.0,0.0,0.0,0.0,0.0,0.0,0.0,0.0,0.0,0.0,0.0,0.0,0.0,0.0,837.6923,782.0879,791.75824,808.2784,776.4469,-0.39813232421875,0.14764404296875,0.8922119140625,1.622467041015625,-3.895416259765625,0.657958984375,0.0,4.0,4.0,4.0,4.0,100.0,event
10:33:48.895,0.0,0.0,0.0,0.0,0.0,0.0,0.0,0.0,0.0,0.0,0.0,0.0,0.0,0.0,0.0,0.0,0.0,0.0,0.0,0.0,843.3333,782.0879,792.1612,780.87915,733.73627,-0.39813232421875,0.14764404296875,0.8922119140625,1.622467041015625,-3.895416259765625,0.657958984375,0.0,4.0,4.0,4.0,4.0,100.0,event
10:33:48.896,0.0,0.0,0.0,0.0,0.0,0.0,0.0,0.0,0.0,0.0,0.0,0.0,0.0,0.0,0.0,0.0,0.0,0.0,0.0,0.0,804.2491,782.0879,796.99634,765.16486,657.98535,-0.39813232421875,0.14764404296875,0.8922119140625,1.622467041015625,-3.895416259765625,0.657958984375,0.0,4.0,4.0,4.0,4.0,100.0,event
10:33:48.897,0.0,0.0,0.0,0.0,0.0,0.0,0.0,0.0,0.0,0.0,0.0,0.0,0.0,0.0,0.0,0.0,0.0,0.0,0.0,0.0,766.3736,780.4762,796.1905,770.80585,728.9011,-0.39813232421875,0.14764404296875,0.8922119140625,1.622467041015625,-3.895416259765625,0.657958984375,0.0,4.0,4.0,4.0,4.0,100.0,event
10:33:48.898,0.0,0.0,0.0,0.0,0.0,0.0,0.0,0.0,0.0,0.0,0.0,0.0,0.0,0.0,0.0,0.0,0.0,0.0,0.0,0.0,784.5055,781.28204,783.2967,784.90845,813.5165,-0.39813232421875,0.14764404296875,0.8922119140625,1.622467041015625,-3.895416259765625,0.657958984375,0.0,4.0,4.0,4.0,4.0,100.0,event
10:33:48.898,0.0,0.0,0.0,0.0,0.0,0.0,0.0,0.0,0.0,0.0,0.0,0.0,0.0,0.0,0.0,0.0,0.0,0.0,0.0,0.0,841.31866,780.4762,778.86444,817.1429,685.38464,-0.39813232421875,0.14764404296875,0.8922119140625,1.622467041015625,-3.895416259765625,0.657958984375,0.0,4.0,4.0,4.0,4.0,100.0,event
10:33:48.899,0.0,0.0,0.0,0.0,0.0,0.0,0.0,0.0,0.0,0.0,0.0,0.0,0.0,0.0,0.0,0.0,0.0,0.0,0.0,0.0,866.30035,782.49084,783.2967,825.6044,694.2491,-0.39813232421875,0.14764404296875,0.8922119140625,1.622467041015625,-3.895416259765625,0.657958984375,0.0,4.0,4.0,4.0,4.0,100.0,event
10:33:48.900,0.0,0.0,0.0,0.0,0.0,0.0,0.0,0.0,0.0,0.0,0.0,0.0,0.0,0.0,0.0,0.0,0.0,0.0,0.0,0.0,820.7692,783.2967,790.54944,809.4872,927.9487,-0.39813232421875,0.14764404296875,0.8922119140625,1.622467041015625,-3.895416259765625,0.657958984375,0.0,4.0,4.0,4.0,4.0,100.0,event
10:33:48.900,0.0,0.0,0.0,0.0,0.0,0.0,0.0,0.0,0.0,0.0,0.0,0.0,0.0,0.0,0.0,0.0,0.0,0.0,0.0,0.0,763.5531,783.2967,796.1905,800.6227,1097.1794,-0.39813232421875,0.14764404296875,0.8922119140625,1.622467041015625,-3.895416259765625,0.657958984375,0.0,4.0,4.0,4.0,4.0,100.0,event
10:33:48.901,0.0,0.0,0.0,0.0,0.0,0.0,0.0,0.0,0.0,0.0,0.0,0.0,0.0,0.0,0.0,0.0,0.0,0.0,0.0,0.0,775.2381,780.87915,796.5934,796.99634,848.1685,-0.39813232421875,0.14764404296875,0.8922119140625,1.622467041015625,-3.895416259765625,0.657958984375,0.0,4.0,4.0,4.0,4.0,100.0,event
10:33:48.902,0.0,0.0,0.0,0.0,0.0,0.0,0.0,0.0,0.0,0.0,0.0,0.0,0.0,0.0,0.0,0.0,0.0,0.0,0.0,0.0,824.7985,776.4469,798.60803,806.6667,679.7436,-0.39813232421875,0.14764404296875,0.8922119140625,1.622467041015625,-3.895416259765625,0.657958984375,0.0,4.0,4.0,4.0,4.0,100.0,event
10:33:48.902,0.0,0.0,0.0,0.0,0.0,0.0,0.0,0.0,0.0,0.0,0.0,0.0,0.0,0.0,0.0,0.0,0.0,0.0,0.0,0.0,857.03296,779.2674,795.38464,823.5897,788.93774,-0.39813232421875,0.14764404296875,0.8922119140625,1.622467041015625,-3.895416259765625,0.657958984375,0.0,4.0,4.0,4.0,4.0,100.0,event
10:33:48.903,0.0,0.0,0.0,0.0,0.0,0.0,0.0,0.0,0.0,0.0,0.0,0.0,0.0,0.0,0.0,0.0,0.0,0.0,0.0,0.0,832.0513,787.72894,794.57874,821.978,793.7729,-0.39813232421875,0.14764404296875,0.8922119140625,1.622467041015625,-3.895416259765625,0.657958984375,0.0,4.0,4.0,4.0,4.0,100.0,event
10:33:48.992,0.0,0.0,0.0,0.0,0.0,0.0,0.0,0.0,0.0,0.0,0.0,0.0,0.0,0.0,0.0,0.0,0.0,0.0,0.0,0.0,783.69965,787.326,800.2198,811.50183,676.9231,-0.40643310546875,0.14471435546875,0.8916015625,2.0037841796875,-3.36456298828125,0.216827392578125,0.0,4.0,4.0,4.0,4.0,100.0,event
10:33:48.993,0.0,0.0,0.0,0.0,0.0,0.0,0.0,0.0,0.0,0.0,0.0,0.0,0.0,0.0,0.0,0.0,0.0,0.0,0.0,0.0,784.5055,783.69965,784.5055,797.8022,655.16486,-0.40643310546875,0.14471435546875,0.8916015625,2.0037841796875,-3.36456298828125,0.216827392578125,0.0,4.0,4.0,4.0,4.0,100.0,event
10:33:48.994,0.0,0.0,0.0,0.0,0.0,0.0,0.0,0.0,0.0,0.0,0.0,0.0,0.0,0.0,0.0,0.0,0.0,0.0,0.0,0.0,820.3663,786.1172,783.2967,805.8608,700.293,-0.40643310546875,0.14471435546875,0.8916015625,2.0037841796875,-3.36456298828125,0.216827392578125,0.0,4.0,4.0,4.0,4.0,100.0,event
10:33:48.995,0.0,0.0,0.0,0.0,0.0,0.0,0.0,0.0,0.0,0.0,0.0,0.0,0.0,0.0,0.0,0.0,0.0,0.0,0.0,0.0,852.6007,783.69965,801.4286,802.6374,745.82416,-0.40643310546875,0.14471435546875,0.8916015625,2.0037841796875,-3.36456298828125,0.216827392578125,0.0,4.0,4.0,4.0,4.0,100.0,event
10:33:48.996,0.0,0.0,0.0,0.0,0.0,0.0,0.0,0.0,0.0,0.0,0.0,0.0,0.0,0.0,0.0,0.0,0.0,0.0,0.0,0.0,826.0073,777.6557,806.6667,772.4176,747.4359,-0.40643310546875,0.14471435546875,0.8916015625,2.0037841796875,-3.36456298828125,0.216827392578125,0.0,4.0,4.0,4.0,4.0,100.0,event
10:33:48.996,0.0,0.0,0.0,0.0,0.0,0.0,0.0,0.0,0.0,0.0,0.0,0.0,0.0,0.0,0.0,0.0,0.0,0.0,0.0,0.0,768.3883,776.04395,805.05493,771.2088,721.2454,-0.40643310546875,0.14471435546875,0.8916015625,2.0037841796875,-3.36456298828125,0.216827392578125,0.0,4.0,4.0,4.0,4.0,100.0,event
10:33:48.997,0.0,0.0,0.0,0.0,0.0,0.0,0.0,0.0,0.0,0.0,0.0,0.0,0.0,0.0,0.0,0.0,0.0,0.0,0.0,0.0,765.56775,772.4176,797.3993,785.7143,972.674,-0.40643310546875,0.14471435546875,0.8916015625,2.0037841796875,-3.36456298828125,0.216827392578125,0.0,4.0,4.0,4.0,4.0,100.0,event
10:33:48.998,0.0,0.0,0.0,0.0,0.0,0.0,0.0,0.0,0.0,0.0,0.0,0.0,0.0,0.0,0.0,0.0,0.0,0.0,0.0,0.0,821.1722,772.8205,785.31134,777.6557,1013.7729,-0.40643310546875,0.14471435546875,0.8916015625,2.0037841796875,-3.36456298828125,0.216827392578125,0.0,4.0,4.0,4.0,4.0,100.0,event
10:33:48.998,0.0,0.0,0.0,0.0,0.0,0.0,0.0,0.0,0.0,0.0,0.0,0.0,0.0,0.0,0.0,0.0,0.0,0.0,0.0,0.0,857.03296,777.6557,781.28204,766.3736,722.8571,-0.40643310546875,0.14471435546875,0.8916015625,2.0037841796875,-3.36456298828125,0.216827392578125,0.0,4.0,4.0,4.0,4.0,100.0,event
10:33:48.999,0.0,0.0,0.0,0.0,0.0,0.0,0.0,0.0,0.0,0.0,0.0,0.0,0.0,0.0,0.0,0.0,0.0,0.0,0.0,0.0,822.7839,777.6557,788.93774,759.5238,728.49817,-0.40643310546875,0.14471435546875,0.8916015625,2.0037841796875,-3.36456298828125,0.216827392578125,0.0,4.0,4.0,4.0,4.0,100.0,event
10:33:48.999,0.0,0.0,0.0,0.0,0.0,0.0,0.0,0.0,0.0,0.0,0.0,0.0,0.0,0.0,0.0,0.0,0.0,0.0,0.0,0.0,772.01465,776.8498,795.38464,777.6557,850.989,-0.40643310546875,0.14471435546875,0.8916015625,2.0037841796875,-3.36456298828125,0.216827392578125,0.0,4.0,4.0,4.0,4.0,100.0,event
10:33:49.000,0.0,0.0,0.0,0.0,0.0,0.0,0.0,0.0,0.0,0.0,0.0,0.0,0.0,0.0,0.0,0.0,0.0,0.0,0.0,0.0,818.3516,780.07324,785.31134,790.14655,653.95605,-0.40576171875,0.14971923828125,0.8944091796875,2.190704345703125,-3.170166015625,0.1495361328125,0.0,4.0,4.0,4.0,4.0,100.0,event
10:33:49.000,0.0,0.0,0.0,0.0,0.0,0.0,0.0,0.0,0.0,0.0,0.0,0.0,0.0,0.0,0.0,0.0,0.0,0.0,0.0,0.0,774.43225,780.4762,789.7436,790.9524,712.381,-0.40643310546875,0.14471435546875,0.8916015625,2.0037841796875,-3.36456298828125,0.216827392578125,0.0,4.0,4.0,4.0,4.0,100.0,event
10:33:49.001,0.0,0.0,0.0,0.0,0.0,0.0,0.0,0.0,0.0,0.0,0.0,0.0,0.0,0.0,0.0,0.0,0.0,0.0,0.0,0.0,852.6007,776.4469,791.3553,797.3993,756.30035,-0.40576171875,0.14971923828125,0.8944091796875,2.190704345703125,-3.170166015625,0.1495361328125,0.0,4.0,4.0,4.0,4.0,100.0,event
10:33:49.002,0.0,0.0,0.0,0.0,0.0,0.0,0.0,0.0,0.0,0.0,0.0,0.0,0.0,0.0,0.0,0.0,0.0,0.0,0.0,0.0,830.0366,776.4469,797.8022,774.0293,785.7143,-0.40576171875,0.14971923828125,0.8944091796875,2.190704345703125,-3.170166015625,0.1495361328125,0.0,4.0,4.0,4.0,4.0,100.0,event
10:33:49.002,0.0,0.0,0.0,0.0,0.0,0.0,0.0,0.0,0.0,0.0,0.0,0.0,0.0,0.0,0.0,0.0,0.0,0.0,0.0,0.0,776.4469,777.6557,802.23444,738.1685,726.08057,-0.40576171875,0.14971923828125,0.8944091796875,2.190704345703125,-3.170166015625,0.1495361328125,0.0,4.0,4.0,4.0,4.0,100.0,event
10:33:49.003,0.0,0.0,0.0,0.0,0.0,0.0,0.0,0.0,0.0,0.0,0.0,0.0,0.0,0.0,0.0,0.0,0.0,0.0,0.0,0.0,758.71796,777.25275,801.8315,711.978,651.13556,-0.40576171875,0.14971923828125,0.8944091796875,2.190704345703125,-3.170166015625,0.1495361328125,0.0,4.0,4.0,4.0,4.0,100.0,event
10:33:49.003,0.0,0.0,0.0,0.0,0.0,0.0,0.0,0.0,0.0,0.0,0.0,0.0,0.0,0.0,0.0,0.0,0.0,0.0,0.0,0.0,788.1319,776.4469,795.78754,717.2161,826.4103,-0.40576171875,0.14971923828125,0.8944091796875,2.190704345703125,-3.170166015625,0.1495361328125,0.0,4.0,4.0,4.0,4.0,100.0,event
10:33:49.004,0.0,0.0,0.0,0.0,0.0,0.0,0.0,0.0,0.0,0.0,0.0,0.0,0.0,0.0,0.0,0.0,0.0,0.0,0.0,0.0,829.6337,775.64105,790.54944,744.21246,1019.41394,-0.40576171875,0.14971923828125,0.8944091796875,2.190704345703125,-3.170166015625,0.1495361328125,0.0,4.0,4.0,4.0,4.0,100.0,event
10:33:49.004,0.0,0.0,0.0,0.0,0.0,0.0,0.0,0.0,0.0,0.0,0.0,0.0,0.0,0.0,0.0,0.0,0.0,0.0,0.0,0.0,834.0659,777.25275,792.1612,771.6117,846.9597,-0.40576171875,0.14971923828125,0.8944091796875,2.190704345703125,-3.170166015625,0.1495361328125,0.0,4.0,4.0,4.0,4.0,100.0,event
10:33:49.004,0.0,0.0,0.0,0.0,0.0,0.0,0.0,0.0,0.0,0.0,0.0,0.0,0.0,0.0,0.0,0.0,0.0,0.0,0.0,0.0,784.10254,779.67035,792.5641,770.40295,732.52747,-0.40576171875,0.14971923828125,0.8944091796875,2.190704345703125,-3.170166015625,0.1495361328125,0.0,4.0,4.0,4.0,4.0,100.0,event
10:33:49.005,0.0,0.0,0.0,0.0,0.0,0.0,0.0,0.0,0.0,0.0,0.0,0.0,0.0,0.0,0.0,0.0,0.0,0.0,0.0,0.0,761.13556,780.87915,786.1172,765.9707,755.09155,-0.40576171875,0.14971923828125,0.8944091796875,2.190704345703125,-3.170166015625,0.1495361328125,0.0,4.0,4.0,4.0,4.0,100.0,event
10:33:49.006,0.0,0.0,0.0,0.0,0.0,0.0,0.0,0.0,0.0,0.0,0.0,0.0,0.0,0.0,0.0,0.0,0.0,0.0,0.0,0.0,794.57874,779.67035,784.10254,778.86444,740.58606,-0.40576171875,0.14971923828125,0.8944091796875,2.190704345703125,-3.170166015625,0.1495361328125,0.0,4.0,4.0,4.0,4.0,100.0,event
10:33:49.006,0.0,0.0,0.0,0.0,0.0,0.0,0.0,0.0,0.0,0.0,0.0,0.0,0.0,0.0,0.0,0.0,0.0,0.0,0.0,0.0,844.94507,776.8498,787.72894,800.6227,738.5714,-0.40576171875,0.14971923828125,0.8944091796875,2.190704345703125,-3.170166015625,0.1495361328125,0.0,4.0,4.0,4.0,4.0,100.0,event
10:33:49.042,0.0,0.0,0.0,0.0,0.0,0.0,0.0,0.0,0.0,0.0,0.0,0.0,0.0,0.0,0.0,0.0,0.0,0.0,0.0,0.0,847.76556,770.40295,787.72894,815.5311,751.4652,-0.41119384765625,0.14398193359375,0.88922119140625,2.10845947265625,-3.566436767578125,0.777587890625,0.0,4.0,4.0,4.0,4.0,100.0,event
10:33:49.043,0.0,0.0,0.0,0.0,0.0,0.0,0.0,0.0,0.0,0.0,0.0,0.0,0.0,0.0,0.0,0.0,0.0,0.0,0.0,0.0,782.49084,774.83514,793.7729,784.10254,874.35895,-0.41119384765625,0.14398193359375,0.88922119140625,2.10845947265625,-3.566436767578125,0.777587890625,0.0,4.0,4.0,4.0,4.0,100.0,event
10:33:49.047,0.0,0.0,0.0,0.0,0.0,0.0,0.0,0.0,0.0,0.0,0.0,0.0,0.0,0.0,0.0,0.0,0.0,0.0,0.0,0.0,742.6007,783.2967,796.1905,720.84247,977.50916,-0.41119384765625,0.14398193359375,0.88922119140625,2.10845947265625,-3.566436767578125,0.777587890625,0.0,4.0,4.0,4.0,4.0,100.0,event
10:33:49.047,0.0,0.0,0.0,0.0,0.0,0.0,0.0,0.0,0.0,0.0,0.0,0.0,0.0,0.0,0.0,0.0,0.0,0.0,0.0,0.0,775.64105,776.4469,790.54944,704.3223,756.30035,-0.41119384765625,0.14398193359375,0.88922119140625,2.10845947265625,-3.566436767578125,0.777587890625,0.0,4.0,4.0,4.0,4.0,100.0,event
10:33:49.048,0.0,0.0,0.0,0.0,0.0,0.0,0.0,0.0,0.0,0.0,0.0,0.0,0.0,0.0,0.0,0.0,0.0,0.0,0.0,0.0,829.2308,772.4176,783.2967,751.06226,734.1392,-0.41119384765625,0.14398193359375,0.88922119140625,2.10845947265625,-3.566436767578125,0.777587890625,0.0,4.0,4.0,4.0,4.0,100.0,event
10:33:49.048,0.0,0.0,0.0,0.0,0.0,0.0,0.0,0.0,0.0,0.0,0.0,0.0,0.0,0.0,0.0,0.0,0.0,0.0,0.0,0.0,842.1245,775.64105,785.7143,773.22345,1000.07324,-0.41119384765625,0.14398193359375,0.88922119140625,2.10845947265625,-3.566436767578125,0.777587890625,0.0,4.0,4.0,4.0,4.0,100.0,event
10:33:49.049,0.0,0.0,0.0,0.0,0.0,0.0,0.0,0.0,0.0,0.0,0.0,0.0,0.0,0.0,0.0,0.0,0.0,0.0,0.0,0.0,793.36993,774.83514,800.2198,767.98535,947.28937,-0.41119384765625,0.14398193359375,0.88922119140625,2.10845947265625,-3.566436767578125,0.777587890625,0.0,4.0,4.0,4.0,4.0,100.0,event
10:33:49.050,0.0,0.0,0.0,0.0,0.0,0.0,0.0,0.0,0.0,0.0,0.0,0.0,0.0,0.0,0.0,0.0,0.0,0.0,0.0,0.0,757.9121,771.6117,799.011,757.50916,779.67035,-0.41119384765625,0.14398193359375,0.88922119140625,2.10845947265625,-3.566436767578125,0.777587890625,0.0,4.0,4.0,4.0,4.0,100.0,event
10:33:49.050,0.0,0.0,0.0,0.0,0.0,0.0,0.0,0.0,0.0,0.0,0.0,0.0,0.0,0.0,0.0,0.0,0.0,0.0,0.0,0.0,786.52014,770.0,792.96704,765.56775,757.50916,-0.41119384765625,0.14398193359375,0.88922119140625,2.10845947265625,-3.566436767578125,0.777587890625,0.0,4.0,4.0,4.0,4.0,100.0,event
10:33:49.051,0.0,0.0,0.0,0.0,0.0,0.0,0.0,0.0,0.0,0.0,0.0,0.0,0.0,0.0,0.0,0.0,0.0,0.0,0.0,0.0,824.7985,769.59705,796.5934,787.326,944.0659,-0.41119384765625,0.14398193359375,0.88922119140625,2.10845947265625,-3.566436767578125,0.777587890625,0.0,4.0,4.0,4.0,4.0,100.0,event
10:33:49.051,0.0,0.0,0.0,0.0,0.0,0.0,0.0,0.0,0.0,0.0,0.0,0.0,0.0,0.0,0.0,0.0,0.0,0.0,0.0,0.0,849.3773,774.43225,796.5934,780.87915,918.68134,-0.41119384765625,0.14398193359375,0.88922119140625,2.10845947265625,-3.566436767578125,0.777587890625,0.0,4.0,4.0,4.0,4.0,100.0,event
10:33:49.052,0.0,0.0,0.0,0.0,0.0,0.0,0.0,0.0,0.0,0.0,0.0,0.0,0.0,0.0,0.0,0.0,0.0,0.0,0.0,0.0,815.9341,778.46155,792.96704,763.5531,713.9927,-0.41119384765625,0.14398193359375,0.88922119140625,2.10845947265625,-3.566436767578125,0.777587890625,0.0,4.0,4.0,4.0,4.0,100.0,event
10:33:49.089,0.0,0.0,0.0,0.0,0.0,0.0,0.0,0.0,0.0,0.0,0.0,0.0,0.0,0.0,0.0,0.0,0.0,0.0,0.0,0.0,764.35895,778.0586,789.7436,757.9121,776.04395,-0.411865234375,0.14739990234375,0.8912353515625,1.861724853515625,-3.2598876953125,0.43365478515625,0.0,4.0,4.0,4.0,4.0,100.0,event
10:33:49.090,0.0,0.0,0.0,0.0,0.0,0.0,0.0,0.0,0.0,0.0,0.0,0.0,0.0,0.0,0.0,0.0,0.0,0.0,0.0,0.0,830.84247,772.4176,775.64105,807.0696,807.8755,-0.411865234375,0.14739990234375,0.8912353515625,1.861724853515625,-3.2598876953125,0.43365478515625,0.0,4.0,4.0,4.0,4.0,100.0,event
10:33:49.090,0.0,0.0,0.0,0.0,0.0,0.0,0.0,0.0,0.0,0.0,0.0,0.0,0.0,0.0,0.0,0.0,0.0,0.0,0.0,0.0,780.07324,775.2381,780.4762,772.8205,892.0879,-0.411865234375,0.14739990234375,0.8912353515625,1.861724853515625,-3.2598876953125,0.43365478515625,0.0,4.0,4.0,4.0,4.0,100.0,event
10:33:49.091,0.0,0.0,0.0,0.0,0.0,0.0,0.0,0.0,0.0,0.0,0.0,0.0,0.0,0.0,0.0,0.0,0.0,0.0,0.0,0.0,858.24176,773.6264,788.5348,821.5751,726.8865,-0.411865234375,0.14739990234375,0.8912353515625,1.861724853515625,-3.2598876953125,0.43365478515625,0.0,4.0,4.0,4.0,4.0,100.0,event
10:33:49.092,0.0,0.0,0.0,0.0,0.0,0.0,0.0,0.0,0.0,0.0,0.0,0.0,0.0,0.0,0.0,0.0,0.0,0.0,0.0,0.0,818.7546,774.0293,806.6667,805.05493,772.4176,-0.411865234375,0.14739990234375,0.8912353515625,1.861724853515625,-3.2598876953125,0.43365478515625,0.0,4.0,4.0,4.0,4.0,100.0,event
10:33:49.092,0.0,0.0,0.0,0.0,0.0,0.0,0.0,0.0,0.0,0.0,0.0,0.0,0.0,0.0,0.0,0.0,0.0,0.0,0.0,0.0,768.3883,776.04395,807.47253,782.8938,840.5128,-0.411865234375,0.14739990234375,0.8912353515625,1.861724853515625,-3.2598876953125,0.43365478515625,0.0,4.0,4.0,4.0,4.0,100.0,event
10:33:49.093,0.0,0.0,0.0,0.0,0.0,0.0,0.0,0.0,0.0,0.0,0.0,0.0,0.0,0.0,0.0,0.0,0.0,0.0,0.0,0.0,774.83514,778.46155,800.6227,792.1612,792.5641,-0.411865234375,0.14739990234375,0.8912353515625,1.861724853515625,-3.2598876953125,0.43365478515625,0.0,4.0,4.0,4.0,4.0,100.0,event
10:33:49.094,0.0,0.0,0.0,0.0,0.0,0.0,0.0,0.0,0.0,0.0,0.0,0.0,0.0,0.0,0.0,0.0,0.0,0.0,0.0,0.0,817.9487,774.43225,789.34064,828.4249,734.94507,-0.411865234375,0.14739990234375,0.8912353515625,1.861724853515625,-3.2598876953125,0.43365478515625,0.0,4.0,4.0,4.0,4.0,100.0,event
10:33:49.094,0.0,0.0,0.0,0.0,0.0,0.0,0.0,0.0,0.0,0.0,0.0,0.0,0.0,0.0,0.0,0.0,0.0,0.0,0.0,0.0,849.7802,775.2381,790.54944,844.1392,858.6447,-0.411865234375,0.14739990234375,0.8912353515625,1.861724853515625,-3.2598876953125,0.43365478515625,0.0,4.0,4.0,4.0,4.0,100.0,event
10:33:49.095,0.0,0.0,0.0,0.0,0.0,0.0,0.0,0.0,0.0,0.0,0.0,0.0,0.0,0.0,0.0,0.0,0.0,0.0,0.0,0.0,818.7546,781.28204,801.02563,849.3773,1100.8059,-0.411865234375,0.14739990234375,0.8912353515625,1.861724853515625,-3.2598876953125,0.43365478515625,0.0,4.0,4.0,4.0,4.0,100.0,event
10:33:49.096,0.0,0.0,0.0,0.0,0.0,0.0,0.0,0.0,0.0,0.0,0.0,0.0,0.0,0.0,0.0,0.0,0.0,0.0,0.0,0.0,779.67035,778.46155,797.3993,851.39197,882.01465,-0.411865234375,0.14739990234375,0.8912353515625,1.861724853515625,-3.2598876953125,0.43365478515625,0.0,4.0,4.0,4.0,4.0,100.0,event
10:33:49.096,0.0,0.0,0.0,0.0,0.0,0.0,0.0,0.0,0.0,0.0,0.0,0.0,0.0,0.0,0.0,0.0,0.0,0.0,0.0,0.0,789.7436,777.25275,785.31134,869.12085,668.46155,-0.411865234375,0.14739990234375,0.8912353515625,1.861724853515625,-3.2598876953125,0.43365478515625,0.0,4.0,4.0,4.0,4.0,100.0,event
10:33:49.141,0.0,0.0,0.0,0.0,0.0,0.0,0.0,0.0,0.0,0.0,0.0,0.0,0.0,0.0,0.0,0.0,0.0,0.0,0.0,0.0,829.2308,778.46155,778.86444,877.98535,772.01465,-0.411865234375,0.14739990234375,0.8912353515625,1.861724853515625,-3.2598876953125,0.43365478515625,0.0,4.0,4.0,4.0,4.0,100.0,event
10:33:49.143,0.0,0.0,0.0,0.0,0.0,0.0,0.0,0.0,0.0,0.0,0.0,0.0,0.0,0.0,0.0,0.0,0.0,0.0,0.0,0.0,855.82416,774.83514,786.1172,854.61536,759.92676,-0.411865234375,0.14739990234375,0.8912353515625,1.861724853515625,-3.2598876953125,0.43365478515625,0.0,4.0,4.0,4.0,4.0,100.0,event
10:33:49.144,0.0,0.0,0.0,0.0,0.0,0.0,0.0,0.0,0.0,0.0,0.0,0.0,0.0,0.0,0.0,0.0,0.0,0.0,0.0,0.0,828.022,772.4176,792.96704,865.89746,778.0586,-0.411865234375,0.14739990234375,0.8912353515625,1.861724853515625,-3.2598876953125,0.43365478515625,0.0,4.0,4.0,4.0,4.0,100.0,event
10:33:49.145,0.0,0.0,0.0,0.0,0.0,0.0,0.0,0.0,0.0,0.0,0.0,0.0,0.0,0.0,0.0,0.0,0.0,0.0,0.0,0.0,778.86444,772.8205,794.17584,877.98535,770.80585,-0.411865234375,0.14739990234375,0.8912353515625,1.861724853515625,-3.2598876953125,0.43365478515625,0.0,4.0,4.0,4.0,4.0,100.0,event
10:33:49.149,0.0,0.0,0.0,0.0,0.0,0.0,0.0,0.0,0.0,0.0,0.0,0.0,0.0,0.0,0.0,0.0,0.0,0.0,0.0,0.0,765.16486,771.2088,790.54944,885.2381,821.978,-0.411865234375,0.14739990234375,0.8912353515625,1.861724853515625,-3.2598876953125,0.43365478515625,0.0,4.0,4.0,4.0,4.0,100.0,event
10:33:49.150,0.0,0.0,0.0,0.0,0.0,0.0,0.0,0.0,0.0,0.0,0.0,0.0,0.0,0.0,0.0,0.0,0.0,0.0,0.0,0.0,801.4286,767.98535,782.49084,896.1172,927.9487,-0.411865234375,0.14739990234375,0.8912353515625,1.861724853515625,-3.2598876953125,0.43365478515625,0.0,4.0,4.0,4.0,4.0,100.0,event
10:33:49.151,0.0,0.0,0.0,0.0,0.0,0.0,0.0,0.0,0.0,0.0,0.0,0.0,0.0,0.0,0.0,0.0,0.0,0.0,0.0,0.0,846.55676,771.6117,794.17584,890.07324,893.69965,-0.411865234375,0.14739990234375,0.8912353515625,1.861724853515625,-3.2598876953125,0.43365478515625,0.0,4.0,4.0,4.0,4.0,100.0,event
10:33:49.152,0.0,0.0,0.0,0.0,0.0,0.0,0.0,0.0,0.0,0.0,0.0,0.0,0.0,0.0,0.0,0.0,0.0,0.0,0.0,0.0,833.2601,779.2674,800.6227,875.16486,849.3773,-0.411865234375,0.14739990234375,0.8912353515625,1.861724853515625,-3.2598876953125,0.43365478515625,0.0,4.0,4.0,4.0,4.0,100.0,event
10:33:49.152,0.0,0.0,0.0,0.0,0.0,0.0,0.0,0.0,0.0,0.0,0.0,0.0,0.0,0.0,0.0,0.0,0.0,0.0,0.0,0.0,777.6557,781.28204,797.8022,858.24176,904.57874,-0.411865234375,0.14739990234375,0.8912353515625,1.861724853515625,-3.2598876953125,0.43365478515625,0.0,4.0,4.0,4.0,4.0,100.0,event
10:33:49.153,0.0,0.0,0.0,0.0,0.0,0.0,0.0,0.0,0.0,0.0,0.0,0.0,0.0,0.0,0.0,0.0,0.0,0.0,0.0,0.0,757.50916,777.25275,792.5641,874.35895,879.59705,-0.411865234375,0.14739990234375,0.8912353515625,1.861724853515625,-3.2598876953125,0.43365478515625,0.0,4.0,4.0,4.0,4.0,100.0,event
10:33:49.154,0.0,0.0,0.0,0.0,0.0,0.0,0.0,0.0,0.0,0.0,0.0,0.0,0.0,0.0,0.0,0.0,0.0,0.0,0.0,0.0,793.36993,775.64105,782.49084,892.49084,648.71796,-0.411865234375,0.14739990234375,0.8912353515625,1.861724853515625,-3.2598876953125,0.43365478515625,0.0,4.0,4.0,4.0,4.0,100.0,event
10:33:49.154,0.0,0.0,0.0,0.0,0.0,0.0,0.0,0.0,0.0,0.0,0.0,0.0,0.0,0.0,0.0,0.0,0.0,0.0,0.0,0.0,846.1539,780.07324,777.6557,939.2308,653.95605,-0.411865234375,0.14739990234375,0.8912353515625,1.861724853515625,-3.2598876953125,0.43365478515625,0.0,4.0,4.0,4.0,4.0,100.0,event
10:33:49.189,0.0,0.0,0.0,0.0,0.0,0.0,0.0,0.0,0.0,0.0,0.0,0.0,0.0,0.0,0.0,0.0,0.0,0.0,0.0,0.0,848.1685,778.46155,778.46155,969.0476,776.8498,-0.4102783203125,0.149169921875,0.89422607421875,2.07855224609375,-4.127197265625,0.441131591796875,0.0,4.0,4.0,4.0,4.0,100.0,event
10:33:49.190,0.0,0.0,0.0,0.0,0.0,0.0,0.0,0.0,0.0,0.0,0.0,0.0,0.0,0.0,0.0,0.0,0.0,0.0,0.0,0.0,789.34064,774.43225,791.75824,1010.14655,728.0952,-0.4102783203125,0.149169921875,0.89422607421875,2.07855224609375,-4.127197265625,0.441131591796875,0.0,4.0,4.0,4.0,4.0,100.0,event
10:33:49.191,0.0,0.0,0.0,0.0,0.0,0.0,0.0,0.0,0.0,0.0,0.0,0.0,0.0,0.0,0.0,0.0,0.0,0.0,0.0,0.0,784.10254,777.6557,796.1905,1282.1245,740.989,-0.4102783203125,0.149169921875,0.89422607421875,2.07855224609375,-4.127197265625,0.441131591796875,0.0,4.0,4.0,4.0,4.0,100.0,event
10:33:49.191,0.0,0.0,0.0,0.0,0.0,0.0,0.0,0.0,0.0,0.0,0.0,0.0,0.0,0.0,0.0,0.0,0.0,0.0,0.0,0.0,759.12085,775.2381,799.81683,1156.0073,698.68134,-0.4102783203125,0.149169921875,0.89422607421875,2.07855224609375,-4.127197265625,0.441131591796875,0.0,4.0,4.0,4.0,4.0,100.0,event
10:33:49.192,0.0,0.0,0.0,0.0,0.0,0.0,0.0,0.0,0.0,0.0,0.0,0.0,0.0,0.0,0.0,0.0,0.0,0.0,0.0,0.0,827.619,777.25275,797.8022,1304.2858,784.10254,-0.4102783203125,0.149169921875,0.89422607421875,2.07855224609375,-4.127197265625,0.441131591796875,0.0,4.0,4.0,4.0,4.0,100.0,event
10:33:49.193,0.0,0.0,0.0,0.0,0.0,0.0,0.0,0.0,0.0,0.0,0.0,0.0,0.0,0.0,0.0,0.0,0.0,0.0,0.0,0.0,832.8571,777.25275,799.011,1174.5421,868.71796,-0.4102783203125,0.149169921875,0.89422607421875,2.07855224609375,-4.127197265625,0.441131591796875,0.0,4.0,4.0,4.0,4.0,100.0,event
10:33:49.194,0.0,0.0,0.0,0.0,0.0,0.0,0.0,0.0,0.0,0.0,0.0,0.0,0.0,0.0,0.0,0.0,0.0,0.0,0.0,0.0,782.8938,779.2674,794.9817,1270.8425,823.1868,-0.4102783203125,0.149169921875,0.89422607421875,2.07855224609375,-4.127197265625,0.441131591796875,0.0,4.0,4.0,4.0,4.0,100.0,event
10:33:49.194,0.0,0.0,0.0,0.0,0.0,0.0,0.0,0.0,0.0,0.0,0.0,0.0,0.0,0.0,0.0,0.0,0.0,0.0,0.0,0.0,755.09155,774.83514,788.5348,1405.4213,899.7436,-0.4102783203125,0.149169921875,0.89422607421875,2.07855224609375,-4.127197265625,0.441131591796875,0.0,4.0,4.0,4.0,4.0,100.0,event
10:33:49.195,0.0,0.0,0.0,0.0,0.0,0.0,0.0,0.0,0.0,0.0,0.0,0.0,0.0,0.0,0.0,0.0,0.0,0.0,0.0,0.0,781.685,773.6264,786.52014,1413.0769,1110.4762,-0.4102783203125,0.149169921875,0.89422607421875,2.07855224609375,-4.127197265625,0.441131591796875,0.0,4.0,4.0,4.0,4.0,100.0,event
10:33:49.196,0.0,0.0,0.0,0.0,0.0,0.0,0.0,0.0,0.0,0.0,0.0,0.0,0.0,0.0,0.0,0.0,0.0,0.0,0.0,0.0,840.9158,778.46155,783.69965,1417.9121,938.022,-0.4102783203125,0.149169921875,0.89422607421875,2.07855224609375,-4.127197265625,0.441131591796875,0.0,4.0,4.0,4.0,4.0,100.0,event
10:33:49.196,0.0,0.0,0.0,0.0,0.0,0.0,0.0,0.0,0.0,0.0,0.0,0.0,0.0,0.0,0.0,0.0,0.0,0.0,0.0,0.0,853.8095,777.6557,786.52014,1350.6227,755.09155,-0.4102783203125,0.149169921875,0.89422607421875,2.07855224609375,-4.127197265625,0.441131591796875,0.0,4.0,4.0,4.0,4.0,100.0,event
10:33:49.197,0.0,0.0,0.0,0.0,0.0,0.0,0.0,0.0,0.0,0.0,0.0,0.0,0.0,0.0,0.0,0.0,0.0,0.0,0.0,0.0,799.41394,777.6557,790.14655,1273.663,792.1612,-0.4102783203125,0.149169921875,0.89422607421875,2.07855224609375,-4.127197265625,0.441131591796875,0.0,4.0,4.0,4.0,4.0,100.0,event
10:33:49.242,0.0,0.0,0.0,0.0,0.0,0.0,0.0,0.0,0.0,0.0,0.0,0.0,0.0,0.0,0.0,0.0,0.0,0.0,0.0,0.0,768.7912,780.4762,788.5348,1304.6886,740.58606,-0.403076171875,0.14447021484375,0.8896484375,2.1234130859375,-3.7384033203125,0.11962890625,0.0,4.0,4.0,4.0,4.0,100.0,event
10:33:49.243,0.0,0.0,0.0,0.0,0.0,0.0,0.0,0.0,0.0,0.0,0.0,0.0,0.0,0.0,0.0,0.0,0.0,0.0,0.0,0.0,787.326,778.0586,791.3553,1339.7435,659.19415,-0.403076171875,0.14447021484375,0.8896484375,2.1234130859375,-3.7384033203125,0.11962890625,0.0,4.0,4.0,4.0,4.0,100.0,event
10:33:49.244,0.0,0.0,0.0,0.0,0.0,0.0,0.0,0.0,0.0,0.0,0.0,0.0,0.0,0.0,0.0,0.0,0.0,0.0,0.0,0.0,832.4542,777.6557,800.6227,1292.1978,700.696,-0.403076171875,0.14447021484375,0.8896484375,2.1234130859375,-3.7384033203125,0.11962890625,0.0,4.0,4.0,4.0,4.0,100.0,event
10:33:49.246,0.0,0.0,0.0,0.0,0.0,0.0,0.0,0.0,0.0,0.0,0.0,0.0,0.0,0.0,0.0,0.0,0.0,0.0,0.0,0.0,853.8095,780.87915,804.65204,1256.337,840.5128,-0.403076171875,0.14447021484375,0.8896484375,2.1234130859375,-3.7384033203125,0.11962890625,0.0,4.0,4.0,4.0,4.0,100.0,event
10:33:49.247,0.0,0.0,0.0,0.0,0.0,0.0,0.0,0.0,0.0,0.0,0.0,0.0,0.0,0.0,0.0,0.0,0.0,0.0,0.0,0.0,808.68134,778.86444,801.4286,1249.0842,863.47986,-0.403076171875,0.14447021484375,0.8896484375,2.1234130859375,-3.7384033203125,0.11962890625,0.0,4.0,4.0,4.0,4.0,100.0,event
10:33:49.248,0.0,0.0,0.0,0.0,0.0,0.0,0.0,0.0,0.0,0.0,0.0,0.0,0.0,0.0,0.0,0.0,0.0,0.0,0.0,0.0,765.9707,778.46155,797.3993,1293.8096,832.0513,-0.403076171875,0.14447021484375,0.8896484375,2.1234130859375,-3.7384033203125,0.11962890625,0.0,4.0,4.0,4.0,4.0,100.0,event
10:33:49.251,0.0,0.0,0.0,0.0,0.0,0.0,0.0,0.0,0.0,0.0,0.0,0.0,0.0,0.0,0.0,0.0,0.0,0.0,0.0,0.0,777.6557,777.6557,790.9524,1376.8132,765.9707,-0.403076171875,0.14447021484375,0.8896484375,2.1234130859375,-3.7384033203125,0.11962890625,0.0,4.0,4.0,4.0,4.0,100.0,event
10:33:49.252,0.0,0.0,0.0,0.0,0.0,0.0,0.0,0.0,0.0,0.0,0.0,0.0,0.0,0.0,0.0,0.0,0.0,0.0,0.0,0.0,819.9634,778.86444,794.9817,1403.8096,964.21246,-0.403076171875,0.14447021484375,0.8896484375,2.1234130859375,-3.7384033203125,0.11962890625,0.0,4.0,4.0,4.0,4.0,100.0,event
10:33:49.252,0.0,0.0,0.0,0.0,0.0,0.0,0.0,0.0,0.0,0.0,0.0,0.0,0.0,0.0,0.0,0.0,0.0,0.0,0.0,0.0,848.97437,779.2674,796.99634,1332.0879,1046.4103,-0.403076171875,0.14447021484375,0.8896484375,2.1234130859375,-3.7384033203125,0.11962890625,0.0,4.0,4.0,4.0,4.0,100.0,event
10:33:49.253,0.0,0.0,0.0,0.0,0.0,0.0,0.0,0.0,0.0,0.0,0.0,0.0,0.0,0.0,0.0,0.0,0.0,0.0,0.0,0.0,820.7692,774.83514,796.5934,1191.8682,770.0,-0.403076171875,0.14447021484375,0.8896484375,2.1234130859375,-3.7384033203125,0.11962890625,0.0,4.0,4.0,4.0,4.0,100.0,event
10:33:49.254,0.0,0.0,0.0,0.0,0.0,0.0,0.0,0.0,0.0,0.0,0.0,0.0,0.0,0.0,0.0,0.0,0.0,0.0,0.0,0.0,776.04395,772.4176,796.5934,1119.7435,714.3956,-0.403076171875,0.14447021484375,0.8896484375,2.1234130859375,-3.7384033203125,0.11962890625,0.0,4.0,4.0,4.0,4.0,100.0,event
10:33:49.254,0.0,0.0,0.0,0.0,0.0,0.0,0.0,0.0,0.0,0.0,0.0,0.0,0.0,0.0,0.0,0.0,0.0,0.0,0.0,0.0,778.46155,772.01465,792.96704,1158.4249,829.6337,-0.403076171875,0.14447021484375,0.8896484375,2.1234130859375,-3.7384033203125,0.11962890625,0.0,4.0,4.0,4.0,4.0,100.0,event
10:33:49.281,0.0,0.0,0.0,0.0,0.0,0.0,0.0,0.0,0.0,0.0,0.0,0.0,0.0,0.0,0.0,0.0,0.0,0.0,0.0,0.0,827.619,774.83514,788.93774,1207.5824,801.4286,-0.40594482421875,0.14776611328125,0.89703369140625,2.19818115234375,-4.20196533203125,-0.022430419921875,0.0,4.0,4.0,4.0,4.0,100.0,event
10:33:49.282,0.0,0.0,0.0,0.0,0.0,0.0,0.0,0.0,0.0,0.0,0.0,0.0,0.0,0.0,0.0,0.0,0.0,0.0,0.0,0.0,857.4359,776.8498,784.90845,1171.3187,785.7143,-0.40594482421875,0.14776611328125,0.89703369140625,2.19818115234375,-4.20196533203125,-0.022430419921875,0.0,4.0,4.0,4.0,4.0,100.0,event
10:33:49.283,0.0,0.0,0.0,0.0,0.0,0.0,0.0,0.0,0.0,0.0,0.0,0.0,0.0,0.0,0.0,0.0,0.0,0.0,0.0,0.0,828.8278,779.2674,787.326,1110.8792,824.7985,-0.40594482421875,0.14776611328125,0.89703369140625,2.19818115234375,-4.20196533203125,-0.022430419921875,0.0,4.0,4.0,4.0,4.0,100.0,event
10:33:49.284,0.0,0.0,0.0,0.0,0.0,0.0,0.0,0.0,0.0,0.0,0.0,0.0,0.0,0.0,0.0,0.0,0.0,0.0,0.0,0.0,782.0879,777.6557,793.36993,1119.7435,794.57874,-0.40594482421875,0.14776611328125,0.89703369140625,2.19818115234375,-4.20196533203125,-0.022430419921875,0.0,4.0,4.0,4.0,4.0,100.0,event
10:33:49.285,0.0,0.0,0.0,0.0,0.0,0.0,0.0,0.0,0.0,0.0,0.0,0.0,0.0,0.0,0.0,0.0,0.0,0.0,0.0,0.0,772.4176,773.6264,795.78754,1120.5494,750.2564,-0.40594482421875,0.14776611328125,0.89703369140625,2.19818115234375,-4.20196533203125,-0.022430419921875,0.0,4.0,4.0,4.0,4.0,100.0,event
10:33:49.286,0.0,0.0,0.0,0.0,0.0,0.0,0.0,0.0,0.0,0.0,0.0,0.0,0.0,0.0,0.0,0.0,0.0,0.0,0.0,0.0,819.9634,773.6264,783.69965,1093.956,803.44324,-0.40594482421875,0.14776611328125,0.89703369140625,2.19818115234375,-4.20196533203125,-0.022430419921875,0.0,4.0,4.0,4.0,4.0,100.0,event
10:33:49.289,0.0,0.0,0.0,0.0,0.0,0.0,0.0,0.0,0.0,0.0,0.0,0.0,0.0,0.0,0.0,0.0,0.0,0.0,0.0,0.0,868.71796,777.6557,780.07324,1071.7949,922.71063,-0.40594482421875,0.14776611328125,0.89703369140625,2.19818115234375,-4.20196533203125,-0.022430419921875,0.0,4.0,4.0,4.0,4.0,100.0,event
10:33:49.290,0.0,0.0,0.0,0.0,0.0,0.0,0.0,0.0,0.0,0.0,0.0,0.0,0.0,0.0,0.0,0.0,0.0,0.0,0.0,0.0,835.6777,782.8938,805.8608,1062.5275,1118.5348,-0.40594482421875,0.14776611328125,0.89703369140625,2.19818115234375,-4.20196533203125,-0.022430419921875,0.0,4.0,4.0,4.0,4.0,100.0,event
10:33:49.290,0.0,0.0,0.0,0.0,0.0,0.0,0.0,0.0,0.0,0.0,0.0,0.0,0.0,0.0,0.0,0.0,0.0,0.0,0.0,0.0,770.0,778.0586,814.7253,1010.9524,913.0403,-0.40594482421875,0.14776611328125,0.89703369140625,2.19818115234375,-4.20196533203125,-0.022430419921875,0.0,4.0,4.0,4.0,4.0,100.0,event
10:33:49.291,0.0,0.0,0.0,0.0,0.0,0.0,0.0,0.0,0.0,0.0,0.0,0.0,0.0,0.0,0.0,0.0,0.0,0.0,0.0,0.0,755.4945,772.4176,802.6374,994.43225,744.61536,-0.40594482421875,0.14776611328125,0.89703369140625,2.19818115234375,-4.20196533203125,-0.022430419921875,0.0,4.0,4.0,4.0,4.0,100.0,event
10:33:49.292,0.0,0.0,0.0,0.0,0.0,0.0,0.0,0.0,0.0,0.0,0.0,0.0,0.0,0.0,0.0,0.0,0.0,0.0,0.0,0.0,796.1905,773.6264,797.3993,1021.8315,755.89746,-0.40594482421875,0.14776611328125,0.89703369140625,2.19818115234375,-4.20196533203125,-0.022430419921875,0.0,4.0,4.0,4.0,4.0,100.0,event
10:33:49.292,0.0,0.0,0.0,0.0,0.0,0.0,0.0,0.0,0.0,0.0,0.0,0.0,0.0,0.0,0.0,0.0,0.0,0.0,0.0,0.0,834.4689,772.01465,796.5934,986.3736,757.1062,-0.40594482421875,0.14776611328125,0.89703369140625,2.19818115234375,-4.20196533203125,-0.022430419921875,0.0,4.0,4.0,4.0,4.0,100.0,event
10:33:49.339,0.0,0.0,0.0,0.0,0.0,0.0,0.0,0.0,0.0,0.0,0.0,0.0,0.0,0.0,0.0,0.0,0.0,0.0,0.0,0.0,818.3516,774.83514,798.60803,946.08057,877.98535,-0.402587890625,0.1441650390625,0.88970947265625,2.28790283203125,-3.895416259765625,0.179443359375,0.0,4.0,4.0,4.0,4.0,100.0,event
10:33:49.341,0.0,0.0,0.0,0.0,0.0,0.0,0.0,0.0,0.0,0.0,0.0,0.0,0.0,0.0,0.0,0.0,0.0,0.0,0.0,0.0,768.7912,781.685,797.3993,928.3516,816.7399,-0.402587890625,0.1441650390625,0.88970947265625,2.28790283203125,-3.895416259765625,0.179443359375,0.0,4.0,4.0,4.0,4.0,100.0,event
10:33:49.343,0.0,0.0,0.0,0.0,0.0,0.0,0.0,0.0,0.0,0.0,0.0,0.0,0.0,0.0,0.0,0.0,0.0,0.0,0.0,0.0,747.4359,779.2674,794.57874,906.1905,795.38464,-0.402587890625,0.1441650390625,0.88970947265625,2.28790283203125,-3.895416259765625,0.179443359375,0.0,4.0,4.0,4.0,4.0,100.0,event
10:33:49.345,0.0,0.0,0.0,0.0,0.0,0.0,0.0,0.0,0.0,0.0,0.0,0.0,0.0,0.0,0.0,0.0,0.0,0.0,0.0,0.0,782.0879,777.6557,792.5641,897.72894,828.022,-0.402587890625,0.1441650390625,0.88970947265625,2.28790283203125,-3.895416259765625,0.179443359375,0.0,4.0,4.0,4.0,4.0,100.0,event
10:33:49.347,0.0,0.0,0.0,0.0,0.0,0.0,0.0,0.0,0.0,0.0,0.0,0.0,0.0,0.0,0.0,0.0,0.0,0.0,0.0,0.0,828.022,777.6557,790.54944,938.022,805.05493,-0.402587890625,0.1441650390625,0.88970947265625,2.28790283203125,-3.895416259765625,0.179443359375,0.0,4.0,4.0,4.0,4.0,100.0,event
10:33:49.348,0.0,0.0,0.0,0.0,0.0,0.0,0.0,0.0,0.0,0.0,0.0,0.0,0.0,0.0,0.0,0.0,0.0,0.0,0.0,0.0,821.978,778.86444,789.34064,943.663,868.315,-0.402587890625,0.1441650390625,0.88970947265625,2.28790283203125,-3.895416259765625,0.179443359375,0.0,4.0,4.0,4.0,4.0,100.0,event
10:33:49.349,0.0,0.0,0.0,0.0,0.0,0.0,0.0,0.0,0.0,0.0,0.0,0.0,0.0,0.0,0.0,0.0,0.0,0.0,0.0,0.0,772.8205,780.4762,787.326,801.02563,1039.9634,-0.402587890625,0.1441650390625,0.88970947265625,2.28790283203125,-3.895416259765625,0.179443359375,0.0,4.0,4.0,4.0,4.0,100.0,event
10:33:49.351,0.0,0.0,0.0,0.0,0.0,0.0,0.0,0.0,0.0,0.0,0.0,0.0,0.0,0.0,0.0,0.0,0.0,0.0,0.0,0.0,753.0769,778.86444,784.5055,608.4249,954.94507,-0.402587890625,0.1441650390625,0.88970947265625,2.28790283203125,-3.895416259765625,0.179443359375,0.0,4.0,4.0,4.0,4.0,100.0,event
10:33:49.356,0.0,0.0,0.0,0.0,0.0,0.0,0.0,0.0,0.0,0.0,0.0,0.0,0.0,0.0,0.0,0.0,0.0,0.0,0.0,0.0,793.7729,775.64105,783.69965,531.8681,672.0879,-0.402587890625,0.1441650390625,0.88970947265625,2.28790283203125,-3.895416259765625,0.179443359375,0.0,4.0,4.0,4.0,4.0,100.0,event
10:33:49.358,0.0,0.0,0.0,0.0,0.0,0.0,0.0,0.0,0.0,0.0,0.0,0.0,0.0,0.0,0.0,0.0,0.0,0.0,0.0,0.0,836.4835,775.64105,796.5934,527.8388,730.9158,-0.402587890625,0.1441650390625,0.88970947265625,2.28790283203125,-3.895416259765625,0.179443359375,0.0,4.0,4.0,4.0,4.0,100.0,event
10:33:49.359,0.0,0.0,0.0,0.0,0.0,0.0,0.0,0.0,0.0,0.0,0.0,0.0,0.0,0.0,0.0,0.0,0.0,0.0,0.0,0.0,833.2601,778.86444,801.8315,523.4066,778.46155,-0.402587890625,0.1441650390625,0.88970947265625,2.28790283203125,-3.895416259765625,0.179443359375,0.0,4.0,4.0,4.0,4.0,100.0,event
10:33:49.361,0.0,0.0,0.0,0.0,0.0,0.0,0.0,0.0,0.0,0.0,0.0,0.0,0.0,0.0,0.0,0.0,0.0,0.0,0.0,0.0,787.72894,780.4762,797.8022,543.1502,720.4396,-0.402587890625,0.1441650390625,0.88970947265625,2.28790283203125,-3.895416259765625,0.179443359375,0.0,4.0,4.0,4.0,4.0,100.0,event
10:33:49.398,0.0,0.0,0.0,0.0,0.0,0.0,0.0,0.0,0.0,0.0,0.0,0.0,0.0,0.0,0.0,0.0,0.0,0.0,0.0,0.0,753.0769,778.46155,797.3993,572.1612,647.1062,-0.402587890625,0.1441650390625,0.88970947265625,2.28790283203125,-3.895416259765625,0.179443359375,0.0,4.0,4.0,4.0,4.0,100.0,event
10:33:49.399,0.0,0.0,0.0,0.0,0.0,0.0,0.0,0.0,0.0,0.0,0.0,0.0,0.0,0.0,0.0,0.0,0.0,0.0,0.0,0.0,774.43225,777.6557,793.36993,604.7985,652.74725,-0.402587890625,0.1441650390625,0.88970947265625,2.28790283203125,-3.895416259765625,0.179443359375,0.0,4.0,4.0,4.0,4.0,100.0,event
10:33:49.400,0.0,0.0,0.0,0.0,0.0,0.0,0.0,0.0,0.0,0.0,0.0,0.0,0.0,0.0,0.0,0.0,0.0,0.0,0.0,0.0,819.9634,779.67035,792.96704,703.91943,707.5458,-0.402587890625,0.1441650390625,0.88970947265625,2.28790283203125,-3.895416259765625,0.179443359375,0.0,4.0,4.0,4.0,4.0,100.0,event
10:33:49.401,0.0,0.0,0.0,0.0,0.0,0.0,0.0,0.0,0.0,0.0,0.0,0.0,0.0,0.0,0.0,0.0,0.0,0.0,0.0,0.0,782.0879,775.2381,797.8022,770.80585,759.12085,-0.402587890625,0.1441650390625,0.88970947265625,2.28790283203125,-3.895416259765625,0.179443359375,0.0,4.0,4.0,4.0,4.0,100.0,event
10:33:49.401,0.0,0.0,0.0,0.0,0.0,0.0,0.0,0.0,0.0,0.0,0.0,0.0,0.0,0.0,0.0,0.0,0.0,0.0,0.0,0.0,826.8132,779.2674,798.60803,765.56775,757.9121,-0.402587890625,0.1441650390625,0.88970947265625,2.28790283203125,-3.895416259765625,0.179443359375,0.0,4.0,4.0,4.0,4.0,100.0,event
10:33:49.402,0.0,0.0,0.0,0.0,0.0,0.0,0.0,0.0,0.0,0.0,0.0,0.0,0.0,0.0,0.0,0.0,0.0,0.0,0.0,0.0,755.89746,776.04395,796.1905,842.52747,774.83514,-0.402587890625,0.1441650390625,0.88970947265625,2.28790283203125,-3.895416259765625,0.179443359375,0.0,4.0,4.0,4.0,4.0,100.0,event
10:33:49.403,0.0,0.0,0.0,0.0,0.0,0.0,0.0,0.0,0.0,0.0,0.0,0.0,0.0,0.0,0.0,0.0,0.0,0.0,0.0,0.0,818.7546,776.04395,794.57874,1067.7656,906.99634,-0.402587890625,0.1441650390625,0.88970947265625,2.28790283203125,-3.895416259765625,0.179443359375,0.0,4.0,4.0,4.0,4.0,100.0,event
10:33:49.403,0.0,0.0,0.0,0.0,0.0,0.0,0.0,0.0,0.0,0.0,0.0,0.0,0.0,0.0,0.0,0.0,0.0,0.0,0.0,0.0,770.80585,775.64105,793.36993,955.7509,1061.7216,-0.402587890625,0.1441650390625,0.88970947265625,2.28790283203125,-3.895416259765625,0.179443359375,0.0,4.0,4.0,4.0,4.0,100.0,event
10:33:49.404,0.0,0.0,0.0,0.0,0.0,0.0,0.0,0.0,0.0,0.0,0.0,0.0,0.0,0.0,0.0,0.0,0.0,0.0,0.0,0.0,842.9304,778.46155,799.011,1030.2931,701.9048,-0.402587890625,0.1441650390625,0.88970947265625,2.28790283203125,-3.895416259765625,0.179443359375,0.0,4.0,4.0,4.0,4.0,100.0,event
10:33:49.405,0.0,0.0,0.0,0.0,0.0,0.0,0.0,0.0,0.0,0.0,0.0,0.0,0.0,0.0,0.0,0.0,0.0,0.0,0.0,0.0,787.72894,775.64105,795.78754,906.99634,732.52747,-0.402587890625,0.1441650390625,0.88970947265625,2.28790283203125,-3.895416259765625,0.179443359375,0.0,4.0,4.0,4.0,4.0,100.0,event
10:33:49.405,0.0,0.0,0.0,0.0,0.0,0.0,0.0,0.0,0.0,0.0,0.0,0.0,0.0,0.0,0.0,0.0,0.0,0.0,0.0,0.0,747.03296,773.22345,789.7436,872.74725,718.8278,-0.402587890625,0.1441650390625,0.88970947265625,2.28790283203125,-3.895416259765625,0.179443359375,0.0,4.0,4.0,4.0,4.0,100.0,event
10:33:49.406,0.0,0.0,0.0,0.0,0.0,0.0,0.0,0.0,0.0,0.0,0.0,0.0,0.0,0.0,0.0,0.0,0.0,0.0,0.0,0.0,772.4176,777.25275,792.5641,948.9011,685.78754,-0.402587890625,0.1441650390625,0.88970947265625,2.28790283203125,-3.895416259765625,0.179443359375,0.0,4.0,4.0,4.0,4.0,100.0,event
10:33:49.428,0.0,0.0,0.0,0.0,0.0,0.0,0.0,0.0,0.0,0.0,0.0,0.0,0.0,0.0,0.0,0.0,0.0,0.0,0.0,0.0,812.71063,777.6557,803.0403,1028.6813,713.9927,-0.41204833984375,0.14862060546875,0.89654541015625,2.16827392578125,-2.848663330078125,0.22430419921875,0.0,4.0,4.0,4.0,4.0,100.0,event
10:33:49.432,0.0,0.0,0.0,0.0,0.0,0.0,0.0,0.0,0.0,0.0,0.0,0.0,0.0,0.0,0.0,0.0,0.0,0.0,0.0,0.0,832.0513,776.04395,803.0403,997.25275,812.3077,-0.41204833984375,0.14862060546875,0.89654541015625,2.16827392578125,-2.848663330078125,0.22430419921875,0.0,4.0,4.0,4.0,4.0,100.0,event
10:33:49.433,0.0,0.0,0.0,0.0,0.0,0.0,0.0,0.0,0.0,0.0,0.0,0.0,0.0,0.0,0.0,0.0,0.0,0.0,0.0,0.0,808.2784,780.4762,795.78754,954.1392,753.0769,-0.41204833984375,0.14862060546875,0.89654541015625,2.16827392578125,-2.848663330078125,0.22430419921875,0.0,4.0,4.0,4.0,4.0,100.0,event
10:33:49.435,0.0,0.0,0.0,0.0,0.0,0.0,0.0,0.0,0.0,0.0,0.0,0.0,0.0,0.0,0.0,0.0,0.0,0.0,0.0,0.0,771.2088,778.86444,797.3993,853.00366,624.94507,-0.41204833984375,0.14862060546875,0.89654541015625,2.16827392578125,-2.848663330078125,0.22430419921875,0.0,4.0,4.0,4.0,4.0,100.0,event
10:33:49.436,0.0,0.0,0.0,0.0,0.0,0.0,0.0,0.0,0.0,0.0,0.0,0.0,0.0,0.0,0.0,0.0,0.0,0.0,0.0,0.0,773.22345,775.64105,801.8315,722.0513,670.87915,-0.41204833984375,0.14862060546875,0.89654541015625,2.16827392578125,-2.848663330078125,0.22430419921875,0.0,4.0,4.0,4.0,4.0,100.0,event
