TimeStamp,Delta_TP9,Delta_AF7,Delta_AF8,Delta_TP10,Theta_TP9,Theta_AF7,Theta_AF8,Theta_TP10,Alpha_TP9,Alpha_AF7,Alpha_AF8,Alpha_TP10,Beta_TP9,Beta_AF7,Beta_AF8,Beta_TP10,Gamma_TP9,Gamma_AF7,Gamma_AF8,Gamma_TP10,RAW_TP9,RAW_AF7,RAW_AF8,RAW_TP10,AUX_RIGHT,Accelerometer_X,Accelerometer_Y,Accelerometer_Z,Gyro_X,Gyro_Y,Gyro_Z,HeadBandOn,HSI_TP9,HSI_AF7,HSI_AF8,HSI_TP10,Battery,Elements
12:44:38.405,0.0,-0.35737047,1.2582589,0.43761814,0.0,-0.77181023,0.6032951,0.3990751,0.0,-0.46206507,-0.014264201,0.4907765,0.0,-0.375541,-0.12750226,0.57194656,0.0,-0.5942407,-0.44645023,0.39264238,574.57874,792.1612,505.27472,836.8865,853.8095,-0.3387451171875,0.0323486328125,0.9295654296875,1.9439697265625,-2.99072265625,0.500946044921875,1.0,1.0,1.0,1.0,1.0,100.0,event
12:44:38.406,0.0,-0.3680731,1.2582589,0.43761814,0.0,-0.80223286,0.6032951,0.3990751,0.0,-0.46206507,-0.014264201,0.4907765,0.0,-0.37085363,-0.12750226,0.57194656,0.0,-0.6032592,-0.44645023,0.39264238,1430.8059,799.81683,508.49817,861.4652,796.5934,-0.3387451171875,0.0323486328125,0.9295654296875,1.9439697265625,-2.99072265625,0.500946044921875,1.0,1.0,1.0,1.0,1.0,100.0,event
12:44:38.406,0.0,-0.35737047,1.2582589,0.43761814,0.0,-0.77181023,0.6032951,0.3990751,0.0,-0.46206507,-0.014264201,0.4907765,0.0,-0.375541,-0.12750226,0.57194656,0.0,-0.5942407,-0.44645023,0.39264238,1063.3334,797.3993,510.1099,848.1685,855.0183,-0.3387451171875,0.0323486328125,0.9295654296875,1.9439697265625,-2.99072265625,0.500946044921875,1.0,1.0,1.0,1.0,1.0,100.0,event
12:44:38.411,0.0,-0.3680731,1.2582589,0.43761814,0.0,-0.80223286,0.6032951,0.3990751,0.0,-0.46206507,-0.014264201,0.4907765,0.0,-0.37085363,-0.12750226,0.57194656,0.0,-0.6032592,-0.44645023,0.39264238,1095.1648,794.57874,486.337,849.7802,728.9011,-0.3387451171875,0.0323486328125,0.9295654296875,1.9439697265625,-2.99072265625,0.500946044921875,1.0,1.0,1.0,1.0,1.0,100.0,event
12:44:38.411,0.0,-0.3680731,1.2582589,0.43761814,0.0,-0.80223286,0.6032951,0.3990751,0.0,-0.46206507,-0.014264201,0.4907765,0.0,-0.37085363,-0.12750226,0.57194656,0.0,-0.6032592,-0.44645023,0.39264238,375.93405,791.3553,460.54944,836.4835,942.8571,-0.3387451171875,0.0323486328125,0.9295654296875,1.9439697265625,-2.99072265625,0.500946044921875,1.0,1.0,1.0,1.0,1.0,100.0,event
12:44:38.412,0.0,-0.3680731,1.2582589,0.43761814,0.0,-0.80223286,0.6032951,0.3990751,0.0,-0.46206507,-0.014264201,0.4907765,0.0,-0.37085363,-0.12750226,0.57194656,0.0,-0.6032592,-0.44645023,0.39264238,423.07693,795.38464,493.1868,836.8865,936.8132,-0.3387451171875,0.0323486328125,0.9295654296875,1.9439697265625,-2.99072265625,0.500946044921875,1.0,1.0,1.0,1.0,1.0,100.0,event
12:44:38.413,0.0,-0.3680731,1.2582589,0.43761814,0.0,-0.80223286,0.6032951,0.3990751,0.0,-0.46206507,-0.014264201,0.4907765,0.0,-0.37085363,-0.12750226,0.57194656,0.0,-0.6032592,-0.44645023,0.39264238,1024.249,796.5934,502.85715,840.10986,743.00366,-0.3387451171875,0.0323486328125,0.9295654296875,1.9439697265625,-2.99072265625,0.500946044921875,1.0,1.0,1.0,1.0,1.0,100.0,event
12:44:38.435,0.0,-0.3680731,1.2582589,0.43761814,0.0,-0.80223286,0.6032951,0.3990751,0.0,-0.46206507,-0.014264201,0.4907765,0.0,-0.37085363,-0.12750226,0.57194656,0.0,-0.6032592,-0.44645023,0.39264238,1411.0623,795.38464,462.96704,850.18317,844.1392,-0.3387451171875,0.0323486328125,0.9295654296875,1.9439697265625,-2.99072265625,0.500946044921875,1.0,1.0,1.0,1.0,1.0,100.0,event
12:44:38.436,0.0,-0.3680731,1.2582589,0.43761814,0.0,-0.80223286,0.6032951,0.3990751,0.0,-0.46206507,-0.014264201,0.4907765,0.0,-0.37085363,-0.12750226,0.57194656,0.0,-0.6032592,-0.44645023,0.39264238,1147.5458,794.9817,452.08792,843.73627,857.8388,-0.3387451171875,0.0323486328125,0.9295654296875,1.9439697265625,-2.99072265625,0.500946044921875,1.0,1.0,1.0,1.0,1.0,100.0,event
12:44:38.437,0.0,-0.3680731,1.2582589,0.43761814,0.0,-0.80223286,0.6032951,0.3990751,0.0,-0.46206507,-0.014264201,0.4907765,0.0,-0.37085363,-0.12750226,0.57194656,0.0,-0.6032592,-0.44645023,0.39264238,492.78387,798.20514,465.78754,826.0073,797.3993,-0.3387451171875,0.0323486328125,0.9295654296875,1.9439697265625,-2.99072265625,0.500946044921875,1.0,1.0,1.0,1.0,1.0,100.0,event
12:44:38.438,0.0,-0.3680731,1.2582589,0.43761814,0.0,-0.80223286,0.6032951,0.3990751,0.0,-0.46206507,-0.014264201,0.4907765,0.0,-0.37085363,-0.12750226,0.57194656,0.0,-0.6032592,-0.44645023,0.39264238,436.77655,798.20514,462.16116,821.978,740.58606,-0.3387451171875,0.0323486328125,0.9295654296875,1.9439697265625,-2.99072265625,0.500946044921875,1.0,1.0,1.0,1.0,1.0,100.0,event
12:44:38.439,0.0,-0.3680731,1.2582589,0.43761814,0.0,-0.80223286,0.6032951,0.3990751,0.0,-0.46206507,-0.014264201,0.4907765,0.0,-0.37085363,-0.12750226,0.57194656,0.0,-0.6032592,-0.44645023,0.39264238,900.9524,794.57874,447.65567,832.0513,888.0586,-0.3387451171875,0.0323486328125,0.9295654296875,1.9439697265625,-2.99072265625,0.500946044921875,1.0,1.0,1.0,1.0,1.0,100.0,event
12:44:38.439,0.0,-0.3680731,1.2582589,0.43761814,0.0,-0.80223286,0.6032951,0.3990751,0.0,-0.46206507,-0.014264201,0.4907765,0.0,-0.37085363,-0.12750226,0.57194656,0.0,-0.6032592,-0.44645023,0.39264238,1346.1904,795.78754,452.08792,845.34796,1031.9048,-0.3387451171875,0.0323486328125,0.9295654296875,1.9439697265625,-2.99072265625,0.500946044921875,1.0,1.0,1.0,1.0,1.0,100.0,event
12:44:38.440,0.0,-0.3680731,1.2582589,0.43761814,0.0,-0.80223286,0.6032951,0.3990751,0.0,-0.46206507,-0.014264201,0.4907765,0.0,-0.37085363,-0.12750226,0.57194656,0.0,-0.6032592,-0.44645023,0.39264238,1221.2821,798.60803,467.8022,836.08057,914.2491,-0.3387451171875,0.0323486328125,0.9295654296875,1.9439697265625,-2.99072265625,0.500946044921875,1.0,1.0,1.0,1.0,1.0,100.0,event
12:44:38.441,0.0,-0.3680731,1.2582589,0.43761814,0.0,-0.80223286,0.6032951,0.3990751,0.0,-0.46206507,-0.014264201,0.4907765,0.0,-0.37085363,-0.12750226,0.57194656,0.0,-0.6032592,-0.44645023,0.39264238,559.67035,796.1905,463.36996,819.15753,737.3626,-0.3387451171875,0.0323486328125,0.9295654296875,1.9439697265625,-2.99072265625,0.500946044921875,1.0,1.0,1.0,1.0,1.0,100.0,event
12:44:38.442,0.0,-0.3680731,1.2582589,0.43761814,0.0,-0.80223286,0.6032951,0.3990751,0.0,-0.46206507,-0.014264201,0.4907765,0.0,-0.37085363,-0.12750226,0.57194656,0.0,-0.6032592,-0.44645023,0.39264238,356.99634,794.57874,432.34433,819.5604,787.72894,-0.3387451171875,0.0323486328125,0.9295654296875,1.9439697265625,-2.99072265625,0.500946044921875,1.0,1.0,1.0,1.0,1.0,100.0,event
12:44:38.443,0.0,-0.3680731,1.2582589,0.43761814,0.0,-0.80223286,0.6032951,0.3990751,0.0,-0.46206507,-0.014264201,0.4907765,0.0,-0.37085363,-0.12750226,0.57194656,0.0,-0.6032592,-0.44645023,0.39264238,796.99634,796.99634,459.7436,829.6337,985.56775,-0.3387451171875,0.0323486328125,0.9295654296875,1.9439697265625,-2.99072265625,0.500946044921875,1.0,1.0,1.0,1.0,1.0,100.0,event
12:44:38.443,0.0,-0.3680731,1.2582589,0.43761814,0.0,-0.80223286,0.6032951,0.3990751,0.0,-0.46206507,-0.014264201,0.4907765,0.0,-0.37085363,-0.12750226,0.57194656,0.0,-0.6032592,-0.44645023,0.39264238,1368.7546,799.011,494.3956,832.0513,847.3626,-0.3387451171875,0.0323486328125,0.9295654296875,1.9439697265625,-2.99072265625,0.500946044921875,1.0,1.0,1.0,1.0,1.0,100.0,event
12:44:38.444,0.0,-0.3680731,1.2582589,0.43761814,0.0,-0.80223286,0.6032951,0.3990751,0.0,-0.46206507,-0.014264201,0.4907765,0.0,-0.37085363,-0.12750226,0.57194656,0.0,-0.6032592,-0.44645023,0.39264238,1294.6154,794.17584,464.9817,826.0073,746.2271,-0.3387451171875,0.0323486328125,0.9295654296875,1.9439697265625,-2.99072265625,0.500946044921875,1.0,1.0,1.0,1.0,1.0,100.0,event
12:44:38.445,0.0,-0.3680731,1.2582589,0.43761814,0.0,-0.80223286,0.6032951,0.3990751,0.0,-0.46206507,-0.014264201,0.4907765,0.0,-0.37085363,-0.12750226,0.57194656,0.0,-0.6032592,-0.44645023,0.39264238,599.9634,793.7729,460.54944,811.0989,769.59705,-0.33935546875,0.0347900390625,0.9267578125,2.519683837890625,-3.42437744140625,0.485992431640625,1.0,1.0,1.0,1.0,1.0,100.0,event
12:44:38.446,0.0,-0.3680731,1.2582589,0.43761814,0.0,-0.80223286,0.6032951,0.3990751,0.0,-0.46206507,-0.014264201,0.4907765,0.0,-0.37085363,-0.12750226,0.57194656,0.0,-0.6032592,-0.44645023,0.39264238,767.1795,793.7729,484.32236,811.50183,663.6264,-0.33935546875,0.0347900390625,0.9267578125,2.519683837890625,-3.42437744140625,0.485992431640625,1.0,1.0,1.0,1.0,1.0,100.0,event
12:44:38.446,0.0,-0.3680731,1.2582589,0.43761814,0.0,-0.80223286,0.6032951,0.3990751,0.0,-0.46206507,-0.014264201,0.4907765,0.0,-0.37085363,-0.12750226,0.57194656,0.0,-0.6032592,-0.44645023,0.39264238,348.5348,795.38464,475.05493,803.0403,721.2454,-0.33935546875,0.0347900390625,0.9267578125,2.519683837890625,-3.42437744140625,0.485992431640625,1.0,1.0,1.0,1.0,1.0,100.0,event
12:44:38.447,0.0,-0.3680731,1.2582589,0.43761814,0.0,-0.80223286,0.6032951,0.3990751,0.0,-0.46206507,-0.014264201,0.4907765,0.0,-0.37085363,-0.12750226,0.57194656,0.0,-0.6032592,-0.44645023,0.39264238,1310.3297,792.96704,485.1282,824.3956,738.97437,-0.33935546875,0.0347900390625,0.9267578125,2.519683837890625,-3.42437744140625,0.485992431640625,1.0,1.0,1.0,1.0,1.0,100.0,event
12:44:38.448,0.0,-0.3680731,1.2582589,0.43761814,0.0,-0.80223286,0.6032951,0.3990751,0.0,-0.46206507,-0.014264201,0.4907765,0.0,-0.37085363,-0.12750226,0.57194656,0.0,-0.6032592,-0.44645023,0.39264238,1313.5531,799.41394,479.48718,841.7216,858.24176,-0.33935546875,0.0347900390625,0.9267578125,2.519683837890625,-3.42437744140625,0.485992431640625,1.0,1.0,1.0,1.0,1.0,100.0,event
12:44:38.448,0.0,-0.3680731,1.2582589,0.43761814,0.0,-0.80223286,0.6032951,0.3990751,0.0,-0.46206507,-0.014264201,0.4907765,0.0,-0.37085363,-0.12750226,0.57194656,0.0,-0.6032592,-0.44645023,0.39264238,660.80585,802.23444,477.47253,820.3663,935.2015,-0.33935546875,0.0347900390625,0.9267578125,2.519683837890625,-3.42437744140625,0.485992431640625,1.0,1.0,1.0,1.0,1.0,100.0,event
12:44:38.449,0.0,-0.3680731,1.2582589,0.43761814,0.0,-0.80223286,0.6032951,0.3990751,0.0,-0.46206507,-0.014264201,0.4907765,0.0,-0.37085363,-0.12750226,0.57194656,0.0,-0.6032592,-0.44645023,0.39264238,309.0476,799.81683,490.3663,795.78754,875.9707,-0.33935546875,0.0347900390625,0.9267578125,2.519683837890625,-3.42437744140625,0.485992431640625,1.0,1.0,1.0,1.0,1.0,100.0,event
12:44:38.450,0.0,-0.3680731,1.2582589,0.43761814,0.0,-0.80223286,0.6032951,0.3990751,0.0,-0.46206507,-0.014264201,0.4907765,0.0,-0.37085363,-0.12750226,0.57194656,0.0,-0.6032592,-0.44645023,0.39264238,674.5055,801.8315,509.70697,809.4872,759.5238,-0.33935546875,0.0347900390625,0.9267578125,2.519683837890625,-3.42437744140625,0.485992431640625,1.0,1.0,1.0,1.0,1.0,100.0,event
12:44:38.450,0.0,-0.3680731,1.2582589,0.43761814,0.0,-0.80223286,0.6032951,0.3990751,0.0,-0.46206507,-0.014264201,0.4907765,0.0,-0.37085363,-0.12750226,0.57194656,0.0,-0.6032592,-0.44645023,0.39264238,1208.7913,797.8022,497.61905,827.2161,993.6264,-0.33935546875,0.0347900390625,0.9267578125,2.519683837890625,-3.42437744140625,0.485992431640625,1.0,1.0,1.0,1.0,1.0,100.0,event
12:44:38.451,0.0,-0.358679,1.2582589,0.43761814,0.0,-0.84726214,0.6032951,0.3990751,0.0,-0.46206507,-0.014264201,0.4907765,0.0,-0.36213893,-0.12750226,0.57194656,0.0,-0.6222682,-0.44645023,0.39264238,1312.3444,800.6227,520.58606,817.1429,1061.3187,-0.33935546875,0.0347900390625,0.9267578125,2.519683837890625,-3.42437744140625,0.485992431640625,1.0,1.0,1.0,1.0,1.0,100.0,event
12:44:38.455,0.0,-0.358679,1.2582589,0.43761814,0.0,-0.84726214,0.6032951,0.3990751,0.0,-0.46206507,-0.014264201,0.4907765,0.0,-0.36213893,-0.12750226,0.57194656,0.0,-0.6222682,-0.44645023,0.39264238,321.53845,797.8022,512.9304,805.8608,739.3773,-0.33935546875,0.0347900390625,0.9267578125,2.519683837890625,-3.42437744140625,0.485992431640625,1.0,1.0,1.0,1.0,1.0,100.0,event
12:44:38.455,0.0,-0.358679,1.2582589,0.43761814,0.0,-0.84726214,0.6032951,0.3990751,0.0,-0.46206507,-0.014264201,0.4907765,0.0,-0.36213893,-0.12750226,0.57194656,0.0,-0.6222682,-0.44645023,0.39264238,783.2967,803.0403,538.71796,799.81683,734.5421,-0.33935546875,0.0347900390625,0.9267578125,2.519683837890625,-3.42437744140625,0.485992431640625,1.0,1.0,1.0,1.0,1.0,100.0,event
12:44:38.478,0.0,-0.358679,1.2582589,0.43761814,0.0,-0.84726214,0.6032951,0.3990751,0.0,-0.46206507,-0.014264201,0.4907765,0.0,-0.36213893,-0.12750226,0.57194656,0.0,-0.6222682,-0.44645023,0.39264238,591.9048,798.20514,530.2564,806.26373,853.00366,-0.34442138671875,0.0345458984375,0.9283447265625,1.6748046875,-4.179534912109375,0.25421142578125,1.0,1.0,1.0,1.0,1.0,100.0,event
12:44:38.479,0.0,-0.358679,1.2582589,0.43761814,0.0,-0.84726214,0.6032951,0.3990751,0.0,-0.46206507,-0.014264201,0.4907765,0.0,-0.36213893,-0.12750226,0.57194656,0.0,-0.6222682,-0.44645023,0.39264238,1192.674,797.8022,550.80585,802.6374,839.304,-0.34442138671875,0.0345458984375,0.9283447265625,1.6748046875,-4.179534912109375,0.25421142578125,1.0,1.0,1.0,1.0,1.0,100.0,event
12:44:38.479,0.0,-0.358679,1.2582589,0.43761814,0.0,-0.84726214,0.6032951,0.3990751,0.0,-0.46206507,-0.014264201,0.4907765,0.0,-0.36213893,-0.12750226,0.57194656,0.0,-0.6222682,-0.44645023,0.39264238,1382.0513,797.3993,545.9707,805.8608,845.34796,-0.34442138671875,0.0345458984375,0.9283447265625,1.6748046875,-4.179534912109375,0.25421142578125,1.0,1.0,1.0,1.0,1.0,100.0,event
12:44:38.480,0.0,-0.358679,1.2582589,0.43761814,0.0,-0.84726214,0.6032951,0.3990751,0.0,-0.46206507,-0.014264201,0.4907765,0.0,-0.36213893,-0.12750226,0.57194656,0.0,-0.6222682,-0.44645023,0.39264238,817.1429,795.38464,533.0769,792.96704,875.9707,-0.34442138671875,0.0345458984375,0.9283447265625,1.6748046875,-4.179534912109375,0.25421142578125,1.0,1.0,1.0,1.0,1.0,100.0,event
12:44:38.480,0.0,-0.358679,1.2582589,0.43761814,0.0,-0.84726214,0.6032951,0.3990751,0.0,-0.46206507,-0.014264201,0.4907765,0.0,-0.36213893,-0.12750226,0.57194656,0.0,-0.6222682,-0.44645023,0.39264238,294.94507,798.60803,544.35895,785.7143,787.326,-0.34442138671875,0.0345458984375,0.9283447265625,1.6748046875,-4.179534912109375,0.25421142578125,1.0,1.0,1.0,1.0,1.0,100.0,event
12:44:38.481,0.0,-0.358679,1.2582589,0.43761814,0.0,-0.84726214,0.6032951,0.3990751,0.0,-0.46206507,-0.014264201,0.4907765,0.0,-0.36213893,-0.12750226,0.57194656,0.0,-0.6222682,-0.44645023,0.39264238,513.3333,805.4579,564.10254,790.9524,768.7912,-0.34442138671875,0.0345458984375,0.9283447265625,1.6748046875,-4.179534912109375,0.25421142578125,1.0,1.0,1.0,1.0,1.0,100.0,event
12:44:38.481,0.0,-0.358679,1.2582589,0.43761814,0.0,-0.84726214,0.6032951,0.3990751,0.0,-0.46206507,-0.014264201,0.4907765,0.0,-0.36213893,-0.12750226,0.57194656,0.0,-0.6222682,-0.44645023,0.39264238,1098.3883,805.8608,574.9817,811.0989,823.5897,-0.34442138671875,0.0345458984375,0.9283447265625,1.6748046875,-4.179534912109375,0.25421142578125,1.0,1.0,1.0,1.0,1.0,100.0,event
12:44:38.482,0.0,-0.358679,1.2582589,0.43761814,0.0,-0.84726214,0.6032951,0.3990751,0.0,-0.46206507,-0.014264201,0.4907765,0.0,-0.36213893,-0.12750226,0.57194656,0.0,-0.6222682,-0.44645023,0.39264238,865.89746,800.2198,572.96704,821.1722,994.43225,-0.34442138671875,0.0345458984375,0.9283447265625,1.6748046875,-4.179534912109375,0.25421142578125,1.0,1.0,1.0,1.0,1.0,100.0,event
12:44:38.482,0.0,-0.358679,1.2582589,0.43761814,0.0,-0.84726214,0.6032951,0.3990751,0.0,-0.46206507,-0.014264201,0.4907765,0.0,-0.36213893,-0.12750226,0.57194656,0.0,-0.6222682,-0.44645023,0.39264238,1343.773,796.99634,558.0586,828.4249,938.8278,-0.34442138671875,0.0345458984375,0.9283447265625,1.6748046875,-4.179534912109375,0.25421142578125,1.0,1.0,1.0,1.0,1.0,100.0,event
12:44:38.483,0.0,-0.358679,1.2582589,0.43761814,0.0,-0.84726214,0.6032951,0.3990751,0.0,-0.46206507,-0.014264201,0.4907765,0.0,-0.36213893,-0.12750226,0.57194656,0.0,-0.6222682,-0.44645023,0.39264238,353.7729,805.8608,611.2454,802.6374,750.2564,-0.34442138671875,0.0345458984375,0.9283447265625,1.6748046875,-4.179534912109375,0.25421142578125,1.0,1.0,1.0,1.0,1.0,100.0,event
12:44:38.484,0.0,-0.358679,1.2582589,0.43761814,0.0,-0.84726214,0.6032951,0.3990751,0.0,-0.46206507,-0.014264201,0.4907765,0.0,-0.36213893,-0.12750226,0.57194656,0.0,-0.6222682,-0.44645023,0.39264238,490.76923,800.2198,602.7839,802.23444,684.9817,-0.34442138671875,0.0345458984375,0.9283447265625,1.6748046875,-4.179534912109375,0.25421142578125,1.0,1.0,1.0,1.0,1.0,100.0,event
12:44:38.484,0.0,-0.358679,1.2582589,0.43761814,0.0,-0.84726214,0.6032951,0.3990751,0.0,-0.46206507,-0.014264201,0.4907765,0.0,-0.36213893,-0.12750226,0.57194656,0.0,-0.6222682,-0.44645023,0.39264238,1015.78754,801.4286,615.6777,816.337,821.978,-0.34442138671875,0.0345458984375,0.9283447265625,1.6748046875,-4.179534912109375,0.25421142578125,1.0,1.0,1.0,1.0,1.0,100.0,event
12:44:38.538,0.0,-0.358679,1.2582589,0.43761814,0.0,-0.84726214,0.6032951,0.3990751,0.0,-0.46206507,-0.014264201,0.4907765,0.0,-0.36213893,-0.12750226,0.57194656,0.0,-0.6222682,-0.44645023,0.39264238,1379.6337,803.0403,636.2271,825.6044,793.7729,-0.33453369140625,0.03497314453125,0.9271240234375,2.1832275390625,-4.17205810546875,-0.97198486328125,1.0,1.0,1.0,1.0,1.0,100.0,event
12:44:38.543,0.0,-0.358679,1.2582589,0.43761814,0.0,-0.84726214,0.6032951,0.3990751,0.0,-0.46206507,-0.014264201,0.4907765,0.0,-0.36213893,-0.12750226,0.57194656,0.0,-0.6222682,-0.44645023,0.39264238,1018.20514,799.81683,629.3773,818.3516,673.69965,-0.33453369140625,0.03497314453125,0.9271240234375,2.1832275390625,-4.17205810546875,-0.97198486328125,1.0,1.0,1.0,1.0,1.0,100.0,event
12:44:38.545,0.0,-0.358679,1.2582589,0.43761814,0.0,-0.84726214,0.6032951,0.3990751,0.0,-0.46206507,-0.014264201,0.4907765,0.0,-0.36213893,-0.12750226,0.57194656,0.0,-0.6222682,-0.44645023,0.39264238,359.81686,801.4286,623.73627,809.0842,683.36993,-0.33453369140625,0.03497314453125,0.9271240234375,2.1832275390625,-4.17205810546875,-0.97198486328125,1.0,1.0,1.0,1.0,1.0,100.0,event
12:44:38.546,0.0,-0.358679,1.2582589,0.43761814,0.0,-0.84726214,0.6032951,0.3990751,0.0,-0.46206507,-0.014264201,0.4907765,0.0,-0.36213893,-0.12750226,0.57194656,0.0,-0.6222682,-0.44645023,0.39264238,430.32968,801.8315,647.1062,801.8315,770.80585,-0.33453369140625,0.03497314453125,0.9271240234375,2.1832275390625,-4.17205810546875,-0.97198486328125,1.0,1.0,1.0,1.0,1.0,100.0,event
12:44:38.547,0.0,-0.358679,1.2582589,0.43761814,0.0,-0.84726214,0.6032951,0.3990751,0.0,-0.46206507,-0.014264201,0.4907765,0.0,-0.36213893,-0.12750226,0.57194656,0.0,-0.6222682,-0.44645023,0.39264238,975.4945,801.4286,661.2088,802.23444,803.8461,-0.33453369140625,0.03497314453125,0.9271240234375,2.1832275390625,-4.17205810546875,-0.97198486328125,1.0,1.0,1.0,1.0,1.0,100.0,event
12:44:38.548,0.0,-0.358679,1.2582589,0.43761814,0.0,-0.84726214,0.6032951,0.3990751,0.0,-0.46206507,-0.014264201,0.4907765,0.0,-0.36213893,-0.12750226,0.57194656,0.0,-0.6222682,-0.44645023,0.39264238,1365.5311,805.05493,658.3883,820.3663,846.1539,-0.33453369140625,0.03497314453125,0.9271240234375,2.1832275390625,-4.17205810546875,-0.97198486328125,1.0,1.0,1.0,1.0,1.0,100.0,event
12:44:38.550,0.0,-0.358679,1.2582589,0.43761814,0.0,-0.84726214,0.6032951,0.3990751,0.0,-0.46206507,-0.014264201,0.4907765,0.0,-0.36213893,-0.12750226,0.57194656,0.0,-0.6222682,-0.44645023,0.39264238,1088.7179,800.2198,657.98535,817.9487,895.7143,-0.33453369140625,0.03497314453125,0.9271240234375,2.1832275390625,-4.17205810546875,-0.97198486328125,1.0,1.0,1.0,1.0,1.0,100.0,event
12:44:38.550,0.0,-0.358679,1.2582589,0.43761814,0.0,-0.84726214,0.6032951,0.3990751,0.0,-0.46206507,-0.014264201,0.4907765,0.0,-0.36213893,-0.12750226,0.57194656,0.0,-0.6222682,-0.44645023,0.39264238,360.6227,793.7729,647.9121,801.02563,978.315,-0.33453369140625,0.03497314453125,0.9271240234375,2.1832275390625,-4.17205810546875,-0.97198486328125,1.0,1.0,1.0,1.0,1.0,100.0,event
12:44:38.551,0.0,-0.358679,1.2582589,0.43761814,0.0,-0.84726214,0.6032951,0.3990751,0.0,-0.46206507,-0.014264201,0.4907765,0.0,-0.36213893,-0.12750226,0.57194656,0.0,-0.6222682,-0.44645023,0.39264238,354.9817,799.81683,695.05493,800.2198,924.3223,-0.33453369140625,0.03497314453125,0.9271240234375,2.1832275390625,-4.17205810546875,-0.97198486328125,1.0,1.0,1.0,1.0,1.0,100.0,event
12:44:38.552,0.0,-0.358679,1.2582589,0.43761814,0.0,-0.84726214,0.6032951,0.3990751,0.0,-0.46206507,-0.014264201,0.4907765,0.0,-0.36213893,-0.12750226,0.57194656,0.0,-0.6222682,-0.44645023,0.39264238,940.0366,799.011,718.8278,812.71063,698.68134,-0.33453369140625,0.03497314453125,0.9271240234375,2.1832275390625,-4.17205810546875,-0.97198486328125,1.0,1.0,1.0,1.0,1.0,100.0,event
12:44:38.552,0.0,-0.358679,1.2582589,0.43761814,0.0,-0.84726214,0.6032951,0.3990751,0.0,-0.46206507,-0.014264201,0.4907765,0.0,-0.36213893,-0.12750226,0.57194656,0.0,-0.6222682,-0.44645023,0.39264238,1345.7876,792.5641,690.6227,821.978,778.0586,-0.33453369140625,0.03497314453125,0.9271240234375,2.1832275390625,-4.17205810546875,-0.97198486328125,1.0,1.0,1.0,1.0,1.0,100.0,event
12:44:38.553,0.0,-0.33399472,1.2582589,0.43761814,0.0,-0.8967797,0.6032951,0.3990751,0.0,-0.46206507,-0.014264201,0.4907765,0.0,-0.35115415,-0.12750226,0.57194656,0.0,-0.64882284,-0.44645023,0.39264238,1155.2014,792.96704,699.4872,807.8755,953.73627,-0.33453369140625,0.03497314453125,0.9271240234375,2.1832275390625,-4.17205810546875,-0.97198486328125,1.0,1.0,1.0,1.0,1.0,100.0,event
12:44:38.592,0.0,-0.33399472,1.2582589,0.43761814,0.0,-0.8967797,0.6032951,0.3990751,0.0,-0.46206507,-0.014264201,0.4907765,0.0,-0.35115415,-0.12750226,0.57194656,0.0,-0.64882284,-0.44645023,0.39264238,497.61905,798.60803,712.381,796.1905,844.5421,-0.33203125,0.03436279296875,0.9332275390625,1.816864013671875,-3.551483154296875,0.35888671875,1.0,1.0,1.0,1.0,1.0,100.0,event
12:44:38.593,0.0,-0.33399472,1.2582589,0.43761814,0.0,-0.8967797,0.6032951,0.3990751,0.0,-0.46206507,-0.014264201,0.4907765,0.0,-0.35115415,-0.12750226,0.57194656,0.0,-0.64882284,-0.44645023,0.39264238,350.1465,801.02563,716.4103,798.20514,726.08057,-0.33203125,0.03436279296875,0.9332275390625,1.816864013671875,-3.551483154296875,0.35888671875,1.0,1.0,1.0,1.0,1.0,100.0,event
12:44:38.594,0.0,-0.33399472,1.2582589,0.43761814,0.0,-0.8967797,0.6032951,0.3990751,0.0,-0.46206507,-0.014264201,0.4907765,0.0,-0.35115415,-0.12750226,0.57194656,0.0,-0.64882284,-0.44645023,0.39264238,787.72894,798.20514,716.4103,809.89014,826.8132,-0.33203125,0.03436279296875,0.9332275390625,1.816864013671875,-3.551483154296875,0.35888671875,1.0,1.0,1.0,1.0,1.0,100.0,event
12:44:38.595,0.0,-0.33399472,1.2582589,0.43761814,0.0,-0.8967797,0.6032951,0.3990751,0.0,-0.46206507,-0.014264201,0.4907765,0.0,-0.35115415,-0.12750226,0.57194656,0.0,-0.64882284,-0.44645023,0.39264238,1273.663,802.6374,733.3333,825.2015,848.5714,-0.33203125,0.03436279296875,0.9332275390625,1.816864013671875,-3.551483154296875,0.35888671875,1.0,1.0,1.0,1.0,1.0,100.0,event
12:44:38.596,0.0,-0.33399472,1.2582589,0.43761814,0.0,-0.8967797,0.6032951,0.3990751,0.0,-0.46206507,-0.014264201,0.4907765,0.0,-0.35115415,-0.12750226,0.57194656,0.0,-0.64882284,-0.44645023,0.39264238,1210.403,802.6374,747.8388,827.619,773.22345,-0.33203125,0.03436279296875,0.9332275390625,1.816864013671875,-3.551483154296875,0.35888671875,1.0,1.0,1.0,1.0,1.0,100.0,event
12:44:38.597,0.0,-0.33399472,1.2582589,0.43761814,0.0,-0.8967797,0.6032951,0.3990751,0.0,-0.46206507,-0.014264201,0.4907765,0.0,-0.35115415,-0.12750226,0.57194656,0.0,-0.64882284,-0.44645023,0.39264238,518.5714,794.57874,732.52747,801.4286,780.87915,-0.33203125,0.03436279296875,0.9332275390625,1.816864013671875,-3.551483154296875,0.35888671875,1.0,1.0,1.0,1.0,1.0,100.0,event
12:44:38.598,0.0,-0.33399472,1.2582589,0.43761814,0.0,-0.8967797,0.6032951,0.3990751,0.0,-0.46206507,-0.014264201,0.4907765,0.0,-0.35115415,-0.12750226,0.57194656,0.0,-0.64882284,-0.44645023,0.39264238,252.23444,789.34064,724.4689,786.9231,926.7399,-0.33203125,0.03436279296875,0.9332275390625,1.816864013671875,-3.551483154296875,0.35888671875,1.0,1.0,1.0,1.0,1.0,100.0,event
12:44:38.599,0.0,-0.33399472,1.2582589,0.43761814,0.0,-0.8967797,0.6032951,0.3990751,0.0,-0.46206507,-0.014264201,0.4907765,0.0,-0.35115415,-0.12750226,0.57194656,0.0,-0.64882284,-0.44645023,0.39264238,681.3553,794.57874,753.47986,800.2198,1022.23444,-0.33203125,0.03436279296875,0.9332275390625,1.816864013671875,-3.551483154296875,0.35888671875,1.0,1.0,1.0,1.0,1.0,100.0,event
12:44:38.599,0.0,-0.33399472,1.2582589,0.43761814,0.0,-0.8967797,0.6032951,0.3990751,0.0,-0.46206507,-0.014264201,0.4907765,0.0,-0.35115415,-0.12750226,0.57194656,0.0,-0.64882284,-0.44645023,0.39264238,1284.1392,802.23444,794.17584,814.3223,853.4066,-0.33203125,0.03436279296875,0.9332275390625,1.816864013671875,-3.551483154296875,0.35888671875,1.0,1.0,1.0,1.0,1.0,100.0,event
12:44:38.600,0.0,-0.33399472,1.2582589,0.43761814,0.0,-0.8967797,0.6032951,0.3990751,0.0,-0.46206507,-0.014264201,0.4907765,0.0,-0.35115415,-0.12750226,0.57194656,0.0,-0.64882284,-0.44645023,0.39264238,1281.3187,798.20514,764.7619,814.7253,769.19415,-0.33203125,0.03436279296875,0.9332275390625,1.816864013671875,-3.551483154296875,0.35888671875,1.0,1.0,1.0,1.0,1.0,100.0,event
12:44:38.601,0.0,-0.33399472,1.2582589,0.43761814,0.0,-0.8967797,0.6032951,0.3990751,0.0,-0.46206507,-0.014264201,0.4907765,0.0,-0.35115415,-0.12750226,0.57194656,0.0,-0.64882284,-0.44645023,0.39264238,601.978,797.3993,755.4945,803.0403,805.05493,-0.33203125,0.03436279296875,0.9332275390625,1.816864013671875,-3.551483154296875,0.35888671875,1.0,1.0,1.0,1.0,1.0,100.0,event
12:44:38.602,0.0,-0.33399472,1.2582589,0.43761814,0.0,-0.8967797,0.6032951,0.3990751,0.0,-0.46206507,-0.014264201,0.4907765,0.0,-0.35115415,-0.12750226,0.57194656,0.0,-0.64882284,-0.44645023,0.39264238,286.0806,799.011,771.2088,796.99634,747.03296,-0.33203125,0.03436279296875,0.9332275390625,1.816864013671875,-3.551483154296875,0.35888671875,1.0,1.0,1.0,1.0,1.0,100.0,event
12:44:38.628,0.0,-0.33399472,1.2582589,0.43761814,0.0,-0.8967797,0.6032951,0.3990751,0.0,-0.46206507,-0.014264201,0.4907765,0.0,-0.35115415,-0.12750226,0.57194656,0.0,-0.64882284,-0.44645023,0.39264238,666.8498,799.41394,779.67035,796.99634,660.0,-0.33203125,0.03436279296875,0.9332275390625,1.816864013671875,-3.551483154296875,0.35888671875,1.0,1.0,1.0,1.0,1.0,100.0,event
12:44:38.628,0.0,-0.33399472,1.2582589,0.43761814,0.0,-0.8967797,0.6032951,0.3990751,0.0,-0.46206507,-0.014264201,0.4907765,0.0,-0.35115415,-0.12750226,0.57194656,0.0,-0.64882284,-0.44645023,0.39264238,1214.8352,795.38464,772.4176,802.6374,705.9341,-0.33203125,0.03436279296875,0.9332275390625,1.816864013671875,-3.551483154296875,0.35888671875,1.0,1.0,1.0,1.0,1.0,100.0,event
12:44:38.629,0.0,-0.33399472,1.2582589,0.43761814,0.0,-0.8967797,0.6032951,0.3990751,0.0,-0.46206507,-0.014264201,0.4907765,0.0,-0.35115415,-0.12750226,0.57194656,0.0,-0.64882284,-0.44645023,0.39264238,1278.4982,796.1905,770.40295,805.05493,789.34064,-0.33203125,0.03436279296875,0.9332275390625,1.816864013671875,-3.551483154296875,0.35888671875,1.0,1.0,1.0,1.0,1.0,100.0,event
12:44:38.629,0.0,-0.33399472,1.2582589,0.43761814,0.0,-0.8967797,0.6032951,0.3990751,0.0,-0.46206507,-0.014264201,0.4907765,0.0,-0.35115415,-0.12750226,0.57194656,0.0,-0.64882284,-0.44645023,0.39264238,674.5055,799.41394,769.59705,803.0403,783.69965,-0.33203125,0.03436279296875,0.9332275390625,1.816864013671875,-3.551483154296875,0.35888671875,1.0,1.0,1.0,1.0,1.0,100.0,event
12:44:38.629,0.0,-0.33399472,1.2582589,0.43761814,0.0,-0.8967797,0.6032951,0.3990751,0.0,-0.46206507,-0.014264201,0.4907765,0.0,-0.35115415,-0.12750226,0.57194656,0.0,-0.64882284,-0.44645023,0.39264238,251.8315,797.8022,763.1502,797.8022,709.15753,-0.33203125,0.03436279296875,0.9332275390625,1.816864013671875,-3.551483154296875,0.35888671875,1.0,1.0,1.0,1.0,1.0,100.0,event
12:44:38.629,0.0,-0.33399472,1.2582589,0.43761814,0.0,-0.8967797,0.6032951,0.3990751,0.0,-0.46206507,-0.014264201,0.4907765,0.0,-0.35115415,-0.12750226,0.57194656,0.0,-0.64882284,-0.44645023,0.39264238,558.46155,796.99634,776.4469,791.3553,763.5531,-0.33203125,0.03436279296875,0.9332275390625,1.816864013671875,-3.551483154296875,0.35888671875,1.0,1.0,1.0,1.0,1.0,100.0,event
12:44:38.630,0.0,-0.33399472,1.2582589,0.43761814,0.0,-0.8967797,0.6032951,0.3990751,0.0,-0.46206507,-0.014264201,0.4907765,0.0,-0.35115415,-0.12750226,0.57194656,0.0,-0.64882284,-0.44645023,0.39264238,776.8498,801.8315,786.9231,788.5348,741.79486,-0.33203125,0.03436279296875,0.9332275390625,1.816864013671875,-3.551483154296875,0.35888671875,1.0,1.0,1.0,1.0,1.0,100.0,event
12:44:38.630,0.0,-0.33399472,1.2582589,0.43761814,0.0,-0.8967797,0.6032951,0.3990751,0.0,-0.46206507,-0.014264201,0.4907765,0.0,-0.35115415,-0.12750226,0.57194656,0.0,-0.64882284,-0.44645023,0.39264238,1107.6556,794.9817,759.92676,793.7729,1052.8572,-0.33203125,0.03436279296875,0.9332275390625,1.816864013671875,-3.551483154296875,0.35888671875,1.0,1.0,1.0,1.0,1.0,100.0,event
12:44:38.630,0.0,-0.33399472,1.2582589,0.43761814,0.0,-0.8967797,0.6032951,0.3990751,0.0,-0.46206507,-0.014264201,0.4907765,0.0,-0.35115415,-0.12750226,0.57194656,0.0,-0.64882284,-0.44645023,0.39264238,1263.9927,800.6227,772.8205,800.6227,1118.9377,-0.33203125,0.03436279296875,0.9332275390625,1.816864013671875,-3.551483154296875,0.35888671875,1.0,1.0,1.0,1.0,1.0,100.0,event
12:44:38.631,0.0,-0.33399472,1.2582589,0.43761814,0.0,-0.8967797,0.6032951,0.3990751,0.0,-0.46206507,-0.014264201,0.4907765,0.0,-0.35115415,-0.12750226,0.57194656,0.0,-0.64882284,-0.44645023,0.39264238,280.43958,798.60803,759.5238,789.7436,640.65936,-0.33203125,0.03436279296875,0.9332275390625,1.816864013671875,-3.551483154296875,0.35888671875,1.0,1.0,1.0,1.0,1.0,100.0,event
12:44:38.631,0.0,-0.33399472,1.2582589,0.43761814,0.0,-0.8967797,0.6032951,0.3990751,0.0,-0.46206507,-0.014264201,0.4907765,0.0,-0.35115415,-0.12750226,0.57194656,0.0,-0.64882284,-0.44645023,0.39264238,499.23077,797.8022,770.80585,795.38464,703.91943,-0.33203125,0.03436279296875,0.9332275390625,1.816864013671875,-3.551483154296875,0.35888671875,1.0,1.0,1.0,1.0,1.0,100.0,event
12:44:38.631,0.0,-0.33399472,1.2582589,0.43761814,0.0,-0.8967797,0.6032951,0.3990751,0.0,-0.46206507,-0.014264201,0.4907765,0.0,-0.35115415,-0.12750226,0.57194656,0.0,-0.64882284,-0.44645023,0.39264238,1090.7325,798.20514,782.8938,790.54944,682.96704,-0.33203125,0.03436279296875,0.9332275390625,1.816864013671875,-3.551483154296875,0.35888671875,1.0,1.0,1.0,1.0,1.0,100.0,event
12:44:38.722,0.0,-0.33399472,1.2582589,0.43761814,0.0,-0.8967797,0.6032951,0.3990751,0.0,-0.46206507,-0.014264201,0.4907765,0.0,-0.35115415,-0.12750226,0.57194656,0.0,-0.64882284,-0.44645023,0.39264238,1336.5201,800.2198,771.2088,804.65204,629.7802,-0.33013916015625,0.02978515625,0.92376708984375,1.861724853515625,-4.32159423828125,-0.366363525390625,1.0,1.0,1.0,1.0,1.0,100.0,event
12:44:38.723,0.0,-0.2929299,1.2582589,0.4370679,0.0,-0.94299984,0.6032951,0.39497712,0.0,-0.4656851,-0.014264201,0.4907765,0.0,-0.3424004,-0.12750226,0.58297265,0.0,-0.67611533,-0.44645023,0.40361813,809.0842,796.99634,748.24176,801.4286,692.23444,-0.33013916015625,0.02978515625,0.92376708984375,1.861724853515625,-4.32159423828125,-0.366363525390625,1.0,1.0,1.0,1.0,1.0,100.0,event
12:44:38.727,0.0,-0.2929299,1.2582589,0.4370679,0.0,-0.94299984,0.6032951,0.39497712,0.0,-0.4656851,-0.014264201,0.4907765,0.0,-0.3424004,-0.12750226,0.58297265,0.0,-0.67611533,-0.44645023,0.40361813,242.96703,795.78754,757.50916,780.87915,726.8865,-0.33013916015625,0.02978515625,0.92376708984375,1.861724853515625,-4.32159423828125,-0.366363525390625,1.0,1.0,1.0,1.0,1.0,100.0,event
12:44:38.728,0.0,-0.2929299,1.2582589,0.4370679,0.0,-0.94299984,0.6032951,0.39497712,0.0,-0.4656851,-0.014264201,0.4907765,0.0,-0.3424004,-0.12750226,0.58297265,0.0,-0.67611533,-0.44645023,0.40361813,445.64102,798.20514,784.10254,791.75824,673.69965,-0.33013916015625,0.02978515625,0.92376708984375,1.861724853515625,-4.32159423828125,-0.366363525390625,1.0,1.0,1.0,1.0,1.0,100.0,event
12:44:38.729,0.0,-0.2929299,1.2582589,0.4370679,0.0,-0.94299984,0.6032951,0.39497712,0.0,-0.4656851,-0.014264201,0.4907765,0.0,-0.3424004,-0.12750226,0.58297265,0.0,-0.67611533,-0.44645023,0.40361813,1013.36993,797.3993,776.4469,811.0989,679.7436,-0.33013916015625,0.02978515625,0.92376708984375,1.861724853515625,-4.32159423828125,-0.366363525390625,1.0,1.0,1.0,1.0,1.0,100.0,event
12:44:38.730,0.0,-0.2929299,1.2582589,0.4370679,0.0,-0.94299984,0.6032951,0.39497712,0.0,-0.4656851,-0.014264201,0.4907765,0.0,-0.3424004,-0.12750226,0.58297265,0.0,-0.67611533,-0.44645023,0.40361813,1286.1538,794.17584,742.1978,808.2784,948.0952,-0.33013916015625,0.02978515625,0.92376708984375,1.861724853515625,-4.32159423828125,-0.366363525390625,1.0,1.0,1.0,1.0,1.0,100.0,event
12:44:38.730,0.0,-0.2929299,1.2582589,0.4370679,0.0,-0.94299984,0.6032951,0.39497712,0.0,-0.4656851,-0.014264201,0.4907765,0.0,-0.3424004,-0.12750226,0.58297265,0.0,-0.67611533,-0.44645023,0.40361813,868.315,794.57874,744.21246,792.5641,1141.9048,-0.33013916015625,0.02978515625,0.92376708984375,1.861724853515625,-4.32159423828125,-0.366363525390625,1.0,1.0,1.0,1.0,1.0,100.0,event
12:44:38.731,0.0,-0.2929299,1.2582589,0.4370679,0.0,-0.94299984,0.6032951,0.39497712,0.0,-0.4656851,-0.014264201,0.4907765,0.0,-0.3424004,-0.12750226,0.58297265,0.0,-0.67611533,-0.44645023,0.40361813,293.73627,796.1905,770.40295,777.25275,928.7546,-0.33013916015625,0.02978515625,0.92376708984375,1.861724853515625,-4.32159423828125,-0.366363525390625,1.0,1.0,1.0,1.0,1.0,100.0,event
12:44:38.731,0.0,-0.2929299,1.2582589,0.4370679,0.0,-0.94299984,0.6032951,0.39497712,0.0,-0.4656851,-0.014264201,0.4907765,0.0,-0.3424004,-0.12750226,0.58297265,0.0,-0.67611533,-0.44645023,0.40361813,388.4249,792.96704,770.80585,768.7912,778.46155,-0.33013916015625,0.02978515625,0.92376708984375,1.861724853515625,-4.32159423828125,-0.366363525390625,1.0,1.0,1.0,1.0,1.0,100.0,event
12:44:38.732,0.0,-0.2929299,1.2582589,0.4370679,0.0,-0.94299984,0.6032951,0.39497712,0.0,-0.4656851,-0.014264201,0.4907765,0.0,-0.3424004,-0.12750226,0.58297265,0.0,-0.67611533,-0.44645023,0.40361813,1268.022,792.1612,758.71796,796.1905,940.84247,-0.33013916015625,0.02978515625,0.92376708984375,1.861724853515625,-4.32159423828125,-0.366363525390625,1.0,1.0,1.0,1.0,1.0,100.0,event
12:44:38.732,0.0,-0.2929299,1.2582589,0.4370679,0.0,-0.94299984,0.6032951,0.39497712,0.0,-0.4656851,-0.014264201,0.4907765,0.0,-0.3424004,-0.12750226,0.58297265,0.0,-0.67611533,-0.44645023,0.40361813,888.86444,787.326,747.8388,776.04395,861.4652,-0.33013916015625,0.02978515625,0.92376708984375,1.861724853515625,-4.32159423828125,-0.366363525390625,1.0,1.0,1.0,1.0,1.0,100.0,event
12:44:38.733,0.0,-0.2929299,1.2582589,0.4370679,0.0,-0.94299984,0.6032951,0.39497712,0.0,-0.4656851,-0.014264201,0.4907765,0.0,-0.3424004,-0.12750226,0.58297265,0.0,-0.67611533,-0.44645023,0.40361813,1018.60803,795.38464,774.0293,794.17584,740.989,-0.33013916015625,0.02978515625,0.92376708984375,1.861724853515625,-4.32159423828125,-0.366363525390625,1.0,1.0,1.0,1.0,1.0,100.0,event
12:44:38.757,0.0,-0.2929299,1.2582589,0.4370679,0.0,-0.94299984,0.6032951,0.39497712,0.0,-0.4656851,-0.014264201,0.4907765,0.0,-0.3424004,-0.12750226,0.58297265,0.0,-0.67611533,-0.44645023,0.40361813,344.5055,789.7436,746.2271,780.07324,661.2088,-0.32623291015625,0.0350341796875,0.93438720703125,2.0635986328125,-3.551483154296875,0.605621337890625,1.0,1.0,1.0,1.0,1.0,100.0,event
12:44:38.758,0.0,-0.2929299,1.2582589,0.4370679,0.0,-0.94299984,0.6032951,0.39497712,0.0,-0.4656851,-0.014264201,0.4907765,0.0,-0.3424004,-0.12750226,0.58297265,0.0,-0.67611533,-0.44645023,0.40361813,336.4469,794.9817,763.1502,781.28204,711.1722,-0.32623291015625,0.0350341796875,0.93438720703125,2.0635986328125,-3.551483154296875,0.605621337890625,1.0,1.0,1.0,1.0,1.0,100.0,event
12:44:38.759,0.0,-0.2929299,1.2582589,0.4370679,0.0,-0.94299984,0.6032951,0.39497712,0.0,-0.4656851,-0.014264201,0.4907765,0.0,-0.3424004,-0.12750226,0.58297265,0.0,-0.67611533,-0.44645023,0.40361813,1311.9414,799.011,770.80585,804.2491,745.42126,-0.32623291015625,0.0350341796875,0.93438720703125,2.0635986328125,-3.551483154296875,0.605621337890625,1.0,1.0,1.0,1.0,1.0,100.0,event
12:44:38.759,0.0,-0.2929299,1.2582589,0.4370679,0.0,-0.94299984,0.6032951,0.39497712,0.0,-0.4656851,-0.014264201,0.4907765,0.0,-0.3424004,-0.12750226,0.58297265,0.0,-0.67611533,-0.44645023,0.40361813,858.6447,798.60803,776.4469,790.54944,743.4066,-0.32623291015625,0.0350341796875,0.93438720703125,2.0635986328125,-3.551483154296875,0.605621337890625,1.0,1.0,1.0,1.0,1.0,100.0,event
12:44:38.760,0.0,-0.2929299,1.2582589,0.4370679,0.0,-0.94299984,0.6032951,0.39497712,0.0,-0.4656851,-0.014264201,0.4907765,0.0,-0.3424004,-0.12750226,0.58297265,0.0,-0.67611533,-0.44645023,0.40361813,1090.7325,795.78754,748.6447,803.8461,771.2088,-0.32623291015625,0.0350341796875,0.93438720703125,2.0635986328125,-3.551483154296875,0.605621337890625,1.0,1.0,1.0,1.0,1.0,100.0,event
12:44:38.760,0.0,-0.2929299,1.2582589,0.4370679,0.0,-0.94299984,0.6032951,0.39497712,0.0,-0.4656851,-0.014264201,0.4907765,0.0,-0.3424004,-0.12750226,0.58297265,0.0,-0.67611533,-0.44645023,0.40361813,375.53113,793.36993,729.707,785.7143,767.1795,-0.32623291015625,0.0350341796875,0.93438720703125,2.0635986328125,-3.551483154296875,0.605621337890625,1.0,1.0,1.0,1.0,1.0,100.0,event
12:44:38.761,0.0,-0.2929299,1.2582589,0.4370679,0.0,-0.94299984,0.6032951,0.39497712,0.0,-0.4656851,-0.014264201,0.4907765,0.0,-0.3424004,-0.12750226,0.58297265,0.0,-0.67611533,-0.44645023,0.40361813,289.30402,799.81683,753.8828,784.10254,807.8755,-0.32623291015625,0.0350341796875,0.93438720703125,2.0635986328125,-3.551483154296875,0.605621337890625,1.0,1.0,1.0,1.0,1.0,100.0,event
12:44:38.761,0.0,-0.2929299,1.2582589,0.4370679,0.0,-0.94299984,0.6032951,0.39497712,0.0,-0.4656851,-0.014264201,0.4907765,0.0,-0.3424004,-0.12750226,0.58297265,0.0,-0.67611533,-0.44645023,0.40361813,798.20514,801.4286,770.40295,796.5934,782.49084,-0.32623291015625,0.0350341796875,0.93438720703125,2.0635986328125,-3.551483154296875,0.605621337890625,1.0,1.0,1.0,1.0,1.0,100.0,event
12:44:38.762,0.0,-0.2929299,1.2582589,0.4370679,0.0,-0.94299984,0.6032951,0.39497712,0.0,-0.4656851,-0.014264201,0.4907765,0.0,-0.3424004,-0.12750226,0.58297265,0.0,-0.67611533,-0.44645023,0.40361813,1283.3334,797.8022,749.0476,810.696,739.7802,-0.32623291015625,0.0350341796875,0.93438720703125,2.0635986328125,-3.551483154296875,0.605621337890625,1.0,1.0,1.0,1.0,1.0,100.0,event
12:44:38.763,0.0,-0.2929299,1.2582589,0.4370679,0.0,-0.94299984,0.6032951,0.39497712,0.0,-0.4656851,-0.014264201,0.4907765,0.0,-0.3424004,-0.12750226,0.58297265,0.0,-0.67611533,-0.44645023,0.40361813,1114.5055,793.7729,726.8865,820.3663,894.90845,-0.32623291015625,0.0350341796875,0.93438720703125,2.0635986328125,-3.551483154296875,0.605621337890625,1.0,1.0,1.0,1.0,1.0,100.0,event
12:44:38.763,0.0,-0.2929299,1.2582589,0.4370679,0.0,-0.94299984,0.6032951,0.39497712,0.0,-0.4656851,-0.014264201,0.4907765,0.0,-0.3424004,-0.12750226,0.58297265,0.0,-0.67611533,-0.44645023,0.40361813,443.22345,792.1612,743.4066,802.23444,892.49084,-0.32623291015625,0.0350341796875,0.93438720703125,2.0635986328125,-3.551483154296875,0.605621337890625,1.0,1.0,1.0,1.0,1.0,100.0,event
12:44:38.764,0.0,-0.2929299,1.2582589,0.4370679,0.0,-0.94299984,0.6032951,0.39497712,0.0,-0.4656851,-0.014264201,0.4907765,0.0,-0.3424004,-0.12750226,0.58297265,0.0,-0.67611533,-0.44645023,0.40361813,288.9011,793.36993,749.85345,789.34064,772.8205,-0.32623291015625,0.0350341796875,0.93438720703125,2.0635986328125,-3.551483154296875,0.605621337890625,1.0,1.0,1.0,1.0,1.0,100.0,event
12:44:38.789,0.0,-0.2929299,1.2582589,0.4370679,0.0,-0.94299984,0.6032951,0.39497712,0.0,-0.4656851,-0.014264201,0.4907765,0.0,-0.3424004,-0.12750226,0.58297265,0.0,-0.67611533,-0.44645023,0.40361813,724.87177,789.7436,730.5128,797.3993,765.16486,-0.3304443359375,0.028076171875,0.9322509765625,2.026214599609375,-2.8411865234375,0.052337646484375,1.0,1.0,1.0,1.0,1.0,100.0,event
12:44:38.790,0.0,-0.2929299,1.2582589,0.4370679,0.0,-0.94299984,0.6032951,0.39497712,0.0,-0.4656851,-0.014264201,0.4907765,0.0,-0.3424004,-0.12750226,0.58297265,0.0,-0.67611533,-0.44645023,0.40361813,1236.1904,792.96704,725.6777,803.44324,826.4103,-0.3304443359375,0.028076171875,0.9322509765625,2.026214599609375,-2.8411865234375,0.052337646484375,1.0,1.0,1.0,1.0,1.0,100.0,event
12:44:38.790,0.0,-0.2929299,1.2582589,0.4370679,0.0,-0.94299984,0.6032951,0.39497712,0.0,-0.4656851,-0.014264201,0.4907765,0.0,-0.3424004,-0.12750226,0.58297265,0.0,-0.67611533,-0.44645023,0.40361813,1236.1904,798.20514,740.18317,817.9487,741.79486,-0.3304443359375,0.028076171875,0.9322509765625,2.026214599609375,-2.8411865234375,0.052337646484375,1.0,1.0,1.0,1.0,1.0,100.0,event
12:44:38.791,0.0,-0.24437122,1.2582589,0.4539217,0.0,-0.9806825,0.6032951,0.39460576,0.0,-0.48251832,-0.014264201,0.4907765,0.0,-0.34022796,-0.12750226,0.5921002,0.0,-0.6953194,-0.44645023,0.4058671,582.23444,796.99634,721.2454,809.0842,642.27106,-0.3304443359375,0.028076171875,0.9322509765625,2.026214599609375,-2.8411865234375,0.052337646484375,1.0,1.0,1.0,1.0,1.0,100.0,event
12:44:38.795,0.0,-0.24437122,1.2582589,0.4539217,0.0,-0.9806825,0.6032951,0.39460576,0.0,-0.48251832,-0.014264201,0.4907765,0.0,-0.34022796,-0.12750226,0.5921002,0.0,-0.6953194,-0.44645023,0.4058671,252.23444,796.1905,715.6044,787.72894,699.4872,-0.3304443359375,0.028076171875,0.9322509765625,2.026214599609375,-2.8411865234375,0.052337646484375,1.0,1.0,1.0,1.0,1.0,100.0,event
12:44:38.797,0.0,-0.24437122,1.2582589,0.4539217,0.0,-0.9806825,0.6032951,0.39460576,0.0,-0.48251832,-0.014264201,0.4907765,0.0,-0.34022796,-0.12750226,0.5921002,0.0,-0.6953194,-0.44645023,0.4058671,621.31866,794.17584,717.2161,798.20514,851.39197,-0.3304443359375,0.028076171875,0.9322509765625,2.026214599609375,-2.8411865234375,0.052337646484375,1.0,1.0,1.0,1.0,1.0,100.0,event
12:44:38.798,0.0,-0.24437122,1.2582589,0.4539217,0.0,-0.9806825,0.6032951,0.39460576,0.0,-0.48251832,-0.014264201,0.4907765,0.0,-0.34022796,-0.12750226,0.5921002,0.0,-0.6953194,-0.44645023,0.4058671,1201.5385,795.38464,724.0659,811.0989,863.47986,-0.3304443359375,0.028076171875,0.9322509765625,2.026214599609375,-2.8411865234375,0.052337646484375,1.0,1.0,1.0,1.0,1.0,100.0,event
12:44:38.799,0.0,-0.24437122,1.2582589,0.4539217,0.0,-0.9806825,0.6032951,0.39460576,0.0,-0.48251832,-0.014264201,0.4907765,0.0,-0.34022796,-0.12750226,0.5921002,0.0,-0.6953194,-0.44645023,0.4058671,1272.8572,792.5641,719.2308,813.91943,787.326,-0.3304443359375,0.028076171875,0.9322509765625,2.026214599609375,-2.8411865234375,0.052337646484375,1.0,1.0,1.0,1.0,1.0,100.0,event
12:44:38.800,0.0,-0.24437122,1.2582589,0.4539217,0.0,-0.9806825,0.6032951,0.39460576,0.0,-0.48251832,-0.014264201,0.4907765,0.0,-0.34022796,-0.12750226,0.5921002,0.0,-0.6953194,-0.44645023,0.4058671,630.18317,791.75824,704.3223,807.0696,833.663,-0.3304443359375,0.028076171875,0.9322509765625,2.026214599609375,-2.8411865234375,0.052337646484375,1.0,1.0,1.0,1.0,1.0,100.0,event
12:44:38.801,0.0,-0.24437122,1.2582589,0.4539217,0.0,-0.9806825,0.6032951,0.39460576,0.0,-0.48251832,-0.014264201,0.4907765,0.0,-0.34022796,-0.12750226,0.5921002,0.0,-0.6953194,-0.44645023,0.4058671,248.60806,796.99634,717.619,795.78754,796.5934,-0.3304443359375,0.028076171875,0.9322509765625,2.026214599609375,-2.8411865234375,0.052337646484375,1.0,1.0,1.0,1.0,1.0,100.0,event
12:44:38.802,0.0,-0.24437122,1.2582589,0.4539217,0.0,-0.9806825,0.6032951,0.39460576,0.0,-0.48251832,-0.014264201,0.4907765,0.0,-0.34022796,-0.12750226,0.5921002,0.0,-0.6953194,-0.44645023,0.4058671,591.9048,797.8022,730.10986,798.60803,675.31134,-0.3304443359375,0.028076171875,0.9322509765625,2.026214599609375,-2.8411865234375,0.052337646484375,1.0,1.0,1.0,1.0,1.0,100.0,event
12:44:38.803,0.0,-0.24437122,1.2582589,0.4539217,0.0,-0.9806825,0.6032951,0.39460576,0.0,-0.48251832,-0.014264201,0.4907765,0.0,-0.34022796,-0.12750226,0.5921002,0.0,-0.6953194,-0.44645023,0.4058671,1191.4652,794.57874,727.28937,802.6374,731.7216,-0.3304443359375,0.028076171875,0.9322509765625,2.026214599609375,-2.8411865234375,0.052337646484375,1.0,1.0,1.0,1.0,1.0,100.0,event
12:44:38.826,0.0,-0.24437122,1.2582589,0.4539217,0.0,-0.9806825,0.6032951,0.39460576,0.0,-0.48251832,-0.014264201,0.4907765,0.0,-0.34022796,-0.12750226,0.5921002,0.0,-0.6953194,-0.44645023,0.4058671,1230.9524,789.7436,695.4579,802.23444,925.9341,-0.3280029296875,0.03466796875,0.9315185546875,2.3028564453125,-0.0,0.291595458984375,1.0,1.0,1.0,1.0,1.0,100.0,event
12:44:38.827,0.0,-0.24437122,1.2582589,0.4539217,0.0,-0.9806825,0.6032951,0.39460576,0.0,-0.48251832,-0.014264201,0.4907765,0.0,-0.34022796,-0.12750226,0.5921002,0.0,-0.6953194,-0.44645023,0.4058671,596.337,793.36993,691.4286,793.36993,1034.7252,-0.3280029296875,0.03466796875,0.9315185546875,2.3028564453125,-0.0,0.291595458984375,1.0,1.0,1.0,1.0,1.0,100.0,event
12:44:38.828,0.0,-0.24437122,1.2582589,0.4539217,0.0,-0.9806825,0.6032951,0.39460576,0.0,-0.48251832,-0.014264201,0.4907765,0.0,-0.34022796,-0.12750226,0.5921002,0.0,-0.6953194,-0.44645023,0.4058671,269.56042,797.8022,726.4835,783.2967,816.7399,-0.3280029296875,0.03466796875,0.9315185546875,2.3028564453125,-0.0,0.291595458984375,1.0,1.0,1.0,1.0,1.0,100.0,event
12:44:38.828,0.0,-0.24437122,1.2582589,0.4539217,0.0,-0.9806825,0.6032951,0.39460576,0.0,-0.48251832,-0.014264201,0.4907765,0.0,-0.34022796,-0.12750226,0.5921002,0.0,-0.6953194,-0.44645023,0.4058671,539.92676,796.99634,722.0513,787.72894,720.4396,-0.3280029296875,0.03466796875,0.9315185546875,2.3028564453125,-0.0,0.291595458984375,1.0,1.0,1.0,1.0,1.0,100.0,event
12:44:38.829,0.0,-0.24437122,1.2582589,0.4539217,0.0,-0.9806825,0.6032951,0.39460576,0.0,-0.48251832,-0.014264201,0.4907765,0.0,-0.34022796,-0.12750226,0.5921002,0.0,-0.6953194,-0.44645023,0.4058671,1085.8975,799.81683,720.4396,787.72894,832.8571,-0.3280029296875,0.03466796875,0.9315185546875,2.3028564453125,-0.0,0.291595458984375,1.0,1.0,1.0,1.0,1.0,100.0,event
12:44:38.829,0.0,-0.24437122,1.2582589,0.4539217,0.0,-0.9806825,0.6032951,0.39460576,0.0,-0.48251832,-0.014264201,0.4907765,0.0,-0.34022796,-0.12750226,0.5921002,0.0,-0.6953194,-0.44645023,0.4058671,1277.2894,801.02563,723.2601,788.1319,969.85345,-0.3280029296875,0.03466796875,0.9315185546875,2.3028564453125,-0.0,0.291595458984375,1.0,1.0,1.0,1.0,1.0,100.0,event
12:44:38.830,0.0,-0.24437122,1.2582589,0.4539217,0.0,-0.9806825,0.6032951,0.39460576,0.0,-0.48251832,-0.014264201,0.4907765,0.0,-0.34022796,-0.12750226,0.5921002,0.0,-0.6953194,-0.44645023,0.4058671,282.05127,797.8022,711.978,788.93774,823.5897,-0.3280029296875,0.03466796875,0.9315185546875,2.3028564453125,-0.0,0.291595458984375,1.0,1.0,1.0,1.0,1.0,100.0,event
12:44:38.830,0.0,-0.24437122,1.2582589,0.4539217,0.0,-0.9806825,0.6032951,0.39460576,0.0,-0.48251832,-0.014264201,0.4907765,0.0,-0.34022796,-0.12750226,0.5921002,0.0,-0.6953194,-0.44645023,0.4058671,763.5531,799.41394,712.7839,788.93774,933.9927,-0.3280029296875,0.03466796875,0.9315185546875,2.3028564453125,-0.0,0.291595458984375,1.0,1.0,1.0,1.0,1.0,100.0,event
12:44:38.831,0.0,-0.24437122,1.2582589,0.4539217,0.0,-0.9806825,0.6032951,0.39460576,0.0,-0.48251832,-0.014264201,0.4907765,0.0,-0.34022796,-0.12750226,0.5921002,0.0,-0.6953194,-0.44645023,0.4058671,425.09158,795.78754,700.293,794.17584,949.304,-0.3280029296875,0.03466796875,0.9315185546875,2.3028564453125,-0.0,0.291595458984375,1.0,1.0,1.0,1.0,1.0,100.0,event
12:44:38.831,0.0,-0.24437122,1.2582589,0.4539217,0.0,-0.9806825,0.6032951,0.39460576,0.0,-0.48251832,-0.014264201,0.4907765,0.0,-0.34022796,-0.12750226,0.5921002,0.0,-0.6953194,-0.44645023,0.4058671,996.04395,801.4286,734.94507,801.02563,879.19415,-0.3280029296875,0.03466796875,0.9315185546875,2.3028564453125,-0.0,0.291595458984375,1.0,1.0,1.0,1.0,1.0,100.0,event
12:44:38.832,0.0,-0.24437122,1.2582589,0.4539217,0.0,-0.9806825,0.6032951,0.39460576,0.0,-0.48251832,-0.014264201,0.4907765,0.0,-0.34022796,-0.12750226,0.5921002,0.0,-0.6953194,-0.44645023,0.4058671,1358.6813,797.8022,740.989,805.8608,651.13556,-0.3280029296875,0.03466796875,0.9315185546875,2.3028564453125,-0.0,0.291595458984375,1.0,1.0,1.0,1.0,1.0,100.0,event
12:44:38.832,0.0,-0.24437122,1.2582589,0.4539217,0.0,-0.9806825,0.6032951,0.39460576,0.0,-0.48251832,-0.014264201,0.4907765,0.0,-0.34022796,-0.12750226,0.5921002,0.0,-0.6953194,-0.44645023,0.4058671,896.1172,792.1612,704.7253,804.2491,771.2088,-0.3280029296875,0.03466796875,0.9315185546875,2.3028564453125,-0.0,0.291595458984375,1.0,1.0,1.0,1.0,1.0,100.0,event
12:44:38.853,0.0,-0.24437122,1.2582589,0.4539217,0.0,-0.9806825,0.6032951,0.39460576,0.0,-0.48251832,-0.014264201,0.4907765,0.0,-0.34022796,-0.12750226,0.5921002,0.0,-0.6953194,-0.44645023,0.4058671,294.1392,796.1905,705.5311,796.99634,810.696,-0.3280029296875,0.03466796875,0.9315185546875,2.3028564453125,-0.0,0.291595458984375,1.0,1.0,1.0,1.0,1.0,100.0,event
12:44:38.854,0.0,-0.24437122,1.2582589,0.4539217,0.0,-0.9806825,0.6032951,0.39460576,0.0,-0.48251832,-0.014264201,0.4907765,0.0,-0.34022796,-0.12750226,0.5921002,0.0,-0.6953194,-0.44645023,0.4058671,430.32968,797.3993,724.4689,793.7729,693.44324,-0.3280029296875,0.03466796875,0.9315185546875,2.3028564453125,-0.0,0.291595458984375,1.0,1.0,1.0,1.0,1.0,100.0,event
12:44:38.854,0.0,-0.24437122,1.2582589,0.4539217,0.0,-0.9806825,0.6032951,0.39460576,0.0,-0.48251832,-0.014264201,0.4907765,0.0,-0.34022796,-0.12750226,0.5921002,0.0,-0.6953194,-0.44645023,0.4058671,975.4945,797.3993,726.4835,794.57874,674.10254,-0.3280029296875,0.03466796875,0.9315185546875,2.3028564453125,-0.0,0.291595458984375,1.0,1.0,1.0,1.0,1.0,100.0,event
12:44:38.855,0.0,-0.21006697,1.2582589,0.48982856,0.0,-0.9952744,0.6032951,0.4000258,0.0,-0.4904634,-0.014264201,0.4907765,0.0,-0.3454091,-0.12750226,0.6008397,0.0,-0.69976526,-0.44645023,0.40568393,319.92673,790.14655,708.7546,791.3553,882.4176,-0.3280029296875,0.03466796875,0.9315185546875,2.3028564453125,-0.0,0.291595458984375,1.0,1.0,1.0,1.0,1.0,100.0,event
12:44:38.855,0.0,-0.24437122,1.2582589,0.4539217,0.0,-0.9806825,0.6032951,0.39460576,0.0,-0.48251832,-0.014264201,0.4907765,0.0,-0.34022796,-0.12750226,0.5921002,0.0,-0.6953194,-0.44645023,0.4058671,1340.5494,796.99634,717.619,808.2784,788.5348,-0.3280029296875,0.03466796875,0.9315185546875,2.3028564453125,-0.0,0.291595458984375,1.0,1.0,1.0,1.0,1.0,100.0,event
12:44:38.855,0.0,-0.24437122,1.2582589,0.4539217,0.0,-0.9806825,0.6032951,0.39460576,0.0,-0.48251832,-0.014264201,0.4907765,0.0,-0.34022796,-0.12750226,0.5921002,0.0,-0.6953194,-0.44645023,0.4058671,993.22345,792.1612,706.7399,813.1135,883.6264,-0.3280029296875,0.03466796875,0.9315185546875,2.3028564453125,-0.0,0.291595458984375,1.0,1.0,1.0,1.0,1.0,100.0,event
12:44:38.858,0.0,-0.21006697,1.2582589,0.48982856,0.0,-0.9952744,0.6032951,0.4000258,0.0,-0.4904634,-0.014264201,0.4907765,0.0,-0.3454091,-0.12750226,0.6008397,0.0,-0.69976526,-0.44645023,0.40568393,347.72894,794.9817,725.2747,786.1172,823.5897,-0.3280029296875,0.03466796875,0.9315185546875,2.3028564453125,-0.0,0.291595458984375,1.0,1.0,1.0,1.0,1.0,100.0,event
12:44:38.858,0.0,-0.21006697,1.2582589,0.48982856,0.0,-0.9952744,0.6032951,0.4000258,0.0,-0.4904634,-0.014264201,0.4907765,0.0,-0.3454091,-0.12750226,0.6008397,0.0,-0.69976526,-0.44645023,0.40568393,851.39197,788.93774,707.9487,801.02563,888.46155,-0.3280029296875,0.03466796875,0.9315185546875,2.3028564453125,-0.0,0.291595458984375,1.0,1.0,1.0,1.0,1.0,100.0,event
12:44:38.859,0.0,-0.21006697,1.2582589,0.48982856,0.0,-0.9952744,0.6032951,0.4000258,0.0,-0.4904634,-0.014264201,0.4907765,0.0,-0.3454091,-0.12750226,0.6008397,0.0,-0.69976526,-0.44645023,0.40568393,1240.6227,785.31134,709.15753,809.4872,1162.8572,-0.3280029296875,0.03466796875,0.9315185546875,2.3028564453125,-0.0,0.291595458984375,1.0,1.0,1.0,1.0,1.0,100.0,event
12:44:38.859,0.0,-0.21006697,1.2582589,0.48982856,0.0,-0.9952744,0.6032951,0.4000258,0.0,-0.4904634,-0.014264201,0.4907765,0.0,-0.3454091,-0.12750226,0.6008397,0.0,-0.69976526,-0.44645023,0.40568393,1075.0183,797.3993,741.79486,811.9048,995.2381,-0.3280029296875,0.03466796875,0.9315185546875,2.3028564453125,-0.0,0.291595458984375,1.0,1.0,1.0,1.0,1.0,100.0,event
12:44:38.859,0.0,-0.21006697,1.2582589,0.48982856,0.0,-0.9952744,0.6032951,0.4000258,0.0,-0.4904634,-0.014264201,0.4907765,0.0,-0.3454091,-0.12750226,0.6008397,0.0,-0.69976526,-0.44645023,0.40568393,403.73627,795.38464,713.1868,792.1612,702.3077,-0.3280029296875,0.03466796875,0.9315185546875,2.3028564453125,-0.0,0.291595458984375,1.0,1.0,1.0,1.0,1.0,100.0,event
12:44:38.860,0.0,-0.21006697,1.2582589,0.48982856,0.0,-0.9952744,0.6032951,0.4000258,0.0,-0.4904634,-0.014264201,0.4907765,0.0,-0.3454091,-0.12750226,0.6008397,0.0,-0.69976526,-0.44645023,0.40568393,290.51282,797.3993,713.9927,775.2381,704.3223,-0.3280029296875,0.03466796875,0.9315185546875,2.3028564453125,-0.0,0.291595458984375,1.0,1.0,1.0,1.0,1.0,100.0,event
12:44:38.973,0.0,-0.21006697,1.2582589,0.48982856,0.0,-0.9952744,0.6032951,0.4000258,0.0,-0.4904634,-0.014264201,0.4907765,0.0,-0.3454091,-0.12750226,0.6008397,0.0,-0.69976526,-0.44645023,0.40568393,804.2491,802.23444,732.52747,782.49084,714.7985,-0.33660888671875,0.0369873046875,0.93206787109375,2.213134765625,-2.803802490234375,0.5682373046875,1.0,1.0,1.0,1.0,1.0,100.0,event
12:44:38.974,0.0,-0.21006697,1.2582589,0.48982856,0.0,-0.9952744,0.6032951,0.4000258,0.0,-0.4904634,-0.014264201,0.4907765,0.0,-0.3454091,-0.12750226,0.6008397,0.0,-0.69976526,-0.44645023,0.40568393,1297.4359,798.60803,719.2308,799.011,690.6227,-0.33660888671875,0.0369873046875,0.93206787109375,2.213134765625,-2.803802490234375,0.5682373046875,1.0,1.0,1.0,1.0,1.0,100.0,event
12:44:38.975,0.0,-0.21006697,1.2582589,0.48982856,0.0,-0.9952744,0.6032951,0.4000258,0.0,-0.4904634,-0.014264201,0.4907765,0.0,-0.3454091,-0.12750226,0.6008397,0.0,-0.69976526,-0.44645023,0.40568393,1147.5458,794.57874,702.71063,804.65204,744.61536,-0.33660888671875,0.0369873046875,0.93206787109375,2.213134765625,-2.803802490234375,0.5682373046875,1.0,1.0,1.0,1.0,1.0,100.0,event
12:44:38.975,0.0,-0.21006697,1.2582589,0.48982856,0.0,-0.9952744,0.6032951,0.4000258,0.0,-0.4904634,-0.014264201,0.4907765,0.0,-0.3454091,-0.12750226,0.6008397,0.0,-0.69976526,-0.44645023,0.40568393,445.2381,792.1612,703.91943,786.9231,770.40295,-0.33660888671875,0.0369873046875,0.93206787109375,2.213134765625,-2.803802490234375,0.5682373046875,1.0,1.0,1.0,1.0,1.0,100.0,event
12:44:38.976,0.0,-0.21006697,1.2582589,0.48982856,0.0,-0.9952744,0.6032951,0.4000258,0.0,-0.4904634,-0.014264201,0.4907765,0.0,-0.3454091,-0.12750226,0.6008397,0.0,-0.69976526,-0.44645023,0.40568393,274.3956,792.5641,713.9927,785.31134,695.4579,-0.33660888671875,0.0369873046875,0.93206787109375,2.213134765625,-2.803802490234375,0.5682373046875,1.0,1.0,1.0,1.0,1.0,100.0,event
12:44:38.977,0.0,-0.21006697,1.2582589,0.48982856,0.0,-0.9952744,0.6032951,0.4000258,0.0,-0.4904634,-0.014264201,0.4907765,0.0,-0.3454091,-0.12750226,0.6008397,0.0,-0.69976526,-0.44645023,0.40568393,729.707,792.1612,710.3663,790.14655,801.02563,-0.33660888671875,0.0369873046875,0.93206787109375,2.213134765625,-2.803802490234375,0.5682373046875,1.0,1.0,1.0,1.0,1.0,100.0,event
12:44:38.977,0.0,-0.21006697,1.2582589,0.48982856,0.0,-0.9952744,0.6032951,0.4000258,0.0,-0.4904634,-0.014264201,0.4907765,0.0,-0.3454091,-0.12750226,0.6008397,0.0,-0.69976526,-0.44645023,0.40568393,1245.8608,794.9817,713.5897,796.1905,892.0879,-0.33660888671875,0.0369873046875,0.93206787109375,2.213134765625,-2.803802490234375,0.5682373046875,1.0,1.0,1.0,1.0,1.0,100.0,event
12:44:38.978,0.0,-0.21006697,1.2582589,0.48982856,0.0,-0.9952744,0.6032951,0.4000258,0.0,-0.4904634,-0.014264201,0.4907765,0.0,-0.3454091,-0.12750226,0.6008397,0.0,-0.69976526,-0.44645023,0.40568393,1145.5311,793.36993,693.44324,799.41394,1039.5604,-0.33660888671875,0.0369873046875,0.93206787109375,2.213134765625,-2.803802490234375,0.5682373046875,1.0,1.0,1.0,1.0,1.0,100.0,event
12:44:38.978,0.0,-0.21006697,1.2582589,0.48982856,0.0,-0.9952744,0.6032951,0.4000258,0.0,-0.4904634,-0.014264201,0.4907765,0.0,-0.3454091,-0.12750226,0.6008397,0.0,-0.69976526,-0.44645023,0.40568393,485.53113,795.78754,709.5604,786.9231,1017.8022,-0.33660888671875,0.0369873046875,0.93206787109375,2.213134765625,-2.803802490234375,0.5682373046875,1.0,1.0,1.0,1.0,1.0,100.0,event
12:44:38.979,0.0,-0.21006697,1.2582589,0.48982856,0.0,-0.9952744,0.6032951,0.4000258,0.0,-0.4904634,-0.014264201,0.4907765,0.0,-0.3454091,-0.12750226,0.6008397,0.0,-0.69976526,-0.44645023,0.40568393,285.27472,799.41394,732.1245,782.8938,709.5604,-0.33660888671875,0.0369873046875,0.93206787109375,2.213134765625,-2.803802490234375,0.5682373046875,1.0,1.0,1.0,1.0,1.0,100.0,event
12:44:38.980,0.0,-0.21006697,1.2582589,0.48982856,0.0,-0.9952744,0.6032951,0.4000258,0.0,-0.4904634,-0.014264201,0.4907765,0.0,-0.3454091,-0.12750226,0.6008397,0.0,-0.69976526,-0.44645023,0.40568393,1213.6263,797.8022,713.5897,805.4579,785.31134,-0.33660888671875,0.0369873046875,0.93206787109375,2.213134765625,-2.803802490234375,0.5682373046875,1.0,1.0,1.0,1.0,1.0,100.0,event
12:44:38.980,0.0,-0.21006697,1.2582589,0.48982856,0.0,-0.9952744,0.6032951,0.4000258,0.0,-0.4904634,-0.014264201,0.4907765,0.0,-0.3454091,-0.12750226,0.6008397,0.0,-0.69976526,-0.44645023,0.40568393,680.14655,796.5934,707.5458,790.54944,659.59705,-0.33660888671875,0.0369873046875,0.93206787109375,2.213134765625,-2.803802490234375,0.5682373046875,1.0,1.0,1.0,1.0,1.0,100.0,event
12:44:38.982,0.0,-0.21006697,1.2582589,0.48982856,0.0,-0.9952744,0.6032951,0.4000258,0.0,-0.4904634,-0.014264201,0.4907765,0.0,-0.3454091,-0.12750226,0.6008397,0.0,-0.69976526,-0.44645023,0.40568393,1252.7106,801.8315,729.304,812.3077,793.36993,-0.336669921875,0.0294189453125,0.92913818359375,1.951446533203125,-3.102874755859375,-0.34393310546875,1.0,1.0,1.0,1.0,1.0,100.0,event
12:44:38.983,0.0,-0.21006697,1.2582589,0.48982856,0.0,-0.9952744,0.6032951,0.4000258,0.0,-0.4904634,-0.014264201,0.4907765,0.0,-0.3454091,-0.12750226,0.6008397,0.0,-0.69976526,-0.44645023,0.40568393,625.7509,798.60803,716.4103,793.7729,702.71063,-0.336669921875,0.0294189453125,0.92913818359375,1.951446533203125,-3.102874755859375,-0.34393310546875,1.0,1.0,1.0,1.0,1.0,100.0,event
12:44:38.984,0.0,-0.21006697,1.2582589,0.48982856,0.0,-0.9952744,0.6032951,0.4000258,0.0,-0.4904634,-0.014264201,0.4907765,0.0,-0.3454091,-0.12750226,0.6008397,0.0,-0.69976526,-0.44645023,0.40568393,236.52014,791.3553,708.7546,778.46155,745.0183,-0.336669921875,0.0294189453125,0.92913818359375,1.951446533203125,-3.102874755859375,-0.34393310546875,1.0,1.0,1.0,1.0,1.0,100.0,event
12:44:38.985,0.0,-0.21006697,1.2582589,0.48982856,0.0,-0.9952744,0.6032951,0.4000258,0.0,-0.4904634,-0.014264201,0.4907765,0.0,-0.3454091,-0.12750226,0.6008397,0.0,-0.69976526,-0.44645023,0.40568393,586.26373,791.75824,728.0952,783.2967,745.42126,-0.336669921875,0.0294189453125,0.92913818359375,1.951446533203125,-3.102874755859375,-0.34393310546875,1.0,1.0,1.0,1.0,1.0,100.0,event
12:44:38.986,0.0,-0.21006697,1.2582589,0.48982856,0.0,-0.9952744,0.6032951,0.4000258,0.0,-0.4904634,-0.014264201,0.4907765,0.0,-0.3454091,-0.12750226,0.6008397,0.0,-0.69976526,-0.44645023,0.40568393,1172.5275,792.96704,738.1685,801.02563,736.1539,-0.336669921875,0.0294189453125,0.92913818359375,1.951446533203125,-3.102874755859375,-0.34393310546875,1.0,1.0,1.0,1.0,1.0,100.0,event
12:44:38.986,0.0,-0.21006697,1.2582589,0.48982856,0.0,-0.9952744,0.6032951,0.4000258,0.0,-0.4904634,-0.014264201,0.4907765,0.0,-0.3454091,-0.12750226,0.6008397,0.0,-0.69976526,-0.44645023,0.40568393,1247.8755,786.52014,715.2015,799.41394,814.7253,-0.336669921875,0.0294189453125,0.92913818359375,1.951446533203125,-3.102874755859375,-0.34393310546875,1.0,1.0,1.0,1.0,1.0,100.0,event
12:44:38.987,0.0,-0.21006697,1.2582589,0.48982856,0.0,-0.9952744,0.6032951,0.4000258,0.0,-0.4904634,-0.014264201,0.4907765,0.0,-0.3454091,-0.12750226,0.6008397,0.0,-0.69976526,-0.44645023,0.40568393,657.5824,786.1172,712.381,794.57874,928.7546,-0.336669921875,0.0294189453125,0.92913818359375,1.951446533203125,-3.102874755859375,-0.34393310546875,1.0,1.0,1.0,1.0,1.0,100.0,event
12:44:38.988,0.0,-0.19130386,1.2582589,0.52488554,0.0,-0.9832771,0.6032951,0.41026792,0.0,-0.49605986,-0.014264201,0.46000388,0.0,-0.35406172,-0.12750226,0.608874,0.0,-0.69078696,-0.44645023,0.41372448,239.74359,794.57874,738.1685,791.3553,923.91943,-0.336669921875,0.0294189453125,0.92913818359375,1.951446533203125,-3.102874755859375,-0.34393310546875,1.0,1.0,1.0,1.0,1.0,100.0,event
12:44:38.992,0.0,-0.19130386,1.2582589,0.52488554,0.0,-0.9832771,0.6032951,0.41026792,0.0,-0.49605986,-0.014264201,0.46000388,0.0,-0.35406172,-0.12750226,0.608874,0.0,-0.69078696,-0.44645023,0.41372448,545.16486,793.36993,753.8828,786.9231,759.5238,-0.336669921875,0.0294189453125,0.92913818359375,1.951446533203125,-3.102874755859375,-0.34393310546875,1.0,1.0,1.0,1.0,1.0,100.0,event
12:44:38.992,0.0,-0.19130386,1.2582589,0.52488554,0.0,-0.9832771,0.6032951,0.41026792,0.0,-0.49605986,-0.014264201,0.46000388,0.0,-0.35406172,-0.12750226,0.608874,0.0,-0.69078696,-0.44645023,0.41372448,1129.8169,792.96704,757.50916,790.54944,706.337,-0.336669921875,0.0294189453125,0.92913818359375,1.951446533203125,-3.102874755859375,-0.34393310546875,1.0,1.0,1.0,1.0,1.0,100.0,event
12:44:38.993,0.0,-0.19130386,1.2582589,0.52488554,0.0,-0.9832771,0.6032951,0.41026792,0.0,-0.49605986,-0.014264201,0.46000388,0.0,-0.35406172,-0.12750226,0.608874,0.0,-0.69078696,-0.44645023,0.41372448,1271.6483,792.5641,728.9011,806.6667,885.2381,-0.336669921875,0.0294189453125,0.92913818359375,1.951446533203125,-3.102874755859375,-0.34393310546875,1.0,1.0,1.0,1.0,1.0,100.0,event
12:44:38.994,0.0,-0.19130386,1.2582589,0.52488554,0.0,-0.9832771,0.6032951,0.41026792,0.0,-0.49605986,-0.014264201,0.46000388,0.0,-0.35406172,-0.12750226,0.608874,0.0,-0.69078696,-0.44645023,0.41372448,708.7546,794.17584,734.94507,813.5165,1160.4396,-0.336669921875,0.0294189453125,0.92913818359375,1.951446533203125,-3.102874755859375,-0.34393310546875,1.0,1.0,1.0,1.0,1.0,100.0,event
12:44:39.042,0.0,-0.19130386,1.2582589,0.52488554,0.0,-0.9832771,0.6032951,0.41026792,0.0,-0.49605986,-0.014264201,0.46000388,0.0,-0.35406172,-0.12750226,0.608874,0.0,-0.69078696,-0.44645023,0.41372448,267.54578,799.81683,780.4762,786.52014,886.4469,-0.33282470703125,0.03314208984375,0.930419921875,2.100982666015625,-2.51220703125,0.321502685546875,1.0,1.0,1.0,1.0,1.0,100.0,event
12:44:39.044,0.0,-0.19130386,1.2582589,0.52488554,0.0,-0.9832771,0.6032951,0.41026792,0.0,-0.49605986,-0.014264201,0.46000388,0.0,-0.35406172,-0.12750226,0.608874,0.0,-0.69078696,-0.44645023,0.41372448,478.27838,793.7729,769.59705,782.8938,651.53845,-0.33282470703125,0.03314208984375,0.930419921875,2.100982666015625,-2.51220703125,0.321502685546875,1.0,1.0,1.0,1.0,1.0,100.0,event
12:44:39.045,0.0,-0.19130386,1.2582589,0.52488554,0.0,-0.9832771,0.6032951,0.41026792,0.0,-0.49605986,-0.014264201,0.46000388,0.0,-0.35406172,-0.12750226,0.608874,0.0,-0.69078696,-0.44645023,0.41372448,1025.8608,797.3993,776.8498,794.9817,852.1978,-0.33282470703125,0.03314208984375,0.930419921875,2.100982666015625,-2.51220703125,0.321502685546875,1.0,1.0,1.0,1.0,1.0,100.0,event
12:44:39.046,0.0,-0.19130386,1.2582589,0.52488554,0.0,-0.9832771,0.6032951,0.41026792,0.0,-0.49605986,-0.014264201,0.46000388,0.0,-0.35406172,-0.12750226,0.608874,0.0,-0.69078696,-0.44645023,0.41372448,871.13556,796.1905,772.8205,803.44324,716.8132,-0.33282470703125,0.03314208984375,0.930419921875,2.100982666015625,-2.51220703125,0.321502685546875,1.0,1.0,1.0,1.0,1.0,100.0,event
12:44:39.046,0.0,-0.19130386,1.2582589,0.52488554,0.0,-0.9832771,0.6032951,0.41026792,0.0,-0.49605986,-0.014264201,0.46000388,0.0,-0.35406172,-0.12750226,0.608874,0.0,-0.69078696,-0.44645023,0.41372448,1329.2675,801.8315,792.1612,804.65204,875.16486,-0.33282470703125,0.03314208984375,0.930419921875,2.100982666015625,-2.51220703125,0.321502685546875,1.0,1.0,1.0,1.0,1.0,100.0,event
12:44:39.047,0.0,-0.19130386,1.2582589,0.52488554,0.0,-0.9832771,0.6032951,0.41026792,0.0,-0.49605986,-0.014264201,0.46000388,0.0,-0.35406172,-0.12750226,0.608874,0.0,-0.69078696,-0.44645023,0.41372448,261.50183,789.34064,760.7326,790.54944,726.8865,-0.33282470703125,0.03314208984375,0.930419921875,2.100982666015625,-2.51220703125,0.321502685546875,1.0,1.0,1.0,1.0,1.0,100.0,event
12:44:39.048,0.0,-0.19130386,1.2582589,0.52488554,0.0,-0.9832771,0.6032951,0.41026792,0.0,-0.49605986,-0.014264201,0.46000388,0.0,-0.35406172,-0.12750226,0.608874,0.0,-0.69078696,-0.44645023,0.41372448,357.39926,788.93774,761.53845,790.14655,984.35895,-0.33282470703125,0.03314208984375,0.930419921875,2.100982666015625,-2.51220703125,0.321502685546875,1.0,1.0,1.0,1.0,1.0,100.0,event
12:44:39.048,0.0,-0.19130386,1.2582589,0.52488554,0.0,-0.9832771,0.6032951,0.41026792,0.0,-0.49605986,-0.014264201,0.46000388,0.0,-0.35406172,-0.12750226,0.608874,0.0,-0.69078696,-0.44645023,0.41372448,935.2015,799.011,795.78754,794.17584,931.978,-0.33282470703125,0.03314208984375,0.930419921875,2.100982666015625,-2.51220703125,0.321502685546875,1.0,1.0,1.0,1.0,1.0,100.0,event
12:44:39.049,0.0,-0.19130386,1.2582589,0.52488554,0.0,-0.9832771,0.6032951,0.41026792,0.0,-0.49605986,-0.014264201,0.46000388,0.0,-0.35406172,-0.12750226,0.608874,0.0,-0.69078696,-0.44645023,0.41372448,1349.414,796.5934,807.8755,803.8461,652.3443,-0.33282470703125,0.03314208984375,0.930419921875,2.100982666015625,-2.51220703125,0.321502685546875,1.0,1.0,1.0,1.0,1.0,100.0,event
12:44:39.050,0.0,-0.19130386,1.2582589,0.52488554,0.0,-0.9832771,0.6032951,0.41026792,0.0,-0.49605986,-0.014264201,0.46000388,0.0,-0.35406172,-0.12750226,0.608874,0.0,-0.69078696,-0.44645023,0.41372448,960.18317,791.3553,774.0293,803.44324,747.03296,-0.33282470703125,0.03314208984375,0.930419921875,2.100982666015625,-2.51220703125,0.321502685546875,1.0,1.0,1.0,1.0,1.0,100.0,event
12:44:39.050,0.0,-0.19130386,1.2582589,0.52488554,0.0,-0.9832771,0.6032951,0.41026792,0.0,-0.49605986,-0.014264201,0.46000388,0.0,-0.35406172,-0.12750226,0.608874,0.0,-0.69078696,-0.44645023,0.41372448,299.3773,794.9817,772.01465,798.20514,753.0769,-0.33282470703125,0.03314208984375,0.930419921875,2.100982666015625,-2.51220703125,0.321502685546875,1.0,1.0,1.0,1.0,1.0,100.0,event
12:44:39.051,0.0,-0.19130386,1.2582589,0.52488554,0.0,-0.9832771,0.6032951,0.41026792,0.0,-0.49605986,-0.014264201,0.46000388,0.0,-0.35406172,-0.12750226,0.608874,0.0,-0.69078696,-0.44645023,0.41372448,379.56042,798.60803,801.4286,803.8461,701.50183,-0.33282470703125,0.03314208984375,0.930419921875,2.100982666015625,-2.51220703125,0.321502685546875,1.0,1.0,1.0,1.0,1.0,100.0,event
12:44:39.110,0.0,-0.19130386,1.2582589,0.52488554,0.0,-0.9832771,0.6032951,0.41026792,0.0,-0.49605986,-0.014264201,0.46000388,0.0,-0.35406172,-0.12750226,0.608874,0.0,-0.69078696,-0.44645023,0.41372448,922.3077,796.99634,804.65204,795.78754,687.3993,-0.33282470703125,0.03314208984375,0.930419921875,2.100982666015625,-2.51220703125,0.321502685546875,1.0,1.0,1.0,1.0,1.0,100.0,event
12:44:39.112,0.0,-0.19130386,1.2582589,0.52488554,0.0,-0.9832771,0.6032951,0.41026792,0.0,-0.49605986,-0.014264201,0.46000388,0.0,-0.35406172,-0.12750226,0.608874,0.0,-0.69078696,-0.44645023,0.41372448,1297.033,796.5934,785.7143,801.8315,738.1685,-0.33282470703125,0.03314208984375,0.930419921875,2.100982666015625,-2.51220703125,0.321502685546875,1.0,1.0,1.0,1.0,1.0,100.0,event
12:44:39.112,0.0,-0.19130386,1.2582589,0.52488554,0.0,-0.9832771,0.6032951,0.41026792,0.0,-0.49605986,-0.014264201,0.46000388,0.0,-0.35406172,-0.12750226,0.608874,0.0,-0.69078696,-0.44645023,0.41372448,1022.6374,799.81683,785.7143,809.89014,864.2857,-0.33282470703125,0.03314208984375,0.930419921875,2.100982666015625,-2.51220703125,0.321502685546875,1.0,1.0,1.0,1.0,1.0,100.0,event
12:44:39.113,0.0,-0.19130386,1.2582589,0.52488554,0.0,-0.9832771,0.6032951,0.41026792,0.0,-0.49605986,-0.014264201,0.46000388,0.0,-0.35406172,-0.12750226,0.608874,0.0,-0.69078696,-0.44645023,0.41372448,369.08426,798.60803,797.8022,798.20514,746.63007,-0.33282470703125,0.03314208984375,0.930419921875,2.100982666015625,-2.51220703125,0.321502685546875,1.0,1.0,1.0,1.0,1.0,100.0,event
12:44:39.114,0.0,-0.19130386,1.2582589,0.52488554,0.0,-0.9832771,0.6032951,0.41026792,0.0,-0.49605986,-0.014264201,0.46000388,0.0,-0.35406172,-0.12750226,0.608874,0.0,-0.69078696,-0.44645023,0.41372448,360.6227,796.5934,793.36993,784.5055,637.03296,-0.33282470703125,0.03314208984375,0.930419921875,2.100982666015625,-2.51220703125,0.321502685546875,1.0,1.0,1.0,1.0,1.0,100.0,event
12:44:39.115,0.0,-0.19130386,1.2582589,0.52488554,0.0,-0.9832771,0.6032951,0.41026792,0.0,-0.49605986,-0.014264201,0.46000388,0.0,-0.35406172,-0.12750226,0.608874,0.0,-0.69078696,-0.44645023,0.41372448,826.8132,790.54944,766.3736,785.31134,874.35895,-0.33282470703125,0.03314208984375,0.930419921875,2.100982666015625,-2.51220703125,0.321502685546875,1.0,1.0,1.0,1.0,1.0,100.0,event
12:44:39.115,0.0,-0.19130386,1.2582589,0.52488554,0.0,-0.9832771,0.6032951,0.41026792,0.0,-0.49605986,-0.014264201,0.46000388,0.0,-0.35406172,-0.12750226,0.608874,0.0,-0.69078696,-0.44645023,0.41372448,1218.8645,793.7729,777.6557,798.60803,1169.3041,-0.33282470703125,0.03314208984375,0.930419921875,2.100982666015625,-2.51220703125,0.321502685546875,1.0,1.0,1.0,1.0,1.0,100.0,event
12:44:39.116,0.0,-0.19130386,1.2582589,0.52488554,0.0,-0.9832771,0.6032951,0.41026792,0.0,-0.49605986,-0.014264201,0.46000388,0.0,-0.35406172,-0.12750226,0.608874,0.0,-0.69078696,-0.44645023,0.41372448,1124.5787,798.60803,815.9341,793.7729,902.96704,-0.33282470703125,0.03314208984375,0.930419921875,2.100982666015625,-2.51220703125,0.321502685546875,1.0,1.0,1.0,1.0,1.0,100.0,event
12:44:39.117,0.0,-0.17888047,1.2582589,0.55097806,0.0,-0.960755,0.6032951,0.42603436,0.0,-0.49536562,-0.014264201,0.39547062,0.0,-0.36048257,-0.12750226,0.613892,0.0,-0.67455137,-0.44645023,0.4363139,275.6044,787.326,782.49084,777.25275,695.8608,-0.33282470703125,0.03314208984375,0.930419921875,2.100982666015625,-2.51220703125,0.321502685546875,1.0,1.0,1.0,1.0,1.0,100.0,event
12:44:39.117,0.0,-0.19130386,1.2582589,0.52488554,0.0,-0.9832771,0.6032951,0.41026792,0.0,-0.49605986,-0.014264201,0.46000388,0.0,-0.35406172,-0.12750226,0.608874,0.0,-0.69078696,-0.44645023,0.41372448,452.89377,787.326,786.1172,777.6557,597.5458,-0.33282470703125,0.03314208984375,0.930419921875,2.100982666015625,-2.51220703125,0.321502685546875,1.0,1.0,1.0,1.0,1.0,100.0,event
12:44:39.122,0.0,-0.17888047,1.2582589,0.55097806,0.0,-0.960755,0.6032951,0.42603436,0.0,-0.49536562,-0.014264201,0.39547062,0.0,-0.36048257,-0.12750226,0.613892,0.0,-0.67455137,-0.44645023,0.4363139,769.59705,794.9817,804.65204,788.1319,717.2161,-0.33282470703125,0.03314208984375,0.930419921875,2.100982666015625,-2.51220703125,0.321502685546875,1.0,1.0,1.0,1.0,1.0,100.0,event
12:44:39.123,0.0,-0.17888047,1.2582589,0.55097806,0.0,-0.960755,0.6032951,0.42603436,0.0,-0.49536562,-0.014264201,0.39547062,0.0,-0.36048257,-0.12750226,0.613892,0.0,-0.67455137,-0.44645023,0.4363139,1285.348,797.3993,803.8461,797.8022,701.9048,-0.33282470703125,0.03314208984375,0.930419921875,2.100982666015625,-2.51220703125,0.321502685546875,1.0,1.0,1.0,1.0,1.0,100.0,event
12:44:39.147,0.0,-0.17888047,1.2582589,0.55097806,0.0,-0.960755,0.6032951,0.42603436,0.0,-0.49536562,-0.014264201,0.39547062,0.0,-0.36048257,-0.12750226,0.613892,0.0,-0.67455137,-0.44645023,0.4363139,1189.0476,793.7729,783.69965,804.2491,737.3626,-0.342041015625,0.032958984375,0.927978515625,2.056121826171875,-2.220611572265625,0.246734619140625,1.0,1.0,1.0,1.0,1.0,100.0,event
12:44:39.148,0.0,-0.17888047,1.2582589,0.55097806,0.0,-0.960755,0.6032951,0.42603436,0.0,-0.49536562,-0.014264201,0.39547062,0.0,-0.36048257,-0.12750226,0.613892,0.0,-0.67455137,-0.44645023,0.4363139,498.82785,791.75824,776.8498,790.54944,739.7802,-0.342041015625,0.032958984375,0.927978515625,2.056121826171875,-2.220611572265625,0.246734619140625,1.0,1.0,1.0,1.0,1.0,100.0,event
12:44:39.149,0.0,-0.17888047,1.2582589,0.55097806,0.0,-0.960755,0.6032951,0.42603436,0.0,-0.49536562,-0.014264201,0.39547062,0.0,-0.36048257,-0.12750226,0.613892,0.0,-0.67455137,-0.44645023,0.4363139,258.27838,792.96704,791.75824,775.2381,747.03296,-0.342041015625,0.032958984375,0.927978515625,2.056121826171875,-2.220611572265625,0.246734619140625,1.0,1.0,1.0,1.0,1.0,100.0,event
12:44:39.150,0.0,-0.17888047,1.2582589,0.55097806,0.0,-0.960755,0.6032951,0.42603436,0.0,-0.49536562,-0.014264201,0.39547062,0.0,-0.36048257,-0.12750226,0.613892,0.0,-0.67455137,-0.44645023,0.4363139,697.8755,795.78754,794.57874,790.54944,723.2601,-0.342041015625,0.032958984375,0.927978515625,2.056121826171875,-2.220611572265625,0.246734619140625,1.0,1.0,1.0,1.0,1.0,100.0,event
12:44:39.151,0.0,-0.17888047,1.2582589,0.55097806,0.0,-0.960755,0.6032951,0.42603436,0.0,-0.49536562,-0.014264201,0.39547062,0.0,-0.36048257,-0.12750226,0.613892,0.0,-0.67455137,-0.44645023,0.4363139,1245.4579,796.5934,780.4762,801.02563,716.0073,-0.342041015625,0.032958984375,0.927978515625,2.056121826171875,-2.220611572265625,0.246734619140625,1.0,1.0,1.0,1.0,1.0,100.0,event
12:44:39.152,0.0,-0.17888047,1.2582589,0.55097806,0.0,-0.960755,0.6032951,0.42603436,0.0,-0.49536562,-0.014264201,0.39547062,0.0,-0.36048257,-0.12750226,0.613892,0.0,-0.67455137,-0.44645023,0.4363139,1236.5934,793.7729,772.4176,797.3993,868.315,-0.342041015625,0.032958984375,0.927978515625,2.056121826171875,-2.220611572265625,0.246734619140625,1.0,1.0,1.0,1.0,1.0,100.0,event
12:44:39.152,0.0,-0.17888047,1.2582589,0.55097806,0.0,-0.960755,0.6032951,0.42603436,0.0,-0.49536562,-0.014264201,0.39547062,0.0,-0.36048257,-0.12750226,0.613892,0.0,-0.67455137,-0.44645023,0.4363139,579.81683,794.9817,776.4469,795.78754,964.21246,-0.342041015625,0.032958984375,0.927978515625,2.056121826171875,-2.220611572265625,0.246734619140625,1.0,1.0,1.0,1.0,1.0,100.0,event
12:44:39.153,0.0,-0.17888047,1.2582589,0.55097806,0.0,-0.960755,0.6032951,0.42603436,0.0,-0.49536562,-0.014264201,0.39547062,0.0,-0.36048257,-0.12750226,0.613892,0.0,-0.67455137,-0.44645023,0.4363139,249.01099,795.38464,784.10254,791.3553,868.315,-0.342041015625,0.032958984375,0.927978515625,2.056121826171875,-2.220611572265625,0.246734619140625,1.0,1.0,1.0,1.0,1.0,100.0,event
12:44:39.154,0.0,-0.17888047,1.2582589,0.55097806,0.0,-0.960755,0.6032951,0.42603436,0.0,-0.49536562,-0.014264201,0.39547062,0.0,-0.36048257,-0.12750226,0.613892,0.0,-0.67455137,-0.44645023,0.4363139,627.3626,792.96704,789.7436,785.7143,694.65204,-0.342041015625,0.032958984375,0.927978515625,2.056121826171875,-2.220611572265625,0.246734619140625,1.0,1.0,1.0,1.0,1.0,100.0,event
12:44:39.154,0.0,-0.17888047,1.2582589,0.55097806,0.0,-0.960755,0.6032951,0.42603436,0.0,-0.49536562,-0.014264201,0.39547062,0.0,-0.36048257,-0.12750226,0.613892,0.0,-0.67455137,-0.44645023,0.4363139,1147.9487,791.3553,768.7912,796.1905,927.5458,-0.342041015625,0.032958984375,0.927978515625,2.056121826171875,-2.220611572265625,0.246734619140625,1.0,1.0,1.0,1.0,1.0,100.0,event
12:44:39.155,0.0,-0.17888047,1.2582589,0.55097806,0.0,-0.960755,0.6032951,0.42603436,0.0,-0.49536562,-0.014264201,0.39547062,0.0,-0.36048257,-0.12750226,0.613892,0.0,-0.67455137,-0.44645023,0.4363139,1244.249,796.99634,796.99634,805.8608,1037.5458,-0.342041015625,0.032958984375,0.927978515625,2.056121826171875,-2.220611572265625,0.246734619140625,1.0,1.0,1.0,1.0,1.0,100.0,event
12:44:39.155,0.0,-0.17888047,1.2582589,0.55097806,0.0,-0.960755,0.6032951,0.42603436,0.0,-0.49536562,-0.014264201,0.39547062,0.0,-0.36048257,-0.12750226,0.613892,0.0,-0.67455137,-0.44645023,0.4363139,718.8278,794.9817,809.4872,809.4872,745.82416,-0.342041015625,0.032958984375,0.927978515625,2.056121826171875,-2.220611572265625,0.246734619140625,1.0,1.0,1.0,1.0,1.0,100.0,event
12:44:39.156,0.0,-0.17888047,1.2582589,0.55097806,0.0,-0.960755,0.6032951,0.42603436,0.0,-0.49536562,-0.014264201,0.39547062,0.0,-0.36048257,-0.12750226,0.613892,0.0,-0.67455137,-0.44645023,0.4363139,276.00732,786.9231,776.4469,809.0842,732.9304,-0.33709716796875,0.03204345703125,0.93377685546875,1.547698974609375,-1.435546875,-0.859832763671875,1.0,1.0,1.0,1.0,1.0,100.0,event
12:44:39.157,0.0,-0.17888047,1.2582589,0.55097806,0.0,-0.960755,0.6032951,0.42603436,0.0,-0.49536562,-0.014264201,0.39547062,0.0,-0.36048257,-0.12750226,0.613892,0.0,-0.67455137,-0.44645023,0.4363139,537.9121,787.72894,790.14655,781.28204,746.63007,-0.33709716796875,0.03204345703125,0.93377685546875,1.547698974609375,-1.435546875,-0.859832763671875,1.0,1.0,1.0,1.0,1.0,100.0,event
12:44:39.158,0.0,-0.17888047,1.2582589,0.55097806,0.0,-0.960755,0.6032951,0.42603436,0.0,-0.49536562,-0.014264201,0.39547062,0.0,-0.36048257,-0.12750226,0.613892,0.0,-0.67455137,-0.44645023,0.4363139,1303.4799,793.7729,805.4579,779.67035,758.71796,-0.33709716796875,0.03204345703125,0.93377685546875,1.547698974609375,-1.435546875,-0.859832763671875,1.0,1.0,1.0,1.0,1.0,100.0,event
12:44:39.158,0.0,-0.17888047,1.2582589,0.55097806,0.0,-0.960755,0.6032951,0.42603436,0.0,-0.49536562,-0.014264201,0.39547062,0.0,-0.36048257,-0.12750226,0.613892,0.0,-0.67455137,-0.44645023,0.4363139,1120.5494,792.5641,808.68134,763.95605,730.10986,-0.33709716796875,0.03204345703125,0.93377685546875,1.547698974609375,-1.435546875,-0.859832763671875,1.0,1.0,1.0,1.0,1.0,100.0,event
12:44:39.159,0.0,-0.17888047,1.2582589,0.55097806,0.0,-0.960755,0.6032951,0.42603436,0.0,-0.49536562,-0.014264201,0.39547062,0.0,-0.36048257,-0.12750226,0.613892,0.0,-0.67455137,-0.44645023,0.4363139,731.31866,790.9524,790.14655,778.86444,869.92676,-0.33709716796875,0.03204345703125,0.93377685546875,1.547698974609375,-1.435546875,-0.859832763671875,1.0,1.0,1.0,1.0,1.0,100.0,event
12:44:39.159,0.0,-0.17888047,1.2582589,0.55097806,0.0,-0.960755,0.6032951,0.42603436,0.0,-0.49536562,-0.014264201,0.39547062,0.0,-0.36048257,-0.12750226,0.613892,0.0,-0.67455137,-0.44645023,0.4363139,211.94139,788.93774,790.9524,766.3736,936.8132,-0.33709716796875,0.03204345703125,0.93377685546875,1.547698974609375,-1.435546875,-0.859832763671875,1.0,1.0,1.0,1.0,1.0,100.0,event
12:44:39.160,0.0,-0.17888047,1.2582589,0.55097806,0.0,-0.960755,0.6032951,0.42603436,0.0,-0.49536562,-0.014264201,0.39547062,0.0,-0.36048257,-0.12750226,0.613892,0.0,-0.67455137,-0.44645023,0.4363139,461.35532,792.96704,818.3516,761.13556,877.5824,-0.33709716796875,0.03204345703125,0.93377685546875,1.547698974609375,-1.435546875,-0.859832763671875,1.0,1.0,1.0,1.0,1.0,100.0,event
12:44:39.161,0.0,-0.17888047,1.2582589,0.55097806,0.0,-0.960755,0.6032951,0.42603436,0.0,-0.49536562,-0.014264201,0.39547062,0.0,-0.36048257,-0.12750226,0.613892,0.0,-0.67455137,-0.44645023,0.4363139,1072.6007,797.3993,842.1245,758.71796,747.8388,-0.33709716796875,0.03204345703125,0.93377685546875,1.547698974609375,-1.435546875,-0.859832763671875,1.0,1.0,1.0,1.0,1.0,100.0,event
12:44:39.161,0.0,-0.17888047,1.2582589,0.55097806,0.0,-0.960755,0.6032951,0.42603436,0.0,-0.49536562,-0.014264201,0.39547062,0.0,-0.36048257,-0.12750226,0.613892,0.0,-0.67455137,-0.44645023,0.4363139,1298.2417,790.9524,805.4579,772.01465,957.3626,-0.33709716796875,0.03204345703125,0.93377685546875,1.547698974609375,-1.435546875,-0.859832763671875,1.0,1.0,1.0,1.0,1.0,100.0,event
12:44:39.162,0.0,-0.17888047,1.2582589,0.55097806,0.0,-0.960755,0.6032951,0.42603436,0.0,-0.49536562,-0.014264201,0.39547062,0.0,-0.36048257,-0.12750226,0.613892,0.0,-0.67455137,-0.44645023,0.4363139,761.53845,792.96704,801.8315,775.2381,1243.4432,-0.33709716796875,0.03204345703125,0.93377685546875,1.547698974609375,-1.435546875,-0.859832763671875,1.0,1.0,1.0,1.0,1.0,100.0,event
12:44:39.162,0.0,-0.17888047,1.2582589,0.55097806,0.0,-0.960755,0.6032951,0.42603436,0.0,-0.49536562,-0.014264201,0.39547062,0.0,-0.36048257,-0.12750226,0.613892,0.0,-0.67455137,-0.44645023,0.4363139,262.30768,795.78754,851.79486,755.09155,911.8315,-0.33709716796875,0.03204345703125,0.93377685546875,1.547698974609375,-1.435546875,-0.859832763671875,1.0,1.0,1.0,1.0,1.0,100.0,event
12:44:39.164,0.0,-0.17478985,1.2582589,0.5642842,0.0,-0.94334763,0.6032951,0.44706914,0.0,-0.4173768,-0.014264201,0.313464,0.0,-0.3582722,-0.12750226,0.6137594,0.0,-0.6605531,-0.44645023,0.46369743,447.65567,788.93774,832.4542,759.5238,660.0,-0.33709716796875,0.03204345703125,0.93377685546875,1.547698974609375,-1.435546875,-0.859832763671875,1.0,1.0,1.0,1.0,1.0,100.0,event
12:44:39.215,0.0,-0.17478985,1.2582589,0.5642842,0.0,-0.94334763,0.6032951,0.44706914,0.0,-0.4173768,-0.014264201,0.313464,0.0,-0.3582722,-0.12750226,0.6137594,0.0,-0.6605531,-0.44645023,0.46369743,983.1502,792.96704,830.4396,775.64105,726.08057,-0.33050537109375,0.03302001953125,0.93115234375,2.8411865234375,0.538330078125,0.515899658203125,1.0,1.0,1.0,1.0,1.0,100.0,event
12:44:39.216,0.0,-0.17478985,1.2582589,0.5642842,0.0,-0.94334763,0.6032951,0.44706914,0.0,-0.4173768,-0.014264201,0.313464,0.0,-0.3582722,-0.12750226,0.6137594,0.0,-0.6605531,-0.44645023,0.46369743,1338.5348,796.1905,844.1392,785.31134,773.6264,-0.33050537109375,0.03302001953125,0.93115234375,2.8411865234375,0.538330078125,0.515899658203125,1.0,1.0,1.0,1.0,1.0,100.0,event
12:44:39.217,0.0,-0.17478985,1.2582589,0.5642842,0.0,-0.94334763,0.6032951,0.44706914,0.0,-0.4173768,-0.014264201,0.313464,0.0,-0.3582722,-0.12750226,0.6137594,0.0,-0.6605531,-0.44645023,0.46369743,967.8388,791.75824,834.0659,785.31134,732.9304,-0.33050537109375,0.03302001953125,0.93115234375,2.8411865234375,0.538330078125,0.515899658203125,1.0,1.0,1.0,1.0,1.0,100.0,event
12:44:39.217,0.0,-0.17478985,1.2582589,0.5642842,0.0,-0.94334763,0.6032951,0.44706914,0.0,-0.4173768,-0.014264201,0.313464,0.0,-0.3582722,-0.12750226,0.6137594,0.0,-0.6605531,-0.44645023,0.46369743,320.32968,792.5641,821.1722,768.7912,673.2967,-0.33050537109375,0.03302001953125,0.93115234375,2.8411865234375,0.538330078125,0.515899658203125,1.0,1.0,1.0,1.0,1.0,100.0,event
12:44:39.218,0.0,-0.17478985,1.2582589,0.5642842,0.0,-0.94334763,0.6032951,0.44706914,0.0,-0.4173768,-0.014264201,0.313464,0.0,-0.3582722,-0.12750226,0.6137594,0.0,-0.6605531,-0.44645023,0.46369743,375.1282,792.1612,826.4103,768.7912,705.12823,-0.33050537109375,0.03302001953125,0.93115234375,2.8411865234375,0.538330078125,0.515899658203125,1.0,1.0,1.0,1.0,1.0,100.0,event
12:44:39.218,0.0,-0.17478985,1.2582589,0.5642842,0.0,-0.94334763,0.6032951,0.44706914,0.0,-0.4173768,-0.014264201,0.313464,0.0,-0.3582722,-0.12750226,0.6137594,0.0,-0.6605531,-0.44645023,0.46369743,916.6667,790.54944,839.304,785.31134,838.49817,-0.33050537109375,0.03302001953125,0.93115234375,2.8411865234375,0.538330078125,0.515899658203125,1.0,1.0,1.0,1.0,1.0,100.0,event
12:44:39.219,0.0,-0.17478985,1.2582589,0.5642842,0.0,-0.94334763,0.6032951,0.44706914,0.0,-0.4173768,-0.014264201,0.313464,0.0,-0.3582722,-0.12750226,0.6137594,0.0,-0.6605531,-0.44645023,0.46369743,288.9011,787.72894,811.0989,775.64105,930.7692,-0.33050537109375,0.03302001953125,0.93115234375,2.8411865234375,0.538330078125,0.515899658203125,1.0,1.0,1.0,1.0,1.0,100.0,event
12:44:39.219,0.0,-0.17478985,1.2582589,0.5642842,0.0,-0.94334763,0.6032951,0.44706914,0.0,-0.4173768,-0.014264201,0.313464,0.0,-0.3582722,-0.12750226,0.6137594,0.0,-0.6605531,-0.44645023,0.46369743,1021.4286,786.9231,833.2601,780.87915,862.27106,-0.33050537109375,0.03302001953125,0.93115234375,2.8411865234375,0.538330078125,0.515899658203125,1.0,1.0,1.0,1.0,1.0,100.0,event
12:44:39.219,0.0,-0.17478985,1.2582589,0.5642842,0.0,-0.94334763,0.6032951,0.44706914,0.0,-0.4173768,-0.014264201,0.313464,0.0,-0.3582722,-0.12750226,0.6137594,0.0,-0.6605531,-0.44645023,0.46369743,1314.762,789.34064,844.5421,791.3553,921.50183,-0.33050537109375,0.03302001953125,0.93115234375,2.8411865234375,0.538330078125,0.515899658203125,1.0,1.0,1.0,1.0,1.0,100.0,event
12:44:39.220,0.0,-0.17478985,1.2582589,0.5642842,0.0,-0.94334763,0.6032951,0.44706914,0.0,-0.4173768,-0.014264201,0.313464,0.0,-0.3582722,-0.12750226,0.6137594,0.0,-0.6605531,-0.44645023,0.46369743,299.3773,794.9817,850.18317,770.0,924.7253,-0.33050537109375,0.03302001953125,0.93115234375,2.8411865234375,0.538330078125,0.515899658203125,1.0,1.0,1.0,1.0,1.0,100.0,event
12:44:39.220,0.0,-0.17478985,1.2582589,0.5642842,0.0,-0.94334763,0.6032951,0.44706914,0.0,-0.4173768,-0.014264201,0.313464,0.0,-0.3582722,-0.12750226,0.6137594,0.0,-0.6605531,-0.44645023,0.46369743,900.54944,799.81683,873.1502,776.4469,675.31134,-0.33050537109375,0.03302001953125,0.93115234375,2.8411865234375,0.538330078125,0.515899658203125,1.0,1.0,1.0,1.0,1.0,100.0,event
12:44:39.221,0.0,-0.17478985,1.2582589,0.5642842,0.0,-0.94334763,0.6032951,0.44706914,0.0,-0.4173768,-0.014264201,0.313464,0.0,-0.3582722,-0.12750226,0.6137594,0.0,-0.6605531,-0.44645023,0.46369743,1326.4469,792.5641,838.49817,793.7729,794.9817,-0.33050537109375,0.03302001953125,0.93115234375,2.8411865234375,0.538330078125,0.515899658203125,1.0,1.0,1.0,1.0,1.0,100.0,event
12:44:39.257,0.0,-0.17478985,1.2582589,0.5642842,0.0,-0.94334763,0.6032951,0.44706914,0.0,-0.4173768,-0.014264201,0.313464,0.0,-0.3582722,-0.12750226,0.6137594,0.0,-0.6605531,-0.44645023,0.46369743,1117.326,790.14655,830.0366,792.5641,922.3077,-0.340087890625,0.03033447265625,0.9298095703125,1.906585693359375,-0.082244873046875,-0.34393310546875,1.0,1.0,1.0,1.0,1.0,100.0,event
12:44:39.258,0.0,-0.17478985,1.2582589,0.5642842,0.0,-0.94334763,0.6032951,0.44706914,0.0,-0.4173768,-0.014264201,0.313464,0.0,-0.3582722,-0.12750226,0.6137594,0.0,-0.6605531,-0.44645023,0.46369743,433.15018,787.326,834.0659,781.685,753.47986,-0.340087890625,0.03033447265625,0.9298095703125,1.906585693359375,-0.082244873046875,-0.34393310546875,1.0,1.0,1.0,1.0,1.0,100.0,event
12:44:39.259,0.0,-0.17478985,1.2582589,0.5642842,0.0,-0.94334763,0.6032951,0.44706914,0.0,-0.4173768,-0.014264201,0.313464,0.0,-0.3582722,-0.12750226,0.6137594,0.0,-0.6605531,-0.44645023,0.46369743,321.9414,785.7143,832.4542,777.25275,660.40295,-0.340087890625,0.03033447265625,0.9298095703125,1.906585693359375,-0.082244873046875,-0.34393310546875,1.0,1.0,1.0,1.0,1.0,100.0,event
12:44:39.259,0.0,-0.17478985,1.2582589,0.5642842,0.0,-0.94334763,0.6032951,0.44706914,0.0,-0.4173768,-0.014264201,0.313464,0.0,-0.3582722,-0.12750226,0.6137594,0.0,-0.6605531,-0.44645023,0.46369743,787.72894,791.3553,821.1722,781.28204,793.36993,-0.340087890625,0.03033447265625,0.9298095703125,1.906585693359375,-0.082244873046875,-0.34393310546875,1.0,1.0,1.0,1.0,1.0,100.0,event
12:44:39.260,0.0,-0.17478985,1.2582589,0.5642842,0.0,-0.94334763,0.6032951,0.44706914,0.0,-0.4173768,-0.014264201,0.313464,0.0,-0.3582722,-0.12750226,0.6137594,0.0,-0.6605531,-0.44645023,0.46369743,1265.6044,793.36993,813.1135,788.93774,874.7619,-0.340087890625,0.03033447265625,0.9298095703125,1.906585693359375,-0.082244873046875,-0.34393310546875,1.0,1.0,1.0,1.0,1.0,100.0,event
12:44:39.261,0.0,-0.17478985,1.2582589,0.5642842,0.0,-0.94334763,0.6032951,0.44706914,0.0,-0.4173768,-0.014264201,0.313464,0.0,-0.3582722,-0.12750226,0.6137594,0.0,-0.6605531,-0.44645023,0.46369743,1167.2894,789.7436,809.0842,799.41394,804.2491,-0.340087890625,0.03033447265625,0.9298095703125,1.906585693359375,-0.082244873046875,-0.34393310546875,1.0,1.0,1.0,1.0,1.0,100.0,event
12:44:39.261,0.0,-0.17478985,1.2582589,0.5642842,0.0,-0.94334763,0.6032951,0.44706914,0.0,-0.4173768,-0.014264201,0.313464,0.0,-0.3582722,-0.12750226,0.6137594,0.0,-0.6605531,-0.44645023,0.46369743,496.00732,787.326,802.6374,788.5348,822.7839,-0.340087890625,0.03033447265625,0.9298095703125,1.906585693359375,-0.082244873046875,-0.34393310546875,1.0,1.0,1.0,1.0,1.0,100.0,event
12:44:39.262,0.0,-0.17478985,1.2582589,0.5642842,0.0,-0.94334763,0.6032951,0.44706914,0.0,-0.4173768,-0.014264201,0.313464,0.0,-0.3582722,-0.12750226,0.6137594,0.0,-0.6605531,-0.44645023,0.46369743,260.69598,789.34064,786.52014,779.67035,885.64105,-0.340087890625,0.03033447265625,0.9298095703125,1.906585693359375,-0.082244873046875,-0.34393310546875,1.0,1.0,1.0,1.0,1.0,100.0,event
12:44:39.263,0.0,-0.17478985,1.2582589,0.5642842,0.0,-0.94334763,0.6032951,0.44706914,0.0,-0.4173768,-0.014264201,0.313464,0.0,-0.3582722,-0.12750226,0.6137594,0.0,-0.6605531,-0.44645023,0.46369743,694.2491,794.9817,798.60803,791.75824,948.49817,-0.340087890625,0.03033447265625,0.9298095703125,1.906585693359375,-0.082244873046875,-0.34393310546875,1.0,1.0,1.0,1.0,1.0,100.0,event
12:44:39.263,0.0,-0.17478985,1.2582589,0.5642842,0.0,-0.94334763,0.6032951,0.44706914,0.0,-0.4173768,-0.014264201,0.313464,0.0,-0.3582722,-0.12750226,0.6137594,0.0,-0.6605531,-0.44645023,0.46369743,1298.2417,795.38464,823.1868,802.23444,759.92676,-0.340087890625,0.03033447265625,0.9298095703125,1.906585693359375,-0.082244873046875,-0.34393310546875,1.0,1.0,1.0,1.0,1.0,100.0,event
12:44:39.264,0.0,-0.17478985,1.2582589,0.5642842,0.0,-0.94334763,0.6032951,0.44706914,0.0,-0.4173768,-0.014264201,0.313464,0.0,-0.3582722,-0.12750226,0.6137594,0.0,-0.6605531,-0.44645023,0.46369743,1282.1245,793.36993,796.1905,812.71063,709.9634,-0.340087890625,0.03033447265625,0.9298095703125,1.906585693359375,-0.082244873046875,-0.34393310546875,1.0,1.0,1.0,1.0,1.0,100.0,event
12:44:39.264,0.0,-0.17478985,1.2582589,0.5642842,0.0,-0.94334763,0.6032951,0.44706914,0.0,-0.4173768,-0.014264201,0.313464,0.0,-0.3582722,-0.12750226,0.6137594,0.0,-0.6605531,-0.44645023,0.46369743,585.8608,792.96704,775.64105,800.2198,841.7216,-0.340087890625,0.03033447265625,0.9298095703125,1.906585693359375,-0.082244873046875,-0.34393310546875,1.0,1.0,1.0,1.0,1.0,100.0,event
12:44:39.293,0.0,-0.17478985,1.2582589,0.5642842,0.0,-0.94334763,0.6032951,0.44706914,0.0,-0.4173768,-0.014264201,0.313464,0.0,-0.3582722,-0.12750226,0.6137594,0.0,-0.6605531,-0.44645023,0.46369743,282.45422,788.93774,786.52014,779.2674,754.68866,-0.340087890625,0.03033447265625,0.9298095703125,1.906585693359375,-0.082244873046875,-0.34393310546875,1.0,1.0,1.0,1.0,1.0,100.0,event
12:44:39.294,0.0,-0.18447289,1.2582589,0.5642842,0.0,-0.93345594,0.6032951,0.44706914,0.0,-0.34341067,-0.014264201,0.313464,0.0,-0.34528655,-0.12750226,0.6137594,0.0,-0.6558074,-0.44645023,0.46369743,673.2967,792.1612,791.3553,785.7143,642.674,-0.340087890625,0.03033447265625,0.9298095703125,1.906585693359375,-0.082244873046875,-0.34393310546875,1.0,1.0,1.0,1.0,1.0,100.0,event
12:44:39.298,0.0,-0.18447289,1.2582589,0.5642842,0.0,-0.93345594,0.6032951,0.44706914,0.0,-0.34341067,-0.014264201,0.313464,0.0,-0.34528655,-0.12750226,0.6137594,0.0,-0.6558074,-0.44645023,0.46369743,1214.8352,794.17584,775.64105,802.23444,752.27106,-0.340087890625,0.03033447265625,0.9298095703125,1.906585693359375,-0.082244873046875,-0.34393310546875,1.0,1.0,1.0,1.0,1.0,100.0,event
12:44:39.299,0.0,-0.18447289,1.2582589,0.5642842,0.0,-0.93345594,0.6032951,0.44706914,0.0,-0.34341067,-0.014264201,0.313464,0.0,-0.34528655,-0.12750226,0.6137594,0.0,-0.6558074,-0.44645023,0.46369743,653.5531,790.14655,782.49084,794.57874,909.011,-0.340087890625,0.03033447265625,0.9298095703125,1.906585693359375,-0.082244873046875,-0.34393310546875,1.0,1.0,1.0,1.0,1.0,100.0,event
12:44:39.299,0.0,-0.18447289,1.2582589,0.5642842,0.0,-0.93345594,0.6032951,0.44706914,0.0,-0.34341067,-0.014264201,0.313464,0.0,-0.34528655,-0.12750226,0.6137594,0.0,-0.6558074,-0.44645023,0.46369743,1259.1575,793.36993,776.04395,810.696,952.1245,-0.340087890625,0.03033447265625,0.9298095703125,1.906585693359375,-0.082244873046875,-0.34393310546875,1.0,1.0,1.0,1.0,1.0,100.0,event
12:44:39.300,0.0,-0.18447289,1.2582589,0.5642842,0.0,-0.93345594,0.6032951,0.44706914,0.0,-0.34341067,-0.014264201,0.313464,0.0,-0.34528655,-0.12750226,0.6137594,0.0,-0.6558074,-0.44645023,0.46369743,257.47253,786.9231,766.77655,788.1319,789.7436,-0.340087890625,0.03033447265625,0.9298095703125,1.906585693359375,-0.082244873046875,-0.34393310546875,1.0,1.0,1.0,1.0,1.0,100.0,event
12:44:39.300,0.0,-0.18447289,1.2582589,0.5642842,0.0,-0.93345594,0.6032951,0.44706914,0.0,-0.34341067,-0.014264201,0.313464,0.0,-0.34528655,-0.12750226,0.6137594,0.0,-0.6558074,-0.44645023,0.46369743,584.2491,788.93774,771.2088,804.2491,792.5641,-0.340087890625,0.03033447265625,0.9298095703125,1.906585693359375,-0.082244873046875,-0.34393310546875,1.0,1.0,1.0,1.0,1.0,100.0,event
12:44:39.301,0.0,-0.18447289,1.2582589,0.5642842,0.0,-0.93345594,0.6032951,0.44706914,0.0,-0.34341067,-0.014264201,0.313464,0.0,-0.34528655,-0.12750226,0.6137594,0.0,-0.6558074,-0.44645023,0.46369743,1129.414,788.93774,766.3736,811.9048,973.0769,-0.340087890625,0.03033447265625,0.9298095703125,1.906585693359375,-0.082244873046875,-0.34393310546875,1.0,1.0,1.0,1.0,1.0,100.0,event
12:44:39.302,0.0,-0.18447289,1.2582589,0.5642842,0.0,-0.93345594,0.6032951,0.44706914,0.0,-0.34341067,-0.014264201,0.313464,0.0,-0.34528655,-0.12750226,0.6137594,0.0,-0.6558074,-0.44645023,0.46369743,1290.1831,798.20514,782.8938,809.0842,975.4945,-0.340087890625,0.03033447265625,0.9298095703125,1.906585693359375,-0.082244873046875,-0.34393310546875,1.0,1.0,1.0,1.0,1.0,100.0,event
12:44:39.302,0.0,-0.18447289,1.2582589,0.5642842,0.0,-0.93345594,0.6032951,0.44706914,0.0,-0.34341067,-0.014264201,0.313464,0.0,-0.34528655,-0.12750226,0.6137594,0.0,-0.6558074,-0.44645023,0.46369743,774.0293,795.38464,778.46155,792.1612,711.978,-0.340087890625,0.03033447265625,0.9298095703125,1.906585693359375,-0.082244873046875,-0.34393310546875,1.0,1.0,1.0,1.0,1.0,100.0,event
12:44:39.303,0.0,-0.18447289,1.2582589,0.5642842,0.0,-0.93345594,0.6032951,0.44706914,0.0,-0.34341067,-0.014264201,0.313464,0.0,-0.34528655,-0.12750226,0.6137594,0.0,-0.6558074,-0.44645023,0.46369743,252.23444,789.34064,753.8828,780.4762,700.293,-0.340087890625,0.03033447265625,0.9298095703125,1.906585693359375,-0.082244873046875,-0.34393310546875,1.0,1.0,1.0,1.0,1.0,100.0,event
12:44:39.303,0.0,-0.18447289,1.2582589,0.5642842,0.0,-0.93345594,0.6032951,0.44706914,0.0,-0.34341067,-0.014264201,0.313464,0.0,-0.34528655,-0.12750226,0.6137594,0.0,-0.6558074,-0.44645023,0.46369743,492.38095,792.5641,767.5824,790.9524,757.50916,-0.340087890625,0.03033447265625,0.9298095703125,1.906585693359375,-0.082244873046875,-0.34393310546875,1.0,1.0,1.0,1.0,1.0,100.0,event
12:44:39.329,0.0,-0.18447289,1.2582589,0.5642842,0.0,-0.93345594,0.6032951,0.44706914,0.0,-0.34341067,-0.014264201,0.313464,0.0,-0.34528655,-0.12750226,0.6137594,0.0,-0.6558074,-0.44645023,0.46369743,1096.7766,796.5934,783.2967,801.8315,788.93774,-0.3448486328125,0.02874755859375,0.9293212890625,1.7645263671875,-2.16827392578125,-0.70281982421875,1.0,1.0,1.0,1.0,1.0,100.0,event
12:44:39.330,0.0,-0.18447289,1.2582589,0.5642842,0.0,-0.93345594,0.6032951,0.44706914,0.0,-0.34341067,-0.014264201,0.313464,0.0,-0.34528655,-0.12750226,0.6137594,0.0,-0.6558074,-0.44645023,0.46369743,1335.3114,795.78754,772.01465,799.41394,766.3736,-0.3448486328125,0.02874755859375,0.9293212890625,1.7645263671875,-2.16827392578125,-0.70281982421875,1.0,1.0,1.0,1.0,1.0,100.0,event
12:44:39.331,0.0,-0.18447289,1.2582589,0.5642842,0.0,-0.93345594,0.6032951,0.44706914,0.0,-0.34341067,-0.014264201,0.313464,0.0,-0.34528655,-0.12750226,0.6137594,0.0,-0.6558074,-0.44645023,0.46369743,807.8755,787.72894,743.00366,784.90845,796.99634,-0.3448486328125,0.02874755859375,0.9293212890625,1.7645263671875,-2.16827392578125,-0.70281982421875,1.0,1.0,1.0,1.0,1.0,100.0,event
12:44:39.331,0.0,-0.18447289,1.2582589,0.5642842,0.0,-0.93345594,0.6032951,0.44706914,0.0,-0.34341067,-0.014264201,0.313464,0.0,-0.34528655,-0.12750226,0.6137594,0.0,-0.6558074,-0.44645023,0.46369743,266.337,790.14655,748.6447,773.22345,767.98535,-0.3448486328125,0.02874755859375,0.9293212890625,1.7645263671875,-2.16827392578125,-0.70281982421875,1.0,1.0,1.0,1.0,1.0,100.0,event
12:44:39.332,0.0,-0.18447289,1.2582589,0.5642842,0.0,-0.93345594,0.6032951,0.44706914,0.0,-0.34341067,-0.014264201,0.313464,0.0,-0.34528655,-0.12750226,0.6137594,0.0,-0.6558074,-0.44645023,0.46369743,466.99634,792.96704,759.12085,769.19415,691.8315,-0.3448486328125,0.02874755859375,0.9293212890625,1.7645263671875,-2.16827392578125,-0.70281982421875,1.0,1.0,1.0,1.0,1.0,100.0,event
12:44:39.332,0.0,-0.18447289,1.2582589,0.5642842,0.0,-0.93345594,0.6032951,0.44706914,0.0,-0.34341067,-0.014264201,0.313464,0.0,-0.34528655,-0.12750226,0.6137594,0.0,-0.6558074,-0.44645023,0.46369743,1014.57874,794.17584,758.71796,782.49084,815.9341,-0.3448486328125,0.02874755859375,0.9293212890625,1.7645263671875,-2.16827392578125,-0.70281982421875,1.0,1.0,1.0,1.0,1.0,100.0,event
12:44:39.333,0.0,-0.18447289,1.2582589,0.5642842,0.0,-0.93345594,0.6032951,0.44706914,0.0,-0.34341067,-0.014264201,0.313464,0.0,-0.34528655,-0.12750226,0.6137594,0.0,-0.6558074,-0.44645023,0.46369743,1297.4359,789.7436,738.5714,799.011,971.4652,-0.3448486328125,0.02874755859375,0.9293212890625,1.7645263671875,-2.16827392578125,-0.70281982421875,1.0,1.0,1.0,1.0,1.0,100.0,event
12:44:39.334,0.0,-0.18447289,1.2582589,0.5642842,0.0,-0.93345594,0.6032951,0.44706914,0.0,-0.34341067,-0.014264201,0.313464,0.0,-0.34528655,-0.12750226,0.6137594,0.0,-0.6558074,-0.44645023,0.46369743,846.1539,787.72894,732.1245,799.011,1101.2087,-0.3448486328125,0.02874755859375,0.9293212890625,1.7645263671875,-2.16827392578125,-0.70281982421875,1.0,1.0,1.0,1.0,1.0,100.0,event
12:44:39.334,0.0,-0.18447289,1.2582589,0.5642842,0.0,-0.93345594,0.6032951,0.44706914,0.0,-0.34341067,-0.014264201,0.313464,0.0,-0.34528655,-0.12750226,0.6137594,0.0,-0.6558074,-0.44645023,0.46369743,303.4066,799.011,772.4176,790.14655,849.3773,-0.3448486328125,0.02874755859375,0.9293212890625,1.7645263671875,-2.16827392578125,-0.70281982421875,1.0,1.0,1.0,1.0,1.0,100.0,event
12:44:39.335,0.0,-0.18447289,1.2582589,0.5642842,0.0,-0.93345594,0.6032951,0.44706914,0.0,-0.34341067,-0.014264201,0.313464,0.0,-0.34528655,-0.12750226,0.6137594,0.0,-0.6558074,-0.44645023,0.46369743,933.9927,794.17584,741.39197,792.5641,722.0513,-0.3448486328125,0.02874755859375,0.9293212890625,1.7645263671875,-2.16827392578125,-0.70281982421875,1.0,1.0,1.0,1.0,1.0,100.0,event
12:44:39.335,0.0,-0.18447289,1.2582589,0.5642842,0.0,-0.93345594,0.6032951,0.44706914,0.0,-0.34341067,-0.014264201,0.313464,0.0,-0.34528655,-0.12750226,0.6137594,0.0,-0.6558074,-0.44645023,0.46369743,432.34433,794.9817,749.85345,780.4762,629.3773,-0.3448486328125,0.02874755859375,0.9293212890625,1.7645263671875,-2.16827392578125,-0.70281982421875,1.0,1.0,1.0,1.0,1.0,100.0,event
12:44:39.336,0.0,-0.18447289,1.2582589,0.5642842,0.0,-0.93345594,0.6032951,0.44706914,0.0,-0.34341067,-0.014264201,0.313464,0.0,-0.34528655,-0.12750226,0.6137594,0.0,-0.6558074,-0.44645023,0.46369743,1320.403,794.17584,753.8828,794.57874,809.89014,-0.3448486328125,0.02874755859375,0.9293212890625,1.7645263671875,-2.16827392578125,-0.70281982421875,1.0,1.0,1.0,1.0,1.0,100.0,event
12:44:39.386,0.0,-0.18447289,1.2582589,0.5642842,0.0,-0.93345594,0.6032951,0.44706914,0.0,-0.34341067,-0.014264201,0.313464,0.0,-0.34528655,-0.12750226,0.6137594,0.0,-0.6558074,-0.44645023,0.46369743,1016.5934,791.75824,734.5421,780.87915,784.5055,-0.35369873046875,0.02642822265625,0.9295654296875,2.5421142578125,-3.4991455078125,0.55328369140625,1.0,1.0,1.0,1.0,1.0,100.0,event
12:44:39.387,0.0,-0.18447289,1.2582589,0.5642842,0.0,-0.93345594,0.6032951,0.44706914,0.0,-0.34341067,-0.014264201,0.313464,0.0,-0.34528655,-0.12750226,0.6137594,0.0,-0.6558074,-0.44645023,0.46369743,337.25275,788.5348,715.6044,778.46155,713.9927,-0.35369873046875,0.02642822265625,0.9295654296875,2.5421142578125,-3.4991455078125,0.55328369140625,1.0,1.0,1.0,1.0,1.0,100.0,event
12:44:39.387,0.0,-0.18447289,1.2582589,0.5642842,0.0,-0.93345594,0.6032951,0.44706914,0.0,-0.34341067,-0.014264201,0.313464,0.0,-0.34528655,-0.12750226,0.6137594,0.0,-0.6558074,-0.44645023,0.46369743,352.96704,787.72894,718.8278,794.17584,709.5604,-0.35369873046875,0.02642822265625,0.9295654296875,2.5421142578125,-3.4991455078125,0.55328369140625,1.0,1.0,1.0,1.0,1.0,100.0,event
12:44:39.388,0.0,-0.20383644,1.2582589,0.5642842,0.0,-0.9279302,0.6032951,0.44706914,0.0,-0.32751825,-0.014264201,0.313464,0.0,-0.325994,-0.12750226,0.6137594,0.0,-0.66207117,-0.44645023,0.46369743,891.28204,792.96704,732.52747,795.38464,718.4249,-0.35369873046875,0.02642822265625,0.9295654296875,2.5421142578125,-3.4991455078125,0.55328369140625,1.0,1.0,1.0,1.0,1.0,100.0,event
12:44:39.392,0.0,-0.20383644,1.2582589,0.5642842,0.0,-0.9279302,0.6032951,0.44706914,0.0,-0.32751825,-0.014264201,0.313464,0.0,-0.325994,-0.12750226,0.6137594,0.0,-0.66207117,-0.44645023,0.46369743,1324.0293,791.3553,719.2308,806.26373,757.50916,-0.35369873046875,0.02642822265625,0.9295654296875,2.5421142578125,-3.4991455078125,0.55328369140625,1.0,1.0,1.0,1.0,1.0,100.0,event
12:44:39.393,0.0,-0.20383644,1.2582589,0.5642842,0.0,-0.9279302,0.6032951,0.44706914,0.0,-0.32751825,-0.014264201,0.313464,0.0,-0.325994,-0.12750226,0.6137594,0.0,-0.66207117,-0.44645023,0.46369743,1076.227,788.5348,692.23444,802.6374,871.13556,-0.35369873046875,0.02642822265625,0.9295654296875,2.5421142578125,-3.4991455078125,0.55328369140625,1.0,1.0,1.0,1.0,1.0,100.0,event
12:44:39.394,0.0,-0.20383644,1.2582589,0.5642842,0.0,-0.9279302,0.6032951,0.44706914,0.0,-0.32751825,-0.014264201,0.313464,0.0,-0.325994,-0.12750226,0.6137594,0.0,-0.66207117,-0.44645023,0.46369743,337.65567,790.14655,672.8938,778.0586,1068.5714,-0.35369873046875,0.02642822265625,0.9295654296875,2.5421142578125,-3.4991455078125,0.55328369140625,1.0,1.0,1.0,1.0,1.0,100.0,event
12:44:39.395,0.0,-0.20383644,1.2582589,0.5642842,0.0,-0.9279302,0.6032951,0.44706914,0.0,-0.32751825,-0.014264201,0.313464,0.0,-0.325994,-0.12750226,0.6137594,0.0,-0.66207117,-0.44645023,0.46369743,290.51282,798.20514,702.71063,776.4469,938.022,-0.35369873046875,0.02642822265625,0.9295654296875,2.5421142578125,-3.4991455078125,0.55328369140625,1.0,1.0,1.0,1.0,1.0,100.0,event
12:44:39.395,0.0,-0.20383644,1.2582589,0.5642842,0.0,-0.9279302,0.6032951,0.44706914,0.0,-0.32751825,-0.014264201,0.313464,0.0,-0.325994,-0.12750226,0.6137594,0.0,-0.66207117,-0.44645023,0.46369743,841.7216,799.41394,713.5897,784.5055,685.78754,-0.35369873046875,0.02642822265625,0.9295654296875,2.5421142578125,-3.4991455078125,0.55328369140625,1.0,1.0,1.0,1.0,1.0,100.0,event
12:44:39.396,0.0,-0.20383644,1.2582589,0.5642842,0.0,-0.9279302,0.6032951,0.44706914,0.0,-0.32751825,-0.014264201,0.313464,0.0,-0.325994,-0.12750226,0.6137594,0.0,-0.66207117,-0.44645023,0.46369743,1287.3627,795.38464,686.1905,799.81683,747.03296,-0.35369873046875,0.02642822265625,0.9295654296875,2.5421142578125,-3.4991455078125,0.55328369140625,1.0,1.0,1.0,1.0,1.0,100.0,event
12:44:39.396,0.0,-0.20383644,1.2582589,0.5642842,0.0,-0.9279302,0.6032951,0.44706914,0.0,-0.32751825,-0.014264201,0.313464,0.0,-0.325994,-0.12750226,0.6137594,0.0,-0.66207117,-0.44645023,0.46369743,1139.4872,793.7729,680.14655,803.8461,851.39197,-0.35369873046875,0.02642822265625,0.9295654296875,2.5421142578125,-3.4991455078125,0.55328369140625,1.0,1.0,1.0,1.0,1.0,100.0,event
12:44:39.397,0.0,-0.20383644,1.2582589,0.5642842,0.0,-0.9279302,0.6032951,0.44706914,0.0,-0.32751825,-0.014264201,0.313464,0.0,-0.325994,-0.12750226,0.6137594,0.0,-0.66207117,-0.44645023,0.46369743,472.63736,796.1905,683.7729,793.7729,846.9597,-0.35369873046875,0.02642822265625,0.9295654296875,2.5421142578125,-3.4991455078125,0.55328369140625,1.0,1.0,1.0,1.0,1.0,100.0,event
12:44:39.454,0.0,-0.20383644,1.2582589,0.5642842,0.0,-0.9279302,0.6032951,0.44706914,0.0,-0.32751825,-0.014264201,0.313464,0.0,-0.325994,-0.12750226,0.6137594,0.0,-0.66207117,-0.44645023,0.46369743,314.2857,792.1612,681.75824,783.69965,720.0366,-0.35345458984375,0.033203125,0.92681884765625,2.930908203125,-2.51220703125,0.418701171875,1.0,1.0,1.0,1.0,1.0,100.0,event
12:44:39.455,0.0,-0.20383644,1.2582589,0.5642842,0.0,-0.9279302,0.6032951,0.44706914,0.0,-0.32751825,-0.014264201,0.313464,0.0,-0.325994,-0.12750226,0.6137594,0.0,-0.66207117,-0.44645023,0.46369743,749.45056,788.1319,662.8205,790.54944,783.2967,-0.35345458984375,0.033203125,0.92681884765625,2.930908203125,-2.51220703125,0.418701171875,1.0,1.0,1.0,1.0,1.0,100.0,event
12:44:39.456,0.0,-0.20383644,1.2582589,0.5642842,0.0,-0.9279302,0.6032951,0.44706914,0.0,-0.32751825,-0.014264201,0.313464,0.0,-0.325994,-0.12750226,0.6137594,0.0,-0.66207117,-0.44645023,0.46369743,1261.978,796.99634,664.83514,794.57874,865.09155,-0.35345458984375,0.033203125,0.92681884765625,2.930908203125,-2.51220703125,0.418701171875,1.0,1.0,1.0,1.0,1.0,100.0,event
12:44:39.457,0.0,-0.20383644,1.2582589,0.5642842,0.0,-0.9279302,0.6032951,0.44706914,0.0,-0.32751825,-0.014264201,0.313464,0.0,-0.325994,-0.12750226,0.6137594,0.0,-0.66207117,-0.44645023,0.46369743,556.8498,794.9817,652.3443,793.36993,662.4176,-0.35345458984375,0.033203125,0.92681884765625,2.930908203125,-2.51220703125,0.418701171875,1.0,1.0,1.0,1.0,1.0,100.0,event
12:44:39.457,0.0,-0.20383644,1.2582589,0.5642842,0.0,-0.9279302,0.6032951,0.44706914,0.0,-0.32751825,-0.014264201,0.313464,0.0,-0.325994,-0.12750226,0.6137594,0.0,-0.66207117,-0.44645023,0.46369743,1235.7876,799.011,669.2674,805.05493,744.21246,-0.35345458984375,0.033203125,0.92681884765625,2.930908203125,-2.51220703125,0.418701171875,1.0,1.0,1.0,1.0,1.0,100.0,event
12:44:39.458,0.0,-0.20383644,1.2582589,0.5642842,0.0,-0.9279302,0.6032951,0.44706914,0.0,-0.32751825,-0.014264201,0.313464,0.0,-0.325994,-0.12750226,0.6137594,0.0,-0.66207117,-0.44645023,0.46369743,212.34433,788.93774,624.1392,777.6557,860.65936,-0.35345458984375,0.033203125,0.92681884765625,2.930908203125,-2.51220703125,0.418701171875,1.0,1.0,1.0,1.0,1.0,100.0,event
12:44:39.458,0.0,-0.20383644,1.2582589,0.5642842,0.0,-0.9279302,0.6032951,0.44706914,0.0,-0.32751825,-0.014264201,0.313464,0.0,-0.325994,-0.12750226,0.6137594,0.0,-0.66207117,-0.44645023,0.46369743,612.8571,792.1612,645.09155,796.99634,988.3883,-0.35345458984375,0.033203125,0.92681884765625,2.930908203125,-2.51220703125,0.418701171875,1.0,1.0,1.0,1.0,1.0,100.0,event
12:44:39.459,0.0,-0.20383644,1.2582589,0.5642842,0.0,-0.9279302,0.6032951,0.44706914,0.0,-0.32751825,-0.014264201,0.313464,0.0,-0.325994,-0.12750226,0.6137594,0.0,-0.66207117,-0.44645023,0.46369743,1249.8901,800.6227,689.81683,813.5165,804.65204,-0.35345458984375,0.033203125,0.92681884765625,2.930908203125,-2.51220703125,0.418701171875,1.0,1.0,1.0,1.0,1.0,100.0,event
12:44:39.460,0.0,-0.20383644,1.2582589,0.5642842,0.0,-0.9279302,0.6032951,0.44706914,0.0,-0.32751825,-0.014264201,0.313464,0.0,-0.325994,-0.12750226,0.6137594,0.0,-0.66207117,-0.44645023,0.46369743,1295.8242,795.38464,663.6264,807.47253,800.6227,-0.35345458984375,0.033203125,0.92681884765625,2.930908203125,-2.51220703125,0.418701171875,1.0,1.0,1.0,1.0,1.0,100.0,event
12:44:39.460,0.0,-0.20383644,1.2582589,0.5642842,0.0,-0.9279302,0.6032951,0.44706914,0.0,-0.32751825,-0.014264201,0.313464,0.0,-0.325994,-0.12750226,0.6137594,0.0,-0.66207117,-0.44645023,0.46369743,608.8278,791.75824,626.1539,794.17584,939.2308,-0.35345458984375,0.033203125,0.92681884765625,2.930908203125,-2.51220703125,0.418701171875,1.0,1.0,1.0,1.0,1.0,100.0,event
12:44:39.461,0.0,-0.20383644,1.2582589,0.5642842,0.0,-0.9279302,0.6032951,0.44706914,0.0,-0.32751825,-0.014264201,0.313464,0.0,-0.325994,-0.12750226,0.6137594,0.0,-0.66207117,-0.44645023,0.46369743,236.92308,794.57874,647.50916,779.67035,870.32965,-0.35345458984375,0.033203125,0.92681884765625,2.930908203125,-2.51220703125,0.418701171875,1.0,1.0,1.0,1.0,1.0,100.0,event
12:44:39.461,0.0,-0.20383644,1.2582589,0.5642842,0.0,-0.9279302,0.6032951,0.44706914,0.0,-0.32751825,-0.014264201,0.313464,0.0,-0.325994,-0.12750226,0.6137594,0.0,-0.66207117,-0.44645023,0.46369743,620.10986,794.9817,664.0293,788.93774,674.5055,-0.35345458984375,0.033203125,0.92681884765625,2.930908203125,-2.51220703125,0.418701171875,1.0,1.0,1.0,1.0,1.0,100.0,event
12:44:39.490,0.0,-0.20383644,1.2582589,0.5642842,0.0,-0.9279302,0.6032951,0.44706914,0.0,-0.32751825,-0.014264201,0.313464,0.0,-0.325994,-0.12750226,0.6137594,0.0,-0.66207117,-0.44645023,0.46369743,1197.9121,796.1905,648.71796,807.47253,752.674,-0.3472900390625,0.03375244140625,0.92333984375,2.370147705078125,-2.938385009765625,-0.246734619140625,1.0,1.0,1.0,1.0,1.0,100.0,event
12:44:39.491,0.0,-0.20383644,1.2582589,0.5642842,0.0,-0.9279302,0.6032951,0.44706914,0.0,-0.32751825,-0.014264201,0.313464,0.0,-0.325994,-0.12750226,0.6137594,0.0,-0.66207117,-0.44645023,0.46369743,1299.0476,799.81683,658.7912,802.23444,940.0366,-0.3472900390625,0.03375244140625,0.92333984375,2.370147705078125,-2.938385009765625,-0.246734619140625,1.0,1.0,1.0,1.0,1.0,100.0,event
12:44:39.492,0.0,-0.20383644,1.2582589,0.5642842,0.0,-0.9279302,0.6032951,0.44706914,0.0,-0.32751825,-0.014264201,0.313464,0.0,-0.325994,-0.12750226,0.6137594,0.0,-0.66207117,-0.44645023,0.46369743,723.663,799.011,664.83514,788.1319,899.7436,-0.3472900390625,0.03375244140625,0.92333984375,2.370147705078125,-2.938385009765625,-0.246734619140625,1.0,1.0,1.0,1.0,1.0,100.0,event
12:44:39.493,0.0,-0.20383644,1.2582589,0.5642842,0.0,-0.9279302,0.6032951,0.44706914,0.0,-0.32751825,-0.014264201,0.313464,0.0,-0.325994,-0.12750226,0.6137594,0.0,-0.66207117,-0.44645023,0.46369743,294.1392,795.38464,659.59705,782.0879,752.674,-0.3472900390625,0.03375244140625,0.92333984375,2.370147705078125,-2.938385009765625,-0.246734619140625,1.0,1.0,1.0,1.0,1.0,100.0,event
12:44:39.493,0.0,-0.20383644,1.2582589,0.5642842,0.0,-0.9279302,0.6032951,0.44706914,0.0,-0.32751825,-0.014264201,0.313464,0.0,-0.325994,-0.12750226,0.6137594,0.0,-0.66207117,-0.44645023,0.46369743,541.9414,794.9817,655.16486,783.69965,737.76556,-0.3472900390625,0.03375244140625,0.92333984375,2.370147705078125,-2.938385009765625,-0.246734619140625,1.0,1.0,1.0,1.0,1.0,100.0,event
12:44:39.494,0.0,-0.22201875,1.2582589,0.5642842,0.0,-0.92649496,0.6032951,0.44706914,0.0,-0.32751825,-0.014264201,0.313464,0.0,-0.30699074,-0.12750226,0.6137594,0.0,-0.6739613,-0.44645023,0.46369743,1097.5824,795.78754,656.77655,796.1905,879.19415,-0.3472900390625,0.03375244140625,0.92333984375,2.370147705078125,-2.938385009765625,-0.246734619140625,1.0,1.0,1.0,1.0,1.0,100.0,event
12:44:39.498,0.0,-0.22201875,1.2582589,0.5642842,0.0,-0.92649496,0.6032951,0.44706914,0.0,-0.32751825,-0.014264201,0.313464,0.0,-0.30699074,-0.12750226,0.6137594,0.0,-0.6739613,-0.44645023,0.46369743,1317.5824,797.8022,669.2674,803.0403,995.64105,-0.3472900390625,0.03375244140625,0.92333984375,2.370147705078125,-2.938385009765625,-0.246734619140625,1.0,1.0,1.0,1.0,1.0,100.0,event
12:44:39.499,0.0,-0.22201875,1.2582589,0.5642842,0.0,-0.92649496,0.6032951,0.44706914,0.0,-0.32751825,-0.014264201,0.313464,0.0,-0.30699074,-0.12750226,0.6137594,0.0,-0.6739613,-0.44645023,0.46369743,821.5751,794.9817,669.67035,792.5641,861.4652,-0.3472900390625,0.03375244140625,0.92333984375,2.370147705078125,-2.938385009765625,-0.246734619140625,1.0,1.0,1.0,1.0,1.0,100.0,event
12:44:39.499,0.0,-0.22201875,1.2582589,0.5642842,0.0,-0.92649496,0.6032951,0.44706914,0.0,-0.32751825,-0.014264201,0.313464,0.0,-0.30699074,-0.12750226,0.6137594,0.0,-0.6739613,-0.44645023,0.46369743,280.43958,789.7436,649.92676,776.8498,708.3516,-0.3472900390625,0.03375244140625,0.92333984375,2.370147705078125,-2.938385009765625,-0.246734619140625,1.0,1.0,1.0,1.0,1.0,100.0,event
12:44:39.500,0.0,-0.22201875,1.2582589,0.5642842,0.0,-0.92649496,0.6032951,0.44706914,0.0,-0.32751825,-0.014264201,0.313464,0.0,-0.30699074,-0.12750226,0.6137594,0.0,-0.6739613,-0.44645023,0.46369743,427.91208,794.57874,660.80585,789.7436,875.16486,-0.3472900390625,0.03375244140625,0.92333984375,2.370147705078125,-2.938385009765625,-0.246734619140625,1.0,1.0,1.0,1.0,1.0,100.0,event
12:44:39.501,0.0,-0.22201875,1.2582589,0.5642842,0.0,-0.92649496,0.6032951,0.44706914,0.0,-0.32751825,-0.014264201,0.313464,0.0,-0.30699074,-0.12750226,0.6137594,0.0,-0.6739613,-0.44645023,0.46369743,1023.0403,803.0403,709.15753,807.47253,922.3077,-0.3472900390625,0.03375244140625,0.92333984375,2.370147705078125,-2.938385009765625,-0.246734619140625,1.0,1.0,1.0,1.0,1.0,100.0,event
12:44:39.501,0.0,-0.22201875,1.2582589,0.5642842,0.0,-0.92649496,0.6032951,0.44706914,0.0,-0.32751825,-0.014264201,0.313464,0.0,-0.30699074,-0.12750226,0.6137594,0.0,-0.6739613,-0.44645023,0.46369743,1349.414,799.81683,693.8461,806.26373,796.99634,-0.3472900390625,0.03375244140625,0.92333984375,2.370147705078125,-2.938385009765625,-0.246734619140625,1.0,1.0,1.0,1.0,1.0,100.0,event
12:44:39.529,0.0,-0.22201875,1.2582589,0.5642842,0.0,-0.92649496,0.6032951,0.44706914,0.0,-0.32751825,-0.014264201,0.313464,0.0,-0.30699074,-0.12750226,0.6137594,0.0,-0.6739613,-0.44645023,0.46369743,866.7033,792.5641,655.56775,797.3993,790.54944,-0.3472900390625,0.03375244140625,0.92333984375,2.370147705078125,-2.938385009765625,-0.246734619140625,1.0,1.0,1.0,1.0,1.0,100.0,event
12:44:39.530,0.0,-0.22201875,1.2582589,0.5642842,0.0,-0.92649496,0.6032951,0.44706914,0.0,-0.32751825,-0.014264201,0.313464,0.0,-0.30699074,-0.12750226,0.6137594,0.0,-0.6739613,-0.44645023,0.46369743,275.6044,790.54944,667.6557,785.31134,760.7326,-0.3472900390625,0.03375244140625,0.92333984375,2.370147705078125,-2.938385009765625,-0.246734619140625,1.0,1.0,1.0,1.0,1.0,100.0,event
12:44:39.531,0.0,-0.22201875,1.2582589,0.5642842,0.0,-0.92649496,0.6032951,0.44706914,0.0,-0.32751825,-0.014264201,0.313464,0.0,-0.30699074,-0.12750226,0.6137594,0.0,-0.6739613,-0.44645023,0.46369743,424.68866,791.3553,684.57874,791.75824,763.5531,-0.3472900390625,0.03375244140625,0.92333984375,2.370147705078125,-2.938385009765625,-0.246734619140625,1.0,1.0,1.0,1.0,1.0,100.0,event
12:44:39.531,0.0,-0.22201875,1.2582589,0.5642842,0.0,-0.92649496,0.6032951,0.44706914,0.0,-0.32751825,-0.014264201,0.313464,0.0,-0.30699074,-0.12750226,0.6137594,0.0,-0.6739613,-0.44645023,0.46369743,954.5421,795.38464,685.78754,801.8315,764.35895,-0.3472900390625,0.03375244140625,0.92333984375,2.370147705078125,-2.938385009765625,-0.246734619140625,1.0,1.0,1.0,1.0,1.0,100.0,event
12:44:39.532,0.0,-0.22201875,1.2582589,0.5642842,0.0,-0.92649496,0.6032951,0.44706914,0.0,-0.32751825,-0.014264201,0.313464,0.0,-0.30699074,-0.12750226,0.6137594,0.0,-0.6739613,-0.44645023,0.46369743,1297.4359,795.38464,675.31134,810.696,896.1172,-0.3472900390625,0.03375244140625,0.92333984375,2.370147705078125,-2.938385009765625,-0.246734619140625,1.0,1.0,1.0,1.0,1.0,100.0,event
12:44:39.533,0.0,-0.22201875,1.2582589,0.5642842,0.0,-0.92649496,0.6032951,0.44706914,0.0,-0.32751825,-0.014264201,0.313464,0.0,-0.30699074,-0.12750226,0.6137594,0.0,-0.6739613,-0.44645023,0.46369743,931.978,793.36993,668.86444,810.696,1082.2711,-0.3472900390625,0.03375244140625,0.92333984375,2.370147705078125,-2.938385009765625,-0.246734619140625,1.0,1.0,1.0,1.0,1.0,100.0,event
12:44:39.533,0.0,-0.22201875,1.2582589,0.5642842,0.0,-0.92649496,0.6032951,0.44706914,0.0,-0.32751825,-0.014264201,0.313464,0.0,-0.30699074,-0.12750226,0.6137594,0.0,-0.6739613,-0.44645023,0.46369743,317.91208,801.8315,697.0696,806.6667,933.9927,-0.3472900390625,0.03375244140625,0.92333984375,2.370147705078125,-2.938385009765625,-0.246734619140625,1.0,1.0,1.0,1.0,1.0,100.0,event
12:44:39.534,0.0,-0.22201875,1.2582589,0.5642842,0.0,-0.92649496,0.6032951,0.44706914,0.0,-0.32751825,-0.014264201,0.313464,0.0,-0.30699074,-0.12750226,0.6137594,0.0,-0.6739613,-0.44645023,0.46369743,400.1099,803.0403,707.1429,812.3077,704.3223,-0.3472900390625,0.03375244140625,0.92333984375,2.370147705078125,-2.938385009765625,-0.246734619140625,1.0,1.0,1.0,1.0,1.0,100.0,event
12:44:39.534,0.0,-0.22201875,1.2582589,0.5642842,0.0,-0.92649496,0.6032951,0.44706914,0.0,-0.32751825,-0.014264201,0.313464,0.0,-0.30699074,-0.12750226,0.6137594,0.0,-0.6739613,-0.44645023,0.46369743,884.0293,796.99634,680.54944,811.9048,787.326,-0.3472900390625,0.03375244140625,0.92333984375,2.370147705078125,-2.938385009765625,-0.246734619140625,1.0,1.0,1.0,1.0,1.0,100.0,event
12:44:39.535,0.0,-0.22201875,1.2582589,0.5642842,0.0,-0.92649496,0.6032951,0.44706914,0.0,-0.32751825,-0.014264201,0.313464,0.0,-0.30699074,-0.12750226,0.6137594,0.0,-0.6739613,-0.44645023,0.46369743,1293.8096,801.8315,693.8461,813.5165,984.35895,-0.3472900390625,0.03375244140625,0.92333984375,2.370147705078125,-2.938385009765625,-0.246734619140625,1.0,1.0,1.0,1.0,1.0,100.0,event
12:44:39.535,0.0,-0.22201875,1.2582589,0.5642842,0.0,-0.92649496,0.6032951,0.44706914,0.0,-0.32751825,-0.014264201,0.313464,0.0,-0.30699074,-0.12750226,0.6137594,0.0,-0.6739613,-0.44645023,0.46369743,1107.2528,803.0403,720.4396,809.0842,824.3956,-0.3472900390625,0.03375244140625,0.92333984375,2.370147705078125,-2.938385009765625,-0.246734619140625,1.0,1.0,1.0,1.0,1.0,100.0,event
12:44:39.536,0.0,-0.22201875,1.2582589,0.5642842,0.0,-0.92649496,0.6032951,0.44706914,0.0,-0.32751825,-0.014264201,0.313464,0.0,-0.30699074,-0.12750226,0.6137594,0.0,-0.6739613,-0.44645023,0.46369743,405.75092,799.011,689.011,789.34064,697.47253,-0.3472900390625,0.03375244140625,0.92333984375,2.370147705078125,-2.938385009765625,-0.246734619140625,1.0,1.0,1.0,1.0,1.0,100.0,event
12:44:39.585,0.0,-0.22201875,1.2582589,0.5642842,0.0,-0.92649496,0.6032951,0.44706914,0.0,-0.32751825,-0.014264201,0.313464,0.0,-0.30699074,-0.12750226,0.6137594,0.0,-0.6739613,-0.44645023,0.46369743,332.41757,801.02563,698.68134,790.54944,737.3626,-0.3458251953125,0.03619384765625,0.92498779296875,2.213134765625,-2.848663330078125,0.515899658203125,1.0,1.0,1.0,1.0,1.0,100.0,event
12:44:39.586,0.0,-0.22201875,1.2582589,0.5642842,0.0,-0.92649496,0.6032951,0.44706914,0.0,-0.32751825,-0.014264201,0.313464,0.0,-0.30699074,-0.12750226,0.6137594,0.0,-0.6739613,-0.44645023,0.46369743,1315.1648,795.78754,703.1135,807.47253,707.5458,-0.3458251953125,0.03619384765625,0.92498779296875,2.213134765625,-2.848663330078125,0.515899658203125,1.0,1.0,1.0,1.0,1.0,100.0,event
12:44:39.586,0.0,-0.22201875,1.2582589,0.5642842,0.0,-0.92649496,0.6032951,0.44706914,0.0,-0.32751825,-0.014264201,0.313464,0.0,-0.30699074,-0.12750226,0.6137594,0.0,-0.6739613,-0.44645023,0.46369743,846.9597,802.6374,719.2308,809.89014,761.9414,-0.3458251953125,0.03619384765625,0.92498779296875,2.213134765625,-2.848663330078125,0.515899658203125,1.0,1.0,1.0,1.0,1.0,100.0,event
12:44:39.587,0.0,-0.22201875,1.2582589,0.5642842,0.0,-0.92649496,0.6032951,0.44706914,0.0,-0.32751825,-0.014264201,0.313464,0.0,-0.30699074,-0.12750226,0.6137594,0.0,-0.6739613,-0.44645023,0.46369743,286.0806,798.20514,691.4286,789.34064,797.3993,-0.3458251953125,0.03619384765625,0.92498779296875,2.213134765625,-2.848663330078125,0.515899658203125,1.0,1.0,1.0,1.0,1.0,100.0,event
12:44:39.587,0.0,-0.22201875,1.2582589,0.5642842,0.0,-0.92649496,0.6032951,0.44706914,0.0,-0.32751825,-0.014264201,0.313464,0.0,-0.30699074,-0.12750226,0.6137594,0.0,-0.6739613,-0.44645023,0.46369743,448.0586,795.78754,684.9817,803.0403,726.08057,-0.3458251953125,0.03619384765625,0.92498779296875,2.213134765625,-2.848663330078125,0.515899658203125,1.0,1.0,1.0,1.0,1.0,100.0,event
12:44:39.587,0.0,-0.22201875,1.2582589,0.5642842,0.0,-0.92649496,0.6032951,0.44706914,0.0,-0.32751825,-0.014264201,0.313464,0.0,-0.30699074,-0.12750226,0.6137594,0.0,-0.6739613,-0.44645023,0.46369743,1149.1575,792.1612,689.011,806.26373,670.87915,-0.3458251953125,0.03619384765625,0.92498779296875,2.213134765625,-2.848663330078125,0.515899658203125,1.0,1.0,1.0,1.0,1.0,100.0,event
12:44:39.588,0.0,-0.22201875,1.2582589,0.5642842,0.0,-0.92649496,0.6032951,0.44706914,0.0,-0.32751825,-0.014264201,0.313464,0.0,-0.30699074,-0.12750226,0.6137594,0.0,-0.6739613,-0.44645023,0.46369743,759.5238,799.81683,698.2784,790.9524,844.5421,-0.3458251953125,0.03619384765625,0.92498779296875,2.213134765625,-2.848663330078125,0.515899658203125,1.0,1.0,1.0,1.0,1.0,100.0,event
12:44:39.588,0.0,-0.23113087,1.2582589,0.5642842,0.0,-0.93450236,0.6032951,0.44706914,0.0,-0.3483015,-0.014264201,0.313464,0.0,-0.29171014,-0.12750226,0.6137594,0.0,-0.68164605,-0.44645023,0.46369743,1280.5128,796.5934,697.47253,800.2198,892.8938,-0.3458251953125,0.03619384765625,0.92498779296875,2.213134765625,-2.848663330078125,0.515899658203125,1.0,1.0,1.0,1.0,1.0,100.0,event
