TimeStamp,Delta_TP9,Delta_AF7,Delta_AF8,Delta_TP10,Theta_TP9,Theta_AF7,Theta_AF8,Theta_TP10,Alpha_TP9,Alpha_AF7,Alpha_AF8,Alpha_TP10,Beta_TP9,Beta_AF7,Beta_AF8,Beta_TP10,Gamma_TP9,Gamma_AF7,Gamma_AF8,Gamma_TP10,RAW_TP9,RAW_AF7,RAW_AF8,RAW_TP10,AUX_RIGHT,Accelerometer_X,Accelerometer_Y,Accelerometer_Z,Gyro_X,Gyro_Y,Gyro_Z,HeadBandOn,HSI_TP9,HSI_AF7,HSI_AF8,HSI_TP10,Battery,Elements
10:22:26.209,0.99324787,0.13796394,0.0884856,0.61951363,0.30461833,-0.79479516,-0.099562325,0.69734734,0.65898585,-0.048283778,0.020063069,0.9398021,0.83308214,-0.2834964,0.0142246615,0.8657329,0.5054671,-0.5434645,-0.3559277,0.5668986,777.25275,803.8461,800.6227,785.7143,848.5714,-0.02569580078125,-0.004638671875,0.98486328125,2.100982666015625,-3.12530517578125,0.179443359375,1.0,1.0,1.0,1.0,1.0,95.0,event
10:22:26.211,0.99324787,0.13796394,0.0884856,0.61951363,0.30461833,-0.79479516,-0.099562325,0.69734734,0.65898585,-0.048283778,0.020063069,0.9398021,0.83308214,-0.2834964,0.0142246615,0.8657329,0.5054671,-0.5434645,-0.3559277,0.5668986,792.96704,806.26373,798.60803,786.52014,708.7546,-0.02569580078125,-0.004638671875,0.98486328125,2.100982666015625,-3.12530517578125,0.179443359375,1.0,1.0,1.0,1.0,1.0,95.0,event
10:22:26.211,0.99324787,0.13796394,0.0884856,0.61951363,0.30461833,-0.79479516,-0.099562325,0.69734734,0.65898585,-0.048283778,0.020063069,0.9398021,0.83308214,-0.2834964,0.0142246615,0.8657329,0.5054671,-0.5434645,-0.3559277,0.5668986,804.2491,805.8608,791.75824,811.0989,774.43225,-0.02569580078125,-0.004638671875,0.98486328125,2.100982666015625,-3.12530517578125,0.179443359375,1.0,1.0,1.0,1.0,1.0,95.0,event
10:22:26.212,0.99324787,0.13796394,0.0884856,0.61951363,0.30461833,-0.79479516,-0.099562325,0.69734734,0.65898585,-0.048283778,0.020063069,0.9398021,0.83308214,-0.2834964,0.0142246615,0.8657329,0.5054671,-0.5434645,-0.3559277,0.5668986,780.07324,803.0403,796.1905,813.1135,926.337,-0.02569580078125,-0.004638671875,0.98486328125,2.100982666015625,-3.12530517578125,0.179443359375,1.0,1.0,1.0,1.0,1.0,95.0,event
10:22:26.213,0.99324787,0.13796394,0.0884856,0.61951363,0.30461833,-0.79479516,-0.099562325,0.69734734,0.65898585,-0.048283778,0.020063069,0.9398021,0.83308214,-0.2834964,0.0142246615,0.8657329,0.5054671,-0.5434645,-0.3559277,0.5668986,762.3443,803.8461,802.6374,763.5531,915.8608,-0.02569580078125,-0.004638671875,0.98486328125,2.100982666015625,-3.12530517578125,0.179443359375,1.0,1.0,1.0,1.0,1.0,95.0,event
10:22:26.213,0.99324787,0.13796394,0.0884856,0.61951363,0.30461833,-0.79479516,-0.099562325,0.69734734,0.65898585,-0.048283778,0.020063069,0.9398021,0.83308214,-0.2834964,0.0142246615,0.8657329,0.5054671,-0.5434645,-0.3559277,0.5668986,774.0293,805.4579,801.8315,752.27106,740.58606,-0.02569580078125,-0.004638671875,0.98486328125,2.100982666015625,-3.12530517578125,0.179443359375,1.0,1.0,1.0,1.0,1.0,95.0,event
10:22:26.214,0.99324787,0.13796394,0.0884856,0.61951363,0.30461833,-0.79479516,-0.099562325,0.69734734,0.65898585,-0.048283778,0.020063069,0.9398021,0.83308214,-0.2834964,0.0142246615,0.8657329,0.5054671,-0.5434645,-0.3559277,0.5668986,779.67035,802.6374,802.23444,779.67035,706.7399,-0.02569580078125,-0.004638671875,0.98486328125,2.100982666015625,-3.12530517578125,0.179443359375,1.0,1.0,1.0,1.0,1.0,95.0,event
10:22:26.215,0.99324787,0.13796394,0.0884856,0.61951363,0.30461833,-0.79479516,-0.099562325,0.69734734,0.65898585,-0.048283778,0.020063069,0.9398021,0.83308214,-0.2834964,0.0142246615,0.8657329,0.5054671,-0.5434645,-0.3559277,0.5668986,751.06226,798.20514,804.2491,802.6374,967.4359,-0.02569580078125,-0.004638671875,0.98486328125,2.100982666015625,-3.12530517578125,0.179443359375,1.0,1.0,1.0,1.0,1.0,95.0,event
10:22:26.216,0.99324787,0.13796394,0.0884856,0.61951363,0.30461833,-0.79479516,-0.099562325,0.69734734,0.65898585,-0.048283778,0.020063069,0.9398021,0.83308214,-0.2834964,0.0142246615,0.8657329,0.5054671,-0.5434645,-0.3559277,0.5668986,758.315,808.2784,806.26373,818.7546,1019.81683,-0.02569580078125,-0.004638671875,0.98486328125,2.100982666015625,-3.12530517578125,0.179443359375,1.0,1.0,1.0,1.0,1.0,95.0,event
10:22:26.216,0.99324787,0.13796394,0.0884856,0.61951363,0.30461833,-0.79479516,-0.099562325,0.69734734,0.65898585,-0.048283778,0.020063069,0.9398021,0.83308214,-0.2834964,0.0142246615,0.8657329,0.5054671,-0.5434645,-0.3559277,0.5668986,772.01465,809.89014,803.8461,803.8461,782.0879,-0.02569580078125,-0.004638671875,0.98486328125,2.100982666015625,-3.12530517578125,0.179443359375,1.0,1.0,1.0,1.0,1.0,95.0,event
10:22:26.242,0.99324787,0.13796394,0.0884856,0.61951363,0.30461833,-0.79479516,-0.099562325,0.69734734,0.65898585,-0.048283778,0.020063069,0.9398021,0.83308214,-0.2834964,0.0142246615,0.8657329,0.5054671,-0.5434645,-0.3559277,0.5668986,761.53845,805.05493,801.02563,793.36993,754.2857,-0.02923583984375,-0.00933837890625,0.98797607421875,1.80938720703125,-2.385101318359375,-0.73272705078125,1.0,1.0,1.0,1.0,1.0,95.0,event
10:22:26.243,0.99324787,0.13796394,0.0884856,0.61951363,0.30461833,-0.79479516,-0.099562325,0.69734734,0.65898585,-0.048283778,0.020063069,0.9398021,0.83308214,-0.2834964,0.0142246615,0.8657329,0.5054671,-0.5434645,-0.3559277,0.5668986,764.7619,809.4872,806.6667,811.50183,774.0293,-0.02923583984375,-0.00933837890625,0.98797607421875,1.80938720703125,-2.385101318359375,-0.73272705078125,1.0,1.0,1.0,1.0,1.0,95.0,event
10:22:26.245,0.99324787,0.13796394,0.0884856,0.61951363,0.30461833,-0.79479516,-0.099562325,0.69734734,0.65898585,-0.048283778,0.020063069,0.9398021,0.83308214,-0.2834964,0.0142246615,0.8657329,0.5054671,-0.5434645,-0.3559277,0.5668986,771.2088,811.50183,809.89014,806.6667,726.08057,-0.02923583984375,-0.00933837890625,0.98797607421875,1.80938720703125,-2.385101318359375,-0.73272705078125,1.0,1.0,1.0,1.0,1.0,95.0,event
10:22:26.245,0.99324787,0.13796394,0.0884856,0.61951363,0.30461833,-0.79479516,-0.099562325,0.69734734,0.65898585,-0.048283778,0.020063069,0.9398021,0.83308214,-0.2834964,0.0142246615,0.8657329,0.5054671,-0.5434645,-0.3559277,0.5668986,781.28204,805.4579,808.68134,812.3077,725.2747,-0.02923583984375,-0.00933837890625,0.98797607421875,1.80938720703125,-2.385101318359375,-0.73272705078125,1.0,1.0,1.0,1.0,1.0,95.0,event
10:22:26.246,0.99324787,0.13796394,0.0884856,0.61951363,0.30461833,-0.79479516,-0.099562325,0.69734734,0.65898585,-0.048283778,0.020063069,0.9398021,0.83308214,-0.2834964,0.0142246615,0.8657329,0.5054671,-0.5434645,-0.3559277,0.5668986,776.4469,801.02563,808.68134,810.293,807.8755,-0.02923583984375,-0.00933837890625,0.98797607421875,1.80938720703125,-2.385101318359375,-0.73272705078125,1.0,1.0,1.0,1.0,1.0,95.0,event
10:22:26.249,0.99324787,0.13796394,0.0884856,0.61951363,0.30461833,-0.79479516,-0.099562325,0.69734734,0.65898585,-0.048283778,0.020063069,0.9398021,0.83308214,-0.2834964,0.0142246615,0.8657329,0.5054671,-0.5434645,-0.3559277,0.5668986,787.72894,808.68134,807.8755,788.93774,855.0183,-0.02923583984375,-0.00933837890625,0.98797607421875,1.80938720703125,-2.385101318359375,-0.73272705078125,1.0,1.0,1.0,1.0,1.0,95.0,event
10:22:26.250,0.99324787,0.13796394,0.0884856,0.61951363,0.30461833,-0.79479516,-0.099562325,0.69734734,0.65898585,-0.048283778,0.020063069,0.9398021,0.83308214,-0.2834964,0.0142246615,0.8657329,0.5054671,-0.5434645,-0.3559277,0.5668986,811.9048,816.337,807.0696,811.0989,806.26373,-0.02923583984375,-0.00933837890625,0.98797607421875,1.80938720703125,-2.385101318359375,-0.73272705078125,1.0,1.0,1.0,1.0,1.0,95.0,event
10:22:26.251,0.99324787,0.13796394,0.0884856,0.61951363,0.30461833,-0.79479516,-0.099562325,0.69734734,0.65898585,-0.048283778,0.020063069,0.9398021,0.83308214,-0.2834964,0.0142246615,0.8657329,0.5054671,-0.5434645,-0.3559277,0.5668986,795.38464,813.5165,809.0842,832.8571,820.3663,-0.02923583984375,-0.00933837890625,0.98797607421875,1.80938720703125,-2.385101318359375,-0.73272705078125,1.0,1.0,1.0,1.0,1.0,95.0,event
10:22:26.252,0.99324787,0.13796394,0.0884856,0.61951363,0.30461833,-0.79479516,-0.099562325,0.69734734,0.65898585,-0.048283778,0.020063069,0.9398021,0.83308214,-0.2834964,0.0142246615,0.8657329,0.5054671,-0.5434645,-0.3559277,0.5668986,789.7436,803.44324,808.68134,823.9927,954.1392,-0.02923583984375,-0.00933837890625,0.98797607421875,1.80938720703125,-2.385101318359375,-0.73272705078125,1.0,1.0,1.0,1.0,1.0,95.0,event
10:22:26.254,0.99324787,0.13796394,0.0884856,0.61951363,0.30461833,-0.79479516,-0.099562325,0.69734734,0.65898585,-0.048283778,0.020063069,0.9398021,0.83308214,-0.2834964,0.0142246615,0.8657329,0.5054671,-0.5434645,-0.3559277,0.5668986,782.8938,803.44324,805.8608,821.1722,1024.249,-0.02923583984375,-0.00933837890625,0.98797607421875,1.80938720703125,-2.385101318359375,-0.73272705078125,1.0,1.0,1.0,1.0,1.0,95.0,event
10:22:26.255,0.99324787,0.13796394,0.0884856,0.61951363,0.30461833,-0.79479516,-0.099562325,0.69734734,0.65898585,-0.048283778,0.020063069,0.9398021,0.83308214,-0.2834964,0.0142246615,0.8657329,0.5054671,-0.5434645,-0.3559277,0.5668986,779.2674,808.2784,803.44324,804.65204,773.22345,-0.02923583984375,-0.00933837890625,0.98797607421875,1.80938720703125,-2.385101318359375,-0.73272705078125,1.0,1.0,1.0,1.0,1.0,95.0,event
10:22:26.256,0.99324787,0.13796394,0.0884856,0.61951363,0.30461833,-0.79479516,-0.099562325,0.69734734,0.65898585,-0.048283778,0.020063069,0.9398021,0.83308214,-0.2834964,0.0142246615,0.8657329,0.5054671,-0.5434645,-0.3559277,0.5668986,789.34064,804.65204,801.8315,785.7143,684.57874,-0.02923583984375,-0.00933837890625,0.98797607421875,1.80938720703125,-2.385101318359375,-0.73272705078125,1.0,1.0,1.0,1.0,1.0,95.0,event
10:22:26.311,0.99324787,0.13796394,0.0884856,0.61951363,0.30461833,-0.79479516,-0.099562325,0.69734734,0.65898585,-0.048283778,0.020063069,0.9398021,0.83308214,-0.2834964,0.0142246615,0.8657329,0.5054671,-0.5434645,-0.3559277,0.5668986,794.9817,805.05493,793.36993,801.4286,866.7033,-0.02874755859375,-0.0103759765625,0.9849853515625,2.16827392578125,-3.207550048828125,-0.3887939453125,1.0,1.0,1.0,1.0,1.0,95.0,event
10:22:26.312,0.99324787,0.13796394,0.0884856,0.61951363,0.30461833,-0.79479516,-0.099562325,0.69734734,0.65898585,-0.048283778,0.020063069,0.9398021,0.83308214,-0.2834964,0.0142246615,0.8657329,0.5054671,-0.5434645,-0.3559277,0.5668986,796.1905,806.26373,793.7729,830.4396,884.0293,-0.02874755859375,-0.0103759765625,0.9849853515625,2.16827392578125,-3.207550048828125,-0.3887939453125,1.0,1.0,1.0,1.0,1.0,95.0,event
10:22:26.313,0.96900195,0.1984777,0.12240894,0.60163563,0.2994011,-0.7778324,-0.11593533,0.7298528,0.6663893,-0.048283778,0.017168988,0.92078996,0.8239621,-0.27386987,0.012810361,0.83733726,0.5003443,-0.5333448,-0.3681677,0.56542057,807.8755,803.8461,799.81683,788.5348,710.3663,-0.02874755859375,-0.0103759765625,0.9849853515625,2.16827392578125,-3.207550048828125,-0.3887939453125,1.0,1.0,1.0,1.0,1.0,95.0,event
10:22:26.313,0.99324787,0.13796394,0.0884856,0.61951363,0.30461833,-0.79479516,-0.099562325,0.69734734,0.65898585,-0.048283778,0.020063069,0.9398021,0.83308214,-0.2834964,0.0142246615,0.8657329,0.5054671,-0.5434645,-0.3559277,0.5668986,804.2491,804.65204,798.20514,821.5751,756.7033,-0.02874755859375,-0.0103759765625,0.9849853515625,2.16827392578125,-3.207550048828125,-0.3887939453125,1.0,1.0,1.0,1.0,1.0,95.0,event
10:22:26.318,0.96900195,0.1984777,0.12240894,0.60163563,0.2994011,-0.7778324,-0.11593533,0.7298528,0.6663893,-0.048283778,0.017168988,0.92078996,0.8239621,-0.27386987,0.012810361,0.83733726,0.5003443,-0.5333448,-0.3681677,0.56542057,794.17584,811.0989,799.41394,788.5348,773.22345,-0.02874755859375,-0.0103759765625,0.9849853515625,2.16827392578125,-3.207550048828125,-0.3887939453125,1.0,1.0,1.0,1.0,1.0,95.0,event
10:22:26.319,0.96900195,0.1984777,0.12240894,0.60163563,0.2994011,-0.7778324,-0.11593533,0.7298528,0.6663893,-0.048283778,0.017168988,0.92078996,0.8239621,-0.27386987,0.012810361,0.83733726,0.5003443,-0.5333448,-0.3681677,0.56542057,789.34064,813.5165,799.41394,809.89014,846.1539,-0.02874755859375,-0.0103759765625,0.9849853515625,2.16827392578125,-3.207550048828125,-0.3887939453125,1.0,1.0,1.0,1.0,1.0,95.0,event
10:22:26.319,0.96900195,0.1984777,0.12240894,0.60163563,0.2994011,-0.7778324,-0.11593533,0.7298528,0.6663893,-0.048283778,0.017168988,0.92078996,0.8239621,-0.27386987,0.012810361,0.83733726,0.5003443,-0.5333448,-0.3681677,0.56542057,799.81683,809.4872,800.2198,826.0073,855.42126,-0.02874755859375,-0.0103759765625,0.9849853515625,2.16827392578125,-3.207550048828125,-0.3887939453125,1.0,1.0,1.0,1.0,1.0,95.0,event
10:22:26.320,0.96900195,0.1984777,0.12240894,0.60163563,0.2994011,-0.7778324,-0.11593533,0.7298528,0.6663893,-0.048283778,0.017168988,0.92078996,0.8239621,-0.27386987,0.012810361,0.83733726,0.5003443,-0.5333448,-0.3681677,0.56542057,813.1135,807.8755,801.4286,821.5751,844.1392,-0.02874755859375,-0.0103759765625,0.9849853515625,2.16827392578125,-3.207550048828125,-0.3887939453125,1.0,1.0,1.0,1.0,1.0,95.0,event
10:22:26.320,0.96900195,0.1984777,0.12240894,0.60163563,0.2994011,-0.7778324,-0.11593533,0.7298528,0.6663893,-0.048283778,0.017168988,0.92078996,0.8239621,-0.27386987,0.012810361,0.83733726,0.5003443,-0.5333448,-0.3681677,0.56542057,810.293,808.68134,805.4579,790.14655,958.97437,-0.02874755859375,-0.0103759765625,0.9849853515625,2.16827392578125,-3.207550048828125,-0.3887939453125,1.0,1.0,1.0,1.0,1.0,95.0,event
10:22:26.321,0.96900195,0.1984777,0.12240894,0.60163563,0.2994011,-0.7778324,-0.11593533,0.7298528,0.6663893,-0.048283778,0.017168988,0.92078996,0.8239621,-0.27386987,0.012810361,0.83733726,0.5003443,-0.5333448,-0.3681677,0.56542057,799.81683,817.1429,803.44324,781.685,892.8938,-0.02874755859375,-0.0103759765625,0.9849853515625,2.16827392578125,-3.207550048828125,-0.3887939453125,1.0,1.0,1.0,1.0,1.0,95.0,event
10:22:26.321,0.96900195,0.1984777,0.12240894,0.60163563,0.2994011,-0.7778324,-0.11593533,0.7298528,0.6663893,-0.048283778,0.017168988,0.92078996,0.8239621,-0.27386987,0.012810361,0.83733726,0.5003443,-0.5333448,-0.3681677,0.56542057,785.7143,816.7399,801.4286,799.011,703.91943,-0.02874755859375,-0.0103759765625,0.9849853515625,2.16827392578125,-3.207550048828125,-0.3887939453125,1.0,1.0,1.0,1.0,1.0,95.0,event
10:22:26.322,0.96900195,0.1984777,0.12240894,0.60163563,0.2994011,-0.7778324,-0.11593533,0.7298528,0.6663893,-0.048283778,0.017168988,0.92078996,0.8239621,-0.27386987,0.012810361,0.83733726,0.5003443,-0.5333448,-0.3681677,0.56542057,778.46155,810.696,800.6227,826.0073,823.5897,-0.02874755859375,-0.0103759765625,0.9849853515625,2.16827392578125,-3.207550048828125,-0.3887939453125,1.0,1.0,1.0,1.0,1.0,95.0,event
10:22:26.347,0.96900195,0.1984777,0.12240894,0.60163563,0.2994011,-0.7778324,-0.11593533,0.7298528,0.6663893,-0.048283778,0.017168988,0.92078996,0.8239621,-0.27386987,0.012810361,0.83733726,0.5003443,-0.5333448,-0.3681677,0.56542057,790.14655,809.0842,799.41394,833.2601,819.15753,-0.02874755859375,-0.0103759765625,0.9849853515625,2.16827392578125,-3.207550048828125,-0.3887939453125,1.0,1.0,1.0,1.0,1.0,95.0,event
10:22:26.348,0.96900195,0.1984777,0.12240894,0.60163563,0.2994011,-0.7778324,-0.11593533,0.7298528,0.6663893,-0.048283778,0.017168988,0.92078996,0.8239621,-0.27386987,0.012810361,0.83733726,0.5003443,-0.5333448,-0.3681677,0.56542057,787.326,808.68134,799.011,799.81683,737.76556,-0.02874755859375,-0.0103759765625,0.9849853515625,2.16827392578125,-3.207550048828125,-0.3887939453125,1.0,1.0,1.0,1.0,1.0,95.0,event
10:22:26.349,0.96900195,0.1984777,0.12240894,0.60163563,0.2994011,-0.7778324,-0.11593533,0.7298528,0.6663893,-0.048283778,0.017168988,0.92078996,0.8239621,-0.27386987,0.012810361,0.83733726,0.5003443,-0.5333448,-0.3681677,0.56542057,776.4469,809.0842,797.3993,780.07324,716.0073,-0.02874755859375,-0.0103759765625,0.9849853515625,2.16827392578125,-3.207550048828125,-0.3887939453125,1.0,1.0,1.0,1.0,1.0,95.0,event
10:22:26.350,0.96900195,0.1984777,0.12240894,0.60163563,0.2994011,-0.7778324,-0.11593533,0.7298528,0.6663893,-0.048283778,0.017168988,0.92078996,0.8239621,-0.27386987,0.012810361,0.83733726,0.5003443,-0.5333448,-0.3681677,0.56542057,777.25275,810.293,798.20514,805.05493,810.293,-0.02874755859375,-0.0103759765625,0.9849853515625,2.16827392578125,-3.207550048828125,-0.3887939453125,1.0,1.0,1.0,1.0,1.0,95.0,event
10:22:26.350,0.96900195,0.1984777,0.12240894,0.60163563,0.2994011,-0.7778324,-0.11593533,0.7298528,0.6663893,-0.048283778,0.017168988,0.92078996,0.8239621,-0.27386987,0.012810361,0.83733726,0.5003443,-0.5333448,-0.3681677,0.56542057,785.7143,808.2784,800.6227,831.6484,867.1062,-0.02874755859375,-0.0103759765625,0.9849853515625,2.16827392578125,-3.207550048828125,-0.3887939453125,1.0,1.0,1.0,1.0,1.0,95.0,event
10:22:26.351,0.96900195,0.1984777,0.12240894,0.60163563,0.2994011,-0.7778324,-0.11593533,0.7298528,0.6663893,-0.048283778,0.017168988,0.92078996,0.8239621,-0.27386987,0.012810361,0.83733726,0.5003443,-0.5333448,-0.3681677,0.56542057,806.6667,808.2784,802.23444,825.6044,844.1392,-0.02874755859375,-0.0103759765625,0.9849853515625,2.16827392578125,-3.207550048828125,-0.3887939453125,1.0,1.0,1.0,1.0,1.0,95.0,event
10:22:26.351,0.96900195,0.1984777,0.12240894,0.60163563,0.2994011,-0.7778324,-0.11593533,0.7298528,0.6663893,-0.048283778,0.017168988,0.92078996,0.8239621,-0.27386987,0.012810361,0.83733726,0.5003443,-0.5333448,-0.3681677,0.56542057,799.41394,809.4872,799.41394,795.78754,792.96704,-0.02874755859375,-0.0103759765625,0.9849853515625,2.16827392578125,-3.207550048828125,-0.3887939453125,1.0,1.0,1.0,1.0,1.0,95.0,event
10:22:26.352,0.96900195,0.1984777,0.12240894,0.60163563,0.2994011,-0.7778324,-0.11593533,0.7298528,0.6663893,-0.048283778,0.017168988,0.92078996,0.8239621,-0.27386987,0.012810361,0.83733726,0.5003443,-0.5333448,-0.3681677,0.56542057,790.54944,810.293,799.41394,803.8461,962.1978,-0.02874755859375,-0.0103759765625,0.9849853515625,2.16827392578125,-3.207550048828125,-0.3887939453125,1.0,1.0,1.0,1.0,1.0,95.0,event
10:22:26.352,0.96900195,0.1984777,0.12240894,0.60163563,0.2994011,-0.7778324,-0.11593533,0.7298528,0.6663893,-0.048283778,0.017168988,0.92078996,0.8239621,-0.27386987,0.012810361,0.83733726,0.5003443,-0.5333448,-0.3681677,0.56542057,779.67035,801.4286,794.57874,784.10254,807.8755,-0.02874755859375,-0.0103759765625,0.9849853515625,2.16827392578125,-3.207550048828125,-0.3887939453125,1.0,1.0,1.0,1.0,1.0,95.0,event
10:22:26.353,0.96900195,0.1984777,0.12240894,0.60163563,0.2994011,-0.7778324,-0.11593533,0.7298528,0.6663893,-0.048283778,0.017168988,0.92078996,0.8239621,-0.27386987,0.012810361,0.83733726,0.5003443,-0.5333448,-0.3681677,0.56542057,801.8315,820.7692,805.4579,823.5897,786.52014,-0.02874755859375,-0.0103759765625,0.9849853515625,2.16827392578125,-3.207550048828125,-0.3887939453125,1.0,1.0,1.0,1.0,1.0,95.0,event
10:22:26.353,0.96900195,0.1984777,0.12240894,0.60163563,0.2994011,-0.7778324,-0.11593533,0.7298528,0.6663893,-0.048283778,0.017168988,0.92078996,0.8239621,-0.27386987,0.012810361,0.83733726,0.5003443,-0.5333448,-0.3681677,0.56542057,796.5934,810.293,807.47253,836.4835,701.0989,-0.02874755859375,-0.0103759765625,0.9849853515625,2.16827392578125,-3.207550048828125,-0.3887939453125,1.0,1.0,1.0,1.0,1.0,95.0,event
10:22:26.354,0.96900195,0.1984777,0.12240894,0.60163563,0.2994011,-0.7778324,-0.11593533,0.7298528,0.6663893,-0.048283778,0.017168988,0.92078996,0.8239621,-0.27386987,0.012810361,0.83733726,0.5003443,-0.5333448,-0.3681677,0.56542057,782.0879,810.293,806.6667,812.3077,801.8315,-0.02874755859375,-0.0103759765625,0.9849853515625,2.16827392578125,-3.207550048828125,-0.3887939453125,1.0,1.0,1.0,1.0,1.0,95.0,event
10:22:26.448,0.96900195,0.1984777,0.12240894,0.60163563,0.2994011,-0.7778324,-0.11593533,0.7298528,0.6663893,-0.048283778,0.017168988,0.92078996,0.8239621,-0.27386987,0.012810361,0.83733726,0.5003443,-0.5333448,-0.3681677,0.56542057,780.4762,813.1135,805.8608,803.8461,750.2564,-0.02935791015625,-0.001708984375,0.9908447265625,2.87109375,-3.84307861328125,0.396270751953125,1.0,1.0,1.0,1.0,1.0,95.0,event
10:22:26.449,0.96900195,0.1984777,0.12240894,0.60163563,0.2994011,-0.7778324,-0.11593533,0.7298528,0.6663893,-0.048283778,0.017168988,0.92078996,0.8239621,-0.27386987,0.012810361,0.83733726,0.5003443,-0.5333448,-0.3681677,0.56542057,769.19415,811.0989,807.0696,820.3663,671.685,-0.02935791015625,-0.001708984375,0.9908447265625,2.87109375,-3.84307861328125,0.396270751953125,1.0,1.0,1.0,1.0,1.0,95.0,event
10:22:26.450,0.96900195,0.1984777,0.12240894,0.60163563,0.2994011,-0.7778324,-0.11593533,0.7298528,0.6663893,-0.048283778,0.017168988,0.92078996,0.8239621,-0.27386987,0.012810361,0.83733726,0.5003443,-0.5333448,-0.3681677,0.56542057,775.2381,807.8755,803.0403,811.50183,685.78754,-0.02935791015625,-0.001708984375,0.9908447265625,2.87109375,-3.84307861328125,0.396270751953125,1.0,1.0,1.0,1.0,1.0,95.0,event
10:22:26.450,0.96900195,0.1984777,0.12240894,0.60163563,0.2994011,-0.7778324,-0.11593533,0.7298528,0.6663893,-0.048283778,0.017168988,0.92078996,0.8239621,-0.27386987,0.012810361,0.83733726,0.5003443,-0.5333448,-0.3681677,0.56542057,792.96704,805.8608,805.4579,818.7546,753.0769,-0.02935791015625,-0.001708984375,0.9908447265625,2.87109375,-3.84307861328125,0.396270751953125,1.0,1.0,1.0,1.0,1.0,95.0,event
10:22:26.451,0.96900195,0.1984777,0.12240894,0.60163563,0.2994011,-0.7778324,-0.11593533,0.7298528,0.6663893,-0.048283778,0.017168988,0.92078996,0.8239621,-0.27386987,0.012810361,0.83733726,0.5003443,-0.5333448,-0.3681677,0.56542057,786.1172,806.26373,809.89014,806.26373,736.1539,-0.02935791015625,-0.001708984375,0.9908447265625,2.87109375,-3.84307861328125,0.396270751953125,1.0,1.0,1.0,1.0,1.0,95.0,event
10:22:26.452,0.9676381,0.26589698,0.15111013,0.6045737,0.30813393,-0.7464433,-0.13531059,0.7596568,0.66613793,-0.04760916,0.040757433,0.92078996,0.80410695,-0.25623733,0.00941005,0.8067464,0.47474208,-0.52840406,-0.38524747,0.56851137,775.2381,804.65204,803.8461,783.2967,733.73627,-0.02935791015625,-0.001708984375,0.9908447265625,2.87109375,-3.84307861328125,0.396270751953125,1.0,1.0,1.0,1.0,1.0,95.0,event
10:22:26.456,0.9676381,0.26589698,0.15111013,0.6045737,0.30813393,-0.7464433,-0.13531059,0.7596568,0.66613793,-0.04760916,0.040757433,0.92078996,0.80410695,-0.25623733,0.00941005,0.8067464,0.47474208,-0.52840406,-0.38524747,0.56851137,793.7729,805.4579,799.81683,794.57874,799.81683,-0.02935791015625,-0.001708984375,0.9908447265625,2.87109375,-3.84307861328125,0.396270751953125,1.0,1.0,1.0,1.0,1.0,95.0,event
10:22:26.457,0.9676381,0.26589698,0.15111013,0.6045737,0.30813393,-0.7464433,-0.13531059,0.7596568,0.66613793,-0.04760916,0.040757433,0.92078996,0.80410695,-0.25623733,0.00941005,0.8067464,0.47474208,-0.52840406,-0.38524747,0.56851137,794.57874,801.02563,805.4579,799.81683,1064.9451,-0.02935791015625,-0.001708984375,0.9908447265625,2.87109375,-3.84307861328125,0.396270751953125,1.0,1.0,1.0,1.0,1.0,95.0,event
10:22:26.458,0.9676381,0.26589698,0.15111013,0.6045737,0.30813393,-0.7464433,-0.13531059,0.7596568,0.66613793,-0.04760916,0.040757433,0.92078996,0.80410695,-0.25623733,0.00941005,0.8067464,0.47474208,-0.52840406,-0.38524747,0.56851137,778.0586,807.0696,809.0842,810.696,1075.4213,-0.02935791015625,-0.001708984375,0.9908447265625,2.87109375,-3.84307861328125,0.396270751953125,1.0,1.0,1.0,1.0,1.0,95.0,event
10:22:26.459,0.9676381,0.26589698,0.15111013,0.6045737,0.30813393,-0.7464433,-0.13531059,0.7596568,0.66613793,-0.04760916,0.040757433,0.92078996,0.80410695,-0.25623733,0.00941005,0.8067464,0.47474208,-0.52840406,-0.38524747,0.56851137,806.26373,808.2784,805.05493,816.337,683.7729,-0.02935791015625,-0.001708984375,0.9908447265625,2.87109375,-3.84307861328125,0.396270751953125,1.0,1.0,1.0,1.0,1.0,95.0,event
10:22:26.459,0.9676381,0.26589698,0.15111013,0.6045737,0.30813393,-0.7464433,-0.13531059,0.7596568,0.66613793,-0.04760916,0.040757433,0.92078996,0.80410695,-0.25623733,0.00941005,0.8067464,0.47474208,-0.52840406,-0.38524747,0.56851137,814.3223,801.8315,799.41394,799.41394,652.3443,-0.02935791015625,-0.001708984375,0.9908447265625,2.87109375,-3.84307861328125,0.396270751953125,1.0,1.0,1.0,1.0,1.0,95.0,event
10:22:26.460,0.9676381,0.26589698,0.15111013,0.6045737,0.30813393,-0.7464433,-0.13531059,0.7596568,0.66613793,-0.04760916,0.040757433,0.92078996,0.80410695,-0.25623733,0.00941005,0.8067464,0.47474208,-0.52840406,-0.38524747,0.56851137,793.7729,808.2784,798.60803,792.5641,791.3553,-0.02935791015625,-0.001708984375,0.9908447265625,2.87109375,-3.84307861328125,0.396270751953125,1.0,1.0,1.0,1.0,1.0,95.0,event
10:22:26.487,0.9676381,0.26589698,0.15111013,0.6045737,0.30813393,-0.7464433,-0.13531059,0.7596568,0.66613793,-0.04760916,0.040757433,0.92078996,0.80410695,-0.25623733,0.00941005,0.8067464,0.47474208,-0.52840406,-0.38524747,0.56851137,792.5641,809.89014,803.44324,794.9817,792.96704,-0.02587890625,-0.0050048828125,0.9876708984375,2.160797119140625,-4.32159423828125,0.366363525390625,1.0,1.0,1.0,1.0,1.0,95.0,event
10:22:26.488,0.9676381,0.26589698,0.15111013,0.6045737,0.30813393,-0.7464433,-0.13531059,0.7596568,0.66613793,-0.04760916,0.040757433,0.92078996,0.80410695,-0.25623733,0.00941005,0.8067464,0.47474208,-0.52840406,-0.38524747,0.56851137,788.93774,804.2491,796.99634,799.81683,715.2015,-0.02587890625,-0.0050048828125,0.9876708984375,2.160797119140625,-4.32159423828125,0.366363525390625,1.0,1.0,1.0,1.0,1.0,95.0,event
10:22:26.489,0.9676381,0.26589698,0.15111013,0.6045737,0.30813393,-0.7464433,-0.13531059,0.7596568,0.66613793,-0.04760916,0.040757433,0.92078996,0.80410695,-0.25623733,0.00941005,0.8067464,0.47474208,-0.52840406,-0.38524747,0.56851137,777.6557,802.23444,794.17584,786.9231,796.5934,-0.02587890625,-0.0050048828125,0.9876708984375,2.160797119140625,-4.32159423828125,0.366363525390625,1.0,1.0,1.0,1.0,1.0,95.0,event
10:22:26.491,0.9676381,0.26589698,0.15111013,0.6045737,0.30813393,-0.7464433,-0.13531059,0.7596568,0.66613793,-0.04760916,0.040757433,0.92078996,0.80410695,-0.25623733,0.00941005,0.8067464,0.47474208,-0.52840406,-0.38524747,0.56851137,771.2088,806.6667,798.60803,754.68866,851.39197,-0.02587890625,-0.0050048828125,0.9876708984375,2.160797119140625,-4.32159423828125,0.366363525390625,1.0,1.0,1.0,1.0,1.0,95.0,event
10:22:26.492,0.9676381,0.26589698,0.15111013,0.6045737,0.30813393,-0.7464433,-0.13531059,0.7596568,0.66613793,-0.04760916,0.040757433,0.92078996,0.80410695,-0.25623733,0.00941005,0.8067464,0.47474208,-0.52840406,-0.38524747,0.56851137,795.78754,809.0842,796.99634,756.7033,752.27106,-0.02587890625,-0.0050048828125,0.9876708984375,2.160797119140625,-4.32159423828125,0.366363525390625,1.0,1.0,1.0,1.0,1.0,95.0,event
10:22:26.493,0.9676381,0.26589698,0.15111013,0.6045737,0.30813393,-0.7464433,-0.13531059,0.7596568,0.66613793,-0.04760916,0.040757433,0.92078996,0.80410695,-0.25623733,0.00941005,0.8067464,0.47474208,-0.52840406,-0.38524747,0.56851137,800.2198,807.0696,797.8022,776.4469,805.4579,-0.02587890625,-0.0050048828125,0.9876708984375,2.160797119140625,-4.32159423828125,0.366363525390625,1.0,1.0,1.0,1.0,1.0,95.0,event
10:22:26.495,0.9676381,0.26589698,0.15111013,0.6045737,0.30813393,-0.7464433,-0.13531059,0.7596568,0.66613793,-0.04760916,0.040757433,0.92078996,0.80410695,-0.25623733,0.00941005,0.8067464,0.47474208,-0.52840406,-0.38524747,0.56851137,770.0,803.8461,797.3993,789.7436,982.3443,-0.02587890625,-0.0050048828125,0.9876708984375,2.160797119140625,-4.32159423828125,0.366363525390625,1.0,1.0,1.0,1.0,1.0,95.0,event
10:22:26.496,0.9676381,0.26589698,0.15111013,0.6045737,0.30813393,-0.7464433,-0.13531059,0.7596568,0.66613793,-0.04760916,0.040757433,0.92078996,0.80410695,-0.25623733,0.00941005,0.8067464,0.47474208,-0.52840406,-0.38524747,0.56851137,771.2088,804.65204,796.99634,786.1172,1014.9817,-0.02587890625,-0.0050048828125,0.9876708984375,2.160797119140625,-4.32159423828125,0.366363525390625,1.0,1.0,1.0,1.0,1.0,95.0,event
10:22:26.497,0.9676381,0.26589698,0.15111013,0.6045737,0.30813393,-0.7464433,-0.13531059,0.7596568,0.66613793,-0.04760916,0.040757433,0.92078996,0.80410695,-0.25623733,0.00941005,0.8067464,0.47474208,-0.52840406,-0.38524747,0.56851137,773.6264,809.89014,799.41394,770.40295,697.0696,-0.02587890625,-0.0050048828125,0.9876708984375,2.160797119140625,-4.32159423828125,0.366363525390625,1.0,1.0,1.0,1.0,1.0,95.0,event
10:22:26.498,0.9676381,0.26589698,0.15111013,0.6045737,0.30813393,-0.7464433,-0.13531059,0.7596568,0.66613793,-0.04760916,0.040757433,0.92078996,0.80410695,-0.25623733,0.00941005,0.8067464,0.47474208,-0.52840406,-0.38524747,0.56851137,768.3883,806.26373,798.60803,787.72894,630.989,-0.02587890625,-0.0050048828125,0.9876708984375,2.160797119140625,-4.32159423828125,0.366363525390625,1.0,1.0,1.0,1.0,1.0,95.0,event
10:22:26.499,0.9676381,0.26589698,0.15111013,0.6045737,0.30813393,-0.7464433,-0.13531059,0.7596568,0.66613793,-0.04760916,0.040757433,0.92078996,0.80410695,-0.25623733,0.00941005,0.8067464,0.47474208,-0.52840406,-0.38524747,0.56851137,795.38464,813.1135,803.0403,811.50183,793.7729,-0.02587890625,-0.0050048828125,0.9876708984375,2.160797119140625,-4.32159423828125,0.366363525390625,1.0,1.0,1.0,1.0,1.0,95.0,event
10:22:26.499,0.9676381,0.26589698,0.15111013,0.6045737,0.30813393,-0.7464433,-0.13531059,0.7596568,0.66613793,-0.04760916,0.040757433,0.92078996,0.80410695,-0.25623733,0.00941005,0.8067464,0.47474208,-0.52840406,-0.38524747,0.56851137,788.1319,810.696,798.20514,804.65204,802.23444,-0.02587890625,-0.0050048828125,0.9876708984375,2.160797119140625,-4.32159423828125,0.366363525390625,1.0,1.0,1.0,1.0,1.0,95.0,event
10:22:26.523,0.9676381,0.26589698,0.15111013,0.6045737,0.30813393,-0.7464433,-0.13531059,0.7596568,0.66613793,-0.04760916,0.040757433,0.92078996,0.80410695,-0.25623733,0.00941005,0.8067464,0.47474208,-0.52840406,-0.38524747,0.56851137,773.22345,805.05493,801.8315,811.9048,734.5421,-0.0213623046875,-0.00958251953125,0.9840087890625,1.966400146484375,-4.044952392578125,0.299072265625,1.0,1.0,1.0,1.0,1.0,95.0,event
10:22:26.524,0.9676381,0.26589698,0.15111013,0.6045737,0.30813393,-0.7464433,-0.13531059,0.7596568,0.66613793,-0.04760916,0.040757433,0.92078996,0.80410695,-0.25623733,0.00941005,0.8067464,0.47474208,-0.52840406,-0.38524747,0.56851137,776.04395,799.41394,796.99634,789.7436,648.71796,-0.0213623046875,-0.00958251953125,0.9840087890625,1.966400146484375,-4.044952392578125,0.299072265625,1.0,1.0,1.0,1.0,1.0,95.0,event
10:22:26.525,0.9676381,0.26589698,0.15111013,0.6045737,0.30813393,-0.7464433,-0.13531059,0.7596568,0.66613793,-0.04760916,0.040757433,0.92078996,0.80410695,-0.25623733,0.00941005,0.8067464,0.47474208,-0.52840406,-0.38524747,0.56851137,776.8498,800.2198,800.2198,774.83514,763.1502,-0.0213623046875,-0.00958251953125,0.9840087890625,1.966400146484375,-4.044952392578125,0.299072265625,1.0,1.0,1.0,1.0,1.0,95.0,event
10:22:26.525,0.9676381,0.26589698,0.15111013,0.6045737,0.30813393,-0.7464433,-0.13531059,0.7596568,0.66613793,-0.04760916,0.040757433,0.92078996,0.80410695,-0.25623733,0.00941005,0.8067464,0.47474208,-0.52840406,-0.38524747,0.56851137,784.10254,811.50183,800.2198,793.36993,921.50183,-0.0213623046875,-0.00958251953125,0.9840087890625,1.966400146484375,-4.044952392578125,0.299072265625,1.0,1.0,1.0,1.0,1.0,95.0,event
10:22:26.526,0.9676381,0.26589698,0.15111013,0.6045737,0.30813393,-0.7464433,-0.13531059,0.7596568,0.66613793,-0.04760916,0.040757433,0.92078996,0.80410695,-0.25623733,0.00941005,0.8067464,0.47474208,-0.52840406,-0.38524747,0.56851137,795.38464,805.4579,796.1905,809.4872,784.10254,-0.0213623046875,-0.00958251953125,0.9840087890625,1.966400146484375,-4.044952392578125,0.299072265625,1.0,1.0,1.0,1.0,1.0,95.0,event
10:22:26.526,0.9676381,0.26589698,0.15111013,0.6045737,0.30813393,-0.7464433,-0.13531059,0.7596568,0.66613793,-0.04760916,0.040757433,0.92078996,0.80410695,-0.25623733,0.00941005,0.8067464,0.47474208,-0.52840406,-0.38524747,0.56851137,788.1319,798.20514,795.78754,813.91943,807.0696,-0.0213623046875,-0.00958251953125,0.9840087890625,1.966400146484375,-4.044952392578125,0.299072265625,1.0,1.0,1.0,1.0,1.0,95.0,event
10:22:26.527,0.97572446,0.32027584,0.16912118,0.62432045,0.32400283,-0.6988414,-0.14855035,0.7828219,0.6765648,-0.04335015,0.07230387,0.92078996,0.7868721,-0.2420374,0.0036522632,0.77894974,0.45527074,-0.530427,-0.40687695,0.5719027,778.86444,805.05493,793.7729,798.20514,750.2564,-0.0213623046875,-0.00958251953125,0.9840087890625,1.966400146484375,-4.044952392578125,0.299072265625,1.0,1.0,1.0,1.0,1.0,95.0,event
10:22:26.527,0.9676381,0.26589698,0.15111013,0.6045737,0.30813393,-0.7464433,-0.13531059,0.7596568,0.66613793,-0.04760916,0.040757433,0.92078996,0.80410695,-0.25623733,0.00941005,0.8067464,0.47474208,-0.52840406,-0.38524747,0.56851137,774.43225,802.6374,794.57874,804.65204,838.0952,-0.0213623046875,-0.00958251953125,0.9840087890625,1.966400146484375,-4.044952392578125,0.299072265625,1.0,1.0,1.0,1.0,1.0,95.0,event
10:22:26.531,0.97572446,0.32027584,0.16912118,0.62432045,0.32400283,-0.6988414,-0.14855035,0.7828219,0.6765648,-0.04335015,0.07230387,0.92078996,0.7868721,-0.2420374,0.0036522632,0.77894974,0.45527074,-0.530427,-0.40687695,0.5719027,787.72894,807.47253,796.99634,815.9341,759.5238,-0.0213623046875,-0.00958251953125,0.9840087890625,1.966400146484375,-4.044952392578125,0.299072265625,1.0,1.0,1.0,1.0,1.0,95.0,event
10:22:26.531,0.97572446,0.32027584,0.16912118,0.62432045,0.32400283,-0.6988414,-0.14855035,0.7828219,0.6765648,-0.04335015,0.07230387,0.92078996,0.7868721,-0.2420374,0.0036522632,0.77894974,0.45527074,-0.530427,-0.40687695,0.5719027,781.685,810.293,793.36993,816.7399,704.3223,-0.0213623046875,-0.00958251953125,0.9840087890625,1.966400146484375,-4.044952392578125,0.299072265625,1.0,1.0,1.0,1.0,1.0,95.0,event
10:22:26.532,0.97572446,0.32027584,0.16912118,0.62432045,0.32400283,-0.6988414,-0.14855035,0.7828219,0.6765648,-0.04335015,0.07230387,0.92078996,0.7868721,-0.2420374,0.0036522632,0.77894974,0.45527074,-0.530427,-0.40687695,0.5719027,792.5641,802.6374,800.2198,820.3663,1022.23444,-0.0213623046875,-0.00958251953125,0.9840087890625,1.966400146484375,-4.044952392578125,0.299072265625,1.0,1.0,1.0,1.0,1.0,95.0,event
10:22:26.532,0.97572446,0.32027584,0.16912118,0.62432045,0.32400283,-0.6988414,-0.14855035,0.7828219,0.6765648,-0.04335015,0.07230387,0.92078996,0.7868721,-0.2420374,0.0036522632,0.77894974,0.45527074,-0.530427,-0.40687695,0.5719027,786.9231,809.0842,795.78754,804.65204,954.5421,-0.0213623046875,-0.00958251953125,0.9840087890625,1.966400146484375,-4.044952392578125,0.299072265625,1.0,1.0,1.0,1.0,1.0,95.0,event
10:22:26.533,0.97572446,0.32027584,0.16912118,0.62432045,0.32400283,-0.6988414,-0.14855035,0.7828219,0.6765648,-0.04335015,0.07230387,0.92078996,0.7868721,-0.2420374,0.0036522632,0.77894974,0.45527074,-0.530427,-0.40687695,0.5719027,796.1905,807.47253,790.54944,784.90845,725.6777,-0.01751708984375,-0.00531005859375,0.9869384765625,2.10845947265625,-3.54400634765625,0.2691650390625,1.0,1.0,1.0,1.0,1.0,95.0,event
10:22:26.534,0.97572446,0.32027584,0.16912118,0.62432045,0.32400283,-0.6988414,-0.14855035,0.7828219,0.6765648,-0.04335015,0.07230387,0.92078996,0.7868721,-0.2420374,0.0036522632,0.77894974,0.45527074,-0.530427,-0.40687695,0.5719027,807.0696,800.6227,792.5641,805.8608,811.0989,-0.01751708984375,-0.00531005859375,0.9869384765625,2.10845947265625,-3.54400634765625,0.2691650390625,1.0,1.0,1.0,1.0,1.0,95.0,event
10:22:26.534,0.97572446,0.32027584,0.16912118,0.62432045,0.32400283,-0.6988414,-0.14855035,0.7828219,0.6765648,-0.04335015,0.07230387,0.92078996,0.7868721,-0.2420374,0.0036522632,0.77894974,0.45527074,-0.530427,-0.40687695,0.5719027,796.1905,807.0696,801.8315,824.3956,850.989,-0.01751708984375,-0.00531005859375,0.9869384765625,2.10845947265625,-3.54400634765625,0.2691650390625,1.0,1.0,1.0,1.0,1.0,95.0,event
10:22:26.534,0.97572446,0.32027584,0.16912118,0.62432045,0.32400283,-0.6988414,-0.14855035,0.7828219,0.6765648,-0.04335015,0.07230387,0.92078996,0.7868721,-0.2420374,0.0036522632,0.77894974,0.45527074,-0.530427,-0.40687695,0.5719027,788.5348,811.0989,804.2491,827.2161,788.93774,-0.01751708984375,-0.00531005859375,0.9869384765625,2.10845947265625,-3.54400634765625,0.2691650390625,1.0,1.0,1.0,1.0,1.0,95.0,event
10:22:26.535,0.97572446,0.32027584,0.16912118,0.62432045,0.32400283,-0.6988414,-0.14855035,0.7828219,0.6765648,-0.04335015,0.07230387,0.92078996,0.7868721,-0.2420374,0.0036522632,0.77894974,0.45527074,-0.530427,-0.40687695,0.5719027,784.90845,803.8461,802.23444,799.011,745.42126,-0.01751708984375,-0.00531005859375,0.9869384765625,2.10845947265625,-3.54400634765625,0.2691650390625,1.0,1.0,1.0,1.0,1.0,95.0,event
10:22:26.535,0.97572446,0.32027584,0.16912118,0.62432045,0.32400283,-0.6988414,-0.14855035,0.7828219,0.6765648,-0.04335015,0.07230387,0.92078996,0.7868721,-0.2420374,0.0036522632,0.77894974,0.45527074,-0.530427,-0.40687695,0.5719027,786.1172,802.23444,800.2198,773.22345,849.3773,-0.01751708984375,-0.00531005859375,0.9869384765625,2.10845947265625,-3.54400634765625,0.2691650390625,1.0,1.0,1.0,1.0,1.0,95.0,event
10:22:26.536,0.97572446,0.32027584,0.16912118,0.62432045,0.32400283,-0.6988414,-0.14855035,0.7828219,0.6765648,-0.04335015,0.07230387,0.92078996,0.7868721,-0.2420374,0.0036522632,0.77894974,0.45527074,-0.530427,-0.40687695,0.5719027,786.52014,811.9048,792.5641,802.6374,860.2564,-0.01751708984375,-0.00531005859375,0.9869384765625,2.10845947265625,-3.54400634765625,0.2691650390625,1.0,1.0,1.0,1.0,1.0,95.0,event
10:22:26.536,0.97572446,0.32027584,0.16912118,0.62432045,0.32400283,-0.6988414,-0.14855035,0.7828219,0.6765648,-0.04335015,0.07230387,0.92078996,0.7868721,-0.2420374,0.0036522632,0.77894974,0.45527074,-0.530427,-0.40687695,0.5719027,788.1319,810.696,792.96704,790.9524,972.27106,-0.01751708984375,-0.00531005859375,0.9869384765625,2.10845947265625,-3.54400634765625,0.2691650390625,1.0,1.0,1.0,1.0,1.0,95.0,event
10:22:26.537,0.97572446,0.32027584,0.16912118,0.62432045,0.32400283,-0.6988414,-0.14855035,0.7828219,0.6765648,-0.04335015,0.07230387,0.92078996,0.7868721,-0.2420374,0.0036522632,0.77894974,0.45527074,-0.530427,-0.40687695,0.5719027,788.1319,801.8315,795.78754,817.1429,769.59705,-0.01751708984375,-0.00531005859375,0.9869384765625,2.10845947265625,-3.54400634765625,0.2691650390625,1.0,1.0,1.0,1.0,1.0,95.0,event
10:22:26.537,0.97572446,0.32027584,0.16912118,0.62432045,0.32400283,-0.6988414,-0.14855035,0.7828219,0.6765648,-0.04335015,0.07230387,0.92078996,0.7868721,-0.2420374,0.0036522632,0.77894974,0.45527074,-0.530427,-0.40687695,0.5719027,794.57874,794.57874,799.41394,807.8755,877.1795,-0.01751708984375,-0.00531005859375,0.9869384765625,2.10845947265625,-3.54400634765625,0.2691650390625,1.0,1.0,1.0,1.0,1.0,95.0,event
10:22:26.538,0.97572446,0.32027584,0.16912118,0.62432045,0.32400283,-0.6988414,-0.14855035,0.7828219,0.6765648,-0.04335015,0.07230387,0.92078996,0.7868721,-0.2420374,0.0036522632,0.77894974,0.45527074,-0.530427,-0.40687695,0.5719027,796.5934,799.011,799.011,781.28204,897.72894,-0.01751708984375,-0.00531005859375,0.9869384765625,2.10845947265625,-3.54400634765625,0.2691650390625,1.0,1.0,1.0,1.0,1.0,95.0,event
10:22:26.538,0.97572446,0.32027584,0.16912118,0.62432045,0.32400283,-0.6988414,-0.14855035,0.7828219,0.6765648,-0.04335015,0.07230387,0.92078996,0.7868721,-0.2420374,0.0036522632,0.77894974,0.45527074,-0.530427,-0.40687695,0.5719027,784.5055,803.44324,801.02563,792.96704,753.8828,-0.01751708984375,-0.00531005859375,0.9869384765625,2.10845947265625,-3.54400634765625,0.2691650390625,1.0,1.0,1.0,1.0,1.0,95.0,event
10:22:26.628,0.97572446,0.32027584,0.16912118,0.62432045,0.32400283,-0.6988414,-0.14855035,0.7828219,0.6765648,-0.04335015,0.07230387,0.92078996,0.7868721,-0.2420374,0.0036522632,0.77894974,0.45527074,-0.530427,-0.40687695,0.5719027,777.6557,801.8315,802.23444,806.6667,740.989,-0.01751708984375,-0.00531005859375,0.9869384765625,2.10845947265625,-3.54400634765625,0.2691650390625,1.0,1.0,1.0,1.0,1.0,95.0,event
10:22:26.629,0.97572446,0.32027584,0.16912118,0.62432045,0.32400283,-0.6988414,-0.14855035,0.7828219,0.6765648,-0.04335015,0.07230387,0.92078996,0.7868721,-0.2420374,0.0036522632,0.77894974,0.45527074,-0.530427,-0.40687695,0.5719027,788.93774,802.6374,798.60803,805.8608,772.4176,-0.01751708984375,-0.00531005859375,0.9869384765625,2.10845947265625,-3.54400634765625,0.2691650390625,1.0,1.0,1.0,1.0,1.0,95.0,event
10:22:26.630,0.97572446,0.32027584,0.16912118,0.62432045,0.32400283,-0.6988414,-0.14855035,0.7828219,0.6765648,-0.04335015,0.07230387,0.92078996,0.7868721,-0.2420374,0.0036522632,0.77894974,0.45527074,-0.530427,-0.40687695,0.5719027,797.3993,804.2491,800.2198,802.6374,807.8755,-0.01751708984375,-0.00531005859375,0.9869384765625,2.10845947265625,-3.54400634765625,0.2691650390625,1.0,1.0,1.0,1.0,1.0,95.0,event
10:22:26.631,0.97572446,0.32027584,0.16912118,0.62432045,0.32400283,-0.6988414,-0.14855035,0.7828219,0.6765648,-0.04335015,0.07230387,0.92078996,0.7868721,-0.2420374,0.0036522632,0.77894974,0.45527074,-0.530427,-0.40687695,0.5719027,802.6374,802.23444,799.41394,790.14655,754.2857,-0.01751708984375,-0.00531005859375,0.9869384765625,2.10845947265625,-3.54400634765625,0.2691650390625,1.0,1.0,1.0,1.0,1.0,95.0,event
10:22:26.631,0.97572446,0.32027584,0.16912118,0.62432045,0.32400283,-0.6988414,-0.14855035,0.7828219,0.6765648,-0.04335015,0.07230387,0.92078996,0.7868721,-0.2420374,0.0036522632,0.77894974,0.45527074,-0.530427,-0.40687695,0.5719027,799.81683,804.2491,798.20514,780.87915,745.82416,-0.01751708984375,-0.00531005859375,0.9869384765625,2.10845947265625,-3.54400634765625,0.2691650390625,1.0,1.0,1.0,1.0,1.0,95.0,event
10:22:26.632,0.97572446,0.32027584,0.16912118,0.62432045,0.32400283,-0.6988414,-0.14855035,0.7828219,0.6765648,-0.04335015,0.07230387,0.92078996,0.7868721,-0.2420374,0.0036522632,0.77894974,0.45527074,-0.530427,-0.40687695,0.5719027,793.7729,796.5934,801.8315,822.381,1083.0769,-0.01751708984375,-0.00531005859375,0.9869384765625,2.10845947265625,-3.54400634765625,0.2691650390625,1.0,1.0,1.0,1.0,1.0,95.0,event
10:22:26.633,0.97572446,0.32027584,0.16912118,0.62432045,0.32400283,-0.6988414,-0.14855035,0.7828219,0.6765648,-0.04335015,0.07230387,0.92078996,0.7868721,-0.2420374,0.0036522632,0.77894974,0.45527074,-0.530427,-0.40687695,0.5719027,786.9231,805.8608,803.8461,832.4542,1147.5458,-0.01751708984375,-0.00531005859375,0.9869384765625,2.10845947265625,-3.54400634765625,0.2691650390625,1.0,1.0,1.0,1.0,1.0,95.0,event
10:22:26.633,0.97572446,0.32027584,0.16912118,0.62432045,0.32400283,-0.6988414,-0.14855035,0.7828219,0.6765648,-0.04335015,0.07230387,0.92078996,0.7868721,-0.2420374,0.0036522632,0.77894974,0.45527074,-0.530427,-0.40687695,0.5719027,781.685,810.696,801.8315,807.8755,755.89746,-0.01751708984375,-0.00531005859375,0.9869384765625,2.10845947265625,-3.54400634765625,0.2691650390625,1.0,1.0,1.0,1.0,1.0,95.0,event
10:22:26.634,0.97572446,0.32027584,0.16912118,0.62432045,0.32400283,-0.6988414,-0.14855035,0.7828219,0.6765648,-0.04335015,0.07230387,0.92078996,0.7868721,-0.2420374,0.0036522632,0.77894974,0.45527074,-0.530427,-0.40687695,0.5719027,764.35895,803.0403,799.81683,786.52014,668.0586,-0.01751708984375,-0.00531005859375,0.9869384765625,2.10845947265625,-3.54400634765625,0.2691650390625,1.0,1.0,1.0,1.0,1.0,95.0,event
10:22:26.635,0.98847353,0.35942024,0.17267537,0.6488112,0.35155627,-0.64311874,-0.14662744,0.79787004,0.7640575,-0.038264174,0.10090286,0.92265046,0.7771693,-0.23850673,-0.0028764072,0.7607107,0.44469336,-0.5384169,-0.43292066,0.571124,776.8498,803.44324,801.02563,780.87915,763.5531,-0.01751708984375,-0.00531005859375,0.9869384765625,2.10845947265625,-3.54400634765625,0.2691650390625,1.0,1.0,1.0,1.0,1.0,95.0,event
10:22:26.639,0.98847353,0.35942024,0.17267537,0.6488112,0.35155627,-0.64311874,-0.14662744,0.79787004,0.7640575,-0.038264174,0.10090286,0.92265046,0.7771693,-0.23850673,-0.0028764072,0.7607107,0.44469336,-0.5384169,-0.43292066,0.571124,780.07324,805.8608,800.6227,774.43225,703.91943,-0.01751708984375,-0.00531005859375,0.9869384765625,2.10845947265625,-3.54400634765625,0.2691650390625,1.0,1.0,1.0,1.0,1.0,95.0,event
10:22:26.640,0.98847353,0.35942024,0.17267537,0.6488112,0.35155627,-0.64311874,-0.14662744,0.79787004,0.7640575,-0.038264174,0.10090286,0.92265046,0.7771693,-0.23850673,-0.0028764072,0.7607107,0.44469336,-0.5384169,-0.43292066,0.571124,762.74725,804.2491,803.8461,793.7729,672.8938,-0.01751708984375,-0.00531005859375,0.9869384765625,2.10845947265625,-3.54400634765625,0.2691650390625,1.0,1.0,1.0,1.0,1.0,95.0,event
10:22:26.664,0.98847353,0.35942024,0.17267537,0.6488112,0.35155627,-0.64311874,-0.14662744,0.79787004,0.7640575,-0.038264174,0.10090286,0.92265046,0.7771693,-0.23850673,-0.0028764072,0.7607107,0.44469336,-0.5384169,-0.43292066,0.571124,776.8498,799.41394,805.8608,801.8315,781.28204,-0.0272216796875,-0.00311279296875,0.99005126953125,2.1533203125,-3.386993408203125,0.874786376953125,1.0,1.0,1.0,1.0,1.0,95.0,event
10:22:26.665,0.98847353,0.35942024,0.17267537,0.6488112,0.35155627,-0.64311874,-0.14662744,0.79787004,0.7640575,-0.038264174,0.10090286,0.92265046,0.7771693,-0.23850673,-0.0028764072,0.7607107,0.44469336,-0.5384169,-0.43292066,0.571124,777.6557,804.65204,803.0403,777.25275,679.7436,-0.0272216796875,-0.00311279296875,0.99005126953125,2.1533203125,-3.386993408203125,0.874786376953125,1.0,1.0,1.0,1.0,1.0,95.0,event
10:22:26.665,0.98847353,0.35942024,0.17267537,0.6488112,0.35155627,-0.64311874,-0.14662744,0.79787004,0.7640575,-0.038264174,0.10090286,0.92265046,0.7771693,-0.23850673,-0.0028764072,0.7607107,0.44469336,-0.5384169,-0.43292066,0.571124,779.2674,799.81683,804.2491,781.685,791.75824,-0.0272216796875,-0.00311279296875,0.99005126953125,2.1533203125,-3.386993408203125,0.874786376953125,1.0,1.0,1.0,1.0,1.0,95.0,event
10:22:26.666,0.98847353,0.35942024,0.17267537,0.6488112,0.35155627,-0.64311874,-0.14662744,0.79787004,0.7640575,-0.038264174,0.10090286,0.92265046,0.7771693,-0.23850673,-0.0028764072,0.7607107,0.44469336,-0.5384169,-0.43292066,0.571124,787.72894,800.2198,799.41394,796.99634,636.63007,-0.0272216796875,-0.00311279296875,0.99005126953125,2.1533203125,-3.386993408203125,0.874786376953125,1.0,1.0,1.0,1.0,1.0,95.0,event
10:22:26.667,0.98847353,0.35942024,0.17267537,0.6488112,0.35155627,-0.64311874,-0.14662744,0.79787004,0.7640575,-0.038264174,0.10090286,0.92265046,0.7771693,-0.23850673,-0.0028764072,0.7607107,0.44469336,-0.5384169,-0.43292066,0.571124,788.1319,798.20514,798.60803,803.44324,770.80585,-0.0272216796875,-0.00311279296875,0.99005126953125,2.1533203125,-3.386993408203125,0.874786376953125,1.0,1.0,1.0,1.0,1.0,95.0,event
10:22:26.667,0.98847353,0.35942024,0.17267537,0.6488112,0.35155627,-0.64311874,-0.14662744,0.79787004,0.7640575,-0.038264174,0.10090286,0.92265046,0.7771693,-0.23850673,-0.0028764072,0.7607107,0.44469336,-0.5384169,-0.43292066,0.571124,773.22345,799.41394,796.1905,794.57874,924.3223,-0.0272216796875,-0.00311279296875,0.99005126953125,2.1533203125,-3.386993408203125,0.874786376953125,1.0,1.0,1.0,1.0,1.0,95.0,event
10:22:26.668,0.98847353,0.35942024,0.17267537,0.6488112,0.35155627,-0.64311874,-0.14662744,0.79787004,0.7640575,-0.038264174,0.10090286,0.92265046,0.7771693,-0.23850673,-0.0028764072,0.7607107,0.44469336,-0.5384169,-0.43292066,0.571124,786.9231,800.6227,788.1319,776.04395,864.68866,-0.0272216796875,-0.00311279296875,0.99005126953125,2.1533203125,-3.386993408203125,0.874786376953125,1.0,1.0,1.0,1.0,1.0,95.0,event
10:22:26.669,0.98847353,0.35942024,0.17267537,0.6488112,0.35155627,-0.64311874,-0.14662744,0.79787004,0.7640575,-0.038264174,0.10090286,0.92265046,0.7771693,-0.23850673,-0.0028764072,0.7607107,0.44469336,-0.5384169,-0.43292066,0.571124,778.46155,805.05493,793.36993,761.53845,842.1245,-0.0272216796875,-0.00311279296875,0.99005126953125,2.1533203125,-3.386993408203125,0.874786376953125,1.0,1.0,1.0,1.0,1.0,95.0,event
10:22:26.669,0.98847353,0.35942024,0.17267537,0.6488112,0.35155627,-0.64311874,-0.14662744,0.79787004,0.7640575,-0.038264174,0.10090286,0.92265046,0.7771693,-0.23850673,-0.0028764072,0.7607107,0.44469336,-0.5384169,-0.43292066,0.571124,780.07324,798.20514,804.2491,776.4469,955.7509,-0.0272216796875,-0.00311279296875,0.99005126953125,2.1533203125,-3.386993408203125,0.874786376953125,1.0,1.0,1.0,1.0,1.0,95.0,event
10:22:26.670,0.98847353,0.35942024,0.17267537,0.6488112,0.35155627,-0.64311874,-0.14662744,0.79787004,0.7640575,-0.038264174,0.10090286,0.92265046,0.7771693,-0.23850673,-0.0028764072,0.7607107,0.44469336,-0.5384169,-0.43292066,0.571124,792.96704,799.81683,803.0403,789.7436,1085.8975,-0.0272216796875,-0.00311279296875,0.99005126953125,2.1533203125,-3.386993408203125,0.874786376953125,1.0,1.0,1.0,1.0,1.0,95.0,event
10:22:26.671,0.98847353,0.35942024,0.17267537,0.6488112,0.35155627,-0.64311874,-0.14662744,0.79787004,0.7640575,-0.038264174,0.10090286,0.92265046,0.7771693,-0.23850673,-0.0028764072,0.7607107,0.44469336,-0.5384169,-0.43292066,0.571124,780.87915,796.1905,793.36993,780.87915,691.02563,-0.0272216796875,-0.00311279296875,0.99005126953125,2.1533203125,-3.386993408203125,0.874786376953125,1.0,1.0,1.0,1.0,1.0,95.0,event
10:22:26.671,0.98847353,0.35942024,0.17267537,0.6488112,0.35155627,-0.64311874,-0.14662744,0.79787004,0.7640575,-0.038264174,0.10090286,0.92265046,0.7771693,-0.23850673,-0.0028764072,0.7607107,0.44469336,-0.5384169,-0.43292066,0.571124,774.43225,803.0403,795.78754,787.72894,916.6667,-0.0272216796875,-0.00311279296875,0.99005126953125,2.1533203125,-3.386993408203125,0.874786376953125,1.0,1.0,1.0,1.0,1.0,95.0,event
10:22:26.674,0.98847353,0.35942024,0.17267537,0.6488112,0.35155627,-0.64311874,-0.14662744,0.79787004,0.7640575,-0.038264174,0.10090286,0.92265046,0.7771693,-0.23850673,-0.0028764072,0.7607107,0.44469336,-0.5384169,-0.43292066,0.571124,776.4469,804.65204,799.41394,785.7143,673.2967,-0.027099609375,-0.001953125,0.984375,1.966400146484375,-3.69354248046875,-0.10467529296875,1.0,1.0,1.0,1.0,1.0,95.0,event
10:22:26.674,0.98847353,0.35942024,0.17267537,0.6488112,0.35155627,-0.64311874,-0.14662744,0.79787004,0.7640575,-0.038264174,0.10090286,0.92265046,0.7771693,-0.23850673,-0.0028764072,0.7607107,0.44469336,-0.5384169,-0.43292066,0.571124,778.86444,808.2784,802.6374,792.96704,679.34064,-0.027099609375,-0.001953125,0.984375,1.966400146484375,-3.69354248046875,-0.10467529296875,1.0,1.0,1.0,1.0,1.0,95.0,event
10:22:26.675,0.98847353,0.35942024,0.17267537,0.6488112,0.35155627,-0.64311874,-0.14662744,0.79787004,0.7640575,-0.038264174,0.10090286,0.92265046,0.7771693,-0.23850673,-0.0028764072,0.7607107,0.44469336,-0.5384169,-0.43292066,0.571124,781.28204,800.2198,792.96704,784.5055,624.94507,-0.027099609375,-0.001953125,0.984375,1.966400146484375,-3.69354248046875,-0.10467529296875,1.0,1.0,1.0,1.0,1.0,95.0,event
10:22:26.676,0.98847353,0.35942024,0.17267537,0.6488112,0.35155627,-0.64311874,-0.14662744,0.79787004,0.7640575,-0.038264174,0.10090286,0.92265046,0.7771693,-0.23850673,-0.0028764072,0.7607107,0.44469336,-0.5384169,-0.43292066,0.571124,785.7143,799.011,789.7436,783.2967,681.3553,-0.027099609375,-0.001953125,0.984375,1.966400146484375,-3.69354248046875,-0.10467529296875,1.0,1.0,1.0,1.0,1.0,95.0,event
10:22:26.676,0.98847353,0.35942024,0.17267537,0.6488112,0.35155627,-0.64311874,-0.14662744,0.79787004,0.7640575,-0.038264174,0.10090286,0.92265046,0.7771693,-0.23850673,-0.0028764072,0.7607107,0.44469336,-0.5384169,-0.43292066,0.571124,793.36993,803.8461,798.60803,777.25275,725.2747,-0.027099609375,-0.001953125,0.984375,1.966400146484375,-3.69354248046875,-0.10467529296875,1.0,1.0,1.0,1.0,1.0,95.0,event
10:22:26.677,0.98847353,0.35942024,0.17267537,0.6488112,0.35155627,-0.64311874,-0.14662744,0.79787004,0.7640575,-0.038264174,0.10090286,0.92265046,0.7771693,-0.23850673,-0.0028764072,0.7607107,0.44469336,-0.5384169,-0.43292066,0.571124,795.78754,809.89014,802.23444,768.7912,782.8938,-0.027099609375,-0.001953125,0.984375,1.966400146484375,-3.69354248046875,-0.10467529296875,1.0,1.0,1.0,1.0,1.0,95.0,event
10:22:26.678,0.98847353,0.35942024,0.17267537,0.6488112,0.35155627,-0.64311874,-0.14662744,0.79787004,0.7640575,-0.038264174,0.10090286,0.92265046,0.7771693,-0.23850673,-0.0028764072,0.7607107,0.44469336,-0.5384169,-0.43292066,0.571124,793.7729,810.293,801.02563,778.86444,840.10986,-0.027099609375,-0.001953125,0.984375,1.966400146484375,-3.69354248046875,-0.10467529296875,1.0,1.0,1.0,1.0,1.0,95.0,event
10:22:26.678,0.98847353,0.35942024,0.17267537,0.6488112,0.35155627,-0.64311874,-0.14662744,0.79787004,0.7640575,-0.038264174,0.10090286,0.92265046,0.7771693,-0.23850673,-0.0028764072,0.7607107,0.44469336,-0.5384169,-0.43292066,0.571124,778.86444,803.0403,800.2198,787.72894,768.3883,-0.027099609375,-0.001953125,0.984375,1.966400146484375,-3.69354248046875,-0.10467529296875,1.0,1.0,1.0,1.0,1.0,95.0,event
10:22:26.679,0.98847353,0.35942024,0.17267537,0.6488112,0.35155627,-0.64311874,-0.14662744,0.79787004,0.7640575,-0.038264174,0.10090286,0.92265046,0.7771693,-0.23850673,-0.0028764072,0.7607107,0.44469336,-0.5384169,-0.43292066,0.571124,786.52014,800.2198,796.99634,786.9231,861.06226,-0.027099609375,-0.001953125,0.984375,1.966400146484375,-3.69354248046875,-0.10467529296875,1.0,1.0,1.0,1.0,1.0,95.0,event
10:22:26.680,0.98847353,0.35942024,0.17267537,0.6488112,0.35155627,-0.64311874,-0.14662744,0.79787004,0.7640575,-0.038264174,0.10090286,0.92265046,0.7771693,-0.23850673,-0.0028764072,0.7607107,0.44469336,-0.5384169,-0.43292066,0.571124,813.91943,803.8461,795.38464,766.3736,825.2015,-0.027099609375,-0.001953125,0.984375,1.966400146484375,-3.69354248046875,-0.10467529296875,1.0,1.0,1.0,1.0,1.0,95.0,event
10:22:26.681,0.98847353,0.35942024,0.17267537,0.6488112,0.35155627,-0.64311874,-0.14662744,0.79787004,0.7640575,-0.038264174,0.10090286,0.92265046,0.7771693,-0.23850673,-0.0028764072,0.7607107,0.44469336,-0.5384169,-0.43292066,0.571124,794.57874,804.2491,797.8022,761.13556,722.0513,-0.027099609375,-0.001953125,0.984375,1.966400146484375,-3.69354248046875,-0.10467529296875,1.0,1.0,1.0,1.0,1.0,95.0,event
10:22:26.682,0.9998362,0.38779846,0.16731809,0.66981006,0.38771787,-0.5953877,-0.12911183,0.80951846,0.8275705,-0.037320632,0.11799185,0.9571752,0.7758396,-0.24275494,-0.00997406,0.75615567,0.4433742,-0.5493683,-0.46336985,0.56265426,775.64105,805.8608,801.8315,789.34064,798.20514,-0.027099609375,-0.001953125,0.984375,1.966400146484375,-3.69354248046875,-0.10467529296875,1.0,1.0,1.0,1.0,1.0,95.0,event
10:22:26.707,0.9998362,0.38779846,0.16731809,0.66981006,0.38771787,-0.5953877,-0.12911183,0.80951846,0.8275705,-0.037320632,0.11799185,0.9571752,0.7758396,-0.24275494,-0.00997406,0.75615567,0.4433742,-0.5493683,-0.46336985,0.56265426,791.3553,804.65204,804.2491,805.4579,1064.9451,-0.020263671875,-0.0047607421875,0.98785400390625,1.906585693359375,-3.476715087890625,-0.19439697265625,1.0,1.0,1.0,1.0,1.0,95.0,event
10:22:26.708,0.9998362,0.38779846,0.16731809,0.66981006,0.38771787,-0.5953877,-0.12911183,0.80951846,0.8275705,-0.037320632,0.11799185,0.9571752,0.7758396,-0.24275494,-0.00997406,0.75615567,0.4433742,-0.5493683,-0.46336985,0.56265426,786.9231,809.4872,805.05493,819.5604,1051.6483,-0.020263671875,-0.0047607421875,0.98785400390625,1.906585693359375,-3.476715087890625,-0.19439697265625,1.0,1.0,1.0,1.0,1.0,95.0,event
10:22:26.709,0.9998362,0.38779846,0.16731809,0.66981006,0.38771787,-0.5953877,-0.12911183,0.80951846,0.8275705,-0.037320632,0.11799185,0.9571752,0.7758396,-0.24275494,-0.00997406,0.75615567,0.4433742,-0.5493683,-0.46336985,0.56265426,777.6557,801.4286,802.6374,817.1429,777.6557,-0.020263671875,-0.0047607421875,0.98785400390625,1.906585693359375,-3.476715087890625,-0.19439697265625,1.0,1.0,1.0,1.0,1.0,95.0,event
10:22:26.710,0.9998362,0.38779846,0.16731809,0.66981006,0.38771787,-0.5953877,-0.12911183,0.80951846,0.8275705,-0.037320632,0.11799185,0.9571752,0.7758396,-0.24275494,-0.00997406,0.75615567,0.4433742,-0.5493683,-0.46336985,0.56265426,778.46155,798.60803,803.44324,803.44324,736.9597,-0.020263671875,-0.0047607421875,0.98785400390625,1.906585693359375,-3.476715087890625,-0.19439697265625,1.0,1.0,1.0,1.0,1.0,95.0,event
10:22:26.710,0.9998362,0.38779846,0.16731809,0.66981006,0.38771787,-0.5953877,-0.12911183,0.80951846,0.8275705,-0.037320632,0.11799185,0.9571752,0.7758396,-0.24275494,-0.00997406,0.75615567,0.4433742,-0.5493683,-0.46336985,0.56265426,786.9231,806.26373,804.65204,803.8461,781.28204,-0.020263671875,-0.0047607421875,0.98785400390625,1.906585693359375,-3.476715087890625,-0.19439697265625,1.0,1.0,1.0,1.0,1.0,95.0,event
10:22:26.711,0.9998362,0.38779846,0.16731809,0.66981006,0.38771787,-0.5953877,-0.12911183,0.80951846,0.8275705,-0.037320632,0.11799185,0.9571752,0.7758396,-0.24275494,-0.00997406,0.75615567,0.4433742,-0.5493683,-0.46336985,0.56265426,768.7912,807.8755,800.6227,826.4103,883.6264,-0.020263671875,-0.0047607421875,0.98785400390625,1.906585693359375,-3.476715087890625,-0.19439697265625,1.0,1.0,1.0,1.0,1.0,95.0,event
10:22:26.711,0.9998362,0.38779846,0.16731809,0.66981006,0.38771787,-0.5953877,-0.12911183,0.80951846,0.8275705,-0.037320632,0.11799185,0.9571752,0.7758396,-0.24275494,-0.00997406,0.75615567,0.4433742,-0.5493683,-0.46336985,0.56265426,772.01465,805.05493,801.8315,816.337,862.27106,-0.020263671875,-0.0047607421875,0.98785400390625,1.906585693359375,-3.476715087890625,-0.19439697265625,1.0,1.0,1.0,1.0,1.0,95.0,event
10:22:26.712,0.9998362,0.38779846,0.16731809,0.66981006,0.38771787,-0.5953877,-0.12911183,0.80951846,0.8275705,-0.037320632,0.11799185,0.9571752,0.7758396,-0.24275494,-0.00997406,0.75615567,0.4433742,-0.5493683,-0.46336985,0.56265426,784.90845,802.23444,802.23444,807.47253,957.3626,-0.020263671875,-0.0047607421875,0.98785400390625,1.906585693359375,-3.476715087890625,-0.19439697265625,1.0,1.0,1.0,1.0,1.0,95.0,event
10:22:26.712,0.9998362,0.38779846,0.16731809,0.66981006,0.38771787,-0.5953877,-0.12911183,0.80951846,0.8275705,-0.037320632,0.11799185,0.9571752,0.7758396,-0.24275494,-0.00997406,0.75615567,0.4433742,-0.5493683,-0.46336985,0.56265426,778.46155,801.02563,804.65204,784.90845,999.67035,-0.020263671875,-0.0047607421875,0.98785400390625,1.906585693359375,-3.476715087890625,-0.19439697265625,1.0,1.0,1.0,1.0,1.0,95.0,event
10:22:26.713,0.9998362,0.38779846,0.16731809,0.66981006,0.38771787,-0.5953877,-0.12911183,0.80951846,0.8275705,-0.037320632,0.11799185,0.9571752,0.7758396,-0.24275494,-0.00997406,0.75615567,0.4433742,-0.5493683,-0.46336985,0.56265426,785.7143,811.0989,808.68134,799.011,740.989,-0.020263671875,-0.0047607421875,0.98785400390625,1.906585693359375,-3.476715087890625,-0.19439697265625,1.0,1.0,1.0,1.0,1.0,95.0,event
10:22:26.713,0.9998362,0.38779846,0.16731809,0.66981006,0.38771787,-0.5953877,-0.12911183,0.80951846,0.8275705,-0.037320632,0.11799185,0.9571752,0.7758396,-0.24275494,-0.00997406,0.75615567,0.4433742,-0.5493683,-0.46336985,0.56265426,784.90845,803.0403,805.05493,824.3956,625.34796,-0.020263671875,-0.0047607421875,0.98785400390625,1.906585693359375,-3.476715087890625,-0.19439697265625,1.0,1.0,1.0,1.0,1.0,95.0,event
10:22:26.713,0.9998362,0.38779846,0.16731809,0.66981006,0.38771787,-0.5953877,-0.12911183,0.80951846,0.8275705,-0.037320632,0.11799185,0.9571752,0.7758396,-0.24275494,-0.00997406,0.75615567,0.4433742,-0.5493683,-0.46336985,0.56265426,786.1172,803.44324,801.4286,830.4396,743.8095,-0.020263671875,-0.0047607421875,0.98785400390625,1.906585693359375,-3.476715087890625,-0.19439697265625,1.0,1.0,1.0,1.0,1.0,95.0,event
10:22:26.781,0.9998362,0.38779846,0.16731809,0.66981006,0.38771787,-0.5953877,-0.12911183,0.80951846,0.8275705,-0.037320632,0.11799185,0.9571752,0.7758396,-0.24275494,-0.00997406,0.75615567,0.4433742,-0.5493683,-0.46336985,0.56265426,809.89014,805.8608,802.6374,825.6044,733.73627,-0.02532958984375,-0.00628662109375,0.98675537109375,2.115936279296875,-3.06549072265625,0.58319091796875,1.0,1.0,1.0,1.0,1.0,95.0,event
10:22:26.782,0.9998362,0.38779846,0.16731809,0.66981006,0.38771787,-0.5953877,-0.12911183,0.80951846,0.8275705,-0.037320632,0.11799185,0.9571752,0.7758396,-0.24275494,-0.00997406,0.75615567,0.4433742,-0.5493683,-0.46336985,0.56265426,794.57874,802.6374,801.4286,811.0989,687.8022,-0.02532958984375,-0.00628662109375,0.98675537109375,2.115936279296875,-3.06549072265625,0.58319091796875,1.0,1.0,1.0,1.0,1.0,95.0,event
10:22:26.783,0.9998362,0.38779846,0.16731809,0.66981006,0.38771787,-0.5953877,-0.12911183,0.80951846,0.8275705,-0.037320632,0.11799185,0.9571752,0.7758396,-0.24275494,-0.00997406,0.75615567,0.4433742,-0.5493683,-0.46336985,0.56265426,782.8938,807.0696,801.8315,809.0842,703.5165,-0.02532958984375,-0.00628662109375,0.98675537109375,2.115936279296875,-3.06549072265625,0.58319091796875,1.0,1.0,1.0,1.0,1.0,95.0,event
10:22:26.783,0.9998362,0.38779846,0.16731809,0.66981006,0.38771787,-0.5953877,-0.12911183,0.80951846,0.8275705,-0.037320632,0.11799185,0.9571752,0.7758396,-0.24275494,-0.00997406,0.75615567,0.4433742,-0.5493683,-0.46336985,0.56265426,781.28204,811.0989,802.6374,818.7546,711.5751,-0.02532958984375,-0.00628662109375,0.98675537109375,2.115936279296875,-3.06549072265625,0.58319091796875,1.0,1.0,1.0,1.0,1.0,95.0,event
10:22:26.784,0.9998362,0.38779846,0.16731809,0.66981006,0.38771787,-0.5953877,-0.12911183,0.80951846,0.8275705,-0.037320632,0.11799185,0.9571752,0.7758396,-0.24275494,-0.00997406,0.75615567,0.4433742,-0.5493683,-0.46336985,0.56265426,798.60803,807.47253,803.44324,823.1868,726.8865,-0.02532958984375,-0.00628662109375,0.98675537109375,2.115936279296875,-3.06549072265625,0.58319091796875,1.0,1.0,1.0,1.0,1.0,95.0,event
10:22:26.784,0.9998362,0.38779846,0.16731809,0.66981006,0.38771787,-0.5953877,-0.12911183,0.80951846,0.8275705,-0.037320632,0.11799185,0.9571752,0.7758396,-0.24275494,-0.00997406,0.75615567,0.4433742,-0.5493683,-0.46336985,0.56265426,807.8755,801.4286,800.2198,813.5165,786.52014,-0.02532958984375,-0.00628662109375,0.98675537109375,2.115936279296875,-3.06549072265625,0.58319091796875,1.0,1.0,1.0,1.0,1.0,95.0,event
10:22:26.785,0.9998362,0.38779846,0.16731809,0.66981006,0.38771787,-0.5953877,-0.12911183,0.80951846,0.8275705,-0.037320632,0.11799185,0.9571752,0.7758396,-0.24275494,-0.00997406,0.75615567,0.4433742,-0.5493683,-0.46336985,0.56265426,782.8938,802.23444,800.6227,794.17584,807.0696,-0.02532958984375,-0.00628662109375,0.98675537109375,2.115936279296875,-3.06549072265625,0.58319091796875,1.0,1.0,1.0,1.0,1.0,95.0,event
10:22:26.786,0.9998362,0.38779846,0.16731809,0.66981006,0.38771787,-0.5953877,-0.12911183,0.80951846,0.8275705,-0.037320632,0.11799185,0.9571752,0.7758396,-0.24275494,-0.00997406,0.75615567,0.4433742,-0.5493683,-0.46336985,0.56265426,777.25275,805.8608,800.6227,798.60803,927.1429,-0.02532958984375,-0.00628662109375,0.98675537109375,2.115936279296875,-3.06549072265625,0.58319091796875,1.0,1.0,1.0,1.0,1.0,95.0,event
10:22:26.787,0.9998362,0.38779846,0.16731809,0.66981006,0.38771787,-0.5953877,-0.12911183,0.80951846,0.8275705,-0.037320632,0.11799185,0.9571752,0.7758396,-0.24275494,-0.00997406,0.75615567,0.4433742,-0.5493683,-0.46336985,0.56265426,781.28204,813.1135,799.011,804.65204,913.44324,-0.02532958984375,-0.00628662109375,0.98675537109375,2.115936279296875,-3.06549072265625,0.58319091796875,1.0,1.0,1.0,1.0,1.0,95.0,event
10:22:26.788,0.9998362,0.38779846,0.16731809,0.66981006,0.38771787,-0.5953877,-0.12911183,0.80951846,0.8275705,-0.037320632,0.11799185,0.9571752,0.7758396,-0.24275494,-0.00997406,0.75615567,0.4433742,-0.5493683,-0.46336985,0.56265426,792.96704,811.9048,800.6227,812.3077,724.0659,-0.02532958984375,-0.00628662109375,0.98675537109375,2.115936279296875,-3.06549072265625,0.58319091796875,1.0,1.0,1.0,1.0,1.0,95.0,event
10:22:26.789,0.9998362,0.38779846,0.16731809,0.66981006,0.38771787,-0.5953877,-0.12911183,0.80951846,0.8275705,-0.037320632,0.11799185,0.9571752,0.7758396,-0.24275494,-0.00997406,0.75615567,0.4433742,-0.5493683,-0.46336985,0.56265426,787.72894,803.0403,803.0403,812.71063,813.5165,-0.02532958984375,-0.00628662109375,0.98675537109375,2.115936279296875,-3.06549072265625,0.58319091796875,1.0,1.0,1.0,1.0,1.0,95.0,event
10:22:26.790,0.9998362,0.38779846,0.16731809,0.66981006,0.38771787,-0.5953877,-0.12911183,0.80951846,0.8275705,-0.037320632,0.11799185,0.9571752,0.7758396,-0.24275494,-0.00997406,0.75615567,0.4433742,-0.5493683,-0.46336985,0.56265426,783.69965,799.41394,802.6374,803.44324,819.9634,-0.02532958984375,-0.00628662109375,0.98675537109375,2.115936279296875,-3.06549072265625,0.58319091796875,1.0,1.0,1.0,1.0,1.0,95.0,event
10:22:26.813,0.9998362,0.38779846,0.16731809,0.66981006,0.38771787,-0.5953877,-0.12911183,0.80951846,0.8275705,-0.037320632,0.11799185,0.9571752,0.7758396,-0.24275494,-0.00997406,0.75615567,0.4433742,-0.5493683,-0.46336985,0.56265426,784.10254,806.26373,801.4286,790.54944,692.6374,-0.02532958984375,-0.00628662109375,0.98675537109375,2.115936279296875,-3.06549072265625,0.58319091796875,1.0,1.0,1.0,1.0,1.0,95.0,event
10:22:26.814,1.0056809,0.40237185,0.1590275,0.69092894,0.42344075,-0.56576276,-0.10540568,0.82359153,0.8415029,-0.037320632,0.12180109,1.0044415,0.77599293,-0.24577682,-0.019668488,0.7604621,0.448896,-0.55967957,-0.4946458,0.5454305,772.4176,805.8608,800.6227,785.31134,679.34064,-0.02532958984375,-0.00628662109375,0.98675537109375,2.115936279296875,-3.06549072265625,0.58319091796875,1.0,1.0,1.0,1.0,1.0,95.0,event
10:22:26.817,1.0056809,0.40237185,0.1590275,0.69092894,0.42344075,-0.56576276,-0.10540568,0.82359153,0.8415029,-0.037320632,0.12180109,1.0044415,0.77599293,-0.24577682,-0.019668488,0.7604621,0.448896,-0.55967957,-0.4946458,0.5454305,773.6264,802.6374,800.6227,799.41394,751.8681,-0.02532958984375,-0.00628662109375,0.98675537109375,2.115936279296875,-3.06549072265625,0.58319091796875,1.0,1.0,1.0,1.0,1.0,95.0,event
10:22:26.818,1.0056809,0.40237185,0.1590275,0.69092894,0.42344075,-0.56576276,-0.10540568,0.82359153,0.8415029,-0.037320632,0.12180109,1.0044415,0.77599293,-0.24577682,-0.019668488,0.7604621,0.448896,-0.55967957,-0.4946458,0.5454305,771.6117,805.8608,806.6667,804.65204,762.3443,-0.02532958984375,-0.00628662109375,0.98675537109375,2.115936279296875,-3.06549072265625,0.58319091796875,1.0,1.0,1.0,1.0,1.0,95.0,event
10:22:26.819,1.0056809,0.40237185,0.1590275,0.69092894,0.42344075,-0.56576276,-0.10540568,0.82359153,0.8415029,-0.037320632,0.12180109,1.0044415,0.77599293,-0.24577682,-0.019668488,0.7604621,0.448896,-0.55967957,-0.4946458,0.5454305,766.77655,803.44324,807.47253,781.685,721.2454,-0.02532958984375,-0.00628662109375,0.98675537109375,2.115936279296875,-3.06549072265625,0.58319091796875,1.0,1.0,1.0,1.0,1.0,95.0,event
10:22:26.819,1.0056809,0.40237185,0.1590275,0.69092894,0.42344075,-0.56576276,-0.10540568,0.82359153,0.8415029,-0.037320632,0.12180109,1.0044415,0.77599293,-0.24577682,-0.019668488,0.7604621,0.448896,-0.55967957,-0.4946458,0.5454305,764.7619,806.26373,801.4286,768.7912,690.2198,-0.02532958984375,-0.00628662109375,0.98675537109375,2.115936279296875,-3.06549072265625,0.58319091796875,1.0,1.0,1.0,1.0,1.0,95.0,event
10:22:26.820,1.0056809,0.40237185,0.1590275,0.69092894,0.42344075,-0.56576276,-0.10540568,0.82359153,0.8415029,-0.037320632,0.12180109,1.0044415,0.77599293,-0.24577682,-0.019668488,0.7604621,0.448896,-0.55967957,-0.4946458,0.5454305,770.0,803.44324,797.8022,800.6227,844.94507,-0.02532958984375,-0.00628662109375,0.98675537109375,2.115936279296875,-3.06549072265625,0.58319091796875,1.0,1.0,1.0,1.0,1.0,95.0,event
10:22:26.821,1.0056809,0.40237185,0.1590275,0.69092894,0.42344075,-0.56576276,-0.10540568,0.82359153,0.8415029,-0.037320632,0.12180109,1.0044415,0.77599293,-0.24577682,-0.019668488,0.7604621,0.448896,-0.55967957,-0.4946458,0.5454305,790.14655,815.12823,804.65204,821.1722,962.6007,-0.02532958984375,-0.00628662109375,0.98675537109375,2.115936279296875,-3.06549072265625,0.58319091796875,1.0,1.0,1.0,1.0,1.0,95.0,event
10:22:26.821,1.0056809,0.40237185,0.1590275,0.69092894,0.42344075,-0.56576276,-0.10540568,0.82359153,0.8415029,-0.037320632,0.12180109,1.0044415,0.77599293,-0.24577682,-0.019668488,0.7604621,0.448896,-0.55967957,-0.4946458,0.5454305,790.14655,806.26373,801.8315,827.2161,1137.8755,-0.02532958984375,-0.00628662109375,0.98675537109375,2.115936279296875,-3.06549072265625,0.58319091796875,1.0,1.0,1.0,1.0,1.0,95.0,event
10:22:26.822,1.0056809,0.40237185,0.1590275,0.69092894,0.42344075,-0.56576276,-0.10540568,0.82359153,0.8415029,-0.037320632,0.12180109,1.0044415,0.77599293,-0.24577682,-0.019668488,0.7604621,0.448896,-0.55967957,-0.4946458,0.5454305,780.4762,806.26373,802.6374,801.4286,690.6227,-0.02532958984375,-0.00628662109375,0.98675537109375,2.115936279296875,-3.06549072265625,0.58319091796875,1.0,1.0,1.0,1.0,1.0,95.0,event
10:22:26.823,1.0056809,0.40237185,0.1590275,0.69092894,0.42344075,-0.56576276,-0.10540568,0.82359153,0.8415029,-0.037320632,0.12180109,1.0044415,0.77599293,-0.24577682,-0.019668488,0.7604621,0.448896,-0.55967957,-0.4946458,0.5454305,776.04395,807.0696,801.8315,793.7729,718.8278,-0.02532958984375,-0.00628662109375,0.98675537109375,2.115936279296875,-3.06549072265625,0.58319091796875,1.0,1.0,1.0,1.0,1.0,95.0,event
10:22:26.823,1.0056809,0.40237185,0.1590275,0.69092894,0.42344075,-0.56576276,-0.10540568,0.82359153,0.8415029,-0.037320632,0.12180109,1.0044415,0.77599293,-0.24577682,-0.019668488,0.7604621,0.448896,-0.55967957,-0.4946458,0.5454305,780.87915,807.47253,804.65204,802.23444,733.73627,-0.02532958984375,-0.00628662109375,0.98675537109375,2.115936279296875,-3.06549072265625,0.58319091796875,1.0,1.0,1.0,1.0,1.0,95.0,event
10:22:26.893,1.0056809,0.40237185,0.1590275,0.69092894,0.42344075,-0.56576276,-0.10540568,0.82359153,0.8415029,-0.037320632,0.12180109,1.0044415,0.77599293,-0.24577682,-0.019668488,0.7604621,0.448896,-0.55967957,-0.4946458,0.5454305,807.47253,802.23444,805.4579,814.7253,707.5458,-0.02490234375,0.0003662109375,0.98870849609375,2.4822998046875,-3.18511962890625,0.179443359375,1.0,1.0,1.0,1.0,1.0,95.0,event
10:22:26.894,1.0056809,0.40237185,0.1590275,0.69092894,0.42344075,-0.56576276,-0.10540568,0.82359153,0.8415029,-0.037320632,0.12180109,1.0044415,0.77599293,-0.24577682,-0.019668488,0.7604621,0.448896,-0.55967957,-0.4946458,0.5454305,806.6667,802.23444,807.0696,824.3956,731.31866,-0.02490234375,0.0003662109375,0.98870849609375,2.4822998046875,-3.18511962890625,0.179443359375,1.0,1.0,1.0,1.0,1.0,95.0,event
10:22:26.895,1.0056809,0.40237185,0.1590275,0.69092894,0.42344075,-0.56576276,-0.10540568,0.82359153,0.8415029,-0.037320632,0.12180109,1.0044415,0.77599293,-0.24577682,-0.019668488,0.7604621,0.448896,-0.55967957,-0.4946458,0.5454305,809.89014,811.50183,803.8461,802.6374,648.71796,-0.02490234375,0.0003662109375,0.98870849609375,2.4822998046875,-3.18511962890625,0.179443359375,1.0,1.0,1.0,1.0,1.0,95.0,event
10:22:26.895,1.0056809,0.40237185,0.1590275,0.69092894,0.42344075,-0.56576276,-0.10540568,0.82359153,0.8415029,-0.037320632,0.12180109,1.0044415,0.77599293,-0.24577682,-0.019668488,0.7604621,0.448896,-0.55967957,-0.4946458,0.5454305,790.9524,805.8608,809.89014,811.0989,710.7692,-0.02490234375,0.0003662109375,0.98870849609375,2.4822998046875,-3.18511962890625,0.179443359375,1.0,1.0,1.0,1.0,1.0,95.0,event
10:22:26.896,1.0056809,0.40237185,0.1590275,0.69092894,0.42344075,-0.56576276,-0.10540568,0.82359153,0.8415029,-0.037320632,0.12180109,1.0044415,0.77599293,-0.24577682,-0.019668488,0.7604621,0.448896,-0.55967957,-0.4946458,0.5454305,800.2198,808.2784,802.23444,801.02563,691.02563,-0.02490234375,0.0003662109375,0.98870849609375,2.4822998046875,-3.18511962890625,0.179443359375,1.0,1.0,1.0,1.0,1.0,95.0,event
10:22:26.897,1.0056809,0.40237185,0.1590275,0.69092894,0.42344075,-0.56576276,-0.10540568,0.82359153,0.8415029,-0.037320632,0.12180109,1.0044415,0.77599293,-0.24577682,-0.019668488,0.7604621,0.448896,-0.55967957,-0.4946458,0.5454305,769.19415,799.41394,805.4579,785.31134,774.0293,-0.02490234375,0.0003662109375,0.98870849609375,2.4822998046875,-3.18511962890625,0.179443359375,1.0,1.0,1.0,1.0,1.0,95.0,event
10:22:26.897,1.0056809,0.40237185,0.1590275,0.69092894,0.42344075,-0.56576276,-0.10540568,0.82359153,0.8415029,-0.037320632,0.12180109,1.0044415,0.77599293,-0.24577682,-0.019668488,0.7604621,0.448896,-0.55967957,-0.4946458,0.5454305,765.56775,801.4286,803.0403,789.7436,1076.63,-0.02490234375,0.0003662109375,0.98870849609375,2.4822998046875,-3.18511962890625,0.179443359375,1.0,1.0,1.0,1.0,1.0,95.0,event
10:22:26.898,1.0056809,0.40237185,0.1590275,0.69092894,0.42344075,-0.56576276,-0.10540568,0.82359153,0.8415029,-0.037320632,0.12180109,1.0044415,0.77599293,-0.24577682,-0.019668488,0.7604621,0.448896,-0.55967957,-0.4946458,0.5454305,765.9707,810.293,799.81683,765.9707,788.1319,-0.02490234375,0.0003662109375,0.98870849609375,2.4822998046875,-3.18511962890625,0.179443359375,1.0,1.0,1.0,1.0,1.0,95.0,event
10:22:26.898,1.0056809,0.40237185,0.1590275,0.69092894,0.42344075,-0.56576276,-0.10540568,0.82359153,0.8415029,-0.037320632,0.12180109,1.0044415,0.77599293,-0.24577682,-0.019668488,0.7604621,0.448896,-0.55967957,-0.4946458,0.5454305,769.59705,809.4872,800.6227,781.28204,1139.0842,-0.02490234375,0.0003662109375,0.98870849609375,2.4822998046875,-3.18511962890625,0.179443359375,1.0,1.0,1.0,1.0,1.0,95.0,event
10:22:26.899,1.0056809,0.40237185,0.1590275,0.69092894,0.42344075,-0.56576276,-0.10540568,0.82359153,0.8415029,-0.037320632,0.12180109,1.0044415,0.77599293,-0.24577682,-0.019668488,0.7604621,0.448896,-0.55967957,-0.4946458,0.5454305,769.19415,802.23444,797.3993,770.40295,697.0696,-0.02490234375,0.0003662109375,0.98870849609375,2.4822998046875,-3.18511962890625,0.179443359375,1.0,1.0,1.0,1.0,1.0,95.0,event
10:22:26.899,1.0056809,0.40237185,0.1590275,0.69092894,0.42344075,-0.56576276,-0.10540568,0.82359153,0.8415029,-0.037320632,0.12180109,1.0044415,0.77599293,-0.24577682,-0.019668488,0.7604621,0.448896,-0.55967957,-0.4946458,0.5454305,782.0879,803.0403,801.02563,779.2674,834.87177,-0.02490234375,0.0003662109375,0.98870849609375,2.4822998046875,-3.18511962890625,0.179443359375,1.0,1.0,1.0,1.0,1.0,95.0,event
10:22:26.900,1.0056809,0.40237185,0.1590275,0.69092894,0.42344075,-0.56576276,-0.10540568,0.82359153,0.8415029,-0.037320632,0.12180109,1.0044415,0.77599293,-0.24577682,-0.019668488,0.7604621,0.448896,-0.55967957,-0.4946458,0.5454305,779.67035,813.5165,807.47253,796.1905,822.7839,-0.02490234375,0.0003662109375,0.98870849609375,2.4822998046875,-3.18511962890625,0.179443359375,1.0,1.0,1.0,1.0,1.0,95.0,event
10:22:26.927,1.0056809,0.40237185,0.1590275,0.69092894,0.42344075,-0.56576276,-0.10540568,0.82359153,0.8415029,-0.037320632,0.12180109,1.0044415,0.77599293,-0.24577682,-0.019668488,0.7604621,0.448896,-0.55967957,-0.4946458,0.5454305,775.64105,808.2784,807.8755,792.5641,762.3443,-0.0269775390625,-0.0020751953125,0.9866943359375,1.57012939453125,-3.21502685546875,0.179443359375,1.0,1.0,1.0,1.0,1.0,95.0,event
10:22:26.928,1.0056809,0.40237185,0.1590275,0.69092894,0.42344075,-0.56576276,-0.10540568,0.82359153,0.8415029,-0.037320632,0.12180109,1.0044415,0.77599293,-0.24577682,-0.019668488,0.7604621,0.448896,-0.55967957,-0.4946458,0.5454305,769.19415,803.8461,803.44324,775.64105,777.6557,-0.0269775390625,-0.0020751953125,0.9866943359375,1.57012939453125,-3.21502685546875,0.179443359375,1.0,1.0,1.0,1.0,1.0,95.0,event
10:22:26.929,1.0056809,0.40237185,0.1590275,0.69092894,0.42344075,-0.56576276,-0.10540568,0.82359153,0.8415029,-0.037320632,0.12180109,1.0044415,0.77599293,-0.24577682,-0.019668488,0.7604621,0.448896,-0.55967957,-0.4946458,0.5454305,775.64105,808.68134,796.5934,784.90845,716.0073,-0.0269775390625,-0.0020751953125,0.9866943359375,1.57012939453125,-3.21502685546875,0.179443359375,1.0,1.0,1.0,1.0,1.0,95.0,event
10:22:26.930,0.99977785,0.40442502,0.14733088,0.70931864,0.45101985,-0.5505459,-0.086260624,0.84222907,0.8415029,-0.037320632,0.12180109,1.0258783,0.76985043,-0.24217089,-0.032767512,0.7672307,0.45750326,-0.567383,-0.51914096,0.524753,781.685,810.293,801.8315,808.2784,693.8461,-0.0269775390625,-0.0020751953125,0.9866943359375,1.57012939453125,-3.21502685546875,0.179443359375,1.0,1.0,1.0,1.0,1.0,95.0,event
10:22:26.934,0.99977785,0.40442502,0.14733088,0.70931864,0.45101985,-0.5505459,-0.086260624,0.84222907,0.8415029,-0.037320632,0.12180109,1.0258783,0.76985043,-0.24217089,-0.032767512,0.7672307,0.45750326,-0.567383,-0.51914096,0.524753,772.01465,805.8608,804.65204,823.5897,729.304,-0.0269775390625,-0.0020751953125,0.9866943359375,1.57012939453125,-3.21502685546875,0.179443359375,1.0,1.0,1.0,1.0,1.0,95.0,event
10:22:26.935,0.99977785,0.40442502,0.14733088,0.70931864,0.45101985,-0.5505459,-0.086260624,0.84222907,0.8415029,-0.037320632,0.12180109,1.0258783,0.76985043,-0.24217089,-0.032767512,0.7672307,0.45750326,-0.567383,-0.51914096,0.524753,784.5055,803.44324,799.81683,815.12823,890.4762,-0.0269775390625,-0.0020751953125,0.9866943359375,1.57012939453125,-3.21502685546875,0.179443359375,1.0,1.0,1.0,1.0,1.0,95.0,event
10:22:26.935,0.99977785,0.40442502,0.14733088,0.70931864,0.45101985,-0.5505459,-0.086260624,0.84222907,0.8415029,-0.037320632,0.12180109,1.0258783,0.76985043,-0.24217089,-0.032767512,0.7672307,0.45750326,-0.567383,-0.51914096,0.524753,787.326,808.2784,799.81683,801.8315,983.5531,-0.0269775390625,-0.0020751953125,0.9866943359375,1.57012939453125,-3.21502685546875,0.179443359375,1.0,1.0,1.0,1.0,1.0,95.0,event
10:22:26.935,0.99977785,0.40442502,0.14733088,0.70931864,0.45101985,-0.5505459,-0.086260624,0.84222907,0.8415029,-0.037320632,0.12180109,1.0258783,0.76985043,-0.24217089,-0.032767512,0.7672307,0.45750326,-0.567383,-0.51914096,0.524753,775.64105,813.5165,806.26373,801.02563,784.90845,-0.0269775390625,-0.0020751953125,0.9866943359375,1.57012939453125,-3.21502685546875,0.179443359375,1.0,1.0,1.0,1.0,1.0,95.0,event
10:22:26.936,0.99977785,0.40442502,0.14733088,0.70931864,0.45101985,-0.5505459,-0.086260624,0.84222907,0.8415029,-0.037320632,0.12180109,1.0258783,0.76985043,-0.24217089,-0.032767512,0.7672307,0.45750326,-0.567383,-0.51914096,0.524753,785.31134,811.9048,807.47253,801.4286,695.4579,-0.0269775390625,-0.0020751953125,0.9866943359375,1.57012939453125,-3.21502685546875,0.179443359375,1.0,1.0,1.0,1.0,1.0,95.0,event
10:22:26.936,0.99977785,0.40442502,0.14733088,0.70931864,0.45101985,-0.5505459,-0.086260624,0.84222907,0.8415029,-0.037320632,0.12180109,1.0258783,0.76985043,-0.24217089,-0.032767512,0.7672307,0.45750326,-0.567383,-0.51914096,0.524753,791.3553,806.26373,804.2491,806.6667,868.315,-0.0269775390625,-0.0020751953125,0.9866943359375,1.57012939453125,-3.21502685546875,0.179443359375,1.0,1.0,1.0,1.0,1.0,95.0,event
10:22:26.937,0.99977785,0.40442502,0.14733088,0.70931864,0.45101985,-0.5505459,-0.086260624,0.84222907,0.8415029,-0.037320632,0.12180109,1.0258783,0.76985043,-0.24217089,-0.032767512,0.7672307,0.45750326,-0.567383,-0.51914096,0.524753,784.10254,807.47253,802.23444,801.4286,980.32965,-0.0269775390625,-0.0020751953125,0.9866943359375,1.57012939453125,-3.21502685546875,0.179443359375,1.0,1.0,1.0,1.0,1.0,95.0,event
10:22:26.937,0.99977785,0.40442502,0.14733088,0.70931864,0.45101985,-0.5505459,-0.086260624,0.84222907,0.8415029,-0.037320632,0.12180109,1.0258783,0.76985043,-0.24217089,-0.032767512,0.7672307,0.45750326,-0.567383,-0.51914096,0.524753,774.0293,808.68134,800.6227,772.4176,778.0586,-0.0269775390625,-0.0020751953125,0.9866943359375,1.57012939453125,-3.21502685546875,0.179443359375,1.0,1.0,1.0,1.0,1.0,95.0,event
10:22:26.959,0.99977785,0.40442502,0.14733088,0.70931864,0.45101985,-0.5505459,-0.086260624,0.84222907,0.8415029,-0.037320632,0.12180109,1.0258783,0.76985043,-0.24217089,-0.032767512,0.7672307,0.45750326,-0.567383,-0.51914096,0.524753,781.28204,805.8608,800.2198,795.78754,836.8865,-0.0198974609375,-0.0052490234375,0.976806640625,2.64678955078125,-3.760833740234375,-0.299072265625,1.0,1.0,1.0,1.0,1.0,95.0,event
10:22:26.959,0.99977785,0.40442502,0.14733088,0.70931864,0.45101985,-0.5505459,-0.086260624,0.84222907,0.8415029,-0.037320632,0.12180109,1.0258783,0.76985043,-0.24217089,-0.032767512,0.7672307,0.45750326,-0.567383,-0.51914096,0.524753,766.77655,804.65204,801.8315,777.6557,654.35895,-0.0198974609375,-0.0052490234375,0.976806640625,2.64678955078125,-3.760833740234375,-0.299072265625,1.0,1.0,1.0,1.0,1.0,95.0,event
10:22:26.960,0.99977785,0.40442502,0.14733088,0.70931864,0.45101985,-0.5505459,-0.086260624,0.84222907,0.8415029,-0.037320632,0.12180109,1.0258783,0.76985043,-0.24217089,-0.032767512,0.7672307,0.45750326,-0.567383,-0.51914096,0.524753,799.81683,813.91943,799.81683,815.5311,884.43225,-0.0198974609375,-0.0052490234375,0.976806640625,2.64678955078125,-3.760833740234375,-0.299072265625,1.0,1.0,1.0,1.0,1.0,95.0,event
10:22:26.961,0.99977785,0.40442502,0.14733088,0.70931864,0.45101985,-0.5505459,-0.086260624,0.84222907,0.8415029,-0.037320632,0.12180109,1.0258783,0.76985043,-0.24217089,-0.032767512,0.7672307,0.45750326,-0.567383,-0.51914096,0.524753,783.69965,809.89014,801.02563,827.2161,711.5751,-0.0198974609375,-0.0052490234375,0.976806640625,2.64678955078125,-3.760833740234375,-0.299072265625,1.0,1.0,1.0,1.0,1.0,95.0,event
10:22:26.961,0.99977785,0.40442502,0.14733088,0.70931864,0.45101985,-0.5505459,-0.086260624,0.84222907,0.8415029,-0.037320632,0.12180109,1.0258783,0.76985043,-0.24217089,-0.032767512,0.7672307,0.45750326,-0.567383,-0.51914096,0.524753,777.6557,802.6374,802.6374,803.8461,714.7985,-0.0198974609375,-0.0052490234375,0.976806640625,2.64678955078125,-3.760833740234375,-0.299072265625,1.0,1.0,1.0,1.0,1.0,95.0,event
10:22:26.961,0.99977785,0.40442502,0.14733088,0.70931864,0.45101985,-0.5505459,-0.086260624,0.84222907,0.8415029,-0.037320632,0.12180109,1.0258783,0.76985043,-0.24217089,-0.032767512,0.7672307,0.45750326,-0.567383,-0.51914096,0.524753,775.64105,805.05493,801.8315,796.1905,874.35895,-0.0198974609375,-0.0052490234375,0.976806640625,2.64678955078125,-3.760833740234375,-0.299072265625,1.0,1.0,1.0,1.0,1.0,95.0,event
10:22:26.962,0.99977785,0.40442502,0.14733088,0.70931864,0.45101985,-0.5505459,-0.086260624,0.84222907,0.8415029,-0.037320632,0.12180109,1.0258783,0.76985043,-0.24217089,-0.032767512,0.7672307,0.45750326,-0.567383,-0.51914096,0.524753,782.49084,809.4872,795.38464,799.41394,971.4652,-0.0198974609375,-0.0052490234375,0.976806640625,2.64678955078125,-3.760833740234375,-0.299072265625,1.0,1.0,1.0,1.0,1.0,95.0,event
10:22:26.962,0.99977785,0.40442502,0.14733088,0.70931864,0.45101985,-0.5505459,-0.086260624,0.84222907,0.8415029,-0.037320632,0.12180109,1.0258783,0.76985043,-0.24217089,-0.032767512,0.7672307,0.45750326,-0.567383,-0.51914096,0.524753,791.75824,807.8755,798.60803,809.4872,832.4542,-0.0198974609375,-0.0052490234375,0.976806640625,2.64678955078125,-3.760833740234375,-0.299072265625,1.0,1.0,1.0,1.0,1.0,95.0,event
10:22:26.962,0.99977785,0.40442502,0.14733088,0.70931864,0.45101985,-0.5505459,-0.086260624,0.84222907,0.8415029,-0.037320632,0.12180109,1.0258783,0.76985043,-0.24217089,-0.032767512,0.7672307,0.45750326,-0.567383,-0.51914096,0.524753,786.9231,799.41394,799.81683,815.5311,767.1795,-0.0198974609375,-0.0052490234375,0.976806640625,2.64678955078125,-3.760833740234375,-0.299072265625,1.0,1.0,1.0,1.0,1.0,95.0,event
10:22:26.963,0.99977785,0.40442502,0.14733088,0.70931864,0.45101985,-0.5505459,-0.086260624,0.84222907,0.8415029,-0.037320632,0.12180109,1.0258783,0.76985043,-0.24217089,-0.032767512,0.7672307,0.45750326,-0.567383,-0.51914096,0.524753,803.44324,801.8315,796.99634,783.69965,905.78754,-0.0198974609375,-0.0052490234375,0.976806640625,2.64678955078125,-3.760833740234375,-0.299072265625,1.0,1.0,1.0,1.0,1.0,95.0,event
10:22:26.963,0.99977785,0.40442502,0.14733088,0.70931864,0.45101985,-0.5505459,-0.086260624,0.84222907,0.8415029,-0.037320632,0.12180109,1.0258783,0.76985043,-0.24217089,-0.032767512,0.7672307,0.45750326,-0.567383,-0.51914096,0.524753,790.54944,814.7253,800.2198,770.80585,832.4542,-0.0198974609375,-0.0052490234375,0.976806640625,2.64678955078125,-3.760833740234375,-0.299072265625,1.0,1.0,1.0,1.0,1.0,95.0,event
10:22:26.963,0.99977785,0.40442502,0.14733088,0.70931864,0.45101985,-0.5505459,-0.086260624,0.84222907,0.8415029,-0.037320632,0.12180109,1.0258783,0.76985043,-0.24217089,-0.032767512,0.7672307,0.45750326,-0.567383,-0.51914096,0.524753,779.67035,809.4872,800.2198,790.14655,706.337,-0.0198974609375,-0.0052490234375,0.976806640625,2.64678955078125,-3.760833740234375,-0.299072265625,1.0,1.0,1.0,1.0,1.0,95.0,event
10:22:27.026,0.99977785,0.40442502,0.14733088,0.70931864,0.45101985,-0.5505459,-0.086260624,0.84222907,0.8415029,-0.037320632,0.12180109,1.0258783,0.76985043,-0.24217089,-0.032767512,0.7672307,0.45750326,-0.567383,-0.51914096,0.524753,791.75824,800.2198,796.5934,808.68134,772.8205,-0.0225830078125,0.00128173828125,0.99005126953125,1.973876953125,-3.57391357421875,1.009368896484375,1.0,1.0,1.0,1.0,1.0,95.0,event
10:22:27.027,0.99977785,0.40442502,0.14733088,0.70931864,0.45101985,-0.5505459,-0.086260624,0.84222907,0.8415029,-0.037320632,0.12180109,1.0258783,0.76985043,-0.24217089,-0.032767512,0.7672307,0.45750326,-0.567383,-0.51914096,0.524753,775.2381,799.81683,794.17584,807.8755,854.61536,-0.0225830078125,0.00128173828125,0.99005126953125,1.973876953125,-3.57391357421875,1.009368896484375,1.0,1.0,1.0,1.0,1.0,95.0,event
10:22:27.028,0.99977785,0.40442502,0.14733088,0.70931864,0.45101985,-0.5505459,-0.086260624,0.84222907,0.8415029,-0.037320632,0.12180109,1.0258783,0.76985043,-0.24217089,-0.032767512,0.7672307,0.45750326,-0.567383,-0.51914096,0.524753,775.64105,804.2491,800.6227,769.59705,813.5165,-0.0225830078125,0.00128173828125,0.99005126953125,1.973876953125,-3.57391357421875,1.009368896484375,1.0,1.0,1.0,1.0,1.0,95.0,event
10:22:27.029,0.99977785,0.40442502,0.14733088,0.70931864,0.45101985,-0.5505459,-0.086260624,0.84222907,0.8415029,-0.037320632,0.12180109,1.0258783,0.76985043,-0.24217089,-0.032767512,0.7672307,0.45750326,-0.567383,-0.51914096,0.524753,780.07324,808.68134,799.41394,770.0,663.22345,-0.0225830078125,0.00128173828125,0.99005126953125,1.973876953125,-3.57391357421875,1.009368896484375,1.0,1.0,1.0,1.0,1.0,95.0,event
10:22:27.030,0.9727535,0.39974457,0.12898993,0.7200563,0.4649515,-0.54718786,-0.08257759,0.8644986,0.8415029,-0.03945623,0.12180109,1.0115021,0.7583755,-0.23498686,-0.0477064,0.7766234,0.4664654,-0.570168,-0.5285498,0.5090263,776.8498,806.26373,799.41394,816.337,996.8498,-0.0225830078125,0.00128173828125,0.99005126953125,1.973876953125,-3.57391357421875,1.009368896484375,1.0,1.0,1.0,1.0,1.0,95.0,event
10:22:27.030,0.99977785,0.40442502,0.14733088,0.70931864,0.45101985,-0.5505459,-0.086260624,0.84222907,0.8415029,-0.037320632,0.12180109,1.0258783,0.76985043,-0.24217089,-0.032767512,0.7672307,0.45750326,-0.567383,-0.51914096,0.524753,771.2088,807.0696,795.78754,807.0696,768.7912,-0.0225830078125,0.00128173828125,0.99005126953125,1.973876953125,-3.57391357421875,1.009368896484375,1.0,1.0,1.0,1.0,1.0,95.0,event
10:22:27.035,0.9727535,0.39974457,0.12898993,0.7200563,0.4649515,-0.54718786,-0.08257759,0.8644986,0.8415029,-0.03945623,0.12180109,1.0115021,0.7583755,-0.23498686,-0.0477064,0.7766234,0.4664654,-0.570168,-0.5285498,0.5090263,781.28204,807.0696,799.41394,814.3223,1001.28204,-0.0225830078125,0.00128173828125,0.99005126953125,1.973876953125,-3.57391357421875,1.009368896484375,1.0,1.0,1.0,1.0,1.0,95.0,event
10:22:27.036,0.9727535,0.39974457,0.12898993,0.7200563,0.4649515,-0.54718786,-0.08257759,0.8644986,0.8415029,-0.03945623,0.12180109,1.0115021,0.7583755,-0.23498686,-0.0477064,0.7766234,0.4664654,-0.570168,-0.5285498,0.5090263,795.78754,800.2198,796.1905,776.8498,744.61536,-0.0225830078125,0.00128173828125,0.99005126953125,1.973876953125,-3.57391357421875,1.009368896484375,1.0,1.0,1.0,1.0,1.0,95.0,event
10:22:27.036,0.9727535,0.39974457,0.12898993,0.7200563,0.4649515,-0.54718786,-0.08257759,0.8644986,0.8415029,-0.03945623,0.12180109,1.0115021,0.7583755,-0.23498686,-0.0477064,0.7766234,0.4664654,-0.570168,-0.5285498,0.5090263,794.57874,806.6667,797.3993,787.72894,767.98535,-0.0225830078125,0.00128173828125,0.99005126953125,1.973876953125,-3.57391357421875,1.009368896484375,1.0,1.0,1.0,1.0,1.0,95.0,event
10:22:27.037,0.9727535,0.39974457,0.12898993,0.7200563,0.4649515,-0.54718786,-0.08257759,0.8644986,0.8415029,-0.03945623,0.12180109,1.0115021,0.7583755,-0.23498686,-0.0477064,0.7766234,0.4664654,-0.570168,-0.5285498,0.5090263,774.43225,803.8461,803.0403,805.8608,934.3956,-0.0225830078125,0.00128173828125,0.99005126953125,1.973876953125,-3.57391357421875,1.009368896484375,1.0,1.0,1.0,1.0,1.0,95.0,event
10:22:27.038,0.9727535,0.39974457,0.12898993,0.7200563,0.4649515,-0.54718786,-0.08257759,0.8644986,0.8415029,-0.03945623,0.12180109,1.0115021,0.7583755,-0.23498686,-0.0477064,0.7766234,0.4664654,-0.570168,-0.5285498,0.5090263,769.19415,809.4872,806.26373,827.619,745.42126,-0.0225830078125,0.00128173828125,0.99005126953125,1.973876953125,-3.57391357421875,1.009368896484375,1.0,1.0,1.0,1.0,1.0,95.0,event
10:22:27.038,0.9727535,0.39974457,0.12898993,0.7200563,0.4649515,-0.54718786,-0.08257759,0.8644986,0.8415029,-0.03945623,0.12180109,1.0115021,0.7583755,-0.23498686,-0.0477064,0.7766234,0.4664654,-0.570168,-0.5285498,0.5090263,773.6264,802.6374,804.65204,838.9011,691.02563,-0.0225830078125,0.00128173828125,0.99005126953125,1.973876953125,-3.57391357421875,1.009368896484375,1.0,1.0,1.0,1.0,1.0,95.0,event
10:22:27.065,0.9727535,0.39974457,0.12898993,0.7200563,0.4649515,-0.54718786,-0.08257759,0.8644986,0.8415029,-0.03945623,0.12180109,1.0115021,0.7583755,-0.23498686,-0.0477064,0.7766234,0.4664654,-0.570168,-0.5285498,0.5090263,779.2674,801.8315,801.4286,821.5751,758.315,-0.0225830078125,0.00128173828125,0.99005126953125,1.973876953125,-3.57391357421875,1.009368896484375,1.0,1.0,1.0,1.0,1.0,95.0,event
10:22:27.066,0.9727535,0.39974457,0.12898993,0.7200563,0.4649515,-0.54718786,-0.08257759,0.8644986,0.8415029,-0.03945623,0.12180109,1.0115021,0.7583755,-0.23498686,-0.0477064,0.7766234,0.4664654,-0.570168,-0.5285498,0.5090263,788.1319,808.68134,803.44324,790.54944,663.22345,-0.0225830078125,0.00128173828125,0.99005126953125,1.973876953125,-3.57391357421875,1.009368896484375,1.0,1.0,1.0,1.0,1.0,95.0,event
10:22:27.068,0.9727535,0.39974457,0.12898993,0.7200563,0.4649515,-0.54718786,-0.08257759,0.8644986,0.8415029,-0.03945623,0.12180109,1.0115021,0.7583755,-0.23498686,-0.0477064,0.7766234,0.4664654,-0.570168,-0.5285498,0.5090263,781.685,810.696,807.8755,807.0696,668.86444,-0.0225830078125,0.00128173828125,0.99005126953125,1.973876953125,-3.57391357421875,1.009368896484375,1.0,1.0,1.0,1.0,1.0,95.0,event
10:22:27.069,0.9727535,0.39974457,0.12898993,0.7200563,0.4649515,-0.54718786,-0.08257759,0.8644986,0.8415029,-0.03945623,0.12180109,1.0115021,0.7583755,-0.23498686,-0.0477064,0.7766234,0.4664654,-0.570168,-0.5285498,0.5090263,768.3883,806.6667,803.44324,817.5458,741.39197,-0.0225830078125,0.00128173828125,0.99005126953125,1.973876953125,-3.57391357421875,1.009368896484375,1.0,1.0,1.0,1.0,1.0,95.0,event
10:22:27.070,0.9727535,0.39974457,0.12898993,0.7200563,0.4649515,-0.54718786,-0.08257759,0.8644986,0.8415029,-0.03945623,0.12180109,1.0115021,0.7583755,-0.23498686,-0.0477064,0.7766234,0.4664654,-0.570168,-0.5285498,0.5090263,781.685,805.8608,803.0403,803.0403,892.49084,-0.0225830078125,0.00128173828125,0.99005126953125,1.973876953125,-3.57391357421875,1.009368896484375,1.0,1.0,1.0,1.0,1.0,95.0,event
10:22:27.070,0.9727535,0.39974457,0.12898993,0.7200563,0.4649515,-0.54718786,-0.08257759,0.8644986,0.8415029,-0.03945623,0.12180109,1.0115021,0.7583755,-0.23498686,-0.0477064,0.7766234,0.4664654,-0.570168,-0.5285498,0.5090263,774.0293,805.05493,799.41394,814.3223,806.26373,-0.0225830078125,0.00128173828125,0.99005126953125,1.973876953125,-3.57391357421875,1.009368896484375,1.0,1.0,1.0,1.0,1.0,95.0,event
10:22:27.071,0.9727535,0.39974457,0.12898993,0.7200563,0.4649515,-0.54718786,-0.08257759,0.8644986,0.8415029,-0.03945623,0.12180109,1.0115021,0.7583755,-0.23498686,-0.0477064,0.7766234,0.4664654,-0.570168,-0.5285498,0.5090263,787.72894,809.89014,804.65204,772.01465,805.8608,-0.0225830078125,0.00128173828125,0.99005126953125,1.973876953125,-3.57391357421875,1.009368896484375,1.0,1.0,1.0,1.0,1.0,95.0,event
10:22:27.072,0.9727535,0.39974457,0.12898993,0.7200563,0.4649515,-0.54718786,-0.08257759,0.8644986,0.8415029,-0.03945623,0.12180109,1.0115021,0.7583755,-0.23498686,-0.0477064,0.7766234,0.4664654,-0.570168,-0.5285498,0.5090263,781.685,809.89014,802.6374,780.07324,709.15753,-0.0225830078125,0.00128173828125,0.99005126953125,1.973876953125,-3.57391357421875,1.009368896484375,1.0,1.0,1.0,1.0,1.0,95.0,event
10:22:27.073,0.9727535,0.39974457,0.12898993,0.7200563,0.4649515,-0.54718786,-0.08257759,0.8644986,0.8415029,-0.03945623,0.12180109,1.0115021,0.7583755,-0.23498686,-0.0477064,0.7766234,0.4664654,-0.570168,-0.5285498,0.5090263,783.2967,806.26373,805.4579,798.60803,969.0476,-0.0225830078125,0.00128173828125,0.99005126953125,1.973876953125,-3.57391357421875,1.009368896484375,1.0,1.0,1.0,1.0,1.0,95.0,event
10:22:27.074,0.9727535,0.39974457,0.12898993,0.7200563,0.4649515,-0.54718786,-0.08257759,0.8644986,0.8415029,-0.03945623,0.12180109,1.0115021,0.7583755,-0.23498686,-0.0477064,0.7766234,0.4664654,-0.570168,-0.5285498,0.5090263,786.1172,815.12823,805.05493,819.15753,996.8498,-0.0225830078125,0.00128173828125,0.99005126953125,1.973876953125,-3.57391357421875,1.009368896484375,1.0,1.0,1.0,1.0,1.0,95.0,event
10:22:27.075,0.9727535,0.39974457,0.12898993,0.7200563,0.4649515,-0.54718786,-0.08257759,0.8644986,0.8415029,-0.03945623,0.12180109,1.0115021,0.7583755,-0.23498686,-0.0477064,0.7766234,0.4664654,-0.570168,-0.5285498,0.5090263,792.5641,812.3077,806.26373,804.65204,752.674,-0.0225830078125,0.00128173828125,0.99005126953125,1.973876953125,-3.57391357421875,1.009368896484375,1.0,1.0,1.0,1.0,1.0,95.0,event
10:22:27.075,0.9727535,0.39974457,0.12898993,0.7200563,0.4649515,-0.54718786,-0.08257759,0.8644986,0.8415029,-0.03945623,0.12180109,1.0115021,0.7583755,-0.23498686,-0.0477064,0.7766234,0.4664654,-0.570168,-0.5285498,0.5090263,784.90845,800.2198,808.68134,775.64105,806.6667,-0.0225830078125,0.00128173828125,0.99005126953125,1.973876953125,-3.57391357421875,1.009368896484375,1.0,1.0,1.0,1.0,1.0,95.0,event
10:22:27.097,0.9727535,0.39974457,0.12898993,0.7200563,0.4649515,-0.54718786,-0.08257759,0.8644986,0.8415029,-0.03945623,0.12180109,1.0115021,0.7583755,-0.23498686,-0.0477064,0.7766234,0.4664654,-0.570168,-0.5285498,0.5090263,772.8205,809.0842,805.4579,790.9524,874.35895,-0.0301513671875,-0.01025390625,0.98663330078125,1.682281494140625,-3.895416259765625,0.46356201171875,1.0,1.0,1.0,1.0,1.0,95.0,event
10:22:27.098,0.9727535,0.39974457,0.12898993,0.7200563,0.4649515,-0.54718786,-0.08257759,0.8644986,0.8415029,-0.03945623,0.12180109,1.0115021,0.7583755,-0.23498686,-0.0477064,0.7766234,0.4664654,-0.570168,-0.5285498,0.5090263,780.07324,816.337,801.4286,808.2784,753.47986,-0.0301513671875,-0.01025390625,0.98663330078125,1.682281494140625,-3.895416259765625,0.46356201171875,1.0,1.0,1.0,1.0,1.0,95.0,event
10:22:27.099,0.9727535,0.39974457,0.12898993,0.7200563,0.4649515,-0.54718786,-0.08257759,0.8644986,0.8415029,-0.03945623,0.12180109,1.0115021,0.7583755,-0.23498686,-0.0477064,0.7766234,0.4664654,-0.570168,-0.5285498,0.5090263,799.41394,809.89014,808.2784,822.7839,849.3773,-0.0301513671875,-0.01025390625,0.98663330078125,1.682281494140625,-3.895416259765625,0.46356201171875,1.0,1.0,1.0,1.0,1.0,95.0,event
10:22:27.099,0.9727535,0.39974457,0.12898993,0.7200563,0.4649515,-0.54718786,-0.08257759,0.8644986,0.8415029,-0.03945623,0.12180109,1.0115021,0.7583755,-0.23498686,-0.0477064,0.7766234,0.4664654,-0.570168,-0.5285498,0.5090263,805.05493,813.1135,803.44324,825.2015,711.1722,-0.0301513671875,-0.01025390625,0.98663330078125,1.682281494140625,-3.895416259765625,0.46356201171875,1.0,1.0,1.0,1.0,1.0,95.0,event
10:22:27.100,0.9727535,0.39974457,0.12898993,0.7200563,0.4649515,-0.54718786,-0.08257759,0.8644986,0.8415029,-0.03945623,0.12180109,1.0115021,0.7583755,-0.23498686,-0.0477064,0.7766234,0.4664654,-0.570168,-0.5285498,0.5090263,759.92676,805.8608,806.6667,809.89014,865.4945,-0.0301513671875,-0.01025390625,0.98663330078125,1.682281494140625,-3.895416259765625,0.46356201171875,1.0,1.0,1.0,1.0,1.0,95.0,event
10:22:27.101,0.9727535,0.39974457,0.12898993,0.7200563,0.4649515,-0.54718786,-0.08257759,0.8644986,0.8415029,-0.03945623,0.12180109,1.0115021,0.7583755,-0.23498686,-0.0477064,0.7766234,0.4664654,-0.570168,-0.5285498,0.5090263,765.56775,811.0989,807.0696,822.7839,780.4762,-0.0301513671875,-0.01025390625,0.98663330078125,1.682281494140625,-3.895416259765625,0.46356201171875,1.0,1.0,1.0,1.0,1.0,95.0,event
10:22:27.101,0.9727535,0.39974457,0.12898993,0.7200563,0.4649515,-0.54718786,-0.08257759,0.8644986,0.8415029,-0.03945623,0.12180109,1.0115021,0.7583755,-0.23498686,-0.0477064,0.7766234,0.4664654,-0.570168,-0.5285498,0.5090263,776.04395,820.7692,813.1135,819.15753,761.9414,-0.0301513671875,-0.01025390625,0.98663330078125,1.682281494140625,-3.895416259765625,0.46356201171875,1.0,1.0,1.0,1.0,1.0,95.0,event
10:22:27.101,0.91690123,0.39461306,0.10370307,0.73053366,0.46314996,-0.55118746,-0.10227177,0.885952,0.84541607,-0.043931782,0.12180109,0.9966848,0.74968946,-0.22977448,-0.061605603,0.7935696,0.47447482,-0.56558657,-0.52405167,0.5014512,784.5055,809.4872,809.4872,816.7399,902.1612,-0.0301513671875,-0.01025390625,0.98663330078125,1.682281494140625,-3.895416259765625,0.46356201171875,1.0,1.0,1.0,1.0,1.0,95.0,event
10:22:27.105,0.91690123,0.39461306,0.10370307,0.73053366,0.46314996,-0.55118746,-0.10227177,0.885952,0.84541607,-0.043931782,0.12180109,0.9966848,0.74968946,-0.22977448,-0.061605603,0.7935696,0.47447482,-0.56558657,-0.52405167,0.5014512,788.5348,806.26373,805.4579,815.12823,1149.5604,-0.0301513671875,-0.01025390625,0.98663330078125,1.682281494140625,-3.895416259765625,0.46356201171875,1.0,1.0,1.0,1.0,1.0,95.0,event
10:22:27.106,0.91690123,0.39461306,0.10370307,0.73053366,0.46314996,-0.55118746,-0.10227177,0.885952,0.84541607,-0.043931782,0.12180109,0.9966848,0.74968946,-0.22977448,-0.061605603,0.7935696,0.47447482,-0.56558657,-0.52405167,0.5014512,781.685,815.5311,809.0842,790.9524,949.707,-0.0301513671875,-0.01025390625,0.98663330078125,1.682281494140625,-3.895416259765625,0.46356201171875,1.0,1.0,1.0,1.0,1.0,95.0,event
10:22:27.106,0.91690123,0.39461306,0.10370307,0.73053366,0.46314996,-0.55118746,-0.10227177,0.885952,0.84541607,-0.043931782,0.12180109,0.9966848,0.74968946,-0.22977448,-0.061605603,0.7935696,0.47447482,-0.56558657,-0.52405167,0.5014512,769.19415,811.9048,807.47253,798.20514,697.47253,-0.0301513671875,-0.01025390625,0.98663330078125,1.682281494140625,-3.895416259765625,0.46356201171875,1.0,1.0,1.0,1.0,1.0,95.0,event
10:22:27.107,0.91690123,0.39461306,0.10370307,0.73053366,0.46314996,-0.55118746,-0.10227177,0.885952,0.84541607,-0.043931782,0.12180109,0.9966848,0.74968946,-0.22977448,-0.061605603,0.7935696,0.47447482,-0.56558657,-0.52405167,0.5014512,768.3883,812.71063,803.8461,822.7839,770.40295,-0.0301513671875,-0.01025390625,0.98663330078125,1.682281494140625,-3.895416259765625,0.46356201171875,1.0,1.0,1.0,1.0,1.0,95.0,event
10:22:27.129,0.91690123,0.39461306,0.10370307,0.73053366,0.46314996,-0.55118746,-0.10227177,0.885952,0.84541607,-0.043931782,0.12180109,0.9966848,0.74968946,-0.22977448,-0.061605603,0.7935696,0.47447482,-0.56558657,-0.52405167,0.5014512,774.43225,807.8755,799.011,842.9304,790.14655,-0.0167236328125,-0.00469970703125,0.98785400390625,2.504730224609375,-3.94775390625,0.157012939453125,1.0,1.0,1.0,1.0,1.0,95.0,event
10:22:27.130,0.91690123,0.39461306,0.10370307,0.73053366,0.46314996,-0.55118746,-0.10227177,0.885952,0.84541607,-0.043931782,0.12180109,0.9966848,0.74968946,-0.22977448,-0.061605603,0.7935696,0.47447482,-0.56558657,-0.52405167,0.5014512,774.83514,802.6374,798.60803,836.8865,730.9158,-0.0167236328125,-0.00469970703125,0.98785400390625,2.504730224609375,-3.94775390625,0.157012939453125,1.0,1.0,1.0,1.0,1.0,95.0,event
10:22:27.131,0.91690123,0.39461306,0.10370307,0.73053366,0.46314996,-0.55118746,-0.10227177,0.885952,0.84541607,-0.043931782,0.12180109,0.9966848,0.74968946,-0.22977448,-0.061605603,0.7935696,0.47447482,-0.56558657,-0.52405167,0.5014512,773.6264,806.26373,800.2198,801.4286,677.72894,-0.0167236328125,-0.00469970703125,0.98785400390625,2.504730224609375,-3.94775390625,0.157012939453125,1.0,1.0,1.0,1.0,1.0,95.0,event
10:22:27.131,0.91690123,0.39461306,0.10370307,0.73053366,0.46314996,-0.55118746,-0.10227177,0.885952,0.84541607,-0.043931782,0.12180109,0.9966848,0.74968946,-0.22977448,-0.061605603,0.7935696,0.47447482,-0.56558657,-0.52405167,0.5014512,780.87915,808.68134,801.8315,800.6227,680.14655,-0.0167236328125,-0.00469970703125,0.98785400390625,2.504730224609375,-3.94775390625,0.157012939453125,1.0,1.0,1.0,1.0,1.0,95.0,event
10:22:27.131,0.91690123,0.39461306,0.10370307,0.73053366,0.46314996,-0.55118746,-0.10227177,0.885952,0.84541607,-0.043931782,0.12180109,0.9966848,0.74968946,-0.22977448,-0.061605603,0.7935696,0.47447482,-0.56558657,-0.52405167,0.5014512,785.31134,808.2784,803.44324,823.1868,716.4103,-0.0167236328125,-0.00469970703125,0.98785400390625,2.504730224609375,-3.94775390625,0.157012939453125,1.0,1.0,1.0,1.0,1.0,95.0,event
10:22:27.132,0.91690123,0.39461306,0.10370307,0.73053366,0.46314996,-0.55118746,-0.10227177,0.885952,0.84541607,-0.043931782,0.12180109,0.9966848,0.74968946,-0.22977448,-0.061605603,0.7935696,0.47447482,-0.56558657,-0.52405167,0.5014512,787.326,803.8461,797.3993,819.5604,849.3773,-0.0167236328125,-0.00469970703125,0.98785400390625,2.504730224609375,-3.94775390625,0.157012939453125,1.0,1.0,1.0,1.0,1.0,95.0,event
10:22:27.132,0.91690123,0.39461306,0.10370307,0.73053366,0.46314996,-0.55118746,-0.10227177,0.885952,0.84541607,-0.043931782,0.12180109,0.9966848,0.74968946,-0.22977448,-0.061605603,0.7935696,0.47447482,-0.56558657,-0.52405167,0.5014512,785.7143,802.23444,801.4286,812.3077,919.0842,-0.0167236328125,-0.00469970703125,0.98785400390625,2.504730224609375,-3.94775390625,0.157012939453125,1.0,1.0,1.0,1.0,1.0,95.0,event
10:22:27.133,0.91690123,0.39461306,0.10370307,0.73053366,0.46314996,-0.55118746,-0.10227177,0.885952,0.84541607,-0.043931782,0.12180109,0.9966848,0.74968946,-0.22977448,-0.061605603,0.7935696,0.47447482,-0.56558657,-0.52405167,0.5014512,800.6227,817.9487,797.8022,778.86444,832.0513,-0.0167236328125,-0.00469970703125,0.98785400390625,2.504730224609375,-3.94775390625,0.157012939453125,1.0,1.0,1.0,1.0,1.0,95.0,event
10:22:27.133,0.91690123,0.39461306,0.10370307,0.73053366,0.46314996,-0.55118746,-0.10227177,0.885952,0.84541607,-0.043931782,0.12180109,0.9966848,0.74968946,-0.22977448,-0.061605603,0.7935696,0.47447482,-0.56558657,-0.52405167,0.5014512,776.8498,807.0696,803.8461,798.20514,940.0366,-0.0167236328125,-0.00469970703125,0.98785400390625,2.504730224609375,-3.94775390625,0.157012939453125,1.0,1.0,1.0,1.0,1.0,95.0,event
10:22:27.134,0.91690123,0.39461306,0.10370307,0.73053366,0.46314996,-0.55118746,-0.10227177,0.885952,0.84541607,-0.043931782,0.12180109,0.9966848,0.74968946,-0.22977448,-0.061605603,0.7935696,0.47447482,-0.56558657,-0.52405167,0.5014512,769.59705,802.23444,803.0403,800.2198,773.6264,-0.0167236328125,-0.00469970703125,0.98785400390625,2.504730224609375,-3.94775390625,0.157012939453125,1.0,1.0,1.0,1.0,1.0,95.0,event
10:22:27.134,0.91690123,0.39461306,0.10370307,0.73053366,0.46314996,-0.55118746,-0.10227177,0.885952,0.84541607,-0.043931782,0.12180109,0.9966848,0.74968946,-0.22977448,-0.061605603,0.7935696,0.47447482,-0.56558657,-0.52405167,0.5014512,798.60803,812.3077,799.41394,789.7436,634.21246,-0.0167236328125,-0.00469970703125,0.98785400390625,2.504730224609375,-3.94775390625,0.157012939453125,1.0,1.0,1.0,1.0,1.0,95.0,event
10:22:27.135,0.91690123,0.39461306,0.10370307,0.73053366,0.46314996,-0.55118746,-0.10227177,0.885952,0.84541607,-0.043931782,0.12180109,0.9966848,0.74968946,-0.22977448,-0.061605603,0.7935696,0.47447482,-0.56558657,-0.52405167,0.5014512,771.2088,801.8315,803.8461,813.1135,908.60803,-0.0167236328125,-0.00469970703125,0.98785400390625,2.504730224609375,-3.94775390625,0.157012939453125,1.0,1.0,1.0,1.0,1.0,95.0,event
10:22:27.195,0.91690123,0.39461306,0.10370307,0.73053366,0.46314996,-0.55118746,-0.10227177,0.885952,0.84541607,-0.043931782,0.12180109,0.9966848,0.74968946,-0.22977448,-0.061605603,0.7935696,0.47447482,-0.56558657,-0.52405167,0.5014512,765.16486,803.8461,805.05493,791.75824,710.7692,-0.02288818359375,-0.0068359375,0.98138427734375,2.19818115234375,-3.48419189453125,0.755157470703125,1.0,1.0,1.0,1.0,1.0,95.0,event
10:22:27.196,0.91690123,0.39461306,0.10370307,0.73053366,0.46314996,-0.55118746,-0.10227177,0.885952,0.84541607,-0.043931782,0.12180109,0.9966848,0.74968946,-0.22977448,-0.061605603,0.7935696,0.47447482,-0.56558657,-0.52405167,0.5014512,775.64105,800.6227,807.47253,768.7912,558.46155,-0.02288818359375,-0.0068359375,0.98138427734375,2.19818115234375,-3.48419189453125,0.755157470703125,1.0,1.0,1.0,1.0,1.0,95.0,event
10:22:27.197,0.91690123,0.39461306,0.10370307,0.73053366,0.46314996,-0.55118746,-0.10227177,0.885952,0.84541607,-0.043931782,0.12180109,0.9966848,0.74968946,-0.22977448,-0.061605603,0.7935696,0.47447482,-0.56558657,-0.52405167,0.5014512,778.86444,791.75824,803.8461,792.5641,742.6007,-0.02288818359375,-0.0068359375,0.98138427734375,2.19818115234375,-3.48419189453125,0.755157470703125,1.0,1.0,1.0,1.0,1.0,95.0,event
10:22:27.197,0.91690123,0.39461306,0.10370307,0.73053366,0.46314996,-0.55118746,-0.10227177,0.885952,0.84541607,-0.043931782,0.12180109,0.9966848,0.74968946,-0.22977448,-0.061605603,0.7935696,0.47447482,-0.56558657,-0.52405167,0.5014512,770.40295,801.02563,801.8315,797.3993,888.0586,-0.02288818359375,-0.0068359375,0.98138427734375,2.19818115234375,-3.48419189453125,0.755157470703125,1.0,1.0,1.0,1.0,1.0,95.0,event
10:22:27.198,0.91690123,0.39461306,0.10370307,0.73053366,0.46314996,-0.55118746,-0.10227177,0.885952,0.84541607,-0.043931782,0.12180109,0.9966848,0.74968946,-0.22977448,-0.061605603,0.7935696,0.47447482,-0.56558657,-0.52405167,0.5014512,777.6557,810.293,805.4579,796.1905,786.52014,-0.02288818359375,-0.0068359375,0.98138427734375,2.19818115234375,-3.48419189453125,0.755157470703125,1.0,1.0,1.0,1.0,1.0,95.0,event
10:22:27.199,0.91690123,0.39461306,0.10370307,0.73053366,0.46314996,-0.55118746,-0.10227177,0.885952,0.84541607,-0.043931782,0.12180109,0.9966848,0.74968946,-0.22977448,-0.061605603,0.7935696,0.47447482,-0.56558657,-0.52405167,0.5014512,778.0586,803.0403,803.44324,773.22345,766.77655,-0.02288818359375,-0.0068359375,0.98138427734375,2.19818115234375,-3.48419189453125,0.755157470703125,1.0,1.0,1.0,1.0,1.0,95.0,event
10:22:27.200,0.91690123,0.39461306,0.10370307,0.73053366,0.46314996,-0.55118746,-0.10227177,0.885952,0.84541607,-0.043931782,0.12180109,0.9966848,0.74968946,-0.22977448,-0.061605603,0.7935696,0.47447482,-0.56558657,-0.52405167,0.5014512,776.8498,799.41394,804.65204,763.1502,890.07324,-0.02288818359375,-0.0068359375,0.98138427734375,2.19818115234375,-3.48419189453125,0.755157470703125,1.0,1.0,1.0,1.0,1.0,95.0,event
10:22:27.201,0.91690123,0.39461306,0.10370307,0.73053366,0.46314996,-0.55118746,-0.10227177,0.885952,0.84541607,-0.043931782,0.12180109,0.9966848,0.74968946,-0.22977448,-0.061605603,0.7935696,0.47447482,-0.56558657,-0.52405167,0.5014512,786.9231,811.50183,808.2784,796.5934,952.52747,-0.02288818359375,-0.0068359375,0.98138427734375,2.19818115234375,-3.48419189453125,0.755157470703125,1.0,1.0,1.0,1.0,1.0,95.0,event
10:22:27.201,0.91690123,0.39461306,0.10370307,0.73053366,0.46314996,-0.55118746,-0.10227177,0.885952,0.84541607,-0.043931782,0.12180109,0.9966848,0.74968946,-0.22977448,-0.061605603,0.7935696,0.47447482,-0.56558657,-0.52405167,0.5014512,800.2198,821.1722,809.89014,823.1868,764.35895,-0.02288818359375,-0.0068359375,0.98138427734375,2.19818115234375,-3.48419189453125,0.755157470703125,1.0,1.0,1.0,1.0,1.0,95.0,event
10:22:27.202,0.8304292,0.39379898,0.073311485,0.7449247,0.44899207,-0.5557671,-0.14395663,0.9000434,0.87614197,-0.04908291,0.12180109,1.0314571,0.7497421,-0.22888234,-0.07275928,0.8209805,0.483487,-0.55295765,-0.51576275,0.49677432,787.326,812.3077,809.89014,815.5311,726.08057,-0.02288818359375,-0.0068359375,0.98138427734375,2.19818115234375,-3.48419189453125,0.755157470703125,1.0,1.0,1.0,1.0,1.0,95.0,event
10:22:27.206,0.8304292,0.39379898,0.073311485,0.7449247,0.44899207,-0.5557671,-0.14395663,0.9000434,0.87614197,-0.04908291,0.12180109,1.0314571,0.7497421,-0.22888234,-0.07275928,0.8209805,0.483487,-0.55295765,-0.51576275,0.49677432,783.69965,808.2784,808.68134,778.0586,811.50183,-0.02288818359375,-0.0068359375,0.98138427734375,2.19818115234375,-3.48419189453125,0.755157470703125,1.0,1.0,1.0,1.0,1.0,95.0,event
10:22:27.207,0.8304292,0.39379898,0.073311485,0.7449247,0.44899207,-0.5557671,-0.14395663,0.9000434,0.87614197,-0.04908291,0.12180109,1.0314571,0.7497421,-0.22888234,-0.07275928,0.8209805,0.483487,-0.55295765,-0.51576275,0.49677432,775.2381,806.6667,805.4579,749.0476,795.38464,-0.02288818359375,-0.0068359375,0.98138427734375,2.19818115234375,-3.48419189453125,0.755157470703125,1.0,1.0,1.0,1.0,1.0,95.0,event
10:22:27.262,0.8304292,0.39379898,0.073311485,0.7449247,0.44899207,-0.5557671,-0.14395663,0.9000434,0.87614197,-0.04908291,0.12180109,1.0314571,0.7497421,-0.22888234,-0.07275928,0.8209805,0.483487,-0.55295765,-0.51576275,0.49677432,761.9414,804.2491,802.6374,758.315,720.84247,-0.02288818359375,-0.0068359375,0.98138427734375,2.19818115234375,-3.48419189453125,0.755157470703125,1.0,1.0,1.0,1.0,1.0,95.0,event
10:22:27.263,0.8304292,0.39379898,0.073311485,0.7449247,0.44899207,-0.5557671,-0.14395663,0.9000434,0.87614197,-0.04908291,0.12180109,1.0314571,0.7497421,-0.22888234,-0.07275928,0.8209805,0.483487,-0.55295765,-0.51576275,0.49677432,759.12085,803.8461,806.6667,759.5238,717.2161,-0.02288818359375,-0.0068359375,0.98138427734375,2.19818115234375,-3.48419189453125,0.755157470703125,1.0,1.0,1.0,1.0,1.0,95.0,event
10:22:27.263,0.8304292,0.39379898,0.073311485,0.7449247,0.44899207,-0.5557671,-0.14395663,0.9000434,0.87614197,-0.04908291,0.12180109,1.0314571,0.7497421,-0.22888234,-0.07275928,0.8209805,0.483487,-0.55295765,-0.51576275,0.49677432,729.707,805.8608,807.47253,747.8388,875.16486,-0.02288818359375,-0.0068359375,0.98138427734375,2.19818115234375,-3.48419189453125,0.755157470703125,1.0,1.0,1.0,1.0,1.0,95.0,event
10:22:27.264,0.8304292,0.39379898,0.073311485,0.7449247,0.44899207,-0.5557671,-0.14395663,0.9000434,0.87614197,-0.04908291,0.12180109,1.0314571,0.7497421,-0.22888234,-0.07275928,0.8209805,0.483487,-0.55295765,-0.51576275,0.49677432,694.65204,801.4286,810.293,696.26373,682.1612,-0.02288818359375,-0.0068359375,0.98138427734375,2.19818115234375,-3.48419189453125,0.755157470703125,1.0,1.0,1.0,1.0,1.0,95.0,event
10:22:27.264,0.8304292,0.39379898,0.073311485,0.7449247,0.44899207,-0.5557671,-0.14395663,0.9000434,0.87614197,-0.04908291,0.12180109,1.0314571,0.7497421,-0.22888234,-0.07275928,0.8209805,0.483487,-0.55295765,-0.51576275,0.49677432,707.9487,804.2491,806.6667,717.619,839.304,-0.02288818359375,-0.0068359375,0.98138427734375,2.19818115234375,-3.48419189453125,0.755157470703125,1.0,1.0,1.0,1.0,1.0,95.0,event
10:22:27.265,0.8304292,0.39379898,0.073311485,0.7449247,0.44899207,-0.5557671,-0.14395663,0.9000434,0.87614197,-0.04908291,0.12180109,1.0314571,0.7497421,-0.22888234,-0.07275928,0.8209805,0.483487,-0.55295765,-0.51576275,0.49677432,689.011,806.26373,814.7253,703.5165,741.39197,-0.02288818359375,-0.0068359375,0.98138427734375,2.19818115234375,-3.48419189453125,0.755157470703125,1.0,1.0,1.0,1.0,1.0,95.0,event
10:22:27.265,0.8304292,0.39379898,0.073311485,0.7449247,0.44899207,-0.5557671,-0.14395663,0.9000434,0.87614197,-0.04908291,0.12180109,1.0314571,0.7497421,-0.22888234,-0.07275928,0.8209805,0.483487,-0.55295765,-0.51576275,0.49677432,677.72894,809.4872,821.978,697.0696,1000.4762,-0.02288818359375,-0.0068359375,0.98138427734375,2.19818115234375,-3.48419189453125,0.755157470703125,1.0,1.0,1.0,1.0,1.0,95.0,event
10:22:27.266,0.8304292,0.39379898,0.073311485,0.7449247,0.44899207,-0.5557671,-0.14395663,0.9000434,0.87614197,-0.04908291,0.12180109,1.0314571,0.7497421,-0.22888234,-0.07275928,0.8209805,0.483487,-0.55295765,-0.51576275,0.49677432,649.5238,813.1135,822.7839,685.38464,1081.0623,-0.02288818359375,-0.0068359375,0.98138427734375,2.19818115234375,-3.48419189453125,0.755157470703125,1.0,1.0,1.0,1.0,1.0,95.0,event
10:22:27.266,0.8304292,0.39379898,0.073311485,0.7449247,0.44899207,-0.5557671,-0.14395663,0.9000434,0.87614197,-0.04908291,0.12180109,1.0314571,0.7497421,-0.22888234,-0.07275928,0.8209805,0.483487,-0.55295765,-0.51576275,0.49677432,643.0769,812.3077,821.5751,661.6117,809.4872,-0.02288818359375,-0.0068359375,0.98138427734375,2.19818115234375,-3.48419189453125,0.755157470703125,1.0,1.0,1.0,1.0,1.0,95.0,event
10:22:27.267,0.8304292,0.39379898,0.073311485,0.7449247,0.44899207,-0.5557671,-0.14395663,0.9000434,0.87614197,-0.04908291,0.12180109,1.0314571,0.7497421,-0.22888234,-0.07275928,0.8209805,0.483487,-0.55295765,-0.51576275,0.49677432,630.18317,806.6667,823.9927,621.7216,701.0989,-0.02288818359375,-0.0068359375,0.98138427734375,2.19818115234375,-3.48419189453125,0.755157470703125,1.0,1.0,1.0,1.0,1.0,95.0,event
10:22:27.267,0.8304292,0.39379898,0.073311485,0.7449247,0.44899207,-0.5557671,-0.14395663,0.9000434,0.87614197,-0.04908291,0.12180109,1.0314571,0.7497421,-0.22888234,-0.07275928,0.8209805,0.483487,-0.55295765,-0.51576275,0.49677432,593.1135,808.2784,820.3663,608.4249,733.3333,-0.02288818359375,-0.0068359375,0.98138427734375,2.19818115234375,-3.48419189453125,0.755157470703125,1.0,1.0,1.0,1.0,1.0,95.0,event
10:22:27.268,0.8304292,0.39379898,0.073311485,0.7449247,0.44899207,-0.5557671,-0.14395663,0.9000434,0.87614197,-0.04908291,0.12180109,1.0314571,0.7497421,-0.22888234,-0.07275928,0.8209805,0.483487,-0.55295765,-0.51576275,0.49677432,576.1905,813.5165,819.15753,612.8571,728.49817,-0.02288818359375,-0.0068359375,0.98138427734375,2.19818115234375,-3.48419189453125,0.755157470703125,1.0,1.0,1.0,1.0,1.0,95.0,event
10:22:27.294,0.8304292,0.39379898,0.073311485,0.7449247,0.44899207,-0.5557671,-0.14395663,0.9000434,0.87614197,-0.04908291,0.12180109,1.0314571,0.7497421,-0.22888234,-0.07275928,0.8209805,0.483487,-0.55295765,-0.51576275,0.49677432,566.9231,812.71063,823.9927,608.8278,754.68866,-0.0245361328125,-0.00177001953125,0.9849853515625,2.16827392578125,-4.119720458984375,0.13458251953125,1.0,1.0,1.0,1.0,1.0,95.0,event
10:22:27.295,0.8304292,0.39379898,0.073311485,0.7449247,0.44899207,-0.5557671,-0.14395663,0.9000434,0.87614197,-0.04908291,0.12180109,1.0314571,0.7497421,-0.22888234,-0.07275928,0.8209805,0.483487,-0.55295765,-0.51576275,0.49677432,557.25275,798.60803,823.9927,588.2784,811.50183,-0.0245361328125,-0.00177001953125,0.9849853515625,2.16827392578125,-4.119720458984375,0.13458251953125,1.0,1.0,1.0,1.0,1.0,95.0,event
10:22:27.295,0.8304292,0.39379898,0.073311485,0.7449247,0.44899207,-0.5557671,-0.14395663,0.9000434,0.87614197,-0.04908291,0.12180109,1.0314571,0.7497421,-0.22888234,-0.07275928,0.8209805,0.483487,-0.55295765,-0.51576275,0.49677432,544.7619,780.07324,820.3663,564.5055,771.2088,-0.0245361328125,-0.00177001953125,0.9849853515625,2.16827392578125,-4.119720458984375,0.13458251953125,1.0,1.0,1.0,1.0,1.0,95.0,event
10:22:27.296,0.8304292,0.39379898,0.073311485,0.7449247,0.44899207,-0.5557671,-0.14395663,0.9000434,0.87614197,-0.04908291,0.12180109,1.0314571,0.7497421,-0.22888234,-0.07275928,0.8209805,0.483487,-0.55295765,-0.51576275,0.49677432,536.7033,776.8498,819.15753,556.8498,695.05493,-0.0245361328125,-0.00177001953125,0.9849853515625,2.16827392578125,-4.119720458984375,0.13458251953125,1.0,1.0,1.0,1.0,1.0,95.0,event
10:22:27.296,0.8304292,0.39379898,0.073311485,0.7449247,0.44899207,-0.5557671,-0.14395663,0.9000434,0.87614197,-0.04908291,0.12180109,1.0314571,0.7497421,-0.22888234,-0.07275928,0.8209805,0.483487,-0.55295765,-0.51576275,0.49677432,553.6264,776.8498,818.7546,574.17584,753.0769,-0.0245361328125,-0.00177001953125,0.9849853515625,2.16827392578125,-4.119720458984375,0.13458251953125,1.0,1.0,1.0,1.0,1.0,95.0,event
10:22:27.297,0.8304292,0.39379898,0.073311485,0.7449247,0.44899207,-0.5557671,-0.14395663,0.9000434,0.87614197,-0.04908291,0.12180109,1.0314571,0.7497421,-0.22888234,-0.07275928,0.8209805,0.483487,-0.55295765,-0.51576275,0.49677432,543.1502,774.83514,819.15753,584.65204,935.2015,-0.0245361328125,-0.00177001953125,0.9849853515625,2.16827392578125,-4.119720458984375,0.13458251953125,1.0,1.0,1.0,1.0,1.0,95.0,event
10:22:27.297,0.8304292,0.39379898,0.073311485,0.7449247,0.44899207,-0.5557671,-0.14395663,0.9000434,0.87614197,-0.04908291,0.12180109,1.0314571,0.7497421,-0.22888234,-0.07275928,0.8209805,0.483487,-0.55295765,-0.51576275,0.49677432,531.8681,777.6557,819.15753,557.6557,1037.5458,-0.0245361328125,-0.00177001953125,0.9849853515625,2.16827392578125,-4.119720458984375,0.13458251953125,1.0,1.0,1.0,1.0,1.0,95.0,event
10:22:27.298,0.8304292,0.39379898,0.073311485,0.7449247,0.44899207,-0.5557671,-0.14395663,0.9000434,0.87614197,-0.04908291,0.12180109,1.0314571,0.7497421,-0.22888234,-0.07275928,0.8209805,0.483487,-0.55295765,-0.51576275,0.49677432,531.4652,787.72894,824.3956,539.5238,699.4872,-0.0245361328125,-0.00177001953125,0.9849853515625,2.16827392578125,-4.119720458984375,0.13458251953125,1.0,1.0,1.0,1.0,1.0,95.0,event
10:22:27.298,0.8304292,0.39379898,0.073311485,0.7449247,0.44899207,-0.5557671,-0.14395663,0.9000434,0.87614197,-0.04908291,0.12180109,1.0314571,0.7497421,-0.22888234,-0.07275928,0.8209805,0.483487,-0.55295765,-0.51576275,0.49677432,541.53845,780.4762,821.5751,533.0769,890.07324,-0.0245361328125,-0.00177001953125,0.9849853515625,2.16827392578125,-4.119720458984375,0.13458251953125,1.0,1.0,1.0,1.0,1.0,95.0,event
10:22:27.299,0.8304292,0.39379898,0.073311485,0.7449247,0.44899207,-0.5557671,-0.14395663,0.9000434,0.87614197,-0.04908291,0.12180109,1.0314571,0.7497421,-0.22888234,-0.07275928,0.8209805,0.483487,-0.55295765,-0.51576275,0.49677432,545.56775,786.1172,819.5604,573.36993,838.49817,-0.0245361328125,-0.00177001953125,0.9849853515625,2.16827392578125,-4.119720458984375,0.13458251953125,1.0,1.0,1.0,1.0,1.0,95.0,event
10:22:27.300,0.74732506,0.3957192,0.03549401,0.74873585,0.4475079,-0.55037993,-0.18973386,0.900475,0.87337434,-0.063960664,0.11134027,1.0264219,0.7561591,-0.23050566,-0.08115035,0.8388853,0.4927724,-0.5348936,-0.51192087,0.48758227,560.07324,796.99634,815.9341,593.5165,785.7143,-0.0245361328125,-0.00177001953125,0.9849853515625,2.16827392578125,-4.119720458984375,0.13458251953125,1.0,1.0,1.0,1.0,1.0,95.0,event
10:22:27.300,0.8304292,0.39379898,0.073311485,0.7449247,0.44899207,-0.5557671,-0.14395663,0.9000434,0.87614197,-0.04908291,0.12180109,1.0314571,0.7497421,-0.22888234,-0.07275928,0.8209805,0.483487,-0.55295765,-0.51576275,0.49677432,557.6557,788.5348,814.3223,592.3077,985.9707,-0.0245361328125,-0.00177001953125,0.9849853515625,2.16827392578125,-4.119720458984375,0.13458251953125,1.0,1.0,1.0,1.0,1.0,95.0,event
10:22:27.327,0.74732506,0.3957192,0.03549401,0.74873585,0.4475079,-0.55037993,-0.18973386,0.900475,0.87337434,-0.063960664,0.11134027,1.0264219,0.7561591,-0.23050566,-0.08115035,0.8388853,0.4927724,-0.5348936,-0.51192087,0.48758227,577.3993,795.38464,817.5458,580.6227,700.293,-0.01556396484375,-0.0050048828125,0.98883056640625,1.936492919921875,-3.626251220703125,0.418701171875,1.0,1.0,1.0,1.0,1.0,95.0,event
10:22:27.328,0.74732506,0.3957192,0.03549401,0.74873585,0.4475079,-0.55037993,-0.18973386,0.900475,0.87337434,-0.063960664,0.11134027,1.0264219,0.7561591,-0.23050566,-0.08115035,0.8388853,0.4927724,-0.5348936,-0.51192087,0.48758227,603.9927,790.9524,811.9048,597.5458,890.4762,-0.01556396484375,-0.0050048828125,0.98883056640625,1.936492919921875,-3.626251220703125,0.418701171875,1.0,1.0,1.0,1.0,1.0,95.0,event
10:22:27.328,0.74732506,0.3957192,0.03549401,0.74873585,0.4475079,-0.55037993,-0.18973386,0.900475,0.87337434,-0.063960664,0.11134027,1.0264219,0.7561591,-0.23050566,-0.08115035,0.8388853,0.4927724,-0.5348936,-0.51192087,0.48758227,649.12085,796.5934,807.0696,642.674,991.2088,-0.01556396484375,-0.0050048828125,0.98883056640625,1.936492919921875,-3.626251220703125,0.418701171875,1.0,1.0,1.0,1.0,1.0,95.0,event
