TimeStamp,Delta_TP9,Delta_AF7,Delta_AF8,Delta_TP10,Theta_TP9,Theta_AF7,Theta_AF8,Theta_TP10,Alpha_TP9,Alpha_AF7,Alpha_AF8,Alpha_TP10,Beta_TP9,Beta_AF7,Beta_AF8,Beta_TP10,Gamma_TP9,Gamma_AF7,Gamma_AF8,Gamma_TP10,RAW_TP9,RAW_AF7,RAW_AF8,RAW_TP10,AUX_RIGHT,Accelerometer_X,Accelerometer_Y,Accelerometer_Z,Gyro_X,Gyro_Y,Gyro_Z,HeadBandOn,HSI_TP9,HSI_AF7,HSI_AF8,HSI_TP10,Battery,Elements
14:18:21.043,0.6524784,0.8850631,1.0520592,1.2662181,0.17670836,0.74362826,0.64176035,0.676933,0.42380366,0.7611074,0.67287695,1.1087545,1.0124707,0.8884897,1.0074314,1.2840338,0.7931328,0.97424304,0.6469123,1.0122116,644.68866,770.0,795.78754,536.30035,1084.6886,-0.23724365234375,0.1844482421875,0.9447021484375,1.854248046875,-3.33465576171875,1.428070068359375,1.0,1.0,1.0,1.0,1.0,90.0,event
14:18:21.044,0.6524784,0.8850631,1.0520592,1.2662181,0.17670836,0.74362826,0.64176035,0.676933,0.42380366,0.7611074,0.67287695,1.1087545,1.0124707,0.8884897,1.0074314,1.2840338,0.7931328,0.97424304,0.6469123,1.0122116,682.5641,778.86444,782.49084,824.3956,929.5604,-0.23724365234375,0.1844482421875,0.9447021484375,1.854248046875,-3.33465576171875,1.428070068359375,1.0,1.0,1.0,1.0,1.0,90.0,event
14:18:21.045,0.6524784,0.8850631,1.0520592,1.2662181,0.17670836,0.74362826,0.64176035,0.676933,0.42380366,0.7611074,0.67287695,1.1087545,1.0124707,0.8884897,1.0074314,1.2840338,0.7931328,0.97424304,0.6469123,1.0122116,681.3553,764.35895,782.49084,832.4542,738.97437,-0.23724365234375,0.1844482421875,0.9447021484375,1.854248046875,-3.33465576171875,1.428070068359375,1.0,1.0,1.0,1.0,1.0,90.0,event
14:18:21.069,0.6524784,0.8850631,1.0520592,1.2662181,0.17670836,0.74362826,0.64176035,0.676933,0.42380366,0.7611074,0.67287695,1.1087545,1.0124707,0.8884897,1.0074314,1.2840338,0.7931328,0.97424304,0.6469123,1.0122116,640.65936,806.6667,815.12823,560.87915,727.6923,-0.24505615234375,0.1781005859375,0.9384765625,1.65985107421875,-3.551483154296875,0.725250244140625,1.0,1.0,1.0,1.0,1.0,90.0,event
14:18:21.070,0.6524784,0.8850631,1.0520592,1.2662181,0.17670836,0.74362826,0.64176035,0.676933,0.42380366,0.7611074,0.67287695,1.1087545,1.0124707,0.8884897,1.0074314,1.2840338,0.7931328,0.97424304,0.6469123,1.0122116,633.00366,829.6337,816.7399,390.8425,676.9231,-0.24505615234375,0.1781005859375,0.9384765625,1.65985107421875,-3.551483154296875,0.725250244140625,1.0,1.0,1.0,1.0,1.0,90.0,event
14:18:21.071,0.6524784,0.8850631,1.0520592,1.2662181,0.17670836,0.74362826,0.64176035,0.676933,0.42380366,0.7611074,0.67287695,1.1087545,1.0124707,0.8884897,1.0074314,1.2840338,0.7931328,0.97424304,0.6469123,1.0122116,676.1172,819.15753,803.8461,537.9121,657.5824,-0.24505615234375,0.1781005859375,0.9384765625,1.65985107421875,-3.551483154296875,0.725250244140625,1.0,1.0,1.0,1.0,1.0,90.0,event
14:18:21.071,0.6524784,0.8850631,1.0520592,1.2662181,0.17670836,0.74362826,0.64176035,0.676933,0.42380366,0.7611074,0.67287695,1.1087545,1.0124707,0.8884897,1.0074314,1.2840338,0.7931328,0.97424304,0.6469123,1.0122116,731.31866,803.44324,813.1135,832.0513,723.663,-0.24505615234375,0.1781005859375,0.9384765625,1.65985107421875,-3.551483154296875,0.725250244140625,1.0,1.0,1.0,1.0,1.0,90.0,event
14:18:21.072,0.6524784,0.8850631,1.0520592,1.2662181,0.17670836,0.74362826,0.64176035,0.676933,0.42380366,0.7611074,0.67287695,1.1087545,1.0124707,0.8884897,1.0074314,1.2840338,0.7931328,0.97424304,0.6469123,1.0122116,692.6374,767.1795,801.4286,641.8681,819.15753,-0.24505615234375,0.1781005859375,0.9384765625,1.65985107421875,-3.551483154296875,0.725250244140625,1.0,1.0,1.0,1.0,1.0,90.0,event
14:18:21.072,0.6524784,0.8850631,1.0520592,1.2662181,0.17670836,0.74362826,0.64176035,0.676933,0.42380366,0.7611074,0.67287695,1.1087545,1.0124707,0.8884897,1.0074314,1.2840338,0.7931328,0.97424304,0.6469123,1.0122116,742.1978,774.43225,809.89014,901.3553,798.20514,-0.24505615234375,0.1781005859375,0.9384765625,1.65985107421875,-3.551483154296875,0.725250244140625,1.0,1.0,1.0,1.0,1.0,90.0,event
14:18:21.073,0.6524784,0.8850631,1.0520592,1.2662181,0.17670836,0.74362826,0.64176035,0.676933,0.42380366,0.7611074,0.67287695,1.1087545,1.0124707,0.8884897,1.0074314,1.2840338,0.7931328,0.97424304,0.6469123,1.0122116,672.49084,785.7143,798.60803,452.49084,824.3956,-0.24505615234375,0.1781005859375,0.9384765625,1.65985107421875,-3.551483154296875,0.725250244140625,1.0,1.0,1.0,1.0,1.0,90.0,event
14:18:21.074,0.6524784,0.8850631,1.0520592,1.2662181,0.17670836,0.74362826,0.64176035,0.676933,0.42380366,0.7611074,0.67287695,1.1087545,1.0124707,0.8884897,1.0074314,1.2840338,0.7931328,0.97424304,0.6469123,1.0122116,740.18317,798.20514,792.96704,571.3553,726.4835,-0.24505615234375,0.1781005859375,0.9384765625,1.65985107421875,-3.551483154296875,0.725250244140625,1.0,1.0,1.0,1.0,1.0,90.0,event
14:18:21.074,0.6524784,0.8850631,1.0520592,1.2662181,0.17670836,0.74362826,0.64176035,0.676933,0.42380366,0.7611074,0.67287695,1.1087545,1.0124707,0.8884897,1.0074314,1.2840338,0.7931328,0.97424304,0.6469123,1.0122116,803.8461,783.69965,781.28204,880.0,928.3516,-0.24505615234375,0.1781005859375,0.9384765625,1.65985107421875,-3.551483154296875,0.725250244140625,1.0,1.0,1.0,1.0,1.0,90.0,event
14:18:21.075,0.6524784,0.8850631,1.0520592,1.2662181,0.17670836,0.74362826,0.64176035,0.676933,0.42380366,0.7611074,0.67287695,1.1087545,1.0124707,0.8884897,1.0074314,1.2840338,0.7931328,0.97424304,0.6469123,1.0122116,814.3223,789.34064,789.34064,1022.6374,1023.8461,-0.24505615234375,0.1781005859375,0.9384765625,1.65985107421875,-3.551483154296875,0.725250244140625,1.0,1.0,1.0,1.0,1.0,90.0,event
14:18:21.075,0.6524784,0.8850631,1.0520592,1.2662181,0.17670836,0.74362826,0.64176035,0.676933,0.42380366,0.7611074,0.67287695,1.1087545,1.0124707,0.8884897,1.0074314,1.2840338,0.7931328,0.97424304,0.6469123,1.0122116,764.7619,794.9817,794.57874,780.07324,743.8095,-0.24505615234375,0.1781005859375,0.9384765625,1.65985107421875,-3.551483154296875,0.725250244140625,1.0,1.0,1.0,1.0,1.0,90.0,event
14:18:21.076,0.6524784,0.8850631,1.0520592,1.2662181,0.17670836,0.74362826,0.64176035,0.676933,0.42380366,0.7611074,0.67287695,1.1087545,1.0124707,0.8884897,1.0074314,1.2840338,0.7931328,0.97424304,0.6469123,1.0122116,744.61536,777.25275,772.8205,541.53845,740.58606,-0.24505615234375,0.1781005859375,0.9384765625,1.65985107421875,-3.551483154296875,0.725250244140625,1.0,1.0,1.0,1.0,1.0,90.0,event
14:18:21.102,0.6524784,0.8850631,1.0520592,1.2662181,0.17670836,0.74362826,0.64176035,0.676933,0.42380366,0.7611074,0.67287695,1.1087545,1.0124707,0.8884897,1.0074314,1.2840338,0.7931328,0.97424304,0.6469123,1.0122116,785.7143,761.53845,757.50916,615.2747,827.619,-0.2376708984375,0.184814453125,0.94732666015625,2.40753173828125,-4.08233642578125,-0.538330078125,1.0,1.0,1.0,1.0,1.0,90.0,event
14:18:21.103,0.6524784,0.8850631,1.0520592,1.2662181,0.17670836,0.74362826,0.64176035,0.676933,0.42380366,0.7611074,0.67287695,1.1087545,1.0124707,0.8884897,1.0074314,1.2840338,0.7931328,0.97424304,0.6469123,1.0122116,880.0,792.5641,801.02563,932.7839,743.00366,-0.2376708984375,0.184814453125,0.94732666015625,2.40753173828125,-4.08233642578125,-0.538330078125,1.0,1.0,1.0,1.0,1.0,90.0,event
14:18:21.104,0.6524784,0.8850631,1.0520592,1.2662181,0.17670836,0.74362826,0.64176035,0.676933,0.42380366,0.7611074,0.67287695,1.1087545,1.0124707,0.8884897,1.0074314,1.2840338,0.7931328,0.97424304,0.6469123,1.0122116,810.696,802.23444,797.8022,892.49084,766.3736,-0.2376708984375,0.184814453125,0.94732666015625,2.40753173828125,-4.08233642578125,-0.538330078125,1.0,1.0,1.0,1.0,1.0,90.0,event
14:18:21.104,0.6524784,0.8850631,1.0520592,1.2662181,0.17670836,0.74362826,0.64176035,0.676933,0.42380366,0.7611074,0.67287695,1.1087545,1.0124707,0.8884897,1.0074314,1.2840338,0.7931328,0.97424304,0.6469123,1.0122116,898.5348,815.5311,823.1868,1110.8792,732.9304,-0.2376708984375,0.184814453125,0.94732666015625,2.40753173828125,-4.08233642578125,-0.538330078125,1.0,1.0,1.0,1.0,1.0,90.0,event
14:18:21.105,0.6524784,0.8850631,1.0520592,1.2662181,0.17670836,0.74362826,0.64176035,0.676933,0.42380366,0.7611074,0.67287695,1.1087545,1.0124707,0.8884897,1.0074314,1.2840338,0.7931328,0.97424304,0.6469123,1.0122116,818.3516,776.8498,789.34064,660.80585,730.5128,-0.2376708984375,0.184814453125,0.94732666015625,2.40753173828125,-4.08233642578125,-0.538330078125,1.0,1.0,1.0,1.0,1.0,90.0,event
14:18:21.105,0.6524784,0.8850631,1.0520592,1.2662181,0.17670836,0.74362826,0.64176035,0.676933,0.42380366,0.7611074,0.67287695,1.1087545,1.0124707,0.8884897,1.0074314,1.2840338,0.7931328,0.97424304,0.6469123,1.0122116,776.04395,788.93774,780.07324,631.79486,733.73627,-0.2376708984375,0.184814453125,0.94732666015625,2.40753173828125,-4.08233642578125,-0.538330078125,1.0,1.0,1.0,1.0,1.0,90.0,event
14:18:21.109,0.6524784,0.8850631,1.0520592,1.2662181,0.17670836,0.74362826,0.64176035,0.676933,0.42380366,0.7611074,0.67287695,1.1087545,1.0124707,0.8884897,1.0074314,1.2840338,0.7931328,0.97424304,0.6469123,1.0122116,888.46155,785.31134,792.96704,953.3333,765.9707,-0.2376708984375,0.184814453125,0.94732666015625,2.40753173828125,-4.08233642578125,-0.538330078125,1.0,1.0,1.0,1.0,1.0,90.0,event
14:18:21.109,0.6524784,0.8850631,1.0520592,1.2662181,0.17670836,0.74362826,0.64176035,0.676933,0.42380366,0.7611074,0.67287695,1.1087545,1.0124707,0.8884897,1.0074314,1.2840338,0.7931328,0.97424304,0.6469123,1.0122116,920.293,800.6227,793.7729,1169.7069,863.8828,-0.2376708984375,0.184814453125,0.94732666015625,2.40753173828125,-4.08233642578125,-0.538330078125,1.0,1.0,1.0,1.0,1.0,90.0,event
14:18:21.110,0.6524784,0.8850631,1.0520592,1.2662181,0.17670836,0.74362826,0.64176035,0.676933,0.42380366,0.7611074,0.67287695,1.1087545,1.0124707,0.8884897,1.0074314,1.2840338,0.7931328,0.97424304,0.6469123,1.0122116,879.59705,794.9817,810.293,983.5531,1004.90845,-0.2376708984375,0.184814453125,0.94732666015625,2.40753173828125,-4.08233642578125,-0.538330078125,1.0,1.0,1.0,1.0,1.0,90.0,event
14:18:21.110,0.6524784,0.8850631,1.0520592,1.2662181,0.17670836,0.74362826,0.64176035,0.676933,0.42380366,0.7611074,0.67287695,1.1087545,1.0124707,0.8884897,1.0074314,1.2840338,0.7931328,0.97424304,0.6469123,1.0122116,838.9011,786.1172,799.011,684.9817,793.36993,-0.2376708984375,0.184814453125,0.94732666015625,2.40753173828125,-4.08233642578125,-0.538330078125,1.0,1.0,1.0,1.0,1.0,90.0,event
14:18:21.111,0.6524784,0.8850631,1.0520592,1.2662181,0.17670836,0.74362826,0.64176035,0.676933,0.42380366,0.7611074,0.67287695,1.1087545,1.0124707,0.8884897,1.0074314,1.2840338,0.7931328,0.97424304,0.6469123,1.0122116,868.315,794.57874,769.59705,687.8022,661.6117,-0.2376708984375,0.184814453125,0.94732666015625,2.40753173828125,-4.08233642578125,-0.538330078125,1.0,1.0,1.0,1.0,1.0,90.0,event
14:18:21.112,0.6524784,0.8850631,1.0520592,1.2662181,0.17670836,0.74362826,0.64176035,0.676933,0.42380366,0.7611074,0.67287695,1.1087545,1.0124707,0.8884897,1.0074314,1.2840338,0.7931328,0.97424304,0.6469123,1.0122116,928.7546,801.02563,781.685,947.28937,769.19415,-0.2376708984375,0.184814453125,0.94732666015625,2.40753173828125,-4.08233642578125,-0.538330078125,1.0,1.0,1.0,1.0,1.0,90.0,event
14:18:21.136,0.6524784,0.8850631,1.0520592,1.2662181,0.17670836,0.74362826,0.64176035,0.676933,0.42380366,0.7611074,0.67287695,1.1087545,1.0124707,0.8884897,1.0074314,1.2840338,0.7931328,0.97424304,0.6469123,1.0122116,947.28937,787.326,818.3516,1176.5568,843.73627,-0.2376708984375,0.184814453125,0.94732666015625,2.40753173828125,-4.08233642578125,-0.538330078125,1.0,1.0,1.0,1.0,1.0,90.0,event
14:18:21.137,0.6524784,0.8850631,1.0520592,1.2662181,0.17670836,0.74362826,0.64176035,0.676933,0.42380366,0.7611074,0.67287695,1.1087545,1.0124707,0.8884897,1.0074314,1.2840338,0.7931328,0.97424304,0.6469123,1.0122116,878.3883,762.3443,799.011,1021.02563,838.9011,-0.2376708984375,0.184814453125,0.94732666015625,2.40753173828125,-4.08233642578125,-0.538330078125,1.0,1.0,1.0,1.0,1.0,90.0,event
14:18:21.138,0.6524784,0.8850631,1.0520592,1.2662181,0.17670836,0.74362826,0.64176035,0.676933,0.42380366,0.7611074,0.67287695,1.1087545,1.0124707,0.8884897,1.0074314,1.2840338,0.7931328,0.97424304,0.6469123,1.0122116,828.8278,781.28204,780.07324,716.4103,755.4945,-0.2376708984375,0.184814453125,0.94732666015625,2.40753173828125,-4.08233642578125,-0.538330078125,1.0,1.0,1.0,1.0,1.0,90.0,event
14:18:21.138,0.6524784,0.8850631,1.0520592,1.2662181,0.17670836,0.74362826,0.64176035,0.676933,0.42380366,0.7611074,0.67287695,1.1087545,1.0124707,0.8884897,1.0074314,1.2840338,0.7931328,0.97424304,0.6469123,1.0122116,848.97437,806.26373,783.69965,689.81683,855.42126,-0.2376708984375,0.184814453125,0.94732666015625,2.40753173828125,-4.08233642578125,-0.538330078125,1.0,1.0,1.0,1.0,1.0,90.0,event
14:18:21.139,0.6524784,0.8850631,1.0520592,1.2662181,0.17670836,0.74362826,0.64176035,0.676933,0.42380366,0.7611074,0.67287695,1.1087545,1.0124707,0.8884897,1.0074314,1.2840338,0.7931328,0.97424304,0.6469123,1.0122116,908.20514,818.7546,788.5348,921.0989,880.80585,-0.2376708984375,0.184814453125,0.94732666015625,2.40753173828125,-4.08233642578125,-0.538330078125,1.0,1.0,1.0,1.0,1.0,90.0,event
14:18:21.140,0.6524784,0.8850631,1.0520592,1.2662181,0.17670836,0.74362826,0.64176035,0.676933,0.42380366,0.7611074,0.67287695,1.1087545,1.0124707,0.8884897,1.0074314,1.2840338,0.7931328,0.97424304,0.6469123,1.0122116,954.1392,826.0073,788.5348,1177.3627,852.6007,-0.2376708984375,0.184814453125,0.94732666015625,2.40753173828125,-4.08233642578125,-0.538330078125,1.0,1.0,1.0,1.0,1.0,90.0,event
14:18:21.140,0.6524784,0.8850631,1.0520592,1.2662181,0.17670836,0.74362826,0.64176035,0.676933,0.42380366,0.7611074,0.67287695,1.1087545,1.0124707,0.8884897,1.0074314,1.2840338,0.7931328,0.97424304,0.6469123,1.0122116,910.6227,804.2491,762.74725,1075.0183,861.8681,-0.2376708984375,0.184814453125,0.94732666015625,2.40753173828125,-4.08233642578125,-0.538330078125,1.0,1.0,1.0,1.0,1.0,90.0,event
14:18:21.141,0.6524784,0.8850631,1.0520592,1.2662181,0.17670836,0.74362826,0.64176035,0.676933,0.42380366,0.7611074,0.67287695,1.1087545,1.0124707,0.8884897,1.0074314,1.2840338,0.7931328,0.97424304,0.6469123,1.0122116,841.7216,769.59705,772.01465,769.59705,990.0,-0.2376708984375,0.184814453125,0.94732666015625,2.40753173828125,-4.08233642578125,-0.538330078125,1.0,1.0,1.0,1.0,1.0,90.0,event
14:18:21.141,0.6524784,0.8850631,1.0520592,1.2662181,0.17670836,0.74362826,0.64176035,0.676933,0.42380366,0.7611074,0.67287695,1.1087545,1.0124707,0.8884897,1.0074314,1.2840338,0.7931328,0.97424304,0.6469123,1.0122116,843.3333,776.04395,784.5055,673.2967,981.13556,-0.2376708984375,0.184814453125,0.94732666015625,2.40753173828125,-4.08233642578125,-0.538330078125,1.0,1.0,1.0,1.0,1.0,90.0,event
14:18:21.142,0.6524784,0.8850631,1.0520592,1.2662181,0.17670836,0.74362826,0.64176035,0.676933,0.42380366,0.7611074,0.67287695,1.1087545,1.0124707,0.8884897,1.0074314,1.2840338,0.7931328,0.97424304,0.6469123,1.0122116,906.1905,809.89014,756.30035,864.68866,713.5897,-0.2376708984375,0.184814453125,0.94732666015625,2.40753173828125,-4.08233642578125,-0.538330078125,1.0,1.0,1.0,1.0,1.0,90.0,event
14:18:21.143,0.6524784,0.8850631,1.0520592,1.2662181,0.17670836,0.74362826,0.64176035,0.676933,0.42380366,0.7611074,0.67287695,1.1087545,1.0124707,0.8884897,1.0074314,1.2840338,0.7931328,0.97424304,0.6469123,1.0122116,962.6007,832.8571,790.9524,1163.663,758.71796,-0.2376708984375,0.184814453125,0.94732666015625,2.40753173828125,-4.08233642578125,-0.538330078125,1.0,1.0,1.0,1.0,1.0,90.0,event
14:18:21.143,0.6524784,0.8850631,1.0520592,1.2662181,0.17670836,0.74362826,0.64176035,0.676933,0.42380366,0.7611074,0.67287695,1.1087545,1.0124707,0.8884897,1.0074314,1.2840338,0.7931328,0.97424304,0.6469123,1.0122116,917.47253,798.60803,805.8608,1104.4323,832.0513,-0.2376708984375,0.184814453125,0.94732666015625,2.40753173828125,-4.08233642578125,-0.538330078125,1.0,1.0,1.0,1.0,1.0,90.0,event
14:18:21.200,0.6524784,0.8850631,1.0520592,1.2662181,0.17670836,0.74362826,0.64176035,0.676933,0.42380366,0.7611074,0.67287695,1.1087545,1.0124707,0.8884897,1.0074314,1.2840338,0.7931328,0.97424304,0.6469123,1.0122116,809.4872,776.8498,805.4579,782.0879,739.7802,-0.23089599609375,0.180419921875,0.9407958984375,1.906585693359375,-3.850555419921875,-0.19439697265625,1.0,1.0,1.0,1.0,1.0,90.0,event
14:18:21.201,0.6524784,0.8850631,1.0520592,1.2662181,0.17670836,0.74362826,0.64176035,0.676933,0.42380366,0.7611074,0.67287695,1.1087545,1.0124707,0.8884897,1.0074314,1.2840338,0.7931328,0.97424304,0.6469123,1.0122116,789.34064,798.60803,811.0989,650.32965,682.5641,-0.23089599609375,0.180419921875,0.9407958984375,1.906585693359375,-3.850555419921875,-0.19439697265625,1.0,1.0,1.0,1.0,1.0,90.0,event
14:18:21.202,0.6524784,0.8850631,1.0520592,1.2662181,0.17670836,0.74362826,0.64176035,0.676933,0.42380366,0.7611074,0.67287695,1.1087545,1.0124707,0.8884897,1.0074314,1.2840338,0.7931328,0.97424304,0.6469123,1.0122116,896.52014,792.5641,772.01465,1093.956,753.8828,-0.23089599609375,0.180419921875,0.9407958984375,1.906585693359375,-3.850555419921875,-0.19439697265625,1.0,1.0,1.0,1.0,1.0,90.0,event
14:18:21.202,0.6524784,0.8850631,1.0520592,1.2662181,0.17670836,0.74362826,0.64176035,0.676933,0.42380366,0.7611074,0.67287695,1.1087545,1.0124707,0.8884897,1.0074314,1.2840338,0.7931328,0.97424304,0.6469123,1.0122116,846.1539,792.96704,775.64105,813.5165,704.7253,-0.23089599609375,0.180419921875,0.9407958984375,1.906585693359375,-3.850555419921875,-0.19439697265625,1.0,1.0,1.0,1.0,1.0,90.0,event
14:18:21.203,0.6524784,0.8850631,1.0520592,1.2662181,0.17670836,0.74362826,0.64176035,0.676933,0.42380366,0.7611074,0.67287695,1.1087545,1.0124707,0.8884897,1.0074314,1.2840338,0.7931328,0.97424304,0.6469123,1.0122116,868.315,800.6227,774.83514,1104.0293,753.8828,-0.23089599609375,0.180419921875,0.9407958984375,1.906585693359375,-3.850555419921875,-0.19439697265625,1.0,1.0,1.0,1.0,1.0,90.0,event
14:18:21.204,0.6524784,0.8850631,1.0520592,1.2662181,0.17670836,0.74362826,0.64176035,0.676933,0.42380366,0.7611074,0.67287695,1.1087545,1.0124707,0.8884897,1.0074314,1.2840338,0.7931328,0.97424304,0.6469123,1.0122116,818.7546,781.28204,781.28204,819.5604,797.8022,-0.23089599609375,0.180419921875,0.9407958984375,1.906585693359375,-3.850555419921875,-0.19439697265625,1.0,1.0,1.0,1.0,1.0,90.0,event
14:18:21.204,0.6524784,0.8850631,1.0520592,1.2662181,0.17670836,0.74362826,0.64176035,0.676933,0.42380366,0.7611074,0.67287695,1.1087545,1.0124707,0.8884897,1.0074314,1.2840338,0.7931328,0.97424304,0.6469123,1.0122116,836.08057,788.5348,797.8022,656.3736,868.315,-0.23089599609375,0.180419921875,0.9407958984375,1.906585693359375,-3.850555419921875,-0.19439697265625,1.0,1.0,1.0,1.0,1.0,90.0,event
14:18:21.205,0.6524784,0.8850631,1.0520592,1.2662181,0.17670836,0.74362826,0.64176035,0.676933,0.42380366,0.7611074,0.67287695,1.1087545,1.0124707,0.8884897,1.0074314,1.2840338,0.7931328,0.97424304,0.6469123,1.0122116,881.2088,820.3663,809.4872,820.7692,1040.3663,-0.23089599609375,0.180419921875,0.9407958984375,1.906585693359375,-3.850555419921875,-0.19439697265625,1.0,1.0,1.0,1.0,1.0,90.0,event
14:18:21.207,,,,,,,,,,,,,,,,,,,,,,,,,,,,,,,,,,,,,,blink
14:18:21.208,0.6524784,0.8850631,1.0520592,1.2662181,0.17670836,0.74362826,0.64176035,0.676933,0.42380366,0.7611074,0.67287695,1.1087545,1.0124707,0.8884897,1.0074314,1.2840338,0.7931328,0.97424304,0.6469123,1.0122116,916.26373,818.7546,810.293,1080.2565,882.4176,-0.23089599609375,0.180419921875,0.9407958984375,1.906585693359375,-3.850555419921875,-0.19439697265625,1.0,1.0,1.0,1.0,1.0,90.0,event
14:18:21.209,0.6524784,0.8850631,1.0520592,1.2662181,0.17670836,0.74362826,0.64176035,0.676933,0.42380366,0.7611074,0.67287695,1.1087545,1.0124707,0.8884897,1.0074314,1.2840338,0.7931328,0.97424304,0.6469123,1.0122116,888.0586,800.2198,801.4286,1097.1794,709.15753,-0.23089599609375,0.180419921875,0.9407958984375,1.906585693359375,-3.850555419921875,-0.19439697265625,1.0,1.0,1.0,1.0,1.0,90.0,event
14:18:21.209,0.6524784,0.8850631,1.0520592,1.2662181,0.17670836,0.74362826,0.64176035,0.676933,0.42380366,0.7611074,0.67287695,1.1087545,1.0124707,0.8884897,1.0074314,1.2840338,0.7931328,0.97424304,0.6469123,1.0122116,832.0513,801.8315,812.71063,837.6923,729.707,-0.23089599609375,0.180419921875,0.9407958984375,1.906585693359375,-3.850555419921875,-0.19439697265625,1.0,1.0,1.0,1.0,1.0,90.0,event
14:18:21.210,0.6524784,0.8850631,1.0520592,1.2662181,0.17670836,0.74362826,0.64176035,0.676933,0.42380366,0.7611074,0.67287695,1.1087545,1.0124707,0.8884897,1.0074314,1.2840338,0.7931328,0.97424304,0.6469123,1.0122116,830.84247,816.7399,815.5311,651.13556,687.8022,-0.23089599609375,0.180419921875,0.9407958984375,1.906585693359375,-3.850555419921875,-0.19439697265625,1.0,1.0,1.0,1.0,1.0,90.0,event
14:18:21.270,0.6524784,0.8850631,1.0520592,1.2662181,0.17670836,0.74362826,0.64176035,0.676933,0.42380366,0.7611074,0.67287695,1.1087545,1.0124707,0.8884897,1.0074314,1.2840338,0.7931328,0.97424304,0.6469123,1.0122116,887.6557,815.9341,798.60803,770.80585,711.978,-0.23944091796875,0.1815185546875,0.94842529296875,2.55706787109375,-2.94586181640625,0.590667724609375,1.0,1.0,1.0,1.0,1.0,90.0,event
14:18:21.271,0.6524784,0.8850631,1.0520592,1.2662181,0.17670836,0.74362826,0.64176035,0.676933,0.42380366,0.7611074,0.67287695,1.1087545,1.0124707,0.8884897,1.0074314,1.2840338,0.7931328,0.97424304,0.6469123,1.0122116,932.381,820.7692,810.293,1068.9744,759.5238,-0.23944091796875,0.1815185546875,0.94842529296875,2.55706787109375,-2.94586181640625,0.590667724609375,1.0,1.0,1.0,1.0,1.0,90.0,event
14:18:21.272,0.6524784,0.8850631,1.0520592,1.2662181,0.17670836,0.74362826,0.64176035,0.676933,0.42380366,0.7611074,0.67287695,1.1087545,1.0124707,0.8884897,1.0074314,1.2840338,0.7931328,0.97424304,0.6469123,1.0122116,879.59705,788.5348,784.90845,1139.0842,801.4286,-0.23944091796875,0.1815185546875,0.94842529296875,2.55706787109375,-2.94586181640625,0.590667724609375,1.0,1.0,1.0,1.0,1.0,90.0,event
14:18:21.272,0.6524784,0.8850631,1.0520592,1.2662181,0.17670836,0.74362826,0.64176035,0.676933,0.42380366,0.7611074,0.67287695,1.1087545,1.0124707,0.8884897,1.0074314,1.2840338,0.7931328,0.97424304,0.6469123,1.0122116,823.9927,786.9231,776.4469,879.19415,775.2381,-0.23944091796875,0.1815185546875,0.94842529296875,2.55706787109375,-2.94586181640625,0.590667724609375,1.0,1.0,1.0,1.0,1.0,90.0,event
14:18:21.273,0.6524784,0.8850631,1.0520592,1.2662181,0.17670836,0.74362826,0.64176035,0.676933,0.42380366,0.7611074,0.67287695,1.1087545,1.0124707,0.8884897,1.0074314,1.2840338,0.7931328,0.97424304,0.6469123,1.0122116,813.1135,801.4286,782.8938,651.53845,685.78754,-0.23944091796875,0.1815185546875,0.94842529296875,2.55706787109375,-2.94586181640625,0.590667724609375,1.0,1.0,1.0,1.0,1.0,90.0,event
14:18:21.274,0.6524784,0.8850631,1.0520592,1.2662181,0.17670836,0.74362826,0.64176035,0.676933,0.42380366,0.7611074,0.67287695,1.1087545,1.0124707,0.8884897,1.0074314,1.2840338,0.7931328,0.97424304,0.6469123,1.0122116,839.304,805.05493,777.6557,701.9048,711.1722,-0.23944091796875,0.1815185546875,0.94842529296875,2.55706787109375,-2.94586181640625,0.590667724609375,1.0,1.0,1.0,1.0,1.0,90.0,event
14:18:21.274,0.6524784,0.8850631,1.0520592,1.2662181,0.17670836,0.74362826,0.64176035,0.676933,0.42380366,0.7611074,0.67287695,1.1087545,1.0124707,0.8884897,1.0074314,1.2840338,0.7931328,0.97424304,0.6469123,1.0122116,882.01465,805.4579,793.7729,998.86444,1011.3553,-0.23944091796875,0.1815185546875,0.94842529296875,2.55706787109375,-2.94586181640625,0.590667724609375,1.0,1.0,1.0,1.0,1.0,90.0,event
14:18:21.275,0.6524784,0.8850631,1.0520592,1.2662181,0.17670836,0.74362826,0.64176035,0.676933,0.42380366,0.7611074,0.67287695,1.1087545,1.0124707,0.8884897,1.0074314,1.2840338,0.7931328,0.97424304,0.6469123,1.0122116,875.56775,781.28204,786.1172,1159.2307,1058.4982,-0.23944091796875,0.1815185546875,0.94842529296875,2.55706787109375,-2.94586181640625,0.590667724609375,1.0,1.0,1.0,1.0,1.0,90.0,event
14:18:21.276,0.6524784,0.8850631,1.0520592,1.2662181,0.17670836,0.74362826,0.64176035,0.676933,0.42380366,0.7611074,0.67287695,1.1087545,1.0124707,0.8884897,1.0074314,1.2840338,0.7931328,0.97424304,0.6469123,1.0122116,830.4396,806.6667,782.0879,904.9817,780.87915,-0.23944091796875,0.1815185546875,0.94842529296875,2.55706787109375,-2.94586181640625,0.590667724609375,1.0,1.0,1.0,1.0,1.0,90.0,event
14:18:21.276,0.6524784,0.8850631,1.0520592,1.2662181,0.17670836,0.74362826,0.64176035,0.676933,0.42380366,0.7611074,0.67287695,1.1087545,1.0124707,0.8884897,1.0074314,1.2840338,0.7931328,0.97424304,0.6469123,1.0122116,811.0989,831.2454,789.34064,664.0293,786.52014,-0.23944091796875,0.1815185546875,0.94842529296875,2.55706787109375,-2.94586181640625,0.590667724609375,1.0,1.0,1.0,1.0,1.0,90.0,event
14:18:21.277,0.6524784,0.8850631,1.0520592,1.2662181,0.17670836,0.74362826,0.64176035,0.676933,0.42380366,0.7611074,0.67287695,1.1087545,1.0124707,0.8884897,1.0074314,1.2840338,0.7931328,0.97424304,0.6469123,1.0122116,795.78754,795.38464,764.7619,699.0842,876.3736,-0.23944091796875,0.1815185546875,0.94842529296875,2.55706787109375,-2.94586181640625,0.590667724609375,1.0,1.0,1.0,1.0,1.0,90.0,event
14:18:21.278,0.6524784,0.8850631,1.0520592,1.2662181,0.17670836,0.74362826,0.64176035,0.676933,0.42380366,0.7611074,0.67287695,1.1087545,1.0124707,0.8884897,1.0074314,1.2840338,0.7931328,0.97424304,0.6469123,1.0122116,844.5421,771.6117,761.53845,939.2308,779.2674,-0.23944091796875,0.1815185546875,0.94842529296875,2.55706787109375,-2.94586181640625,0.590667724609375,1.0,1.0,1.0,1.0,1.0,90.0,event
14:18:21.303,0.6524784,0.8850631,1.0520592,1.2662181,0.17670836,0.74362826,0.64176035,0.676933,0.42380366,0.7611074,0.67287695,1.1087545,1.0124707,0.8884897,1.0074314,1.2840338,0.7931328,0.97424304,0.6469123,1.0122116,875.56775,778.86444,776.8498,1133.4432,766.77655,-0.238525390625,0.1783447265625,0.93878173828125,2.160797119140625,-2.998199462890625,0.55328369140625,1.0,1.0,1.0,1.0,1.0,90.0,event
14:18:21.304,0.6524784,0.8850631,1.0520592,1.2662181,0.17670836,0.74362826,0.64176035,0.676933,0.42380366,0.7611074,0.67287695,1.1087545,1.0124707,0.8884897,1.0074314,1.2840338,0.7931328,0.97424304,0.6469123,1.0122116,813.91943,805.4579,787.72894,929.5604,782.0879,-0.238525390625,0.1783447265625,0.93878173828125,2.160797119140625,-2.998199462890625,0.55328369140625,1.0,1.0,1.0,1.0,1.0,90.0,event
14:18:21.305,0.6524784,0.8850631,1.0520592,1.2662181,0.17670836,0.74362826,0.64176035,0.676933,0.42380366,0.7611074,0.67287695,1.1087545,1.0124707,0.8884897,1.0074314,1.2840338,0.7931328,0.97424304,0.6469123,1.0122116,796.1905,832.0513,810.293,661.2088,736.55676,-0.238525390625,0.1783447265625,0.93878173828125,2.160797119140625,-2.998199462890625,0.55328369140625,1.0,1.0,1.0,1.0,1.0,90.0,event
14:18:21.306,0.6524784,0.8850631,1.0520592,1.2662181,0.17670836,0.74362826,0.64176035,0.676933,0.42380366,0.7611074,0.67287695,1.1087545,1.0124707,0.8884897,1.0074314,1.2840338,0.7931328,0.97424304,0.6469123,1.0122116,813.91943,813.1135,795.38464,661.2088,722.4542,-0.238525390625,0.1783447265625,0.93878173828125,2.160797119140625,-2.998199462890625,0.55328369140625,1.0,1.0,1.0,1.0,1.0,90.0,event
14:18:21.307,0.6524784,0.8850631,1.0520592,1.2662181,0.17670836,0.74362826,0.64176035,0.676933,0.42380366,0.7611074,0.67287695,1.1087545,1.0124707,0.8884897,1.0074314,1.2840338,0.7931328,0.97424304,0.6469123,1.0122116,861.8681,799.011,778.86444,898.5348,749.85345,-0.238525390625,0.1783447265625,0.93878173828125,2.160797119140625,-2.998199462890625,0.55328369140625,1.0,1.0,1.0,1.0,1.0,90.0,event
14:18:21.308,0.6524784,0.8850631,1.0520592,1.2662181,0.17670836,0.74362826,0.64176035,0.676933,0.42380366,0.7611074,0.67287695,1.1087545,1.0124707,0.8884897,1.0074314,1.2840338,0.7931328,0.97424304,0.6469123,1.0122116,870.7326,798.60803,777.6557,1135.4579,913.44324,-0.238525390625,0.1783447265625,0.93878173828125,2.160797119140625,-2.998199462890625,0.55328369140625,1.0,1.0,1.0,1.0,1.0,90.0,event
14:18:21.309,0.6524784,0.8850631,1.0520592,1.2662181,0.17670836,0.74362826,0.64176035,0.676933,0.42380366,0.7611074,0.67287695,1.1087545,1.0124707,0.8884897,1.0074314,1.2840338,0.7931328,0.97424304,0.6469123,1.0122116,792.96704,817.9487,787.72894,983.95605,1046.4103,-0.238525390625,0.1783447265625,0.93878173828125,2.160797119140625,-2.998199462890625,0.55328369140625,1.0,1.0,1.0,1.0,1.0,90.0,event
14:18:21.309,0.6524784,0.8850631,1.0520592,1.2662181,0.17670836,0.74362826,0.64176035,0.676933,0.42380366,0.7611074,0.67287695,1.1087545,1.0124707,0.8884897,1.0074314,1.2840338,0.7931328,0.97424304,0.6469123,1.0122116,761.13556,823.5897,775.2381,676.9231,843.73627,-0.238525390625,0.1783447265625,0.93878173828125,2.160797119140625,-2.998199462890625,0.55328369140625,1.0,1.0,1.0,1.0,1.0,90.0,event
14:18:21.310,0.6524784,0.8850631,1.0520592,1.2662181,0.17670836,0.74362826,0.64176035,0.676933,0.42380366,0.7611074,0.67287695,1.1087545,1.0124707,0.8884897,1.0074314,1.2840338,0.7931328,0.97424304,0.6469123,1.0122116,794.57874,810.293,793.36993,643.47986,647.1062,-0.238525390625,0.1783447265625,0.93878173828125,2.160797119140625,-2.998199462890625,0.55328369140625,1.0,1.0,1.0,1.0,1.0,90.0,event
14:18:21.311,0.6524784,0.8850631,1.0520592,1.2662181,0.17670836,0.74362826,0.64176035,0.676933,0.42380366,0.7611074,0.67287695,1.1087545,1.0124707,0.8884897,1.0074314,1.2840338,0.7931328,0.97424304,0.6469123,1.0122116,831.2454,807.0696,815.5311,865.09155,733.3333,-0.238525390625,0.1783447265625,0.93878173828125,2.160797119140625,-2.998199462890625,0.55328369140625,1.0,1.0,1.0,1.0,1.0,90.0,event
14:18:21.316,0.6524784,0.8850631,1.0520592,1.2662181,0.17670836,0.74362826,0.64176035,0.676933,0.42380366,0.7611074,0.67287695,1.1087545,1.0124707,0.8884897,1.0074314,1.2840338,0.7931328,0.97424304,0.6469123,1.0122116,856.63007,792.5641,815.12823,1119.3407,881.6117,-0.238525390625,0.1783447265625,0.93878173828125,2.160797119140625,-2.998199462890625,0.55328369140625,1.0,1.0,1.0,1.0,1.0,90.0,event
14:18:21.317,0.6524784,0.8850631,1.0520592,1.2662181,0.17670836,0.74362826,0.64176035,0.676933,0.42380366,0.7611074,0.67287695,1.1087545,1.0124707,0.8884897,1.0074314,1.2840338,0.7931328,0.97424304,0.6469123,1.0122116,817.1429,805.8608,815.12823,1010.54944,747.03296,-0.238525390625,0.1783447265625,0.93878173828125,2.160797119140625,-2.998199462890625,0.55328369140625,1.0,1.0,1.0,1.0,1.0,90.0,event
14:18:21.342,0.6524784,0.8850631,1.0520592,1.2662181,0.17670836,0.74362826,0.64176035,0.676933,0.42380366,0.7611074,0.67287695,1.1087545,1.0124707,0.8884897,1.0074314,1.2840338,0.7931328,0.97424304,0.6469123,1.0122116,770.0,805.4579,798.20514,688.60803,703.1135,-0.24053955078125,0.18121337890625,0.94378662109375,2.370147705078125,-3.1103515625,0.49346923828125,1.0,1.0,1.0,1.0,1.0,90.0,event
14:18:21.343,0.6524784,0.8850631,1.0520592,1.2662181,0.17670836,0.74362826,0.64176035,0.676933,0.42380366,0.7611074,0.67287695,1.1087545,1.0124707,0.8884897,1.0074314,1.2840338,0.7931328,0.97424304,0.6469123,1.0122116,790.9524,788.5348,786.52014,610.84247,830.0366,-0.24053955078125,0.18121337890625,0.94378662109375,2.370147705078125,-3.1103515625,0.49346923828125,1.0,1.0,1.0,1.0,1.0,90.0,event
14:18:21.344,0.6524784,0.8850631,1.0520592,1.2662181,0.17670836,0.74362826,0.64176035,0.676933,0.42380366,0.7611074,0.67287695,1.1087545,1.0124707,0.8884897,1.0074314,1.2840338,0.7931328,0.97424304,0.6469123,1.0122116,840.9158,803.0403,806.26373,838.9011,826.0073,-0.24053955078125,0.18121337890625,0.94378662109375,2.370147705078125,-3.1103515625,0.49346923828125,1.0,1.0,1.0,1.0,1.0,90.0,event
14:18:21.344,0.6524784,0.8850631,1.0520592,1.2662181,0.17670836,0.74362826,0.64176035,0.676933,0.42380366,0.7611074,0.67287695,1.1087545,1.0124707,0.8884897,1.0074314,1.2840338,0.7931328,0.97424304,0.6469123,1.0122116,875.16486,826.0073,811.50183,1110.4762,814.3223,-0.24053955078125,0.18121337890625,0.94378662109375,2.370147705078125,-3.1103515625,0.49346923828125,1.0,1.0,1.0,1.0,1.0,90.0,event
14:18:21.345,0.6524784,0.8850631,1.0520592,1.2662181,0.17670836,0.74362826,0.64176035,0.676933,0.42380366,0.7611074,0.67287695,1.1087545,1.0124707,0.8884897,1.0074314,1.2840338,0.7931328,0.97424304,0.6469123,1.0122116,831.6484,816.7399,781.685,1032.7106,819.15753,-0.24053955078125,0.18121337890625,0.94378662109375,2.370147705078125,-3.1103515625,0.49346923828125,1.0,1.0,1.0,1.0,1.0,90.0,event
14:18:21.345,0.6524784,0.8850631,1.0520592,1.2662181,0.17670836,0.74362826,0.64176035,0.676933,0.42380366,0.7611074,0.67287695,1.1087545,1.0124707,0.8884897,1.0074314,1.2840338,0.7931328,0.97424304,0.6469123,1.0122116,744.61536,785.31134,770.0,715.6044,883.22345,-0.24053955078125,0.18121337890625,0.94378662109375,2.370147705078125,-3.1103515625,0.49346923828125,1.0,1.0,1.0,1.0,1.0,90.0,event
14:18:21.346,0.6524784,0.8850631,1.0520592,1.2662181,0.17670836,0.74362826,0.64176035,0.676933,0.42380366,0.7611074,0.67287695,1.1087545,1.0124707,0.8884897,1.0074314,1.2840338,0.7931328,0.97424304,0.6469123,1.0122116,744.61536,789.7436,793.36993,586.6667,817.1429,-0.24053955078125,0.18121337890625,0.94378662109375,2.370147705078125,-3.1103515625,0.49346923828125,1.0,1.0,1.0,1.0,1.0,90.0,event
14:18:21.347,0.6524784,0.8850631,1.0520592,1.2662181,0.17670836,0.74362826,0.64176035,0.676933,0.42380366,0.7611074,0.67287695,1.1087545,1.0124707,0.8884897,1.0074314,1.2840338,0.7931328,0.97424304,0.6469123,1.0122116,800.6227,785.7143,802.23444,763.5531,667.25275,-0.24053955078125,0.18121337890625,0.94378662109375,2.370147705078125,-3.1103515625,0.49346923828125,1.0,1.0,1.0,1.0,1.0,90.0,event
14:18:21.347,0.6524784,0.8850631,1.0520592,1.2662181,0.17670836,0.74362826,0.64176035,0.676933,0.42380366,0.7611074,0.67287695,1.1087545,1.0124707,0.8884897,1.0074314,1.2840338,0.7931328,0.97424304,0.6469123,1.0122116,846.1539,774.43225,811.9048,1060.1099,729.304,-0.24053955078125,0.18121337890625,0.94378662109375,2.370147705078125,-3.1103515625,0.49346923828125,1.0,1.0,1.0,1.0,1.0,90.0,event
14:18:21.348,0.6524784,0.8850631,1.0520592,1.2662181,0.17670836,0.74362826,0.64176035,0.676933,0.42380366,0.7611074,0.67287695,1.1087545,1.0124707,0.8884897,1.0074314,1.2840338,0.7931328,0.97424304,0.6469123,1.0122116,830.4396,799.81683,802.23444,1062.5275,973.47986,-0.24053955078125,0.18121337890625,0.94378662109375,2.370147705078125,-3.1103515625,0.49346923828125,1.0,1.0,1.0,1.0,1.0,90.0,event
14:18:21.348,0.6524784,0.8850631,1.0520592,1.2662181,0.17670836,0.74362826,0.64176035,0.676933,0.42380366,0.7611074,0.67287695,1.1087545,1.0124707,0.8884897,1.0074314,1.2840338,0.7931328,0.97424304,0.6469123,1.0122116,763.5531,815.5311,783.2967,749.0476,904.9817,-0.24053955078125,0.18121337890625,0.94378662109375,2.370147705078125,-3.1103515625,0.49346923828125,1.0,1.0,1.0,1.0,1.0,90.0,event
14:18:21.349,0.6524784,0.8850631,1.0520592,1.2662181,0.17670836,0.74362826,0.64176035,0.676933,0.42380366,0.7611074,0.67287695,1.1087545,1.0124707,0.8884897,1.0074314,1.2840338,0.7931328,0.97424304,0.6469123,1.0122116,745.42126,786.9231,792.1612,563.69965,700.293,-0.24053955078125,0.18121337890625,0.94378662109375,2.370147705078125,-3.1103515625,0.49346923828125,1.0,1.0,1.0,1.0,1.0,90.0,event
14:18:21.402,0.6524784,0.8850631,1.0520592,1.2662181,0.17670836,0.74362826,0.64176035,0.676933,0.42380366,0.7611074,0.67287695,1.1087545,1.0124707,0.8884897,1.0074314,1.2840338,0.7931328,0.97424304,0.6469123,1.0122116,808.2784,777.25275,803.8461,738.5714,785.31134,-0.24053955078125,0.18121337890625,0.94378662109375,2.370147705078125,-3.1103515625,0.49346923828125,1.0,1.0,1.0,1.0,1.0,90.0,event
14:18:21.403,0.6524784,0.8850631,1.0520592,1.2662181,0.17670836,0.74362826,0.64176035,0.676933,0.42380366,0.7611074,0.67287695,1.1087545,1.0124707,0.8884897,1.0074314,1.2840338,0.7931328,0.97424304,0.6469123,1.0122116,866.7033,788.5348,784.90845,1058.4982,961.39197,-0.24053955078125,0.18121337890625,0.94378662109375,2.370147705078125,-3.1103515625,0.49346923828125,1.0,1.0,1.0,1.0,1.0,90.0,event
14:18:21.404,0.6524784,0.8850631,1.0520592,1.2662181,0.17670836,0.74362826,0.64176035,0.676933,0.42380366,0.7611074,0.67287695,1.1087545,1.0124707,0.8884897,1.0074314,1.2840338,0.7931328,0.97424304,0.6469123,1.0122116,859.45056,791.75824,776.04395,1091.1355,928.3516,-0.24053955078125,0.18121337890625,0.94378662109375,2.370147705078125,-3.1103515625,0.49346923828125,1.0,1.0,1.0,1.0,1.0,90.0,event
14:18:21.405,0.6524784,0.8850631,1.0520592,1.2662181,0.17670836,0.74362826,0.64176035,0.676933,0.42380366,0.7611074,0.67287695,1.1087545,1.0124707,0.8884897,1.0074314,1.2840338,0.7931328,0.97424304,0.6469123,1.0122116,795.78754,799.41394,815.5311,785.31134,812.3077,-0.24053955078125,0.18121337890625,0.94378662109375,2.370147705078125,-3.1103515625,0.49346923828125,1.0,1.0,1.0,1.0,1.0,90.0,event
14:18:21.405,0.6524784,0.8850631,1.0520592,1.2662181,0.17670836,0.74362826,0.64176035,0.676933,0.42380366,0.7611074,0.67287695,1.1087545,1.0124707,0.8884897,1.0074314,1.2840338,0.7931328,0.97424304,0.6469123,1.0122116,737.3626,806.6667,828.022,577.3993,856.2271,-0.24053955078125,0.18121337890625,0.94378662109375,2.370147705078125,-3.1103515625,0.49346923828125,1.0,1.0,1.0,1.0,1.0,90.0,event
14:18:21.406,0.6524784,0.8850631,1.0520592,1.2662181,0.17670836,0.74362826,0.64176035,0.676933,0.42380366,0.7611074,0.67287695,1.1087545,1.0124707,0.8884897,1.0074314,1.2840338,0.7931328,0.97424304,0.6469123,1.0122116,768.3883,818.3516,818.3516,707.5458,1054.4689,-0.24053955078125,0.18121337890625,0.94378662109375,2.370147705078125,-3.1103515625,0.49346923828125,1.0,1.0,1.0,1.0,1.0,90.0,event
14:18:21.406,0.6524784,0.8850631,1.0520592,1.2662181,0.17670836,0.74362826,0.64176035,0.676933,0.42380366,0.7611074,0.67287695,1.1087545,1.0124707,0.8884897,1.0074314,1.2840338,0.7931328,0.97424304,0.6469123,1.0122116,843.73627,814.7253,824.7985,999.67035,944.0659,-0.24053955078125,0.18121337890625,0.94378662109375,2.370147705078125,-3.1103515625,0.49346923828125,1.0,1.0,1.0,1.0,1.0,90.0,event
14:18:21.407,0.6524784,0.8850631,1.0520592,1.2662181,0.17670836,0.74362826,0.64176035,0.676933,0.42380366,0.7611074,0.67287695,1.1087545,1.0124707,0.8884897,1.0074314,1.2840338,0.7931328,0.97424304,0.6469123,1.0122116,861.8681,796.1905,834.87177,1074.6154,718.022,-0.24053955078125,0.18121337890625,0.94378662109375,2.370147705078125,-3.1103515625,0.49346923828125,1.0,1.0,1.0,1.0,1.0,90.0,event
14:18:21.408,0.6524784,0.8850631,1.0520592,1.2662181,0.17670836,0.74362826,0.64176035,0.676933,0.42380366,0.7611074,0.67287695,1.1087545,1.0124707,0.8884897,1.0074314,1.2840338,0.7931328,0.97424304,0.6469123,1.0122116,764.35895,800.6227,815.12823,588.68134,841.7216,-0.24053955078125,0.18121337890625,0.94378662109375,2.370147705078125,-3.1103515625,0.49346923828125,1.0,1.0,1.0,1.0,1.0,90.0,event
14:18:21.408,0.6524784,0.8850631,1.0520592,1.2662181,0.17670836,0.74362826,0.64176035,0.676933,0.42380366,0.7611074,0.67287695,1.1087545,1.0124707,0.8884897,1.0074314,1.2840338,0.7931328,0.97424304,0.6469123,1.0122116,788.5348,788.1319,814.7253,806.26373,759.92676,-0.24053955078125,0.18121337890625,0.94378662109375,2.370147705078125,-3.1103515625,0.49346923828125,1.0,1.0,1.0,1.0,1.0,90.0,event
14:18:21.409,0.6524784,0.8850631,1.0520592,1.2662181,0.17670836,0.74362826,0.64176035,0.676933,0.42380366,0.7611074,0.67287695,1.1087545,1.0124707,0.8884897,1.0074314,1.2840338,0.7931328,0.97424304,0.6469123,1.0122116,803.8461,819.9634,804.65204,683.36993,712.7839,-0.24053955078125,0.18121337890625,0.94378662109375,2.370147705078125,-3.1103515625,0.49346923828125,1.0,1.0,1.0,1.0,1.0,90.0,event
14:18:21.409,0.6524784,0.8850631,1.0520592,1.2662181,0.17670836,0.74362826,0.64176035,0.676933,0.42380366,0.7611074,0.67287695,1.1087545,1.0124707,0.8884897,1.0074314,1.2840338,0.7931328,0.97424304,0.6469123,1.0122116,837.28937,816.7399,794.9817,946.4835,664.0293,-0.24053955078125,0.18121337890625,0.94378662109375,2.370147705078125,-3.1103515625,0.49346923828125,1.0,1.0,1.0,1.0,1.0,90.0,event
14:18:21.435,0.6524784,0.8850631,1.0520592,1.2662181,0.17670836,0.74362826,0.64176035,0.676933,0.42380366,0.7611074,0.67287695,1.1087545,1.0124707,0.8884897,1.0074314,1.2840338,0.7931328,0.97424304,0.6469123,1.0122116,838.49817,801.8315,810.696,1080.2565,777.25275,-0.23974609375,0.1849365234375,0.9442138671875,2.07855224609375,-3.147735595703125,0.8673095703125,1.0,1.0,1.0,1.0,1.0,90.0,event
14:18:21.437,0.6524784,0.8850631,1.0520592,1.2662181,0.17670836,0.74362826,0.64176035,0.676933,0.42380366,0.7611074,0.67287695,1.1087545,1.0124707,0.8884897,1.0074314,1.2840338,0.7931328,0.97424304,0.6469123,1.0122116,785.31134,792.96704,794.17584,847.3626,718.4249,-0.23974609375,0.1849365234375,0.9442138671875,2.07855224609375,-3.147735595703125,0.8673095703125,1.0,1.0,1.0,1.0,1.0,90.0,event
14:18:21.437,0.6524784,0.8850631,1.0520592,1.2662181,0.17670836,0.74362826,0.64176035,0.676933,0.42380366,0.7611074,0.67287695,1.1087545,1.0124707,0.8884897,1.0074314,1.2840338,0.7931328,0.97424304,0.6469123,1.0122116,747.8388,788.5348,800.6227,581.8315,622.9304,-0.23974609375,0.1849365234375,0.9442138671875,2.07855224609375,-3.147735595703125,0.8673095703125,1.0,1.0,1.0,1.0,1.0,90.0,event
14:18:21.438,0.6524784,0.8850631,1.0520592,1.2662181,0.17670836,0.74362826,0.64176035,0.676933,0.42380366,0.7611074,0.67287695,1.1087545,1.0124707,0.8884897,1.0074314,1.2840338,0.7931328,0.97424304,0.6469123,1.0122116,780.07324,789.7436,825.6044,658.7912,680.9524,-0.23974609375,0.1849365234375,0.9442138671875,2.07855224609375,-3.147735595703125,0.8673095703125,1.0,1.0,1.0,1.0,1.0,90.0,event
14:18:21.439,0.6524784,0.8850631,1.0520592,1.2662181,0.17670836,0.74362826,0.64176035,0.676933,0.42380366,0.7611074,0.67287695,1.1087545,1.0124707,0.8884897,1.0074314,1.2840338,0.7931328,0.97424304,0.6469123,1.0122116,842.9304,809.4872,805.4579,933.1868,790.14655,-0.23974609375,0.1849365234375,0.9442138671875,2.07855224609375,-3.147735595703125,0.8673095703125,1.0,1.0,1.0,1.0,1.0,90.0,event
14:18:21.440,0.6524784,0.8850631,1.0520592,1.2662181,0.17670836,0.74362826,0.64176035,0.676933,0.42380366,0.7611074,0.67287695,1.1087545,1.0124707,0.8884897,1.0074314,1.2840338,0.7931328,0.97424304,0.6469123,1.0122116,805.05493,783.69965,813.91943,896.9231,838.0952,-0.23974609375,0.1849365234375,0.9442138671875,2.07855224609375,-3.147735595703125,0.8673095703125,1.0,1.0,1.0,1.0,1.0,90.0,event
14:18:21.440,0.6524784,0.8850631,1.0520592,1.2662181,0.17670836,0.74362826,0.64176035,0.676933,0.42380366,0.7611074,0.67287695,1.1087545,1.0124707,0.8884897,1.0074314,1.2840338,0.7931328,0.97424304,0.6469123,1.0122116,863.47986,812.3077,792.1612,1104.8352,850.18317,-0.23974609375,0.1849365234375,0.9442138671875,2.07855224609375,-3.147735595703125,0.8673095703125,1.0,1.0,1.0,1.0,1.0,90.0,event
14:18:21.441,0.6524784,0.8850631,1.0520592,1.2662181,0.17670836,0.74362826,0.64176035,0.676933,0.42380366,0.7611074,0.67287695,1.1087545,1.0124707,0.8884897,1.0074314,1.2840338,0.7931328,0.97424304,0.6469123,1.0122116,761.53845,788.5348,823.5897,600.7692,788.93774,-0.23974609375,0.1849365234375,0.9442138671875,2.07855224609375,-3.147735595703125,0.8673095703125,1.0,1.0,1.0,1.0,1.0,90.0,event
14:18:21.442,0.6524784,0.8850631,1.0520592,1.2662181,0.17670836,0.74362826,0.64176035,0.676933,0.42380366,0.7611074,0.67287695,1.1087545,1.0124707,0.8884897,1.0074314,1.2840338,0.7931328,0.97424304,0.6469123,1.0122116,796.5934,823.5897,815.9341,609.2308,899.7436,-0.23974609375,0.1849365234375,0.9442138671875,2.07855224609375,-3.147735595703125,0.8673095703125,1.0,1.0,1.0,1.0,1.0,90.0,event
14:18:21.444,0.6524784,0.8850631,1.0520592,1.2662181,0.17670836,0.74362826,0.64176035,0.676933,0.42380366,0.7611074,0.67287695,1.1087545,1.0124707,0.8884897,1.0074314,1.2840338,0.7931328,0.97424304,0.6469123,1.0122116,851.79486,838.0952,807.8755,863.0769,1027.8755,-0.23974609375,0.1849365234375,0.9442138671875,2.07855224609375,-3.147735595703125,0.8673095703125,1.0,1.0,1.0,1.0,1.0,90.0,event
14:18:21.445,0.6524784,0.8850631,1.0520592,1.2662181,0.17670836,0.74362826,0.64176035,0.676933,0.42380366,0.7611074,0.67287695,1.1087545,1.0124707,0.8884897,1.0074314,1.2840338,0.7931328,0.97424304,0.6469123,1.0122116,856.63007,826.0073,795.38464,1077.4359,791.75824,-0.23974609375,0.1849365234375,0.9442138671875,2.07855224609375,-3.147735595703125,0.8673095703125,1.0,1.0,1.0,1.0,1.0,90.0,event
14:18:21.445,0.6524784,0.8850631,1.0520592,1.2662181,0.17670836,0.74362826,0.64176035,0.676933,0.42380366,0.7611074,0.67287695,1.1087545,1.0124707,0.8884897,1.0074314,1.2840338,0.7931328,0.97424304,0.6469123,1.0122116,804.2491,809.4872,770.80585,909.41394,688.20514,-0.23974609375,0.1849365234375,0.9442138671875,2.07855224609375,-3.147735595703125,0.8673095703125,1.0,1.0,1.0,1.0,1.0,90.0,event
14:18:21.506,0.6524784,0.8850631,1.0520592,1.2662181,0.17670836,0.74362826,0.64176035,0.676933,0.42380366,0.7611074,0.67287695,1.1087545,1.0124707,0.8884897,1.0074314,1.2840338,0.7931328,0.97424304,0.6469123,1.0122116,776.04395,817.9487,779.2674,624.1392,726.8865,-0.240478515625,0.1871337890625,0.9459228515625,1.83929443359375,-3.461761474609375,0.127105712890625,1.0,1.0,1.0,1.0,1.0,90.0,event
14:18:21.507,0.6524784,0.8850631,1.0520592,1.2662181,0.17670836,0.74362826,0.64176035,0.676933,0.42380366,0.7611074,0.67287695,1.1087545,1.0124707,0.8884897,1.0074314,1.2840338,0.7931328,0.97424304,0.6469123,1.0122116,775.2381,802.23444,784.5055,591.9048,695.8608,-0.240478515625,0.1871337890625,0.9459228515625,1.83929443359375,-3.461761474609375,0.127105712890625,1.0,1.0,1.0,1.0,1.0,90.0,event
14:18:21.508,0.6524784,0.8850631,1.0520592,1.2662181,0.17670836,0.74362826,0.64176035,0.676933,0.42380366,0.7611074,0.67287695,1.1087545,1.0124707,0.8884897,1.0074314,1.2840338,0.7931328,0.97424304,0.6469123,1.0122116,810.293,782.49084,758.71796,819.5604,709.5604,-0.240478515625,0.1871337890625,0.9459228515625,1.83929443359375,-3.461761474609375,0.127105712890625,1.0,1.0,1.0,1.0,1.0,90.0,event
14:18:21.509,0.6524784,0.8850631,1.0520592,1.2662181,0.17670836,0.74362826,0.64176035,0.676933,0.42380366,0.7611074,0.67287695,1.1087545,1.0124707,0.8884897,1.0074314,1.2840338,0.7931328,0.97424304,0.6469123,1.0122116,847.3626,784.90845,769.19415,1063.3334,752.674,-0.240478515625,0.1871337890625,0.9459228515625,1.83929443359375,-3.461761474609375,0.127105712890625,1.0,1.0,1.0,1.0,1.0,90.0,event
14:18:21.509,0.6524784,0.8850631,1.0520592,1.2662181,0.17670836,0.74362826,0.64176035,0.676933,0.42380366,0.7611074,0.67287695,1.1087545,1.0124707,0.8884897,1.0074314,1.2840338,0.7931328,0.97424304,0.6469123,1.0122116,799.41394,780.07324,801.4286,948.9011,749.45056,-0.240478515625,0.1871337890625,0.9459228515625,1.83929443359375,-3.461761474609375,0.127105712890625,1.0,1.0,1.0,1.0,1.0,90.0,event
14:18:21.510,0.6524784,0.8850631,1.0520592,1.2662181,0.17670836,0.74362826,0.64176035,0.676933,0.42380366,0.7611074,0.67287695,1.1087545,1.0124707,0.8884897,1.0074314,1.2840338,0.7931328,0.97424304,0.6469123,1.0122116,744.61536,797.3993,804.2491,644.68866,781.685,-0.240478515625,0.1871337890625,0.9459228515625,1.83929443359375,-3.461761474609375,0.127105712890625,1.0,1.0,1.0,1.0,1.0,90.0,event
14:18:21.511,0.6524784,0.8850631,1.0520592,1.2662181,0.17670836,0.74362826,0.64176035,0.676933,0.42380366,0.7611074,0.67287695,1.1087545,1.0124707,0.8884897,1.0074314,1.2840338,0.7931328,0.97424304,0.6469123,1.0122116,761.13556,813.5165,791.75824,555.2381,718.022,-0.240478515625,0.1871337890625,0.9459228515625,1.83929443359375,-3.461761474609375,0.127105712890625,1.0,1.0,1.0,1.0,1.0,90.0,event
14:18:21.512,0.6524784,0.8850631,1.0520592,1.2662181,0.17670836,0.74362826,0.64176035,0.676933,0.42380366,0.7611074,0.67287695,1.1087545,1.0124707,0.8884897,1.0074314,1.2840338,0.7931328,0.97424304,0.6469123,1.0122116,883.22345,794.17584,824.3956,1089.1208,1003.69965,-0.240478515625,0.1871337890625,0.9459228515625,1.83929443359375,-3.461761474609375,0.127105712890625,1.0,1.0,1.0,1.0,1.0,90.0,event
14:18:21.512,0.6524784,0.8850631,1.0520592,1.2662181,0.17670836,0.74362826,0.64176035,0.676933,0.42380366,0.7611074,0.67287695,1.1087545,1.0124707,0.8884897,1.0074314,1.2840338,0.7931328,0.97424304,0.6469123,1.0122116,814.7253,792.96704,798.60803,780.07324,720.4396,-0.240478515625,0.1871337890625,0.9459228515625,1.83929443359375,-3.461761474609375,0.127105712890625,1.0,1.0,1.0,1.0,1.0,90.0,event
14:18:21.513,0.6524784,0.8850631,1.0520592,1.2662181,0.17670836,0.74362826,0.64176035,0.676933,0.42380366,0.7611074,0.67287695,1.1087545,1.0124707,0.8884897,1.0074314,1.2840338,0.7931328,0.97424304,0.6469123,1.0122116,853.8095,788.5348,816.337,997.25275,880.0,-0.240478515625,0.1871337890625,0.9459228515625,1.83929443359375,-3.461761474609375,0.127105712890625,1.0,1.0,1.0,1.0,1.0,90.0,event
14:18:21.513,0.6524784,0.8850631,1.0520592,1.2662181,0.17670836,0.74362826,0.64176035,0.676933,0.42380366,0.7611074,0.67287695,1.1087545,1.0124707,0.8884897,1.0074314,1.2840338,0.7931328,0.97424304,0.6469123,1.0122116,736.1539,766.3736,778.46155,634.21246,710.7692,-0.240478515625,0.1871337890625,0.9459228515625,1.83929443359375,-3.461761474609375,0.127105712890625,1.0,1.0,1.0,1.0,1.0,90.0,event
14:18:21.514,0.6524784,0.8850631,1.0520592,1.2662181,0.17670836,0.74362826,0.64176035,0.676933,0.42380366,0.7611074,0.67287695,1.1087545,1.0124707,0.8884897,1.0074314,1.2840338,0.7931328,0.97424304,0.6469123,1.0122116,710.3663,762.3443,782.8938,529.45056,746.2271,-0.240478515625,0.1871337890625,0.9459228515625,1.83929443359375,-3.461761474609375,0.127105712890625,1.0,1.0,1.0,1.0,1.0,90.0,event
14:18:21.537,0.6524784,0.8850631,1.0520592,1.2662181,0.17670836,0.74362826,0.64176035,0.676933,0.42380366,0.7611074,0.67287695,1.1087545,1.0124707,0.8884897,1.0074314,1.2840338,0.7931328,0.97424304,0.6469123,1.0122116,770.80585,773.6264,792.5641,758.315,730.5128,-0.2430419921875,0.17779541015625,0.93377685546875,1.532745361328125,-3.342132568359375,0.112152099609375,1.0,1.0,1.0,1.0,1.0,90.0,event
14:18:21.539,0.6524784,0.8850631,1.0520592,1.2662181,0.17670836,0.74362826,0.64176035,0.676933,0.42380366,0.7611074,0.67287695,1.1087545,1.0124707,0.8884897,1.0074314,1.2840338,0.7931328,0.97424304,0.6469123,1.0122116,814.7253,805.8608,778.0586,1027.0696,702.71063,-0.2430419921875,0.17779541015625,0.93377685546875,1.532745361328125,-3.342132568359375,0.112152099609375,1.0,1.0,1.0,1.0,1.0,90.0,event
14:18:21.543,0.6524784,0.8850631,1.0520592,1.2662181,0.17670836,0.74362826,0.64176035,0.676933,0.42380366,0.7611074,0.67287695,1.1087545,1.0124707,0.8884897,1.0074314,1.2840338,0.7931328,0.97424304,0.6469123,1.0122116,778.0586,821.5751,773.6264,993.22345,743.4066,-0.2430419921875,0.17779541015625,0.93377685546875,1.532745361328125,-3.342132568359375,0.112152099609375,1.0,1.0,1.0,1.0,1.0,90.0,event
14:18:21.544,0.6524784,0.8850631,1.0520592,1.2662181,0.17670836,0.74362826,0.64176035,0.676933,0.42380366,0.7611074,0.67287695,1.1087545,1.0124707,0.8884897,1.0074314,1.2840338,0.7931328,0.97424304,0.6469123,1.0122116,728.49817,799.41394,793.36993,679.7436,861.4652,-0.2430419921875,0.17779541015625,0.93377685546875,1.532745361328125,-3.342132568359375,0.112152099609375,1.0,1.0,1.0,1.0,1.0,90.0,event
14:18:21.544,0.6524784,0.8850631,1.0520592,1.2662181,0.17670836,0.74362826,0.64176035,0.676933,0.42380366,0.7611074,0.67287695,1.1087545,1.0124707,0.8884897,1.0074314,1.2840338,0.7931328,0.97424304,0.6469123,1.0122116,761.9414,798.20514,789.34064,538.315,808.68134,-0.2430419921875,0.17779541015625,0.93377685546875,1.532745361328125,-3.342132568359375,0.112152099609375,1.0,1.0,1.0,1.0,1.0,90.0,event
14:18:21.545,0.6524784,0.8850631,1.0520592,1.2662181,0.17670836,0.74362826,0.64176035,0.676933,0.42380366,0.7611074,0.67287695,1.1087545,1.0124707,0.8884897,1.0074314,1.2840338,0.7931328,0.97424304,0.6469123,1.0122116,810.696,799.81683,778.86444,722.0513,764.35895,-0.2430419921875,0.17779541015625,0.93377685546875,1.532745361328125,-3.342132568359375,0.112152099609375,1.0,1.0,1.0,1.0,1.0,90.0,event
14:18:21.546,0.6524784,0.8850631,1.0520592,1.2662181,0.17670836,0.74362826,0.64176035,0.676933,0.42380366,0.7611074,0.67287695,1.1087545,1.0124707,0.8884897,1.0074314,1.2840338,0.7931328,0.97424304,0.6469123,1.0122116,809.0842,807.8755,783.2967,1006.9231,1018.20514,-0.2430419921875,0.17779541015625,0.93377685546875,1.532745361328125,-3.342132568359375,0.112152099609375,1.0,1.0,1.0,1.0,1.0,90.0,event
14:18:21.546,0.6524784,0.8850631,1.0520592,1.2662181,0.17670836,0.74362826,0.64176035,0.676933,0.42380366,0.7611074,0.67287695,1.1087545,1.0124707,0.8884897,1.0074314,1.2840338,0.7931328,0.97424304,0.6469123,1.0122116,832.8571,794.57874,791.75824,990.80585,881.2088,-0.2430419921875,0.17779541015625,0.93377685546875,1.532745361328125,-3.342132568359375,0.112152099609375,1.0,1.0,1.0,1.0,1.0,90.0,event
14:18:21.547,0.6524784,0.8850631,1.0520592,1.2662181,0.17670836,0.74362826,0.64176035,0.676933,0.42380366,0.7611074,0.67287695,1.1087545,1.0124707,0.8884897,1.0074314,1.2840338,0.7931328,0.97424304,0.6469123,1.0122116,755.89746,796.1905,772.8205,721.2454,909.011,-0.2430419921875,0.17779541015625,0.93377685546875,1.532745361328125,-3.342132568359375,0.112152099609375,1.0,1.0,1.0,1.0,1.0,90.0,event
14:18:21.548,0.6524784,0.8850631,1.0520592,1.2662181,0.17670836,0.74362826,0.64176035,0.676933,0.42380366,0.7611074,0.67287695,1.1087545,1.0124707,0.8884897,1.0074314,1.2840338,0.7931328,0.97424304,0.6469123,1.0122116,761.13556,802.23444,790.54944,541.13556,620.9158,-0.2430419921875,0.17779541015625,0.93377685546875,1.532745361328125,-3.342132568359375,0.112152099609375,1.0,1.0,1.0,1.0,1.0,90.0,event
14:18:21.549,0.6524784,0.8850631,1.0520592,1.2662181,0.17670836,0.74362826,0.64176035,0.676933,0.42380366,0.7611074,0.67287695,1.1087545,1.0124707,0.8884897,1.0074314,1.2840338,0.7931328,0.97424304,0.6469123,1.0122116,809.4872,820.3663,786.9231,700.696,702.3077,-0.2430419921875,0.17779541015625,0.93377685546875,1.532745361328125,-3.342132568359375,0.112152099609375,1.0,1.0,1.0,1.0,1.0,90.0,event
14:18:21.549,0.6524784,0.8850631,1.0520592,1.2662181,0.17670836,0.74362826,0.64176035,0.676933,0.42380366,0.7611074,0.67287695,1.1087545,1.0124707,0.8884897,1.0074314,1.2840338,0.7931328,0.97424304,0.6469123,1.0122116,839.707,800.6227,749.45056,980.7326,828.022,-0.2430419921875,0.17779541015625,0.93377685546875,1.532745361328125,-3.342132568359375,0.112152099609375,1.0,1.0,1.0,1.0,1.0,90.0,event
14:18:21.574,0.6524784,0.8850631,1.0520592,1.2662181,0.17670836,0.74362826,0.64176035,0.676933,0.42380366,0.7611074,0.67287695,1.1087545,1.0124707,0.8884897,1.0074314,1.2840338,0.7931328,0.97424304,0.6469123,1.0122116,815.9341,800.6227,749.85345,1025.4579,772.4176,-0.24151611328125,0.18212890625,0.943603515625,2.16827392578125,-3.57391357421875,0.418701171875,1.0,1.0,1.0,1.0,1.0,90.0,event
14:18:21.575,0.6524784,0.8850631,1.0520592,1.2662181,0.17670836,0.74362826,0.64176035,0.676933,0.42380366,0.7611074,0.67287695,1.1087545,1.0124707,0.8884897,1.0074314,1.2840338,0.7931328,0.97424304,0.6469123,1.0122116,746.2271,802.6374,768.7912,746.63007,765.9707,-0.24151611328125,0.18212890625,0.943603515625,2.16827392578125,-3.57391357421875,0.418701171875,1.0,1.0,1.0,1.0,1.0,90.0,event
14:18:21.576,0.6524784,0.8850631,1.0520592,1.2662181,0.17670836,0.74362826,0.64176035,0.676933,0.42380366,0.7611074,0.67287695,1.1087545,1.0124707,0.8884897,1.0074314,1.2840338,0.7931328,0.97424304,0.6469123,1.0122116,732.52747,794.57874,784.90845,526.63007,732.9304,-0.24151611328125,0.18212890625,0.943603515625,2.16827392578125,-3.57391357421875,0.418701171875,1.0,1.0,1.0,1.0,1.0,90.0,event
14:18:21.576,0.6524784,0.8850631,1.0520592,1.2662181,0.17670836,0.74362826,0.64176035,0.676933,0.42380366,0.7611074,0.67287695,1.1087545,1.0124707,0.8884897,1.0074314,1.2840338,0.7931328,0.97424304,0.6469123,1.0122116,784.10254,796.5934,786.52014,622.52747,773.6264,-0.24151611328125,0.18212890625,0.943603515625,2.16827392578125,-3.57391357421875,0.418701171875,1.0,1.0,1.0,1.0,1.0,90.0,event
14:18:21.577,0.6524784,0.8850631,1.0520592,1.2662181,0.17670836,0.74362826,0.64176035,0.676933,0.42380366,0.7611074,0.67287695,1.1087545,1.0124707,0.8884897,1.0074314,1.2840338,0.7931328,0.97424304,0.6469123,1.0122116,841.7216,796.1905,779.67035,920.293,736.55676,-0.24151611328125,0.18212890625,0.943603515625,2.16827392578125,-3.57391357421875,0.418701171875,1.0,1.0,1.0,1.0,1.0,90.0,event
14:18:21.578,0.6524784,0.8850631,1.0520592,1.2662181,0.17670836,0.74362826,0.64176035,0.676933,0.42380366,0.7611074,0.67287695,1.1087545,1.0124707,0.8884897,1.0074314,1.2840338,0.7931328,0.97424304,0.6469123,1.0122116,761.9414,786.52014,763.1502,820.7692,921.9048,-0.24151611328125,0.18212890625,0.943603515625,2.16827392578125,-3.57391357421875,0.418701171875,1.0,1.0,1.0,1.0,1.0,90.0,event
14:18:21.578,0.6524784,0.8850631,1.0520592,1.2662181,0.17670836,0.74362826,0.64176035,0.676933,0.42380366,0.7611074,0.67287695,1.1087545,1.0124707,0.8884897,1.0074314,1.2840338,0.7931328,0.97424304,0.6469123,1.0122116,833.663,786.9231,770.40295,1043.5897,770.0,-0.24151611328125,0.18212890625,0.943603515625,2.16827392578125,-3.57391357421875,0.418701171875,1.0,1.0,1.0,1.0,1.0,90.0,event
14:18:21.579,0.6524784,0.8850631,1.0520592,1.2662181,0.17670836,0.74362826,0.64176035,0.676933,0.42380366,0.7611074,0.67287695,1.1087545,1.0124707,0.8884897,1.0074314,1.2840338,0.7931328,0.97424304,0.6469123,1.0122116,736.1539,797.3993,773.6264,581.4286,1138.2784,-0.24151611328125,0.18212890625,0.943603515625,2.16827392578125,-3.57391357421875,0.418701171875,1.0,1.0,1.0,1.0,1.0,90.0,event
14:18:21.579,0.6524784,0.8850631,1.0520592,1.2662181,0.17670836,0.74362826,0.64176035,0.676933,0.42380366,0.7611074,0.67287695,1.1087545,1.0124707,0.8884897,1.0074314,1.2840338,0.7931328,0.97424304,0.6469123,1.0122116,784.90845,794.57874,777.25275,626.9597,906.99634,-0.24151611328125,0.18212890625,0.943603515625,2.16827392578125,-3.57391357421875,0.418701171875,1.0,1.0,1.0,1.0,1.0,90.0,event
14:18:21.580,0.6524784,0.8850631,1.0520592,1.2662181,0.17670836,0.74362826,0.64176035,0.676933,0.42380366,0.7611074,0.67287695,1.1087545,1.0124707,0.8884897,1.0074314,1.2840338,0.7931328,0.97424304,0.6469123,1.0122116,857.4359,799.011,773.22345,918.2784,701.0989,-0.24151611328125,0.18212890625,0.943603515625,2.16827392578125,-3.57391357421875,0.418701171875,1.0,1.0,1.0,1.0,1.0,90.0,event
14:18:21.581,0.6524784,0.8850631,1.0520592,1.2662181,0.17670836,0.74362826,0.64176035,0.676933,0.42380366,0.7611074,0.67287695,1.1087545,1.0124707,0.8884897,1.0074314,1.2840338,0.7931328,0.97424304,0.6469123,1.0122116,863.0769,788.5348,763.95605,1093.956,782.0879,-0.24151611328125,0.18212890625,0.943603515625,2.16827392578125,-3.57391357421875,0.418701171875,1.0,1.0,1.0,1.0,1.0,90.0,event
14:18:21.581,0.6524784,0.8850631,1.0520592,1.2662181,0.17670836,0.74362826,0.64176035,0.676933,0.42380366,0.7611074,0.67287695,1.1087545,1.0124707,0.8884897,1.0074314,1.2840338,0.7931328,0.97424304,0.6469123,1.0122116,803.8461,790.9524,764.7619,877.98535,739.7802,-0.24151611328125,0.18212890625,0.943603515625,2.16827392578125,-3.57391357421875,0.418701171875,1.0,1.0,1.0,1.0,1.0,90.0,event
14:18:21.636,0.6524784,0.8850631,1.0520592,1.2662181,0.17670836,0.74362826,0.64176035,0.676933,0.42380366,0.7611074,0.67287695,1.1087545,1.0124707,0.8884897,1.0074314,1.2840338,0.7931328,0.97424304,0.6469123,1.0122116,757.9121,798.20514,771.6117,614.87177,661.2088,-0.24151611328125,0.18212890625,0.943603515625,2.16827392578125,-3.57391357421875,0.418701171875,1.0,1.0,1.0,1.0,1.0,90.0,event
14:18:21.637,0.6524784,0.8850631,1.0520592,1.2662181,0.17670836,0.74362826,0.64176035,0.676933,0.42380366,0.7611074,0.67287695,1.1087545,1.0124707,0.8884897,1.0074314,1.2840338,0.7931328,0.97424304,0.6469123,1.0122116,779.67035,796.5934,775.2381,641.06226,603.5897,-0.24151611328125,0.18212890625,0.943603515625,2.16827392578125,-3.57391357421875,0.418701171875,1.0,1.0,1.0,1.0,1.0,90.0,event
14:18:21.638,0.6524784,0.8850631,1.0520592,1.2662181,0.17670836,0.74362826,0.64176035,0.676933,0.42380366,0.7611074,0.67287695,1.1087545,1.0124707,0.8884897,1.0074314,1.2840338,0.7931328,0.97424304,0.6469123,1.0122116,837.28937,803.0403,770.80585,894.5055,707.9487,-0.24151611328125,0.18212890625,0.943603515625,2.16827392578125,-3.57391357421875,0.418701171875,1.0,1.0,1.0,1.0,1.0,90.0,event
14:18:21.640,0.6524784,0.8850631,1.0520592,1.2662181,0.17670836,0.74362826,0.64176035,0.676933,0.42380366,0.7611074,0.67287695,1.1087545,1.0124707,0.8884897,1.0074314,1.2840338,0.7931328,0.97424304,0.6469123,1.0122116,869.12085,819.15753,770.80585,1113.6996,799.011,-0.24151611328125,0.18212890625,0.943603515625,2.16827392578125,-3.57391357421875,0.418701171875,1.0,1.0,1.0,1.0,1.0,90.0,event
14:18:21.645,0.6524784,0.8850631,1.0520592,1.2662181,0.17670836,0.74362826,0.64176035,0.676933,0.42380366,0.7611074,0.67287695,1.1087545,1.0124707,0.8884897,1.0074314,1.2840338,0.7931328,0.97424304,0.6469123,1.0122116,813.5165,813.5165,785.7143,927.1429,798.60803,-0.24151611328125,0.18212890625,0.943603515625,2.16827392578125,-3.57391357421875,0.418701171875,1.0,1.0,1.0,1.0,1.0,90.0,event
14:18:21.646,0.6524784,0.8850631,1.0520592,1.2662181,0.17670836,0.74362826,0.64176035,0.676933,0.42380366,0.7611074,0.67287695,1.1087545,1.0124707,0.8884897,1.0074314,1.2840338,0.7931328,0.97424304,0.6469123,1.0122116,745.0183,788.1319,794.57874,606.0073,742.1978,-0.24151611328125,0.18212890625,0.943603515625,2.16827392578125,-3.57391357421875,0.418701171875,1.0,1.0,1.0,1.0,1.0,90.0,event
14:18:21.648,0.6524784,0.8850631,1.0520592,1.2662181,0.17670836,0.74362826,0.64176035,0.676933,0.42380366,0.7611074,0.67287695,1.1087545,1.0124707,0.8884897,1.0074314,1.2840338,0.7931328,0.97424304,0.6469123,1.0122116,768.3883,788.93774,792.1612,599.9634,949.707,-0.24151611328125,0.18212890625,0.943603515625,2.16827392578125,-3.57391357421875,0.418701171875,1.0,1.0,1.0,1.0,1.0,90.0,event
14:18:21.649,0.6524784,0.8850631,1.0520592,1.2662181,0.17670836,0.74362826,0.64176035,0.676933,0.42380366,0.7611074,0.67287695,1.1087545,1.0124707,0.8884897,1.0074314,1.2840338,0.7931328,0.97424304,0.6469123,1.0122116,815.9341,803.44324,781.28204,813.5165,1090.3297,-0.24151611328125,0.18212890625,0.943603515625,2.16827392578125,-3.57391357421875,0.418701171875,1.0,1.0,1.0,1.0,1.0,90.0,event
14:18:21.650,0.6524784,0.8850631,1.0520592,1.2662181,0.17670836,0.74362826,0.64176035,0.676933,0.42380366,0.7611074,0.67287695,1.1087545,1.0124707,0.8884897,1.0074314,1.2840338,0.7931328,0.97424304,0.6469123,1.0122116,841.31866,788.5348,785.7143,1048.022,802.23444,-0.24151611328125,0.18212890625,0.943603515625,2.16827392578125,-3.57391357421875,0.418701171875,1.0,1.0,1.0,1.0,1.0,90.0,event
14:18:21.651,0.6524784,0.8850631,1.0520592,1.2662181,0.17670836,0.74362826,0.64176035,0.676933,0.42380366,0.7611074,0.67287695,1.1087545,1.0124707,0.8884897,1.0074314,1.2840338,0.7931328,0.97424304,0.6469123,1.0122116,791.75824,770.80585,801.8315,925.9341,697.47253,-0.24151611328125,0.18212890625,0.943603515625,2.16827392578125,-3.57391357421875,0.418701171875,1.0,1.0,1.0,1.0,1.0,90.0,event
14:18:21.653,0.6524784,0.8850631,1.0520592,1.2662181,0.17670836,0.74362826,0.64176035,0.676933,0.42380366,0.7611074,0.67287695,1.1087545,1.0124707,0.8884897,1.0074314,1.2840338,0.7931328,0.97424304,0.6469123,1.0122116,752.27106,777.25275,820.7692,618.0952,719.2308,-0.24151611328125,0.18212890625,0.943603515625,2.16827392578125,-3.57391357421875,0.418701171875,1.0,1.0,1.0,1.0,1.0,90.0,event
14:18:21.656,0.6524784,0.8850631,1.0520592,1.2662181,0.17670836,0.74362826,0.64176035,0.676933,0.42380366,0.7611074,0.67287695,1.1087545,1.0124707,0.8884897,1.0074314,1.2840338,0.7931328,0.97424304,0.6469123,1.0122116,781.28204,792.1612,813.5165,569.7436,618.0952,-0.24151611328125,0.18212890625,0.943603515625,2.16827392578125,-3.57391357421875,0.418701171875,1.0,1.0,1.0,1.0,1.0,90.0,event
14:18:21.682,0.6524784,0.8850631,1.0520592,1.2662181,0.17670836,0.74362826,0.64176035,0.676933,0.42380366,0.7611074,0.67287695,1.1087545,1.0124707,0.8884897,1.0074314,1.2840338,0.7931328,0.97424304,0.6469123,1.0122116,821.5751,786.9231,786.52014,774.83514,615.6777,-0.23858642578125,0.18157958984375,0.939453125,1.6448974609375,-3.18511962890625,0.70281982421875,1.0,1.0,1.0,1.0,1.0,90.0,event
14:18:21.683,0.6524784,0.8850631,1.0520592,1.2662181,0.17670836,0.74362826,0.64176035,0.676933,0.42380366,0.7611074,0.67287695,1.1087545,1.0124707,0.8884897,1.0074314,1.2840338,0.7931328,0.97424304,0.6469123,1.0122116,854.21246,800.6227,772.01465,1038.3517,755.09155,-0.23858642578125,0.18157958984375,0.939453125,1.6448974609375,-3.18511962890625,0.70281982421875,1.0,1.0,1.0,1.0,1.0,90.0,event
14:18:21.684,0.6524784,0.8850631,1.0520592,1.2662181,0.17670836,0.74362826,0.64176035,0.676933,0.42380366,0.7611074,0.67287695,1.1087545,1.0124707,0.8884897,1.0074314,1.2840338,0.7931328,0.97424304,0.6469123,1.0122116,780.4762,805.8608,781.28204,644.2857,751.06226,-0.23858642578125,0.18157958984375,0.939453125,1.6448974609375,-3.18511962890625,0.70281982421875,1.0,1.0,1.0,1.0,1.0,90.0,event
14:18:21.684,0.6524784,0.8850631,1.0520592,1.2662181,0.17670836,0.74362826,0.64176035,0.676933,0.42380366,0.7611074,0.67287695,1.1087545,1.0124707,0.8884897,1.0074314,1.2840338,0.7931328,0.97424304,0.6469123,1.0122116,836.08057,817.5458,763.95605,949.707,809.4872,-0.23858642578125,0.18157958984375,0.939453125,1.6448974609375,-3.18511962890625,0.70281982421875,1.0,1.0,1.0,1.0,1.0,90.0,event
14:18:21.685,0.6524784,0.8850631,1.0520592,1.2662181,0.17670836,0.74362826,0.64176035,0.676933,0.42380366,0.7611074,0.67287695,1.1087545,1.0124707,0.8884897,1.0074314,1.2840338,0.7931328,0.97424304,0.6469123,1.0122116,772.01465,811.9048,799.81683,566.52014,672.8938,-0.23858642578125,0.18157958984375,0.939453125,1.6448974609375,-3.18511962890625,0.70281982421875,1.0,1.0,1.0,1.0,1.0,90.0,event
14:18:21.685,0.6524784,0.8850631,1.0520592,1.2662181,0.17670836,0.74362826,0.64176035,0.676933,0.42380366,0.7611074,0.67287695,1.1087545,1.0124707,0.8884897,1.0074314,1.2840338,0.7931328,0.97424304,0.6469123,1.0122116,816.7399,816.337,799.81683,759.12085,812.71063,-0.23858642578125,0.18157958984375,0.939453125,1.6448974609375,-3.18511962890625,0.70281982421875,1.0,1.0,1.0,1.0,1.0,90.0,event
14:18:21.686,0.6524784,0.8850631,1.0520592,1.2662181,0.17670836,0.74362826,0.64176035,0.676933,0.42380366,0.7611074,0.67287695,1.1087545,1.0124707,0.8884897,1.0074314,1.2840338,0.7931328,0.97424304,0.6469123,1.0122116,846.9597,806.26373,796.99634,1022.6374,1060.5128,-0.23858642578125,0.18157958984375,0.939453125,1.6448974609375,-3.18511962890625,0.70281982421875,1.0,1.0,1.0,1.0,1.0,90.0,event
14:18:21.686,0.6524784,0.8850631,1.0520592,1.2662181,0.17670836,0.74362826,0.64176035,0.676933,0.42380366,0.7611074,0.67287695,1.1087545,1.0124707,0.8884897,1.0074314,1.2840338,0.7931328,0.97424304,0.6469123,1.0122116,828.022,788.1319,796.5934,966.63007,918.2784,-0.23858642578125,0.18157958984375,0.939453125,1.6448974609375,-3.18511962890625,0.70281982421875,1.0,1.0,1.0,1.0,1.0,90.0,event
14:18:21.687,0.6524784,0.8850631,1.0520592,1.2662181,0.17670836,0.74362826,0.64176035,0.676933,0.42380366,0.7611074,0.67287695,1.1087545,1.0124707,0.8884897,1.0074314,1.2840338,0.7931328,0.97424304,0.6469123,1.0122116,761.9414,770.40295,796.99634,651.53845,651.53845,-0.23858642578125,0.18157958984375,0.939453125,1.6448974609375,-3.18511962890625,0.70281982421875,1.0,1.0,1.0,1.0,1.0,90.0,event
14:18:21.687,0.6524784,0.8850631,1.0520592,1.2662181,0.17670836,0.74362826,0.64176035,0.676933,0.42380366,0.7611074,0.67287695,1.1087545,1.0124707,0.8884897,1.0074314,1.2840338,0.7931328,0.97424304,0.6469123,1.0122116,758.71796,791.3553,805.8608,528.24176,711.5751,-0.23858642578125,0.18157958984375,0.939453125,1.6448974609375,-3.18511962890625,0.70281982421875,1.0,1.0,1.0,1.0,1.0,90.0,event
14:18:21.688,0.6524784,0.8850631,1.0520592,1.2662181,0.17670836,0.74362826,0.64176035,0.676933,0.42380366,0.7611074,0.67287695,1.1087545,1.0124707,0.8884897,1.0074314,1.2840338,0.7931328,0.97424304,0.6469123,1.0122116,820.7692,818.3516,808.2784,697.8755,892.49084,-0.23858642578125,0.18157958984375,0.939453125,1.6448974609375,-3.18511962890625,0.70281982421875,1.0,1.0,1.0,1.0,1.0,90.0,event
14:18:21.688,0.6524784,0.8850631,1.0520592,1.2662181,0.17670836,0.74362826,0.64176035,0.676933,0.42380366,0.7611074,0.67287695,1.1087545,1.0124707,0.8884897,1.0074314,1.2840338,0.7931328,0.97424304,0.6469123,1.0122116,865.09155,828.022,813.91943,987.1795,758.71796,-0.23858642578125,0.18157958984375,0.939453125,1.6448974609375,-3.18511962890625,0.70281982421875,1.0,1.0,1.0,1.0,1.0,90.0,event
14:18:21.720,0.6524784,0.8850631,1.0520592,1.2662181,0.17670836,0.74362826,0.64176035,0.676933,0.42380366,0.7611074,0.67287695,1.1087545,1.0124707,0.8884897,1.0074314,1.2840338,0.7931328,0.97424304,0.6469123,1.0122116,819.5604,821.978,803.0403,1010.14655,688.20514,-0.2470703125,0.1768798828125,0.94744873046875,1.854248046875,-4.11224365234375,-0.07476806640625,1.0,1.0,1.0,1.0,1.0,90.0,event
14:18:21.721,0.6524784,0.8850631,1.0520592,1.2662181,0.17670836,0.74362826,0.64176035,0.676933,0.42380366,0.7611074,0.67287695,1.1087545,1.0124707,0.8884897,1.0074314,1.2840338,0.7931328,0.97424304,0.6469123,1.0122116,745.42126,811.50183,765.16486,704.3223,717.619,-0.2470703125,0.1768798828125,0.94744873046875,1.854248046875,-4.11224365234375,-0.07476806640625,1.0,1.0,1.0,1.0,1.0,90.0,event
14:18:21.722,0.6524784,0.8850631,1.0520592,1.2662181,0.17670836,0.74362826,0.64176035,0.676933,0.42380366,0.7611074,0.67287695,1.1087545,1.0124707,0.8884897,1.0074314,1.2840338,0.7931328,0.97424304,0.6469123,1.0122116,731.7216,790.14655,775.64105,498.02197,694.65204,-0.2470703125,0.1768798828125,0.94744873046875,1.854248046875,-4.11224365234375,-0.07476806640625,1.0,1.0,1.0,1.0,1.0,90.0,event
14:18:21.722,0.6524784,0.8850631,1.0520592,1.2662181,0.17670836,0.74362826,0.64176035,0.676933,0.42380366,0.7611074,0.67287695,1.1087545,1.0124707,0.8884897,1.0074314,1.2840338,0.7931328,0.97424304,0.6469123,1.0122116,781.685,786.52014,824.7985,657.98535,730.9158,-0.2470703125,0.1768798828125,0.94744873046875,1.854248046875,-4.11224365234375,-0.07476806640625,1.0,1.0,1.0,1.0,1.0,90.0,event
14:18:21.723,0.6524784,0.8850631,0.7163761,1.2662181,0.17670836,0.74362826,0.7585134,0.676933,0.42380366,0.7611074,0.9390202,1.1087545,1.0124707,0.8884897,0.9626136,1.2840338,0.7931328,0.97424304,0.8846449,1.0122116,839.304,799.41394,805.05493,1021.8315,872.3443,-0.2470703125,0.1768798828125,0.94744873046875,1.854248046875,-4.11224365234375,-0.07476806640625,1.0,1.0,1.0,1.0,1.0,90.0,event
14:18:21.723,0.6524784,0.8850631,1.0520592,1.2662181,0.17670836,0.74362826,0.64176035,0.676933,0.42380366,0.7611074,0.67287695,1.1087545,1.0124707,0.8884897,1.0074314,1.2840338,0.7931328,0.97424304,0.6469123,1.0122116,842.1245,815.12823,826.0073,971.4652,734.94507,-0.2470703125,0.1768798828125,0.94744873046875,1.854248046875,-4.11224365234375,-0.07476806640625,1.0,1.0,1.0,1.0,1.0,90.0,event
14:18:21.726,0.6524784,0.8850631,0.7163761,1.2662181,0.17670836,0.74362826,0.7585134,0.676933,0.42380366,0.7611074,0.9390202,1.1087545,1.0124707,0.8884897,0.9626136,1.2840338,0.7931328,0.97424304,0.8846449,1.0122116,772.01465,778.86444,807.8755,730.9158,911.02563,-0.2470703125,0.1768798828125,0.94744873046875,1.854248046875,-4.11224365234375,-0.07476806640625,1.0,1.0,1.0,1.0,1.0,90.0,event
14:18:21.727,0.6524784,0.8850631,0.7163761,1.2662181,0.17670836,0.74362826,0.7585134,0.676933,0.42380366,0.7611074,0.9390202,1.1087545,1.0124707,0.8884897,0.9626136,1.2840338,0.7931328,0.97424304,0.8846449,1.0122116,743.4066,800.6227,828.022,516.55676,677.326,-0.2470703125,0.1768798828125,0.94744873046875,1.854248046875,-4.11224365234375,-0.07476806640625,1.0,1.0,1.0,1.0,1.0,90.0,event
14:18:21.728,0.6524784,0.8850631,0.7163761,1.2662181,0.17670836,0.74362826,0.7585134,0.676933,0.42380366,0.7611074,0.9390202,1.1087545,1.0124707,0.8884897,0.9626136,1.2840338,0.7931328,0.97424304,0.8846449,1.0122116,791.75824,815.12823,824.3956,627.76556,682.1612,-0.2470703125,0.1768798828125,0.94744873046875,1.854248046875,-4.11224365234375,-0.07476806640625,1.0,1.0,1.0,1.0,1.0,90.0,event
14:18:21.728,0.6524784,0.8850631,0.7163761,1.2662181,0.17670836,0.74362826,0.7585134,0.676933,0.42380366,0.7611074,0.9390202,1.1087545,1.0124707,0.8884897,0.9626136,1.2840338,0.7931328,0.97424304,0.8846449,1.0122116,834.87177,801.4286,789.7436,911.02563,1033.5165,-0.2470703125,0.1768798828125,0.94744873046875,1.854248046875,-4.11224365234375,-0.07476806640625,1.0,1.0,1.0,1.0,1.0,90.0,event
14:18:21.728,0.6524784,0.8850631,0.7163761,1.2662181,0.17670836,0.74362826,0.7585134,0.676933,0.42380366,0.7611074,0.9390202,1.1087545,1.0124707,0.8884897,0.9626136,1.2840338,0.7931328,0.97424304,0.8846449,1.0122116,823.5897,808.68134,784.90845,1020.6227,1090.7325,-0.2470703125,0.1768798828125,0.94744873046875,1.854248046875,-4.11224365234375,-0.07476806640625,1.0,1.0,1.0,1.0,1.0,90.0,event
14:18:21.729,0.6524784,0.8850631,0.7163761,1.2662181,0.17670836,0.74362826,0.7585134,0.676933,0.42380366,0.7611074,0.9390202,1.1087545,1.0124707,0.8884897,0.9626136,1.2840338,0.7931328,0.97424304,0.8846449,1.0122116,765.16486,812.3077,790.54944,759.12085,797.3993,-0.2470703125,0.1768798828125,0.94744873046875,1.854248046875,-4.11224365234375,-0.07476806640625,1.0,1.0,1.0,1.0,1.0,90.0,event
14:18:21.787,0.6524784,0.8850631,0.7163761,1.2662181,0.17670836,0.74362826,0.7585134,0.676933,0.42380366,0.7611074,0.9390202,1.1087545,1.0124707,0.8884897,0.9626136,1.2840338,0.7931328,0.97424304,0.8846449,1.0122116,753.8828,831.6484,807.47253,541.13556,759.12085,-0.2364501953125,0.18060302734375,0.947265625,1.936492919921875,-3.955230712890625,0.082244873046875,1.0,1.0,1.0,1.0,1.0,90.0,event
14:18:21.788,0.6524784,0.8850631,0.7163761,1.2662181,0.17670836,0.74362826,0.7585134,0.676933,0.42380366,0.7611074,0.9390202,1.1087545,1.0124707,0.8884897,0.9626136,1.2840338,0.7931328,0.97424304,0.8846449,1.0122116,790.54944,846.55676,816.7399,634.21246,879.59705,-0.2364501953125,0.18060302734375,0.947265625,1.936492919921875,-3.955230712890625,0.082244873046875,1.0,1.0,1.0,1.0,1.0,90.0,event
14:18:21.789,0.6524784,0.8850631,0.7163761,1.2662181,0.17670836,0.74362826,0.7585134,0.676933,0.42380366,0.7611074,0.9390202,1.1087545,1.0124707,0.8884897,0.9626136,1.2840338,0.7931328,0.97424304,0.8846449,1.0122116,827.2161,797.8022,766.3736,886.8498,765.56775,-0.2364501953125,0.18060302734375,0.947265625,1.936492919921875,-3.955230712890625,0.082244873046875,1.0,1.0,1.0,1.0,1.0,90.0,event
14:18:21.790,0.6524784,0.8850631,0.7163761,1.2662181,0.17670836,0.74362826,0.7585134,0.676933,0.42380366,0.7611074,0.9390202,1.1087545,1.0124707,0.8884897,0.9626136,1.2840338,0.7931328,0.97424304,0.8846449,1.0122116,857.4359,779.2674,762.3443,1042.7839,765.16486,-0.2364501953125,0.18060302734375,0.947265625,1.936492919921875,-3.955230712890625,0.082244873046875,1.0,1.0,1.0,1.0,1.0,90.0,event
14:18:21.791,0.6524784,0.8850631,0.7163761,1.2662181,0.17670836,0.74362826,0.7585134,0.676933,0.42380366,0.7611074,0.9390202,1.1087545,1.0124707,0.8884897,0.9626136,1.2840338,0.7931328,0.97424304,0.8846449,1.0122116,798.60803,801.8315,797.3993,824.7985,774.0293,-0.2364501953125,0.18060302734375,0.947265625,1.936492919921875,-3.955230712890625,0.082244873046875,1.0,1.0,1.0,1.0,1.0,90.0,event
14:18:21.792,0.6524784,0.8850631,0.7163761,1.2662181,0.17670836,0.74362826,0.7585134,0.676933,0.42380366,0.7611074,0.9390202,1.1087545,1.0124707,0.8884897,0.9626136,1.2840338,0.7931328,0.97424304,0.8846449,1.0122116,735.7509,801.4286,790.14655,550.0,803.44324,-0.2364501953125,0.18060302734375,0.947265625,1.936492919921875,-3.955230712890625,0.082244873046875,1.0,1.0,1.0,1.0,1.0,90.0,event
14:18:21.793,0.6524784,0.8850631,0.7163761,1.2662181,0.17670836,0.74362826,0.7585134,0.676933,0.42380366,0.7611074,0.9390202,1.1087545,1.0124707,0.8884897,0.9626136,1.2840338,0.7931328,0.97424304,0.8846449,1.0122116,767.98535,807.8755,789.7436,595.9341,817.5458,-0.2364501953125,0.18060302734375,0.947265625,1.936492919921875,-3.955230712890625,0.082244873046875,1.0,1.0,1.0,1.0,1.0,90.0,event
14:18:21.794,0.6524784,0.8850631,0.7163761,1.2662181,0.17670836,0.74362826,0.7585134,0.676933,0.42380366,0.7611074,0.9390202,1.1087545,1.0124707,0.8884897,0.9626136,1.2840338,0.7931328,0.97424304,0.8846449,1.0122116,820.3663,796.5934,798.60803,848.1685,707.9487,-0.2364501953125,0.18060302734375,0.947265625,1.936492919921875,-3.955230712890625,0.082244873046875,1.0,1.0,1.0,1.0,1.0,90.0,event
14:18:21.795,0.6524784,0.8850631,0.7163761,1.2662181,0.17670836,0.74362826,0.7585134,0.676933,0.42380366,0.7611074,0.9390202,1.1087545,1.0124707,0.8884897,0.9626136,1.2840338,0.7931328,0.97424304,0.8846449,1.0122116,816.337,785.7143,795.38464,1048.8279,840.5128,-0.2364501953125,0.18060302734375,0.947265625,1.936492919921875,-3.955230712890625,0.082244873046875,1.0,1.0,1.0,1.0,1.0,90.0,event
14:18:21.796,0.6524784,0.8850631,0.7163761,1.2662181,0.17670836,0.74362826,0.7585134,0.676933,0.42380366,0.7611074,0.9390202,1.1087545,1.0124707,0.8884897,0.9626136,1.2840338,0.7931328,0.97424304,0.8846449,1.0122116,770.80585,821.5751,798.20514,881.2088,1058.4982,-0.2364501953125,0.18060302734375,0.947265625,1.936492919921875,-3.955230712890625,0.082244873046875,1.0,1.0,1.0,1.0,1.0,90.0,event
14:18:21.796,0.6524784,0.8850631,0.7163761,1.2662181,0.17670836,0.74362826,0.7585134,0.676933,0.42380366,0.7611074,0.9390202,1.1087545,1.0124707,0.8884897,0.9626136,1.2840338,0.7931328,0.97424304,0.8846449,1.0122116,742.1978,805.8608,791.75824,572.1612,820.3663,-0.2364501953125,0.18060302734375,0.947265625,1.936492919921875,-3.955230712890625,0.082244873046875,1.0,1.0,1.0,1.0,1.0,90.0,event
14:18:21.797,0.6524784,0.8850631,0.7163761,1.2662181,0.17670836,0.74362826,0.7585134,0.676933,0.42380366,0.7611074,0.9390202,1.1087545,1.0124707,0.8884897,0.9626136,1.2840338,0.7931328,0.97424304,0.8846449,1.0122116,780.4762,772.8205,768.3883,566.1172,663.6264,-0.2364501953125,0.18060302734375,0.947265625,1.936492919921875,-3.955230712890625,0.082244873046875,1.0,1.0,1.0,1.0,1.0,90.0,event
14:18:21.821,0.6524784,0.8850631,0.7163761,1.2662181,0.17670836,0.74362826,0.7585134,0.676933,0.42380366,0.7611074,0.9390202,1.1087545,1.0124707,0.8884897,0.9626136,1.2840338,0.7931328,0.97424304,0.8846449,1.0122116,834.4689,799.81683,783.69965,844.5421,805.05493,-0.23846435546875,0.17919921875,0.94427490234375,2.27294921875,-2.76641845703125,0.605621337890625,1.0,1.0,1.0,1.0,1.0,90.0,event
14:18:21.822,0.6524784,0.8850631,0.7163761,1.2662181,0.17670836,0.74362826,0.7585134,0.676933,0.42380366,0.7611074,0.9390202,1.1087545,1.0124707,0.8884897,0.9626136,1.2840338,0.7931328,0.97424304,0.8846449,1.0122116,853.4066,819.9634,788.93774,1092.3444,942.0513,-0.23846435546875,0.17919921875,0.94427490234375,2.27294921875,-2.76641845703125,0.605621337890625,1.0,1.0,1.0,1.0,1.0,90.0,event
14:18:21.823,0.6524784,0.8850631,0.7163761,1.2662181,0.17670836,0.74362826,0.7585134,0.676933,0.42380366,0.7611074,0.9390202,1.1087545,1.0124707,0.8884897,0.9626136,1.2840338,0.7931328,0.97424304,0.8846449,1.0122116,823.5897,798.60803,781.28204,944.4689,871.53845,-0.23846435546875,0.17919921875,0.94427490234375,2.27294921875,-2.76641845703125,0.605621337890625,1.0,1.0,1.0,1.0,1.0,90.0,event
14:18:21.824,0.6524784,0.8850631,0.7163761,1.2662181,0.17670836,0.74362826,0.7585134,0.676933,0.42380366,0.7611074,0.9390202,1.1087545,1.0124707,0.8884897,0.9626136,1.2840338,0.7931328,0.97424304,0.8846449,1.0122116,783.69965,803.0403,788.5348,640.65936,667.25275,-0.23846435546875,0.17919921875,0.94427490234375,2.27294921875,-2.76641845703125,0.605621337890625,1.0,1.0,1.0,1.0,1.0,90.0,event
14:18:21.825,0.6524784,0.8850631,0.7163761,1.2662181,0.17670836,0.74362826,0.7585134,0.676933,0.42380366,0.7611074,0.9390202,1.1087545,1.0124707,0.8884897,0.9626136,1.2840338,0.7931328,0.97424304,0.8846449,1.0122116,772.4176,801.4286,778.86444,559.2674,812.71063,-0.23846435546875,0.17919921875,0.94427490234375,2.27294921875,-2.76641845703125,0.605621337890625,1.0,1.0,1.0,1.0,1.0,90.0,event
14:18:21.826,0.6524784,0.8850631,0.7163761,1.2662181,0.17670836,0.74362826,0.7585134,0.676933,0.42380366,0.7611074,0.9390202,1.1087545,1.0124707,0.8884897,0.9626136,1.2840338,0.7931328,0.97424304,0.8846449,1.0122116,798.60803,797.8022,777.6557,748.24176,1015.38464,-0.23846435546875,0.17919921875,0.94427490234375,2.27294921875,-2.76641845703125,0.605621337890625,1.0,1.0,1.0,1.0,1.0,90.0,event
14:18:21.826,0.6524784,0.8850631,0.7163761,1.2662181,0.17670836,0.74362826,0.7585134,0.676933,0.42380366,0.7611074,0.9390202,1.1087545,1.0124707,0.8884897,0.9626136,1.2840338,0.7931328,0.97424304,0.8846449,1.0122116,818.3516,824.3956,778.86444,1015.38464,898.1319,-0.23846435546875,0.17919921875,0.94427490234375,2.27294921875,-2.76641845703125,0.605621337890625,1.0,1.0,1.0,1.0,1.0,90.0,event
14:18:21.827,0.6524784,0.8850631,0.8164867,1.2662181,0.17670836,0.74362826,0.7258189,0.676933,0.42380366,0.7611074,0.9676167,1.1087545,1.0124707,0.8884897,1.0131309,1.2840338,0.7931328,0.97424304,0.8718696,1.0122116,787.72894,823.5897,773.6264,924.3223,833.2601,-0.23846435546875,0.17919921875,0.94427490234375,2.27294921875,-2.76641845703125,0.605621337890625,1.0,1.0,1.0,1.0,1.0,90.0,event
14:18:21.833,0.6524784,0.8850631,0.8164867,1.2662181,0.17670836,0.74362826,0.7258189,0.676933,0.42380366,0.7611074,0.9676167,1.1087545,1.0124707,0.8884897,1.0131309,1.2840338,0.7931328,0.97424304,0.8718696,1.0122116,710.3663,788.5348,770.40295,596.337,877.98535,-0.23846435546875,0.17919921875,0.94427490234375,2.27294921875,-2.76641845703125,0.605621337890625,1.0,1.0,1.0,1.0,1.0,90.0,event
14:18:21.834,0.6524784,0.8850631,0.8164867,1.2662181,0.17670836,0.74362826,0.7258189,0.676933,0.42380366,0.7611074,0.9676167,1.1087545,1.0124707,0.8884897,1.0131309,1.2840338,0.7931328,0.97424304,0.8718696,1.0122116,716.8132,799.81683,789.7436,493.1868,716.4103,-0.23846435546875,0.17919921875,0.94427490234375,2.27294921875,-2.76641845703125,0.605621337890625,1.0,1.0,1.0,1.0,1.0,90.0,event
14:18:21.835,0.6524784,0.8850631,0.8164867,1.2662181,0.17670836,0.74362826,0.7258189,0.676933,0.42380366,0.7611074,0.9676167,1.1087545,1.0124707,0.8884897,1.0131309,1.2840338,0.7931328,0.97424304,0.8718696,1.0122116,799.81683,848.97437,794.9817,703.5165,641.06226,-0.23846435546875,0.17919921875,0.94427490234375,2.27294921875,-2.76641845703125,0.605621337890625,1.0,1.0,1.0,1.0,1.0,90.0,event
14:18:21.836,0.6524784,0.8850631,0.8164867,1.2662181,0.17670836,0.74362826,0.7258189,0.676933,0.42380366,0.7611074,0.9676167,1.1087545,1.0124707,0.8884897,1.0131309,1.2840338,0.7931328,0.97424304,0.8718696,1.0122116,834.0659,844.1392,776.04395,977.9121,807.47253,-0.23846435546875,0.17919921875,0.94427490234375,2.27294921875,-2.76641845703125,0.605621337890625,1.0,1.0,1.0,1.0,1.0,90.0,event
14:18:21.861,0.6524784,0.8850631,0.8164867,1.2662181,0.17670836,0.74362826,0.7258189,0.676933,0.42380366,0.7611074,0.9676167,1.1087545,1.0124707,0.8884897,1.0131309,1.2840338,0.7931328,0.97424304,0.8718696,1.0122116,807.0696,782.49084,774.83514,950.10986,1053.663,-0.23846435546875,0.17919921875,0.94427490234375,2.27294921875,-2.76641845703125,0.605621337890625,1.0,1.0,1.0,1.0,1.0,90.0,event
14:18:21.862,0.6524784,0.8850631,0.8164867,1.2662181,0.17670836,0.74362826,0.7258189,0.676933,0.42380366,0.7611074,0.9676167,1.1087545,1.0124707,0.8884897,1.0131309,1.2840338,0.7931328,0.97424304,0.8718696,1.0122116,709.5604,778.0586,786.1172,622.52747,933.1868,-0.23846435546875,0.17919921875,0.94427490234375,2.27294921875,-2.76641845703125,0.605621337890625,1.0,1.0,1.0,1.0,1.0,90.0,event
14:18:21.863,0.6524784,0.8850631,0.8164867,1.2662181,0.17670836,0.74362826,0.7258189,0.676933,0.42380366,0.7611074,0.9676167,1.1087545,1.0124707,0.8884897,1.0131309,1.2840338,0.7931328,0.97424304,0.8718696,1.0122116,768.3883,798.20514,793.7729,670.07324,666.04395,-0.23846435546875,0.17919921875,0.94427490234375,2.27294921875,-2.76641845703125,0.605621337890625,1.0,1.0,1.0,1.0,1.0,90.0,event
14:18:21.863,0.6524784,0.8850631,0.8164867,1.2662181,0.17670836,0.74362826,0.7258189,0.676933,0.42380366,0.7611074,0.9676167,1.1087545,1.0124707,0.8884897,1.0131309,1.2840338,0.7931328,0.97424304,0.8718696,1.0122116,688.20514,816.7399,794.17584,475.05493,643.47986,-0.23846435546875,0.17919921875,0.94427490234375,2.27294921875,-2.76641845703125,0.605621337890625,1.0,1.0,1.0,1.0,1.0,90.0,event
14:18:21.864,0.6524784,0.8850631,0.8164867,1.2662181,0.17670836,0.74362826,0.7258189,0.676933,0.42380366,0.7611074,0.9676167,1.1087545,1.0124707,0.8884897,1.0131309,1.2840338,0.7931328,0.97424304,0.8718696,1.0122116,807.8755,800.2198,781.28204,956.9597,844.5421,-0.23846435546875,0.17919921875,0.94427490234375,2.27294921875,-2.76641845703125,0.605621337890625,1.0,1.0,1.0,1.0,1.0,90.0,event
14:18:21.864,0.6524784,0.8850631,0.8164867,1.2662181,0.17670836,0.74362826,0.7258189,0.676933,0.42380366,0.7611074,0.9676167,1.1087545,1.0124707,0.8884897,1.0131309,1.2840338,0.7931328,0.97424304,0.8718696,1.0122116,774.43225,813.91943,759.92676,971.8681,929.15753,-0.23846435546875,0.17919921875,0.94427490234375,2.27294921875,-2.76641845703125,0.605621337890625,1.0,1.0,1.0,1.0,1.0,90.0,event
14:18:21.865,0.6524784,0.8850631,0.8164867,1.2662181,0.17670836,0.74362826,0.7258189,0.676933,0.42380366,0.7611074,0.9676167,1.1087545,1.0124707,0.8884897,1.0131309,1.2840338,0.7931328,0.97424304,0.8718696,1.0122116,720.4396,784.10254,761.9414,655.9707,804.2491,-0.23846435546875,0.17919921875,0.94427490234375,2.27294921875,-2.76641845703125,0.605621337890625,1.0,1.0,1.0,1.0,1.0,90.0,event
14:18:21.865,0.6524784,0.8850631,0.8164867,1.2662181,0.17670836,0.74362826,0.7258189,0.676933,0.42380366,0.7611074,0.9676167,1.1087545,1.0124707,0.8884897,1.0131309,1.2840338,0.7931328,0.97424304,0.8718696,1.0122116,738.97437,789.34064,799.41394,489.1575,746.2271,-0.23846435546875,0.17919921875,0.94427490234375,2.27294921875,-2.76641845703125,0.605621337890625,1.0,1.0,1.0,1.0,1.0,90.0,event
14:18:21.866,0.6524784,0.8850631,0.8164867,1.2662181,0.17670836,0.74362826,0.7258189,0.676933,0.42380366,0.7611074,0.9676167,1.1087545,1.0124707,0.8884897,1.0131309,1.2840338,0.7931328,0.97424304,0.8718696,1.0122116,830.4396,844.5421,801.8315,705.12823,1009.7436,-0.23846435546875,0.17919921875,0.94427490234375,2.27294921875,-2.76641845703125,0.605621337890625,1.0,1.0,1.0,1.0,1.0,90.0,event
14:18:21.867,0.6524784,0.8850631,0.8164867,1.2662181,0.17670836,0.74362826,0.7258189,0.676933,0.42380366,0.7611074,0.9676167,1.1087545,1.0124707,0.8884897,1.0131309,1.2840338,0.7931328,0.97424304,0.8718696,1.0122116,881.2088,835.6777,787.72894,999.2674,963.4066,-0.23846435546875,0.17919921875,0.94427490234375,2.27294921875,-2.76641845703125,0.605621337890625,1.0,1.0,1.0,1.0,1.0,90.0,event
14:18:21.867,0.6524784,0.8850631,0.8164867,1.2662181,0.17670836,0.74362826,0.7258189,0.676933,0.42380366,0.7611074,0.9676167,1.1087545,1.0124707,0.8884897,1.0131309,1.2840338,0.7931328,0.97424304,0.8718696,1.0122116,811.9048,794.9817,784.10254,990.40295,746.2271,-0.23846435546875,0.17919921875,0.94427490234375,2.27294921875,-2.76641845703125,0.605621337890625,1.0,1.0,1.0,1.0,1.0,90.0,event
14:18:21.868,0.6524784,0.8850631,0.8164867,1.2662181,0.17670836,0.74362826,0.7258189,0.676933,0.42380366,0.7611074,0.9676167,1.1087545,1.0124707,0.8884897,1.0131309,1.2840338,0.7931328,0.97424304,0.8718696,1.0122116,730.10986,814.3223,782.49084,697.8755,771.6117,-0.23846435546875,0.17919921875,0.94427490234375,2.27294921875,-2.76641845703125,0.605621337890625,1.0,1.0,1.0,1.0,1.0,90.0,event
14:18:21.891,0.6524784,0.8850631,0.8164867,1.2662181,0.17670836,0.74362826,0.7258189,0.676933,0.42380366,0.7611074,0.9676167,1.1087545,1.0124707,0.8884897,1.0131309,1.2840338,0.7931328,0.97424304,0.8718696,1.0122116,736.55676,821.1722,785.31134,508.49817,716.0073,-0.24176025390625,0.1820068359375,0.9434814453125,2.310333251953125,-2.923431396484375,-0.157012939453125,1.0,1.0,1.0,1.0,1.0,90.0,event
14:18:21.892,0.6524784,0.8850631,0.8164867,1.2662181,0.17670836,0.74362826,0.7258189,0.676933,0.42380366,0.7611074,0.9676167,1.1087545,1.0124707,0.8884897,1.0131309,1.2840338,0.7931328,0.97424304,0.8718696,1.0122116,778.0586,793.7729,777.6557,623.73627,627.76556,-0.24176025390625,0.1820068359375,0.9434814453125,2.310333251953125,-2.923431396484375,-0.157012939453125,1.0,1.0,1.0,1.0,1.0,90.0,event
14:18:21.893,0.6524784,0.8850631,0.8164867,1.2662181,0.17670836,0.74362826,0.7258189,0.676933,0.42380366,0.7611074,0.9676167,1.1087545,1.0124707,0.8884897,1.0131309,1.2840338,0.7931328,0.97424304,0.8718696,1.0122116,818.7546,813.1135,782.49084,1042.7839,867.50916,-0.24176025390625,0.1820068359375,0.9434814453125,2.310333251953125,-2.923431396484375,-0.157012939453125,1.0,1.0,1.0,1.0,1.0,90.0,event
14:18:21.893,0.6524784,0.8850631,0.8164867,1.2662181,0.17670836,0.74362826,0.7258189,0.676933,0.42380366,0.7611074,0.9676167,1.1087545,1.0124707,0.8884897,1.0131309,1.2840338,0.7931328,0.97424304,0.8718696,1.0122116,827.619,800.6227,777.25275,923.91943,722.0513,-0.24176025390625,0.1820068359375,0.9434814453125,2.310333251953125,-2.923431396484375,-0.157012939453125,1.0,1.0,1.0,1.0,1.0,90.0,event
14:18:21.894,0.6524784,0.8850631,0.8164867,1.2662181,0.17670836,0.74362826,0.7258189,0.676933,0.42380366,0.7611074,0.9676167,1.1087545,1.0124707,0.8884897,1.0131309,1.2840338,0.7931328,0.97424304,0.8718696,1.0122116,770.0,808.2784,777.25275,797.3993,793.7729,-0.24176025390625,0.1820068359375,0.9434814453125,2.310333251953125,-2.923431396484375,-0.157012939453125,1.0,1.0,1.0,1.0,1.0,90.0,event
14:18:21.894,0.6524784,0.8850631,0.8164867,1.2662181,0.17670836,0.74362826,0.7258189,0.676933,0.42380366,0.7611074,0.9676167,1.1087545,1.0124707,0.8884897,1.0131309,1.2840338,0.7931328,0.97424304,0.8718696,1.0122116,752.27106,797.8022,773.6264,561.28204,694.65204,-0.24176025390625,0.1820068359375,0.9434814453125,2.310333251953125,-2.923431396484375,-0.157012939453125,1.0,1.0,1.0,1.0,1.0,90.0,event
14:18:21.895,0.6524784,0.8850631,0.8164867,1.2662181,0.17670836,0.74362826,0.7258189,0.676933,0.42380366,0.7611074,0.9676167,1.1087545,1.0124707,0.8884897,1.0131309,1.2840338,0.7931328,0.97424304,0.8718696,1.0122116,786.9231,794.57874,777.6557,628.1685,816.7399,-0.24176025390625,0.1820068359375,0.9434814453125,2.310333251953125,-2.923431396484375,-0.157012939453125,1.0,1.0,1.0,1.0,1.0,90.0,event
14:18:21.896,0.6524784,0.8850631,0.8164867,1.2662181,0.17670836,0.74362826,0.7258189,0.676933,0.42380366,0.7611074,0.9676167,1.1087545,1.0124707,0.8884897,1.0131309,1.2840338,0.7931328,0.97424304,0.8718696,1.0122116,852.1978,807.47253,775.64105,937.2161,1095.1648,-0.24176025390625,0.1820068359375,0.9434814453125,2.310333251953125,-2.923431396484375,-0.157012939453125,1.0,1.0,1.0,1.0,1.0,90.0,event
14:18:21.896,0.6524784,0.8850631,0.8164867,1.2662181,0.17670836,0.74362826,0.7258189,0.676933,0.42380366,0.7611074,0.9676167,1.1087545,1.0124707,0.8884897,1.0131309,1.2840338,0.7931328,0.97424304,0.8718696,1.0122116,857.03296,802.6374,784.90845,1079.8535,1004.90845,-0.24176025390625,0.1820068359375,0.9434814453125,2.310333251953125,-2.923431396484375,-0.157012939453125,1.0,1.0,1.0,1.0,1.0,90.0,event
14:18:21.897,0.6524784,0.8229985,0.93052894,1.2662181,0.17670836,0.70378983,0.7151415,0.676933,0.42380366,0.8463195,0.9710487,1.1087545,1.0124707,0.91864604,1.0501864,1.2840338,0.7931328,0.9835306,0.8587309,1.0122116,797.8022,825.6044,798.60803,829.2308,706.337,-0.24176025390625,0.1820068359375,0.9434814453125,2.310333251953125,-2.923431396484375,-0.157012939453125,1.0,2.0,1.0,1.0,2.0,90.0,event
14:18:21.901,0.6524784,0.8229985,0.93052894,1.2662181,0.17670836,0.70378983,0.7151415,0.676933,0.42380366,0.8463195,0.9710487,1.1087545,1.0124707,0.91864604,1.0501864,1.2840338,0.7931328,0.9835306,0.8587309,1.0122116,774.43225,843.3333,792.5641,598.7546,682.5641,-0.24176025390625,0.1820068359375,0.9434814453125,2.310333251953125,-2.923431396484375,-0.157012939453125,1.0,2.0,1.0,1.0,2.0,90.0,event
14:18:21.901,0.6524784,0.8229985,0.93052894,1.2662181,0.17670836,0.70378983,0.7151415,0.676933,0.42380366,0.8463195,0.9710487,1.1087545,1.0124707,0.91864604,1.0501864,1.2840338,0.7931328,0.9835306,0.8587309,1.0122116,801.02563,825.2015,791.3553,628.1685,909.41394,-0.24176025390625,0.1820068359375,0.9434814453125,2.310333251953125,-2.923431396484375,-0.157012939453125,1.0,2.0,1.0,1.0,2.0,90.0,event
14:18:21.989,0.6524784,0.8229985,0.93052894,1.2662181,0.17670836,0.70378983,0.7151415,0.676933,0.42380366,0.8463195,0.9710487,1.1087545,1.0124707,0.91864604,1.0501864,1.2840338,0.7931328,0.9835306,0.8587309,1.0122116,848.5714,809.89014,814.3223,879.59705,958.1685,-0.2392578125,0.1837158203125,0.94073486328125,2.25799560546875,-2.91595458984375,0.3887939453125,1.0,2.0,1.0,1.0,2.0,90.0,event
14:18:21.990,0.6524784,0.8229985,0.93052894,1.2662181,0.17670836,0.70378983,0.7151415,0.676933,0.42380366,0.8463195,0.9710487,1.1087545,1.0124707,0.91864604,1.0501864,1.2840338,0.7931328,0.9835306,0.8587309,1.0122116,871.53845,809.4872,819.9634,1102.8206,818.3516,-0.2392578125,0.1837158203125,0.94073486328125,2.25799560546875,-2.91595458984375,0.3887939453125,1.0,2.0,1.0,1.0,2.0,90.0,event
14:18:21.991,0.6524784,0.8229985,0.93052894,1.2662181,0.17670836,0.70378983,0.7151415,0.676933,0.42380366,0.8463195,0.9710487,1.1087545,1.0124707,0.91864604,1.0501864,1.2840338,0.7931328,0.9835306,0.8587309,1.0122116,794.17584,795.38464,786.1172,880.40295,802.23444,-0.2392578125,0.1837158203125,0.94073486328125,2.25799560546875,-2.91595458984375,0.3887939453125,1.0,2.0,1.0,1.0,2.0,90.0,event
14:18:21.992,0.6524784,0.8229985,0.93052894,1.2662181,0.17670836,0.70378983,0.7151415,0.676933,0.42380366,0.8463195,0.9710487,1.1087545,1.0124707,0.91864604,1.0501864,1.2840338,0.7931328,0.9835306,0.8587309,1.0122116,743.00366,805.05493,777.6557,567.326,747.8388,-0.2392578125,0.1837158203125,0.94073486328125,2.25799560546875,-2.91595458984375,0.3887939453125,1.0,2.0,1.0,1.0,2.0,90.0,event
14:18:21.992,0.6524784,0.8229985,0.93052894,1.2662181,0.17670836,0.70378983,0.7151415,0.676933,0.42380366,0.8463195,0.9710487,1.1087545,1.0124707,0.91864604,1.0501864,1.2840338,0.7931328,0.9835306,0.8587309,1.0122116,757.50916,808.2784,764.35895,586.6667,714.3956,-0.2392578125,0.1837158203125,0.94073486328125,2.25799560546875,-2.91595458984375,0.3887939453125,1.0,2.0,1.0,1.0,2.0,90.0,event
14:18:21.993,0.6524784,0.8229985,0.93052894,1.2662181,0.17670836,0.70378983,0.7151415,0.676933,0.42380366,0.8463195,0.9710487,1.1087545,1.0124707,0.91864604,1.0501864,1.2840338,0.7931328,0.9835306,0.8587309,1.0122116,806.6667,793.36993,770.0,848.1685,753.8828,-0.2392578125,0.1837158203125,0.94073486328125,2.25799560546875,-2.91595458984375,0.3887939453125,1.0,2.0,1.0,1.0,2.0,90.0,event
14:18:21.994,0.6524784,0.8229985,0.93052894,1.2662181,0.17670836,0.70378983,0.7151415,0.676933,0.42380366,0.8463195,0.9710487,1.1087545,1.0124707,0.91864604,1.0501864,1.2840338,0.7931328,0.9835306,0.8587309,1.0122116,833.663,806.26373,780.07324,1081.0623,868.315,-0.2392578125,0.1837158203125,0.94073486328125,2.25799560546875,-2.91595458984375,0.3887939453125,1.0,2.0,1.0,1.0,2.0,90.0,event
14:18:21.994,0.6524784,0.8229985,0.93052894,1.2662181,0.17670836,0.70378983,0.7151415,0.676933,0.42380366,0.8463195,0.9710487,1.1087545,1.0124707,0.91864604,1.0501864,1.2840338,0.7931328,0.9835306,0.8587309,1.0122116,799.41394,814.3223,776.8498,916.6667,1042.7839,-0.2392578125,0.1837158203125,0.94073486328125,2.25799560546875,-2.91595458984375,0.3887939453125,1.0,2.0,1.0,1.0,2.0,90.0,event
14:18:21.995,0.6524784,0.8229985,0.93052894,1.2662181,0.17670836,0.70378983,0.7151415,0.676933,0.42380366,0.8463195,0.9710487,1.1087545,1.0124707,0.91864604,1.0501864,1.2840338,0.7931328,0.9835306,0.8587309,1.0122116,776.8498,805.4579,797.3993,606.0073,836.4835,-0.2392578125,0.1837158203125,0.94073486328125,2.25799560546875,-2.91595458984375,0.3887939453125,1.0,2.0,1.0,1.0,2.0,90.0,event
14:18:21.996,0.6524784,0.8229985,0.93052894,1.2662181,0.17670836,0.70378983,0.7151415,0.676933,0.42380366,0.8463195,0.9710487,1.1087545,1.0124707,0.91864604,1.0501864,1.2840338,0.7931328,0.9835306,0.8587309,1.0122116,779.2674,812.71063,790.54944,565.7143,668.46155,-0.2392578125,0.1837158203125,0.94073486328125,2.25799560546875,-2.91595458984375,0.3887939453125,1.0,2.0,1.0,1.0,2.0,90.0,event
14:18:21.997,0.6524784,0.8229985,0.93052894,1.2662181,0.17670836,0.70378983,0.7151415,0.676933,0.42380366,0.8463195,0.9710487,1.1087545,1.0124707,0.91864604,1.0501864,1.2840338,0.7931328,0.9835306,0.8587309,1.0122116,814.3223,816.7399,775.2381,788.93774,786.52014,-0.2392578125,0.1837158203125,0.94073486328125,2.25799560546875,-2.91595458984375,0.3887939453125,1.0,2.0,1.0,1.0,2.0,90.0,event
14:18:21.997,0.6524784,0.8229985,0.93052894,1.2662181,0.17670836,0.70378983,0.7151415,0.676933,0.42380366,0.8463195,0.9710487,1.1087545,1.0124707,0.91864604,1.0501864,1.2840338,0.7931328,0.9835306,0.8587309,1.0122116,865.4945,804.65204,780.87915,1071.7949,922.71063,-0.2392578125,0.1837158203125,0.94073486328125,2.25799560546875,-2.91595458984375,0.3887939453125,1.0,2.0,1.0,1.0,2.0,90.0,event
14:18:22.022,0.6524784,0.8229985,0.93052894,1.2662181,0.17670836,0.70378983,0.7151415,0.676933,0.42380366,0.8463195,0.9710487,1.1087545,1.0124707,0.91864604,1.0501864,1.2840338,0.7931328,0.9835306,0.8587309,1.0122116,822.381,816.337,773.22345,962.6007,860.2564,-0.24432373046875,0.18212890625,0.9404296875,1.86920166015625,-3.357086181640625,0.9869384765625,1.0,2.0,1.0,1.0,2.0,90.0,event
14:18:22.023,0.6524784,0.8229985,0.93052894,1.2662181,0.17670836,0.70378983,0.7151415,0.676933,0.42380366,0.8463195,0.9710487,1.1087545,1.0124707,0.91864604,1.0501864,1.2840338,0.7931328,0.9835306,0.8587309,1.0122116,730.5128,838.0952,788.93774,612.4542,685.78754,-0.24432373046875,0.18212890625,0.9404296875,1.86920166015625,-3.357086181640625,0.9869384765625,1.0,2.0,1.0,1.0,2.0,90.0,event
14:18:22.024,0.6524784,0.8229985,0.93052894,1.2662181,0.17670836,0.70378983,0.7151415,0.676933,0.42380366,0.8463195,0.9710487,1.1087545,1.0124707,0.91864604,1.0501864,1.2840338,0.7931328,0.9835306,0.8587309,1.0122116,733.3333,826.0073,799.41394,531.8681,722.4542,-0.24432373046875,0.18212890625,0.9404296875,1.86920166015625,-3.357086181640625,0.9869384765625,1.0,2.0,1.0,1.0,2.0,90.0,event
14:18:22.025,0.6524784,0.8229985,0.93052894,1.2662181,0.17670836,0.70378983,0.7151415,0.676933,0.42380366,0.8463195,0.9710487,1.1087545,1.0124707,0.91864604,1.0501864,1.2840338,0.7931328,0.9835306,0.8587309,1.0122116,796.5934,820.3663,779.2674,749.45056,739.7802,-0.24432373046875,0.18212890625,0.9404296875,1.86920166015625,-3.357086181640625,0.9869384765625,1.0,2.0,1.0,1.0,2.0,90.0,event
14:18:22.025,0.6524784,0.8229985,0.93052894,1.2662181,0.17670836,0.70378983,0.7151415,0.676933,0.42380366,0.8463195,0.9710487,1.1087545,1.0124707,0.91864604,1.0501864,1.2840338,0.7931328,0.9835306,0.8587309,1.0122116,844.94507,814.3223,775.64105,1057.6923,706.7399,-0.24432373046875,0.18212890625,0.9404296875,1.86920166015625,-3.357086181640625,0.9869384765625,1.0,2.0,1.0,1.0,2.0,90.0,event
14:18:22.026,0.6524784,0.8229985,0.93052894,1.2662181,0.17670836,0.70378983,0.7151415,0.676933,0.42380366,0.8463195,0.9710487,1.1087545,1.0124707,0.91864604,1.0501864,1.2840338,0.7931328,0.9835306,0.8587309,1.0122116,792.96704,790.14655,774.0293,1000.4762,767.98535,-0.24432373046875,0.18212890625,0.9404296875,1.86920166015625,-3.357086181640625,0.9869384765625,1.0,2.0,1.0,1.0,2.0,90.0,event
14:18:22.027,0.6524784,0.8229985,0.93052894,1.2662181,0.17670836,0.70378983,0.7151415,0.676933,0.42380366,0.8463195,0.9710487,1.1087545,1.0124707,0.91864604,1.0501864,1.2840338,0.7931328,0.9835306,0.8587309,1.0122116,718.022,788.5348,781.28204,659.59705,940.84247,-0.24432373046875,0.18212890625,0.9404296875,1.86920166015625,-3.357086181640625,0.9869384765625,1.0,2.0,1.0,1.0,2.0,90.0,event
14:18:22.028,0.6524784,0.8229985,0.93052894,1.2662181,0.17670836,0.70378983,0.7151415,0.676933,0.42380366,0.8463195,0.9710487,1.1087545,1.0124707,0.91864604,1.0501864,1.2840338,0.7931328,0.9835306,0.8587309,1.0122116,749.45056,809.89014,779.2674,551.2088,994.83514,-0.24432373046875,0.18212890625,0.9404296875,1.86920166015625,-3.357086181640625,0.9869384765625,1.0,2.0,1.0,1.0,2.0,90.0,event
14:18:22.029,0.6524784,0.8229985,0.93052894,1.2662181,0.17670836,0.70378983,0.7151415,0.676933,0.42380366,0.8463195,0.9710487,1.1087545,1.0124707,0.91864604,1.0501864,1.2840338,0.7931328,0.9835306,0.8587309,1.0122116,807.47253,813.1135,781.685,734.1392,703.5165,-0.24432373046875,0.18212890625,0.9404296875,1.86920166015625,-3.357086181640625,0.9869384765625,1.0,2.0,1.0,1.0,2.0,90.0,event
14:18:22.031,0.6524784,0.8229985,0.93052894,1.2662181,0.17670836,0.70378983,0.7151415,0.676933,0.42380366,0.8463195,0.9710487,1.1087545,1.0124707,0.91864604,1.0501864,1.2840338,0.7931328,0.9835306,0.8587309,1.0122116,846.1539,814.3223,787.326,1013.7729,696.26373,-0.24432373046875,0.18212890625,0.9404296875,1.86920166015625,-3.357086181640625,0.9869384765625,1.0,2.0,1.0,1.0,2.0,90.0,event
14:18:22.033,0.6524784,0.8229985,0.93052894,1.2662181,0.17670836,0.70378983,0.7151415,0.676933,0.42380366,0.8463195,0.9710487,1.1087545,1.0124707,0.91864604,1.0501864,1.2840338,0.7931328,0.9835306,0.8587309,1.0122116,819.9634,807.47253,766.77655,1013.7729,890.87915,-0.24432373046875,0.18212890625,0.9404296875,1.86920166015625,-3.357086181640625,0.9869384765625,1.0,2.0,1.0,1.0,2.0,90.0,event
14:18:22.034,0.6524784,0.79068124,0.93052894,1.2662181,0.17670836,0.68643004,0.7151415,0.676933,0.42380366,0.8304509,0.9710487,1.1087545,1.0124707,0.9602903,1.0501864,1.2840338,0.7931328,0.96723,0.8587309,1.0122116,761.53845,778.0586,761.13556,702.71063,756.7033,-0.24432373046875,0.18212890625,0.9404296875,1.86920166015625,-3.357086181640625,0.9869384765625,1.0,2.0,1.0,1.0,2.0,90.0,event
14:18:22.036,,,,,,,,,,,,,,,,,,,,,,,,,,,,,,,,,,,,,,blink
14:18:22.062,0.6524784,0.79068124,0.93052894,1.2662181,0.17670836,0.68643004,0.7151415,0.676933,0.42380366,0.8304509,0.9710487,1.1087545,1.0124707,0.9602903,1.0501864,1.2840338,0.7931328,0.96723,0.8587309,1.0122116,740.989,778.86444,765.9707,523.8095,606.0073,-0.24652099609375,0.1805419921875,0.940185546875,2.459869384765625,-3.850555419921875,0.179443359375,1.0,2.0,1.0,1.0,2.0,90.0,event
14:18:22.063,0.6524784,0.79068124,0.93052894,1.2662181,0.17670836,0.68643004,0.7151415,0.676933,0.42380366,0.8304509,0.9710487,1.1087545,1.0124707,0.9602903,1.0501864,1.2840338,0.7931328,0.96723,0.8587309,1.0122116,807.47253,824.7985,778.46155,702.71063,697.47253,-0.24652099609375,0.1805419921875,0.940185546875,2.459869384765625,-3.850555419921875,0.179443359375,1.0,2.0,1.0,1.0,2.0,90.0,event
14:18:22.064,0.6524784,0.79068124,0.93052894,1.2662181,0.17670836,0.68643004,0.7151415,0.676933,0.42380366,0.8304509,0.9710487,1.1087545,1.0124707,0.9602903,1.0501864,1.2840338,0.7931328,0.96723,0.8587309,1.0122116,874.7619,831.6484,791.3553,1014.57874,842.52747,-0.24652099609375,0.1805419921875,0.940185546875,2.459869384765625,-3.850555419921875,0.179443359375,1.0,2.0,1.0,1.0,2.0,90.0,event
14:18:22.064,0.6524784,0.79068124,0.93052894,1.2662181,0.17670836,0.68643004,0.7151415,0.676933,0.42380366,0.8304509,0.9710487,1.1087545,1.0124707,0.9602903,1.0501864,1.2840338,0.7931328,0.96723,0.8587309,1.0122116,803.8461,807.47253,791.75824,1062.9304,837.28937,-0.24652099609375,0.1805419921875,0.940185546875,2.459869384765625,-3.850555419921875,0.179443359375,1.0,2.0,1.0,1.0,2.0,90.0,event
14:18:22.065,0.6524784,0.79068124,0.93052894,1.2662181,0.17670836,0.68643004,0.7151415,0.676933,0.42380366,0.8304509,0.9710487,1.1087545,1.0124707,0.9602903,1.0501864,1.2840338,0.7931328,0.96723,0.8587309,1.0122116,743.00366,811.9048,786.9231,780.4762,743.4066,-0.24652099609375,0.1805419921875,0.940185546875,2.459869384765625,-3.850555419921875,0.179443359375,1.0,2.0,1.0,1.0,2.0,90.0,event
14:18:22.065,0.6524784,0.79068124,0.93052894,1.2662181,0.17670836,0.68643004,0.7151415,0.676933,0.42380366,0.8304509,0.9710487,1.1087545,1.0124707,0.9602903,1.0501864,1.2840338,0.7931328,0.96723,0.8587309,1.0122116,768.7912,833.663,811.50183,588.2784,805.05493,-0.24652099609375,0.1805419921875,0.940185546875,2.459869384765625,-3.850555419921875,0.179443359375,1.0,2.0,1.0,1.0,2.0,90.0,event
14:18:22.066,0.6524784,0.79068124,0.93052894,1.2662181,0.17670836,0.68643004,0.7151415,0.676933,0.42380366,0.8304509,0.9710487,1.1087545,1.0124707,0.9602903,1.0501864,1.2840338,0.7931328,0.96723,0.8587309,1.0122116,815.5311,835.2747,828.022,719.6337,1101.2087,-0.24652099609375,0.1805419921875,0.940185546875,2.459869384765625,-3.850555419921875,0.179443359375,1.0,2.0,1.0,1.0,2.0,90.0,event
14:18:22.066,0.6524784,0.79068124,0.93052894,1.2662181,0.17670836,0.68643004,0.7151415,0.676933,0.42380366,0.8304509,0.9710487,1.1087545,1.0124707,0.9602903,1.0501864,1.2840338,0.7931328,0.96723,0.8587309,1.0122116,834.0659,809.4872,802.23444,975.09155,921.50183,-0.24652099609375,0.1805419921875,0.940185546875,2.459869384765625,-3.850555419921875,0.179443359375,1.0,2.0,1.0,1.0,2.0,90.0,event
14:18:22.067,0.6524784,0.79068124,0.93052894,1.2662181,0.17670836,0.68643004,0.7151415,0.676933,0.42380366,0.8304509,0.9710487,1.1087545,1.0124707,0.9602903,1.0501864,1.2840338,0.7931328,0.96723,0.8587309,1.0122116,772.01465,771.6117,799.81683,800.2198,811.50183,-0.24652099609375,0.1805419921875,0.940185546875,2.459869384765625,-3.850555419921875,0.179443359375,1.0,2.0,1.0,1.0,2.0,90.0,event
14:18:22.067,0.6524784,0.79068124,0.93052894,1.2662181,0.17670836,0.68643004,0.7151415,0.676933,0.42380366,0.8304509,0.9710487,1.1087545,1.0124707,0.9602903,1.0501864,1.2840338,0.7931328,0.96723,0.8587309,1.0122116,809.4872,788.5348,788.5348,1041.5751,749.45056,-0.24652099609375,0.1805419921875,0.940185546875,2.459869384765625,-3.850555419921875,0.179443359375,1.0,2.0,1.0,1.0,2.0,90.0,event
14:18:22.068,0.6524784,0.79068124,0.93052894,1.2662181,0.17670836,0.68643004,0.7151415,0.676933,0.42380366,0.8304509,0.9710487,1.1087545,1.0124707,0.9602903,1.0501864,1.2840338,0.7931328,0.96723,0.8587309,1.0122116,753.0769,765.9707,807.47253,579.81683,803.0403,-0.24652099609375,0.1805419921875,0.940185546875,2.459869384765625,-3.850555419921875,0.179443359375,1.0,2.0,1.0,1.0,2.0,90.0,event
14:18:22.069,0.6524784,0.79068124,0.93052894,1.2662181,0.17670836,0.68643004,0.7151415,0.676933,0.42380366,0.8304509,0.9710487,1.1087545,1.0124707,0.9602903,1.0501864,1.2840338,0.7931328,0.96723,0.8587309,1.0122116,802.23444,792.96704,803.44324,645.4945,780.4762,-0.24652099609375,0.1805419921875,0.940185546875,2.459869384765625,-3.850555419921875,0.179443359375,1.0,2.0,1.0,1.0,2.0,90.0,event
14:18:22.090,0.6524784,0.79068124,0.93052894,1.2662181,0.17670836,0.68643004,0.7151415,0.676933,0.42380366,0.8304509,0.9710487,1.1087545,1.0124707,0.9602903,1.0501864,1.2840338,0.7931328,0.96723,0.8587309,1.0122116,852.1978,812.71063,780.87915,950.9158,763.5531,-0.24652099609375,0.1805419921875,0.940185546875,2.459869384765625,-3.850555419921875,0.179443359375,1.0,2.0,1.0,1.0,2.0,90.0,event
14:18:22.091,0.6524784,0.79068124,0.93052894,1.2662181,0.17670836,0.68643004,0.7151415,0.676933,0.42380366,0.8304509,0.9710487,1.1087545,1.0124707,0.9602903,1.0501864,1.2840338,0.7931328,0.96723,0.8587309,1.0122116,818.7546,817.5458,786.9231,1107.6556,864.68866,-0.24652099609375,0.1805419921875,0.940185546875,2.459869384765625,-3.850555419921875,0.179443359375,1.0,2.0,1.0,1.0,2.0,90.0,event
14:18:22.092,0.6524784,0.79068124,0.93052894,1.2662181,0.17670836,0.68643004,0.7151415,0.676933,0.42380366,0.8304509,0.9710487,1.1087545,1.0124707,0.9602903,1.0501864,1.2840338,0.7931328,0.96723,0.8587309,1.0122116,752.27106,802.6374,802.6374,828.022,813.1135,-0.24652099609375,0.1805419921875,0.940185546875,2.459869384765625,-3.850555419921875,0.179443359375,1.0,2.0,1.0,1.0,2.0,90.0,event
14:18:22.093,0.6524784,0.79068124,0.93052894,1.2662181,0.17670836,0.68643004,0.7151415,0.676933,0.42380366,0.8304509,0.9710487,1.1087545,1.0124707,0.9602903,1.0501864,1.2840338,0.7931328,0.96723,0.8587309,1.0122116,740.18317,785.7143,815.12823,566.9231,704.7253,-0.24652099609375,0.1805419921875,0.940185546875,2.459869384765625,-3.850555419921875,0.179443359375,1.0,2.0,1.0,1.0,2.0,90.0,event
14:18:22.093,0.6524784,0.79068124,0.93052894,1.2662181,0.17670836,0.68643004,0.7151415,0.676933,0.42380366,0.8304509,0.9710487,1.1087545,1.0124707,0.9602903,1.0501864,1.2840338,0.7931328,0.96723,0.8587309,1.0122116,783.2967,802.23444,827.2161,646.7033,701.9048,-0.24652099609375,0.1805419921875,0.940185546875,2.459869384765625,-3.850555419921875,0.179443359375,1.0,2.0,1.0,1.0,2.0,90.0,event
14:18:22.094,0.6524784,0.79068124,0.93052894,1.2662181,0.17670836,0.68643004,0.7151415,0.676933,0.42380366,0.8304509,0.9710487,1.1087545,1.0124707,0.9602903,1.0501864,1.2840338,0.7931328,0.96723,0.8587309,1.0122116,828.4249,812.71063,814.7253,949.707,844.5421,-0.24652099609375,0.1805419921875,0.940185546875,2.459869384765625,-3.850555419921875,0.179443359375,1.0,2.0,1.0,1.0,2.0,90.0,event
14:18:22.094,0.6524784,0.79068124,0.93052894,1.2662181,0.17670836,0.68643004,0.7151415,0.676933,0.42380366,0.8304509,0.9710487,1.1087545,1.0124707,0.9602903,1.0501864,1.2840338,0.7931328,0.96723,0.8587309,1.0122116,842.52747,805.8608,808.68134,1148.3517,965.82416,-0.24652099609375,0.1805419921875,0.940185546875,2.459869384765625,-3.850555419921875,0.179443359375,1.0,2.0,1.0,1.0,2.0,90.0,event
14:18:22.095,0.6524784,0.79068124,0.93052894,1.2662181,0.17670836,0.68643004,0.7151415,0.676933,0.42380366,0.8304509,0.9710487,1.1087545,1.0124707,0.9602903,1.0501864,1.2840338,0.7931328,0.96723,0.8587309,1.0122116,800.2198,819.15753,799.81683,935.2015,972.27106,-0.24652099609375,0.1805419921875,0.940185546875,2.459869384765625,-3.850555419921875,0.179443359375,1.0,2.0,1.0,1.0,2.0,90.0,event
14:18:22.095,0.6524784,0.79068124,0.93052894,1.2662181,0.17670836,0.68643004,0.7151415,0.676933,0.42380366,0.8304509,0.9710487,1.1087545,1.0124707,0.9602903,1.0501864,1.2840338,0.7931328,0.96723,0.8587309,1.0122116,765.16486,820.7692,801.02563,645.09155,856.2271,-0.24652099609375,0.1805419921875,0.940185546875,2.459869384765625,-3.850555419921875,0.179443359375,1.0,2.0,1.0,1.0,2.0,90.0,event
14:18:22.096,0.6524784,0.79068124,0.93052894,1.2662181,0.17670836,0.68643004,0.7151415,0.676933,0.42380366,0.8304509,0.9710487,1.1087545,1.0124707,0.9602903,1.0501864,1.2840338,0.7931328,0.96723,0.8587309,1.0122116,829.2308,785.31134,832.8571,917.8755,1052.0513,-0.24652099609375,0.1805419921875,0.940185546875,2.459869384765625,-3.850555419921875,0.179443359375,1.0,2.0,1.0,1.0,2.0,90.0,event
14:18:22.096,0.6524784,0.79068124,0.93052894,1.2662181,0.17670836,0.68643004,0.7151415,0.676933,0.42380366,0.8304509,0.9710487,1.1087545,1.0124707,0.9602903,1.0501864,1.2840338,0.7931328,0.96723,0.8587309,1.0122116,807.47253,798.60803,821.978,680.14655,992.01465,-0.24652099609375,0.1805419921875,0.940185546875,2.459869384765625,-3.850555419921875,0.179443359375,1.0,2.0,1.0,1.0,2.0,90.0,event
14:18:22.097,0.6524784,0.79068124,0.93052894,1.2662181,0.17670836,0.68643004,0.7151415,0.676933,0.42380366,0.8304509,0.9710487,1.1087545,1.0124707,0.9602903,1.0501864,1.2840338,0.7931328,0.96723,0.8587309,1.0122116,823.5897,781.685,804.65204,1114.9084,813.91943,-0.24652099609375,0.1805419921875,0.940185546875,2.459869384765625,-3.850555419921875,0.179443359375,1.0,2.0,1.0,1.0,2.0,90.0,event
14:18:22.156,0.6524784,0.79068124,0.93052894,1.2662181,0.17670836,0.68643004,0.7151415,0.676933,0.42380366,0.8304509,0.9710487,1.1087545,1.0124707,0.9602903,1.0501864,1.2840338,0.7931328,0.96723,0.8587309,1.0122116,770.80585,782.0879,776.4469,945.2747,748.24176,-0.2423095703125,0.1806640625,0.942138671875,1.966400146484375,-4.059906005859375,0.201873779296875,1.0,2.0,1.0,1.0,2.0,90.0,event
14:18:22.157,0.6524784,0.7755984,0.99737334,1.2662181,0.17670836,0.6635274,0.7314576,0.676933,0.42380366,0.80610186,0.97997415,1.1087545,1.0124707,1.0211831,1.0597688,1.2840338,0.7931328,0.93781257,0.8562793,1.0122116,722.4542,800.6227,795.38464,612.4542,757.9121,-0.2423095703125,0.1806640625,0.942138671875,1.966400146484375,-4.059906005859375,0.201873779296875,1.0,2.0,1.0,1.0,2.0,90.0,event
14:18:22.162,0.6524784,0.7755984,0.99737334,1.2662181,0.17670836,0.6635274,0.7314576,0.676933,0.42380366,0.80610186,0.97997415,1.1087545,1.0124707,1.0211831,1.0597688,1.2840338,0.7931328,0.93781257,0.8562793,1.0122116,763.1502,817.9487,804.2491,597.9487,710.7692,-0.2423095703125,0.1806640625,0.942138671875,1.966400146484375,-4.059906005859375,0.201873779296875,1.0,2.0,1.0,1.0,2.0,90.0,event
14:18:22.163,0.6524784,0.7755984,0.99737334,1.2662181,0.17670836,0.6635274,0.7314576,0.676933,0.42380366,0.80610186,0.97997415,1.1087545,1.0124707,1.0211831,1.0597688,1.2840338,0.7931328,0.93781257,0.8562793,1.0122116,822.381,799.81683,788.5348,867.50916,693.8461,-0.2423095703125,0.1806640625,0.942138671875,1.966400146484375,-4.059906005859375,0.201873779296875,1.0,2.0,1.0,1.0,2.0,90.0,event
14:18:22.165,0.6524784,0.7755984,0.99737334,1.2662181,0.17670836,0.6635274,0.7314576,0.676933,0.42380366,0.80610186,0.97997415,1.1087545,1.0124707,1.0211831,1.0597688,1.2840338,0.7931328,0.93781257,0.8562793,1.0122116,849.7802,802.6374,785.7143,1107.2528,814.7253,-0.2423095703125,0.1806640625,0.942138671875,1.966400146484375,-4.059906005859375,0.201873779296875,1.0,2.0,1.0,1.0,2.0,90.0,event
14:18:22.166,0.6524784,0.7755984,0.99737334,1.2662181,0.17670836,0.6635274,0.7314576,0.676933,0.42380366,0.80610186,0.97997415,1.1087545,1.0124707,1.0211831,1.0597688,1.2840338,0.7931328,0.93781257,0.8562793,1.0122116,792.5641,825.6044,807.8755,977.50916,932.381,-0.2423095703125,0.1806640625,0.942138671875,1.966400146484375,-4.059906005859375,0.201873779296875,1.0,2.0,1.0,1.0,2.0,90.0,event
14:18:22.166,0.6524784,0.7755984,0.99737334,1.2662181,0.17670836,0.6635274,0.7314576,0.676933,0.42380366,0.80610186,0.97997415,1.1087545,1.0124707,1.0211831,1.0597688,1.2840338,0.7931328,0.93781257,0.8562793,1.0122116,735.34796,818.3516,823.9927,662.8205,811.9048,-0.2423095703125,0.1806640625,0.942138671875,1.966400146484375,-4.059906005859375,0.201873779296875,1.0,2.0,1.0,1.0,2.0,90.0,event
14:18:22.167,0.6524784,0.7755984,0.99737334,1.2662181,0.17670836,0.6635274,0.7314576,0.676933,0.42380366,0.80610186,0.97997415,1.1087545,1.0124707,1.0211831,1.0597688,1.2840338,0.7931328,0.93781257,0.8562793,1.0122116,748.6447,792.96704,803.44324,596.7399,690.2198,-0.2423095703125,0.1806640625,0.942138671875,1.966400146484375,-4.059906005859375,0.201873779296875,1.0,2.0,1.0,1.0,2.0,90.0,event
14:18:22.168,0.6524784,0.7755984,0.99737334,1.2662181,0.17670836,0.6635274,0.7314576,0.676933,0.42380366,0.80610186,0.97997415,1.1087545,1.0124707,1.0211831,1.0597688,1.2840338,0.7931328,0.93781257,0.8562793,1.0122116,790.54944,786.9231,796.99634,812.3077,792.96704,-0.2423095703125,0.1806640625,0.942138671875,1.966400146484375,-4.059906005859375,0.201873779296875,1.0,2.0,1.0,1.0,2.0,90.0,event
14:18:22.169,0.6524784,0.7755984,0.99737334,1.2662181,0.17670836,0.6635274,0.7314576,0.676933,0.42380366,0.80610186,0.97997415,1.1087545,1.0124707,1.0211831,1.0597688,1.2840338,0.7931328,0.93781257,0.8562793,1.0122116,842.1245,798.60803,824.7985,1096.3737,1091.9414,-0.2423095703125,0.1806640625,0.942138671875,1.966400146484375,-4.059906005859375,0.201873779296875,1.0,2.0,1.0,1.0,2.0,90.0,event
14:18:22.170,0.6524784,0.7755984,0.99737334,1.2662181,0.17670836,0.6635274,0.7314576,0.676933,0.42380366,0.80610186,0.97997415,1.1087545,1.0124707,1.0211831,1.0597688,1.2840338,0.7931328,0.93781257,0.8562793,1.0122116,809.4872,813.5165,826.0073,1026.6666,960.18317,-0.2423095703125,0.1806640625,0.942138671875,1.966400146484375,-4.059906005859375,0.201873779296875,1.0,2.0,1.0,1.0,2.0,90.0,event
14:18:22.170,0.6524784,0.7755984,0.99737334,1.2662181,0.17670836,0.6635274,0.7314576,0.676933,0.42380366,0.80610186,0.97997415,1.1087545,1.0124707,1.0211831,1.0597688,1.2840338,0.7931328,0.93781257,0.8562793,1.0122116,725.2747,805.8608,799.011,695.4579,644.68866,-0.2423095703125,0.1806640625,0.942138671875,1.966400146484375,-4.059906005859375,0.201873779296875,1.0,2.0,1.0,1.0,2.0,90.0,event
14:18:22.197,0.6524784,0.7755984,0.99737334,1.2662181,0.17670836,0.6635274,0.7314576,0.676933,0.42380366,0.80610186,0.97997415,1.1087545,1.0124707,1.0211831,1.0597688,1.2840338,0.7931328,0.93781257,0.8562793,1.0122116,734.1392,799.41394,794.17584,587.47253,669.67035,-0.24169921875,0.1767578125,0.93719482421875,2.61688232421875,-4.164581298828125,-0.01495361328125,1.0,2.0,1.0,1.0,2.0,90.0,event
14:18:22.198,0.6524784,0.7755984,0.99737334,1.2662181,0.17670836,0.6635274,0.7314576,0.676933,0.42380366,0.80610186,0.97997415,1.1087545,1.0124707,1.0211831,1.0597688,1.2840338,0.7931328,0.93781257,0.8562793,1.0122116,783.69965,801.4286,790.54944,781.685,716.0073,-0.24169921875,0.1767578125,0.93719482421875,2.61688232421875,-4.164581298828125,-0.01495361328125,1.0,2.0,1.0,1.0,2.0,90.0,event
14:18:22.199,0.6524784,0.7755984,0.99737334,1.2662181,0.17670836,0.6635274,0.7314576,0.676933,0.42380366,0.80610186,0.97997415,1.1087545,1.0124707,1.0211831,1.0597688,1.2840338,0.7931328,0.93781257,0.8562793,1.0122116,837.28937,829.6337,803.44324,1079.0476,704.3223,-0.24169921875,0.1767578125,0.93719482421875,2.61688232421875,-4.164581298828125,-0.01495361328125,1.0,2.0,1.0,1.0,2.0,90.0,event
14:18:22.199,0.6524784,0.7755984,0.99737334,1.2662181,0.17670836,0.6635274,0.7314576,0.676933,0.42380366,0.80610186,0.97997415,1.1087545,1.0124707,1.0211831,1.0597688,1.2840338,0.7931328,0.93781257,0.8562793,1.0122116,805.4579,832.4542,812.71063,1056.4835,765.9707,-0.24169921875,0.1767578125,0.93719482421875,2.61688232421875,-4.164581298828125,-0.01495361328125,1.0,2.0,1.0,1.0,2.0,90.0,event
14:18:22.200,0.6524784,0.7755984,0.99737334,1.2662181,0.17670836,0.6635274,0.7314576,0.676933,0.42380366,0.80610186,0.97997415,1.1087545,1.0124707,1.0211831,1.0597688,1.2840338,0.7931328,0.93781257,0.8562793,1.0122116,718.8278,792.5641,796.1905,740.989,806.26373,-0.24169921875,0.1767578125,0.93719482421875,2.61688232421875,-4.164581298828125,-0.01495361328125,1.0,2.0,1.0,1.0,2.0,90.0,event
14:18:22.201,0.6524784,0.7755984,0.99737334,1.2662181,0.17670836,0.6635274,0.7314576,0.676933,0.42380366,0.80610186,0.97997415,1.1087545,1.0124707,1.0211831,1.0597688,1.2840338,0.7931328,0.93781257,0.8562793,1.0122116,720.84247,794.9817,775.64105,571.75824,767.5824,-0.24169921875,0.1767578125,0.93719482421875,2.61688232421875,-4.164581298828125,-0.01495361328125,1.0,2.0,1.0,1.0,2.0,90.0,event
14:18:22.201,0.6524784,0.7755984,0.99737334,1.2662181,0.17670836,0.6635274,0.7314576,0.676933,0.42380366,0.80610186,0.97997415,1.1087545,1.0124707,1.0211831,1.0597688,1.2840338,0.7931328,0.93781257,0.8562793,1.0122116,794.17584,834.4689,786.1172,768.3883,777.25275,-0.24169921875,0.1767578125,0.93719482421875,2.61688232421875,-4.164581298828125,-0.01495361328125,1.0,2.0,1.0,1.0,2.0,90.0,event
14:18:22.202,0.6524784,0.7755984,0.99737334,1.2662181,0.17670836,0.6635274,0.7314576,0.676933,0.42380366,0.80610186,0.97997415,1.1087545,1.0124707,1.0211831,1.0597688,1.2840338,0.7931328,0.93781257,0.8562793,1.0122116,842.1245,840.10986,813.91943,1073.0037,812.3077,-0.24169921875,0.1767578125,0.93719482421875,2.61688232421875,-4.164581298828125,-0.01495361328125,1.0,2.0,1.0,1.0,2.0,90.0,event
14:18:22.203,0.6524784,0.7755984,0.99737334,1.2662181,0.17670836,0.6635274,0.7314576,0.676933,0.42380366,0.80610186,0.97997415,1.1087545,1.0124707,1.0211831,1.0597688,1.2840338,0.7931328,0.93781257,0.8562793,1.0122116,742.6007,778.46155,814.7253,787.326,951.7216,-0.24169921875,0.1767578125,0.93719482421875,2.61688232421875,-4.164581298828125,-0.01495361328125,1.0,2.0,1.0,1.0,2.0,90.0,event
14:18:22.203,0.6524784,0.7755984,0.99737334,1.2662181,0.17670836,0.6635274,0.7314576,0.676933,0.42380366,0.80610186,0.97997415,1.1087545,1.0124707,1.0211831,1.0597688,1.2840338,0.7931328,0.93781257,0.8562793,1.0122116,802.6374,799.011,813.1135,1077.033,958.97437,-0.24169921875,0.1767578125,0.93719482421875,2.61688232421875,-4.164581298828125,-0.01495361328125,1.0,2.0,1.0,1.0,2.0,90.0,event
14:18:22.204,0.6524784,0.7755984,0.99737334,1.2662181,0.17670836,0.6635274,0.7314576,0.676933,0.42380366,0.80610186,0.97997415,1.1087545,1.0124707,1.0211831,1.0597688,1.2840338,0.7931328,0.93781257,0.8562793,1.0122116,736.1539,797.3993,826.4103,604.7985,689.011,-0.24169921875,0.1767578125,0.93719482421875,2.61688232421875,-4.164581298828125,-0.01495361328125,1.0,2.0,1.0,1.0,2.0,90.0,event
