TimeStamp,Delta_TP9,Delta_AF7,Delta_AF8,Delta_TP10,Theta_TP9,Theta_AF7,Theta_AF8,Theta_TP10,Alpha_TP9,Alpha_AF7,Alpha_AF8,Alpha_TP10,Beta_TP9,Beta_AF7,Beta_AF8,Beta_TP10,Gamma_TP9,Gamma_AF7,Gamma_AF8,Gamma_TP10,RAW_TP9,RAW_AF7,RAW_AF8,RAW_TP10,AUX_RIGHT,Accelerometer_X,Accelerometer_Y,Accelerometer_Z,Gyro_X,Gyro_Y,Gyro_Z,HeadBandOn,HSI_TP9,HSI_AF7,HSI_AF8,HSI_TP10,Battery,Elements
12:11:21.044,0.51633054,-0.07778369,0.8922226,0.49125588,0.03261163,-0.15796804,0.72779477,0.49413994,0.25221604,0.20457499,0.4902705,0.44445103,1.1295221,0.47681555,0.5690863,1.4092046,1.2245562,0.34026194,-0.010773789,1.120282,844.94507,814.3223,787.326,869.5238,770.80585,-0.004150390625,0.137939453125,0.9752197265625,2.392578125,-3.63372802734375,0.530853271484375,1.0,1.0,1.0,1.0,1.0,90.0,event
12:11:21.045,0.51633054,-0.07778369,0.8922226,0.49125588,0.03261163,-0.15796804,0.72779477,0.49413994,0.25221604,0.20457499,0.4902705,0.44445103,1.1295221,0.47681555,0.5690863,1.4092046,1.2245562,0.34026194,-0.010773789,1.120282,858.6447,821.1722,793.7729,852.1978,749.45056,-0.004150390625,0.137939453125,0.9752197265625,2.392578125,-3.63372802734375,0.530853271484375,1.0,1.0,1.0,1.0,1.0,90.0,event
12:11:21.045,0.51633054,-0.07778369,0.8922226,0.49125588,0.03261163,-0.15796804,0.72779477,0.49413994,0.25221604,0.20457499,0.4902705,0.44445103,1.1295221,0.47681555,0.5690863,1.4092046,1.2245562,0.34026194,-0.010773789,1.120282,859.45056,797.8022,781.685,832.0513,869.92676,-0.004150390625,0.137939453125,0.9752197265625,2.392578125,-3.63372802734375,0.530853271484375,1.0,1.0,1.0,1.0,1.0,90.0,event
12:11:21.046,0.51633054,-0.02377973,0.9043532,0.49125588,0.03261163,-0.1470298,0.7306809,0.49413994,0.25221604,0.20963843,0.4902705,0.44445103,1.1295221,0.47757456,0.5609509,1.4092046,1.2245562,0.35145926,0.043323457,1.120282,850.18317,781.28204,785.31134,863.0769,848.1685,-0.004150390625,0.137939453125,0.9752197265625,2.392578125,-3.63372802734375,0.530853271484375,1.0,1.0,1.0,1.0,1.0,90.0,event
12:11:21.048,,,,,,,,,,,,,,,,,,,,,,,,,,,,,,,,,,,,,,blink
12:11:21.049,0.51633054,-0.02377973,0.9043532,0.49125588,0.03261163,-0.1470298,0.7306809,0.49413994,0.25221604,0.20963843,0.4902705,0.44445103,1.1295221,0.47757456,0.5609509,1.4092046,1.2245562,0.35145926,0.043323457,1.120282,836.8865,813.5165,791.3553,880.40295,694.2491,-0.004150390625,0.137939453125,0.9752197265625,2.392578125,-3.63372802734375,0.530853271484375,1.0,1.0,1.0,1.0,1.0,90.0,event
12:11:21.050,0.51633054,-0.02377973,0.9043532,0.49125588,0.03261163,-0.1470298,0.7306809,0.49413994,0.25221604,0.20963843,0.4902705,0.44445103,1.1295221,0.47757456,0.5609509,1.4092046,1.2245562,0.35145926,0.043323457,1.120282,832.8571,827.619,798.20514,830.4396,827.2161,-0.004150390625,0.137939453125,0.9752197265625,2.392578125,-3.63372802734375,0.530853271484375,1.0,1.0,1.0,1.0,1.0,90.0,event
12:11:21.050,0.51633054,-0.02377973,0.9043532,0.49125588,0.03261163,-0.1470298,0.7306809,0.49413994,0.25221604,0.20963843,0.4902705,0.44445103,1.1295221,0.47757456,0.5609509,1.4092046,1.2245562,0.35145926,0.043323457,1.120282,843.3333,819.9634,801.8315,828.022,1054.0659,-0.004150390625,0.137939453125,0.9752197265625,2.392578125,-3.63372802734375,0.530853271484375,1.0,1.0,1.0,1.0,1.0,90.0,event
12:11:21.051,0.51633054,-0.02377973,0.9043532,0.49125588,0.03261163,-0.1470298,0.7306809,0.49413994,0.25221604,0.20963843,0.4902705,0.44445103,1.1295221,0.47757456,0.5609509,1.4092046,1.2245562,0.35145926,0.043323457,1.120282,853.00366,819.15753,790.54944,844.94507,880.80585,-0.004150390625,0.137939453125,0.9752197265625,2.392578125,-3.63372802734375,0.530853271484375,1.0,1.0,1.0,1.0,1.0,90.0,event
12:11:21.051,0.51633054,-0.02377973,0.9043532,0.49125588,0.03261163,-0.1470298,0.7306809,0.49413994,0.25221604,0.20963843,0.4902705,0.44445103,1.1295221,0.47757456,0.5609509,1.4092046,1.2245562,0.35145926,0.043323457,1.120282,854.61536,808.2784,791.3553,856.63007,637.03296,-0.004150390625,0.137939453125,0.9752197265625,2.392578125,-3.63372802734375,0.530853271484375,1.0,1.0,1.0,1.0,1.0,90.0,event
12:11:21.052,0.51633054,-0.02377973,0.9043532,0.49125588,0.03261163,-0.1470298,0.7306809,0.49413994,0.25221604,0.20963843,0.4902705,0.44445103,1.1295221,0.47757456,0.5609509,1.4092046,1.2245562,0.35145926,0.043323457,1.120282,832.0513,813.5165,775.2381,844.1392,823.5897,-0.004150390625,0.137939453125,0.9752197265625,2.392578125,-3.63372802734375,0.530853271484375,1.0,1.0,1.0,1.0,1.0,90.0,event
12:11:21.052,0.51633054,-0.02377973,0.9043532,0.49125588,0.03261163,-0.1470298,0.7306809,0.49413994,0.25221604,0.20963843,0.4902705,0.44445103,1.1295221,0.47757456,0.5609509,1.4092046,1.2245562,0.35145926,0.043323457,1.120282,834.87177,806.26373,786.9231,852.6007,713.5897,-0.004150390625,0.137939453125,0.9752197265625,2.392578125,-3.63372802734375,0.530853271484375,1.0,1.0,1.0,1.0,1.0,90.0,event
12:11:21.053,0.51633054,-0.02377973,0.9043532,0.49125588,0.03261163,-0.1470298,0.7306809,0.49413994,0.25221604,0.20963843,0.4902705,0.44445103,1.1295221,0.47757456,0.5609509,1.4092046,1.2245562,0.35145926,0.043323457,1.120282,850.989,819.5604,778.46155,832.0513,785.7143,-0.004150390625,0.137939453125,0.9752197265625,2.392578125,-3.63372802734375,0.530853271484375,1.0,1.0,1.0,1.0,1.0,90.0,event
12:11:21.144,0.51633054,-0.02377973,0.9043532,0.49125588,0.03261163,-0.1470298,0.7306809,0.49413994,0.25221604,0.20963843,0.4902705,0.44445103,1.1295221,0.47757456,0.5609509,1.4092046,1.2245562,0.35145926,0.043323457,1.120282,869.12085,814.7253,783.2967,828.4249,698.2784,-0.004150390625,0.137939453125,0.9752197265625,2.392578125,-3.63372802734375,0.530853271484375,1.0,1.0,1.0,1.0,1.0,90.0,event
12:11:21.145,0.51633054,-0.02377973,0.9043532,0.49125588,0.03261163,-0.1470298,0.7306809,0.49413994,0.25221604,0.20963843,0.4902705,0.44445103,1.1295221,0.47757456,0.5609509,1.4092046,1.2245562,0.35145926,0.043323457,1.120282,860.2564,809.0842,793.36993,848.1685,701.9048,-0.004150390625,0.137939453125,0.9752197265625,2.392578125,-3.63372802734375,0.530853271484375,1.0,1.0,1.0,1.0,1.0,90.0,event
12:11:21.146,0.51633054,-0.02377973,0.9043532,0.49125588,0.03261163,-0.1470298,0.7306809,0.49413994,0.25221604,0.20963843,0.4902705,0.44445103,1.1295221,0.47757456,0.5609509,1.4092046,1.2245562,0.35145926,0.043323457,1.120282,836.8865,805.4579,803.44324,850.18317,807.8755,-0.004150390625,0.137939453125,0.9752197265625,2.392578125,-3.63372802734375,0.530853271484375,1.0,1.0,1.0,1.0,1.0,90.0,event
12:11:21.147,0.51633054,-0.02377973,0.9043532,0.49125588,0.03261163,-0.1470298,0.7306809,0.49413994,0.25221604,0.20963843,0.4902705,0.44445103,1.1295221,0.47757456,0.5609509,1.4092046,1.2245562,0.35145926,0.043323457,1.120282,852.6007,813.91943,794.9817,828.8278,839.707,-0.004150390625,0.137939453125,0.9752197265625,2.392578125,-3.63372802734375,0.530853271484375,1.0,1.0,1.0,1.0,1.0,90.0,event
12:11:21.147,0.51633054,-0.02377973,0.9043532,0.49125588,0.03261163,-0.1470298,0.7306809,0.49413994,0.25221604,0.20963843,0.4902705,0.44445103,1.1295221,0.47757456,0.5609509,1.4092046,1.2245562,0.35145926,0.043323457,1.120282,836.8865,817.9487,791.75824,821.978,769.19415,-0.004150390625,0.137939453125,0.9752197265625,2.392578125,-3.63372802734375,0.530853271484375,1.0,1.0,1.0,1.0,1.0,90.0,event
12:11:21.148,0.51633054,-0.02377973,0.9043532,0.49125588,0.03261163,-0.1470298,0.7306809,0.49413994,0.25221604,0.20963843,0.4902705,0.44445103,1.1295221,0.47757456,0.5609509,1.4092046,1.2245562,0.35145926,0.043323457,1.120282,814.3223,805.05493,794.17584,847.3626,849.3773,-0.004150390625,0.137939453125,0.9752197265625,2.392578125,-3.63372802734375,0.530853271484375,1.0,1.0,1.0,1.0,1.0,90.0,event
12:11:21.149,0.51633054,-0.02377973,0.9043532,0.49125588,0.03261163,-0.1470298,0.7306809,0.49413994,0.25221604,0.20963843,0.4902705,0.44445103,1.1295221,0.47757456,0.5609509,1.4092046,1.2245562,0.35145926,0.043323457,1.120282,822.381,805.8608,795.78754,834.87177,1125.3846,-0.004150390625,0.137939453125,0.9752197265625,2.392578125,-3.63372802734375,0.530853271484375,1.0,1.0,1.0,1.0,1.0,90.0,event
12:11:21.150,0.51633054,-0.02377973,0.9043532,0.49125588,0.03261163,-0.1470298,0.7306809,0.49413994,0.25221604,0.20963843,0.4902705,0.44445103,1.1295221,0.47757456,0.5609509,1.4092046,1.2245562,0.35145926,0.043323457,1.120282,823.5897,811.50183,789.7436,828.022,1047.619,-0.004150390625,0.137939453125,0.9752197265625,2.392578125,-3.63372802734375,0.530853271484375,1.0,1.0,1.0,1.0,1.0,90.0,event
12:11:21.151,0.51633054,-0.02377973,0.9043532,0.49125588,0.03261163,-0.1470298,0.7306809,0.49413994,0.25221604,0.20963843,0.4902705,0.44445103,1.1295221,0.47757456,0.5609509,1.4092046,1.2245562,0.35145926,0.043323457,1.120282,817.1429,805.05493,784.90845,845.7509,780.4762,-0.004150390625,0.137939453125,0.9752197265625,2.392578125,-3.63372802734375,0.530853271484375,1.0,1.0,1.0,1.0,1.0,90.0,event
12:11:21.152,0.51633054,-0.02377973,0.9043532,0.49125588,0.03261163,-0.1470298,0.7306809,0.49413994,0.25221604,0.20963843,0.4902705,0.44445103,1.1295221,0.47757456,0.5609509,1.4092046,1.2245562,0.35145926,0.043323457,1.120282,815.9341,809.4872,792.96704,831.2454,755.89746,-0.004150390625,0.137939453125,0.9752197265625,2.392578125,-3.63372802734375,0.530853271484375,1.0,1.0,1.0,1.0,1.0,90.0,event
12:11:21.152,0.51633054,-0.02377973,0.9043532,0.49125588,0.03261163,-0.1470298,0.7306809,0.49413994,0.25221604,0.20963843,0.4902705,0.44445103,1.1295221,0.47757456,0.5609509,1.4092046,1.2245562,0.35145926,0.043323457,1.120282,811.0989,804.65204,801.4286,819.15753,743.4066,-0.004150390625,0.137939453125,0.9752197265625,2.392578125,-3.63372802734375,0.530853271484375,1.0,1.0,1.0,1.0,1.0,90.0,event
12:11:21.153,0.51633054,-0.02377973,0.9043532,0.49125588,0.03261163,-0.1470298,0.7306809,0.49413994,0.25221604,0.20963843,0.4902705,0.44445103,1.1295221,0.47757456,0.5609509,1.4092046,1.2245562,0.35145926,0.043323457,1.120282,793.36993,801.4286,803.0403,815.12823,699.4872,-0.004150390625,0.137939453125,0.9752197265625,2.392578125,-3.63372802734375,0.530853271484375,1.0,1.0,1.0,1.0,1.0,90.0,event
12:11:21.181,0.51633054,-0.02377973,0.9043532,0.49125588,0.03261163,-0.1470298,0.7306809,0.49413994,0.25221604,0.20963843,0.4902705,0.44445103,1.1295221,0.47757456,0.5609509,1.4092046,1.2245562,0.35145926,0.043323457,1.120282,810.293,813.5165,797.8022,824.3956,743.4066,-0.00689697265625,0.13885498046875,0.98187255859375,2.011260986328125,-3.63372802734375,0.291595458984375,1.0,1.0,1.0,1.0,1.0,90.0,event
12:11:21.182,0.51633054,-0.02377973,0.9043532,0.49125588,0.03261163,-0.1470298,0.7306809,0.49413994,0.25221604,0.20963843,0.4902705,0.44445103,1.1295221,0.47757456,0.5609509,1.4092046,1.2245562,0.35145926,0.043323457,1.120282,826.8132,813.1135,795.38464,827.2161,844.5421,-0.00689697265625,0.13885498046875,0.98187255859375,2.011260986328125,-3.63372802734375,0.291595458984375,1.0,1.0,1.0,1.0,1.0,90.0,event
12:11:21.183,0.51633054,-0.02377973,0.9043532,0.49125588,0.03261163,-0.1470298,0.7306809,0.49413994,0.25221604,0.20963843,0.4902705,0.44445103,1.1295221,0.47757456,0.5609509,1.4092046,1.2245562,0.35145926,0.043323457,1.120282,810.696,806.26373,804.2491,816.7399,844.5421,-0.00689697265625,0.13885498046875,0.98187255859375,2.011260986328125,-3.63372802734375,0.291595458984375,1.0,1.0,1.0,1.0,1.0,90.0,event
12:11:21.184,0.51633054,-0.02377973,0.9043532,0.49125588,0.03261163,-0.1470298,0.7306809,0.49413994,0.25221604,0.20963843,0.4902705,0.44445103,1.1295221,0.47757456,0.5609509,1.4092046,1.2245562,0.35145926,0.043323457,1.120282,819.15753,805.8608,802.23444,817.5458,778.86444,-0.00689697265625,0.13885498046875,0.98187255859375,2.011260986328125,-3.63372802734375,0.291595458984375,1.0,1.0,1.0,1.0,1.0,90.0,event
12:11:21.184,0.51633054,-0.02377973,0.9043532,0.49125588,0.03261163,-0.1470298,0.7306809,0.49413994,0.25221604,0.20963843,0.4902705,0.44445103,1.1295221,0.47757456,0.5609509,1.4092046,1.2245562,0.35145926,0.043323457,1.120282,829.2308,809.4872,788.1319,818.7546,798.60803,-0.00689697265625,0.13885498046875,0.98187255859375,2.011260986328125,-3.63372802734375,0.291595458984375,1.0,1.0,1.0,1.0,1.0,90.0,event
12:11:21.188,0.51633054,0.015596122,0.9268724,0.49125588,0.03261163,-0.14686614,0.7181989,0.49413994,0.25221604,0.22240977,0.4902705,0.44445103,1.1295221,0.47395307,0.5636456,1.4092046,1.2245562,0.35275844,0.11099044,1.120282,810.696,805.05493,796.1905,823.5897,1000.4762,-0.00689697265625,0.13885498046875,0.98187255859375,2.011260986328125,-3.63372802734375,0.291595458984375,1.0,1.0,1.0,1.0,1.0,90.0,event
12:11:21.192,0.51633054,0.015596122,0.9268724,0.49125588,0.03261163,-0.14686614,0.7181989,0.49413994,0.25221604,0.22240977,0.4902705,0.44445103,1.1295221,0.47395307,0.5636456,1.4092046,1.2245562,0.35275844,0.11099044,1.120282,810.696,805.8608,805.8608,844.1392,1000.87915,-0.00689697265625,0.13885498046875,0.98187255859375,2.011260986328125,-3.63372802734375,0.291595458984375,1.0,1.0,1.0,1.0,1.0,90.0,event
12:11:21.194,0.51633054,0.015596122,0.9268724,0.49125588,0.03261163,-0.14686614,0.7181989,0.49413994,0.25221604,0.22240977,0.4902705,0.44445103,1.1295221,0.47395307,0.5636456,1.4092046,1.2245562,0.35275844,0.11099044,1.120282,808.68134,813.5165,794.17584,827.2161,900.9524,-0.00689697265625,0.13885498046875,0.98187255859375,2.011260986328125,-3.63372802734375,0.291595458984375,1.0,1.0,1.0,1.0,1.0,90.0,event
12:11:21.195,0.51633054,0.015596122,0.9268724,0.49125588,0.03261163,-0.14686614,0.7181989,0.49413994,0.25221604,0.22240977,0.4902705,0.44445103,1.1295221,0.47395307,0.5636456,1.4092046,1.2245562,0.35275844,0.11099044,1.120282,825.6044,820.3663,793.36993,777.6557,805.8608,-0.00689697265625,0.13885498046875,0.98187255859375,2.011260986328125,-3.63372802734375,0.291595458984375,1.0,1.0,1.0,1.0,1.0,90.0,event
12:11:21.196,0.51633054,0.015596122,0.9268724,0.49125588,0.03261163,-0.14686614,0.7181989,0.49413994,0.25221604,0.22240977,0.4902705,0.44445103,1.1295221,0.47395307,0.5636456,1.4092046,1.2245562,0.35275844,0.11099044,1.120282,839.304,830.0366,804.2491,786.9231,974.68866,-0.00689697265625,0.13885498046875,0.98187255859375,2.011260986328125,-3.63372802734375,0.291595458984375,1.0,1.0,1.0,1.0,1.0,90.0,event
12:11:21.197,0.51633054,0.015596122,0.9268724,0.49125588,0.03261163,-0.14686614,0.7181989,0.49413994,0.25221604,0.22240977,0.4902705,0.44445103,1.1295221,0.47395307,0.5636456,1.4092046,1.2245562,0.35275844,0.11099044,1.120282,809.0842,807.47253,800.6227,789.34064,1031.9048,-0.00689697265625,0.13885498046875,0.98187255859375,2.011260986328125,-3.63372802734375,0.291595458984375,1.0,1.0,1.0,1.0,1.0,90.0,event
12:11:21.198,0.51633054,0.015596122,0.9268724,0.49125588,0.03261163,-0.14686614,0.7181989,0.49413994,0.25221604,0.22240977,0.4902705,0.44445103,1.1295221,0.47395307,0.5636456,1.4092046,1.2245562,0.35275844,0.11099044,1.120282,776.4469,797.3993,803.44324,782.8938,784.10254,-0.00689697265625,0.13885498046875,0.98187255859375,2.011260986328125,-3.63372802734375,0.291595458984375,1.0,1.0,1.0,1.0,1.0,90.0,event
12:11:21.199,0.51633054,0.015596122,0.9268724,0.49125588,0.03261163,-0.14686614,0.7181989,0.49413994,0.25221604,0.22240977,0.4902705,0.44445103,1.1295221,0.47395307,0.5636456,1.4092046,1.2245562,0.35275844,0.11099044,1.120282,756.7033,805.4579,811.9048,795.78754,786.9231,-0.00482177734375,0.14141845703125,0.977783203125,1.532745361328125,-3.7384033203125,0.291595458984375,1.0,1.0,1.0,1.0,1.0,90.0,event
12:11:21.199,0.51633054,0.015596122,0.9268724,0.49125588,0.03261163,-0.14686614,0.7181989,0.49413994,0.25221604,0.22240977,0.4902705,0.44445103,1.1295221,0.47395307,0.5636456,1.4092046,1.2245562,0.35275844,0.11099044,1.120282,767.1795,806.6667,811.9048,786.52014,796.5934,-0.00482177734375,0.14141845703125,0.977783203125,1.532745361328125,-3.7384033203125,0.291595458984375,1.0,1.0,1.0,1.0,1.0,90.0,event
12:11:21.200,0.51633054,0.015596122,0.9268724,0.49125588,0.03261163,-0.14686614,0.7181989,0.49413994,0.25221604,0.22240977,0.4902705,0.44445103,1.1295221,0.47395307,0.5636456,1.4092046,1.2245562,0.35275844,0.11099044,1.120282,764.35895,813.5165,810.293,765.9707,712.381,-0.00482177734375,0.14141845703125,0.977783203125,1.532745361328125,-3.7384033203125,0.291595458984375,1.0,1.0,1.0,1.0,1.0,90.0,event
12:11:21.200,0.51633054,0.015596122,0.9268724,0.49125588,0.03261163,-0.14686614,0.7181989,0.49413994,0.25221604,0.22240977,0.4902705,0.44445103,1.1295221,0.47395307,0.5636456,1.4092046,1.2245562,0.35275844,0.11099044,1.120282,752.27106,810.696,803.8461,739.7802,703.1135,-0.00482177734375,0.14141845703125,0.977783203125,1.532745361328125,-3.7384033203125,0.291595458984375,1.0,1.0,1.0,1.0,1.0,90.0,event
12:11:21.201,0.51633054,0.015596122,0.9268724,0.49125588,0.03261163,-0.14686614,0.7181989,0.49413994,0.25221604,0.22240977,0.4902705,0.44445103,1.1295221,0.47395307,0.5636456,1.4092046,1.2245562,0.35275844,0.11099044,1.120282,745.82416,805.8608,806.6667,748.24176,765.9707,-0.00482177734375,0.14141845703125,0.977783203125,1.532745361328125,-3.7384033203125,0.291595458984375,1.0,1.0,1.0,1.0,1.0,90.0,event
12:11:21.202,0.51633054,0.015596122,0.9268724,0.49125588,0.03261163,-0.14686614,0.7181989,0.49413994,0.25221604,0.22240977,0.4902705,0.44445103,1.1295221,0.47395307,0.5636456,1.4092046,1.2245562,0.35275844,0.11099044,1.120282,683.7729,813.91943,815.9341,702.3077,854.21246,-0.00482177734375,0.14141845703125,0.977783203125,1.532745361328125,-3.7384033203125,0.291595458984375,1.0,1.0,1.0,1.0,1.0,90.0,event
12:11:21.202,0.51633054,0.015596122,0.9268724,0.49125588,0.03261163,-0.14686614,0.7181989,0.49413994,0.25221604,0.22240977,0.4902705,0.44445103,1.1295221,0.47395307,0.5636456,1.4092046,1.2245562,0.35275844,0.11099044,1.120282,697.8755,803.0403,820.3663,724.0659,873.5531,-0.00482177734375,0.14141845703125,0.977783203125,1.532745361328125,-3.7384033203125,0.291595458984375,1.0,1.0,1.0,1.0,1.0,90.0,event
12:11:21.203,0.51633054,0.015596122,0.9268724,0.49125588,0.03261163,-0.14686614,0.7181989,0.49413994,0.25221604,0.22240977,0.4902705,0.44445103,1.1295221,0.47395307,0.5636456,1.4092046,1.2245562,0.35275844,0.11099044,1.120282,668.46155,823.9927,805.05493,667.25275,678.93774,-0.00482177734375,0.14141845703125,0.977783203125,1.532745361328125,-3.7384033203125,0.291595458984375,1.0,1.0,1.0,1.0,1.0,90.0,event
12:11:21.204,0.51633054,0.015596122,0.9268724,0.49125588,0.03261163,-0.14686614,0.7181989,0.49413994,0.25221604,0.22240977,0.4902705,0.44445103,1.1295221,0.47395307,0.5636456,1.4092046,1.2245562,0.35275844,0.11099044,1.120282,624.1392,821.978,815.5311,622.9304,779.2674,-0.00482177734375,0.14141845703125,0.977783203125,1.532745361328125,-3.7384033203125,0.291595458984375,1.0,1.0,1.0,1.0,1.0,90.0,event
12:11:21.204,0.51633054,0.015596122,0.9268724,0.49125588,0.03261163,-0.14686614,0.7181989,0.49413994,0.25221604,0.22240977,0.4902705,0.44445103,1.1295221,0.47395307,0.5636456,1.4092046,1.2245562,0.35275844,0.11099044,1.120282,601.978,811.50183,832.8571,628.97437,1102.4176,-0.00482177734375,0.14141845703125,0.977783203125,1.532745361328125,-3.7384033203125,0.291595458984375,1.0,1.0,1.0,1.0,1.0,90.0,event
12:11:21.205,0.51633054,0.015596122,0.9268724,0.49125588,0.03261163,-0.14686614,0.7181989,0.49413994,0.25221604,0.22240977,0.4902705,0.44445103,1.1295221,0.47395307,0.5636456,1.4092046,1.2245562,0.35275844,0.11099044,1.120282,589.0842,809.89014,835.6777,608.8278,907.3993,-0.00482177734375,0.14141845703125,0.977783203125,1.532745361328125,-3.7384033203125,0.291595458984375,1.0,1.0,1.0,1.0,1.0,90.0,event
12:11:21.205,0.51633054,0.015596122,0.9268724,0.49125588,0.03261163,-0.14686614,0.7181989,0.49413994,0.25221604,0.22240977,0.4902705,0.44445103,1.1295221,0.47395307,0.5636456,1.4092046,1.2245562,0.35275844,0.11099044,1.120282,594.7253,829.6337,826.4103,583.0403,674.10254,-0.00482177734375,0.14141845703125,0.977783203125,1.532745361328125,-3.7384033203125,0.291595458984375,1.0,1.0,1.0,1.0,1.0,90.0,event
12:11:21.228,0.51633054,0.015596122,0.9268724,0.49125588,0.03261163,-0.14686614,0.7181989,0.49413994,0.25221604,0.22240977,0.4902705,0.44445103,1.1295221,0.47395307,0.5636456,1.4092046,1.2245562,0.35275844,0.11099044,1.120282,594.7253,842.52747,823.9927,579.81683,727.6923,-0.0040283203125,0.13555908203125,0.9783935546875,1.6748046875,-4.77020263671875,0.13458251953125,1.0,1.0,1.0,1.0,1.0,90.0,event
12:11:21.229,0.51633054,0.015596122,0.9268724,0.49125588,0.03261163,-0.14686614,0.7181989,0.49413994,0.25221604,0.22240977,0.4902705,0.44445103,1.1295221,0.47395307,0.5636456,1.4092046,1.2245562,0.35275844,0.11099044,1.120282,564.10254,833.2601,822.381,580.2198,701.0989,-0.0040283203125,0.13555908203125,0.9783935546875,1.6748046875,-4.77020263671875,0.13458251953125,1.0,1.0,1.0,1.0,1.0,90.0,event
12:11:21.229,0.51633054,0.015596122,0.9268724,0.49125588,0.03261163,-0.14686614,0.7181989,0.49413994,0.25221604,0.22240977,0.4902705,0.44445103,1.1295221,0.47395307,0.5636456,1.4092046,1.2245562,0.35275844,0.11099044,1.120282,561.685,828.022,827.619,597.9487,684.17584,-0.0040283203125,0.13555908203125,0.9783935546875,1.6748046875,-4.77020263671875,0.13458251953125,1.0,1.0,1.0,1.0,1.0,90.0,event
12:11:21.230,0.51633054,0.015596122,0.9268724,0.49125588,0.03261163,-0.14686614,0.7181989,0.49413994,0.25221604,0.22240977,0.4902705,0.44445103,1.1295221,0.47395307,0.5636456,1.4092046,1.2245562,0.35275844,0.11099044,1.120282,556.04395,827.2161,823.9927,575.78754,741.39197,-0.0040283203125,0.13555908203125,0.9783935546875,1.6748046875,-4.77020263671875,0.13458251953125,1.0,1.0,1.0,1.0,1.0,90.0,event
12:11:21.231,0.51633054,0.015596122,0.9268724,0.49125588,0.03261163,-0.14686614,0.7181989,0.49413994,0.25221604,0.22240977,0.4902705,0.44445103,1.1295221,0.47395307,0.5636456,1.4092046,1.2245562,0.35275844,0.11099044,1.120282,597.5458,833.663,815.9341,581.02563,841.31866,-0.0040283203125,0.13555908203125,0.9783935546875,1.6748046875,-4.77020263671875,0.13458251953125,1.0,1.0,1.0,1.0,1.0,90.0,event
12:11:21.231,0.51633054,0.015596122,0.9268724,0.49125588,0.03261163,-0.14686614,0.7181989,0.49413994,0.25221604,0.22240977,0.4902705,0.44445103,1.1295221,0.47395307,0.5636456,1.4092046,1.2245562,0.35275844,0.11099044,1.120282,565.31134,834.0659,807.0696,563.2967,816.7399,-0.0040283203125,0.13555908203125,0.9783935546875,1.6748046875,-4.77020263671875,0.13458251953125,1.0,1.0,1.0,1.0,1.0,90.0,event
12:11:21.232,0.51633054,0.015596122,0.9268724,0.49125588,0.03261163,-0.14686614,0.7181989,0.49413994,0.25221604,0.22240977,0.4902705,0.44445103,1.1295221,0.47395307,0.5636456,1.4092046,1.2245562,0.35275844,0.11099044,1.120282,608.4249,826.0073,821.978,579.81683,853.00366,-0.0040283203125,0.13555908203125,0.9783935546875,1.6748046875,-4.77020263671875,0.13458251953125,1.0,1.0,1.0,1.0,1.0,90.0,event
12:11:21.232,0.51633054,0.04742991,0.9526551,0.49125588,0.03261163,-0.15915756,0.67672557,0.49413994,0.25221604,0.24503094,0.4902705,0.44445103,1.1295221,0.4642689,0.56913865,1.4092046,1.2245562,0.34908822,0.18035315,1.120282,608.4249,828.8278,815.12823,589.4872,848.1685,-0.0040283203125,0.13555908203125,0.9783935546875,1.6748046875,-4.77020263671875,0.13458251953125,1.0,1.0,1.0,1.0,1.0,90.0,event
12:11:21.236,0.51633054,0.04742991,0.9526551,0.49125588,0.03261163,-0.15915756,0.67672557,0.49413994,0.25221604,0.24503094,0.4902705,0.44445103,1.1295221,0.4642689,0.56913865,1.4092046,1.2245562,0.34908822,0.18035315,1.120282,586.26373,820.3663,825.6044,612.8571,1010.9524,-0.0040283203125,0.13555908203125,0.9783935546875,1.6748046875,-4.77020263671875,0.13458251953125,1.0,1.0,1.0,1.0,1.0,90.0,event
12:11:21.237,0.51633054,0.04742991,0.9526551,0.49125588,0.03261163,-0.15915756,0.67672557,0.49413994,0.25221604,0.24503094,0.4902705,0.44445103,1.1295221,0.4642689,0.56913865,1.4092046,1.2245562,0.34908822,0.18035315,1.120282,592.3077,822.7839,826.4103,622.1245,1056.4835,-0.0040283203125,0.13555908203125,0.9783935546875,1.6748046875,-4.77020263671875,0.13458251953125,1.0,1.0,1.0,1.0,1.0,90.0,event
12:11:21.238,0.51633054,0.04742991,0.9526551,0.49125588,0.03261163,-0.15915756,0.67672557,0.49413994,0.25221604,0.24503094,0.4902705,0.44445103,1.1295221,0.4642689,0.56913865,1.4092046,1.2245562,0.34908822,0.18035315,1.120282,620.9158,830.0366,815.12823,617.6923,676.9231,-0.0040283203125,0.13555908203125,0.9783935546875,1.6748046875,-4.77020263671875,0.13458251953125,1.0,1.0,1.0,1.0,1.0,90.0,event
12:11:21.238,0.51633054,0.04742991,0.9526551,0.49125588,0.03261163,-0.15915756,0.67672557,0.49413994,0.25221604,0.24503094,0.4902705,0.44445103,1.1295221,0.4642689,0.56913865,1.4092046,1.2245562,0.34908822,0.18035315,1.120282,637.8388,823.9927,818.3516,639.0476,633.8095,-0.0040283203125,0.13555908203125,0.9783935546875,1.6748046875,-4.77020263671875,0.13458251953125,1.0,1.0,1.0,1.0,1.0,90.0,event
12:11:21.296,0.51633054,0.04742991,0.9526551,0.49125588,0.03261163,-0.15915756,0.67672557,0.49413994,0.25221604,0.24503094,0.4902705,0.44445103,1.1295221,0.4642689,0.56913865,1.4092046,1.2245562,0.34908822,0.18035315,1.120282,641.4652,821.978,813.5165,659.59705,831.2454,-0.00079345703125,0.13677978515625,0.98114013671875,1.906585693359375,-3.90289306640625,0.19439697265625,1.0,1.0,1.0,1.0,1.0,90.0,event
12:11:21.297,0.51633054,0.04742991,0.9526551,0.49125588,0.03261163,-0.15915756,0.67672557,0.49413994,0.25221604,0.24503094,0.4902705,0.44445103,1.1295221,0.4642689,0.56913865,1.4092046,1.2245562,0.34908822,0.18035315,1.120282,680.9524,814.3223,809.4872,666.8498,776.4469,-0.00079345703125,0.13677978515625,0.98114013671875,1.906585693359375,-3.90289306640625,0.19439697265625,1.0,1.0,1.0,1.0,1.0,90.0,event
12:11:21.297,0.51633054,0.04742991,0.9526551,0.49125588,0.03261163,-0.15915756,0.67672557,0.49413994,0.25221604,0.24503094,0.4902705,0.44445103,1.1295221,0.4642689,0.56913865,1.4092046,1.2245562,0.34908822,0.18035315,1.120282,692.23444,811.0989,814.7253,678.93774,738.97437,-0.00079345703125,0.13677978515625,0.98114013671875,1.906585693359375,-3.90289306640625,0.19439697265625,1.0,1.0,1.0,1.0,1.0,90.0,event
12:11:21.298,0.51633054,0.04742991,0.9526551,0.49125588,0.03261163,-0.15915756,0.67672557,0.49413994,0.25221604,0.24503094,0.4902705,0.44445103,1.1295221,0.4642689,0.56913865,1.4092046,1.2245562,0.34908822,0.18035315,1.120282,686.5934,815.9341,808.2784,674.5055,758.315,-0.00079345703125,0.13677978515625,0.98114013671875,1.906585693359375,-3.90289306640625,0.19439697265625,1.0,1.0,1.0,1.0,1.0,90.0,event
12:11:21.299,0.51633054,0.04742991,0.9526551,0.49125588,0.03261163,-0.15915756,0.67672557,0.49413994,0.25221604,0.24503094,0.4902705,0.44445103,1.1295221,0.4642689,0.56913865,1.4092046,1.2245562,0.34908822,0.18035315,1.120282,698.68134,814.3223,795.38464,694.65204,784.90845,-0.00079345703125,0.13677978515625,0.98114013671875,1.906585693359375,-3.90289306640625,0.19439697265625,1.0,1.0,1.0,1.0,1.0,90.0,event
12:11:21.299,0.51633054,0.04742991,0.9526551,0.49125588,0.03261163,-0.15915756,0.67672557,0.49413994,0.25221604,0.24503094,0.4902705,0.44445103,1.1295221,0.4642689,0.56913865,1.4092046,1.2245562,0.34908822,0.18035315,1.120282,712.381,810.696,789.34064,731.31866,860.65936,-0.00079345703125,0.13677978515625,0.98114013671875,1.906585693359375,-3.90289306640625,0.19439697265625,1.0,1.0,1.0,1.0,1.0,90.0,event
12:11:21.300,0.51633054,0.04742991,0.9526551,0.49125588,0.03261163,-0.15915756,0.67672557,0.49413994,0.25221604,0.24503094,0.4902705,0.44445103,1.1295221,0.4642689,0.56913865,1.4092046,1.2245562,0.34908822,0.18035315,1.120282,745.82416,796.5934,794.57874,739.7802,880.0,-0.00079345703125,0.13677978515625,0.98114013671875,1.906585693359375,-3.90289306640625,0.19439697265625,1.0,1.0,1.0,1.0,1.0,90.0,event
12:11:21.300,0.51633054,0.04742991,0.9526551,0.49125588,0.03261163,-0.15915756,0.67672557,0.49413994,0.25221604,0.24503094,0.4902705,0.44445103,1.1295221,0.4642689,0.56913865,1.4092046,1.2245562,0.34908822,0.18035315,1.120282,748.6447,799.41394,791.3553,719.2308,914.2491,-0.00079345703125,0.13677978515625,0.98114013671875,1.906585693359375,-3.90289306640625,0.19439697265625,1.0,1.0,1.0,1.0,1.0,90.0,event
12:11:21.301,0.51633054,0.04742991,0.9526551,0.49125588,0.03261163,-0.15915756,0.67672557,0.49413994,0.25221604,0.24503094,0.4902705,0.44445103,1.1295221,0.4642689,0.56913865,1.4092046,1.2245562,0.34908822,0.18035315,1.120282,755.09155,807.8755,790.14655,728.0952,1024.652,-0.00079345703125,0.13677978515625,0.98114013671875,1.906585693359375,-3.90289306640625,0.19439697265625,1.0,1.0,1.0,1.0,1.0,90.0,event
12:11:21.301,0.51633054,0.04742991,0.9526551,0.49125588,0.03261163,-0.15915756,0.67672557,0.49413994,0.25221604,0.24503094,0.4902705,0.44445103,1.1295221,0.4642689,0.56913865,1.4092046,1.2245562,0.34908822,0.18035315,1.120282,768.3883,798.20514,795.38464,761.13556,828.8278,-0.00079345703125,0.13677978515625,0.98114013671875,1.906585693359375,-3.90289306640625,0.19439697265625,1.0,1.0,1.0,1.0,1.0,90.0,event
12:11:21.302,0.51633054,0.04742991,0.9526551,0.49125588,0.03261163,-0.15915756,0.67672557,0.49413994,0.25221604,0.24503094,0.4902705,0.44445103,1.1295221,0.4642689,0.56913865,1.4092046,1.2245562,0.34908822,0.18035315,1.120282,773.6264,799.41394,791.3553,776.8498,733.3333,-0.00079345703125,0.13677978515625,0.98114013671875,1.906585693359375,-3.90289306640625,0.19439697265625,1.0,1.0,1.0,1.0,1.0,90.0,event
12:11:21.303,0.51633054,0.04742991,0.9526551,0.49125588,0.03261163,-0.15915756,0.67672557,0.49413994,0.25221604,0.24503094,0.4902705,0.44445103,1.1295221,0.4642689,0.56913865,1.4092046,1.2245562,0.34908822,0.18035315,1.120282,795.78754,805.8608,781.28204,786.52014,797.8022,-0.00079345703125,0.13677978515625,0.98114013671875,1.906585693359375,-3.90289306640625,0.19439697265625,1.0,1.0,1.0,1.0,1.0,90.0,event
12:11:21.366,0.51633054,0.04742991,0.9526551,0.49125588,0.03261163,-0.15915756,0.67672557,0.49413994,0.25221604,0.24503094,0.4902705,0.44445103,1.1295221,0.4642689,0.56913865,1.4092046,1.2245562,0.34908822,0.18035315,1.120282,806.26373,807.0696,782.0879,790.14655,756.7033,-0.00079345703125,0.13677978515625,0.98114013671875,1.906585693359375,-3.90289306640625,0.19439697265625,1.0,1.0,1.0,1.0,1.0,90.0,event
12:11:21.367,0.51633054,0.04742991,0.9526551,0.49125588,0.03261163,-0.15915756,0.67672557,0.49413994,0.25221604,0.24503094,0.4902705,0.44445103,1.1295221,0.4642689,0.56913865,1.4092046,1.2245562,0.34908822,0.18035315,1.120282,811.50183,799.41394,789.7436,810.696,699.0842,-0.00079345703125,0.13677978515625,0.98114013671875,1.906585693359375,-3.90289306640625,0.19439697265625,1.0,1.0,1.0,1.0,1.0,90.0,event
12:11:21.368,0.51633054,0.04742991,0.9526551,0.49125588,0.03261163,-0.15915756,0.67672557,0.49413994,0.25221604,0.24503094,0.4902705,0.44445103,1.1295221,0.4642689,0.56913865,1.4092046,1.2245562,0.34908822,0.18035315,1.120282,828.8278,794.9817,782.8938,842.1245,691.4286,-0.00079345703125,0.13677978515625,0.98114013671875,1.906585693359375,-3.90289306640625,0.19439697265625,1.0,1.0,1.0,1.0,1.0,90.0,event
12:11:21.369,0.51633054,0.04742991,0.9526551,0.49125588,0.03261163,-0.15915756,0.67672557,0.49413994,0.25221604,0.24503094,0.4902705,0.44445103,1.1295221,0.4642689,0.56913865,1.4092046,1.2245562,0.34908822,0.18035315,1.120282,845.34796,795.38464,784.5055,846.1539,822.7839,-0.00079345703125,0.13677978515625,0.98114013671875,1.906585693359375,-3.90289306640625,0.19439697265625,1.0,1.0,1.0,1.0,1.0,90.0,event
12:11:21.370,0.51633054,0.04742991,0.9526551,0.49125588,0.03261163,-0.15915756,0.67672557,0.49413994,0.25221604,0.24503094,0.4902705,0.44445103,1.1295221,0.4642689,0.56913865,1.4092046,1.2245562,0.34908822,0.18035315,1.120282,832.4542,792.5641,791.75824,841.31866,836.4835,-0.00079345703125,0.13677978515625,0.98114013671875,1.906585693359375,-3.90289306640625,0.19439697265625,1.0,1.0,1.0,1.0,1.0,90.0,event
12:11:21.371,0.51633054,0.04742991,0.9526551,0.49125588,0.03261163,-0.15915756,0.67672557,0.49413994,0.25221604,0.24503094,0.4902705,0.44445103,1.1295221,0.4642689,0.56913865,1.4092046,1.2245562,0.34908822,0.18035315,1.120282,817.9487,777.25275,789.7436,829.2308,822.381,-0.00079345703125,0.13677978515625,0.98114013671875,1.906585693359375,-3.90289306640625,0.19439697265625,1.0,1.0,1.0,1.0,1.0,90.0,event
12:11:21.372,0.51633054,0.04742991,0.9526551,0.49125588,0.03261163,-0.15915756,0.67672557,0.49413994,0.25221604,0.24503094,0.4902705,0.44445103,1.1295221,0.4642689,0.56913865,1.4092046,1.2245562,0.34908822,0.18035315,1.120282,839.304,777.6557,789.34064,834.87177,830.84247,-0.00079345703125,0.13677978515625,0.98114013671875,1.906585693359375,-3.90289306640625,0.19439697265625,1.0,1.0,1.0,1.0,1.0,90.0,event
12:11:21.373,0.51633054,0.04742991,0.9526551,0.49125588,0.03261163,-0.15915756,0.67672557,0.49413994,0.25221604,0.24503094,0.4902705,0.44445103,1.1295221,0.4642689,0.56913865,1.4092046,1.2245562,0.34908822,0.18035315,1.120282,851.79486,800.2198,782.49084,850.18317,929.15753,-0.00079345703125,0.13677978515625,0.98114013671875,1.906585693359375,-3.90289306640625,0.19439697265625,1.0,1.0,1.0,1.0,1.0,90.0,event
12:11:21.374,0.51633054,0.04742991,0.9526551,0.49125588,0.03261163,-0.15915756,0.67672557,0.49413994,0.25221604,0.24503094,0.4902705,0.44445103,1.1295221,0.4642689,0.56913865,1.4092046,1.2245562,0.34908822,0.18035315,1.120282,870.7326,807.47253,778.0586,850.989,945.2747,-0.00079345703125,0.13677978515625,0.98114013671875,1.906585693359375,-3.90289306640625,0.19439697265625,1.0,1.0,1.0,1.0,1.0,90.0,event
12:11:21.374,0.51633054,0.08127223,0.91519684,0.49125588,0.03261163,-0.16723172,0.586191,0.49413994,0.25221604,0.24125619,0.48141822,0.44445103,1.1295221,0.45073485,0.54819334,1.4092046,1.2245562,0.3492432,0.19484907,1.120282,869.92676,814.3223,783.2967,853.8095,751.8681,-0.00079345703125,0.13677978515625,0.98114013671875,1.906585693359375,-3.90289306640625,0.19439697265625,1.0,1.0,1.0,1.0,1.0,90.0,event
12:11:21.378,0.51633054,0.08127223,0.91519684,0.49125588,0.03261163,-0.16723172,0.586191,0.49413994,0.25221604,0.24125619,0.48141822,0.44445103,1.1295221,0.45073485,0.54819334,1.4092046,1.2245562,0.3492432,0.19484907,1.120282,839.707,804.2491,798.60803,848.5714,720.4396,-0.00079345703125,0.13677978515625,0.98114013671875,1.906585693359375,-3.90289306640625,0.19439697265625,1.0,1.0,1.0,1.0,1.0,90.0,event
12:11:21.379,0.51633054,0.08127223,0.91519684,0.49125588,0.03261163,-0.16723172,0.586191,0.49413994,0.25221604,0.24125619,0.48141822,0.44445103,1.1295221,0.45073485,0.54819334,1.4092046,1.2245562,0.3492432,0.19484907,1.120282,833.2601,792.5641,803.0403,850.18317,753.8828,-0.00079345703125,0.13677978515625,0.98114013671875,1.906585693359375,-3.90289306640625,0.19439697265625,1.0,1.0,1.0,1.0,1.0,90.0,event
12:11:21.400,0.51633054,0.08127223,0.91519684,0.49125588,0.03261163,-0.16723172,0.586191,0.49413994,0.25221604,0.24125619,0.48141822,0.44445103,1.1295221,0.45073485,0.54819334,1.4092046,1.2245562,0.3492432,0.19484907,1.120282,836.8865,791.75824,789.7436,864.68866,761.9414,-0.001220703125,0.13818359375,0.981201171875,2.086029052734375,-3.93280029296875,0.4486083984375,1.0,1.0,1.0,1.0,1.0,90.0,event
12:11:21.401,0.51633054,0.08127223,0.91519684,0.49125588,0.03261163,-0.16723172,0.586191,0.49413994,0.25221604,0.24125619,0.48141822,0.44445103,1.1295221,0.45073485,0.54819334,1.4092046,1.2245562,0.3492432,0.19484907,1.120282,855.42126,798.60803,784.90845,883.22345,767.1795,-0.001220703125,0.13818359375,0.981201171875,2.086029052734375,-3.93280029296875,0.4486083984375,1.0,1.0,1.0,1.0,1.0,90.0,event
12:11:21.402,0.51633054,0.08127223,0.91519684,0.49125588,0.03261163,-0.16723172,0.586191,0.49413994,0.25221604,0.24125619,0.48141822,0.44445103,1.1295221,0.45073485,0.54819334,1.4092046,1.2245562,0.3492432,0.19484907,1.120282,865.4945,787.72894,792.5641,873.1502,731.7216,-0.001220703125,0.13818359375,0.981201171875,2.086029052734375,-3.93280029296875,0.4486083984375,1.0,1.0,1.0,1.0,1.0,90.0,event
12:11:21.402,0.51633054,0.08127223,0.91519684,0.49125588,0.03261163,-0.16723172,0.586191,0.49413994,0.25221604,0.24125619,0.48141822,0.44445103,1.1295221,0.45073485,0.54819334,1.4092046,1.2245562,0.3492432,0.19484907,1.120282,874.7619,797.3993,783.2967,879.59705,756.30035,-0.001220703125,0.13818359375,0.981201171875,2.086029052734375,-3.93280029296875,0.4486083984375,1.0,1.0,1.0,1.0,1.0,90.0,event
12:11:21.403,0.51633054,0.08127223,0.91519684,0.49125588,0.03261163,-0.16723172,0.586191,0.49413994,0.25221604,0.24125619,0.48141822,0.44445103,1.1295221,0.45073485,0.54819334,1.4092046,1.2245562,0.3492432,0.19484907,1.120282,861.06226,787.72894,805.8608,858.6447,747.4359,-0.001220703125,0.13818359375,0.981201171875,2.086029052734375,-3.93280029296875,0.4486083984375,1.0,1.0,1.0,1.0,1.0,90.0,event
12:11:21.403,0.51633054,0.08127223,0.91519684,0.49125588,0.03261163,-0.16723172,0.586191,0.49413994,0.25221604,0.24125619,0.48141822,0.44445103,1.1295221,0.45073485,0.54819334,1.4092046,1.2245562,0.3492432,0.19484907,1.120282,868.315,787.326,799.41394,867.1062,827.619,-0.001220703125,0.13818359375,0.981201171875,2.086029052734375,-3.93280029296875,0.4486083984375,1.0,1.0,1.0,1.0,1.0,90.0,event
12:11:21.404,0.51633054,0.08127223,0.91519684,0.49125588,0.03261163,-0.16723172,0.586191,0.49413994,0.25221604,0.24125619,0.48141822,0.44445103,1.1295221,0.45073485,0.54819334,1.4092046,1.2245562,0.3492432,0.19484907,1.120282,905.38464,793.36993,790.9524,893.69965,905.78754,-0.001220703125,0.13818359375,0.981201171875,2.086029052734375,-3.93280029296875,0.4486083984375,1.0,1.0,1.0,1.0,1.0,90.0,event
12:11:21.404,0.51633054,0.08127223,0.91519684,0.49125588,0.03261163,-0.16723172,0.586191,0.49413994,0.25221604,0.24125619,0.48141822,0.44445103,1.1295221,0.45073485,0.54819334,1.4092046,1.2245562,0.3492432,0.19484907,1.120282,920.293,803.0403,796.1905,879.59705,943.663,-0.001220703125,0.13818359375,0.981201171875,2.086029052734375,-3.93280029296875,0.4486083984375,1.0,1.0,1.0,1.0,1.0,90.0,event
12:11:21.405,0.51633054,0.08127223,0.91519684,0.49125588,0.03261163,-0.16723172,0.586191,0.49413994,0.25221604,0.24125619,0.48141822,0.44445103,1.1295221,0.45073485,0.54819334,1.4092046,1.2245562,0.3492432,0.19484907,1.120282,872.3443,790.54944,801.02563,869.12085,759.5238,-0.001220703125,0.13818359375,0.981201171875,2.086029052734375,-3.93280029296875,0.4486083984375,1.0,1.0,1.0,1.0,1.0,90.0,event
12:11:21.405,0.51633054,0.08127223,0.91519684,0.49125588,0.03261163,-0.16723172,0.586191,0.49413994,0.25221604,0.24125619,0.48141822,0.44445103,1.1295221,0.45073485,0.54819334,1.4092046,1.2245562,0.3492432,0.19484907,1.120282,857.03296,781.685,800.6227,889.2674,626.55676,-0.001220703125,0.13818359375,0.981201171875,2.086029052734375,-3.93280029296875,0.4486083984375,1.0,1.0,1.0,1.0,1.0,90.0,event
12:11:21.406,0.51633054,0.08127223,0.91519684,0.49125588,0.03261163,-0.16723172,0.586191,0.49413994,0.25221604,0.24125619,0.48141822,0.44445103,1.1295221,0.45073485,0.54819334,1.4092046,1.2245562,0.3492432,0.19484907,1.120282,873.1502,795.38464,799.41394,900.14655,802.6374,-0.001220703125,0.13818359375,0.981201171875,2.086029052734375,-3.93280029296875,0.4486083984375,1.0,1.0,1.0,1.0,1.0,90.0,event
12:11:21.406,0.51633054,0.08127223,0.91519684,0.49125588,0.03261163,-0.16723172,0.586191,0.49413994,0.25221604,0.24125619,0.48141822,0.44445103,1.1295221,0.45073485,0.54819334,1.4092046,1.2245562,0.3492432,0.19484907,1.120282,898.1319,808.2784,796.5934,882.4176,1005.31134,-0.001220703125,0.13818359375,0.981201171875,2.086029052734375,-3.93280029296875,0.4486083984375,1.0,1.0,1.0,1.0,1.0,90.0,event
12:11:21.445,0.51633054,0.08127223,0.91519684,0.49125588,0.03261163,-0.16723172,0.586191,0.49413994,0.25221604,0.24125619,0.48141822,0.44445103,1.1295221,0.45073485,0.54819334,1.4092046,1.2245562,0.3492432,0.19484907,1.120282,882.8205,809.0842,801.4286,871.53845,826.8132,-0.01068115234375,0.13299560546875,0.9810791015625,2.280426025390625,-4.02252197265625,0.59814453125,1.0,1.0,1.0,1.0,1.0,90.0,event
12:11:21.446,0.51633054,0.08127223,0.91519684,0.49125588,0.03261163,-0.16723172,0.586191,0.49413994,0.25221604,0.24125619,0.48141822,0.44445103,1.1295221,0.45073485,0.54819334,1.4092046,1.2245562,0.3492432,0.19484907,1.120282,850.18317,801.8315,799.011,868.315,782.0879,-0.01068115234375,0.13299560546875,0.9810791015625,2.280426025390625,-4.02252197265625,0.59814453125,1.0,1.0,1.0,1.0,1.0,90.0,event
12:11:21.447,0.51633054,0.08127223,0.91519684,0.49125588,0.03261163,-0.16723172,0.586191,0.49413994,0.25221604,0.24125619,0.48141822,0.44445103,1.1295221,0.45073485,0.54819334,1.4092046,1.2245562,0.3492432,0.19484907,1.120282,851.79486,789.7436,800.6227,864.2857,875.56775,-0.01068115234375,0.13299560546875,0.9810791015625,2.280426025390625,-4.02252197265625,0.59814453125,1.0,1.0,1.0,1.0,1.0,90.0,event
12:11:21.448,0.51633054,0.08127223,0.91519684,0.49125588,0.03261163,-0.16723172,0.586191,0.49413994,0.25221604,0.24125619,0.48141822,0.44445103,1.1295221,0.45073485,0.54819334,1.4092046,1.2245562,0.3492432,0.19484907,1.120282,858.6447,807.0696,788.5348,847.76556,815.9341,-0.01068115234375,0.13299560546875,0.9810791015625,2.280426025390625,-4.02252197265625,0.59814453125,1.0,1.0,1.0,1.0,1.0,90.0,event
12:11:21.448,0.51633054,0.08127223,0.91519684,0.49125588,0.03261163,-0.16723172,0.586191,0.49413994,0.25221604,0.24125619,0.48141822,0.44445103,1.1295221,0.45073485,0.54819334,1.4092046,1.2245562,0.3492432,0.19484907,1.120282,865.4945,813.1135,778.46155,859.0476,751.8681,-0.01068115234375,0.13299560546875,0.9810791015625,2.280426025390625,-4.02252197265625,0.59814453125,1.0,1.0,1.0,1.0,1.0,90.0,event
12:11:21.449,0.51633054,0.08127223,0.91519684,0.49125588,0.03261163,-0.16723172,0.586191,0.49413994,0.25221604,0.24125619,0.48141822,0.44445103,1.1295221,0.45073485,0.54819334,1.4092046,1.2245562,0.3492432,0.19484907,1.120282,860.2564,793.7729,794.57874,882.8205,768.7912,-0.01068115234375,0.13299560546875,0.9810791015625,2.280426025390625,-4.02252197265625,0.59814453125,1.0,1.0,1.0,1.0,1.0,90.0,event
12:11:21.449,0.51633054,0.08127223,0.91519684,0.49125588,0.03261163,-0.16723172,0.586191,0.49413994,0.25221604,0.24125619,0.48141822,0.44445103,1.1295221,0.45073485,0.54819334,1.4092046,1.2245562,0.3492432,0.19484907,1.120282,861.06226,788.93774,805.4579,877.98535,1012.1612,-0.01068115234375,0.13299560546875,0.9810791015625,2.280426025390625,-4.02252197265625,0.59814453125,1.0,1.0,1.0,1.0,1.0,90.0,event
12:11:21.450,0.51633054,0.08127223,0.91519684,0.49125588,0.03261163,-0.16723172,0.586191,0.49413994,0.25221604,0.24125619,0.48141822,0.44445103,1.1295221,0.45073485,0.54819334,1.4092046,1.2245562,0.3492432,0.19484907,1.120282,850.18317,806.26373,802.23444,871.9414,1048.4249,-0.01068115234375,0.13299560546875,0.9810791015625,2.280426025390625,-4.02252197265625,0.59814453125,1.0,1.0,1.0,1.0,1.0,90.0,event
12:11:21.450,0.51633054,0.08127223,0.91519684,0.49125588,0.03261163,-0.16723172,0.586191,0.49413994,0.25221604,0.24125619,0.48141822,0.44445103,1.1295221,0.45073485,0.54819334,1.4092046,1.2245562,0.3492432,0.19484907,1.120282,864.2857,807.0696,803.0403,857.4359,747.8388,-0.01068115234375,0.13299560546875,0.9810791015625,2.280426025390625,-4.02252197265625,0.59814453125,1.0,1.0,1.0,1.0,1.0,90.0,event
12:11:21.451,0.51633054,0.08127223,0.91519684,0.49125588,0.03261163,-0.16723172,0.586191,0.49413994,0.25221604,0.24125619,0.48141822,0.44445103,1.1295221,0.45073485,0.54819334,1.4092046,1.2245562,0.3492432,0.19484907,1.120282,889.2674,802.23444,798.60803,867.50916,716.0073,-0.01068115234375,0.13299560546875,0.9810791015625,2.280426025390625,-4.02252197265625,0.59814453125,1.0,1.0,1.0,1.0,1.0,90.0,event
12:11:21.452,0.51633054,0.14710012,0.8363854,0.49125588,0.03261163,-0.12958975,0.42223257,0.49413994,0.25221604,0.26763803,0.36978775,0.44445103,1.1295221,0.43749952,0.5233762,1.4092046,1.2245562,0.35423186,0.20820862,1.120282,857.4359,817.1429,788.1319,825.2015,828.8278,-0.01068115234375,0.13299560546875,0.9810791015625,2.280426025390625,-4.02252197265625,0.59814453125,1.0,1.0,1.0,1.0,1.0,90.0,event
12:11:21.452,0.51633054,0.08127223,0.91519684,0.49125588,0.03261163,-0.16723172,0.586191,0.49413994,0.25221604,0.24125619,0.48141822,0.44445103,1.1295221,0.45073485,0.54819334,1.4092046,1.2245562,0.3492432,0.19484907,1.120282,865.89746,821.978,781.28204,838.9011,830.84247,-0.01068115234375,0.13299560546875,0.9810791015625,2.280426025390625,-4.02252197265625,0.59814453125,1.0,1.0,1.0,1.0,1.0,90.0,event
12:11:21.455,,,,,,,,,,,,,,,,,,,,,,,,,,,,,,,,,,,,,,blink
12:11:21.491,0.51633054,0.14710012,0.8363854,0.49125588,0.03261163,-0.12958975,0.42223257,0.49413994,0.25221604,0.26763803,0.36978775,0.44445103,1.1295221,0.43749952,0.5233762,1.4092046,1.2245562,0.35423186,0.20820862,1.120282,834.4689,802.6374,796.1905,836.08057,759.92676,0.0047607421875,0.135009765625,0.979736328125,2.67669677734375,-4.3365478515625,0.814971923828125,1.0,1.0,1.0,1.0,1.0,90.0,event
12:11:21.492,0.51633054,0.14710012,0.8363854,0.49125588,0.03261163,-0.12958975,0.42223257,0.49413994,0.25221604,0.26763803,0.36978775,0.44445103,1.1295221,0.43749952,0.5233762,1.4092046,1.2245562,0.35423186,0.20820862,1.120282,824.7985,792.96704,790.9524,832.0513,778.46155,0.0047607421875,0.135009765625,0.979736328125,2.67669677734375,-4.3365478515625,0.814971923828125,1.0,1.0,1.0,1.0,1.0,90.0,event
12:11:21.493,0.51633054,0.14710012,0.8363854,0.49125588,0.03261163,-0.12958975,0.42223257,0.49413994,0.25221604,0.26763803,0.36978775,0.44445103,1.1295221,0.43749952,0.5233762,1.4092046,1.2245562,0.35423186,0.20820862,1.120282,844.5421,795.78754,794.57874,857.4359,899.7436,0.0047607421875,0.135009765625,0.979736328125,2.67669677734375,-4.3365478515625,0.814971923828125,1.0,1.0,1.0,1.0,1.0,90.0,event
12:11:21.493,0.51633054,0.14710012,0.8363854,0.49125588,0.03261163,-0.12958975,0.42223257,0.49413994,0.25221604,0.26763803,0.36978775,0.44445103,1.1295221,0.43749952,0.5233762,1.4092046,1.2245562,0.35423186,0.20820862,1.120282,840.9158,807.0696,788.1319,857.8388,825.2015,0.0047607421875,0.135009765625,0.979736328125,2.67669677734375,-4.3365478515625,0.814971923828125,1.0,1.0,1.0,1.0,1.0,90.0,event
12:11:21.494,0.51633054,0.14710012,0.8363854,0.49125588,0.03261163,-0.12958975,0.42223257,0.49413994,0.25221604,0.26763803,0.36978775,0.44445103,1.1295221,0.43749952,0.5233762,1.4092046,1.2245562,0.35423186,0.20820862,1.120282,831.2454,811.9048,786.52014,845.7509,778.86444,0.0047607421875,0.135009765625,0.979736328125,2.67669677734375,-4.3365478515625,0.814971923828125,1.0,1.0,1.0,1.0,1.0,90.0,event
12:11:21.494,0.51633054,0.14710012,0.8363854,0.49125588,0.03261163,-0.12958975,0.42223257,0.49413994,0.25221604,0.26763803,0.36978775,0.44445103,1.1295221,0.43749952,0.5233762,1.4092046,1.2245562,0.35423186,0.20820862,1.120282,850.58606,797.8022,800.6227,844.1392,869.5238,0.0047607421875,0.135009765625,0.979736328125,2.67669677734375,-4.3365478515625,0.814971923828125,1.0,1.0,1.0,1.0,1.0,90.0,event
12:11:21.495,0.51633054,0.14710012,0.8363854,0.49125588,0.03261163,-0.12958975,0.42223257,0.49413994,0.25221604,0.26763803,0.36978775,0.44445103,1.1295221,0.43749952,0.5233762,1.4092046,1.2245562,0.35423186,0.20820862,1.120282,884.0293,791.3553,804.65204,844.94507,1000.87915,0.0047607421875,0.135009765625,0.979736328125,2.67669677734375,-4.3365478515625,0.814971923828125,1.0,1.0,1.0,1.0,1.0,90.0,event
12:11:21.496,0.51633054,0.14710012,0.8363854,0.49125588,0.03261163,-0.12958975,0.42223257,0.49413994,0.25221604,0.26763803,0.36978775,0.44445103,1.1295221,0.43749952,0.5233762,1.4092046,1.2245562,0.35423186,0.20820862,1.120282,853.00366,803.44324,805.4579,855.0183,840.10986,0.0047607421875,0.135009765625,0.979736328125,2.67669677734375,-4.3365478515625,0.814971923828125,1.0,1.0,1.0,1.0,1.0,90.0,event
12:11:21.496,0.51633054,0.14710012,0.8363854,0.49125588,0.03261163,-0.12958975,0.42223257,0.49413994,0.25221604,0.26763803,0.36978775,0.44445103,1.1295221,0.43749952,0.5233762,1.4092046,1.2245562,0.35423186,0.20820862,1.120282,824.7985,807.8755,804.65204,836.08057,660.0,0.0047607421875,0.135009765625,0.979736328125,2.67669677734375,-4.3365478515625,0.814971923828125,1.0,1.0,1.0,1.0,1.0,90.0,event
12:11:21.497,0.51633054,0.14710012,0.8363854,0.49125588,0.03261163,-0.12958975,0.42223257,0.49413994,0.25221604,0.26763803,0.36978775,0.44445103,1.1295221,0.43749952,0.5233762,1.4092046,1.2245562,0.35423186,0.20820862,1.120282,850.18317,796.5934,805.4579,826.8132,821.1722,0.0047607421875,0.135009765625,0.979736328125,2.67669677734375,-4.3365478515625,0.814971923828125,1.0,1.0,1.0,1.0,1.0,90.0,event
12:11:21.497,0.51633054,0.14710012,0.8363854,0.49125588,0.03261163,-0.12958975,0.42223257,0.49413994,0.25221604,0.26763803,0.36978775,0.44445103,1.1295221,0.43749952,0.5233762,1.4092046,1.2245562,0.35423186,0.20820862,1.120282,844.1392,798.60803,799.81683,814.3223,794.9817,0.0047607421875,0.135009765625,0.979736328125,2.67669677734375,-4.3365478515625,0.814971923828125,1.0,1.0,1.0,1.0,1.0,90.0,event
12:11:21.498,0.51633054,0.14710012,0.8363854,0.49125588,0.03261163,-0.12958975,0.42223257,0.49413994,0.25221604,0.26763803,0.36978775,0.44445103,1.1295221,0.43749952,0.5233762,1.4092046,1.2245562,0.35423186,0.20820862,1.120282,823.9927,794.17584,804.2491,830.4396,727.28937,0.0047607421875,0.135009765625,0.979736328125,2.67669677734375,-4.3365478515625,0.814971923828125,1.0,1.0,1.0,1.0,1.0,90.0,event
12:11:21.526,0.51633054,0.14710012,0.8363854,0.49125588,0.03261163,-0.12958975,0.42223257,0.49413994,0.25221604,0.26763803,0.36978775,0.44445103,1.1295221,0.43749952,0.5233762,1.4092046,1.2245562,0.35423186,0.20820862,1.120282,813.5165,793.7729,791.75824,823.5897,792.96704,-0.0030517578125,0.141357421875,0.9759521484375,3.2000732421875,-3.910369873046875,0.441131591796875,1.0,1.0,1.0,1.0,1.0,90.0,event
12:11:21.527,0.51633054,0.14710012,0.8363854,0.49125588,0.03261163,-0.12958975,0.42223257,0.49413994,0.25221604,0.26763803,0.36978775,0.44445103,1.1295221,0.43749952,0.5233762,1.4092046,1.2245562,0.35423186,0.20820862,1.120282,800.2198,801.8315,788.5348,815.9341,877.98535,-0.0030517578125,0.141357421875,0.9759521484375,3.2000732421875,-3.910369873046875,0.441131591796875,1.0,1.0,1.0,1.0,1.0,90.0,event
12:11:21.527,0.51633054,0.14710012,0.8363854,0.49125588,0.03261163,-0.12958975,0.42223257,0.49413994,0.25221604,0.26763803,0.36978775,0.44445103,1.1295221,0.43749952,0.5233762,1.4092046,1.2245562,0.35423186,0.20820862,1.120282,801.4286,802.23444,789.7436,811.9048,848.97437,-0.0030517578125,0.141357421875,0.9759521484375,3.2000732421875,-3.910369873046875,0.441131591796875,1.0,1.0,1.0,1.0,1.0,90.0,event
12:11:21.528,0.51633054,0.14710012,0.8363854,0.49125588,0.03261163,-0.12958975,0.42223257,0.49413994,0.25221604,0.26763803,0.36978775,0.44445103,1.1295221,0.43749952,0.5233762,1.4092046,1.2245562,0.35423186,0.20820862,1.120282,830.84247,805.05493,788.93774,818.7546,737.76556,-0.0030517578125,0.141357421875,0.9759521484375,3.2000732421875,-3.910369873046875,0.441131591796875,1.0,1.0,1.0,1.0,1.0,90.0,event
12:11:21.529,0.51633054,0.14710012,0.8363854,0.49125588,0.03261163,-0.12958975,0.42223257,0.49413994,0.25221604,0.26763803,0.36978775,0.44445103,1.1295221,0.43749952,0.5233762,1.4092046,1.2245562,0.35423186,0.20820862,1.120282,844.5421,794.17584,793.7729,829.2308,703.5165,-0.0030517578125,0.141357421875,0.9759521484375,3.2000732421875,-3.910369873046875,0.441131591796875,1.0,1.0,1.0,1.0,1.0,90.0,event
12:11:21.529,0.51633054,0.14710012,0.8363854,0.49125588,0.03261163,-0.12958975,0.42223257,0.49413994,0.25221604,0.26763803,0.36978775,0.44445103,1.1295221,0.43749952,0.5233762,1.4092046,1.2245562,0.35423186,0.20820862,1.120282,853.00366,801.02563,798.60803,825.6044,825.6044,-0.0030517578125,0.141357421875,0.9759521484375,3.2000732421875,-3.910369873046875,0.441131591796875,1.0,1.0,1.0,1.0,1.0,90.0,event
12:11:21.530,0.51633054,0.14710012,0.8363854,0.49125588,0.03261163,-0.12958975,0.42223257,0.49413994,0.25221604,0.26763803,0.36978775,0.44445103,1.1295221,0.43749952,0.5233762,1.4092046,1.2245562,0.35423186,0.20820862,1.120282,833.2601,803.0403,803.0403,838.9011,926.7399,-0.0030517578125,0.141357421875,0.9759521484375,3.2000732421875,-3.910369873046875,0.441131591796875,1.0,1.0,1.0,1.0,1.0,90.0,event
12:11:21.531,0.51633054,0.14710012,0.8363854,0.49125588,0.03261163,-0.12958975,0.42223257,0.49413994,0.25221604,0.26763803,0.36978775,0.44445103,1.1295221,0.43749952,0.5233762,1.4092046,1.2245562,0.35423186,0.20820862,1.120282,819.9634,794.9817,809.89014,846.1539,780.4762,-0.0030517578125,0.141357421875,0.9759521484375,3.2000732421875,-3.910369873046875,0.441131591796875,1.0,1.0,1.0,1.0,1.0,90.0,event
12:11:21.532,0.51633054,0.14710012,0.8363854,0.49125588,0.03261163,-0.12958975,0.42223257,0.49413994,0.25221604,0.26763803,0.36978775,0.44445103,1.1295221,0.43749952,0.5233762,1.4092046,1.2245562,0.35423186,0.20820862,1.120282,820.3663,799.41394,807.8755,813.5165,703.91943,-0.0030517578125,0.141357421875,0.9759521484375,3.2000732421875,-3.910369873046875,0.441131591796875,1.0,1.0,1.0,1.0,1.0,90.0,event
12:11:21.532,0.51633054,0.14710012,0.8363854,0.49125588,0.03261163,-0.12958975,0.42223257,0.49413994,0.25221604,0.26763803,0.36978775,0.44445103,1.1295221,0.43749952,0.5233762,1.4092046,1.2245562,0.35423186,0.20820862,1.120282,801.4286,801.02563,803.8461,799.011,911.4286,-0.0030517578125,0.141357421875,0.9759521484375,3.2000732421875,-3.910369873046875,0.441131591796875,1.0,1.0,1.0,1.0,1.0,90.0,event
12:11:21.533,0.51633054,0.14710012,0.8363854,0.49125588,0.03261163,-0.12958975,0.42223257,0.49413994,0.25221604,0.26763803,0.36978775,0.44445103,1.1295221,0.43749952,0.5233762,1.4092046,1.2245562,0.35423186,0.20820862,1.120282,814.7253,797.3993,806.26373,808.2784,847.76556,-0.0030517578125,0.141357421875,0.9759521484375,3.2000732421875,-3.910369873046875,0.441131591796875,1.0,1.0,1.0,1.0,1.0,90.0,event
12:11:21.534,0.51633054,0.14710012,0.8363854,0.49125588,0.03261163,-0.12958975,0.42223257,0.49413994,0.25221604,0.26763803,0.36978775,0.44445103,1.1295221,0.43749952,0.5233762,1.4092046,1.2245562,0.35423186,0.20820862,1.120282,842.52747,801.8315,801.4286,829.2308,699.0842,-0.0030517578125,0.141357421875,0.9759521484375,3.2000732421875,-3.910369873046875,0.441131591796875,1.0,1.0,1.0,1.0,1.0,90.0,event
12:11:21.562,0.51633054,0.14710012,0.8363854,0.49125588,0.03261163,-0.12958975,0.42223257,0.49413994,0.25221604,0.26763803,0.36978775,0.44445103,1.1295221,0.43749952,0.5233762,1.4092046,1.2245562,0.35423186,0.20820862,1.120282,830.0366,818.7546,794.17584,833.663,763.1502,-0.0030517578125,0.141357421875,0.9759521484375,3.2000732421875,-3.910369873046875,0.441131591796875,1.0,1.0,1.0,1.0,1.0,90.0,event
12:11:21.563,0.51633054,0.26041213,0.7318618,0.49125588,0.03261163,-0.01223691,0.2005299,0.49413994,0.25221604,0.30265772,0.26173484,0.44445103,1.1295221,0.42870224,0.5053577,1.4092046,1.2245562,0.35685873,0.2197524,1.120282,805.4579,803.8461,796.1905,818.3516,751.06226,-0.0030517578125,0.141357421875,0.9759521484375,3.2000732421875,-3.910369873046875,0.441131591796875,1.0,1.0,1.0,1.0,1.0,90.0,event
12:11:21.568,0.51633054,0.26041213,0.7318618,0.49125588,0.03261163,-0.01223691,0.2005299,0.49413994,0.25221604,0.30265772,0.26173484,0.44445103,1.1295221,0.42870224,0.5053577,1.4092046,1.2245562,0.35685873,0.2197524,1.120282,849.3773,776.4469,807.0696,836.08057,689.41394,-0.0030517578125,0.141357421875,0.9759521484375,3.2000732421875,-3.910369873046875,0.441131591796875,1.0,1.0,1.0,1.0,1.0,90.0,event
12:11:21.569,0.51633054,0.26041213,0.7318618,0.49125588,0.03261163,-0.01223691,0.2005299,0.49413994,0.25221604,0.30265772,0.26173484,0.44445103,1.1295221,0.42870224,0.5053577,1.4092046,1.2245562,0.35685873,0.2197524,1.120282,831.2454,798.20514,804.2491,811.50183,732.9304,-0.0030517578125,0.141357421875,0.9759521484375,3.2000732421875,-3.910369873046875,0.441131591796875,1.0,1.0,1.0,1.0,1.0,90.0,event
12:11:21.569,0.51633054,0.26041213,0.7318618,0.49125588,0.03261163,-0.01223691,0.2005299,0.49413994,0.25221604,0.30265772,0.26173484,0.44445103,1.1295221,0.42870224,0.5053577,1.4092046,1.2245562,0.35685873,0.2197524,1.120282,786.1172,805.4579,793.36993,774.83514,817.5458,-0.0030517578125,0.141357421875,0.9759521484375,3.2000732421875,-3.910369873046875,0.441131591796875,1.0,1.0,1.0,1.0,1.0,90.0,event
12:11:21.570,0.51633054,0.26041213,0.7318618,0.49125588,0.03261163,-0.01223691,0.2005299,0.49413994,0.25221604,0.30265772,0.26173484,0.44445103,1.1295221,0.42870224,0.5053577,1.4092046,1.2245562,0.35685873,0.2197524,1.120282,826.4103,798.20514,788.93774,811.50183,958.97437,-0.0030517578125,0.141357421875,0.9759521484375,3.2000732421875,-3.910369873046875,0.441131591796875,1.0,1.0,1.0,1.0,1.0,90.0,event
12:11:21.571,0.51633054,0.26041213,0.7318618,0.49125588,0.03261163,-0.01223691,0.2005299,0.49413994,0.25221604,0.30265772,0.26173484,0.44445103,1.1295221,0.42870224,0.5053577,1.4092046,1.2245562,0.35685873,0.2197524,1.120282,862.674,808.2784,792.1612,826.8132,869.92676,-0.0030517578125,0.141357421875,0.9759521484375,3.2000732421875,-3.910369873046875,0.441131591796875,1.0,1.0,1.0,1.0,1.0,90.0,event
12:11:21.573,0.51633054,0.26041213,0.7318618,0.49125588,0.03261163,-0.01223691,0.2005299,0.49413994,0.25221604,0.30265772,0.26173484,0.44445103,1.1295221,0.42870224,0.5053577,1.4092046,1.2245562,0.35685873,0.2197524,1.120282,816.7399,784.90845,806.26373,819.9634,695.8608,-0.0030517578125,0.141357421875,0.9759521484375,3.2000732421875,-3.910369873046875,0.441131591796875,1.0,1.0,1.0,1.0,1.0,90.0,event
12:11:21.574,0.51633054,0.26041213,0.7318618,0.49125588,0.03261163,-0.01223691,0.2005299,0.49413994,0.25221604,0.30265772,0.26173484,0.44445103,1.1295221,0.42870224,0.5053577,1.4092046,1.2245562,0.35685873,0.2197524,1.120282,798.60803,779.67035,807.8755,828.022,749.45056,-0.0030517578125,0.141357421875,0.9759521484375,3.2000732421875,-3.910369873046875,0.441131591796875,1.0,1.0,1.0,1.0,1.0,90.0,event
12:11:21.576,0.51633054,0.26041213,0.7318618,0.49125588,0.03261163,-0.01223691,0.2005299,0.49413994,0.25221604,0.30265772,0.26173484,0.44445103,1.1295221,0.42870224,0.5053577,1.4092046,1.2245562,0.35685873,0.2197524,1.120282,815.12823,804.65204,802.6374,793.7729,862.27106,-0.0030517578125,0.141357421875,0.9759521484375,3.2000732421875,-3.910369873046875,0.441131591796875,1.0,1.0,1.0,1.0,1.0,90.0,event
12:11:21.577,0.51633054,0.26041213,0.7318618,0.49125588,0.03261163,-0.01223691,0.2005299,0.49413994,0.25221604,0.30265772,0.26173484,0.44445103,1.1295221,0.42870224,0.5053577,1.4092046,1.2245562,0.35685873,0.2197524,1.120282,822.381,802.23444,803.44324,809.89014,745.42126,-0.0030517578125,0.141357421875,0.9759521484375,3.2000732421875,-3.910369873046875,0.441131591796875,1.0,1.0,1.0,1.0,1.0,90.0,event
12:11:21.577,0.51633054,0.26041213,0.7318618,0.49125588,0.03261163,-0.01223691,0.2005299,0.49413994,0.25221604,0.30265772,0.26173484,0.44445103,1.1295221,0.42870224,0.5053577,1.4092046,1.2245562,0.35685873,0.2197524,1.120282,831.2454,792.96704,809.0842,836.08057,742.1978,-0.0030517578125,0.141357421875,0.9759521484375,3.2000732421875,-3.910369873046875,0.441131591796875,1.0,1.0,1.0,1.0,1.0,90.0,event
12:11:21.625,0.51633054,0.26041213,0.7318618,0.49125588,0.03261163,-0.01223691,0.2005299,0.49413994,0.25221604,0.30265772,0.26173484,0.44445103,1.1295221,0.42870224,0.5053577,1.4092046,1.2245562,0.35685873,0.2197524,1.120282,826.0073,805.4579,807.8755,802.6374,806.6667,0.00042724609375,0.14410400390625,0.97735595703125,3.87298583984375,-4.5159912109375,0.351409912109375,1.0,1.0,1.0,1.0,1.0,90.0,event
12:11:21.626,0.51633054,0.26041213,0.7318618,0.49125588,0.03261163,-0.01223691,0.2005299,0.49413994,0.25221604,0.30265772,0.26173484,0.44445103,1.1295221,0.42870224,0.5053577,1.4092046,1.2245562,0.35685873,0.2197524,1.120282,829.2308,797.3993,805.4579,788.93774,757.9121,0.00042724609375,0.14410400390625,0.97735595703125,3.87298583984375,-4.5159912109375,0.351409912109375,1.0,1.0,1.0,1.0,1.0,90.0,event
12:11:21.627,0.51633054,0.26041213,0.7318618,0.49125588,0.03261163,-0.01223691,0.2005299,0.49413994,0.25221604,0.30265772,0.26173484,0.44445103,1.1295221,0.42870224,0.5053577,1.4092046,1.2245562,0.35685873,0.2197524,1.120282,797.3993,788.5348,799.011,790.9524,680.9524,0.00042724609375,0.14410400390625,0.97735595703125,3.87298583984375,-4.5159912109375,0.351409912109375,1.0,1.0,1.0,1.0,1.0,90.0,event
12:11:21.627,0.51633054,0.26041213,0.7318618,0.49125588,0.03261163,-0.01223691,0.2005299,0.49413994,0.25221604,0.30265772,0.26173484,0.44445103,1.1295221,0.42870224,0.5053577,1.4092046,1.2245562,0.35685873,0.2197524,1.120282,770.40295,800.6227,792.1612,808.68134,753.0769,0.00042724609375,0.14410400390625,0.97735595703125,3.87298583984375,-4.5159912109375,0.351409912109375,1.0,1.0,1.0,1.0,1.0,90.0,event
12:11:21.628,0.51633054,0.26041213,0.7318618,0.49125588,0.03261163,-0.01223691,0.2005299,0.49413994,0.25221604,0.30265772,0.26173484,0.44445103,1.1295221,0.42870224,0.5053577,1.4092046,1.2245562,0.35685873,0.2197524,1.120282,817.1429,795.38464,803.0403,833.2601,861.4652,0.00042724609375,0.14410400390625,0.97735595703125,3.87298583984375,-4.5159912109375,0.351409912109375,1.0,1.0,1.0,1.0,1.0,90.0,event
12:11:21.629,0.51633054,0.26041213,0.7318618,0.49125588,0.03261163,-0.01223691,0.2005299,0.49413994,0.25221604,0.30265772,0.26173484,0.44445103,1.1295221,0.42870224,0.5053577,1.4092046,1.2245562,0.35685873,0.2197524,1.120282,809.89014,791.75824,810.293,800.6227,832.4542,0.00042724609375,0.14410400390625,0.97735595703125,3.87298583984375,-4.5159912109375,0.351409912109375,1.0,1.0,1.0,1.0,1.0,90.0,event
12:11:21.629,0.51633054,0.26041213,0.7318618,0.49125588,0.03261163,-0.01223691,0.2005299,0.49413994,0.25221604,0.30265772,0.26173484,0.44445103,1.1295221,0.42870224,0.5053577,1.4092046,1.2245562,0.35685873,0.2197524,1.120282,789.7436,793.7729,806.6667,769.59705,801.8315,0.00042724609375,0.14410400390625,0.97735595703125,3.87298583984375,-4.5159912109375,0.351409912109375,1.0,1.0,1.0,1.0,1.0,90.0,event
12:11:21.630,0.51633054,0.26041213,0.7318618,0.49125588,0.03261163,-0.01223691,0.2005299,0.49413994,0.25221604,0.30265772,0.26173484,0.44445103,1.1295221,0.42870224,0.5053577,1.4092046,1.2245562,0.35685873,0.2197524,1.120282,809.0842,792.1612,803.44324,804.65204,1035.9341,0.00042724609375,0.14410400390625,0.97735595703125,3.87298583984375,-4.5159912109375,0.351409912109375,1.0,1.0,1.0,1.0,1.0,90.0,event
12:11:21.630,0.51633054,0.26041213,0.7318618,0.49125588,0.03261163,-0.01223691,0.2005299,0.49413994,0.25221604,0.30265772,0.26173484,0.44445103,1.1295221,0.42870224,0.5053577,1.4092046,1.2245562,0.35685873,0.2197524,1.120282,825.2015,798.60803,792.5641,792.96704,840.10986,0.00042724609375,0.14410400390625,0.97735595703125,3.87298583984375,-4.5159912109375,0.351409912109375,1.0,1.0,1.0,1.0,1.0,90.0,event
12:11:21.630,0.51633054,0.26041213,0.7318618,0.49125588,0.03261163,-0.01223691,0.2005299,0.49413994,0.25221604,0.30265772,0.26173484,0.44445103,1.1295221,0.42870224,0.5053577,1.4092046,1.2245562,0.35685873,0.2197524,1.120282,828.4249,795.38464,792.5641,808.2784,1002.49084,0.00042724609375,0.14410400390625,0.97735595703125,3.87298583984375,-4.5159912109375,0.351409912109375,1.0,1.0,1.0,1.0,1.0,90.0,event
12:11:21.631,0.51633054,0.26041213,0.7318618,0.49125588,0.03261163,-0.01223691,0.2005299,0.49413994,0.25221604,0.30265772,0.26173484,0.44445103,1.1295221,0.42870224,0.5053577,1.4092046,1.2245562,0.35685873,0.2197524,1.120282,798.60803,796.5934,807.0696,810.696,796.99634,0.00042724609375,0.14410400390625,0.97735595703125,3.87298583984375,-4.5159912109375,0.351409912109375,1.0,1.0,1.0,1.0,1.0,90.0,event
12:11:21.632,0.51633054,0.26041213,0.7318618,0.49125588,0.03261163,-0.01223691,0.2005299,0.49413994,0.25221604,0.30265772,0.26173484,0.44445103,1.1295221,0.42870224,0.5053577,1.4092046,1.2245562,0.35685873,0.2197524,1.120282,759.5238,813.1135,815.9341,789.34064,736.9597,0.00042724609375,0.14410400390625,0.97735595703125,3.87298583984375,-4.5159912109375,0.351409912109375,1.0,1.0,1.0,1.0,1.0,90.0,event
12:11:21.662,0.51633054,0.26041213,0.7318618,0.49125588,0.03261163,-0.01223691,0.2005299,0.49413994,0.25221604,0.30265772,0.26173484,0.44445103,1.1295221,0.42870224,0.5053577,1.4092046,1.2245562,0.35685873,0.2197524,1.120282,766.77655,824.3956,797.8022,779.2674,751.8681,0.00518798828125,0.1439208984375,0.9791259765625,3.925323486328125,-3.895416259765625,0.396270751953125,1.0,1.0,1.0,1.0,1.0,90.0,event
12:11:21.663,0.51633054,0.26041213,0.7318618,0.49125588,0.03261163,-0.01223691,0.2005299,0.49413994,0.25221604,0.30265772,0.26173484,0.44445103,1.1295221,0.42870224,0.5053577,1.4092046,1.2245562,0.35685873,0.2197524,1.120282,792.1612,807.47253,793.7729,791.75824,720.84247,0.00518798828125,0.1439208984375,0.9791259765625,3.925323486328125,-3.895416259765625,0.396270751953125,1.0,1.0,1.0,1.0,1.0,90.0,event
12:11:21.664,0.51633054,0.26041213,0.7318618,0.49125588,0.03261163,-0.01223691,0.2005299,0.49413994,0.25221604,0.30265772,0.26173484,0.44445103,1.1295221,0.42870224,0.5053577,1.4092046,1.2245562,0.35685873,0.2197524,1.120282,804.65204,810.293,809.0842,775.2381,715.2015,0.00518798828125,0.1439208984375,0.9791259765625,3.925323486328125,-3.895416259765625,0.396270751953125,1.0,1.0,1.0,1.0,1.0,90.0,event
12:11:21.665,0.51633054,0.40144014,0.8691511,0.49125588,0.03261163,0.14736886,0.35675105,0.49413994,0.25221604,0.32523918,0.31284097,0.44445103,1.1295221,0.4273774,0.5019065,1.4092046,1.2245562,0.35260555,0.21936251,1.120282,853.00366,801.4286,796.99634,797.3993,718.4249,0.00518798828125,0.1439208984375,0.9791259765625,3.925323486328125,-3.895416259765625,0.396270751953125,1.0,1.0,1.0,1.0,1.0,90.0,event
12:11:21.669,0.51633054,0.40144014,0.8691511,0.49125588,0.03261163,0.14736886,0.35675105,0.49413994,0.25221604,0.32523918,0.31284097,0.44445103,1.1295221,0.4273774,0.5019065,1.4092046,1.2245562,0.35260555,0.21936251,1.120282,792.5641,789.7436,801.4286,794.9817,855.82416,0.00518798828125,0.1439208984375,0.9791259765625,3.925323486328125,-3.895416259765625,0.396270751953125,1.0,1.0,1.0,1.0,1.0,90.0,event
12:11:21.669,0.51633054,0.40144014,0.8691511,0.49125588,0.03261163,0.14736886,0.35675105,0.49413994,0.25221604,0.32523918,0.31284097,0.44445103,1.1295221,0.4273774,0.5019065,1.4092046,1.2245562,0.35260555,0.21936251,1.120282,832.0513,793.36993,785.7143,793.36993,759.12085,0.00518798828125,0.1439208984375,0.9791259765625,3.925323486328125,-3.895416259765625,0.396270751953125,1.0,1.0,1.0,1.0,1.0,90.0,event
12:11:21.670,0.51633054,0.40144014,0.8691511,0.49125588,0.03261163,0.14736886,0.35675105,0.49413994,0.25221604,0.32523918,0.31284097,0.44445103,1.1295221,0.4273774,0.5019065,1.4092046,1.2245562,0.35260555,0.21936251,1.120282,808.68134,793.36993,814.7253,796.99634,826.0073,0.00518798828125,0.1439208984375,0.9791259765625,3.925323486328125,-3.895416259765625,0.396270751953125,1.0,1.0,1.0,1.0,1.0,90.0,event
12:11:21.671,0.51633054,0.40144014,0.8691511,0.49125588,0.03261163,0.14736886,0.35675105,0.49413994,0.25221604,0.32523918,0.31284097,0.44445103,1.1295221,0.4273774,0.5019065,1.4092046,1.2245562,0.35260555,0.21936251,1.120282,811.9048,799.81683,804.65204,811.50183,857.8388,0.00518798828125,0.1439208984375,0.9791259765625,3.925323486328125,-3.895416259765625,0.396270751953125,1.0,1.0,1.0,1.0,1.0,90.0,event
12:11:21.671,0.51633054,0.40144014,0.8691511,0.49125588,0.03261163,0.14736886,0.35675105,0.49413994,0.25221604,0.32523918,0.31284097,0.44445103,1.1295221,0.4273774,0.5019065,1.4092046,1.2245562,0.35260555,0.21936251,1.120282,795.78754,799.41394,799.81683,822.7839,1087.5092,0.00518798828125,0.1439208984375,0.9791259765625,3.925323486328125,-3.895416259765625,0.396270751953125,1.0,1.0,1.0,1.0,1.0,90.0,event
12:11:21.672,0.51633054,0.40144014,0.8691511,0.49125588,0.03261163,0.14736886,0.35675105,0.49413994,0.25221604,0.32523918,0.31284097,0.44445103,1.1295221,0.4273774,0.5019065,1.4092046,1.2245562,0.35260555,0.21936251,1.120282,804.65204,811.0989,795.38464,797.8022,908.20514,0.00518798828125,0.1439208984375,0.9791259765625,3.925323486328125,-3.895416259765625,0.396270751953125,1.0,1.0,1.0,1.0,1.0,90.0,event
12:11:21.673,0.51633054,0.40144014,0.8691511,0.49125588,0.03261163,0.14736886,0.35675105,0.49413994,0.25221604,0.32523918,0.31284097,0.44445103,1.1295221,0.4273774,0.5019065,1.4092046,1.2245562,0.35260555,0.21936251,1.120282,820.3663,813.1135,789.7436,789.7436,705.12823,0.00518798828125,0.1439208984375,0.9791259765625,3.925323486328125,-3.895416259765625,0.396270751953125,1.0,1.0,1.0,1.0,1.0,90.0,event
12:11:21.673,0.51633054,0.40144014,0.8691511,0.49125588,0.03261163,0.14736886,0.35675105,0.49413994,0.25221604,0.32523918,0.31284097,0.44445103,1.1295221,0.4273774,0.5019065,1.4092046,1.2245562,0.35260555,0.21936251,1.120282,807.47253,795.78754,797.3993,814.3223,762.3443,0.00518798828125,0.1439208984375,0.9791259765625,3.925323486328125,-3.895416259765625,0.396270751953125,1.0,1.0,1.0,1.0,1.0,90.0,event
12:11:21.699,0.51633054,0.40144014,0.8691511,0.49125588,0.03261163,0.14736886,0.35675105,0.49413994,0.25221604,0.32523918,0.31284097,0.44445103,1.1295221,0.4273774,0.5019065,1.4092046,1.2245562,0.35260555,0.21936251,1.120282,780.87915,796.1905,808.2784,831.6484,930.3663,-0.00592041015625,0.14068603515625,0.98431396484375,3.22998046875,-4.97955322265625,-0.097198486328125,1.0,1.0,1.0,1.0,1.0,90.0,event
12:11:21.700,0.51633054,0.40144014,0.8691511,0.49125588,0.03261163,0.14736886,0.35675105,0.49413994,0.25221604,0.32523918,0.31284097,0.44445103,1.1295221,0.4273774,0.5019065,1.4092046,1.2245562,0.35260555,0.21936251,1.120282,813.1135,801.4286,805.8608,807.8755,788.93774,-0.00592041015625,0.14068603515625,0.98431396484375,3.22998046875,-4.97955322265625,-0.097198486328125,1.0,1.0,1.0,1.0,1.0,90.0,event
12:11:21.701,0.51633054,0.40144014,0.8691511,0.49125588,0.03261163,0.14736886,0.35675105,0.49413994,0.25221604,0.32523918,0.31284097,0.44445103,1.1295221,0.4273774,0.5019065,1.4092046,1.2245562,0.35260555,0.21936251,1.120282,818.7546,802.6374,805.4579,803.44324,647.9121,-0.00592041015625,0.14068603515625,0.98431396484375,3.22998046875,-4.97955322265625,-0.097198486328125,1.0,1.0,1.0,1.0,1.0,90.0,event
12:11:21.702,0.51633054,0.40144014,0.8691511,0.49125588,0.03261163,0.14736886,0.35675105,0.49413994,0.25221604,0.32523918,0.31284097,0.44445103,1.1295221,0.4273774,0.5019065,1.4092046,1.2245562,0.35260555,0.21936251,1.120282,819.15753,807.47253,792.1612,821.978,751.4652,-0.00592041015625,0.14068603515625,0.98431396484375,3.22998046875,-4.97955322265625,-0.097198486328125,1.0,1.0,1.0,1.0,1.0,90.0,event
12:11:21.703,0.51633054,0.40144014,0.8691511,0.49125588,0.03261163,0.14736886,0.35675105,0.49413994,0.25221604,0.32523918,0.31284097,0.44445103,1.1295221,0.4273774,0.5019065,1.4092046,1.2245562,0.35260555,0.21936251,1.120282,793.36993,807.47253,787.72894,794.57874,749.0476,-0.00592041015625,0.14068603515625,0.98431396484375,3.22998046875,-4.97955322265625,-0.097198486328125,1.0,1.0,1.0,1.0,1.0,90.0,event
12:11:21.704,0.51633054,0.40144014,0.8691511,0.49125588,0.03261163,0.14736886,0.35675105,0.49413994,0.25221604,0.32523918,0.31284097,0.44445103,1.1295221,0.4273774,0.5019065,1.4092046,1.2245562,0.35260555,0.21936251,1.120282,772.8205,806.26373,803.44324,772.01465,831.2454,-0.00592041015625,0.14068603515625,0.98431396484375,3.22998046875,-4.97955322265625,-0.097198486328125,1.0,1.0,1.0,1.0,1.0,90.0,event
12:11:21.704,0.51633054,0.40144014,0.8691511,0.49125588,0.03261163,0.14736886,0.35675105,0.49413994,0.25221604,0.32523918,0.31284097,0.44445103,1.1295221,0.4273774,0.5019065,1.4092046,1.2245562,0.35260555,0.21936251,1.120282,830.84247,804.65204,805.4579,790.54944,840.5128,-0.00592041015625,0.14068603515625,0.98431396484375,3.22998046875,-4.97955322265625,-0.097198486328125,1.0,1.0,1.0,1.0,1.0,90.0,event
12:11:21.705,0.51633054,0.40144014,0.8691511,0.49125588,0.03261163,0.14736886,0.35675105,0.49413994,0.25221604,0.32523918,0.31284097,0.44445103,1.1295221,0.4273774,0.5019065,1.4092046,1.2245562,0.35260555,0.21936251,1.120282,843.3333,808.68134,792.96704,811.0989,886.4469,-0.00592041015625,0.14068603515625,0.98431396484375,3.22998046875,-4.97955322265625,-0.097198486328125,1.0,1.0,1.0,1.0,1.0,90.0,event
12:11:21.706,0.51633054,0.40144014,0.8691511,0.49125588,0.03261163,0.14736886,0.35675105,0.49413994,0.25221604,0.32523918,0.31284097,0.44445103,1.1295221,0.4273774,0.5019065,1.4092046,1.2245562,0.35260555,0.21936251,1.120282,778.86444,809.0842,800.6227,780.07324,891.28204,-0.00592041015625,0.14068603515625,0.98431396484375,3.22998046875,-4.97955322265625,-0.097198486328125,1.0,1.0,1.0,1.0,1.0,90.0,event
12:11:21.707,0.51633054,0.40144014,0.8691511,0.49125588,0.03261163,0.14736886,0.35675105,0.49413994,0.25221604,0.32523918,0.31284097,0.44445103,1.1295221,0.4273774,0.5019065,1.4092046,1.2245562,0.35260555,0.21936251,1.120282,767.5824,807.8755,797.8022,782.49084,719.2308,-0.00592041015625,0.14068603515625,0.98431396484375,3.22998046875,-4.97955322265625,-0.097198486328125,1.0,1.0,1.0,1.0,1.0,90.0,event
12:11:21.708,0.51633054,0.40144014,0.8691511,0.49125588,0.03261163,0.14736886,0.35675105,0.49413994,0.25221604,0.32523918,0.31284097,0.44445103,1.1295221,0.4273774,0.5019065,1.4092046,1.2245562,0.35260555,0.21936251,1.120282,791.3553,817.1429,791.3553,799.81683,707.5458,-0.00592041015625,0.14068603515625,0.98431396484375,3.22998046875,-4.97955322265625,-0.097198486328125,1.0,1.0,1.0,1.0,1.0,90.0,event
12:11:21.709,0.51633054,0.40144014,0.8691511,0.49125588,0.03261163,0.14736886,0.35675105,0.49413994,0.25221604,0.32523918,0.31284097,0.44445103,1.1295221,0.4273774,0.5019065,1.4092046,1.2245562,0.35260555,0.21936251,1.120282,799.011,811.0989,792.96704,772.01465,776.04395,-0.00592041015625,0.14068603515625,0.98431396484375,3.22998046875,-4.97955322265625,-0.097198486328125,1.0,1.0,1.0,1.0,1.0,90.0,event
12:11:21.758,0.51633054,0.40144014,0.8691511,0.49125588,0.03261163,0.14736886,0.35675105,0.49413994,0.25221604,0.32523918,0.31284097,0.44445103,1.1295221,0.4273774,0.5019065,1.4092046,1.2245562,0.35260555,0.21936251,1.120282,823.1868,790.9524,799.81683,795.38464,797.3993,0.00048828125,0.14666748046875,0.9747314453125,4.05242919921875,-4.074859619140625,0.396270751953125,1.0,1.0,1.0,1.0,1.0,90.0,event
12:11:21.759,0.51633054,0.40144014,0.8691511,0.49125588,0.03261163,0.14736886,0.35675105,0.49413994,0.25221604,0.32523918,0.31284097,0.44445103,1.1295221,0.4273774,0.5019065,1.4092046,1.2245562,0.35260555,0.21936251,1.120282,821.978,798.20514,801.8315,827.619,810.696,0.00048828125,0.14666748046875,0.9747314453125,4.05242919921875,-4.074859619140625,0.396270751953125,1.0,1.0,1.0,1.0,1.0,90.0,event
12:11:21.759,0.51633054,0.40144014,0.8691511,0.49125588,0.03261163,0.14736886,0.35675105,0.49413994,0.25221604,0.32523918,0.31284097,0.44445103,1.1295221,0.4273774,0.5019065,1.4092046,1.2245562,0.35260555,0.21936251,1.120282,816.7399,811.50183,804.2491,801.02563,818.3516,0.00048828125,0.14666748046875,0.9747314453125,4.05242919921875,-4.074859619140625,0.396270751953125,1.0,1.0,1.0,1.0,1.0,90.0,event
12:11:21.760,0.51633054,0.40144014,0.8691511,0.49125588,0.03261163,0.14736886,0.35675105,0.49413994,0.25221604,0.32523918,0.31284097,0.44445103,1.1295221,0.4273774,0.5019065,1.4092046,1.2245562,0.35260555,0.21936251,1.120282,803.8461,805.8608,797.3993,779.67035,838.9011,0.00048828125,0.14666748046875,0.9747314453125,4.05242919921875,-4.074859619140625,0.396270751953125,1.0,1.0,1.0,1.0,1.0,90.0,event
12:11:21.761,0.51633054,0.40144014,0.8691511,0.49125588,0.03261163,0.14736886,0.35675105,0.49413994,0.25221604,0.32523918,0.31284097,0.44445103,1.1295221,0.4273774,0.5019065,1.4092046,1.2245562,0.35260555,0.21936251,1.120282,800.6227,816.7399,787.326,776.8498,728.49817,0.00048828125,0.14666748046875,0.9747314453125,4.05242919921875,-4.074859619140625,0.396270751953125,1.0,1.0,1.0,1.0,1.0,90.0,event
12:11:21.762,0.51633054,0.5295169,0.9313111,0.49125588,0.03261163,0.28742585,0.4752372,0.49413994,0.25221604,0.36975345,0.3354259,0.44445103,1.1295221,0.43202046,0.49339342,1.4092046,1.2245562,0.34529623,0.21685696,1.120282,788.5348,812.71063,785.7143,772.01465,714.3956,0.00048828125,0.14666748046875,0.9747314453125,4.05242919921875,-4.074859619140625,0.396270751953125,1.0,1.0,1.0,1.0,1.0,90.0,event
12:11:21.766,0.51633054,0.5295169,0.9313111,0.49125588,0.03261163,0.28742585,0.4752372,0.49413994,0.25221604,0.36975345,0.3354259,0.44445103,1.1295221,0.43202046,0.49339342,1.4092046,1.2245562,0.34529623,0.21685696,1.120282,799.011,799.41394,805.8608,774.43225,835.2747,0.00048828125,0.14666748046875,0.9747314453125,4.05242919921875,-4.074859619140625,0.396270751953125,1.0,1.0,1.0,1.0,1.0,90.0,event
12:11:21.767,0.51633054,0.5295169,0.9313111,0.49125588,0.03261163,0.28742585,0.4752372,0.49413994,0.25221604,0.36975345,0.3354259,0.44445103,1.1295221,0.43202046,0.49339342,1.4092046,1.2245562,0.34529623,0.21685696,1.120282,809.0842,803.0403,805.8608,799.41394,969.0476,0.00048828125,0.14666748046875,0.9747314453125,4.05242919921875,-4.074859619140625,0.396270751953125,1.0,1.0,1.0,1.0,1.0,90.0,event
12:11:21.767,0.51633054,0.5295169,0.9313111,0.49125588,0.03261163,0.28742585,0.4752372,0.49413994,0.25221604,0.36975345,0.3354259,0.44445103,1.1295221,0.43202046,0.49339342,1.4092046,1.2245562,0.34529623,0.21685696,1.120282,806.6667,809.0842,803.0403,802.6374,791.3553,0.00048828125,0.14666748046875,0.9747314453125,4.05242919921875,-4.074859619140625,0.396270751953125,1.0,1.0,1.0,1.0,1.0,90.0,event
12:11:21.768,0.51633054,0.5295169,0.9313111,0.49125588,0.03261163,0.28742585,0.4752372,0.49413994,0.25221604,0.36975345,0.3354259,0.44445103,1.1295221,0.43202046,0.49339342,1.4092046,1.2245562,0.34529623,0.21685696,1.120282,783.2967,792.1612,828.8278,776.04395,647.9121,0.00048828125,0.14666748046875,0.9747314453125,4.05242919921875,-4.074859619140625,0.396270751953125,1.0,1.0,1.0,1.0,1.0,90.0,event
12:11:21.769,0.51633054,0.5295169,0.9313111,0.49125588,0.03261163,0.28742585,0.4752372,0.49413994,0.25221604,0.36975345,0.3354259,0.44445103,1.1295221,0.43202046,0.49339342,1.4092046,1.2245562,0.34529623,0.21685696,1.120282,800.6227,795.78754,812.71063,780.87915,729.304,0.00048828125,0.14666748046875,0.9747314453125,4.05242919921875,-4.074859619140625,0.396270751953125,1.0,1.0,1.0,1.0,1.0,90.0,event
12:11:21.769,0.51633054,0.5295169,0.9313111,0.49125588,0.03261163,0.28742585,0.4752372,0.49413994,0.25221604,0.36975345,0.3354259,0.44445103,1.1295221,0.43202046,0.49339342,1.4092046,1.2245562,0.34529623,0.21685696,1.120282,807.8755,816.337,800.2198,755.4945,727.6923,0.00048828125,0.14666748046875,0.9747314453125,4.05242919921875,-4.074859619140625,0.396270751953125,1.0,1.0,1.0,1.0,1.0,90.0,event
12:11:21.791,0.51633054,0.5295169,0.9313111,0.49125588,0.03261163,0.28742585,0.4752372,0.49413994,0.25221604,0.36975345,0.3354259,0.44445103,1.1295221,0.43202046,0.49339342,1.4092046,1.2245562,0.34529623,0.21685696,1.120282,803.8461,806.6667,794.9817,761.13556,676.52014,0.00048828125,0.14666748046875,0.9747314453125,4.05242919921875,-4.074859619140625,0.396270751953125,1.0,1.0,1.0,1.0,1.0,90.0,event
12:11:21.792,0.51633054,0.5295169,0.9313111,0.49125588,0.03261163,0.28742585,0.4752372,0.49413994,0.25221604,0.36975345,0.3354259,0.44445103,1.1295221,0.43202046,0.49339342,1.4092046,1.2245562,0.34529623,0.21685696,1.120282,842.52747,811.0989,776.04395,803.0403,684.57874,0.00048828125,0.14666748046875,0.9747314453125,4.05242919921875,-4.074859619140625,0.396270751953125,1.0,1.0,1.0,1.0,1.0,90.0,event
12:11:21.792,0.51633054,0.5295169,0.9313111,0.49125588,0.03261163,0.28742585,0.4752372,0.49413994,0.25221604,0.36975345,0.3354259,0.44445103,1.1295221,0.43202046,0.49339342,1.4092046,1.2245562,0.34529623,0.21685696,1.120282,812.71063,802.23444,790.14655,783.2967,760.32965,0.00048828125,0.14666748046875,0.9747314453125,4.05242919921875,-4.074859619140625,0.396270751953125,1.0,1.0,1.0,1.0,1.0,90.0,event
12:11:21.793,0.51633054,0.5295169,0.9313111,0.49125588,0.03261163,0.28742585,0.4752372,0.49413994,0.25221604,0.36975345,0.3354259,0.44445103,1.1295221,0.43202046,0.49339342,1.4092046,1.2245562,0.34529623,0.21685696,1.120282,805.4579,788.1319,794.9817,782.49084,827.619,0.00048828125,0.14666748046875,0.9747314453125,4.05242919921875,-4.074859619140625,0.396270751953125,1.0,1.0,1.0,1.0,1.0,90.0,event
12:11:21.793,0.51633054,0.5295169,0.9313111,0.49125588,0.03261163,0.28742585,0.4752372,0.49413994,0.25221604,0.36975345,0.3354259,0.44445103,1.1295221,0.43202046,0.49339342,1.4092046,1.2245562,0.34529623,0.21685696,1.120282,784.90845,782.0879,802.23444,780.07324,792.5641,0.00048828125,0.14666748046875,0.9747314453125,4.05242919921875,-4.074859619140625,0.396270751953125,1.0,1.0,1.0,1.0,1.0,90.0,event
12:11:21.794,0.51633054,0.5295169,0.9313111,0.49125588,0.03261163,0.28742585,0.4752372,0.49413994,0.25221604,0.36975345,0.3354259,0.44445103,1.1295221,0.43202046,0.49339342,1.4092046,1.2245562,0.34529623,0.21685696,1.120282,767.5824,803.44324,798.20514,759.12085,871.53845,0.00048828125,0.14666748046875,0.9747314453125,4.05242919921875,-4.074859619140625,0.396270751953125,1.0,1.0,1.0,1.0,1.0,90.0,event
12:11:21.794,0.51633054,0.5295169,0.9313111,0.49125588,0.03261163,0.28742585,0.4752372,0.49413994,0.25221604,0.36975345,0.3354259,0.44445103,1.1295221,0.43202046,0.49339342,1.4092046,1.2245562,0.34529623,0.21685696,1.120282,782.49084,807.8755,803.0403,772.4176,992.4176,0.00048828125,0.14666748046875,0.9747314453125,4.05242919921875,-4.074859619140625,0.396270751953125,1.0,1.0,1.0,1.0,1.0,90.0,event
12:11:21.795,0.51633054,0.5295169,0.9313111,0.49125588,0.03261163,0.28742585,0.4752372,0.49413994,0.25221604,0.36975345,0.3354259,0.44445103,1.1295221,0.43202046,0.49339342,1.4092046,1.2245562,0.34529623,0.21685696,1.120282,823.9927,806.6667,803.8461,760.32965,1062.1245,0.00048828125,0.14666748046875,0.9747314453125,4.05242919921875,-4.074859619140625,0.396270751953125,1.0,1.0,1.0,1.0,1.0,90.0,event
12:11:21.795,0.51633054,0.5295169,0.9313111,0.49125588,0.03261163,0.28742585,0.4752372,0.49413994,0.25221604,0.36975345,0.3354259,0.44445103,1.1295221,0.43202046,0.49339342,1.4092046,1.2245562,0.34529623,0.21685696,1.120282,825.6044,802.6374,799.41394,771.6117,768.3883,0.00048828125,0.14666748046875,0.9747314453125,4.05242919921875,-4.074859619140625,0.396270751953125,1.0,1.0,1.0,1.0,1.0,90.0,event
12:11:21.796,0.51633054,0.5295169,0.9313111,0.49125588,0.03261163,0.28742585,0.4752372,0.49413994,0.25221604,0.36975345,0.3354259,0.44445103,1.1295221,0.43202046,0.49339342,1.4092046,1.2245562,0.34529623,0.21685696,1.120282,812.71063,794.17584,799.41394,777.25275,649.92676,0.00048828125,0.14666748046875,0.9747314453125,4.05242919921875,-4.074859619140625,0.396270751953125,1.0,1.0,1.0,1.0,1.0,90.0,event
12:11:21.796,0.51633054,0.5295169,0.9313111,0.49125588,0.03261163,0.28742585,0.4752372,0.49413994,0.25221604,0.36975345,0.3354259,0.44445103,1.1295221,0.43202046,0.49339342,1.4092046,1.2245562,0.34529623,0.21685696,1.120282,786.1172,792.96704,794.57874,750.65936,724.87177,0.00048828125,0.14666748046875,0.9747314453125,4.05242919921875,-4.074859619140625,0.396270751953125,1.0,1.0,1.0,1.0,1.0,90.0,event
12:11:21.797,0.51633054,0.5295169,0.9313111,0.49125588,0.03261163,0.28742585,0.4752372,0.49413994,0.25221604,0.36975345,0.3354259,0.44445103,1.1295221,0.43202046,0.49339342,1.4092046,1.2245562,0.34529623,0.21685696,1.120282,797.8022,800.6227,789.34064,752.27106,717.619,0.00048828125,0.14666748046875,0.9747314453125,4.05242919921875,-4.074859619140625,0.396270751953125,1.0,1.0,1.0,1.0,1.0,90.0,event
12:11:21.861,0.51633054,0.5295169,0.9313111,0.49125588,0.03261163,0.28742585,0.4752372,0.49413994,0.25221604,0.36975345,0.3354259,0.44445103,1.1295221,0.43202046,0.49339342,1.4092046,1.2245562,0.34529623,0.21685696,1.120282,809.4872,816.7399,805.4579,763.5531,729.304,0.00836181640625,0.151611328125,0.9735107421875,3.75335693359375,-5.181427001953125,1.65985107421875,1.0,1.0,1.0,1.0,1.0,90.0,event
12:11:21.862,0.51633054,0.5295169,0.9313111,0.49125588,0.03261163,0.28742585,0.4752372,0.49413994,0.25221604,0.36975345,0.3354259,0.44445103,1.1295221,0.43202046,0.49339342,1.4092046,1.2245562,0.34529623,0.21685696,1.120282,817.5458,809.89014,789.7436,780.07324,768.3883,0.00836181640625,0.151611328125,0.9735107421875,3.75335693359375,-5.181427001953125,1.65985107421875,1.0,1.0,1.0,1.0,1.0,90.0,event
12:11:21.862,0.51633054,0.5295169,0.9313111,0.49125588,0.03261163,0.28742585,0.4752372,0.49413994,0.25221604,0.36975345,0.3354259,0.44445103,1.1295221,0.43202046,0.49339342,1.4092046,1.2245562,0.34529623,0.21685696,1.120282,827.2161,811.9048,796.99634,781.685,752.674,0.00836181640625,0.151611328125,0.9735107421875,3.75335693359375,-5.181427001953125,1.65985107421875,1.0,1.0,1.0,1.0,1.0,90.0,event
12:11:21.863,0.51633054,0.5295169,0.9313111,0.49125588,0.03261163,0.28742585,0.4752372,0.49413994,0.25221604,0.36975345,0.3354259,0.44445103,1.1295221,0.43202046,0.49339342,1.4092046,1.2245562,0.34529623,0.21685696,1.120282,812.71063,803.0403,809.0842,799.41394,757.9121,0.00836181640625,0.151611328125,0.9735107421875,3.75335693359375,-5.181427001953125,1.65985107421875,1.0,1.0,1.0,1.0,1.0,90.0,event
12:11:21.864,0.51633054,0.5295169,0.9313111,0.49125588,0.03261163,0.28742585,0.4752372,0.49413994,0.25221604,0.36975345,0.3354259,0.44445103,1.1295221,0.43202046,0.49339342,1.4092046,1.2245562,0.34529623,0.21685696,1.120282,784.5055,802.23444,794.57874,780.4762,773.22345,0.00836181640625,0.151611328125,0.9735107421875,3.75335693359375,-5.181427001953125,1.65985107421875,1.0,1.0,1.0,1.0,1.0,90.0,event
12:11:21.864,0.51633054,0.5295169,0.9313111,0.49125588,0.03261163,0.28742585,0.4752372,0.49413994,0.25221604,0.36975345,0.3354259,0.44445103,1.1295221,0.43202046,0.49339342,1.4092046,1.2245562,0.34529623,0.21685696,1.120282,772.4176,792.1612,796.5934,753.8828,927.1429,0.00836181640625,0.151611328125,0.9735107421875,3.75335693359375,-5.181427001953125,1.65985107421875,1.0,1.0,1.0,1.0,1.0,90.0,event
12:11:21.865,0.51633054,0.5295169,0.9313111,0.49125588,0.03261163,0.28742585,0.4752372,0.49413994,0.25221604,0.36975345,0.3354259,0.44445103,1.1295221,0.43202046,0.49339342,1.4092046,1.2245562,0.34529623,0.21685696,1.120282,823.1868,793.7729,800.2198,788.93774,1027.8755,0.00836181640625,0.151611328125,0.9735107421875,3.75335693359375,-5.181427001953125,1.65985107421875,1.0,1.0,1.0,1.0,1.0,90.0,event
12:11:21.866,0.51633054,0.61992985,0.9517541,0.49125588,0.03261163,0.3816767,0.5402004,0.49413994,0.25221604,0.40213612,0.35275558,0.44445103,1.1295221,0.43639076,0.4864225,1.4092046,1.2245562,0.34303612,0.22043519,1.120282,813.1135,816.337,798.20514,792.96704,906.99634,0.00836181640625,0.151611328125,0.9735107421875,3.75335693359375,-5.181427001953125,1.65985107421875,1.0,1.0,1.0,1.0,1.0,90.0,event
12:11:21.870,0.51633054,0.61992985,0.9517541,0.49125588,0.03261163,0.3816767,0.5402004,0.49413994,0.25221604,0.40213612,0.35275558,0.44445103,1.1295221,0.43639076,0.4864225,1.4092046,1.2245562,0.34303612,0.22043519,1.120282,782.49084,803.8461,795.38464,760.32965,768.3883,0.00836181640625,0.151611328125,0.9735107421875,3.75335693359375,-5.181427001953125,1.65985107421875,1.0,1.0,1.0,1.0,1.0,90.0,event
12:11:21.870,0.51633054,0.61992985,0.9517541,0.49125588,0.03261163,0.3816767,0.5402004,0.49413994,0.25221604,0.40213612,0.35275558,0.44445103,1.1295221,0.43639076,0.4864225,1.4092046,1.2245562,0.34303612,0.22043519,1.120282,827.619,801.02563,793.7729,781.685,824.3956,0.00836181640625,0.151611328125,0.9735107421875,3.75335693359375,-5.181427001953125,1.65985107421875,1.0,1.0,1.0,1.0,1.0,90.0,event
12:11:21.871,0.51633054,0.61992985,0.9517541,0.49125588,0.03261163,0.3816767,0.5402004,0.49413994,0.25221604,0.40213612,0.35275558,0.44445103,1.1295221,0.43639076,0.4864225,1.4092046,1.2245562,0.34303612,0.22043519,1.120282,811.0989,802.23444,799.011,767.1795,1048.8279,0.00836181640625,0.151611328125,0.9735107421875,3.75335693359375,-5.181427001953125,1.65985107421875,1.0,1.0,1.0,1.0,1.0,90.0,event
12:11:21.872,0.51633054,0.61992985,0.9517541,0.49125588,0.03261163,0.3816767,0.5402004,0.49413994,0.25221604,0.40213612,0.35275558,0.44445103,1.1295221,0.43639076,0.4864225,1.4092046,1.2245562,0.34303612,0.22043519,1.120282,776.04395,796.1905,803.8461,720.4396,880.80585,0.00836181640625,0.151611328125,0.9735107421875,3.75335693359375,-5.181427001953125,1.65985107421875,1.0,1.0,1.0,1.0,1.0,90.0,event
12:11:21.895,0.51633054,0.61992985,0.9517541,0.49125588,0.03261163,0.3816767,0.5402004,0.49413994,0.25221604,0.40213612,0.35275558,0.44445103,1.1295221,0.43639076,0.4864225,1.4092046,1.2245562,0.34303612,0.22043519,1.120282,806.6667,807.0696,781.28204,730.5128,672.49084,-0.00531005859375,0.15203857421875,0.97802734375,3.00567626953125,-3.491668701171875,2.4822998046875,1.0,1.0,1.0,1.0,1.0,90.0,event
12:11:21.896,0.51633054,0.61992985,0.9517541,0.49125588,0.03261163,0.3816767,0.5402004,0.49413994,0.25221604,0.40213612,0.35275558,0.44445103,1.1295221,0.43639076,0.4864225,1.4092046,1.2245562,0.34303612,0.22043519,1.120282,795.38464,802.6374,784.90845,740.989,764.7619,-0.00531005859375,0.15203857421875,0.97802734375,3.00567626953125,-3.491668701171875,2.4822998046875,1.0,1.0,1.0,1.0,1.0,90.0,event
12:11:21.897,0.51633054,0.61992985,0.9517541,0.49125588,0.03261163,0.3816767,0.5402004,0.49413994,0.25221604,0.40213612,0.35275558,0.44445103,1.1295221,0.43639076,0.4864225,1.4092046,1.2245562,0.34303612,0.22043519,1.120282,774.83514,794.9817,793.36993,744.61536,767.5824,-0.00531005859375,0.15203857421875,0.97802734375,3.00567626953125,-3.491668701171875,2.4822998046875,1.0,1.0,1.0,1.0,1.0,90.0,event
12:11:21.898,0.51633054,0.61992985,0.9517541,0.49125588,0.03261163,0.3816767,0.5402004,0.49413994,0.25221604,0.40213612,0.35275558,0.44445103,1.1295221,0.43639076,0.4864225,1.4092046,1.2245562,0.34303612,0.22043519,1.120282,782.0879,804.2491,798.60803,756.7033,685.38464,-0.00531005859375,0.15203857421875,0.97802734375,3.00567626953125,-3.491668701171875,2.4822998046875,1.0,1.0,1.0,1.0,1.0,90.0,event
12:11:21.898,0.51633054,0.61992985,0.9517541,0.49125588,0.03261163,0.3816767,0.5402004,0.49413994,0.25221604,0.40213612,0.35275558,0.44445103,1.1295221,0.43639076,0.4864225,1.4092046,1.2245562,0.34303612,0.22043519,1.120282,763.1502,807.0696,803.8461,740.18317,738.1685,-0.00531005859375,0.15203857421875,0.97802734375,3.00567626953125,-3.491668701171875,2.4822998046875,1.0,1.0,1.0,1.0,1.0,90.0,event
12:11:21.899,0.51633054,0.61992985,0.9517541,0.49125588,0.03261163,0.3816767,0.5402004,0.49413994,0.25221604,0.40213612,0.35275558,0.44445103,1.1295221,0.43639076,0.4864225,1.4092046,1.2245562,0.34303612,0.22043519,1.120282,784.90845,789.34064,815.5311,766.3736,908.60803,-0.00531005859375,0.15203857421875,0.97802734375,3.00567626953125,-3.491668701171875,2.4822998046875,1.0,1.0,1.0,1.0,1.0,90.0,event
12:11:21.900,0.51633054,0.61992985,0.9517541,0.49125588,0.03261163,0.3816767,0.5402004,0.49413994,0.25221604,0.40213612,0.35275558,0.44445103,1.1295221,0.43639076,0.4864225,1.4092046,1.2245562,0.34303612,0.22043519,1.120282,787.326,790.14655,807.8755,765.16486,829.6337,-0.00531005859375,0.15203857421875,0.97802734375,3.00567626953125,-3.491668701171875,2.4822998046875,1.0,1.0,1.0,1.0,1.0,90.0,event
12:11:21.900,0.51633054,0.61992985,0.9517541,0.49125588,0.03261163,0.3816767,0.5402004,0.49413994,0.25221604,0.40213612,0.35275558,0.44445103,1.1295221,0.43639076,0.4864225,1.4092046,1.2245562,0.34303612,0.22043519,1.120282,778.86444,811.9048,780.07324,740.58606,691.02563,-0.00531005859375,0.15203857421875,0.97802734375,3.00567626953125,-3.491668701171875,2.4822998046875,1.0,1.0,1.0,1.0,1.0,90.0,event
12:11:21.901,0.51633054,0.61992985,0.9517541,0.49125588,0.03261163,0.3816767,0.5402004,0.49413994,0.25221604,0.40213612,0.35275558,0.44445103,1.1295221,0.43639076,0.4864225,1.4092046,1.2245562,0.34303612,0.22043519,1.120282,798.20514,811.50183,798.60803,763.1502,728.49817,-0.00531005859375,0.15203857421875,0.97802734375,3.00567626953125,-3.491668701171875,2.4822998046875,1.0,1.0,1.0,1.0,1.0,90.0,event
12:11:21.902,0.51633054,0.61992985,0.9517541,0.49125588,0.03261163,0.3816767,0.5402004,0.49413994,0.25221604,0.40213612,0.35275558,0.44445103,1.1295221,0.43639076,0.4864225,1.4092046,1.2245562,0.34303612,0.22043519,1.120282,807.0696,798.60803,799.011,767.98535,902.1612,-0.00531005859375,0.15203857421875,0.97802734375,3.00567626953125,-3.491668701171875,2.4822998046875,1.0,1.0,1.0,1.0,1.0,90.0,event
12:11:21.902,0.51633054,0.61992985,0.9517541,0.49125588,0.03261163,0.3816767,0.5402004,0.49413994,0.25221604,0.40213612,0.35275558,0.44445103,1.1295221,0.43639076,0.4864225,1.4092046,1.2245562,0.34303612,0.22043519,1.120282,785.31134,794.57874,801.4286,738.97437,888.86444,-0.00531005859375,0.15203857421875,0.97802734375,3.00567626953125,-3.491668701171875,2.4822998046875,1.0,1.0,1.0,1.0,1.0,90.0,event
12:11:21.903,0.51633054,0.61992985,0.9517541,0.49125588,0.03261163,0.3816767,0.5402004,0.49413994,0.25221604,0.40213612,0.35275558,0.44445103,1.1295221,0.43639076,0.4864225,1.4092046,1.2245562,0.34303612,0.22043519,1.120282,806.26373,801.02563,813.5165,749.85345,706.7399,-0.00531005859375,0.15203857421875,0.97802734375,3.00567626953125,-3.491668701171875,2.4822998046875,1.0,1.0,1.0,1.0,1.0,90.0,event
12:11:21.928,0.51633054,0.61992985,0.9517541,0.49125588,0.03261163,0.3816767,0.5402004,0.49413994,0.25221604,0.40213612,0.35275558,0.44445103,1.1295221,0.43639076,0.4864225,1.4092046,1.2245562,0.34303612,0.22043519,1.120282,801.4286,795.78754,803.8461,773.22345,728.0952,0.0079345703125,0.1505126953125,0.97406005859375,2.392578125,-3.895416259765625,-0.13458251953125,1.0,1.0,1.0,1.0,1.0,90.0,event
12:11:21.929,0.51633054,0.61992985,0.9517541,0.49125588,0.03261163,0.3816767,0.5402004,0.49413994,0.25221604,0.40213612,0.35275558,0.44445103,1.1295221,0.43639076,0.4864225,1.4092046,1.2245562,0.34303612,0.22043519,1.120282,760.7326,795.78754,801.02563,771.2088,852.1978,0.0079345703125,0.1505126953125,0.97406005859375,2.392578125,-3.895416259765625,-0.13458251953125,1.0,1.0,1.0,1.0,1.0,90.0,event
12:11:21.930,0.51633054,0.61992985,0.9517541,0.49125588,0.03261163,0.3816767,0.5402004,0.49413994,0.25221604,0.40213612,0.35275558,0.44445103,1.1295221,0.43639076,0.4864225,1.4092046,1.2245562,0.34303612,0.22043519,1.120282,813.91943,810.293,793.36993,781.28204,802.23444,0.0079345703125,0.1505126953125,0.97406005859375,2.392578125,-3.895416259765625,-0.13458251953125,1.0,1.0,1.0,1.0,1.0,90.0,event
12:11:21.931,0.51633054,0.61992985,0.9517541,0.49125588,0.03261163,0.3816767,0.5402004,0.49413994,0.25221604,0.40213612,0.35275558,0.44445103,1.1295221,0.43639076,0.4864225,1.4092046,1.2245562,0.34303612,0.22043519,1.120282,817.1429,809.4872,791.3553,792.5641,710.3663,0.0079345703125,0.1505126953125,0.97406005859375,2.392578125,-3.895416259765625,-0.13458251953125,1.0,1.0,1.0,1.0,1.0,90.0,event
12:11:21.931,0.51633054,0.61992985,0.9517541,0.49125588,0.03261163,0.3816767,0.5402004,0.49413994,0.25221604,0.40213612,0.35275558,0.44445103,1.1295221,0.43639076,0.4864225,1.4092046,1.2245562,0.34303612,0.22043519,1.120282,773.22345,804.65204,788.1319,794.9817,750.65936,0.0079345703125,0.1505126953125,0.97406005859375,2.392578125,-3.895416259765625,-0.13458251953125,1.0,1.0,1.0,1.0,1.0,90.0,event
12:11:21.932,0.51633054,0.61992985,0.9517541,0.49125588,0.03261163,0.3816767,0.5402004,0.49413994,0.25221604,0.40213612,0.35275558,0.44445103,1.1295221,0.43639076,0.4864225,1.4092046,1.2245562,0.34303612,0.22043519,1.120282,799.81683,798.20514,798.60803,774.83514,913.44324,0.0079345703125,0.1505126953125,0.97406005859375,2.392578125,-3.895416259765625,-0.13458251953125,1.0,1.0,1.0,1.0,1.0,90.0,event
12:11:21.933,0.51633054,0.61992985,0.9517541,0.49125588,0.03261163,0.3816767,0.5402004,0.49413994,0.25221604,0.40213612,0.35275558,0.44445103,1.1295221,0.43639076,0.4864225,1.4092046,1.2245562,0.34303612,0.22043519,1.120282,813.1135,803.0403,819.15753,768.3883,952.52747,0.0079345703125,0.1505126953125,0.97406005859375,2.392578125,-3.895416259765625,-0.13458251953125,1.0,1.0,1.0,1.0,1.0,90.0,event
12:11:21.933,0.51633054,0.61992985,0.9517541,0.49125588,0.03261163,0.3816767,0.5402004,0.49413994,0.25221604,0.40213612,0.35275558,0.44445103,1.1295221,0.43639076,0.4864225,1.4092046,1.2245562,0.34303612,0.22043519,1.120282,790.54944,803.44324,810.696,780.87915,802.6374,0.0079345703125,0.1505126953125,0.97406005859375,2.392578125,-3.895416259765625,-0.13458251953125,1.0,1.0,1.0,1.0,1.0,90.0,event
12:11:21.934,0.51633054,0.61992985,0.9517541,0.49125588,0.03261163,0.3816767,0.5402004,0.49413994,0.25221604,0.40213612,0.35275558,0.44445103,1.1295221,0.43639076,0.4864225,1.4092046,1.2245562,0.34303612,0.22043519,1.120282,766.77655,792.5641,813.5165,739.7802,852.1978,0.0079345703125,0.1505126953125,0.97406005859375,2.392578125,-3.895416259765625,-0.13458251953125,1.0,1.0,1.0,1.0,1.0,90.0,event
12:11:21.936,0.51633054,0.670951,0.94306296,0.49125588,0.03261163,0.43054527,0.55441,0.49413994,0.25221604,0.40614513,0.35275558,0.44445103,1.1295221,0.43484,0.48308274,1.4092046,1.2245562,0.3492088,0.23175615,1.120282,773.22345,785.7143,800.2198,751.8681,1031.0989,0.0079345703125,0.1505126953125,0.97406005859375,2.392578125,-3.895416259765625,-0.13458251953125,1.0,1.0,1.0,1.0,1.0,90.0,event
12:11:21.941,0.51633054,0.670951,0.94306296,0.49125588,0.03261163,0.43054527,0.55441,0.49413994,0.25221604,0.40614513,0.35275558,0.44445103,1.1295221,0.43484,0.48308274,1.4092046,1.2245562,0.3492088,0.23175615,1.120282,803.0403,776.8498,794.9817,818.3516,853.00366,0.0079345703125,0.1505126953125,0.97406005859375,2.392578125,-3.895416259765625,-0.13458251953125,1.0,1.0,1.0,1.0,1.0,90.0,event
12:11:21.942,0.51633054,0.670951,0.94306296,0.49125588,0.03261163,0.43054527,0.55441,0.49413994,0.25221604,0.40614513,0.35275558,0.44445103,1.1295221,0.43484,0.48308274,1.4092046,1.2245562,0.3492088,0.23175615,1.120282,780.87915,788.5348,799.011,801.4286,777.25275,0.0079345703125,0.1505126953125,0.97406005859375,2.392578125,-3.895416259765625,-0.13458251953125,1.0,1.0,1.0,1.0,1.0,90.0,event
12:11:22.000,0.51633054,0.670951,0.94306296,0.49125588,0.03261163,0.43054527,0.55441,0.49413994,0.25221604,0.40614513,0.35275558,0.44445103,1.1295221,0.43484,0.48308274,1.4092046,1.2245562,0.3492088,0.23175615,1.120282,766.77655,804.65204,799.41394,763.95605,845.7509,-0.00201416015625,0.14990234375,0.966064453125,1.95892333984375,-3.27484130859375,0.43365478515625,1.0,1.0,1.0,1.0,1.0,90.0,event
12:11:22.001,0.51633054,0.670951,0.94306296,0.49125588,0.03261163,0.43054527,0.55441,0.49413994,0.25221604,0.40614513,0.35275558,0.44445103,1.1295221,0.43484,0.48308274,1.4092046,1.2245562,0.3492088,0.23175615,1.120282,755.89746,808.68134,795.38464,730.10986,850.58606,-0.00201416015625,0.14990234375,0.966064453125,1.95892333984375,-3.27484130859375,0.43365478515625,1.0,1.0,1.0,1.0,1.0,90.0,event
12:11:22.001,0.51633054,0.670951,0.94306296,0.49125588,0.03261163,0.43054527,0.55441,0.49413994,0.25221604,0.40614513,0.35275558,0.44445103,1.1295221,0.43484,0.48308274,1.4092046,1.2245562,0.3492088,0.23175615,1.120282,720.4396,800.2198,794.57874,716.0073,777.6557,-0.00201416015625,0.14990234375,0.966064453125,1.95892333984375,-3.27484130859375,0.43365478515625,1.0,1.0,1.0,1.0,1.0,90.0,event
12:11:22.002,0.51633054,0.670951,0.94306296,0.49125588,0.03261163,0.43054527,0.55441,0.49413994,0.25221604,0.40614513,0.35275558,0.44445103,1.1295221,0.43484,0.48308274,1.4092046,1.2245562,0.3492088,0.23175615,1.120282,739.7802,793.36993,796.5934,716.4103,714.3956,-0.00201416015625,0.14990234375,0.966064453125,1.95892333984375,-3.27484130859375,0.43365478515625,1.0,1.0,1.0,1.0,1.0,90.0,event
12:11:22.003,0.51633054,0.670951,0.94306296,0.49125588,0.03261163,0.43054527,0.55441,0.49413994,0.25221604,0.40614513,0.35275558,0.44445103,1.1295221,0.43484,0.48308274,1.4092046,1.2245562,0.3492088,0.23175615,1.120282,731.7216,802.23444,793.36993,706.337,842.1245,-0.00201416015625,0.14990234375,0.966064453125,1.95892333984375,-3.27484130859375,0.43365478515625,1.0,1.0,1.0,1.0,1.0,90.0,event
12:11:22.003,0.51633054,0.670951,0.94306296,0.49125588,0.03261163,0.43054527,0.55441,0.49413994,0.25221604,0.40614513,0.35275558,0.44445103,1.1295221,0.43484,0.48308274,1.4092046,1.2245562,0.3492088,0.23175615,1.120282,742.1978,789.34064,800.2198,743.00366,938.022,-0.00201416015625,0.14990234375,0.966064453125,1.95892333984375,-3.27484130859375,0.43365478515625,1.0,1.0,1.0,1.0,1.0,90.0,event
12:11:22.004,0.51633054,0.670951,0.94306296,0.49125588,0.03261163,0.43054527,0.55441,0.49413994,0.25221604,0.40614513,0.35275558,0.44445103,1.1295221,0.43484,0.48308274,1.4092046,1.2245562,0.3492088,0.23175615,1.120282,796.99634,788.1319,803.0403,728.49817,902.5641,-0.00201416015625,0.14990234375,0.966064453125,1.95892333984375,-3.27484130859375,0.43365478515625,1.0,1.0,1.0,1.0,1.0,90.0,event
12:11:22.004,0.51633054,0.670951,0.94306296,0.49125588,0.03261163,0.43054527,0.55441,0.49413994,0.25221604,0.40614513,0.35275558,0.44445103,1.1295221,0.43484,0.48308274,1.4092046,1.2245562,0.3492088,0.23175615,1.120282,785.31134,811.50183,796.5934,722.8571,820.7692,-0.00201416015625,0.14990234375,0.966064453125,1.95892333984375,-3.27484130859375,0.43365478515625,1.0,1.0,1.0,1.0,1.0,90.0,event
12:11:22.005,0.51633054,0.670951,0.94306296,0.49125588,0.03261163,0.43054527,0.55441,0.49413994,0.25221604,0.40614513,0.35275558,0.44445103,1.1295221,0.43484,0.48308274,1.4092046,1.2245562,0.3492088,0.23175615,1.120282,768.3883,813.1135,791.75824,780.4762,884.43225,-0.00201416015625,0.14990234375,0.966064453125,1.95892333984375,-3.27484130859375,0.43365478515625,1.0,1.0,1.0,1.0,1.0,90.0,event
12:11:22.006,0.51633054,0.670951,0.94306296,0.49125588,0.03261163,0.43054527,0.55441,0.49413994,0.25221604,0.40614513,0.35275558,0.44445103,1.1295221,0.43484,0.48308274,1.4092046,1.2245562,0.3492088,0.23175615,1.120282,780.07324,805.05493,794.57874,780.4762,900.9524,-0.00201416015625,0.14990234375,0.966064453125,1.95892333984375,-3.27484130859375,0.43365478515625,1.0,1.0,1.0,1.0,1.0,90.0,event
12:11:22.006,0.51633054,0.670951,0.94306296,0.49125588,0.03261163,0.43054527,0.55441,0.49413994,0.25221604,0.40614513,0.35275558,0.44445103,1.1295221,0.43484,0.48308274,1.4092046,1.2245562,0.3492088,0.23175615,1.120282,812.71063,810.696,795.78754,761.13556,755.09155,-0.00201416015625,0.14990234375,0.966064453125,1.95892333984375,-3.27484130859375,0.43365478515625,1.0,1.0,1.0,1.0,1.0,90.0,event
12:11:22.007,0.51633054,0.670951,0.94306296,0.49125588,0.03261163,0.43054527,0.55441,0.49413994,0.25221604,0.40614513,0.35275558,0.44445103,1.1295221,0.43484,0.48308274,1.4092046,1.2245562,0.3492088,0.23175615,1.120282,805.4579,803.8461,799.81683,762.3443,738.5714,-0.00201416015625,0.14990234375,0.966064453125,1.95892333984375,-3.27484130859375,0.43365478515625,1.0,1.0,1.0,1.0,1.0,90.0,event
12:11:22.033,0.51633054,0.670951,0.94306296,0.49125588,0.03261163,0.43054527,0.55441,0.49413994,0.25221604,0.40614513,0.35275558,0.44445103,1.1295221,0.43484,0.48308274,1.4092046,1.2245562,0.3492088,0.23175615,1.120282,780.87915,794.57874,801.02563,741.39197,813.91943,-0.00201416015625,0.14990234375,0.966064453125,1.95892333984375,-3.27484130859375,0.43365478515625,1.0,1.0,1.0,1.0,1.0,90.0,event
12:11:22.034,0.51633054,0.670951,0.94306296,0.49125588,0.03261163,0.43054527,0.55441,0.49413994,0.25221604,0.40614513,0.35275558,0.44445103,1.1295221,0.43484,0.48308274,1.4092046,1.2245562,0.3492088,0.23175615,1.120282,799.41394,801.4286,802.23444,747.03296,765.16486,-0.00201416015625,0.14990234375,0.966064453125,1.95892333984375,-3.27484130859375,0.43365478515625,1.0,1.0,1.0,1.0,1.0,90.0,event
12:11:22.034,0.51633054,0.670951,0.94306296,0.49125588,0.03261163,0.43054527,0.55441,0.49413994,0.25221604,0.40614513,0.35275558,0.44445103,1.1295221,0.43484,0.48308274,1.4092046,1.2245562,0.3492088,0.23175615,1.120282,803.0403,807.8755,799.81683,801.4286,723.2601,-0.00201416015625,0.14990234375,0.966064453125,1.95892333984375,-3.27484130859375,0.43365478515625,1.0,1.0,1.0,1.0,1.0,90.0,event
12:11:22.035,0.51633054,0.670951,0.94306296,0.49125588,0.03261163,0.43054527,0.55441,0.49413994,0.25221604,0.40614513,0.35275558,0.44445103,1.1295221,0.43484,0.48308274,1.4092046,1.2245562,0.3492088,0.23175615,1.120282,802.6374,807.8755,807.8755,809.89014,772.8205,-0.00201416015625,0.14990234375,0.966064453125,1.95892333984375,-3.27484130859375,0.43365478515625,1.0,1.0,1.0,1.0,1.0,90.0,event
12:11:22.035,0.51633054,0.670951,0.94306296,0.49125588,0.03261163,0.43054527,0.55441,0.49413994,0.25221604,0.40614513,0.35275558,0.44445103,1.1295221,0.43484,0.48308274,1.4092046,1.2245562,0.3492088,0.23175615,1.120282,823.1868,806.26373,801.4286,813.1135,838.9011,-0.00201416015625,0.14990234375,0.966064453125,1.95892333984375,-3.27484130859375,0.43365478515625,1.0,1.0,1.0,1.0,1.0,90.0,event
12:11:22.036,0.51633054,0.670951,0.94306296,0.49125588,0.03261163,0.43054527,0.55441,0.49413994,0.25221604,0.40614513,0.35275558,0.44445103,1.1295221,0.43484,0.48308274,1.4092046,1.2245562,0.3492088,0.23175615,1.120282,823.5897,806.6667,798.20514,806.26373,891.685,-0.00201416015625,0.14990234375,0.966064453125,1.95892333984375,-3.27484130859375,0.43365478515625,1.0,1.0,1.0,1.0,1.0,90.0,event
12:11:22.036,0.51633054,0.670951,0.94306296,0.49125588,0.03261163,0.43054527,0.55441,0.49413994,0.25221604,0.40614513,0.35275558,0.44445103,1.1295221,0.43484,0.48308274,1.4092046,1.2245562,0.3492088,0.23175615,1.120282,797.3993,801.4286,809.0842,784.90845,875.16486,-0.00201416015625,0.14990234375,0.966064453125,1.95892333984375,-3.27484130859375,0.43365478515625,1.0,1.0,1.0,1.0,1.0,90.0,event
12:11:22.037,0.51633054,0.670951,0.94306296,0.49125588,0.03261163,0.43054527,0.55441,0.49413994,0.25221604,0.40614513,0.35275558,0.44445103,1.1295221,0.43484,0.48308274,1.4092046,1.2245562,0.3492088,0.23175615,1.120282,794.17584,800.6227,810.696,788.1319,846.55676,-0.00201416015625,0.14990234375,0.966064453125,1.95892333984375,-3.27484130859375,0.43365478515625,1.0,1.0,1.0,1.0,1.0,90.0,event
12:11:22.037,0.51633054,0.670951,0.94306296,0.49125588,0.03261163,0.43054527,0.55441,0.49413994,0.25221604,0.40614513,0.35275558,0.44445103,1.1295221,0.43484,0.48308274,1.4092046,1.2245562,0.3492088,0.23175615,1.120282,792.5641,799.81683,799.81683,801.8315,1008.93774,-0.00201416015625,0.14990234375,0.966064453125,1.95892333984375,-3.27484130859375,0.43365478515625,1.0,1.0,1.0,1.0,1.0,90.0,event
12:11:22.038,0.51633054,0.670951,0.94306296,0.49125588,0.03261163,0.43054527,0.55441,0.49413994,0.25221604,0.40614513,0.35275558,0.44445103,1.1295221,0.43484,0.48308274,1.4092046,1.2245562,0.3492088,0.23175615,1.120282,817.5458,791.3553,794.17584,819.15753,925.9341,-0.00201416015625,0.14990234375,0.966064453125,1.95892333984375,-3.27484130859375,0.43365478515625,1.0,1.0,1.0,1.0,1.0,90.0,event
12:11:22.039,0.51633054,0.6919662,0.94819665,0.49125588,0.03261163,0.44733286,0.56925076,0.49413994,0.25221604,0.40614513,0.35275558,0.44445103,1.1295221,0.42506498,0.49565277,1.4092046,1.2245562,0.36310723,0.26901543,1.120282,786.9231,822.7839,811.0989,776.8498,725.2747,-0.00201416015625,0.14990234375,0.966064453125,1.95892333984375,-3.27484130859375,0.43365478515625,1.0,2.0,1.0,1.0,2.0,90.0,event
12:11:22.039,0.51633054,0.670951,0.94306296,0.49125588,0.03261163,0.43054527,0.55441,0.49413994,0.25221604,0.40614513,0.35275558,0.44445103,1.1295221,0.43484,0.48308274,1.4092046,1.2245562,0.3492088,0.23175615,1.120282,799.81683,805.05493,807.0696,790.14655,695.05493,-0.00201416015625,0.14990234375,0.966064453125,1.95892333984375,-3.27484130859375,0.43365478515625,1.0,1.0,1.0,1.0,1.0,90.0,event
12:11:22.099,0.51633054,0.6919662,0.94819665,0.49125588,0.03261163,0.44733286,0.56925076,0.49413994,0.25221604,0.40614513,0.35275558,0.44445103,1.1295221,0.42506498,0.49565277,1.4092046,1.2245562,0.36310723,0.26901543,1.120282,804.2491,813.1135,799.81683,810.293,807.47253,-0.0018310546875,0.1502685546875,0.97283935546875,1.86920166015625,-2.878570556640625,0.31402587890625,1.0,2.0,1.0,1.0,2.0,90.0,event
12:11:22.101,0.51633054,0.6919662,0.94819665,0.49125588,0.03261163,0.44733286,0.56925076,0.49413994,0.25221604,0.40614513,0.35275558,0.44445103,1.1295221,0.42506498,0.49565277,1.4092046,1.2245562,0.36310723,0.26901543,1.120282,806.26373,808.2784,804.2491,809.4872,785.31134,-0.0018310546875,0.1502685546875,0.97283935546875,1.86920166015625,-2.878570556640625,0.31402587890625,1.0,2.0,1.0,1.0,2.0,90.0,event
12:11:22.101,0.51633054,0.6919662,0.94819665,0.49125588,0.03261163,0.44733286,0.56925076,0.49413994,0.25221604,0.40614513,0.35275558,0.44445103,1.1295221,0.42506498,0.49565277,1.4092046,1.2245562,0.36310723,0.26901543,1.120282,800.6227,792.96704,816.7399,793.36993,763.5531,-0.0018310546875,0.1502685546875,0.97283935546875,1.86920166015625,-2.878570556640625,0.31402587890625,1.0,2.0,1.0,1.0,2.0,90.0,event
12:11:22.102,0.51633054,0.6919662,0.94819665,0.49125588,0.03261163,0.44733286,0.56925076,0.49413994,0.25221604,0.40614513,0.35275558,0.44445103,1.1295221,0.42506498,0.49565277,1.4092046,1.2245562,0.36310723,0.26901543,1.120282,809.89014,782.49084,810.696,786.1172,773.22345,-0.0018310546875,0.1502685546875,0.97283935546875,1.86920166015625,-2.878570556640625,0.31402587890625,1.0,2.0,1.0,1.0,2.0,90.0,event
12:11:22.102,0.51633054,0.6919662,0.94819665,0.49125588,0.03261163,0.44733286,0.56925076,0.49413994,0.25221604,0.40614513,0.35275558,0.44445103,1.1295221,0.42506498,0.49565277,1.4092046,1.2245562,0.36310723,0.26901543,1.120282,793.7729,810.293,805.05493,788.93774,750.2564,-0.0018310546875,0.1502685546875,0.97283935546875,1.86920166015625,-2.878570556640625,0.31402587890625,1.0,2.0,1.0,1.0,2.0,90.0,event
12:11:22.103,0.51633054,0.6919662,0.94819665,0.49125588,0.03261163,0.44733286,0.56925076,0.49413994,0.25221604,0.40614513,0.35275558,0.44445103,1.1295221,0.42506498,0.49565277,1.4092046,1.2245562,0.36310723,0.26901543,1.120282,774.83514,819.15753,800.6227,761.53845,807.0696,-0.0018310546875,0.1502685546875,0.97283935546875,1.86920166015625,-2.878570556640625,0.31402587890625,1.0,2.0,1.0,1.0,2.0,90.0,event
12:11:22.104,0.51633054,0.6919662,0.94819665,0.49125588,0.03261163,0.44733286,0.56925076,0.49413994,0.25221604,0.40614513,0.35275558,0.44445103,1.1295221,0.42506498,0.49565277,1.4092046,1.2245562,0.36310723,0.26901543,1.120282,787.72894,810.696,790.54944,762.74725,852.6007,-0.0018310546875,0.1502685546875,0.97283935546875,1.86920166015625,-2.878570556640625,0.31402587890625,1.0,2.0,1.0,1.0,2.0,90.0,event
12:11:22.104,0.51633054,0.6919662,0.94819665,0.49125588,0.03261163,0.44733286,0.56925076,0.49413994,0.25221604,0.40614513,0.35275558,0.44445103,1.1295221,0.42506498,0.49565277,1.4092046,1.2245562,0.36310723,0.26901543,1.120282,811.0989,812.3077,784.5055,775.64105,988.7912,-0.0018310546875,0.1502685546875,0.97283935546875,1.86920166015625,-2.878570556640625,0.31402587890625,1.0,2.0,1.0,1.0,2.0,90.0,event
12:11:22.105,0.51633054,0.6919662,0.94819665,0.49125588,0.03261163,0.44733286,0.56925076,0.49413994,0.25221604,0.40614513,0.35275558,0.44445103,1.1295221,0.42506498,0.49565277,1.4092046,1.2245562,0.36310723,0.26901543,1.120282,829.2308,819.9634,786.1172,780.07324,1117.7289,-0.0018310546875,0.1502685546875,0.97283935546875,1.86920166015625,-2.878570556640625,0.31402587890625,1.0,2.0,1.0,1.0,2.0,90.0,event
12:11:22.106,0.51633054,0.6919662,0.94819665,0.49125588,0.03261163,0.44733286,0.56925076,0.49413994,0.25221604,0.40614513,0.35275558,0.44445103,1.1295221,0.42506498,0.49565277,1.4092046,1.2245562,0.36310723,0.26901543,1.120282,826.4103,801.02563,798.20514,815.9341,663.6264,-0.0018310546875,0.1502685546875,0.97283935546875,1.86920166015625,-2.878570556640625,0.31402587890625,1.0,2.0,1.0,1.0,2.0,90.0,event
12:11:22.106,0.51633054,0.6919662,0.94819665,0.49125588,0.03261163,0.44733286,0.56925076,0.49413994,0.25221604,0.40614513,0.35275558,0.44445103,1.1295221,0.42506498,0.49565277,1.4092046,1.2245562,0.36310723,0.26901543,1.120282,833.2601,819.15753,790.54944,809.89014,780.07324,-0.0018310546875,0.1502685546875,0.97283935546875,1.86920166015625,-2.878570556640625,0.31402587890625,1.0,2.0,1.0,1.0,2.0,90.0,event
12:11:22.107,0.51633054,0.6919662,0.94819665,0.49125588,0.03261163,0.44733286,0.56925076,0.49413994,0.25221604,0.40614513,0.35275558,0.44445103,1.1295221,0.42506498,0.49565277,1.4092046,1.2245562,0.36310723,0.26901543,1.120282,809.4872,793.7729,805.8608,784.90845,825.2015,-0.0018310546875,0.1502685546875,0.97283935546875,1.86920166015625,-2.878570556640625,0.31402587890625,1.0,2.0,1.0,1.0,2.0,90.0,event
12:11:22.135,0.51633054,0.6919662,0.94819665,0.49125588,0.03261163,0.44733286,0.56925076,0.49413994,0.25221604,0.40614513,0.35275558,0.44445103,1.1295221,0.42506498,0.49565277,1.4092046,1.2245562,0.36310723,0.26901543,1.120282,798.20514,799.41394,799.41394,782.49084,775.2381,0.01141357421875,0.145751953125,0.97430419921875,1.577606201171875,-3.39447021484375,1.6448974609375,1.0,2.0,1.0,1.0,2.0,90.0,event
12:11:22.136,0.51633054,0.6919662,0.94819665,0.49125588,0.03261163,0.44733286,0.56925076,0.49413994,0.25221604,0.40614513,0.35275558,0.44445103,1.1295221,0.42506498,0.49565277,1.4092046,1.2245562,0.36310723,0.26901543,1.120282,788.1319,805.8608,799.81683,788.93774,639.0476,0.01141357421875,0.145751953125,0.97430419921875,1.577606201171875,-3.39447021484375,1.6448974609375,1.0,2.0,1.0,1.0,2.0,90.0,event
12:11:22.136,0.51633054,0.6919662,0.94819665,0.49125588,0.03261163,0.44733286,0.56925076,0.49413994,0.25221604,0.40614513,0.35275558,0.44445103,1.1295221,0.42506498,0.49565277,1.4092046,1.2245562,0.36310723,0.26901543,1.120282,821.5751,801.4286,806.26373,788.93774,693.0403,0.01141357421875,0.145751953125,0.97430419921875,1.577606201171875,-3.39447021484375,1.6448974609375,1.0,2.0,1.0,1.0,2.0,90.0,event
12:11:22.137,0.51633054,0.6919662,0.94819665,0.49125588,0.03261163,0.44733286,0.56925076,0.49413994,0.25221604,0.40614513,0.35275558,0.44445103,1.1295221,0.42506498,0.49565277,1.4092046,1.2245562,0.36310723,0.26901543,1.120282,806.6667,806.26373,807.0696,771.6117,765.16486,0.01141357421875,0.145751953125,0.97430419921875,1.577606201171875,-3.39447021484375,1.6448974609375,1.0,2.0,1.0,1.0,2.0,90.0,event
12:11:22.137,0.51633054,0.6919662,0.94819665,0.49125588,0.03261163,0.44733286,0.56925076,0.49413994,0.25221604,0.40614513,0.35275558,0.44445103,1.1295221,0.42506498,0.49565277,1.4092046,1.2245562,0.36310723,0.26901543,1.120282,784.10254,814.7253,800.6227,766.3736,708.3516,0.01141357421875,0.145751953125,0.97430419921875,1.577606201171875,-3.39447021484375,1.6448974609375,1.0,2.0,1.0,1.0,2.0,90.0,event
12:11:22.138,0.51633054,0.6919662,0.94819665,0.49125588,0.03261163,0.44733286,0.56925076,0.49413994,0.25221604,0.40614513,0.35275558,0.44445103,1.1295221,0.42506498,0.49565277,1.4092046,1.2245562,0.36310723,0.26901543,1.120282,813.1135,797.8022,802.6374,796.1905,743.8095,0.01141357421875,0.145751953125,0.97430419921875,1.577606201171875,-3.39447021484375,1.6448974609375,1.0,2.0,1.0,1.0,2.0,90.0,event
12:11:22.138,0.51633054,0.6919662,0.94819665,0.49125588,0.03261163,0.44733286,0.56925076,0.49413994,0.25221604,0.40614513,0.35275558,0.44445103,1.1295221,0.42506498,0.49565277,1.4092046,1.2245562,0.36310723,0.26901543,1.120282,806.6667,809.4872,788.5348,821.978,851.79486,0.01141357421875,0.145751953125,0.97430419921875,1.577606201171875,-3.39447021484375,1.6448974609375,1.0,2.0,1.0,1.0,2.0,90.0,event
12:11:22.139,0.51633054,0.6919662,0.94819665,0.49125588,0.03261163,0.44733286,0.56925076,0.49413994,0.25221604,0.40614513,0.35275558,0.44445103,1.1295221,0.42506498,0.49565277,1.4092046,1.2245562,0.36310723,0.26901543,1.120282,761.53845,815.5311,781.28204,785.31134,969.0476,0.01141357421875,0.145751953125,0.97430419921875,1.577606201171875,-3.39447021484375,1.6448974609375,1.0,2.0,1.0,1.0,2.0,90.0,event
12:11:22.140,0.51633054,0.6919662,0.94819665,0.49125588,0.03261163,0.44733286,0.56925076,0.49413994,0.25221604,0.40614513,0.35275558,0.44445103,1.1295221,0.42506498,0.49565277,1.4092046,1.2245562,0.36310723,0.26901543,1.120282,822.7839,803.44324,806.6667,787.326,674.10254,0.01141357421875,0.145751953125,0.97430419921875,1.577606201171875,-3.39447021484375,1.6448974609375,1.0,2.0,1.0,1.0,2.0,90.0,event
12:11:22.140,0.51633054,0.6919662,0.94819665,0.49125588,0.03261163,0.44733286,0.56925076,0.49413994,0.25221604,0.40614513,0.35275558,0.44445103,1.1295221,0.42506498,0.49565277,1.4092046,1.2245562,0.36310723,0.26901543,1.120282,783.2967,800.2198,799.41394,759.12085,829.6337,0.01141357421875,0.145751953125,0.97430419921875,1.577606201171875,-3.39447021484375,1.6448974609375,1.0,2.0,1.0,1.0,2.0,90.0,event
12:11:22.141,0.51633054,0.6919662,0.94819665,0.49125588,0.03261163,0.44733286,0.56925076,0.49413994,0.25221604,0.40614513,0.35275558,0.44445103,1.1295221,0.42506498,0.49565277,1.4092046,1.2245562,0.36310723,0.26901543,1.120282,819.15753,808.2784,803.44324,797.8022,848.97437,0.01141357421875,0.145751953125,0.97430419921875,1.577606201171875,-3.39447021484375,1.6448974609375,1.0,2.0,1.0,1.0,2.0,90.0,event
12:11:22.141,0.51633054,0.6919662,0.94819665,0.49125588,0.03261163,0.44733286,0.56925076,0.49413994,0.25221604,0.40614513,0.35275558,0.44445103,1.1295221,0.42506498,0.49565277,1.4092046,1.2245562,0.36310723,0.26901543,1.120282,809.0842,800.6227,801.8315,812.71063,986.3736,0.01141357421875,0.145751953125,0.97430419921875,1.577606201171875,-3.39447021484375,1.6448974609375,1.0,2.0,1.0,1.0,2.0,90.0,event
12:11:22.169,0.51633054,0.6919662,0.94819665,0.49125588,0.03261163,0.44733286,0.56925076,0.49413994,0.25221604,0.40614513,0.35275558,0.44445103,1.1295221,0.42506498,0.49565277,1.4092046,1.2245562,0.36310723,0.26901543,1.120282,806.6667,812.3077,789.7436,806.26373,788.5348,-0.00299072265625,0.1453857421875,0.97650146484375,1.8841552734375,-3.730926513671875,1.831817626953125,1.0,2.0,1.0,1.0,2.0,90.0,event
12:11:22.170,0.51633054,0.6985114,0.9436464,0.49125588,0.03261163,0.44893914,0.5684237,0.49413994,0.25221604,0.40614513,0.35275558,0.44445103,1.1295221,0.40839958,0.50619155,1.4092046,1.2245562,0.38368338,0.31886974,1.120282,794.57874,820.3663,793.7729,774.0293,668.46155,-0.00299072265625,0.1453857421875,0.97650146484375,1.8841552734375,-3.730926513671875,1.831817626953125,1.0,2.0,1.0,1.0,2.0,90.0,event
12:11:22.173,,,,,,,,,,,,,,,,,,,,,,,,,,,,,,,,,,,,,,blink
12:11:22.176,0.51633054,0.6985114,0.9436464,0.49125588,0.03261163,0.44893914,0.5684237,0.49413994,0.25221604,0.40614513,0.35275558,0.44445103,1.1295221,0.40839958,0.50619155,1.4092046,1.2245562,0.38368338,0.31886974,1.120282,767.5824,809.89014,803.8461,790.9524,788.93774,-0.00299072265625,0.1453857421875,0.97650146484375,1.8841552734375,-3.730926513671875,1.831817626953125,1.0,2.0,1.0,1.0,2.0,90.0,event
12:11:22.177,0.51633054,0.6985114,0.9436464,0.49125588,0.03261163,0.44893914,0.5684237,0.49413994,0.25221604,0.40614513,0.35275558,0.44445103,1.1295221,0.40839958,0.50619155,1.4092046,1.2245562,0.38368338,0.31886974,1.120282,808.68134,806.26373,796.5934,823.9927,823.1868,-0.00299072265625,0.1453857421875,0.97650146484375,1.8841552734375,-3.730926513671875,1.831817626953125,1.0,2.0,1.0,1.0,2.0,90.0,event
12:11:22.180,0.51633054,0.6985114,0.9436464,0.49125588,0.03261163,0.44893914,0.5684237,0.49413994,0.25221604,0.40614513,0.35275558,0.44445103,1.1295221,0.40839958,0.50619155,1.4092046,1.2245562,0.38368338,0.31886974,1.120282,813.91943,818.3516,796.5934,820.3663,751.8681,-0.00299072265625,0.1453857421875,0.97650146484375,1.8841552734375,-3.730926513671875,1.831817626953125,1.0,2.0,1.0,1.0,2.0,90.0,event
12:11:22.181,0.51633054,0.6985114,0.9436464,0.49125588,0.03261163,0.44893914,0.5684237,0.49413994,0.25221604,0.40614513,0.35275558,0.44445103,1.1295221,0.40839958,0.50619155,1.4092046,1.2245562,0.38368338,0.31886974,1.120282,800.6227,802.6374,803.8461,765.16486,973.8828,-0.00299072265625,0.1453857421875,0.97650146484375,1.8841552734375,-3.730926513671875,1.831817626953125,1.0,2.0,1.0,1.0,2.0,90.0,event
12:11:22.181,0.51633054,0.6985114,0.9436464,0.49125588,0.03261163,0.44893914,0.5684237,0.49413994,0.25221604,0.40614513,0.35275558,0.44445103,1.1295221,0.40839958,0.50619155,1.4092046,1.2245562,0.38368338,0.31886974,1.120282,792.5641,820.7692,803.0403,770.40295,816.7399,-0.00299072265625,0.1453857421875,0.97650146484375,1.8841552734375,-3.730926513671875,1.831817626953125,1.0,2.0,1.0,1.0,2.0,90.0,event
