TimeStamp,Delta_TP9,Delta_AF7,Delta_AF8,Delta_TP10,Theta_TP9,Theta_AF7,Theta_AF8,Theta_TP10,Alpha_TP9,Alpha_AF7,Alpha_AF8,Alpha_TP10,Beta_TP9,Beta_AF7,Beta_AF8,Beta_TP10,Gamma_TP9,Gamma_AF7,Gamma_AF8,Gamma_TP10,RAW_TP9,RAW_AF7,RAW_AF8,RAW_TP10,AUX_RIGHT,Accelerometer_X,Accelerometer_Y,Accelerometer_Z,Gyro_X,Gyro_Y,Gyro_Z,HeadBandOn,HSI_TP9,HSI_AF7,HSI_AF8,HSI_TP10,Battery,Elements
09:27:41.723,0.6559535,0.26897773,-0.035988867,0.46206358,0.269885,-0.316931,-0.17005831,0.27348724,0.5297098,0.09520269,0.22519124,0.31449518,0.48037574,-0.002367918,0.09241625,0.46990815,0.1425115,-0.35648802,-0.15394525,0.003175674,801.4286,801.02563,805.8608,790.54944,755.09155,-0.04052734375,0.08489990234375,0.9803466796875,1.203765869140625,-3.686065673828125,-1.039276123046875,1.0,1.0,1.0,1.0,1.0,80.0,event
09:27:41.725,0.6559535,0.26897773,-0.035988867,0.46206358,0.269885,-0.316931,-0.17005831,0.27348724,0.5297098,0.09520269,0.22519124,0.31449518,0.48037574,-0.002367918,0.09241625,0.46990815,0.1425115,-0.35648802,-0.15394525,0.003175674,796.99634,803.8461,803.0403,788.1319,755.4945,-0.04052734375,0.08489990234375,0.9803466796875,1.203765869140625,-3.686065673828125,-1.039276123046875,1.0,1.0,1.0,1.0,1.0,80.0,event
09:27:41.726,0.6559535,0.26897773,-0.035988867,0.46206358,0.269885,-0.316931,-0.17005831,0.27348724,0.5297098,0.09520269,0.22519124,0.31449518,0.48037574,-0.002367918,0.09241625,0.46990815,0.1425115,-0.35648802,-0.15394525,0.003175674,802.6374,808.2784,803.44324,784.90845,694.65204,-0.04052734375,0.08489990234375,0.9803466796875,1.203765869140625,-3.686065673828125,-1.039276123046875,1.0,1.0,1.0,1.0,1.0,80.0,event
09:27:41.728,0.6559535,0.26897773,-0.035988867,0.46206358,0.269885,-0.316931,-0.17005831,0.27348724,0.5297098,0.09520269,0.22519124,0.31449518,0.48037574,-0.002367918,0.09241625,0.46990815,0.1425115,-0.35648802,-0.15394525,0.003175674,813.91943,806.26373,803.44324,789.34064,686.1905,-0.04052734375,0.08489990234375,0.9803466796875,1.203765869140625,-3.686065673828125,-1.039276123046875,1.0,1.0,1.0,1.0,1.0,80.0,event
09:27:41.729,0.6559535,0.26897773,-0.035988867,0.46206358,0.269885,-0.316931,-0.17005831,0.27348724,0.5297098,0.09520269,0.22519124,0.31449518,0.48037574,-0.002367918,0.09241625,0.46990815,0.1425115,-0.35648802,-0.15394525,0.003175674,815.12823,806.26373,800.6227,794.9817,780.4762,-0.04052734375,0.08489990234375,0.9803466796875,1.203765869140625,-3.686065673828125,-1.039276123046875,1.0,1.0,1.0,1.0,1.0,80.0,event
09:27:41.730,0.6559535,0.26897773,-0.035988867,0.46206358,0.269885,-0.316931,-0.17005831,0.27348724,0.5297098,0.09520269,0.22519124,0.31449518,0.48037574,-0.002367918,0.09241625,0.46990815,0.1425115,-0.35648802,-0.15394525,0.003175674,804.2491,806.6667,801.02563,803.8461,859.45056,-0.04052734375,0.08489990234375,0.9803466796875,1.203765869140625,-3.686065673828125,-1.039276123046875,1.0,1.0,1.0,1.0,1.0,80.0,event
09:27:41.731,0.6559535,0.26897773,-0.035988867,0.46206358,0.269885,-0.316931,-0.17005831,0.27348724,0.5297098,0.09520269,0.22519124,0.31449518,0.48037574,-0.002367918,0.09241625,0.46990815,0.1425115,-0.35648802,-0.15394525,0.003175674,805.05493,796.99634,790.54944,794.17584,860.65936,-0.04052734375,0.08489990234375,0.9803466796875,1.203765869140625,-3.686065673828125,-1.039276123046875,1.0,1.0,1.0,1.0,1.0,80.0,event
09:27:41.732,0.6559535,0.26897773,-0.035988867,0.46206358,0.269885,-0.316931,-0.17005831,0.27348724,0.5297098,0.09520269,0.22519124,0.31449518,0.48037574,-0.002367918,0.09241625,0.46990815,0.1425115,-0.35648802,-0.15394525,0.003175674,801.02563,791.75824,796.1905,775.2381,760.32965,-0.04052734375,0.08489990234375,0.9803466796875,1.203765869140625,-3.686065673828125,-1.039276123046875,1.0,1.0,1.0,1.0,1.0,80.0,event
09:27:41.733,0.6559535,0.26897773,-0.035988867,0.46206358,0.269885,-0.316931,-0.17005831,0.27348724,0.5297098,0.09520269,0.22519124,0.31449518,0.48037574,-0.002367918,0.09241625,0.46990815,0.1425115,-0.35648802,-0.15394525,0.003175674,802.23444,797.3993,813.5165,780.07324,825.2015,-0.04052734375,0.08489990234375,0.9803466796875,1.203765869140625,-3.686065673828125,-1.039276123046875,1.0,1.0,1.0,1.0,1.0,80.0,event
09:27:41.734,0.6559535,0.26897773,-0.035988867,0.46206358,0.269885,-0.316931,-0.17005831,0.27348724,0.5297098,0.09520269,0.22519124,0.31449518,0.48037574,-0.002367918,0.09241625,0.46990815,0.1425115,-0.35648802,-0.15394525,0.003175674,805.05493,799.81683,811.50183,790.9524,948.0952,-0.04052734375,0.08489990234375,0.9803466796875,1.203765869140625,-3.686065673828125,-1.039276123046875,1.0,1.0,1.0,1.0,1.0,80.0,event
09:27:41.735,0.6559535,0.26897773,-0.035988867,0.46206358,0.269885,-0.316931,-0.17005831,0.27348724,0.5297098,0.09520269,0.22519124,0.31449518,0.48037574,-0.002367918,0.09241625,0.46990815,0.1425115,-0.35648802,-0.15394525,0.003175674,809.0842,800.2198,806.6667,799.41394,788.93774,-0.04052734375,0.08489990234375,0.9803466796875,1.203765869140625,-3.686065673828125,-1.039276123046875,1.0,1.0,1.0,1.0,1.0,80.0,event
09:27:41.736,0.6559535,0.26897773,-0.035988867,0.46206358,0.269885,-0.316931,-0.17005831,0.27348724,0.5297098,0.09520269,0.22519124,0.31449518,0.48037574,-0.002367918,0.09241625,0.46990815,0.1425115,-0.35648802,-0.15394525,0.003175674,810.293,799.41394,803.44324,800.2198,734.1392,-0.04052734375,0.08489990234375,0.9803466796875,1.203765869140625,-3.686065673828125,-1.039276123046875,1.0,1.0,1.0,1.0,1.0,80.0,event
09:27:41.767,0.6559535,0.26897773,-0.035988867,0.46206358,0.269885,-0.316931,-0.17005831,0.27348724,0.5297098,0.09520269,0.22519124,0.31449518,0.48037574,-0.002367918,0.09241625,0.46990815,0.1425115,-0.35648802,-0.15394525,0.003175674,803.8461,796.99634,801.4286,793.7729,725.6777,-0.05181884765625,0.082763671875,0.98529052734375,1.562652587890625,-3.521575927734375,-0.844879150390625,1.0,1.0,1.0,1.0,1.0,80.0,event
09:27:41.769,0.6559535,0.26897773,-0.035988867,0.46206358,0.269885,-0.316931,-0.17005831,0.27348724,0.5297098,0.09520269,0.22519124,0.31449518,0.48037574,-0.002367918,0.09241625,0.46990815,0.1425115,-0.35648802,-0.15394525,0.003175674,811.0989,799.011,794.57874,795.38464,690.6227,-0.05181884765625,0.082763671875,0.98529052734375,1.562652587890625,-3.521575927734375,-0.844879150390625,1.0,1.0,1.0,1.0,1.0,80.0,event
09:27:41.769,0.6559535,0.26897773,-0.035988867,0.46206358,0.269885,-0.316931,-0.17005831,0.27348724,0.5297098,0.09520269,0.22519124,0.31449518,0.48037574,-0.002367918,0.09241625,0.46990815,0.1425115,-0.35648802,-0.15394525,0.003175674,812.71063,795.38464,797.3993,801.02563,649.5238,-0.05181884765625,0.082763671875,0.98529052734375,1.562652587890625,-3.521575927734375,-0.844879150390625,1.0,1.0,1.0,1.0,1.0,80.0,event
09:27:41.770,0.6559535,0.26897773,-0.035988867,0.46206358,0.269885,-0.316931,-0.17005831,0.27348724,0.5297098,0.09520269,0.22519124,0.31449518,0.48037574,-0.002367918,0.09241625,0.46990815,0.1425115,-0.35648802,-0.15394525,0.003175674,794.57874,794.17584,808.2784,795.78754,737.76556,-0.05181884765625,0.082763671875,0.98529052734375,1.562652587890625,-3.521575927734375,-0.844879150390625,1.0,1.0,1.0,1.0,1.0,80.0,event
09:27:41.771,0.6559535,0.26897773,-0.035988867,0.46206358,0.269885,-0.316931,-0.17005831,0.27348724,0.5297098,0.09520269,0.22519124,0.31449518,0.48037574,-0.002367918,0.09241625,0.46990815,0.1425115,-0.35648802,-0.15394525,0.003175674,787.326,800.2198,803.8461,795.38464,861.06226,-0.05181884765625,0.082763671875,0.98529052734375,1.562652587890625,-3.521575927734375,-0.844879150390625,1.0,1.0,1.0,1.0,1.0,80.0,event
09:27:41.772,0.6559535,0.26897773,-0.035988867,0.46206358,0.269885,-0.316931,-0.17005831,0.27348724,0.5297098,0.09520269,0.22519124,0.31449518,0.48037574,-0.002367918,0.09241625,0.46990815,0.1425115,-0.35648802,-0.15394525,0.003175674,789.7436,799.41394,803.0403,793.36993,867.1062,-0.05181884765625,0.082763671875,0.98529052734375,1.562652587890625,-3.521575927734375,-0.844879150390625,1.0,1.0,1.0,1.0,1.0,80.0,event
09:27:41.772,0.6559535,0.26897773,-0.035988867,0.46206358,0.269885,-0.316931,-0.17005831,0.27348724,0.5297098,0.09520269,0.22519124,0.31449518,0.48037574,-0.002367918,0.09241625,0.46990815,0.1425115,-0.35648802,-0.15394525,0.003175674,794.9817,800.2198,805.05493,789.7436,814.7253,-0.05181884765625,0.082763671875,0.98529052734375,1.562652587890625,-3.521575927734375,-0.844879150390625,1.0,1.0,1.0,1.0,1.0,80.0,event
09:27:41.773,0.6381828,0.25157288,-0.045749117,0.43516105,0.2521683,-0.32554638,-0.17792004,0.2933679,0.5364772,0.07631566,0.22519124,0.31449518,0.49500385,-0.00068091764,0.12482156,0.46527746,0.13461812,-0.34122255,-0.13732712,-0.01962383,801.02563,800.6227,807.0696,796.99634,842.52747,-0.05181884765625,0.082763671875,0.98529052734375,1.562652587890625,-3.521575927734375,-0.844879150390625,1.0,1.0,1.0,1.0,1.0,80.0,event
09:27:41.778,0.6381828,0.25157288,-0.045749117,0.43516105,0.2521683,-0.32554638,-0.17792004,0.2933679,0.5364772,0.07631566,0.22519124,0.31449518,0.49500385,-0.00068091764,0.12482156,0.46527746,0.13461812,-0.34122255,-0.13732712,-0.01962383,802.6374,794.17584,805.05493,799.41394,1219.2675,-0.05181884765625,0.082763671875,0.98529052734375,1.562652587890625,-3.521575927734375,-0.844879150390625,1.0,1.0,1.0,1.0,1.0,80.0,event
09:27:41.779,0.6381828,0.25157288,-0.045749117,0.43516105,0.2521683,-0.32554638,-0.17792004,0.2933679,0.5364772,0.07631566,0.22519124,0.31449518,0.49500385,-0.00068091764,0.12482156,0.46527746,0.13461812,-0.34122255,-0.13732712,-0.01962383,800.2198,791.75824,803.8461,789.7436,1114.5055,-0.05181884765625,0.082763671875,0.98529052734375,1.562652587890625,-3.521575927734375,-0.844879150390625,1.0,1.0,1.0,1.0,1.0,80.0,event
09:27:41.780,0.6381828,0.25157288,-0.045749117,0.43516105,0.2521683,-0.32554638,-0.17792004,0.2933679,0.5364772,0.07631566,0.22519124,0.31449518,0.49500385,-0.00068091764,0.12482156,0.46527746,0.13461812,-0.34122255,-0.13732712,-0.01962383,811.0989,796.1905,803.8461,794.9817,752.674,-0.05181884765625,0.082763671875,0.98529052734375,1.562652587890625,-3.521575927734375,-0.844879150390625,1.0,1.0,1.0,1.0,1.0,80.0,event
09:27:41.781,0.6381828,0.25157288,-0.045749117,0.43516105,0.2521683,-0.32554638,-0.17792004,0.2933679,0.5364772,0.07631566,0.22519124,0.31449518,0.49500385,-0.00068091764,0.12482156,0.46527746,0.13461812,-0.34122255,-0.13732712,-0.01962383,813.91943,803.8461,810.696,799.81683,801.4286,-0.05181884765625,0.082763671875,0.98529052734375,1.562652587890625,-3.521575927734375,-0.844879150390625,1.0,1.0,1.0,1.0,1.0,80.0,event
09:27:41.811,0.6381828,0.25157288,-0.045749117,0.43516105,0.2521683,-0.32554638,-0.17792004,0.2933679,0.5364772,0.07631566,0.22519124,0.31449518,0.49500385,-0.00068091764,0.12482156,0.46527746,0.13461812,-0.34122255,-0.13732712,-0.01962383,805.05493,802.23444,818.3516,787.72894,803.44324,-0.040283203125,0.08868408203125,0.98675537109375,2.818756103515625,-4.3365478515625,0.560760498046875,1.0,1.0,1.0,1.0,1.0,80.0,event
09:27:41.812,0.6381828,0.25157288,-0.045749117,0.43516105,0.2521683,-0.32554638,-0.17792004,0.2933679,0.5364772,0.07631566,0.22519124,0.31449518,0.49500385,-0.00068091764,0.12482156,0.46527746,0.13461812,-0.34122255,-0.13732712,-0.01962383,814.3223,801.4286,812.71063,795.38464,718.022,-0.040283203125,0.08868408203125,0.98675537109375,2.818756103515625,-4.3365478515625,0.560760498046875,1.0,1.0,1.0,1.0,1.0,80.0,event
09:27:41.813,0.6381828,0.25157288,-0.045749117,0.43516105,0.2521683,-0.32554638,-0.17792004,0.2933679,0.5364772,0.07631566,0.22519124,0.31449518,0.49500385,-0.00068091764,0.12482156,0.46527746,0.13461812,-0.34122255,-0.13732712,-0.01962383,809.4872,800.6227,810.696,801.4286,716.4103,-0.040283203125,0.08868408203125,0.98675537109375,2.818756103515625,-4.3365478515625,0.560760498046875,1.0,1.0,1.0,1.0,1.0,80.0,event
09:27:41.814,0.6381828,0.25157288,-0.045749117,0.43516105,0.2521683,-0.32554638,-0.17792004,0.2933679,0.5364772,0.07631566,0.22519124,0.31449518,0.49500385,-0.00068091764,0.12482156,0.46527746,0.13461812,-0.34122255,-0.13732712,-0.01962383,797.8022,799.81683,809.0842,787.72894,752.27106,-0.040283203125,0.08868408203125,0.98675537109375,2.818756103515625,-4.3365478515625,0.560760498046875,1.0,1.0,1.0,1.0,1.0,80.0,event
09:27:41.815,0.6381828,0.25157288,-0.045749117,0.43516105,0.2521683,-0.32554638,-0.17792004,0.2933679,0.5364772,0.07631566,0.22519124,0.31449518,0.49500385,-0.00068091764,0.12482156,0.46527746,0.13461812,-0.34122255,-0.13732712,-0.01962383,796.1905,795.78754,804.65204,783.69965,786.1172,-0.040283203125,0.08868408203125,0.98675537109375,2.818756103515625,-4.3365478515625,0.560760498046875,1.0,1.0,1.0,1.0,1.0,80.0,event
09:27:41.816,0.6381828,0.25157288,-0.045749117,0.43516105,0.2521683,-0.32554638,-0.17792004,0.2933679,0.5364772,0.07631566,0.22519124,0.31449518,0.49500385,-0.00068091764,0.12482156,0.46527746,0.13461812,-0.34122255,-0.13732712,-0.01962383,802.6374,794.17584,803.8461,787.326,781.685,-0.040283203125,0.08868408203125,0.98675537109375,2.818756103515625,-4.3365478515625,0.560760498046875,1.0,1.0,1.0,1.0,1.0,80.0,event
09:27:41.817,0.6381828,0.25157288,-0.045749117,0.43516105,0.2521683,-0.32554638,-0.17792004,0.2933679,0.5364772,0.07631566,0.22519124,0.31449518,0.49500385,-0.00068091764,0.12482156,0.46527746,0.13461812,-0.34122255,-0.13732712,-0.01962383,807.8755,799.41394,804.2491,796.1905,838.49817,-0.040283203125,0.08868408203125,0.98675537109375,2.818756103515625,-4.3365478515625,0.560760498046875,1.0,1.0,1.0,1.0,1.0,80.0,event
09:27:41.817,0.6381828,0.25157288,-0.045749117,0.43516105,0.2521683,-0.32554638,-0.17792004,0.2933679,0.5364772,0.07631566,0.22519124,0.31449518,0.49500385,-0.00068091764,0.12482156,0.46527746,0.13461812,-0.34122255,-0.13732712,-0.01962383,808.2784,798.20514,806.6667,803.0403,937.2161,-0.040283203125,0.08868408203125,0.98675537109375,2.818756103515625,-4.3365478515625,0.560760498046875,1.0,1.0,1.0,1.0,1.0,80.0,event
09:27:41.818,0.6381828,0.25157288,-0.045749117,0.43516105,0.2521683,-0.32554638,-0.17792004,0.2933679,0.5364772,0.07631566,0.22519124,0.31449518,0.49500385,-0.00068091764,0.12482156,0.46527746,0.13461812,-0.34122255,-0.13732712,-0.01962383,814.7253,800.6227,809.89014,802.6374,815.5311,-0.040283203125,0.08868408203125,0.98675537109375,2.818756103515625,-4.3365478515625,0.560760498046875,1.0,1.0,1.0,1.0,1.0,80.0,event
09:27:41.818,0.6381828,0.25157288,-0.045749117,0.43516105,0.2521683,-0.32554638,-0.17792004,0.2933679,0.5364772,0.07631566,0.22519124,0.31449518,0.49500385,-0.00068091764,0.12482156,0.46527746,0.13461812,-0.34122255,-0.13732712,-0.01962383,818.7546,804.2491,808.68134,802.23444,713.9927,-0.040283203125,0.08868408203125,0.98675537109375,2.818756103515625,-4.3365478515625,0.560760498046875,1.0,1.0,1.0,1.0,1.0,80.0,event
09:27:41.819,0.6381828,0.25157288,-0.045749117,0.43516105,0.2521683,-0.32554638,-0.17792004,0.2933679,0.5364772,0.07631566,0.22519124,0.31449518,0.49500385,-0.00068091764,0.12482156,0.46527746,0.13461812,-0.34122255,-0.13732712,-0.01962383,807.47253,798.60803,809.4872,793.7729,680.14655,-0.040283203125,0.08868408203125,0.98675537109375,2.818756103515625,-4.3365478515625,0.560760498046875,1.0,1.0,1.0,1.0,1.0,80.0,event
09:27:41.820,0.6381828,0.25157288,-0.045749117,0.43516105,0.2521683,-0.32554638,-0.17792004,0.2933679,0.5364772,0.07631566,0.22519124,0.31449518,0.49500385,-0.00068091764,0.12482156,0.46527746,0.13461812,-0.34122255,-0.13732712,-0.01962383,809.89014,797.8022,809.0842,799.81683,936.4103,-0.040283203125,0.08868408203125,0.98675537109375,2.818756103515625,-4.3365478515625,0.560760498046875,1.0,1.0,1.0,1.0,1.0,80.0,event
09:27:41.851,0.6381828,0.25157288,-0.045749117,0.43516105,0.2521683,-0.32554638,-0.17792004,0.2933679,0.5364772,0.07631566,0.22519124,0.31449518,0.49500385,-0.00068091764,0.12482156,0.46527746,0.13461812,-0.34122255,-0.13732712,-0.01962383,813.5165,800.2198,802.23444,813.91943,1084.6886,-0.04388427734375,0.0889892578125,0.981689453125,1.77947998046875,-3.69354248046875,0.28411865234375,1.0,1.0,1.0,1.0,1.0,80.0,event
09:27:41.854,0.6381828,0.25157288,-0.045749117,0.43516105,0.2521683,-0.32554638,-0.17792004,0.2933679,0.5364772,0.07631566,0.22519124,0.31449518,0.49500385,-0.00068091764,0.12482156,0.46527746,0.13461812,-0.34122255,-0.13732712,-0.01962383,809.4872,797.8022,811.0989,800.2198,723.2601,-0.04388427734375,0.0889892578125,0.981689453125,1.77947998046875,-3.69354248046875,0.28411865234375,1.0,1.0,1.0,1.0,1.0,80.0,event
09:27:41.855,0.6381828,0.25157288,-0.045749117,0.43516105,0.2521683,-0.32554638,-0.17792004,0.2933679,0.5364772,0.07631566,0.22519124,0.31449518,0.49500385,-0.00068091764,0.12482156,0.46527746,0.13461812,-0.34122255,-0.13732712,-0.01962383,806.6667,795.38464,815.9341,779.2674,674.90845,-0.04388427734375,0.0889892578125,0.981689453125,1.77947998046875,-3.69354248046875,0.28411865234375,1.0,1.0,1.0,1.0,1.0,80.0,event
09:27:41.856,0.6381828,0.25157288,-0.045749117,0.43516105,0.2521683,-0.32554638,-0.17792004,0.2933679,0.5364772,0.07631566,0.22519124,0.31449518,0.49500385,-0.00068091764,0.12482156,0.46527746,0.13461812,-0.34122255,-0.13732712,-0.01962383,804.65204,799.41394,811.9048,773.6264,788.5348,-0.04388427734375,0.0889892578125,0.981689453125,1.77947998046875,-3.69354248046875,0.28411865234375,1.0,1.0,1.0,1.0,1.0,80.0,event
09:27:41.857,0.6381828,0.25157288,-0.045749117,0.43516105,0.2521683,-0.32554638,-0.17792004,0.2933679,0.5364772,0.07631566,0.22519124,0.31449518,0.49500385,-0.00068091764,0.12482156,0.46527746,0.13461812,-0.34122255,-0.13732712,-0.01962383,809.4872,799.41394,810.293,784.10254,753.8828,-0.04388427734375,0.0889892578125,0.981689453125,1.77947998046875,-3.69354248046875,0.28411865234375,1.0,1.0,1.0,1.0,1.0,80.0,event
09:27:41.858,0.6381828,0.25157288,-0.045749117,0.43516105,0.2521683,-0.32554638,-0.17792004,0.2933679,0.5364772,0.07631566,0.22519124,0.31449518,0.49500385,-0.00068091764,0.12482156,0.46527746,0.13461812,-0.34122255,-0.13732712,-0.01962383,815.5311,798.60803,802.23444,795.78754,792.1612,-0.04388427734375,0.0889892578125,0.981689453125,1.77947998046875,-3.69354248046875,0.28411865234375,1.0,1.0,1.0,1.0,1.0,80.0,event
09:27:41.859,0.6381828,0.25157288,-0.045749117,0.43516105,0.2521683,-0.32554638,-0.17792004,0.2933679,0.5364772,0.07631566,0.22519124,0.31449518,0.49500385,-0.00068091764,0.12482156,0.46527746,0.13461812,-0.34122255,-0.13732712,-0.01962383,817.5458,795.38464,804.2491,800.2198,887.25275,-0.04388427734375,0.0889892578125,0.981689453125,1.77947998046875,-3.69354248046875,0.28411865234375,1.0,1.0,1.0,1.0,1.0,80.0,event
09:27:41.860,0.6381828,0.25157288,-0.045749117,0.43516105,0.2521683,-0.32554638,-0.17792004,0.2933679,0.5364772,0.07631566,0.22519124,0.31449518,0.49500385,-0.00068091764,0.12482156,0.46527746,0.13461812,-0.34122255,-0.13732712,-0.01962383,816.337,792.5641,805.8608,795.78754,1045.2014,-0.04388427734375,0.0889892578125,0.981689453125,1.77947998046875,-3.69354248046875,0.28411865234375,1.0,1.0,1.0,1.0,1.0,80.0,event
09:27:41.861,0.6381828,0.25157288,-0.045749117,0.43516105,0.2521683,-0.32554638,-0.17792004,0.2933679,0.5364772,0.07631566,0.22519124,0.31449518,0.49500385,-0.00068091764,0.12482156,0.46527746,0.13461812,-0.34122255,-0.13732712,-0.01962383,810.696,797.8022,797.3993,789.34064,851.39197,-0.04388427734375,0.0889892578125,0.981689453125,1.77947998046875,-3.69354248046875,0.28411865234375,1.0,1.0,1.0,1.0,1.0,80.0,event
09:27:41.862,0.6437451,0.23360881,-0.051290132,0.4226738,0.24538517,-0.33840474,-0.19193925,0.30751142,0.5441067,0.086763285,0.22519124,0.31449518,0.50413483,0.002615393,0.16201983,0.4614011,0.13022636,-0.3102525,-0.12021062,-0.031066906,807.47253,795.78754,795.38464,789.7436,649.5238,-0.04388427734375,0.0889892578125,0.981689453125,1.77947998046875,-3.69354248046875,0.28411865234375,1.0,1.0,1.0,1.0,1.0,80.0,event
09:27:41.865,0.6437451,0.23360881,-0.051290132,0.4226738,0.24538517,-0.33840474,-0.19193925,0.30751142,0.5441067,0.086763285,0.22519124,0.31449518,0.50413483,0.002615393,0.16201983,0.4614011,0.13022636,-0.3102525,-0.12021062,-0.031066906,805.8608,792.5641,807.8755,795.38464,765.16486,-0.04388427734375,0.0889892578125,0.981689453125,1.77947998046875,-3.69354248046875,0.28411865234375,1.0,1.0,1.0,1.0,1.0,80.0,event
09:27:41.866,0.6437451,0.23360881,-0.051290132,0.4226738,0.24538517,-0.33840474,-0.19193925,0.30751142,0.5441067,0.086763285,0.22519124,0.31449518,0.50413483,0.002615393,0.16201983,0.4614011,0.13022636,-0.3102525,-0.12021062,-0.031066906,796.1905,788.1319,807.8755,787.72894,781.685,-0.04388427734375,0.0889892578125,0.981689453125,1.77947998046875,-3.69354248046875,0.28411865234375,1.0,1.0,1.0,1.0,1.0,80.0,event
09:27:41.902,0.6437451,0.23360881,-0.051290132,0.4226738,0.24538517,-0.33840474,-0.19193925,0.30751142,0.5441067,0.086763285,0.22519124,0.31449518,0.50413483,0.002615393,0.16201983,0.4614011,0.13022636,-0.3102525,-0.12021062,-0.031066906,800.2198,794.57874,800.6227,788.1319,795.38464,-0.04388427734375,0.0889892578125,0.981689453125,1.77947998046875,-3.69354248046875,0.28411865234375,1.0,1.0,1.0,1.0,1.0,80.0,event
09:27:41.903,0.6437451,0.23360881,-0.051290132,0.4226738,0.24538517,-0.33840474,-0.19193925,0.30751142,0.5441067,0.086763285,0.22519124,0.31449518,0.50413483,0.002615393,0.16201983,0.4614011,0.13022636,-0.3102525,-0.12021062,-0.031066906,803.8461,797.8022,805.4579,786.52014,750.65936,-0.04388427734375,0.0889892578125,0.981689453125,1.77947998046875,-3.69354248046875,0.28411865234375,1.0,1.0,1.0,1.0,1.0,80.0,event
09:27:41.904,0.6437451,0.23360881,-0.051290132,0.4226738,0.24538517,-0.33840474,-0.19193925,0.30751142,0.5441067,0.086763285,0.22519124,0.31449518,0.50413483,0.002615393,0.16201983,0.4614011,0.13022636,-0.3102525,-0.12021062,-0.031066906,805.05493,797.3993,811.0989,780.87915,821.1722,-0.04388427734375,0.0889892578125,0.981689453125,1.77947998046875,-3.69354248046875,0.28411865234375,1.0,1.0,1.0,1.0,1.0,80.0,event
09:27:41.904,0.6437451,0.23360881,-0.051290132,0.4226738,0.24538517,-0.33840474,-0.19193925,0.30751142,0.5441067,0.086763285,0.22519124,0.31449518,0.50413483,0.002615393,0.16201983,0.4614011,0.13022636,-0.3102525,-0.12021062,-0.031066906,806.26373,800.2198,811.9048,780.07324,865.89746,-0.04388427734375,0.0889892578125,0.981689453125,1.77947998046875,-3.69354248046875,0.28411865234375,1.0,1.0,1.0,1.0,1.0,80.0,event
09:27:41.905,0.6437451,0.23360881,-0.051290132,0.4226738,0.24538517,-0.33840474,-0.19193925,0.30751142,0.5441067,0.086763285,0.22519124,0.31449518,0.50413483,0.002615393,0.16201983,0.4614011,0.13022636,-0.3102525,-0.12021062,-0.031066906,799.81683,797.8022,807.47253,777.6557,807.8755,-0.04388427734375,0.0889892578125,0.981689453125,1.77947998046875,-3.69354248046875,0.28411865234375,1.0,1.0,1.0,1.0,1.0,80.0,event
09:27:41.906,0.6437451,0.23360881,-0.051290132,0.4226738,0.24538517,-0.33840474,-0.19193925,0.30751142,0.5441067,0.086763285,0.22519124,0.31449518,0.50413483,0.002615393,0.16201983,0.4614011,0.13022636,-0.3102525,-0.12021062,-0.031066906,811.50183,803.8461,807.8755,785.31134,904.9817,-0.04388427734375,0.0889892578125,0.981689453125,1.77947998046875,-3.69354248046875,0.28411865234375,1.0,1.0,1.0,1.0,1.0,80.0,event
09:27:41.907,0.6437451,0.23360881,-0.051290132,0.4226738,0.24538517,-0.33840474,-0.19193925,0.30751142,0.5441067,0.086763285,0.22519124,0.31449518,0.50413483,0.002615393,0.16201983,0.4614011,0.13022636,-0.3102525,-0.12021062,-0.031066906,811.0989,805.05493,812.3077,788.93774,902.5641,-0.04388427734375,0.0889892578125,0.981689453125,1.77947998046875,-3.69354248046875,0.28411865234375,1.0,1.0,1.0,1.0,1.0,80.0,event
09:27:41.908,0.6437451,0.23360881,-0.051290132,0.4226738,0.24538517,-0.33840474,-0.19193925,0.30751142,0.5441067,0.086763285,0.22519124,0.31449518,0.50413483,0.002615393,0.16201983,0.4614011,0.13022636,-0.3102525,-0.12021062,-0.031066906,801.8315,805.8608,806.6667,781.685,745.0183,-0.04388427734375,0.0889892578125,0.981689453125,1.77947998046875,-3.69354248046875,0.28411865234375,1.0,1.0,1.0,1.0,1.0,80.0,event
09:27:41.908,0.6437451,0.23360881,-0.051290132,0.4226738,0.24538517,-0.33840474,-0.19193925,0.30751142,0.5441067,0.086763285,0.22519124,0.31449518,0.50413483,0.002615393,0.16201983,0.4614011,0.13022636,-0.3102525,-0.12021062,-0.031066906,793.36993,808.68134,804.2491,778.86444,721.6484,-0.04388427734375,0.0889892578125,0.981689453125,1.77947998046875,-3.69354248046875,0.28411865234375,1.0,1.0,1.0,1.0,1.0,80.0,event
09:27:41.909,0.6437451,0.23360881,-0.051290132,0.4226738,0.24538517,-0.33840474,-0.19193925,0.30751142,0.5441067,0.086763285,0.22519124,0.31449518,0.50413483,0.002615393,0.16201983,0.4614011,0.13022636,-0.3102525,-0.12021062,-0.031066906,774.83514,807.47253,807.0696,752.674,938.4249,-0.04388427734375,0.0889892578125,0.981689453125,1.77947998046875,-3.69354248046875,0.28411865234375,1.0,1.0,1.0,1.0,1.0,80.0,event
09:27:41.909,0.6437451,0.23360881,-0.051290132,0.4226738,0.24538517,-0.33840474,-0.19193925,0.30751142,0.5441067,0.086763285,0.22519124,0.31449518,0.50413483,0.002615393,0.16201983,0.4614011,0.13022636,-0.3102525,-0.12021062,-0.031066906,778.86444,807.0696,805.05493,768.7912,726.4835,-0.04388427734375,0.0889892578125,0.981689453125,1.77947998046875,-3.69354248046875,0.28411865234375,1.0,1.0,1.0,1.0,1.0,80.0,event
09:27:41.910,0.6437451,0.23360881,-0.051290132,0.4226738,0.24538517,-0.33840474,-0.19193925,0.30751142,0.5441067,0.086763285,0.22519124,0.31449518,0.50413483,0.002615393,0.16201983,0.4614011,0.13022636,-0.3102525,-0.12021062,-0.031066906,765.56775,810.293,810.696,733.3333,1018.20514,-0.04388427734375,0.0889892578125,0.981689453125,1.77947998046875,-3.69354248046875,0.28411865234375,1.0,1.0,1.0,1.0,1.0,80.0,event
09:27:41.951,0.6437451,0.23360881,-0.051290132,0.4226738,0.24538517,-0.33840474,-0.19193925,0.30751142,0.5441067,0.086763285,0.22519124,0.31449518,0.50413483,0.002615393,0.16201983,0.4614011,0.13022636,-0.3102525,-0.12021062,-0.031066906,746.2271,813.1135,811.0989,709.15753,698.2784,-0.04376220703125,0.08551025390625,0.985595703125,2.37762451171875,-4.11224365234375,-0.07476806640625,1.0,1.0,1.0,1.0,1.0,80.0,event
09:27:41.952,0.6437451,0.23360881,-0.051290132,0.4226738,0.24538517,-0.33840474,-0.19193925,0.30751142,0.5441067,0.086763285,0.22519124,0.31449518,0.50413483,0.002615393,0.16201983,0.4614011,0.13022636,-0.3102525,-0.12021062,-0.031066906,730.5128,814.3223,813.1135,698.68134,698.68134,-0.04376220703125,0.08551025390625,0.985595703125,2.37762451171875,-4.11224365234375,-0.07476806640625,1.0,1.0,1.0,1.0,1.0,80.0,event
09:27:41.953,0.6437451,0.23360881,-0.051290132,0.4226738,0.24538517,-0.33840474,-0.19193925,0.30751142,0.5441067,0.086763285,0.22519124,0.31449518,0.50413483,0.002615393,0.16201983,0.4614011,0.13022636,-0.3102525,-0.12021062,-0.031066906,702.71063,811.50183,812.3077,678.5348,786.1172,-0.04376220703125,0.08551025390625,0.985595703125,2.37762451171875,-4.11224365234375,-0.07476806640625,1.0,1.0,1.0,1.0,1.0,80.0,event
09:27:41.953,0.6437451,0.23360881,-0.051290132,0.4226738,0.24538517,-0.33840474,-0.19193925,0.30751142,0.5441067,0.086763285,0.22519124,0.31449518,0.50413483,0.002615393,0.16201983,0.4614011,0.13022636,-0.3102525,-0.12021062,-0.031066906,668.86444,811.50183,813.91943,652.74725,732.9304,-0.04376220703125,0.08551025390625,0.985595703125,2.37762451171875,-4.11224365234375,-0.07476806640625,1.0,1.0,1.0,1.0,1.0,80.0,event
09:27:41.954,0.6437451,0.23360881,-0.051290132,0.4226738,0.24538517,-0.33840474,-0.19193925,0.30751142,0.5441067,0.086763285,0.22519124,0.31449518,0.50413483,0.002615393,0.16201983,0.4614011,0.13022636,-0.3102525,-0.12021062,-0.031066906,655.56775,816.337,817.5458,633.00366,704.3223,-0.04376220703125,0.08551025390625,0.985595703125,2.37762451171875,-4.11224365234375,-0.07476806640625,1.0,1.0,1.0,1.0,1.0,80.0,event
09:27:41.954,0.6437451,0.23360881,-0.051290132,0.4226738,0.24538517,-0.33840474,-0.19193925,0.30751142,0.5441067,0.086763285,0.22519124,0.31449518,0.50413483,0.002615393,0.16201983,0.4614011,0.13022636,-0.3102525,-0.12021062,-0.031066906,647.1062,818.7546,816.7399,621.7216,846.1539,-0.04376220703125,0.08551025390625,0.985595703125,2.37762451171875,-4.11224365234375,-0.07476806640625,1.0,1.0,1.0,1.0,1.0,80.0,event
09:27:41.955,0.6437451,0.23360881,-0.051290132,0.4226738,0.24538517,-0.33840474,-0.19193925,0.30751142,0.5441067,0.086763285,0.22519124,0.31449518,0.50413483,0.002615393,0.16201983,0.4614011,0.13022636,-0.3102525,-0.12021062,-0.031066906,629.7802,820.3663,819.9634,620.5128,1032.3077,-0.04376220703125,0.08551025390625,0.985595703125,2.37762451171875,-4.11224365234375,-0.07476806640625,1.0,1.0,1.0,1.0,1.0,80.0,event
09:27:41.956,0.6437451,0.23360881,-0.051290132,0.4226738,0.24538517,-0.33840474,-0.19193925,0.30751142,0.5441067,0.086763285,0.22519124,0.31449518,0.50413483,0.002615393,0.16201983,0.4614011,0.13022636,-0.3102525,-0.12021062,-0.031066906,614.87177,819.9634,820.7692,612.0513,903.36993,-0.04376220703125,0.08551025390625,0.985595703125,2.37762451171875,-4.11224365234375,-0.07476806640625,1.0,1.0,1.0,1.0,1.0,80.0,event
09:27:41.956,0.6437451,0.23360881,-0.051290132,0.4226738,0.24538517,-0.33840474,-0.19193925,0.30751142,0.5441067,0.086763285,0.22519124,0.31449518,0.50413483,0.002615393,0.16201983,0.4614011,0.13022636,-0.3102525,-0.12021062,-0.031066906,615.6777,823.5897,819.9634,611.2454,693.44324,-0.04376220703125,0.08551025390625,0.985595703125,2.37762451171875,-4.11224365234375,-0.07476806640625,1.0,1.0,1.0,1.0,1.0,80.0,event
09:27:41.957,0.6437451,0.23360881,-0.051290132,0.4226738,0.24538517,-0.33840474,-0.19193925,0.30751142,0.5441067,0.086763285,0.22519124,0.31449518,0.50413483,0.002615393,0.16201983,0.4614011,0.13022636,-0.3102525,-0.12021062,-0.031066906,635.82416,827.619,820.3663,619.707,773.22345,-0.04376220703125,0.08551025390625,0.985595703125,2.37762451171875,-4.11224365234375,-0.07476806640625,1.0,1.0,1.0,1.0,1.0,80.0,event
09:27:41.958,0.6437451,0.23360881,-0.051290132,0.4226738,0.24538517,-0.33840474,-0.19193925,0.30751142,0.5441067,0.086763285,0.22519124,0.31449518,0.50413483,0.002615393,0.16201983,0.4614011,0.13022636,-0.3102525,-0.12021062,-0.031066906,633.8095,826.4103,815.12823,618.49817,898.5348,-0.04376220703125,0.08551025390625,0.985595703125,2.37762451171875,-4.11224365234375,-0.07476806640625,1.0,1.0,1.0,1.0,1.0,80.0,event
09:27:41.958,0.6437451,0.2174939,-0.039277088,0.4226738,0.24538517,-0.36195332,-0.20506349,0.30751142,0.5441067,0.12806284,0.22519124,0.31449518,0.50413483,0.00686223,0.20112489,0.4614011,0.13022636,-0.27361313,-0.1047466,-0.031066906,624.94507,827.619,815.12823,625.7509,755.4945,-0.04376220703125,0.08551025390625,0.985595703125,2.37762451171875,-4.11224365234375,-0.07476806640625,1.0,1.0,1.0,1.0,1.0,80.0,event
09:27:41.983,0.6437451,0.2174939,-0.039277088,0.4226738,0.24538517,-0.36195332,-0.20506349,0.30751142,0.5441067,0.12806284,0.22519124,0.31449518,0.50413483,0.00686223,0.20112489,0.4614011,0.13022636,-0.27361313,-0.1047466,-0.031066906,637.4359,823.5897,819.5604,626.1539,711.1722,-0.04071044921875,0.0902099609375,0.9849853515625,2.385101318359375,-3.656158447265625,0.216827392578125,1.0,1.0,1.0,1.0,1.0,80.0,event
09:27:41.984,0.6437451,0.2174939,-0.039277088,0.4226738,0.24538517,-0.36195332,-0.20506349,0.30751142,0.5441067,0.12806284,0.22519124,0.31449518,0.50413483,0.00686223,0.20112489,0.4614011,0.13022636,-0.27361313,-0.1047466,-0.031066906,647.9121,823.1868,815.9341,625.34796,830.4396,-0.04071044921875,0.0902099609375,0.9849853515625,2.385101318359375,-3.656158447265625,0.216827392578125,1.0,1.0,1.0,1.0,1.0,80.0,event
09:27:41.984,0.6437451,0.2174939,-0.039277088,0.4226738,0.24538517,-0.36195332,-0.20506349,0.30751142,0.5441067,0.12806284,0.22519124,0.31449518,0.50413483,0.00686223,0.20112489,0.4614011,0.13022636,-0.27361313,-0.1047466,-0.031066906,661.6117,823.1868,811.0989,639.85345,793.7729,-0.04071044921875,0.0902099609375,0.9849853515625,2.385101318359375,-3.656158447265625,0.216827392578125,1.0,1.0,1.0,1.0,1.0,80.0,event
09:27:41.985,0.6437451,0.2174939,-0.039277088,0.4226738,0.24538517,-0.36195332,-0.20506349,0.30751142,0.5441067,0.12806284,0.22519124,0.31449518,0.50413483,0.00686223,0.20112489,0.4614011,0.13022636,-0.27361313,-0.1047466,-0.031066906,689.41394,823.9927,814.7253,666.04395,694.65204,-0.04071044921875,0.0902099609375,0.9849853515625,2.385101318359375,-3.656158447265625,0.216827392578125,1.0,1.0,1.0,1.0,1.0,80.0,event
09:27:41.985,0.6437451,0.2174939,-0.039277088,0.4226738,0.24538517,-0.36195332,-0.20506349,0.30751142,0.5441067,0.12806284,0.22519124,0.31449518,0.50413483,0.00686223,0.20112489,0.4614011,0.13022636,-0.27361313,-0.1047466,-0.031066906,679.34064,826.4103,813.91943,647.50916,689.41394,-0.04071044921875,0.0902099609375,0.9849853515625,2.385101318359375,-3.656158447265625,0.216827392578125,1.0,1.0,1.0,1.0,1.0,80.0,event
09:27:41.986,0.6437451,0.2174939,-0.039277088,0.4226738,0.24538517,-0.36195332,-0.20506349,0.30751142,0.5441067,0.12806284,0.22519124,0.31449518,0.50413483,0.00686223,0.20112489,0.4614011,0.13022636,-0.27361313,-0.1047466,-0.031066906,704.7253,818.7546,811.9048,692.6374,869.92676,-0.04071044921875,0.0902099609375,0.9849853515625,2.385101318359375,-3.656158447265625,0.216827392578125,1.0,1.0,1.0,1.0,1.0,80.0,event
09:27:41.987,0.6437451,0.2174939,-0.039277088,0.4226738,0.24538517,-0.36195332,-0.20506349,0.30751142,0.5441067,0.12806284,0.22519124,0.31449518,0.50413483,0.00686223,0.20112489,0.4614011,0.13022636,-0.27361313,-0.1047466,-0.031066906,721.6484,819.9634,810.696,697.8755,929.9634,-0.04071044921875,0.0902099609375,0.9849853515625,2.385101318359375,-3.656158447265625,0.216827392578125,1.0,1.0,1.0,1.0,1.0,80.0,event
09:27:41.987,0.6437451,0.2174939,-0.039277088,0.4226738,0.24538517,-0.36195332,-0.20506349,0.30751142,0.5441067,0.12806284,0.22519124,0.31449518,0.50413483,0.00686223,0.20112489,0.4614011,0.13022636,-0.27361313,-0.1047466,-0.031066906,723.663,813.91943,813.1135,693.44324,764.35895,-0.04071044921875,0.0902099609375,0.9849853515625,2.385101318359375,-3.656158447265625,0.216827392578125,1.0,1.0,1.0,1.0,1.0,80.0,event
09:27:41.988,0.6437451,0.2174939,-0.039277088,0.4226738,0.24538517,-0.36195332,-0.20506349,0.30751142,0.5441067,0.12806284,0.22519124,0.31449518,0.50413483,0.00686223,0.20112489,0.4614011,0.13022636,-0.27361313,-0.1047466,-0.031066906,724.87177,803.0403,809.4872,701.50183,707.9487,-0.04071044921875,0.0902099609375,0.9849853515625,2.385101318359375,-3.656158447265625,0.216827392578125,1.0,1.0,1.0,1.0,1.0,80.0,event
09:27:41.988,0.6437451,0.2174939,-0.039277088,0.4226738,0.24538517,-0.36195332,-0.20506349,0.30751142,0.5441067,0.12806284,0.22519124,0.31449518,0.50413483,0.00686223,0.20112489,0.4614011,0.13022636,-0.27361313,-0.1047466,-0.031066906,738.1685,799.81683,803.8461,720.84247,927.1429,-0.04071044921875,0.0902099609375,0.9849853515625,2.385101318359375,-3.656158447265625,0.216827392578125,1.0,1.0,1.0,1.0,1.0,80.0,event
09:27:41.989,0.6437451,0.2174939,-0.039277088,0.4226738,0.24538517,-0.36195332,-0.20506349,0.30751142,0.5441067,0.12806284,0.22519124,0.31449518,0.50413483,0.00686223,0.20112489,0.4614011,0.13022636,-0.27361313,-0.1047466,-0.031066906,752.674,802.6374,805.05493,745.82416,1013.7729,-0.04071044921875,0.0902099609375,0.9849853515625,2.385101318359375,-3.656158447265625,0.216827392578125,1.0,1.0,1.0,1.0,1.0,80.0,event
09:27:41.990,0.6437451,0.2174939,-0.039277088,0.4226738,0.24538517,-0.36195332,-0.20506349,0.30751142,0.5441067,0.12806284,0.22519124,0.31449518,0.50413483,0.00686223,0.20112489,0.4614011,0.13022636,-0.27361313,-0.1047466,-0.031066906,772.4176,800.6227,807.47253,754.2857,765.16486,-0.04071044921875,0.0902099609375,0.9849853515625,2.385101318359375,-3.656158447265625,0.216827392578125,1.0,1.0,1.0,1.0,1.0,80.0,event
09:27:42.019,0.6437451,0.2174939,-0.039277088,0.4226738,0.24538517,-0.36195332,-0.20506349,0.30751142,0.5441067,0.12806284,0.22519124,0.31449518,0.50413483,0.00686223,0.20112489,0.4614011,0.13022636,-0.27361313,-0.1047466,-0.031066906,782.49084,798.60803,808.68134,751.06226,697.0696,-0.0423583984375,0.0926513671875,0.97283935546875,2.026214599609375,-3.506622314453125,0.142059326171875,1.0,1.0,1.0,1.0,1.0,80.0,event
09:27:42.020,0.6437451,0.2174939,-0.039277088,0.4226738,0.24538517,-0.36195332,-0.20506349,0.30751142,0.5441067,0.12806284,0.22519124,0.31449518,0.50413483,0.00686223,0.20112489,0.4614011,0.13022636,-0.27361313,-0.1047466,-0.031066906,796.1905,796.1905,806.6667,764.35895,737.3626,-0.0423583984375,0.0926513671875,0.97283935546875,2.026214599609375,-3.506622314453125,0.142059326171875,1.0,1.0,1.0,1.0,1.0,80.0,event
09:27:42.022,0.6437451,0.2174939,-0.039277088,0.4226738,0.24538517,-0.36195332,-0.20506349,0.30751142,0.5441067,0.12806284,0.22519124,0.31449518,0.50413483,0.00686223,0.20112489,0.4614011,0.13022636,-0.27361313,-0.1047466,-0.031066906,808.68134,796.1905,803.8461,778.46155,734.1392,-0.0423583984375,0.0926513671875,0.97283935546875,2.026214599609375,-3.506622314453125,0.142059326171875,1.0,1.0,1.0,1.0,1.0,80.0,event
09:27:42.022,0.6437451,0.2174939,-0.039277088,0.4226738,0.24538517,-0.36195332,-0.20506349,0.30751142,0.5441067,0.12806284,0.22519124,0.31449518,0.50413483,0.00686223,0.20112489,0.4614011,0.13022636,-0.27361313,-0.1047466,-0.031066906,813.1135,802.23444,805.05493,797.3993,734.5421,-0.0423583984375,0.0926513671875,0.97283935546875,2.026214599609375,-3.506622314453125,0.142059326171875,1.0,1.0,1.0,1.0,1.0,80.0,event
09:27:42.023,0.6437451,0.2174939,-0.039277088,0.4226738,0.24538517,-0.36195332,-0.20506349,0.30751142,0.5441067,0.12806284,0.22519124,0.31449518,0.50413483,0.00686223,0.20112489,0.4614011,0.13022636,-0.27361313,-0.1047466,-0.031066906,826.0073,802.23444,809.4872,809.89014,758.315,-0.0423583984375,0.0926513671875,0.97283935546875,2.026214599609375,-3.506622314453125,0.142059326171875,1.0,1.0,1.0,1.0,1.0,80.0,event
09:27:42.024,0.6437451,0.2174939,-0.039277088,0.4226738,0.24538517,-0.36195332,-0.20506349,0.30751142,0.5441067,0.12806284,0.22519124,0.31449518,0.50413483,0.00686223,0.20112489,0.4614011,0.13022636,-0.27361313,-0.1047466,-0.031066906,834.87177,798.20514,814.7253,804.2491,833.663,-0.0423583984375,0.0926513671875,0.97283935546875,2.026214599609375,-3.506622314453125,0.142059326171875,1.0,1.0,1.0,1.0,1.0,80.0,event
09:27:42.024,0.6437451,0.2174939,-0.039277088,0.4226738,0.24538517,-0.36195332,-0.20506349,0.30751142,0.5441067,0.12806284,0.22519124,0.31449518,0.50413483,0.00686223,0.20112489,0.4614011,0.13022636,-0.27361313,-0.1047466,-0.031066906,831.6484,793.36993,808.2784,809.89014,884.0293,-0.0423583984375,0.0926513671875,0.97283935546875,2.026214599609375,-3.506622314453125,0.142059326171875,1.0,1.0,1.0,1.0,1.0,80.0,event
09:27:42.025,0.6437451,0.2174939,-0.039277088,0.4226738,0.24538517,-0.36195332,-0.20506349,0.30751142,0.5441067,0.12806284,0.22519124,0.31449518,0.50413483,0.00686223,0.20112489,0.4614011,0.13022636,-0.27361313,-0.1047466,-0.031066906,839.304,791.3553,803.8461,820.3663,746.2271,-0.0423583984375,0.0926513671875,0.97283935546875,2.026214599609375,-3.506622314453125,0.142059326171875,1.0,1.0,1.0,1.0,1.0,80.0,event
09:27:42.026,0.6437451,0.2174939,-0.039277088,0.4226738,0.24538517,-0.36195332,-0.20506349,0.30751142,0.5441067,0.12806284,0.22519124,0.31449518,0.50413483,0.00686223,0.20112489,0.4614011,0.13022636,-0.27361313,-0.1047466,-0.031066906,847.3626,790.54944,802.23444,850.58606,1015.78754,-0.0423583984375,0.0926513671875,0.97283935546875,2.026214599609375,-3.506622314453125,0.142059326171875,1.0,1.0,1.0,1.0,1.0,80.0,event
09:27:42.026,0.6437451,0.2174939,-0.039277088,0.4226738,0.24538517,-0.36195332,-0.20506349,0.30751142,0.5441067,0.12806284,0.22519124,0.31449518,0.50413483,0.00686223,0.20112489,0.4614011,0.13022636,-0.27361313,-0.1047466,-0.031066906,846.1539,790.54944,802.23444,830.4396,772.4176,-0.0423583984375,0.0926513671875,0.97283935546875,2.026214599609375,-3.506622314453125,0.142059326171875,1.0,1.0,1.0,1.0,1.0,80.0,event
09:27:42.027,0.6437451,0.2174939,-0.039277088,0.4226738,0.24538517,-0.36195332,-0.20506349,0.30751142,0.5441067,0.12806284,0.22519124,0.31449518,0.50413483,0.00686223,0.20112489,0.4614011,0.13022636,-0.27361313,-0.1047466,-0.031066906,862.674,792.5641,803.8461,853.8095,890.07324,-0.0423583984375,0.0926513671875,0.97283935546875,2.026214599609375,-3.506622314453125,0.142059326171875,1.0,1.0,1.0,1.0,1.0,80.0,event
09:27:42.027,0.6437451,0.2174939,-0.039277088,0.4226738,0.24538517,-0.36195332,-0.20506349,0.30751142,0.5441067,0.12806284,0.22519124,0.31449518,0.50413483,0.00686223,0.20112489,0.4614011,0.13022636,-0.27361313,-0.1047466,-0.031066906,859.0476,790.14655,806.6667,834.87177,790.54944,-0.0423583984375,0.0926513671875,0.97283935546875,2.026214599609375,-3.506622314453125,0.142059326171875,1.0,1.0,1.0,1.0,1.0,80.0,event
09:27:42.086,0.6437451,0.2174939,-0.039277088,0.4226738,0.24538517,-0.36195332,-0.20506349,0.30751142,0.5441067,0.12806284,0.22519124,0.31449518,0.50413483,0.00686223,0.20112489,0.4614011,0.13022636,-0.27361313,-0.1047466,-0.031066906,852.6007,789.7436,801.8315,834.87177,950.5128,-0.04736328125,0.091552734375,0.98870849609375,2.27294921875,-3.5888671875,0.88226318359375,1.0,1.0,1.0,1.0,1.0,80.0,event
09:27:42.088,0.6437451,0.20345807,0.0043681967,0.4226738,0.24538517,-0.39018393,-0.20953305,0.30751142,0.5441067,0.14554588,0.20867623,0.31449518,0.50413483,0.0081835855,0.23575704,0.4614011,0.13022636,-0.24084125,-0.09263192,-0.031066906,863.47986,794.17584,796.5934,852.6007,945.6777,-0.04736328125,0.091552734375,0.98870849609375,2.27294921875,-3.5888671875,0.88226318359375,1.0,1.0,1.0,1.0,1.0,80.0,event
09:27:42.094,0.6437451,0.20345807,0.0043681967,0.4226738,0.24538517,-0.39018393,-0.20953305,0.30751142,0.5441067,0.14554588,0.20867623,0.31449518,0.50413483,0.0081835855,0.23575704,0.4614011,0.13022636,-0.24084125,-0.09263192,-0.031066906,871.9414,799.011,795.78754,857.03296,775.64105,-0.04736328125,0.091552734375,0.98870849609375,2.27294921875,-3.5888671875,0.88226318359375,1.0,1.0,1.0,1.0,1.0,80.0,event
09:27:42.094,0.6437451,0.20345807,0.0043681967,0.4226738,0.24538517,-0.39018393,-0.20953305,0.30751142,0.5441067,0.14554588,0.20867623,0.31449518,0.50413483,0.0081835855,0.23575704,0.4614011,0.13022636,-0.24084125,-0.09263192,-0.031066906,870.7326,794.9817,792.1612,847.3626,699.4872,-0.04736328125,0.091552734375,0.98870849609375,2.27294921875,-3.5888671875,0.88226318359375,1.0,1.0,1.0,1.0,1.0,80.0,event
09:27:42.095,0.6437451,0.20345807,0.0043681967,0.4226738,0.24538517,-0.39018393,-0.20953305,0.30751142,0.5441067,0.14554588,0.20867623,0.31449518,0.50413483,0.0081835855,0.23575704,0.4614011,0.13022636,-0.24084125,-0.09263192,-0.031066906,870.7326,793.7729,795.38464,845.34796,679.7436,-0.04736328125,0.091552734375,0.98870849609375,2.27294921875,-3.5888671875,0.88226318359375,1.0,1.0,1.0,1.0,1.0,80.0,event
09:27:42.096,0.6437451,0.20345807,0.0043681967,0.4226738,0.24538517,-0.39018393,-0.20953305,0.30751142,0.5441067,0.14554588,0.20867623,0.31449518,0.50413483,0.0081835855,0.23575704,0.4614011,0.13022636,-0.24084125,-0.09263192,-0.031066906,872.3443,796.5934,797.3993,850.989,745.42126,-0.04736328125,0.091552734375,0.98870849609375,2.27294921875,-3.5888671875,0.88226318359375,1.0,1.0,1.0,1.0,1.0,80.0,event
09:27:42.096,0.6437451,0.20345807,0.0043681967,0.4226738,0.24538517,-0.39018393,-0.20953305,0.30751142,0.5441067,0.14554588,0.20867623,0.31449518,0.50413483,0.0081835855,0.23575704,0.4614011,0.13022636,-0.24084125,-0.09263192,-0.031066906,877.98535,797.8022,796.1905,859.0476,817.1429,-0.04736328125,0.091552734375,0.98870849609375,2.27294921875,-3.5888671875,0.88226318359375,1.0,1.0,1.0,1.0,1.0,80.0,event
09:27:42.097,0.6437451,0.20345807,0.0043681967,0.4226738,0.24538517,-0.39018393,-0.20953305,0.30751142,0.5441067,0.14554588,0.20867623,0.31449518,0.50413483,0.0081835855,0.23575704,0.4614011,0.13022636,-0.24084125,-0.09263192,-0.031066906,885.64105,796.1905,797.8022,865.09155,745.42126,-0.04736328125,0.091552734375,0.98870849609375,2.27294921875,-3.5888671875,0.88226318359375,1.0,1.0,1.0,1.0,1.0,80.0,event
09:27:42.098,0.6437451,0.20345807,0.0043681967,0.4226738,0.24538517,-0.39018393,-0.20953305,0.30751142,0.5441067,0.14554588,0.20867623,0.31449518,0.50413483,0.0081835855,0.23575704,0.4614011,0.13022636,-0.24084125,-0.09263192,-0.031066906,884.43225,795.38464,801.8315,865.09155,857.03296,-0.04736328125,0.091552734375,0.98870849609375,2.27294921875,-3.5888671875,0.88226318359375,1.0,1.0,1.0,1.0,1.0,80.0,event
09:27:42.098,0.6437451,0.20345807,0.0043681967,0.4226738,0.24538517,-0.39018393,-0.20953305,0.30751142,0.5441067,0.14554588,0.20867623,0.31449518,0.50413483,0.0081835855,0.23575704,0.4614011,0.13022636,-0.24084125,-0.09263192,-0.031066906,885.2381,796.1905,802.6374,860.65936,922.71063,-0.04736328125,0.091552734375,0.98870849609375,2.27294921875,-3.5888671875,0.88226318359375,1.0,1.0,1.0,1.0,1.0,80.0,event
09:27:42.099,0.6437451,0.20345807,0.0043681967,0.4226738,0.24538517,-0.39018393,-0.20953305,0.30751142,0.5441067,0.14554588,0.20867623,0.31449518,0.50413483,0.0081835855,0.23575704,0.4614011,0.13022636,-0.24084125,-0.09263192,-0.031066906,880.40295,792.5641,799.81683,851.79486,693.44324,-0.04736328125,0.091552734375,0.98870849609375,2.27294921875,-3.5888671875,0.88226318359375,1.0,1.0,1.0,1.0,1.0,80.0,event
09:27:42.100,0.6437451,0.20345807,0.0043681967,0.4226738,0.24538517,-0.39018393,-0.20953305,0.30751142,0.5441067,0.14554588,0.20867623,0.31449518,0.50413483,0.0081835855,0.23575704,0.4614011,0.13022636,-0.24084125,-0.09263192,-0.031066906,883.6264,794.57874,796.1905,855.82416,721.6484,-0.04736328125,0.091552734375,0.98870849609375,2.27294921875,-3.5888671875,0.88226318359375,1.0,1.0,1.0,1.0,1.0,80.0,event
09:27:42.126,0.6437451,0.20345807,0.0043681967,0.4226738,0.24538517,-0.39018393,-0.20953305,0.30751142,0.5441067,0.14554588,0.20867623,0.31449518,0.50413483,0.0081835855,0.23575704,0.4614011,0.13022636,-0.24084125,-0.09263192,-0.031066906,883.6264,795.38464,794.9817,860.65936,834.87177,-0.04736328125,0.091552734375,0.98870849609375,2.27294921875,-3.5888671875,0.88226318359375,1.0,1.0,1.0,1.0,1.0,80.0,event
09:27:42.127,0.6437451,0.20345807,0.0043681967,0.4226738,0.24538517,-0.39018393,-0.20953305,0.30751142,0.5441067,0.14554588,0.20867623,0.31449518,0.50413483,0.0081835855,0.23575704,0.4614011,0.13022636,-0.24084125,-0.09263192,-0.031066906,878.7912,793.7729,793.7729,855.82416,763.1502,-0.04736328125,0.091552734375,0.98870849609375,2.27294921875,-3.5888671875,0.88226318359375,1.0,1.0,1.0,1.0,1.0,80.0,event
09:27:42.128,0.6437451,0.20345807,0.0043681967,0.4226738,0.24538517,-0.39018393,-0.20953305,0.30751142,0.5441067,0.14554588,0.20867623,0.31449518,0.50413483,0.0081835855,0.23575704,0.4614011,0.13022636,-0.24084125,-0.09263192,-0.031066906,882.01465,803.44324,796.1905,846.9597,728.0952,-0.04736328125,0.091552734375,0.98870849609375,2.27294921875,-3.5888671875,0.88226318359375,1.0,1.0,1.0,1.0,1.0,80.0,event
09:27:42.128,0.6437451,0.20345807,0.0043681967,0.4226738,0.24538517,-0.39018393,-0.20953305,0.30751142,0.5441067,0.14554588,0.20867623,0.31449518,0.50413483,0.0081835855,0.23575704,0.4614011,0.13022636,-0.24084125,-0.09263192,-0.031066906,877.5824,806.26373,807.47253,844.5421,799.011,-0.04736328125,0.091552734375,0.98870849609375,2.27294921875,-3.5888671875,0.88226318359375,1.0,1.0,1.0,1.0,1.0,80.0,event
09:27:42.129,0.6437451,0.20345807,0.0043681967,0.4226738,0.24538517,-0.39018393,-0.20953305,0.30751142,0.5441067,0.14554588,0.20867623,0.31449518,0.50413483,0.0081835855,0.23575704,0.4614011,0.13022636,-0.24084125,-0.09263192,-0.031066906,875.16486,800.2198,807.0696,861.06226,832.0513,-0.04736328125,0.091552734375,0.98870849609375,2.27294921875,-3.5888671875,0.88226318359375,1.0,1.0,1.0,1.0,1.0,80.0,event
09:27:42.130,0.6437451,0.20345807,0.0043681967,0.4226738,0.24538517,-0.39018393,-0.20953305,0.30751142,0.5441067,0.14554588,0.20867623,0.31449518,0.50413483,0.0081835855,0.23575704,0.4614011,0.13022636,-0.24084125,-0.09263192,-0.031066906,879.59705,796.1905,809.0842,861.8681,828.8278,-0.04736328125,0.091552734375,0.98870849609375,2.27294921875,-3.5888671875,0.88226318359375,1.0,1.0,1.0,1.0,1.0,80.0,event
09:27:42.130,0.6437451,0.20345807,0.0043681967,0.4226738,0.24538517,-0.39018393,-0.20953305,0.30751142,0.5441067,0.14554588,0.20867623,0.31449518,0.50413483,0.0081835855,0.23575704,0.4614011,0.13022636,-0.24084125,-0.09263192,-0.031066906,872.3443,801.02563,812.71063,848.1685,828.4249,-0.04736328125,0.091552734375,0.98870849609375,2.27294921875,-3.5888671875,0.88226318359375,1.0,1.0,1.0,1.0,1.0,80.0,event
09:27:42.131,0.6437451,0.20345807,0.0043681967,0.4226738,0.24538517,-0.39018393,-0.20953305,0.30751142,0.5441067,0.14554588,0.20867623,0.31449518,0.50413483,0.0081835855,0.23575704,0.4614011,0.13022636,-0.24084125,-0.09263192,-0.031066906,867.9121,803.0403,803.44324,845.7509,836.08057,-0.04736328125,0.091552734375,0.98870849609375,2.27294921875,-3.5888671875,0.88226318359375,1.0,1.0,1.0,1.0,1.0,80.0,event
09:27:42.132,0.6437451,0.20345807,0.0043681967,0.4226738,0.24538517,-0.39018393,-0.20953305,0.30751142,0.5441067,0.14554588,0.20867623,0.31449518,0.50413483,0.0081835855,0.23575704,0.4614011,0.13022636,-0.24084125,-0.09263192,-0.031066906,870.32965,803.8461,801.02563,846.1539,877.5824,-0.04736328125,0.091552734375,0.98870849609375,2.27294921875,-3.5888671875,0.88226318359375,1.0,1.0,1.0,1.0,1.0,80.0,event
09:27:42.133,0.6437451,0.20345807,0.0043681967,0.4226738,0.24538517,-0.39018393,-0.20953305,0.30751142,0.5441067,0.14554588,0.20867623,0.31449518,0.50413483,0.0081835855,0.23575704,0.4614011,0.13022636,-0.24084125,-0.09263192,-0.031066906,871.53845,803.44324,805.4579,858.6447,681.75824,-0.04736328125,0.091552734375,0.98870849609375,2.27294921875,-3.5888671875,0.88226318359375,1.0,1.0,1.0,1.0,1.0,80.0,event
09:27:42.133,0.6437451,0.20345807,0.0043681967,0.4226738,0.24538517,-0.39018393,-0.20953305,0.30751142,0.5441067,0.14554588,0.20867623,0.31449518,0.50413483,0.0081835855,0.23575704,0.4614011,0.13022636,-0.24084125,-0.09263192,-0.031066906,869.92676,806.26373,800.6227,851.39197,780.07324,-0.04736328125,0.091552734375,0.98870849609375,2.27294921875,-3.5888671875,0.88226318359375,1.0,1.0,1.0,1.0,1.0,80.0,event
09:27:42.134,0.6437451,0.20345807,0.0043681967,0.4226738,0.24538517,-0.39018393,-0.20953305,0.30751142,0.5441067,0.14554588,0.20867623,0.31449518,0.50413483,0.0081835855,0.23575704,0.4614011,0.13022636,-0.24084125,-0.09263192,-0.031066906,867.50916,799.41394,813.91943,847.76556,847.76556,-0.04736328125,0.091552734375,0.98870849609375,2.27294921875,-3.5888671875,0.88226318359375,1.0,1.0,1.0,1.0,1.0,80.0,event
09:27:42.161,0.6437451,0.20345807,0.0043681967,0.4226738,0.24538517,-0.39018393,-0.20953305,0.30751142,0.5441067,0.14554588,0.20867623,0.31449518,0.50413483,0.0081835855,0.23575704,0.4614011,0.13022636,-0.24084125,-0.09263192,-0.031066906,860.65936,793.7729,812.71063,829.6337,896.9231,-0.05108642578125,0.08349609375,0.97998046875,1.86920166015625,-4.628143310546875,-0.127105712890625,1.0,1.0,1.0,1.0,1.0,80.0,event
09:27:42.162,0.6437451,0.20345807,0.0043681967,0.4226738,0.24538517,-0.39018393,-0.20953305,0.30751142,0.5441067,0.14554588,0.20867623,0.31449518,0.50413483,0.0081835855,0.23575704,0.4614011,0.13022636,-0.24084125,-0.09263192,-0.031066906,855.0183,792.5641,812.71063,831.6484,726.8865,-0.05108642578125,0.08349609375,0.97998046875,1.86920166015625,-4.628143310546875,-0.127105712890625,1.0,1.0,1.0,1.0,1.0,80.0,event
09:27:42.163,0.6437451,0.20345807,0.0043681967,0.4226738,0.24538517,-0.39018393,-0.20953305,0.30751142,0.5441067,0.14554588,0.20867623,0.31449518,0.50413483,0.0081835855,0.23575704,0.4614011,0.13022636,-0.24084125,-0.09263192,-0.031066906,855.42126,797.3993,806.26373,840.10986,684.9817,-0.05108642578125,0.08349609375,0.97998046875,1.86920166015625,-4.628143310546875,-0.127105712890625,1.0,1.0,1.0,1.0,1.0,80.0,event
09:27:42.164,0.6501436,0.20457952,0.061019894,0.4226738,0.24528056,-0.35616198,-0.1945213,0.30751142,0.50557745,0.08241059,0.13427542,0.31449518,0.5106401,0.0027723373,0.26068288,0.4614011,0.14314504,-0.21753772,-0.08487174,-0.031066906,867.50916,797.8022,799.41394,840.10986,757.1062,-0.05108642578125,0.08349609375,0.97998046875,1.86920166015625,-4.628143310546875,-0.127105712890625,1.0,1.0,1.0,1.0,1.0,80.0,event
09:27:42.167,,,,,,,,,,,,,,,,,,,,,,,,,,,,,,,,,,,,,,blink
09:27:42.168,0.6501436,0.20457952,0.061019894,0.4226738,0.24528056,-0.35616198,-0.1945213,0.30751142,0.50557745,0.08241059,0.13427542,0.31449518,0.5106401,0.0027723373,0.26068288,0.4614011,0.14314504,-0.21753772,-0.08487174,-0.031066906,866.30035,799.011,809.4872,840.9158,850.989,-0.05108642578125,0.08349609375,0.97998046875,1.86920166015625,-4.628143310546875,-0.127105712890625,1.0,1.0,1.0,1.0,1.0,80.0,event
09:27:42.169,0.6501436,0.20457952,0.061019894,0.4226738,0.24528056,-0.35616198,-0.1945213,0.30751142,0.50557745,0.08241059,0.13427542,0.31449518,0.5106401,0.0027723373,0.26068288,0.4614011,0.14314504,-0.21753772,-0.08487174,-0.031066906,867.1062,798.20514,808.68134,827.2161,803.8461,-0.05108642578125,0.08349609375,0.97998046875,1.86920166015625,-4.628143310546875,-0.127105712890625,1.0,1.0,1.0,1.0,1.0,80.0,event
09:27:42.169,0.6501436,0.20457952,0.061019894,0.4226738,0.24528056,-0.35616198,-0.1945213,0.30751142,0.50557745,0.08241059,0.13427542,0.31449518,0.5106401,0.0027723373,0.26068288,0.4614011,0.14314504,-0.21753772,-0.08487174,-0.031066906,864.2857,799.011,811.0989,840.10986,839.304,-0.05108642578125,0.08349609375,0.97998046875,1.86920166015625,-4.628143310546875,-0.127105712890625,1.0,1.0,1.0,1.0,1.0,80.0,event
09:27:42.170,0.6501436,0.20457952,0.061019894,0.4226738,0.24528056,-0.35616198,-0.1945213,0.30751142,0.50557745,0.08241059,0.13427542,0.31449518,0.5106401,0.0027723373,0.26068288,0.4614011,0.14314504,-0.21753772,-0.08487174,-0.031066906,860.2564,797.3993,809.4872,832.8571,982.3443,-0.05108642578125,0.08349609375,0.97998046875,1.86920166015625,-4.628143310546875,-0.127105712890625,1.0,1.0,1.0,1.0,1.0,80.0,event
09:27:42.171,0.6501436,0.20457952,0.061019894,0.4226738,0.24528056,-0.35616198,-0.1945213,0.30751142,0.50557745,0.08241059,0.13427542,0.31449518,0.5106401,0.0027723373,0.26068288,0.4614011,0.14314504,-0.21753772,-0.08487174,-0.031066906,863.47986,800.6227,807.8755,850.989,1071.7949,-0.05108642578125,0.08349609375,0.97998046875,1.86920166015625,-4.628143310546875,-0.127105712890625,1.0,1.0,1.0,1.0,1.0,80.0,event
09:27:42.171,0.6501436,0.20457952,0.061019894,0.4226738,0.24528056,-0.35616198,-0.1945213,0.30751142,0.50557745,0.08241059,0.13427542,0.31449518,0.5106401,0.0027723373,0.26068288,0.4614011,0.14314504,-0.21753772,-0.08487174,-0.031066906,860.65936,801.02563,806.6667,839.304,801.4286,-0.05108642578125,0.08349609375,0.97998046875,1.86920166015625,-4.628143310546875,-0.127105712890625,1.0,1.0,1.0,1.0,1.0,80.0,event
09:27:42.172,0.6501436,0.20457952,0.061019894,0.4226738,0.24528056,-0.35616198,-0.1945213,0.30751142,0.50557745,0.08241059,0.13427542,0.31449518,0.5106401,0.0027723373,0.26068288,0.4614011,0.14314504,-0.21753772,-0.08487174,-0.031066906,848.5714,797.8022,807.0696,820.3663,713.5897,-0.05108642578125,0.08349609375,0.97998046875,1.86920166015625,-4.628143310546875,-0.127105712890625,1.0,1.0,1.0,1.0,1.0,80.0,event
09:27:42.172,0.6501436,0.20457952,0.061019894,0.4226738,0.24528056,-0.35616198,-0.1945213,0.30751142,0.50557745,0.08241059,0.13427542,0.31449518,0.5106401,0.0027723373,0.26068288,0.4614011,0.14314504,-0.21753772,-0.08487174,-0.031066906,843.73627,799.41394,810.696,821.5751,787.326,-0.05108642578125,0.08349609375,0.97998046875,1.86920166015625,-4.628143310546875,-0.127105712890625,1.0,1.0,1.0,1.0,1.0,80.0,event
09:27:42.207,0.6501436,0.20457952,0.061019894,0.4226738,0.24528056,-0.35616198,-0.1945213,0.30751142,0.50557745,0.08241059,0.13427542,0.31449518,0.5106401,0.0027723373,0.26068288,0.4614011,0.14314504,-0.21753772,-0.08487174,-0.031066906,845.7509,796.99634,812.3077,823.5897,720.84247,-0.03424072265625,0.088134765625,0.97900390625,2.572021484375,-3.4991455078125,-1.697235107421875,1.0,1.0,1.0,1.0,1.0,80.0,event
09:27:42.211,0.6501436,0.20457952,0.061019894,0.4226738,0.24528056,-0.35616198,-0.1945213,0.30751142,0.50557745,0.08241059,0.13427542,0.31449518,0.5106401,0.0027723373,0.26068288,0.4614011,0.14314504,-0.21753772,-0.08487174,-0.031066906,849.3773,802.23444,814.3223,825.6044,639.85345,-0.03424072265625,0.088134765625,0.97900390625,2.572021484375,-3.4991455078125,-1.697235107421875,1.0,1.0,1.0,1.0,1.0,80.0,event
09:27:42.212,0.6501436,0.20457952,0.061019894,0.4226738,0.24528056,-0.35616198,-0.1945213,0.30751142,0.50557745,0.08241059,0.13427542,0.31449518,0.5106401,0.0027723373,0.26068288,0.4614011,0.14314504,-0.21753772,-0.08487174,-0.031066906,849.3773,805.05493,807.47253,827.2161,700.293,-0.03424072265625,0.088134765625,0.97900390625,2.572021484375,-3.4991455078125,-1.697235107421875,1.0,1.0,1.0,1.0,1.0,80.0,event
09:27:42.213,0.6501436,0.20457952,0.061019894,0.4226738,0.24528056,-0.35616198,-0.1945213,0.30751142,0.50557745,0.08241059,0.13427542,0.31449518,0.5106401,0.0027723373,0.26068288,0.4614011,0.14314504,-0.21753772,-0.08487174,-0.031066906,839.304,801.4286,804.2491,813.5165,760.7326,-0.03424072265625,0.088134765625,0.97900390625,2.572021484375,-3.4991455078125,-1.697235107421875,1.0,1.0,1.0,1.0,1.0,80.0,event
09:27:42.214,0.6501436,0.20457952,0.061019894,0.4226738,0.24528056,-0.35616198,-0.1945213,0.30751142,0.50557745,0.08241059,0.13427542,0.31449518,0.5106401,0.0027723373,0.26068288,0.4614011,0.14314504,-0.21753772,-0.08487174,-0.031066906,832.0513,798.20514,812.3077,806.26373,767.5824,-0.03424072265625,0.088134765625,0.97900390625,2.572021484375,-3.4991455078125,-1.697235107421875,1.0,1.0,1.0,1.0,1.0,80.0,event
09:27:42.216,0.6501436,0.20457952,0.061019894,0.4226738,0.24528056,-0.35616198,-0.1945213,0.30751142,0.50557745,0.08241059,0.13427542,0.31449518,0.5106401,0.0027723373,0.26068288,0.4614011,0.14314504,-0.21753772,-0.08487174,-0.031066906,839.304,795.38464,812.3077,807.47253,801.8315,-0.03424072265625,0.088134765625,0.97900390625,2.572021484375,-3.4991455078125,-1.697235107421875,1.0,1.0,1.0,1.0,1.0,80.0,event
09:27:42.217,0.6501436,0.20457952,0.061019894,0.4226738,0.24528056,-0.35616198,-0.1945213,0.30751142,0.50557745,0.08241059,0.13427542,0.31449518,0.5106401,0.0027723373,0.26068288,0.4614011,0.14314504,-0.21753772,-0.08487174,-0.031066906,841.31866,798.60803,813.1135,806.26373,873.95605,-0.03424072265625,0.088134765625,0.97900390625,2.572021484375,-3.4991455078125,-1.697235107421875,1.0,1.0,1.0,1.0,1.0,80.0,event
09:27:42.218,0.6501436,0.20457952,0.061019894,0.4226738,0.24528056,-0.35616198,-0.1945213,0.30751142,0.50557745,0.08241059,0.13427542,0.31449518,0.5106401,0.0027723373,0.26068288,0.4614011,0.14314504,-0.21753772,-0.08487174,-0.031066906,833.2601,801.02563,807.8755,815.12823,1053.2601,-0.03424072265625,0.088134765625,0.97900390625,2.572021484375,-3.4991455078125,-1.697235107421875,1.0,1.0,1.0,1.0,1.0,80.0,event
09:27:42.219,0.6501436,0.20457952,0.061019894,0.4226738,0.24528056,-0.35616198,-0.1945213,0.30751142,0.50557745,0.08241059,0.13427542,0.31449518,0.5106401,0.0027723373,0.26068288,0.4614011,0.14314504,-0.21753772,-0.08487174,-0.031066906,828.8278,801.02563,799.81683,816.337,918.2784,-0.03424072265625,0.088134765625,0.97900390625,2.572021484375,-3.4991455078125,-1.697235107421875,1.0,1.0,1.0,1.0,1.0,80.0,event
09:27:42.220,0.6501436,0.20457952,0.061019894,0.4226738,0.24528056,-0.35616198,-0.1945213,0.30751142,0.50557745,0.08241059,0.13427542,0.31449518,0.5106401,0.0027723373,0.26068288,0.4614011,0.14314504,-0.21753772,-0.08487174,-0.031066906,830.4396,799.41394,809.4872,803.44324,755.89746,-0.03424072265625,0.088134765625,0.97900390625,2.572021484375,-3.4991455078125,-1.697235107421875,1.0,1.0,1.0,1.0,1.0,80.0,event
09:27:42.221,0.6501436,0.20457952,0.061019894,0.4226738,0.24528056,-0.35616198,-0.1945213,0.30751142,0.50557745,0.08241059,0.13427542,0.31449518,0.5106401,0.0027723373,0.26068288,0.4614011,0.14314504,-0.21753772,-0.08487174,-0.031066906,831.2454,794.57874,811.9048,801.4286,839.707,-0.03424072265625,0.088134765625,0.97900390625,2.572021484375,-3.4991455078125,-1.697235107421875,1.0,1.0,1.0,1.0,1.0,80.0,event
09:27:42.222,0.6501436,0.20457952,0.061019894,0.4226738,0.24528056,-0.35616198,-0.1945213,0.30751142,0.50557745,0.08241059,0.13427542,0.31449518,0.5106401,0.0027723373,0.26068288,0.4614011,0.14314504,-0.21753772,-0.08487174,-0.031066906,832.8571,795.78754,808.2784,816.7399,892.8938,-0.03424072265625,0.088134765625,0.97900390625,2.572021484375,-3.4991455078125,-1.697235107421875,1.0,1.0,1.0,1.0,1.0,80.0,event
09:27:42.248,0.6501436,0.20457952,0.061019894,0.4226738,0.24528056,-0.35616198,-0.1945213,0.30751142,0.50557745,0.08241059,0.13427542,0.31449518,0.5106401,0.0027723373,0.26068288,0.4614011,0.14314504,-0.21753772,-0.08487174,-0.031066906,834.87177,805.05493,808.2784,821.1722,798.60803,-0.040771484375,0.08837890625,0.987060546875,2.190704345703125,-3.372039794921875,1.614990234375,1.0,1.0,1.0,1.0,1.0,80.0,event
09:27:42.249,0.6501436,0.20457952,0.061019894,0.4226738,0.24528056,-0.35616198,-0.1945213,0.30751142,0.50557745,0.08241059,0.13427542,0.31449518,0.5106401,0.0027723373,0.26068288,0.4614011,0.14314504,-0.21753772,-0.08487174,-0.031066906,830.84247,806.26373,806.6667,805.8608,702.71063,-0.040771484375,0.08837890625,0.987060546875,2.190704345703125,-3.372039794921875,1.614990234375,1.0,1.0,1.0,1.0,1.0,80.0,event
09:27:42.249,0.6501436,0.20457952,0.061019894,0.4226738,0.24528056,-0.35616198,-0.1945213,0.30751142,0.50557745,0.08241059,0.13427542,0.31449518,0.5106401,0.0027723373,0.26068288,0.4614011,0.14314504,-0.21753772,-0.08487174,-0.031066906,827.2161,803.44324,809.0842,799.011,731.31866,-0.040771484375,0.08837890625,0.987060546875,2.190704345703125,-3.372039794921875,1.614990234375,1.0,1.0,1.0,1.0,1.0,80.0,event
09:27:42.250,0.6501436,0.20457952,0.061019894,0.4226738,0.24528056,-0.35616198,-0.1945213,0.30751142,0.50557745,0.08241059,0.13427542,0.31449518,0.5106401,0.0027723373,0.26068288,0.4614011,0.14314504,-0.21753772,-0.08487174,-0.031066906,829.6337,803.0403,808.2784,802.23444,739.7802,-0.040771484375,0.08837890625,0.987060546875,2.190704345703125,-3.372039794921875,1.614990234375,1.0,1.0,1.0,1.0,1.0,80.0,event
09:27:42.250,0.6501436,0.20457952,0.061019894,0.4226738,0.24528056,-0.35616198,-0.1945213,0.30751142,0.50557745,0.08241059,0.13427542,0.31449518,0.5106401,0.0027723373,0.26068288,0.4614011,0.14314504,-0.21753772,-0.08487174,-0.031066906,827.619,802.23444,803.8461,809.4872,743.4066,-0.040771484375,0.08837890625,0.987060546875,2.190704345703125,-3.372039794921875,1.614990234375,1.0,1.0,1.0,1.0,1.0,80.0,event
09:27:42.251,0.6521192,0.2425734,0.11597485,0.4388625,0.25836298,-0.18559082,-0.15323588,0.32849926,0.5049446,0.08168955,0.060403407,0.17763798,0.50969714,-0.009605989,0.27453655,0.43834648,0.15477584,-0.20889238,-0.082161784,-0.050465807,830.84247,799.81683,806.26373,814.7253,767.1795,-0.040771484375,0.08837890625,0.987060546875,2.190704345703125,-3.372039794921875,1.614990234375,1.0,1.0,1.0,1.0,1.0,80.0,event
09:27:42.254,0.6521192,0.2425734,0.11597485,0.4388625,0.25836298,-0.18559082,-0.15323588,0.32849926,0.5049446,0.08168955,0.060403407,0.17763798,0.50969714,-0.009605989,0.27453655,0.43834648,0.15477584,-0.20889238,-0.082161784,-0.050465807,830.4396,800.6227,809.4872,805.8608,940.4396,-0.040771484375,0.08837890625,0.987060546875,2.190704345703125,-3.372039794921875,1.614990234375,1.0,1.0,1.0,1.0,1.0,80.0,event
09:27:42.254,0.6521192,0.2425734,0.11597485,0.4388625,0.25836298,-0.18559082,-0.15323588,0.32849926,0.5049446,0.08168955,0.060403407,0.17763798,0.50969714,-0.009605989,0.27453655,0.43834648,0.15477584,-0.20889238,-0.082161784,-0.050465807,823.1868,794.57874,811.0989,799.41394,1042.381,-0.040771484375,0.08837890625,0.987060546875,2.190704345703125,-3.372039794921875,1.614990234375,1.0,1.0,1.0,1.0,1.0,80.0,event
09:27:42.255,0.6521192,0.2425734,0.11597485,0.4388625,0.25836298,-0.18559082,-0.15323588,0.32849926,0.5049446,0.08168955,0.060403407,0.17763798,0.50969714,-0.009605989,0.27453655,0.43834648,0.15477584,-0.20889238,-0.082161784,-0.050465807,828.022,794.9817,809.4872,800.2198,801.8315,-0.040771484375,0.08837890625,0.987060546875,2.190704345703125,-3.372039794921875,1.614990234375,1.0,1.0,1.0,1.0,1.0,80.0,event
09:27:42.255,0.6521192,0.2425734,0.11597485,0.4388625,0.25836298,-0.18559082,-0.15323588,0.32849926,0.5049446,0.08168955,0.060403407,0.17763798,0.50969714,-0.009605989,0.27453655,0.43834648,0.15477584,-0.20889238,-0.082161784,-0.050465807,824.7985,800.6227,809.89014,796.5934,735.7509,-0.040771484375,0.08837890625,0.987060546875,2.190704345703125,-3.372039794921875,1.614990234375,1.0,1.0,1.0,1.0,1.0,80.0,event
09:27:42.256,0.6521192,0.2425734,0.11597485,0.4388625,0.25836298,-0.18559082,-0.15323588,0.32849926,0.5049446,0.08168955,0.060403407,0.17763798,0.50969714,-0.009605989,0.27453655,0.43834648,0.15477584,-0.20889238,-0.082161784,-0.050465807,821.978,798.20514,809.0842,796.99634,829.2308,-0.040771484375,0.08837890625,0.987060546875,2.190704345703125,-3.372039794921875,1.614990234375,1.0,1.0,1.0,1.0,1.0,80.0,event
09:27:42.256,0.6521192,0.2425734,0.11597485,0.4388625,0.25836298,-0.18559082,-0.15323588,0.32849926,0.5049446,0.08168955,0.060403407,0.17763798,0.50969714,-0.009605989,0.27453655,0.43834648,0.15477584,-0.20889238,-0.082161784,-0.050465807,832.0513,799.81683,801.8315,794.57874,798.20514,-0.040771484375,0.08837890625,0.987060546875,2.190704345703125,-3.372039794921875,1.614990234375,1.0,1.0,1.0,1.0,1.0,80.0,event
09:27:42.319,0.6521192,0.2425734,0.11597485,0.4388625,0.25836298,-0.18559082,-0.15323588,0.32849926,0.5049446,0.08168955,0.060403407,0.17763798,0.50969714,-0.009605989,0.27453655,0.43834648,0.15477584,-0.20889238,-0.082161784,-0.050465807,828.4249,800.2198,806.26373,784.10254,716.0073,-0.05096435546875,0.08819580078125,0.98345947265625,2.444915771484375,-3.581390380859375,0.91217041015625,1.0,1.0,1.0,1.0,1.0,80.0,event
09:27:42.320,0.6521192,0.2425734,0.11597485,0.4388625,0.25836298,-0.18559082,-0.15323588,0.32849926,0.5049446,0.08168955,0.060403407,0.17763798,0.50969714,-0.009605989,0.27453655,0.43834648,0.15477584,-0.20889238,-0.082161784,-0.050465807,822.7839,799.011,808.2784,783.2967,713.9927,-0.05096435546875,0.08819580078125,0.98345947265625,2.444915771484375,-3.581390380859375,0.91217041015625,1.0,1.0,1.0,1.0,1.0,80.0,event
09:27:42.321,0.6521192,0.2425734,0.11597485,0.4388625,0.25836298,-0.18559082,-0.15323588,0.32849926,0.5049446,0.08168955,0.060403407,0.17763798,0.50969714,-0.009605989,0.27453655,0.43834648,0.15477584,-0.20889238,-0.082161784,-0.050465807,819.5604,796.5934,803.44324,787.326,850.989,-0.05096435546875,0.08819580078125,0.98345947265625,2.444915771484375,-3.581390380859375,0.91217041015625,1.0,1.0,1.0,1.0,1.0,80.0,event
09:27:42.321,0.6521192,0.2425734,0.11597485,0.4388625,0.25836298,-0.18559082,-0.15323588,0.32849926,0.5049446,0.08168955,0.060403407,0.17763798,0.50969714,-0.009605989,0.27453655,0.43834648,0.15477584,-0.20889238,-0.082161784,-0.050465807,821.1722,796.99634,799.011,793.36993,833.663,-0.05096435546875,0.08819580078125,0.98345947265625,2.444915771484375,-3.581390380859375,0.91217041015625,1.0,1.0,1.0,1.0,1.0,80.0,event
09:27:42.322,0.6521192,0.2425734,0.11597485,0.4388625,0.25836298,-0.18559082,-0.15323588,0.32849926,0.5049446,0.08168955,0.060403407,0.17763798,0.50969714,-0.009605989,0.27453655,0.43834648,0.15477584,-0.20889238,-0.082161784,-0.050465807,829.2308,804.2491,802.23444,803.44324,695.8608,-0.05096435546875,0.08819580078125,0.98345947265625,2.444915771484375,-3.581390380859375,0.91217041015625,1.0,1.0,1.0,1.0,1.0,80.0,event
09:27:42.323,0.6521192,0.2425734,0.11597485,0.4388625,0.25836298,-0.18559082,-0.15323588,0.32849926,0.5049446,0.08168955,0.060403407,0.17763798,0.50969714,-0.009605989,0.27453655,0.43834648,0.15477584,-0.20889238,-0.082161784,-0.050465807,826.0073,807.0696,808.68134,797.3993,835.6777,-0.05096435546875,0.08819580078125,0.98345947265625,2.444915771484375,-3.581390380859375,0.91217041015625,1.0,1.0,1.0,1.0,1.0,80.0,event
09:27:42.323,0.6521192,0.2425734,0.11597485,0.4388625,0.25836298,-0.18559082,-0.15323588,0.32849926,0.5049446,0.08168955,0.060403407,0.17763798,0.50969714,-0.009605989,0.27453655,0.43834648,0.15477584,-0.20889238,-0.082161784,-0.050465807,820.3663,801.8315,805.05493,783.2967,1018.20514,-0.05096435546875,0.08819580078125,0.98345947265625,2.444915771484375,-3.581390380859375,0.91217041015625,1.0,1.0,1.0,1.0,1.0,80.0,event
09:27:42.324,0.6521192,0.2425734,0.11597485,0.4388625,0.25836298,-0.18559082,-0.15323588,0.32849926,0.5049446,0.08168955,0.060403407,0.17763798,0.50969714,-0.009605989,0.27453655,0.43834648,0.15477584,-0.20889238,-0.082161784,-0.050465807,817.5458,798.20514,806.26373,780.07324,805.8608,-0.05096435546875,0.08819580078125,0.98345947265625,2.444915771484375,-3.581390380859375,0.91217041015625,1.0,1.0,1.0,1.0,1.0,80.0,event
09:27:42.325,0.6521192,0.2425734,0.11597485,0.4388625,0.25836298,-0.18559082,-0.15323588,0.32849926,0.5049446,0.08168955,0.060403407,0.17763798,0.50969714,-0.009605989,0.27453655,0.43834648,0.15477584,-0.20889238,-0.082161784,-0.050465807,826.8132,792.96704,806.26373,790.54944,637.8388,-0.05096435546875,0.08819580078125,0.98345947265625,2.444915771484375,-3.581390380859375,0.91217041015625,1.0,1.0,1.0,1.0,1.0,80.0,event
09:27:42.325,0.6521192,0.2425734,0.11597485,0.4388625,0.25836298,-0.18559082,-0.15323588,0.32849926,0.5049446,0.08168955,0.060403407,0.17763798,0.50969714,-0.009605989,0.27453655,0.43834648,0.15477584,-0.20889238,-0.082161784,-0.050465807,827.2161,794.9817,806.6667,796.1905,797.8022,-0.05096435546875,0.08819580078125,0.98345947265625,2.444915771484375,-3.581390380859375,0.91217041015625,1.0,1.0,1.0,1.0,1.0,80.0,event
09:27:42.326,0.6521192,0.2425734,0.11597485,0.4388625,0.25836298,-0.18559082,-0.15323588,0.32849926,0.5049446,0.08168955,0.060403407,0.17763798,0.50969714,-0.009605989,0.27453655,0.43834648,0.15477584,-0.20889238,-0.082161784,-0.050465807,817.1429,798.20514,809.4872,784.10254,839.707,-0.05096435546875,0.08819580078125,0.98345947265625,2.444915771484375,-3.581390380859375,0.91217041015625,1.0,1.0,1.0,1.0,1.0,80.0,event
09:27:42.327,0.6521192,0.2425734,0.11597485,0.4388625,0.25836298,-0.18559082,-0.15323588,0.32849926,0.5049446,0.08168955,0.060403407,0.17763798,0.50969714,-0.009605989,0.27453655,0.43834648,0.15477584,-0.20889238,-0.082161784,-0.050465807,815.9341,796.1905,803.8461,785.7143,676.9231,-0.05096435546875,0.08819580078125,0.98345947265625,2.444915771484375,-3.581390380859375,0.91217041015625,1.0,1.0,1.0,1.0,1.0,80.0,event
09:27:42.353,0.6521192,0.2425734,0.11597485,0.4388625,0.25836298,-0.18559082,-0.15323588,0.32849926,0.5049446,0.08168955,0.060403407,0.17763798,0.50969714,-0.009605989,0.27453655,0.43834648,0.15477584,-0.20889238,-0.082161784,-0.050465807,821.1722,790.54944,801.4286,793.7729,674.10254,-0.05096435546875,0.08819580078125,0.98345947265625,2.444915771484375,-3.581390380859375,0.91217041015625,1.0,1.0,1.0,1.0,1.0,80.0,event
09:27:42.354,0.6521192,0.2425734,0.11597485,0.4388625,0.25836298,-0.18559082,-0.15323588,0.32849926,0.5049446,0.08168955,0.060403407,0.17763798,0.50969714,-0.009605989,0.27453655,0.43834648,0.15477584,-0.20889238,-0.082161784,-0.050465807,807.0696,788.1319,810.293,792.5641,758.71796,-0.05096435546875,0.08819580078125,0.98345947265625,2.444915771484375,-3.581390380859375,0.91217041015625,1.0,1.0,1.0,1.0,1.0,80.0,event
09:27:42.355,0.6521192,0.2425734,0.11597485,0.4388625,0.25836298,-0.18559082,-0.15323588,0.32849926,0.5049446,0.08168955,0.060403407,0.17763798,0.50969714,-0.009605989,0.27453655,0.43834648,0.15477584,-0.20889238,-0.082161784,-0.050465807,799.41394,792.5641,813.91943,789.7436,755.89746,-0.05096435546875,0.08819580078125,0.98345947265625,2.444915771484375,-3.581390380859375,0.91217041015625,1.0,1.0,1.0,1.0,1.0,80.0,event
09:27:42.355,0.6521192,0.2425734,0.11597485,0.4388625,0.25836298,-0.18559082,-0.15323588,0.32849926,0.5049446,0.08168955,0.060403407,0.17763798,0.50969714,-0.009605989,0.27453655,0.43834648,0.15477584,-0.20889238,-0.082161784,-0.050465807,808.68134,792.1612,811.50183,788.5348,792.96704,-0.05096435546875,0.08819580078125,0.98345947265625,2.444915771484375,-3.581390380859375,0.91217041015625,1.0,1.0,1.0,1.0,1.0,80.0,event
09:27:42.356,0.6521192,0.2425734,0.11597485,0.4388625,0.25836298,-0.18559082,-0.15323588,0.32849926,0.5049446,0.08168955,0.060403407,0.17763798,0.50969714,-0.009605989,0.27453655,0.43834648,0.15477584,-0.20889238,-0.082161784,-0.050465807,808.2784,792.5641,810.696,787.326,782.49084,-0.05096435546875,0.08819580078125,0.98345947265625,2.444915771484375,-3.581390380859375,0.91217041015625,1.0,1.0,1.0,1.0,1.0,80.0,event
09:27:42.356,0.6521192,0.2425734,0.11597485,0.4388625,0.25836298,-0.18559082,-0.15323588,0.32849926,0.5049446,0.08168955,0.060403407,0.17763798,0.50969714,-0.009605989,0.27453655,0.43834648,0.15477584,-0.20889238,-0.082161784,-0.050465807,806.6667,791.75824,807.0696,800.2198,964.61536,-0.05096435546875,0.08819580078125,0.98345947265625,2.444915771484375,-3.581390380859375,0.91217041015625,1.0,1.0,1.0,1.0,1.0,80.0,event
09:27:42.357,0.6521192,0.2425734,0.11597485,0.4388625,0.25836298,-0.18559082,-0.15323588,0.32849926,0.5049446,0.08168955,0.060403407,0.17763798,0.50969714,-0.009605989,0.27453655,0.43834648,0.15477584,-0.20889238,-0.082161784,-0.050465807,818.7546,792.1612,807.0696,810.696,1130.6227,-0.05096435546875,0.08819580078125,0.98345947265625,2.444915771484375,-3.581390380859375,0.91217041015625,1.0,1.0,1.0,1.0,1.0,80.0,event
09:27:42.357,0.63498425,0.3176111,0.15510361,0.46433643,0.26691368,0.039106697,-0.09162869,0.34607208,0.5049446,0.13607003,0.06238419,0.108723074,0.49995154,-0.025013264,0.27943704,0.40458366,0.16255812,-0.2158729,-0.08267843,-0.06438562,822.7839,796.1905,810.696,799.81683,805.8608,-0.05096435546875,0.08819580078125,0.98345947265625,2.444915771484375,-3.581390380859375,0.91217041015625,1.0,1.0,1.0,1.0,1.0,80.0,event
09:27:42.362,0.63498425,0.3176111,0.15510361,0.46433643,0.26691368,0.039106697,-0.09162869,0.34607208,0.5049446,0.13607003,0.06238419,0.108723074,0.49995154,-0.025013264,0.27943704,0.40458366,0.16255812,-0.2158729,-0.08267843,-0.06438562,818.3516,796.5934,809.89014,798.20514,712.7839,-0.05096435546875,0.08819580078125,0.98345947265625,2.444915771484375,-3.581390380859375,0.91217041015625,1.0,1.0,1.0,1.0,1.0,80.0,event
09:27:42.363,0.63498425,0.3176111,0.15510361,0.46433643,0.26691368,0.039106697,-0.09162869,0.34607208,0.5049446,0.13607003,0.06238419,0.108723074,0.49995154,-0.025013264,0.27943704,0.40458366,0.16255812,-0.2158729,-0.08267843,-0.06438562,822.7839,801.8315,809.89014,795.38464,837.28937,-0.05096435546875,0.08819580078125,0.98345947265625,2.444915771484375,-3.581390380859375,0.91217041015625,1.0,1.0,1.0,1.0,1.0,80.0,event
09:27:42.364,0.63498425,0.3176111,0.15510361,0.46433643,0.26691368,0.039106697,-0.09162869,0.34607208,0.5049446,0.13607003,0.06238419,0.108723074,0.49995154,-0.025013264,0.27943704,0.40458366,0.16255812,-0.2158729,-0.08267843,-0.06438562,822.381,808.68134,810.293,792.96704,775.2381,-0.05096435546875,0.08819580078125,0.98345947265625,2.444915771484375,-3.581390380859375,0.91217041015625,1.0,1.0,1.0,1.0,1.0,80.0,event
09:27:42.365,0.63498425,0.3176111,0.15510361,0.46433643,0.26691368,0.039106697,-0.09162869,0.34607208,0.5049446,0.13607003,0.06238419,0.108723074,0.49995154,-0.025013264,0.27943704,0.40458366,0.16255812,-0.2158729,-0.08267843,-0.06438562,821.5751,808.2784,807.8755,801.02563,667.25275,-0.05096435546875,0.08819580078125,0.98345947265625,2.444915771484375,-3.581390380859375,0.91217041015625,1.0,1.0,1.0,1.0,1.0,80.0,event
09:27:42.387,0.63498425,0.3176111,0.15510361,0.46433643,0.26691368,0.039106697,-0.09162869,0.34607208,0.5049446,0.13607003,0.06238419,0.108723074,0.49995154,-0.025013264,0.27943704,0.40458366,0.16255812,-0.2158729,-0.08267843,-0.06438562,823.5897,806.26373,802.23444,809.0842,761.53845,-0.04071044921875,0.091064453125,0.9808349609375,2.444915771484375,-3.7384033203125,-0.127105712890625,1.0,1.0,1.0,1.0,1.0,80.0,event
09:27:42.388,0.63498425,0.3176111,0.15510361,0.46433643,0.26691368,0.039106697,-0.09162869,0.34607208,0.5049446,0.13607003,0.06238419,0.108723074,0.49995154,-0.025013264,0.27943704,0.40458366,0.16255812,-0.2158729,-0.08267843,-0.06438562,824.7985,806.6667,803.44324,800.2198,839.304,-0.04071044921875,0.091064453125,0.9808349609375,2.444915771484375,-3.7384033203125,-0.127105712890625,1.0,1.0,1.0,1.0,1.0,80.0,event
09:27:42.389,0.63498425,0.3176111,0.15510361,0.46433643,0.26691368,0.039106697,-0.09162869,0.34607208,0.5049446,0.13607003,0.06238419,0.108723074,0.49995154,-0.025013264,0.27943704,0.40458366,0.16255812,-0.2158729,-0.08267843,-0.06438562,828.022,805.8608,802.23444,796.5934,796.5934,-0.04071044921875,0.091064453125,0.9808349609375,2.444915771484375,-3.7384033203125,-0.127105712890625,1.0,1.0,1.0,1.0,1.0,80.0,event
09:27:42.389,0.63498425,0.3176111,0.15510361,0.46433643,0.26691368,0.039106697,-0.09162869,0.34607208,0.5049446,0.13607003,0.06238419,0.108723074,0.49995154,-0.025013264,0.27943704,0.40458366,0.16255812,-0.2158729,-0.08267843,-0.06438562,829.6337,805.8608,801.4286,801.8315,728.49817,-0.04071044921875,0.091064453125,0.9808349609375,2.444915771484375,-3.7384033203125,-0.127105712890625,1.0,1.0,1.0,1.0,1.0,80.0,event
09:27:42.390,0.63498425,0.3176111,0.15510361,0.46433643,0.26691368,0.039106697,-0.09162869,0.34607208,0.5049446,0.13607003,0.06238419,0.108723074,0.49995154,-0.025013264,0.27943704,0.40458366,0.16255812,-0.2158729,-0.08267843,-0.06438562,831.6484,806.26373,802.23444,808.2784,782.49084,-0.04071044921875,0.091064453125,0.9808349609375,2.444915771484375,-3.7384033203125,-0.127105712890625,1.0,1.0,1.0,1.0,1.0,80.0,event
09:27:42.390,0.63498425,0.3176111,0.15510361,0.46433643,0.26691368,0.039106697,-0.09162869,0.34607208,0.5049446,0.13607003,0.06238419,0.108723074,0.49995154,-0.025013264,0.27943704,0.40458366,0.16255812,-0.2158729,-0.08267843,-0.06438562,826.8132,801.8315,805.05493,809.89014,884.83514,-0.04071044921875,0.091064453125,0.9808349609375,2.444915771484375,-3.7384033203125,-0.127105712890625,1.0,1.0,1.0,1.0,1.0,80.0,event
09:27:42.391,0.63498425,0.3176111,0.15510361,0.46433643,0.26691368,0.039106697,-0.09162869,0.34607208,0.5049446,0.13607003,0.06238419,0.108723074,0.49995154,-0.025013264,0.27943704,0.40458366,0.16255812,-0.2158729,-0.08267843,-0.06438562,807.8755,799.011,809.4872,783.69965,853.4066,-0.04071044921875,0.091064453125,0.9808349609375,2.444915771484375,-3.7384033203125,-0.127105712890625,1.0,1.0,1.0,1.0,1.0,80.0,event
09:27:42.391,0.63498425,0.3176111,0.15510361,0.46433643,0.26691368,0.039106697,-0.09162869,0.34607208,0.5049446,0.13607003,0.06238419,0.108723074,0.49995154,-0.025013264,0.27943704,0.40458366,0.16255812,-0.2158729,-0.08267843,-0.06438562,813.5165,799.011,810.696,791.3553,855.42126,-0.04071044921875,0.091064453125,0.9808349609375,2.444915771484375,-3.7384033203125,-0.127105712890625,1.0,1.0,1.0,1.0,1.0,80.0,event
09:27:42.392,0.63498425,0.3176111,0.15510361,0.46433643,0.26691368,0.039106697,-0.09162869,0.34607208,0.5049446,0.13607003,0.06238419,0.108723074,0.49995154,-0.025013264,0.27943704,0.40458366,0.16255812,-0.2158729,-0.08267843,-0.06438562,809.4872,795.38464,809.4872,797.8022,830.0366,-0.04071044921875,0.091064453125,0.9808349609375,2.444915771484375,-3.7384033203125,-0.127105712890625,1.0,1.0,1.0,1.0,1.0,80.0,event
09:27:42.392,0.63498425,0.3176111,0.15510361,0.46433643,0.26691368,0.039106697,-0.09162869,0.34607208,0.5049446,0.13607003,0.06238419,0.108723074,0.49995154,-0.025013264,0.27943704,0.40458366,0.16255812,-0.2158729,-0.08267843,-0.06438562,811.50183,796.5934,807.8755,806.6667,1042.7839,-0.04071044921875,0.091064453125,0.9808349609375,2.444915771484375,-3.7384033203125,-0.127105712890625,1.0,1.0,1.0,1.0,1.0,80.0,event
09:27:42.393,0.63498425,0.3176111,0.15510361,0.46433643,0.26691368,0.039106697,-0.09162869,0.34607208,0.5049446,0.13607003,0.06238419,0.108723074,0.49995154,-0.025013264,0.27943704,0.40458366,0.16255812,-0.2158729,-0.08267843,-0.06438562,817.5458,803.44324,807.47253,805.8608,1026.2638,-0.04071044921875,0.091064453125,0.9808349609375,2.444915771484375,-3.7384033203125,-0.127105712890625,1.0,1.0,1.0,1.0,1.0,80.0,event
09:27:42.393,0.63498425,0.3176111,0.15510361,0.46433643,0.26691368,0.039106697,-0.09162869,0.34607208,0.5049446,0.13607003,0.06238419,0.108723074,0.49995154,-0.025013264,0.27943704,0.40458366,0.16255812,-0.2158729,-0.08267843,-0.06438562,824.3956,805.05493,808.2784,800.2198,669.67035,-0.04071044921875,0.091064453125,0.9808349609375,2.444915771484375,-3.7384033203125,-0.127105712890625,1.0,1.0,1.0,1.0,1.0,80.0,event
09:27:42.449,0.63498425,0.3176111,0.15510361,0.46433643,0.26691368,0.039106697,-0.09162869,0.34607208,0.5049446,0.13607003,0.06238419,0.108723074,0.49995154,-0.025013264,0.27943704,0.40458366,0.16255812,-0.2158729,-0.08267843,-0.06438562,815.5311,799.81683,802.6374,789.34064,694.65204,-0.03173828125,0.09228515625,0.990478515625,2.55706787109375,-4.20196533203125,1.57012939453125,1.0,1.0,1.0,1.0,1.0,80.0,event
09:27:42.450,0.63498425,0.3176111,0.15510361,0.46433643,0.26691368,0.039106697,-0.09162869,0.34607208,0.5049446,0.13607003,0.06238419,0.108723074,0.49995154,-0.025013264,0.27943704,0.40458366,0.16255812,-0.2158729,-0.08267843,-0.06438562,821.978,799.41394,800.6227,794.17584,656.3736,-0.03173828125,0.09228515625,0.990478515625,2.55706787109375,-4.20196533203125,1.57012939453125,1.0,1.0,1.0,1.0,1.0,80.0,event
09:27:42.450,0.63498425,0.3176111,0.15510361,0.46433643,0.26691368,0.039106697,-0.09162869,0.34607208,0.5049446,0.13607003,0.06238419,0.108723074,0.49995154,-0.025013264,0.27943704,0.40458366,0.16255812,-0.2158729,-0.08267843,-0.06438562,810.696,797.8022,799.81683,786.9231,693.44324,-0.03173828125,0.09228515625,0.990478515625,2.55706787109375,-4.20196533203125,1.57012939453125,1.0,1.0,1.0,1.0,1.0,80.0,event
09:27:42.451,0.63498425,0.3176111,0.15510361,0.46433643,0.26691368,0.039106697,-0.09162869,0.34607208,0.5049446,0.13607003,0.06238419,0.108723074,0.49995154,-0.025013264,0.27943704,0.40458366,0.16255812,-0.2158729,-0.08267843,-0.06438562,807.0696,796.99634,804.65204,792.96704,746.2271,-0.03173828125,0.09228515625,0.990478515625,2.55706787109375,-4.20196533203125,1.57012939453125,1.0,1.0,1.0,1.0,1.0,80.0,event
09:27:42.451,0.63498425,0.3176111,0.15510361,0.46433643,0.26691368,0.039106697,-0.09162869,0.34607208,0.5049446,0.13607003,0.06238419,0.108723074,0.49995154,-0.025013264,0.27943704,0.40458366,0.16255812,-0.2158729,-0.08267843,-0.06438562,815.5311,799.011,801.02563,797.8022,725.2747,-0.03173828125,0.09228515625,0.990478515625,2.55706787109375,-4.20196533203125,1.57012939453125,1.0,1.0,1.0,1.0,1.0,80.0,event
09:27:42.452,0.63498425,0.3176111,0.15510361,0.46433643,0.26691368,0.039106697,-0.09162869,0.34607208,0.5049446,0.13607003,0.06238419,0.108723074,0.49995154,-0.025013264,0.27943704,0.40458366,0.16255812,-0.2158729,-0.08267843,-0.06438562,812.71063,799.41394,804.65204,788.1319,748.6447,-0.03173828125,0.09228515625,0.990478515625,2.55706787109375,-4.20196533203125,1.57012939453125,1.0,1.0,1.0,1.0,1.0,80.0,event
09:27:42.453,0.63498425,0.3176111,0.15510361,0.46433643,0.26691368,0.039106697,-0.09162869,0.34607208,0.5049446,0.13607003,0.06238419,0.108723074,0.49995154,-0.025013264,0.27943704,0.40458366,0.16255812,-0.2158729,-0.08267843,-0.06438562,812.71063,805.4579,803.44324,793.36993,787.72894,-0.03173828125,0.09228515625,0.990478515625,2.55706787109375,-4.20196533203125,1.57012939453125,1.0,1.0,1.0,1.0,1.0,80.0,event
09:27:42.453,0.63498425,0.3176111,0.15510361,0.46433643,0.26691368,0.039106697,-0.09162869,0.34607208,0.5049446,0.13607003,0.06238419,0.108723074,0.49995154,-0.025013264,0.27943704,0.40458366,0.16255812,-0.2158729,-0.08267843,-0.06438562,824.3956,801.8315,804.2491,797.3993,784.5055,-0.03173828125,0.09228515625,0.990478515625,2.55706787109375,-4.20196533203125,1.57012939453125,1.0,1.0,1.0,1.0,1.0,80.0,event
09:27:42.454,0.63498425,0.3176111,0.15510361,0.46433643,0.26691368,0.039106697,-0.09162869,0.34607208,0.5049446,0.13607003,0.06238419,0.108723074,0.49995154,-0.025013264,0.27943704,0.40458366,0.16255812,-0.2158729,-0.08267843,-0.06438562,823.9927,802.23444,806.26373,800.2198,969.0476,-0.03173828125,0.09228515625,0.990478515625,2.55706787109375,-4.20196533203125,1.57012939453125,1.0,1.0,1.0,1.0,1.0,80.0,event
09:27:42.454,0.5923897,0.40238976,0.18018901,0.49549845,0.25586098,0.21825178,-0.026967945,0.34985974,0.50362855,0.1514283,0.070098914,0.099343605,0.4843527,-0.03807522,0.27796832,0.37656307,0.16262177,-0.23207213,-0.081125215,-0.072692074,804.65204,807.0696,803.0403,798.60803,1037.1428,-0.03173828125,0.09228515625,0.990478515625,2.55706787109375,-4.20196533203125,1.57012939453125,1.0,1.0,1.0,1.0,1.0,80.0,event
09:27:42.458,0.5923897,0.40238976,0.18018901,0.49549845,0.25586098,0.21825178,-0.026967945,0.34985974,0.50362855,0.1514283,0.070098914,0.099343605,0.4843527,-0.03807522,0.27796832,0.37656307,0.16262177,-0.23207213,-0.081125215,-0.072692074,801.4286,807.8755,798.20514,784.90845,813.1135,-0.03173828125,0.09228515625,0.990478515625,2.55706787109375,-4.20196533203125,1.57012939453125,1.0,1.0,1.0,1.0,1.0,80.0,event
09:27:42.459,0.5923897,0.40238976,0.18018901,0.49549845,0.25586098,0.21825178,-0.026967945,0.34985974,0.50362855,0.1514283,0.070098914,0.099343605,0.4843527,-0.03807522,0.27796832,0.37656307,0.16262177,-0.23207213,-0.081125215,-0.072692074,801.8315,803.44324,805.8608,780.4762,781.28204,-0.03173828125,0.09228515625,0.990478515625,2.55706787109375,-4.20196533203125,1.57012939453125,1.0,1.0,1.0,1.0,1.0,80.0,event
09:27:42.481,0.5923897,0.40238976,0.18018901,0.49549845,0.25586098,0.21825178,-0.026967945,0.34985974,0.50362855,0.1514283,0.070098914,0.099343605,0.4843527,-0.03807522,0.27796832,0.37656307,0.16262177,-0.23207213,-0.081125215,-0.072692074,805.8608,794.9817,810.696,788.5348,849.3773,-0.02923583984375,0.09375,0.9840087890625,1.816864013671875,-4.284210205078125,5.443115234375,1.0,1.0,1.0,1.0,1.0,80.0,event
09:27:42.482,0.5923897,0.40238976,0.18018901,0.49549845,0.25586098,0.21825178,-0.026967945,0.34985974,0.50362855,0.1514283,0.070098914,0.099343605,0.4843527,-0.03807522,0.27796832,0.37656307,0.16262177,-0.23207213,-0.081125215,-0.072692074,809.89014,799.011,806.26373,793.7729,827.619,-0.02923583984375,0.09375,0.9840087890625,1.816864013671875,-4.284210205078125,5.443115234375,1.0,1.0,1.0,1.0,1.0,80.0,event
09:27:42.482,0.5923897,0.40238976,0.18018901,0.49549845,0.25586098,0.21825178,-0.026967945,0.34985974,0.50362855,0.1514283,0.070098914,0.099343605,0.4843527,-0.03807522,0.27796832,0.37656307,0.16262177,-0.23207213,-0.081125215,-0.072692074,805.8608,799.41394,805.4579,788.5348,709.5604,-0.02923583984375,0.09375,0.9840087890625,1.816864013671875,-4.284210205078125,5.443115234375,1.0,1.0,1.0,1.0,1.0,80.0,event
09:27:42.483,0.5923897,0.40238976,0.18018901,0.49549845,0.25586098,0.21825178,-0.026967945,0.34985974,0.50362855,0.1514283,0.070098914,0.099343605,0.4843527,-0.03807522,0.27796832,0.37656307,0.16262177,-0.23207213,-0.081125215,-0.072692074,801.8315,800.6227,807.0696,785.7143,709.9634,-0.02923583984375,0.09375,0.9840087890625,1.816864013671875,-4.284210205078125,5.443115234375,1.0,1.0,1.0,1.0,1.0,80.0,event
09:27:42.484,0.5923897,0.40238976,0.18018901,0.49549845,0.25586098,0.21825178,-0.026967945,0.34985974,0.50362855,0.1514283,0.070098914,0.099343605,0.4843527,-0.03807522,0.27796832,0.37656307,0.16262177,-0.23207213,-0.081125215,-0.072692074,805.05493,802.23444,799.81683,784.5055,787.72894,-0.02923583984375,0.09375,0.9840087890625,1.816864013671875,-4.284210205078125,5.443115234375,1.0,1.0,1.0,1.0,1.0,80.0,event
09:27:42.484,0.5923897,0.40238976,0.18018901,0.49549845,0.25586098,0.21825178,-0.026967945,0.34985974,0.50362855,0.1514283,0.070098914,0.099343605,0.4843527,-0.03807522,0.27796832,0.37656307,0.16262177,-0.23207213,-0.081125215,-0.072692074,804.2491,798.20514,799.41394,793.36993,799.011,-0.02923583984375,0.09375,0.9840087890625,1.816864013671875,-4.284210205078125,5.443115234375,1.0,1.0,1.0,1.0,1.0,80.0,event
09:27:42.485,0.5923897,0.40238976,0.18018901,0.49549845,0.25586098,0.21825178,-0.026967945,0.34985974,0.50362855,0.1514283,0.070098914,0.099343605,0.4843527,-0.03807522,0.27796832,0.37656307,0.16262177,-0.23207213,-0.081125215,-0.072692074,809.89014,798.60803,805.8608,794.17584,825.2015,-0.02923583984375,0.09375,0.9840087890625,1.816864013671875,-4.284210205078125,5.443115234375,1.0,1.0,1.0,1.0,1.0,80.0,event
09:27:42.485,0.5923897,0.40238976,0.18018901,0.49549845,0.25586098,0.21825178,-0.026967945,0.34985974,0.50362855,0.1514283,0.070098914,0.099343605,0.4843527,-0.03807522,0.27796832,0.37656307,0.16262177,-0.23207213,-0.081125215,-0.072692074,807.8755,798.20514,802.6374,782.0879,875.56775,-0.02923583984375,0.09375,0.9840087890625,1.816864013671875,-4.284210205078125,5.443115234375,1.0,1.0,1.0,1.0,1.0,80.0,event
09:27:42.486,0.5923897,0.40238976,0.18018901,0.49549845,0.25586098,0.21825178,-0.026967945,0.34985974,0.50362855,0.1514283,0.070098914,0.099343605,0.4843527,-0.03807522,0.27796832,0.37656307,0.16262177,-0.23207213,-0.081125215,-0.072692074,815.12823,803.0403,805.8608,789.7436,834.4689,-0.02923583984375,0.09375,0.9840087890625,1.816864013671875,-4.284210205078125,5.443115234375,1.0,1.0,1.0,1.0,1.0,80.0,event
09:27:42.486,0.5923897,0.40238976,0.18018901,0.49549845,0.25586098,0.21825178,-0.026967945,0.34985974,0.50362855,0.1514283,0.070098914,0.099343605,0.4843527,-0.03807522,0.27796832,0.37656307,0.16262177,-0.23207213,-0.081125215,-0.072692074,807.8755,801.4286,805.8608,792.1612,969.85345,-0.02923583984375,0.09375,0.9840087890625,1.816864013671875,-4.284210205078125,5.443115234375,1.0,1.0,1.0,1.0,1.0,80.0,event
09:27:42.487,0.5923897,0.40238976,0.18018901,0.49549845,0.25586098,0.21825178,-0.026967945,0.34985974,0.50362855,0.1514283,0.070098914,0.099343605,0.4843527,-0.03807522,0.27796832,0.37656307,0.16262177,-0.23207213,-0.081125215,-0.072692074,810.293,799.011,800.6227,787.72894,648.71796,-0.02923583984375,0.09375,0.9840087890625,1.816864013671875,-4.284210205078125,5.443115234375,1.0,1.0,1.0,1.0,1.0,80.0,event
09:27:42.487,0.5923897,0.40238976,0.18018901,0.49549845,0.25586098,0.21825178,-0.026967945,0.34985974,0.50362855,0.1514283,0.070098914,0.099343605,0.4843527,-0.03807522,0.27796832,0.37656307,0.16262177,-0.23207213,-0.081125215,-0.072692074,817.1429,800.2198,805.8608,807.47253,708.3516,-0.02923583984375,0.09375,0.9840087890625,1.816864013671875,-4.284210205078125,5.443115234375,1.0,1.0,1.0,1.0,1.0,80.0,event
09:27:42.551,0.5923897,0.40238976,0.18018901,0.49549845,0.25586098,0.21825178,-0.026967945,0.34985974,0.50362855,0.1514283,0.070098914,0.099343605,0.4843527,-0.03807522,0.27796832,0.37656307,0.16262177,-0.23207213,-0.081125215,-0.072692074,819.5604,801.4286,808.68134,805.8608,768.3883,-0.0560302734375,0.087646484375,0.98260498046875,2.093505859375,-2.863616943359375,3.895416259765625,1.0,1.0,1.0,1.0,1.0,80.0,event
09:27:42.552,0.5923897,0.40238976,0.18018901,0.49549845,0.25586098,0.21825178,-0.026967945,0.34985974,0.50362855,0.1514283,0.070098914,0.099343605,0.4843527,-0.03807522,0.27796832,0.37656307,0.16262177,-0.23207213,-0.081125215,-0.072692074,821.5751,801.8315,811.9048,793.36993,724.4689,-0.0560302734375,0.087646484375,0.98260498046875,2.093505859375,-2.863616943359375,3.895416259765625,1.0,1.0,1.0,1.0,1.0,80.0,event
09:27:42.553,0.5923897,0.40238976,0.18018901,0.49549845,0.25586098,0.21825178,-0.026967945,0.34985974,0.50362855,0.1514283,0.070098914,0.099343605,0.4843527,-0.03807522,0.27796832,0.37656307,0.16262177,-0.23207213,-0.081125215,-0.072692074,817.9487,804.65204,812.71063,785.31134,678.93774,-0.0560302734375,0.087646484375,0.98260498046875,2.093505859375,-2.863616943359375,3.895416259765625,1.0,1.0,1.0,1.0,1.0,80.0,event
09:27:42.553,0.5923897,0.40238976,0.18018901,0.49549845,0.25586098,0.21825178,-0.026967945,0.34985974,0.50362855,0.1514283,0.070098914,0.099343605,0.4843527,-0.03807522,0.27796832,0.37656307,0.16262177,-0.23207213,-0.081125215,-0.072692074,815.5311,802.23444,809.0842,788.5348,809.89014,-0.0560302734375,0.087646484375,0.98260498046875,2.093505859375,-2.863616943359375,3.895416259765625,1.0,1.0,1.0,1.0,1.0,80.0,event
09:27:42.554,0.5923897,0.40238976,0.18018901,0.49549845,0.25586098,0.21825178,-0.026967945,0.34985974,0.50362855,0.1514283,0.070098914,0.099343605,0.4843527,-0.03807522,0.27796832,0.37656307,0.16262177,-0.23207213,-0.081125215,-0.072692074,821.978,802.6374,813.5165,807.0696,876.3736,-0.0560302734375,0.087646484375,0.98260498046875,2.093505859375,-2.863616943359375,3.895416259765625,1.0,1.0,1.0,1.0,1.0,80.0,event
09:27:42.555,0.5923897,0.40238976,0.18018901,0.49549845,0.25586098,0.21825178,-0.026967945,0.34985974,0.50362855,0.1514283,0.070098914,0.099343605,0.4843527,-0.03807522,0.27796832,0.37656307,0.16262177,-0.23207213,-0.081125215,-0.072692074,814.3223,803.0403,812.3077,803.8461,848.5714,-0.0560302734375,0.087646484375,0.98260498046875,2.093505859375,-2.863616943359375,3.895416259765625,1.0,1.0,1.0,1.0,1.0,80.0,event
09:27:42.555,0.5923897,0.40238976,0.18018901,0.49549845,0.25586098,0.21825178,-0.026967945,0.34985974,0.50362855,0.1514283,0.070098914,0.099343605,0.4843527,-0.03807522,0.27796832,0.37656307,0.16262177,-0.23207213,-0.081125215,-0.072692074,806.26373,801.02563,811.0989,788.5348,786.1172,-0.0560302734375,0.087646484375,0.98260498046875,2.093505859375,-2.863616943359375,3.895416259765625,1.0,1.0,1.0,1.0,1.0,80.0,event
09:27:42.556,0.5923897,0.40238976,0.18018901,0.49549845,0.25586098,0.21825178,-0.026967945,0.34985974,0.50362855,0.1514283,0.070098914,0.099343605,0.4843527,-0.03807522,0.27796832,0.37656307,0.16262177,-0.23207213,-0.081125215,-0.072692074,808.2784,803.8461,812.3077,788.1319,877.98535,-0.0560302734375,0.087646484375,0.98260498046875,2.093505859375,-2.863616943359375,3.895416259765625,1.0,1.0,1.0,1.0,1.0,80.0,event
09:27:42.557,0.5923897,0.40238976,0.18018901,0.49549845,0.25586098,0.21825178,-0.026967945,0.34985974,0.50362855,0.1514283,0.070098914,0.099343605,0.4843527,-0.03807522,0.27796832,0.37656307,0.16262177,-0.23207213,-0.081125215,-0.072692074,803.8461,803.0403,811.0989,788.93774,935.2015,-0.0560302734375,0.087646484375,0.98260498046875,2.093505859375,-2.863616943359375,3.895416259765625,1.0,1.0,1.0,1.0,1.0,80.0,event
09:27:42.557,0.5923897,0.40238976,0.18018901,0.49549845,0.25586098,0.21825178,-0.026967945,0.34985974,0.50362855,0.1514283,0.070098914,0.099343605,0.4843527,-0.03807522,0.27796832,0.37656307,0.16262177,-0.23207213,-0.081125215,-0.072692074,795.38464,798.20514,811.0989,780.4762,726.08057,-0.0560302734375,0.087646484375,0.98260498046875,2.093505859375,-2.863616943359375,3.895416259765625,1.0,1.0,1.0,1.0,1.0,80.0,event
09:27:42.558,0.5923897,0.40238976,0.18018901,0.49549845,0.25586098,0.21825178,-0.026967945,0.34985974,0.50362855,0.1514283,0.070098914,0.099343605,0.4843527,-0.03807522,0.27796832,0.37656307,0.16262177,-0.23207213,-0.081125215,-0.072692074,798.20514,800.2198,806.6667,780.4762,735.34796,-0.0560302734375,0.087646484375,0.98260498046875,2.093505859375,-2.863616943359375,3.895416259765625,1.0,1.0,1.0,1.0,1.0,80.0,event
09:27:42.558,0.5168301,0.4638768,0.19256485,0.51288116,0.21896772,0.32827926,0.023647927,0.3369077,0.49429384,0.15805374,0.06673485,0.0864007,0.4699405,-0.045314673,0.27149332,0.3689017,0.15147935,-0.24716936,-0.074454464,-0.08451882,799.011,805.8608,805.4579,781.28204,723.2601,-0.0560302734375,0.087646484375,0.98260498046875,2.093505859375,-2.863616943359375,3.895416259765625,1.0,1.0,1.0,1.0,1.0,80.0,event
09:27:42.586,0.5168301,0.4638768,0.19256485,0.51288116,0.21896772,0.32827926,0.023647927,0.3369077,0.49429384,0.15805374,0.06673485,0.0864007,0.4699405,-0.045314673,0.27149332,0.3689017,0.15147935,-0.24716936,-0.074454464,-0.08451882,793.7729,805.8608,804.65204,770.80585,646.7033,-0.0560302734375,0.087646484375,0.98260498046875,2.093505859375,-2.863616943359375,3.895416259765625,1.0,1.0,1.0,1.0,1.0,80.0,event
09:27:42.587,0.5168301,0.4638768,0.19256485,0.51288116,0.21896772,0.32827926,0.023647927,0.3369077,0.49429384,0.15805374,0.06673485,0.0864007,0.4699405,-0.045314673,0.27149332,0.3689017,0.15147935,-0.24716936,-0.074454464,-0.08451882,796.99634,804.2491,807.47253,776.4469,615.2747,-0.0560302734375,0.087646484375,0.98260498046875,2.093505859375,-2.863616943359375,3.895416259765625,1.0,1.0,1.0,1.0,1.0,80.0,event
09:27:42.588,0.5168301,0.4638768,0.19256485,0.51288116,0.21896772,0.32827926,0.023647927,0.3369077,0.49429384,0.15805374,0.06673485,0.0864007,0.4699405,-0.045314673,0.27149332,0.3689017,0.15147935,-0.24716936,-0.074454464,-0.08451882,794.57874,801.4286,817.9487,787.72894,688.60803,-0.0560302734375,0.087646484375,0.98260498046875,2.093505859375,-2.863616943359375,3.895416259765625,1.0,1.0,1.0,1.0,1.0,80.0,event
09:27:42.589,0.5168301,0.4638768,0.19256485,0.51288116,0.21896772,0.32827926,0.023647927,0.3369077,0.49429384,0.15805374,0.06673485,0.0864007,0.4699405,-0.045314673,0.27149332,0.3689017,0.15147935,-0.24716936,-0.074454464,-0.08451882,789.7436,798.20514,813.91943,790.14655,873.1502,-0.0560302734375,0.087646484375,0.98260498046875,2.093505859375,-2.863616943359375,3.895416259765625,1.0,1.0,1.0,1.0,1.0,80.0,event
09:27:42.593,0.5168301,0.4638768,0.19256485,0.51288116,0.21896772,0.32827926,0.023647927,0.3369077,0.49429384,0.15805374,0.06673485,0.0864007,0.4699405,-0.045314673,0.27149332,0.3689017,0.15147935,-0.24716936,-0.074454464,-0.08451882,788.5348,796.5934,805.4579,786.52014,884.0293,-0.0560302734375,0.087646484375,0.98260498046875,2.093505859375,-2.863616943359375,3.895416259765625,1.0,1.0,1.0,1.0,1.0,80.0,event
09:27:42.595,0.5168301,0.4638768,0.19256485,0.51288116,0.21896772,0.32827926,0.023647927,0.3369077,0.49429384,0.15805374,0.06673485,0.0864007,0.4699405,-0.045314673,0.27149332,0.3689017,0.15147935,-0.24716936,-0.074454464,-0.08451882,791.75824,801.8315,806.26373,788.1319,807.0696,-0.0560302734375,0.087646484375,0.98260498046875,2.093505859375,-2.863616943359375,3.895416259765625,1.0,1.0,1.0,1.0,1.0,80.0,event
09:27:42.596,0.5168301,0.4638768,0.19256485,0.51288116,0.21896772,0.32827926,0.023647927,0.3369077,0.49429384,0.15805374,0.06673485,0.0864007,0.4699405,-0.045314673,0.27149332,0.3689017,0.15147935,-0.24716936,-0.074454464,-0.08451882,793.36993,805.05493,809.89014,785.7143,856.63007,-0.0560302734375,0.087646484375,0.98260498046875,2.093505859375,-2.863616943359375,3.895416259765625,1.0,1.0,1.0,1.0,1.0,80.0,event
09:27:42.597,0.5168301,0.4638768,0.19256485,0.51288116,0.21896772,0.32827926,0.023647927,0.3369077,0.49429384,0.15805374,0.06673485,0.0864007,0.4699405,-0.045314673,0.27149332,0.3689017,0.15147935,-0.24716936,-0.074454464,-0.08451882,796.1905,803.8461,810.696,790.9524,990.40295,-0.0560302734375,0.087646484375,0.98260498046875,2.093505859375,-2.863616943359375,3.895416259765625,1.0,1.0,1.0,1.0,1.0,80.0,event
09:27:42.599,0.5168301,0.4638768,0.19256485,0.51288116,0.21896772,0.32827926,0.023647927,0.3369077,0.49429384,0.15805374,0.06673485,0.0864007,0.4699405,-0.045314673,0.27149332,0.3689017,0.15147935,-0.24716936,-0.074454464,-0.08451882,803.8461,803.8461,809.0842,801.8315,919.0842,-0.0560302734375,0.087646484375,0.98260498046875,2.093505859375,-2.863616943359375,3.895416259765625,1.0,1.0,1.0,1.0,1.0,80.0,event
09:27:42.600,0.5168301,0.4638768,0.19256485,0.51288116,0.21896772,0.32827926,0.023647927,0.3369077,0.49429384,0.15805374,0.06673485,0.0864007,0.4699405,-0.045314673,0.27149332,0.3689017,0.15147935,-0.24716936,-0.074454464,-0.08451882,811.50183,805.05493,805.8608,786.52014,753.47986,-0.0560302734375,0.087646484375,0.98260498046875,2.093505859375,-2.863616943359375,3.895416259765625,1.0,1.0,1.0,1.0,1.0,80.0,event
09:27:42.601,0.5168301,0.4638768,0.19256485,0.51288116,0.21896772,0.32827926,0.023647927,0.3369077,0.49429384,0.15805374,0.06673485,0.0864007,0.4699405,-0.045314673,0.27149332,0.3689017,0.15147935,-0.24716936,-0.074454464,-0.08451882,799.41394,806.6667,803.8461,774.83514,802.6374,-0.0560302734375,0.087646484375,0.98260498046875,2.093505859375,-2.863616943359375,3.895416259765625,1.0,1.0,1.0,1.0,1.0,80.0,event
09:27:42.602,0.5168301,0.4638768,0.19256485,0.51288116,0.21896772,0.32827926,0.023647927,0.3369077,0.49429384,0.15805374,0.06673485,0.0864007,0.4699405,-0.045314673,0.27149332,0.3689017,0.15147935,-0.24716936,-0.074454464,-0.08451882,789.7436,804.65204,803.8461,785.7143,870.32965,-0.0560302734375,0.087646484375,0.98260498046875,2.093505859375,-2.863616943359375,3.895416259765625,1.0,1.0,1.0,1.0,1.0,80.0,event
09:27:42.675,0.5168301,0.4638768,0.19256485,0.51288116,0.21896772,0.32827926,0.023647927,0.3369077,0.49429384,0.15805374,0.06673485,0.0864007,0.4699405,-0.045314673,0.27149332,0.3689017,0.15147935,-0.24716936,-0.074454464,-0.08451882,797.3993,796.99634,799.41394,790.14655,735.34796,-0.0465087890625,0.09112548828125,0.98046875,2.190704345703125,-3.1402587890625,-0.6878662109375,1.0,1.0,1.0,1.0,1.0,80.0,event
09:27:42.676,0.5168301,0.4638768,0.19256485,0.51288116,0.21896772,0.32827926,0.023647927,0.3369077,0.49429384,0.15805374,0.06673485,0.0864007,0.4699405,-0.045314673,0.27149332,0.3689017,0.15147935,-0.24716936,-0.074454464,-0.08451882,806.6667,799.011,804.2491,792.1612,715.2015,-0.0465087890625,0.09112548828125,0.98046875,2.190704345703125,-3.1402587890625,-0.6878662109375,1.0,1.0,1.0,1.0,1.0,80.0,event
09:27:42.677,0.5168301,0.4638768,0.19256485,0.51288116,0.21896772,0.32827926,0.023647927,0.3369077,0.49429384,0.15805374,0.06673485,0.0864007,0.4699405,-0.045314673,0.27149332,0.3689017,0.15147935,-0.24716936,-0.074454464,-0.08451882,809.4872,809.0842,811.50183,790.14655,783.69965,-0.0465087890625,0.09112548828125,0.98046875,2.190704345703125,-3.1402587890625,-0.6878662109375,1.0,1.0,1.0,1.0,1.0,80.0,event
09:27:42.677,0.5168301,0.4638768,0.19256485,0.51288116,0.21896772,0.32827926,0.023647927,0.3369077,0.49429384,0.15805374,0.06673485,0.0864007,0.4699405,-0.045314673,0.27149332,0.3689017,0.15147935,-0.24716936,-0.074454464,-0.08451882,800.6227,807.0696,807.8755,775.64105,786.1172,-0.0465087890625,0.09112548828125,0.98046875,2.190704345703125,-3.1402587890625,-0.6878662109375,1.0,1.0,1.0,1.0,1.0,80.0,event
09:27:42.678,0.5168301,0.4638768,0.19256485,0.51288116,0.21896772,0.32827926,0.023647927,0.3369077,0.49429384,0.15805374,0.06673485,0.0864007,0.4699405,-0.045314673,0.27149332,0.3689017,0.15147935,-0.24716936,-0.074454464,-0.08451882,799.81683,804.65204,809.0842,775.2381,714.7985,-0.0465087890625,0.09112548828125,0.98046875,2.190704345703125,-3.1402587890625,-0.6878662109375,1.0,1.0,1.0,1.0,1.0,80.0,event
09:27:42.679,0.5168301,0.4638768,0.19256485,0.51288116,0.21896772,0.32827926,0.023647927,0.3369077,0.49429384,0.15805374,0.06673485,0.0864007,0.4699405,-0.045314673,0.27149332,0.3689017,0.15147935,-0.24716936,-0.074454464,-0.08451882,804.65204,806.26373,806.26373,789.7436,749.85345,-0.0465087890625,0.09112548828125,0.98046875,2.190704345703125,-3.1402587890625,-0.6878662109375,1.0,1.0,1.0,1.0,1.0,80.0,event
09:27:42.679,0.5168301,0.4638768,0.19256485,0.51288116,0.21896772,0.32827926,0.023647927,0.3369077,0.49429384,0.15805374,0.06673485,0.0864007,0.4699405,-0.045314673,0.27149332,0.3689017,0.15147935,-0.24716936,-0.074454464,-0.08451882,803.8461,807.8755,808.2784,799.011,1062.5275,-0.0465087890625,0.09112548828125,0.98046875,2.190704345703125,-3.1402587890625,-0.6878662109375,1.0,1.0,1.0,1.0,1.0,80.0,event
09:27:42.680,0.5168301,0.4638768,0.19256485,0.51288116,0.21896772,0.32827926,0.023647927,0.3369077,0.49429384,0.15805374,0.06673485,0.0864007,0.4699405,-0.045314673,0.27149332,0.3689017,0.15147935,-0.24716936,-0.074454464,-0.08451882,805.8608,806.6667,814.3223,803.0403,1088.3151,-0.0465087890625,0.09112548828125,0.98046875,2.190704345703125,-3.1402587890625,-0.6878662109375,1.0,1.0,1.0,1.0,1.0,80.0,event
09:27:42.681,0.5168301,0.4638768,0.19256485,0.51288116,0.21896772,0.32827926,0.023647927,0.3369077,0.49429384,0.15805374,0.06673485,0.0864007,0.4699405,-0.045314673,0.27149332,0.3689017,0.15147935,-0.24716936,-0.074454464,-0.08451882,799.81683,807.47253,813.5165,794.57874,691.4286,-0.0465087890625,0.09112548828125,0.98046875,2.190704345703125,-3.1402587890625,-0.6878662109375,1.0,1.0,1.0,1.0,1.0,80.0,event
09:27:42.681,0.5168301,0.4638768,0.19256485,0.51288116,0.21896772,0.32827926,0.023647927,0.3369077,0.49429384,0.15805374,0.06673485,0.0864007,0.4699405,-0.045314673,0.27149332,0.3689017,0.15147935,-0.24716936,-0.074454464,-0.08451882,790.9524,803.8461,806.26373,788.93774,603.1868,-0.0465087890625,0.09112548828125,0.98046875,2.190704345703125,-3.1402587890625,-0.6878662109375,1.0,1.0,1.0,1.0,1.0,80.0,event
09:27:42.682,0.5168301,0.4638768,0.19256485,0.51288116,0.21896772,0.32827926,0.023647927,0.3369077,0.49429384,0.15805374,0.06673485,0.0864007,0.4699405,-0.045314673,0.27149332,0.3689017,0.15147935,-0.24716936,-0.074454464,-0.08451882,792.5641,796.99634,800.2198,798.20514,764.7619,-0.0465087890625,0.09112548828125,0.98046875,2.190704345703125,-3.1402587890625,-0.6878662109375,1.0,1.0,1.0,1.0,1.0,80.0,event
09:27:42.683,0.5168301,0.4638768,0.19256485,0.51288116,0.21896772,0.32827926,0.023647927,0.3369077,0.49429384,0.15805374,0.06673485,0.0864007,0.4699405,-0.045314673,0.27149332,0.3689017,0.15147935,-0.24716936,-0.074454464,-0.08451882,797.8022,798.60803,804.65204,802.6374,859.0476,-0.0465087890625,0.09112548828125,0.98046875,2.190704345703125,-3.1402587890625,-0.6878662109375,1.0,1.0,1.0,1.0,1.0,80.0,event
09:27:42.706,0.5168301,0.4638768,0.19256485,0.51288116,0.21896772,0.32827926,0.023647927,0.3369077,0.49429384,0.15805374,0.06673485,0.0864007,0.4699405,-0.045314673,0.27149332,0.3689017,0.15147935,-0.24716936,-0.074454464,-0.08451882,804.2491,806.26373,808.68134,801.4286,745.82416,-0.0450439453125,0.08843994140625,0.9879150390625,1.786956787109375,-3.4991455078125,-1.09161376953125,1.0,1.0,1.0,1.0,1.0,80.0,event
09:27:42.707,0.440681,0.49406546,0.197083,0.49924055,0.16219877,0.38213658,0.051403526,0.32021368,0.4360759,0.17985158,0.046646163,0.040595625,0.4668527,-0.044672996,0.26001135,0.38002536,0.12771173,-0.25509486,-0.06727021,-0.11240928,808.2784,804.65204,811.50183,793.36993,700.293,-0.0450439453125,0.08843994140625,0.9879150390625,1.786956787109375,-3.4991455078125,-1.09161376953125,1.0,1.0,1.0,1.0,1.0,80.0,event
09:27:42.712,0.440681,0.49406546,0.197083,0.49924055,0.16219877,0.38213658,0.051403526,0.32021368,0.4360759,0.17985158,0.046646163,0.040595625,0.4668527,-0.044672996,0.26001135,0.38002536,0.12771173,-0.25509486,-0.06727021,-0.11240928,806.26373,799.011,805.05493,788.93774,751.4652,-0.0450439453125,0.08843994140625,0.9879150390625,1.786956787109375,-3.4991455078125,-1.09161376953125,1.0,1.0,1.0,1.0,1.0,80.0,event
09:27:42.712,0.440681,0.49406546,0.197083,0.49924055,0.16219877,0.38213658,0.051403526,0.32021368,0.4360759,0.17985158,0.046646163,0.040595625,0.4668527,-0.044672996,0.26001135,0.38002536,0.12771173,-0.25509486,-0.06727021,-0.11240928,801.02563,805.05493,806.26373,798.20514,721.2454,-0.0450439453125,0.08843994140625,0.9879150390625,1.786956787109375,-3.4991455078125,-1.09161376953125,1.0,1.0,1.0,1.0,1.0,80.0,event
09:27:42.713,0.440681,0.49406546,0.197083,0.49924055,0.16219877,0.38213658,0.051403526,0.32021368,0.4360759,0.17985158,0.046646163,0.040595625,0.4668527,-0.044672996,0.26001135,0.38002536,0.12771173,-0.25509486,-0.06727021,-0.11240928,799.81683,807.0696,811.50183,803.0403,749.45056,-0.0450439453125,0.08843994140625,0.9879150390625,1.786956787109375,-3.4991455078125,-1.09161376953125,1.0,1.0,1.0,1.0,1.0,80.0,event
09:27:42.714,0.440681,0.49406546,0.197083,0.49924055,0.16219877,0.38213658,0.051403526,0.32021368,0.4360759,0.17985158,0.046646163,0.040595625,0.4668527,-0.044672996,0.26001135,0.38002536,0.12771173,-0.25509486,-0.06727021,-0.11240928,796.1905,806.6667,802.23444,793.7729,873.95605,-0.0450439453125,0.08843994140625,0.9879150390625,1.786956787109375,-3.4991455078125,-1.09161376953125,1.0,1.0,1.0,1.0,1.0,80.0,event
09:27:42.714,0.440681,0.49406546,0.197083,0.49924055,0.16219877,0.38213658,0.051403526,0.32021368,0.4360759,0.17985158,0.046646163,0.040595625,0.4668527,-0.044672996,0.26001135,0.38002536,0.12771173,-0.25509486,-0.06727021,-0.11240928,793.7729,810.696,804.65204,787.72894,1000.4762,-0.0450439453125,0.08843994140625,0.9879150390625,1.786956787109375,-3.4991455078125,-1.09161376953125,1.0,1.0,1.0,1.0,1.0,80.0,event
09:27:42.715,0.440681,0.49406546,0.197083,0.49924055,0.16219877,0.38213658,0.051403526,0.32021368,0.4360759,0.17985158,0.046646163,0.040595625,0.4668527,-0.044672996,0.26001135,0.38002536,0.12771173,-0.25509486,-0.06727021,-0.11240928,795.38464,808.2784,802.23444,790.54944,867.9121,-0.0450439453125,0.08843994140625,0.9879150390625,1.786956787109375,-3.4991455078125,-1.09161376953125,1.0,1.0,1.0,1.0,1.0,80.0,event
09:27:42.715,0.440681,0.49406546,0.197083,0.49924055,0.16219877,0.38213658,0.051403526,0.32021368,0.4360759,0.17985158,0.046646163,0.040595625,0.4668527,-0.044672996,0.26001135,0.38002536,0.12771173,-0.25509486,-0.06727021,-0.11240928,799.011,810.293,798.20514,797.3993,641.06226,-0.0450439453125,0.08843994140625,0.9879150390625,1.786956787109375,-3.4991455078125,-1.09161376953125,1.0,1.0,1.0,1.0,1.0,80.0,event
09:27:42.716,0.440681,0.49406546,0.197083,0.49924055,0.16219877,0.38213658,0.051403526,0.32021368,0.4360759,0.17985158,0.046646163,0.040595625,0.4668527,-0.044672996,0.26001135,0.38002536,0.12771173,-0.25509486,-0.06727021,-0.11240928,807.47253,809.4872,806.6667,802.23444,750.2564,-0.0450439453125,0.08843994140625,0.9879150390625,1.786956787109375,-3.4991455078125,-1.09161376953125,1.0,1.0,1.0,1.0,1.0,80.0,event
09:27:42.717,0.440681,0.49406546,0.197083,0.49924055,0.16219877,0.38213658,0.051403526,0.32021368,0.4360759,0.17985158,0.046646163,0.040595625,0.4668527,-0.044672996,0.26001135,0.38002536,0.12771173,-0.25509486,-0.06727021,-0.11240928,810.293,803.44324,811.0989,794.17584,876.77655,-0.0450439453125,0.08843994140625,0.9879150390625,1.786956787109375,-3.4991455078125,-1.09161376953125,1.0,1.0,1.0,1.0,1.0,80.0,event
09:27:42.717,0.440681,0.49406546,0.197083,0.49924055,0.16219877,0.38213658,0.051403526,0.32021368,0.4360759,0.17985158,0.046646163,0.040595625,0.4668527,-0.044672996,0.26001135,0.38002536,0.12771173,-0.25509486,-0.06727021,-0.11240928,802.23444,808.2784,815.9341,785.7143,725.6777,-0.0450439453125,0.08843994140625,0.9879150390625,1.786956787109375,-3.4991455078125,-1.09161376953125,1.0,1.0,1.0,1.0,1.0,80.0,event
09:27:42.718,0.440681,0.49406546,0.197083,0.49924055,0.16219877,0.38213658,0.051403526,0.32021368,0.4360759,0.17985158,0.046646163,0.040595625,0.4668527,-0.044672996,0.26001135,0.38002536,0.12771173,-0.25509486,-0.06727021,-0.11240928,796.99634,807.0696,815.12823,785.7143,630.58606,-0.04901123046875,0.087890625,0.987548828125,1.891632080078125,-4.14215087890625,0.07476806640625,1.0,1.0,1.0,1.0,1.0,80.0,event
09:27:42.719,0.440681,0.49406546,0.197083,0.49924055,0.16219877,0.38213658,0.051403526,0.32021368,0.4360759,0.17985158,0.046646163,0.040595625,0.4668527,-0.044672996,0.26001135,0.38002536,0.12771173,-0.25509486,-0.06727021,-0.11240928,800.2198,801.8315,810.696,792.5641,799.81683,-0.04901123046875,0.087890625,0.987548828125,1.891632080078125,-4.14215087890625,0.07476806640625,1.0,1.0,1.0,1.0,1.0,80.0,event
09:27:42.719,0.440681,0.49406546,0.197083,0.49924055,0.16219877,0.38213658,0.051403526,0.32021368,0.4360759,0.17985158,0.046646163,0.040595625,0.4668527,-0.044672996,0.26001135,0.38002536,0.12771173,-0.25509486,-0.06727021,-0.11240928,797.3993,805.05493,801.8315,801.8315,961.79486,-0.04901123046875,0.087890625,0.987548828125,1.891632080078125,-4.14215087890625,0.07476806640625,1.0,1.0,1.0,1.0,1.0,80.0,event
09:27:42.720,0.440681,0.49406546,0.197083,0.49924055,0.16219877,0.38213658,0.051403526,0.32021368,0.4360759,0.17985158,0.046646163,0.040595625,0.4668527,-0.044672996,0.26001135,0.38002536,0.12771173,-0.25509486,-0.06727021,-0.11240928,795.78754,806.6667,799.41394,800.6227,772.8205,-0.04901123046875,0.087890625,0.987548828125,1.891632080078125,-4.14215087890625,0.07476806640625,1.0,1.0,1.0,1.0,1.0,80.0,event
09:27:42.721,0.440681,0.49406546,0.197083,0.49924055,0.16219877,0.38213658,0.051403526,0.32021368,0.4360759,0.17985158,0.046646163,0.040595625,0.4668527,-0.044672996,0.26001135,0.38002536,0.12771173,-0.25509486,-0.06727021,-0.11240928,794.9817,805.05493,803.44324,791.75824,690.2198,-0.04901123046875,0.087890625,0.987548828125,1.891632080078125,-4.14215087890625,0.07476806640625,1.0,1.0,1.0,1.0,1.0,80.0,event
09:27:42.721,0.440681,0.49406546,0.197083,0.49924055,0.16219877,0.38213658,0.051403526,0.32021368,0.4360759,0.17985158,0.046646163,0.040595625,0.4668527,-0.044672996,0.26001135,0.38002536,0.12771173,-0.25509486,-0.06727021,-0.11240928,790.54944,808.68134,798.60803,788.5348,836.8865,-0.04901123046875,0.087890625,0.987548828125,1.891632080078125,-4.14215087890625,0.07476806640625,1.0,1.0,1.0,1.0,1.0,80.0,event
09:27:42.722,0.440681,0.49406546,0.197083,0.49924055,0.16219877,0.38213658,0.051403526,0.32021368,0.4360759,0.17985158,0.046646163,0.040595625,0.4668527,-0.044672996,0.26001135,0.38002536,0.12771173,-0.25509486,-0.06727021,-0.11240928,786.9231,805.05493,807.0696,786.52014,895.7143,-0.04901123046875,0.087890625,0.987548828125,1.891632080078125,-4.14215087890625,0.07476806640625,1.0,1.0,1.0,1.0,1.0,80.0,event
09:27:42.722,0.440681,0.49406546,0.197083,0.49924055,0.16219877,0.38213658,0.051403526,0.32021368,0.4360759,0.17985158,0.046646163,0.040595625,0.4668527,-0.044672996,0.26001135,0.38002536,0.12771173,-0.25509486,-0.06727021,-0.11240928,789.34064,801.8315,813.91943,796.1905,805.8608,-0.04901123046875,0.087890625,0.987548828125,1.891632080078125,-4.14215087890625,0.07476806640625,1.0,1.0,1.0,1.0,1.0,80.0,event
09:27:42.723,0.440681,0.49406546,0.197083,0.49924055,0.16219877,0.38213658,0.051403526,0.32021368,0.4360759,0.17985158,0.046646163,0.040595625,0.4668527,-0.044672996,0.26001135,0.38002536,0.12771173,-0.25509486,-0.06727021,-0.11240928,791.75824,803.44324,797.8022,796.1905,789.7436,-0.04901123046875,0.087890625,0.987548828125,1.891632080078125,-4.14215087890625,0.07476806640625,1.0,1.0,1.0,1.0,1.0,80.0,event
09:27:42.723,0.440681,0.49406546,0.197083,0.49924055,0.16219877,0.38213658,0.051403526,0.32021368,0.4360759,0.17985158,0.046646163,0.040595625,0.4668527,-0.044672996,0.26001135,0.38002536,0.12771173,-0.25509486,-0.06727021,-0.11240928,788.93774,800.2198,808.68134,796.99634,707.9487,-0.04901123046875,0.087890625,0.987548828125,1.891632080078125,-4.14215087890625,0.07476806640625,1.0,1.0,1.0,1.0,1.0,80.0,event
09:27:42.724,0.440681,0.49406546,0.197083,0.49924055,0.16219877,0.38213658,0.051403526,0.32021368,0.4360759,0.17985158,0.046646163,0.040595625,0.4668527,-0.044672996,0.26001135,0.38002536,0.12771173,-0.25509486,-0.06727021,-0.11240928,814.7253,806.26373,801.4286,816.7399,840.5128,-0.04901123046875,0.087890625,0.987548828125,1.891632080078125,-4.14215087890625,0.07476806640625,1.0,1.0,1.0,1.0,1.0,80.0,event
09:27:42.724,0.440681,0.49406546,0.197083,0.49924055,0.16219877,0.38213658,0.051403526,0.32021368,0.4360759,0.17985158,0.046646163,0.040595625,0.4668527,-0.044672996,0.26001135,0.38002536,0.12771173,-0.25509486,-0.06727021,-0.11240928,808.68134,806.6667,807.8755,802.6374,689.41394,-0.04901123046875,0.087890625,0.987548828125,1.891632080078125,-4.14215087890625,0.07476806640625,1.0,1.0,1.0,1.0,1.0,80.0,event
09:27:42.800,0.440681,0.49406546,0.197083,0.49924055,0.16219877,0.38213658,0.051403526,0.32021368,0.4360759,0.17985158,0.046646163,0.040595625,0.4668527,-0.044672996,0.26001135,0.38002536,0.12771173,-0.25509486,-0.06727021,-0.11240928,773.6264,806.26373,804.2491,770.80585,714.3956,-0.04400634765625,0.0850830078125,0.98046875,1.143951416015625,-3.78326416015625,-0.7177734375,1.0,1.0,1.0,1.0,1.0,80.0,event
09:27:42.801,0.440681,0.49406546,0.197083,0.49924055,0.16219877,0.38213658,0.051403526,0.32021368,0.4360759,0.17985158,0.046646163,0.040595625,0.4668527,-0.044672996,0.26001135,0.38002536,0.12771173,-0.25509486,-0.06727021,-0.11240928,763.5531,806.26373,809.89014,771.6117,821.978,-0.04400634765625,0.0850830078125,0.98046875,1.143951416015625,-3.78326416015625,-0.7177734375,1.0,1.0,1.0,1.0,1.0,80.0,event
09:27:42.802,0.440681,0.49406546,0.197083,0.49924055,0.16219877,0.38213658,0.051403526,0.32021368,0.4360759,0.17985158,0.046646163,0.040595625,0.4668527,-0.044672996,0.26001135,0.38002536,0.12771173,-0.25509486,-0.06727021,-0.11240928,765.9707,809.0842,804.65204,772.4176,793.7729,-0.04400634765625,0.0850830078125,0.98046875,1.143951416015625,-3.78326416015625,-0.7177734375,1.0,1.0,1.0,1.0,1.0,80.0,event
09:27:42.802,0.39759257,0.50437653,0.19564626,0.44257334,0.10024107,0.40280908,0.0593351,0.32370457,0.38319921,0.19622661,0.009589512,-0.030313052,0.48159844,-0.037499648,0.2430943,0.39623427,0.094872646,-0.258331,-0.067371435,-0.16065215,764.35895,807.47253,802.23444,755.89746,726.4835,-0.04400634765625,0.0850830078125,0.98046875,1.143951416015625,-3.78326416015625,-0.7177734375,1.0,1.0,1.0,1.0,1.0,80.0,event
09:27:42.806,0.39759257,0.50437653,0.19564626,0.44257334,0.10024107,0.40280908,0.0593351,0.32370457,0.38319921,0.19622661,0.009589512,-0.030313052,0.48159844,-0.037499648,0.2430943,0.39623427,0.094872646,-0.258331,-0.067371435,-0.16065215,753.0769,801.02563,804.65204,748.24176,749.45056,-0.04400634765625,0.0850830078125,0.98046875,1.143951416015625,-3.78326416015625,-0.7177734375,1.0,1.0,1.0,1.0,1.0,80.0,event
09:27:42.807,0.39759257,0.50437653,0.19564626,0.44257334,0.10024107,0.40280908,0.0593351,0.32370457,0.38319921,0.19622661,0.009589512,-0.030313052,0.48159844,-0.037499648,0.2430943,0.39623427,0.094872646,-0.258331,-0.067371435,-0.16065215,748.24176,804.65204,800.6227,754.2857,880.80585,-0.04400634765625,0.0850830078125,0.98046875,1.143951416015625,-3.78326416015625,-0.7177734375,1.0,1.0,1.0,1.0,1.0,80.0,event
09:27:42.807,0.39759257,0.50437653,0.19564626,0.44257334,0.10024107,0.40280908,0.0593351,0.32370457,0.38319921,0.19622661,0.009589512,-0.030313052,0.48159844,-0.037499648,0.2430943,0.39623427,0.094872646,-0.258331,-0.067371435,-0.16065215,752.27106,797.8022,800.6227,754.2857,870.32965,-0.04400634765625,0.0850830078125,0.98046875,1.143951416015625,-3.78326416015625,-0.7177734375,1.0,1.0,1.0,1.0,1.0,80.0,event
09:27:42.808,0.39759257,0.50437653,0.19564626,0.44257334,0.10024107,0.40280908,0.0593351,0.32370457,0.38319921,0.19622661,0.009589512,-0.030313052,0.48159844,-0.037499648,0.2430943,0.39623427,0.094872646,-0.258331,-0.067371435,-0.16065215,729.707,801.4286,804.2491,738.1685,762.3443,-0.04400634765625,0.0850830078125,0.98046875,1.143951416015625,-3.78326416015625,-0.7177734375,1.0,1.0,1.0,1.0,1.0,80.0,event
09:27:42.808,0.39759257,0.50437653,0.19564626,0.44257334,0.10024107,0.40280908,0.0593351,0.32370457,0.38319921,0.19622661,0.009589512,-0.030313052,0.48159844,-0.037499648,0.2430943,0.39623427,0.094872646,-0.258331,-0.067371435,-0.16065215,730.5128,796.5934,812.3077,730.9158,745.42126,-0.04400634765625,0.0850830078125,0.98046875,1.143951416015625,-3.78326416015625,-0.7177734375,1.0,1.0,1.0,1.0,1.0,80.0,event
09:27:42.809,0.39759257,0.50437653,0.19564626,0.44257334,0.10024107,0.40280908,0.0593351,0.32370457,0.38319921,0.19622661,0.009589512,-0.030313052,0.48159844,-0.037499648,0.2430943,0.39623427,0.094872646,-0.258331,-0.067371435,-0.16065215,735.34796,803.0403,811.0989,736.9597,971.4652,-0.04400634765625,0.0850830078125,0.98046875,1.143951416015625,-3.78326416015625,-0.7177734375,1.0,1.0,1.0,1.0,1.0,80.0,event
09:27:42.809,0.39759257,0.50437653,0.19564626,0.44257334,0.10024107,0.40280908,0.0593351,0.32370457,0.38319921,0.19622661,0.009589512,-0.030313052,0.48159844,-0.037499648,0.2430943,0.39623427,0.094872646,-0.258331,-0.067371435,-0.16065215,733.3333,803.8461,805.4579,736.55676,819.15753,-0.04400634765625,0.0850830078125,0.98046875,1.143951416015625,-3.78326416015625,-0.7177734375,1.0,1.0,1.0,1.0,1.0,80.0,event
