TimeStamp,Delta_TP9,Delta_AF7,Delta_AF8,Delta_TP10,Theta_TP9,Theta_AF7,Theta_AF8,Theta_TP10,Alpha_TP9,Alpha_AF7,Alpha_AF8,Alpha_TP10,Beta_TP9,Beta_AF7,Beta_AF8,Beta_TP10,Gamma_TP9,Gamma_AF7,Gamma_AF8,Gamma_TP10,RAW_TP9,RAW_AF7,RAW_AF8,RAW_TP10,AUX_RIGHT,Accelerometer_X,Accelerometer_Y,Accelerometer_Z,Gyro_X,Gyro_Y,Gyro_Z,HeadBandOn,HSI_TP9,HSI_AF7,HSI_AF8,HSI_TP10,Battery,Elements
11:49:17.447,0.39701518,0.76875716,0.0,0.41387573,0.32122603,0.7839236,0.0,0.45219535,0.39336756,0.5558771,0.0,0.48022887,0.6126604,0.56998676,0.0,0.49511513,0.14227644,-0.010259383,0.0,0.068758436,899.7436,780.07324,755.4945,817.9487,692.23444,0.04168701171875,-0.02813720703125,0.98876953125,2.534637451171875,-3.282318115234375,0.142059326171875,1.0,1.0,1.0,4.0,1.0,85.0,event
11:49:17.449,0.39701518,0.76875716,0.0,0.41387573,0.32122603,0.7839236,0.0,0.45219535,0.39336756,0.5558771,0.0,0.48022887,0.6126604,0.56998676,0.0,0.49511513,0.14227644,-0.010259383,0.0,0.068758436,921.9048,786.1172,875.9707,812.3077,691.8315,0.04168701171875,-0.02813720703125,0.98876953125,2.534637451171875,-3.282318115234375,0.142059326171875,1.0,1.0,1.0,4.0,1.0,85.0,event
11:49:17.450,0.39701518,0.76875716,0.0,0.41387573,0.32122603,0.7839236,0.0,0.45219535,0.39336756,0.5558771,0.0,0.48022887,0.6126604,0.56998676,0.0,0.49511513,0.14227644,-0.010259383,0.0,0.068758436,797.8022,780.4762,955.7509,796.5934,649.5238,0.04168701171875,-0.02813720703125,0.98876953125,2.534637451171875,-3.282318115234375,0.142059326171875,1.0,1.0,1.0,4.0,1.0,85.0,event
11:49:17.451,0.39701518,0.76875716,0.0,0.41387573,0.32122603,0.7839236,0.0,0.45219535,0.39336756,0.5558771,0.0,0.48022887,0.6126604,0.56998676,0.0,0.49511513,0.14227644,-0.010259383,0.0,0.068758436,700.293,773.22345,838.0952,790.9524,656.3736,0.04168701171875,-0.02813720703125,0.98876953125,2.534637451171875,-3.282318115234375,0.142059326171875,1.0,1.0,1.0,4.0,1.0,85.0,event
11:49:17.452,0.39701518,0.76875716,0.0,0.41387573,0.32122603,0.7839236,0.0,0.45219535,0.39336756,0.5558771,0.0,0.48022887,0.6126604,0.56998676,0.0,0.49511513,0.14227644,-0.010259383,0.0,0.068758436,742.1978,773.22345,786.9231,807.47253,771.2088,0.04168701171875,-0.02813720703125,0.98876953125,2.534637451171875,-3.282318115234375,0.142059326171875,1.0,1.0,1.0,4.0,1.0,85.0,event
11:49:17.453,0.39701518,0.76875716,0.0,0.41387573,0.32122603,0.7839236,0.0,0.45219535,0.39336756,0.5558771,0.0,0.48022887,0.6126604,0.56998676,0.0,0.49511513,0.14227644,-0.010259383,0.0,0.068758436,878.7912,768.7912,795.78754,815.5311,857.03296,0.04168701171875,-0.02813720703125,0.98876953125,2.534637451171875,-3.282318115234375,0.142059326171875,1.0,1.0,1.0,4.0,1.0,85.0,event
11:49:17.454,0.39701518,0.76875716,0.0,0.41387573,0.32122603,0.7839236,0.0,0.45219535,0.39336756,0.5558771,0.0,0.48022887,0.6126604,0.56998676,0.0,0.49511513,0.14227644,-0.010259383,0.0,0.068758436,936.4103,764.35895,719.2308,814.7253,806.26373,0.04168701171875,-0.02813720703125,0.98876953125,2.534637451171875,-3.282318115234375,0.142059326171875,1.0,1.0,1.0,4.0,1.0,85.0,event
11:49:17.454,0.39701518,0.76875716,0.0,0.41387573,0.32122603,0.7839236,0.0,0.45219535,0.39336756,0.5558771,0.0,0.48022887,0.6126604,0.56998676,0.0,0.49511513,0.14227644,-0.010259383,0.0,0.068758436,826.4103,765.9707,668.86444,811.0989,718.4249,0.04168701171875,-0.02813720703125,0.98876953125,2.534637451171875,-3.282318115234375,0.142059326171875,1.0,1.0,1.0,4.0,1.0,85.0,event
11:49:17.455,0.39701518,0.76875716,0.0,0.41387573,0.32122603,0.7839236,0.0,0.45219535,0.39336756,0.5558771,0.0,0.48022887,0.6126604,0.56998676,0.0,0.49511513,0.14227644,-0.010259383,0.0,0.068758436,706.7399,756.7033,294.94507,811.0989,897.326,0.04168701171875,-0.02813720703125,0.98876953125,2.534637451171875,-3.282318115234375,0.142059326171875,1.0,1.0,1.0,4.0,1.0,85.0,event
11:49:17.456,0.39701518,0.76875716,0.0,0.41387573,0.32122603,0.7839236,0.0,0.45219535,0.39336756,0.5558771,0.0,0.48022887,0.6126604,0.56998676,0.0,0.49511513,0.14227644,-0.010259383,0.0,0.068758436,731.31866,790.9524,414.6154,807.8755,876.3736,0.04168701171875,-0.02813720703125,0.98876953125,2.534637451171875,-3.282318115234375,0.142059326171875,1.0,1.0,1.0,4.0,1.0,85.0,event
11:49:17.457,0.39701518,0.76875716,0.0,0.41387573,0.32122603,0.7839236,0.0,0.45219535,0.39336756,0.5558771,0.0,0.48022887,0.6126604,0.56998676,0.0,0.49511513,0.14227644,-0.010259383,0.0,0.068758436,863.8828,805.8608,897.72894,809.4872,700.696,0.04168701171875,-0.02813720703125,0.98876953125,2.534637451171875,-3.282318115234375,0.142059326171875,1.0,1.0,1.0,4.0,1.0,85.0,event
11:49:17.457,0.39701518,0.76875716,0.0,0.41387573,0.32122603,0.7839236,0.0,0.45219535,0.39336756,0.5558771,0.0,0.48022887,0.6126604,0.56998676,0.0,0.49511513,0.14227644,-0.010259383,0.0,0.068758436,946.4835,776.8498,884.0293,819.9634,716.0073,0.04168701171875,-0.02813720703125,0.98876953125,2.534637451171875,-3.282318115234375,0.142059326171875,1.0,1.0,1.0,4.0,1.0,85.0,event
11:49:17.459,0.39701518,0.76875716,0.0,0.41387573,0.32122603,0.7839236,0.0,0.45219535,0.39336756,0.5558771,0.0,0.48022887,0.6126604,0.56998676,0.0,0.49511513,0.14227644,-0.010259383,0.0,0.068758436,843.73627,775.64105,625.34796,807.0696,788.5348,0.02667236328125,-0.0313720703125,0.982666015625,1.742095947265625,-2.818756103515625,0.91217041015625,1.0,1.0,1.0,4.0,1.0,85.0,event
11:49:17.459,0.39701518,0.76875716,0.0,0.41387573,0.32122603,0.7839236,0.0,0.45219535,0.39336756,0.5558771,0.0,0.48022887,0.6126604,0.56998676,0.0,0.49511513,0.14227644,-0.010259383,0.0,0.068758436,719.6337,790.54944,805.05493,790.9524,701.50183,0.02667236328125,-0.0313720703125,0.982666015625,1.742095947265625,-2.818756103515625,0.91217041015625,1.0,1.0,1.0,4.0,1.0,85.0,event
11:49:17.460,0.39701518,0.76875716,0.0,0.41387573,0.32122603,0.7839236,0.0,0.45219535,0.39336756,0.5558771,0.0,0.48022887,0.6126604,0.56998676,0.0,0.49511513,0.14227644,-0.010259383,0.0,0.068758436,729.304,780.07324,956.1539,800.2198,666.04395,0.02667236328125,-0.0313720703125,0.982666015625,1.742095947265625,-2.818756103515625,0.91217041015625,1.0,1.0,1.0,4.0,1.0,85.0,event
11:49:17.461,0.39701518,0.76875716,0.0,0.41387573,0.32122603,0.7839236,0.0,0.45219535,0.39336756,0.5558771,0.0,0.48022887,0.6126604,0.56998676,0.0,0.49511513,0.14227644,-0.010259383,0.0,0.068758436,844.5421,767.5824,946.8865,826.4103,773.6264,0.02667236328125,-0.0313720703125,0.982666015625,1.742095947265625,-2.818756103515625,0.91217041015625,1.0,1.0,1.0,4.0,1.0,85.0,event
11:49:17.462,0.39701518,0.76875716,0.0,0.41387573,0.32122603,0.7839236,0.0,0.45219535,0.39336756,0.5558771,0.0,0.48022887,0.6126604,0.56998676,0.0,0.49511513,0.14227644,-0.010259383,0.0,0.068758436,942.8571,772.8205,949.707,832.8571,796.99634,0.02667236328125,-0.0313720703125,0.982666015625,1.742095947265625,-2.818756103515625,0.91217041015625,1.0,1.0,1.0,4.0,1.0,85.0,event
11:49:17.463,0.39701518,0.76875716,0.0,0.41387573,0.32122603,0.7839236,0.0,0.45219535,0.39336756,0.5558771,0.0,0.48022887,0.6126604,0.56998676,0.0,0.49511513,0.14227644,-0.010259383,0.0,0.068758436,854.61536,772.01465,732.9304,814.7253,821.1722,0.02667236328125,-0.0313720703125,0.982666015625,1.742095947265625,-2.818756103515625,0.91217041015625,1.0,1.0,1.0,4.0,1.0,85.0,event
11:49:17.463,0.39701518,0.76875716,0.0,0.41387573,0.32122603,0.7839236,0.0,0.45219535,0.39336756,0.5558771,0.0,0.48022887,0.6126604,0.56998676,0.0,0.49511513,0.14227644,-0.010259383,0.0,0.068758436,715.6044,768.7912,608.8278,801.02563,768.3883,0.02667236328125,-0.0313720703125,0.982666015625,1.742095947265625,-2.818756103515625,0.91217041015625,1.0,1.0,1.0,4.0,1.0,85.0,event
11:49:17.464,0.39701518,0.76875716,0.0,0.41387573,0.32122603,0.7839236,0.0,0.45219535,0.39336756,0.5558771,0.0,0.48022887,0.6126604,0.56998676,0.0,0.49511513,0.14227644,-0.010259383,0.0,0.068758436,710.7692,761.53845,513.73627,806.26373,825.6044,0.02667236328125,-0.0313720703125,0.982666015625,1.742095947265625,-2.818756103515625,0.91217041015625,1.0,1.0,1.0,4.0,1.0,85.0,event
11:49:17.465,0.39701518,0.76875716,0.0,0.41387573,0.32122603,0.7839236,0.0,0.45219535,0.39336756,0.5558771,0.0,0.48022887,0.6126604,0.56998676,0.0,0.49511513,0.14227644,-0.010259383,0.0,0.068758436,818.7546,772.01465,350.1465,825.2015,961.79486,0.02667236328125,-0.0313720703125,0.982666015625,1.742095947265625,-2.818756103515625,0.91217041015625,1.0,1.0,1.0,4.0,1.0,85.0,event
11:49:17.465,0.39701518,0.76875716,0.0,0.41387573,0.32122603,0.7839236,0.0,0.45219535,0.39336756,0.5558771,0.0,0.48022887,0.6126604,0.56998676,0.0,0.49511513,0.14227644,-0.010259383,0.0,0.068758436,936.0073,799.81683,855.82416,827.619,744.61536,0.02667236328125,-0.0313720703125,0.982666015625,1.742095947265625,-2.818756103515625,0.91217041015625,1.0,1.0,1.0,4.0,1.0,85.0,event
11:49:17.468,,,,,,,,,,,,,,,,,,,,,,,,,,,,,,,,,,,,,,jaw_clench
11:49:17.470,0.39701518,0.76875716,0.0,0.41387573,0.32122603,0.7839236,0.0,0.45219535,0.39336756,0.5558771,0.0,0.48022887,0.6126604,0.56998676,0.0,0.49511513,0.14227644,-0.010259383,0.0,0.068758436,865.09155,787.326,1001.28204,801.8315,667.6557,0.02667236328125,-0.0313720703125,0.982666015625,1.742095947265625,-2.818756103515625,0.91217041015625,1.0,1.0,1.0,4.0,1.0,85.0,event
11:49:17.471,0.39701518,0.76875716,0.0,0.41387573,0.32122603,0.7839236,0.0,0.45219535,0.39336756,0.5558771,0.0,0.48022887,0.6126604,0.56998676,0.0,0.49511513,0.14227644,-0.010259383,0.0,0.068758436,711.978,776.8498,710.7692,801.02563,774.43225,0.02667236328125,-0.0313720703125,0.982666015625,1.742095947265625,-2.818756103515625,0.91217041015625,1.0,1.0,1.0,4.0,1.0,85.0,event
11:49:17.494,0.39701518,0.76875716,0.0,0.41387573,0.32122603,0.7839236,0.0,0.45219535,0.39336756,0.5558771,0.0,0.48022887,0.6126604,0.56998676,0.0,0.49511513,0.14227644,-0.010259383,0.0,0.068758436,692.6374,779.67035,745.0183,805.4579,780.4762,0.03143310546875,-0.03045654296875,0.991455078125,2.94586181640625,-3.386993408203125,0.25421142578125,1.0,1.0,1.0,4.0,1.0,85.0,event
11:49:17.495,0.39701518,0.76875716,0.0,0.41387573,0.32122603,0.7839236,0.0,0.45219535,0.39336756,0.5558771,0.0,0.48022887,0.6126604,0.56998676,0.0,0.49511513,0.14227644,-0.010259383,0.0,0.068758436,798.60803,782.0879,870.7326,811.0989,749.45056,0.03143310546875,-0.03045654296875,0.991455078125,2.94586181640625,-3.386993408203125,0.25421142578125,1.0,1.0,1.0,4.0,1.0,85.0,event
11:49:17.496,0.39701518,0.76875716,0.0,0.41387573,0.32122603,0.7839236,0.0,0.45219535,0.39336756,0.5558771,0.0,0.48022887,0.6126604,0.56998676,0.0,0.49511513,0.14227644,-0.010259383,0.0,0.068758436,917.47253,776.4469,994.0293,819.15753,779.2674,0.03143310546875,-0.03045654296875,0.991455078125,2.94586181640625,-3.386993408203125,0.25421142578125,1.0,1.0,1.0,4.0,1.0,85.0,event
11:49:17.497,0.39701518,0.76875716,0.0,0.41387573,0.32122603,0.7839236,0.0,0.45219535,0.39336756,0.5558771,0.0,0.48022887,0.6126604,0.56998676,0.0,0.49511513,0.14227644,-0.010259383,0.0,0.068758436,727.6923,776.8498,643.0769,788.93774,788.1319,0.03143310546875,-0.03045654296875,0.991455078125,2.94586181640625,-3.386993408203125,0.25421142578125,1.0,1.0,1.0,4.0,1.0,85.0,event
11:49:17.497,0.39701518,0.76875716,0.0,0.41387573,0.32122603,0.7839236,0.0,0.45219535,0.39336756,0.5558771,0.0,0.48022887,0.6126604,0.56998676,0.0,0.49511513,0.14227644,-0.010259383,0.0,0.068758436,873.5531,757.9121,635.42126,803.44324,873.5531,0.03143310546875,-0.03045654296875,0.991455078125,2.94586181640625,-3.386993408203125,0.25421142578125,1.0,1.0,1.0,4.0,1.0,85.0,event
11:49:17.498,0.39701518,0.76875716,0.0,0.41387573,0.32122603,0.7839236,0.0,0.45219535,0.39336756,0.5558771,0.0,0.48022887,0.6126604,0.56998676,0.0,0.49511513,0.14227644,-0.010259383,0.0,0.068758436,695.4579,780.07324,805.05493,796.99634,798.20514,0.03143310546875,-0.03045654296875,0.991455078125,2.94586181640625,-3.386993408203125,0.25421142578125,1.0,1.0,1.0,4.0,1.0,85.0,event
11:49:17.505,0.39701518,0.76875716,0.0,0.41387573,0.32122603,0.7839236,0.0,0.45219535,0.39336756,0.5558771,0.0,0.48022887,0.6126604,0.56998676,0.0,0.49511513,0.14227644,-0.010259383,0.0,0.068758436,793.36993,767.1795,722.0513,816.7399,891.28204,0.03143310546875,-0.03045654296875,0.991455078125,2.94586181640625,-3.386993408203125,0.25421142578125,1.0,1.0,1.0,4.0,1.0,85.0,event
11:49:17.507,0.39701518,0.76875716,0.0,0.41387573,0.32122603,0.7839236,0.0,0.45219535,0.39336756,0.5558771,0.0,0.48022887,0.6126604,0.56998676,0.0,0.49511513,0.14227644,-0.010259383,0.0,0.068758436,905.38464,751.06226,454.10257,826.0073,1041.1721,0.03143310546875,-0.03045654296875,0.991455078125,2.94586181640625,-3.386993408203125,0.25421142578125,1.0,1.0,1.0,4.0,1.0,85.0,event
11:49:17.507,0.39701518,0.76875716,0.0,0.41387573,0.32122603,0.7839236,0.0,0.45219535,0.39336756,0.5558771,0.0,0.48022887,0.6126604,0.56998676,0.0,0.49511513,0.14227644,-0.010259383,0.0,0.068758436,886.04395,783.2967,598.3516,805.8608,934.7985,0.03143310546875,-0.03045654296875,0.991455078125,2.94586181640625,-3.386993408203125,0.25421142578125,1.0,1.0,1.0,4.0,1.0,85.0,event
11:49:17.508,0.39701518,0.76875716,0.0,0.41387573,0.32122603,0.7839236,0.0,0.45219535,0.39336756,0.5558771,0.0,0.48022887,0.6126604,0.56998676,0.0,0.49511513,0.14227644,-0.010259383,0.0,0.068758436,751.8681,795.78754,977.50916,783.69965,742.6007,0.03143310546875,-0.03045654296875,0.991455078125,2.94586181640625,-3.386993408203125,0.25421142578125,1.0,1.0,1.0,4.0,1.0,85.0,event
11:49:17.509,0.39701518,0.76875716,0.0,0.41387573,0.32122603,0.7839236,0.0,0.45219535,0.39336756,0.5558771,0.0,0.48022887,0.6126604,0.56998676,0.0,0.49511513,0.14227644,-0.010259383,0.0,0.068758436,680.14655,770.40295,897.72894,790.14655,799.011,0.03143310546875,-0.03045654296875,0.991455078125,2.94586181640625,-3.386993408203125,0.25421142578125,1.0,1.0,1.0,4.0,1.0,85.0,event
11:49:17.510,0.39701518,0.76875716,0.0,0.41387573,0.32122603,0.7839236,0.0,0.45219535,0.39336756,0.5558771,0.0,0.48022887,0.6126604,0.56998676,0.0,0.49511513,0.14227644,-0.010259383,0.0,0.068758436,759.92676,770.40295,905.38464,803.0403,809.4872,0.03143310546875,-0.03045654296875,0.991455078125,2.94586181640625,-3.386993408203125,0.25421142578125,1.0,1.0,1.0,4.0,1.0,85.0,event
11:49:17.534,0.39701518,0.76875716,0.0,0.41387573,0.32122603,0.7839236,0.0,0.45219535,0.39336756,0.5558771,0.0,0.48022887,0.6126604,0.56998676,0.0,0.49511513,0.14227644,-0.010259383,0.0,0.068758436,900.9524,774.43225,1107.6556,814.3223,790.14655,0.03143310546875,-0.03045654296875,0.991455078125,2.94586181640625,-3.386993408203125,0.25421142578125,1.0,1.0,1.0,4.0,1.0,85.0,event
11:49:17.535,0.39701518,0.76875716,0.0,0.41387573,0.32122603,0.7839236,0.0,0.45219535,0.39336756,0.5558771,0.0,0.48022887,0.6126604,0.56998676,0.0,0.49511513,0.14227644,-0.010259383,0.0,0.068758436,906.99634,766.3736,1089.9268,807.0696,736.55676,0.03143310546875,-0.03045654296875,0.991455078125,2.94586181640625,-3.386993408203125,0.25421142578125,1.0,1.0,1.0,4.0,1.0,85.0,event
11:49:17.536,0.39701518,0.76875716,0.0,0.41387573,0.32122603,0.7839236,0.0,0.45219535,0.39336756,0.5558771,0.0,0.48022887,0.6126604,0.56998676,0.0,0.49511513,0.14227644,-0.010259383,0.0,0.068758436,769.59705,755.89746,775.64105,788.93774,721.2454,0.03143310546875,-0.03045654296875,0.991455078125,2.94586181640625,-3.386993408203125,0.25421142578125,1.0,1.0,1.0,4.0,1.0,85.0,event
11:49:17.537,0.39701518,0.76875716,0.0,0.41387573,0.32122603,0.7839236,0.0,0.45219535,0.39336756,0.5558771,0.0,0.48022887,0.6126604,0.56998676,0.0,0.49511513,0.14227644,-0.010259383,0.0,0.068758436,684.57874,764.7619,574.17584,791.3553,716.4103,0.03143310546875,-0.03045654296875,0.991455078125,2.94586181640625,-3.386993408203125,0.25421142578125,1.0,1.0,1.0,4.0,1.0,85.0,event
11:49:17.537,0.39701518,0.76875716,0.0,0.41387573,0.32122603,0.7839236,0.0,0.45219535,0.39336756,0.5558771,0.0,0.48022887,0.6126604,0.56998676,0.0,0.49511513,0.14227644,-0.010259383,0.0,0.068758436,757.50916,770.80585,675.7143,800.6227,721.2454,0.03143310546875,-0.03045654296875,0.991455078125,2.94586181640625,-3.386993408203125,0.25421142578125,1.0,1.0,1.0,4.0,1.0,85.0,event
11:49:17.538,0.39701518,0.76875716,0.0,0.41387573,0.32122603,0.7839236,0.0,0.45219535,0.39336756,0.5558771,0.0,0.48022887,0.6126604,0.56998676,0.0,0.49511513,0.14227644,-0.010259383,0.0,0.068758436,902.5641,771.2088,792.96704,817.1429,749.85345,0.03143310546875,-0.03045654296875,0.991455078125,2.94586181640625,-3.386993408203125,0.25421142578125,1.0,1.0,1.0,4.0,1.0,85.0,event
11:49:17.539,0.39701518,0.76875716,0.0,0.41387573,0.32122603,0.7839236,0.0,0.45219535,0.39336756,0.5558771,0.0,0.48022887,0.6126604,0.56998676,0.0,0.49511513,0.14227644,-0.010259383,0.0,0.068758436,916.26373,756.30035,635.82416,821.1722,882.4176,0.03143310546875,-0.03045654296875,0.991455078125,2.94586181640625,-3.386993408203125,0.25421142578125,1.0,1.0,1.0,4.0,1.0,85.0,event
11:49:17.540,0.39701518,0.76875716,0.0,0.41387573,0.32122603,0.7839236,0.0,0.45219535,0.39336756,0.5558771,0.0,0.48022887,0.6126604,0.56998676,0.0,0.49511513,0.14227644,-0.010259383,0.0,0.068758436,772.4176,743.4066,143.84616,795.78754,1147.1428,0.03143310546875,-0.03045654296875,0.991455078125,2.94586181640625,-3.386993408203125,0.25421142578125,1.0,1.0,1.0,4.0,1.0,85.0,event
11:49:17.541,0.39701518,0.76875716,0.0,0.41387573,0.32122603,0.7839236,0.0,0.45219535,0.39336756,0.5558771,0.0,0.48022887,0.6126604,0.56998676,0.0,0.49511513,0.14227644,-0.010259383,0.0,0.068758436,689.41394,784.90845,496.8132,789.34064,880.40295,0.03143310546875,-0.03045654296875,0.991455078125,2.94586181640625,-3.386993408203125,0.25421142578125,1.0,1.0,1.0,4.0,1.0,85.0,event
11:49:17.542,0.39701518,0.76875716,0.0,0.41387573,0.32122603,0.7839236,0.0,0.45219535,0.39336756,0.5558771,0.0,0.48022887,0.6126604,0.56998676,0.0,0.49511513,0.14227644,-0.010259383,0.0,0.068758436,751.4652,785.7143,993.22345,807.47253,636.2271,0.03143310546875,-0.03045654296875,0.991455078125,2.94586181640625,-3.386993408203125,0.25421142578125,1.0,1.0,1.0,4.0,1.0,85.0,event
11:49:17.543,0.39701518,0.76875716,0.0,0.41387573,0.32122603,0.7839236,0.0,0.45219535,0.39336756,0.5558771,0.0,0.48022887,0.6126604,0.56998676,0.0,0.49511513,0.14227644,-0.010259383,0.0,0.068758436,884.83514,762.3443,889.2674,821.5751,767.98535,0.03143310546875,-0.03045654296875,0.991455078125,2.94586181640625,-3.386993408203125,0.25421142578125,1.0,1.0,1.0,4.0,1.0,85.0,event
11:49:17.544,0.39701518,0.76875716,0.0,0.41387573,0.32122603,0.7839236,0.0,0.45219535,0.39336756,0.5558771,0.0,0.48022887,0.6126604,0.56998676,0.0,0.49511513,0.14227644,-0.010259383,0.0,0.068758436,934.7985,774.0293,982.74725,824.3956,786.1172,0.03143310546875,-0.03045654296875,0.991455078125,2.94586181640625,-3.386993408203125,0.25421142578125,1.0,1.0,1.0,4.0,1.0,85.0,event
11:49:17.614,0.39701518,0.76875716,0.0,0.41387573,0.32122603,0.7839236,0.0,0.45219535,0.39336756,0.5558771,0.0,0.48022887,0.6126604,0.56998676,0.0,0.49511513,0.14227644,-0.010259383,0.0,0.068758436,823.1868,783.2967,1038.7546,813.5165,718.8278,0.03302001953125,-0.02978515625,0.98828125,1.8841552734375,-3.36456298828125,0.55328369140625,1.0,1.0,1.0,4.0,1.0,85.0,event
11:49:17.615,0.39701518,0.76875716,0.0,0.41387573,0.32122603,0.7839236,0.0,0.45219535,0.39336756,0.5558771,0.0,0.48022887,0.6126604,0.56998676,0.0,0.49511513,0.14227644,-0.010259383,0.0,0.068758436,709.9634,776.8498,897.72894,799.41394,725.6777,0.03302001953125,-0.02978515625,0.98828125,1.8841552734375,-3.36456298828125,0.55328369140625,1.0,1.0,1.0,4.0,1.0,85.0,event
11:49:17.616,0.39701518,0.76875716,0.0,0.41387573,0.32122603,0.7839236,0.0,0.45219535,0.39336756,0.5558771,0.0,0.48022887,0.6126604,0.56998676,0.0,0.49511513,0.14227644,-0.010259383,0.0,0.068758436,876.77655,777.25275,870.32965,823.9927,782.0879,0.03302001953125,-0.02978515625,0.98828125,1.8841552734375,-3.36456298828125,0.55328369140625,1.0,1.0,1.0,4.0,1.0,85.0,event
11:49:17.616,0.39701518,0.76875716,0.0,0.41387573,0.32122603,0.7839236,0.0,0.45219535,0.39336756,0.5558771,0.0,0.48022887,0.6126604,0.56998676,0.0,0.49511513,0.14227644,-0.010259383,0.0,0.068758436,740.58606,768.3883,737.3626,809.0842,773.22345,0.03302001953125,-0.02978515625,0.98828125,1.8841552734375,-3.36456298828125,0.55328369140625,1.0,1.0,1.0,4.0,1.0,85.0,event
11:49:17.617,0.39701518,0.76875716,0.0,0.41387573,0.32122603,0.7839236,0.0,0.45219535,0.39336756,0.5558771,0.0,0.48022887,0.6126604,0.56998676,0.0,0.49511513,0.14227644,-0.010259383,0.0,0.068758436,937.2161,779.67035,1046.4103,823.9927,723.2601,0.03302001953125,-0.02978515625,0.98828125,1.8841552734375,-3.36456298828125,0.55328369140625,1.0,1.0,1.0,4.0,1.0,85.0,event
11:49:17.618,0.39701518,0.76875716,0.0,0.41387573,0.32122603,0.7839236,0.0,0.45219535,0.39336756,0.5558771,0.0,0.48022887,0.6126604,0.56998676,0.0,0.49511513,0.14227644,-0.010259383,0.0,0.068758436,823.5897,762.3443,782.49084,806.6667,796.5934,0.03302001953125,-0.02978515625,0.98828125,1.8841552734375,-3.36456298828125,0.55328369140625,1.0,1.0,1.0,4.0,1.0,85.0,event
11:49:17.619,0.39701518,0.76875716,0.0,0.41387573,0.32122603,0.7839236,0.0,0.45219535,0.39336756,0.5558771,0.0,0.48022887,0.6126604,0.56998676,0.0,0.49511513,0.14227644,-0.010259383,0.0,0.068758436,692.6374,742.1978,185.34799,794.9817,1062.1245,0.03302001953125,-0.02978515625,0.98828125,1.8841552734375,-3.36456298828125,0.55328369140625,1.0,1.0,1.0,4.0,1.0,85.0,event
11:49:17.620,0.39701518,0.76875716,0.0,0.41387573,0.32122603,0.7839236,0.0,0.45219535,0.39336756,0.5558771,0.0,0.48022887,0.6126604,0.56998676,0.0,0.49511513,0.14227644,-0.010259383,0.0,0.068758436,706.337,774.43225,202.27106,805.05493,981.9414,0.03302001953125,-0.02978515625,0.98828125,1.8841552734375,-3.36456298828125,0.55328369140625,1.0,1.0,1.0,4.0,1.0,85.0,event
11:49:17.620,0.39701518,0.76875716,0.0,0.41387573,0.32122603,0.7839236,0.0,0.45219535,0.39336756,0.5558771,0.0,0.48022887,0.6126604,0.56998676,0.0,0.49511513,0.14227644,-0.010259383,0.0,0.068758436,849.7802,804.2491,929.15753,826.0073,706.7399,0.03302001953125,-0.02978515625,0.98828125,1.8841552734375,-3.36456298828125,0.55328369140625,1.0,1.0,1.0,4.0,1.0,85.0,event
11:49:17.621,0.39701518,0.76875716,0.0,0.41387573,0.32122603,0.7839236,0.0,0.45219535,0.39336756,0.5558771,0.0,0.48022887,0.6126604,0.56998676,0.0,0.49511513,0.14227644,-0.010259383,0.0,0.068758436,940.84247,788.93774,1032.7106,834.4689,729.707,0.03302001953125,-0.02978515625,0.98828125,1.8841552734375,-3.36456298828125,0.55328369140625,1.0,1.0,1.0,4.0,1.0,85.0,event
11:49:17.622,0.39701518,0.76875716,0.0,0.41387573,0.32122603,0.7839236,0.0,0.45219535,0.39336756,0.5558771,0.0,0.48022887,0.6126604,0.56998676,0.0,0.49511513,0.14227644,-0.010259383,0.0,0.068758436,839.707,781.685,712.381,813.91943,809.0842,0.03302001953125,-0.02978515625,0.98828125,1.8841552734375,-3.36456298828125,0.55328369140625,1.0,1.0,1.0,4.0,1.0,85.0,event
11:49:17.623,0.39701518,0.76875716,0.0,0.41387573,0.32122603,0.7839236,0.0,0.45219535,0.39336756,0.5558771,0.0,0.48022887,0.6126604,0.56998676,0.0,0.49511513,0.14227644,-0.010259383,0.0,0.068758436,713.9927,784.5055,795.78754,792.96704,726.4835,0.03302001953125,-0.02978515625,0.98828125,1.8841552734375,-3.36456298828125,0.55328369140625,1.0,1.0,1.0,4.0,1.0,85.0,event
11:49:17.647,0.39701518,0.76875716,0.0,0.41387573,0.32122603,0.7839236,0.0,0.45219535,0.39336756,0.5558771,0.0,0.48022887,0.6126604,0.56998676,0.0,0.49511513,0.14227644,-0.010259383,0.0,0.068758436,717.619,786.52014,1018.20514,801.02563,655.16486,0.03204345703125,-0.0294189453125,0.9903564453125,2.51220703125,-3.476715087890625,0.695343017578125,1.0,1.0,1.0,4.0,1.0,85.0,event
11:49:17.648,0.39701518,0.76875716,0.0,0.41387573,0.32122603,0.7839236,0.0,0.45219535,0.39336756,0.5558771,0.0,0.48022887,0.6126604,0.56998676,0.0,0.49511513,0.14227644,-0.010259383,0.0,0.068758436,823.1868,776.04395,944.87177,819.9634,745.82416,0.03204345703125,-0.0294189453125,0.9903564453125,2.51220703125,-3.476715087890625,0.695343017578125,1.0,1.0,1.0,4.0,1.0,85.0,event
11:49:17.649,0.39701518,0.76875716,0.0,0.41387573,0.32122603,0.7839236,0.0,0.45219535,0.39336756,0.5558771,0.0,0.48022887,0.6126604,0.56998676,0.0,0.49511513,0.14227644,-0.010259383,0.0,0.068758436,927.9487,773.22345,768.7912,826.0073,878.3883,0.03204345703125,-0.0294189453125,0.9903564453125,2.51220703125,-3.476715087890625,0.695343017578125,1.0,1.0,1.0,4.0,1.0,85.0,event
11:49:17.650,0.39701518,0.76875716,0.0,0.41387573,0.32122603,0.7839236,0.0,0.45219535,0.39336756,0.5558771,0.0,0.48022887,0.6126604,0.56998676,0.0,0.49511513,0.14227644,-0.010259383,0.0,0.068758436,868.315,786.52014,927.1429,809.0842,796.99634,0.03204345703125,-0.0294189453125,0.9903564453125,2.51220703125,-3.476715087890625,0.695343017578125,1.0,1.0,1.0,4.0,1.0,85.0,event
11:49:17.650,0.39701518,0.76875716,0.0,0.41387573,0.32122603,0.7839236,0.0,0.45219535,0.39336756,0.5558771,0.0,0.48022887,0.6126604,0.56998676,0.0,0.49511513,0.14227644,-0.010259383,0.0,0.068758436,719.2308,784.90845,968.24176,793.36993,746.63007,0.03204345703125,-0.0294189453125,0.9903564453125,2.51220703125,-3.476715087890625,0.695343017578125,1.0,1.0,1.0,4.0,1.0,85.0,event
11:49:17.651,0.39701518,0.76875716,0.0,0.41387573,0.32122603,0.7839236,0.0,0.45219535,0.39336756,0.5558771,0.0,0.48022887,0.6126604,0.56998676,0.0,0.49511513,0.14227644,-0.010259383,0.0,0.068758436,710.3663,772.8205,779.2674,807.0696,926.7399,0.03204345703125,-0.0294189453125,0.9903564453125,2.51220703125,-3.476715087890625,0.695343017578125,1.0,1.0,1.0,4.0,1.0,85.0,event
11:49:17.652,0.39701518,0.76875716,0.0,0.41387573,0.32122603,0.7839236,0.0,0.45219535,0.39336756,0.5558771,0.0,0.48022887,0.6126604,0.56998676,0.0,0.49511513,0.14227644,-0.010259383,0.0,0.068758436,833.663,776.8498,671.28204,827.619,1042.381,0.03204345703125,-0.0294189453125,0.9903564453125,2.51220703125,-3.476715087890625,0.695343017578125,1.0,1.0,1.0,4.0,1.0,85.0,event
11:49:17.653,0.39701518,0.76875716,0.0,0.41387573,0.32122603,0.7839236,0.0,0.45219535,0.39336756,0.5558771,0.0,0.48022887,0.6126604,0.56998676,0.0,0.49511513,0.14227644,-0.010259383,0.0,0.068758436,950.9158,796.5934,943.2601,830.4396,880.0,0.03204345703125,-0.0294189453125,0.9903564453125,2.51220703125,-3.476715087890625,0.695343017578125,1.0,1.0,1.0,4.0,1.0,85.0,event
11:49:17.653,0.39701518,0.76875716,0.0,0.41387573,0.32122603,0.7839236,0.0,0.45219535,0.39336756,0.5558771,0.0,0.48022887,0.6126604,0.56998676,0.0,0.49511513,0.14227644,-0.010259383,0.0,0.068758436,886.04395,790.9524,1058.4982,803.44324,719.6337,0.03204345703125,-0.0294189453125,0.9903564453125,2.51220703125,-3.476715087890625,0.695343017578125,1.0,1.0,1.0,4.0,1.0,85.0,event
11:49:17.654,0.39701518,0.76875716,0.0,0.41387573,0.32122603,0.7839236,0.0,0.45219535,0.39336756,0.5558771,0.0,0.48022887,0.6126604,0.56998676,0.0,0.49511513,0.14227644,-0.010259383,0.0,0.068758436,726.8865,760.7326,615.6777,788.1319,830.84247,0.03204345703125,-0.0294189453125,0.9903564453125,2.51220703125,-3.476715087890625,0.695343017578125,1.0,1.0,1.0,4.0,1.0,85.0,event
11:49:17.655,0.39701518,0.76875716,0.0,0.41387573,0.32122603,0.7839236,0.0,0.45219535,0.39336756,0.5558771,0.0,0.48022887,0.6126604,0.56998676,0.0,0.49511513,0.14227644,-0.010259383,0.0,0.068758436,695.4579,774.0293,434.35898,803.0403,933.5897,0.03204345703125,-0.0294189453125,0.9903564453125,2.51220703125,-3.476715087890625,0.695343017578125,1.0,1.0,1.0,4.0,1.0,85.0,event
11:49:17.656,0.39701518,0.76875716,0.0,0.41387573,0.32122603,0.7839236,0.0,0.45219535,0.39336756,0.5558771,0.0,0.48022887,0.6126604,0.56998676,0.0,0.49511513,0.14227644,-0.010259383,0.0,0.068758436,808.2784,801.8315,985.56775,814.7253,796.99634,0.03204345703125,-0.0294189453125,0.9903564453125,2.51220703125,-3.476715087890625,0.695343017578125,1.0,1.0,1.0,4.0,1.0,85.0,event
11:49:17.682,0.39701518,0.76875716,0.0,0.41387573,0.32122603,0.7839236,0.0,0.45219535,0.39336756,0.5558771,0.0,0.48022887,0.6126604,0.56998676,0.0,0.49511513,0.14227644,-0.010259383,0.0,0.068758436,934.3956,782.49084,1151.5751,821.1722,745.0183,0.02655029296875,-0.0318603515625,0.98773193359375,1.413116455078125,-3.013153076171875,-0.605621337890625,1.0,1.0,1.0,4.0,1.0,85.0,event
11:49:17.683,0.39701518,0.76875716,0.0,0.41387573,0.32122603,0.7839236,0.0,0.45219535,0.39336756,0.5558771,0.0,0.48022887,0.6126604,0.56998676,0.0,0.49511513,0.14227644,-0.010259383,0.0,0.068758436,894.90845,763.1502,697.47253,813.1135,868.71796,0.02655029296875,-0.0318603515625,0.98773193359375,1.413116455078125,-3.013153076171875,-0.605621337890625,1.0,1.0,1.0,4.0,1.0,85.0,event
11:49:17.687,0.39701518,0.76875716,0.0,0.41387573,0.32122603,0.7839236,0.0,0.45219535,0.39336756,0.5558771,0.0,0.48022887,0.6126604,0.56998676,0.0,0.49511513,0.14227644,-0.010259383,0.0,0.068758436,743.00366,784.5055,654.35895,788.93774,834.0659,0.02655029296875,-0.0318603515625,0.98773193359375,1.413116455078125,-3.013153076171875,-0.605621337890625,1.0,1.0,1.0,4.0,1.0,85.0,event
11:49:17.688,0.39701518,0.76875716,0.0,0.41387573,0.32122603,0.7839236,0.0,0.45219535,0.39336756,0.5558771,0.0,0.48022887,0.6126604,0.56998676,0.0,0.49511513,0.14227644,-0.010259383,0.0,0.068758436,769.19415,775.64105,991.6117,804.65204,749.45056,0.02655029296875,-0.0318603515625,0.98773193359375,1.413116455078125,-3.013153076171875,-0.605621337890625,1.0,1.0,1.0,4.0,1.0,85.0,event
11:49:17.688,0.39701518,0.76875716,0.0,0.41387573,0.32122603,0.7839236,0.0,0.45219535,0.39336756,0.5558771,0.0,0.48022887,0.6126604,0.56998676,0.0,0.49511513,0.14227644,-0.010259383,0.0,0.068758436,687.3993,794.17584,954.1392,780.87915,714.3956,0.02655029296875,-0.0318603515625,0.98773193359375,1.413116455078125,-3.013153076171875,-0.605621337890625,1.0,1.0,1.0,4.0,1.0,85.0,event
11:49:17.689,0.39701518,0.76875716,0.0,0.41387573,0.32122603,0.7839236,0.0,0.45219535,0.39336756,0.5558771,0.0,0.48022887,0.6126604,0.56998676,0.0,0.49511513,0.14227644,-0.010259383,0.0,0.068758436,891.685,764.7619,712.7839,820.3663,840.9158,0.02655029296875,-0.0318603515625,0.98773193359375,1.413116455078125,-3.013153076171875,-0.605621337890625,1.0,1.0,1.0,4.0,1.0,85.0,event
11:49:17.690,0.39701518,0.76875716,0.0,0.41387573,0.32122603,0.7839236,0.0,0.45219535,0.39336756,0.5558771,0.0,0.48022887,0.6126604,0.56998676,0.0,0.49511513,0.14227644,-0.010259383,0.0,0.068758436,881.2088,774.0293,607.619,802.6374,832.4542,0.02655029296875,-0.0318603515625,0.98773193359375,1.413116455078125,-3.013153076171875,-0.605621337890625,1.0,1.0,1.0,4.0,1.0,85.0,event
11:49:17.691,0.39701518,0.76875716,0.0,0.41387573,0.32122603,0.7839236,0.0,0.45219535,0.39336756,0.5558771,0.0,0.48022887,0.6126604,0.56998676,0.0,0.49511513,0.14227644,-0.010259383,0.0,0.068758436,742.6007,784.90845,807.8755,781.685,756.7033,0.02655029296875,-0.0318603515625,0.98773193359375,1.413116455078125,-3.013153076171875,-0.605621337890625,1.0,1.0,1.0,4.0,1.0,85.0,event
11:49:17.691,0.39701518,0.76875716,0.0,0.41387573,0.32122603,0.7839236,0.0,0.45219535,0.39336756,0.5558771,0.0,0.48022887,0.6126604,0.56998676,0.0,0.49511513,0.14227644,-0.010259383,0.0,0.068758436,662.8205,772.01465,806.6667,788.1319,736.9597,0.02655029296875,-0.0318603515625,0.98773193359375,1.413116455078125,-3.013153076171875,-0.605621337890625,1.0,1.0,1.0,4.0,1.0,85.0,event
11:49:17.692,0.39701518,0.76875716,0.0,0.41387573,0.32122603,0.7839236,0.0,0.45219535,0.39336756,0.5558771,0.0,0.48022887,0.6126604,0.56998676,0.0,0.49511513,0.14227644,-0.010259383,0.0,0.068758436,733.3333,750.65936,410.18314,807.47253,949.304,0.02655029296875,-0.0318603515625,0.98773193359375,1.413116455078125,-3.013153076171875,-0.605621337890625,1.0,1.0,1.0,4.0,1.0,85.0,event
11:49:17.693,0.39701518,0.76875716,0.0,0.41387573,0.32122603,0.7839236,0.0,0.45219535,0.39336756,0.5558771,0.0,0.48022887,0.6126604,0.56998676,0.0,0.49511513,0.14227644,-0.010259383,0.0,0.068758436,878.3883,783.2967,737.76556,811.50183,875.56775,0.02655029296875,-0.0318603515625,0.98773193359375,1.413116455078125,-3.013153076171875,-0.605621337890625,1.0,1.0,1.0,4.0,1.0,85.0,event
11:49:17.693,0.39701518,0.76875716,0.0,0.41387573,0.32122603,0.7839236,0.0,0.45219535,0.39336756,0.5558771,0.0,0.48022887,0.6126604,0.56998676,0.0,0.49511513,0.14227644,-0.010259383,0.0,0.068758436,896.1172,790.54944,1077.4359,801.4286,698.2784,0.02655029296875,-0.0318603515625,0.98773193359375,1.413116455078125,-3.013153076171875,-0.605621337890625,1.0,1.0,1.0,4.0,1.0,85.0,event
11:49:17.772,0.39701518,0.76875716,0.0,0.41387573,0.32122603,0.7839236,0.0,0.45219535,0.39336756,0.5558771,0.0,0.48022887,0.6126604,0.56998676,0.0,0.49511513,0.14227644,-0.010259383,0.0,0.068758436,765.56775,771.6117,805.4579,789.7436,764.7619,0.03955078125,-0.03216552734375,0.99090576171875,2.6617431640625,-4.32159423828125,0.889739990234375,1.0,1.0,1.0,4.0,1.0,85.0,event
11:49:17.773,0.39701518,0.76875716,0.0,0.41387573,0.32122603,0.7839236,0.0,0.45219535,0.39336756,0.5558771,0.0,0.48022887,0.6126604,0.56998676,0.0,0.49511513,0.14227644,-0.010259383,0.0,0.068758436,670.4762,777.6557,605.6044,781.685,862.674,0.03955078125,-0.03216552734375,0.99090576171875,2.6617431640625,-4.32159423828125,0.889739990234375,1.0,1.0,1.0,4.0,1.0,85.0,event
11:49:17.774,0.39701518,0.76875716,0.0,0.41387573,0.32122603,0.7839236,0.0,0.45219535,0.39336756,0.5558771,0.0,0.48022887,0.6126604,0.56998676,0.0,0.49511513,0.14227644,-0.010259383,0.0,0.068758436,729.304,792.1612,834.0659,788.5348,777.25275,0.03955078125,-0.03216552734375,0.99090576171875,2.6617431640625,-4.32159423828125,0.889739990234375,1.0,1.0,1.0,4.0,1.0,85.0,event
11:49:17.775,0.39701518,0.76875716,0.0,0.41387573,0.32122603,0.7839236,0.0,0.45219535,0.39336756,0.5558771,0.0,0.48022887,0.6126604,0.56998676,0.0,0.49511513,0.14227644,-0.010259383,0.0,0.068758436,878.7912,792.5641,1110.8792,809.0842,707.9487,0.03955078125,-0.03216552734375,0.99090576171875,2.6617431640625,-4.32159423828125,0.889739990234375,1.0,1.0,1.0,4.0,1.0,85.0,event
11:49:17.776,0.39701518,0.76875716,0.0,0.41387573,0.32122603,0.7839236,0.0,0.45219535,0.39336756,0.5558771,0.0,0.48022887,0.6126604,0.56998676,0.0,0.49511513,0.14227644,-0.010259383,0.0,0.068758436,919.4872,777.25275,893.2967,814.7253,844.94507,0.03955078125,-0.03216552734375,0.99090576171875,2.6617431640625,-4.32159423828125,0.889739990234375,1.0,1.0,1.0,4.0,1.0,85.0,event
11:49:17.777,0.39701518,0.76875716,0.0,0.41387573,0.32122603,0.7839236,0.0,0.45219535,0.39336756,0.5558771,0.0,0.48022887,0.6126604,0.56998676,0.0,0.49511513,0.14227644,-0.010259383,0.0,0.068758436,796.99634,774.83514,476.26373,794.57874,933.1868,0.03955078125,-0.03216552734375,0.99090576171875,2.6617431640625,-4.32159423828125,0.889739990234375,1.0,1.0,1.0,4.0,1.0,85.0,event
11:49:17.777,0.39701518,0.76875716,0.0,0.41387573,0.32122603,0.7839236,0.0,0.45219535,0.39336756,0.5558771,0.0,0.48022887,0.6126604,0.56998676,0.0,0.49511513,0.14227644,-0.010259383,0.0,0.068758436,687.3993,783.69965,576.99634,789.7436,883.6264,0.03955078125,-0.03216552734375,0.99090576171875,2.6617431640625,-4.32159423828125,0.889739990234375,1.0,1.0,1.0,4.0,1.0,85.0,event
11:49:17.778,0.39701518,0.76875716,0.0,0.41387573,0.32122603,0.7839236,0.0,0.45219535,0.39336756,0.5558771,0.0,0.48022887,0.6126604,0.56998676,0.0,0.49511513,0.14227644,-0.010259383,0.0,0.068758436,732.52747,786.9231,945.6777,802.23444,747.4359,0.03955078125,-0.03216552734375,0.99090576171875,2.6617431640625,-4.32159423828125,0.889739990234375,1.0,1.0,1.0,4.0,1.0,85.0,event
11:49:17.779,0.39701518,0.76875716,0.0,0.41387573,0.32122603,0.7839236,0.0,0.45219535,0.39336756,0.5558771,0.0,0.48022887,0.6126604,0.56998676,0.0,0.49511513,0.14227644,-0.010259383,0.0,0.068758436,872.3443,760.32965,742.6007,816.337,805.8608,0.03955078125,-0.03216552734375,0.99090576171875,2.6617431640625,-4.32159423828125,0.889739990234375,1.0,1.0,1.0,4.0,1.0,85.0,event
11:49:17.780,0.39701518,0.76875716,0.0,0.41387573,0.32122603,0.7839236,0.0,0.45219535,0.39336756,0.5558771,0.0,0.48022887,0.6126604,0.56998676,0.0,0.49511513,0.14227644,-0.010259383,0.0,0.068758436,916.6667,761.13556,377.14285,813.91943,996.8498,0.03955078125,-0.03216552734375,0.99090576171875,2.6617431640625,-4.32159423828125,0.889739990234375,1.0,1.0,1.0,4.0,1.0,85.0,event
11:49:17.780,0.39701518,0.76875716,0.0,0.41387573,0.32122603,0.7839236,0.0,0.45219535,0.39336756,0.5558771,0.0,0.48022887,0.6126604,0.56998676,0.0,0.49511513,0.14227644,-0.010259383,0.0,0.068758436,809.0842,789.7436,773.6264,794.17584,786.52014,0.03955078125,-0.03216552734375,0.99090576171875,2.6617431640625,-4.32159423828125,0.889739990234375,1.0,1.0,1.0,4.0,1.0,85.0,event
11:49:17.781,0.39701518,0.76875716,0.0,0.41387573,0.32122603,0.7839236,0.0,0.45219535,0.39336756,0.5558771,0.0,0.48022887,0.6126604,0.56998676,0.0,0.49511513,0.14227644,-0.010259383,0.0,0.068758436,696.6667,776.8498,886.04395,781.685,641.06226,0.03955078125,-0.03216552734375,0.99090576171875,2.6617431640625,-4.32159423828125,0.889739990234375,1.0,1.0,1.0,4.0,1.0,85.0,event
11:49:17.801,0.39701518,0.76875716,0.0,0.41387573,0.32122603,0.7839236,0.0,0.45219535,0.39336756,0.5558771,0.0,0.48022887,0.6126604,0.56998676,0.0,0.49511513,0.14227644,-0.010259383,0.0,0.068758436,715.6044,766.3736,698.2784,787.72894,684.9817,0.03955078125,-0.03216552734375,0.99090576171875,2.6617431640625,-4.32159423828125,0.889739990234375,1.0,1.0,1.0,4.0,1.0,85.0,event
11:49:17.802,0.39701518,0.76875716,0.0,0.41387573,0.32122603,0.7839236,0.0,0.45219535,0.39336756,0.5558771,0.0,0.48022887,0.6126604,0.56998676,0.0,0.49511513,0.14227644,-0.010259383,0.0,0.068758436,853.00366,781.28204,931.978,809.0842,725.2747,0.03955078125,-0.03216552734375,0.99090576171875,2.6617431640625,-4.32159423828125,0.889739990234375,1.0,1.0,1.0,4.0,1.0,85.0,event
11:49:17.803,0.39701518,0.76875716,0.0,0.41387573,0.32122603,0.7839236,0.0,0.45219535,0.39336756,0.5558771,0.0,0.48022887,0.6126604,0.56998676,0.0,0.49511513,0.14227644,-0.010259383,0.0,0.068758436,935.2015,785.7143,1098.3883,814.3223,715.6044,0.03955078125,-0.03216552734375,0.99090576171875,2.6617431640625,-4.32159423828125,0.889739990234375,1.0,1.0,1.0,4.0,1.0,85.0,event
11:49:17.803,0.39701518,0.76875716,0.0,0.41387573,0.32122603,0.7839236,0.0,0.45219535,0.39336756,0.5558771,0.0,0.48022887,0.6126604,0.56998676,0.0,0.49511513,0.14227644,-0.010259383,0.0,0.068758436,826.0073,771.6117,852.6007,792.96704,704.3223,0.03955078125,-0.03216552734375,0.99090576171875,2.6617431640625,-4.32159423828125,0.889739990234375,1.0,1.0,1.0,4.0,1.0,85.0,event
11:49:17.807,0.39701518,0.76875716,0.0,0.41387573,0.32122603,0.7839236,0.0,0.45219535,0.39336756,0.5558771,0.0,0.48022887,0.6126604,0.56998676,0.0,0.49511513,0.14227644,-0.010259383,0.0,0.068758436,702.3077,777.25275,574.57874,798.20514,834.87177,0.03955078125,-0.03216552734375,0.99090576171875,2.6617431640625,-4.32159423828125,0.889739990234375,1.0,1.0,1.0,4.0,1.0,85.0,event
11:49:17.807,0.39701518,0.76875716,0.0,0.41387573,0.32122603,0.7839236,0.0,0.45219535,0.39336756,0.5558771,0.0,0.48022887,0.6126604,0.56998676,0.0,0.49511513,0.14227644,-0.010259383,0.0,0.068758436,694.65204,768.3883,551.2088,784.90845,809.89014,0.03955078125,-0.03216552734375,0.99090576171875,2.6617431640625,-4.32159423828125,0.889739990234375,1.0,1.0,1.0,4.0,1.0,85.0,event
11:49:17.808,0.39701518,0.76875716,0.0,0.41387573,0.32122603,0.7839236,0.0,0.45219535,0.39336756,0.5558771,0.0,0.48022887,0.6126604,0.56998676,0.0,0.49511513,0.14227644,-0.010259383,0.0,0.068758436,823.1868,779.2674,746.63007,808.2784,795.78754,0.03955078125,-0.03216552734375,0.99090576171875,2.6617431640625,-4.32159423828125,0.889739990234375,1.0,1.0,1.0,4.0,1.0,85.0,event
11:49:17.808,0.39701518,0.76875716,0.0,0.41387573,0.32122603,0.7839236,0.0,0.45219535,0.39336756,0.5558771,0.0,0.48022887,0.6126604,0.56998676,0.0,0.49511513,0.14227644,-0.010259383,0.0,0.068758436,915.8608,773.22345,742.6007,811.9048,854.61536,0.03955078125,-0.03216552734375,0.99090576171875,2.6617431640625,-4.32159423828125,0.889739990234375,1.0,1.0,1.0,4.0,1.0,85.0,event
11:49:17.809,0.39701518,0.76875716,0.0,0.41387573,0.32122603,0.7839236,0.0,0.45219535,0.39336756,0.5558771,0.0,0.48022887,0.6126604,0.56998676,0.0,0.49511513,0.14227644,-0.010259383,0.0,0.068758436,832.0513,763.5531,467.39926,796.99634,972.27106,0.03955078125,-0.03216552734375,0.99090576171875,2.6617431640625,-4.32159423828125,0.889739990234375,1.0,1.0,1.0,4.0,1.0,85.0,event
11:49:17.809,0.39701518,0.76875716,0.0,0.41387573,0.32122603,0.7839236,0.0,0.45219535,0.39336756,0.5558771,0.0,0.48022887,0.6126604,0.56998676,0.0,0.49511513,0.14227644,-0.010259383,0.0,0.068758436,699.0842,786.1172,588.2784,776.8498,836.8865,0.03955078125,-0.03216552734375,0.99090576171875,2.6617431640625,-4.32159423828125,0.889739990234375,1.0,1.0,1.0,4.0,1.0,85.0,event
11:49:17.810,0.39701518,0.76875716,0.0,0.41387573,0.32122603,0.7839236,0.0,0.45219535,0.39336756,0.5558771,0.0,0.48022887,0.6126604,0.56998676,0.0,0.49511513,0.14227644,-0.010259383,0.0,0.068758436,693.44324,796.1905,960.989,785.31134,637.8388,0.03955078125,-0.03216552734375,0.99090576171875,2.6617431640625,-4.32159423828125,0.889739990234375,1.0,1.0,1.0,4.0,1.0,85.0,event
11:49:17.810,0.39701518,0.76875716,0.0,0.41387573,0.32122603,0.7839236,0.0,0.45219535,0.39336756,0.5558771,0.0,0.48022887,0.6126604,0.56998676,0.0,0.49511513,0.14227644,-0.010259383,0.0,0.068758436,804.65204,774.43225,940.0366,807.0696,686.99634,0.03955078125,-0.03216552734375,0.99090576171875,2.6617431640625,-4.32159423828125,0.889739990234375,1.0,1.0,1.0,4.0,1.0,85.0,event
11:49:17.859,0.39701518,0.76875716,0.0,0.41387573,0.32122603,0.7839236,0.0,0.45219535,0.39336756,0.5558771,0.0,0.48022887,0.6126604,0.56998676,0.0,0.49511513,0.14227644,-0.010259383,0.0,0.068758436,902.96704,752.674,380.76923,819.9634,973.8828,0.023193359375,-0.0323486328125,0.9859619140625,2.400054931640625,-2.91595458984375,1.413116455078125,1.0,1.0,1.0,4.0,1.0,85.0,event
11:49:17.860,0.39701518,0.76875716,0.0,0.41387573,0.32122603,0.7839236,0.0,0.45219535,0.39336756,0.5558771,0.0,0.48022887,0.6126604,0.56998676,0.0,0.49511513,0.14227644,-0.010259383,0.0,0.068758436,849.3773,793.7729,524.21246,805.8608,917.8755,0.023193359375,-0.0323486328125,0.9859619140625,2.400054931640625,-2.91595458984375,1.413116455078125,1.0,1.0,1.0,4.0,1.0,85.0,event
11:49:17.861,0.39701518,0.76875716,0.0,0.41387573,0.32122603,0.7839236,0.0,0.45219535,0.39336756,0.5558771,0.0,0.48022887,0.6126604,0.56998676,0.0,0.49511513,0.14227644,-0.010259383,0.0,0.068758436,722.8571,803.8461,911.4286,786.9231,698.68134,0.023193359375,-0.0323486328125,0.9859619140625,2.400054931640625,-2.91595458984375,1.413116455078125,1.0,1.0,1.0,4.0,1.0,85.0,event
11:49:17.862,0.39701518,0.76875716,0.0,0.41387573,0.32122603,0.7839236,0.0,0.45219535,0.39336756,0.5558771,0.0,0.48022887,0.6126604,0.56998676,0.0,0.49511513,0.14227644,-0.010259383,0.0,0.068758436,696.6667,786.52014,840.5128,794.9817,732.52747,0.023193359375,-0.0323486328125,0.9859619140625,2.400054931640625,-2.91595458984375,1.413116455078125,1.0,1.0,1.0,4.0,1.0,85.0,event
11:49:17.863,0.39701518,0.76875716,0.0,0.41387573,0.32122603,0.7839236,0.0,0.45219535,0.39336756,0.5558771,0.0,0.48022887,0.6126604,0.56998676,0.0,0.49511513,0.14227644,-0.010259383,0.0,0.068758436,803.0403,792.5641,933.1868,811.0989,787.326,0.023193359375,-0.0323486328125,0.9859619140625,2.400054931640625,-2.91595458984375,1.413116455078125,1.0,1.0,1.0,4.0,1.0,85.0,event
11:49:17.864,0.39701518,0.76875716,0.0,0.41387573,0.32122603,0.7839236,0.0,0.45219535,0.39336756,0.5558771,0.0,0.48022887,0.6126604,0.56998676,0.0,0.49511513,0.14227644,-0.010259383,0.0,0.068758436,915.05493,780.07324,856.63007,814.3223,858.24176,0.023193359375,-0.0323486328125,0.9859619140625,2.400054931640625,-2.91595458984375,1.413116455078125,1.0,1.0,1.0,4.0,1.0,85.0,event
11:49:17.865,0.39701518,0.76875716,0.0,0.41387573,0.32122603,0.7839236,0.0,0.45219535,0.39336756,0.5558771,0.0,0.48022887,0.6126604,0.56998676,0.0,0.49511513,0.14227644,-0.010259383,0.0,0.068758436,875.16486,781.28204,714.3956,805.4579,836.8865,0.023193359375,-0.0323486328125,0.9859619140625,2.400054931640625,-2.91595458984375,1.413116455078125,1.0,1.0,1.0,4.0,1.0,85.0,event
11:49:17.866,0.39701518,0.76875716,0.0,0.41387573,0.32122603,0.7839236,0.0,0.45219535,0.39336756,0.5558771,0.0,0.48022887,0.6126604,0.56998676,0.0,0.49511513,0.14227644,-0.010259383,0.0,0.068758436,732.52747,772.8205,481.90475,799.011,861.4652,0.023193359375,-0.0323486328125,0.9859619140625,2.400054931640625,-2.91595458984375,1.413116455078125,1.0,1.0,1.0,4.0,1.0,85.0,event
11:49:17.867,0.39701518,0.76875716,0.0,0.41387573,0.32122603,0.7839236,0.0,0.45219535,0.39336756,0.5558771,0.0,0.48022887,0.6126604,0.56998676,0.0,0.49511513,0.14227644,-0.010259383,0.0,0.068758436,668.46155,759.92676,92.673996,801.4286,1062.1245,0.023193359375,-0.0323486328125,0.9859619140625,2.400054931640625,-2.91595458984375,1.413116455078125,1.0,1.0,1.0,4.0,1.0,85.0,event
11:49:17.867,0.39701518,0.76875716,0.0,0.41387573,0.32122603,0.7839236,0.0,0.45219535,0.39336756,0.5558771,0.0,0.48022887,0.6126604,0.56998676,0.0,0.49511513,0.14227644,-0.010259383,0.0,0.068758436,785.7143,801.02563,667.25275,811.0989,832.0513,0.023193359375,-0.0323486328125,0.9859619140625,2.400054931640625,-2.91595458984375,1.413116455078125,1.0,1.0,1.0,4.0,1.0,85.0,event
11:49:17.868,0.39701518,0.76875716,0.0,0.41387573,0.32122603,0.7839236,0.0,0.45219535,0.39336756,0.5558771,0.0,0.48022887,0.6126604,0.56998676,0.0,0.49511513,0.14227644,-0.010259383,0.0,0.068758436,930.3663,794.57874,1110.8792,839.707,663.6264,0.023193359375,-0.0323486328125,0.9859619140625,2.400054931640625,-2.91595458984375,1.413116455078125,1.0,1.0,1.0,4.0,1.0,85.0,event
11:49:17.869,0.39701518,0.76875716,0.0,0.41387573,0.32122603,0.7839236,0.0,0.45219535,0.39336756,0.5558771,0.0,0.48022887,0.6126604,0.56998676,0.0,0.49511513,0.14227644,-0.010259383,0.0,0.068758436,904.17584,771.2088,790.14655,830.0366,751.8681,0.023193359375,-0.0323486328125,0.9859619140625,2.400054931640625,-2.91595458984375,1.413116455078125,1.0,1.0,1.0,4.0,1.0,85.0,event
11:49:17.897,0.39701518,0.76875716,0.0,0.41387573,0.32122603,0.7839236,0.0,0.45219535,0.39336756,0.5558771,0.0,0.48022887,0.6126604,0.56998676,0.0,0.49511513,0.14227644,-0.010259383,0.0,0.068758436,732.1245,794.17584,765.16486,773.22345,699.4872,0.0396728515625,-0.0255126953125,0.98980712890625,2.91595458984375,-3.27484130859375,0.1495361328125,1.0,1.0,1.0,4.0,1.0,85.0,event
11:49:17.899,0.39701518,0.76875716,0.0,0.41387573,0.32122603,0.7839236,0.0,0.45219535,0.39336756,0.5558771,0.0,0.48022887,0.6126604,0.56998676,0.0,0.49511513,0.14227644,-0.010259383,0.0,0.068758436,639.85345,795.78754,958.97437,755.09155,624.5421,0.0396728515625,-0.0255126953125,0.98980712890625,2.91595458984375,-3.27484130859375,0.1495361328125,1.0,1.0,1.0,4.0,1.0,85.0,event
11:49:17.900,0.39701518,0.76875716,0.0,0.41387573,0.32122603,0.7839236,0.0,0.45219535,0.39336756,0.5558771,0.0,0.48022887,0.6126604,0.56998676,0.0,0.49511513,0.14227644,-0.010259383,0.0,0.068758436,751.8681,774.83514,958.5714,776.8498,643.0769,0.0396728515625,-0.0255126953125,0.98980712890625,2.91595458984375,-3.27484130859375,0.1495361328125,1.0,1.0,1.0,4.0,1.0,85.0,event
11:49:17.901,0.39701518,0.76875716,0.0,0.41387573,0.32122603,0.7839236,0.0,0.45219535,0.39336756,0.5558771,0.0,0.48022887,0.6126604,0.56998676,0.0,0.49511513,0.14227644,-0.010259383,0.0,0.068758436,859.85345,787.72894,931.5751,756.30035,782.49084,0.0396728515625,-0.0255126953125,0.98980712890625,2.91595458984375,-3.27484130859375,0.1495361328125,1.0,1.0,1.0,4.0,1.0,85.0,event
11:49:17.901,0.39701518,0.76875716,0.0,0.41387573,0.32122603,0.7839236,0.0,0.45219535,0.39336756,0.5558771,0.0,0.48022887,0.6126604,0.56998676,0.0,0.49511513,0.14227644,-0.010259383,0.0,0.068758436,880.40295,776.4469,882.8205,780.87915,801.8315,0.0396728515625,-0.0255126953125,0.98980712890625,2.91595458984375,-3.27484130859375,0.1495361328125,1.0,1.0,1.0,4.0,1.0,85.0,event
11:49:17.903,0.39701518,0.76875716,0.0,0.41387573,0.32122603,0.7839236,0.0,0.45219535,0.39336756,0.5558771,0.0,0.48022887,0.6126604,0.56998676,0.0,0.49511513,0.14227644,-0.010259383,0.0,0.068758436,732.1245,778.0586,737.3626,737.3626,704.7253,0.0396728515625,-0.0255126953125,0.98980712890625,2.91595458984375,-3.27484130859375,0.1495361328125,1.0,1.0,1.0,4.0,1.0,85.0,event
11:49:17.908,0.39701518,0.76875716,0.0,0.41387573,0.32122603,0.7839236,0.0,0.45219535,0.39336756,0.5558771,0.0,0.48022887,0.6126604,0.56998676,0.0,0.49511513,0.14227644,-0.010259383,0.0,0.068758436,645.09155,781.685,568.93774,738.5714,840.10986,0.0396728515625,-0.0255126953125,0.98980712890625,2.91595458984375,-3.27484130859375,0.1495361328125,1.0,1.0,1.0,4.0,1.0,85.0,event
11:49:17.909,0.39701518,0.76875716,0.0,0.41387573,0.32122603,0.7839236,0.0,0.45219535,0.39336756,0.5558771,0.0,0.48022887,0.6126604,0.56998676,0.0,0.49511513,0.14227644,-0.010259383,0.0,0.068758436,711.5751,799.81683,622.52747,755.4945,898.1319,0.0396728515625,-0.0255126953125,0.98980712890625,2.91595458984375,-3.27484130859375,0.1495361328125,1.0,1.0,1.0,4.0,1.0,85.0,event
11:49:17.911,0.39701518,0.76875716,0.0,0.41387573,0.32122603,0.7839236,0.0,0.45219535,0.39336756,0.5558771,0.0,0.48022887,0.6126604,0.56998676,0.0,0.49511513,0.14227644,-0.010259383,0.0,0.068758436,851.79486,819.5604,945.6777,768.7912,788.93774,0.0396728515625,-0.0255126953125,0.98980712890625,2.91595458984375,-3.27484130859375,0.1495361328125,1.0,1.0,1.0,4.0,1.0,85.0,event
11:49:17.912,0.39701518,0.76875716,0.0,0.41387573,0.32122603,0.7839236,0.0,0.45219535,0.39336756,0.5558771,0.0,0.48022887,0.6126604,0.56998676,0.0,0.49511513,0.14227644,-0.010259383,0.0,0.068758436,883.22345,827.619,1047.2161,768.3883,674.5055,0.0396728515625,-0.0255126953125,0.98980712890625,2.91595458984375,-3.27484130859375,0.1495361328125,1.0,1.0,1.0,4.0,1.0,85.0,event
11:49:17.913,0.39701518,0.76875716,0.0,0.41387573,0.32122603,0.7839236,0.0,0.45219535,0.39336756,0.5558771,0.0,0.48022887,0.6126604,0.56998676,0.0,0.49511513,0.14227644,-0.010259383,0.0,0.068758436,766.3736,821.978,804.65204,761.53845,732.1245,0.0396728515625,-0.0255126953125,0.98980712890625,2.91595458984375,-3.27484130859375,0.1495361328125,1.0,1.0,1.0,4.0,1.0,85.0,event
11:49:17.914,0.39701518,0.76875716,0.0,0.41387573,0.32122603,0.7839236,0.0,0.45219535,0.39336756,0.5558771,0.0,0.48022887,0.6126604,0.56998676,0.0,0.49511513,0.14227644,-0.010259383,0.0,0.068758436,660.40295,809.4872,157.54579,769.59705,993.6264,0.0396728515625,-0.0255126953125,0.98980712890625,2.91595458984375,-3.27484130859375,0.1495361328125,1.0,1.0,1.0,4.0,1.0,85.0,event
11:49:17.938,0.39701518,0.76875716,0.0,0.41387573,0.32122603,0.7839236,0.0,0.45219535,0.39336756,0.5558771,0.0,0.48022887,0.6126604,0.56998676,0.0,0.49511513,0.14227644,-0.010259383,0.0,0.068758436,709.9634,861.4652,340.87912,786.1172,913.0403,0.02667236328125,-0.03009033203125,0.99005126953125,1.293487548828125,-2.250518798828125,-0.04486083984375,1.0,1.0,1.0,4.0,1.0,85.0,event
11:49:17.939,0.39701518,0.76875716,0.0,0.41387573,0.32122603,0.7839236,0.0,0.45219535,0.39336756,0.5558771,0.0,0.48022887,0.6126604,0.56998676,0.0,0.49511513,0.14227644,-0.010259383,0.0,0.068758436,867.50916,890.87915,1104.4323,797.8022,774.83514,0.02667236328125,-0.03009033203125,0.99005126953125,1.293487548828125,-2.250518798828125,-0.04486083984375,1.0,1.0,1.0,4.0,1.0,85.0,event
11:49:17.940,0.39701518,0.76875716,0.0,0.41387573,0.32122603,0.7839236,0.0,0.45219535,0.39336756,0.5558771,0.0,0.48022887,0.6126604,0.56998676,0.0,0.49511513,0.14227644,-0.010259383,0.0,0.068758436,918.2784,867.50916,1001.28204,796.99634,821.5751,0.02667236328125,-0.03009033203125,0.99005126953125,1.293487548828125,-2.250518798828125,-0.04486083984375,1.0,1.0,1.0,4.0,1.0,85.0,event
11:49:17.941,0.39701518,0.76875716,0.0,0.41387573,0.32122603,0.7839236,0.0,0.45219535,0.39336756,0.5558771,0.0,0.48022887,0.6126604,0.56998676,0.0,0.49511513,0.14227644,-0.010259383,0.0,0.068758436,797.8022,882.01465,816.7399,784.5055,808.68134,0.02667236328125,-0.03009033203125,0.99005126953125,1.293487548828125,-2.250518798828125,-0.04486083984375,1.0,1.0,1.0,4.0,1.0,85.0,event
11:49:17.941,0.39701518,0.76875716,0.0,0.41387573,0.32122603,0.7839236,0.0,0.45219535,0.39336756,0.5558771,0.0,0.48022887,0.6126604,0.56998676,0.0,0.49511513,0.14227644,-0.010259383,0.0,0.068758436,686.99634,896.1172,902.1612,779.2674,734.94507,0.02667236328125,-0.03009033203125,0.99005126953125,1.293487548828125,-2.250518798828125,-0.04486083984375,1.0,1.0,1.0,4.0,1.0,85.0,event
11:49:17.942,0.39701518,0.76875716,0.0,0.41387573,0.32122603,0.7839236,0.0,0.45219535,0.39336756,0.5558771,0.0,0.48022887,0.6126604,0.56998676,0.0,0.49511513,0.14227644,-0.010259383,0.0,0.068758436,719.6337,892.49084,847.76556,789.7436,758.71796,0.02667236328125,-0.03009033203125,0.99005126953125,1.293487548828125,-2.250518798828125,-0.04486083984375,1.0,1.0,1.0,4.0,1.0,85.0,event
11:49:17.943,0.39701518,0.76875716,0.0,0.41387573,0.32122603,0.7839236,0.0,0.45219535,0.39336756,0.5558771,0.0,0.48022887,0.6126604,0.56998676,0.0,0.49511513,0.14227644,-0.010259383,0.0,0.068758436,842.52747,884.0293,638.24176,806.26373,928.7546,0.02667236328125,-0.03009033203125,0.99005126953125,1.293487548828125,-2.250518798828125,-0.04486083984375,1.0,1.0,1.0,4.0,1.0,85.0,event
11:49:17.943,0.39701518,0.76875716,0.0,0.41387573,0.32122603,0.7839236,0.0,0.45219535,0.39336756,0.5558771,0.0,0.48022887,0.6126604,0.56998676,0.0,0.49511513,0.14227644,-0.010259383,0.0,0.068758436,909.41394,890.87915,377.14285,809.4872,1093.956,0.02667236328125,-0.03009033203125,0.99005126953125,1.293487548828125,-2.250518798828125,-0.04486083984375,1.0,1.0,1.0,4.0,1.0,85.0,event
11:49:17.944,0.39701518,0.76875716,0.0,0.41387573,0.32122603,0.7839236,0.0,0.45219535,0.39336756,0.5558771,0.0,0.48022887,0.6126604,0.56998676,0.0,0.49511513,0.14227644,-0.010259383,0.0,0.068758436,816.337,926.337,764.35895,784.5055,875.16486,0.02667236328125,-0.03009033203125,0.99005126953125,1.293487548828125,-2.250518798828125,-0.04486083984375,1.0,1.0,1.0,4.0,1.0,85.0,event
11:49:17.944,0.39701518,0.76875716,0.0,0.41387573,0.32122603,0.7839236,0.0,0.45219535,0.39336756,0.5558771,0.0,0.48022887,0.6126604,0.56998676,0.0,0.49511513,0.14227644,-0.010259383,0.0,0.068758436,694.65204,918.2784,925.5311,779.67035,637.8388,0.02667236328125,-0.03009033203125,0.99005126953125,1.293487548828125,-2.250518798828125,-0.04486083984375,1.0,1.0,1.0,4.0,1.0,85.0,event
11:49:17.945,0.39701518,0.76875716,0.0,0.41387573,0.32122603,0.7839236,0.0,0.45219535,0.39336756,0.5558771,0.0,0.48022887,0.6126604,0.56998676,0.0,0.49511513,0.14227644,-0.010259383,0.0,0.068758436,705.5311,904.57874,770.40295,795.78754,753.47986,0.02667236328125,-0.03009033203125,0.99005126953125,1.293487548828125,-2.250518798828125,-0.04486083984375,1.0,1.0,1.0,4.0,1.0,85.0,event
11:49:17.946,0.39701518,0.76875716,0.0,0.41387573,0.32122603,0.7839236,0.0,0.45219535,0.39336756,0.5558771,0.0,0.48022887,0.6126604,0.56998676,0.0,0.49511513,0.14227644,-0.010259383,0.0,0.068758436,829.2308,913.0403,987.1795,806.26373,810.293,0.02667236328125,-0.03009033203125,0.99005126953125,1.293487548828125,-2.250518798828125,-0.04486083984375,1.0,1.0,1.0,4.0,1.0,85.0,event
11:49:17.979,0.39701518,0.76875716,0.0,0.41387573,0.32122603,0.7839236,0.0,0.45219535,0.39336756,0.5558771,0.0,0.48022887,0.6126604,0.56998676,0.0,0.49511513,0.14227644,-0.010259383,0.0,0.068758436,924.7253,912.23444,1107.2528,819.9634,713.5897,0.03338623046875,-0.03155517578125,0.980224609375,2.67669677734375,-2.76641845703125,0.28411865234375,1.0,1.0,1.0,4.0,1.0,85.0,event
11:49:17.980,0.39701518,0.76875716,0.0,0.41387573,0.32122603,0.7839236,0.0,0.45219535,0.39336756,0.5558771,0.0,0.48022887,0.6126604,0.56998676,0.0,0.49511513,0.14227644,-0.010259383,0.0,0.068758436,835.6777,897.72894,866.30035,806.6667,727.6923,0.03338623046875,-0.03155517578125,0.980224609375,2.67669677734375,-2.76641845703125,0.28411865234375,1.0,1.0,1.0,4.0,1.0,85.0,event
11:49:17.981,0.39701518,0.76875716,0.0,0.41387573,0.32122603,0.7839236,0.0,0.45219535,0.39336756,0.5558771,0.0,0.48022887,0.6126604,0.56998676,0.0,0.49511513,0.14227644,-0.010259383,0.0,0.068758436,705.12823,882.4176,477.47253,790.54944,920.696,0.03338623046875,-0.03155517578125,0.980224609375,2.67669677734375,-2.76641845703125,0.28411865234375,1.0,1.0,1.0,4.0,1.0,85.0,event
11:49:17.982,0.39701518,0.76875716,0.0,0.41387573,0.32122603,0.7839236,0.0,0.45219535,0.39336756,0.5558771,0.0,0.48022887,0.6126604,0.56998676,0.0,0.49511513,0.14227644,-0.010259383,0.0,0.068758436,704.7253,899.7436,729.304,794.57874,806.6667,0.03338623046875,-0.03155517578125,0.980224609375,2.67669677734375,-2.76641845703125,0.28411865234375,1.0,1.0,1.0,4.0,1.0,85.0,event
11:49:17.982,0.39701518,0.76875716,0.0,0.41387573,0.32122603,0.7839236,0.0,0.45219535,0.39336756,0.5558771,0.0,0.48022887,0.6126604,0.56998676,0.0,0.49511513,0.14227644,-0.010259383,0.0,0.068758436,829.2308,897.72894,1099.597,809.0842,677.72894,0.03338623046875,-0.03155517578125,0.980224609375,2.67669677734375,-2.76641845703125,0.28411865234375,1.0,1.0,1.0,4.0,1.0,85.0,event
11:49:17.983,0.39701518,0.76875716,0.0,0.41387573,0.32122603,0.7839236,0.0,0.45219535,0.39336756,0.5558771,0.0,0.48022887,0.6126604,0.56998676,0.0,0.49511513,0.14227644,-0.010259383,0.0,0.068758436,849.3773,853.8095,445.2381,799.81683,894.5055,0.03338623046875,-0.03155517578125,0.980224609375,2.67669677734375,-2.76641845703125,0.28411865234375,1.0,1.0,1.0,4.0,1.0,85.0,event
11:49:17.983,0.39701518,0.76875716,0.0,0.41387573,0.32122603,0.7839236,0.0,0.45219535,0.39336756,0.5558771,0.0,0.48022887,0.6126604,0.56998676,0.0,0.49511513,0.14227644,-0.010259383,0.0,0.068758436,934.3956,865.09155,834.87177,816.337,833.2601,0.03338623046875,-0.03155517578125,0.980224609375,2.67669677734375,-2.76641845703125,0.28411865234375,1.0,1.0,1.0,4.0,1.0,85.0,event
11:49:17.984,0.39701518,0.76875716,0.0,0.41387573,0.32122603,0.7839236,0.0,0.45219535,0.39336756,0.5558771,0.0,0.48022887,0.6126604,0.56998676,0.0,0.49511513,0.14227644,-0.010259383,0.0,0.068758436,717.2161,869.12085,648.315,790.14655,787.326,0.03338623046875,-0.03155517578125,0.980224609375,2.67669677734375,-2.76641845703125,0.28411865234375,1.0,1.0,1.0,4.0,1.0,85.0,event
11:49:17.988,0.39701518,0.76875716,0.0,0.41387573,0.32122603,0.7839236,0.0,0.45219535,0.39336756,0.5558771,0.0,0.48022887,0.6126604,0.56998676,0.0,0.49511513,0.14227644,-0.010259383,0.0,0.068758436,707.9487,874.35895,1009.34064,809.0842,691.02563,0.03338623046875,-0.03155517578125,0.980224609375,2.67669677734375,-2.76641845703125,0.28411865234375,1.0,1.0,1.0,4.0,1.0,85.0,event
11:49:17.989,0.39701518,0.76875716,0.0,0.41387573,0.32122603,0.7839236,0.0,0.45219535,0.39336756,0.5558771,0.0,0.48022887,0.6126604,0.56998676,0.0,0.49511513,0.14227644,-0.010259383,0.0,0.068758436,807.0696,849.7802,1017.8022,821.1722,778.0586,0.03338623046875,-0.03155517578125,0.980224609375,2.67669677734375,-2.76641845703125,0.28411865234375,1.0,1.0,1.0,4.0,1.0,85.0,event
11:49:17.990,0.39701518,0.76875716,0.0,0.41387573,0.32122603,0.7839236,0.0,0.45219535,0.39336756,0.5558771,0.0,0.48022887,0.6126604,0.56998676,0.0,0.49511513,0.14227644,-0.010259383,0.0,0.068758436,916.6667,808.68134,463.7729,825.6044,1018.60803,0.03338623046875,-0.03155517578125,0.980224609375,2.67669677734375,-2.76641845703125,0.28411865234375,1.0,1.0,1.0,4.0,1.0,85.0,event
11:49:17.990,0.39701518,0.76875716,0.0,0.41387573,0.32122603,0.7839236,0.0,0.45219535,0.39336756,0.5558771,0.0,0.48022887,0.6126604,0.56998676,0.0,0.49511513,0.14227644,-0.010259383,0.0,0.068758436,874.7619,834.4689,499.6337,813.91943,844.5421,0.03338623046875,-0.03155517578125,0.980224609375,2.67669677734375,-2.76641845703125,0.28411865234375,1.0,1.0,1.0,4.0,1.0,85.0,event
11:49:18.014,0.39701518,0.76875716,0.0,0.41387573,0.32122603,0.7839236,0.0,0.45219535,0.39336756,0.5558771,0.0,0.48022887,0.6126604,0.56998676,0.0,0.49511513,0.14227644,-0.010259383,0.0,0.068758436,732.1245,846.9597,886.04395,794.9817,628.97437,0.03338623046875,-0.03155517578125,0.980224609375,2.67669677734375,-2.76641845703125,0.28411865234375,1.0,1.0,1.0,4.0,1.0,85.0,event
11:49:18.015,0.39701518,0.76875716,0.0,0.41387573,0.32122603,0.7839236,0.0,0.45219535,0.39336756,0.5558771,0.0,0.48022887,0.6126604,0.56998676,0.0,0.49511513,0.14227644,-0.010259383,0.0,0.068758436,683.7729,826.0073,848.1685,796.1905,704.7253,0.03338623046875,-0.03155517578125,0.980224609375,2.67669677734375,-2.76641845703125,0.28411865234375,1.0,1.0,1.0,4.0,1.0,85.0,event
11:49:18.016,0.39701518,0.76875716,0.0,0.41387573,0.32122603,0.7839236,0.0,0.45219535,0.39336756,0.5558771,0.0,0.48022887,0.6126604,0.56998676,0.0,0.49511513,0.14227644,-0.010259383,0.0,0.068758436,782.49084,825.2015,865.09155,813.5165,734.5421,0.03338623046875,-0.03155517578125,0.980224609375,2.67669677734375,-2.76641845703125,0.28411865234375,1.0,1.0,1.0,4.0,1.0,85.0,event
11:49:18.017,0.39701518,0.76875716,0.0,0.41387573,0.32122603,0.7839236,0.0,0.45219535,0.39336756,0.5558771,0.0,0.48022887,0.6126604,0.56998676,0.0,0.49511513,0.14227644,-0.010259383,0.0,0.068758436,891.28204,820.7692,959.3773,817.5458,763.95605,0.03338623046875,-0.03155517578125,0.980224609375,2.67669677734375,-2.76641845703125,0.28411865234375,1.0,1.0,1.0,4.0,1.0,85.0,event
11:49:18.017,0.39701518,0.76875716,0.0,0.41387573,0.32122603,0.7839236,0.0,0.45219535,0.39336756,0.5558771,0.0,0.48022887,0.6126604,0.56998676,0.0,0.49511513,0.14227644,-0.010259383,0.0,0.068758436,908.60803,827.619,945.2747,825.2015,726.8865,0.03338623046875,-0.03155517578125,0.980224609375,2.67669677734375,-2.76641845703125,0.28411865234375,1.0,1.0,1.0,4.0,1.0,85.0,event
11:49:18.018,0.39701518,0.76875716,0.0,0.41387573,0.32122603,0.7839236,0.0,0.45219535,0.39336756,0.5558771,0.0,0.48022887,0.6126604,0.56998676,0.0,0.49511513,0.14227644,-0.010259383,0.0,0.068758436,751.8681,802.6374,653.1502,807.47253,813.1135,0.03338623046875,-0.03155517578125,0.980224609375,2.67669677734375,-2.76641845703125,0.28411865234375,1.0,1.0,1.0,4.0,1.0,85.0,event
11:49:18.019,0.39701518,0.76875716,0.0,0.41387573,0.32122603,0.7839236,0.0,0.45219535,0.39336756,0.5558771,0.0,0.48022887,0.6126604,0.56998676,0.0,0.49511513,0.14227644,-0.010259383,0.0,0.068758436,681.3553,821.978,512.52747,805.05493,886.04395,0.03338623046875,-0.03155517578125,0.980224609375,2.67669677734375,-2.76641845703125,0.28411865234375,1.0,1.0,1.0,4.0,1.0,85.0,event
11:49:18.019,0.39701518,0.76875716,0.0,0.41387573,0.32122603,0.7839236,0.0,0.45219535,0.39336756,0.5558771,0.0,0.48022887,0.6126604,0.56998676,0.0,0.49511513,0.14227644,-0.010259383,0.0,0.068758436,755.89746,844.5421,722.0513,792.1612,881.6117,0.03338623046875,-0.03155517578125,0.980224609375,2.67669677734375,-2.76641845703125,0.28411865234375,1.0,1.0,1.0,4.0,1.0,85.0,event
11:49:18.020,0.39701518,0.76875716,0.0,0.41387573,0.32122603,0.7839236,0.0,0.45219535,0.39336756,0.5558771,0.0,0.48022887,0.6126604,0.56998676,0.0,0.49511513,0.14227644,-0.010259383,0.0,0.068758436,886.04395,840.9158,1000.4762,802.23444,715.6044,0.03338623046875,-0.03155517578125,0.980224609375,2.67669677734375,-2.76641845703125,0.28411865234375,1.0,1.0,1.0,4.0,1.0,85.0,event
11:49:18.021,0.39701518,0.76875716,0.0,0.41387573,0.32122603,0.7839236,0.0,0.45219535,0.39336756,0.5558771,0.0,0.48022887,0.6126604,0.56998676,0.0,0.49511513,0.14227644,-0.010259383,0.0,0.068758436,881.2088,806.26373,731.31866,809.4872,846.1539,0.03338623046875,-0.03155517578125,0.980224609375,2.67669677734375,-2.76641845703125,0.28411865234375,1.0,1.0,1.0,4.0,1.0,85.0,event
11:49:18.021,0.39701518,0.76875716,0.0,0.41387573,0.32122603,0.7839236,0.0,0.45219535,0.39336756,0.5558771,0.0,0.48022887,0.6126604,0.56998676,0.0,0.49511513,0.14227644,-0.010259383,0.0,0.068758436,744.21246,793.36993,70.91575,794.17584,1098.7913,0.03338623046875,-0.03155517578125,0.980224609375,2.67669677734375,-2.76641845703125,0.28411865234375,1.0,1.0,1.0,4.0,1.0,85.0,event
11:49:18.022,0.39701518,0.76875716,0.0,0.41387573,0.32122603,0.7839236,0.0,0.45219535,0.39336756,0.5558771,0.0,0.48022887,0.6126604,0.56998676,0.0,0.49511513,0.14227644,-0.010259383,0.0,0.068758436,672.49084,846.55676,473.04028,780.4762,785.31134,0.03338623046875,-0.03155517578125,0.980224609375,2.67669677734375,-2.76641845703125,0.28411865234375,1.0,1.0,1.0,4.0,1.0,85.0,event
11:49:18.076,0.39701518,0.76875716,0.0,0.41387573,0.32122603,0.7839236,0.0,0.45219535,0.39336756,0.5558771,0.0,0.48022887,0.6126604,0.56998676,0.0,0.49511513,0.14227644,-0.010259383,0.0,0.068758436,743.00366,853.4066,1052.4542,787.72894,686.1905,0.02197265625,-0.0267333984375,0.984375,2.579498291015625,-2.504730224609375,0.8673095703125,1.0,1.0,1.0,4.0,1.0,85.0,event
11:49:18.077,0.39701518,0.76875716,0.0,0.41387573,0.32122603,0.7839236,0.0,0.45219535,0.39336756,0.5558771,0.0,0.48022887,0.6126604,0.56998676,0.0,0.49511513,0.14227644,-0.010259383,0.0,0.068758436,884.83514,823.9927,939.2308,811.9048,846.55676,0.02197265625,-0.0267333984375,0.984375,2.579498291015625,-2.504730224609375,0.8673095703125,1.0,1.0,1.0,4.0,1.0,85.0,event
11:49:18.078,0.39701518,0.76875716,0.0,0.41387573,0.32122603,0.7839236,0.0,0.45219535,0.39336756,0.5558771,0.0,0.48022887,0.6126604,0.56998676,0.0,0.49511513,0.14227644,-0.010259383,0.0,0.068758436,906.5934,828.4249,899.34064,805.8608,748.24176,0.02197265625,-0.0267333984375,0.984375,2.579498291015625,-2.504730224609375,0.8673095703125,1.0,1.0,1.0,4.0,1.0,85.0,event
11:49:18.078,0.39701518,0.76875716,0.0,0.41387573,0.32122603,0.7839236,0.0,0.45219535,0.39336756,0.5558771,0.0,0.48022887,0.6126604,0.56998676,0.0,0.49511513,0.14227644,-0.010259383,0.0,0.068758436,777.6557,837.6923,962.1978,781.28204,649.5238,0.02197265625,-0.0267333984375,0.984375,2.579498291015625,-2.504730224609375,0.8673095703125,1.0,1.0,1.0,4.0,1.0,85.0,event
11:49:18.079,0.39701518,0.76875716,0.0,0.41387573,0.32122603,0.7839236,0.0,0.45219535,0.39336756,0.5558771,0.0,0.48022887,0.6126604,0.56998676,0.0,0.49511513,0.14227644,-0.010259383,0.0,0.068758436,682.96704,830.0366,879.19415,782.49084,629.7802,0.02197265625,-0.0267333984375,0.984375,2.579498291015625,-2.504730224609375,0.8673095703125,1.0,1.0,1.0,4.0,1.0,85.0,event
11:49:18.080,0.39701518,0.76875716,0.0,0.41387573,0.32122603,0.7839236,0.0,0.45219535,0.39336756,0.5558771,0.0,0.48022887,0.6126604,0.56998676,0.0,0.49511513,0.14227644,-0.010259383,0.0,0.068758436,734.94507,824.3956,659.19415,800.6227,813.5165,0.02197265625,-0.0267333984375,0.984375,2.579498291015625,-2.504730224609375,0.8673095703125,1.0,1.0,1.0,4.0,1.0,85.0,event
11:49:18.081,0.39701518,0.76875716,0.0,0.41387573,0.32122603,0.7839236,0.0,0.45219535,0.39336756,0.5558771,0.0,0.48022887,0.6126604,0.56998676,0.0,0.49511513,0.14227644,-0.010259383,0.0,0.068758436,931.1722,843.3333,927.5458,805.05493,789.34064,0.02197265625,-0.0267333984375,0.984375,2.579498291015625,-2.504730224609375,0.8673095703125,1.0,1.0,1.0,4.0,1.0,85.0,event
11:49:18.081,0.39701518,0.76875716,0.0,0.41387573,0.32122603,0.7839236,0.0,0.45219535,0.39336756,0.5558771,0.0,0.48022887,0.6126604,0.56998676,0.0,0.49511513,0.14227644,-0.010259383,0.0,0.068758436,885.2381,833.2601,713.9927,810.696,894.90845,0.02197265625,-0.0267333984375,0.984375,2.579498291015625,-2.504730224609375,0.8673095703125,1.0,1.0,1.0,4.0,1.0,85.0,event
11:49:18.082,0.39701518,0.76875716,0.0,0.41387573,0.32122603,0.7839236,0.0,0.45219535,0.39336756,0.5558771,0.0,0.48022887,0.6126604,0.56998676,0.0,0.49511513,0.14227644,-0.010259383,0.0,0.068758436,804.2491,825.2015,753.8828,785.7143,782.0879,0.02197265625,-0.0267333984375,0.984375,2.579498291015625,-2.504730224609375,0.8673095703125,1.0,1.0,1.0,4.0,1.0,85.0,event
11:49:18.083,0.39701518,0.76875716,0.0,0.41387573,0.32122603,0.7839236,0.0,0.45219535,0.39336756,0.5558771,0.0,0.48022887,0.6126604,0.56998676,0.0,0.49511513,0.14227644,-0.010259383,0.0,0.068758436,684.17584,801.4286,230.87912,787.326,961.79486,0.02197265625,-0.0267333984375,0.984375,2.579498291015625,-2.504730224609375,0.8673095703125,1.0,1.0,1.0,4.0,1.0,85.0,event
11:49:18.086,,,,,,,,,,,,,,,,,,,,,,,,,,,,,,,,,,,,,,blink
11:49:18.088,0.39701518,0.76875716,0.0,0.41387573,0.32122603,0.7839236,0.0,0.45219535,0.39336756,0.5558771,0.0,0.48022887,0.6126604,0.56998676,0.0,0.49511513,0.14227644,-0.010259383,0.0,0.068758436,731.7216,840.5128,537.1062,803.44324,931.978,0.02197265625,-0.0267333984375,0.984375,2.579498291015625,-2.504730224609375,0.8673095703125,1.0,1.0,1.0,4.0,1.0,85.0,event
11:49:18.088,0.39701518,0.76875716,0.0,0.41387573,0.32122603,0.7839236,0.0,0.45219535,0.39336756,0.5558771,0.0,0.48022887,0.6126604,0.56998676,0.0,0.49511513,0.14227644,-0.010259383,0.0,0.068758436,883.6264,848.5714,1167.6923,813.5165,751.06226,0.02197265625,-0.0267333984375,0.984375,2.579498291015625,-2.504730224609375,0.8673095703125,1.0,1.0,1.0,4.0,1.0,85.0,event
11:49:18.110,0.39701518,0.76875716,0.0,0.41387573,0.32122603,0.7839236,0.0,0.45219535,0.39336756,0.5558771,0.0,0.48022887,0.6126604,0.56998676,0.0,0.49511513,0.14227644,-0.010259383,0.0,0.068758436,944.0659,823.5897,1035.1282,813.1135,770.40295,0.025146484375,-0.0255126953125,0.98974609375,2.70660400390625,-3.701019287109375,0.6280517578125,1.0,1.0,1.0,4.0,1.0,85.0,event
11:49:18.111,0.39701518,0.76875716,0.0,0.41387573,0.32122603,0.7839236,0.0,0.45219535,0.39336756,0.5558771,0.0,0.48022887,0.6126604,0.56998676,0.0,0.49511513,0.14227644,-0.010259383,0.0,0.068758436,826.4103,825.2015,835.6777,798.60803,765.56775,0.025146484375,-0.0255126953125,0.98974609375,2.70660400390625,-3.701019287109375,0.6280517578125,1.0,1.0,1.0,4.0,1.0,85.0,event
11:49:18.112,0.39701518,0.76875716,0.0,0.41387573,0.32122603,0.7839236,0.0,0.45219535,0.39336756,0.5558771,0.0,0.48022887,0.6126604,0.56998676,0.0,0.49511513,0.14227644,-0.010259383,0.0,0.068758436,710.7692,825.6044,948.49817,790.9524,729.707,0.025146484375,-0.0255126953125,0.98974609375,2.70660400390625,-3.701019287109375,0.6280517578125,1.0,1.0,1.0,4.0,1.0,85.0,event
11:49:18.112,0.39701518,0.76875716,0.0,0.41387573,0.32122603,0.7839236,0.0,0.45219535,0.39336756,0.5558771,0.0,0.48022887,0.6126604,0.56998676,0.0,0.49511513,0.14227644,-0.010259383,0.0,0.068758436,732.52747,821.978,1075.8242,801.02563,716.0073,0.025146484375,-0.0255126953125,0.98974609375,2.70660400390625,-3.701019287109375,0.6280517578125,1.0,1.0,1.0,4.0,1.0,85.0,event
11:49:18.113,0.39701518,0.76875716,0.0,0.41387573,0.32122603,0.7839236,0.0,0.45219535,0.39336756,0.5558771,0.0,0.48022887,0.6126604,0.56998676,0.0,0.49511513,0.14227644,-0.010259383,0.0,0.068758436,855.42126,809.0842,977.9121,821.5751,757.9121,0.025146484375,-0.0255126953125,0.98974609375,2.70660400390625,-3.701019287109375,0.6280517578125,1.0,1.0,1.0,4.0,1.0,85.0,event
11:49:18.114,0.39701518,0.76875716,0.0,0.41387573,0.32122603,0.7839236,0.0,0.45219535,0.39336756,0.5558771,0.0,0.48022887,0.6126604,0.56998676,0.0,0.49511513,0.14227644,-0.010259383,0.0,0.068758436,827.619,812.71063,706.7399,799.011,886.4469,0.025146484375,-0.0255126953125,0.98974609375,2.70660400390625,-3.701019287109375,0.6280517578125,1.0,1.0,1.0,4.0,1.0,85.0,event
11:49:18.114,0.39701518,0.76875716,0.0,0.41387573,0.32122603,0.7839236,0.0,0.45219535,0.39336756,0.5558771,0.0,0.48022887,0.6126604,0.56998676,0.0,0.49511513,0.14227644,-0.010259383,0.0,0.068758436,923.91943,803.8461,767.98535,823.5897,899.34064,0.025146484375,-0.0255126953125,0.98974609375,2.70660400390625,-3.701019287109375,0.6280517578125,1.0,1.0,1.0,4.0,1.0,85.0,event
11:49:18.115,0.39701518,0.76875716,0.0,0.41387573,0.32122603,0.7839236,0.0,0.45219535,0.39336756,0.5558771,0.0,0.48022887,0.6126604,0.56998676,0.0,0.49511513,0.14227644,-0.010259383,0.0,0.068758436,711.1722,823.1868,871.9414,790.54944,710.3663,0.025146484375,-0.0255126953125,0.98974609375,2.70660400390625,-3.701019287109375,0.6280517578125,1.0,1.0,1.0,4.0,1.0,85.0,event
11:49:18.116,0.39701518,0.76875716,0.0,0.41387573,0.32122603,0.7839236,0.0,0.45219535,0.39336756,0.5558771,0.0,0.48022887,0.6126604,0.56998676,0.0,0.49511513,0.14227644,-0.010259383,0.0,0.068758436,698.68134,796.99634,678.93774,807.0696,772.8205,0.025146484375,-0.0255126953125,0.98974609375,2.70660400390625,-3.701019287109375,0.6280517578125,1.0,1.0,1.0,4.0,1.0,85.0,event
11:49:18.116,0.39701518,0.76875716,0.0,0.41387573,0.32122603,0.7839236,0.0,0.45219535,0.39336756,0.5558771,0.0,0.48022887,0.6126604,0.56998676,0.0,0.49511513,0.14227644,-0.010259383,0.0,0.068758436,813.5165,800.6227,468.20514,823.1868,923.5165,0.025146484375,-0.0255126953125,0.98974609375,2.70660400390625,-3.701019287109375,0.6280517578125,1.0,1.0,1.0,4.0,1.0,85.0,event
11:49:18.117,0.39701518,0.76875716,0.0,0.41387573,0.32122603,0.7839236,0.0,0.45219535,0.39336756,0.5558771,0.0,0.48022887,0.6126604,0.56998676,0.0,0.49511513,0.14227644,-0.010259383,0.0,0.068758436,938.8278,829.6337,938.022,827.2161,781.685,0.025146484375,-0.0255126953125,0.98974609375,2.70660400390625,-3.701019287109375,0.6280517578125,1.0,1.0,1.0,4.0,1.0,85.0,event
11:49:18.118,0.39701518,0.76875716,0.0,0.41387573,0.32122603,0.7839236,0.0,0.45219535,0.39336756,0.5558771,0.0,0.48022887,0.6126604,0.56998676,0.0,0.49511513,0.14227644,-0.010259383,0.0,0.068758436,854.21246,807.47253,843.3333,809.4872,739.3773,0.025146484375,-0.0255126953125,0.98974609375,2.70660400390625,-3.701019287109375,0.6280517578125,1.0,1.0,1.0,4.0,1.0,85.0,event
11:49:18.146,0.39701518,0.76875716,0.0,0.41387573,0.32122603,0.7839236,0.0,0.45219535,0.39336756,0.5558771,0.0,0.48022887,0.6126604,0.56998676,0.0,0.49511513,0.14227644,-0.010259383,0.0,0.068758436,697.47253,782.8938,413.00366,794.9817,832.0513,0.02685546875,-0.02532958984375,0.98748779296875,1.996307373046875,-3.222503662109375,0.11962890625,1.0,1.0,1.0,4.0,1.0,85.0,event
11:49:18.147,0.39701518,0.76875716,0.0,0.41387573,0.32122603,0.7839236,0.0,0.45219535,0.39336756,0.5558771,0.0,0.48022887,0.6126604,0.56998676,0.0,0.49511513,0.14227644,-0.010259383,0.0,0.068758436,688.60803,801.4286,619.304,799.81683,752.674,0.02685546875,-0.02532958984375,0.98748779296875,1.996307373046875,-3.222503662109375,0.11962890625,1.0,1.0,1.0,4.0,1.0,85.0,event
11:49:18.148,0.39701518,0.76875716,0.0,0.41387573,0.32122603,0.7839236,0.0,0.45219535,0.39336756,0.5558771,0.0,0.48022887,0.6126604,0.56998676,0.0,0.49511513,0.14227644,-0.010259383,0.0,0.068758436,813.5165,813.5165,1069.3773,806.6667,654.7619,0.02685546875,-0.02532958984375,0.98748779296875,1.996307373046875,-3.222503662109375,0.11962890625,1.0,1.0,1.0,4.0,1.0,85.0,event
11:49:18.148,0.39701518,0.76875716,0.0,0.41387573,0.32122603,0.7839236,0.0,0.45219535,0.39336756,0.5558771,0.0,0.48022887,0.6126604,0.56998676,0.0,0.49511513,0.14227644,-0.010259383,0.0,0.068758436,919.0842,797.8022,1057.2894,812.3077,751.4652,0.02685546875,-0.02532958984375,0.98748779296875,1.996307373046875,-3.222503662109375,0.11962890625,1.0,1.0,1.0,4.0,1.0,85.0,event
11:49:18.149,0.39701518,0.76875716,0.0,0.41387573,0.32122603,0.7839236,0.0,0.45219535,0.39336756,0.5558771,0.0,0.48022887,0.6126604,0.56998676,0.0,0.49511513,0.14227644,-0.010259383,0.0,0.068758436,855.0183,794.9817,815.9341,801.02563,811.0989,0.02685546875,-0.02532958984375,0.98748779296875,1.996307373046875,-3.222503662109375,0.11962890625,1.0,1.0,1.0,4.0,1.0,85.0,event
11:49:18.149,0.39701518,0.76875716,0.0,0.41387573,0.32122603,0.7839236,0.0,0.45219535,0.39336756,0.5558771,0.0,0.48022887,0.6126604,0.56998676,0.0,0.49511513,0.14227644,-0.010259383,0.0,0.068758436,715.2015,795.38464,680.9524,782.0879,842.9304,0.02685546875,-0.02532958984375,0.98748779296875,1.996307373046875,-3.222503662109375,0.11962890625,1.0,1.0,1.0,4.0,1.0,85.0,event
11:49:18.150,0.39701518,0.76875716,0.0,0.41387573,0.32122603,0.7839236,0.0,0.45219535,0.39336756,0.5558771,0.0,0.48022887,0.6126604,0.56998676,0.0,0.49511513,0.14227644,-0.010259383,0.0,0.068758436,683.36993,802.6374,706.337,788.1319,785.31134,0.02685546875,-0.02532958984375,0.98748779296875,1.996307373046875,-3.222503662109375,0.11962890625,1.0,1.0,1.0,4.0,1.0,85.0,event
11:49:18.151,0.39701518,0.76875716,0.0,0.41387573,0.32122603,0.7839236,0.0,0.45219535,0.39336756,0.5558771,0.0,0.48022887,0.6126604,0.56998676,0.0,0.49511513,0.14227644,-0.010259383,0.0,0.068758436,793.7729,803.8461,893.69965,807.0696,757.9121,0.02685546875,-0.02532958984375,0.98748779296875,1.996307373046875,-3.222503662109375,0.11962890625,1.0,1.0,1.0,4.0,1.0,85.0,event
11:49:18.151,0.39701518,0.76875716,0.0,0.41387573,0.32122603,0.7839236,0.0,0.45219535,0.39336756,0.5558771,0.0,0.48022887,0.6126604,0.56998676,0.0,0.49511513,0.14227644,-0.010259383,0.0,0.068758436,909.81683,772.4176,523.4066,814.3223,990.80585,0.02685546875,-0.02532958984375,0.98748779296875,1.996307373046875,-3.222503662109375,0.11962890625,1.0,1.0,1.0,4.0,1.0,85.0,event
11:49:18.152,0.39701518,0.76875716,0.0,0.41387573,0.32122603,0.7839236,0.0,0.45219535,0.39336756,0.5558771,0.0,0.48022887,0.6126604,0.56998676,0.0,0.49511513,0.14227644,-0.010259383,0.0,0.068758436,879.59705,796.5934,558.86444,798.60803,876.77655,0.02685546875,-0.02532958984375,0.98748779296875,1.996307373046875,-3.222503662109375,0.11962890625,1.0,1.0,1.0,4.0,1.0,85.0,event
11:49:18.152,0.39701518,0.76875716,0.0,0.41387573,0.32122603,0.7839236,0.0,0.45219535,0.39336756,0.5558771,0.0,0.48022887,0.6126604,0.56998676,0.0,0.49511513,0.14227644,-0.010259383,0.0,0.068758436,739.3773,800.2198,996.4469,775.2381,682.96704,0.02685546875,-0.02532958984375,0.98748779296875,1.996307373046875,-3.222503662109375,0.11962890625,1.0,1.0,1.0,4.0,1.0,85.0,event
11:49:18.153,0.39701518,0.76875716,0.0,0.41387573,0.32122603,0.7839236,0.0,0.45219535,0.39336756,0.5558771,0.0,0.48022887,0.6126604,0.56998676,0.0,0.49511513,0.14227644,-0.010259383,0.0,0.068758436,670.4762,767.98535,961.39197,768.3883,776.8498,0.02685546875,-0.02532958984375,0.98748779296875,1.996307373046875,-3.222503662109375,0.11962890625,1.0,1.0,1.0,2.0,1.0,85.0,event
11:49:18.207,0.39701518,0.76875716,0.0,0.41387573,0.32122603,0.7839236,0.0,0.45219535,0.39336756,0.5558771,0.0,0.48022887,0.6126604,0.56998676,0.0,0.49511513,0.14227644,-0.010259383,0.0,0.068758436,767.98535,761.9414,978.315,787.72894,812.3077,0.02685546875,-0.02532958984375,0.98748779296875,1.996307373046875,-3.222503662109375,0.11962890625,1.0,1.0,1.0,2.0,1.0,85.0,event
11:49:18.208,0.39701518,0.76875716,0.0,0.41387573,0.32122603,0.7839236,0.0,0.45219535,0.39336756,0.5558771,0.0,0.48022887,0.6126604,0.56998676,0.0,0.49511513,0.14227644,-0.010259383,0.0,0.068758436,904.17584,740.989,1078.6447,802.6374,772.01465,0.02685546875,-0.02532958984375,0.98748779296875,1.996307373046875,-3.222503662109375,0.11962890625,1.0,1.0,1.0,2.0,1.0,85.0,event
11:49:18.209,0.39701518,0.76875716,0.0,0.41387573,0.32122603,0.7839236,0.0,0.45219535,0.39336756,0.5558771,0.0,0.48022887,0.6126604,0.56998676,0.0,0.49511513,0.14227644,-0.010259383,0.0,0.068758436,884.83514,707.9487,886.8498,788.93774,779.2674,0.02685546875,-0.02532958984375,0.98748779296875,1.996307373046875,-3.222503662109375,0.11962890625,1.0,1.0,1.0,2.0,1.0,85.0,event
11:49:18.209,0.39701518,0.76875716,0.0,0.41387573,0.32122603,0.7839236,0.0,0.45219535,0.39336756,0.5558771,0.0,0.48022887,0.6126604,0.56998676,0.0,0.49511513,0.14227644,-0.010259383,0.0,0.068758436,724.4689,653.95605,612.4542,755.09155,799.011,0.02685546875,-0.02532958984375,0.98748779296875,1.996307373046875,-3.222503662109375,0.11962890625,1.0,1.0,1.0,2.0,1.0,85.0,event
11:49:18.210,0.39701518,0.76875716,0.0,0.41387573,0.32122603,0.7839236,0.0,0.45219535,0.39336756,0.5558771,0.0,0.48022887,0.6126604,0.56998676,0.0,0.49511513,0.14227644,-0.010259383,0.0,0.068758436,637.03296,595.12823,630.989,743.8095,788.5348,0.02685546875,-0.02532958984375,0.98748779296875,1.996307373046875,-3.222503662109375,0.11962890625,1.0,1.0,1.0,2.0,1.0,85.0,event
11:49:18.211,0.39701518,0.76875716,0.0,0.41387573,0.32122603,0.7839236,0.0,0.45219535,0.39336756,0.5558771,0.0,0.48022887,0.6126604,0.56998676,0.0,0.49511513,0.14227644,-0.010259383,0.0,0.068758436,720.4396,551.6117,774.43225,761.13556,795.38464,0.02685546875,-0.02532958984375,0.98748779296875,1.996307373046875,-3.222503662109375,0.11962890625,1.0,1.0,1.0,2.0,1.0,85.0,event
11:49:18.212,0.39701518,0.76875716,0.0,0.41387573,0.32122603,0.7839236,0.0,0.45219535,0.39336756,0.5558771,0.0,0.48022887,0.6126604,0.56998676,0.0,0.49511513,0.14227644,-0.010259383,0.0,0.068758436,836.8865,495.6044,864.68866,748.6447,793.36993,0.02685546875,-0.02532958984375,0.98748779296875,1.996307373046875,-3.222503662109375,0.11962890625,1.0,1.0,1.0,2.0,1.0,85.0,event
11:49:18.212,0.39701518,0.76875716,0.0,0.41387573,0.32122603,0.7839236,0.0,0.45219535,0.39336756,0.5558771,0.0,0.48022887,0.6126604,0.56998676,0.0,0.49511513,0.14227644,-0.010259383,0.0,0.068758436,814.7253,396.0806,726.8865,723.663,907.8022,0.02685546875,-0.02532958984375,0.98748779296875,1.996307373046875,-3.222503662109375,0.11962890625,1.0,1.0,1.0,2.0,1.0,85.0,event
11:49:18.213,0.39701518,0.76875716,0.0,0.41387573,0.32122603,0.7839236,0.0,0.45219535,0.39336756,0.5558771,0.0,0.48022887,0.6126604,0.56998676,0.0,0.49511513,0.14227644,-0.010259383,0.0,0.068758436,664.0293,332.41757,350.1465,696.6667,1058.4982,0.02685546875,-0.02532958984375,0.98748779296875,1.996307373046875,-3.222503662109375,0.11962890625,1.0,1.0,1.0,2.0,1.0,85.0,event
11:49:18.214,0.39701518,0.76875716,0.0,0.41387573,0.32122603,0.7839236,0.0,0.45219535,0.39336756,0.5558771,0.0,0.48022887,0.6126604,0.56998676,0.0,0.49511513,0.14227644,-0.010259383,0.0,0.068758436,568.5348,350.54944,771.6117,663.6264,888.86444,0.02685546875,-0.02532958984375,0.98748779296875,1.996307373046875,-3.222503662109375,0.11962890625,1.0,1.0,1.0,2.0,1.0,85.0,event
11:49:18.214,0.39701518,0.76875716,0.0,0.41387573,0.32122603,0.7839236,0.0,0.45219535,0.39336756,0.5558771,0.0,0.48022887,0.6126604,0.56998676,0.0,0.49511513,0.14227644,-0.010259383,0.0,0.068758436,611.6484,342.49084,1146.337,653.1502,737.76556,0.02685546875,-0.02532958984375,0.98748779296875,1.996307373046875,-3.222503662109375,0.11962890625,1.0,1.0,1.0,2.0,1.0,85.0,event
11:49:18.215,0.39701518,0.76875716,0.0,0.41387573,0.32122603,0.7839236,0.0,0.45219535,0.39336756,0.5558771,0.0,0.48022887,0.6126604,0.56998676,0.0,0.49511513,0.14227644,-0.010259383,0.0,0.068758436,722.0513,348.93774,896.52014,653.95605,809.0842,0.02685546875,-0.02532958984375,0.98748779296875,1.996307373046875,-3.222503662109375,0.11962890625,1.0,1.0,1.0,2.0,1.0,85.0,event
11:49:18.240,0.39701518,0.76875716,0.0,0.41387573,0.32122603,0.7839236,0.0,0.45219535,0.39336756,0.5558771,0.0,0.48022887,0.6126604,0.56998676,0.0,0.49511513,0.14227644,-0.010259383,0.0,0.068758436,709.9634,398.09525,939.2308,607.619,799.81683,0.0216064453125,-0.02984619140625,0.98797607421875,2.1832275390625,-2.863616943359375,1.084136962890625,1.0,1.0,1.0,2.0,1.0,85.0,event
11:49:18.241,0.39701518,0.76875716,0.0,0.41387573,0.32122603,0.7839236,0.0,0.45219535,0.39336756,0.5558771,0.0,0.48022887,0.6126604,0.56998676,0.0,0.49511513,0.14227644,-0.010259383,0.0,0.068758436,554.83514,453.69965,1070.1831,547.1795,705.12823,0.0216064453125,-0.02984619140625,0.98797607421875,2.1832275390625,-2.863616943359375,1.084136962890625,1.0,1.0,1.0,2.0,1.0,85.0,event
11:49:18.241,0.39701518,0.76875716,0.0,0.41387573,0.32122603,0.7839236,0.0,0.45219535,0.39336756,0.5558771,0.0,0.48022887,0.6126604,0.56998676,0.0,0.49511513,0.14227644,-0.010259383,0.0,0.068758436,432.74725,498.02197,955.34796,521.79486,720.0366,0.0216064453125,-0.02984619140625,0.98797607421875,2.1832275390625,-2.863616943359375,1.084136962890625,1.0,1.0,1.0,2.0,1.0,85.0,event
11:49:18.242,0.39701518,0.76875716,0.0,0.41387573,0.32122603,0.7839236,0.0,0.45219535,0.39336756,0.5558771,0.0,0.48022887,0.6126604,0.56998676,0.0,0.49511513,0.14227644,-0.010259383,0.0,0.068758436,458.93774,550.0,831.2454,530.2564,763.95605,0.0216064453125,-0.02984619140625,0.98797607421875,2.1832275390625,-2.863616943359375,1.084136962890625,1.0,1.0,1.0,2.0,1.0,85.0,event
11:49:18.243,0.39701518,0.76875716,0.0,0.41387573,0.32122603,0.7839236,0.0,0.45219535,0.39336756,0.5558771,0.0,0.48022887,0.6126604,0.56998676,0.0,0.49511513,0.14227644,-0.010259383,0.0,0.068758436,603.9927,614.0659,922.71063,552.01465,708.7546,0.0216064453125,-0.02984619140625,0.98797607421875,2.1832275390625,-2.863616943359375,1.084136962890625,1.0,1.0,1.0,2.0,1.0,85.0,event
11:49:18.244,0.39701518,0.76875716,0.0,0.41387573,0.32122603,0.7839236,0.0,0.45219535,0.39336756,0.5558771,0.0,0.48022887,0.6126604,0.56998676,0.0,0.49511513,0.14227644,-0.010259383,0.0,0.068758436,649.5238,647.1062,884.83514,545.9707,739.3773,0.0216064453125,-0.02984619140625,0.98797607421875,2.1832275390625,-2.863616943359375,1.084136962890625,1.0,1.0,1.0,2.0,1.0,85.0,event
11:49:18.244,0.39701518,0.76875716,0.0,0.41387573,0.32122603,0.7839236,0.0,0.45219535,0.39336756,0.5558771,0.0,0.48022887,0.6126604,0.56998676,0.0,0.49511513,0.14227644,-0.010259383,0.0,0.068758436,531.06226,669.2674,603.5897,525.42126,802.23444,0.0216064453125,-0.02984619140625,0.98797607421875,2.1832275390625,-2.863616943359375,1.084136962890625,1.0,1.0,1.0,2.0,1.0,85.0,event
11:49:18.245,0.39701518,0.76875716,0.0,0.41387573,0.32122603,0.7839236,0.0,0.45219535,0.39336756,0.5558771,0.0,0.48022887,0.6126604,0.56998676,0.0,0.49511513,0.14227644,-0.010259383,0.0,0.068758436,430.7326,705.9341,432.74725,525.0183,906.99634,0.0216064453125,-0.02984619140625,0.98797607421875,2.1832275390625,-2.863616943359375,1.084136962890625,1.0,1.0,1.0,2.0,1.0,85.0,event
11:49:18.246,0.39701518,0.76875716,0.0,0.41387573,0.32122603,0.7839236,0.0,0.45219535,0.39336756,0.5558771,0.0,0.48022887,0.6126604,0.56998676,0.0,0.49511513,0.14227644,-0.010259383,0.0,0.068758436,625.34796,790.9524,1139.4872,572.1612,713.9927,0.0216064453125,-0.02984619140625,0.98797607421875,2.1832275390625,-2.863616943359375,1.084136962890625,1.0,1.0,1.0,2.0,1.0,85.0,event
11:49:18.246,0.39701518,0.76875716,0.0,0.41387573,0.32122603,0.7839236,0.0,0.45219535,0.39336756,0.5558771,0.0,0.48022887,0.6126604,0.56998676,0.0,0.49511513,0.14227644,-0.010259383,0.0,0.068758436,481.90475,756.7033,817.9487,542.74725,850.989,0.0216064453125,-0.02984619140625,0.98797607421875,2.1832275390625,-2.863616943359375,1.084136962890625,1.0,1.0,1.0,2.0,1.0,85.0,event
11:49:18.247,0.39701518,0.76875716,0.0,0.41387573,0.32122603,0.7839236,0.0,0.45219535,0.39336756,0.5558771,0.0,0.48022887,0.6126604,0.56998676,0.0,0.49511513,0.14227644,-0.010259383,0.0,0.068758436,703.1135,787.72894,948.0952,595.9341,705.12823,0.0216064453125,-0.02984619140625,0.98797607421875,2.1832275390625,-2.863616943359375,1.084136962890625,1.0,1.0,1.0,2.0,1.0,85.0,event
11:49:18.248,0.39701518,0.76875716,0.0,0.41387573,0.32122603,0.7839236,0.0,0.45219535,0.39336756,0.5558771,0.0,0.48022887,0.6126604,0.56998676,0.0,0.49511513,0.14227644,-0.010259383,0.0,0.068758436,605.6044,765.56775,317.91208,598.3516,981.9414,0.0216064453125,-0.02984619140625,0.98797607421875,2.1832275390625,-2.863616943359375,1.084136962890625,1.0,1.0,1.0,2.0,1.0,85.0,event
11:49:18.310,0.39701518,0.76875716,0.0,0.41387573,0.32122603,0.7839236,0.0,0.45219535,0.39336756,0.5558771,0.0,0.48022887,0.6126604,0.56998676,0.0,0.49511513,0.14227644,-0.010259383,0.0,0.068758436,503.26007,813.91943,500.8425,597.5458,954.5421,0.029052734375,-0.033935546875,0.985107421875,2.6019287109375,-3.18511962890625,-0.007476806640625,1.0,1.0,1.0,2.0,1.0,85.0,event
11:49:18.312,0.39701518,0.76875716,0.0,0.41387573,0.32122603,0.7839236,0.0,0.45219535,0.39336756,0.5558771,0.0,0.48022887,0.6126604,0.56998676,0.0,0.49511513,0.14227644,-0.010259383,0.0,0.068758436,551.2088,825.6044,1014.9817,620.9158,661.2088,0.029052734375,-0.033935546875,0.985107421875,2.6019287109375,-3.18511962890625,-0.007476806640625,1.0,1.0,1.0,4.0,1.0,85.0,event
11:49:18.316,0.39701518,0.76875716,0.0,0.41387573,0.32122603,0.7839236,0.0,0.45219535,0.39336756,0.5558771,0.0,0.48022887,0.6126604,0.56998676,0.0,0.49511513,0.14227644,-0.010259383,0.0,0.068758436,697.0696,799.011,910.6227,664.43225,668.46155,0.029052734375,-0.033935546875,0.985107421875,2.6019287109375,-3.18511962890625,-0.007476806640625,1.0,1.0,1.0,4.0,1.0,85.0,event
11:49:18.317,0.39701518,0.76875716,0.0,0.41387573,0.32122603,0.7839236,0.0,0.45219535,0.39336756,0.5558771,0.0,0.48022887,0.6126604,0.56998676,0.0,0.49511513,0.14227644,-0.010259383,0.0,0.068758436,818.7546,814.7253,923.1135,697.0696,740.989,0.029052734375,-0.033935546875,0.985107421875,2.6019287109375,-3.18511962890625,-0.007476806640625,1.0,1.0,1.0,4.0,1.0,85.0,event
11:49:18.319,0.39701518,0.76875716,0.0,0.41387573,0.32122603,0.7839236,0.0,0.45219535,0.39336756,0.5558771,0.0,0.48022887,0.6126604,0.56998676,0.0,0.49511513,0.14227644,-0.010259383,0.0,0.068758436,759.12085,815.12823,972.27106,711.1722,731.31866,0.029052734375,-0.033935546875,0.985107421875,2.6019287109375,-3.18511962890625,-0.007476806640625,1.0,1.0,1.0,4.0,1.0,85.0,event
11:49:18.320,0.39701518,0.76875716,0.0,0.41387573,0.32122603,0.7839236,0.0,0.45219535,0.39336756,0.5558771,0.0,0.48022887,0.6126604,0.56998676,0.0,0.49511513,0.14227644,-0.010259383,0.0,0.068758436,635.42126,793.7729,785.31134,718.8278,775.64105,0.029052734375,-0.033935546875,0.985107421875,2.6019287109375,-3.18511962890625,-0.007476806640625,1.0,1.0,1.0,4.0,1.0,85.0,event
11:49:18.321,0.39701518,0.76875716,0.0,0.41387573,0.32122603,0.7839236,0.0,0.45219535,0.39336756,0.5558771,0.0,0.48022887,0.6126604,0.56998676,0.0,0.49511513,0.14227644,-0.010259383,0.0,0.068758436,644.68866,781.685,545.56775,744.61536,892.0879,0.029052734375,-0.033935546875,0.985107421875,2.6019287109375,-3.18511962890625,-0.007476806640625,1.0,1.0,1.0,4.0,1.0,85.0,event
11:49:18.323,0.39701518,0.76875716,0.0,0.41387573,0.32122603,0.7839236,0.0,0.45219535,0.39336756,0.5558771,0.0,0.48022887,0.6126604,0.56998676,0.0,0.49511513,0.14227644,-0.010259383,0.0,0.068758436,783.2967,779.2674,344.90842,791.75824,993.22345,0.029052734375,-0.033935546875,0.985107421875,2.6019287109375,-3.18511962890625,-0.007476806640625,1.0,1.0,1.0,4.0,1.0,85.0,event
11:49:18.324,0.39701518,0.76875716,0.0,0.41387573,0.32122603,0.7839236,0.0,0.45219535,0.39336756,0.5558771,0.0,0.48022887,0.6126604,0.56998676,0.0,0.49511513,0.14227644,-0.010259383,0.0,0.068758436,924.3223,803.0403,735.7509,819.5604,832.0513,0.029052734375,-0.033935546875,0.985107421875,2.6019287109375,-3.18511962890625,-0.007476806640625,1.0,1.0,1.0,4.0,1.0,85.0,event
11:49:18.324,0.39701518,0.76875716,0.0,0.41387573,0.32122603,0.7839236,0.0,0.45219535,0.39336756,0.5558771,0.0,0.48022887,0.6126604,0.56998676,0.0,0.49511513,0.14227644,-0.010259383,0.0,0.068758436,870.7326,799.81683,956.1539,817.5458,720.0366,0.029052734375,-0.033935546875,0.985107421875,2.6019287109375,-3.18511962890625,-0.007476806640625,1.0,1.0,1.0,4.0,1.0,85.0,event
11:49:18.325,0.39701518,0.76875716,0.0,0.41387573,0.32122603,0.7839236,0.0,0.45219535,0.39336756,0.5558771,0.0,0.48022887,0.6126604,0.56998676,0.0,0.49511513,0.14227644,-0.010259383,0.0,0.068758436,737.3626,772.8205,674.5055,817.9487,806.6667,0.029052734375,-0.033935546875,0.985107421875,2.6019287109375,-3.18511962890625,-0.007476806640625,1.0,1.0,1.0,4.0,1.0,85.0,event
11:49:18.326,0.39701518,0.76875716,0.0,0.41387573,0.32122603,0.7839236,0.0,0.45219535,0.39336756,0.5558771,0.0,0.48022887,0.6126604,0.56998676,0.0,0.49511513,0.14227644,-0.010259383,0.0,0.068758436,738.1685,781.28204,731.7216,842.9304,762.3443,0.029052734375,-0.033935546875,0.985107421875,2.6019287109375,-3.18511962890625,-0.007476806640625,1.0,1.0,1.0,4.0,1.0,85.0,event
11:49:18.372,0.39701518,0.76875716,0.0,0.41387573,0.32122603,0.7839236,0.0,0.45219535,0.39336756,0.5558771,0.0,0.48022887,0.6126604,0.56998676,0.0,0.49511513,0.14227644,-0.010259383,0.0,0.068758436,864.2857,793.36993,1075.0183,867.1062,649.5238,0.0343017578125,-0.02435302734375,0.98699951171875,2.953338623046875,-3.476715087890625,0.82244873046875,1.0,1.0,1.0,4.0,1.0,85.0,event
11:49:18.373,0.39701518,0.76875716,0.0,0.41387573,0.32122603,0.7839236,0.0,0.45219535,0.39336756,0.5558771,0.0,0.48022887,0.6126604,0.56998676,0.0,0.49511513,0.14227644,-0.010259383,0.0,0.068758436,987.5824,782.49084,1091.5385,884.43225,730.9158,0.0343017578125,-0.02435302734375,0.98699951171875,2.953338623046875,-3.476715087890625,0.82244873046875,1.0,1.0,1.0,4.0,1.0,85.0,event
11:49:18.374,0.39701518,0.76875716,0.0,0.41387573,0.32122603,0.7839236,0.0,0.45219535,0.39336756,0.5558771,0.0,0.48022887,0.6126604,0.56998676,0.0,0.49511513,0.14227644,-0.010259383,0.0,0.068758436,944.87177,769.19415,871.9414,888.0586,844.1392,0.0343017578125,-0.02435302734375,0.98699951171875,2.953338623046875,-3.476715087890625,0.82244873046875,1.0,1.0,1.0,4.0,1.0,85.0,event
11:49:18.374,0.39701518,0.76875716,0.0,0.41387573,0.32122603,0.7839236,0.0,0.45219535,0.39336756,0.5558771,0.0,0.48022887,0.6126604,0.56998676,0.0,0.49511513,0.14227644,-0.010259383,0.0,0.068758436,807.8755,780.87915,864.68866,877.1795,770.80585,0.0343017578125,-0.02435302734375,0.98699951171875,2.953338623046875,-3.476715087890625,0.82244873046875,1.0,1.0,1.0,4.0,1.0,85.0,event
11:49:18.375,0.39701518,0.76875716,0.0,0.41387573,0.32122603,0.7839236,0.0,0.45219535,0.39336756,0.5558771,0.0,0.48022887,0.6126604,0.56998676,0.0,0.49511513,0.14227644,-0.010259383,0.0,0.068758436,769.59705,795.38464,988.3883,884.0293,657.1795,0.0343017578125,-0.02435302734375,0.98699951171875,2.953338623046875,-3.476715087890625,0.82244873046875,1.0,1.0,1.0,4.0,1.0,85.0,event
11:49:18.375,0.39701518,0.76875716,0.0,0.41387573,0.32122603,0.7839236,0.0,0.45219535,0.39336756,0.5558771,0.0,0.48022887,0.6126604,0.56998676,0.0,0.49511513,0.14227644,-0.010259383,0.0,0.068758436,867.9121,782.49084,868.315,910.2198,783.2967,0.0343017578125,-0.02435302734375,0.98699951171875,2.953338623046875,-3.476715087890625,0.82244873046875,1.0,1.0,1.0,4.0,1.0,85.0,event
11:49:18.376,0.39701518,0.76875716,0.0,0.41387573,0.32122603,0.7839236,0.0,0.45219535,0.39336756,0.5558771,0.0,0.48022887,0.6126604,0.56998676,0.0,0.49511513,0.14227644,-0.010259383,0.0,0.068758436,998.86444,775.64105,461.75824,930.3663,1086.7032,0.0343017578125,-0.02435302734375,0.98699951171875,2.953338623046875,-3.476715087890625,0.82244873046875,1.0,1.0,1.0,4.0,1.0,85.0,event
11:49:18.376,0.39701518,0.76875716,0.0,0.41387573,0.32122603,0.7839236,0.0,0.45219535,0.39336756,0.5558771,0.0,0.48022887,0.6126604,0.56998676,0.0,0.49511513,0.14227644,-0.010259383,0.0,0.068758436,992.8205,817.9487,644.68866,924.7253,944.4689,0.0343017578125,-0.02435302734375,0.98699951171875,2.953338623046875,-3.476715087890625,0.82244873046875,1.0,1.0,1.0,4.0,1.0,85.0,event
11:49:18.377,0.39701518,0.76875716,0.0,0.41387573,0.32122603,0.7839236,0.0,0.45219535,0.39336756,0.5558771,0.0,0.48022887,0.6126604,0.56998676,0.0,0.49511513,0.14227644,-0.010259383,0.0,0.068758436,865.89746,844.1392,988.3883,906.99634,674.90845,0.0343017578125,-0.02435302734375,0.98699951171875,2.953338623046875,-3.476715087890625,0.82244873046875,1.0,1.0,1.0,4.0,1.0,85.0,event
11:49:18.377,0.39701518,0.76875716,0.0,0.41387573,0.32122603,0.7839236,0.0,0.45219535,0.39336756,0.5558771,0.0,0.48022887,0.6126604,0.56998676,0.0,0.49511513,0.14227644,-0.010259383,0.0,0.068758436,789.7436,840.5128,859.45056,902.96704,682.96704,0.0343017578125,-0.02435302734375,0.98699951171875,2.953338623046875,-3.476715087890625,0.82244873046875,1.0,1.0,1.0,4.0,1.0,85.0,event
11:49:18.378,0.39701518,0.76875716,0.0,0.41387573,0.32122603,0.7839236,0.0,0.45219535,0.39336756,0.5558771,0.0,0.48022887,0.6126604,0.56998676,0.0,0.49511513,0.14227644,-0.010259383,0.0,0.068758436,1021.02563,860.65936,848.97437,931.1722,720.0366,0.0343017578125,-0.02435302734375,0.98699951171875,2.953338623046875,-3.476715087890625,0.82244873046875,1.0,1.0,1.0,4.0,1.0,85.0,event
11:49:18.378,0.39701518,0.76875716,0.0,0.41387573,0.32122603,0.7839236,0.0,0.45219535,0.39336756,0.5558771,0.0,0.48022887,0.6126604,0.56998676,0.0,0.49511513,0.14227644,-0.010259383,0.0,0.068758436,875.16486,849.7802,761.53845,921.9048,678.93774,0.0343017578125,-0.02435302734375,0.98699951171875,2.953338623046875,-3.476715087890625,0.82244873046875,1.0,1.0,1.0,4.0,1.0,85.0,event
11:49:18.422,0.39701518,0.76875716,0.0,0.41387573,0.32122603,0.7839236,0.0,0.45219535,0.39336756,0.5558771,0.0,0.48022887,0.6126604,0.56998676,0.0,0.49511513,0.14227644,-0.010259383,0.0,0.068758436,1011.75824,868.71796,930.7692,914.2491,809.4872,0.02740478515625,-0.02667236328125,0.9862060546875,3.00567626953125,-2.295379638671875,0.725250244140625,1.0,1.0,1.0,4.0,1.0,85.0,event
11:49:18.423,0.39701518,0.76875716,0.0,0.41387573,0.32122603,0.7839236,0.0,0.45219535,0.39336756,0.5558771,0.0,0.48022887,0.6126604,0.56998676,0.0,0.49511513,0.14227644,-0.010259383,0.0,0.068758436,870.7326,873.1502,830.0366,896.52014,821.1722,0.02740478515625,-0.02667236328125,0.9862060546875,3.00567626953125,-2.295379638671875,0.725250244140625,1.0,1.0,1.0,4.0,1.0,85.0,event
11:49:18.424,0.39701518,0.76875716,0.0,0.41387573,0.32122603,0.7839236,0.0,0.45219535,0.39336756,0.5558771,0.0,0.48022887,0.6126604,0.56998676,0.0,0.49511513,0.14227644,-0.010259383,0.0,0.068758436,784.5055,882.8205,659.59705,897.72894,850.989,0.02740478515625,-0.02667236328125,0.9862060546875,3.00567626953125,-2.295379638671875,0.725250244140625,1.0,1.0,1.0,4.0,1.0,85.0,event
11:49:18.425,0.39701518,0.76875716,0.0,0.41387573,0.32122603,0.7839236,0.0,0.45219535,0.39336756,0.5558771,0.0,0.48022887,0.6126604,0.56998676,0.0,0.49511513,0.14227644,-0.010259383,0.0,0.068758436,855.0183,901.75824,909.81683,919.4872,744.61536,0.02740478515625,-0.02667236328125,0.9862060546875,3.00567626953125,-2.295379638671875,0.725250244140625,1.0,1.0,1.0,2.0,1.0,85.0,event
11:49:18.430,0.39701518,0.76875716,0.0,0.41387573,0.32122603,0.7839236,0.0,0.45219535,0.39336756,0.5558771,0.0,0.48022887,0.6126604,0.56998676,0.0,0.49511513,0.14227644,-0.010259383,0.0,0.068758436,991.2088,906.1905,1093.1501,933.5897,720.0366,0.02740478515625,-0.02667236328125,0.9862060546875,3.00567626953125,-2.295379638671875,0.725250244140625,1.0,1.0,1.0,2.0,1.0,85.0,event
11:49:18.431,0.39701518,0.76875716,0.0,0.41387573,0.32122603,0.7839236,0.0,0.45219535,0.39336756,0.5558771,0.0,0.48022887,0.6126604,0.56998676,0.0,0.49511513,0.14227644,-0.010259383,0.0,0.068758436,1001.685,892.0879,756.30035,920.293,909.81683,0.02740478515625,-0.02667236328125,0.9862060546875,3.00567626953125,-2.295379638671875,0.725250244140625,1.0,1.0,1.0,2.0,1.0,85.0,event
11:49:18.431,0.39701518,0.76875716,0.0,0.41387573,0.32122603,0.7839236,0.0,0.45219535,0.39336756,0.5558771,0.0,0.48022887,0.6126604,0.56998676,0.0,0.49511513,0.14227644,-0.010259383,0.0,0.068758436,867.1062,908.60803,350.1465,901.3553,970.2564,0.02740478515625,-0.02667236328125,0.9862060546875,3.00567626953125,-2.295379638671875,0.725250244140625,1.0,1.0,1.0,2.0,1.0,85.0,event
11:49:18.432,0.39701518,0.76875716,0.0,0.41387573,0.32122603,0.7839236,0.0,0.45219535,0.39336756,0.5558771,0.0,0.48022887,0.6126604,0.56998676,0.0,0.49511513,0.14227644,-0.010259383,0.0,0.068758436,779.67035,949.304,736.9597,893.69965,780.4762,0.02740478515625,-0.02667236328125,0.9862060546875,3.00567626953125,-2.295379638671875,0.725250244140625,1.0,1.0,1.0,2.0,1.0,85.0,event
11:49:18.433,0.39701518,0.76875716,0.0,0.41387573,0.32122603,0.7839236,0.0,0.45219535,0.39336756,0.5558771,0.0,0.48022887,0.6126604,0.56998676,0.0,0.49511513,0.14227644,-0.010259383,0.0,0.068758436,839.707,949.707,1050.8425,900.14655,692.6374,0.02740478515625,-0.02667236328125,0.9862060546875,3.00567626953125,-2.295379638671875,0.725250244140625,1.0,1.0,1.0,2.0,1.0,85.0,event
11:49:18.434,0.39701518,0.76875716,0.0,0.41387573,0.32122603,0.7839236,0.0,0.45219535,0.39336756,0.5558771,0.0,0.48022887,0.6126604,0.56998676,0.0,0.49511513,0.14227644,-0.010259383,0.0,0.068758436,976.30035,935.2015,832.0513,910.2198,856.63007,0.02740478515625,-0.02667236328125,0.9862060546875,3.00567626953125,-2.295379638671875,0.725250244140625,1.0,1.0,1.0,2.0,1.0,85.0,event
11:49:18.434,0.39701518,0.76875716,0.0,0.41387573,0.32122603,0.7839236,0.0,0.45219535,0.39336756,0.5558771,0.0,0.48022887,0.6126604,0.56998676,0.0,0.49511513,0.14227644,-0.010259383,0.0,0.068758436,1013.36993,953.73627,836.8865,904.57874,897.72894,0.02740478515625,-0.02667236328125,0.9862060546875,3.00567626953125,-2.295379638671875,0.725250244140625,1.0,1.0,1.0,2.0,1.0,85.0,event
11:49:18.435,0.39701518,0.76875716,0.0,0.41387573,0.32122603,0.7839236,0.0,0.45219535,0.39336756,0.5558771,0.0,0.48022887,0.6126604,0.56998676,0.0,0.49511513,0.14227644,-0.010259383,0.0,0.068758436,886.4469,971.4652,1003.2967,880.0,751.4652,0.02740478515625,-0.02667236328125,0.9862060546875,3.00567626953125,-2.295379638671875,0.725250244140625,1.0,1.0,1.0,2.0,1.0,85.0,event
11:49:18.481,0.39701518,0.76875716,0.0,0.41387573,0.32122603,0.7839236,0.0,0.45219535,0.39336756,0.5558771,0.0,0.48022887,0.6126604,0.56998676,0.0,0.49511513,0.14227644,-0.010259383,0.0,0.068758436,772.8205,964.61536,931.1722,876.77655,751.8681,0.02740478515625,-0.02667236328125,0.9862060546875,3.00567626953125,-2.295379638671875,0.725250244140625,1.0,1.0,1.0,2.0,1.0,85.0,event
11:49:18.482,0.39701518,0.76875716,0.0,0.41387573,0.32122603,0.7839236,0.0,0.45219535,0.39336756,0.5558771,0.0,0.48022887,0.6126604,0.56998676,0.0,0.49511513,0.14227644,-0.010259383,0.0,0.068758436,805.8608,966.2271,790.54944,894.90845,790.9524,0.02740478515625,-0.02667236328125,0.9862060546875,3.00567626953125,-2.295379638671875,0.725250244140625,1.0,1.0,1.0,2.0,1.0,85.0,event
11:49:18.483,0.39701518,0.76875716,0.0,0.41387573,0.32122603,0.7839236,0.0,0.45219535,0.39336756,0.5558771,0.0,0.48022887,0.6126604,0.56998676,0.0,0.49511513,0.14227644,-0.010259383,0.0,0.068758436,943.2601,976.30035,853.8095,903.36993,838.0952,0.02740478515625,-0.02667236328125,0.9862060546875,3.00567626953125,-2.295379638671875,0.725250244140625,1.0,1.0,1.0,2.0,1.0,85.0,event
11:49:18.484,0.39701518,0.76875716,0.0,0.41387573,0.32122603,0.7839236,0.0,0.45219535,0.39336756,0.5558771,0.0,0.48022887,0.6126604,0.56998676,0.0,0.49511513,0.14227644,-0.010259383,0.0,0.068758436,1018.60803,983.95605,858.6447,906.99634,908.60803,0.02740478515625,-0.02667236328125,0.9862060546875,3.00567626953125,-2.295379638671875,0.725250244140625,1.0,1.0,1.0,2.0,1.0,85.0,event
11:49:18.485,0.39701518,0.76875716,0.0,0.41387573,0.32122603,0.7839236,0.0,0.45219535,0.39336756,0.5558771,0.0,0.48022887,0.6126604,0.56998676,0.0,0.49511513,0.14227644,-0.010259383,0.0,0.068758436,903.7729,991.6117,861.4652,884.0293,809.89014,0.02740478515625,-0.02667236328125,0.9862060546875,3.00567626953125,-2.295379638671875,0.725250244140625,1.0,1.0,1.0,2.0,1.0,85.0,event
11:49:18.485,0.39701518,0.76875716,0.0,0.41387573,0.32122603,0.7839236,0.0,0.45219535,0.39336756,0.5558771,0.0,0.48022887,0.6126604,0.56998676,0.0,0.49511513,0.14227644,-0.010259383,0.0,0.068758436,756.30035,959.7802,334.83517,874.7619,952.1245,0.02740478515625,-0.02667236328125,0.9862060546875,3.00567626953125,-2.295379638671875,0.725250244140625,1.0,1.0,1.0,2.0,1.0,85.0,event
11:49:18.486,0.39701518,0.76875716,0.0,0.41387573,0.32122603,0.7839236,0.0,0.45219535,0.39336756,0.5558771,0.0,0.48022887,0.6126604,0.56998676,0.0,0.49511513,0.14227644,-0.010259383,0.0,0.068758436,772.8205,984.7619,162.38095,886.4469,1052.0513,0.02740478515625,-0.02667236328125,0.9862060546875,3.00567626953125,-2.295379638671875,0.725250244140625,1.0,1.0,1.0,2.0,1.0,85.0,event
11:49:18.487,0.39701518,0.76875716,0.0,0.41387573,0.32122603,0.7839236,0.0,0.45219535,0.39336756,0.5558771,0.0,0.48022887,0.6126604,0.56998676,0.0,0.49511513,0.14227644,-0.010259383,0.0,0.068758436,919.4872,1023.0403,915.4579,892.49084,784.10254,0.02740478515625,-0.02667236328125,0.9862060546875,3.00567626953125,-2.295379638671875,0.725250244140625,1.0,1.0,1.0,2.0,1.0,85.0,event
11:49:18.487,0.39701518,0.76875716,0.0,0.41387573,0.32122603,0.7839236,0.0,0.45219535,0.39336756,0.5558771,0.0,0.48022887,0.6126604,0.56998676,0.0,0.49511513,0.14227644,-0.010259383,0.0,0.068758436,1007.326,991.2088,1012.5641,888.86444,732.52747,0.02740478515625,-0.02667236328125,0.9862060546875,3.00567626953125,-2.295379638671875,0.725250244140625,1.0,1.0,1.0,2.0,1.0,85.0,event
11:49:18.488,0.39701518,0.76875716,0.0,0.41387573,0.32122603,0.7839236,0.0,0.45219535,0.39336756,0.5558771,0.0,0.48022887,0.6126604,0.56998676,0.0,0.49511513,0.14227644,-0.010259383,0.0,0.068758436,895.7143,976.7033,547.5824,858.6447,794.17584,0.02740478515625,-0.02667236328125,0.9862060546875,3.00567626953125,-2.295379638671875,0.725250244140625,1.0,1.0,1.0,2.0,1.0,85.0,event
11:49:18.489,0.39701518,0.76875716,0.0,0.41387573,0.32122603,0.7839236,0.0,0.45219535,0.39336756,0.5558771,0.0,0.48022887,0.6126604,0.56998676,0.0,0.49511513,0.14227644,-0.010259383,0.0,0.068758436,760.32965,993.6264,1048.8279,857.8388,695.05493,0.02740478515625,-0.02667236328125,0.9862060546875,3.00567626953125,-2.295379638671875,0.725250244140625,1.0,1.0,1.0,2.0,1.0,85.0,event
11:49:18.489,0.39701518,0.76875716,0.0,0.41387573,0.32122603,0.7839236,0.0,0.45219535,0.39336756,0.5558771,0.0,0.48022887,0.6126604,0.56998676,0.0,0.49511513,0.14227644,-0.010259383,0.0,0.068758436,756.30035,1000.07324,732.9304,844.1392,672.0879,0.02740478515625,-0.02667236328125,0.9862060546875,3.00567626953125,-2.295379638671875,0.725250244140625,1.0,1.0,1.0,2.0,1.0,85.0,event
11:49:18.513,0.39701518,0.76875716,0.0,0.41387573,0.32122603,0.7839236,0.0,0.45219535,0.39336756,0.5558771,0.0,0.48022887,0.6126604,0.56998676,0.0,0.49511513,0.14227644,-0.010259383,0.0,0.068758436,874.35895,973.0769,948.49817,871.53845,760.7326,0.0250244140625,-0.01715087890625,0.98944091796875,3.3795166015625,-3.9776611328125,1.0467529296875,1.0,1.0,1.0,2.0,1.0,85.0,event
11:49:18.515,0.39701518,0.76875716,0.0,0.41387573,0.32122603,0.7839236,0.0,0.45219535,0.39336756,0.5558771,0.0,0.48022887,0.6126604,0.56998676,0.0,0.49511513,0.14227644,-0.010259383,0.0,0.068758436,980.32965,972.674,913.44324,876.77655,767.5824,0.0250244140625,-0.01715087890625,0.98944091796875,3.3795166015625,-3.9776611328125,1.0467529296875,1.0,1.0,1.0,2.0,1.0,85.0,event
11:49:18.515,0.39701518,0.76875716,0.0,0.41387573,0.32122603,0.7839236,0.0,0.45219535,0.39336756,0.5558771,0.0,0.48022887,0.6126604,0.56998676,0.0,0.49511513,0.14227644,-0.010259383,0.0,0.068758436,906.1905,979.92676,994.0293,855.42126,780.07324,0.0250244140625,-0.01715087890625,0.98944091796875,3.3795166015625,-3.9776611328125,1.0467529296875,1.0,1.0,1.0,2.0,1.0,85.0,event
11:49:18.516,0.39701518,0.76875716,0.0,0.41387573,0.32122603,0.7839236,0.0,0.45219535,0.39336756,0.5558771,0.0,0.48022887,0.6126604,0.56998676,0.0,0.49511513,0.14227644,-0.010259383,0.0,0.068758436,758.71796,970.65936,967.4359,835.2747,742.1978,0.0250244140625,-0.01715087890625,0.98944091796875,3.3795166015625,-3.9776611328125,1.0467529296875,1.0,1.0,1.0,2.0,1.0,85.0,event
11:49:18.517,0.39701518,0.76875716,0.0,0.41387573,0.32122603,0.7839236,0.0,0.45219535,0.39336756,0.5558771,0.0,0.48022887,0.6126604,0.56998676,0.0,0.49511513,0.14227644,-0.010259383,0.0,0.068758436,742.6007,952.1245,796.1905,840.9158,750.2564,0.0250244140625,-0.01715087890625,0.98944091796875,3.3795166015625,-3.9776611328125,1.0467529296875,1.0,1.0,1.0,2.0,1.0,85.0,event
11:49:18.517,0.39701518,0.76875716,0.0,0.41387573,0.32122603,0.7839236,0.0,0.45219535,0.39336756,0.5558771,0.0,0.48022887,0.6126604,0.56998676,0.0,0.49511513,0.14227644,-0.010259383,0.0,0.068758436,857.8388,949.707,643.47986,852.1978,860.65936,0.0250244140625,-0.01715087890625,0.98944091796875,3.3795166015625,-3.9776611328125,1.0467529296875,1.0,1.0,1.0,4.0,1.0,85.0,event
11:49:18.520,,,,,,,,,,,,,,,,,,,,,,,,,,,,,,,,,,,,,,blink
11:49:18.521,0.39701518,0.76875716,0.0,0.41387573,0.32122603,0.7839236,0.0,0.45219535,0.39336756,0.5558771,0.0,0.48022887,0.6126604,0.56998676,0.0,0.49511513,0.14227644,-0.010259383,0.0,0.068758436,969.45056,951.7216,719.2308,864.68866,904.9817,0.0250244140625,-0.01715087890625,0.98944091796875,3.3795166015625,-3.9776611328125,1.0467529296875,1.0,1.0,1.0,4.0,1.0,85.0,event
11:49:18.522,0.39701518,0.76875716,0.0,0.41387573,0.32122603,0.7839236,0.0,0.45219535,0.39336756,0.5558771,0.0,0.48022887,0.6126604,0.56998676,0.0,0.49511513,0.14227644,-0.010259383,0.0,0.068758436,915.4579,948.9011,706.7399,857.03296,815.12823,0.0250244140625,-0.01715087890625,0.98944091796875,3.3795166015625,-3.9776611328125,1.0467529296875,1.0,1.0,1.0,4.0,1.0,85.0,event
11:49:18.523,0.39701518,0.76875716,0.0,0.41387573,0.32122603,0.7839236,0.0,0.45219535,0.39336756,0.5558771,0.0,0.48022887,0.6126604,0.56998676,0.0,0.49511513,0.14227644,-0.010259383,0.0,0.068758436,714.3956,898.5348,74.94505,845.34796,1027.0696,0.0250244140625,-0.01715087890625,0.98944091796875,3.3795166015625,-3.9776611328125,1.0467529296875,1.0,1.0,1.0,4.0,1.0,85.0,event
11:49:18.523,0.39701518,0.76875716,0.0,0.41387573,0.32122603,0.7839236,0.0,0.45219535,0.39336756,0.5558771,0.0,0.48022887,0.6126604,0.56998676,0.0,0.49511513,0.14227644,-0.010259383,0.0,0.068758436,767.98535,925.9341,448.0586,841.31866,832.4542,0.0250244140625,-0.01715087890625,0.98944091796875,3.3795166015625,-3.9776611328125,1.0467529296875,1.0,1.0,1.0,4.0,1.0,85.0,event
11:49:18.524,0.39701518,0.76875716,0.0,0.41387573,0.32122603,0.7839236,0.0,0.45219535,0.39336756,0.5558771,0.0,0.48022887,0.6126604,0.56998676,0.0,0.49511513,0.14227644,-0.010259383,0.0,0.068758436,827.2161,931.978,648.71796,850.989,896.1172,0.0250244140625,-0.01715087890625,0.98944091796875,3.3795166015625,-3.9776611328125,1.0467529296875,1.0,1.0,1.0,4.0,1.0,85.0,event
11:49:18.525,0.39701518,0.76875716,0.0,0.41387573,0.32122603,0.7839236,0.0,0.45219535,0.39336756,0.5558771,0.0,0.48022887,0.6126604,0.56998676,0.0,0.49511513,0.14227644,-0.010259383,0.0,0.068758436,955.7509,927.5458,1147.5458,851.39197,779.67035,0.0250244140625,-0.01715087890625,0.98944091796875,3.3795166015625,-3.9776611328125,1.0467529296875,1.0,1.0,1.0,4.0,1.0,85.0,event
11:49:18.526,0.39701518,0.76875716,0.0,0.41387573,0.32122603,0.7839236,0.0,0.45219535,0.39336756,0.5558771,0.0,0.48022887,0.6126604,0.56998676,0.0,0.49511513,0.14227644,-0.010259383,0.0,0.068758436,914.2491,895.31134,838.0952,839.304,809.0842,0.02667236328125,-0.02557373046875,0.982421875,2.34771728515625,-1.682281494140625,0.04486083984375,1.0,1.0,1.0,4.0,1.0,85.0,event
11:49:18.527,0.39701518,0.76875716,0.0,0.41387573,0.32122603,0.7839236,0.0,0.45219535,0.39336756,0.5558771,0.0,0.48022887,0.6126604,0.56998676,0.0,0.49511513,0.14227644,-0.010259383,0.0,0.068758436,774.0293,894.5055,807.0696,823.9927,711.978,0.02667236328125,-0.02557373046875,0.982421875,2.34771728515625,-1.682281494140625,0.04486083984375,1.0,1.0,1.0,4.0,1.0,85.0,event
11:49:18.527,0.39701518,0.76875716,0.0,0.41387573,0.32122603,0.7839236,0.0,0.45219535,0.39336756,0.5558771,0.0,0.48022887,0.6126604,0.56998676,0.0,0.49511513,0.14227644,-0.010259383,0.0,0.068758436,717.2161,891.685,954.5421,822.381,627.76556,0.02667236328125,-0.02557373046875,0.982421875,2.34771728515625,-1.682281494140625,0.04486083984375,1.0,1.0,1.0,4.0,1.0,85.0,event
11:49:18.528,0.39701518,0.76875716,0.0,0.41387573,0.32122603,0.7839236,0.0,0.45219535,0.39336756,0.5558771,0.0,0.48022887,0.6126604,0.56998676,0.0,0.49511513,0.14227644,-0.010259383,0.0,0.068758436,812.3077,878.7912,943.2601,834.0659,677.326,0.02667236328125,-0.02557373046875,0.982421875,2.34771728515625,-1.682281494140625,0.04486083984375,1.0,1.0,1.0,4.0,1.0,85.0,event
11:49:18.528,0.39701518,0.76875716,0.0,0.41387573,0.32122603,0.7839236,0.0,0.45219535,0.39336756,0.5558771,0.0,0.48022887,0.6126604,0.56998676,0.0,0.49511513,0.14227644,-0.010259383,0.0,0.068758436,946.08057,870.32965,846.9597,844.1392,786.9231,0.02667236328125,-0.02557373046875,0.982421875,2.34771728515625,-1.682281494140625,0.04486083984375,1.0,1.0,1.0,4.0,1.0,85.0,event
11:49:18.529,0.39701518,0.76875716,0.0,0.41387573,0.32122603,0.7839236,0.0,0.45219535,0.39336756,0.5558771,0.0,0.48022887,0.6126604,0.56998676,0.0,0.49511513,0.14227644,-0.010259383,0.0,0.068758436,925.9341,861.06226,746.2271,828.022,821.5751,0.02667236328125,-0.02557373046875,0.982421875,2.34771728515625,-1.682281494140625,0.04486083984375,1.0,1.0,1.0,4.0,1.0,85.0,event
11:49:18.530,0.39701518,0.76875716,0.0,0.41387573,0.32122603,0.7839236,0.0,0.45219535,0.39336756,0.5558771,0.0,0.48022887,0.6126604,0.56998676,0.0,0.49511513,0.14227644,-0.010259383,0.0,0.068758436,695.8608,860.2564,645.09155,802.23444,812.3077,0.02667236328125,-0.02557373046875,0.982421875,2.34771728515625,-1.682281494140625,0.04486083984375,1.0,1.0,1.0,4.0,1.0,85.0,event
11:49:18.530,0.39701518,0.76875716,0.0,0.41387573,0.32122603,0.7839236,0.0,0.45219535,0.39336756,0.5558771,0.0,0.48022887,0.6126604,0.56998676,0.0,0.49511513,0.14227644,-0.010259383,0.0,0.068758436,776.04395,859.0476,649.5238,805.05493,797.3993,0.02667236328125,-0.02557373046875,0.982421875,2.34771728515625,-1.682281494140625,0.04486083984375,1.0,1.0,1.0,4.0,1.0,85.0,event
11:49:18.531,0.39701518,0.76875716,0.0,0.41387573,0.32122603,0.7839236,0.0,0.45219535,0.39336756,0.5558771,0.0,0.48022887,0.6126604,0.56998676,0.0,0.49511513,0.14227644,-0.010259383,0.0,0.068758436,769.19415,827.619,335.64102,822.381,983.5531,0.02667236328125,-0.02557373046875,0.982421875,2.34771728515625,-1.682281494140625,0.04486083984375,1.0,1.0,1.0,4.0,1.0,85.0,event
11:49:18.532,0.39701518,0.76875716,0.0,0.41387573,0.32122603,0.7839236,0.0,0.45219535,0.39336756,0.5558771,0.0,0.48022887,0.6126604,0.56998676,0.0,0.49511513,0.14227644,-0.010259383,0.0,0.068758436,944.4689,869.12085,1028.2784,828.8278,695.05493,0.02667236328125,-0.02557373046875,0.982421875,2.34771728515625,-1.682281494140625,0.04486083984375,1.0,1.0,1.0,4.0,1.0,85.0,event
11:49:18.532,0.39701518,0.76875716,0.0,0.41387573,0.32122603,0.7839236,0.0,0.45219535,0.39336756,0.5558771,0.0,0.48022887,0.6126604,0.56998676,0.0,0.49511513,0.14227644,-0.010259383,0.0,0.068758436,920.293,850.58606,496.41025,840.9158,941.2454,0.02667236328125,-0.02557373046875,0.982421875,2.34771728515625,-1.682281494140625,0.04486083984375,1.0,1.0,1.0,4.0,1.0,85.0,event
11:49:18.533,0.39701518,0.76875716,0.0,0.41387573,0.32122603,0.7839236,0.0,0.45219535,0.39336756,0.5558771,0.0,0.48022887,0.6126604,0.56998676,0.0,0.49511513,0.14227644,-0.010259383,0.0,0.068758436,799.81683,835.2747,859.0476,812.71063,689.81683,0.02667236328125,-0.02557373046875,0.982421875,2.34771728515625,-1.682281494140625,0.04486083984375,1.0,1.0,1.0,4.0,1.0,85.0,event
11:49:18.574,0.39701518,0.76875716,0.0,0.41387573,0.32122603,0.7839236,0.0,0.45219535,0.39336756,0.5558771,0.0,0.48022887,0.6126604,0.56998676,0.0,0.49511513,0.14227644,-0.010259383,0.0,0.068758436,693.8461,827.619,582.6374,809.0842,772.01465,0.0159912109375,-0.024658203125,0.99261474609375,2.31781005859375,-2.923431396484375,0.52337646484375,1.0,1.0,1.0,4.0,1.0,85.0,event
11:49:18.575,0.39701518,0.76875716,0.0,0.41387573,0.32122603,0.7839236,0.0,0.45219535,0.39336756,0.5558771,0.0,0.48022887,0.6126604,0.56998676,0.0,0.49511513,0.14227644,-0.010259383,0.0,0.068758436,767.98535,838.9011,880.40295,821.1722,734.1392,0.0159912109375,-0.024658203125,0.99261474609375,2.31781005859375,-2.923431396484375,0.52337646484375,1.0,1.0,1.0,4.0,1.0,85.0,event
11:49:18.576,0.39701518,0.76875716,0.0,0.41387573,0.32122603,0.7839236,0.0,0.45219535,0.39336756,0.5558771,0.0,0.48022887,0.6126604,0.56998676,0.0,0.49511513,0.14227644,-0.010259383,0.0,0.068758436,919.89014,835.6777,1142.7106,834.4689,727.28937,0.0159912109375,-0.024658203125,0.99261474609375,2.31781005859375,-2.923431396484375,0.52337646484375,1.0,1.0,1.0,4.0,1.0,85.0,event
11:49:18.576,0.39701518,0.76875716,0.0,0.41387573,0.32122603,0.7839236,0.0,0.45219535,0.39336756,0.5558771,0.0,0.48022887,0.6126604,0.56998676,0.0,0.49511513,0.14227644,-0.010259383,0.0,0.068758436,950.10986,817.5458,966.63007,826.0073,737.76556,0.0159912109375,-0.024658203125,0.99261474609375,2.31781005859375,-2.923431396484375,0.52337646484375,1.0,1.0,1.0,4.0,1.0,85.0,event
11:49:18.577,0.39701518,0.76875716,0.0,0.41387573,0.32122603,0.7839236,0.0,0.45219535,0.39336756,0.5558771,0.0,0.48022887,0.6126604,0.56998676,0.0,0.49511513,0.14227644,-0.010259383,0.0,0.068758436,821.978,812.3077,819.5604,812.3077,741.79486,0.0159912109375,-0.024658203125,0.99261474609375,2.31781005859375,-2.923431396484375,0.52337646484375,1.0,1.0,1.0,4.0,1.0,85.0,event
11:49:18.578,0.39701518,0.76875716,0.0,0.41387573,0.32122603,0.7839236,0.0,0.45219535,0.39336756,0.5558771,0.0,0.48022887,0.6126604,0.56998676,0.0,0.49511513,0.14227644,-0.010259383,0.0,0.068758436,713.5897,809.0842,712.7839,810.696,796.99634,0.0159912109375,-0.024658203125,0.99261474609375,2.31781005859375,-2.923431396484375,0.52337646484375,1.0,1.0,1.0,4.0,1.0,85.0,event
11:49:18.579,0.39701518,0.76875716,0.0,0.41387573,0.32122603,0.7839236,0.0,0.45219535,0.39336756,0.5558771,0.0,0.48022887,0.6126604,0.56998676,0.0,0.49511513,0.14227644,-0.010259383,0.0,0.068758436,750.2564,803.0403,688.20514,817.5458,799.011,0.0159912109375,-0.024658203125,0.99261474609375,2.31781005859375,-2.923431396484375,0.52337646484375,1.0,1.0,1.0,4.0,1.0,85.0,event
11:49:18.580,0.39701518,0.76875716,0.0,0.41387573,0.32122603,0.7839236,0.0,0.45219535,0.39336756,0.5558771,0.0,0.48022887,0.6126604,0.56998676,0.0,0.49511513,0.14227644,-0.010259383,0.0,0.068758436,888.46155,797.8022,667.6557,838.9011,909.011,0.0159912109375,-0.024658203125,0.99261474609375,2.31781005859375,-2.923431396484375,0.52337646484375,1.0,1.0,1.0,4.0,1.0,85.0,event
11:49:18.583,0.39701518,0.76875716,0.0,0.41387573,0.32122603,0.7839236,0.0,0.45219535,0.39336756,0.5558771,0.0,0.48022887,0.6126604,0.56998676,0.0,0.49511513,0.14227644,-0.010259383,0.0,0.068758436,944.4689,791.3553,389.6337,840.5128,1023.44324,0.0159912109375,-0.024658203125,0.99261474609375,2.31781005859375,-2.923431396484375,0.52337646484375,1.0,1.0,1.0,4.0,1.0,85.0,event
11:49:18.584,0.39701518,0.76875716,0.0,0.41387573,0.32122603,0.7839236,0.0,0.45219535,0.39336756,0.5558771,0.0,0.48022887,0.6126604,0.56998676,0.0,0.49511513,0.14227644,-0.010259383,0.0,0.068758436,833.2601,818.3516,756.30035,812.71063,761.53845,0.0159912109375,-0.024658203125,0.99261474609375,2.31781005859375,-2.923431396484375,0.52337646484375,1.0,1.0,1.0,4.0,1.0,85.0,event
11:49:18.585,0.39701518,0.76875716,0.0,0.41387573,0.32122603,0.7839236,0.0,0.45219535,0.39336756,0.5558771,0.0,0.48022887,0.6126604,0.56998676,0.0,0.49511513,0.14227644,-0.010259383,0.0,0.068758436,722.0513,809.89014,986.3736,803.44324,647.50916,0.0159912109375,-0.024658203125,0.99261474609375,2.31781005859375,-2.923431396484375,0.52337646484375,1.0,1.0,1.0,4.0,1.0,85.0,event
11:49:18.586,0.39701518,0.76875716,0.0,0.41387573,0.32122603,0.7839236,0.0,0.45219535,0.39336756,0.5558771,0.0,0.48022887,0.6126604,0.56998676,0.0,0.49511513,0.14227644,-0.010259383,0.0,0.068758436,743.00366,779.2674,743.4066,811.0989,742.6007,0.0159912109375,-0.024658203125,0.99261474609375,2.31781005859375,-2.923431396484375,0.52337646484375,1.0,1.0,1.0,4.0,1.0,85.0,event
11:49:18.610,0.39701518,0.76875716,0.0,0.41387573,0.32122603,0.7839236,0.0,0.45219535,0.39336756,0.5558771,0.0,0.48022887,0.6126604,0.56998676,0.0,0.49511513,0.14227644,-0.010259383,0.0,0.068758436,869.5238,782.8938,776.04395,820.7692,819.9634,0.02294921875,-0.02252197265625,0.98541259765625,3.132781982421875,-2.564544677734375,1.517791748046875,1.0,1.0,1.0,4.0,1.0,85.0,event
11:49:18.612,0.39701518,0.76875716,0.0,0.41387573,0.32122603,0.7839236,0.0,0.45219535,0.39336756,0.5558771,0.0,0.48022887,0.6126604,0.56998676,0.0,0.49511513,0.14227644,-0.010259383,0.0,0.068758436,955.7509,792.1612,1018.20514,820.3663,728.49817,0.02294921875,-0.02252197265625,0.98541259765625,3.132781982421875,-2.564544677734375,1.517791748046875,1.0,1.0,1.0,4.0,1.0,85.0,event
11:49:18.612,0.39701518,0.76875716,0.0,0.41387573,0.32122603,0.7839236,0.0,0.45219535,0.39336756,0.5558771,0.0,0.48022887,0.6126604,0.56998676,0.0,0.49511513,0.14227644,-0.010259383,0.0,0.068758436,851.39197,780.4762,984.7619,795.78754,700.696,0.02294921875,-0.02252197265625,0.98541259765625,3.132781982421875,-2.564544677734375,1.517791748046875,1.0,1.0,1.0,4.0,1.0,85.0,event
11:49:18.613,0.39701518,0.76875716,0.0,0.41387573,0.32122603,0.7839236,0.0,0.45219535,0.39336756,0.5558771,0.0,0.48022887,0.6126604,0.56998676,0.0,0.49511513,0.14227644,-0.010259383,0.0,0.068758436,711.978,765.9707,617.28937,785.7143,900.9524,0.02294921875,-0.02252197265625,0.98541259765625,3.132781982421875,-2.564544677734375,1.517791748046875,1.0,1.0,1.0,4.0,1.0,85.0,event
