TimeStamp,Delta_TP9,Delta_AF7,Delta_AF8,Delta_TP10,Theta_TP9,Theta_AF7,Theta_AF8,Theta_TP10,Alpha_TP9,Alpha_AF7,Alpha_AF8,Alpha_TP10,Beta_TP9,Beta_AF7,Beta_AF8,Beta_TP10,Gamma_TP9,Gamma_AF7,Gamma_AF8,Gamma_TP10,RAW_TP9,RAW_AF7,RAW_AF8,RAW_TP10,AUX_RIGHT,Accelerometer_X,Accelerometer_Y,Accelerometer_Z,Gyro_X,Gyro_Y,Gyro_Z,HeadBandOn,HSI_TP9,HSI_AF7,HSI_AF8,HSI_TP10,Battery,Elements
09:43:14.207,0.5295904,0.0,0.0134040015,0.19338983,0.4869949,0.0,0.09750599,0.30848643,0.48861358,0.0,0.13172744,0.14961459,0.48227248,0.0,0.27060157,0.25768995,0.09830446,0.0,-0.21058203,-0.02793969,797.8022,610.4396,607.619,826.8132,883.6264,-0.1768798828125,0.0731201171875,0.967041015625,2.0635986328125,-3.99261474609375,0.9869384765625,1.0,1.0,4.0,1.0,1.0,85.0,event
09:43:14.208,0.5295904,0.0,0.0134040015,0.19338983,0.4869949,0.0,0.09750599,0.30848643,0.48861358,0.0,0.13172744,0.14961459,0.48227248,0.0,0.27060157,0.25768995,0.09830446,0.0,-0.21058203,-0.02793969,691.8315,531.4652,768.3883,812.71063,849.7802,-0.1768798828125,0.0731201171875,0.967041015625,2.0635986328125,-3.99261474609375,0.9869384765625,1.0,1.0,4.0,1.0,1.0,85.0,event
09:43:14.209,0.5295904,0.0,0.0134040015,0.19338983,0.4869949,0.0,0.09750599,0.30848643,0.48861358,0.0,0.13172744,0.14961459,0.48227248,0.0,0.27060157,0.25768995,0.09830446,0.0,-0.21058203,-0.02793969,917.47253,1072.1978,752.674,838.9011,723.2601,-0.1768798828125,0.0731201171875,0.967041015625,2.0635986328125,-3.99261474609375,0.9869384765625,1.0,1.0,4.0,1.0,1.0,85.0,event
09:43:14.209,0.5295904,0.0,0.0134040015,0.19338983,0.4869949,0.0,0.09750599,0.30848643,0.48861358,0.0,0.13172744,0.14961459,0.48227248,0.0,0.27060157,0.25768995,0.09830446,0.0,-0.21058203,-0.02793969,765.56775,949.304,853.8095,818.7546,661.2088,-0.1768798828125,0.0731201171875,0.967041015625,2.0635986328125,-3.99261474609375,0.9869384765625,1.0,1.0,4.0,1.0,1.0,85.0,event
09:43:14.210,0.5295904,0.0,0.0134040015,0.19338983,0.4869949,0.0,0.09750599,0.30848643,0.48861358,0.0,0.13172744,0.14961459,0.48227248,0.0,0.27060157,0.25768995,0.09830446,0.0,-0.21058203,-0.02793969,960.18317,915.8608,711.978,838.9011,816.337,-0.1768798828125,0.0731201171875,0.967041015625,2.0635986328125,-3.99261474609375,0.9869384765625,1.0,1.0,4.0,1.0,1.0,85.0,event
09:43:14.211,0.5295904,0.0,0.0134040015,0.19338983,0.4869949,0.0,0.09750599,0.30848643,0.48861358,0.0,0.13172744,0.14961459,0.48227248,0.0,0.27060157,0.25768995,0.09830446,0.0,-0.21058203,-0.02793969,817.5458,725.6777,680.14655,816.337,853.8095,-0.1768798828125,0.0731201171875,0.967041015625,2.0635986328125,-3.99261474609375,0.9869384765625,1.0,1.0,4.0,1.0,1.0,85.0,event
09:43:14.212,0.5295904,0.0,0.0134040015,0.19338983,0.4869949,0.0,0.09750599,0.30848643,0.48861358,0.0,0.13172744,0.14961459,0.48227248,0.0,0.27060157,0.25768995,0.09830446,0.0,-0.21058203,-0.02793969,698.2784,692.23444,739.3773,809.0842,875.9707,-0.1768798828125,0.0731201171875,0.967041015625,2.0635986328125,-3.99261474609375,0.9869384765625,1.0,1.0,4.0,1.0,1.0,85.0,event
09:43:14.212,0.5295904,0.0,0.0134040015,0.19338983,0.4869949,0.0,0.09750599,0.30848643,0.48861358,0.0,0.13172744,0.14961459,0.48227248,0.0,0.27060157,0.25768995,0.09830446,0.0,-0.21058203,-0.02793969,751.06226,841.7216,761.9414,819.15753,835.2747,-0.1768798828125,0.0731201171875,0.967041015625,2.0635986328125,-3.99261474609375,0.9869384765625,1.0,1.0,4.0,1.0,1.0,85.0,event
09:43:14.213,0.5295904,0.0,0.0134040015,0.19338983,0.4869949,0.0,0.09750599,0.30848643,0.48861358,0.0,0.13172744,0.14961459,0.48227248,0.0,0.27060157,0.25768995,0.09830446,0.0,-0.21058203,-0.02793969,888.0586,379.96338,614.0659,833.2601,995.64105,-0.1768798828125,0.0731201171875,0.967041015625,2.0635986328125,-3.99261474609375,0.9869384765625,1.0,1.0,4.0,1.0,1.0,85.0,event
09:43:14.214,0.5295904,0.0,0.0134040015,0.19338983,0.4869949,0.0,0.09750599,0.30848643,0.48861358,0.0,0.13172744,0.14961459,0.48227248,0.0,0.27060157,0.25768995,0.09830446,0.0,-0.21058203,-0.02793969,969.45056,563.69965,838.0952,833.663,941.6484,-0.1768798828125,0.0731201171875,0.967041015625,2.0635986328125,-3.99261474609375,0.9869384765625,1.0,1.0,4.0,1.0,1.0,85.0,event
09:43:14.214,0.5295904,0.0,0.0134040015,0.19338983,0.4869949,0.0,0.09750599,0.30848643,0.48861358,0.0,0.13172744,0.14961459,0.48227248,0.0,0.27060157,0.25768995,0.09830446,0.0,-0.21058203,-0.02793969,840.5128,1129.414,809.4872,812.3077,726.08057,-0.1768798828125,0.0731201171875,0.967041015625,2.0635986328125,-3.99261474609375,0.9869384765625,1.0,1.0,4.0,1.0,1.0,85.0,event
09:43:14.215,0.5295904,0.0,0.0134040015,0.19338983,0.4869949,0.0,0.09750599,0.30848643,0.48861358,0.0,0.13172744,0.14961459,0.48227248,0.0,0.27060157,0.25768995,0.09830446,0.0,-0.21058203,-0.02793969,692.23444,961.79486,629.3773,797.8022,732.9304,-0.1768798828125,0.0731201171875,0.967041015625,2.0635986328125,-3.99261474609375,0.9869384765625,1.0,1.0,4.0,1.0,1.0,85.0,event
09:43:14.243,0.5295904,0.0,0.0134040015,0.19338983,0.4869949,0.0,0.09750599,0.30848643,0.48861358,0.0,0.13172744,0.14961459,0.48227248,0.0,0.27060157,0.25768995,0.09830446,0.0,-0.21058203,-0.02793969,726.4835,736.1539,680.9524,808.2784,774.83514,-0.18682861328125,0.06915283203125,0.9693603515625,1.48040771484375,-4.53094482421875,1.12152099609375,1.0,1.0,4.0,1.0,1.0,85.0,event
09:43:14.245,0.5295904,0.0,0.0134040015,0.19338983,0.4869949,0.0,0.09750599,0.30848643,0.48861358,0.0,0.13172744,0.14961459,0.48227248,0.0,0.27060157,0.25768995,0.09830446,0.0,-0.21058203,-0.02793969,871.9414,826.0073,742.6007,821.5751,766.3736,-0.18682861328125,0.06915283203125,0.9693603515625,1.48040771484375,-4.53094482421875,1.12152099609375,1.0,1.0,4.0,1.0,1.0,85.0,event
09:43:14.246,0.5295904,0.0,0.0134040015,0.19338983,0.4869949,0.0,0.09750599,0.30848643,0.48861358,0.0,0.13172744,0.14961459,0.48227248,0.0,0.27060157,0.25768995,0.09830446,0.0,-0.21058203,-0.02793969,965.82416,1159.2307,723.2601,834.87177,738.1685,-0.18682861328125,0.06915283203125,0.9693603515625,1.48040771484375,-4.53094482421875,1.12152099609375,1.0,1.0,4.0,1.0,1.0,85.0,event
09:43:14.247,0.5295904,0.0,0.0134040015,0.19338983,0.4869949,0.0,0.09750599,0.30848643,0.48861358,0.0,0.13172744,0.14961459,0.48227248,0.0,0.27060157,0.25768995,0.09830446,0.0,-0.21058203,-0.02793969,852.6007,949.304,558.86444,829.6337,755.09155,-0.18682861328125,0.06915283203125,0.9693603515625,1.48040771484375,-4.53094482421875,1.12152099609375,1.0,1.0,4.0,2.0,1.0,85.0,event
09:43:14.252,0.5295904,0.0,0.0134040015,0.19338983,0.4869949,0.0,0.09750599,0.30848643,0.48861358,0.0,0.13172744,0.14961459,0.48227248,0.0,0.27060157,0.25768995,0.09830446,0.0,-0.21058203,-0.02793969,699.0842,537.1062,605.6044,808.2784,733.3333,-0.18682861328125,0.06915283203125,0.9693603515625,1.48040771484375,-4.53094482421875,1.12152099609375,1.0,1.0,4.0,2.0,1.0,85.0,event
09:43:14.253,0.5295904,0.0,0.0134040015,0.19338983,0.4869949,0.0,0.09750599,0.30848643,0.48861358,0.0,0.13172744,0.14961459,0.48227248,0.0,0.27060157,0.25768995,0.09830446,0.0,-0.21058203,-0.02793969,732.52747,585.4579,660.0,819.15753,737.76556,-0.18682861328125,0.06915283203125,0.9693603515625,1.48040771484375,-4.53094482421875,1.12152099609375,1.0,1.0,4.0,2.0,1.0,85.0,event
09:43:14.254,0.5295904,0.0,0.0134040015,0.19338983,0.4869949,0.0,0.09750599,0.30848643,0.48861358,0.0,0.13172744,0.14961459,0.48227248,0.0,0.27060157,0.25768995,0.09830446,0.0,-0.21058203,-0.02793969,859.0476,829.2308,664.83514,832.8571,833.663,-0.18682861328125,0.06915283203125,0.9693603515625,1.48040771484375,-4.53094482421875,1.12152099609375,1.0,1.0,4.0,2.0,1.0,85.0,event
09:43:14.255,0.5295904,0.0,0.0134040015,0.19338983,0.4869949,0.0,0.09750599,0.30848643,0.48861358,0.0,0.13172744,0.14961459,0.48227248,0.0,0.27060157,0.25768995,0.09830446,0.0,-0.21058203,-0.02793969,948.0952,713.9927,573.36993,834.87177,929.9634,-0.18682861328125,0.06915283203125,0.9693603515625,1.48040771484375,-4.53094482421875,1.12152099609375,1.0,1.0,4.0,2.0,1.0,85.0,event
09:43:14.256,0.5295904,0.0,0.0134040015,0.19338983,0.4869949,0.0,0.09750599,0.30848643,0.48861358,0.0,0.13172744,0.14961459,0.48227248,0.0,0.27060157,0.25768995,0.09830446,0.0,-0.21058203,-0.02793969,848.97437,259.8901,558.46155,819.9634,1047.2161,-0.18682861328125,0.06915283203125,0.9693603515625,1.48040771484375,-4.53094482421875,1.12152099609375,1.0,1.0,4.0,2.0,1.0,85.0,event
09:43:14.257,0.5295904,0.0,0.0134040015,0.19338983,0.4869949,0.0,0.09750599,0.30848643,0.48861358,0.0,0.13172744,0.14961459,0.48227248,0.0,0.27060157,0.25768995,0.09830446,0.0,-0.21058203,-0.02793969,704.3223,762.74725,709.5604,798.20514,808.68134,-0.18682861328125,0.06915283203125,0.9693603515625,1.48040771484375,-4.53094482421875,1.12152099609375,1.0,1.0,4.0,2.0,1.0,85.0,event
09:43:14.258,0.5295904,0.0,0.0134040015,0.19338983,0.4869949,0.0,0.09750599,0.30848643,0.48861358,0.0,0.13172744,0.14961459,0.48227248,0.0,0.27060157,0.25768995,0.09830446,0.0,-0.21058203,-0.02793969,706.337,1023.44324,609.6337,799.41394,650.7326,-0.18682861328125,0.06915283203125,0.9693603515625,1.48040771484375,-4.53094482421875,1.12152099609375,1.0,1.0,4.0,2.0,1.0,85.0,event
09:43:14.259,0.5295904,0.0,0.0134040015,0.19338983,0.4869949,0.0,0.09750599,0.30848643,0.48861358,0.0,0.13172744,0.14961459,0.48227248,0.0,0.27060157,0.25768995,0.09830446,0.0,-0.21058203,-0.02793969,819.5604,812.71063,557.25275,815.9341,774.43225,-0.18682861328125,0.06915283203125,0.9693603515625,1.48040771484375,-4.53094482421875,1.12152099609375,1.0,1.0,4.0,2.0,1.0,85.0,event
09:43:14.284,0.5295904,0.0,0.0134040015,0.19338983,0.4869949,0.0,0.09750599,0.30848643,0.48861358,0.0,0.13172744,0.14961459,0.48227248,0.0,0.27060157,0.25768995,0.09830446,0.0,-0.21058203,-0.02793969,937.619,1031.5018,643.0769,828.022,785.7143,-0.18682861328125,0.06915283203125,0.9693603515625,1.48040771484375,-4.53094482421875,1.12152099609375,1.0,1.0,4.0,2.0,1.0,85.0,event
09:43:14.285,0.5295904,0.0,0.0134040015,0.19338983,0.4869949,0.0,0.09750599,0.30848643,0.48861358,0.0,0.13172744,0.14961459,0.48227248,0.0,0.27060157,0.25768995,0.09830446,0.0,-0.21058203,-0.02793969,874.35895,1206.7766,615.2747,821.1722,741.39197,-0.18682861328125,0.06915283203125,0.9693603515625,1.48040771484375,-4.53094482421875,1.12152099609375,1.0,1.0,4.0,2.0,1.0,85.0,event
09:43:14.286,0.5295904,0.0,0.0134040015,0.19338983,0.4869949,0.0,0.09750599,0.30848643,0.48861358,0.0,0.13172744,0.14961459,0.48227248,0.0,0.27060157,0.25768995,0.09830446,0.0,-0.21058203,-0.02793969,713.5897,1039.9634,538.71796,807.47253,755.89746,-0.18682861328125,0.06915283203125,0.9693603515625,1.48040771484375,-4.53094482421875,1.12152099609375,1.0,1.0,4.0,2.0,1.0,85.0,event
09:43:14.286,0.5295904,0.0,0.0134040015,0.19338983,0.4869949,0.0,0.09750599,0.30848643,0.48861358,0.0,0.13172744,0.14961459,0.48227248,0.0,0.27060157,0.25768995,0.09830446,0.0,-0.21058203,-0.02793969,693.44324,681.3553,541.13556,807.0696,802.23444,-0.18682861328125,0.06915283203125,0.9693603515625,1.48040771484375,-4.53094482421875,1.12152099609375,1.0,1.0,4.0,2.0,1.0,85.0,event
09:43:14.287,0.5295904,0.0,0.0134040015,0.19338983,0.4869949,0.0,0.09750599,0.30848643,0.48861358,0.0,0.13172744,0.14961459,0.48227248,0.0,0.27060157,0.25768995,0.09830446,0.0,-0.21058203,-0.02793969,942.0513,921.50183,660.0,828.022,959.7802,-0.18682861328125,0.06915283203125,0.9693603515625,1.48040771484375,-4.53094482421875,1.12152099609375,1.0,1.0,4.0,2.0,1.0,85.0,event
09:43:14.287,0.5295904,0.0,0.0134040015,0.19338983,0.4869949,0.0,0.09750599,0.30848643,0.48861358,0.0,0.13172744,0.14961459,0.48227248,0.0,0.27060157,0.25768995,0.09830446,0.0,-0.21058203,-0.02793969,821.5751,724.87177,635.42126,816.7399,857.8388,-0.18682861328125,0.06915283203125,0.9693603515625,1.48040771484375,-4.53094482421875,1.12152099609375,1.0,1.0,4.0,2.0,1.0,85.0,event
09:43:14.288,0.5295904,0.0,0.0134040015,0.19338983,0.4869949,0.0,0.09750599,0.30848643,0.48861358,0.0,0.13172744,0.14961459,0.48227248,0.0,0.27060157,0.25768995,0.09830446,0.0,-0.21058203,-0.02793969,899.7436,875.9707,578.20514,822.7839,952.1245,-0.18682861328125,0.06915283203125,0.9693603515625,1.48040771484375,-4.53094482421875,1.12152099609375,1.0,1.0,4.0,2.0,1.0,85.0,event
09:43:14.289,0.5295904,0.0,0.0134040015,0.19338983,0.4869949,0.0,0.09750599,0.30848643,0.48861358,0.0,0.13172744,0.14961459,0.48227248,0.0,0.27060157,0.25768995,0.09830446,0.0,-0.21058203,-0.02793969,724.0659,255.86081,404.94507,804.2491,1045.6044,-0.18682861328125,0.06915283203125,0.9693603515625,1.48040771484375,-4.53094482421875,1.12152099609375,1.0,1.0,4.0,2.0,1.0,85.0,event
09:43:14.289,0.5295904,0.0,0.0134040015,0.19338983,0.4869949,0.0,0.09750599,0.30848643,0.48861358,0.0,0.13172744,0.14961459,0.48227248,0.0,0.27060157,0.25768995,0.09830446,0.0,-0.21058203,-0.02793969,665.64105,137.39926,635.42126,799.011,1017.8022,-0.18682861328125,0.06915283203125,0.9693603515625,1.48040771484375,-4.53094482421875,1.12152099609375,1.0,1.0,4.0,2.0,1.0,85.0,event
09:43:14.290,0.5295904,0.0,0.0134040015,0.19338983,0.4869949,0.0,0.09750599,0.30848643,0.48861358,0.0,0.13172744,0.14961459,0.48227248,0.0,0.27060157,0.25768995,0.09830446,0.0,-0.21058203,-0.02793969,791.75824,928.7546,803.44324,809.0842,706.337,-0.18682861328125,0.06915283203125,0.9693603515625,1.48040771484375,-4.53094482421875,1.12152099609375,1.0,1.0,4.0,2.0,1.0,85.0,event
09:43:14.290,0.5295904,0.0,0.0134040015,0.19338983,0.4869949,0.0,0.09750599,0.30848643,0.48861358,0.0,0.13172744,0.14961459,0.48227248,0.0,0.27060157,0.25768995,0.09830446,0.0,-0.21058203,-0.02793969,936.4103,1077.033,620.5128,829.2308,655.16486,-0.18682861328125,0.06915283203125,0.9693603515625,1.48040771484375,-4.53094482421875,1.12152099609375,1.0,1.0,4.0,2.0,1.0,85.0,event
09:43:14.291,0.5295904,0.0,0.0134040015,0.19338983,0.4869949,0.0,0.09750599,0.30848643,0.48861358,0.0,0.13172744,0.14961459,0.48227248,0.0,0.27060157,0.25768995,0.09830446,0.0,-0.21058203,-0.02793969,917.47253,922.3077,620.9158,827.2161,699.4872,-0.18682861328125,0.06915283203125,0.9693603515625,1.48040771484375,-4.53094482421875,1.12152099609375,1.0,1.0,4.0,2.0,1.0,85.0,event
09:43:14.377,0.5295904,0.0,0.0134040015,0.19338983,0.4869949,0.0,0.09750599,0.30848643,0.48861358,0.0,0.13172744,0.14961459,0.48227248,0.0,0.27060157,0.25768995,0.09830446,0.0,-0.21058203,-0.02793969,754.2857,1008.5348,617.6923,801.4286,671.685,-0.18426513671875,0.07147216796875,0.97430419921875,1.861724853515625,-4.583282470703125,-0.5084228515625,1.0,1.0,4.0,2.0,1.0,85.0,event
09:43:14.378,0.5295904,0.0,0.0134040015,0.19338983,0.4869949,0.0,0.09750599,0.30848643,0.48861358,0.0,0.13172744,0.14961459,0.48227248,0.0,0.27060157,0.25768995,0.09830446,0.0,-0.21058203,-0.02793969,682.1612,997.25275,574.9817,796.5934,654.35895,-0.18426513671875,0.07147216796875,0.97430419921875,1.861724853515625,-4.583282470703125,-0.5084228515625,1.0,1.0,4.0,2.0,1.0,85.0,event
09:43:14.379,0.5295904,0.0,0.0134040015,0.19338983,0.4869949,0.0,0.09750599,0.30848643,0.48861358,0.0,0.13172744,0.14961459,0.48227248,0.0,0.27060157,0.25768995,0.09830446,0.0,-0.21058203,-0.02793969,771.2088,875.56775,579.81683,807.8755,672.49084,-0.18426513671875,0.07147216796875,0.97430419921875,1.861724853515625,-4.583282470703125,-0.5084228515625,1.0,1.0,4.0,2.0,1.0,85.0,event
09:43:14.380,0.5295904,0.0,0.0134040015,0.19338983,0.4869949,0.0,0.09750599,0.30848643,0.48861358,0.0,0.13172744,0.14961459,0.48227248,0.0,0.27060157,0.25768995,0.09830446,0.0,-0.21058203,-0.02793969,924.3223,944.87177,676.52014,831.6484,732.9304,-0.18426513671875,0.07147216796875,0.97430419921875,1.861724853515625,-4.583282470703125,-0.5084228515625,1.0,1.0,4.0,2.0,1.0,85.0,event
09:43:14.381,0.5295904,0.0,0.0134040015,0.19338983,0.4869949,0.0,0.09750599,0.30848643,0.48861358,0.0,0.13172744,0.14961459,0.48227248,0.0,0.27060157,0.25768995,0.09830446,0.0,-0.21058203,-0.02793969,933.1868,1091.9414,633.00366,829.2308,745.0183,-0.18426513671875,0.07147216796875,0.97430419921875,1.861724853515625,-4.583282470703125,-0.5084228515625,1.0,1.0,4.0,2.0,1.0,85.0,event
09:43:14.381,0.5363852,0.0,0.0134040015,0.19338983,0.50765496,0.0,0.09750599,0.30848643,0.47013345,0.0,0.13172744,0.14961459,0.4939669,0.0,0.27060157,0.25768995,0.09737349,0.0,-0.21058203,-0.02793969,755.4945,871.13556,522.1978,798.60803,789.7436,-0.18426513671875,0.07147216796875,0.97430419921875,1.861724853515625,-4.583282470703125,-0.5084228515625,1.0,1.0,4.0,2.0,1.0,85.0,event
09:43:14.386,0.5363852,0.0,0.0134040015,0.19338983,0.50765496,0.0,0.09750599,0.30848643,0.47013345,0.0,0.13172744,0.14961459,0.4939669,0.0,0.27060157,0.25768995,0.09737349,0.0,-0.21058203,-0.02793969,655.56775,469.4139,488.75458,786.52014,924.3223,-0.18426513671875,0.07147216796875,0.97430419921875,1.861724853515625,-4.583282470703125,-0.5084228515625,1.0,1.0,4.0,2.0,1.0,85.0,event
09:43:14.387,0.5363852,0.0,0.0134040015,0.19338983,0.50765496,0.0,0.09750599,0.30848643,0.47013345,0.0,0.13172744,0.14961459,0.4939669,0.0,0.27060157,0.25768995,0.09737349,0.0,-0.21058203,-0.02793969,737.76556,95.49451,530.2564,800.6227,1089.9268,-0.18426513671875,0.07147216796875,0.97430419921875,1.861724853515625,-4.583282470703125,-0.5084228515625,1.0,1.0,4.0,2.0,1.0,85.0,event
09:43:14.388,0.5363852,0.0,0.0134040015,0.19338983,0.50765496,0.0,0.09750599,0.30848643,0.47013345,0.0,0.13172744,0.14961459,0.4939669,0.0,0.27060157,0.25768995,0.09737349,0.0,-0.21058203,-0.02793969,907.3993,720.84247,790.9524,813.1135,888.86444,-0.18426513671875,0.07147216796875,0.97430419921875,1.861724853515625,-4.583282470703125,-0.5084228515625,1.0,1.0,4.0,2.0,1.0,85.0,event
09:43:14.389,0.5363852,0.0,0.0134040015,0.19338983,0.50765496,0.0,0.09750599,0.30848643,0.47013345,0.0,0.13172744,0.14961459,0.4939669,0.0,0.27060157,0.25768995,0.09737349,0.0,-0.21058203,-0.02793969,948.9011,1228.9377,680.9524,819.5604,705.9341,-0.18426513671875,0.07147216796875,0.97430419921875,1.861724853515625,-4.583282470703125,-0.5084228515625,1.0,1.0,4.0,2.0,1.0,85.0,event
09:43:14.392,0.5363852,0.0,0.0134040015,0.19338983,0.50765496,0.0,0.09750599,0.30848643,0.47013345,0.0,0.13172744,0.14961459,0.4939669,0.0,0.27060157,0.25768995,0.09737349,0.0,-0.21058203,-0.02793969,794.17584,806.26373,466.1905,803.44324,759.5238,-0.18426513671875,0.07147216796875,0.97430419921875,1.861724853515625,-4.583282470703125,-0.5084228515625,1.0,1.0,4.0,2.0,1.0,85.0,event
09:43:14.393,0.5363852,0.0,0.0134040015,0.19338983,0.50765496,0.0,0.09750599,0.30848643,0.47013345,0.0,0.13172744,0.14961459,0.4939669,0.0,0.27060157,0.25768995,0.09737349,0.0,-0.21058203,-0.02793969,678.1319,713.9927,584.2491,786.9231,684.17584,-0.18426513671875,0.07147216796875,0.97430419921875,1.861724853515625,-4.583282470703125,-0.5084228515625,1.0,1.0,4.0,2.0,1.0,85.0,event
09:43:14.420,0.5363852,0.0,0.0134040015,0.19338983,0.50765496,0.0,0.09750599,0.30848643,0.47013345,0.0,0.13172744,0.14961459,0.4939669,0.0,0.27060157,0.25768995,0.09737349,0.0,-0.21058203,-0.02793969,736.55676,1033.1135,684.17584,794.17584,649.5238,-0.17279052734375,0.07080078125,0.9708251953125,1.039276123046875,-4.388885498046875,-0.55328369140625,1.0,1.0,4.0,2.0,1.0,85.0,event
09:43:14.421,0.5363852,0.0,0.0134040015,0.19338983,0.50765496,0.0,0.09750599,0.30848643,0.47013345,0.0,0.13172744,0.14961459,0.4939669,0.0,0.27060157,0.25768995,0.09737349,0.0,-0.21058203,-0.02793969,883.22345,1110.0732,628.97437,809.89014,727.28937,-0.17279052734375,0.07080078125,0.9708251953125,1.039276123046875,-4.388885498046875,-0.55328369140625,1.0,1.0,4.0,2.0,1.0,85.0,event
09:43:14.423,0.5363852,0.0,0.0134040015,0.19338983,0.50765496,0.0,0.09750599,0.30848643,0.47013345,0.0,0.13172744,0.14961459,0.4939669,0.0,0.27060157,0.25768995,0.09737349,0.0,-0.21058203,-0.02793969,935.2015,903.36993,562.0879,823.9927,803.44324,-0.17279052734375,0.07080078125,0.9708251953125,1.039276123046875,-4.388885498046875,-0.55328369140625,1.0,1.0,4.0,2.0,1.0,85.0,event
09:43:14.425,0.5363852,0.0,0.0134040015,0.19338983,0.50765496,0.0,0.09750599,0.30848643,0.47013345,0.0,0.13172744,0.14961459,0.4939669,0.0,0.27060157,0.25768995,0.09737349,0.0,-0.21058203,-0.02793969,805.8608,916.26373,588.2784,807.47253,717.619,-0.17279052734375,0.07080078125,0.9708251953125,1.039276123046875,-4.388885498046875,-0.55328369140625,1.0,1.0,4.0,2.0,1.0,85.0,event
09:43:14.426,0.5363852,0.0,0.0134040015,0.19338983,0.50765496,0.0,0.09750599,0.30848643,0.47013345,0.0,0.13172744,0.14961459,0.4939669,0.0,0.27060157,0.25768995,0.09737349,0.0,-0.21058203,-0.02793969,676.1172,903.7729,596.337,790.14655,612.8571,-0.17279052734375,0.07080078125,0.9708251953125,1.039276123046875,-4.388885498046875,-0.55328369140625,1.0,1.0,4.0,2.0,1.0,85.0,event
09:43:14.428,0.5363852,0.0,0.0134040015,0.19338983,0.50765496,0.0,0.09750599,0.30848643,0.47013345,0.0,0.13172744,0.14961459,0.4939669,0.0,0.27060157,0.25768995,0.09737349,0.0,-0.21058203,-0.02793969,711.5751,713.5897,565.31134,797.3993,751.06226,-0.17279052734375,0.07080078125,0.9708251953125,1.039276123046875,-4.388885498046875,-0.55328369140625,1.0,1.0,4.0,2.0,1.0,85.0,event
09:43:14.429,0.5363852,0.0,0.0134040015,0.19338983,0.50765496,0.0,0.09750599,0.30848643,0.47013345,0.0,0.13172744,0.14961459,0.4939669,0.0,0.27060157,0.25768995,0.09737349,0.0,-0.21058203,-0.02793969,945.6777,431.53845,749.45056,823.9927,1016.1905,-0.17279052734375,0.07080078125,0.9708251953125,1.039276123046875,-4.388885498046875,-0.55328369140625,1.0,1.0,4.0,2.0,1.0,85.0,event
09:43:14.429,0.5363852,0.0,0.0134040015,0.19338983,0.50765496,0.0,0.09750599,0.30848643,0.47013345,0.0,0.13172744,0.14961459,0.4939669,0.0,0.27060157,0.25768995,0.09737349,0.0,-0.21058203,-0.02793969,850.989,263.11356,513.3333,817.1429,1074.6154,-0.17279052734375,0.07080078125,0.9708251953125,1.039276123046875,-4.388885498046875,-0.55328369140625,1.0,1.0,4.0,2.0,1.0,85.0,event
09:43:14.430,0.5363852,0.0,0.0134040015,0.19338983,0.50765496,0.0,0.09750599,0.30848643,0.47013345,0.0,0.13172744,0.14961459,0.4939669,0.0,0.27060157,0.25768995,0.09737349,0.0,-0.21058203,-0.02793969,844.5421,1128.608,778.46155,801.02563,766.77655,-0.17279052734375,0.07080078125,0.9708251953125,1.039276123046875,-4.388885498046875,-0.55328369140625,1.0,1.0,4.0,2.0,1.0,85.0,event
09:43:14.431,0.5363852,0.0,0.0134040015,0.19338983,0.50765496,0.0,0.09750599,0.30848643,0.47013345,0.0,0.13172744,0.14961459,0.4939669,0.0,0.27060157,0.25768995,0.09737349,0.0,-0.21058203,-0.02793969,691.02563,886.04395,525.42126,784.5055,786.9231,-0.17279052734375,0.07080078125,0.9708251953125,1.039276123046875,-4.388885498046875,-0.55328369140625,1.0,1.0,4.0,2.0,1.0,85.0,event
09:43:14.431,0.5363852,0.0,0.0134040015,0.19338983,0.50765496,0.0,0.09750599,0.30848643,0.47013345,0.0,0.13172744,0.14961459,0.4939669,0.0,0.27060157,0.25768995,0.09737349,0.0,-0.21058203,-0.02793969,703.5165,430.32968,578.20514,790.54944,873.1502,-0.17279052734375,0.07080078125,0.9708251953125,1.039276123046875,-4.388885498046875,-0.55328369140625,1.0,1.0,4.0,2.0,1.0,85.0,event
09:43:14.432,0.5363852,0.0,0.0134040015,0.19338983,0.50765496,0.0,0.09750599,0.30848643,0.47013345,0.0,0.13172744,0.14961459,0.4939669,0.0,0.27060157,0.25768995,0.09737349,0.0,-0.21058203,-0.02793969,849.7802,895.7143,766.3736,806.26373,778.0586,-0.17279052734375,0.07080078125,0.9708251953125,1.039276123046875,-4.388885498046875,-0.55328369140625,1.0,1.0,4.0,2.0,1.0,85.0,event
09:43:14.473,0.5363852,0.0,0.0134040015,0.19338983,0.50765496,0.0,0.09750599,0.30848643,0.47013345,0.0,0.13172744,0.14961459,0.4939669,0.0,0.27060157,0.25768995,0.09737349,0.0,-0.21058203,-0.02793969,953.73627,1271.2454,699.4872,821.5751,748.24176,-0.1766357421875,0.06671142578125,0.9609375,1.80938720703125,-2.97576904296875,0.037384033203125,1.0,1.0,4.0,2.0,1.0,85.0,event
09:43:14.474,0.5363852,0.0,0.0134040015,0.19338983,0.50765496,0.0,0.09750599,0.30848643,0.47013345,0.0,0.13172744,0.14961459,0.4939669,0.0,0.27060157,0.25768995,0.09737349,0.0,-0.21058203,-0.02793969,850.58606,1045.6044,570.9524,814.3223,819.9634,-0.1766357421875,0.06671142578125,0.9609375,1.80938720703125,-2.97576904296875,0.037384033203125,1.0,1.0,4.0,2.0,1.0,85.0,event
09:43:14.475,0.5363852,0.0,0.0134040015,0.19338983,0.50765496,0.0,0.09750599,0.30848643,0.47013345,0.0,0.13172744,0.14961459,0.4939669,0.0,0.27060157,0.25768995,0.09737349,0.0,-0.21058203,-0.02793969,687.8022,768.7912,606.8132,788.5348,805.8608,-0.1766357421875,0.06671142578125,0.9609375,1.80938720703125,-2.97576904296875,0.037384033203125,1.0,1.0,4.0,2.0,1.0,85.0,event
09:43:14.476,0.5363852,0.0,0.0134040015,0.19338983,0.50765496,0.0,0.09750599,0.30848643,0.47013345,0.0,0.13172744,0.14961459,0.4939669,0.0,0.27060157,0.25768995,0.09737349,0.0,-0.21058203,-0.02793969,682.1612,915.05493,694.2491,774.83514,736.1539,-0.1766357421875,0.06671142578125,0.9609375,1.80938720703125,-2.97576904296875,0.037384033203125,1.0,1.0,4.0,2.0,1.0,85.0,event
09:43:14.477,0.5363852,0.0,0.0134040015,0.19338983,0.50765496,0.0,0.09750599,0.30848643,0.47013345,0.0,0.13172744,0.14961459,0.4939669,0.0,0.27060157,0.25768995,0.09737349,0.0,-0.21058203,-0.02793969,809.89014,1124.1758,666.4469,785.7143,720.84247,-0.1766357421875,0.06671142578125,0.9609375,1.80938720703125,-2.97576904296875,0.037384033203125,1.0,1.0,4.0,2.0,1.0,85.0,event
09:43:14.477,0.5363852,0.0,0.0134040015,0.19338983,0.50765496,0.0,0.09750599,0.30848643,0.47013345,0.0,0.13172744,0.14961459,0.4939669,0.0,0.27060157,0.25768995,0.09737349,0.0,-0.21058203,-0.02793969,925.5311,802.6374,558.46155,801.8315,900.54944,-0.1766357421875,0.06671142578125,0.9609375,1.80938720703125,-2.97576904296875,0.037384033203125,1.0,1.0,4.0,2.0,1.0,85.0,event
09:43:14.478,0.5363852,0.0,0.0134040015,0.19338983,0.50765496,0.0,0.09750599,0.30848643,0.47013345,0.0,0.13172744,0.14961459,0.4939669,0.0,0.27060157,0.25768995,0.09737349,0.0,-0.21058203,-0.02793969,861.8681,373.9194,607.619,801.4286,1040.7693,-0.1766357421875,0.06671142578125,0.9609375,1.80938720703125,-2.97576904296875,0.037384033203125,1.0,1.0,4.0,2.0,1.0,85.0,event
09:43:14.479,0.5695464,0.0,0.0134040015,0.19338983,0.537105,0.0,0.09750599,0.30848643,0.4374743,0.0,0.13172744,0.14961459,0.5100295,0.0,0.27060157,0.25768995,0.095788606,0.0,-0.21058203,-0.02793969,708.7546,729.707,720.84247,777.6557,815.9341,-0.1766357421875,0.06671142578125,0.9609375,1.80938720703125,-2.97576904296875,0.037384033203125,1.0,1.0,4.0,2.0,1.0,85.0,event
09:43:14.483,0.5695464,0.0,0.0134040015,0.19338983,0.537105,0.0,0.09750599,0.30848643,0.4374743,0.0,0.13172744,0.14961459,0.5100295,0.0,0.27060157,0.25768995,0.095788606,0.0,-0.21058203,-0.02793969,684.57874,1055.2748,666.8498,776.4469,729.707,-0.1766357421875,0.06671142578125,0.9609375,1.80938720703125,-2.97576904296875,0.037384033203125,1.0,1.0,4.0,2.0,1.0,85.0,event
09:43:14.484,0.5695464,0.0,0.0134040015,0.19338983,0.537105,0.0,0.09750599,0.30848643,0.4374743,0.0,0.13172744,0.14961459,0.5100295,0.0,0.27060157,0.25768995,0.095788606,0.0,-0.21058203,-0.02793969,802.6374,799.011,555.2381,797.3993,848.1685,-0.1766357421875,0.06671142578125,0.9609375,1.80938720703125,-2.97576904296875,0.037384033203125,1.0,1.0,4.0,2.0,1.0,85.0,event
09:43:14.485,0.5695464,0.0,0.0134040015,0.19338983,0.537105,0.0,0.09750599,0.30848643,0.4374743,0.0,0.13172744,0.14961459,0.5100295,0.0,0.27060157,0.25768995,0.095788606,0.0,-0.21058203,-0.02793969,939.2308,799.81683,683.7729,811.50183,850.18317,-0.1766357421875,0.06671142578125,0.9609375,1.80938720703125,-2.97576904296875,0.037384033203125,1.0,1.0,4.0,2.0,1.0,85.0,event
09:43:14.485,0.5695464,0.0,0.0134040015,0.19338983,0.537105,0.0,0.09750599,0.30848643,0.4374743,0.0,0.13172744,0.14961459,0.5100295,0.0,0.27060157,0.25768995,0.095788606,0.0,-0.21058203,-0.02793969,899.34064,1129.8169,706.7399,811.0989,723.2601,-0.1766357421875,0.06671142578125,0.9609375,1.80938720703125,-2.97576904296875,0.037384033203125,1.0,1.0,4.0,2.0,1.0,85.0,event
09:43:14.529,0.5695464,0.0,0.0134040015,0.19338983,0.537105,0.0,0.09750599,0.30848643,0.4374743,0.0,0.13172744,0.14961459,0.5100295,0.0,0.27060157,0.25768995,0.095788606,0.0,-0.21058203,-0.02793969,716.4103,967.03296,549.59705,789.34064,686.5934,-0.18011474609375,0.07452392578125,0.97369384765625,2.519683837890625,-2.549591064453125,0.82244873046875,1.0,1.0,4.0,2.0,1.0,85.0,event
09:43:14.531,0.5695464,0.0,0.0134040015,0.19338983,0.537105,0.0,0.09750599,0.30848643,0.4374743,0.0,0.13172744,0.14961459,0.5100295,0.0,0.27060157,0.25768995,0.095788606,0.0,-0.21058203,-0.02793969,655.56775,563.2967,537.50916,782.0879,827.2161,-0.18011474609375,0.07452392578125,0.97369384765625,2.519683837890625,-2.549591064453125,0.82244873046875,1.0,1.0,4.0,2.0,1.0,85.0,event
09:43:14.533,0.5695464,0.0,0.0134040015,0.19338983,0.537105,0.0,0.09750599,0.30848643,0.4374743,0.0,0.13172744,0.14961459,0.5100295,0.0,0.27060157,0.25768995,0.095788606,0.0,-0.21058203,-0.02793969,781.28204,751.4652,689.81683,794.9817,770.0,-0.18011474609375,0.07452392578125,0.97369384765625,2.519683837890625,-2.549591064453125,0.82244873046875,1.0,1.0,4.0,2.0,1.0,85.0,event
09:43:14.534,0.5695464,0.0,0.0134040015,0.19338983,0.537105,0.0,0.09750599,0.30848643,0.4374743,0.0,0.13172744,0.14961459,0.5100295,0.0,0.27060157,0.25768995,0.095788606,0.0,-0.21058203,-0.02793969,933.5897,1123.37,735.7509,812.71063,677.72894,-0.18011474609375,0.07452392578125,0.97369384765625,2.519683837890625,-2.549591064453125,0.82244873046875,1.0,1.0,4.0,2.0,1.0,85.0,event
09:43:14.535,0.5695464,0.0,0.0134040015,0.19338983,0.537105,0.0,0.09750599,0.30848643,0.4374743,0.0,0.13172744,0.14961459,0.5100295,0.0,0.27060157,0.25768995,0.095788606,0.0,-0.21058203,-0.02793969,902.96704,1091.5385,604.7985,807.47253,740.989,-0.18011474609375,0.07452392578125,0.97369384765625,2.519683837890625,-2.549591064453125,0.82244873046875,1.0,1.0,4.0,2.0,1.0,85.0,event
09:43:14.536,0.5695464,0.0,0.0134040015,0.19338983,0.537105,0.0,0.09750599,0.30848643,0.4374743,0.0,0.13172744,0.14961459,0.5100295,0.0,0.27060157,0.25768995,0.095788606,0.0,-0.21058203,-0.02793969,717.2161,343.2967,413.00366,786.9231,992.4176,-0.18011474609375,0.07452392578125,0.97369384765625,2.519683837890625,-2.549591064453125,0.82244873046875,1.0,1.0,4.0,2.0,1.0,85.0,event
09:43:14.538,0.5695464,0.0,0.0134040015,0.19338983,0.537105,0.0,0.09750599,0.30848643,0.4374743,0.0,0.13172744,0.14961459,0.5100295,0.0,0.27060157,0.25768995,0.095788606,0.0,-0.21058203,-0.02793969,653.5531,148.27838,660.0,778.0586,992.4176,-0.18011474609375,0.07452392578125,0.97369384765625,2.519683837890625,-2.549591064453125,0.82244873046875,1.0,1.0,4.0,2.0,1.0,85.0,event
09:43:14.539,0.5695464,0.0,0.0134040015,0.19338983,0.537105,0.0,0.09750599,0.30848643,0.4374743,0.0,0.13172744,0.14961459,0.5100295,0.0,0.27060157,0.25768995,0.095788606,0.0,-0.21058203,-0.02793969,770.40295,884.43225,838.49817,785.31134,726.8865,-0.18011474609375,0.07452392578125,0.97369384765625,2.519683837890625,-2.549591064453125,0.82244873046875,1.0,1.0,4.0,2.0,1.0,85.0,event
09:43:14.540,0.5695464,0.0,0.0134040015,0.19338983,0.537105,0.0,0.09750599,0.30848643,0.4374743,0.0,0.13172744,0.14961459,0.5100295,0.0,0.27060157,0.25768995,0.095788606,0.0,-0.21058203,-0.02793969,914.65204,1036.337,657.1795,801.4286,757.50916,-0.18011474609375,0.07452392578125,0.97369384765625,2.519683837890625,-2.549591064453125,0.82244873046875,1.0,1.0,4.0,2.0,1.0,85.0,event
09:43:14.542,0.5695464,0.0,0.0134040015,0.19338983,0.537105,0.0,0.09750599,0.30848643,0.4374743,0.0,0.13172744,0.14961459,0.5100295,0.0,0.27060157,0.25768995,0.095788606,0.0,-0.21058203,-0.02793969,907.8022,660.0,587.8755,806.6667,929.5604,-0.18011474609375,0.07452392578125,0.97369384765625,2.519683837890625,-2.549591064453125,0.82244873046875,1.0,1.0,4.0,2.0,1.0,85.0,event
09:43:14.543,0.5695464,0.0,0.0134040015,0.19338983,0.537105,0.0,0.09750599,0.30848643,0.4374743,0.0,0.13172744,0.14961459,0.5100295,0.0,0.27060157,0.25768995,0.095788606,0.0,-0.21058203,-0.02793969,754.2857,808.2784,665.64105,789.7436,767.5824,-0.18011474609375,0.07452392578125,0.97369384765625,2.519683837890625,-2.549591064453125,0.82244873046875,1.0,1.0,4.0,2.0,1.0,85.0,event
09:43:14.544,0.5695464,0.0,0.0134040015,0.19338983,0.537105,0.0,0.09750599,0.30848643,0.4374743,0.0,0.13172744,0.14961459,0.5100295,0.0,0.27060157,0.25768995,0.095788606,0.0,-0.21058203,-0.02793969,676.9231,1025.0549,676.9231,784.10254,680.54944,-0.18011474609375,0.07452392578125,0.97369384765625,2.519683837890625,-2.549591064453125,0.82244873046875,1.0,1.0,4.0,2.0,1.0,85.0,event
09:43:14.593,0.5695464,0.0,0.0134040015,0.19338983,0.537105,0.0,0.09750599,0.30848643,0.4374743,0.0,0.13172744,0.14961459,0.5100295,0.0,0.27060157,0.25768995,0.095788606,0.0,-0.21058203,-0.02793969,753.8828,942.0513,647.9121,794.17584,785.7143,-0.18011474609375,0.07452392578125,0.97369384765625,2.519683837890625,-2.549591064453125,0.82244873046875,1.0,1.0,4.0,2.0,1.0,85.0,event
09:43:14.594,0.5695464,0.0,0.0134040015,0.19338983,0.537105,0.0,0.09750599,0.30848643,0.4374743,0.0,0.13172744,0.14961459,0.5100295,0.0,0.27060157,0.25768995,0.095788606,0.0,-0.21058203,-0.02793969,908.20514,950.9158,724.87177,817.5458,840.9158,-0.18011474609375,0.07452392578125,0.97369384765625,2.519683837890625,-2.549591064453125,0.82244873046875,1.0,1.0,4.0,2.0,1.0,85.0,event
09:43:14.595,0.5695464,0.0,0.0134040015,0.19338983,0.537105,0.0,0.09750599,0.30848643,0.4374743,0.0,0.13172744,0.14961459,0.5100295,0.0,0.27060157,0.25768995,0.095788606,0.0,-0.21058203,-0.02793969,942.4542,1135.8608,728.49817,822.381,813.91943,-0.18011474609375,0.07452392578125,0.97369384765625,2.519683837890625,-2.549591064453125,0.82244873046875,1.0,1.0,4.0,2.0,1.0,85.0,event
09:43:14.596,0.5695464,0.0,0.0134040015,0.19338983,0.537105,0.0,0.09750599,0.30848643,0.4374743,0.0,0.13172744,0.14961459,0.5100295,0.0,0.27060157,0.25768995,0.095788606,0.0,-0.21058203,-0.02793969,774.0293,1027.0696,608.4249,792.96704,684.17584,-0.18011474609375,0.07452392578125,0.97369384765625,2.519683837890625,-2.549591064453125,0.82244873046875,1.0,1.0,4.0,2.0,1.0,85.0,event
09:43:14.597,0.5695464,0.0,0.0134040015,0.19338983,0.537105,0.0,0.09750599,0.30848643,0.4374743,0.0,0.13172744,0.14961459,0.5100295,0.0,0.27060157,0.25768995,0.095788606,0.0,-0.21058203,-0.02793969,656.77655,635.42126,602.381,784.10254,761.13556,-0.18011474609375,0.07452392578125,0.97369384765625,2.519683837890625,-2.549591064453125,0.82244873046875,1.0,1.0,4.0,2.0,1.0,85.0,event
09:43:14.598,0.5695464,0.0,0.0134040015,0.19338983,0.537105,0.0,0.09750599,0.30848643,0.4374743,0.0,0.13172744,0.14961459,0.5100295,0.0,0.27060157,0.25768995,0.095788606,0.0,-0.21058203,-0.02793969,728.49817,399.70697,719.2308,800.2198,910.6227,-0.18011474609375,0.07452392578125,0.97369384765625,2.519683837890625,-2.549591064453125,0.82244873046875,1.0,1.0,4.0,2.0,1.0,85.0,event
09:43:14.598,0.5695464,0.0,0.0134040015,0.19338983,0.537105,0.0,0.09750599,0.30848643,0.4374743,0.0,0.13172744,0.14961459,0.5100295,0.0,0.27060157,0.25768995,0.095788606,0.0,-0.21058203,-0.02793969,890.07324,606.8132,777.25275,816.7399,816.7399,-0.18011474609375,0.07452392578125,0.97369384765625,2.519683837890625,-2.549591064453125,0.82244873046875,1.0,1.0,4.0,2.0,1.0,85.0,event
09:43:14.599,0.5695464,0.0,0.0134040015,0.19338983,0.537105,0.0,0.09750599,0.30848643,0.4374743,0.0,0.13172744,0.14961459,0.5100295,0.0,0.27060157,0.25768995,0.095788606,0.0,-0.21058203,-0.02793969,950.5128,1000.87915,797.3993,818.3516,704.7253,-0.18011474609375,0.07452392578125,0.97369384765625,2.519683837890625,-2.549591064453125,0.82244873046875,1.0,1.0,4.0,2.0,1.0,85.0,event
09:43:14.600,0.5695464,0.0,0.0134040015,0.19338983,0.537105,0.0,0.09750599,0.30848643,0.4374743,0.0,0.13172744,0.14961459,0.5100295,0.0,0.27060157,0.25768995,0.095788606,0.0,-0.21058203,-0.02793969,793.36993,701.50183,593.5165,806.26373,804.65204,-0.18011474609375,0.07452392578125,0.97369384765625,2.519683837890625,-2.549591064453125,0.82244873046875,1.0,1.0,4.0,2.0,1.0,85.0,event
09:43:14.601,0.6154435,0.0,0.0134040015,0.19338983,0.5683186,0.0,0.09750599,0.30848643,0.43307906,0.0,0.13172744,0.14961459,0.5255183,0.0,0.27060157,0.25768995,0.08237856,0.0,-0.21058203,-0.02793969,666.8498,170.03664,661.2088,799.81683,995.2381,-0.18011474609375,0.07452392578125,0.97369384765625,2.519683837890625,-2.549591064453125,0.82244873046875,1.0,1.0,4.0,2.0,1.0,85.0,event
09:43:14.605,0.6154435,0.0,0.0134040015,0.19338983,0.5683186,0.0,0.09750599,0.30848643,0.43307906,0.0,0.13172744,0.14961459,0.5255183,0.0,0.27060157,0.25768995,0.08237856,0.0,-0.21058203,-0.02793969,734.5421,819.5604,921.9048,797.8022,829.2308,-0.18011474609375,0.07452392578125,0.97369384765625,2.519683837890625,-2.549591064453125,0.82244873046875,1.0,1.0,4.0,2.0,1.0,85.0,event
09:43:14.606,0.6154435,0.0,0.0134040015,0.19338983,0.5683186,0.0,0.09750599,0.30848643,0.43307906,0.0,0.13172744,0.14961459,0.5255183,0.0,0.27060157,0.25768995,0.08237856,0.0,-0.21058203,-0.02793969,872.74725,1140.6959,781.685,808.2784,711.978,-0.18011474609375,0.07452392578125,0.97369384765625,2.519683837890625,-2.549591064453125,0.82244873046875,1.0,1.0,4.0,2.0,1.0,85.0,event
09:43:14.607,0.6154435,0.0,0.0134040015,0.19338983,0.5683186,0.0,0.09750599,0.30848643,0.43307906,0.0,0.13172744,0.14961459,0.5255183,0.0,0.27060157,0.25768995,0.08237856,0.0,-0.21058203,-0.02793969,938.022,850.58606,680.14655,815.9341,763.95605,-0.1849365234375,0.06707763671875,0.967041015625,1.2860107421875,-3.476715087890625,0.186920166015625,1.0,1.0,4.0,2.0,1.0,85.0,event
09:43:14.608,0.6154435,0.0,0.0134040015,0.19338983,0.5683186,0.0,0.09750599,0.30848643,0.43307906,0.0,0.13172744,0.14961459,0.5255183,0.0,0.27060157,0.25768995,0.08237856,0.0,-0.21058203,-0.02793969,824.7985,919.0842,752.674,800.2198,770.40295,-0.1849365234375,0.06707763671875,0.967041015625,1.2860107421875,-3.476715087890625,0.186920166015625,1.0,1.0,4.0,2.0,1.0,85.0,event
09:43:14.608,0.6154435,0.0,0.0134040015,0.19338983,0.5683186,0.0,0.09750599,0.30848643,0.43307906,0.0,0.13172744,0.14961459,0.5255183,0.0,0.27060157,0.25768995,0.08237856,0.0,-0.21058203,-0.02793969,691.8315,1033.9194,774.83514,789.7436,730.5128,-0.1849365234375,0.06707763671875,0.967041015625,1.2860107421875,-3.476715087890625,0.186920166015625,1.0,1.0,4.0,2.0,1.0,85.0,event
09:43:14.609,0.6154435,0.0,0.0134040015,0.19338983,0.5683186,0.0,0.09750599,0.30848643,0.43307906,0.0,0.13172744,0.14961459,0.5255183,0.0,0.27060157,0.25768995,0.08237856,0.0,-0.21058203,-0.02793969,708.7546,916.26373,730.10986,793.7729,670.87915,-0.1849365234375,0.06707763671875,0.967041015625,1.2860107421875,-3.476715087890625,0.186920166015625,1.0,1.0,4.0,2.0,1.0,85.0,event
09:43:14.610,0.6154435,0.0,0.0134040015,0.19338983,0.5683186,0.0,0.09750599,0.30848643,0.43307906,0.0,0.13172744,0.14961459,0.5255183,0.0,0.27060157,0.25768995,0.08237856,0.0,-0.21058203,-0.02793969,846.9597,755.4945,741.39197,806.6667,738.97437,-0.1849365234375,0.06707763671875,0.967041015625,1.2860107421875,-3.476715087890625,0.186920166015625,1.0,1.0,4.0,2.0,1.0,85.0,event
09:43:14.610,0.6154435,0.0,0.0134040015,0.19338983,0.5683186,0.0,0.09750599,0.30848643,0.43307906,0.0,0.13172744,0.14961459,0.5255183,0.0,0.27060157,0.25768995,0.08237856,0.0,-0.21058203,-0.02793969,950.9158,780.4762,767.5824,814.7253,805.05493,-0.1849365234375,0.06707763671875,0.967041015625,1.2860107421875,-3.476715087890625,0.186920166015625,1.0,1.0,4.0,2.0,1.0,85.0,event
09:43:14.611,0.6154435,0.0,0.0134040015,0.19338983,0.5683186,0.0,0.09750599,0.30848643,0.43307906,0.0,0.13172744,0.14961459,0.5255183,0.0,0.27060157,0.25768995,0.08237856,0.0,-0.21058203,-0.02793969,828.022,716.4103,736.55676,797.3993,838.0952,-0.1849365234375,0.06707763671875,0.967041015625,1.2860107421875,-3.476715087890625,0.186920166015625,1.0,1.0,4.0,2.0,1.0,85.0,event
09:43:14.612,0.6154435,0.0,0.0134040015,0.19338983,0.5683186,0.0,0.09750599,0.30848643,0.43307906,0.0,0.13172744,0.14961459,0.5255183,0.0,0.27060157,0.25768995,0.08237856,0.0,-0.21058203,-0.02793969,667.25275,600.7692,718.8278,781.685,838.0952,-0.1849365234375,0.06707763671875,0.967041015625,1.2860107421875,-3.476715087890625,0.186920166015625,1.0,1.0,4.0,2.0,1.0,85.0,event
09:43:14.613,0.6154435,0.0,0.0134040015,0.19338983,0.5683186,0.0,0.09750599,0.30848643,0.43307906,0.0,0.13172744,0.14961459,0.5255183,0.0,0.27060157,0.25768995,0.08237856,0.0,-0.21058203,-0.02793969,676.1172,114.432236,626.55676,796.5934,963.8095,-0.1849365234375,0.06707763671875,0.967041015625,1.2860107421875,-3.476715087890625,0.186920166015625,1.0,1.0,4.0,2.0,1.0,85.0,event
09:43:14.614,0.6154435,0.0,0.0134040015,0.19338983,0.5683186,0.0,0.09750599,0.30848643,0.43307906,0.0,0.13172744,0.14961459,0.5255183,0.0,0.27060157,0.25768995,0.08237856,0.0,-0.21058203,-0.02793969,821.5751,240.54945,915.4579,810.696,1001.685,-0.1849365234375,0.06707763671875,0.967041015625,1.2860107421875,-3.476715087890625,0.186920166015625,1.0,1.0,4.0,2.0,1.0,85.0,event
09:43:14.616,0.6154435,0.0,0.0134040015,0.19338983,0.5683186,0.0,0.09750599,0.30848643,0.43307906,0.0,0.13172744,0.14961459,0.5255183,0.0,0.27060157,0.25768995,0.08237856,0.0,-0.21058203,-0.02793969,949.304,1079.0476,991.2088,815.9341,827.619,-0.1849365234375,0.06707763671875,0.967041015625,1.2860107421875,-3.476715087890625,0.186920166015625,1.0,1.0,4.0,2.0,1.0,85.0,event
09:43:14.617,0.6154435,0.0,0.0134040015,0.19338983,0.5683186,0.0,0.09750599,0.30848643,0.43307906,0.0,0.13172744,0.14961459,0.5255183,0.0,0.27060157,0.25768995,0.08237856,0.0,-0.21058203,-0.02793969,868.315,917.47253,719.2308,808.68134,807.47253,-0.1849365234375,0.06707763671875,0.967041015625,1.2860107421875,-3.476715087890625,0.186920166015625,1.0,1.0,4.0,2.0,1.0,85.0,event
09:43:14.641,0.6154435,0.0,0.0134040015,0.19338983,0.5683186,0.0,0.09750599,0.30848643,0.43307906,0.0,0.13172744,0.14961459,0.5255183,0.0,0.27060157,0.25768995,0.08237856,0.0,-0.21058203,-0.02793969,708.7546,699.0842,819.15753,789.34064,799.81683,-0.17828369140625,0.06988525390625,0.96795654296875,2.130889892578125,-3.192596435546875,-0.3887939453125,1.0,1.0,4.0,2.0,1.0,85.0,event
09:43:14.643,0.6154435,0.0,0.0134040015,0.19338983,0.5683186,0.0,0.09750599,0.30848643,0.43307906,0.0,0.13172744,0.14961459,0.5255183,0.0,0.27060157,0.25768995,0.08237856,0.0,-0.21058203,-0.02793969,686.99634,990.80585,883.6264,782.49084,720.0366,-0.17828369140625,0.06988525390625,0.96795654296875,2.130889892578125,-3.192596435546875,-0.3887939453125,1.0,1.0,4.0,2.0,1.0,85.0,event
09:43:14.644,0.6154435,0.0,0.0134040015,0.19338983,0.5683186,0.0,0.09750599,0.30848643,0.43307906,0.0,0.13172744,0.14961459,0.5255183,0.0,0.27060157,0.25768995,0.08237856,0.0,-0.21058203,-0.02793969,810.293,1110.4762,822.381,797.3993,682.96704,-0.17828369140625,0.06988525390625,0.96795654296875,2.130889892578125,-3.192596435546875,-0.3887939453125,1.0,1.0,4.0,2.0,1.0,85.0,event
09:43:14.644,0.6154435,0.0,0.0134040015,0.19338983,0.5683186,0.0,0.09750599,0.30848643,0.43307906,0.0,0.13172744,0.14961459,0.5255183,0.0,0.27060157,0.25768995,0.08237856,0.0,-0.21058203,-0.02793969,937.619,1021.8315,770.80585,811.9048,722.8571,-0.17828369140625,0.06988525390625,0.96795654296875,2.130889892578125,-3.192596435546875,-0.3887939453125,1.0,1.0,4.0,2.0,1.0,85.0,event
09:43:14.645,0.6154435,0.0,0.0134040015,0.19338983,0.5683186,0.0,0.09750599,0.30848643,0.43307906,0.0,0.13172744,0.14961459,0.5255183,0.0,0.27060157,0.25768995,0.08237856,0.0,-0.21058203,-0.02793969,876.77655,898.5348,790.54944,802.23444,709.15753,-0.17828369140625,0.06988525390625,0.96795654296875,2.130889892578125,-3.192596435546875,-0.3887939453125,1.0,1.0,4.0,2.0,1.0,85.0,event
09:43:14.650,0.6154435,0.0,0.0134040015,0.19338983,0.5683186,0.0,0.09750599,0.30848643,0.43307906,0.0,0.13172744,0.14961459,0.5255183,0.0,0.27060157,0.25768995,0.08237856,0.0,-0.21058203,-0.02793969,708.7546,712.381,774.43225,784.5055,749.45056,-0.17828369140625,0.06988525390625,0.96795654296875,2.130889892578125,-3.192596435546875,-0.3887939453125,1.0,1.0,4.0,2.0,1.0,85.0,event
09:43:14.652,0.6154435,0.0,0.0134040015,0.19338983,0.5683186,0.0,0.09750599,0.30848643,0.43307906,0.0,0.13172744,0.14961459,0.5255183,0.0,0.27060157,0.25768995,0.08237856,0.0,-0.21058203,-0.02793969,664.43225,675.31134,805.4579,782.0879,773.6264,-0.17828369140625,0.06988525390625,0.96795654296875,2.130889892578125,-3.192596435546875,-0.3887939453125,1.0,1.0,4.0,2.0,1.0,85.0,event
09:43:14.653,0.6154435,0.0,0.0134040015,0.19338983,0.5683186,0.0,0.09750599,0.30848643,0.43307906,0.0,0.13172744,0.14961459,0.5255183,0.0,0.27060157,0.25768995,0.08237856,0.0,-0.21058203,-0.02793969,776.04395,574.17584,782.8938,805.4579,860.2564,-0.17828369140625,0.06988525390625,0.96795654296875,2.130889892578125,-3.192596435546875,-0.3887939453125,1.0,1.0,4.0,2.0,1.0,85.0,event
09:43:14.654,0.6154435,0.0,0.0134040015,0.19338983,0.5683186,0.0,0.09750599,0.30848643,0.43307906,0.0,0.13172744,0.14961459,0.5255183,0.0,0.27060157,0.25768995,0.08237856,0.0,-0.21058203,-0.02793969,915.4579,249.81685,809.4872,824.7985,1030.2931,-0.17828369140625,0.06988525390625,0.96795654296875,2.130889892578125,-3.192596435546875,-0.3887939453125,1.0,1.0,4.0,2.0,1.0,85.0,event
09:43:14.656,0.6154435,0.0,0.0134040015,0.19338983,0.5683186,0.0,0.09750599,0.30848643,0.43307906,0.0,0.13172744,0.14961459,0.5255183,0.0,0.27060157,0.25768995,0.08237856,0.0,-0.21058203,-0.02793969,892.49084,849.3773,944.0659,811.50183,822.381,-0.17828369140625,0.06988525390625,0.96795654296875,2.130889892578125,-3.192596435546875,-0.3887939453125,1.0,1.0,4.0,2.0,1.0,85.0,event
09:43:14.657,0.6154435,0.0,0.0134040015,0.19338983,0.5683186,0.0,0.09750599,0.30848643,0.43307906,0.0,0.13172744,0.14961459,0.5255183,0.0,0.27060157,0.25768995,0.08237856,0.0,-0.21058203,-0.02793969,733.73627,990.40295,756.7033,795.38464,706.337,-0.17828369140625,0.06988525390625,0.96795654296875,2.130889892578125,-3.192596435546875,-0.3887939453125,1.0,1.0,4.0,2.0,1.0,85.0,event
09:43:14.658,0.6682722,0.0,0.0134040015,0.18167295,0.6037198,0.0,0.09750599,0.34404826,0.43307906,0.0,0.13172744,0.13080993,0.5276455,0.0,0.27060157,0.27089188,0.049463496,0.0,-0.21058203,-5.7982845e-05,660.0,482.30768,692.6374,787.72894,819.15753,-0.17828369140625,0.06988525390625,0.96795654296875,2.130889892578125,-3.192596435546875,-0.3887939453125,1.0,1.0,4.0,2.0,1.0,85.0,event
09:43:14.687,0.6682722,0.0,0.0134040015,0.18167295,0.6037198,0.0,0.09750599,0.34404826,0.43307906,0.0,0.13172744,0.13080993,0.5276455,0.0,0.27060157,0.27089188,0.049463496,0.0,-0.21058203,-5.7982845e-05,771.6117,701.50183,896.9231,802.6374,782.0879,-0.18292236328125,0.0721435546875,0.9698486328125,1.495361328125,-3.00567626953125,0.381317138671875,1.0,1.0,4.0,2.0,1.0,85.0,event
09:43:14.688,0.6682722,0.0,0.0134040015,0.18167295,0.6037198,0.0,0.09750599,0.34404826,0.43307906,0.0,0.13172744,0.13080993,0.5276455,0.0,0.27060157,0.27089188,0.049463496,0.0,-0.21058203,-5.7982845e-05,925.5311,1177.3627,921.0989,814.3223,688.60803,-0.18292236328125,0.0721435546875,0.9698486328125,1.495361328125,-3.00567626953125,0.381317138671875,1.0,1.0,4.0,2.0,1.0,85.0,event
09:43:14.689,0.6682722,0.0,0.0134040015,0.18167295,0.6037198,0.0,0.09750599,0.34404826,0.43307906,0.0,0.13172744,0.13080993,0.5276455,0.0,0.27060157,0.27089188,0.049463496,0.0,-0.21058203,-5.7982845e-05,914.65204,1145.1282,773.6264,811.50183,755.4945,-0.18292236328125,0.0721435546875,0.9698486328125,1.495361328125,-3.00567626953125,0.381317138671875,1.0,1.0,4.0,2.0,1.0,85.0,event
09:43:14.690,0.6682722,0.0,0.0134040015,0.18167295,0.6037198,0.0,0.09750599,0.34404826,0.43307906,0.0,0.13172744,0.13080993,0.5276455,0.0,0.27060157,0.27089188,0.049463496,0.0,-0.21058203,-5.7982845e-05,755.09155,805.4579,712.381,797.3993,796.1905,-0.18292236328125,0.0721435546875,0.9698486328125,1.495361328125,-3.00567626953125,0.381317138671875,1.0,1.0,4.0,2.0,1.0,85.0,event
09:43:14.690,0.6682722,0.0,0.0134040015,0.18167295,0.6037198,0.0,0.09750599,0.34404826,0.43307906,0.0,0.13172744,0.13080993,0.5276455,0.0,0.27060157,0.27089188,0.049463496,0.0,-0.21058203,-5.7982845e-05,665.2381,860.65936,798.60803,782.0879,745.42126,-0.18292236328125,0.0721435546875,0.9698486328125,1.495361328125,-3.00567626953125,0.381317138671875,1.0,1.0,4.0,2.0,1.0,85.0,event
09:43:14.691,0.6682722,0.0,0.0134040015,0.18167295,0.6037198,0.0,0.09750599,0.34404826,0.43307906,0.0,0.13172744,0.13080993,0.5276455,0.0,0.27060157,0.27089188,0.049463496,0.0,-0.21058203,-5.7982845e-05,763.5531,869.92676,790.54944,796.5934,811.0989,-0.18292236328125,0.0721435546875,0.9698486328125,1.495361328125,-3.00567626953125,0.381317138671875,1.0,1.0,4.0,2.0,1.0,85.0,event
09:43:14.692,0.6682722,0.0,0.0134040015,0.18167295,0.6037198,0.0,0.09750599,0.34404826,0.43307906,0.0,0.13172744,0.13080993,0.5276455,0.0,0.27060157,0.27089188,0.049463496,0.0,-0.21058203,-5.7982845e-05,915.4579,730.9158,745.82416,816.7399,853.4066,-0.18292236328125,0.0721435546875,0.9698486328125,1.495361328125,-3.00567626953125,0.381317138671875,1.0,1.0,4.0,2.0,1.0,85.0,event
09:43:14.693,0.6682722,0.0,0.0134040015,0.18167295,0.6037198,0.0,0.09750599,0.34404826,0.43307906,0.0,0.13172744,0.13080993,0.5276455,0.0,0.27060157,0.27089188,0.049463496,0.0,-0.21058203,-5.7982845e-05,916.6667,324.7619,668.46155,823.1868,1004.90845,-0.18292236328125,0.0721435546875,0.9698486328125,1.495361328125,-3.00567626953125,0.381317138671875,1.0,1.0,4.0,2.0,1.0,85.0,event
09:43:14.693,0.6682722,0.0,0.0134040015,0.18167295,0.6037198,0.0,0.09750599,0.34404826,0.43307906,0.0,0.13172744,0.13080993,0.5276455,0.0,0.27060157,0.27089188,0.049463496,0.0,-0.21058203,-5.7982845e-05,767.98535,451.68497,865.4945,807.8755,923.91943,-0.18292236328125,0.0721435546875,0.9698486328125,1.495361328125,-3.00567626953125,0.381317138671875,1.0,1.0,4.0,2.0,1.0,85.0,event
09:43:14.694,0.6682722,0.0,0.0134040015,0.18167295,0.6037198,0.0,0.09750599,0.34404826,0.43307906,0.0,0.13172744,0.13080993,0.5276455,0.0,0.27060157,0.27089188,0.049463496,0.0,-0.21058203,-5.7982845e-05,675.31134,1002.49084,875.16486,789.34064,669.2674,-0.18292236328125,0.0721435546875,0.9698486328125,1.495361328125,-3.00567626953125,0.381317138671875,1.0,1.0,4.0,2.0,1.0,85.0,event
09:43:14.695,0.6682722,0.0,0.0134040015,0.18167295,0.6037198,0.0,0.09750599,0.34404826,0.43307906,0.0,0.13172744,0.13080993,0.5276455,0.0,0.27060157,0.27089188,0.049463496,0.0,-0.21058203,-5.7982845e-05,741.79486,961.39197,737.76556,792.1612,685.38464,-0.18292236328125,0.0721435546875,0.9698486328125,1.495361328125,-3.00567626953125,0.381317138671875,1.0,1.0,4.0,2.0,1.0,85.0,event
09:43:14.695,0.6682722,0.0,0.0134040015,0.18167295,0.6037198,0.0,0.09750599,0.34404826,0.43307906,0.0,0.13172744,0.13080993,0.5276455,0.0,0.27060157,0.27089188,0.049463496,0.0,-0.21058203,-5.7982845e-05,902.96704,946.08057,830.84247,813.1135,791.75824,-0.18292236328125,0.0721435546875,0.9698486328125,1.495361328125,-3.00567626953125,0.381317138671875,1.0,1.0,4.0,2.0,1.0,85.0,event
09:43:14.734,0.6682722,0.0,0.0134040015,0.18167295,0.6037198,0.0,0.09750599,0.34404826,0.43307906,0.0,0.13172744,0.13080993,0.5276455,0.0,0.27060157,0.27089188,0.049463496,0.0,-0.21058203,-5.7982845e-05,961.79486,1180.989,833.2601,818.3516,814.7253,-0.18695068359375,0.068115234375,0.96661376953125,1.95892333984375,-2.94586181640625,-0.485992431640625,1.0,1.0,4.0,2.0,1.0,85.0,event
09:43:14.736,0.6682722,0.0,0.0134040015,0.18167295,0.6037198,0.0,0.09750599,0.34404826,0.43307906,0.0,0.13172744,0.13080993,0.5276455,0.0,0.27060157,0.27089188,0.049463496,0.0,-0.21058203,-5.7982845e-05,794.17584,1037.9487,673.69965,794.9817,772.8205,-0.18695068359375,0.068115234375,0.96661376953125,1.95892333984375,-2.94586181640625,-0.485992431640625,1.0,1.0,4.0,2.0,1.0,85.0,event
09:43:14.736,0.6682722,0.0,0.0134040015,0.18167295,0.6037198,0.0,0.09750599,0.34404826,0.43307906,0.0,0.13172744,0.13080993,0.5276455,0.0,0.27060157,0.27089188,0.049463496,0.0,-0.21058203,-5.7982845e-05,653.5531,608.022,658.3883,781.28204,772.01465,-0.18695068359375,0.068115234375,0.96661376953125,1.95892333984375,-2.94586181640625,-0.485992431640625,1.0,1.0,4.0,2.0,1.0,85.0,event
09:43:14.737,0.6682722,0.0,0.0134040015,0.18167295,0.6037198,0.0,0.09750599,0.34404826,0.43307906,0.0,0.13172744,0.13080993,0.5276455,0.0,0.27060157,0.27089188,0.049463496,0.0,-0.21058203,-5.7982845e-05,715.2015,565.31134,832.4542,788.93774,785.7143,-0.18695068359375,0.068115234375,0.96661376953125,1.95892333984375,-2.94586181640625,-0.485992431640625,1.0,1.0,4.0,2.0,1.0,85.0,event
09:43:14.738,0.6682722,0.0,0.0134040015,0.18167295,0.6037198,0.0,0.09750599,0.34404826,0.43307906,0.0,0.13172744,0.13080993,0.5276455,0.0,0.27060157,0.27089188,0.049463496,0.0,-0.21058203,-5.7982845e-05,875.9707,967.4359,848.1685,802.23444,745.82416,-0.18695068359375,0.068115234375,0.96661376953125,1.95892333984375,-2.94586181640625,-0.485992431640625,1.0,1.0,4.0,2.0,1.0,85.0,event
09:43:14.738,0.6682722,0.0,0.0134040015,0.18167295,0.6037198,0.0,0.09750599,0.34404826,0.43307906,0.0,0.13172744,0.13080993,0.5276455,0.0,0.27060157,0.27089188,0.049463496,0.0,-0.21058203,-5.7982845e-05,931.5751,1007.72894,726.8865,809.89014,769.59705,-0.18695068359375,0.068115234375,0.96661376953125,1.95892333984375,-2.94586181640625,-0.485992431640625,1.0,1.0,4.0,2.0,1.0,85.0,event
09:43:14.739,0.6682722,0.0,0.0134040015,0.18167295,0.6037198,0.0,0.09750599,0.34404826,0.43307906,0.0,0.13172744,0.13080993,0.5276455,0.0,0.27060157,0.27089188,0.049463496,0.0,-0.21058203,-5.7982845e-05,786.9231,609.2308,632.1978,797.3993,942.8571,-0.18695068359375,0.068115234375,0.96661376953125,1.95892333984375,-2.94586181640625,-0.485992431640625,1.0,1.0,4.0,2.0,1.0,85.0,event
09:43:14.740,0.6682722,0.0,0.0134040015,0.18167295,0.6037198,0.0,0.09750599,0.34404826,0.43307906,0.0,0.13172744,0.13080993,0.5276455,0.0,0.27060157,0.27089188,0.049463496,0.0,-0.21058203,-5.7982845e-05,659.19415,165.20146,649.12085,778.86444,1016.1905,-0.18695068359375,0.068115234375,0.96661376953125,1.95892333984375,-2.94586181640625,-0.485992431640625,1.0,1.0,4.0,2.0,1.0,85.0,event
09:43:14.741,0.6682722,0.0,0.0134040015,0.18167295,0.6037198,0.0,0.09750599,0.34404826,0.43307906,0.0,0.13172744,0.13080993,0.5276455,0.0,0.27060157,0.27089188,0.049463496,0.0,-0.21058203,-5.7982845e-05,714.7985,728.0952,886.04395,778.86444,767.5824,-0.18695068359375,0.068115234375,0.96661376953125,1.95892333984375,-2.94586181640625,-0.485992431640625,1.0,1.0,4.0,2.0,1.0,85.0,event
09:43:14.741,0.6682722,0.0,0.0134040015,0.18167295,0.6037198,0.0,0.09750599,0.34404826,0.43307906,0.0,0.13172744,0.13080993,0.5276455,0.0,0.27060157,0.27089188,0.049463496,0.0,-0.21058203,-5.7982845e-05,859.85345,1179.7803,812.3077,803.8461,708.7546,-0.18695068359375,0.068115234375,0.96661376953125,1.95892333984375,-2.94586181640625,-0.485992431640625,1.0,1.0,4.0,2.0,1.0,85.0,event
09:43:14.742,0.6682722,0.0,0.0134040015,0.18167295,0.6037198,0.0,0.09750599,0.34404826,0.43307906,0.0,0.13172744,0.13080993,0.5276455,0.0,0.27060157,0.27089188,0.049463496,0.0,-0.21058203,-5.7982845e-05,933.9927,915.8608,653.5531,823.1868,770.80585,-0.18695068359375,0.068115234375,0.96661376953125,1.95892333984375,-2.94586181640625,-0.485992431640625,1.0,1.0,4.0,2.0,1.0,85.0,event
09:43:14.743,0.6682722,0.0,0.0134040015,0.18167295,0.6037198,0.0,0.09750599,0.34404826,0.43307906,0.0,0.13172744,0.13080993,0.5276455,0.0,0.27060157,0.27089188,0.049463496,0.0,-0.21058203,-5.7982845e-05,823.5897,903.7729,719.2308,803.44324,732.52747,-0.18695068359375,0.068115234375,0.96661376953125,1.95892333984375,-2.94586181640625,-0.485992431640625,1.0,1.0,4.0,2.0,1.0,85.0,event
09:43:14.804,0.6682722,0.0,0.0134040015,0.18167295,0.6037198,0.0,0.09750599,0.34404826,0.43307906,0.0,0.13172744,0.13080993,0.5276455,0.0,0.27060157,0.27089188,0.049463496,0.0,-0.21058203,-5.7982845e-05,682.1612,1027.4725,741.39197,776.8498,661.6117,-0.18695068359375,0.068115234375,0.96661376953125,1.95892333984375,-2.94586181640625,-0.485992431640625,1.0,1.0,4.0,2.0,1.0,85.0,event
09:43:14.805,0.7284488,0.0,0.0134040015,0.19301145,0.6460034,0.0,0.09750599,0.38647866,0.43173152,0.0,0.13172744,0.11058445,0.5042344,0.0,0.27060157,0.27802896,-0.0007544641,0.0,-0.21058203,0.031003252,697.0696,995.64105,700.696,780.87915,709.9634,-0.18695068359375,0.068115234375,0.96661376953125,1.95892333984375,-2.94586181640625,-0.485992431640625,1.0,1.0,4.0,2.0,1.0,85.0,event
09:43:14.812,0.7284488,0.0,0.0134040015,0.19301145,0.6460034,0.0,0.09750599,0.38647866,0.43173152,0.0,0.13172744,0.11058445,0.5042344,0.0,0.27060157,0.27802896,-0.0007544641,0.0,-0.21058203,0.031003252,832.4542,833.2601,682.5641,806.26373,824.3956,-0.18695068359375,0.068115234375,0.96661376953125,1.95892333984375,-2.94586181640625,-0.485992431640625,1.0,1.0,4.0,2.0,1.0,85.0,event
09:43:14.813,0.7284488,0.0,0.0134040015,0.19301145,0.6460034,0.0,0.09750599,0.38647866,0.43173152,0.0,0.13172744,0.11058445,0.5042344,0.0,0.27060157,0.27802896,-0.0007544641,0.0,-0.21058203,0.031003252,946.4835,975.09155,745.0183,818.3516,738.5714,-0.18695068359375,0.068115234375,0.96661376953125,1.95892333984375,-2.94586181640625,-0.485992431640625,1.0,1.0,4.0,2.0,1.0,85.0,event
09:43:14.814,0.7284488,0.0,0.0134040015,0.19301145,0.6460034,0.0,0.09750599,0.38647866,0.43173152,0.0,0.13172744,0.11058445,0.5042344,0.0,0.27060157,0.27802896,-0.0007544641,0.0,-0.21058203,0.031003252,855.42126,1002.0879,701.9048,803.44324,741.79486,-0.18695068359375,0.068115234375,0.96661376953125,1.95892333984375,-2.94586181640625,-0.485992431640625,1.0,1.0,4.0,2.0,1.0,85.0,event
09:43:14.814,0.7284488,0.0,0.0134040015,0.19301145,0.6460034,0.0,0.09750599,0.38647866,0.43173152,0.0,0.13172744,0.11058445,0.5042344,0.0,0.27060157,0.27802896,-0.0007544641,0.0,-0.21058203,0.031003252,693.0403,702.71063,623.3333,786.52014,847.3626,-0.18695068359375,0.068115234375,0.96661376953125,1.95892333984375,-2.94586181640625,-0.485992431640625,1.0,1.0,4.0,2.0,1.0,85.0,event
09:43:14.815,0.7284488,0.0,0.0134040015,0.19301145,0.6460034,0.0,0.09750599,0.38647866,0.43173152,0.0,0.13172744,0.11058445,0.5042344,0.0,0.27060157,0.27802896,-0.0007544641,0.0,-0.21058203,0.031003252,672.8938,165.20146,552.4176,788.5348,1060.9158,-0.18695068359375,0.068115234375,0.96661376953125,1.95892333984375,-2.94586181640625,-0.485992431640625,1.0,1.0,4.0,2.0,1.0,85.0,event
09:43:14.816,0.7284488,0.0,0.0134040015,0.19301145,0.6460034,0.0,0.09750599,0.38647866,0.43173152,0.0,0.13172744,0.11058445,0.5042344,0.0,0.27060157,0.27802896,-0.0007544641,0.0,-0.21058203,0.031003252,814.7253,291.3187,816.7399,809.89014,1050.0366,-0.18695068359375,0.068115234375,0.96661376953125,1.95892333984375,-2.94586181640625,-0.485992431640625,1.0,1.0,4.0,2.0,1.0,85.0,event
09:43:14.817,0.7284488,0.0,0.0134040015,0.19301145,0.6460034,0.0,0.09750599,0.38647866,0.43173152,0.0,0.13172744,0.11058445,0.5042344,0.0,0.27060157,0.27802896,-0.0007544641,0.0,-0.21058203,0.031003252,951.7216,1050.0366,883.22345,822.381,714.7985,-0.18695068359375,0.068115234375,0.96661376953125,1.95892333984375,-2.94586181640625,-0.485992431640625,1.0,1.0,4.0,2.0,1.0,85.0,event
09:43:14.817,0.7284488,0.0,0.0134040015,0.19301145,0.6460034,0.0,0.09750599,0.38647866,0.43173152,0.0,0.13172744,0.11058445,0.5042344,0.0,0.27060157,0.27802896,-0.0007544641,0.0,-0.21058203,0.031003252,875.56775,1033.9194,646.30035,812.71063,736.9597,-0.18695068359375,0.068115234375,0.96661376953125,1.95892333984375,-2.94586181640625,-0.485992431640625,1.0,1.0,4.0,2.0,1.0,85.0,event
09:43:14.818,0.7284488,0.0,0.0134040015,0.19301145,0.6460034,0.0,0.09750599,0.38647866,0.43173152,0.0,0.13172744,0.11058445,0.5042344,0.0,0.27060157,0.27802896,-0.0007544641,0.0,-0.21058203,0.031003252,711.1722,726.4835,667.25275,796.99634,780.4762,-0.18695068359375,0.068115234375,0.96661376953125,1.95892333984375,-2.94586181640625,-0.485992431640625,1.0,1.0,4.0,2.0,1.0,85.0,event
09:43:14.819,0.7284488,0.0,0.0134040015,0.19301145,0.6460034,0.0,0.09750599,0.38647866,0.43173152,0.0,0.13172744,0.11058445,0.5042344,0.0,0.27060157,0.27802896,-0.0007544641,0.0,-0.21058203,0.031003252,686.99634,909.41394,753.0769,792.1612,696.26373,-0.18695068359375,0.068115234375,0.96661376953125,1.95892333984375,-2.94586181640625,-0.485992431640625,1.0,1.0,4.0,2.0,1.0,85.0,event
09:43:14.845,0.7284488,0.0,0.0134040015,0.19301145,0.6460034,0.0,0.09750599,0.38647866,0.43173152,0.0,0.13172744,0.11058445,0.5042344,0.0,0.27060157,0.27802896,-0.0007544641,0.0,-0.21058203,0.031003252,807.0696,1130.2197,730.10986,811.50183,719.2308,-0.1796875,0.0689697265625,0.96881103515625,1.734619140625,-3.925323486328125,-0.157012939453125,1.0,1.0,4.0,2.0,1.0,85.0,event
09:43:14.847,0.7284488,0.0,0.0134040015,0.19301145,0.6460034,0.0,0.09750599,0.38647866,0.43173152,0.0,0.13172744,0.11058445,0.5042344,0.0,0.27060157,0.27802896,-0.0007544641,0.0,-0.21058203,0.031003252,940.84247,1064.9451,662.4176,830.4396,794.57874,-0.1796875,0.0689697265625,0.96881103515625,1.734619140625,-3.925323486328125,-0.157012939453125,1.0,1.0,4.0,2.0,1.0,85.0,event
09:43:14.847,0.7284488,0.0,0.0134040015,0.19301145,0.6460034,0.0,0.09750599,0.38647866,0.43173152,0.0,0.13172744,0.11058445,0.5042344,0.0,0.27060157,0.27802896,-0.0007544641,0.0,-0.21058203,0.031003252,894.90845,919.89014,675.31134,817.5458,805.05493,-0.1796875,0.0689697265625,0.96881103515625,1.734619140625,-3.925323486328125,-0.157012939453125,1.0,1.0,4.0,2.0,1.0,85.0,event
09:43:14.848,0.7284488,0.0,0.0134040015,0.19301145,0.6460034,0.0,0.09750599,0.38647866,0.43173152,0.0,0.13172744,0.11058445,0.5042344,0.0,0.27060157,0.27802896,-0.0007544641,0.0,-0.21058203,0.031003252,734.5421,962.6007,684.57874,799.41394,728.49817,-0.1796875,0.0689697265625,0.96881103515625,1.734619140625,-3.925323486328125,-0.157012939453125,1.0,1.0,4.0,2.0,1.0,85.0,event
09:43:14.849,0.7284488,0.0,0.0134040015,0.19301145,0.6460034,0.0,0.09750599,0.38647866,0.43173152,0.0,0.13172744,0.11058445,0.5042344,0.0,0.27060157,0.27802896,-0.0007544641,0.0,-0.21058203,0.031003252,688.20514,1004.10254,657.5824,792.96704,695.05493,-0.1796875,0.0689697265625,0.96881103515625,1.734619140625,-3.925323486328125,-0.157012939453125,1.0,1.0,4.0,2.0,1.0,85.0,event
09:43:14.850,0.7284488,0.0,0.0134040015,0.19301145,0.6460034,0.0,0.09750599,0.38647866,0.43173152,0.0,0.13172744,0.11058445,0.5042344,0.0,0.27060157,0.27802896,-0.0007544641,0.0,-0.21058203,0.031003252,792.5641,770.40295,611.6484,806.6667,900.9524,-0.1796875,0.0689697265625,0.96881103515625,1.734619140625,-3.925323486328125,-0.157012939453125,1.0,1.0,4.0,2.0,1.0,85.0,event
09:43:14.850,0.7284488,0.0,0.0134040015,0.19301145,0.6460034,0.0,0.09750599,0.38647866,0.43173152,0.0,0.13172744,0.11058445,0.5042344,0.0,0.27060157,0.27802896,-0.0007544641,0.0,-0.21058203,0.031003252,924.3223,544.35895,656.77655,824.3956,1034.3224,-0.1796875,0.0689697265625,0.96881103515625,1.734619140625,-3.925323486328125,-0.157012939453125,1.0,1.0,4.0,2.0,1.0,85.0,event
09:43:14.851,0.7284488,0.0,0.0134040015,0.19301145,0.6460034,0.0,0.09750599,0.38647866,0.43173152,0.0,0.13172744,0.11058445,0.5042344,0.0,0.27060157,0.27802896,-0.0007544641,0.0,-0.21058203,0.031003252,907.3993,660.80585,683.36993,820.7692,907.3993,-0.1796875,0.0689697265625,0.96881103515625,1.734619140625,-3.925323486328125,-0.157012939453125,1.0,1.0,4.0,2.0,1.0,85.0,event
09:43:14.853,0.7284488,0.0,0.0134040015,0.19301145,0.6460034,0.0,0.09750599,0.38647866,0.43173152,0.0,0.13172744,0.11058445,0.5042344,0.0,0.27060157,0.27802896,-0.0007544641,0.0,-0.21058203,0.031003252,757.50916,830.4396,676.9231,810.696,807.0696,-0.1796875,0.0689697265625,0.96881103515625,1.734619140625,-3.925323486328125,-0.157012939453125,1.0,1.0,4.0,2.0,1.0,85.0,event
09:43:14.854,0.7284488,0.0,0.0134040015,0.19301145,0.6460034,0.0,0.09750599,0.38647866,0.43173152,0.0,0.13172744,0.11058445,0.5042344,0.0,0.27060157,0.27802896,-0.0007544641,0.0,-0.21058203,0.031003252,672.8938,624.5421,551.2088,803.44324,878.7912,-0.1796875,0.0689697265625,0.96881103515625,1.734619140625,-3.925323486328125,-0.157012939453125,1.0,1.0,4.0,2.0,1.0,85.0,event
09:43:14.855,0.7284488,0.0,0.0134040015,0.19301145,0.6460034,0.0,0.09750599,0.38647866,0.43173152,0.0,0.13172744,0.11058445,0.5042344,0.0,0.27060157,0.27802896,-0.0007544641,0.0,-0.21058203,0.031003252,753.8828,131.75824,553.22345,812.3077,1012.5641,-0.1796875,0.0689697265625,0.96881103515625,1.734619140625,-3.925323486328125,-0.157012939453125,1.0,1.0,4.0,2.0,1.0,85.0,event
09:43:14.856,0.7284488,0.0,0.0134040015,0.19301145,0.6460034,0.0,0.09750599,0.38647866,0.43173152,0.0,0.13172744,0.11058445,0.5042344,0.0,0.27060157,0.27802896,-0.0007544641,0.0,-0.21058203,0.031003252,910.6227,801.8315,828.022,818.7546,816.7399,-0.1796875,0.0689697265625,0.96881103515625,1.734619140625,-3.925323486328125,-0.157012939453125,1.0,1.0,4.0,2.0,1.0,85.0,event
09:43:14.857,0.7284488,0.0,0.0134040015,0.19301145,0.6460034,0.0,0.09750599,0.38647866,0.43173152,0.0,0.13172744,0.11058445,0.5042344,0.0,0.27060157,0.27802896,-0.0007544641,0.0,-0.21058203,0.031003252,914.2491,1223.6996,678.1319,820.3663,780.87915,-0.18792724609375,0.06488037109375,0.96392822265625,1.614990234375,-3.4991455078125,0.6878662109375,1.0,1.0,4.0,2.0,1.0,85.0,event
09:43:14.858,0.7284488,0.0,0.0134040015,0.19301145,0.6460034,0.0,0.09750599,0.38647866,0.43173152,0.0,0.13172744,0.11058445,0.5042344,0.0,0.27060157,0.27802896,-0.0007544641,0.0,-0.21058203,0.031003252,751.8681,882.01465,530.65936,806.6667,895.31134,-0.18792724609375,0.06488037109375,0.96392822265625,1.614990234375,-3.4991455078125,0.6878662109375,1.0,1.0,4.0,2.0,1.0,85.0,event
09:43:14.859,0.7284488,0.0,0.0134040015,0.19301145,0.6460034,0.0,0.09750599,0.38647866,0.43173152,0.0,0.13172744,0.11058445,0.5042344,0.0,0.27060157,0.27802896,-0.0007544641,0.0,-0.21058203,0.031003252,661.6117,900.54944,623.3333,786.1172,775.2381,-0.18792724609375,0.06488037109375,0.96392822265625,1.614990234375,-3.4991455078125,0.6878662109375,1.0,1.0,4.0,2.0,1.0,85.0,event
09:43:14.860,0.79821527,0.0,0.0134040015,0.22326049,0.6919791,0.0,0.09750599,0.42612174,0.42695016,0.0,0.13172744,0.05825405,0.4494713,0.0,0.27060157,0.280466,-0.05531872,0.0,-0.21058203,0.06129858,747.4359,1057.6923,672.49084,793.7729,635.42126,-0.18792724609375,0.06488037109375,0.96392822265625,1.614990234375,-3.4991455078125,0.6878662109375,1.0,1.0,4.0,2.0,1.0,85.0,event
09:43:14.864,0.79821527,0.0,0.0134040015,0.22326049,0.6919791,0.0,0.09750599,0.42612174,0.42695016,0.0,0.13172744,0.05825405,0.4494713,0.0,0.27060157,0.280466,-0.05531872,0.0,-0.21058203,0.06129858,898.93774,1045.2014,613.2601,814.3223,736.9597,-0.18792724609375,0.06488037109375,0.96392822265625,1.614990234375,-3.4991455078125,0.6878662109375,1.0,1.0,4.0,2.0,1.0,85.0,event
09:43:14.865,0.79821527,0.0,0.0134040015,0.22326049,0.6919791,0.0,0.09750599,0.42612174,0.42695016,0.0,0.13172744,0.05825405,0.4494713,0.0,0.27060157,0.280466,-0.05531872,0.0,-0.21058203,0.06129858,922.3077,700.293,530.65936,816.337,884.0293,-0.18792724609375,0.06488037109375,0.96392822265625,1.614990234375,-3.4991455078125,0.6878662109375,1.0,1.0,4.0,2.0,1.0,85.0,event
09:43:14.866,0.79821527,0.0,0.0134040015,0.22326049,0.6919791,0.0,0.09750599,0.42612174,0.42695016,0.0,0.13172744,0.05825405,0.4494713,0.0,0.27060157,0.280466,-0.05531872,0.0,-0.21058203,0.06129858,783.69965,575.38464,601.1722,803.8461,811.0989,-0.18792724609375,0.06488037109375,0.96392822265625,1.614990234375,-3.4991455078125,0.6878662109375,1.0,1.0,4.0,2.0,1.0,85.0,event
09:43:14.867,0.79821527,0.0,0.0134040015,0.22326049,0.6919791,0.0,0.09750599,0.42612174,0.42695016,0.0,0.13172744,0.05825405,0.4494713,0.0,0.27060157,0.280466,-0.05531872,0.0,-0.21058203,0.06129858,678.93774,831.2454,712.7839,796.1905,657.5824,-0.18792724609375,0.06488037109375,0.96392822265625,1.614990234375,-3.4991455078125,0.6878662109375,1.0,1.0,4.0,2.0,1.0,85.0,event
09:43:14.868,0.79821527,0.0,0.0134040015,0.22326049,0.6919791,0.0,0.09750599,0.42612174,0.42695016,0.0,0.13172744,0.05825405,0.4494713,0.0,0.27060157,0.280466,-0.05531872,0.0,-0.21058203,0.06129858,730.5128,870.7326,633.4066,797.3993,657.1795,-0.18792724609375,0.06488037109375,0.96392822265625,1.614990234375,-3.4991455078125,0.6878662109375,1.0,1.0,4.0,2.0,1.0,85.0,event
09:43:14.868,0.79821527,0.0,0.0134040015,0.22326049,0.6919791,0.0,0.09750599,0.42612174,0.42695016,0.0,0.13172744,0.05825405,0.4494713,0.0,0.27060157,0.280466,-0.05531872,0.0,-0.21058203,0.06129858,867.50916,327.58243,518.97437,814.3223,898.5348,-0.18792724609375,0.06488037109375,0.96392822265625,1.614990234375,-3.4991455078125,0.6878662109375,1.0,1.0,4.0,2.0,1.0,85.0,event
09:43:14.869,0.79821527,0.0,0.0134040015,0.22326049,0.6919791,0.0,0.09750599,0.42612174,0.42695016,0.0,0.13172744,0.05825405,0.4494713,0.0,0.27060157,0.280466,-0.05531872,0.0,-0.21058203,0.06129858,933.5897,579.81683,729.707,822.7839,850.58606,-0.18792724609375,0.06488037109375,0.96392822265625,1.614990234375,-3.4991455078125,0.6878662109375,1.0,1.0,4.0,2.0,1.0,85.0,event
09:43:14.870,0.79821527,0.0,0.0134040015,0.22326049,0.6919791,0.0,0.09750599,0.42612174,0.42695016,0.0,0.13172744,0.05825405,0.4494713,0.0,0.27060157,0.280466,-0.05531872,0.0,-0.21058203,0.06129858,800.2198,916.26373,697.0696,801.8315,736.9597,-0.18792724609375,0.06488037109375,0.96392822265625,1.614990234375,-3.4991455078125,0.6878662109375,1.0,1.0,4.0,2.0,1.0,85.0,event
09:43:14.913,0.79821527,0.0,0.0134040015,0.22326049,0.6919791,0.0,0.09750599,0.42612174,0.42695016,0.0,0.13172744,0.05825405,0.4494713,0.0,0.27060157,0.280466,-0.05531872,0.0,-0.21058203,0.06129858,660.80585,752.27106,608.4249,782.49084,803.44324,-0.18426513671875,0.07049560546875,0.97418212890625,1.98883056640625,-3.30474853515625,-0.351409912109375,1.0,1.0,4.0,2.0,1.0,85.0,event
09:43:14.915,0.79821527,0.0,0.0134040015,0.22326049,0.6919791,0.0,0.09750599,0.42612174,0.42695016,0.0,0.13172744,0.05825405,0.4494713,0.0,0.27060157,0.280466,-0.05531872,0.0,-0.21058203,0.06129858,705.5311,602.7839,698.68134,794.17584,835.6777,-0.18426513671875,0.07049560546875,0.97418212890625,1.98883056640625,-3.30474853515625,-0.351409912109375,1.0,1.0,4.0,2.0,1.0,85.0,event
09:43:14.916,0.79821527,0.0,0.0134040015,0.22326049,0.6919791,0.0,0.09750599,0.42612174,0.42695016,0.0,0.13172744,0.05825405,0.4494713,0.0,0.27060157,0.280466,-0.05531872,0.0,-0.21058203,0.06129858,869.12085,898.5348,765.56775,813.5165,705.12823,-0.18426513671875,0.07049560546875,0.97418212890625,1.98883056640625,-3.30474853515625,-0.351409912109375,1.0,1.0,4.0,2.0,1.0,85.0,event
09:43:14.917,0.79821527,0.0,0.0134040015,0.22326049,0.6919791,0.0,0.09750599,0.42612174,0.42695016,0.0,0.13172744,0.05825405,0.4494713,0.0,0.27060157,0.280466,-0.05531872,0.0,-0.21058203,0.06129858,957.3626,1133.4432,703.1135,821.1722,678.1319,-0.18426513671875,0.07049560546875,0.97418212890625,1.98883056640625,-3.30474853515625,-0.351409912109375,1.0,1.0,4.0,2.0,1.0,85.0,event
09:43:14.919,0.79821527,0.0,0.0134040015,0.22326049,0.6919791,0.0,0.09750599,0.42612174,0.42695016,0.0,0.13172744,0.05825405,0.4494713,0.0,0.27060157,0.280466,-0.05531872,0.0,-0.21058203,0.06129858,823.1868,921.50183,617.28937,805.4579,763.1502,-0.18426513671875,0.07049560546875,0.97418212890625,1.98883056640625,-3.30474853515625,-0.351409912109375,1.0,1.0,4.0,2.0,1.0,85.0,event
09:43:14.920,0.79821527,0.0,0.0134040015,0.22326049,0.6919791,0.0,0.09750599,0.42612174,0.42695016,0.0,0.13172744,0.05825405,0.4494713,0.0,0.27060157,0.280466,-0.05531872,0.0,-0.21058203,0.06129858,673.2967,604.3956,618.49817,787.72894,806.26373,-0.18426513671875,0.07049560546875,0.97418212890625,1.98883056640625,-3.30474853515625,-0.351409912109375,1.0,1.0,4.0,2.0,1.0,85.0,event
09:43:14.921,0.79821527,0.0,0.0134040015,0.22326049,0.6919791,0.0,0.09750599,0.42612174,0.42695016,0.0,0.13172744,0.05825405,0.4494713,0.0,0.27060157,0.280466,-0.05531872,0.0,-0.21058203,0.06129858,694.2491,610.4396,714.7985,790.14655,821.978,-0.18426513671875,0.07049560546875,0.97418212890625,1.98883056640625,-3.30474853515625,-0.351409912109375,1.0,1.0,4.0,2.0,1.0,85.0,event
09:43:14.923,0.79821527,0.0,0.0134040015,0.22326049,0.6919791,0.0,0.09750599,0.42612174,0.42695016,0.0,0.13172744,0.05825405,0.4494713,0.0,0.27060157,0.280466,-0.05531872,0.0,-0.21058203,0.06129858,844.1392,1028.2784,795.78754,808.68134,770.0,-0.18426513671875,0.07049560546875,0.97418212890625,1.98883056640625,-3.30474853515625,-0.351409912109375,1.0,1.0,4.0,2.0,1.0,85.0,event
09:43:14.924,0.79821527,0.0,0.0134040015,0.22326049,0.6919791,0.0,0.09750599,0.42612174,0.42695016,0.0,0.13172744,0.05825405,0.4494713,0.0,0.27060157,0.280466,-0.05531872,0.0,-0.21058203,0.06129858,951.31866,817.9487,614.0659,823.9927,860.65936,-0.18426513671875,0.07049560546875,0.97418212890625,1.98883056640625,-3.30474853515625,-0.351409912109375,1.0,1.0,4.0,2.0,1.0,85.0,event
09:43:14.925,0.79821527,0.0,0.0134040015,0.22326049,0.6919791,0.0,0.09750599,0.42612174,0.42695016,0.0,0.13172744,0.05825405,0.4494713,0.0,0.27060157,0.280466,-0.05531872,0.0,-0.21058203,0.06129858,848.5714,225.2381,625.7509,810.293,1056.8865,-0.18426513671875,0.07049560546875,0.97418212890625,1.98883056640625,-3.30474853515625,-0.351409912109375,1.0,1.0,4.0,2.0,1.0,85.0,event
09:43:14.926,0.79821527,0.0,0.0134040015,0.22326049,0.6919791,0.0,0.09750599,0.42612174,0.42695016,0.0,0.13172744,0.05825405,0.4494713,0.0,0.27060157,0.280466,-0.05531872,0.0,-0.21058203,0.06129858,707.5458,790.54944,820.3663,787.326,839.707,-0.18426513671875,0.07049560546875,0.97418212890625,1.98883056640625,-3.30474853515625,-0.351409912109375,1.0,1.0,4.0,2.0,1.0,85.0,event
09:43:14.928,0.79821527,0.0,0.0134040015,0.22326049,0.6919791,0.0,0.09750599,0.42612174,0.42695016,0.0,0.13172744,0.05825405,0.4494713,0.0,0.27060157,0.280466,-0.05531872,0.0,-0.21058203,0.06129858,712.381,1054.4689,705.5311,790.14655,694.65204,-0.18426513671875,0.07049560546875,0.97418212890625,1.98883056640625,-3.30474853515625,-0.351409912109375,1.0,1.0,4.0,2.0,1.0,85.0,event
09:43:14.977,0.79821527,0.0,0.0134040015,0.22326049,0.6919791,0.0,0.09750599,0.42612174,0.42695016,0.0,0.13172744,0.05825405,0.4494713,0.0,0.27060157,0.280466,-0.05531872,0.0,-0.21058203,0.06129858,838.49817,787.72894,644.68866,805.4579,744.61536,-0.18426513671875,0.07049560546875,0.97418212890625,1.98883056640625,-3.30474853515625,-0.351409912109375,1.0,1.0,4.0,2.0,1.0,85.0,event
09:43:14.978,0.79821527,0.0,0.0134040015,0.22326049,0.6919791,0.0,0.09750599,0.42612174,0.42695016,0.0,0.13172744,0.05825405,0.4494713,0.0,0.27060157,0.280466,-0.05531872,0.0,-0.21058203,0.06129858,952.52747,950.9158,718.022,817.9487,787.326,-0.18426513671875,0.07049560546875,0.97418212890625,1.98883056640625,-3.30474853515625,-0.351409912109375,1.0,1.0,4.0,2.0,1.0,85.0,event
09:43:14.979,0.79821527,0.0,0.0134040015,0.22326049,0.6919791,0.0,0.09750599,0.42612174,0.42695016,0.0,0.13172744,0.05825405,0.4494713,0.0,0.27060157,0.280466,-0.05531872,0.0,-0.21058203,0.06129858,872.74725,940.4396,690.2198,808.68134,813.5165,-0.18426513671875,0.07049560546875,0.97418212890625,1.98883056640625,-3.30474853515625,-0.351409912109375,1.0,1.0,4.0,2.0,1.0,85.0,event
09:43:14.981,0.79821527,0.0,0.0134040015,0.22326049,0.6919791,0.0,0.09750599,0.42612174,0.42695016,0.0,0.13172744,0.05825405,0.4494713,0.0,0.27060157,0.280466,-0.05531872,0.0,-0.21058203,0.06129858,705.9341,831.6484,678.93774,787.72894,730.10986,-0.18426513671875,0.07049560546875,0.97418212890625,1.98883056640625,-3.30474853515625,-0.351409912109375,1.0,1.0,4.0,2.0,1.0,85.0,event
09:43:14.982,0.79821527,0.0,0.0134040015,0.22326049,0.6919791,0.0,0.09750599,0.42612174,0.42695016,0.0,0.13172744,0.05825405,0.4494713,0.0,0.27060157,0.280466,-0.05531872,0.0,-0.21058203,0.06129858,684.57874,479.08426,605.6044,792.1612,768.7912,-0.18426513671875,0.07049560546875,0.97418212890625,1.98883056640625,-3.30474853515625,-0.351409912109375,1.0,1.0,4.0,2.0,1.0,85.0,event
09:43:14.984,0.8733376,0.0,0.0134040015,0.25544152,0.73369956,0.0,0.09750599,0.45176682,0.42050454,0.0,0.13172744,-0.0057855546,0.3715057,0.0,0.27060157,0.2789683,-0.101806425,0.0,-0.21058203,0.080398686,809.89014,462.96704,723.2601,804.2491,880.0,-0.18426513671875,0.07049560546875,0.97418212890625,1.98883056640625,-3.30474853515625,-0.351409912109375,1.0,1.0,4.0,2.0,1.0,85.0,event
09:43:14.988,0.8733376,0.0,0.0134040015,0.25544152,0.73369956,0.0,0.09750599,0.45176682,0.42050454,0.0,0.13172744,-0.0057855546,0.3715057,0.0,0.27060157,0.2789683,-0.101806425,0.0,-0.21058203,0.080398686,940.0366,792.1612,818.7546,816.337,836.8865,-0.18426513671875,0.07049560546875,0.97418212890625,1.98883056640625,-3.30474853515625,-0.351409912109375,1.0,1.0,4.0,2.0,1.0,85.0,event
09:43:14.989,0.8733376,0.0,0.0134040015,0.25544152,0.73369956,0.0,0.09750599,0.45176682,0.42050454,0.0,0.13172744,-0.0057855546,0.3715057,0.0,0.27060157,0.2789683,-0.101806425,0.0,-0.21058203,0.080398686,891.28204,911.02563,728.49817,811.50183,752.27106,-0.18426513671875,0.07049560546875,0.97418212890625,1.98883056640625,-3.30474853515625,-0.351409912109375,1.0,1.0,4.0,2.0,1.0,85.0,event
09:43:14.989,0.8733376,0.0,0.0134040015,0.25544152,0.73369956,0.0,0.09750599,0.45176682,0.42050454,0.0,0.13172744,-0.0057855546,0.3715057,0.0,0.27060157,0.2789683,-0.101806425,0.0,-0.21058203,0.080398686,713.9927,344.5055,551.6117,792.96704,945.6777,-0.18426513671875,0.07049560546875,0.97418212890625,1.98883056640625,-3.30474853515625,-0.351409912109375,1.0,1.0,4.0,2.0,1.0,85.0,event
09:43:14.990,0.8733376,0.0,0.0134040015,0.25544152,0.73369956,0.0,0.09750599,0.45176682,0.42050454,0.0,0.13172744,-0.0057855546,0.3715057,0.0,0.27060157,0.2789683,-0.101806425,0.0,-0.21058203,0.080398686,672.0879,410.5861,798.20514,784.5055,859.0476,-0.18426513671875,0.07049560546875,0.97418212890625,1.98883056640625,-3.30474853515625,-0.351409912109375,1.0,1.0,4.0,2.0,1.0,85.0,event
09:43:14.991,0.8733376,0.0,0.0134040015,0.25544152,0.73369956,0.0,0.09750599,0.45176682,0.42050454,0.0,0.13172744,-0.0057855546,0.3715057,0.0,0.27060157,0.2789683,-0.101806425,0.0,-0.21058203,0.080398686,801.4286,1060.1099,861.4652,794.9817,649.12085,-0.18426513671875,0.07049560546875,0.97418212890625,1.98883056640625,-3.30474853515625,-0.351409912109375,1.0,1.0,4.0,2.0,1.0,85.0,event
09:43:14.992,0.8733376,0.0,0.0134040015,0.25544152,0.73369956,0.0,0.09750599,0.45176682,0.42050454,0.0,0.13172744,-0.0057855546,0.3715057,0.0,0.27060157,0.2789683,-0.101806425,0.0,-0.21058203,0.080398686,938.4249,1059.3041,699.0842,812.71063,770.0,-0.18426513671875,0.07049560546875,0.97418212890625,1.98883056640625,-3.30474853515625,-0.351409912109375,1.0,1.0,4.0,2.0,1.0,85.0,event
09:43:15.032,0.8733376,0.0,0.0134040015,0.25544152,0.73369956,0.0,0.09750599,0.45176682,0.42050454,0.0,0.13172744,-0.0057855546,0.3715057,0.0,0.27060157,0.2789683,-0.101806425,0.0,-0.21058203,0.080398686,901.3553,952.9304,731.7216,810.293,799.81683,-0.18206787109375,0.06878662109375,0.97296142578125,2.115936279296875,-4.5458984375,1.757049560546875,1.0,1.0,4.0,2.0,1.0,85.0,event
09:43:15.034,0.8733376,0.0,0.0134040015,0.25544152,0.73369956,0.0,0.09750599,0.45176682,0.42050454,0.0,0.13172744,-0.0057855546,0.3715057,0.0,0.27060157,0.2789683,-0.101806425,0.0,-0.21058203,0.080398686,674.10254,1022.23444,691.8315,774.83514,693.0403,-0.18206787109375,0.06878662109375,0.97296142578125,2.115936279296875,-4.5458984375,1.757049560546875,1.0,1.0,4.0,2.0,1.0,85.0,event
09:43:15.034,0.8733376,0.0,0.0134040015,0.25544152,0.73369956,0.0,0.09750599,0.45176682,0.42050454,0.0,0.13172744,-0.0057855546,0.3715057,0.0,0.27060157,0.2789683,-0.101806425,0.0,-0.21058203,0.080398686,737.76556,1020.6227,732.52747,792.1612,724.0659,-0.18206787109375,0.06878662109375,0.97296142578125,2.115936279296875,-4.5458984375,1.757049560546875,1.0,1.0,4.0,2.0,1.0,85.0,event
09:43:15.035,0.8733376,0.0,0.0134040015,0.25544152,0.73369956,0.0,0.09750599,0.45176682,0.42050454,0.0,0.13172744,-0.0057855546,0.3715057,0.0,0.27060157,0.2789683,-0.101806425,0.0,-0.21058203,0.080398686,781.685,894.90845,674.5055,789.34064,710.7692,-0.18206787109375,0.06878662109375,0.97296142578125,2.115936279296875,-4.5458984375,1.757049560546875,1.0,1.0,4.0,2.0,1.0,85.0,event
09:43:15.036,0.8733376,0.0,0.0134040015,0.25544152,0.73369956,0.0,0.09750599,0.45176682,0.42050454,0.0,0.13172744,-0.0057855546,0.3715057,0.0,0.27060157,0.2789683,-0.101806425,0.0,-0.21058203,0.080398686,931.5751,870.32965,730.10986,813.91943,742.6007,-0.18206787109375,0.06878662109375,0.97296142578125,2.115936279296875,-4.5458984375,1.757049560546875,1.0,1.0,4.0,2.0,1.0,85.0,event
09:43:15.037,0.8733376,0.0,0.0134040015,0.25544152,0.73369956,0.0,0.09750599,0.45176682,0.42050454,0.0,0.13172744,-0.0057855546,0.3715057,0.0,0.27060157,0.2789683,-0.101806425,0.0,-0.21058203,0.080398686,905.38464,822.381,686.5934,798.20514,819.5604,-0.18206787109375,0.06878662109375,0.97296142578125,2.115936279296875,-4.5458984375,1.757049560546875,1.0,1.0,4.0,2.0,1.0,85.0,event
09:43:15.037,0.8733376,0.0,0.0134040015,0.25544152,0.73369956,0.0,0.09750599,0.45176682,0.42050454,0.0,0.13172744,-0.0057855546,0.3715057,0.0,0.27060157,0.2789683,-0.101806425,0.0,-0.21058203,0.080398686,740.18317,736.1539,674.10254,779.67035,862.27106,-0.18206787109375,0.06878662109375,0.97296142578125,2.115936279296875,-4.5458984375,1.757049560546875,1.0,1.0,4.0,2.0,1.0,85.0,event
09:43:15.038,0.8733376,0.0,0.0134040015,0.25544152,0.73369956,0.0,0.09750599,0.45176682,0.42050454,0.0,0.13172744,-0.0057855546,0.3715057,0.0,0.27060157,0.2789683,-0.101806425,0.0,-0.21058203,0.080398686,658.3883,543.1502,649.92676,779.2674,985.16486,-0.18206787109375,0.06878662109375,0.97296142578125,2.115936279296875,-4.5458984375,1.757049560546875,1.0,1.0,4.0,2.0,1.0,85.0,event
09:43:15.039,0.8733376,0.0,0.0134040015,0.25544152,0.73369956,0.0,0.09750599,0.45176682,0.42050454,0.0,0.13172744,-0.0057855546,0.3715057,0.0,0.27060157,0.2789683,-0.101806425,0.0,-0.21058203,0.080398686,734.1392,73.333336,635.0183,792.5641,1151.1721,-0.18206787109375,0.06878662109375,0.97296142578125,2.115936279296875,-4.5458984375,1.757049560546875,1.0,1.0,4.0,2.0,1.0,85.0,event
09:43:15.040,0.8733376,0.0,0.0134040015,0.25544152,0.73369956,0.0,0.09750599,0.45176682,0.42050454,0.0,0.13172744,-0.0057855546,0.3715057,0.0,0.27060157,0.2789683,-0.101806425,0.0,-0.21058203,0.080398686,897.72894,628.97437,917.8755,809.4872,897.72894,-0.18206787109375,0.06878662109375,0.97296142578125,2.115936279296875,-4.5458984375,1.757049560546875,1.0,1.0,4.0,2.0,1.0,85.0,event
09:43:15.040,0.8733376,0.0,0.0134040015,0.25544152,0.73369956,0.0,0.09750599,0.45176682,0.42050454,0.0,0.13172744,-0.0057855546,0.3715057,0.0,0.27060157,0.2789683,-0.101806425,0.0,-0.21058203,0.080398686,929.5604,1171.7216,823.1868,812.3077,713.9927,-0.18206787109375,0.06878662109375,0.97296142578125,2.115936279296875,-4.5458984375,1.757049560546875,1.0,1.0,4.0,2.0,1.0,85.0,event
09:43:15.041,0.8733376,0.0,0.0134040015,0.25544152,0.73369956,0.0,0.09750599,0.45176682,0.42050454,0.0,0.13172744,-0.0057855546,0.3715057,0.0,0.27060157,0.2789683,-0.101806425,0.0,-0.21058203,0.080398686,775.2381,765.56775,606.4103,792.5641,813.5165,-0.18206787109375,0.06878662109375,0.97296142578125,2.115936279296875,-4.5458984375,1.757049560546875,1.0,1.0,4.0,2.0,1.0,85.0,event
09:43:15.080,0.8733376,0.0,0.0134040015,0.25544152,0.73369956,0.0,0.09750599,0.45176682,0.42050454,0.0,0.13172744,-0.0057855546,0.3715057,0.0,0.27060157,0.2789683,-0.101806425,0.0,-0.21058203,0.080398686,675.31134,775.2381,755.09155,779.2674,724.0659,-0.188232421875,0.06903076171875,0.96453857421875,2.579498291015625,-3.760833740234375,0.112152099609375,1.0,1.0,4.0,2.0,1.0,85.0,event
09:43:15.082,0.8733376,0.0,0.0134040015,0.25544152,0.73369956,0.0,0.09750599,0.45176682,0.42050454,0.0,0.13172744,-0.0057855546,0.3715057,0.0,0.27060157,0.2789683,-0.101806425,0.0,-0.21058203,0.080398686,892.0879,1102.0146,730.9158,810.293,763.1502,-0.188232421875,0.06903076171875,0.96453857421875,2.579498291015625,-3.760833740234375,0.112152099609375,1.0,1.0,4.0,2.0,1.0,85.0,event
09:43:15.082,0.8733376,0.0,0.0134040015,0.25544152,0.73369956,0.0,0.09750599,0.45176682,0.42050454,0.0,0.13172744,-0.0057855546,0.3715057,0.0,0.27060157,0.2789683,-0.101806425,0.0,-0.21058203,0.080398686,743.00366,1091.1355,829.2308,786.52014,656.77655,-0.188232421875,0.06903076171875,0.96453857421875,2.579498291015625,-3.760833740234375,0.112152099609375,1.0,1.0,4.0,2.0,1.0,85.0,event
09:43:15.083,0.8733376,0.0,0.0134040015,0.25544152,0.73369956,0.0,0.09750599,0.45176682,0.42050454,0.0,0.13172744,-0.0057855546,0.3715057,0.0,0.27060157,0.2789683,-0.101806425,0.0,-0.21058203,0.080398686,933.9927,900.9524,695.4579,822.381,807.0696,-0.188232421875,0.06903076171875,0.96453857421875,2.579498291015625,-3.760833740234375,0.112152099609375,1.0,1.0,4.0,2.0,1.0,85.0,event
09:43:15.084,0.8733376,0.0,0.0134040015,0.25544152,0.73369956,0.0,0.09750599,0.45176682,0.42050454,0.0,0.13172744,-0.0057855546,0.3715057,0.0,0.27060157,0.2789683,-0.101806425,0.0,-0.21058203,0.080398686,792.96704,935.2015,750.65936,803.8461,747.8388,-0.188232421875,0.06903076171875,0.96453857421875,2.579498291015625,-3.760833740234375,0.112152099609375,1.0,1.0,4.0,2.0,1.0,85.0,event
09:43:15.085,0.8733376,0.0,0.0134040015,0.25544152,0.73369956,0.0,0.09750599,0.45176682,0.42050454,0.0,0.13172744,-0.0057855546,0.3715057,0.0,0.27060157,0.2789683,-0.101806425,0.0,-0.21058203,0.080398686,668.86444,808.68134,712.381,785.31134,778.86444,-0.188232421875,0.06903076171875,0.96453857421875,2.579498291015625,-3.760833740234375,0.112152099609375,1.0,1.0,4.0,2.0,1.0,85.0,event
09:43:15.087,0.8733376,0.0,0.0134040015,0.25544152,0.73369956,0.0,0.09750599,0.45176682,0.42050454,0.0,0.13172744,-0.0057855546,0.3715057,0.0,0.27060157,0.2789683,-0.101806425,0.0,-0.21058203,0.080398686,720.4396,668.0586,716.8132,788.5348,828.022,-0.188232421875,0.06903076171875,0.96453857421875,2.579498291015625,-3.760833740234375,0.112152099609375,1.0,1.0,4.0,2.0,1.0,85.0,event
09:43:15.088,0.8733376,0.0,0.0134040015,0.25544152,0.73369956,0.0,0.09750599,0.45176682,0.42050454,0.0,0.13172744,-0.0057855546,0.3715057,0.0,0.27060157,0.2789683,-0.101806425,0.0,-0.21058203,0.080398686,864.2857,286.48352,633.4066,813.1135,1059.7069,-0.188232421875,0.06903076171875,0.96453857421875,2.579498291015625,-3.760833740234375,0.112152099609375,1.0,1.0,4.0,2.0,1.0,85.0,event
09:43:15.092,0.8733376,0.0,0.0134040015,0.25544152,0.73369956,0.0,0.09750599,0.45176682,0.42050454,0.0,0.13172744,-0.0057855546,0.3715057,0.0,0.27060157,0.2789683,-0.101806425,0.0,-0.21058203,0.080398686,936.4103,203.07692,803.0403,818.3516,1055.6776,-0.188232421875,0.06903076171875,0.96453857421875,2.579498291015625,-3.760833740234375,0.112152099609375,1.0,1.0,4.0,2.0,1.0,85.0,event
09:43:15.093,0.8733376,0.0,0.0134040015,0.25544152,0.73369956,0.0,0.09750599,0.45176682,0.42050454,0.0,0.13172744,-0.0057855546,0.3715057,0.0,0.27060157,0.2789683,-0.101806425,0.0,-0.21058203,0.080398686,826.0073,924.7253,929.9634,799.41394,739.7802,-0.188232421875,0.06903076171875,0.96453857421875,2.579498291015625,-3.760833740234375,0.112152099609375,1.0,1.0,4.0,2.0,1.0,85.0,event
09:43:15.094,0.8733376,0.0,0.0134040015,0.25544152,0.73369956,0.0,0.09750599,0.45176682,0.42050454,0.0,0.13172744,-0.0057855546,0.3715057,0.0,0.27060157,0.2789683,-0.101806425,0.0,-0.21058203,0.080398686,689.011,933.9927,706.337,789.7436,684.9817,-0.188232421875,0.06903076171875,0.96453857421875,2.579498291015625,-3.760833740234375,0.112152099609375,1.0,1.0,4.0,2.0,1.0,85.0,event
09:43:15.095,0.8733376,0.0,0.0134040015,0.25544152,0.73369956,0.0,0.09750599,0.45176682,0.42050454,0.0,0.13172744,-0.0057855546,0.3715057,0.0,0.27060157,0.2789683,-0.101806425,0.0,-0.21058203,0.080398686,710.3663,535.09155,722.4542,800.2198,792.1612,-0.188232421875,0.06903076171875,0.96453857421875,2.579498291015625,-3.760833740234375,0.112152099609375,1.0,1.0,4.0,2.0,1.0,85.0,event
09:43:15.122,0.8733376,0.0,0.0134040015,0.25544152,0.73369956,0.0,0.09750599,0.45176682,0.42050454,0.0,0.13172744,-0.0057855546,0.3715057,0.0,0.27060157,0.2789683,-0.101806425,0.0,-0.21058203,0.080398686,857.8388,931.1722,866.30035,816.7399,742.6007,-0.17730712890625,0.06793212890625,0.96868896484375,2.325286865234375,-4.007568359375,-0.3887939453125,1.0,1.0,4.0,2.0,1.0,85.0,event
09:43:15.123,0.8733376,0.0,0.0134040015,0.25544152,0.73369956,0.0,0.09750599,0.45176682,0.42050454,0.0,0.13172744,-0.0057855546,0.3715057,0.0,0.27060157,0.2789683,-0.101806425,0.0,-0.21058203,0.080398686,957.76556,1220.8792,813.1135,824.3956,682.1612,-0.17730712890625,0.06793212890625,0.96868896484375,2.325286865234375,-4.007568359375,-0.3887939453125,1.0,1.0,4.0,2.0,1.0,85.0,event
09:43:15.124,0.8733376,0.0,0.0134040015,0.25544152,0.73369956,0.0,0.09750599,0.45176682,0.42050454,0.0,0.13172744,-0.0057855546,0.3715057,0.0,0.27060157,0.2789683,-0.101806425,0.0,-0.21058203,0.080398686,846.1539,1013.36993,720.0366,803.44324,740.18317,-0.17730712890625,0.06793212890625,0.96868896484375,2.325286865234375,-4.007568359375,-0.3887939453125,1.0,1.0,4.0,2.0,1.0,85.0,event
09:43:15.125,0.8733376,0.0,0.0134040015,0.25544152,0.73369956,0.0,0.09750599,0.45176682,0.42050454,0.0,0.13172744,-0.0057855546,0.3715057,0.0,0.27060157,0.2789683,-0.101806425,0.0,-0.21058203,0.080398686,691.8315,874.35895,776.8498,780.4762,745.0183,-0.17730712890625,0.06793212890625,0.96868896484375,2.325286865234375,-4.007568359375,-0.3887939453125,1.0,1.0,4.0,2.0,1.0,85.0,event
09:43:15.126,0.8733376,0.0,0.0134040015,0.25544152,0.73369956,0.0,0.09750599,0.45176682,0.42050454,0.0,0.13172744,-0.0057855546,0.3715057,0.0,0.27060157,0.2789683,-0.101806425,0.0,-0.21058203,0.080398686,709.5604,950.5128,813.1135,784.5055,705.12823,-0.17730712890625,0.06793212890625,0.96868896484375,2.325286865234375,-4.007568359375,-0.3887939453125,1.0,1.0,4.0,2.0,1.0,85.0,event
09:43:15.127,0.8733376,0.0,0.0134040015,0.25544152,0.73369956,0.0,0.09750599,0.45176682,0.42050454,0.0,0.13172744,-0.0057855546,0.3715057,0.0,0.27060157,0.2789683,-0.101806425,0.0,-0.21058203,0.080398686,851.79486,892.0879,770.40295,800.6227,757.1062,-0.17730712890625,0.06793212890625,0.96868896484375,2.325286865234375,-4.007568359375,-0.3887939453125,1.0,1.0,4.0,2.0,1.0,85.0,event
09:43:15.128,0.8733376,0.0,0.0134040015,0.25544152,0.73369956,0.0,0.09750599,0.45176682,0.42050454,0.0,0.13172744,-0.0057855546,0.3715057,0.0,0.27060157,0.2789683,-0.101806425,0.0,-0.21058203,0.080398686,942.8571,631.39197,729.707,810.696,902.5641,-0.17730712890625,0.06793212890625,0.96868896484375,2.325286865234375,-4.007568359375,-0.3887939453125,1.0,1.0,4.0,2.0,1.0,85.0,event
09:43:15.129,0.8733376,0.0,0.0134040015,0.25544152,0.73369956,0.0,0.09750599,0.45176682,0.42050454,0.0,0.13172744,-0.0057855546,0.3715057,0.0,0.27060157,0.2789683,-0.101806425,0.0,-0.21058203,0.080398686,842.52747,207.50916,723.663,799.011,1031.0989,-0.17730712890625,0.06793212890625,0.96868896484375,2.325286865234375,-4.007568359375,-0.3887939453125,1.0,1.0,4.0,2.0,1.0,85.0,event
09:43:15.129,0.8733376,0.0,0.0134040015,0.25544152,0.73369956,0.0,0.09750599,0.45176682,0.42050454,0.0,0.13172744,-0.0057855546,0.3715057,0.0,0.27060157,0.2789683,-0.101806425,0.0,-0.21058203,0.080398686,697.8755,687.3993,901.75824,775.2381,778.86444,-0.17730712890625,0.06793212890625,0.96868896484375,2.325286865234375,-4.007568359375,-0.3887939453125,1.0,1.0,4.0,2.0,1.0,85.0,event
09:43:15.130,0.8733376,0.0,0.0134040015,0.25544152,0.73369956,0.0,0.09750599,0.45176682,0.42050454,0.0,0.13172744,-0.0057855546,0.3715057,0.0,0.27060157,0.2789683,-0.101806425,0.0,-0.21058203,0.080398686,691.4286,1041.5751,830.0366,772.01465,628.5714,-0.17730712890625,0.06793212890625,0.96868896484375,2.325286865234375,-4.007568359375,-0.3887939453125,1.0,1.0,4.0,2.0,1.0,85.0,event
09:43:15.131,0.8733376,0.0,0.0134040015,0.25544152,0.73369956,0.0,0.09750599,0.45176682,0.42050454,0.0,0.13172744,-0.0057855546,0.3715057,0.0,0.27060157,0.2789683,-0.101806425,0.0,-0.21058203,0.080398686,809.0842,788.5348,711.978,787.72894,699.0842,-0.17730712890625,0.06793212890625,0.96868896484375,2.325286865234375,-4.007568359375,-0.3887939453125,1.0,1.0,4.0,2.0,1.0,85.0,event
09:43:15.132,0.8733376,0.0,0.0134040015,0.25544152,0.73369956,0.0,0.09750599,0.45176682,0.42050454,0.0,0.13172744,-0.0057855546,0.3715057,0.0,0.27060157,0.2789683,-0.101806425,0.0,-0.21058203,0.080398686,931.5751,798.20514,778.46155,803.8461,751.4652,-0.17730712890625,0.06793212890625,0.96868896484375,2.325286865234375,-4.007568359375,-0.3887939453125,1.0,1.0,4.0,2.0,1.0,85.0,event
09:43:15.154,0.8733376,0.0,0.0134040015,0.25544152,0.73369956,0.0,0.09750599,0.45176682,0.42050454,0.0,0.13172744,-0.0057855546,0.3715057,0.0,0.27060157,0.2789683,-0.101806425,0.0,-0.21058203,0.080398686,876.3736,1021.02563,851.79486,799.81683,753.8828,-0.18084716796875,0.06536865234375,0.96990966796875,1.697235107421875,-3.970184326171875,0.889739990234375,1.0,1.0,4.0,2.0,1.0,85.0,event
09:43:15.155,0.8733376,0.0,0.0134040015,0.25544152,0.73369956,0.0,0.09750599,0.45176682,0.42050454,0.0,0.13172744,-0.0057855546,0.3715057,0.0,0.27060157,0.2789683,-0.101806425,0.0,-0.21058203,0.080398686,712.7839,1054.4689,771.2088,787.326,727.28937,-0.18084716796875,0.06536865234375,0.96990966796875,1.697235107421875,-3.970184326171875,0.889739990234375,1.0,1.0,4.0,2.0,1.0,85.0,event
09:43:15.156,0.8733376,0.0,0.0134040015,0.25544152,0.73369956,0.0,0.09750599,0.45176682,0.42050454,0.0,0.13172744,-0.0057855546,0.3715057,0.0,0.27060157,0.2789683,-0.101806425,0.0,-0.21058203,0.080398686,662.01465,606.4103,646.30035,782.49084,873.5531,-0.18084716796875,0.06536865234375,0.96990966796875,1.697235107421875,-3.970184326171875,0.889739990234375,1.0,1.0,4.0,2.0,1.0,85.0,event
09:43:15.157,0.8733376,0.0,0.0134040015,0.25544152,0.73369956,0.0,0.09750599,0.45176682,0.42050454,0.0,0.13172744,-0.0057855546,0.3715057,0.0,0.27060157,0.2789683,-0.101806425,0.0,-0.21058203,0.080398686,793.36993,767.1795,828.4249,796.99634,893.69965,-0.18084716796875,0.06536865234375,0.96990966796875,1.697235107421875,-3.970184326171875,0.889739990234375,1.0,1.0,4.0,2.0,1.0,85.0,event
09:43:15.158,0.8733376,0.0,0.0134040015,0.25544152,0.73369956,0.0,0.09750599,0.45176682,0.42050454,0.0,0.13172744,-0.0057855546,0.3715057,0.0,0.27060157,0.2789683,-0.101806425,0.0,-0.21058203,0.080398686,936.8132,1193.0769,879.19415,811.9048,804.2491,-0.18084716796875,0.06536865234375,0.96990966796875,1.697235107421875,-3.970184326171875,0.889739990234375,1.0,1.0,4.0,2.0,1.0,85.0,event
09:43:15.158,0.8733376,0.0,0.0134040015,0.25544152,0.73369956,0.0,0.09750599,0.45176682,0.42050454,0.0,0.13172744,-0.0057855546,0.3715057,0.0,0.27060157,0.2789683,-0.101806425,0.0,-0.21058203,0.080398686,879.19415,948.49817,681.75824,801.02563,902.96704,-0.18084716796875,0.06536865234375,0.96990966796875,1.697235107421875,-3.970184326171875,0.889739990234375,1.0,1.0,4.0,2.0,1.0,85.0,event
09:43:15.159,0.8733376,0.0,0.0134040015,0.25544152,0.73369956,0.0,0.09750599,0.45176682,0.42050454,0.0,0.13172744,-0.0057855546,0.3715057,0.0,0.27060157,0.2789683,-0.101806425,0.0,-0.21058203,0.080398686,709.15753,273.99268,578.20514,789.34064,1101.6117,-0.18084716796875,0.06536865234375,0.96990966796875,1.697235107421875,-3.970184326171875,0.889739990234375,1.0,1.0,4.0,2.0,1.0,85.0,event
09:43:15.160,0.8733376,0.0,0.0134040015,0.25544152,0.73369956,0.0,0.09750599,0.45176682,0.42050454,0.0,0.13172744,-0.0057855546,0.3715057,0.0,0.27060157,0.2789683,-0.101806425,0.0,-0.21058203,0.080398686,668.0586,385.20148,878.3883,786.9231,941.2454,-0.18084716796875,0.06536865234375,0.96990966796875,1.697235107421875,-3.970184326171875,0.889739990234375,1.0,1.0,4.0,2.0,1.0,85.0,event
09:43:15.160,0.8733376,0.0,0.0134040015,0.25544152,0.73369956,0.0,0.09750599,0.45176682,0.42050454,0.0,0.13172744,-0.0057855546,0.3715057,0.0,0.27060157,0.2789683,-0.101806425,0.0,-0.21058203,0.080398686,785.31134,1022.23444,924.7253,792.5641,687.3993,-0.18084716796875,0.06536865234375,0.96990966796875,1.697235107421875,-3.970184326171875,0.889739990234375,1.0,1.0,4.0,2.0,1.0,85.0,event
09:43:15.161,0.8733376,0.0,0.0134040015,0.25544152,0.73369956,0.0,0.09750599,0.45176682,0.42050454,0.0,0.13172744,-0.0057855546,0.3715057,0.0,0.27060157,0.2789683,-0.101806425,0.0,-0.21058203,0.080398686,926.337,1064.5421,777.6557,816.337,752.27106,-0.18084716796875,0.06536865234375,0.96990966796875,1.697235107421875,-3.970184326171875,0.889739990234375,1.0,1.0,4.0,2.0,1.0,85.0,event
09:43:15.165,0.8733376,0.0,0.0134040015,0.25544152,0.73369956,0.0,0.09750599,0.45176682,0.42050454,0.0,0.13172744,-0.0057855546,0.3715057,0.0,0.27060157,0.2789683,-0.101806425,0.0,-0.21058203,0.080398686,905.38464,927.1429,792.96704,816.337,772.4176,-0.18084716796875,0.06536865234375,0.96990966796875,1.697235107421875,-3.970184326171875,0.889739990234375,1.0,1.0,4.0,2.0,1.0,85.0,event
09:43:15.166,0.8733376,0.0,0.0134040015,0.25544152,0.73369956,0.0,0.09750599,0.45176682,0.42050454,0.0,0.13172744,-0.0057855546,0.3715057,0.0,0.27060157,0.2789683,-0.101806425,0.0,-0.21058203,0.080398686,745.0183,946.08057,782.8938,793.36993,653.5531,-0.18084716796875,0.06536865234375,0.96990966796875,1.697235107421875,-3.970184326171875,0.889739990234375,1.0,1.0,4.0,2.0,1.0,85.0,event
09:43:15.188,0.8733376,0.0,0.0134040015,0.25544152,0.73369956,0.0,0.09750599,0.45176682,0.42050454,0.0,0.13172744,-0.0057855546,0.3715057,0.0,0.27060157,0.2789683,-0.101806425,0.0,-0.21058203,0.080398686,668.86444,964.61536,781.685,789.34064,622.9304,-0.18084716796875,0.06536865234375,0.96990966796875,1.697235107421875,-3.970184326171875,0.889739990234375,1.0,1.0,4.0,2.0,1.0,85.0,event
09:43:15.189,0.8733376,0.0,0.0134040015,0.25544152,0.73369956,0.0,0.09750599,0.45176682,0.42050454,0.0,0.13172744,-0.0057855546,0.3715057,0.0,0.27060157,0.2789683,-0.101806425,0.0,-0.21058203,0.080398686,759.12085,898.93774,784.5055,799.41394,684.17584,-0.18084716796875,0.06536865234375,0.96990966796875,1.697235107421875,-3.970184326171875,0.889739990234375,1.0,1.0,4.0,2.0,1.0,85.0,event
09:43:15.190,0.8733376,0.0,0.0134040015,0.25544152,0.73369956,0.0,0.09750599,0.45176682,0.42050454,0.0,0.13172744,-0.0057855546,0.3715057,0.0,0.27060157,0.2789683,-0.101806425,0.0,-0.21058203,0.080398686,915.8608,894.90845,863.0769,809.89014,872.74725,-0.18084716796875,0.06536865234375,0.96990966796875,1.697235107421875,-3.970184326171875,0.889739990234375,1.0,1.0,4.0,2.0,1.0,85.0,event
09:43:15.190,0.8733376,0.0,0.0134040015,0.25544152,0.73369956,0.0,0.09750599,0.45176682,0.42050454,0.0,0.13172744,-0.0057855546,0.3715057,0.0,0.27060157,0.2789683,-0.101806425,0.0,-0.21058203,0.080398686,905.38464,778.0586,812.71063,806.26373,803.44324,-0.18084716796875,0.06536865234375,0.96990966796875,1.697235107421875,-3.970184326171875,0.889739990234375,1.0,1.0,4.0,2.0,1.0,85.0,event
09:43:15.191,0.8733376,0.0,0.0134040015,0.25544152,0.73369956,0.0,0.09750599,0.45176682,0.42050454,0.0,0.13172744,-0.0057855546,0.3715057,0.0,0.27060157,0.2789683,-0.101806425,0.0,-0.21058203,0.080398686,772.8205,1065.751,850.18317,796.99634,751.4652,-0.18084716796875,0.06536865234375,0.96990966796875,1.697235107421875,-3.970184326171875,0.889739990234375,1.0,1.0,4.0,2.0,1.0,85.0,event
09:43:15.192,0.8733376,0.0,0.0134040015,0.25544152,0.73369956,0.0,0.09750599,0.45176682,0.42050454,0.0,0.13172744,-0.0057855546,0.3715057,0.0,0.27060157,0.2789683,-0.101806425,0.0,-0.21058203,0.080398686,666.4469,682.96704,688.60803,786.9231,900.14655,-0.18084716796875,0.06536865234375,0.96990966796875,1.697235107421875,-3.970184326171875,0.889739990234375,1.0,1.0,4.0,2.0,1.0,85.0,event
09:43:15.193,0.8733376,0.0,0.0134040015,0.25544152,0.73369956,0.0,0.09750599,0.45176682,0.42050454,0.0,0.13172744,-0.0057855546,0.3715057,0.0,0.27060157,0.2789683,-0.101806425,0.0,-0.21058203,0.080398686,724.87177,86.630035,692.6374,804.65204,1130.2197,-0.18084716796875,0.06536865234375,0.96990966796875,1.697235107421875,-3.970184326171875,0.889739990234375,1.0,1.0,4.0,2.0,1.0,85.0,event
09:43:15.194,0.8733376,0.0,0.0134040015,0.25544152,0.73369956,0.0,0.09750599,0.45176682,0.42050454,0.0,0.13172744,-0.0057855546,0.3715057,0.0,0.27060157,0.2789683,-0.101806425,0.0,-0.21058203,0.080398686,897.326,642.27106,1025.0549,822.381,871.9414,-0.18084716796875,0.06536865234375,0.96990966796875,1.697235107421875,-3.970184326171875,0.889739990234375,1.0,1.0,4.0,2.0,1.0,85.0,event
09:43:15.195,0.8733376,0.0,0.0134040015,0.25544152,0.73369956,0.0,0.09750599,0.45176682,0.42050454,0.0,0.13172744,-0.0057855546,0.3715057,0.0,0.27060157,0.2789683,-0.101806425,0.0,-0.21058203,0.080398686,935.2015,1206.3737,953.3333,820.3663,717.619,-0.18084716796875,0.06536865234375,0.96990966796875,1.697235107421875,-3.970184326171875,0.889739990234375,1.0,1.0,4.0,2.0,1.0,85.0,event
09:43:15.195,0.8733376,0.0,0.0134040015,0.25544152,0.73369956,0.0,0.09750599,0.45176682,0.42050454,0.0,0.13172744,-0.0057855546,0.3715057,0.0,0.27060157,0.2789683,-0.101806425,0.0,-0.21058203,0.080398686,777.6557,851.39197,726.8865,805.4579,796.99634,-0.18084716796875,0.06536865234375,0.96990966796875,1.697235107421875,-3.970184326171875,0.889739990234375,1.0,1.0,4.0,2.0,1.0,85.0,event
09:43:15.196,0.8733376,0.0,0.0134040015,0.25544152,0.73369956,0.0,0.09750599,0.45176682,0.42050454,0.0,0.13172744,-0.0057855546,0.3715057,0.0,0.27060157,0.2789683,-0.101806425,0.0,-0.21058203,0.080398686,680.14655,757.1062,840.10986,804.2491,721.2454,-0.18084716796875,0.06536865234375,0.96990966796875,1.697235107421875,-3.970184326171875,0.889739990234375,1.0,1.0,4.0,2.0,1.0,85.0,event
09:43:15.197,0.8733376,0.0,0.0134040015,0.25544152,0.73369956,0.0,0.09750599,0.45176682,0.42050454,0.0,0.13172744,-0.0057855546,0.3715057,0.0,0.27060157,0.2789683,-0.101806425,0.0,-0.21058203,0.080398686,749.0476,1012.5641,925.9341,811.50183,665.2381,-0.18084716796875,0.06536865234375,0.96990966796875,1.697235107421875,-3.970184326171875,0.889739990234375,1.0,1.0,4.0,2.0,1.0,85.0,event
09:43:15.244,0.8733376,0.0,0.0134040015,0.25544152,0.73369956,0.0,0.09750599,0.45176682,0.42050454,0.0,0.13172744,-0.0057855546,0.3715057,0.0,0.27060157,0.2789683,-0.101806425,0.0,-0.21058203,0.080398686,890.4762,1054.0659,869.92676,812.3077,720.4396,-0.183349609375,0.068359375,0.966552734375,2.572021484375,-3.327178955078125,0.43365478515625,1.0,1.0,4.0,2.0,1.0,85.0,event
09:43:15.246,0.8733376,0.0,0.0134040015,0.25544152,0.73369956,0.0,0.09750599,0.45176682,0.42050454,0.0,0.13172744,-0.0057855546,0.3715057,0.0,0.27060157,0.2789683,-0.101806425,0.0,-0.21058203,0.080398686,819.5604,924.7253,856.63007,801.8315,790.9524,-0.183349609375,0.068359375,0.966552734375,2.572021484375,-3.327178955078125,0.43365478515625,1.0,1.0,4.0,2.0,1.0,85.0,event
09:43:15.246,0.8733376,0.0,0.0134040015,0.25544152,0.73369956,0.0,0.09750599,0.45176682,0.42050454,0.0,0.13172744,-0.0057855546,0.3715057,0.0,0.27060157,0.2789683,-0.101806425,0.0,-0.21058203,0.080398686,949.707,888.46155,809.0842,814.3223,813.5165,-0.183349609375,0.068359375,0.966552734375,2.572021484375,-3.327178955078125,0.43365478515625,1.0,1.0,4.0,2.0,1.0,85.0,event
09:43:15.247,0.8733376,0.0,0.0134040015,0.25544152,0.73369956,0.0,0.09750599,0.45176682,0.42050454,0.0,0.13172744,-0.0057855546,0.3715057,0.0,0.27060157,0.2789683,-0.101806425,0.0,-0.21058203,0.080398686,726.08057,861.06226,809.4872,793.36993,718.022,-0.183349609375,0.068359375,0.966552734375,2.572021484375,-3.327178955078125,0.43365478515625,1.0,1.0,4.0,2.0,1.0,85.0,event
09:43:15.247,0.8733376,0.0,0.0134040015,0.25544152,0.73369956,0.0,0.09750599,0.45176682,0.42050454,0.0,0.13172744,-0.0057855546,0.3715057,0.0,0.27060157,0.2789683,-0.101806425,0.0,-0.21058203,0.080398686,687.8022,1003.2967,869.5238,788.1319,685.78754,-0.183349609375,0.068359375,0.966552734375,2.572021484375,-3.327178955078125,0.43365478515625,1.0,1.0,4.0,2.0,1.0,85.0,event
09:43:15.248,0.8733376,0.0,0.0134040015,0.25544152,0.73369956,0.0,0.09750599,0.45176682,0.42050454,0.0,0.13172744,-0.0057855546,0.3715057,0.0,0.27060157,0.2789683,-0.101806425,0.0,-0.21058203,0.080398686,857.4359,607.2161,810.696,811.0989,884.83514,-0.183349609375,0.068359375,0.966552734375,2.572021484375,-3.327178955078125,0.43365478515625,1.0,1.0,4.0,2.0,1.0,85.0,event
09:43:15.249,0.8733376,0.0,0.0134040015,0.25544152,0.73369956,0.0,0.09750599,0.45176682,0.42050454,0.0,0.13172744,-0.0057855546,0.3715057,0.0,0.27060157,0.2789683,-0.101806425,0.0,-0.21058203,0.080398686,940.84247,700.696,875.16486,822.381,974.68866,-0.183349609375,0.068359375,0.966552734375,2.572021484375,-3.327178955078125,0.43365478515625,1.0,1.0,4.0,2.0,1.0,85.0,event
09:43:15.249,0.8733376,0.0,0.0134040015,0.25544152,0.73369956,0.0,0.09750599,0.45176682,0.42050454,0.0,0.13172744,-0.0057855546,0.3715057,0.0,0.27060157,0.2789683,-0.101806425,0.0,-0.21058203,0.080398686,830.0366,763.5531,848.1685,809.89014,915.05493,-0.183349609375,0.068359375,0.966552734375,2.572021484375,-3.327178955078125,0.43365478515625,1.0,1.0,4.0,2.0,1.0,85.0,event
09:43:15.250,0.8733376,0.0,0.0134040015,0.25544152,0.73369956,0.0,0.09750599,0.45176682,0.42050454,0.0,0.13172744,-0.0057855546,0.3715057,0.0,0.27060157,0.2789683,-0.101806425,0.0,-0.21058203,0.080398686,681.3553,638.24176,793.36993,786.9231,792.5641,-0.183349609375,0.068359375,0.966552734375,2.572021484375,-3.327178955078125,0.43365478515625,1.0,1.0,4.0,2.0,1.0,85.0,event
09:43:15.251,0.8733376,0.0,0.0134040015,0.25544152,0.73369956,0.0,0.09750599,0.45176682,0.42050454,0.0,0.13172744,-0.0057855546,0.3715057,0.0,0.27060157,0.2789683,-0.101806425,0.0,-0.21058203,0.080398686,685.38464,151.90475,691.02563,788.1319,1010.14655,-0.183349609375,0.068359375,0.966552734375,2.572021484375,-3.327178955078125,0.43365478515625,1.0,1.0,4.0,2.0,1.0,85.0,event
09:43:15.252,0.8733376,0.0,0.0134040015,0.25544152,0.73369956,0.0,0.09750599,0.45176682,0.42050454,0.0,0.13172744,-0.0057855546,0.3715057,0.0,0.27060157,0.2789683,-0.101806425,0.0,-0.21058203,0.080398686,830.84247,246.5934,960.18317,808.68134,1045.2014,-0.183349609375,0.068359375,0.966552734375,2.572021484375,-3.327178955078125,0.43365478515625,1.0,1.0,4.0,2.0,1.0,85.0,event
09:43:15.253,0.8733376,0.0,0.0134040015,0.25544152,0.73369956,0.0,0.09750599,0.45176682,0.42050454,0.0,0.13172744,-0.0057855546,0.3715057,0.0,0.27060157,0.2789683,-0.101806425,0.0,-0.21058203,0.080398686,954.1392,1066.9597,1046.0073,823.5897,772.4176,-0.183349609375,0.068359375,0.966552734375,2.572021484375,-3.327178955078125,0.43365478515625,1.0,1.0,4.0,1.0,1.0,85.0,event
09:43:15.283,0.8733376,0.0,0.0134040015,0.25544152,0.73369956,0.0,0.09750599,0.45176682,0.42050454,0.0,0.13172744,-0.0057855546,0.3715057,0.0,0.27060157,0.2789683,-0.101806425,0.0,-0.21058203,0.080398686,854.21246,1062.1245,804.65204,812.71063,739.7802,-0.17926025390625,0.06829833984375,0.96954345703125,1.951446533203125,-4.179534912109375,-0.10467529296875,1.0,1.0,4.0,1.0,1.0,85.0,event
09:43:15.285,0.8733376,0.0,0.0134040015,0.25544152,0.73369956,0.0,0.09750599,0.45176682,0.42050454,0.0,0.13172744,-0.0057855546,0.3715057,0.0,0.27060157,0.2789683,-0.101806425,0.0,-0.21058203,0.080398686,692.6374,827.2161,850.18317,794.9817,752.674,-0.17926025390625,0.06829833984375,0.96954345703125,1.951446533203125,-4.179534912109375,-0.10467529296875,1.0,1.0,4.0,1.0,1.0,85.0,event
09:43:15.286,0.8733376,0.0,0.0134040015,0.25544152,0.73369956,0.0,0.09750599,0.45176682,0.42050454,0.0,0.13172744,-0.0057855546,0.3715057,0.0,0.27060157,0.2789683,-0.101806425,0.0,-0.21058203,0.080398686,826.8132,1067.7656,898.93774,808.2784,717.2161,-0.17926025390625,0.06829833984375,0.96954345703125,1.951446533203125,-4.179534912109375,-0.10467529296875,1.0,1.0,4.0,1.0,1.0,85.0,event
09:43:15.286,0.8733376,0.0,0.0134040015,0.25544152,0.73369956,0.0,0.09750599,0.45176682,0.42050454,0.0,0.13172744,-0.0057855546,0.3715057,0.0,0.27060157,0.2789683,-0.101806425,0.0,-0.21058203,0.080398686,691.4286,954.1392,903.36993,795.38464,714.3956,-0.17926025390625,0.06829833984375,0.96954345703125,1.951446533203125,-4.179534912109375,-0.10467529296875,1.0,1.0,4.0,1.0,1.0,85.0,event
09:43:15.287,0.8733376,0.0,0.0134040015,0.25544152,0.73369956,0.0,0.09750599,0.45176682,0.42050454,0.0,0.13172744,-0.0057855546,0.3715057,0.0,0.27060157,0.2789683,-0.101806425,0.0,-0.21058203,0.080398686,944.0659,1035.9341,853.4066,826.0073,815.12823,-0.17926025390625,0.06829833984375,0.96954345703125,1.951446533203125,-4.179534912109375,-0.10467529296875,1.0,1.0,4.0,1.0,1.0,85.0,event
09:43:15.288,0.8733376,0.0,0.0134040015,0.25544152,0.73369956,0.0,0.09750599,0.45176682,0.42050454,0.0,0.13172744,-0.0057855546,0.3715057,0.0,0.27060157,0.2789683,-0.101806425,0.0,-0.21058203,0.080398686,872.74725,780.4762,806.6667,810.696,860.65936,-0.17926025390625,0.06829833984375,0.96954345703125,1.951446533203125,-4.179534912109375,-0.10467529296875,1.0,1.0,4.0,1.0,1.0,85.0,event
09:43:15.289,0.8733376,0.0,0.0134040015,0.25544152,0.73369956,0.0,0.09750599,0.45176682,0.42050454,0.0,0.13172744,-0.0057855546,0.3715057,0.0,0.27060157,0.2789683,-0.101806425,0.0,-0.21058203,0.080398686,708.7546,602.7839,839.304,788.93774,800.2198,-0.17926025390625,0.06829833984375,0.96954345703125,1.951446533203125,-4.179534912109375,-0.10467529296875,1.0,1.0,4.0,1.0,1.0,85.0,event
09:43:15.290,0.8733376,0.0,0.0134040015,0.25544152,0.73369956,0.0,0.09750599,0.45176682,0.42050454,0.0,0.13172744,-0.0057855546,0.3715057,0.0,0.27060157,0.2789683,-0.101806425,0.0,-0.21058203,0.080398686,684.9817,847.3626,957.76556,791.3553,704.7253,-0.17926025390625,0.06829833984375,0.96954345703125,1.951446533203125,-4.179534912109375,-0.10467529296875,1.0,1.0,4.0,1.0,1.0,85.0,event
09:43:15.292,0.8733376,0.0,0.0134040015,0.25544152,0.73369956,0.0,0.09750599,0.45176682,0.42050454,0.0,0.13172744,-0.0057855546,0.3715057,0.0,0.27060157,0.2789683,-0.101806425,0.0,-0.21058203,0.080398686,808.2784,680.14655,815.9341,807.47253,809.89014,-0.17926025390625,0.06829833984375,0.96954345703125,1.951446533203125,-4.179534912109375,-0.10467529296875,1.0,1.0,4.0,1.0,1.0,85.0,event
09:43:15.293,0.8733376,0.0,0.0134040015,0.25544152,0.73369956,0.0,0.09750599,0.45176682,0.42050454,0.0,0.13172744,-0.0057855546,0.3715057,0.0,0.27060157,0.2789683,-0.101806425,0.0,-0.21058203,0.080398686,931.978,159.56044,819.15753,826.0073,1073.8096,-0.17926025390625,0.06829833984375,0.96954345703125,1.951446533203125,-4.179534912109375,-0.10467529296875,1.0,1.0,4.0,1.0,1.0,85.0,event
09:43:15.293,0.8733376,0.0,0.0134040015,0.25544152,0.73369956,0.0,0.09750599,0.45176682,0.42050454,0.0,0.13172744,-0.0057855546,0.3715057,0.0,0.27060157,0.2789683,-0.101806425,0.0,-0.21058203,0.080398686,894.90845,738.1685,1036.7399,815.5311,785.7143,-0.17926025390625,0.06829833984375,0.96954345703125,1.951446533203125,-4.179534912109375,-0.10467529296875,1.0,1.0,4.0,1.0,1.0,85.0,event
09:43:15.294,0.8733376,0.0,0.0134040015,0.25544152,0.73369956,0.0,0.09750599,0.45176682,0.42050454,0.0,0.13172744,-0.0057855546,0.3715057,0.0,0.27060157,0.2789683,-0.101806425,0.0,-0.21058203,0.080398686,736.9597,1081.8682,890.07324,790.9524,600.7692,-0.17926025390625,0.06829833984375,0.96954345703125,1.951446533203125,-4.179534912109375,-0.10467529296875,1.0,1.0,4.0,1.0,1.0,85.0,event
09:43:15.334,0.8733376,0.0,0.0134040015,0.25544152,0.73369956,0.0,0.09750599,0.45176682,0.42050454,0.0,0.13172744,-0.0057855546,0.3715057,0.0,0.27060157,0.2789683,-0.101806425,0.0,-0.21058203,0.080398686,674.90845,537.9121,732.52747,791.3553,763.95605,-0.17572021484375,0.07110595703125,0.96600341796875,2.04864501953125,-3.506622314453125,0.112152099609375,1.0,1.0,4.0,1.0,1.0,85.0,event
09:43:15.335,0.8733376,0.0,0.0134040015,0.25544152,0.73369956,0.0,0.09750599,0.45176682,0.42050454,0.0,0.13172744,-0.0057855546,0.3715057,0.0,0.27060157,0.2789683,-0.101806425,0.0,-0.21058203,0.080398686,791.75824,499.23077,959.7802,809.89014,768.7912,-0.17572021484375,0.07110595703125,0.96600341796875,2.04864501953125,-3.506622314453125,0.112152099609375,1.0,1.0,4.0,1.0,1.0,85.0,event
09:43:15.336,0.8733376,0.0,0.0134040015,0.25544152,0.73369956,0.0,0.09750599,0.45176682,0.42050454,0.0,0.13172744,-0.0057855546,0.3715057,0.0,0.27060157,0.2789683,-0.101806425,0.0,-0.21058203,0.080398686,942.0513,1086.3004,1039.5604,817.5458,681.3553,-0.17572021484375,0.07110595703125,0.96600341796875,2.04864501953125,-3.506622314453125,0.112152099609375,1.0,1.0,4.0,1.0,1.0,85.0,event
09:43:15.337,0.8733376,0.0,0.0134040015,0.25544152,0.73369956,0.0,0.09750599,0.45176682,0.42050454,0.0,0.13172744,-0.0057855546,0.3715057,0.0,0.27060157,0.2789683,-0.101806425,0.0,-0.21058203,0.080398686,731.7216,807.0696,788.1319,790.9524,803.0403,-0.17572021484375,0.07110595703125,0.96600341796875,2.04864501953125,-3.506622314453125,0.112152099609375,1.0,1.0,4.0,1.0,1.0,85.0,event
09:43:15.337,0.8733376,0.0,0.0134040015,0.25544152,0.73369956,0.0,0.09750599,0.45176682,0.42050454,0.0,0.13172744,-0.0057855546,0.3715057,0.0,0.27060157,0.2789683,-0.101806425,0.0,-0.21058203,0.080398686,899.34064,1126.1904,850.989,809.4872,718.8278,-0.17572021484375,0.07110595703125,0.96600341796875,2.04864501953125,-3.506622314453125,0.112152099609375,1.0,1.0,4.0,1.0,1.0,85.0,event
09:43:15.338,0.8733376,0.0,0.0134040015,0.25544152,0.73369956,0.0,0.09750599,0.45176682,0.42050454,0.0,0.13172744,-0.0057855546,0.3715057,0.0,0.27060157,0.2789683,-0.101806425,0.0,-0.21058203,0.080398686,670.87915,626.1539,821.5751,785.31134,832.4542,-0.17572021484375,0.07110595703125,0.96600341796875,2.04864501953125,-3.506622314453125,0.112152099609375,1.0,1.0,4.0,1.0,1.0,85.0,event
09:43:15.338,0.8733376,0.0,0.0134040015,0.25544152,0.73369956,0.0,0.09750599,0.45176682,0.42050454,0.0,0.13172744,-0.0057855546,0.3715057,0.0,0.27060157,0.2789683,-0.101806425,0.0,-0.21058203,0.080398686,760.7326,664.83514,909.81683,795.38464,855.0183,-0.17572021484375,0.07110595703125,0.96600341796875,2.04864501953125,-3.506622314453125,0.112152099609375,1.0,1.0,4.0,1.0,1.0,85.0,event
09:43:15.339,0.8733376,0.0,0.0134040015,0.25544152,0.73369956,0.0,0.09750599,0.45176682,0.42050454,0.0,0.13172744,-0.0057855546,0.3715057,0.0,0.27060157,0.2789683,-0.101806425,0.0,-0.21058203,0.080398686,908.60803,799.011,884.0293,809.0842,830.4396,-0.17572021484375,0.07110595703125,0.96600341796875,2.04864501953125,-3.506622314453125,0.112152099609375,1.0,1.0,4.0,1.0,1.0,85.0,event
09:43:15.340,0.8733376,0.0,0.0134040015,0.25544152,0.73369956,0.0,0.09750599,0.45176682,0.42050454,0.0,0.13172744,-0.0057855546,0.3715057,0.0,0.27060157,0.2789683,-0.101806425,0.0,-0.21058203,0.080398686,910.2198,356.1905,717.2161,817.9487,973.8828,-0.17572021484375,0.07110595703125,0.96600341796875,2.04864501953125,-3.506622314453125,0.112152099609375,1.0,1.0,4.0,1.0,1.0,85.0,event
09:43:15.341,0.8733376,0.0,0.0134040015,0.25544152,0.73369956,0.0,0.09750599,0.45176682,0.42050454,0.0,0.13172744,-0.0057855546,0.3715057,0.0,0.27060157,0.2789683,-0.101806425,0.0,-0.21058203,0.080398686,753.8828,451.28204,944.87177,792.5641,904.57874,-0.17572021484375,0.07110595703125,0.96600341796875,2.04864501953125,-3.506622314453125,0.112152099609375,1.0,1.0,4.0,1.0,1.0,85.0,event
09:43:15.341,0.8733376,0.0,0.0134040015,0.25544152,0.73369956,0.0,0.09750599,0.45176682,0.42050454,0.0,0.13172744,-0.0057855546,0.3715057,0.0,0.27060157,0.2789683,-0.101806425,0.0,-0.21058203,0.080398686,668.86444,1017.3993,969.45056,772.8205,665.2381,-0.17572021484375,0.07110595703125,0.96600341796875,2.04864501953125,-3.506622314453125,0.112152099609375,1.0,1.0,4.0,1.0,1.0,85.0,event
09:43:15.343,0.8733376,0.0,0.0134040015,0.25544152,0.73369956,0.0,0.09750599,0.45176682,0.42050454,0.0,0.13172744,-0.0057855546,0.3715057,0.0,0.27060157,0.2789683,-0.101806425,0.0,-0.21058203,0.080398686,743.8095,880.40295,793.7729,781.685,720.0366,-0.17572021484375,0.07110595703125,0.96600341796875,2.04864501953125,-3.506622314453125,0.112152099609375,1.0,1.0,4.0,1.0,1.0,85.0,event
09:43:15.378,0.8733376,0.0,0.0134040015,0.25544152,0.73369956,0.0,0.09750599,0.45176682,0.42050454,0.0,0.13172744,-0.0057855546,0.3715057,0.0,0.27060157,0.2789683,-0.101806425,0.0,-0.21058203,0.080398686,890.07324,770.80585,892.0879,797.8022,875.56775,-0.17510986328125,0.06512451171875,0.97076416015625,1.65985107421875,-3.476715087890625,0.620574951171875,1.0,1.0,4.0,1.0,1.0,85.0,event
09:43:15.379,0.8733376,0.0,0.0134040015,0.25544152,0.73369956,0.0,0.09750599,0.45176682,0.42050454,0.0,0.13172744,-0.0057855546,0.3715057,0.0,0.27060157,0.2789683,-0.101806425,0.0,-0.21058203,0.080398686,919.0842,1093.956,913.8461,805.05493,797.3993,-0.17510986328125,0.06512451171875,0.97076416015625,1.65985107421875,-3.476715087890625,0.620574951171875,1.0,1.0,4.0,1.0,1.0,85.0,event
09:43:15.383,0.8733376,0.0,0.0134040015,0.25544152,0.73369956,0.0,0.09750599,0.45176682,0.42050454,0.0,0.13172744,-0.0057855546,0.3715057,0.0,0.27060157,0.2789683,-0.101806425,0.0,-0.21058203,0.080398686,772.8205,1104.8352,790.54944,795.78754,669.67035,-0.17510986328125,0.06512451171875,0.97076416015625,1.65985107421875,-3.476715087890625,0.620574951171875,1.0,1.0,4.0,1.0,1.0,85.0,event
09:43:15.383,0.8733376,0.0,0.0134040015,0.25544152,0.73369956,0.0,0.09750599,0.45176682,0.42050454,0.0,0.13172744,-0.0057855546,0.3715057,0.0,0.27060157,0.2789683,-0.101806425,0.0,-0.21058203,0.080398686,657.1795,805.05493,738.5714,776.04395,669.67035,-0.17510986328125,0.06512451171875,0.97076416015625,1.65985107421875,-3.476715087890625,0.620574951171875,1.0,1.0,4.0,1.0,1.0,85.0,event
09:43:15.384,0.8733376,0.0,0.0134040015,0.25544152,0.73369956,0.0,0.09750599,0.45176682,0.42050454,0.0,0.13172744,-0.0057855546,0.3715057,0.0,0.27060157,0.2789683,-0.101806425,0.0,-0.21058203,0.080398686,720.84247,702.71063,837.28937,780.07324,716.8132,-0.17510986328125,0.06512451171875,0.97076416015625,1.65985107421875,-3.476715087890625,0.620574951171875,1.0,1.0,4.0,1.0,1.0,85.0,event
09:43:15.385,0.8733376,0.0,0.0134040015,0.25544152,0.73369956,0.0,0.09750599,0.45176682,0.42050454,0.0,0.13172744,-0.0057855546,0.3715057,0.0,0.27060157,0.2789683,-0.101806425,0.0,-0.21058203,0.080398686,874.35895,765.56775,848.97437,803.0403,794.9817,-0.17510986328125,0.06512451171875,0.97076416015625,1.65985107421875,-3.476715087890625,0.620574951171875,1.0,1.0,4.0,1.0,1.0,85.0,event
09:43:15.385,0.8733376,0.0,0.0134040015,0.25544152,0.73369956,0.0,0.09750599,0.45176682,0.42050454,0.0,0.13172744,-0.0057855546,0.3715057,0.0,0.27060157,0.2789683,-0.101806425,0.0,-0.21058203,0.080398686,930.7692,864.68866,823.5897,811.50183,857.8388,-0.17510986328125,0.06512451171875,0.97076416015625,1.65985107421875,-3.476715087890625,0.620574951171875,1.0,1.0,4.0,1.0,1.0,85.0,event
09:43:15.386,0.8733376,0.0,0.0134040015,0.25544152,0.73369956,0.0,0.09750599,0.45176682,0.42050454,0.0,0.13172744,-0.0057855546,0.3715057,0.0,0.27060157,0.2789683,-0.101806425,0.0,-0.21058203,0.080398686,796.99634,673.69965,722.0513,794.17584,912.23444,-0.17510986328125,0.06512451171875,0.97076416015625,1.65985107421875,-3.476715087890625,0.620574951171875,1.0,1.0,4.0,1.0,1.0,85.0,event
09:43:15.387,0.8733376,0.0,0.0134040015,0.25544152,0.73369956,0.0,0.09750599,0.45176682,0.42050454,0.0,0.13172744,-0.0057855546,0.3715057,0.0,0.27060157,0.2789683,-0.101806425,0.0,-0.21058203,0.080398686,662.8205,193.4066,716.0073,783.69965,1030.2931,-0.17510986328125,0.06512451171875,0.97076416015625,1.65985107421875,-3.476715087890625,0.620574951171875,1.0,1.0,4.0,1.0,1.0,85.0,event
09:43:15.387,0.8733376,0.0,0.0134040015,0.25544152,0.73369956,0.0,0.09750599,0.45176682,0.42050454,0.0,0.13172744,-0.0057855546,0.3715057,0.0,0.27060157,0.2789683,-0.101806425,0.0,-0.21058203,0.080398686,725.6777,694.65204,931.1722,793.36993,797.3993,-0.17510986328125,0.06512451171875,0.97076416015625,1.65985107421875,-3.476715087890625,0.620574951171875,1.0,1.0,4.0,1.0,1.0,85.0,event
09:43:15.388,0.8733376,0.0,0.0134040015,0.25544152,0.73369956,0.0,0.09750599,0.45176682,0.42050454,0.0,0.13172744,-0.0057855546,0.3715057,0.0,0.27060157,0.2789683,-0.101806425,0.0,-0.21058203,0.080398686,882.8205,1115.3114,865.89746,809.89014,677.326,-0.17510986328125,0.06512451171875,0.97076416015625,1.65985107421875,-3.476715087890625,0.620574951171875,1.0,1.0,4.0,1.0,1.0,85.0,event
09:43:15.389,0.8733376,0.0,0.0134040015,0.25544152,0.73369956,0.0,0.09750599,0.45176682,0.42050454,0.0,0.13172744,-0.0057855546,0.3715057,0.0,0.27060157,0.2789683,-0.101806425,0.0,-0.21058203,0.080398686,949.304,902.1612,732.9304,821.1722,796.1905,-0.17510986328125,0.06512451171875,0.97076416015625,1.65985107421875,-3.476715087890625,0.620574951171875,1.0,1.0,4.0,1.0,1.0,85.0,event
