TimeStamp,Delta_TP9,Delta_AF7,Delta_AF8,Delta_TP10,Theta_TP9,Theta_AF7,Theta_AF8,Theta_TP10,Alpha_TP9,Alpha_AF7,Alpha_AF8,Alpha_TP10,Beta_TP9,Beta_AF7,Beta_AF8,Beta_TP10,Gamma_TP9,Gamma_AF7,Gamma_AF8,Gamma_TP10,RAW_TP9,RAW_AF7,RAW_AF8,RAW_TP10,AUX_RIGHT,Accelerometer_X,Accelerometer_Y,Accelerometer_Z,Gyro_X,Gyro_Y,Gyro_Z,HeadBandOn,HSI_TP9,HSI_AF7,HSI_AF8,HSI_TP10,Battery,Elements
09:10:12.957,0.7875799,0.0,0.0,1.0341536,0.6292083,0.0,0.0,0.6578666,0.61240387,0.0,0.0,0.5217508,0.7973817,0.0,0.0,0.6843147,0.6868019,0.0,0.0,0.5987707,804.65204,990.40295,971.06226,795.38464,764.7619,-0.12237548828125,0.11859130859375,0.97088623046875,3.132781982421875,-7.28240966796875,0.55328369140625,1.0,1.0,4.0,2.0,1.0,100.0,event
09:10:12.958,0.7875799,0.0,0.0,1.0341536,0.6292083,0.0,0.0,0.6578666,0.61240387,0.0,0.0,0.5217508,0.7973817,0.0,0.0,0.6843147,0.6868019,0.0,0.0,0.5987707,825.2015,861.06226,826.4103,826.8132,787.72894,-0.12237548828125,0.11859130859375,0.97088623046875,3.132781982421875,-7.28240966796875,0.55328369140625,1.0,1.0,4.0,2.0,1.0,100.0,event
09:10:12.958,0.7875799,0.0,0.0,1.0341536,0.6292083,0.0,0.0,0.6578666,0.61240387,0.0,0.0,0.5217508,0.7973817,0.0,0.0,0.6843147,0.6868019,0.0,0.0,0.5987707,832.0513,826.4103,817.1429,834.4689,831.6484,-0.12237548828125,0.11859130859375,0.97088623046875,3.132781982421875,-7.28240966796875,0.55328369140625,1.0,1.0,4.0,2.0,1.0,100.0,event
09:10:12.959,0.7875799,0.0,0.0,1.0341536,0.6292083,0.0,0.0,0.6578666,0.61240387,0.0,0.0,0.5217508,0.7973817,0.0,0.0,0.6843147,0.6868019,0.0,0.0,0.5987707,795.78754,552.4176,692.23444,781.28204,1044.3956,-0.12237548828125,0.11859130859375,0.97088623046875,3.132781982421875,-7.28240966796875,0.55328369140625,1.0,1.0,4.0,2.0,1.0,100.0,event
09:10:12.959,0.7875799,0.0,0.0,1.0341536,0.6292083,0.0,0.0,0.6578666,0.61240387,0.0,0.0,0.5217508,0.7973817,0.0,0.0,0.6843147,0.6868019,0.0,0.0,0.5987707,804.65204,918.2784,884.0293,806.26373,801.4286,-0.12237548828125,0.11859130859375,0.97088623046875,3.132781982421875,-7.28240966796875,0.55328369140625,1.0,1.0,4.0,2.0,1.0,100.0,event
09:10:12.959,0.7875799,0.0,0.0,1.0341536,0.6292083,0.0,0.0,0.6578666,0.61240387,0.0,0.0,0.5217508,0.7973817,0.0,0.0,0.6843147,0.6868019,0.0,0.0,0.5987707,782.49084,813.1135,803.0403,772.4176,857.4359,-0.12237548828125,0.11859130859375,0.97088623046875,3.132781982421875,-7.28240966796875,0.55328369140625,1.0,1.0,4.0,2.0,1.0,100.0,event
09:10:12.960,0.7875799,0.0,0.0,1.0341536,0.6292083,0.0,0.0,0.6578666,0.61240387,0.0,0.0,0.5217508,0.7973817,0.0,0.0,0.6843147,0.6868019,0.0,0.0,0.5987707,782.49084,187.36264,464.57877,770.0,968.24176,-0.12237548828125,0.11859130859375,0.97088623046875,3.132781982421875,-7.28240966796875,0.55328369140625,1.0,1.0,4.0,2.0,1.0,100.0,event
09:10:12.960,0.7875799,0.0,0.0,1.0341536,0.6292083,0.0,0.0,0.6578666,0.61240387,0.0,0.0,0.5217508,0.7973817,0.0,0.0,0.6843147,0.6868019,0.0,0.0,0.5987707,807.47253,659.19415,699.0842,797.3993,845.34796,-0.12237548828125,0.11859130859375,0.97088623046875,3.132781982421875,-7.28240966796875,0.55328369140625,1.0,1.0,4.0,2.0,1.0,100.0,event
09:10:12.960,0.7875799,0.0,0.0,1.0341536,0.6292083,0.0,0.0,0.6578666,0.61240387,0.0,0.0,0.5217508,0.7973817,0.0,0.0,0.6843147,0.6868019,0.0,0.0,0.5987707,820.7692,947.6923,987.5824,831.6484,733.73627,-0.12237548828125,0.11859130859375,0.97088623046875,3.132781982421875,-7.28240966796875,0.55328369140625,1.0,1.0,4.0,2.0,1.0,100.0,event
09:10:12.960,0.7875799,0.0,0.0,1.0341536,0.6292083,0.0,0.0,0.6578666,0.61240387,0.0,0.0,0.5217508,0.7973817,0.0,0.0,0.6843147,0.6868019,0.0,0.0,0.5987707,813.5165,686.1905,838.9011,821.5751,902.5641,-0.12237548828125,0.11859130859375,0.97088623046875,3.132781982421875,-7.28240966796875,0.55328369140625,1.0,1.0,4.0,2.0,1.0,100.0,event
09:10:12.961,0.7875799,0.0,0.0,1.0341536,0.6292083,0.0,0.0,0.6578666,0.61240387,0.0,0.0,0.5217508,0.7973817,0.0,0.0,0.6843147,0.6868019,0.0,0.0,0.5987707,784.10254,818.3516,1096.7766,778.86444,733.3333,-0.12237548828125,0.11859130859375,0.97088623046875,3.132781982421875,-7.28240966796875,0.55328369140625,1.0,1.0,4.0,2.0,1.0,100.0,event
09:10:12.961,0.7838522,0.0,0.0,1.0579925,0.5936465,0.0,0.0,0.6299614,0.567515,0.0,0.0,0.5081925,0.7941901,0.0,0.0,0.69058216,0.69315743,0.0,0.0,0.5844139,809.89014,1165.6776,1185.4213,825.2015,707.1429,-0.12237548828125,0.11859130859375,0.97088623046875,3.132781982421875,-7.28240966796875,0.55328369140625,1.0,1.0,4.0,2.0,1.0,100.0,event
09:10:12.985,0.7838522,0.0,0.0,1.0579925,0.5936465,0.0,0.0,0.6299614,0.567515,0.0,0.0,0.5081925,0.7941901,0.0,0.0,0.69058216,0.69315743,0.0,0.0,0.5844139,821.5751,923.5165,842.52747,845.7509,816.7399,-0.1116943359375,0.12396240234375,0.97418212890625,1.682281494140625,-2.7813720703125,-0.55328369140625,1.0,1.0,4.0,2.0,1.0,100.0,event
09:10:12.985,0.7838522,0.0,0.0,1.0579925,0.5936465,0.0,0.0,0.6299614,0.567515,0.0,0.0,0.5081925,0.7941901,0.0,0.0,0.69058216,0.69315743,0.0,0.0,0.5844139,804.65204,899.7436,808.2784,823.5897,815.9341,-0.1116943359375,0.12396240234375,0.97418212890625,1.682281494140625,-2.7813720703125,-0.55328369140625,1.0,1.0,4.0,2.0,1.0,100.0,event
09:10:12.986,0.7838522,0.0,0.0,1.0579925,0.5936465,0.0,0.0,0.6299614,0.567515,0.0,0.0,0.5081925,0.7941901,0.0,0.0,0.69058216,0.69315743,0.0,0.0,0.5844139,810.293,1048.4249,901.3553,803.8461,762.3443,-0.1116943359375,0.12396240234375,0.97418212890625,1.682281494140625,-2.7813720703125,-0.55328369140625,1.0,1.0,4.0,2.0,1.0,100.0,event
09:10:12.987,0.7838522,0.0,0.0,1.0579925,0.5936465,0.0,0.0,0.6299614,0.567515,0.0,0.0,0.5081925,0.7941901,0.0,0.0,0.69058216,0.69315743,0.0,0.0,0.5844139,811.9048,1034.3224,843.73627,794.17584,707.5458,-0.1116943359375,0.12396240234375,0.97418212890625,1.682281494140625,-2.7813720703125,-0.55328369140625,1.0,1.0,4.0,2.0,1.0,100.0,event
09:10:12.988,0.7838522,0.0,0.0,1.0579925,0.5936465,0.0,0.0,0.6299614,0.567515,0.0,0.0,0.5081925,0.7941901,0.0,0.0,0.69058216,0.69315743,0.0,0.0,0.5844139,799.41394,890.87915,732.1245,826.8132,780.4762,-0.1116943359375,0.12396240234375,0.97418212890625,1.682281494140625,-2.7813720703125,-0.55328369140625,1.0,1.0,4.0,2.0,1.0,100.0,event
09:10:12.989,0.7838522,0.0,0.0,1.0579925,0.5936465,0.0,0.0,0.6299614,0.567515,0.0,0.0,0.5081925,0.7941901,0.0,0.0,0.69058216,0.69315743,0.0,0.0,0.5844139,801.8315,798.20514,705.12823,842.52747,882.4176,-0.1116943359375,0.12396240234375,0.97418212890625,1.682281494140625,-2.7813720703125,-0.55328369140625,1.0,1.0,4.0,2.0,1.0,100.0,event
09:10:12.989,0.7838522,0.0,0.0,1.0579925,0.5936465,0.0,0.0,0.6299614,0.567515,0.0,0.0,0.5081925,0.7941901,0.0,0.0,0.69058216,0.69315743,0.0,0.0,0.5844139,805.8608,730.5128,660.0,811.50183,941.6484,-0.1116943359375,0.12396240234375,0.97418212890625,1.682281494140625,-2.7813720703125,-0.55328369140625,1.0,1.0,4.0,2.0,1.0,100.0,event
09:10:12.990,0.7838522,0.0,0.0,1.0579925,0.5936465,0.0,0.0,0.6299614,0.567515,0.0,0.0,0.5081925,0.7941901,0.0,0.0,0.69058216,0.69315743,0.0,0.0,0.5844139,799.81683,694.65204,666.8498,782.8938,877.5824,-0.1116943359375,0.12396240234375,0.97418212890625,1.682281494140625,-2.7813720703125,-0.55328369140625,1.0,1.0,4.0,2.0,1.0,100.0,event
09:10:12.991,0.7838522,0.0,0.0,1.0579925,0.5936465,0.0,0.0,0.6299614,0.567515,0.0,0.0,0.5081925,0.7941901,0.0,0.0,0.69058216,0.69315743,0.0,0.0,0.5844139,791.75824,262.30768,418.24176,775.2381,957.76556,-0.1116943359375,0.12396240234375,0.97418212890625,1.682281494140625,-2.7813720703125,-0.55328369140625,1.0,1.0,4.0,2.0,1.0,100.0,event
09:10:12.991,0.7838522,0.0,0.0,1.0579925,0.5936465,0.0,0.0,0.6299614,0.567515,0.0,0.0,0.5081925,0.7941901,0.0,0.0,0.69058216,0.69315743,0.0,0.0,0.5844139,810.293,231.28206,587.8755,806.26373,1087.9121,-0.1116943359375,0.12396240234375,0.97418212890625,1.682281494140625,-2.7813720703125,-0.55328369140625,1.0,1.0,4.0,2.0,1.0,100.0,event
09:10:12.992,0.7838522,0.0,0.0,1.0579925,0.5936465,0.0,0.0,0.6299614,0.567515,0.0,0.0,0.5081925,0.7941901,0.0,0.0,0.69058216,0.69315743,0.0,0.0,0.5844139,829.2308,1012.1612,1171.3187,842.9304,824.7985,-0.1116943359375,0.12396240234375,0.97418212890625,1.682281494140625,-2.7813720703125,-0.55328369140625,1.0,1.0,4.0,2.0,1.0,100.0,event
09:10:12.993,0.7838522,0.0,0.0,1.0579925,0.5936465,0.0,0.0,0.6299614,0.567515,0.0,0.0,0.5081925,0.7941901,0.0,0.0,0.69058216,0.69315743,0.0,0.0,0.5844139,811.0989,951.31866,849.7802,813.5165,708.3516,-0.1116943359375,0.12396240234375,0.97418212890625,1.682281494140625,-2.7813720703125,-0.55328369140625,1.0,1.0,4.0,2.0,1.0,100.0,event
09:10:12.994,0.7838522,0.0,0.0,1.0579925,0.5936465,0.0,0.0,0.6299614,0.567515,0.0,0.0,0.5081925,0.7941901,0.0,0.0,0.69058216,0.69315743,0.0,0.0,0.5844139,776.8498,722.0513,633.4066,760.32965,738.5714,-0.12432861328125,0.11602783203125,0.97137451171875,1.742095947265625,-2.19818115234375,0.3289794921875,1.0,1.0,4.0,2.0,1.0,100.0,event
09:10:12.994,0.7838522,0.0,0.0,1.0579925,0.5936465,0.0,0.0,0.6299614,0.567515,0.0,0.0,0.5081925,0.7941901,0.0,0.0,0.69058216,0.69315743,0.0,0.0,0.5844139,774.43225,1006.52014,894.5055,762.3443,689.011,-0.12432861328125,0.11602783203125,0.97137451171875,1.742095947265625,-2.19818115234375,0.3289794921875,1.0,1.0,4.0,2.0,1.0,100.0,event
09:10:12.995,0.7838522,0.0,0.0,1.0579925,0.5936465,0.0,0.0,0.6299614,0.567515,0.0,0.0,0.5081925,0.7941901,0.0,0.0,0.69058216,0.69315743,0.0,0.0,0.5844139,801.8315,1170.1099,910.2198,801.8315,697.47253,-0.12432861328125,0.11602783203125,0.97137451171875,1.742095947265625,-2.19818115234375,0.3289794921875,1.0,1.0,4.0,2.0,1.0,100.0,event
09:10:12.996,0.7838522,0.0,0.0,1.0579925,0.5936465,0.0,0.0,0.6299614,0.567515,0.0,0.0,0.5081925,0.7941901,0.0,0.0,0.69058216,0.69315743,0.0,0.0,0.5844139,817.9487,931.978,639.45056,835.2747,751.8681,-0.12432861328125,0.11602783203125,0.97137451171875,1.742095947265625,-2.19818115234375,0.3289794921875,1.0,1.0,4.0,2.0,1.0,100.0,event
09:10:12.997,0.7838522,0.0,0.0,1.0579925,0.5936465,0.0,0.0,0.6299614,0.567515,0.0,0.0,0.5081925,0.7941901,0.0,0.0,0.69058216,0.69315743,0.0,0.0,0.5844139,810.293,735.34796,525.0183,822.381,755.89746,-0.12432861328125,0.11602783203125,0.97137451171875,1.742095947265625,-2.19818115234375,0.3289794921875,1.0,1.0,4.0,2.0,1.0,100.0,event
09:10:12.997,0.7838522,0.0,0.0,1.0579925,0.5936465,0.0,0.0,0.6299614,0.567515,0.0,0.0,0.5081925,0.7941901,0.0,0.0,0.69058216,0.69315743,0.0,0.0,0.5844139,786.9231,695.4579,553.22345,785.7143,850.58606,-0.12432861328125,0.11602783203125,0.97137451171875,1.742095947265625,-2.19818115234375,0.3289794921875,1.0,1.0,4.0,2.0,1.0,100.0,event
09:10:12.998,0.7838522,0.0,0.0,1.0579925,0.5936465,0.0,0.0,0.6299614,0.567515,0.0,0.0,0.5081925,0.7941901,0.0,0.0,0.69058216,0.69315743,0.0,0.0,0.5844139,779.67035,735.34796,644.2857,766.3736,855.82416,-0.12432861328125,0.11602783203125,0.97137451171875,1.742095947265625,-2.19818115234375,0.3289794921875,1.0,1.0,4.0,2.0,1.0,100.0,event
09:10:12.998,0.7838522,0.0,0.0,1.0579925,0.5936465,0.0,0.0,0.6299614,0.567515,0.0,0.0,0.5081925,0.7941901,0.0,0.0,0.69058216,0.69315743,0.0,0.0,0.5844139,798.20514,576.99634,571.3553,791.75824,826.8132,-0.12432861328125,0.11602783203125,0.97137451171875,1.742095947265625,-2.19818115234375,0.3289794921875,1.0,1.0,4.0,2.0,1.0,100.0,event
09:10:12.999,0.7838522,0.0,0.0,1.0579925,0.5936465,0.0,0.0,0.6299614,0.567515,0.0,0.0,0.5081925,0.7941901,0.0,0.0,0.69058216,0.69315743,0.0,0.0,0.5844139,808.68134,139.01099,344.5055,841.31866,976.30035,-0.12432861328125,0.11602783203125,0.97137451171875,1.742095947265625,-2.19818115234375,0.3289794921875,1.0,1.0,4.0,2.0,1.0,100.0,event
09:10:13.000,0.7838522,0.0,0.0,1.0579925,0.5936465,0.0,0.0,0.6299614,0.567515,0.0,0.0,0.5081925,0.7941901,0.0,0.0,0.69058216,0.69315743,0.0,0.0,0.5844139,803.44324,569.7436,761.53845,831.2454,793.7729,-0.12432861328125,0.11602783203125,0.97137451171875,1.742095947265625,-2.19818115234375,0.3289794921875,1.0,1.0,4.0,2.0,1.0,100.0,event
09:10:13.000,0.7838522,0.0,0.0,1.0579925,0.5936465,0.0,0.0,0.6299614,0.567515,0.0,0.0,0.5081925,0.7941901,0.0,0.0,0.69058216,0.69315743,0.0,0.0,0.5844139,791.75824,1047.619,996.04395,776.8498,637.4359,-0.12432861328125,0.11602783203125,0.97137451171875,1.742095947265625,-2.19818115234375,0.3289794921875,1.0,1.0,4.0,2.0,1.0,100.0,event
09:10:13.001,0.7838522,0.0,0.0,1.0579925,0.5936465,0.0,0.0,0.6299614,0.567515,0.0,0.0,0.5081925,0.7941901,0.0,0.0,0.69058216,0.69315743,0.0,0.0,0.5844139,788.93774,700.293,646.30035,758.71796,793.36993,-0.12432861328125,0.11602783203125,0.97137451171875,1.742095947265625,-2.19818115234375,0.3289794921875,1.0,1.0,4.0,2.0,1.0,100.0,event
09:10:13.025,0.7838522,0.0,0.0,1.0579925,0.5936465,0.0,0.0,0.6299614,0.567515,0.0,0.0,0.5081925,0.7941901,0.0,0.0,0.69058216,0.69315743,0.0,0.0,0.5844139,795.38464,700.696,686.99634,782.49084,835.6777,-0.1309814453125,0.11749267578125,0.967529296875,2.7215576171875,-4.134674072265625,0.112152099609375,1.0,1.0,4.0,2.0,1.0,100.0,event
09:10:13.026,0.7941088,0.0,0.0,1.0804644,0.50576645,0.0,0.0,0.5884798,0.59515774,0.0,0.0,0.47083235,0.77431434,0.0,0.0,0.6937129,0.67546594,0.0,0.0,0.5589473,801.8315,1170.5128,960.58606,823.1868,757.1062,-0.1309814453125,0.11749267578125,0.967529296875,2.7215576171875,-4.134674072265625,0.112152099609375,1.0,1.0,4.0,2.0,1.0,100.0,event
09:10:13.028,0.7941088,0.0,0.0,1.0804644,0.50576645,0.0,0.0,0.5884798,0.59515774,0.0,0.0,0.47083235,0.77431434,0.0,0.0,0.6937129,0.67546594,0.0,0.0,0.5589473,804.2491,1100.403,776.8498,829.6337,766.77655,-0.1309814453125,0.11749267578125,0.967529296875,2.7215576171875,-4.134674072265625,0.112152099609375,1.0,1.0,4.0,2.0,1.0,100.0,event
09:10:13.028,0.7941088,0.0,0.0,1.0804644,0.50576645,0.0,0.0,0.5884798,0.59515774,0.0,0.0,0.47083235,0.77431434,0.0,0.0,0.6937129,0.67546594,0.0,0.0,0.5589473,786.52014,844.94507,566.1172,791.75824,782.49084,-0.1309814453125,0.11749267578125,0.967529296875,2.7215576171875,-4.134674072265625,0.112152099609375,1.0,1.0,4.0,2.0,1.0,100.0,event
09:10:13.029,0.7941088,0.0,0.0,1.0804644,0.50576645,0.0,0.0,0.5884798,0.59515774,0.0,0.0,0.47083235,0.77431434,0.0,0.0,0.6937129,0.67546594,0.0,0.0,0.5589473,779.2674,896.9231,678.5348,767.5824,763.1502,-0.1309814453125,0.11749267578125,0.967529296875,2.7215576171875,-4.134674072265625,0.112152099609375,1.0,1.0,4.0,2.0,1.0,100.0,event
09:10:13.029,0.7941088,0.0,0.0,1.0804644,0.50576645,0.0,0.0,0.5884798,0.59515774,0.0,0.0,0.47083235,0.77431434,0.0,0.0,0.6937129,0.67546594,0.0,0.0,0.5589473,792.96704,869.5238,686.99634,782.0879,807.0696,-0.1309814453125,0.11749267578125,0.967529296875,2.7215576171875,-4.134674072265625,0.112152099609375,1.0,1.0,4.0,2.0,1.0,100.0,event
09:10:13.029,0.7941088,0.0,0.0,1.0804644,0.50576645,0.0,0.0,0.5884798,0.59515774,0.0,0.0,0.47083235,0.77431434,0.0,0.0,0.6937129,0.67546594,0.0,0.0,0.5589473,795.38464,795.78754,646.7033,815.5311,803.44324,-0.1309814453125,0.11749267578125,0.967529296875,2.7215576171875,-4.134674072265625,0.112152099609375,1.0,1.0,4.0,2.0,1.0,100.0,event
09:10:13.030,0.7941088,0.0,0.0,1.0804644,0.50576645,0.0,0.0,0.5884798,0.59515774,0.0,0.0,0.47083235,0.77431434,0.0,0.0,0.6937129,0.67546594,0.0,0.0,0.5589473,789.34064,1027.0696,962.6007,778.46155,669.67035,-0.1309814453125,0.11749267578125,0.967529296875,2.7215576171875,-4.134674072265625,0.112152099609375,1.0,1.0,4.0,2.0,1.0,100.0,event
09:10:13.030,0.7941088,0.0,0.0,1.0804644,0.50576645,0.0,0.0,0.5884798,0.59515774,0.0,0.0,0.47083235,0.77431434,0.0,0.0,0.6937129,0.67546594,0.0,0.0,0.5589473,780.87915,951.7216,1068.1685,764.7619,699.0842,-0.1309814453125,0.11749267578125,0.967529296875,2.7215576171875,-4.134674072265625,0.112152099609375,1.0,1.0,4.0,2.0,1.0,100.0,event
09:10:13.030,0.7941088,0.0,0.0,1.0804644,0.50576645,0.0,0.0,0.5884798,0.59515774,0.0,0.0,0.47083235,0.77431434,0.0,0.0,0.6937129,0.67546594,0.0,0.0,0.5589473,786.52014,355.78754,327.17947,821.978,1029.8901,-0.1309814453125,0.11749267578125,0.967529296875,2.7215576171875,-4.134674072265625,0.112152099609375,1.0,1.0,4.0,2.0,1.0,100.0,event
09:10:13.030,0.7941088,0.0,0.0,1.0804644,0.50576645,0.0,0.0,0.5884798,0.59515774,0.0,0.0,0.47083235,0.77431434,0.0,0.0,0.6937129,0.67546594,0.0,0.0,0.5589473,778.0586,221.61172,397.69232,788.1319,1050.8425,-0.1309814453125,0.11749267578125,0.967529296875,2.7215576171875,-4.134674072265625,0.112152099609375,1.0,1.0,4.0,2.0,1.0,100.0,event
09:10:13.031,0.7941088,0.0,0.0,1.0804644,0.50576645,0.0,0.0,0.5884798,0.59515774,0.0,0.0,0.47083235,0.77431434,0.0,0.0,0.6937129,0.67546594,0.0,0.0,0.5589473,802.23444,748.24176,664.0293,819.15753,782.8938,-0.1309814453125,0.11749267578125,0.967529296875,2.7215576171875,-4.134674072265625,0.112152099609375,1.0,1.0,4.0,2.0,1.0,100.0,event
09:10:13.079,0.7941088,0.0,0.0,1.0804644,0.50576645,0.0,0.0,0.5884798,0.59515774,0.0,0.0,0.47083235,0.77431434,0.0,0.0,0.6937129,0.67546594,0.0,0.0,0.5589473,803.0403,825.6044,735.7509,828.4249,790.54944,-0.12432861328125,0.1214599609375,0.97698974609375,2.145843505859375,-4.239349365234375,0.859832763671875,1.0,1.0,4.0,2.0,1.0,100.0,event
09:10:13.080,0.7941088,0.0,0.0,1.0804644,0.50576645,0.0,0.0,0.5884798,0.59515774,0.0,0.0,0.47083235,0.77431434,0.0,0.0,0.6937129,0.67546594,0.0,0.0,0.5589473,791.3553,1052.8572,867.1062,796.1905,684.17584,-0.12432861328125,0.1214599609375,0.97698974609375,2.145843505859375,-4.239349365234375,0.859832763671875,1.0,1.0,4.0,2.0,1.0,100.0,event
09:10:13.080,0.7941088,0.0,0.0,1.0804644,0.50576645,0.0,0.0,0.5884798,0.59515774,0.0,0.0,0.47083235,0.77431434,0.0,0.0,0.6937129,0.67546594,0.0,0.0,0.5589473,787.72894,814.3223,645.09155,778.0586,729.304,-0.12432861328125,0.1214599609375,0.97698974609375,2.145843505859375,-4.239349365234375,0.859832763671875,1.0,1.0,4.0,2.0,1.0,100.0,event
09:10:13.081,0.7941088,0.0,0.0,1.0804644,0.50576645,0.0,0.0,0.5884798,0.59515774,0.0,0.0,0.47083235,0.77431434,0.0,0.0,0.6937129,0.67546594,0.0,0.0,0.5589473,800.2198,955.7509,796.99634,817.5458,811.0989,-0.12432861328125,0.1214599609375,0.97698974609375,2.145843505859375,-4.239349365234375,0.859832763671875,1.0,1.0,4.0,2.0,1.0,100.0,event
09:10:13.081,0.7941088,0.0,0.0,1.0804644,0.50576645,0.0,0.0,0.5884798,0.59515774,0.0,0.0,0.47083235,0.77431434,0.0,0.0,0.6937129,0.67546594,0.0,0.0,0.5589473,809.0842,589.89014,600.3663,800.6227,819.9634,-0.12432861328125,0.1214599609375,0.97698974609375,2.145843505859375,-4.239349365234375,0.859832763671875,1.0,1.0,4.0,2.0,1.0,100.0,event
09:10:13.081,0.7941088,0.0,0.0,1.0804644,0.50576645,0.0,0.0,0.5884798,0.59515774,0.0,0.0,0.47083235,0.77431434,0.0,0.0,0.6937129,0.67546594,0.0,0.0,0.5589473,824.7985,956.9597,913.0403,834.87177,765.16486,-0.12432861328125,0.1214599609375,0.97698974609375,2.145843505859375,-4.239349365234375,0.859832763671875,1.0,1.0,4.0,2.0,1.0,100.0,event
09:10:13.081,0.7941088,0.0,0.0,1.0804644,0.50576645,0.0,0.0,0.5884798,0.59515774,0.0,0.0,0.47083235,0.77431434,0.0,0.0,0.6937129,0.67546594,0.0,0.0,0.5589473,775.2381,462.96704,429.92673,777.25275,989.19415,-0.12432861328125,0.1214599609375,0.97698974609375,2.145843505859375,-4.239349365234375,0.859832763671875,1.0,1.0,4.0,2.0,1.0,100.0,event
09:10:13.082,0.7941088,0.0,0.0,1.0804644,0.50576645,0.0,0.0,0.5884798,0.59515774,0.0,0.0,0.47083235,0.77431434,0.0,0.0,0.6937129,0.67546594,0.0,0.0,0.5589473,788.5348,756.30035,1012.1612,771.6117,753.47986,-0.12432861328125,0.1214599609375,0.97698974609375,2.145843505859375,-4.239349365234375,0.859832763671875,1.0,1.0,4.0,2.0,1.0,100.0,event
09:10:13.082,0.7941088,0.0,0.0,1.0804644,0.50576645,0.0,0.0,0.5884798,0.59515774,0.0,0.0,0.47083235,0.77431434,0.0,0.0,0.6937129,0.67546594,0.0,0.0,0.5589473,776.04395,156.33699,396.88644,761.9414,994.43225,-0.12432861328125,0.1214599609375,0.97698974609375,2.145843505859375,-4.239349365234375,0.859832763671875,1.0,1.0,4.0,2.0,1.0,100.0,event
09:10:13.082,0.7941088,0.0,0.0,1.0804644,0.50576645,0.0,0.0,0.5884798,0.59515774,0.0,0.0,0.47083235,0.77431434,0.0,0.0,0.6937129,0.67546594,0.0,0.0,0.5589473,798.20514,1178.5714,1171.7216,802.6374,699.89014,-0.12432861328125,0.1214599609375,0.97698974609375,2.145843505859375,-4.239349365234375,0.859832763671875,1.0,1.0,4.0,2.0,1.0,100.0,event
09:10:13.083,0.7941088,0.0,0.0,1.0804644,0.50576645,0.0,0.0,0.5884798,0.59515774,0.0,0.0,0.47083235,0.77431434,0.0,0.0,0.6937129,0.67546594,0.0,0.0,0.5589473,798.60803,805.05493,714.3956,798.60803,687.3993,-0.12432861328125,0.1214599609375,0.97698974609375,2.145843505859375,-4.239349365234375,0.859832763671875,1.0,1.0,4.0,2.0,1.0,100.0,event
09:10:13.083,0.7941088,0.0,0.0,1.0804644,0.50576645,0.0,0.0,0.5884798,0.59515774,0.0,0.0,0.47083235,0.77431434,0.0,0.0,0.6937129,0.67546594,0.0,0.0,0.5589473,802.23444,929.5604,818.3516,818.3516,749.0476,-0.12432861328125,0.1214599609375,0.97698974609375,2.145843505859375,-4.239349365234375,0.859832763671875,1.0,1.0,4.0,2.0,1.0,100.0,event
09:10:13.151,0.7941088,0.0,0.0,1.0804644,0.50576645,0.0,0.0,0.5884798,0.59515774,0.0,0.0,0.47083235,0.77431434,0.0,0.0,0.6937129,0.67546594,0.0,0.0,0.5589473,785.7143,981.9414,871.9414,767.5824,657.1795,-0.12432861328125,0.1214599609375,0.97698974609375,2.145843505859375,-4.239349365234375,0.859832763671875,1.0,1.0,4.0,2.0,1.0,100.0,event
09:10:13.152,0.7941088,0.0,0.0,1.0804644,0.50576645,0.0,0.0,0.5884798,0.59515774,0.0,0.0,0.47083235,0.77431434,0.0,0.0,0.6937129,0.67546594,0.0,0.0,0.5589473,782.49084,1069.7803,917.47253,758.315,691.4286,-0.12432861328125,0.1214599609375,0.97698974609375,2.145843505859375,-4.239349365234375,0.859832763671875,1.0,1.0,4.0,2.0,1.0,100.0,event
09:10:13.153,0.7941088,0.0,0.0,1.0804644,0.50576645,0.0,0.0,0.5884798,0.59515774,0.0,0.0,0.47083235,0.77431434,0.0,0.0,0.6937129,0.67546594,0.0,0.0,0.5589473,796.1905,806.6667,711.1722,801.02563,765.16486,-0.12432861328125,0.1214599609375,0.97698974609375,2.145843505859375,-4.239349365234375,0.859832763671875,1.0,1.0,4.0,2.0,1.0,100.0,event
09:10:13.154,0.78383636,0.0,0.0,1.0981886,0.40621665,0.0,0.0,0.5480416,0.56428164,0.0,0.0,0.46811315,0.75031614,0.0,0.0,0.6904644,0.65326345,0.0,0.0,0.5275809,802.23444,792.5641,754.2857,835.6777,870.32965,-0.12432861328125,0.1214599609375,0.97698974609375,2.145843505859375,-4.239349365234375,0.859832763671875,1.0,1.0,4.0,2.0,1.0,100.0,event
09:10:13.157,0.78383636,0.0,0.0,1.0981886,0.40621665,0.0,0.0,0.5480416,0.56428164,0.0,0.0,0.46811315,0.75031614,0.0,0.0,0.6904644,0.65326345,0.0,0.0,0.5275809,790.14655,977.50916,855.0183,807.8755,798.20514,-0.12432861328125,0.1214599609375,0.97698974609375,2.145843505859375,-4.239349365234375,0.859832763671875,1.0,1.0,4.0,2.0,1.0,100.0,event
09:10:13.158,0.78383636,0.0,0.0,1.0981886,0.40621665,0.0,0.0,0.5480416,0.56428164,0.0,0.0,0.46811315,0.75031614,0.0,0.0,0.6904644,0.65326345,0.0,0.0,0.5275809,777.25275,829.2308,725.2747,772.4176,763.5531,-0.12432861328125,0.1214599609375,0.97698974609375,2.145843505859375,-4.239349365234375,0.859832763671875,1.0,1.0,4.0,2.0,1.0,100.0,event
09:10:13.158,0.78383636,0.0,0.0,1.0981886,0.40621665,0.0,0.0,0.5480416,0.56428164,0.0,0.0,0.46811315,0.75031614,0.0,0.0,0.6904644,0.65326345,0.0,0.0,0.5275809,778.46155,307.83884,421.86813,776.8498,1048.4249,-0.12432861328125,0.1214599609375,0.97698974609375,2.145843505859375,-4.239349365234375,0.859832763671875,1.0,1.0,4.0,2.0,1.0,100.0,event
09:10:13.159,0.78383636,0.0,0.0,1.0981886,0.40621665,0.0,0.0,0.5480416,0.56428164,0.0,0.0,0.46811315,0.75031614,0.0,0.0,0.6904644,0.65326345,0.0,0.0,0.5275809,794.9817,205.09157,551.6117,795.78754,1133.4432,-0.12432861328125,0.1214599609375,0.97698974609375,2.145843505859375,-4.239349365234375,0.859832763671875,1.0,1.0,4.0,2.0,1.0,100.0,event
09:10:13.159,0.78383636,0.0,0.0,1.0981886,0.40621665,0.0,0.0,0.5480416,0.56428164,0.0,0.0,0.46811315,0.75031614,0.0,0.0,0.6904644,0.65326345,0.0,0.0,0.5275809,799.41394,981.53845,1201.9414,809.4872,819.9634,-0.12432861328125,0.1214599609375,0.97698974609375,2.145843505859375,-4.239349365234375,0.859832763671875,1.0,1.0,4.0,2.0,1.0,100.0,event
09:10:13.160,0.78383636,0.0,0.0,1.0981886,0.40621665,0.0,0.0,0.5480416,0.56428164,0.0,0.0,0.46811315,0.75031614,0.0,0.0,0.6904644,0.65326345,0.0,0.0,0.5275809,804.65204,1017.3993,979.5238,813.91943,756.7033,-0.12432861328125,0.1214599609375,0.97698974609375,2.145843505859375,-4.239349365234375,0.859832763671875,1.0,1.0,4.0,2.0,1.0,100.0,event
09:10:13.161,0.78383636,0.0,0.0,1.0981886,0.40621665,0.0,0.0,0.5480416,0.56428164,0.0,0.0,0.46811315,0.75031614,0.0,0.0,0.6904644,0.65326345,0.0,0.0,0.5275809,783.2967,991.2088,936.0073,755.89746,743.4066,-0.12432861328125,0.1214599609375,0.97698974609375,2.145843505859375,-4.239349365234375,0.859832763671875,1.0,1.0,4.0,2.0,1.0,100.0,event
09:10:13.161,0.78383636,0.0,0.0,1.0981886,0.40621665,0.0,0.0,0.5480416,0.56428164,0.0,0.0,0.46811315,0.75031614,0.0,0.0,0.6904644,0.65326345,0.0,0.0,0.5275809,795.38464,739.3773,695.05493,780.4762,745.0183,-0.12432861328125,0.1214599609375,0.97698974609375,2.145843505859375,-4.239349365234375,0.859832763671875,1.0,1.0,4.0,2.0,1.0,100.0,event
09:10:13.192,0.78383636,0.0,0.0,1.0981886,0.40621665,0.0,0.0,0.5480416,0.56428164,0.0,0.0,0.46811315,0.75031614,0.0,0.0,0.6904644,0.65326345,0.0,0.0,0.5275809,799.011,1236.5934,1043.1868,787.72894,805.05493,-0.1241455078125,0.11480712890625,0.97198486328125,1.966400146484375,-3.536529541015625,0.007476806640625,1.0,1.0,4.0,2.0,1.0,100.0,event
09:10:13.192,0.78383636,0.0,0.0,1.0981886,0.40621665,0.0,0.0,0.5480416,0.56428164,0.0,0.0,0.46811315,0.75031614,0.0,0.0,0.6904644,0.65326345,0.0,0.0,0.5275809,811.50183,989.19415,747.4359,831.2454,768.3883,-0.1241455078125,0.11480712890625,0.97198486328125,1.966400146484375,-3.536529541015625,0.007476806640625,1.0,1.0,4.0,2.0,1.0,100.0,event
09:10:13.193,0.78383636,0.0,0.0,1.0981886,0.40621665,0.0,0.0,0.5480416,0.56428164,0.0,0.0,0.46811315,0.75031614,0.0,0.0,0.6904644,0.65326345,0.0,0.0,0.5275809,808.2784,750.2564,579.41394,821.978,781.685,-0.1241455078125,0.11480712890625,0.97198486328125,1.966400146484375,-3.536529541015625,0.007476806640625,1.0,1.0,4.0,2.0,1.0,100.0,event
09:10:13.194,0.78383636,0.0,0.0,1.0981886,0.40621665,0.0,0.0,0.5480416,0.56428164,0.0,0.0,0.46811315,0.75031614,0.0,0.0,0.6904644,0.65326345,0.0,0.0,0.5275809,787.72894,940.4396,780.4762,783.2967,752.674,-0.1241455078125,0.11480712890625,0.97198486328125,1.966400146484375,-3.536529541015625,0.007476806640625,1.0,1.0,4.0,2.0,1.0,100.0,event
09:10:13.194,0.78383636,0.0,0.0,1.0981886,0.40621665,0.0,0.0,0.5480416,0.56428164,0.0,0.0,0.46811315,0.75031614,0.0,0.0,0.6904644,0.65326345,0.0,0.0,0.5275809,772.4176,1011.3553,847.76556,760.7326,729.304,-0.1241455078125,0.11480712890625,0.97198486328125,1.966400146484375,-3.536529541015625,0.007476806640625,1.0,1.0,4.0,2.0,1.0,100.0,event
09:10:13.195,0.78383636,0.0,0.0,1.0981886,0.40621665,0.0,0.0,0.5480416,0.56428164,0.0,0.0,0.46811315,0.75031614,0.0,0.0,0.6904644,0.65326345,0.0,0.0,0.5275809,788.93774,593.91943,554.83514,782.0879,881.2088,-0.1241455078125,0.11480712890625,0.97198486328125,1.966400146484375,-3.536529541015625,0.007476806640625,1.0,1.0,4.0,2.0,1.0,100.0,event
09:10:13.196,0.78383636,0.0,0.0,1.0981886,0.40621665,0.0,0.0,0.5480416,0.56428164,0.0,0.0,0.46811315,0.75031614,0.0,0.0,0.6904644,0.65326345,0.0,0.0,0.5275809,806.26373,271.97803,435.9707,818.3516,993.6264,-0.1241455078125,0.11480712890625,0.97198486328125,1.966400146484375,-3.536529541015625,0.007476806640625,1.0,1.0,4.0,2.0,1.0,100.0,event
09:10:13.196,0.78383636,0.0,0.0,1.0981886,0.40621665,0.0,0.0,0.5480416,0.56428164,0.0,0.0,0.46811315,0.75031614,0.0,0.0,0.6904644,0.65326345,0.0,0.0,0.5275809,801.02563,582.6374,765.56775,813.91943,943.663,-0.1241455078125,0.11480712890625,0.97198486328125,1.966400146484375,-3.536529541015625,0.007476806640625,1.0,1.0,4.0,2.0,1.0,100.0,event
09:10:13.197,0.78383636,0.0,0.0,1.0981886,0.40621665,0.0,0.0,0.5480416,0.56428164,0.0,0.0,0.46811315,0.75031614,0.0,0.0,0.6904644,0.65326345,0.0,0.0,0.5275809,787.72894,908.60803,955.7509,788.1319,828.8278,-0.1241455078125,0.11480712890625,0.97198486328125,1.966400146484375,-3.536529541015625,0.007476806640625,1.0,1.0,4.0,2.0,1.0,100.0,event
09:10:13.198,0.78383636,0.0,0.0,1.0981886,0.40621665,0.0,0.0,0.5480416,0.56428164,0.0,0.0,0.46811315,0.75031614,0.0,0.0,0.6904644,0.65326345,0.0,0.0,0.5275809,792.1612,743.8095,786.1172,770.80585,844.1392,-0.1241455078125,0.11480712890625,0.97198486328125,1.966400146484375,-3.536529541015625,0.007476806640625,1.0,1.0,4.0,2.0,1.0,100.0,event
09:10:13.199,0.78383636,0.0,0.0,1.0981886,0.40621665,0.0,0.0,0.5480416,0.56428164,0.0,0.0,0.46811315,0.75031614,0.0,0.0,0.6904644,0.65326345,0.0,0.0,0.5275809,807.8755,1109.2675,1053.663,821.5751,772.8205,-0.1241455078125,0.11480712890625,0.97198486328125,1.966400146484375,-3.536529541015625,0.007476806640625,1.0,1.0,4.0,2.0,1.0,100.0,event
09:10:13.199,0.78383636,0.0,0.0,1.0981886,0.40621665,0.0,0.0,0.5480416,0.56428164,0.0,0.0,0.46811315,0.75031614,0.0,0.0,0.6904644,0.65326345,0.0,0.0,0.5275809,798.20514,716.8132,796.99634,776.4469,845.34796,-0.1241455078125,0.11480712890625,0.97198486328125,1.966400146484375,-3.536529541015625,0.007476806640625,1.0,1.0,4.0,2.0,1.0,100.0,event
09:10:13.244,0.78383636,0.0,0.0,1.0981886,0.40621665,0.0,0.0,0.5480416,0.56428164,0.0,0.0,0.46811315,0.75031614,0.0,0.0,0.6904644,0.65326345,0.0,0.0,0.5275809,816.7399,1168.9011,953.73627,824.7985,747.8388,-0.1251220703125,0.1207275390625,0.97216796875,2.1234130859375,-3.289794921875,0.336456298828125,1.0,1.0,4.0,2.0,1.0,100.0,event
09:10:13.245,0.78383636,0.0,0.0,1.0981886,0.40621665,0.0,0.0,0.5480416,0.56428164,0.0,0.0,0.46811315,0.75031614,0.0,0.0,0.6904644,0.65326345,0.0,0.0,0.5275809,807.0696,524.61536,432.74725,790.14655,913.44324,-0.1251220703125,0.1207275390625,0.97216796875,2.1234130859375,-3.289794921875,0.336456298828125,1.0,1.0,4.0,2.0,1.0,100.0,event
09:10:13.245,0.78383636,0.0,0.0,1.0981886,0.40621665,0.0,0.0,0.5480416,0.56428164,0.0,0.0,0.46811315,0.75031614,0.0,0.0,0.6904644,0.65326345,0.0,0.0,0.5275809,790.14655,290.91574,465.3846,769.59705,987.98535,-0.1251220703125,0.1207275390625,0.97216796875,2.1234130859375,-3.289794921875,0.336456298828125,1.0,1.0,4.0,2.0,1.0,100.0,event
09:10:13.246,0.78383636,0.0,0.0,1.0981886,0.40621665,0.0,0.0,0.5480416,0.56428164,0.0,0.0,0.46811315,0.75031614,0.0,0.0,0.6904644,0.65326345,0.0,0.0,0.5275809,796.1905,994.43225,1091.5385,778.86444,754.2857,-0.1251220703125,0.1207275390625,0.97216796875,2.1234130859375,-3.289794921875,0.336456298828125,1.0,1.0,4.0,2.0,1.0,100.0,event
09:10:13.247,0.78383636,0.0,0.0,1.0981886,0.40621665,0.0,0.0,0.5480416,0.56428164,0.0,0.0,0.46811315,0.75031614,0.0,0.0,0.6904644,0.65326345,0.0,0.0,0.5275809,815.12823,1139.0842,1041.978,819.15753,761.13556,-0.1251220703125,0.1207275390625,0.97216796875,2.1234130859375,-3.289794921875,0.336456298828125,1.0,1.0,4.0,2.0,1.0,100.0,event
09:10:13.247,0.77702075,0.0,0.0,1.1032482,0.31901,0.0,0.0,0.52632827,0.5227471,0.0,0.0,0.46811315,0.7257956,0.0,0.0,0.68216544,0.642484,0.0,0.0,0.5017285,815.5311,781.685,683.7729,826.8132,978.315,-0.1251220703125,0.1207275390625,0.97216796875,2.1234130859375,-3.289794921875,0.336456298828125,1.0,1.0,4.0,2.0,1.0,100.0,event
09:10:13.250,0.77702075,0.0,0.0,1.1032482,0.31901,0.0,0.0,0.52632827,0.5227471,0.0,0.0,0.46811315,0.7257956,0.0,0.0,0.68216544,0.642484,0.0,0.0,0.5017285,799.81683,544.7619,573.7729,787.72894,964.21246,-0.1251220703125,0.1207275390625,0.97216796875,2.1234130859375,-3.289794921875,0.336456298828125,1.0,1.0,4.0,2.0,1.0,100.0,event
09:10:13.250,0.77702075,0.0,0.0,1.1032482,0.31901,0.0,0.0,0.52632827,0.5227471,0.0,0.0,0.46811315,0.7257956,0.0,0.0,0.68216544,0.642484,0.0,0.0,0.5017285,788.5348,832.0513,875.16486,756.7033,753.8828,-0.1251220703125,0.1207275390625,0.97216796875,2.1234130859375,-3.289794921875,0.336456298828125,1.0,1.0,4.0,2.0,1.0,100.0,event
09:10:13.251,0.77702075,0.0,0.0,1.1032482,0.31901,0.0,0.0,0.52632827,0.5227471,0.0,0.0,0.46811315,0.7257956,0.0,0.0,0.68216544,0.642484,0.0,0.0,0.5017285,810.696,947.6923,1104.4323,802.6374,683.7729,-0.1251220703125,0.1207275390625,0.97216796875,2.1234130859375,-3.289794921875,0.336456298828125,1.0,1.0,4.0,2.0,1.0,100.0,event
09:10:13.251,0.77702075,0.0,0.0,1.1032482,0.31901,0.0,0.0,0.52632827,0.5227471,0.0,0.0,0.46811315,0.7257956,0.0,0.0,0.68216544,0.642484,0.0,0.0,0.5017285,818.3516,241.35532,539.5238,827.619,990.0,-0.1251220703125,0.1207275390625,0.97216796875,2.1234130859375,-3.289794921875,0.336456298828125,1.0,1.0,4.0,2.0,1.0,100.0,event
09:10:13.251,0.77702075,0.0,0.0,1.1032482,0.31901,0.0,0.0,0.52632827,0.5227471,0.0,0.0,0.46811315,0.7257956,0.0,0.0,0.68216544,0.642484,0.0,0.0,0.5017285,794.9817,1080.2565,1029.0842,770.40295,745.82416,-0.1251220703125,0.1207275390625,0.97216796875,2.1234130859375,-3.289794921875,0.336456298828125,1.0,1.0,4.0,2.0,1.0,100.0,event
09:10:13.251,0.77702075,0.0,0.0,1.1032482,0.31901,0.0,0.0,0.52632827,0.5227471,0.0,0.0,0.46811315,0.7257956,0.0,0.0,0.68216544,0.642484,0.0,0.0,0.5017285,807.0696,400.51282,499.6337,806.26373,1014.17584,-0.1251220703125,0.1207275390625,0.97216796875,2.1234130859375,-3.289794921875,0.336456298828125,1.0,1.0,4.0,2.0,1.0,100.0,event
09:10:13.283,0.77702075,0.0,0.0,1.1032482,0.31901,0.0,0.0,0.52632827,0.5227471,0.0,0.0,0.46811315,0.7257956,0.0,0.0,0.68216544,0.642484,0.0,0.0,0.5017285,792.1612,905.78754,931.1722,764.35895,741.79486,-0.12255859375,0.11834716796875,0.974365234375,2.3028564453125,-2.9608154296875,0.560760498046875,1.0,1.0,4.0,2.0,1.0,100.0,event
09:10:13.283,0.77702075,0.0,0.0,1.1032482,0.31901,0.0,0.0,0.52632827,0.5227471,0.0,0.0,0.46811315,0.7257956,0.0,0.0,0.68216544,0.642484,0.0,0.0,0.5017285,796.99634,739.7802,818.3516,770.40295,842.1245,-0.12255859375,0.11834716796875,0.974365234375,2.3028564453125,-2.9608154296875,0.560760498046875,1.0,1.0,4.0,2.0,1.0,100.0,event
09:10:13.284,0.77702075,0.0,0.0,1.1032482,0.31901,0.0,0.0,0.52632827,0.5227471,0.0,0.0,0.46811315,0.7257956,0.0,0.0,0.68216544,0.642484,0.0,0.0,0.5017285,812.3077,1009.34064,1032.7106,806.26373,786.52014,-0.12255859375,0.11834716796875,0.974365234375,2.3028564453125,-2.9608154296875,0.560760498046875,1.0,1.0,4.0,2.0,1.0,100.0,event
09:10:13.284,0.77702075,0.0,0.0,1.1032482,0.31901,0.0,0.0,0.52632827,0.5227471,0.0,0.0,0.46811315,0.7257956,0.0,0.0,0.68216544,0.642484,0.0,0.0,0.5017285,819.15753,1221.6849,1052.8572,825.2015,767.1795,-0.12255859375,0.11834716796875,0.974365234375,2.3028564453125,-2.9608154296875,0.560760498046875,1.0,1.0,4.0,2.0,1.0,100.0,event
09:10:13.284,0.77702075,0.0,0.0,1.1032482,0.31901,0.0,0.0,0.52632827,0.5227471,0.0,0.0,0.46811315,0.7257956,0.0,0.0,0.68216544,0.642484,0.0,0.0,0.5017285,801.8315,851.39197,666.8498,810.293,835.2747,-0.12255859375,0.11834716796875,0.974365234375,2.3028564453125,-2.9608154296875,0.560760498046875,1.0,1.0,4.0,2.0,1.0,100.0,event
09:10:13.284,0.77702075,0.0,0.0,1.1032482,0.31901,0.0,0.0,0.52632827,0.5227471,0.0,0.0,0.46811315,0.7257956,0.0,0.0,0.68216544,0.642484,0.0,0.0,0.5017285,781.685,466.5934,475.8608,782.8938,876.3736,-0.12255859375,0.11834716796875,0.974365234375,2.3028564453125,-2.9608154296875,0.560760498046875,1.0,1.0,4.0,2.0,1.0,100.0,event
09:10:13.285,0.77702075,0.0,0.0,1.1032482,0.31901,0.0,0.0,0.52632827,0.5227471,0.0,0.0,0.46811315,0.7257956,0.0,0.0,0.68216544,0.642484,0.0,0.0,0.5017285,784.10254,604.3956,720.84247,783.69965,817.1429,-0.12255859375,0.11834716796875,0.974365234375,2.3028564453125,-2.9608154296875,0.560760498046875,1.0,1.0,4.0,2.0,1.0,100.0,event
09:10:13.285,0.77702075,0.0,0.0,1.1032482,0.31901,0.0,0.0,0.52632827,0.5227471,0.0,0.0,0.46811315,0.7257956,0.0,0.0,0.68216544,0.642484,0.0,0.0,0.5017285,796.1905,1008.1319,1051.2454,814.3223,703.5165,-0.12255859375,0.11834716796875,0.974365234375,2.3028564453125,-2.9608154296875,0.560760498046875,1.0,1.0,4.0,2.0,1.0,100.0,event
09:10:13.286,0.77702075,0.0,0.0,1.1032482,0.31901,0.0,0.0,0.52632827,0.5227471,0.0,0.0,0.46811315,0.7257956,0.0,0.0,0.68216544,0.642484,0.0,0.0,0.5017285,809.89014,767.1795,777.6557,836.4835,824.7985,-0.12255859375,0.11834716796875,0.974365234375,2.3028564453125,-2.9608154296875,0.560760498046875,1.0,1.0,4.0,2.0,1.0,100.0,event
09:10:13.288,0.77702075,0.0,0.0,1.1032482,0.31901,0.0,0.0,0.52632827,0.5227471,0.0,0.0,0.46811315,0.7257956,0.0,0.0,0.68216544,0.642484,0.0,0.0,0.5017285,809.89014,177.28938,385.20148,819.15753,955.34796,-0.12255859375,0.11834716796875,0.974365234375,2.3028564453125,-2.9608154296875,0.560760498046875,1.0,1.0,4.0,2.0,1.0,100.0,event
09:10:13.289,0.77702075,0.0,0.0,1.1032482,0.31901,0.0,0.0,0.52632827,0.5227471,0.0,0.0,0.46811315,0.7257956,0.0,0.0,0.68216544,0.642484,0.0,0.0,0.5017285,787.72894,716.4103,965.0183,772.8205,750.65936,-0.12255859375,0.11834716796875,0.974365234375,2.3028564453125,-2.9608154296875,0.560760498046875,1.0,1.0,4.0,2.0,1.0,100.0,event
09:10:13.289,0.77702075,0.0,0.0,1.1032482,0.31901,0.0,0.0,0.52632827,0.5227471,0.0,0.0,0.46811315,0.7257956,0.0,0.0,0.68216544,0.642484,0.0,0.0,0.5017285,786.52014,1068.9744,1119.7435,760.32965,694.65204,-0.12255859375,0.11834716796875,0.974365234375,2.3028564453125,-2.9608154296875,0.560760498046875,1.0,1.0,4.0,2.0,1.0,100.0,event
09:10:13.336,0.77702075,0.0,0.0,1.1032482,0.31901,0.0,0.0,0.52632827,0.5227471,0.0,0.0,0.46811315,0.7257956,0.0,0.0,0.68216544,0.642484,0.0,0.0,0.5017285,796.5934,800.6227,826.4103,789.34064,803.44324,-0.12030029296875,0.1175537109375,0.9788818359375,1.86920166015625,-3.4991455078125,0.9271240234375,1.0,1.0,4.0,2.0,1.0,100.0,event
09:10:13.337,0.77702075,0.0,0.0,1.1032482,0.31901,0.0,0.0,0.52632827,0.5227471,0.0,0.0,0.46811315,0.7257956,0.0,0.0,0.68216544,0.642484,0.0,0.0,0.5017285,799.81683,834.4689,894.90845,815.5311,763.95605,-0.12030029296875,0.1175537109375,0.9788818359375,1.86920166015625,-3.4991455078125,0.9271240234375,1.0,1.0,4.0,2.0,1.0,100.0,event
09:10:13.338,0.77702075,0.0,0.0,1.1032482,0.31901,0.0,0.0,0.52632827,0.5227471,0.0,0.0,0.46811315,0.7257956,0.0,0.0,0.68216544,0.642484,0.0,0.0,0.5017285,805.4579,1059.7069,992.8205,805.8608,742.6007,-0.12030029296875,0.1175537109375,0.9788818359375,1.86920166015625,-3.4991455078125,0.9271240234375,1.0,1.0,4.0,2.0,1.0,100.0,event
09:10:13.338,0.77702075,0.0,0.0,1.1032482,0.31901,0.0,0.0,0.52632827,0.5227471,0.0,0.0,0.46811315,0.7257956,0.0,0.0,0.68216544,0.642484,0.0,0.0,0.5017285,800.6227,993.6264,856.2271,778.46155,767.5824,-0.12030029296875,0.1175537109375,0.9788818359375,1.86920166015625,-3.4991455078125,0.9271240234375,1.0,1.0,4.0,2.0,1.0,100.0,event
09:10:13.339,0.77702075,0.0,0.0,1.1032482,0.31901,0.0,0.0,0.52632827,0.5227471,0.0,0.0,0.46811315,0.7257956,0.0,0.0,0.68216544,0.642484,0.0,0.0,0.5017285,793.36993,796.5934,753.0769,770.40295,807.0696,-0.12030029296875,0.1175537109375,0.9788818359375,1.86920166015625,-3.4991455078125,0.9271240234375,1.0,1.0,4.0,2.0,1.0,100.0,event
09:10:13.339,0.77702075,0.0,0.0,1.1032482,0.31901,0.0,0.0,0.52632827,0.5227471,0.0,0.0,0.46811315,0.7257956,0.0,0.0,0.68216544,0.642484,0.0,0.0,0.5017285,797.3993,754.2857,778.86444,795.38464,891.685,-0.12030029296875,0.1175537109375,0.9788818359375,1.86920166015625,-3.4991455078125,0.9271240234375,1.0,1.0,4.0,2.0,1.0,100.0,event
09:10:13.339,0.77702075,0.0,0.0,1.1032482,0.31901,0.0,0.0,0.52632827,0.5227471,0.0,0.0,0.46811315,0.7257956,0.0,0.0,0.68216544,0.642484,0.0,0.0,0.5017285,806.26373,786.9231,801.8315,822.381,909.41394,-0.12030029296875,0.1175537109375,0.9788818359375,1.86920166015625,-3.4991455078125,0.9271240234375,1.0,1.0,4.0,2.0,1.0,100.0,event
09:10:13.340,0.7787645,0.0,0.0,1.0948861,0.2614441,0.0,0.0,0.52638257,0.52266526,0.0,0.0,0.46811315,0.701926,0.0,0.0,0.6759442,0.64733636,0.0,0.0,0.49160737,799.41394,873.1502,848.97437,806.6667,819.9634,-0.12030029296875,0.1175537109375,0.9788818359375,1.86920166015625,-3.4991455078125,0.9271240234375,1.0,1.0,4.0,2.0,1.0,100.0,event
09:10:13.343,0.7787645,0.0,0.0,1.0948861,0.2614441,0.0,0.0,0.52638257,0.52266526,0.0,0.0,0.46811315,0.701926,0.0,0.0,0.6759442,0.64733636,0.0,0.0,0.49160737,787.326,371.50183,472.63736,781.685,934.7985,-0.12030029296875,0.1175537109375,0.9788818359375,1.86920166015625,-3.4991455078125,0.9271240234375,1.0,1.0,4.0,2.0,1.0,100.0,event
09:10:13.343,0.7787645,0.0,0.0,1.0948861,0.2614441,0.0,0.0,0.52638257,0.52266526,0.0,0.0,0.46811315,0.701926,0.0,0.0,0.6759442,0.64733636,0.0,0.0,0.49160737,782.49084,304.21246,614.4689,758.71796,927.9487,-0.12030029296875,0.1175537109375,0.9788818359375,1.86920166015625,-3.4991455078125,0.9271240234375,1.0,1.0,4.0,2.0,1.0,100.0,event
09:10:13.344,0.7787645,0.0,0.0,1.0948861,0.2614441,0.0,0.0,0.52638257,0.52266526,0.0,0.0,0.46811315,0.701926,0.0,0.0,0.6759442,0.64733636,0.0,0.0,0.49160737,789.7436,1106.8499,1268.022,773.22345,718.8278,-0.12030029296875,0.1175537109375,0.9788818359375,1.86920166015625,-3.4991455078125,0.9271240234375,1.0,1.0,4.0,2.0,1.0,100.0,event
09:10:13.344,0.7787645,0.0,0.0,1.0948861,0.2614441,0.0,0.0,0.52638257,0.52266526,0.0,0.0,0.46811315,0.701926,0.0,0.0,0.6759442,0.64733636,0.0,0.0,0.49160737,815.12823,1075.0183,1023.8461,829.6337,787.72894,-0.12030029296875,0.1175537109375,0.9788818359375,1.86920166015625,-3.4991455078125,0.9271240234375,1.0,1.0,4.0,2.0,1.0,100.0,event
09:10:13.372,0.7787645,0.0,0.0,1.0948861,0.2614441,0.0,0.0,0.52638257,0.52266526,0.0,0.0,0.46811315,0.701926,0.0,0.0,0.6759442,0.64733636,0.0,0.0,0.49160737,816.337,831.2454,738.97437,830.0366,831.2454,-0.12030029296875,0.1175537109375,0.9788818359375,1.86920166015625,-3.4991455078125,0.9271240234375,1.0,1.0,4.0,2.0,1.0,100.0,event
09:10:13.373,0.7787645,0.0,0.0,1.0948861,0.2614441,0.0,0.0,0.52638257,0.52266526,0.0,0.0,0.46811315,0.701926,0.0,0.0,0.6759442,0.64733636,0.0,0.0,0.49160737,791.75824,937.619,823.1868,782.49084,755.09155,-0.12030029296875,0.1175537109375,0.9788818359375,1.86920166015625,-3.4991455078125,0.9271240234375,1.0,1.0,4.0,2.0,1.0,100.0,event
09:10:13.373,0.7787645,0.0,0.0,1.0948861,0.2614441,0.0,0.0,0.52638257,0.52266526,0.0,0.0,0.46811315,0.701926,0.0,0.0,0.6759442,0.64733636,0.0,0.0,0.49160737,792.1612,991.6117,846.55676,767.98535,613.2601,-0.12030029296875,0.1175537109375,0.9788818359375,1.86920166015625,-3.4991455078125,0.9271240234375,1.0,1.0,4.0,2.0,1.0,100.0,event
09:10:13.374,0.7787645,0.0,0.0,1.0948861,0.2614441,0.0,0.0,0.52638257,0.52266526,0.0,0.0,0.46811315,0.701926,0.0,0.0,0.6759442,0.64733636,0.0,0.0,0.49160737,811.50183,714.7985,662.4176,792.96704,738.5714,-0.12030029296875,0.1175537109375,0.9788818359375,1.86920166015625,-3.4991455078125,0.9271240234375,1.0,1.0,4.0,2.0,1.0,100.0,event
09:10:13.374,0.7787645,0.0,0.0,1.0948861,0.2614441,0.0,0.0,0.52638257,0.52266526,0.0,0.0,0.46811315,0.701926,0.0,0.0,0.6759442,0.64733636,0.0,0.0,0.49160737,819.5604,571.75824,632.1978,825.6044,911.4286,-0.12030029296875,0.1175537109375,0.9788818359375,1.86920166015625,-3.4991455078125,0.9271240234375,1.0,1.0,4.0,2.0,1.0,100.0,event
09:10:13.375,0.7787645,0.0,0.0,1.0948861,0.2614441,0.0,0.0,0.52638257,0.52266526,0.0,0.0,0.46811315,0.701926,0.0,0.0,0.6759442,0.64733636,0.0,0.0,0.49160737,815.9341,709.15753,740.58606,834.87177,849.7802,-0.12030029296875,0.1175537109375,0.9788818359375,1.86920166015625,-3.4991455078125,0.9271240234375,1.0,1.0,4.0,2.0,1.0,100.0,event
09:10:13.375,0.7787645,0.0,0.0,1.0948861,0.2614441,0.0,0.0,0.52638257,0.52266526,0.0,0.0,0.46811315,0.701926,0.0,0.0,0.6759442,0.64733636,0.0,0.0,0.49160737,797.8022,669.2674,713.5897,801.02563,848.5714,-0.12030029296875,0.1175537109375,0.9788818359375,1.86920166015625,-3.4991455078125,0.9271240234375,1.0,1.0,4.0,2.0,1.0,100.0,event
09:10:13.376,0.7787645,0.0,0.0,1.0948861,0.2614441,0.0,0.0,0.52638257,0.52266526,0.0,0.0,0.46811315,0.701926,0.0,0.0,0.6759442,0.64733636,0.0,0.0,0.49160737,780.87915,443.62637,613.2601,763.1502,918.2784,-0.12030029296875,0.1175537109375,0.9788818359375,1.86920166015625,-3.4991455078125,0.9271240234375,1.0,1.0,4.0,2.0,1.0,100.0,event
09:10:13.377,0.7787645,0.0,0.0,1.0948861,0.2614441,0.0,0.0,0.52638257,0.52266526,0.0,0.0,0.46811315,0.701926,0.0,0.0,0.6759442,0.64733636,0.0,0.0,0.49160737,794.9817,217.98535,589.89014,773.6264,962.6007,-0.12030029296875,0.1175537109375,0.9788818359375,1.86920166015625,-3.4991455078125,0.9271240234375,1.0,1.0,4.0,2.0,1.0,100.0,event
09:10:13.378,0.7787645,0.0,0.0,1.0948861,0.2614441,0.0,0.0,0.52638257,0.52266526,0.0,0.0,0.46811315,0.701926,0.0,0.0,0.6759442,0.64733636,0.0,0.0,0.49160737,804.65204,835.2747,1110.4762,807.8755,780.87915,-0.12030029296875,0.1175537109375,0.9788818359375,1.86920166015625,-3.4991455078125,0.9271240234375,1.0,1.0,4.0,2.0,1.0,100.0,event
09:10:13.378,0.7787645,0.0,0.0,1.0948861,0.2614441,0.0,0.0,0.52638257,0.52266526,0.0,0.0,0.46811315,0.701926,0.0,0.0,0.6759442,0.64733636,0.0,0.0,0.49160737,803.44324,1156.0073,1113.2968,820.3663,731.7216,-0.12030029296875,0.1175537109375,0.9788818359375,1.86920166015625,-3.4991455078125,0.9271240234375,1.0,1.0,4.0,2.0,1.0,100.0,event
09:10:13.379,0.7787645,0.0,0.0,1.0948861,0.2614441,0.0,0.0,0.52638257,0.52266526,0.0,0.0,0.46811315,0.701926,0.0,0.0,0.6759442,0.64733636,0.0,0.0,0.49160737,791.75824,821.978,719.2308,788.93774,767.1795,-0.12030029296875,0.1175537109375,0.9788818359375,1.86920166015625,-3.4991455078125,0.9271240234375,1.0,1.0,4.0,2.0,1.0,100.0,event
09:10:13.408,0.7787645,0.0,0.0,1.0948861,0.2614441,0.0,0.0,0.52638257,0.52266526,0.0,0.0,0.46811315,0.701926,0.0,0.0,0.6759442,0.64733636,0.0,0.0,0.49160737,774.0293,800.6227,763.1502,759.12085,733.3333,-0.12109375,0.11639404296875,0.9691162109375,1.532745361328125,-3.551483154296875,0.426177978515625,1.0,1.0,4.0,2.0,1.0,100.0,event
09:10:13.409,0.7787645,0.0,0.0,1.0948861,0.2614441,0.0,0.0,0.52638257,0.52266526,0.0,0.0,0.46811315,0.701926,0.0,0.0,0.6759442,0.64733636,0.0,0.0,0.49160737,787.72894,1116.9231,1019.011,778.46155,752.674,-0.12109375,0.11639404296875,0.9691162109375,1.532745361328125,-3.551483154296875,0.426177978515625,1.0,1.0,4.0,2.0,1.0,100.0,event
09:10:13.410,0.7787645,0.0,0.0,1.0948861,0.2614441,0.0,0.0,0.52638257,0.52266526,0.0,0.0,0.46811315,0.701926,0.0,0.0,0.6759442,0.64733636,0.0,0.0,0.49160737,815.12823,1095.5677,905.78754,819.5604,695.4579,-0.12109375,0.11639404296875,0.9691162109375,1.532745361328125,-3.551483154296875,0.426177978515625,1.0,1.0,4.0,2.0,1.0,100.0,event
09:10:13.411,0.7787645,0.0,0.0,1.0948861,0.2614441,0.0,0.0,0.52638257,0.52266526,0.0,0.0,0.46811315,0.701926,0.0,0.0,0.6759442,0.64733636,0.0,0.0,0.49160737,811.50183,883.6264,692.6374,824.7985,757.1062,-0.12109375,0.11639404296875,0.9691162109375,1.532745361328125,-3.551483154296875,0.426177978515625,1.0,1.0,4.0,2.0,1.0,100.0,event
09:10:13.412,0.7787645,0.0,0.0,1.0948861,0.2614441,0.0,0.0,0.52638257,0.52266526,0.0,0.0,0.46811315,0.701926,0.0,0.0,0.6759442,0.64733636,0.0,0.0,0.49160737,793.7729,872.3443,719.2308,783.69965,814.7253,-0.12109375,0.11639404296875,0.9691162109375,1.532745361328125,-3.551483154296875,0.426177978515625,1.0,1.0,4.0,2.0,1.0,100.0,event
09:10:13.413,0.7787645,0.0,0.0,1.0948861,0.2614441,0.0,0.0,0.52638257,0.52266526,0.0,0.0,0.46811315,0.701926,0.0,0.0,0.6759442,0.64733636,0.0,0.0,0.49160737,780.07324,759.5238,669.2674,752.27106,869.12085,-0.12109375,0.11639404296875,0.9691162109375,1.532745361328125,-3.551483154296875,0.426177978515625,1.0,1.0,4.0,2.0,1.0,100.0,event
09:10:13.414,0.7787645,0.0,0.0,1.0948861,0.2614441,0.0,0.0,0.52638257,0.52266526,0.0,0.0,0.46811315,0.701926,0.0,0.0,0.6759442,0.64733636,0.0,0.0,0.49160737,783.2967,745.82416,740.989,759.92676,867.9121,-0.12109375,0.11639404296875,0.9691162109375,1.532745361328125,-3.551483154296875,0.426177978515625,1.0,1.0,4.0,2.0,1.0,100.0,event
09:10:13.414,0.7787645,0.0,0.0,1.0948861,0.2614441,0.0,0.0,0.52638257,0.52266526,0.0,0.0,0.46811315,0.701926,0.0,0.0,0.6759442,0.64733636,0.0,0.0,0.49160737,803.8461,359.011,494.3956,809.0842,991.2088,-0.12109375,0.11639404296875,0.9691162109375,1.532745361328125,-3.551483154296875,0.426177978515625,1.0,1.0,4.0,2.0,1.0,100.0,event
09:10:13.415,0.7787645,0.0,0.0,1.0948861,0.2614441,0.0,0.0,0.52638257,0.52266526,0.0,0.0,0.46811315,0.701926,0.0,0.0,0.6759442,0.64733636,0.0,0.0,0.49160737,809.89014,150.29305,475.8608,830.84247,1033.5165,-0.12109375,0.11639404296875,0.9691162109375,1.532745361328125,-3.551483154296875,0.426177978515625,1.0,1.0,4.0,2.0,1.0,100.0,event
09:10:13.416,0.7896349,0.0,0.0,1.082984,0.22867328,0.0,0.0,0.5267189,0.52266526,0.0,0.0,0.4657772,0.6753877,0.0,0.0,0.675701,0.6541767,0.0,0.0,0.48606,801.4286,815.12823,1066.1538,800.2198,701.50183,-0.12109375,0.11639404296875,0.9691162109375,1.532745361328125,-3.551483154296875,0.426177978515625,1.0,1.0,4.0,2.0,1.0,100.0,event
09:10:13.422,0.7896349,0.0,0.0,1.082984,0.22867328,0.0,0.0,0.5267189,0.52266526,0.0,0.0,0.4657772,0.6753877,0.0,0.0,0.675701,0.6541767,0.0,0.0,0.48606,790.14655,832.4542,922.3077,775.64105,625.34796,-0.12109375,0.11639404296875,0.9691162109375,1.532745361328125,-3.551483154296875,0.426177978515625,1.0,1.0,4.0,2.0,1.0,100.0,event
09:10:13.423,0.7896349,0.0,0.0,1.082984,0.22867328,0.0,0.0,0.5267189,0.52266526,0.0,0.0,0.4657772,0.6753877,0.0,0.0,0.675701,0.6541767,0.0,0.0,0.48606,784.90845,779.2674,863.47986,761.9414,746.63007,-0.12109375,0.11639404296875,0.9691162109375,1.532745361328125,-3.551483154296875,0.426177978515625,1.0,1.0,4.0,2.0,1.0,100.0,event
09:10:13.444,0.7896349,0.0,0.0,1.082984,0.22867328,0.0,0.0,0.5267189,0.52266526,0.0,0.0,0.4657772,0.6753877,0.0,0.0,0.675701,0.6541767,0.0,0.0,0.48606,807.8755,1122.5641,1084.6886,801.4286,770.40295,-0.1236572265625,0.11663818359375,0.97479248046875,2.10845947265625,-2.5421142578125,-0.0,1.0,1.0,4.0,2.0,1.0,100.0,event
09:10:13.445,0.7896349,0.0,0.0,1.082984,0.22867328,0.0,0.0,0.5267189,0.52266526,0.0,0.0,0.4657772,0.6753877,0.0,0.0,0.675701,0.6541767,0.0,0.0,0.48606,820.3663,1200.3297,986.77655,835.6777,736.55676,-0.1236572265625,0.11663818359375,0.97479248046875,2.10845947265625,-2.5421142578125,-0.0,1.0,1.0,4.0,2.0,1.0,100.0,event
09:10:13.446,0.7896349,0.0,0.0,1.082984,0.22867328,0.0,0.0,0.5267189,0.52266526,0.0,0.0,0.4657772,0.6753877,0.0,0.0,0.675701,0.6541767,0.0,0.0,0.48606,800.6227,890.87915,657.1795,804.2491,802.6374,-0.1236572265625,0.11663818359375,0.97479248046875,2.10845947265625,-2.5421142578125,-0.0,1.0,1.0,4.0,2.0,1.0,100.0,event
09:10:13.446,0.7896349,0.0,0.0,1.082984,0.22867328,0.0,0.0,0.5267189,0.52266526,0.0,0.0,0.4657772,0.6753877,0.0,0.0,0.675701,0.6541767,0.0,0.0,0.48606,780.87915,721.2454,582.6374,758.71796,823.1868,-0.1236572265625,0.11663818359375,0.97479248046875,2.10845947265625,-2.5421142578125,-0.0,1.0,1.0,4.0,2.0,1.0,100.0,event
09:10:13.447,0.7896349,0.0,0.0,1.082984,0.22867328,0.0,0.0,0.5267189,0.52266526,0.0,0.0,0.4657772,0.6753877,0.0,0.0,0.675701,0.6541767,0.0,0.0,0.48606,782.49084,954.5421,842.52747,750.65936,768.7912,-0.1236572265625,0.11663818359375,0.97479248046875,2.10845947265625,-2.5421142578125,-0.0,1.0,1.0,4.0,2.0,1.0,100.0,event
09:10:13.447,0.7896349,0.0,0.0,1.082984,0.22867328,0.0,0.0,0.5267189,0.52266526,0.0,0.0,0.4657772,0.6753877,0.0,0.0,0.675701,0.6541767,0.0,0.0,0.48606,806.26373,945.6777,829.6337,794.17584,816.7399,-0.1236572265625,0.11663818359375,0.97479248046875,2.10845947265625,-2.5421142578125,-0.0,1.0,1.0,4.0,2.0,1.0,100.0,event
09:10:13.448,0.7896349,0.0,0.0,1.082984,0.22867328,0.0,0.0,0.5267189,0.52266526,0.0,0.0,0.4657772,0.6753877,0.0,0.0,0.675701,0.6541767,0.0,0.0,0.48606,821.978,545.9707,509.30402,828.8278,949.707,-0.1236572265625,0.11663818359375,0.97479248046875,2.10845947265625,-2.5421142578125,-0.0,1.0,1.0,4.0,2.0,1.0,100.0,event
09:10:13.448,0.7896349,0.0,0.0,1.082984,0.22867328,0.0,0.0,0.5267189,0.52266526,0.0,0.0,0.4657772,0.6753877,0.0,0.0,0.675701,0.6541767,0.0,0.0,0.48606,805.05493,124.908424,311.86813,811.0989,1024.249,-0.1236572265625,0.11663818359375,0.97479248046875,2.10845947265625,-2.5421142578125,-0.0,1.0,1.0,4.0,2.0,1.0,100.0,event
09:10:13.449,0.7896349,0.0,0.0,1.082984,0.22867328,0.0,0.0,0.5267189,0.52266526,0.0,0.0,0.4657772,0.6753877,0.0,0.0,0.675701,0.6541767,0.0,0.0,0.48606,781.685,583.44324,831.6484,772.8205,791.75824,-0.1236572265625,0.11663818359375,0.97479248046875,2.10845947265625,-2.5421142578125,-0.0,1.0,1.0,4.0,2.0,1.0,100.0,event
09:10:13.449,0.7896349,0.0,0.0,1.082984,0.22867328,0.0,0.0,0.5267189,0.52266526,0.0,0.0,0.4657772,0.6753877,0.0,0.0,0.675701,0.6541767,0.0,0.0,0.48606,783.69965,944.87177,1043.1868,764.7619,660.0,-0.1236572265625,0.11663818359375,0.97479248046875,2.10845947265625,-2.5421142578125,-0.0,1.0,1.0,4.0,2.0,1.0,100.0,event
09:10:13.450,0.7896349,0.0,0.0,1.082984,0.22867328,0.0,0.0,0.5267189,0.52266526,0.0,0.0,0.4657772,0.6753877,0.0,0.0,0.675701,0.6541767,0.0,0.0,0.48606,802.6374,508.49817,664.0293,794.9817,880.40295,-0.1236572265625,0.11663818359375,0.97479248046875,2.10845947265625,-2.5421142578125,-0.0,1.0,1.0,4.0,2.0,1.0,100.0,event
09:10:13.450,0.7896349,0.0,0.0,1.082984,0.22867328,0.0,0.0,0.5267189,0.52266526,0.0,0.0,0.4657772,0.6753877,0.0,0.0,0.675701,0.6541767,0.0,0.0,0.48606,810.293,499.6337,726.4835,826.0073,932.381,-0.1236572265625,0.11663818359375,0.97479248046875,2.10845947265625,-2.5421142578125,-0.0,1.0,1.0,4.0,2.0,1.0,100.0,event
09:10:13.513,0.7896349,0.0,0.0,1.082984,0.22867328,0.0,0.0,0.5267189,0.52266526,0.0,0.0,0.4657772,0.6753877,0.0,0.0,0.675701,0.6541767,0.0,0.0,0.48606,800.6227,1023.0403,1039.5604,807.47253,734.1392,-0.13055419921875,0.11737060546875,0.967041015625,2.773895263671875,-1.83929443359375,0.500946044921875,1.0,1.0,4.0,2.0,1.0,100.0,event
09:10:13.514,0.7896349,0.0,0.0,1.082984,0.22867328,0.0,0.0,0.5267189,0.52266526,0.0,0.0,0.4657772,0.6753877,0.0,0.0,0.675701,0.6541767,0.0,0.0,0.48606,820.7692,985.16486,861.4652,801.8315,705.12823,-0.13055419921875,0.11737060546875,0.967041015625,2.773895263671875,-1.83929443359375,0.500946044921875,1.0,1.0,4.0,2.0,1.0,100.0,event
09:10:13.515,0.7896349,0.0,0.0,1.082984,0.22867328,0.0,0.0,0.5267189,0.52266526,0.0,0.0,0.4657772,0.6753877,0.0,0.0,0.675701,0.6541767,0.0,0.0,0.48606,822.7839,803.0403,723.2601,791.3553,731.7216,-0.13055419921875,0.11737060546875,0.967041015625,2.773895263671875,-1.83929443359375,0.500946044921875,1.0,1.0,4.0,2.0,1.0,100.0,event
09:10:13.516,0.7896349,0.0,0.0,1.082984,0.22867328,0.0,0.0,0.5267189,0.52266526,0.0,0.0,0.4657772,0.6753877,0.0,0.0,0.675701,0.6541767,0.0,0.0,0.48606,786.52014,967.03296,886.04395,764.35895,706.7399,-0.13055419921875,0.11737060546875,0.967041015625,2.773895263671875,-1.83929443359375,0.500946044921875,1.0,1.0,4.0,2.0,1.0,100.0,event
09:10:13.517,0.7896349,0.0,0.0,1.082984,0.22867328,0.0,0.0,0.5267189,0.52266526,0.0,0.0,0.4657772,0.6753877,0.0,0.0,0.675701,0.6541767,0.0,0.0,0.48606,784.10254,1119.3407,923.5165,790.14655,746.2271,-0.13055419921875,0.11737060546875,0.967041015625,2.773895263671875,-1.83929443359375,0.500946044921875,1.0,1.0,4.0,2.0,1.0,100.0,event
09:10:13.517,0.7896349,0.0,0.0,1.082984,0.22867328,0.0,0.0,0.5267189,0.52266526,0.0,0.0,0.4657772,0.6753877,0.0,0.0,0.675701,0.6541767,0.0,0.0,0.48606,777.6557,900.54944,680.9524,785.31134,865.89746,-0.13055419921875,0.11737060546875,0.967041015625,2.773895263671875,-1.83929443359375,0.500946044921875,1.0,1.0,4.0,2.0,1.0,100.0,event
09:10:13.518,0.7896349,0.0,0.0,1.082984,0.22867328,0.0,0.0,0.5267189,0.52266526,0.0,0.0,0.4657772,0.6753877,0.0,0.0,0.675701,0.6541767,0.0,0.0,0.48606,762.74725,283.663,217.58241,750.2564,1054.0659,-0.13055419921875,0.11737060546875,0.967041015625,2.773895263671875,-1.83929443359375,0.500946044921875,1.0,1.0,4.0,2.0,1.0,100.0,event
09:10:13.519,0.7896349,0.0,0.0,1.082984,0.22867328,0.0,0.0,0.5267189,0.52266526,0.0,0.0,0.4657772,0.6753877,0.0,0.0,0.675701,0.6541767,0.0,0.0,0.48606,775.64105,309.45056,471.02563,749.45056,958.97437,-0.13055419921875,0.11737060546875,0.967041015625,2.773895263671875,-1.83929443359375,0.500946044921875,1.0,1.0,4.0,2.0,1.0,100.0,event
09:10:13.519,0.7896349,0.0,0.0,1.082984,0.22867328,0.0,0.0,0.5267189,0.52266526,0.0,0.0,0.4657772,0.6753877,0.0,0.0,0.675701,0.6541767,0.0,0.0,0.48606,776.4469,1069.3773,1181.7949,748.24176,688.20514,-0.13055419921875,0.11737060546875,0.967041015625,2.773895263671875,-1.83929443359375,0.500946044921875,1.0,1.0,4.0,2.0,1.0,100.0,event
09:10:13.520,0.7896349,0.0,0.0,1.082984,0.22867328,0.0,0.0,0.5267189,0.52266526,0.0,0.0,0.4657772,0.6753877,0.0,0.0,0.675701,0.6541767,0.0,0.0,0.48606,778.0586,1075.8242,984.7619,772.8205,745.42126,-0.13055419921875,0.11737060546875,0.967041015625,2.773895263671875,-1.83929443359375,0.500946044921875,1.0,1.0,4.0,2.0,1.0,100.0,event
09:10:13.521,0.7896349,0.0,0.0,1.082984,0.22867328,0.0,0.0,0.5267189,0.52266526,0.0,0.0,0.4657772,0.6753877,0.0,0.0,0.675701,0.6541767,0.0,0.0,0.48606,790.54944,865.89746,728.49817,798.60803,855.0183,-0.13055419921875,0.11737060546875,0.967041015625,2.773895263671875,-1.83929443359375,0.500946044921875,1.0,1.0,4.0,2.0,1.0,100.0,event
09:10:13.521,0.8130074,0.0,0.0,1.0394107,0.22311282,0.0,0.0,0.44119164,0.52266526,0.0,0.0,0.43995345,0.6534295,0.0,0.0,0.6742781,0.65311074,0.0,0.0,0.46246284,780.87915,981.53845,801.8315,768.3883,844.1392,-0.13055419921875,0.11737060546875,0.967041015625,2.773895263671875,-1.83929443359375,0.500946044921875,1.0,1.0,4.0,2.0,1.0,100.0,event
09:10:13.548,0.8130074,0.0,0.0,1.0394107,0.22311282,0.0,0.0,0.44119164,0.52266526,0.0,0.0,0.43995345,0.6534295,0.0,0.0,0.6742781,0.65311074,0.0,0.0,0.46246284,769.19415,960.18317,751.8681,739.7802,803.0403,-0.1282958984375,0.12261962890625,0.97161865234375,2.7813720703125,-3.349609375,1.33087158203125,1.0,1.0,4.0,2.0,1.0,100.0,event
09:10:13.549,0.8130074,0.0,0.0,1.0394107,0.22311282,0.0,0.0,0.44119164,0.52266526,0.0,0.0,0.43995345,0.6534295,0.0,0.0,0.6742781,0.65311074,0.0,0.0,0.46246284,778.46155,700.696,598.7546,758.71796,842.9304,-0.1282958984375,0.12261962890625,0.97161865234375,2.7813720703125,-3.349609375,1.33087158203125,1.0,1.0,4.0,2.0,1.0,100.0,event
09:10:13.549,0.8130074,0.0,0.0,1.0394107,0.22311282,0.0,0.0,0.44119164,0.52266526,0.0,0.0,0.43995345,0.6534295,0.0,0.0,0.6742781,0.65311074,0.0,0.0,0.46246284,788.1319,616.08057,638.24176,807.8755,884.43225,-0.1282958984375,0.12261962890625,0.97161865234375,2.7813720703125,-3.349609375,1.33087158203125,1.0,1.0,4.0,2.0,1.0,100.0,event
09:10:13.550,0.8130074,0.0,0.0,1.0394107,0.22311282,0.0,0.0,0.44119164,0.52266526,0.0,0.0,0.43995345,0.6534295,0.0,0.0,0.6742781,0.65311074,0.0,0.0,0.46246284,797.3993,987.5824,819.9634,763.1502,685.78754,-0.1282958984375,0.12261962890625,0.97161865234375,2.7813720703125,-3.349609375,1.33087158203125,1.0,1.0,4.0,2.0,1.0,100.0,event
09:10:13.550,0.8130074,0.0,0.0,1.0394107,0.22311282,0.0,0.0,0.44119164,0.52266526,0.0,0.0,0.43995345,0.6534295,0.0,0.0,0.6742781,0.65311074,0.0,0.0,0.46246284,797.8022,879.59705,830.84247,807.8755,736.9597,-0.1282958984375,0.12261962890625,0.97161865234375,2.7813720703125,-3.349609375,1.33087158203125,1.0,1.0,4.0,2.0,1.0,100.0,event
09:10:13.551,0.8130074,0.0,0.0,1.0394107,0.22311282,0.0,0.0,0.44119164,0.52266526,0.0,0.0,0.43995345,0.6534295,0.0,0.0,0.6742781,0.65311074,0.0,0.0,0.46246284,775.64105,583.44324,530.65936,741.39197,845.34796,-0.1282958984375,0.12261962890625,0.97161865234375,2.7813720703125,-3.349609375,1.33087158203125,1.0,1.0,4.0,2.0,1.0,100.0,event
09:10:13.552,0.8130074,0.0,0.0,1.0394107,0.22311282,0.0,0.0,0.44119164,0.52266526,0.0,0.0,0.43995345,0.6534295,0.0,0.0,0.6742781,0.65311074,0.0,0.0,0.46246284,785.31134,335.2381,488.35165,753.47986,915.05493,-0.1282958984375,0.12261962890625,0.97161865234375,2.7813720703125,-3.349609375,1.33087158203125,1.0,1.0,4.0,2.0,1.0,100.0,event
09:10:13.553,0.8130074,0.0,0.0,1.0394107,0.22311282,0.0,0.0,0.44119164,0.52266526,0.0,0.0,0.43995345,0.6534295,0.0,0.0,0.6742781,0.65311074,0.0,0.0,0.46246284,809.89014,772.4176,881.6117,801.4286,802.23444,-0.1282958984375,0.12261962890625,0.97161865234375,2.7813720703125,-3.349609375,1.33087158203125,1.0,1.0,4.0,2.0,1.0,100.0,event
09:10:13.554,0.8130074,0.0,0.0,1.0394107,0.22311282,0.0,0.0,0.44119164,0.52266526,0.0,0.0,0.43995345,0.6534295,0.0,0.0,0.6742781,0.65311074,0.0,0.0,0.46246284,807.47253,1182.1978,1079.8535,811.9048,784.5055,-0.1282958984375,0.12261962890625,0.97161865234375,2.7813720703125,-3.349609375,1.33087158203125,1.0,1.0,4.0,2.0,1.0,100.0,event
09:10:13.555,0.8130074,0.0,0.0,1.0394107,0.22311282,0.0,0.0,0.44119164,0.52266526,0.0,0.0,0.43995345,0.6534295,0.0,0.0,0.6742781,0.65311074,0.0,0.0,0.46246284,800.2198,659.19415,539.92676,781.685,941.6484,-0.1282958984375,0.12261962890625,0.97161865234375,2.7813720703125,-3.349609375,1.33087158203125,1.0,1.0,4.0,2.0,1.0,100.0,event
09:10:13.555,0.8130074,0.0,0.0,1.0394107,0.22311282,0.0,0.0,0.44119164,0.52266526,0.0,0.0,0.43995345,0.6534295,0.0,0.0,0.6742781,0.65311074,0.0,0.0,0.46246284,793.36993,312.27106,394.46887,758.71796,942.4542,-0.1282958984375,0.12261962890625,0.97161865234375,2.7813720703125,-3.349609375,1.33087158203125,1.0,1.0,4.0,2.0,1.0,100.0,event
09:10:13.556,0.8130074,0.0,0.0,1.0394107,0.22311282,0.0,0.0,0.44119164,0.52266526,0.0,0.0,0.43995345,0.6534295,0.0,0.0,0.6742781,0.65311074,0.0,0.0,0.46246284,791.75824,990.80585,1023.8461,761.53845,745.82416,-0.1282958984375,0.12261962890625,0.97161865234375,2.7813720703125,-3.349609375,1.33087158203125,1.0,1.0,4.0,2.0,1.0,100.0,event
09:10:13.602,0.8130074,0.0,0.0,1.0394107,0.22311282,0.0,0.0,0.44119164,0.52266526,0.0,0.0,0.43995345,0.6534295,0.0,0.0,0.6742781,0.65311074,0.0,0.0,0.46246284,806.26373,1151.1721,984.7619,802.23444,734.1392,-0.1282958984375,0.12261962890625,0.97161865234375,2.7813720703125,-3.349609375,1.33087158203125,1.0,1.0,4.0,2.0,1.0,100.0,event
09:10:13.604,0.8130074,0.0,0.0,1.0394107,0.22311282,0.0,0.0,0.44119164,0.52266526,0.0,0.0,0.43995345,0.6534295,0.0,0.0,0.6742781,0.65311074,0.0,0.0,0.46246284,813.1135,901.75824,691.8315,813.1135,813.1135,-0.1282958984375,0.12261962890625,0.97161865234375,2.7813720703125,-3.349609375,1.33087158203125,1.0,1.0,4.0,2.0,1.0,100.0,event
09:10:13.604,0.8130074,0.0,0.0,1.0394107,0.22311282,0.0,0.0,0.44119164,0.52266526,0.0,0.0,0.43995345,0.6534295,0.0,0.0,0.6742781,0.65311074,0.0,0.0,0.46246284,791.3553,842.1245,673.69965,777.6557,794.17584,-0.1282958984375,0.12261962890625,0.97161865234375,2.7813720703125,-3.349609375,1.33087158203125,1.0,1.0,4.0,2.0,1.0,100.0,event
09:10:13.605,0.8130074,0.0,0.0,1.0394107,0.22311282,0.0,0.0,0.44119164,0.52266526,0.0,0.0,0.43995345,0.6534295,0.0,0.0,0.6742781,0.65311074,0.0,0.0,0.46246284,796.5934,774.0293,687.8022,770.40295,743.4066,-0.1282958984375,0.12261962890625,0.97161865234375,2.7813720703125,-3.349609375,1.33087158203125,1.0,1.0,4.0,2.0,1.0,100.0,event
09:10:13.605,0.8130074,0.0,0.0,1.0394107,0.22311282,0.0,0.0,0.44119164,0.52266526,0.0,0.0,0.43995345,0.6534295,0.0,0.0,0.6742781,0.65311074,0.0,0.0,0.46246284,778.0586,800.6227,669.67035,759.5238,757.9121,-0.1282958984375,0.12261962890625,0.97161865234375,2.7813720703125,-3.349609375,1.33087158203125,1.0,1.0,4.0,2.0,1.0,100.0,event
09:10:13.606,0.8130074,0.0,0.0,1.0394107,0.22311282,0.0,0.0,0.44119164,0.52266526,0.0,0.0,0.43995345,0.6534295,0.0,0.0,0.6742781,0.65311074,0.0,0.0,0.46246284,817.1429,405.348,475.05493,823.1868,1033.9194,-0.1282958984375,0.12261962890625,0.97161865234375,2.7813720703125,-3.349609375,1.33087158203125,1.0,1.0,4.0,2.0,1.0,100.0,event
09:10:13.607,0.8130074,0.0,0.0,1.0394107,0.22311282,0.0,0.0,0.44119164,0.52266526,0.0,0.0,0.43995345,0.6534295,0.0,0.0,0.6742781,0.65311074,0.0,0.0,0.46246284,820.7692,168.42491,448.86447,852.1978,1155.6044,-0.1282958984375,0.12261962890625,0.97161865234375,2.7813720703125,-3.349609375,1.33087158203125,1.0,1.0,4.0,2.0,1.0,100.0,event
09:10:13.607,0.8130074,0.0,0.0,1.0394107,0.22311282,0.0,0.0,0.44119164,0.52266526,0.0,0.0,0.43995345,0.6534295,0.0,0.0,0.6742781,0.65311074,0.0,0.0,0.46246284,804.2491,813.1135,984.35895,804.65204,819.5604,-0.1282958984375,0.12261962890625,0.97161865234375,2.7813720703125,-3.349609375,1.33087158203125,1.0,1.0,4.0,2.0,1.0,100.0,event
09:10:13.608,0.8130074,0.0,0.0,1.0394107,0.22311282,0.0,0.0,0.44119164,0.52266526,0.0,0.0,0.43995345,0.6534295,0.0,0.0,0.6742781,0.65311074,0.0,0.0,0.46246284,789.34064,875.9707,844.94507,763.1502,701.50183,-0.1282958984375,0.12261962890625,0.97161865234375,2.7813720703125,-3.349609375,1.33087158203125,1.0,1.0,4.0,2.0,1.0,100.0,event
09:10:13.609,0.8130074,0.0,0.0,1.0394107,0.22311282,0.0,0.0,0.44119164,0.52266526,0.0,0.0,0.43995345,0.6534295,0.0,0.0,0.6742781,0.65311074,0.0,0.0,0.46246284,791.3553,632.6007,663.6264,765.16486,711.978,-0.1282958984375,0.12261962890625,0.97161865234375,2.7813720703125,-3.349609375,1.33087158203125,1.0,1.0,4.0,2.0,1.0,100.0,event
09:10:13.609,0.8130074,0.0,0.0,1.0394107,0.22311282,0.0,0.0,0.44119164,0.52266526,0.0,0.0,0.43995345,0.6534295,0.0,0.0,0.6742781,0.65311074,0.0,0.0,0.46246284,798.20514,928.3516,967.03296,793.36993,733.3333,-0.1282958984375,0.12261962890625,0.97161865234375,2.7813720703125,-3.349609375,1.33087158203125,1.0,1.0,4.0,2.0,1.0,100.0,event
09:10:13.610,0.8130074,0.0,0.0,1.0394107,0.22311282,0.0,0.0,0.44119164,0.52266526,0.0,0.0,0.43995345,0.6534295,0.0,0.0,0.6742781,0.65311074,0.0,0.0,0.46246284,810.293,1198.3151,1029.0842,820.7692,740.58606,-0.1282958984375,0.12261962890625,0.97161865234375,2.7813720703125,-3.349609375,1.33087158203125,1.0,1.0,4.0,2.0,1.0,100.0,event
09:10:13.654,0.8130074,0.0,0.0,1.0394107,0.22311282,0.0,0.0,0.44119164,0.52266526,0.0,0.0,0.43995345,0.6534295,0.0,0.0,0.6742781,0.65311074,0.0,0.0,0.46246284,809.89014,850.18317,625.34796,813.91943,769.59705,-0.12628173828125,0.12091064453125,0.97222900390625,1.854248046875,-2.968292236328125,1.2261962890625,1.0,1.0,4.0,2.0,1.0,100.0,event
09:10:13.655,0.8365407,0.0,0.0,1.0001135,0.2057368,0.0,0.0,0.30076855,0.5211432,0.0,0.0,0.38226345,0.6236678,0.0,0.0,0.6650866,0.63509417,0.0,0.0,0.41781712,792.1612,461.75824,442.01465,791.3553,837.6923,-0.12628173828125,0.12091064453125,0.97222900390625,1.854248046875,-2.968292236328125,1.2261962890625,1.0,1.0,4.0,2.0,1.0,100.0,event
09:10:13.658,0.8365407,0.0,0.0,1.0001135,0.2057368,0.0,0.0,0.30076855,0.5211432,0.0,0.0,0.38226345,0.6236678,0.0,0.0,0.6650866,0.63509417,0.0,0.0,0.41781712,786.9231,817.5458,839.304,770.0,747.4359,-0.12628173828125,0.12091064453125,0.97222900390625,1.854248046875,-2.968292236328125,1.2261962890625,1.0,1.0,4.0,2.0,1.0,100.0,event
09:10:13.659,0.8365407,0.0,0.0,1.0001135,0.2057368,0.0,0.0,0.30076855,0.5211432,0.0,0.0,0.38226345,0.6236678,0.0,0.0,0.6650866,0.63509417,0.0,0.0,0.41781712,817.5458,1122.1611,996.4469,806.6667,659.19415,-0.12628173828125,0.12091064453125,0.97222900390625,1.854248046875,-2.968292236328125,1.2261962890625,1.0,1.0,4.0,2.0,1.0,100.0,event
09:10:13.660,0.8365407,0.0,0.0,1.0001135,0.2057368,0.0,0.0,0.30076855,0.5211432,0.0,0.0,0.38226345,0.6236678,0.0,0.0,0.6650866,0.63509417,0.0,0.0,0.41781712,813.91943,529.45056,469.4139,819.15753,911.8315,-0.12628173828125,0.12091064453125,0.97222900390625,1.854248046875,-2.968292236328125,1.2261962890625,1.0,1.0,4.0,2.0,1.0,100.0,event
09:10:13.660,0.8365407,0.0,0.0,1.0001135,0.2057368,0.0,0.0,0.30076855,0.5211432,0.0,0.0,0.38226345,0.6236678,0.0,0.0,0.6650866,0.63509417,0.0,0.0,0.41781712,847.3626,895.7143,727.28937,868.315,771.6117,-0.12628173828125,0.12091064453125,0.97222900390625,1.854248046875,-2.968292236328125,1.2261962890625,1.0,1.0,4.0,2.0,1.0,100.0,event
09:10:13.661,0.8365407,0.0,0.0,1.0001135,0.2057368,0.0,0.0,0.30076855,0.5211432,0.0,0.0,0.38226345,0.6236678,0.0,0.0,0.6650866,0.63509417,0.0,0.0,0.41781712,762.74725,536.7033,582.23444,734.1392,878.3883,-0.12628173828125,0.12091064453125,0.97222900390625,1.854248046875,-2.968292236328125,1.2261962890625,1.0,1.0,4.0,2.0,1.0,100.0,event
09:10:13.662,0.8365407,0.0,0.0,1.0001135,0.2057368,0.0,0.0,0.30076855,0.5211432,0.0,0.0,0.38226345,0.6236678,0.0,0.0,0.6650866,0.63509417,0.0,0.0,0.41781712,761.9414,709.9634,765.9707,726.08057,796.1905,-0.12628173828125,0.12091064453125,0.97222900390625,1.854248046875,-2.968292236328125,1.2261962890625,1.0,1.0,4.0,2.0,1.0,100.0,event
09:10:13.663,0.8365407,0.0,0.0,1.0001135,0.2057368,0.0,0.0,0.30076855,0.5211432,0.0,0.0,0.38226345,0.6236678,0.0,0.0,0.6650866,0.63509417,0.0,0.0,0.41781712,790.14655,585.8608,679.34064,765.16486,878.7912,-0.12628173828125,0.12091064453125,0.97222900390625,1.854248046875,-2.968292236328125,1.2261962890625,1.0,1.0,4.0,2.0,1.0,100.0,event
09:10:13.663,0.8365407,0.0,0.0,1.0001135,0.2057368,0.0,0.0,0.30076855,0.5211432,0.0,0.0,0.38226345,0.6236678,0.0,0.0,0.6650866,0.63509417,0.0,0.0,0.41781712,805.05493,76.55678,369.08426,808.2784,1080.6593,-0.12628173828125,0.12091064453125,0.97222900390625,1.854248046875,-2.968292236328125,1.2261962890625,1.0,1.0,4.0,2.0,1.0,100.0,event
09:10:13.664,0.8365407,0.0,0.0,1.0001135,0.2057368,0.0,0.0,0.30076855,0.5211432,0.0,0.0,0.38226345,0.6236678,0.0,0.0,0.6650866,0.63509417,0.0,0.0,0.41781712,804.2491,497.21613,810.293,804.2491,953.73627,-0.12628173828125,0.12091064453125,0.97222900390625,1.854248046875,-2.968292236328125,1.2261962890625,1.0,1.0,4.0,2.0,1.0,100.0,event
09:10:13.664,0.8365407,0.0,0.0,1.0001135,0.2057368,0.0,0.0,0.30076855,0.5211432,0.0,0.0,0.38226345,0.6236678,0.0,0.0,0.6650866,0.63509417,0.0,0.0,0.41781712,784.90845,971.06226,1038.3517,772.01465,704.3223,-0.12628173828125,0.12091064453125,0.97222900390625,1.854248046875,-2.968292236328125,1.2261962890625,1.0,1.0,4.0,2.0,1.0,100.0,event
09:10:13.695,0.8365407,0.0,0.0,1.0001135,0.2057368,0.0,0.0,0.30076855,0.5211432,0.0,0.0,0.38226345,0.6236678,0.0,0.0,0.6650866,0.63509417,0.0,0.0,0.41781712,775.2381,791.3553,794.9817,762.3443,673.2967,-0.1292724609375,0.1171875,0.97161865234375,2.295379638671875,-3.46923828125,0.40374755859375,1.0,1.0,4.0,2.0,1.0,100.0,event
09:10:13.696,0.8365407,0.0,0.0,1.0001135,0.2057368,0.0,0.0,0.30076855,0.5211432,0.0,0.0,0.38226345,0.6236678,0.0,0.0,0.6650866,0.63509417,0.0,0.0,0.41781712,789.7436,854.61536,867.9121,788.5348,724.0659,-0.1292724609375,0.1171875,0.97161865234375,2.295379638671875,-3.46923828125,0.40374755859375,1.0,1.0,4.0,2.0,1.0,100.0,event
09:10:13.697,0.8365407,0.0,0.0,1.0001135,0.2057368,0.0,0.0,0.30076855,0.5211432,0.0,0.0,0.38226345,0.6236678,0.0,0.0,0.6650866,0.63509417,0.0,0.0,0.41781712,807.8755,1048.022,935.6044,827.619,705.12823,-0.1292724609375,0.1171875,0.97161865234375,2.295379638671875,-3.46923828125,0.40374755859375,1.0,1.0,4.0,2.0,1.0,100.0,event
09:10:13.697,0.8365407,0.0,0.0,1.0001135,0.2057368,0.0,0.0,0.30076855,0.5211432,0.0,0.0,0.38226345,0.6236678,0.0,0.0,0.6650866,0.63509417,0.0,0.0,0.41781712,808.2784,1048.022,813.5165,823.9927,734.94507,-0.1292724609375,0.1171875,0.97161865234375,2.295379638671875,-3.46923828125,0.40374755859375,1.0,1.0,4.0,2.0,1.0,100.0,event
09:10:13.698,0.8365407,0.0,0.0,1.0001135,0.2057368,0.0,0.0,0.30076855,0.5211432,0.0,0.0,0.38226345,0.6236678,0.0,0.0,0.6650866,0.63509417,0.0,0.0,0.41781712,791.75824,662.4176,643.8828,752.27106,928.3516,-0.1292724609375,0.1171875,0.97161865234375,2.295379638671875,-3.46923828125,0.40374755859375,1.0,1.0,4.0,2.0,1.0,100.0,event
09:10:13.698,0.8365407,0.0,0.0,1.0001135,0.2057368,0.0,0.0,0.30076855,0.5211432,0.0,0.0,0.38226345,0.6236678,0.0,0.0,0.6650866,0.63509417,0.0,0.0,0.41781712,796.5934,784.10254,644.2857,777.25275,881.6117,-0.1292724609375,0.1171875,0.97161865234375,2.295379638671875,-3.46923828125,0.40374755859375,1.0,1.0,4.0,2.0,1.0,100.0,event
09:10:13.699,0.8365407,0.0,0.0,1.0001135,0.2057368,0.0,0.0,0.30076855,0.5211432,0.0,0.0,0.38226345,0.6236678,0.0,0.0,0.6650866,0.63509417,0.0,0.0,0.41781712,799.41394,762.3443,741.79486,768.3883,798.60803,-0.1292724609375,0.1171875,0.97161865234375,2.295379638671875,-3.46923828125,0.40374755859375,1.0,1.0,4.0,2.0,1.0,100.0,event
09:10:13.699,0.8365407,0.0,0.0,1.0001135,0.2057368,0.0,0.0,0.30076855,0.5211432,0.0,0.0,0.38226345,0.6236678,0.0,0.0,0.6650866,0.63509417,0.0,0.0,0.41781712,819.5604,921.50183,856.2271,812.3077,784.5055,-0.1292724609375,0.1171875,0.97161865234375,2.295379638671875,-3.46923828125,0.40374755859375,1.0,1.0,4.0,2.0,1.0,100.0,event
09:10:13.700,0.8365407,0.0,0.0,1.0001135,0.2057368,0.0,0.0,0.30076855,0.5211432,0.0,0.0,0.38226345,0.6236678,0.0,0.0,0.6650866,0.63509417,0.0,0.0,0.41781712,816.7399,811.50183,752.27106,820.3663,871.9414,-0.1292724609375,0.1171875,0.97161865234375,2.295379638671875,-3.46923828125,0.40374755859375,1.0,1.0,4.0,2.0,1.0,100.0,event
09:10:13.700,0.8365407,0.0,0.0,1.0001135,0.2057368,0.0,0.0,0.30076855,0.5211432,0.0,0.0,0.38226345,0.6236678,0.0,0.0,0.6650866,0.63509417,0.0,0.0,0.41781712,797.3993,668.86444,657.1795,781.685,782.0879,-0.1292724609375,0.1171875,0.97161865234375,2.295379638671875,-3.46923828125,0.40374755859375,1.0,1.0,4.0,2.0,1.0,100.0,event
09:10:13.700,0.8365407,0.0,0.0,1.0001135,0.2057368,0.0,0.0,0.30076855,0.5211432,0.0,0.0,0.38226345,0.6236678,0.0,0.0,0.6650866,0.63509417,0.0,0.0,0.41781712,795.78754,782.8938,790.9524,764.35895,767.5824,-0.1292724609375,0.1171875,0.97161865234375,2.295379638671875,-3.46923828125,0.40374755859375,1.0,1.0,4.0,2.0,1.0,100.0,event
09:10:13.701,0.8365407,0.0,0.0,1.0001135,0.2057368,0.0,0.0,0.30076855,0.5211432,0.0,0.0,0.38226345,0.6236678,0.0,0.0,0.6650866,0.63509417,0.0,0.0,0.41781712,807.47253,983.95605,944.4689,782.49084,754.68866,-0.1292724609375,0.1171875,0.97161865234375,2.295379638671875,-3.46923828125,0.40374755859375,1.0,1.0,4.0,2.0,1.0,100.0,event
09:10:13.728,0.8365407,0.0,0.0,1.0001135,0.2057368,0.0,0.0,0.30076855,0.5211432,0.0,0.0,0.38226345,0.6236678,0.0,0.0,0.6650866,0.63509417,0.0,0.0,0.41781712,817.9487,347.32602,440.40292,823.1868,977.9121,-0.12530517578125,0.1220703125,0.97076416015625,2.549591064453125,-3.132781982421875,0.142059326171875,1.0,1.0,4.0,2.0,1.0,100.0,event
09:10:13.730,0.8365407,0.0,0.0,1.0001135,0.2057368,0.0,0.0,0.30076855,0.5211432,0.0,0.0,0.38226345,0.6236678,0.0,0.0,0.6650866,0.63509417,0.0,0.0,0.41781712,817.9487,217.17949,520.989,828.8278,1044.7986,-0.12530517578125,0.1220703125,0.97076416015625,2.549591064453125,-3.132781982421875,0.142059326171875,1.0,1.0,4.0,2.0,1.0,100.0,event
09:10:13.730,0.8365407,0.0,0.0,1.0001135,0.2057368,0.0,0.0,0.30076855,0.5211432,0.0,0.0,0.38226345,0.6236678,0.0,0.0,0.6650866,0.63509417,0.0,0.0,0.41781712,802.6374,952.52747,1083.8828,797.3993,765.56775,-0.12530517578125,0.1220703125,0.97076416015625,2.549591064453125,-3.132781982421875,0.142059326171875,1.0,1.0,4.0,2.0,1.0,100.0,event
09:10:13.731,0.8574072,0.0,0.0,0.96635675,0.17053352,0.0,0.0,0.14034644,0.5069856,0.0,0.0,0.3262466,0.59530914,0.0,0.0,0.6568544,0.6052098,0.0,0.0,0.37302428,797.3993,838.0952,841.31866,770.0,699.0842,-0.12530517578125,0.1220703125,0.97076416015625,2.549591064453125,-3.132781982421875,0.142059326171875,1.0,1.0,4.0,2.0,1.0,100.0,event
09:10:13.735,0.8574072,0.0,0.0,0.96635675,0.17053352,0.0,0.0,0.14034644,0.5069856,0.0,0.0,0.3262466,0.59530914,0.0,0.0,0.6568544,0.6052098,0.0,0.0,0.37302428,810.696,794.57874,820.7692,777.6557,742.6007,-0.12530517578125,0.1220703125,0.97076416015625,2.549591064453125,-3.132781982421875,0.142059326171875,1.0,1.0,4.0,2.0,1.0,100.0,event
09:10:13.736,0.8574072,0.0,0.0,0.96635675,0.17053352,0.0,0.0,0.14034644,0.5069856,0.0,0.0,0.3262466,0.59530914,0.0,0.0,0.6568544,0.6052098,0.0,0.0,0.37302428,816.337,914.65204,885.64105,815.9341,817.9487,-0.12530517578125,0.1220703125,0.97076416015625,2.549591064453125,-3.132781982421875,0.142059326171875,1.0,1.0,4.0,2.0,1.0,100.0,event
09:10:13.737,0.8574072,0.0,0.0,0.96635675,0.17053352,0.0,0.0,0.14034644,0.5069856,0.0,0.0,0.3262466,0.59530914,0.0,0.0,0.6568544,0.6052098,0.0,0.0,0.37302428,820.7692,846.9597,778.46155,826.8132,853.4066,-0.12530517578125,0.1220703125,0.97076416015625,2.549591064453125,-3.132781982421875,0.142059326171875,1.0,1.0,4.0,2.0,1.0,100.0,event
09:10:13.738,0.8574072,0.0,0.0,0.96635675,0.17053352,0.0,0.0,0.14034644,0.5069856,0.0,0.0,0.3262466,0.59530914,0.0,0.0,0.6568544,0.6052098,0.0,0.0,0.37302428,815.12823,521.39197,525.0183,808.2784,929.9634,-0.12530517578125,0.1220703125,0.97076416015625,2.549591064453125,-3.132781982421875,0.142059326171875,1.0,1.0,4.0,2.0,1.0,100.0,event
09:10:13.740,0.8574072,0.0,0.0,0.96635675,0.17053352,0.0,0.0,0.14034644,0.5069856,0.0,0.0,0.3262466,0.59530914,0.0,0.0,0.6568544,0.6052098,0.0,0.0,0.37302428,797.3993,171.64835,426.30035,781.28204,937.2161,-0.12530517578125,0.1220703125,0.97076416015625,2.549591064453125,-3.132781982421875,0.142059326171875,1.0,1.0,4.0,2.0,1.0,100.0,event
09:10:13.741,0.8574072,0.0,0.0,0.96635675,0.17053352,0.0,0.0,0.14034644,0.5069856,0.0,0.0,0.3262466,0.59530914,0.0,0.0,0.6568544,0.6052098,0.0,0.0,0.37302428,792.96704,776.4469,1043.5897,770.40295,712.381,-0.12530517578125,0.1220703125,0.97076416015625,2.549591064453125,-3.132781982421875,0.142059326171875,1.0,1.0,4.0,2.0,1.0,100.0,event
09:10:13.742,0.8574072,0.0,0.0,0.96635675,0.17053352,0.0,0.0,0.14034644,0.5069856,0.0,0.0,0.3262466,0.59530914,0.0,0.0,0.6568544,0.6052098,0.0,0.0,0.37302428,809.4872,1207.1794,1214.8352,815.12823,690.6227,-0.12530517578125,0.1220703125,0.97076416015625,2.549591064453125,-3.132781982421875,0.142059326171875,1.0,1.0,4.0,2.0,1.0,100.0,event
09:10:13.743,0.8574072,0.0,0.0,0.96635675,0.17053352,0.0,0.0,0.14034644,0.5069856,0.0,0.0,0.3262466,0.59530914,0.0,0.0,0.6568544,0.6052098,0.0,0.0,0.37302428,817.5458,977.50916,857.4359,836.8865,785.31134,-0.12530517578125,0.1220703125,0.97076416015625,2.549591064453125,-3.132781982421875,0.142059326171875,1.0,1.0,4.0,2.0,1.0,100.0,event
09:10:13.766,0.8574072,0.0,0.0,0.96635675,0.17053352,0.0,0.0,0.14034644,0.5069856,0.0,0.0,0.3262466,0.59530914,0.0,0.0,0.6568544,0.6052098,0.0,0.0,0.37302428,803.0403,805.05493,685.38464,805.05493,746.63007,-0.12603759765625,0.120361328125,0.97601318359375,2.220611572265625,-3.297271728515625,0.530853271484375,1.0,1.0,4.0,2.0,1.0,100.0,event
09:10:13.767,0.8574072,0.0,0.0,0.96635675,0.17053352,0.0,0.0,0.14034644,0.5069856,0.0,0.0,0.3262466,0.59530914,0.0,0.0,0.6568544,0.6052098,0.0,0.0,0.37302428,794.57874,807.8755,750.2564,781.28204,789.7436,-0.12603759765625,0.120361328125,0.97601318359375,2.220611572265625,-3.297271728515625,0.530853271484375,1.0,1.0,4.0,2.0,1.0,100.0,event
09:10:13.767,0.8574072,0.0,0.0,0.96635675,0.17053352,0.0,0.0,0.14034644,0.5069856,0.0,0.0,0.3262466,0.59530914,0.0,0.0,0.6568544,0.6052098,0.0,0.0,0.37302428,794.57874,970.65936,905.78754,772.8205,759.12085,-0.12603759765625,0.120361328125,0.97601318359375,2.220611572265625,-3.297271728515625,0.530853271484375,1.0,1.0,4.0,2.0,1.0,100.0,event
09:10:13.768,0.8574072,0.0,0.0,0.96635675,0.17053352,0.0,0.0,0.14034644,0.5069856,0.0,0.0,0.3262466,0.59530914,0.0,0.0,0.6568544,0.6052098,0.0,0.0,0.37302428,807.0696,816.337,794.17584,801.02563,809.4872,-0.12603759765625,0.120361328125,0.97601318359375,2.220611572265625,-3.297271728515625,0.530853271484375,1.0,1.0,4.0,2.0,1.0,100.0,event
09:10:13.768,0.8574072,0.0,0.0,0.96635675,0.17053352,0.0,0.0,0.14034644,0.5069856,0.0,0.0,0.3262466,0.59530914,0.0,0.0,0.6568544,0.6052098,0.0,0.0,0.37302428,815.5311,817.1429,809.4872,830.84247,888.0586,-0.12603759765625,0.120361328125,0.97601318359375,2.220611572265625,-3.297271728515625,0.530853271484375,1.0,1.0,4.0,2.0,1.0,100.0,event
09:10:13.769,0.8574072,0.0,0.0,0.96635675,0.17053352,0.0,0.0,0.14034644,0.5069856,0.0,0.0,0.3262466,0.59530914,0.0,0.0,0.6568544,0.6052098,0.0,0.0,0.37302428,790.9524,729.707,703.5165,777.25275,825.2015,-0.12603759765625,0.120361328125,0.97601318359375,2.220611572265625,-3.297271728515625,0.530853271484375,1.0,1.0,4.0,2.0,1.0,100.0,event
09:10:13.769,0.8574072,0.0,0.0,0.96635675,0.17053352,0.0,0.0,0.14034644,0.5069856,0.0,0.0,0.3262466,0.59530914,0.0,0.0,0.6568544,0.6052098,0.0,0.0,0.37302428,802.6374,831.2454,748.24176,809.0842,813.5165,-0.12603759765625,0.120361328125,0.97601318359375,2.220611572265625,-3.297271728515625,0.530853271484375,1.0,1.0,4.0,2.0,1.0,100.0,event
09:10:13.770,0.8574072,0.0,0.0,0.96635675,0.17053352,0.0,0.0,0.14034644,0.5069856,0.0,0.0,0.3262466,0.59530914,0.0,0.0,0.6568544,0.6052098,0.0,0.0,0.37302428,790.14655,340.07327,519.3773,778.0586,997.25275,-0.12603759765625,0.120361328125,0.97601318359375,2.220611572265625,-3.297271728515625,0.530853271484375,1.0,1.0,4.0,2.0,1.0,100.0,event
09:10:13.770,0.8574072,0.0,0.0,0.96635675,0.17053352,0.0,0.0,0.14034644,0.5069856,0.0,0.0,0.3262466,0.59530914,0.0,0.0,0.6568544,0.6052098,0.0,0.0,0.37302428,804.2491,373.51648,698.68134,811.0989,938.4249,-0.12603759765625,0.120361328125,0.97601318359375,2.220611572265625,-3.297271728515625,0.530853271484375,1.0,1.0,4.0,2.0,1.0,100.0,event
09:10:13.771,0.8574072,0.0,0.0,0.96635675,0.17053352,0.0,0.0,0.14034644,0.5069856,0.0,0.0,0.3262466,0.59530914,0.0,0.0,0.6568544,0.6052098,0.0,0.0,0.37302428,811.50183,1148.7546,1224.9084,840.10986,735.7509,-0.12603759765625,0.120361328125,0.97601318359375,2.220611572265625,-3.297271728515625,0.530853271484375,1.0,1.0,4.0,2.0,1.0,100.0,event
09:10:13.771,0.8574072,0.0,0.0,0.96635675,0.17053352,0.0,0.0,0.14034644,0.5069856,0.0,0.0,0.3262466,0.59530914,0.0,0.0,0.6568544,0.6052098,0.0,0.0,0.37302428,803.44324,1003.2967,859.0476,821.978,799.41394,-0.12603759765625,0.120361328125,0.97601318359375,2.220611572265625,-3.297271728515625,0.530853271484375,1.0,1.0,4.0,2.0,1.0,100.0,event
09:10:13.771,0.8574072,0.0,0.0,0.96635675,0.17053352,0.0,0.0,0.14034644,0.5069856,0.0,0.0,0.3262466,0.59530914,0.0,0.0,0.6568544,0.6052098,0.0,0.0,0.37302428,796.99634,753.0769,643.47986,784.10254,786.52014,-0.12603759765625,0.120361328125,0.97601318359375,2.220611572265625,-3.297271728515625,0.530853271484375,1.0,1.0,4.0,2.0,1.0,100.0,event
09:10:13.830,0.8574072,0.0,0.0,0.96635675,0.17053352,0.0,0.0,0.14034644,0.5069856,0.0,0.0,0.3262466,0.59530914,0.0,0.0,0.6568544,0.6052098,0.0,0.0,0.37302428,797.3993,999.2674,904.9817,765.9707,713.5897,-0.12603759765625,0.120361328125,0.97601318359375,2.220611572265625,-3.297271728515625,0.530853271484375,1.0,1.0,4.0,2.0,1.0,100.0,event
09:10:13.831,0.8574072,0.0,0.0,0.96635675,0.17053352,0.0,0.0,0.14034644,0.5069856,0.0,0.0,0.3262466,0.59530914,0.0,0.0,0.6568544,0.6052098,0.0,0.0,0.37302428,804.2491,1169.7069,963.8095,791.3553,674.10254,-0.12603759765625,0.120361328125,0.97601318359375,2.220611572265625,-3.297271728515625,0.530853271484375,1.0,1.0,4.0,2.0,1.0,100.0,event
09:10:13.832,0.8574072,0.0,0.0,0.96635675,0.17053352,0.0,0.0,0.14034644,0.5069856,0.0,0.0,0.3262466,0.59530914,0.0,0.0,0.6568544,0.6052098,0.0,0.0,0.37302428,804.2491,761.9414,593.5165,808.68134,837.28937,-0.12603759765625,0.120361328125,0.97601318359375,2.220611572265625,-3.297271728515625,0.530853271484375,1.0,1.0,4.0,2.0,1.0,100.0,event
09:10:13.832,0.8574072,0.0,0.0,0.96635675,0.17053352,0.0,0.0,0.14034644,0.5069856,0.0,0.0,0.3262466,0.59530914,0.0,0.0,0.6568544,0.6052098,0.0,0.0,0.37302428,811.50183,979.5238,750.2564,823.5897,759.12085,-0.12603759765625,0.120361328125,0.97601318359375,2.220611572265625,-3.297271728515625,0.530853271484375,1.0,1.0,4.0,2.0,1.0,100.0,event
09:10:13.833,0.84099084,0.0,0.0,0.9475063,0.16898434,0.0,0.0,0.11123565,0.578516,0.0,0.0,0.40522328,0.58085775,0.0,0.0,0.67585975,0.56031364,0.0,0.0,0.36508802,792.96704,677.72894,708.3516,778.0586,791.3553,-0.12603759765625,0.120361328125,0.97601318359375,2.220611572265625,-3.297271728515625,0.530853271484375,1.0,1.0,4.0,2.0,1.0,100.0,event
09:10:13.833,0.8574072,0.0,0.0,0.96635675,0.17053352,0.0,0.0,0.14034644,0.5069856,0.0,0.0,0.3262466,0.59530914,0.0,0.0,0.6568544,0.6052098,0.0,0.0,0.37302428,796.1905,667.6557,579.81683,782.8938,786.1172,-0.12603759765625,0.120361328125,0.97601318359375,2.220611572265625,-3.297271728515625,0.530853271484375,1.0,1.0,4.0,2.0,1.0,100.0,event
09:10:13.837,0.84099084,0.0,0.0,0.9475063,0.16898434,0.0,0.0,0.11123565,0.578516,0.0,0.0,0.40522328,0.58085775,0.0,0.0,0.67585975,0.56031364,0.0,0.0,0.36508802,801.4286,613.663,720.0366,798.20514,902.1612,-0.12603759765625,0.120361328125,0.97601318359375,2.220611572265625,-3.297271728515625,0.530853271484375,1.0,1.0,4.0,2.0,1.0,100.0,event
09:10:13.837,0.84099084,0.0,0.0,0.9475063,0.16898434,0.0,0.0,0.11123565,0.578516,0.0,0.0,0.40522328,0.58085775,0.0,0.0,0.67585975,0.56031364,0.0,0.0,0.36508802,819.5604,81.79487,371.50183,837.6923,1106.4469,-0.12603759765625,0.120361328125,0.97601318359375,2.220611572265625,-3.297271728515625,0.530853271484375,1.0,1.0,4.0,2.0,1.0,100.0,event
09:10:13.838,0.84099084,0.0,0.0,0.9475063,0.16898434,0.0,0.0,0.11123565,0.578516,0.0,0.0,0.40522328,0.58085775,0.0,0.0,0.67585975,0.56031364,0.0,0.0,0.36508802,809.4872,404.94507,743.00366,824.3956,953.3333,-0.12603759765625,0.120361328125,0.97601318359375,2.220611572265625,-3.297271728515625,0.530853271484375,1.0,1.0,4.0,2.0,1.0,100.0,event
09:10:13.838,0.84099084,0.0,0.0,0.9475063,0.16898434,0.0,0.0,0.11123565,0.578516,0.0,0.0,0.40522328,0.58085775,0.0,0.0,0.67585975,0.56031364,0.0,0.0,0.36508802,793.36993,1010.14655,1109.6703,795.38464,710.7692,-0.12603759765625,0.120361328125,0.97601318359375,2.220611572265625,-3.297271728515625,0.530853271484375,1.0,1.0,4.0,2.0,1.0,100.0,event
09:10:13.839,0.84099084,0.0,0.0,0.9475063,0.16898434,0.0,0.0,0.11123565,0.578516,0.0,0.0,0.40522328,0.58085775,0.0,0.0,0.67585975,0.56031364,0.0,0.0,0.36508802,786.52014,835.6777,847.3626,784.5055,708.3516,-0.12603759765625,0.120361328125,0.97601318359375,2.220611572265625,-3.297271728515625,0.530853271484375,1.0,1.0,4.0,2.0,1.0,100.0,event
09:10:13.839,0.84099084,0.0,0.0,0.9475063,0.16898434,0.0,0.0,0.11123565,0.578516,0.0,0.0,0.40522328,0.58085775,0.0,0.0,0.67585975,0.56031364,0.0,0.0,0.36508802,799.81683,903.36993,886.4469,790.54944,701.50183,-0.12603759765625,0.120361328125,0.97601318359375,2.220611572265625,-3.297271728515625,0.530853271484375,1.0,1.0,4.0,2.0,1.0,100.0,event
09:10:13.878,0.84099084,0.0,0.0,0.9475063,0.16898434,0.0,0.0,0.11123565,0.578516,0.0,0.0,0.40522328,0.58085775,0.0,0.0,0.67585975,0.56031364,0.0,0.0,0.36508802,816.7399,1195.0916,1014.57874,827.619,732.9304,-0.1295166015625,0.12030029296875,0.97021484375,1.83929443359375,-3.058013916015625,0.478515625,1.0,1.0,4.0,2.0,1.0,100.0,event
09:10:13.879,0.84099084,0.0,0.0,0.9475063,0.16898434,0.0,0.0,0.11123565,0.578516,0.0,0.0,0.40522328,0.58085775,0.0,0.0,0.67585975,0.56031364,0.0,0.0,0.36508802,802.6374,1067.3627,785.31134,831.6484,742.6007,-0.1295166015625,0.12030029296875,0.97021484375,1.83929443359375,-3.058013916015625,0.478515625,1.0,1.0,4.0,2.0,1.0,100.0,event
09:10:13.880,0.84099084,0.0,0.0,0.9475063,0.16898434,0.0,0.0,0.11123565,0.578516,0.0,0.0,0.40522328,0.58085775,0.0,0.0,0.67585975,0.56031364,0.0,0.0,0.36508802,781.28204,908.60803,792.96704,770.0,804.2491,-0.1295166015625,0.12030029296875,0.97021484375,1.83929443359375,-3.058013916015625,0.478515625,1.0,1.0,4.0,2.0,1.0,100.0,event
09:10:13.880,0.84099084,0.0,0.0,0.9475063,0.16898434,0.0,0.0,0.11123565,0.578516,0.0,0.0,0.40522328,0.58085775,0.0,0.0,0.67585975,0.56031364,0.0,0.0,0.36508802,785.7143,790.54944,587.0696,795.78754,785.31134,-0.1295166015625,0.12030029296875,0.97021484375,1.83929443359375,-3.058013916015625,0.478515625,1.0,1.0,4.0,2.0,1.0,100.0,event
09:10:13.881,0.84099084,0.0,0.0,0.9475063,0.16898434,0.0,0.0,0.11123565,0.578516,0.0,0.0,0.40522328,0.58085775,0.0,0.0,0.67585975,0.56031364,0.0,0.0,0.36508802,792.96704,1074.2124,894.5055,782.0879,749.45056,-0.1295166015625,0.12030029296875,0.97021484375,1.83929443359375,-3.058013916015625,0.478515625,1.0,1.0,4.0,2.0,1.0,100.0,event
09:10:13.882,0.84099084,0.0,0.0,0.9475063,0.16898434,0.0,0.0,0.11123565,0.578516,0.0,0.0,0.40522328,0.58085775,0.0,0.0,0.67585975,0.56031364,0.0,0.0,0.36508802,817.9487,429.12088,343.69965,829.6337,1137.4725,-0.1295166015625,0.12030029296875,0.97021484375,1.83929443359375,-3.058013916015625,0.478515625,1.0,1.0,4.0,2.0,1.0,100.0,event
09:10:13.882,0.84099084,0.0,0.0,0.9475063,0.16898434,0.0,0.0,0.11123565,0.578516,0.0,0.0,0.40522328,0.58085775,0.0,0.0,0.67585975,0.56031364,0.0,0.0,0.36508802,815.12823,1003.69965,799.81683,817.1429,884.0293,-0.1295166015625,0.12030029296875,0.97021484375,1.83929443359375,-3.058013916015625,0.478515625,1.0,1.0,4.0,2.0,1.0,100.0,event
09:10:13.883,0.84099084,0.0,0.0,0.9475063,0.16898434,0.0,0.0,0.11123565,0.578516,0.0,0.0,0.40522328,0.58085775,0.0,0.0,0.67585975,0.56031364,0.0,0.0,0.36508802,782.8938,785.7143,996.04395,766.3736,857.8388,-0.1295166015625,0.12030029296875,0.97021484375,1.83929443359375,-3.058013916015625,0.478515625,1.0,1.0,4.0,2.0,1.0,100.0,event
09:10:13.883,0.84099084,0.0,0.0,0.9475063,0.16898434,0.0,0.0,0.11123565,0.578516,0.0,0.0,0.40522328,0.58085775,0.0,0.0,0.67585975,0.56031364,0.0,0.0,0.36508802,796.1905,149.8901,305.42123,798.60803,1134.652,-0.1295166015625,0.12030029296875,0.97021484375,1.83929443359375,-3.058013916015625,0.478515625,1.0,1.0,4.0,2.0,1.0,100.0,event
09:10:13.884,0.84099084,0.0,0.0,0.9475063,0.16898434,0.0,0.0,0.11123565,0.578516,0.0,0.0,0.40522328,0.58085775,0.0,0.0,0.67585975,0.56031364,0.0,0.0,0.36508802,790.54944,1050.0366,1077.033,782.49084,741.39197,-0.1295166015625,0.12030029296875,0.97021484375,1.83929443359375,-3.058013916015625,0.478515625,1.0,1.0,4.0,2.0,1.0,100.0,event
09:10:13.884,0.84099084,0.0,0.0,0.9475063,0.16898434,0.0,0.0,0.11123565,0.578516,0.0,0.0,0.40522328,0.58085775,0.0,0.0,0.67585975,0.56031364,0.0,0.0,0.36508802,807.47253,702.3077,764.35895,825.6044,887.6557,-0.1295166015625,0.12030029296875,0.97021484375,1.83929443359375,-3.058013916015625,0.478515625,1.0,1.0,4.0,2.0,1.0,100.0,event
09:10:13.885,0.84099084,0.0,0.0,0.9475063,0.16898434,0.0,0.0,0.11123565,0.578516,0.0,0.0,0.40522328,0.58085775,0.0,0.0,0.67585975,0.56031364,0.0,0.0,0.36508802,812.71063,755.09155,799.011,832.4542,832.8571,-0.1295166015625,0.12030029296875,0.97021484375,1.83929443359375,-3.058013916015625,0.478515625,1.0,1.0,4.0,2.0,1.0,100.0,event
09:10:13.928,0.84099084,0.0,0.0,0.9475063,0.16898434,0.0,0.0,0.11123565,0.578516,0.0,0.0,0.40522328,0.58085775,0.0,0.0,0.67585975,0.56031364,0.0,0.0,0.36508802,791.75824,1067.7656,929.15753,798.60803,719.2308,-0.1278076171875,0.118896484375,0.97332763671875,2.3626708984375,-3.521575927734375,-0.052337646484375,1.0,1.0,4.0,2.0,1.0,100.0,event
09:10:13.929,0.84099084,0.0,0.0,0.9475063,0.16898434,0.0,0.0,0.11123565,0.578516,0.0,0.0,0.40522328,0.58085775,0.0,0.0,0.67585975,0.56031364,0.0,0.0,0.36508802,772.4176,894.5055,752.674,770.40295,757.1062,-0.1278076171875,0.118896484375,0.97332763671875,2.3626708984375,-3.521575927734375,-0.052337646484375,1.0,1.0,4.0,2.0,1.0,100.0,event
09:10:13.929,0.84099084,0.0,0.0,0.9475063,0.16898434,0.0,0.0,0.11123565,0.578516,0.0,0.0,0.40522328,0.58085775,0.0,0.0,0.67585975,0.56031364,0.0,0.0,0.36508802,783.69965,805.05493,717.2161,778.86444,736.1539,-0.1278076171875,0.118896484375,0.97332763671875,2.3626708984375,-3.521575927734375,-0.052337646484375,1.0,1.0,4.0,2.0,1.0,100.0,event
09:10:13.930,0.84099084,0.0,0.0,0.9475063,0.16898434,0.0,0.0,0.11123565,0.578516,0.0,0.0,0.40522328,0.58085775,0.0,0.0,0.67585975,0.56031364,0.0,0.0,0.36508802,803.0403,1080.6593,937.619,812.3077,697.8755,-0.1278076171875,0.118896484375,0.97332763671875,2.3626708984375,-3.521575927734375,-0.052337646484375,1.0,1.0,4.0,2.0,1.0,100.0,event
09:10:13.931,0.84099084,0.0,0.0,0.9475063,0.16898434,0.0,0.0,0.11123565,0.578516,0.0,0.0,0.40522328,0.58085775,0.0,0.0,0.67585975,0.56031364,0.0,0.0,0.36508802,801.02563,1137.8755,880.80585,822.7839,738.1685,-0.1278076171875,0.118896484375,0.97332763671875,2.3626708984375,-3.521575927734375,-0.052337646484375,1.0,1.0,4.0,2.0,1.0,100.0,event
09:10:13.931,0.84099084,0.0,0.0,0.9475063,0.16898434,0.0,0.0,0.11123565,0.578516,0.0,0.0,0.40522328,0.58085775,0.0,0.0,0.67585975,0.56031364,0.0,0.0,0.36508802,791.3553,635.82416,463.36996,799.81683,935.6044,-0.1278076171875,0.118896484375,0.97332763671875,2.3626708984375,-3.521575927734375,-0.052337646484375,1.0,1.0,4.0,2.0,1.0,100.0,event
09:10:13.932,0.8177859,0.0,0.0,0.8909119,0.22378589,0.0,0.0,0.28237197,0.6611765,0.0,0.0,0.5522991,0.590169,0.0,0.0,0.74184334,0.54190993,0.0,0.0,0.40144408,786.52014,829.2308,930.3663,774.0293,850.989,-0.1278076171875,0.118896484375,0.97332763671875,2.3626708984375,-3.521575927734375,-0.052337646484375,1.0,1.0,4.0,2.0,1.0,100.0,event
09:10:13.932,0.84099084,0.0,0.0,0.9475063,0.16898434,0.0,0.0,0.11123565,0.578516,0.0,0.0,0.40522328,0.58085775,0.0,0.0,0.67585975,0.56031364,0.0,0.0,0.36508802,782.0879,294.5421,386.00732,772.4176,1019.011,-0.1278076171875,0.118896484375,0.97332763671875,2.3626708984375,-3.521575927734375,-0.052337646484375,1.0,1.0,4.0,2.0,1.0,100.0,event
09:10:13.936,0.8177859,0.0,0.0,0.8909119,0.22378589,0.0,0.0,0.28237197,0.6611765,0.0,0.0,0.5522991,0.590169,0.0,0.0,0.74184334,0.54190993,0.0,0.0,0.40144408,817.1429,1283.3334,1152.381,812.3077,765.16486,-0.1278076171875,0.118896484375,0.97332763671875,2.3626708984375,-3.521575927734375,-0.052337646484375,1.0,1.0,4.0,2.0,1.0,100.0,event
09:10:13.937,0.8177859,0.0,0.0,0.8909119,0.22378589,0.0,0.0,0.28237197,0.6611765,0.0,0.0,0.5522991,0.590169,0.0,0.0,0.74184334,0.54190993,0.0,0.0,0.40144408,834.87177,755.4945,626.1539,827.619,885.64105,-0.1278076171875,0.118896484375,0.97332763671875,2.3626708984375,-3.521575927734375,-0.052337646484375,1.0,1.0,4.0,2.0,1.0,100.0,event
09:10:13.938,0.8177859,0.0,0.0,0.8909119,0.22378589,0.0,0.0,0.28237197,0.6611765,0.0,0.0,0.5522991,0.590169,0.0,0.0,0.74184334,0.54190993,0.0,0.0,0.40144408,811.50183,188.97437,305.8242,804.65204,985.16486,-0.1278076171875,0.118896484375,0.97332763671875,2.3626708984375,-3.521575927734375,-0.052337646484375,1.0,1.0,4.0,2.0,1.0,100.0,event
09:10:13.939,0.8177859,0.0,0.0,0.8909119,0.22378589,0.0,0.0,0.28237197,0.6611765,0.0,0.0,0.5522991,0.590169,0.0,0.0,0.74184334,0.54190993,0.0,0.0,0.40144408,787.72894,761.13556,876.77655,766.77655,820.7692,-0.1278076171875,0.118896484375,0.97332763671875,2.3626708984375,-3.521575927734375,-0.052337646484375,1.0,1.0,4.0,2.0,1.0,100.0,event
09:10:13.963,0.8177859,0.0,0.0,0.8909119,0.22378589,0.0,0.0,0.28237197,0.6611765,0.0,0.0,0.5522991,0.590169,0.0,0.0,0.74184334,0.54190993,0.0,0.0,0.40144408,790.14655,1156.0073,1083.8828,757.50916,746.2271,-0.1265869140625,0.11749267578125,0.97210693359375,2.100982666015625,-3.207550048828125,0.530853271484375,1.0,1.0,4.0,2.0,1.0,100.0,event
09:10:13.965,0.8177859,0.0,0.0,0.8909119,0.22378589,0.0,0.0,0.28237197,0.6611765,0.0,0.0,0.5522991,0.590169,0.0,0.0,0.74184334,0.54190993,0.0,0.0,0.40144408,801.4286,797.3993,732.1245,797.3993,850.18317,-0.1265869140625,0.11749267578125,0.97210693359375,2.100982666015625,-3.207550048828125,0.530853271484375,1.0,1.0,4.0,2.0,1.0,100.0,event
09:10:13.966,0.8177859,0.0,0.0,0.8909119,0.22378589,0.0,0.0,0.28237197,0.6611765,0.0,0.0,0.5522991,0.590169,0.0,0.0,0.74184334,0.54190993,0.0,0.0,0.40144408,809.4872,688.20514,686.99634,825.2015,838.49817,-0.1265869140625,0.11749267578125,0.97210693359375,2.100982666015625,-3.207550048828125,0.530853271484375,1.0,1.0,4.0,2.0,1.0,100.0,event
09:10:13.968,0.8177859,0.0,0.0,0.8909119,0.22378589,0.0,0.0,0.28237197,0.6611765,0.0,0.0,0.5522991,0.590169,0.0,0.0,0.74184334,0.54190993,0.0,0.0,0.40144408,812.3077,957.76556,861.8681,813.1135,694.2491,-0.1265869140625,0.11749267578125,0.97210693359375,2.100982666015625,-3.207550048828125,0.530853271484375,1.0,1.0,4.0,2.0,1.0,100.0,event
09:10:13.969,0.8177859,0.0,0.0,0.8909119,0.22378589,0.0,0.0,0.28237197,0.6611765,0.0,0.0,0.5522991,0.590169,0.0,0.0,0.74184334,0.54190993,0.0,0.0,0.40144408,796.1905,909.011,789.34064,783.2967,664.0293,-0.1265869140625,0.11749267578125,0.97210693359375,2.100982666015625,-3.207550048828125,0.530853271484375,1.0,1.0,4.0,2.0,1.0,100.0,event
09:10:13.970,0.8177859,0.0,0.0,0.8909119,0.22378589,0.0,0.0,0.28237197,0.6611765,0.0,0.0,0.5522991,0.590169,0.0,0.0,0.74184334,0.54190993,0.0,0.0,0.40144408,781.28204,678.5348,669.67035,771.6117,836.08057,-0.1265869140625,0.11749267578125,0.97210693359375,2.100982666015625,-3.207550048828125,0.530853271484375,1.0,1.0,4.0,2.0,1.0,100.0,event
09:10:13.971,0.8177859,0.0,0.0,0.8909119,0.22378589,0.0,0.0,0.28237197,0.6611765,0.0,0.0,0.5522991,0.590169,0.0,0.0,0.74184334,0.54190993,0.0,0.0,0.40144408,797.3993,641.4652,723.663,799.41394,906.99634,-0.1265869140625,0.11749267578125,0.97210693359375,2.100982666015625,-3.207550048828125,0.530853271484375,1.0,1.0,4.0,2.0,1.0,100.0,event
09:10:13.972,0.8177859,0.0,0.0,0.8909119,0.22378589,0.0,0.0,0.28237197,0.6611765,0.0,0.0,0.5522991,0.590169,0.0,0.0,0.74184334,0.54190993,0.0,0.0,0.40144408,812.3077,998.46155,838.49817,814.3223,759.92676,-0.1265869140625,0.11749267578125,0.97210693359375,2.100982666015625,-3.207550048828125,0.530853271484375,1.0,1.0,4.0,2.0,1.0,100.0,event
09:10:13.972,0.8177859,0.0,0.0,0.8909119,0.22378589,0.0,0.0,0.28237197,0.6611765,0.0,0.0,0.5522991,0.590169,0.0,0.0,0.74184334,0.54190993,0.0,0.0,0.40144408,820.7692,943.663,926.7399,828.8278,802.23444,-0.1265869140625,0.11749267578125,0.97210693359375,2.100982666015625,-3.207550048828125,0.530853271484375,1.0,1.0,4.0,2.0,1.0,100.0,event
09:10:13.973,0.8177859,0.0,0.0,0.8909119,0.22378589,0.0,0.0,0.28237197,0.6611765,0.0,0.0,0.5522991,0.590169,0.0,0.0,0.74184334,0.54190993,0.0,0.0,0.40144408,785.31134,397.69232,416.63004,783.2967,907.3993,-0.1265869140625,0.11749267578125,0.97210693359375,2.100982666015625,-3.207550048828125,0.530853271484375,1.0,1.0,4.0,2.0,1.0,100.0,event
09:10:13.973,0.8177859,0.0,0.0,0.8909119,0.22378589,0.0,0.0,0.28237197,0.6611765,0.0,0.0,0.5522991,0.590169,0.0,0.0,0.74184334,0.54190993,0.0,0.0,0.40144408,776.04395,482.30768,716.0073,765.56775,861.4652,-0.1265869140625,0.11749267578125,0.97210693359375,2.100982666015625,-3.207550048828125,0.530853271484375,1.0,1.0,4.0,2.0,1.0,100.0,event
09:10:13.974,0.8177859,0.0,0.0,0.8909119,0.22378589,0.0,0.0,0.28237197,0.6611765,0.0,0.0,0.5522991,0.590169,0.0,0.0,0.74184334,0.54190993,0.0,0.0,0.40144408,799.81683,1176.5568,1203.5531,784.5055,726.8865,-0.1265869140625,0.11749267578125,0.97210693359375,2.100982666015625,-3.207550048828125,0.530853271484375,1.0,1.0,4.0,2.0,1.0,100.0,event
09:10:13.996,0.8177859,0.0,0.0,0.8909119,0.22378589,0.0,0.0,0.28237197,0.6611765,0.0,0.0,0.5522991,0.590169,0.0,0.0,0.74184334,0.54190993,0.0,0.0,0.40144408,835.6777,1004.90845,854.21246,842.9304,747.4359,-0.1329345703125,0.12066650390625,0.97406005859375,2.235565185546875,-3.349609375,0.6280517578125,1.0,1.0,4.0,2.0,1.0,100.0,event
09:10:13.997,0.8177859,0.0,0.0,0.8909119,0.22378589,0.0,0.0,0.28237197,0.6611765,0.0,0.0,0.5522991,0.590169,0.0,0.0,0.74184334,0.54190993,0.0,0.0,0.40144408,829.6337,578.60803,503.26007,847.76556,823.9927,-0.1329345703125,0.12066650390625,0.97406005859375,2.235565185546875,-3.349609375,0.6280517578125,1.0,1.0,4.0,2.0,1.0,100.0,event
09:10:13.998,0.8177859,0.0,0.0,0.8909119,0.22378589,0.0,0.0,0.28237197,0.6611765,0.0,0.0,0.5522991,0.590169,0.0,0.0,0.74184334,0.54190993,0.0,0.0,0.40144408,789.7436,715.2015,695.4579,784.90845,821.5751,-0.1329345703125,0.12066650390625,0.97406005859375,2.235565185546875,-3.349609375,0.6280517578125,1.0,1.0,4.0,2.0,1.0,100.0,event
09:10:13.998,0.8177859,0.0,0.0,0.8909119,0.22378589,0.0,0.0,0.28237197,0.6611765,0.0,0.0,0.5522991,0.590169,0.0,0.0,0.74184334,0.54190993,0.0,0.0,0.40144408,774.43225,1040.3663,948.49817,762.3443,651.9414,-0.1329345703125,0.12066650390625,0.97406005859375,2.235565185546875,-3.349609375,0.6280517578125,1.0,1.0,4.0,2.0,1.0,100.0,event
09:10:13.999,0.8177859,0.0,0.0,0.8909119,0.22378589,0.0,0.0,0.28237197,0.6611765,0.0,0.0,0.5522991,0.590169,0.0,0.0,0.74184334,0.54190993,0.0,0.0,0.40144408,795.38464,845.7509,759.12085,788.5348,722.4542,-0.1329345703125,0.12066650390625,0.97406005859375,2.235565185546875,-3.349609375,0.6280517578125,1.0,1.0,4.0,2.0,1.0,100.0,event
09:10:13.999,0.8177859,0.0,0.0,0.8909119,0.22378589,0.0,0.0,0.28237197,0.6611765,0.0,0.0,0.5522991,0.590169,0.0,0.0,0.74184334,0.54190993,0.0,0.0,0.40144408,819.15753,495.20148,547.5824,830.0366,1018.60803,-0.1329345703125,0.12066650390625,0.97406005859375,2.235565185546875,-3.349609375,0.6280517578125,1.0,1.0,4.0,2.0,1.0,100.0,event
09:10:14.000,0.8177859,0.0,0.0,0.8909119,0.22378589,0.0,0.0,0.28237197,0.6611765,0.0,0.0,0.5522991,0.590169,0.0,0.0,0.74184334,0.54190993,0.0,0.0,0.40144408,797.8022,901.75824,878.3883,788.93774,746.63007,-0.1329345703125,0.12066650390625,0.97406005859375,2.235565185546875,-3.349609375,0.6280517578125,1.0,1.0,4.0,2.0,1.0,100.0,event
09:10:14.000,0.8177859,0.0,0.0,0.8909119,0.22378589,0.0,0.0,0.28237197,0.6611765,0.0,0.0,0.5522991,0.590169,0.0,0.0,0.74184334,0.54190993,0.0,0.0,0.40144408,812.3077,575.38464,662.8205,832.8571,953.3333,-0.1329345703125,0.12066650390625,0.97406005859375,2.235565185546875,-3.349609375,0.6280517578125,1.0,1.0,4.0,2.0,1.0,100.0,event
09:10:14.001,0.78167135,0.0,0.0,0.7392119,0.3049666,0.0,0.0,0.47768322,0.7074047,0.0,0.0,0.6423164,0.6048714,0.0,0.0,0.8340947,0.5392593,0.0,0.0,0.44719008,795.38464,284.46887,508.49817,789.7436,1020.6227,-0.1329345703125,0.12066650390625,0.97406005859375,2.235565185546875,-3.349609375,0.6280517578125,1.0,1.0,4.0,2.0,1.0,100.0,event
09:10:14.001,0.8177859,0.0,0.0,0.8909119,0.22378589,0.0,0.0,0.28237197,0.6611765,0.0,0.0,0.5522991,0.590169,0.0,0.0,0.74184334,0.54190993,0.0,0.0,0.40144408,788.1319,693.44324,673.69965,767.5824,846.55676,-0.1329345703125,0.12066650390625,0.97406005859375,2.235565185546875,-3.349609375,0.6280517578125,1.0,1.0,4.0,2.0,1.0,100.0,event
09:10:14.005,0.78167135,0.0,0.0,0.7392119,0.3049666,0.0,0.0,0.47768322,0.7074047,0.0,0.0,0.6423164,0.6048714,0.0,0.0,0.8340947,0.5392593,0.0,0.0,0.44719008,811.9048,914.2491,1064.5421,828.4249,920.293,-0.1329345703125,0.12066650390625,0.97406005859375,2.235565185546875,-3.349609375,0.6280517578125,1.0,1.0,4.0,2.0,1.0,100.0,event
09:10:14.006,0.78167135,0.0,0.0,0.7392119,0.3049666,0.0,0.0,0.47768322,0.7074047,0.0,0.0,0.6423164,0.6048714,0.0,0.0,0.8340947,0.5392593,0.0,0.0,0.44719008,815.5311,1142.3077,997.25275,833.663,792.96704,-0.1329345703125,0.12066650390625,0.97406005859375,2.235565185546875,-3.349609375,0.6280517578125,1.0,1.0,4.0,2.0,1.0,100.0,event
09:10:14.100,0.78167135,0.0,0.0,0.7392119,0.3049666,0.0,0.0,0.47768322,0.7074047,0.0,0.0,0.6423164,0.6048714,0.0,0.0,0.8340947,0.5392593,0.0,0.0,0.44719008,793.7729,805.8608,664.83514,790.54944,771.6117,-0.1329345703125,0.12066650390625,0.97406005859375,2.235565185546875,-3.349609375,0.6280517578125,1.0,1.0,4.0,2.0,1.0,100.0,event
09:10:14.101,0.78167135,0.0,0.0,0.7392119,0.3049666,0.0,0.0,0.47768322,0.7074047,0.0,0.0,0.6423164,0.6048714,0.0,0.0,0.8340947,0.5392593,0.0,0.0,0.44719008,779.67035,841.31866,771.6117,760.7326,747.03296,-0.1329345703125,0.12066650390625,0.97406005859375,2.235565185546875,-3.349609375,0.6280517578125,1.0,1.0,4.0,2.0,1.0,100.0,event
09:10:14.102,0.78167135,0.0,0.0,0.7392119,0.3049666,0.0,0.0,0.47768322,0.7074047,0.0,0.0,0.6423164,0.6048714,0.0,0.0,0.8340947,0.5392593,0.0,0.0,0.44719008,796.99634,1112.0879,981.13556,776.04395,722.4542,-0.1329345703125,0.12066650390625,0.97406005859375,2.235565185546875,-3.349609375,0.6280517578125,1.0,1.0,4.0,2.0,1.0,100.0,event
09:10:14.102,0.78167135,0.0,0.0,0.7392119,0.3049666,0.0,0.0,0.47768322,0.7074047,0.0,0.0,0.6423164,0.6048714,0.0,0.0,0.8340947,0.5392593,0.0,0.0,0.44719008,813.5165,1134.249,898.1319,814.7253,776.04395,-0.1329345703125,0.12066650390625,0.97406005859375,2.235565185546875,-3.349609375,0.6280517578125,1.0,1.0,4.0,2.0,1.0,100.0,event
09:10:14.103,0.78167135,0.0,0.0,0.7392119,0.3049666,0.0,0.0,0.47768322,0.7074047,0.0,0.0,0.6423164,0.6048714,0.0,0.0,0.8340947,0.5392593,0.0,0.0,0.44719008,815.5311,805.4579,590.696,828.8278,850.58606,-0.1329345703125,0.12066650390625,0.97406005859375,2.235565185546875,-3.349609375,0.6280517578125,1.0,1.0,4.0,2.0,1.0,100.0,event
09:10:14.104,0.78167135,0.0,0.0,0.7392119,0.3049666,0.0,0.0,0.47768322,0.7074047,0.0,0.0,0.6423164,0.6048714,0.0,0.0,0.8340947,0.5392593,0.0,0.0,0.44719008,806.6667,598.3516,543.1502,805.05493,965.42126,-0.1329345703125,0.12066650390625,0.97406005859375,2.235565185546875,-3.349609375,0.6280517578125,1.0,1.0,4.0,2.0,1.0,100.0,event
09:10:14.104,0.78167135,0.0,0.0,0.7392119,0.3049666,0.0,0.0,0.47768322,0.7074047,0.0,0.0,0.6423164,0.6048714,0.0,0.0,0.8340947,0.5392593,0.0,0.0,0.44719008,799.41394,645.09155,669.2674,772.01465,947.6923,-0.1329345703125,0.12066650390625,0.97406005859375,2.235565185546875,-3.349609375,0.6280517578125,1.0,1.0,4.0,2.0,1.0,100.0,event
09:10:14.105,0.78167135,0.0,0.0,0.7392119,0.3049666,0.0,0.0,0.47768322,0.7074047,0.0,0.0,0.6423164,0.6048714,0.0,0.0,0.8340947,0.5392593,0.0,0.0,0.44719008,796.99634,832.4542,844.1392,774.0293,799.41394,-0.1329345703125,0.12066650390625,0.97406005859375,2.235565185546875,-3.349609375,0.6280517578125,1.0,1.0,4.0,2.0,1.0,100.0,event
09:10:14.105,0.78167135,0.0,0.0,0.7392119,0.3049666,0.0,0.0,0.47768322,0.7074047,0.0,0.0,0.6423164,0.6048714,0.0,0.0,0.8340947,0.5392593,0.0,0.0,0.44719008,805.4579,423.07693,563.2967,826.4103,974.2857,-0.1329345703125,0.12066650390625,0.97406005859375,2.235565185546875,-3.349609375,0.6280517578125,1.0,1.0,4.0,2.0,1.0,100.0,event
09:10:14.106,0.78167135,0.0,0.0,0.7392119,0.3049666,0.0,0.0,0.47768322,0.7074047,0.0,0.0,0.6423164,0.6048714,0.0,0.0,0.8340947,0.5392593,0.0,0.0,0.44719008,815.5311,159.96336,483.9194,843.3333,1043.1868,-0.1329345703125,0.12066650390625,0.97406005859375,2.235565185546875,-3.349609375,0.6280517578125,1.0,1.0,4.0,2.0,1.0,100.0,event
09:10:14.107,0.78167135,0.0,0.0,0.7392119,0.3049666,0.0,0.0,0.47768322,0.7074047,0.0,0.0,0.6423164,0.6048714,0.0,0.0,0.8340947,0.5392593,0.0,0.0,0.44719008,809.0842,894.90845,1115.3114,805.05493,768.3883,-0.1329345703125,0.12066650390625,0.97406005859375,2.235565185546875,-3.349609375,0.6280517578125,1.0,1.0,4.0,2.0,1.0,100.0,event
09:10:14.107,0.78167135,0.0,0.0,0.7392119,0.3049666,0.0,0.0,0.47768322,0.7074047,0.0,0.0,0.6423164,0.6048714,0.0,0.0,0.8340947,0.5392593,0.0,0.0,0.44719008,786.52014,944.4689,995.64105,774.43225,756.30035,-0.1329345703125,0.12066650390625,0.97406005859375,2.235565185546875,-3.349609375,0.6280517578125,1.0,1.0,4.0,2.0,1.0,100.0,event
09:10:14.108,0.78167135,0.0,0.0,0.7392119,0.3049666,0.0,0.0,0.47768322,0.7074047,0.0,0.0,0.6423164,0.6048714,0.0,0.0,0.8340947,0.5392593,0.0,0.0,0.44719008,789.34064,836.08057,844.94507,781.28204,765.16486,-0.1282958984375,0.119873046875,0.97491455078125,1.8841552734375,-3.2598876953125,-0.157012939453125,1.0,1.0,4.0,2.0,1.0,100.0,event
09:10:14.109,0.78167135,0.0,0.0,0.7392119,0.3049666,0.0,0.0,0.47768322,0.7074047,0.0,0.0,0.6423164,0.6048714,0.0,0.0,0.8340947,0.5392593,0.0,0.0,0.44719008,805.8608,1018.60803,942.0513,813.5165,782.0879,-0.1282958984375,0.119873046875,0.97491455078125,1.8841552734375,-3.2598876953125,-0.157012939453125,1.0,1.0,4.0,2.0,1.0,100.0,event
09:10:14.109,0.78167135,0.0,0.0,0.7392119,0.3049666,0.0,0.0,0.47768322,0.7074047,0.0,0.0,0.6423164,0.6048714,0.0,0.0,0.8340947,0.5392593,0.0,0.0,0.44719008,804.2491,1075.8242,890.4762,833.663,782.8938,-0.1282958984375,0.119873046875,0.97491455078125,1.8841552734375,-3.2598876953125,-0.157012939453125,1.0,1.0,4.0,2.0,1.0,100.0,event
09:10:14.110,0.78167135,0.0,0.0,0.7392119,0.3049666,0.0,0.0,0.47768322,0.7074047,0.0,0.0,0.6423164,0.6048714,0.0,0.0,0.8340947,0.5392593,0.0,0.0,0.44719008,799.41394,863.47986,679.7436,812.71063,792.1612,-0.1282958984375,0.119873046875,0.97491455078125,1.8841552734375,-3.2598876953125,-0.157012939453125,1.0,1.0,4.0,2.0,1.0,100.0,event
09:10:14.111,0.78167135,0.0,0.0,0.7392119,0.3049666,0.0,0.0,0.47768322,0.7074047,0.0,0.0,0.6423164,0.6048714,0.0,0.0,0.8340947,0.5392593,0.0,0.0,0.44719008,790.14655,625.7509,577.8022,773.22345,793.36993,-0.1282958984375,0.119873046875,0.97491455078125,1.8841552734375,-3.2598876953125,-0.157012939453125,1.0,1.0,4.0,2.0,1.0,100.0,event
09:10:14.111,0.78167135,0.0,0.0,0.7392119,0.3049666,0.0,0.0,0.47768322,0.7074047,0.0,0.0,0.6423164,0.6048714,0.0,0.0,0.8340947,0.5392593,0.0,0.0,0.44719008,789.34064,724.0659,742.1978,775.2381,730.5128,-0.1282958984375,0.119873046875,0.97491455078125,1.8841552734375,-3.2598876953125,-0.157012939453125,1.0,1.0,4.0,2.0,1.0,100.0,event
09:10:14.112,0.78167135,0.0,0.0,0.7392119,0.3049666,0.0,0.0,0.47768322,0.7074047,0.0,0.0,0.6423164,0.6048714,0.0,0.0,0.8340947,0.5392593,0.0,0.0,0.44719008,806.6667,809.89014,837.28937,818.3516,807.8755,-0.1282958984375,0.119873046875,0.97491455078125,1.8841552734375,-3.2598876953125,-0.157012939453125,1.0,1.0,4.0,2.0,1.0,100.0,event
09:10:14.113,0.78167135,0.0,0.0,0.7392119,0.3049666,0.0,0.0,0.47768322,0.7074047,0.0,0.0,0.6423164,0.6048714,0.0,0.0,0.8340947,0.5392593,0.0,0.0,0.44719008,811.9048,589.4872,667.25275,842.9304,963.4066,-0.1282958984375,0.119873046875,0.97491455078125,1.8841552734375,-3.2598876953125,-0.157012939453125,1.0,1.0,4.0,2.0,1.0,100.0,event
09:10:14.113,0.78167135,0.0,0.0,0.7392119,0.3049666,0.0,0.0,0.47768322,0.7074047,0.0,0.0,0.6423164,0.6048714,0.0,0.0,0.8340947,0.5392593,0.0,0.0,0.44719008,795.78754,512.1245,653.95605,814.7253,924.3223,-0.1282958984375,0.119873046875,0.97491455078125,1.8841552734375,-3.2598876953125,-0.157012939453125,1.0,1.0,4.0,2.0,1.0,100.0,event
09:10:14.114,0.78167135,0.0,0.0,0.7392119,0.3049666,0.0,0.0,0.47768322,0.7074047,0.0,0.0,0.6423164,0.6048714,0.0,0.0,0.8340947,0.5392593,0.0,0.0,0.44719008,792.96704,1162.8572,1097.1794,769.59705,694.65204,-0.1282958984375,0.119873046875,0.97491455078125,1.8841552734375,-3.2598876953125,-0.157012939453125,1.0,1.0,4.0,2.0,1.0,100.0,event
09:10:14.114,0.78167135,0.0,0.0,0.7392119,0.3049666,0.0,0.0,0.47768322,0.7074047,0.0,0.0,0.6423164,0.6048714,0.0,0.0,0.8340947,0.5392593,0.0,0.0,0.44719008,786.9231,926.7399,1000.4762,778.46155,758.315,-0.1282958984375,0.119873046875,0.97491455078125,1.8841552734375,-3.2598876953125,-0.157012939453125,1.0,1.0,4.0,2.0,1.0,100.0,event
09:10:14.115,0.7091462,0.0,0.0,0.7866096,0.37310764,0.0,0.0,0.5559232,0.71047,0.0,0.0,0.6606868,0.6057143,0.0,0.0,0.87964153,0.53024995,0.0,0.0,0.44314307,804.65204,748.24176,695.05493,801.8315,839.707,-0.1282958984375,0.119873046875,0.97491455078125,1.8841552734375,-3.2598876953125,-0.157012939453125,1.0,1.0,4.0,2.0,1.0,100.0,event
09:10:14.180,0.7091462,0.0,0.0,0.7866096,0.37310764,0.0,0.0,0.5559232,0.71047,0.0,0.0,0.6606868,0.6057143,0.0,0.0,0.87964153,0.53024995,0.0,0.0,0.44314307,809.4872,75.750916,303.4066,838.0952,1065.751,-0.1263427734375,0.11541748046875,0.9752197265625,1.9439697265625,-2.9608154296875,0.179443359375,1.0,1.0,4.0,2.0,1.0,100.0,event
09:10:14.181,0.7091462,0.0,0.0,0.7866096,0.37310764,0.0,0.0,0.5559232,0.71047,0.0,0.0,0.6606868,0.6057143,0.0,0.0,0.87964153,0.53024995,0.0,0.0,0.44314307,789.7436,608.8278,921.0989,823.5897,857.03296,-0.1263427734375,0.11541748046875,0.9752197265625,1.9439697265625,-2.9608154296875,0.179443359375,1.0,1.0,4.0,2.0,1.0,100.0,event
09:10:14.182,0.7091462,0.0,0.0,0.7866096,0.37310764,0.0,0.0,0.5559232,0.71047,0.0,0.0,0.6606868,0.6057143,0.0,0.0,0.87964153,0.53024995,0.0,0.0,0.44314307,778.0586,1021.02563,1125.7876,782.49084,711.1722,-0.1263427734375,0.11541748046875,0.9752197265625,1.9439697265625,-2.9608154296875,0.179443359375,1.0,1.0,4.0,2.0,1.0,100.0,event
09:10:14.182,0.7091462,0.0,0.0,0.7866096,0.37310764,0.0,0.0,0.5559232,0.71047,0.0,0.0,0.6606868,0.6057143,0.0,0.0,0.87964153,0.53024995,0.0,0.0,0.44314307,782.0879,893.2967,933.5897,769.59705,743.4066,-0.1263427734375,0.11541748046875,0.9752197265625,1.9439697265625,-2.9608154296875,0.179443359375,1.0,1.0,4.0,2.0,1.0,100.0,event
09:10:14.183,0.7091462,0.0,0.0,0.7866096,0.37310764,0.0,0.0,0.5559232,0.71047,0.0,0.0,0.6606868,0.6057143,0.0,0.0,0.87964153,0.53024995,0.0,0.0,0.44314307,792.1612,980.32965,992.01465,798.60803,753.0769,-0.1263427734375,0.11541748046875,0.9752197265625,1.9439697265625,-2.9608154296875,0.179443359375,1.0,1.0,4.0,2.0,1.0,100.0,event
09:10:14.183,0.7091462,0.0,0.0,0.7866096,0.37310764,0.0,0.0,0.5559232,0.71047,0.0,0.0,0.6606868,0.6057143,0.0,0.0,0.87964153,0.53024995,0.0,0.0,0.44314307,808.68134,882.8205,813.91943,834.0659,871.13556,-0.1263427734375,0.11541748046875,0.9752197265625,1.9439697265625,-2.9608154296875,0.179443359375,1.0,1.0,4.0,2.0,1.0,100.0,event
09:10:14.184,0.7091462,0.0,0.0,0.7866096,0.37310764,0.0,0.0,0.5559232,0.71047,0.0,0.0,0.6606868,0.6057143,0.0,0.0,0.87964153,0.53024995,0.0,0.0,0.44314307,801.02563,769.19415,710.7692,823.9927,872.3443,-0.1263427734375,0.11541748046875,0.9752197265625,1.9439697265625,-2.9608154296875,0.179443359375,1.0,1.0,4.0,2.0,1.0,100.0,event
09:10:14.184,0.7091462,0.0,0.0,0.7866096,0.37310764,0.0,0.0,0.5559232,0.71047,0.0,0.0,0.6606868,0.6057143,0.0,0.0,0.87964153,0.53024995,0.0,0.0,0.44314307,783.69965,295.348,411.39194,782.8938,928.7546,-0.1263427734375,0.11541748046875,0.9752197265625,1.9439697265625,-2.9608154296875,0.179443359375,1.0,1.0,4.0,2.0,1.0,100.0,event
09:10:14.184,0.7091462,0.0,0.0,0.7866096,0.37310764,0.0,0.0,0.5559232,0.71047,0.0,0.0,0.6606868,0.6057143,0.0,0.0,0.87964153,0.53024995,0.0,0.0,0.44314307,784.10254,353.7729,680.9524,765.16486,926.337,-0.1263427734375,0.11541748046875,0.9752197265625,1.9439697265625,-2.9608154296875,0.179443359375,1.0,1.0,4.0,2.0,1.0,100.0,event
09:10:14.185,0.7091462,0.0,0.0,0.7866096,0.37310764,0.0,0.0,0.5559232,0.71047,0.0,0.0,0.6606868,0.6057143,0.0,0.0,0.87964153,0.53024995,0.0,0.0,0.44314307,821.978,1081.0623,1007.326,832.4542,755.4945,-0.1263427734375,0.11541748046875,0.9752197265625,1.9439697265625,-2.9608154296875,0.179443359375,1.0,1.0,4.0,2.0,1.0,100.0,event
09:10:14.185,0.7091462,0.0,0.0,0.7866096,0.37310764,0.0,0.0,0.5559232,0.71047,0.0,0.0,0.6606868,0.6057143,0.0,0.0,0.87964153,0.53024995,0.0,0.0,0.44314307,804.65204,1156.0073,1313.956,790.9524,708.7546,-0.1263427734375,0.11541748046875,0.9752197265625,1.9439697265625,-2.9608154296875,0.179443359375,1.0,1.0,4.0,2.0,1.0,100.0,event
09:10:14.186,0.7091462,0.0,0.0,0.7866096,0.37310764,0.0,0.0,0.5559232,0.71047,0.0,0.0,0.6606868,0.6057143,0.0,0.0,0.87964153,0.53024995,0.0,0.0,0.44314307,813.5165,780.4762,745.82416,834.0659,867.50916,-0.1263427734375,0.11541748046875,0.9752197265625,1.9439697265625,-2.9608154296875,0.179443359375,1.0,1.0,4.0,2.0,1.0,100.0,event
09:10:14.223,0.7091462,0.0,0.0,0.7866096,0.37310764,0.0,0.0,0.5559232,0.71047,0.0,0.0,0.6606868,0.6057143,0.0,0.0,0.87964153,0.53024995,0.0,0.0,0.44314307,786.1172,919.0842,892.0879,784.10254,770.40295,-0.12554931640625,0.12420654296875,0.97491455078125,2.4224853515625,-1.772003173828125,0.657958984375,1.0,1.0,4.0,2.0,1.0,100.0,event
09:10:14.224,0.7091462,0.0,0.0,0.7866096,0.37310764,0.0,0.0,0.5559232,0.71047,0.0,0.0,0.6606868,0.6057143,0.0,0.0,0.87964153,0.53024995,0.0,0.0,0.44314307,781.28204,1131.0256,1011.75824,755.89746,677.326,-0.12554931640625,0.12420654296875,0.97491455078125,2.4224853515625,-1.772003173828125,0.657958984375,1.0,1.0,4.0,2.0,1.0,100.0,event
09:10:14.225,0.7091462,0.0,0.0,0.7866096,0.37310764,0.0,0.0,0.5559232,0.71047,0.0,0.0,0.6606868,0.6057143,0.0,0.0,0.87964153,0.53024995,0.0,0.0,0.44314307,793.7729,967.4359,836.4835,778.0586,759.12085,-0.12554931640625,0.12420654296875,0.97491455078125,2.4224853515625,-1.772003173828125,0.657958984375,1.0,1.0,4.0,2.0,1.0,100.0,event
09:10:14.226,0.7091462,0.0,0.0,0.7866096,0.37310764,0.0,0.0,0.5559232,0.71047,0.0,0.0,0.6606868,0.6057143,0.0,0.0,0.87964153,0.53024995,0.0,0.0,0.44314307,806.6667,799.41394,724.0659,814.3223,826.8132,-0.12554931640625,0.12420654296875,0.97491455078125,2.4224853515625,-1.772003173828125,0.657958984375,1.0,1.0,4.0,2.0,1.0,100.0,event
09:10:14.228,0.7091462,0.0,0.0,0.7866096,0.37310764,0.0,0.0,0.5559232,0.71047,0.0,0.0,0.6606868,0.6057143,0.0,0.0,0.87964153,0.53024995,0.0,0.0,0.44314307,813.1135,988.3883,858.24176,827.619,737.3626,-0.12554931640625,0.12420654296875,0.97491455078125,2.4224853515625,-1.772003173828125,0.657958984375,1.0,1.0,4.0,2.0,1.0,100.0,event
09:10:14.229,0.7091462,0.0,0.0,0.7866096,0.37310764,0.0,0.0,0.5559232,0.71047,0.0,0.0,0.6606868,0.6057143,0.0,0.0,0.87964153,0.53024995,0.0,0.0,0.44314307,799.011,851.79486,708.7546,798.60803,748.24176,-0.12554931640625,0.12420654296875,0.97491455078125,2.4224853515625,-1.772003173828125,0.657958984375,1.0,1.0,4.0,2.0,1.0,100.0,event
09:10:14.229,0.7091462,0.0,0.0,0.7866096,0.37310764,0.0,0.0,0.5559232,0.71047,0.0,0.0,0.6606868,0.6057143,0.0,0.0,0.87964153,0.53024995,0.0,0.0,0.44314307,790.14655,442.01465,488.35165,770.0,958.1685,-0.12554931640625,0.12420654296875,0.97491455078125,2.4224853515625,-1.772003173828125,0.657958984375,1.0,1.0,4.0,2.0,1.0,100.0,event
09:10:14.230,0.7091462,0.0,0.0,0.7866096,0.37310764,0.0,0.0,0.5559232,0.71047,0.0,0.0,0.6606868,0.6057143,0.0,0.0,0.87964153,0.53024995,0.0,0.0,0.44314307,792.5641,348.5348,629.7802,782.8938,988.3883,-0.12554931640625,0.12420654296875,0.97491455078125,2.4224853515625,-1.772003173828125,0.657958984375,1.0,1.0,4.0,2.0,1.0,100.0,event
09:10:14.231,0.7091462,0.0,0.0,0.7866096,0.37310764,0.0,0.0,0.5559232,0.71047,0.0,0.0,0.6606868,0.6057143,0.0,0.0,0.87964153,0.53024995,0.0,0.0,0.44314307,809.4872,922.3077,1090.3297,816.337,764.35895,-0.12554931640625,0.12420654296875,0.97491455078125,2.4224853515625,-1.772003173828125,0.657958984375,1.0,1.0,4.0,2.0,1.0,100.0,event
09:10:14.232,0.7091462,0.0,0.0,0.7866096,0.37310764,0.0,0.0,0.5559232,0.71047,0.0,0.0,0.6606868,0.6057143,0.0,0.0,0.87964153,0.53024995,0.0,0.0,0.44314307,798.20514,671.28204,608.4249,784.90845,768.7912,-0.12554931640625,0.12420654296875,0.97491455078125,2.4224853515625,-1.772003173828125,0.657958984375,1.0,1.0,4.0,2.0,1.0,100.0,event
09:10:14.232,0.7091462,0.0,0.0,0.7866096,0.37310764,0.0,0.0,0.5559232,0.71047,0.0,0.0,0.6606868,0.6057143,0.0,0.0,0.87964153,0.53024995,0.0,0.0,0.44314307,815.12823,1149.1575,1057.6923,821.5751,706.337,-0.12554931640625,0.12420654296875,0.97491455078125,2.4224853515625,-1.772003173828125,0.657958984375,1.0,1.0,4.0,2.0,1.0,100.0,event
09:10:14.233,0.7091462,0.0,0.0,0.7866096,0.37310764,0.0,0.0,0.5559232,0.71047,0.0,0.0,0.6606868,0.6057143,0.0,0.0,0.87964153,0.53024995,0.0,0.0,0.44314307,796.1905,600.7692,665.64105,780.4762,756.30035,-0.12554931640625,0.12420654296875,0.97491455078125,2.4224853515625,-1.772003173828125,0.657958984375,1.0,1.0,4.0,2.0,1.0,100.0,event
09:10:14.260,0.7091462,0.0,0.0,0.7866096,0.37310764,0.0,0.0,0.5559232,0.71047,0.0,0.0,0.6606868,0.6057143,0.0,0.0,0.87964153,0.53024995,0.0,0.0,0.44314307,813.91943,1060.1099,1019.011,797.8022,710.3663,-0.13006591796875,0.122314453125,0.97607421875,1.577606201171875,-1.9439697265625,0.695343017578125,1.0,1.0,4.0,2.0,1.0,100.0,event
09:10:14.261,0.6899599,0.0,0.0,0.7980354,0.38477254,0.0,0.0,0.5753447,0.71047,0.0,0.0,0.6633066,0.60217,0.0,0.0,0.89490503,0.51603323,0.0,0.0,0.4264207,816.337,1178.5714,981.13556,805.4579,711.978,-0.13006591796875,0.122314453125,0.97607421875,1.577606201171875,-1.9439697265625,0.695343017578125,1.0,1.0,4.0,2.0,1.0,100.0,event
09:10:14.264,0.6899599,0.0,0.0,0.7980354,0.38477254,0.0,0.0,0.5753447,0.71047,0.0,0.0,0.6633066,0.60217,0.0,0.0,0.89490503,0.51603323,0.0,0.0,0.4264207,802.6374,528.6447,437.17947,810.293,932.381,-0.13006591796875,0.122314453125,0.97607421875,1.577606201171875,-1.9439697265625,0.695343017578125,1.0,1.0,4.0,2.0,1.0,100.0,event
09:10:14.264,0.6899599,0.0,0.0,0.7980354,0.38477254,0.0,0.0,0.5753447,0.71047,0.0,0.0,0.6633066,0.60217,0.0,0.0,0.89490503,0.51603323,0.0,0.0,0.4264207,788.5348,195.82417,354.1758,787.326,1009.34064,-0.13006591796875,0.122314453125,0.97607421875,1.577606201171875,-1.9439697265625,0.695343017578125,1.0,1.0,4.0,2.0,1.0,100.0,event
09:10:14.265,0.6899599,0.0,0.0,0.7980354,0.38477254,0.0,0.0,0.5753447,0.71047,0.0,0.0,0.6633066,0.60217,0.0,0.0,0.89490503,0.51603323,0.0,0.0,0.4264207,779.67035,823.1868,963.8095,759.5238,725.2747,-0.13006591796875,0.122314453125,0.97607421875,1.577606201171875,-1.9439697265625,0.695343017578125,1.0,1.0,4.0,2.0,1.0,100.0,event
09:10:14.266,0.6899599,0.0,0.0,0.7980354,0.38477254,0.0,0.0,0.5753447,0.71047,0.0,0.0,0.6633066,0.60217,0.0,0.0,0.89490503,0.51603323,0.0,0.0,0.4264207,783.2967,933.9927,954.1392,765.56775,722.8571,-0.13006591796875,0.122314453125,0.97607421875,1.577606201171875,-1.9439697265625,0.695343017578125,1.0,1.0,4.0,2.0,1.0,100.0,event
09:10:14.266,0.6899599,0.0,0.0,0.7980354,0.38477254,0.0,0.0,0.5753447,0.71047,0.0,0.0,0.6633066,0.60217,0.0,0.0,0.89490503,0.51603323,0.0,0.0,0.4264207,799.41394,352.96704,504.46887,813.5165,1016.1905,-0.13006591796875,0.122314453125,0.97607421875,1.577606201171875,-1.9439697265625,0.695343017578125,1.0,1.0,4.0,2.0,1.0,100.0,event
