TimeStamp,Delta_TP9,Delta_AF7,Delta_AF8,Delta_TP10,Theta_TP9,Theta_AF7,Theta_AF8,Theta_TP10,Alpha_TP9,Alpha_AF7,Alpha_AF8,Alpha_TP10,Beta_TP9,Beta_AF7,Beta_AF8,Beta_TP10,Gamma_TP9,Gamma_AF7,Gamma_AF8,Gamma_TP10,RAW_TP9,RAW_AF7,RAW_AF8,RAW_TP10,AUX_RIGHT,Accelerometer_X,Accelerometer_Y,Accelerometer_Z,Gyro_X,Gyro_Y,Gyro_Z,HeadBandOn,HSI_TP9,HSI_AF7,HSI_AF8,HSI_TP10,Battery,Elements
09:28:13.173,0.0,0.0,0.0,0.970348,0.0,0.0,0.0,0.79793996,0.0,0.0,0.0,1.0193759,0.0,0.0,0.0,0.7281931,0.0,0.0,0.0,0.37876567,1482.7839,21.758242,1639.5238,811.0989,763.1502,-0.29998779296875,0.0299072265625,0.93963623046875,2.07855224609375,-2.28790283203125,0.904693603515625,1.0,4.0,4.0,4.0,1.0,100.0,event
09:28:13.174,0.0,0.0,0.0,0.970348,0.0,0.0,0.0,0.79793996,0.0,0.0,0.0,1.0193759,0.0,0.0,0.0,0.7281931,0.0,0.0,0.0,0.37876567,417.03296,846.9597,1172.1245,797.8022,754.68866,-0.29998779296875,0.0299072265625,0.93963623046875,2.07855224609375,-2.28790283203125,0.904693603515625,1.0,4.0,4.0,4.0,1.0,100.0,event
09:28:13.175,0.0,0.0,0.0,0.970348,0.0,0.0,0.0,0.79793996,0.0,0.0,0.0,1.0193759,0.0,0.0,0.0,0.7281931,0.0,0.0,0.0,0.37876567,0.0,120.07326,794.17584,772.8205,718.022,-0.29998779296875,0.0299072265625,0.93963623046875,2.07855224609375,-2.28790283203125,0.904693603515625,1.0,4.0,4.0,4.0,1.0,100.0,event
09:28:13.176,0.0,0.0,0.0,0.970348,0.0,0.0,0.0,0.79793996,0.0,0.0,0.0,1.0193759,0.0,0.0,0.0,0.7281931,0.0,0.0,0.0,0.37876567,531.8681,606.8132,1048.8279,769.59705,746.63007,-0.29998779296875,0.0299072265625,0.93963623046875,2.07855224609375,-2.28790283203125,0.904693603515625,1.0,4.0,4.0,4.0,1.0,100.0,event
09:28:13.176,0.0,0.0,0.0,0.970348,0.0,0.0,0.0,0.79793996,0.0,0.0,0.0,1.0193759,0.0,0.0,0.0,0.7281931,0.0,0.0,0.0,0.37876567,11.684981,1465.4579,1485.6044,813.1135,778.0586,-0.29998779296875,0.0299072265625,0.93963623046875,2.07855224609375,-2.28790283203125,0.904693603515625,1.0,4.0,4.0,4.0,1.0,100.0,event
09:28:13.177,0.0,0.0,0.0,0.970348,0.0,0.0,0.0,0.79793996,0.0,0.0,0.0,1.0193759,0.0,0.0,0.0,0.7281931,0.0,0.0,0.0,0.37876567,1519.4506,1421.1355,1344.1758,807.8755,929.9634,-0.29998779296875,0.0299072265625,0.93963623046875,2.07855224609375,-2.28790283203125,0.904693603515625,1.0,4.0,4.0,4.0,1.0,100.0,event
09:28:13.178,0.0,0.0,0.0,0.970348,0.0,0.0,0.0,0.79793996,0.0,0.0,0.0,1.0193759,0.0,0.0,0.0,0.7281931,0.0,0.0,0.0,0.37876567,0.0,170.03664,828.4249,790.54944,717.619,-0.29998779296875,0.0299072265625,0.93963623046875,2.07855224609375,-2.28790283203125,0.904693603515625,1.0,4.0,4.0,4.0,1.0,100.0,event
09:28:13.178,0.0,0.0,0.0,0.970348,0.0,0.0,0.0,0.79793996,0.0,0.0,0.0,1.0193759,0.0,0.0,0.0,0.7281931,0.0,0.0,0.0,0.37876567,452.08792,536.30035,850.58606,788.5348,951.31866,-0.29998779296875,0.0299072265625,0.93963623046875,2.07855224609375,-2.28790283203125,0.904693603515625,1.0,4.0,4.0,4.0,1.0,100.0,event
09:28:13.179,0.0,0.0,0.0,0.970348,0.0,0.0,0.0,0.79793996,0.0,0.0,0.0,1.0193759,0.0,0.0,0.0,0.7281931,0.0,0.0,0.0,0.37876567,416.2271,483.51648,1006.1172,794.17584,767.5824,-0.29998779296875,0.0299072265625,0.93963623046875,2.07855224609375,-2.28790283203125,0.904693603515625,1.0,4.0,4.0,4.0,1.0,100.0,event
09:28:13.180,0.0,0.0,0.0,0.970348,0.0,0.0,0.0,0.79793996,0.0,0.0,0.0,1.0193759,0.0,0.0,0.0,0.7281931,0.0,0.0,0.0,0.37876567,1543.6263,1126.9963,1193.0769,819.5604,936.4103,-0.29998779296875,0.0299072265625,0.93963623046875,2.07855224609375,-2.28790283203125,0.904693603515625,1.0,4.0,4.0,4.0,1.0,100.0,event
09:28:13.180,0.0,0.0,0.0,0.970348,0.0,0.0,0.0,0.79793996,0.0,0.0,0.0,1.0193759,0.0,0.0,0.0,0.7281931,0.0,0.0,0.0,0.37876567,1647.9854,698.2784,742.6007,821.1722,1142.7106,-0.29998779296875,0.0299072265625,0.93963623046875,2.07855224609375,-2.28790283203125,0.904693603515625,1.0,4.0,4.0,4.0,1.0,100.0,event
09:28:13.181,0.0,0.0,0.0,0.970348,0.0,0.0,0.0,0.79793996,0.0,0.0,0.0,1.0193759,0.0,0.0,0.0,0.7281931,0.0,0.0,0.0,0.37876567,636.2271,245.78755,669.2674,796.1905,980.32965,-0.29998779296875,0.0299072265625,0.93963623046875,2.07855224609375,-2.28790283203125,0.904693603515625,1.0,4.0,4.0,4.0,1.0,100.0,event
09:28:13.206,0.0,0.0,0.0,0.970348,0.0,0.0,0.0,0.79793996,0.0,0.0,0.0,1.0193759,0.0,0.0,0.0,0.7281931,0.0,0.0,0.0,0.37876567,0.0,411.79486,1076.227,792.1612,667.6557,-0.30230712890625,0.035400390625,0.9461669921875,2.58697509765625,-3.1103515625,0.934600830078125,1.0,4.0,4.0,4.0,1.0,100.0,event
09:28:13.208,0.0,0.0,0.0,0.970348,0.0,0.0,0.0,0.79793996,0.0,0.0,0.0,1.0193759,0.0,0.0,0.0,0.7281931,0.0,0.0,0.0,0.37876567,263.9194,456.92307,1041.978,794.57874,704.3223,-0.30230712890625,0.035400390625,0.9461669921875,2.58697509765625,-3.1103515625,0.934600830078125,1.0,4.0,4.0,4.0,1.0,100.0,event
09:28:13.208,0.0,0.0,0.0,0.970348,0.0,0.0,0.0,0.79793996,0.0,0.0,0.0,1.0193759,0.0,0.0,0.0,0.7281931,0.0,0.0,0.0,0.37876567,1351.4286,1182.6007,1359.4872,794.57874,774.43225,-0.30230712890625,0.035400390625,0.9461669921875,2.58697509765625,-3.1103515625,0.934600830078125,1.0,4.0,4.0,4.0,1.0,100.0,event
09:28:13.209,0.0,0.0,0.0,0.970348,0.0,0.0,0.0,0.79793996,0.0,0.0,0.0,1.0193759,0.0,0.0,0.0,0.7281931,0.0,0.0,0.0,0.37876567,130.14651,64.468864,27.399267,810.293,786.9231,-0.30230712890625,0.035400390625,0.9461669921875,2.58697509765625,-3.1103515625,0.934600830078125,1.0,4.0,4.0,4.0,1.0,100.0,event
09:28:13.210,0.0,0.0,0.0,0.970348,0.0,0.0,0.0,0.79793996,0.0,0.0,0.0,1.0193759,0.0,0.0,0.0,0.7281931,0.0,0.0,0.0,0.37876567,865.09155,1279.7069,1485.6044,806.6667,778.46155,-0.30230712890625,0.035400390625,0.9461669921875,2.58697509765625,-3.1103515625,0.934600830078125,1.0,4.0,4.0,4.0,1.0,100.0,event
09:28:13.210,0.0,0.0,0.0,0.970348,0.0,0.0,0.0,0.79793996,0.0,0.0,0.0,1.0193759,0.0,0.0,0.0,0.7281931,0.0,0.0,0.0,0.37876567,0.0,299.3773,876.77655,794.17584,835.2747,-0.30230712890625,0.035400390625,0.9461669921875,2.58697509765625,-3.1103515625,0.934600830078125,1.0,4.0,4.0,4.0,1.0,100.0,event
09:28:13.211,0.0,0.0,0.0,0.970348,0.0,0.0,0.0,0.79793996,0.0,0.0,0.0,1.0193759,0.0,0.0,0.0,0.7281931,0.0,0.0,0.0,0.37876567,66.08059,112.82051,705.9341,805.05493,822.7839,-0.30230712890625,0.035400390625,0.9461669921875,2.58697509765625,-3.1103515625,0.934600830078125,1.0,4.0,4.0,4.0,1.0,100.0,event
09:28:13.212,0.0,0.0,0.0,0.970348,0.0,0.0,0.0,0.79793996,0.0,0.0,0.0,1.0193759,0.0,0.0,0.0,0.7281931,0.0,0.0,0.0,0.37876567,1102.8206,1061.3187,1253.9194,809.4872,717.2161,-0.30230712890625,0.035400390625,0.9461669921875,2.58697509765625,-3.1103515625,0.934600830078125,1.0,4.0,4.0,4.0,1.0,100.0,event
09:28:13.212,0.0,0.0,0.0,0.970348,0.0,0.0,0.0,0.79793996,0.0,0.0,0.0,1.0193759,0.0,0.0,0.0,0.7281931,0.0,0.0,0.0,0.37876567,169.23077,68.49817,1625.0183,805.4579,672.0879,-0.30230712890625,0.035400390625,0.9461669921875,2.58697509765625,-3.1103515625,0.934600830078125,1.0,4.0,4.0,4.0,1.0,100.0,event
09:28:13.213,0.0,0.0,0.0,0.970348,0.0,0.0,0.0,0.79793996,0.0,0.0,0.0,1.0193759,0.0,0.0,0.0,0.7281931,0.0,0.0,0.0,0.37876567,0.0,0.0,565.7143,792.96704,848.5714,-0.30230712890625,0.035400390625,0.9461669921875,2.58697509765625,-3.1103515625,0.934600830078125,1.0,4.0,4.0,4.0,1.0,100.0,event
09:28:13.213,0.0,0.0,0.0,0.970348,0.0,0.0,0.0,0.79793996,0.0,0.0,0.0,1.0193759,0.0,0.0,0.0,0.7281931,0.0,0.0,0.0,0.37876567,875.56775,781.685,946.8865,801.4286,854.21246,-0.30230712890625,0.035400390625,0.9461669921875,2.58697509765625,-3.1103515625,0.934600830078125,1.0,4.0,4.0,4.0,1.0,100.0,event
09:28:13.214,0.0,0.0,0.0,0.970348,0.0,0.0,0.0,0.79793996,0.0,0.0,0.0,1.0193759,0.0,0.0,0.0,0.7281931,0.0,0.0,0.0,0.37876567,10.07326,272.38095,958.97437,800.2198,719.2308,-0.30230712890625,0.035400390625,0.9461669921875,2.58697509765625,-3.1103515625,0.934600830078125,1.0,4.0,4.0,4.0,1.0,100.0,event
09:28:13.240,0.0,0.0,0.0,0.970348,0.0,0.0,0.0,0.79793996,0.0,0.0,0.0,1.0193759,0.0,0.0,0.0,0.7281931,0.0,0.0,0.0,0.37876567,951.31866,1008.5348,1280.5128,815.12823,762.74725,-0.2996826171875,0.03509521484375,0.942138671875,2.609405517578125,-3.72344970703125,1.024322509765625,1.0,4.0,4.0,4.0,1.0,100.0,event
09:28:13.241,0.0,0.0,0.0,0.9993013,0.0,0.0,0.0,0.744776,0.0,0.0,0.0,0.9538348,0.0,0.0,0.0,0.7214787,0.0,0.0,0.0,0.38932103,180.1099,1448.5348,1361.9048,810.293,800.2198,-0.2996826171875,0.03509521484375,0.942138671875,2.609405517578125,-3.72344970703125,1.024322509765625,1.0,4.0,4.0,4.0,1.0,100.0,event
09:28:13.245,0.0,0.0,0.0,0.9993013,0.0,0.0,0.0,0.744776,0.0,0.0,0.0,0.9538348,0.0,0.0,0.0,0.7214787,0.0,0.0,0.0,0.38932103,1004.10254,1292.1978,1328.0586,803.0403,765.56775,-0.2996826171875,0.03509521484375,0.942138671875,2.609405517578125,-3.72344970703125,1.024322509765625,1.0,4.0,4.0,4.0,1.0,100.0,event
09:28:13.245,0.0,0.0,0.0,0.9993013,0.0,0.0,0.0,0.744776,0.0,0.0,0.0,0.9538348,0.0,0.0,0.0,0.7214787,0.0,0.0,0.0,0.38932103,4.835165,695.4579,1194.2858,799.011,707.5458,-0.2996826171875,0.03509521484375,0.942138671875,2.609405517578125,-3.72344970703125,1.024322509765625,1.0,4.0,4.0,4.0,1.0,100.0,event
09:28:13.246,0.0,0.0,0.0,0.9993013,0.0,0.0,0.0,0.744776,0.0,0.0,0.0,0.9538348,0.0,0.0,0.0,0.7214787,0.0,0.0,0.0,0.38932103,0.0,279.23077,980.32965,803.0403,734.1392,-0.2996826171875,0.03509521484375,0.942138671875,2.609405517578125,-3.72344970703125,1.024322509765625,1.0,4.0,4.0,4.0,1.0,100.0,event
09:28:13.246,0.0,0.0,0.0,0.9993013,0.0,0.0,0.0,0.744776,0.0,0.0,0.0,0.9538348,0.0,0.0,0.0,0.7214787,0.0,0.0,0.0,0.38932103,711.1722,687.8022,1045.2014,806.6667,833.2601,-0.2996826171875,0.03509521484375,0.942138671875,2.609405517578125,-3.72344970703125,1.024322509765625,1.0,4.0,4.0,4.0,1.0,100.0,event
09:28:13.247,0.0,0.0,0.0,0.9993013,0.0,0.0,0.0,0.744776,0.0,0.0,0.0,0.9538348,0.0,0.0,0.0,0.7214787,0.0,0.0,0.0,0.38932103,153.11356,1432.4176,1278.9011,820.7692,879.59705,-0.2996826171875,0.03509521484375,0.942138671875,2.609405517578125,-3.72344970703125,1.024322509765625,1.0,4.0,4.0,4.0,1.0,100.0,event
09:28:13.248,0.0,0.0,0.0,0.9993013,0.0,0.0,0.0,0.744776,0.0,0.0,0.0,0.9538348,0.0,0.0,0.0,0.7214787,0.0,0.0,0.0,0.38932103,1121.7583,1496.0806,1445.7142,811.50183,797.8022,-0.2996826171875,0.03509521484375,0.942138671875,2.609405517578125,-3.72344970703125,1.024322509765625,1.0,4.0,4.0,4.0,1.0,100.0,event
09:28:13.248,0.0,0.0,0.0,0.9993013,0.0,0.0,0.0,0.744776,0.0,0.0,0.0,0.9538348,0.0,0.0,0.0,0.7214787,0.0,0.0,0.0,0.38932103,46.336998,582.6374,966.63007,787.72894,804.65204,-0.2996826171875,0.03509521484375,0.942138671875,2.609405517578125,-3.72344970703125,1.024322509765625,1.0,4.0,4.0,4.0,1.0,100.0,event
09:28:13.249,0.0,0.0,0.0,0.9993013,0.0,0.0,0.0,0.744776,0.0,0.0,0.0,0.9538348,0.0,0.0,0.0,0.7214787,0.0,0.0,0.0,0.38932103,0.0,3.6263735,356.1905,794.9817,927.9487,-0.2996826171875,0.03509521484375,0.942138671875,2.609405517578125,-3.72344970703125,1.024322509765625,1.0,4.0,4.0,4.0,1.0,100.0,event
09:28:13.250,0.0,0.0,0.0,0.9993013,0.0,0.0,0.0,0.744776,0.0,0.0,0.0,0.9538348,0.0,0.0,0.0,0.7214787,0.0,0.0,0.0,0.38932103,709.5604,887.6557,1031.5018,823.5897,806.6667,-0.2996826171875,0.03509521484375,0.942138671875,2.609405517578125,-3.72344970703125,1.024322509765625,1.0,4.0,4.0,4.0,1.0,100.0,event
09:28:13.250,0.0,0.0,0.0,0.9993013,0.0,0.0,0.0,0.744776,0.0,0.0,0.0,0.9538348,0.0,0.0,0.0,0.7214787,0.0,0.0,0.0,0.38932103,138.60806,27.399267,0.4029304,834.87177,702.71063,-0.2996826171875,0.03509521484375,0.942138671875,2.609405517578125,-3.72344970703125,1.024322509765625,1.0,4.0,4.0,4.0,1.0,100.0,event
09:28:13.306,0.0,0.0,0.0,0.9993013,0.0,0.0,0.0,0.744776,0.0,0.0,0.0,0.9538348,0.0,0.0,0.0,0.7214787,0.0,0.0,0.0,0.38932103,1171.7216,1343.37,1349.8169,808.68134,751.06226,-0.2996826171875,0.03509521484375,0.942138671875,2.609405517578125,-3.72344970703125,1.024322509765625,1.0,4.0,4.0,4.0,1.0,100.0,event
09:28:13.307,0.0,0.0,0.0,0.9993013,0.0,0.0,0.0,0.744776,0.0,0.0,0.0,0.9538348,0.0,0.0,0.0,0.7214787,0.0,0.0,0.0,0.38932103,104.35897,616.8865,994.83514,800.2198,747.03296,-0.2996826171875,0.03509521484375,0.942138671875,2.609405517578125,-3.72344970703125,1.024322509765625,1.0,4.0,4.0,4.0,1.0,100.0,event
09:28:13.308,0.0,0.0,0.0,0.9993013,0.0,0.0,0.0,0.744776,0.0,0.0,0.0,0.9538348,0.0,0.0,0.0,0.7214787,0.0,0.0,0.0,0.38932103,0.0,176.48352,844.5421,796.99634,739.3773,-0.2996826171875,0.03509521484375,0.942138671875,2.609405517578125,-3.72344970703125,1.024322509765625,1.0,4.0,4.0,4.0,1.0,100.0,event
09:28:13.309,0.0,0.0,0.0,0.9993013,0.0,0.0,0.0,0.744776,0.0,0.0,0.0,0.9538348,0.0,0.0,0.0,0.7214787,0.0,0.0,0.0,0.38932103,649.5238,763.95605,1121.7583,806.26373,766.77655,-0.2996826171875,0.03509521484375,0.942138671875,2.609405517578125,-3.72344970703125,1.024322509765625,1.0,4.0,4.0,4.0,1.0,100.0,event
09:28:13.309,0.0,0.0,0.0,0.9993013,0.0,0.0,0.0,0.744776,0.0,0.0,0.0,0.9538348,0.0,0.0,0.0,0.7214787,0.0,0.0,0.0,0.38932103,95.49451,1380.8425,1303.8828,817.5458,875.56775,-0.2996826171875,0.03509521484375,0.942138671875,2.609405517578125,-3.72344970703125,1.024322509765625,1.0,4.0,4.0,4.0,1.0,100.0,event
09:28:13.310,0.0,0.0,0.0,0.9993013,0.0,0.0,0.0,0.744776,0.0,0.0,0.0,0.9538348,0.0,0.0,0.0,0.7214787,0.0,0.0,0.0,0.38932103,1355.0549,1156.8132,1056.8865,809.0842,922.71063,-0.2996826171875,0.03509521484375,0.942138671875,2.609405517578125,-3.72344970703125,1.024322509765625,1.0,4.0,4.0,4.0,1.0,100.0,event
09:28:13.310,0.0,0.0,0.0,0.9993013,0.0,0.0,0.0,0.744776,0.0,0.0,0.0,0.9538348,0.0,0.0,0.0,0.7214787,0.0,0.0,0.0,0.38932103,278.82785,491.97803,844.5421,801.4286,870.7326,-0.2996826171875,0.03509521484375,0.942138671875,2.609405517578125,-3.72344970703125,1.024322509765625,1.0,4.0,4.0,4.0,1.0,100.0,event
09:28:13.311,0.0,0.0,0.0,0.9993013,0.0,0.0,0.0,0.744776,0.0,0.0,0.0,0.9538348,0.0,0.0,0.0,0.7214787,0.0,0.0,0.0,0.38932103,0.0,243.77289,901.3553,800.2198,757.9121,-0.2996826171875,0.03509521484375,0.942138671875,2.609405517578125,-3.72344970703125,1.024322509765625,1.0,4.0,4.0,4.0,1.0,100.0,event
09:28:13.312,0.0,0.0,0.0,0.9993013,0.0,0.0,0.0,0.744776,0.0,0.0,0.0,0.9538348,0.0,0.0,0.0,0.7214787,0.0,0.0,0.0,0.38932103,490.76923,170.84248,705.12823,817.5458,880.0,-0.2996826171875,0.03509521484375,0.942138671875,2.609405517578125,-3.72344970703125,1.024322509765625,1.0,4.0,4.0,4.0,1.0,100.0,event
09:28:13.312,0.0,0.0,0.0,0.9993013,0.0,0.0,0.0,0.744776,0.0,0.0,0.0,0.9538348,0.0,0.0,0.0,0.7214787,0.0,0.0,0.0,0.38932103,1623.8096,763.95605,891.685,830.84247,1016.99634,-0.2996826171875,0.03509521484375,0.942138671875,2.609405517578125,-3.72344970703125,1.024322509765625,1.0,4.0,4.0,4.0,1.0,100.0,event
09:28:13.313,0.0,0.0,0.0,0.9993013,0.0,0.0,0.0,0.744776,0.0,0.0,0.0,0.9538348,0.0,0.0,0.0,0.7214787,0.0,0.0,0.0,0.38932103,1578.6813,33.040295,1510.989,810.696,711.978,-0.2996826171875,0.03509521484375,0.942138671875,2.609405517578125,-3.72344970703125,1.024322509765625,1.0,4.0,4.0,4.0,1.0,100.0,event
09:28:13.314,0.0,0.0,0.0,0.9993013,0.0,0.0,0.0,0.744776,0.0,0.0,0.0,0.9538348,0.0,0.0,0.0,0.7214787,0.0,0.0,0.0,0.38932103,529.45056,880.80585,1089.9268,796.99634,644.2857,-0.2996826171875,0.03509521484375,0.942138671875,2.609405517578125,-3.72344970703125,1.024322509765625,1.0,4.0,4.0,4.0,1.0,100.0,event
09:28:13.342,0.0,0.0,0.0,0.9993013,0.0,0.0,0.0,0.744776,0.0,0.0,0.0,0.9538348,0.0,0.0,0.0,0.7214787,0.0,0.0,0.0,0.38932103,0.0,128.13187,758.71796,790.14655,718.8278,-0.29742431640625,0.0335693359375,0.944091796875,2.13836669921875,-3.656158447265625,0.500946044921875,1.0,4.0,4.0,4.0,1.0,100.0,event
09:28:13.343,0.0,0.0,0.0,0.9993013,0.0,0.0,0.0,0.744776,0.0,0.0,0.0,0.9538348,0.0,0.0,0.0,0.7214787,0.0,0.0,0.0,0.38932103,510.51282,655.9707,1083.8828,810.696,691.8315,-0.29742431640625,0.0335693359375,0.944091796875,2.13836669921875,-3.656158447265625,0.500946044921875,1.0,4.0,4.0,4.0,1.0,100.0,event
09:28:13.343,0.0,0.0,0.0,0.9993013,0.0,0.0,0.0,0.744776,0.0,0.0,0.0,0.9538348,0.0,0.0,0.0,0.7214787,0.0,0.0,0.0,0.38932103,1622.6007,1488.4249,1531.5385,828.4249,735.34796,-0.29742431640625,0.0335693359375,0.944091796875,2.13836669921875,-3.656158447265625,0.500946044921875,1.0,4.0,4.0,4.0,1.0,100.0,event
09:28:13.344,0.0,0.0,0.0,1.0119146,0.0,0.0,0.0,0.71216667,0.0,0.0,0.0,0.8991246,0.0,0.0,0.0,0.7197373,0.0,0.0,0.0,0.4001712,1608.9011,1500.5128,1431.2087,805.05493,776.4469,-0.29742431640625,0.0335693359375,0.944091796875,2.13836669921875,-3.656158447265625,0.500946044921875,1.0,4.0,4.0,4.0,1.0,100.0,event
09:28:13.348,0.0,0.0,0.0,1.0119146,0.0,0.0,0.0,0.71216667,0.0,0.0,0.0,0.8991246,0.0,0.0,0.0,0.7197373,0.0,0.0,0.0,0.4001712,601.978,725.2747,917.8755,791.75824,752.674,-0.29742431640625,0.0335693359375,0.944091796875,2.13836669921875,-3.656158447265625,0.500946044921875,1.0,4.0,4.0,4.0,1.0,100.0,event
09:28:13.349,0.0,0.0,0.0,1.0119146,0.0,0.0,0.0,0.71216667,0.0,0.0,0.0,0.8991246,0.0,0.0,0.0,0.7197373,0.0,0.0,0.0,0.4001712,311.86813,310.65933,828.022,796.5934,857.4359,-0.29742431640625,0.0335693359375,0.944091796875,2.13836669921875,-3.656158447265625,0.500946044921875,1.0,4.0,4.0,4.0,1.0,100.0,event
09:28:13.349,0.0,0.0,0.0,1.0119146,0.0,0.0,0.0,0.71216667,0.0,0.0,0.0,0.8991246,0.0,0.0,0.0,0.7197373,0.0,0.0,0.0,0.4001712,0.0,121.28205,725.2747,784.5055,811.9048,-0.29742431640625,0.0335693359375,0.944091796875,2.13836669921875,-3.656158447265625,0.500946044921875,1.0,4.0,4.0,4.0,1.0,100.0,event
09:28:13.350,0.0,0.0,0.0,1.0119146,0.0,0.0,0.0,0.71216667,0.0,0.0,0.0,0.8991246,0.0,0.0,0.0,0.7197373,0.0,0.0,0.0,0.4001712,1405.0183,967.8388,1021.8315,827.2161,933.9927,-0.29742431640625,0.0335693359375,0.944091796875,2.13836669921875,-3.656158447265625,0.500946044921875,1.0,4.0,4.0,4.0,1.0,100.0,event
09:28:13.351,0.0,0.0,0.0,1.0119146,0.0,0.0,0.0,0.71216667,0.0,0.0,0.0,0.8991246,0.0,0.0,0.0,0.7197373,0.0,0.0,0.0,0.4001712,103.95605,712.7839,664.43225,820.7692,1114.5055,-0.29742431640625,0.0335693359375,0.944091796875,2.13836669921875,-3.656158447265625,0.500946044921875,1.0,4.0,4.0,4.0,1.0,100.0,event
09:28:13.351,0.0,0.0,0.0,1.0119146,0.0,0.0,0.0,0.71216667,0.0,0.0,0.0,0.8991246,0.0,0.0,0.0,0.7197373,0.0,0.0,0.0,0.4001712,829.2308,283.663,535.4945,788.93774,989.59705,-0.29742431640625,0.0335693359375,0.944091796875,2.13836669921875,-3.656158447265625,0.500946044921875,1.0,4.0,4.0,4.0,1.0,100.0,event
09:28:13.352,0.0,0.0,0.0,1.0119146,0.0,0.0,0.0,0.71216667,0.0,0.0,0.0,0.8991246,0.0,0.0,0.0,0.7197373,0.0,0.0,0.0,0.4001712,0.0,355.3846,880.80585,774.83514,713.9927,-0.29742431640625,0.0335693359375,0.944091796875,2.13836669921875,-3.656158447265625,0.500946044921875,1.0,4.0,4.0,4.0,1.0,100.0,event
09:28:13.353,0.0,0.0,0.0,1.0119146,0.0,0.0,0.0,0.71216667,0.0,0.0,0.0,0.8991246,0.0,0.0,0.0,0.7197373,0.0,0.0,0.0,0.4001712,120.47619,331.2088,862.27106,782.49084,721.6484,-0.29742431640625,0.0335693359375,0.944091796875,2.13836669921875,-3.656158447265625,0.500946044921875,1.0,4.0,4.0,4.0,1.0,100.0,event
09:28:13.375,0.0,0.0,0.0,1.0119146,0.0,0.0,0.0,0.71216667,0.0,0.0,0.0,0.8991246,0.0,0.0,0.0,0.7197373,0.0,0.0,0.0,0.4001712,1184.2124,1006.9231,1125.3846,807.0696,739.3773,-0.300048828125,0.0352783203125,0.94476318359375,2.3028564453125,-2.938385009765625,-0.246734619140625,1.0,4.0,4.0,4.0,1.0,100.0,event
09:28:13.376,0.0,0.0,0.0,1.0119146,0.0,0.0,0.0,0.71216667,0.0,0.0,0.0,0.8991246,0.0,0.0,0.0,0.7197373,0.0,0.0,0.0,0.4001712,166.00732,74.13919,1552.8938,819.15753,701.50183,-0.300048828125,0.0352783203125,0.94476318359375,2.3028564453125,-2.938385009765625,-0.246734619140625,1.0,4.0,4.0,4.0,1.0,100.0,event
09:28:13.377,0.0,0.0,0.0,1.0119146,0.0,0.0,0.0,0.71216667,0.0,0.0,0.0,0.8991246,0.0,0.0,0.0,0.7197373,0.0,0.0,0.0,0.4001712,907.3993,1264.7986,1280.9158,805.4579,709.5604,-0.300048828125,0.0352783203125,0.94476318359375,2.3028564453125,-2.938385009765625,-0.246734619140625,1.0,4.0,4.0,4.0,1.0,100.0,event
09:28:13.377,0.0,0.0,0.0,1.0119146,0.0,0.0,0.0,0.71216667,0.0,0.0,0.0,0.8991246,0.0,0.0,0.0,0.7197373,0.0,0.0,0.0,0.4001712,0.0,305.8242,763.95605,787.72894,712.381,-0.300048828125,0.0352783203125,0.94476318359375,2.3028564453125,-2.938385009765625,-0.246734619140625,1.0,4.0,4.0,4.0,1.0,100.0,event
09:28:13.378,0.0,0.0,0.0,1.0119146,0.0,0.0,0.0,0.71216667,0.0,0.0,0.0,0.8991246,0.0,0.0,0.0,0.7197373,0.0,0.0,0.0,0.4001712,24.981686,291.72162,847.3626,782.8938,717.619,-0.300048828125,0.0352783203125,0.94476318359375,2.3028564453125,-2.938385009765625,-0.246734619140625,1.0,4.0,4.0,4.0,1.0,100.0,event
09:28:13.378,0.0,0.0,0.0,1.0119146,0.0,0.0,0.0,0.71216667,0.0,0.0,0.0,0.8991246,0.0,0.0,0.0,0.7197373,0.0,0.0,0.0,0.4001712,1003.2967,1035.5311,1139.4872,796.1905,816.337,-0.300048828125,0.0352783203125,0.94476318359375,2.3028564453125,-2.938385009765625,-0.246734619140625,1.0,4.0,4.0,4.0,1.0,100.0,event
09:28:13.379,0.0,0.0,0.0,1.0119146,0.0,0.0,0.0,0.71216667,0.0,0.0,0.0,0.8991246,0.0,0.0,0.0,0.7197373,0.0,0.0,0.0,0.4001712,174.46887,1531.1355,1279.3041,803.0403,893.69965,-0.300048828125,0.0352783203125,0.94476318359375,2.3028564453125,-2.938385009765625,-0.246734619140625,1.0,4.0,4.0,4.0,1.0,100.0,event
09:28:13.379,0.0,0.0,0.0,1.0119146,0.0,0.0,0.0,0.71216667,0.0,0.0,0.0,0.8991246,0.0,0.0,0.0,0.7197373,0.0,0.0,0.0,0.4001712,930.3663,794.17584,734.5421,807.8755,953.73627,-0.300048828125,0.0352783203125,0.94476318359375,2.3028564453125,-2.938385009765625,-0.246734619140625,1.0,4.0,4.0,4.0,1.0,100.0,event
09:28:13.380,0.0,0.0,0.0,1.0119146,0.0,0.0,0.0,0.71216667,0.0,0.0,0.0,0.8991246,0.0,0.0,0.0,0.7197373,0.0,0.0,0.0,0.4001712,0.0,0.0,196.63004,799.41394,979.5238,-0.300048828125,0.0352783203125,0.94476318359375,2.3028564453125,-2.938385009765625,-0.246734619140625,1.0,4.0,4.0,4.0,1.0,100.0,event
09:28:13.381,0.0,0.0,0.0,1.0119146,0.0,0.0,0.0,0.71216667,0.0,0.0,0.0,0.8991246,0.0,0.0,0.0,0.7197373,0.0,0.0,0.0,0.4001712,886.4469,1105.641,1276.4835,793.36993,731.7216,-0.300048828125,0.0352783203125,0.94476318359375,2.3028564453125,-2.938385009765625,-0.246734619140625,1.0,4.0,4.0,4.0,1.0,100.0,event
09:28:13.381,0.0,0.0,0.0,1.0119146,0.0,0.0,0.0,0.71216667,0.0,0.0,0.0,0.8991246,0.0,0.0,0.0,0.7197373,0.0,0.0,0.0,0.4001712,0.0,256.66666,765.16486,779.67035,788.93774,-0.300048828125,0.0352783203125,0.94476318359375,2.3028564453125,-2.938385009765625,-0.246734619140625,1.0,4.0,4.0,4.0,1.0,100.0,event
09:28:13.382,0.0,0.0,0.0,1.0119146,0.0,0.0,0.0,0.71216667,0.0,0.0,0.0,0.8991246,0.0,0.0,0.0,0.7197373,0.0,0.0,0.0,0.4001712,168.82784,1502.5275,1284.1392,808.2784,828.022,-0.300048828125,0.0352783203125,0.94476318359375,2.3028564453125,-2.938385009765625,-0.246734619140625,1.0,4.0,4.0,4.0,1.0,100.0,event
09:28:13.452,0.0,0.0,0.0,1.0119146,0.0,0.0,0.0,0.71216667,0.0,0.0,0.0,0.8991246,0.0,0.0,0.0,0.7197373,0.0,0.0,0.0,0.4001712,1090.3297,1329.6703,1222.0879,798.20514,796.1905,-0.2958984375,0.03497314453125,0.95068359375,2.100982666015625,-2.684173583984375,-0.067291259765625,1.0,4.0,4.0,4.0,1.0,100.0,event
09:28:13.454,0.0,0.0,0.0,1.0119146,0.0,0.0,0.0,0.71216667,0.0,0.0,0.0,0.8991246,0.0,0.0,0.0,0.7197373,0.0,0.0,0.0,0.4001712,43.919415,743.00366,1100.8059,771.6117,705.9341,-0.2958984375,0.03497314453125,0.95068359375,2.100982666015625,-2.684173583984375,-0.067291259765625,1.0,4.0,4.0,4.0,1.0,100.0,event
09:28:13.454,0.0,0.0,0.0,1.0119146,0.0,0.0,0.0,0.71216667,0.0,0.0,0.0,0.8991246,0.0,0.0,0.0,0.7197373,0.0,0.0,0.0,0.4001712,0.0,283.663,894.5055,762.3443,699.89014,-0.2958984375,0.03497314453125,0.95068359375,2.100982666015625,-2.684173583984375,-0.067291259765625,1.0,4.0,4.0,4.0,1.0,100.0,event
09:28:13.455,0.0,0.0,0.0,1.0119146,0.0,0.0,0.0,0.71216667,0.0,0.0,0.0,0.8991246,0.0,0.0,0.0,0.7197373,0.0,0.0,0.0,0.4001712,691.8315,780.07324,1059.3041,786.1172,733.3333,-0.2958984375,0.03497314453125,0.95068359375,2.100982666015625,-2.684173583984375,-0.067291259765625,1.0,4.0,4.0,4.0,1.0,100.0,event
09:28:13.456,0.0,0.0,0.0,1.0119146,0.0,0.0,0.0,0.71216667,0.0,0.0,0.0,0.8991246,0.0,0.0,0.0,0.7197373,0.0,0.0,0.0,0.4001712,141.02563,1615.751,1460.6227,802.23444,716.8132,-0.2958984375,0.03497314453125,0.95068359375,2.100982666015625,-2.684173583984375,-0.067291259765625,1.0,4.0,4.0,4.0,1.0,100.0,event
09:28:13.457,0.0,0.0,0.0,1.0051935,0.0,0.0,0.0,0.6931217,0.0,0.0,0.0,0.8463505,0.0,0.0,0.0,0.7229651,0.0,0.0,0.0,0.40944096,1167.6923,1279.3041,1228.1318,797.8022,733.73627,-0.2958984375,0.03497314453125,0.95068359375,2.100982666015625,-2.684173583984375,-0.067291259765625,1.0,4.0,4.0,4.0,1.0,100.0,event
09:28:13.460,0.0,0.0,0.0,1.0051935,0.0,0.0,0.0,0.6931217,0.0,0.0,0.0,0.8463505,0.0,0.0,0.0,0.7229651,0.0,0.0,0.0,0.40944096,83.809525,326.37363,632.6007,781.685,907.8022,-0.2958984375,0.03497314453125,0.95068359375,2.100982666015625,-2.684173583984375,-0.067291259765625,1.0,4.0,4.0,4.0,1.0,100.0,event
09:28:13.461,0.0,0.0,0.0,1.0051935,0.0,0.0,0.0,0.6931217,0.0,0.0,0.0,0.8463505,0.0,0.0,0.0,0.7229651,0.0,0.0,0.0,0.40944096,0.0,0.0,242.96703,789.7436,1008.93774,-0.2958984375,0.03497314453125,0.95068359375,2.100982666015625,-2.684173583984375,-0.067291259765625,1.0,4.0,4.0,4.0,1.0,100.0,event
09:28:13.462,0.0,0.0,0.0,1.0051935,0.0,0.0,0.0,0.6931217,0.0,0.0,0.0,0.8463505,0.0,0.0,0.0,0.7229651,0.0,0.0,0.0,0.40944096,684.17584,774.43225,854.61536,809.4872,814.3223,-0.2958984375,0.03497314453125,0.95068359375,2.100982666015625,-2.684173583984375,-0.067291259765625,1.0,4.0,4.0,4.0,1.0,100.0,event
09:28:13.463,0.0,0.0,0.0,1.0051935,0.0,0.0,0.0,0.6931217,0.0,0.0,0.0,0.8463505,0.0,0.0,0.0,0.7229651,0.0,0.0,0.0,0.40944096,113.62637,1639.1208,1583.5165,803.8461,732.1245,-0.2958984375,0.03497314453125,0.95068359375,2.100982666015625,-2.684173583984375,-0.067291259765625,1.0,4.0,4.0,4.0,1.0,100.0,event
09:28:13.464,0.0,0.0,0.0,1.0051935,0.0,0.0,0.0,0.6931217,0.0,0.0,0.0,0.8463505,0.0,0.0,0.0,0.7229651,0.0,0.0,0.0,0.40944096,1289.3773,1381.2454,1349.414,798.60803,780.87915,-0.2958984375,0.03497314453125,0.95068359375,2.100982666015625,-2.684173583984375,-0.067291259765625,1.0,4.0,4.0,4.0,1.0,100.0,event
09:28:13.465,0.0,0.0,0.0,1.0051935,0.0,0.0,0.0,0.6931217,0.0,0.0,0.0,0.8463505,0.0,0.0,0.0,0.7229651,0.0,0.0,0.0,0.40944096,214.7619,492.78387,834.0659,773.22345,786.9231,-0.2958984375,0.03497314453125,0.95068359375,2.100982666015625,-2.684173583984375,-0.067291259765625,1.0,4.0,4.0,4.0,1.0,100.0,event
09:28:13.491,0.0,0.0,0.0,1.0051935,0.0,0.0,0.0,0.6931217,0.0,0.0,0.0,0.8463505,0.0,0.0,0.0,0.7229651,0.0,0.0,0.0,0.40944096,625.7509,822.381,1186.227,798.60803,670.4762,-0.30047607421875,0.0340576171875,0.94134521484375,1.891632080078125,-3.72344970703125,0.6280517578125,1.0,4.0,4.0,4.0,1.0,100.0,event
09:28:13.491,0.0,0.0,0.0,1.0051935,0.0,0.0,0.0,0.6931217,0.0,0.0,0.0,0.8463505,0.0,0.0,0.0,0.7229651,0.0,0.0,0.0,0.40944096,0.0,136.19048,794.17584,770.40295,734.5421,-0.30047607421875,0.0340576171875,0.94134521484375,1.891632080078125,-3.72344970703125,0.6280517578125,1.0,4.0,4.0,4.0,1.0,100.0,event
09:28:13.492,0.0,0.0,0.0,1.0051935,0.0,0.0,0.0,0.6931217,0.0,0.0,0.0,0.8463505,0.0,0.0,0.0,0.7229651,0.0,0.0,0.0,0.40944096,42.71062,1280.5128,1221.2821,821.1722,812.71063,-0.30047607421875,0.0340576171875,0.94134521484375,1.891632080078125,-3.72344970703125,0.6280517578125,1.0,4.0,4.0,4.0,1.0,100.0,event
09:28:13.492,0.0,0.0,0.0,1.0051935,0.0,0.0,0.0,0.6931217,0.0,0.0,0.0,0.8463505,0.0,0.0,0.0,0.7229651,0.0,0.0,0.0,0.40944096,1519.8535,1308.7179,1168.4982,805.05493,848.5714,-0.30047607421875,0.0340576171875,0.94134521484375,1.891632080078125,-3.72344970703125,0.6280517578125,1.0,4.0,4.0,4.0,1.0,100.0,event
09:28:13.493,0.0,0.0,0.0,1.0051935,0.0,0.0,0.0,0.6931217,0.0,0.0,0.0,0.8463505,0.0,0.0,0.0,0.7229651,0.0,0.0,0.0,0.40944096,491.5751,852.6007,1109.2675,788.5348,745.42126,-0.30047607421875,0.0340576171875,0.94134521484375,1.891632080078125,-3.72344970703125,0.6280517578125,1.0,4.0,4.0,4.0,1.0,100.0,event
09:28:13.493,0.0,0.0,0.0,1.0051935,0.0,0.0,0.0,0.6931217,0.0,0.0,0.0,0.8463505,0.0,0.0,0.0,0.7229651,0.0,0.0,0.0,0.40944096,0.0,180.51282,836.4835,788.93774,744.21246,-0.30047607421875,0.0340576171875,0.94134521484375,1.891632080078125,-3.72344970703125,0.6280517578125,1.0,4.0,4.0,4.0,1.0,100.0,event
09:28:13.493,0.0,0.0,0.0,1.0051935,0.0,0.0,0.0,0.6931217,0.0,0.0,0.0,0.8463505,0.0,0.0,0.0,0.7229651,0.0,0.0,0.0,0.40944096,408.1685,0.0,529.0476,801.4286,973.47986,-0.30047607421875,0.0340576171875,0.94134521484375,1.891632080078125,-3.72344970703125,0.6280517578125,1.0,4.0,4.0,4.0,1.0,100.0,event
09:28:13.494,0.0,0.0,0.0,1.0051935,0.0,0.0,0.0,0.6931217,0.0,0.0,0.0,0.8463505,0.0,0.0,0.0,0.7229651,0.0,0.0,0.0,0.40944096,1540.403,660.0,789.7436,826.0073,1010.54944,-0.30047607421875,0.0340576171875,0.94134521484375,1.891632080078125,-3.72344970703125,0.6280517578125,1.0,4.0,4.0,4.0,1.0,100.0,event
09:28:13.494,0.0,0.0,0.0,1.0051935,0.0,0.0,0.0,0.6931217,0.0,0.0,0.0,0.8463505,0.0,0.0,0.0,0.7229651,0.0,0.0,0.0,0.40944096,24.578754,23.369963,1467.4725,828.4249,718.8278,-0.30047607421875,0.0340576171875,0.94134521484375,1.891632080078125,-3.72344970703125,0.6280517578125,1.0,4.0,4.0,4.0,1.0,100.0,event
09:28:13.494,0.0,0.0,0.0,1.0051935,0.0,0.0,0.0,0.6931217,0.0,0.0,0.0,0.8463505,0.0,0.0,0.0,0.7229651,0.0,0.0,0.0,0.40944096,686.5934,1040.7693,1203.956,789.34064,738.1685,-0.30047607421875,0.0340576171875,0.94134521484375,1.891632080078125,-3.72344970703125,0.6280517578125,1.0,4.0,4.0,4.0,1.0,100.0,event
09:28:13.495,0.0,0.0,0.0,1.0051935,0.0,0.0,0.0,0.6931217,0.0,0.0,0.0,0.8463505,0.0,0.0,0.0,0.7229651,0.0,0.0,0.0,0.40944096,0.0,206.7033,857.4359,768.3883,761.9414,-0.30047607421875,0.0340576171875,0.94134521484375,1.891632080078125,-3.72344970703125,0.6280517578125,1.0,4.0,4.0,4.0,1.0,100.0,event
09:28:13.495,0.0,0.0,0.0,1.0051935,0.0,0.0,0.0,0.6931217,0.0,0.0,0.0,0.8463505,0.0,0.0,0.0,0.7229651,0.0,0.0,0.0,0.40944096,443.62637,579.011,1093.5531,792.5641,718.022,-0.30047607421875,0.0340576171875,0.94134521484375,1.891632080078125,-3.72344970703125,0.6280517578125,1.0,4.0,4.0,4.0,1.0,100.0,event
09:28:13.561,0.0,0.0,0.0,1.0051935,0.0,0.0,0.0,0.6931217,0.0,0.0,0.0,0.8463505,0.0,0.0,0.0,0.7229651,0.0,0.0,0.0,0.40944096,1550.8792,1417.9121,1512.1978,809.0842,708.7546,-0.30047607421875,0.0340576171875,0.94134521484375,1.891632080078125,-3.72344970703125,0.6280517578125,1.0,4.0,4.0,4.0,1.0,100.0,event
09:28:13.563,0.0,0.0,0.0,1.0051935,0.0,0.0,0.0,0.6931217,0.0,0.0,0.0,0.8463505,0.0,0.0,0.0,0.7229651,0.0,0.0,0.0,0.40944096,43.919415,1577.0696,1505.348,813.1135,760.7326,-0.30047607421875,0.0340576171875,0.94134521484375,1.891632080078125,-3.72344970703125,0.6280517578125,1.0,4.0,4.0,4.0,1.0,100.0,event
09:28:13.564,0.0,0.0,0.0,1.0051935,0.0,0.0,0.0,0.6931217,0.0,0.0,0.0,0.8463505,0.0,0.0,0.0,0.7229651,0.0,0.0,0.0,0.40944096,739.7802,738.1685,948.9011,803.44324,795.78754,-0.30047607421875,0.0340576171875,0.94134521484375,1.891632080078125,-3.72344970703125,0.6280517578125,1.0,4.0,4.0,4.0,1.0,100.0,event
09:28:13.565,0.0,0.0,0.0,1.0051935,0.0,0.0,0.0,0.6931217,0.0,0.0,0.0,0.8463505,0.0,0.0,0.0,0.7229651,0.0,0.0,0.0,0.40944096,246.19048,482.30768,1039.5604,800.6227,691.4286,-0.30047607421875,0.0340576171875,0.94134521484375,1.891632080078125,-3.72344970703125,0.6280517578125,1.0,4.0,4.0,4.0,1.0,100.0,event
09:28:13.565,0.0,0.0,0.0,1.0051935,0.0,0.0,0.0,0.6931217,0.0,0.0,0.0,0.8463505,0.0,0.0,0.0,0.7229651,0.0,0.0,0.0,0.40944096,0.0,93.88278,719.6337,796.5934,745.42126,-0.30047607421875,0.0340576171875,0.94134521484375,1.891632080078125,-3.72344970703125,0.6280517578125,1.0,4.0,4.0,4.0,1.0,100.0,event
09:28:13.566,0.0,0.0,0.0,1.0051935,0.0,0.0,0.0,0.6931217,0.0,0.0,0.0,0.8463505,0.0,0.0,0.0,0.7229651,0.0,0.0,0.0,0.40944096,1317.1794,1139.4872,1243.0403,810.293,855.0183,-0.30047607421875,0.0340576171875,0.94134521484375,1.891632080078125,-3.72344970703125,0.6280517578125,1.0,4.0,4.0,4.0,1.0,100.0,event
09:28:13.566,0.0,0.0,0.0,1.0051935,0.0,0.0,0.0,0.6931217,0.0,0.0,0.0,0.8463505,0.0,0.0,0.0,0.7229651,0.0,0.0,0.0,0.40944096,132.16118,773.22345,772.8205,813.91943,1275.6776,-0.30047607421875,0.0340576171875,0.94134521484375,1.891632080078125,-3.72344970703125,0.6280517578125,1.0,4.0,4.0,4.0,1.0,100.0,event
09:28:13.567,0.0,0.0,0.0,0.9837769,0.0,0.0,0.0,0.6750076,0.0,0.0,0.0,0.81391907,0.0,0.0,0.0,0.7268417,0.0,0.0,0.0,0.4146177,868.315,359.011,633.8095,814.3223,1099.597,-0.30047607421875,0.0340576171875,0.94134521484375,1.891632080078125,-3.72344970703125,0.6280517578125,1.0,4.0,4.0,4.0,1.0,100.0,event
09:28:13.572,0.0,0.0,0.0,0.9837769,0.0,0.0,0.0,0.6750076,0.0,0.0,0.0,0.81391907,0.0,0.0,0.0,0.7268417,0.0,0.0,0.0,0.4146177,0.0,486.73993,1036.7399,795.38464,713.9927,-0.30047607421875,0.0340576171875,0.94134521484375,1.891632080078125,-3.72344970703125,0.6280517578125,1.0,4.0,4.0,4.0,1.0,100.0,event
09:28:13.572,0.0,0.0,0.0,0.9837769,0.0,0.0,0.0,0.6750076,0.0,0.0,0.0,0.81391907,0.0,0.0,0.0,0.7268417,0.0,0.0,0.0,0.4146177,46.739925,340.87912,938.022,795.38464,727.6923,-0.30047607421875,0.0340576171875,0.94134521484375,1.891632080078125,-3.72344970703125,0.6280517578125,1.0,4.0,4.0,4.0,1.0,100.0,event
09:28:13.573,0.0,0.0,0.0,0.9837769,0.0,0.0,0.0,0.6750076,0.0,0.0,0.0,0.81391907,0.0,0.0,0.0,0.7268417,0.0,0.0,0.0,0.4146177,1053.2601,996.04395,1178.9744,805.05493,753.47986,-0.30047607421875,0.0340576171875,0.94134521484375,1.891632080078125,-3.72344970703125,0.6280517578125,1.0,4.0,4.0,4.0,1.0,100.0,event
09:28:13.574,0.0,0.0,0.0,0.9837769,0.0,0.0,0.0,0.6750076,0.0,0.0,0.0,0.81391907,0.0,0.0,0.0,0.7268417,0.0,0.0,0.0,0.4146177,178.49817,50.76923,1618.5714,804.65204,765.16486,-0.30047607421875,0.0340576171875,0.94134521484375,1.891632080078125,-3.72344970703125,0.6280517578125,1.0,4.0,4.0,4.0,1.0,100.0,event
09:28:13.599,0.0,0.0,0.0,0.9837769,0.0,0.0,0.0,0.6750076,0.0,0.0,0.0,0.81391907,0.0,0.0,0.0,0.7268417,0.0,0.0,0.0,0.4146177,960.18317,1349.8169,1400.586,816.337,766.3736,-0.30072021484375,0.03582763671875,0.94586181640625,2.22808837890625,-3.9178466796875,0.4486083984375,1.0,4.0,4.0,4.0,1.0,100.0,event
09:28:13.601,0.0,0.0,0.0,0.9837769,0.0,0.0,0.0,0.6750076,0.0,0.0,0.0,0.81391907,0.0,0.0,0.0,0.7268417,0.0,0.0,0.0,0.4146177,0.0,400.51282,894.5055,808.2784,775.64105,-0.30072021484375,0.03582763671875,0.94586181640625,2.22808837890625,-3.9178466796875,0.4486083984375,1.0,4.0,4.0,4.0,1.0,100.0,event
09:28:13.601,0.0,0.0,0.0,0.9837769,0.0,0.0,0.0,0.6750076,0.0,0.0,0.0,0.81391907,0.0,0.0,0.0,0.7268417,0.0,0.0,0.0,0.4146177,0.0,258.6813,901.3553,796.5934,771.2088,-0.30072021484375,0.03582763671875,0.94586181640625,2.22808837890625,-3.9178466796875,0.4486083984375,1.0,4.0,4.0,4.0,1.0,100.0,event
09:28:13.602,0.0,0.0,0.0,0.9837769,0.0,0.0,0.0,0.6750076,0.0,0.0,0.0,0.81391907,0.0,0.0,0.0,0.7268417,0.0,0.0,0.0,0.4146177,967.8388,1132.6373,1282.5275,817.5458,773.6264,-0.30072021484375,0.03582763671875,0.94586181640625,2.22808837890625,-3.9178466796875,0.4486083984375,1.0,4.0,4.0,4.0,1.0,100.0,event
09:28:13.602,0.0,0.0,0.0,0.9837769,0.0,0.0,0.0,0.6750076,0.0,0.0,0.0,0.81391907,0.0,0.0,0.0,0.7268417,0.0,0.0,0.0,0.4146177,54.395603,1560.5494,1385.2748,823.1868,791.3553,-0.30072021484375,0.03582763671875,0.94586181640625,2.22808837890625,-3.9178466796875,0.4486083984375,1.0,4.0,4.0,4.0,1.0,100.0,event
09:28:13.603,0.0,0.0,0.0,0.9837769,0.0,0.0,0.0,0.6750076,0.0,0.0,0.0,0.81391907,0.0,0.0,0.0,0.7268417,0.0,0.0,0.0,0.4146177,751.8681,887.25275,966.2271,799.81683,850.989,-0.30072021484375,0.03582763671875,0.94586181640625,2.22808837890625,-3.9178466796875,0.4486083984375,1.0,4.0,4.0,4.0,1.0,100.0,event
09:28:13.604,0.0,0.0,0.0,0.9837769,0.0,0.0,0.0,0.6750076,0.0,0.0,0.0,0.81391907,0.0,0.0,0.0,0.7268417,0.0,0.0,0.0,0.4146177,8.864469,143.84616,602.381,788.5348,852.6007,-0.30072021484375,0.03582763671875,0.94586181640625,2.22808837890625,-3.9178466796875,0.4486083984375,1.0,4.0,4.0,4.0,1.0,100.0,event
09:28:13.605,0.0,0.0,0.0,0.9837769,0.0,0.0,0.0,0.6750076,0.0,0.0,0.0,0.81391907,0.0,0.0,0.0,0.7268417,0.0,0.0,0.0,0.4146177,0.0,0.0,576.1905,802.23444,763.5531,-0.30072021484375,0.03582763671875,0.94586181640625,2.22808837890625,-3.9178466796875,0.4486083984375,1.0,4.0,4.0,4.0,1.0,100.0,event
09:28:13.606,0.0,0.0,0.0,0.9837769,0.0,0.0,0.0,0.6750076,0.0,0.0,0.0,0.81391907,0.0,0.0,0.0,0.7268417,0.0,0.0,0.0,0.4146177,705.12823,771.6117,984.35895,808.68134,653.95605,-0.30072021484375,0.03582763671875,0.94586181640625,2.22808837890625,-3.9178466796875,0.4486083984375,1.0,4.0,4.0,4.0,1.0,100.0,event
09:28:13.607,0.0,0.0,0.0,0.9837769,0.0,0.0,0.0,0.6750076,0.0,0.0,0.0,0.81391907,0.0,0.0,0.0,0.7268417,0.0,0.0,0.0,0.4146177,1152.7839,640.65936,692.23444,814.3223,1041.1721,-0.30072021484375,0.03582763671875,0.94586181640625,2.22808837890625,-3.9178466796875,0.4486083984375,1.0,4.0,4.0,4.0,1.0,100.0,event
09:28:13.607,0.0,0.0,0.0,0.9837769,0.0,0.0,0.0,0.6750076,0.0,0.0,0.0,0.81391907,0.0,0.0,0.0,0.7268417,0.0,0.0,0.0,0.4146177,150.29305,1054.8718,945.2747,806.26373,911.8315,-0.30072021484375,0.03582763671875,0.94586181640625,2.22808837890625,-3.9178466796875,0.4486083984375,1.0,4.0,4.0,4.0,1.0,100.0,event
09:28:13.608,0.0,0.0,0.0,0.9837769,0.0,0.0,0.0,0.6750076,0.0,0.0,0.0,0.81391907,0.0,0.0,0.0,0.7268417,0.0,0.0,0.0,0.4146177,82.60073,622.9304,1011.75824,803.8461,727.28937,-0.30072021484375,0.03582763671875,0.94586181640625,2.22808837890625,-3.9178466796875,0.4486083984375,1.0,4.0,4.0,4.0,1.0,100.0,event
09:28:13.634,0.0,0.0,0.0,0.9837769,0.0,0.0,0.0,0.6750076,0.0,0.0,0.0,0.81391907,0.0,0.0,0.0,0.7268417,0.0,0.0,0.0,0.4146177,0.0,397.69232,1008.5348,789.7436,740.18317,-0.2969970703125,0.03106689453125,0.94219970703125,2.04864501953125,-3.177642822265625,-0.1495361328125,1.0,4.0,4.0,4.0,1.0,100.0,event
09:28:13.635,0.0,0.0,0.0,0.9837769,0.0,0.0,0.0,0.6750076,0.0,0.0,0.0,0.81391907,0.0,0.0,0.0,0.7268417,0.0,0.0,0.0,0.4146177,627.76556,359.81686,755.09155,811.0989,936.4103,-0.2969970703125,0.03106689453125,0.94219970703125,2.04864501953125,-3.177642822265625,-0.1495361328125,1.0,4.0,4.0,4.0,1.0,100.0,event
09:28:13.636,0.0,0.0,0.0,0.9837769,0.0,0.0,0.0,0.6750076,0.0,0.0,0.0,0.81391907,0.0,0.0,0.0,0.7268417,0.0,0.0,0.0,0.4146177,98.71795,1153.5897,1122.967,833.2601,883.6264,-0.2969970703125,0.03106689453125,0.94219970703125,2.04864501953125,-3.177642822265625,-0.1495361328125,1.0,4.0,4.0,4.0,1.0,100.0,event
09:28:13.636,0.0,0.0,0.0,0.9837769,0.0,0.0,0.0,0.6750076,0.0,0.0,0.0,0.81391907,0.0,0.0,0.0,0.7268417,0.0,0.0,0.0,0.4146177,1324.4323,1640.3297,1498.9011,815.9341,743.4066,-0.2969970703125,0.03106689453125,0.94219970703125,2.04864501953125,-3.177642822265625,-0.1495361328125,1.0,4.0,4.0,4.0,1.0,100.0,event
09:28:13.637,0.0,0.0,0.0,0.9837769,0.0,0.0,0.0,0.6750076,0.0,0.0,0.0,0.81391907,0.0,0.0,0.0,0.7268417,0.0,0.0,0.0,0.4146177,229.2674,722.8571,992.8205,801.4286,766.77655,-0.2969970703125,0.03106689453125,0.94219970703125,2.04864501953125,-3.177642822265625,-0.1495361328125,1.0,4.0,4.0,4.0,1.0,100.0,event
09:28:13.638,0.0,0.0,0.0,0.9837769,0.0,0.0,0.0,0.6750076,0.0,0.0,0.0,0.81391907,0.0,0.0,0.0,0.7268417,0.0,0.0,0.0,0.4146177,0.0,1.6117216,605.2015,799.41394,865.09155,-0.2969970703125,0.03106689453125,0.94219970703125,2.04864501953125,-3.177642822265625,-0.1495361328125,1.0,4.0,4.0,4.0,1.0,100.0,event
09:28:13.638,0.0,0.0,0.0,0.9837769,0.0,0.0,0.0,0.6750076,0.0,0.0,0.0,0.81391907,0.0,0.0,0.0,0.7268417,0.0,0.0,0.0,0.4146177,596.7399,442.01465,795.38464,816.337,831.6484,-0.2969970703125,0.03106689453125,0.94219970703125,2.04864501953125,-3.177642822265625,-0.1495361328125,1.0,4.0,4.0,4.0,1.0,100.0,event
09:28:13.639,0.0,0.0,0.0,0.9837769,0.0,0.0,0.0,0.6750076,0.0,0.0,0.0,0.81391907,0.0,0.0,0.0,0.7268417,0.0,0.0,0.0,0.4146177,94.28571,1466.2638,1376.0073,820.3663,766.77655,-0.2969970703125,0.03106689453125,0.94219970703125,2.04864501953125,-3.177642822265625,-0.1495361328125,1.0,4.0,4.0,4.0,1.0,100.0,event
09:28:13.640,0.0,0.0,0.0,0.9837769,0.0,0.0,0.0,0.6750076,0.0,0.0,0.0,0.81391907,0.0,0.0,0.0,0.7268417,0.0,0.0,0.0,0.4146177,1317.1794,1344.1758,1335.7142,807.47253,858.24176,-0.2969970703125,0.03106689453125,0.94219970703125,2.04864501953125,-3.177642822265625,-0.1495361328125,1.0,4.0,4.0,4.0,1.0,100.0,event
09:28:13.641,0.0,0.0,0.0,0.9566199,0.0,0.0,0.0,0.6498906,0.0,0.0,0.0,0.8051685,0.0,0.0,0.0,0.72134304,0.0,0.0,0.0,0.4143362,195.82417,148.27838,278.82785,796.5934,1071.392,-0.2969970703125,0.03106689453125,0.94219970703125,2.04864501953125,-3.177642822265625,-0.1495361328125,1.0,4.0,4.0,4.0,1.0,100.0,event
09:28:13.645,0.0,0.0,0.0,0.9566199,0.0,0.0,0.0,0.6498906,0.0,0.0,0.0,0.8051685,0.0,0.0,0.0,0.72134304,0.0,0.0,0.0,0.4143362,0.0,70.51282,329.59708,800.6227,872.3443,-0.2969970703125,0.03106689453125,0.94219970703125,2.04864501953125,-3.177642822265625,-0.1495361328125,1.0,4.0,4.0,4.0,1.0,100.0,event
09:28:13.646,0.0,0.0,0.0,0.9566199,0.0,0.0,0.0,0.6498906,0.0,0.0,0.0,0.8051685,0.0,0.0,0.0,0.72134304,0.0,0.0,0.0,0.4143362,569.7436,856.63007,1167.6923,823.9927,691.02563,-0.2969970703125,0.03106689453125,0.94219970703125,2.04864501953125,-3.177642822265625,-0.1495361328125,1.0,4.0,4.0,4.0,1.0,100.0,event
09:28:13.669,0.0,0.0,0.0,0.9566199,0.0,0.0,0.0,0.6498906,0.0,0.0,0.0,0.8051685,0.0,0.0,0.0,0.72134304,0.0,0.0,0.0,0.4143362,1645.1648,1478.3517,1366.7399,836.08057,813.1135,-0.303466796875,0.03631591796875,0.93939208984375,1.9140625,-3.087921142578125,-0.49346923828125,1.0,4.0,4.0,4.0,1.0,100.0,event
09:28:13.670,0.0,0.0,0.0,0.9566199,0.0,0.0,0.0,0.6498906,0.0,0.0,0.0,0.8051685,0.0,0.0,0.0,0.72134304,0.0,0.0,0.0,0.4143362,593.91943,1052.0513,1178.5714,804.65204,701.9048,-0.303466796875,0.03631591796875,0.93939208984375,1.9140625,-3.087921142578125,-0.49346923828125,1.0,4.0,4.0,4.0,1.0,100.0,event
09:28:13.670,0.0,0.0,0.0,0.9566199,0.0,0.0,0.0,0.6498906,0.0,0.0,0.0,0.8051685,0.0,0.0,0.0,0.72134304,0.0,0.0,0.0,0.4143362,1594.3956,1601.6483,1338.5348,818.7546,786.52014,-0.303466796875,0.03631591796875,0.93939208984375,1.9140625,-3.087921142578125,-0.49346923828125,1.0,4.0,4.0,4.0,1.0,100.0,event
09:28:13.671,0.0,0.0,0.0,0.9566199,0.0,0.0,0.0,0.6498906,0.0,0.0,0.0,0.8051685,0.0,0.0,0.0,0.72134304,0.0,0.0,0.0,0.4143362,0.0,410.5861,953.73627,796.99634,630.18317,-0.303466796875,0.03631591796875,0.93939208984375,1.9140625,-3.087921142578125,-0.49346923828125,1.0,4.0,4.0,4.0,1.0,100.0,event
09:28:13.671,0.0,0.0,0.0,0.9566199,0.0,0.0,0.0,0.6498906,0.0,0.0,0.0,0.8051685,0.0,0.0,0.0,0.72134304,0.0,0.0,0.0,0.4143362,390.03662,421.06226,876.3736,799.011,666.8498,-0.303466796875,0.03631591796875,0.93939208984375,1.9140625,-3.087921142578125,-0.49346923828125,1.0,4.0,4.0,4.0,1.0,100.0,event
09:28:13.672,0.0,0.0,0.0,0.9566199,0.0,0.0,0.0,0.6498906,0.0,0.0,0.0,0.8051685,0.0,0.0,0.0,0.72134304,0.0,0.0,0.0,0.4143362,1504.1392,1091.9414,1075.4213,816.7399,811.0989,-0.303466796875,0.03631591796875,0.93939208984375,1.9140625,-3.087921142578125,-0.49346923828125,1.0,4.0,4.0,4.0,1.0,100.0,event
09:28:13.672,0.0,0.0,0.0,0.9566199,0.0,0.0,0.0,0.6498906,0.0,0.0,0.0,0.8051685,0.0,0.0,0.0,0.72134304,0.0,0.0,0.0,0.4143362,56.813187,1462.6373,1170.1099,815.12823,877.98535,-0.303466796875,0.03631591796875,0.93939208984375,1.9140625,-3.087921142578125,-0.49346923828125,1.0,4.0,4.0,4.0,1.0,100.0,event
09:28:13.673,0.0,0.0,0.0,0.9566199,0.0,0.0,0.0,0.6498906,0.0,0.0,0.0,0.8051685,0.0,0.0,0.0,0.72134304,0.0,0.0,0.0,0.4143362,747.03296,927.5458,1059.7069,796.99634,740.58606,-0.303466796875,0.03631591796875,0.93939208984375,1.9140625,-3.087921142578125,-0.49346923828125,1.0,4.0,4.0,4.0,1.0,100.0,event
09:28:13.673,0.0,0.0,0.0,0.9566199,0.0,0.0,0.0,0.6498906,0.0,0.0,0.0,0.8051685,0.0,0.0,0.0,0.72134304,0.0,0.0,0.0,0.4143362,0.0,136.19048,465.78754,788.5348,856.63007,-0.303466796875,0.03631591796875,0.93939208984375,1.9140625,-3.087921142578125,-0.49346923828125,1.0,4.0,4.0,4.0,1.0,100.0,event
09:28:13.674,0.0,0.0,0.0,0.9566199,0.0,0.0,0.0,0.6498906,0.0,0.0,0.0,0.8051685,0.0,0.0,0.0,0.72134304,0.0,0.0,0.0,0.4143362,272.38095,222.82051,329.19415,796.1905,960.18317,-0.303466796875,0.03631591796875,0.93939208984375,1.9140625,-3.087921142578125,-0.49346923828125,1.0,4.0,4.0,4.0,1.0,100.0,event
09:28:13.674,0.0,0.0,0.0,0.9566199,0.0,0.0,0.0,0.6498906,0.0,0.0,0.0,0.8051685,0.0,0.0,0.0,0.72134304,0.0,0.0,0.0,0.4143362,1380.0366,1307.1062,1338.5348,819.5604,756.30035,-0.303466796875,0.03631591796875,0.93939208984375,1.9140625,-3.087921142578125,-0.49346923828125,1.0,4.0,4.0,4.0,1.0,100.0,event
09:28:13.675,0.0,0.0,0.0,0.9566199,0.0,0.0,0.0,0.6498906,0.0,0.0,0.0,0.8051685,0.0,0.0,0.0,0.72134304,0.0,0.0,0.0,0.4143362,105.970695,1607.2894,1476.337,806.6667,724.0659,-0.303466796875,0.03631591796875,0.93939208984375,1.9140625,-3.087921142578125,-0.49346923828125,1.0,4.0,4.0,4.0,1.0,100.0,event
09:28:13.727,0.0,0.0,0.0,0.9566199,0.0,0.0,0.0,0.6498906,0.0,0.0,0.0,0.8051685,0.0,0.0,0.0,0.72134304,0.0,0.0,0.0,0.4143362,772.8205,833.663,896.1172,782.49084,781.28204,-0.3009033203125,0.037109375,0.9447021484375,1.9140625,-3.06549072265625,-0.2691650390625,1.0,4.0,4.0,4.0,1.0,100.0,event
09:28:13.729,0.0,0.0,0.0,0.9566199,0.0,0.0,0.0,0.6498906,0.0,0.0,0.0,0.8051685,0.0,0.0,0.0,0.72134304,0.0,0.0,0.0,0.4143362,0.0,301.39194,811.50183,792.96704,731.7216,-0.3009033203125,0.037109375,0.9447021484375,1.9140625,-3.06549072265625,-0.2691650390625,1.0,4.0,4.0,4.0,1.0,100.0,event
09:28:13.729,0.0,0.0,0.0,0.9566199,0.0,0.0,0.0,0.6498906,0.0,0.0,0.0,0.8051685,0.0,0.0,0.0,0.72134304,0.0,0.0,0.0,0.4143362,111.20879,572.1612,1057.6923,810.293,640.2564,-0.3009033203125,0.037109375,0.9447021484375,1.9140625,-3.06549072265625,-0.2691650390625,1.0,4.0,4.0,4.0,1.0,100.0,event
09:28:13.730,0.0,0.0,0.0,0.9566199,0.0,0.0,0.0,0.6498906,0.0,0.0,0.0,0.8051685,0.0,0.0,0.0,0.72134304,0.0,0.0,0.0,0.4143362,170.84248,1524.6886,1222.0879,811.0989,861.8681,-0.3009033203125,0.037109375,0.9447021484375,1.9140625,-3.06549072265625,-0.2691650390625,1.0,4.0,4.0,4.0,1.0,100.0,event
09:28:13.730,0.0,0.0,0.0,0.9566199,0.0,0.0,0.0,0.6498906,0.0,0.0,0.0,0.8051685,0.0,0.0,0.0,0.72134304,0.0,0.0,0.0,0.4143362,1135.8608,1197.5092,1235.3846,827.2161,788.1319,-0.3009033203125,0.037109375,0.9447021484375,1.9140625,-3.06549072265625,-0.2691650390625,1.0,4.0,4.0,4.0,1.0,100.0,event
09:28:13.731,0.0,0.0,0.0,0.9566199,0.0,0.0,0.0,0.6498906,0.0,0.0,0.0,0.8051685,0.0,0.0,0.0,0.72134304,0.0,0.0,0.0,0.4143362,0.0,239.74359,687.3993,791.75824,793.36993,-0.3009033203125,0.037109375,0.9447021484375,1.9140625,-3.06549072265625,-0.2691650390625,1.0,4.0,4.0,4.0,1.0,100.0,event
09:28:13.731,0.0,0.0,0.0,0.9566199,0.0,0.0,0.0,0.6498906,0.0,0.0,0.0,0.8051685,0.0,0.0,0.0,0.72134304,0.0,0.0,0.0,0.4143362,882.4176,1030.2931,978.315,798.60803,777.6557,-0.3009033203125,0.037109375,0.9447021484375,1.9140625,-3.06549072265625,-0.2691650390625,1.0,4.0,4.0,4.0,1.0,100.0,event
09:28:13.732,0.0,0.0,0.0,0.9566199,0.0,0.0,0.0,0.6498906,0.0,0.0,0.0,0.8051685,0.0,0.0,0.0,0.72134304,0.0,0.0,0.0,0.4143362,0.0,9.67033,586.26373,785.7143,861.4652,-0.3009033203125,0.037109375,0.9447021484375,1.9140625,-3.06549072265625,-0.2691650390625,1.0,4.0,4.0,4.0,1.0,100.0,event
09:28:13.732,0.0,0.0,0.0,0.9566199,0.0,0.0,0.0,0.6498906,0.0,0.0,0.0,0.8051685,0.0,0.0,0.0,0.72134304,0.0,0.0,0.0,0.4143362,723.663,328.7912,614.4689,808.68134,986.3736,-0.3009033203125,0.037109375,0.9447021484375,1.9140625,-3.06549072265625,-0.2691650390625,1.0,4.0,4.0,4.0,1.0,100.0,event
09:28:13.733,0.0,0.0,0.0,0.9566199,0.0,0.0,0.0,0.6498906,0.0,0.0,0.0,0.8051685,0.0,0.0,0.0,0.72134304,0.0,0.0,0.0,0.4143362,167.61905,1374.7986,1177.3627,799.011,864.2857,-0.3009033203125,0.037109375,0.9447021484375,1.9140625,-3.06549072265625,-0.2691650390625,1.0,4.0,4.0,4.0,1.0,100.0,event
09:28:13.734,0.0,0.0,0.0,0.9566199,0.0,0.0,0.0,0.6498906,0.0,0.0,0.0,0.8051685,0.0,0.0,0.0,0.72134304,0.0,0.0,0.0,0.4143362,1025.0549,1557.326,1398.9744,788.5348,741.79486,-0.3009033203125,0.037109375,0.9447021484375,1.9140625,-3.06549072265625,-0.2691650390625,1.0,4.0,4.0,4.0,1.0,100.0,event
09:28:13.734,0.0,0.0,0.0,0.93432677,0.0,0.0,0.0,0.61671495,0.0,0.0,0.0,0.8005594,0.0,0.0,0.0,0.69898224,0.0,0.0,0.0,0.4132186,0.0,492.78387,911.4286,795.78754,795.38464,-0.3009033203125,0.037109375,0.9447021484375,1.9140625,-3.06549072265625,-0.2691650390625,1.0,4.0,4.0,4.0,1.0,100.0,event
09:28:13.765,0.0,0.0,0.0,0.93432677,0.0,0.0,0.0,0.61671495,0.0,0.0,0.0,0.8005594,0.0,0.0,0.0,0.69898224,0.0,0.0,0.0,0.4132186,0.0,209.5238,790.9524,782.8938,711.1722,-0.3009033203125,0.037109375,0.9447021484375,1.9140625,-3.06549072265625,-0.2691650390625,1.0,4.0,4.0,4.0,1.0,100.0,event
09:28:13.766,0.0,0.0,0.0,0.93432677,0.0,0.0,0.0,0.61671495,0.0,0.0,0.0,0.8005594,0.0,0.0,0.0,0.69898224,0.0,0.0,0.0,0.4132186,779.2674,1119.3407,1252.3077,807.47253,681.3553,-0.3009033203125,0.037109375,0.9447021484375,1.9140625,-3.06549072265625,-0.2691650390625,1.0,4.0,4.0,4.0,1.0,100.0,event
09:28:13.767,0.0,0.0,0.0,0.93432677,0.0,0.0,0.0,0.61671495,0.0,0.0,0.0,0.8005594,0.0,0.0,0.0,0.69898224,0.0,0.0,0.0,0.4132186,165.6044,48.35165,1523.8828,817.5458,776.4469,-0.3009033203125,0.037109375,0.9447021484375,1.9140625,-3.06549072265625,-0.2691650390625,1.0,4.0,4.0,4.0,1.0,100.0,event
09:28:13.767,0.0,0.0,0.0,0.93432677,0.0,0.0,0.0,0.61671495,0.0,0.0,0.0,0.8005594,0.0,0.0,0.0,0.69898224,0.0,0.0,0.0,0.4132186,1020.2198,1223.6996,1162.4542,791.75824,859.45056,-0.3009033203125,0.037109375,0.9447021484375,1.9140625,-3.06549072265625,-0.2691650390625,1.0,4.0,4.0,4.0,1.0,100.0,event
09:28:13.768,0.0,0.0,0.0,0.93432677,0.0,0.0,0.0,0.61671495,0.0,0.0,0.0,0.8005594,0.0,0.0,0.0,0.69898224,0.0,0.0,0.0,0.4132186,5.6410255,428.31503,812.71063,781.28204,787.326,-0.3009033203125,0.037109375,0.9447021484375,1.9140625,-3.06549072265625,-0.2691650390625,1.0,4.0,4.0,4.0,1.0,100.0,event
09:28:13.769,0.0,0.0,0.0,0.93432677,0.0,0.0,0.0,0.61671495,0.0,0.0,0.0,0.8005594,0.0,0.0,0.0,0.69898224,0.0,0.0,0.0,0.4132186,0.0,95.091576,695.4579,790.14655,705.9341,-0.3009033203125,0.037109375,0.9447021484375,1.9140625,-3.06549072265625,-0.2691650390625,1.0,4.0,4.0,4.0,1.0,100.0,event
09:28:13.769,0.0,0.0,0.0,0.93432677,0.0,0.0,0.0,0.61671495,0.0,0.0,0.0,0.8005594,0.0,0.0,0.0,0.69898224,0.0,0.0,0.0,0.4132186,646.30035,674.10254,890.87915,813.5165,738.97437,-0.3009033203125,0.037109375,0.9447021484375,1.9140625,-3.06549072265625,-0.2691650390625,1.0,4.0,4.0,4.0,1.0,100.0,event
09:28:13.770,0.0,0.0,0.0,0.93432677,0.0,0.0,0.0,0.61671495,0.0,0.0,0.0,0.8005594,0.0,0.0,0.0,0.69898224,0.0,0.0,0.0,0.4132186,122.490845,1006.9231,880.80585,829.6337,999.2674,-0.3009033203125,0.037109375,0.9447021484375,1.9140625,-3.06549072265625,-0.2691650390625,1.0,4.0,4.0,4.0,1.0,100.0,event
09:28:13.770,0.0,0.0,0.0,0.93432677,0.0,0.0,0.0,0.61671495,0.0,0.0,0.0,0.8005594,0.0,0.0,0.0,0.69898224,0.0,0.0,0.0,0.4132186,1251.0989,662.4176,641.8681,815.9341,1037.5458,-0.3009033203125,0.037109375,0.9447021484375,1.9140625,-3.06549072265625,-0.2691650390625,1.0,4.0,4.0,4.0,1.0,100.0,event
09:28:13.771,0.0,0.0,0.0,0.93432677,0.0,0.0,0.0,0.61671495,0.0,0.0,0.0,0.8005594,0.0,0.0,0.0,0.69898224,0.0,0.0,0.0,0.4132186,0.0,225.2381,812.3077,771.6117,666.4469,-0.3009033203125,0.037109375,0.9447021484375,1.9140625,-3.06549072265625,-0.2691650390625,1.0,4.0,4.0,4.0,1.0,100.0,event
09:28:13.771,0.0,0.0,0.0,0.93432677,0.0,0.0,0.0,0.61671495,0.0,0.0,0.0,0.8005594,0.0,0.0,0.0,0.69898224,0.0,0.0,0.0,0.4132186,158.75458,494.3956,817.1429,772.01465,674.90845,-0.3009033203125,0.037109375,0.9447021484375,1.9140625,-3.06549072265625,-0.2691650390625,1.0,4.0,4.0,4.0,1.0,100.0,event
09:28:13.772,0.0,0.0,0.0,0.93432677,0.0,0.0,0.0,0.61671495,0.0,0.0,0.0,0.8005594,0.0,0.0,0.0,0.69898224,0.0,0.0,0.0,0.4132186,622.52747,648.71796,944.0659,807.8755,728.0952,-0.3009033203125,0.037109375,0.9447021484375,1.9140625,-3.06549072265625,-0.2691650390625,1.0,4.0,4.0,4.0,1.0,100.0,event
09:28:13.811,0.0,0.0,0.0,0.93432677,0.0,0.0,0.0,0.61671495,0.0,0.0,0.0,0.8005594,0.0,0.0,0.0,0.69898224,0.0,0.0,0.0,0.4132186,76.95971,1448.9377,1342.1611,807.47253,733.3333,-0.30755615234375,0.027587890625,0.9383544921875,1.757049560546875,-2.75146484375,-0.725250244140625,1.0,4.0,4.0,4.0,1.0,100.0,event
09:28:13.812,0.0,0.0,0.0,0.93432677,0.0,0.0,0.0,0.61671495,0.0,0.0,0.0,0.8005594,0.0,0.0,0.0,0.69898224,0.0,0.0,0.0,0.4132186,1406.63,1645.5677,1487.619,788.93774,742.6007,-0.30755615234375,0.027587890625,0.9383544921875,1.757049560546875,-2.75146484375,-0.725250244140625,1.0,4.0,4.0,4.0,1.0,100.0,event
09:28:13.813,0.0,0.0,0.0,0.93432677,0.0,0.0,0.0,0.61671495,0.0,0.0,0.0,0.8005594,0.0,0.0,0.0,0.69898224,0.0,0.0,0.0,0.4132186,320.32968,826.4103,1046.4103,789.34064,763.1502,-0.30755615234375,0.027587890625,0.9383544921875,1.757049560546875,-2.75146484375,-0.725250244140625,1.0,4.0,4.0,4.0,1.0,100.0,event
09:28:13.813,0.0,0.0,0.0,0.93432677,0.0,0.0,0.0,0.61671495,0.0,0.0,0.0,0.8005594,0.0,0.0,0.0,0.69898224,0.0,0.0,0.0,0.4132186,0.0,162.78389,744.61536,781.685,776.8498,-0.30755615234375,0.027587890625,0.9383544921875,1.757049560546875,-2.75146484375,-0.725250244140625,1.0,4.0,4.0,4.0,1.0,100.0,event
09:28:13.814,0.0,0.0,0.0,0.93432677,0.0,0.0,0.0,0.61671495,0.0,0.0,0.0,0.8005594,0.0,0.0,0.0,0.69898224,0.0,0.0,0.0,0.4132186,562.49084,725.6777,1058.4982,796.5934,750.65936,-0.30755615234375,0.027587890625,0.9383544921875,1.757049560546875,-2.75146484375,-0.725250244140625,1.0,4.0,4.0,4.0,1.0,100.0,event
09:28:13.815,0.0,0.0,0.0,0.93432677,0.0,0.0,0.0,0.61671495,0.0,0.0,0.0,0.8005594,0.0,0.0,0.0,0.69898224,0.0,0.0,0.0,0.4132186,35.860806,1455.3846,1266.8132,833.2601,865.4945,-0.30755615234375,0.027587890625,0.9383544921875,1.757049560546875,-2.75146484375,-0.725250244140625,1.0,4.0,4.0,4.0,1.0,100.0,event
09:28:13.815,0.0,0.0,0.0,0.93432677,0.0,0.0,0.0,0.61671495,0.0,0.0,0.0,0.8005594,0.0,0.0,0.0,0.69898224,0.0,0.0,0.0,0.4132186,1392.9304,1289.3773,1101.2087,836.08057,999.2674,-0.30755615234375,0.027587890625,0.9383544921875,1.757049560546875,-2.75146484375,-0.725250244140625,1.0,4.0,4.0,4.0,1.0,100.0,event
09:28:13.816,0.0,0.0,0.0,0.93432677,0.0,0.0,0.0,0.61671495,0.0,0.0,0.0,0.8005594,0.0,0.0,0.0,0.69898224,0.0,0.0,0.0,0.4132186,305.42123,256.26373,330.80585,789.34064,1234.5787,-0.30755615234375,0.027587890625,0.9383544921875,1.757049560546875,-2.75146484375,-0.725250244140625,1.0,4.0,4.0,4.0,1.0,100.0,event
09:28:13.816,0.0,0.0,0.0,0.93432677,0.0,0.0,0.0,0.61671495,0.0,0.0,0.0,0.8005594,0.0,0.0,0.0,0.69898224,0.0,0.0,0.0,0.4132186,0.0,44.725273,300.18314,763.5531,1006.52014,-0.30755615234375,0.027587890625,0.9383544921875,1.757049560546875,-2.75146484375,-0.725250244140625,1.0,4.0,4.0,4.0,1.0,100.0,event
09:28:13.817,0.0,0.0,0.0,0.93432677,0.0,0.0,0.0,0.61671495,0.0,0.0,0.0,0.8005594,0.0,0.0,0.0,0.69898224,0.0,0.0,0.0,0.4132186,489.56042,794.57874,1123.37,779.2674,694.65204,-0.30755615234375,0.027587890625,0.9383544921875,1.757049560546875,-2.75146484375,-0.725250244140625,1.0,4.0,4.0,4.0,1.0,100.0,event
09:28:13.818,0.0,0.0,0.0,0.93432677,0.0,0.0,0.0,0.61671495,0.0,0.0,0.0,0.8005594,0.0,0.0,0.0,0.69898224,0.0,0.0,0.0,0.4132186,1578.2784,1430.8059,1317.5824,795.38464,838.0952,-0.30755615234375,0.027587890625,0.9383544921875,1.757049560546875,-2.75146484375,-0.725250244140625,1.0,4.0,4.0,4.0,1.0,100.0,event
09:28:13.818,0.0,0.0,0.0,0.93432677,0.0,0.0,0.0,0.61671495,0.0,0.0,0.0,0.8005594,0.0,0.0,0.0,0.69898224,0.0,0.0,0.0,0.4132186,15.311356,1639.5238,1349.8169,772.01465,870.32965,-0.30755615234375,0.027587890625,0.9383544921875,1.757049560546875,-2.75146484375,-0.725250244140625,1.0,4.0,4.0,4.0,1.0,100.0,event
09:28:13.893,0.0,0.0,0.0,0.93432677,0.0,0.0,0.0,0.61671495,0.0,0.0,0.0,0.8005594,0.0,0.0,0.0,0.69898224,0.0,0.0,0.0,0.4132186,701.50183,1169.3041,1218.8645,776.8498,738.97437,-0.2979736328125,0.03179931640625,0.9429931640625,1.697235107421875,-3.940277099609375,-0.31402587890625,1.0,4.0,4.0,4.0,1.0,100.0,event
09:28:13.894,0.0,0.0,0.0,0.92164886,0.0,0.0,0.0,0.58290553,0.0,0.0,0.0,0.762143,0.0,0.0,0.0,0.6628113,0.0,0.0,0.0,0.4196095,0.0,479.8901,944.4689,780.4762,695.05493,-0.2979736328125,0.03179931640625,0.9429931640625,1.697235107421875,-3.940277099609375,-0.31402587890625,1.0,4.0,4.0,4.0,1.0,100.0,event
09:28:13.899,0.0,0.0,0.0,0.92164886,0.0,0.0,0.0,0.58290553,0.0,0.0,0.0,0.762143,0.0,0.0,0.0,0.6628113,0.0,0.0,0.0,0.4196095,267.14285,476.26373,899.34064,783.69965,750.65936,-0.2979736328125,0.03179931640625,0.9429931640625,1.697235107421875,-3.940277099609375,-0.31402587890625,1.0,4.0,4.0,4.0,1.0,100.0,event
09:28:13.899,0.0,0.0,0.0,0.92164886,0.0,0.0,0.0,0.58290553,0.0,0.0,0.0,0.762143,0.0,0.0,0.0,0.6628113,0.0,0.0,0.0,0.4196095,1384.0659,1206.7766,1230.5494,808.68134,805.8608,-0.2979736328125,0.03179931640625,0.9429931640625,1.697235107421875,-3.940277099609375,-0.31402587890625,1.0,4.0,4.0,4.0,1.0,100.0,event
09:28:13.900,0.0,0.0,0.0,0.92164886,0.0,0.0,0.0,0.58290553,0.0,0.0,0.0,0.762143,0.0,0.0,0.0,0.6628113,0.0,0.0,0.0,0.4196095,100.7326,34.652016,1457.3993,805.4579,837.28937,-0.2979736328125,0.03179931640625,0.9429931640625,1.697235107421875,-3.940277099609375,-0.31402587890625,1.0,4.0,4.0,4.0,1.0,100.0,event
09:28:13.901,0.0,0.0,0.0,0.92164886,0.0,0.0,0.0,0.58290553,0.0,0.0,0.0,0.762143,0.0,0.0,0.0,0.6628113,0.0,0.0,0.0,0.4196095,776.04395,1008.1319,1108.8645,782.8938,828.022,-0.2979736328125,0.03179931640625,0.9429931640625,1.697235107421875,-3.940277099609375,-0.31402587890625,1.0,4.0,4.0,4.0,1.0,100.0,event
09:28:13.901,0.0,0.0,0.0,0.92164886,0.0,0.0,0.0,0.58290553,0.0,0.0,0.0,0.762143,0.0,0.0,0.0,0.6628113,0.0,0.0,0.0,0.4196095,0.0,87.83883,362.23444,779.2674,1011.75824,-0.2979736328125,0.03179931640625,0.9429931640625,1.697235107421875,-3.940277099609375,-0.31402587890625,1.0,4.0,4.0,4.0,1.0,100.0,event
09:28:13.902,0.0,0.0,0.0,0.92164886,0.0,0.0,0.0,0.58290553,0.0,0.0,0.0,0.762143,0.0,0.0,0.0,0.6628113,0.0,0.0,0.0,0.4196095,136.19048,223.22345,293.33334,794.17584,990.80585,-0.2979736328125,0.03179931640625,0.9429931640625,1.697235107421875,-3.940277099609375,-0.31402587890625,1.0,4.0,4.0,4.0,1.0,100.0,event
09:28:13.903,0.0,0.0,0.0,0.92164886,0.0,0.0,0.0,0.58290553,0.0,0.0,0.0,0.762143,0.0,0.0,0.0,0.6628113,0.0,0.0,0.0,0.4196095,1193.8828,1243.4432,1208.7913,803.8461,729.707,-0.2979736328125,0.03179931640625,0.9429931640625,1.697235107421875,-3.940277099609375,-0.31402587890625,1.0,4.0,4.0,4.0,1.0,100.0,event
09:28:13.903,0.0,0.0,0.0,0.92164886,0.0,0.0,0.0,0.58290553,0.0,0.0,0.0,0.762143,0.0,0.0,0.0,0.6628113,0.0,0.0,0.0,0.4196095,155.1282,1635.0916,1365.9341,805.8608,776.04395,-0.2979736328125,0.03179931640625,0.9429931640625,1.697235107421875,-3.940277099609375,-0.31402587890625,1.0,4.0,4.0,4.0,1.0,100.0,event
09:28:13.904,0.0,0.0,0.0,0.92164886,0.0,0.0,0.0,0.58290553,0.0,0.0,0.0,0.762143,0.0,0.0,0.0,0.6628113,0.0,0.0,0.0,0.4196095,847.3626,872.3443,865.4945,790.14655,852.1978,-0.2979736328125,0.03179931640625,0.9429931640625,1.697235107421875,-3.940277099609375,-0.31402587890625,1.0,4.0,4.0,4.0,1.0,100.0,event
09:28:13.905,0.0,0.0,0.0,0.92164886,0.0,0.0,0.0,0.58290553,0.0,0.0,0.0,0.762143,0.0,0.0,0.0,0.6628113,0.0,0.0,0.0,0.4196095,0.0,252.23444,746.2271,770.40295,738.5714,-0.2979736328125,0.03179931640625,0.9429931640625,1.697235107421875,-3.940277099609375,-0.31402587890625,1.0,4.0,4.0,4.0,1.0,100.0,event
09:28:13.926,0.0,0.0,0.0,0.92164886,0.0,0.0,0.0,0.58290553,0.0,0.0,0.0,0.762143,0.0,0.0,0.0,0.6628113,0.0,0.0,0.0,0.4196095,26.996338,562.8938,1052.8572,783.2967,700.293,-0.29345703125,0.03240966796875,0.9439697265625,1.742095947265625,-3.760833740234375,0.6878662109375,1.0,4.0,4.0,4.0,1.0,100.0,event
09:28:13.927,0.0,0.0,0.0,0.92164886,0.0,0.0,0.0,0.58290553,0.0,0.0,0.0,0.762143,0.0,0.0,0.0,0.6628113,0.0,0.0,0.0,0.4196095,991.2088,1178.1685,1224.5055,811.9048,794.17584,-0.29345703125,0.03240966796875,0.9439697265625,1.742095947265625,-3.760833740234375,0.6878662109375,1.0,4.0,4.0,4.0,1.0,100.0,event
09:28:13.928,0.0,0.0,0.0,0.92164886,0.0,0.0,0.0,0.58290553,0.0,0.0,0.0,0.762143,0.0,0.0,0.0,0.6628113,0.0,0.0,0.0,0.4196095,962.1978,1394.1392,1256.7399,787.72894,788.93774,-0.29345703125,0.03240966796875,0.9439697265625,1.742095947265625,-3.760833740234375,0.6878662109375,1.0,4.0,4.0,4.0,1.0,100.0,event
09:28:13.928,0.0,0.0,0.0,0.92164886,0.0,0.0,0.0,0.58290553,0.0,0.0,0.0,0.762143,0.0,0.0,0.0,0.6628113,0.0,0.0,0.0,0.4196095,182.9304,1578.6813,1286.5568,802.6374,855.42126,-0.29345703125,0.03240966796875,0.9439697265625,1.742095947265625,-3.760833740234375,0.6878662109375,1.0,4.0,4.0,4.0,1.0,100.0,event
09:28:13.929,0.0,0.0,0.0,0.92164886,0.0,0.0,0.0,0.58290553,0.0,0.0,0.0,0.762143,0.0,0.0,0.0,0.6628113,0.0,0.0,0.0,0.4196095,0.0,649.5238,999.67035,784.10254,720.0366,-0.29345703125,0.03240966796875,0.9439697265625,1.742095947265625,-3.760833740234375,0.6878662109375,1.0,4.0,4.0,4.0,1.0,100.0,event
09:28:13.929,0.0,0.0,0.0,0.92164886,0.0,0.0,0.0,0.58290553,0.0,0.0,0.0,0.762143,0.0,0.0,0.0,0.6628113,0.0,0.0,0.0,0.4196095,0.0,133.36996,695.4579,795.78754,851.79486,-0.29345703125,0.03240966796875,0.9439697265625,1.742095947265625,-3.760833740234375,0.6878662109375,1.0,4.0,4.0,4.0,1.0,100.0,event
09:28:13.930,0.0,0.0,0.0,0.92164886,0.0,0.0,0.0,0.58290553,0.0,0.0,0.0,0.762143,0.0,0.0,0.0,0.6628113,0.0,0.0,0.0,0.4196095,655.56775,301.79486,550.40295,817.1429,1036.337,-0.29345703125,0.03240966796875,0.9439697265625,1.742095947265625,-3.760833740234375,0.6878662109375,1.0,4.0,4.0,4.0,1.0,100.0,event
09:28:13.931,0.0,0.0,0.0,0.92164886,0.0,0.0,0.0,0.58290553,0.0,0.0,0.0,0.762143,0.0,0.0,0.0,0.6628113,0.0,0.0,0.0,0.4196095,149.48718,1323.6263,1136.2638,816.337,919.4872,-0.29345703125,0.03240966796875,0.9439697265625,1.742095947265625,-3.760833740234375,0.6878662109375,1.0,4.0,4.0,4.0,1.0,100.0,event
09:28:13.931,0.0,0.0,0.0,0.92164886,0.0,0.0,0.0,0.58290553,0.0,0.0,0.0,0.762143,0.0,0.0,0.0,0.6628113,0.0,0.0,0.0,0.4196095,1091.9414,1595.2014,1439.6703,784.10254,786.9231,-0.29345703125,0.03240966796875,0.9439697265625,1.742095947265625,-3.760833740234375,0.6878662109375,1.0,4.0,4.0,4.0,1.0,100.0,event
09:28:13.932,0.0,0.0,0.0,0.92164886,0.0,0.0,0.0,0.58290553,0.0,0.0,0.0,0.762143,0.0,0.0,0.0,0.6628113,0.0,0.0,0.0,0.4196095,17.728937,531.4652,808.2784,782.49084,788.93774,-0.29345703125,0.03240966796875,0.9439697265625,1.742095947265625,-3.760833740234375,0.6878662109375,1.0,4.0,4.0,4.0,1.0,100.0,event
09:28:13.933,0.0,0.0,0.0,0.92164886,0.0,0.0,0.0,0.58290553,0.0,0.0,0.0,0.762143,0.0,0.0,0.0,0.6628113,0.0,0.0,0.0,0.4196095,0.0,153.91942,651.9414,799.41394,778.86444,-0.29345703125,0.03240966796875,0.9439697265625,1.742095947265625,-3.760833740234375,0.6878662109375,1.0,4.0,4.0,4.0,1.0,100.0,event
09:28:13.933,0.0,0.0,0.0,0.92164886,0.0,0.0,0.0,0.58290553,0.0,0.0,0.0,0.762143,0.0,0.0,0.0,0.6628113,0.0,0.0,0.0,0.4196095,707.9487,1020.6227,1178.9744,819.5604,720.0366,-0.29345703125,0.03240966796875,0.9439697265625,1.742095947265625,-3.760833740234375,0.6878662109375,1.0,4.0,4.0,4.0,1.0,100.0,event
09:28:13.958,0.0,0.0,0.0,0.92164886,0.0,0.0,0.0,0.58290553,0.0,0.0,0.0,0.762143,0.0,0.0,0.0,0.6628113,0.0,0.0,0.0,0.4196095,155.53113,30.622711,1361.5018,829.6337,761.53845,-0.293212890625,0.03167724609375,0.94451904296875,1.891632080078125,-3.970184326171875,0.530853271484375,1.0,4.0,4.0,4.0,1.0,100.0,event
09:28:13.959,0.0,0.0,0.0,0.92164886,0.0,0.0,0.0,0.58290553,0.0,0.0,0.0,0.762143,0.0,0.0,0.0,0.6628113,0.0,0.0,0.0,0.4196095,1063.3334,1131.0256,938.022,809.4872,943.2601,-0.293212890625,0.03167724609375,0.94451904296875,1.891632080078125,-3.970184326171875,0.530853271484375,1.0,4.0,4.0,4.0,1.0,100.0,event
09:28:13.960,0.0,0.0,0.0,0.92164886,0.0,0.0,0.0,0.58290553,0.0,0.0,0.0,0.762143,0.0,0.0,0.0,0.6628113,0.0,0.0,0.0,0.4196095,17.326008,290.1099,644.2857,795.38464,881.2088,-0.293212890625,0.03167724609375,0.94451904296875,1.891632080078125,-3.970184326171875,0.530853271484375,1.0,4.0,4.0,4.0,1.0,100.0,event
09:28:13.960,0.0,0.0,0.0,0.91272104,0.0,0.0,0.0,0.5585215,0.0,0.0,0.0,0.6479858,0.0,0.0,0.0,0.62603295,0.0,0.0,0.0,0.43406504,0.0,363.04028,888.86444,796.99634,710.7692,-0.293212890625,0.03167724609375,0.94451904296875,1.891632080078125,-3.970184326171875,0.530853271484375,1.0,2.0,4.0,4.0,1.0,100.0,event
09:28:13.965,0.0,0.0,0.0,0.91272104,0.0,0.0,0.0,0.5585215,0.0,0.0,0.0,0.6479858,0.0,0.0,0.0,0.62603295,0.0,0.0,0.0,0.43406504,656.77655,890.4762,1109.6703,813.91943,715.2015,-0.293212890625,0.03167724609375,0.94451904296875,1.891632080078125,-3.970184326171875,0.530853271484375,1.0,2.0,4.0,4.0,1.0,100.0,event
09:28:13.966,0.0,0.0,0.0,0.91272104,0.0,0.0,0.0,0.5585215,0.0,0.0,0.0,0.6479858,0.0,0.0,0.0,0.62603295,0.0,0.0,0.0,0.43406504,84.212456,1339.3407,1126.1904,827.2161,831.6484,-0.293212890625,0.03167724609375,0.94451904296875,1.891632080078125,-3.970184326171875,0.530853271484375,1.0,2.0,4.0,4.0,1.0,100.0,event
09:28:13.966,0.0,0.0,0.0,0.91272104,0.0,0.0,0.0,0.5585215,0.0,0.0,0.0,0.6479858,0.0,0.0,0.0,0.62603295,0.0,0.0,0.0,0.43406504,1415.8975,1210.0,963.4066,810.696,966.2271,-0.293212890625,0.03167724609375,0.94451904296875,1.891632080078125,-3.970184326171875,0.530853271484375,1.0,2.0,4.0,4.0,1.0,100.0,event
09:28:13.967,0.0,0.0,0.0,0.91272104,0.0,0.0,0.0,0.5585215,0.0,0.0,0.0,0.6479858,0.0,0.0,0.0,0.62603295,0.0,0.0,0.0,0.43406504,346.52014,695.05493,878.3883,792.96704,844.94507,-0.293212890625,0.03167724609375,0.94451904296875,1.891632080078125,-3.970184326171875,0.530853271484375,1.0,2.0,4.0,4.0,1.0,100.0,event
09:28:13.968,0.0,0.0,0.0,0.91272104,0.0,0.0,0.0,0.5585215,0.0,0.0,0.0,0.6479858,0.0,0.0,0.0,0.62603295,0.0,0.0,0.0,0.43406504,0.0,475.05493,933.1868,796.1905,678.5348,-0.293212890625,0.03167724609375,0.94451904296875,1.891632080078125,-3.970184326171875,0.530853271484375,1.0,2.0,4.0,4.0,1.0,100.0,event
09:28:13.969,0.0,0.0,0.0,0.91272104,0.0,0.0,0.0,0.5585215,0.0,0.0,0.0,0.6479858,0.0,0.0,0.0,0.62603295,0.0,0.0,0.0,0.43406504,691.8315,343.2967,645.89746,807.8755,894.10254,-0.293212890625,0.03167724609375,0.94451904296875,1.891632080078125,-3.970184326171875,0.530853271484375,1.0,2.0,4.0,4.0,1.0,100.0,event
09:28:13.970,0.0,0.0,0.0,0.91272104,0.0,0.0,0.0,0.5585215,0.0,0.0,0.0,0.6479858,0.0,0.0,0.0,0.62603295,0.0,0.0,0.0,0.43406504,1635.8975,984.7619,932.7839,813.5165,981.53845,-0.293212890625,0.03167724609375,0.94451904296875,1.891632080078125,-3.970184326171875,0.530853271484375,1.0,2.0,4.0,4.0,1.0,100.0,event
09:28:13.972,0.0,0.0,0.0,0.91272104,0.0,0.0,0.0,0.5585215,0.0,0.0,0.0,0.6479858,0.0,0.0,0.0,0.62603295,0.0,0.0,0.0,0.43406504,64.468864,96.30037,1500.1099,803.44324,783.69965,-0.293212890625,0.03167724609375,0.94451904296875,1.891632080078125,-3.970184326171875,0.530853271484375,1.0,2.0,4.0,4.0,1.0,100.0,event
09:28:14.029,0.0,0.0,0.0,0.91272104,0.0,0.0,0.0,0.5585215,0.0,0.0,0.0,0.6479858,0.0,0.0,0.0,0.62603295,0.0,0.0,0.0,0.43406504,907.8022,1051.2454,1075.4213,787.72894,766.77655,-0.293212890625,0.03167724609375,0.94451904296875,1.891632080078125,-3.970184326171875,0.530853271484375,1.0,2.0,4.0,4.0,1.0,100.0,event
09:28:14.030,0.0,0.0,0.0,0.91272104,0.0,0.0,0.0,0.5585215,0.0,0.0,0.0,0.6479858,0.0,0.0,0.0,0.62603295,0.0,0.0,0.0,0.43406504,0.0,305.8242,730.5128,788.5348,770.40295,-0.293212890625,0.03167724609375,0.94451904296875,1.891632080078125,-3.970184326171875,0.530853271484375,1.0,2.0,4.0,4.0,1.0,100.0,event
09:28:14.031,0.0,0.0,0.0,0.91272104,0.0,0.0,0.0,0.5585215,0.0,0.0,0.0,0.6479858,0.0,0.0,0.0,0.62603295,0.0,0.0,0.0,0.43406504,614.87177,750.2564,999.2674,796.1905,718.4249,-0.293212890625,0.03167724609375,0.94451904296875,1.891632080078125,-3.970184326171875,0.530853271484375,1.0,2.0,4.0,4.0,1.0,100.0,event
09:28:14.032,0.0,0.0,0.0,0.91272104,0.0,0.0,0.0,0.5585215,0.0,0.0,0.0,0.6479858,0.0,0.0,0.0,0.62603295,0.0,0.0,0.0,0.43406504,62.05128,1531.1355,1280.1099,815.9341,766.3736,-0.293212890625,0.03167724609375,0.94451904296875,1.891632080078125,-3.970184326171875,0.530853271484375,1.0,2.0,4.0,4.0,1.0,100.0,event
09:28:14.033,0.0,0.0,0.0,0.91272104,0.0,0.0,0.0,0.5585215,0.0,0.0,0.0,0.6479858,0.0,0.0,0.0,0.62603295,0.0,0.0,0.0,0.43406504,1548.8645,1447.326,1129.414,817.9487,925.9341,-0.293212890625,0.03167724609375,0.94451904296875,1.891632080078125,-3.970184326171875,0.530853271484375,1.0,2.0,4.0,4.0,1.0,100.0,event
09:28:14.033,0.0,0.0,0.0,0.91272104,0.0,0.0,0.0,0.5585215,0.0,0.0,0.0,0.6479858,0.0,0.0,0.0,0.62603295,0.0,0.0,0.0,0.43406504,513.3333,367.47253,356.5934,799.81683,1057.2894,-0.293212890625,0.03167724609375,0.94451904296875,1.891632080078125,-3.970184326171875,0.530853271484375,1.0,2.0,4.0,4.0,1.0,100.0,event
09:28:14.034,0.0,0.0,0.0,0.91272104,0.0,0.0,0.0,0.5585215,0.0,0.0,0.0,0.6479858,0.0,0.0,0.0,0.62603295,0.0,0.0,0.0,0.43406504,0.0,0.0,210.32967,793.36993,929.15753,-0.293212890625,0.03167724609375,0.94451904296875,1.891632080078125,-3.970184326171875,0.530853271484375,1.0,2.0,4.0,4.0,1.0,100.0,event
09:28:14.034,0.0,0.0,0.0,0.91272104,0.0,0.0,0.0,0.5585215,0.0,0.0,0.0,0.6479858,0.0,0.0,0.0,0.62603295,0.0,0.0,0.0,0.43406504,386.00732,575.78754,905.78754,797.8022,682.96704,-0.293212890625,0.03167724609375,0.94451904296875,1.891632080078125,-3.970184326171875,0.530853271484375,1.0,2.0,4.0,4.0,1.0,100.0,event
09:28:14.035,0.0,0.0,0.0,0.91272104,0.0,0.0,0.0,0.5585215,0.0,0.0,0.0,0.6479858,0.0,0.0,0.0,0.62603295,0.0,0.0,0.0,0.43406504,1487.2161,1161.6483,1075.0183,812.3077,778.46155,-0.293212890625,0.03167724609375,0.94451904296875,1.891632080078125,-3.970184326171875,0.530853271484375,1.0,2.0,4.0,4.0,1.0,100.0,event
09:28:14.036,0.0,0.0,0.0,0.91272104,0.0,0.0,0.0,0.5585215,0.0,0.0,0.0,0.6479858,0.0,0.0,0.0,0.62603295,0.0,0.0,0.0,0.43406504,55.604397,1206.3737,939.6337,814.7253,946.8865,-0.293212890625,0.03167724609375,0.94451904296875,1.891632080078125,-3.970184326171875,0.530853271484375,1.0,2.0,4.0,4.0,1.0,100.0,event
09:28:14.036,0.0,0.0,0.0,0.91272104,0.0,0.0,0.0,0.5585215,0.0,0.0,0.0,0.6479858,0.0,0.0,0.0,0.62603295,0.0,0.0,0.0,0.43406504,697.8755,1016.5934,1032.7106,801.8315,763.95605,-0.293212890625,0.03167724609375,0.94451904296875,1.891632080078125,-3.970184326171875,0.530853271484375,1.0,2.0,4.0,4.0,1.0,100.0,event
09:28:14.037,0.0,0.0,0.0,0.91272104,0.0,0.0,0.0,0.5585215,0.0,0.0,0.0,0.6479858,0.0,0.0,0.0,0.62603295,0.0,0.0,0.0,0.43406504,0.0,535.89746,973.8828,784.90845,744.61536,-0.293212890625,0.03167724609375,0.94451904296875,1.891632080078125,-3.970184326171875,0.530853271484375,1.0,2.0,4.0,4.0,1.0,100.0,event
09:28:14.063,0.0,0.0,0.0,0.91272104,0.0,0.0,0.0,0.5585215,0.0,0.0,0.0,0.6479858,0.0,0.0,0.0,0.62603295,0.0,0.0,0.0,0.43406504,52.38095,383.99268,819.9634,783.2967,787.326,-0.29638671875,0.02972412109375,0.94146728515625,1.667327880859375,-2.99072265625,-0.097198486328125,1.0,2.0,4.0,4.0,1.0,100.0,event
09:28:14.064,0.0,0.0,0.0,0.91272104,0.0,0.0,0.0,0.5585215,0.0,0.0,0.0,0.6479858,0.0,0.0,0.0,0.62603295,0.0,0.0,0.0,0.43406504,1082.674,1040.7693,1055.2748,811.0989,765.9707,-0.29638671875,0.02972412109375,0.94146728515625,1.667327880859375,-2.99072265625,-0.097198486328125,1.0,2.0,4.0,4.0,1.0,100.0,event
09:28:14.065,0.0,0.0,0.0,0.91272104,0.0,0.0,0.0,0.5585215,0.0,0.0,0.0,0.6479858,0.0,0.0,0.0,0.62603295,0.0,0.0,0.0,0.43406504,157.54579,57.216118,1443.6996,802.23444,803.44324,-0.29638671875,0.02972412109375,0.94146728515625,1.667327880859375,-2.99072265625,-0.097198486328125,1.0,2.0,4.0,4.0,1.0,100.0,event
09:28:14.065,0.0,0.0,0.0,0.91272104,0.0,0.0,0.0,0.5585215,0.0,0.0,0.0,0.6479858,0.0,0.0,0.0,0.62603295,0.0,0.0,0.0,0.43406504,786.52014,1258.3517,1207.1794,773.6264,804.65204,-0.29638671875,0.02972412109375,0.94146728515625,1.667327880859375,-2.99072265625,-0.097198486328125,1.0,2.0,4.0,4.0,1.0,100.0,event
09:28:14.066,0.0,0.0,0.0,0.91272104,0.0,0.0,0.0,0.5585215,0.0,0.0,0.0,0.6479858,0.0,0.0,0.0,0.62603295,0.0,0.0,0.0,0.43406504,0.0,278.4249,672.49084,774.0293,741.79486,-0.29638671875,0.02972412109375,0.94146728515625,1.667327880859375,-2.99072265625,-0.097198486328125,1.0,2.0,4.0,4.0,1.0,100.0,event
09:28:14.067,0.0,0.0,0.0,0.90238893,0.0,0.0,0.0,0.54389757,0.0,0.0,0.0,0.5727868,0.0,0.0,0.0,0.60318106,0.0,0.0,0.0,0.4500353,0.0,61.245422,531.06226,780.87915,774.83514,-0.29638671875,0.02972412109375,0.94146728515625,1.667327880859375,-2.99072265625,-0.097198486328125,1.0,4.0,4.0,4.0,1.0,100.0,event
09:28:14.071,0.0,0.0,0.0,0.90238893,0.0,0.0,0.0,0.54389757,0.0,0.0,0.0,0.5727868,0.0,0.0,0.0,0.60318106,0.0,0.0,0.0,0.4500353,904.9817,831.2454,875.56775,788.5348,854.21246,-0.29638671875,0.02972412109375,0.94146728515625,1.667327880859375,-2.99072265625,-0.097198486328125,1.0,4.0,4.0,4.0,1.0,100.0,event
09:28:14.072,0.0,0.0,0.0,0.90238893,0.0,0.0,0.0,0.54389757,0.0,0.0,0.0,0.5727868,0.0,0.0,0.0,0.60318106,0.0,0.0,0.0,0.4500353,169.23077,1475.5311,1163.663,795.38464,865.4945,-0.29638671875,0.02972412109375,0.94146728515625,1.667327880859375,-2.99072265625,-0.097198486328125,1.0,4.0,4.0,4.0,1.0,100.0,event
09:28:14.072,0.0,0.0,0.0,0.90238893,0.0,0.0,0.0,0.54389757,0.0,0.0,0.0,0.5727868,0.0,0.0,0.0,0.60318106,0.0,0.0,0.0,0.4500353,866.30035,724.4689,606.8132,782.8938,991.2088,-0.29638671875,0.02972412109375,0.94146728515625,1.667327880859375,-2.99072265625,-0.097198486328125,1.0,4.0,4.0,4.0,1.0,100.0,event
09:28:14.073,0.0,0.0,0.0,0.90238893,0.0,0.0,0.0,0.54389757,0.0,0.0,0.0,0.5727868,0.0,0.0,0.0,0.60318106,0.0,0.0,0.0,0.4500353,0.0,0.0,111.20879,781.685,1020.2198,-0.29638671875,0.02972412109375,0.94146728515625,1.667327880859375,-2.99072265625,-0.097198486328125,1.0,4.0,4.0,4.0,1.0,100.0,event
09:28:14.073,0.0,0.0,0.0,0.90238893,0.0,0.0,0.0,0.54389757,0.0,0.0,0.0,0.5727868,0.0,0.0,0.0,0.60318106,0.0,0.0,0.0,0.4500353,0.0,344.10257,724.4689,779.67035,751.8681,-0.29638671875,0.02972412109375,0.94146728515625,1.667327880859375,-2.99072265625,-0.097198486328125,1.0,4.0,4.0,4.0,1.0,100.0,event
09:28:14.074,0.0,0.0,0.0,0.90238893,0.0,0.0,0.0,0.54389757,0.0,0.0,0.0,0.5727868,0.0,0.0,0.0,0.60318106,0.0,0.0,0.0,0.4500353,665.2381,1003.2967,1104.0293,801.4286,681.3553,-0.29638671875,0.02972412109375,0.94146728515625,1.667327880859375,-2.99072265625,-0.097198486328125,1.0,4.0,4.0,4.0,1.0,100.0,event
09:28:14.111,0.0,0.0,0.0,0.90238893,0.0,0.0,0.0,0.54389757,0.0,0.0,0.0,0.5727868,0.0,0.0,0.0,0.60318106,0.0,0.0,0.0,0.4500353,158.75458,1506.5568,1205.1648,808.68134,772.4176,-0.29510498046875,0.03289794921875,0.94549560546875,1.996307373046875,-2.82623291015625,0.575714111328125,1.0,4.0,4.0,4.0,1.0,100.0,event
09:28:14.112,0.0,0.0,0.0,0.90238893,0.0,0.0,0.0,0.54389757,0.0,0.0,0.0,0.5727868,0.0,0.0,0.0,0.60318106,0.0,0.0,0.0,0.4500353,953.3333,1354.652,1202.3444,778.86444,727.28937,-0.29510498046875,0.03289794921875,0.94549560546875,1.996307373046875,-2.82623291015625,0.575714111328125,1.0,4.0,4.0,4.0,1.0,100.0,event
09:28:14.113,0.0,0.0,0.0,0.90238893,0.0,0.0,0.0,0.54389757,0.0,0.0,0.0,0.5727868,0.0,0.0,0.0,0.60318106,0.0,0.0,0.0,0.4500353,0.0,612.0513,964.61536,778.46155,676.1172,-0.29510498046875,0.03289794921875,0.94549560546875,1.996307373046875,-2.82623291015625,0.575714111328125,1.0,4.0,4.0,4.0,1.0,100.0,event
09:28:14.114,0.0,0.0,0.0,0.90238893,0.0,0.0,0.0,0.54389757,0.0,0.0,0.0,0.5727868,0.0,0.0,0.0,0.60318106,0.0,0.0,0.0,0.4500353,0.0,194.21245,763.95605,782.0879,707.1429,-0.29510498046875,0.03289794921875,0.94549560546875,1.996307373046875,-2.82623291015625,0.575714111328125,1.0,4.0,4.0,4.0,1.0,100.0,event
09:28:14.115,0.0,0.0,0.0,0.90238893,0.0,0.0,0.0,0.54389757,0.0,0.0,0.0,0.5727868,0.0,0.0,0.0,0.60318106,0.0,0.0,0.0,0.4500353,629.3773,689.81683,904.57874,793.36993,801.4286,-0.29510498046875,0.03289794921875,0.94549560546875,1.996307373046875,-2.82623291015625,0.575714111328125,1.0,4.0,4.0,4.0,1.0,100.0,event
09:28:14.115,0.0,0.0,0.0,0.90238893,0.0,0.0,0.0,0.54389757,0.0,0.0,0.0,0.5727868,0.0,0.0,0.0,0.60318106,0.0,0.0,0.0,0.4500353,144.65201,1500.5128,1191.4652,814.7253,946.4835,-0.29510498046875,0.03289794921875,0.94549560546875,1.996307373046875,-2.82623291015625,0.575714111328125,1.0,4.0,4.0,4.0,1.0,100.0,event
09:28:14.116,0.0,0.0,0.0,0.90238893,0.0,0.0,0.0,0.54389757,0.0,0.0,0.0,0.5727868,0.0,0.0,0.0,0.60318106,0.0,0.0,0.0,0.4500353,1066.5568,1246.2638,1049.6337,796.5934,894.90845,-0.29510498046875,0.03289794921875,0.94549560546875,1.996307373046875,-2.82623291015625,0.575714111328125,1.0,4.0,4.0,4.0,1.0,100.0,event
09:28:14.117,0.0,0.0,0.0,0.90238893,0.0,0.0,0.0,0.54389757,0.0,0.0,0.0,0.5727868,0.0,0.0,0.0,0.60318106,0.0,0.0,0.0,0.4500353,0.0,335.64102,570.14655,778.86444,846.1539,-0.29510498046875,0.03289794921875,0.94549560546875,1.996307373046875,-2.82623291015625,0.575714111328125,1.0,4.0,4.0,4.0,1.0,100.0,event
09:28:14.117,0.0,0.0,0.0,0.90238893,0.0,0.0,0.0,0.54389757,0.0,0.0,0.0,0.5727868,0.0,0.0,0.0,0.60318106,0.0,0.0,0.0,0.4500353,0.0,55.201466,211.13553,780.07324,880.80585,-0.29510498046875,0.03289794921875,0.94549560546875,1.996307373046875,-2.82623291015625,0.575714111328125,1.0,4.0,4.0,4.0,1.0,100.0,event
09:28:14.118,0.0,0.0,0.0,0.90238893,0.0,0.0,0.0,0.54389757,0.0,0.0,0.0,0.5727868,0.0,0.0,0.0,0.60318106,0.0,0.0,0.0,0.4500353,782.49084,709.15753,728.9011,786.52014,741.79486,-0.29510498046875,0.03289794921875,0.94549560546875,1.996307373046875,-2.82623291015625,0.575714111328125,1.0,4.0,4.0,4.0,1.0,100.0,event
09:28:14.119,0.0,0.0,0.0,0.90238893,0.0,0.0,0.0,0.54389757,0.0,0.0,0.0,0.5727868,0.0,0.0,0.0,0.60318106,0.0,0.0,0.0,0.4500353,124.50549,1524.6886,1249.0842,798.60803,773.22345,-0.29510498046875,0.03289794921875,0.94549560546875,1.996307373046875,-2.82623291015625,0.575714111328125,1.0,4.0,4.0,4.0,1.0,100.0,event
09:28:14.119,0.0,0.0,0.0,0.90238893,0.0,0.0,0.0,0.54389757,0.0,0.0,0.0,0.5727868,0.0,0.0,0.0,0.60318106,0.0,0.0,0.0,0.4500353,1136.6666,1216.8499,954.94507,786.52014,895.7143,-0.29510498046875,0.03289794921875,0.94549560546875,1.996307373046875,-2.82623291015625,0.575714111328125,1.0,4.0,4.0,4.0,1.0,100.0,event
09:28:14.157,0.0,0.0,0.0,0.90238893,0.0,0.0,0.0,0.54389757,0.0,0.0,0.0,0.5727868,0.0,0.0,0.0,0.60318106,0.0,0.0,0.0,0.4500353,58.82784,342.08792,639.0476,776.4469,802.23444,-0.3028564453125,0.0277099609375,0.94024658203125,1.8243408203125,-2.9010009765625,0.2392578125,1.0,4.0,4.0,4.0,1.0,100.0,event
09:28:14.158,0.0,0.0,0.0,0.90238893,0.0,0.0,0.0,0.54389757,0.0,0.0,0.0,0.5727868,0.0,0.0,0.0,0.60318106,0.0,0.0,0.0,0.4500353,0.0,360.6227,877.5824,776.4469,635.0183,-0.3028564453125,0.0277099609375,0.94024658203125,1.8243408203125,-2.9010009765625,0.2392578125,1.0,4.0,4.0,4.0,1.0,100.0,event
09:28:14.159,0.0,0.0,0.0,0.90238893,0.0,0.0,0.0,0.54389757,0.0,0.0,0.0,0.5727868,0.0,0.0,0.0,0.60318106,0.0,0.0,0.0,0.4500353,614.4689,882.8205,1095.1648,786.52014,660.0,-0.3028564453125,0.0277099609375,0.94024658203125,1.8243408203125,-2.9010009765625,0.2392578125,1.0,4.0,4.0,4.0,1.0,100.0,event
09:28:14.160,0.0,0.0,0.0,0.90238893,0.0,0.0,0.0,0.54389757,0.0,0.0,0.0,0.5727868,0.0,0.0,0.0,0.60318106,0.0,0.0,0.0,0.4500353,76.15385,1498.4982,1259.5604,801.8315,755.4945,-0.3028564453125,0.0277099609375,0.94024658203125,1.8243408203125,-2.9010009765625,0.2392578125,1.0,4.0,4.0,4.0,1.0,100.0,event
09:28:14.160,0.0,0.0,0.0,0.90238893,0.0,0.0,0.0,0.54389757,0.0,0.0,0.0,0.5727868,0.0,0.0,0.0,0.60318106,0.0,0.0,0.0,0.4500353,1417.9121,1575.8608,1244.249,802.23444,749.0476,-0.3028564453125,0.0277099609375,0.94024658203125,1.8243408203125,-2.9010009765625,0.2392578125,1.0,4.0,4.0,4.0,1.0,100.0,event
09:28:14.161,0.0,0.0,0.0,0.90238893,0.0,0.0,0.0,0.54389757,0.0,0.0,0.0,0.5727868,0.0,0.0,0.0,0.60318106,0.0,0.0,0.0,0.4500353,331.61172,709.9634,835.2747,779.2674,776.8498,-0.3028564453125,0.0277099609375,0.94024658203125,1.8243408203125,-2.9010009765625,0.2392578125,1.0,4.0,4.0,4.0,1.0,100.0,event
09:28:14.162,0.0,0.0,0.0,0.90238893,0.0,0.0,0.0,0.54389757,0.0,0.0,0.0,0.5727868,0.0,0.0,0.0,0.60318106,0.0,0.0,0.0,0.4500353,0.0,139.41393,645.89746,775.64105,805.8608,-0.3028564453125,0.0277099609375,0.94024658203125,1.8243408203125,-2.9010009765625,0.2392578125,1.0,4.0,4.0,4.0,1.0,100.0,event
09:28:14.162,0.0,0.0,0.0,0.8913275,0.0,0.0,0.0,0.53396,0.0,0.0,0.0,0.56420153,0.0,0.0,0.0,0.5983986,0.0,0.0,0.0,0.4628913,459.7436,85.42124,508.9011,792.96704,953.73627,-0.3028564453125,0.0277099609375,0.94024658203125,1.8243408203125,-2.9010009765625,0.2392578125,1.0,4.0,4.0,4.0,1.0,100.0,event
09:28:14.166,0.0,0.0,0.0,0.8913275,0.0,0.0,0.0,0.53396,0.0,0.0,0.0,0.56420153,0.0,0.0,0.0,0.5983986,0.0,0.0,0.0,0.4628913,1582.7106,710.3663,757.1062,807.47253,1085.8975,-0.3028564453125,0.0277099609375,0.94024658203125,1.8243408203125,-2.9010009765625,0.2392578125,1.0,4.0,4.0,4.0,1.0,100.0,event
09:28:14.167,0.0,0.0,0.0,0.8913275,0.0,0.0,0.0,0.53396,0.0,0.0,0.0,0.56420153,0.0,0.0,0.0,0.5983986,0.0,0.0,0.0,0.4628913,1645.9707,58.021976,1439.6703,802.6374,836.8865,-0.3028564453125,0.0277099609375,0.94024658203125,1.8243408203125,-2.9010009765625,0.2392578125,1.0,4.0,4.0,4.0,1.0,100.0,event
09:28:14.168,0.0,0.0,0.0,0.8913275,0.0,0.0,0.0,0.53396,0.0,0.0,0.0,0.56420153,0.0,0.0,0.0,0.5983986,0.0,0.0,0.0,0.4628913,641.8681,1064.9451,1125.7876,788.5348,708.7546,-0.3028564453125,0.0277099609375,0.94024658203125,1.8243408203125,-2.9010009765625,0.2392578125,1.0,4.0,4.0,4.0,1.0,100.0,event
09:28:14.168,0.0,0.0,0.0,0.8913275,0.0,0.0,0.0,0.53396,0.0,0.0,0.0,0.56420153,0.0,0.0,0.0,0.5983986,0.0,0.0,0.0,0.4628913,0.0,246.99634,738.5714,785.31134,720.84247,-0.3028564453125,0.0277099609375,0.94024658203125,1.8243408203125,-2.9010009765625,0.2392578125,1.0,4.0,4.0,4.0,1.0,100.0,event
09:28:14.224,0.0,0.0,0.0,0.8913275,0.0,0.0,0.0,0.53396,0.0,0.0,0.0,0.56420153,0.0,0.0,0.0,0.5983986,0.0,0.0,0.0,0.4628913,456.52014,622.9304,956.9597,773.22345,724.87177,-0.29571533203125,0.03204345703125,0.9425048828125,2.459869384765625,-3.970184326171875,-0.0897216796875,1.0,4.0,4.0,4.0,1.0,100.0,event
09:28:14.225,0.0,0.0,0.0,0.8913275,0.0,0.0,0.0,0.53396,0.0,0.0,0.0,0.56420153,0.0,0.0,0.0,0.5983986,0.0,0.0,0.0,0.4628913,1575.8608,1384.0659,1245.0549,800.6227,781.685,-0.29571533203125,0.03204345703125,0.9425048828125,2.459869384765625,-3.970184326171875,-0.0897216796875,1.0,4.0,4.0,4.0,1.0,100.0,event
09:28:14.226,0.0,0.0,0.0,0.8913275,0.0,0.0,0.0,0.53396,0.0,0.0,0.0,0.56420153,0.0,0.0,0.0,0.5983986,0.0,0.0,0.0,0.4628913,11.282051,1544.4323,1250.6959,811.50183,834.87177,-0.29571533203125,0.03204345703125,0.9425048828125,2.459869384765625,-3.970184326171875,-0.0897216796875,1.0,4.0,4.0,4.0,1.0,100.0,event
09:28:14.226,0.0,0.0,0.0,0.8913275,0.0,0.0,0.0,0.53396,0.0,0.0,0.0,0.56420153,0.0,0.0,0.0,0.5983986,0.0,0.0,0.0,0.4628913,641.8681,744.61536,807.8755,787.326,812.71063,-0.29571533203125,0.03204345703125,0.9425048828125,2.459869384765625,-3.970184326171875,-0.0897216796875,1.0,4.0,4.0,4.0,1.0,100.0,event
09:28:14.227,0.0,0.0,0.0,0.8913275,0.0,0.0,0.0,0.53396,0.0,0.0,0.0,0.56420153,0.0,0.0,0.0,0.5983986,0.0,0.0,0.0,0.4628913,0.0,236.92308,699.0842,797.3993,704.7253,-0.29571533203125,0.03204345703125,0.9425048828125,2.459869384765625,-3.970184326171875,-0.0897216796875,1.0,4.0,4.0,4.0,1.0,100.0,event
09:28:14.228,0.0,0.0,0.0,0.8913275,0.0,0.0,0.0,0.53396,0.0,0.0,0.0,0.56420153,0.0,0.0,0.0,0.5983986,0.0,0.0,0.0,0.4628913,236.11722,366.26373,772.01465,812.3077,700.293,-0.29571533203125,0.03204345703125,0.9425048828125,2.459869384765625,-3.970184326171875,-0.0897216796875,1.0,4.0,4.0,4.0,1.0,100.0,event
09:28:14.229,0.0,0.0,0.0,0.8913275,0.0,0.0,0.0,0.53396,0.0,0.0,0.0,0.56420153,0.0,0.0,0.0,0.5983986,0.0,0.0,0.0,0.4628913,1307.5092,917.47253,880.40295,803.44324,884.0293,-0.29571533203125,0.03204345703125,0.9425048828125,2.459869384765625,-3.970184326171875,-0.0897216796875,1.0,4.0,4.0,4.0,1.0,100.0,event
09:28:14.229,0.0,0.0,0.0,0.8913275,0.0,0.0,0.0,0.53396,0.0,0.0,0.0,0.56420153,0.0,0.0,0.0,0.5983986,0.0,0.0,0.0,0.4628913,142.63736,992.4176,760.32965,785.7143,1031.0989,-0.29571533203125,0.03204345703125,0.9425048828125,2.459869384765625,-3.970184326171875,-0.0897216796875,1.0,4.0,4.0,4.0,1.0,100.0,event
09:28:14.230,0.0,0.0,0.0,0.8913275,0.0,0.0,0.0,0.53396,0.0,0.0,0.0,0.56420153,0.0,0.0,0.0,0.5983986,0.0,0.0,0.0,0.4628913,0.0,452.89377,850.989,783.2967,640.2564,-0.29571533203125,0.03204345703125,0.9425048828125,2.459869384765625,-3.970184326171875,-0.0897216796875,1.0,4.0,4.0,4.0,1.0,100.0,event
09:28:14.230,0.0,0.0,0.0,0.8913275,0.0,0.0,0.0,0.53396,0.0,0.0,0.0,0.56420153,0.0,0.0,0.0,0.5983986,0.0,0.0,0.0,0.4628913,883.22345,826.4103,834.87177,778.46155,778.46155,-0.29571533203125,0.03204345703125,0.9425048828125,2.459869384765625,-3.970184326171875,-0.0897216796875,1.0,4.0,4.0,4.0,1.0,100.0,event
09:28:14.231,0.0,0.0,0.0,0.8913275,0.0,0.0,0.0,0.53396,0.0,0.0,0.0,0.56420153,0.0,0.0,0.0,0.5983986,0.0,0.0,0.0,0.4628913,53.186813,93.88278,544.35895,784.10254,710.7692,-0.29571533203125,0.03204345703125,0.9425048828125,2.459869384765625,-3.970184326171875,-0.0897216796875,1.0,4.0,4.0,4.0,1.0,100.0,event
09:28:14.232,0.0,0.0,0.0,0.8913275,0.0,0.0,0.0,0.53396,0.0,0.0,0.0,0.56420153,0.0,0.0,0.0,0.5983986,0.0,0.0,0.0,0.4628913,1080.2565,933.1868,968.6447,807.47253,708.3516,-0.29571533203125,0.03204345703125,0.9425048828125,2.459869384765625,-3.970184326171875,-0.0897216796875,1.0,4.0,4.0,4.0,1.0,100.0,event
09:28:14.259,0.0,0.0,0.0,0.8913275,0.0,0.0,0.0,0.53396,0.0,0.0,0.0,0.56420153,0.0,0.0,0.0,0.5983986,0.0,0.0,0.0,0.4628913,178.09525,75.750916,1497.2894,814.3223,720.0366,-0.29571533203125,0.03204345703125,0.9425048828125,2.459869384765625,-3.970184326171875,-0.0897216796875,1.0,4.0,4.0,4.0,1.0,100.0,event
09:28:14.261,0.0,0.0,0.0,0.8913275,0.0,0.0,0.0,0.53396,0.0,0.0,0.0,0.56420153,0.0,0.0,0.0,0.5983986,0.0,0.0,0.0,0.4628913,935.2015,1376.4103,1261.1721,797.3993,711.1722,-0.29571533203125,0.03204345703125,0.9425048828125,2.459869384765625,-3.970184326171875,-0.0897216796875,1.0,4.0,4.0,4.0,1.0,100.0,event
09:28:14.261,0.0,0.0,0.0,0.8913275,0.0,0.0,0.0,0.53396,0.0,0.0,0.0,0.56420153,0.0,0.0,0.0,0.5983986,0.0,0.0,0.0,0.4628913,0.0,437.17947,765.16486,799.41394,728.0952,-0.29571533203125,0.03204345703125,0.9425048828125,2.459869384765625,-3.970184326171875,-0.0897216796875,1.0,4.0,4.0,4.0,1.0,100.0,event
09:28:14.262,0.0,0.0,0.0,0.8913275,0.0,0.0,0.0,0.53396,0.0,0.0,0.0,0.56420153,0.0,0.0,0.0,0.5983986,0.0,0.0,0.0,0.4628913,0.0,292.12454,742.6007,798.60803,725.2747,-0.29571533203125,0.03204345703125,0.9425048828125,2.459869384765625,-3.970184326171875,-0.0897216796875,1.0,4.0,4.0,4.0,1.0,100.0,event
09:28:14.263,0.0,0.0,0.0,0.8913275,0.0,0.0,0.0,0.53396,0.0,0.0,0.0,0.56420153,0.0,0.0,0.0,0.5983986,0.0,0.0,0.0,0.4628913,925.12823,1033.1135,1043.1868,802.6374,737.3626,-0.29571533203125,0.03204345703125,0.9425048828125,2.459869384765625,-3.970184326171875,-0.0897216796875,1.0,4.0,4.0,4.0,1.0,100.0,event
09:28:14.265,0.0,0.0,0.0,0.8913275,0.0,0.0,0.0,0.53396,0.0,0.0,0.0,0.56420153,0.0,0.0,0.0,0.5983986,0.0,0.0,0.0,0.4628913,174.8718,1537.9854,1137.8755,807.0696,798.20514,-0.29571533203125,0.03204345703125,0.9425048828125,2.459869384765625,-3.970184326171875,-0.0897216796875,1.0,4.0,4.0,4.0,1.0,100.0,event
09:28:14.266,0.0,0.0,0.0,0.8913275,0.0,0.0,0.0,0.53396,0.0,0.0,0.0,0.56420153,0.0,0.0,0.0,0.5983986,0.0,0.0,0.0,0.4628913,947.28937,878.3883,728.49817,799.81683,895.31134,-0.29571533203125,0.03204345703125,0.9425048828125,2.459869384765625,-3.970184326171875,-0.0897216796875,1.0,4.0,4.0,4.0,1.0,100.0,event
09:28:14.266,0.0,0.0,0.0,0.8913275,0.0,0.0,0.0,0.53396,0.0,0.0,0.0,0.56420153,0.0,0.0,0.0,0.5983986,0.0,0.0,0.0,0.4628913,0.0,198.64468,585.8608,787.326,846.55676,-0.29571533203125,0.03204345703125,0.9425048828125,2.459869384765625,-3.970184326171875,-0.0897216796875,1.0,4.0,4.0,4.0,1.0,100.0,event
09:28:14.266,0.0,0.0,0.0,0.8913275,0.0,0.0,0.0,0.53396,0.0,0.0,0.0,0.56420153,0.0,0.0,0.0,0.5983986,0.0,0.0,0.0,0.4628913,0.0,494.3956,923.5165,783.2967,720.4396,-0.29571533203125,0.03204345703125,0.9425048828125,2.459869384765625,-3.970184326171875,-0.0897216796875,1.0,4.0,4.0,4.0,1.0,100.0,event
09:28:14.267,0.0,0.0,0.0,0.88307095,0.0,0.0,0.0,0.53154856,0.0,0.0,0.0,0.56420153,0.0,0.0,0.0,0.6059179,0.0,0.0,0.0,0.47241515,793.36993,1183.8096,1190.2565,802.23444,801.8315,-0.29571533203125,0.03204345703125,0.9425048828125,2.459869384765625,-3.970184326171875,-0.0897216796875,1.0,2.0,4.0,4.0,1.0,100.0,event
09:28:14.271,0.0,0.0,0.0,0.88307095,0.0,0.0,0.0,0.53154856,0.0,0.0,0.0,0.56420153,0.0,0.0,0.0,0.6059179,0.0,0.0,0.0,0.47241515,162.38095,1540.0,1165.6776,805.05493,966.2271,-0.29571533203125,0.03204345703125,0.9425048828125,2.459869384765625,-3.970184326171875,-0.0897216796875,1.0,2.0,4.0,4.0,1.0,100.0,event
09:28:14.272,0.0,0.0,0.0,0.88307095,0.0,0.0,0.0,0.53154856,0.0,0.0,0.0,0.56420153,0.0,0.0,0.0,0.6059179,0.0,0.0,0.0,0.47241515,1111.2821,1330.4762,1045.2014,799.41394,866.30035,-0.29571533203125,0.03204345703125,0.9425048828125,2.459869384765625,-3.970184326171875,-0.0897216796875,1.0,2.0,4.0,4.0,1.0,100.0,event
09:28:14.296,0.0,0.0,0.0,0.88307095,0.0,0.0,0.0,0.53154856,0.0,0.0,0.0,0.56420153,0.0,0.0,0.0,0.6059179,0.0,0.0,0.0,0.47241515,60.43956,793.7729,983.5531,794.17584,672.49084,-0.2989501953125,0.03289794921875,0.94097900390625,2.1832275390625,-3.656158447265625,0.897216796875,1.0,2.0,4.0,4.0,1.0,100.0,event
09:28:14.297,0.0,0.0,0.0,0.88307095,0.0,0.0,0.0,0.53154856,0.0,0.0,0.0,0.56420153,0.0,0.0,0.0,0.6059179,0.0,0.0,0.0,0.47241515,0.0,320.32968,767.5824,785.31134,708.3516,-0.2989501953125,0.03289794921875,0.94097900390625,2.1832275390625,-3.656158447265625,0.897216796875,1.0,2.0,4.0,4.0,1.0,100.0,event
09:28:14.297,0.0,0.0,0.0,0.88307095,0.0,0.0,0.0,0.53154856,0.0,0.0,0.0,0.56420153,0.0,0.0,0.0,0.6059179,0.0,0.0,0.0,0.47241515,626.1539,523.8095,682.1612,799.81683,879.59705,-0.2989501953125,0.03289794921875,0.94097900390625,2.1832275390625,-3.656158447265625,0.897216796875,1.0,2.0,4.0,4.0,1.0,100.0,event
09:28:14.298,0.0,0.0,0.0,0.88307095,0.0,0.0,0.0,0.53154856,0.0,0.0,0.0,0.56420153,0.0,0.0,0.0,0.6059179,0.0,0.0,0.0,0.47241515,117.25275,1410.6593,1161.2454,814.3223,867.9121,-0.2989501953125,0.03289794921875,0.94097900390625,2.1832275390625,-3.656158447265625,0.897216796875,1.0,2.0,4.0,4.0,1.0,100.0,event
09:28:14.298,0.0,0.0,0.0,0.88307095,0.0,0.0,0.0,0.53154856,0.0,0.0,0.0,0.56420153,0.0,0.0,0.0,0.6059179,0.0,0.0,0.0,0.47241515,1245.0549,1580.6959,1341.3553,803.0403,727.28937,-0.2989501953125,0.03289794921875,0.94097900390625,2.1832275390625,-3.656158447265625,0.897216796875,1.0,2.0,4.0,4.0,1.0,100.0,event
09:28:14.298,0.0,0.0,0.0,0.88307095,0.0,0.0,0.0,0.53154856,0.0,0.0,0.0,0.56420153,0.0,0.0,0.0,0.6059179,0.0,0.0,0.0,0.47241515,141.42857,587.8755,702.3077,791.3553,814.3223,-0.2989501953125,0.03289794921875,0.94097900390625,2.1832275390625,-3.656158447265625,0.897216796875,1.0,2.0,4.0,4.0,1.0,100.0,event
09:28:14.299,0.0,0.0,0.0,0.88307095,0.0,0.0,0.0,0.53154856,0.0,0.0,0.0,0.56420153,0.0,0.0,0.0,0.6059179,0.0,0.0,0.0,0.47241515,0.0,0.0,168.42491,787.326,950.9158,-0.2989501953125,0.03289794921875,0.94097900390625,2.1832275390625,-3.656158447265625,0.897216796875,1.0,2.0,4.0,4.0,1.0,100.0,event
09:28:14.299,0.0,0.0,0.0,0.88307095,0.0,0.0,0.0,0.53154856,0.0,0.0,0.0,0.56420153,0.0,0.0,0.0,0.6059179,0.0,0.0,0.0,0.47241515,620.5128,540.32965,543.5531,813.1135,867.50916,-0.2989501953125,0.03289794921875,0.94097900390625,2.1832275390625,-3.656158447265625,0.897216796875,1.0,2.0,4.0,4.0,1.0,100.0,event
09:28:14.300,0.0,0.0,0.0,0.88307095,0.0,0.0,0.0,0.53154856,0.0,0.0,0.0,0.56420153,0.0,0.0,0.0,0.6059179,0.0,0.0,0.0,0.47241515,108.388275,1573.0403,1379.2307,823.9927,812.71063,-0.2989501953125,0.03289794921875,0.94097900390625,2.1832275390625,-3.656158447265625,0.897216796875,1.0,2.0,4.0,4.0,1.0,100.0,event
09:28:14.300,0.0,0.0,0.0,0.88307095,0.0,0.0,0.0,0.53154856,0.0,0.0,0.0,0.56420153,0.0,0.0,0.0,0.6059179,0.0,0.0,0.0,0.47241515,1283.7362,1342.1611,1191.8682,810.293,905.38464,-0.2989501953125,0.03289794921875,0.94097900390625,2.1832275390625,-3.656158447265625,0.897216796875,1.0,2.0,4.0,4.0,1.0,100.0,event
09:28:14.301,0.0,0.0,0.0,0.88307095,0.0,0.0,0.0,0.53154856,0.0,0.0,0.0,0.56420153,0.0,0.0,0.0,0.6059179,0.0,0.0,0.0,0.47241515,168.82784,354.1758,561.685,807.8755,952.1245,-0.2989501953125,0.03289794921875,0.94097900390625,2.1832275390625,-3.656158447265625,0.897216796875,1.0,2.0,4.0,4.0,1.0,100.0,event
09:28:14.301,0.0,0.0,0.0,0.88307095,0.0,0.0,0.0,0.53154856,0.0,0.0,0.0,0.56420153,0.0,0.0,0.0,0.6059179,0.0,0.0,0.0,0.47241515,0.0,325.56778,759.12085,797.3993,759.12085,-0.2989501953125,0.03289794921875,0.94097900390625,2.1832275390625,-3.656158447265625,0.897216796875,1.0,2.0,4.0,4.0,1.0,100.0,event
09:28:14.329,0.0,0.0,0.0,0.88307095,0.0,0.0,0.0,0.53154856,0.0,0.0,0.0,0.56420153,0.0,0.0,0.0,0.6059179,0.0,0.0,0.0,0.47241515,591.9048,908.20514,1041.1721,807.0696,696.26373,-0.30072021484375,0.03045654296875,0.94537353515625,1.68975830078125,-3.409423828125,0.067291259765625,1.0,2.0,4.0,4.0,1.0,100.0,event
09:28:14.330,0.0,0.0,0.0,0.88307095,0.0,0.0,0.0,0.53154856,0.0,0.0,0.0,0.56420153,0.0,0.0,0.0,0.6059179,0.0,0.0,0.0,0.47241515,1558.9377,1623.0037,1259.9634,803.8461,850.989,-0.30072021484375,0.03045654296875,0.94537353515625,1.68975830078125,-3.409423828125,0.067291259765625,1.0,2.0,4.0,4.0,1.0,100.0,event
09:28:14.330,0.0,0.0,0.0,0.88307095,0.0,0.0,0.0,0.53154856,0.0,0.0,0.0,0.56420153,0.0,0.0,0.0,0.6059179,0.0,0.0,0.0,0.47241515,16.520147,1493.663,1205.5677,819.15753,794.17584,-0.30072021484375,0.03045654296875,0.94537353515625,1.68975830078125,-3.409423828125,0.067291259765625,1.0,2.0,4.0,4.0,1.0,100.0,event
09:28:14.331,0.0,0.0,0.0,0.88307095,0.0,0.0,0.0,0.53154856,0.0,0.0,0.0,0.56420153,0.0,0.0,0.0,0.6059179,0.0,0.0,0.0,0.47241515,542.3443,1103.2234,1083.0769,801.8315,761.53845,-0.30072021484375,0.03045654296875,0.94537353515625,1.68975830078125,-3.409423828125,0.067291259765625,1.0,2.0,4.0,4.0,1.0,100.0,event
09:28:14.332,0.0,0.0,0.0,0.88307095,0.0,0.0,0.0,0.53154856,0.0,0.0,0.0,0.56420153,0.0,0.0,0.0,0.6059179,0.0,0.0,0.0,0.47241515,428.31503,473.04028,708.7546,810.696,891.28204,-0.30072021484375,0.03045654296875,0.94537353515625,1.68975830078125,-3.409423828125,0.067291259765625,1.0,2.0,4.0,4.0,1.0,100.0,event
09:28:14.332,0.0,0.0,0.0,0.88307095,0.0,0.0,0.0,0.53154856,0.0,0.0,0.0,0.56420153,0.0,0.0,0.0,0.6059179,0.0,0.0,0.0,0.47241515,0.0,462.56412,803.44324,807.47253,758.71796,-0.30072021484375,0.03045654296875,0.94537353515625,1.68975830078125,-3.409423828125,0.067291259765625,1.0,2.0,4.0,4.0,1.0,100.0,event
09:28:14.333,0.0,0.0,0.0,0.88307095,0.0,0.0,0.0,0.53154856,0.0,0.0,0.0,0.56420153,0.0,0.0,0.0,0.6059179,0.0,0.0,0.0,0.47241515,1554.9084,1152.7839,915.8608,818.7546,927.5458,-0.30072021484375,0.03045654296875,0.94537353515625,1.68975830078125,-3.409423828125,0.067291259765625,1.0,2.0,4.0,4.0,1.0,100.0,event
09:28:14.333,0.0,0.0,0.0,0.88307095,0.0,0.0,0.0,0.53154856,0.0,0.0,0.0,0.56420153,0.0,0.0,0.0,0.6059179,0.0,0.0,0.0,0.47241515,33.443222,6.0439563,1169.7069,802.23444,843.3333,-0.30072021484375,0.03045654296875,0.94537353515625,1.68975830078125,-3.409423828125,0.067291259765625,1.0,2.0,4.0,4.0,1.0,100.0,event
09:28:14.334,0.0,0.0,0.0,0.88307095,0.0,0.0,0.0,0.53154856,0.0,0.0,0.0,0.56420153,0.0,0.0,0.0,0.6059179,0.0,0.0,0.0,0.47241515,713.1868,1114.5055,1043.5897,780.4762,687.8022,-0.30072021484375,0.03045654296875,0.94537353515625,1.68975830078125,-3.409423828125,0.067291259765625,1.0,2.0,4.0,4.0,1.0,100.0,event
09:28:14.334,0.0,0.0,0.0,0.88307095,0.0,0.0,0.0,0.53154856,0.0,0.0,0.0,0.56420153,0.0,0.0,0.0,0.6059179,0.0,0.0,0.0,0.47241515,0.0,149.48718,343.2967,774.0293,895.7143,-0.30072021484375,0.03045654296875,0.94537353515625,1.68975830078125,-3.409423828125,0.067291259765625,1.0,2.0,4.0,4.0,1.0,100.0,event
09:28:14.334,0.0,0.0,0.0,0.88307095,0.0,0.0,0.0,0.53154856,0.0,0.0,0.0,0.56420153,0.0,0.0,0.0,0.6059179,0.0,0.0,0.0,0.47241515,304.21246,181.72162,193.00366,783.2967,1080.6593,-0.30072021484375,0.03045654296875,0.94537353515625,1.68975830078125,-3.409423828125,0.067291259765625,1.0,2.0,4.0,4.0,1.0,100.0,event
09:28:14.335,0.0,0.0,0.0,0.8808065,0.0,0.0,0.0,0.5395615,0.0,0.0,0.0,0.56420153,0.0,0.0,0.0,0.6176797,0.0,0.0,0.0,0.4804118,1426.3737,1246.6666,1097.5824,799.81683,827.2161,-0.30072021484375,0.03045654296875,0.94537353515625,1.68975830078125,-3.409423828125,0.067291259765625,1.0,4.0,4.0,4.0,1.0,100.0,event
09:28:14.362,0.0,0.0,0.0,0.8808065,0.0,0.0,0.0,0.5395615,0.0,0.0,0.0,0.56420153,0.0,0.0,0.0,0.6176797,0.0,0.0,0.0,0.4804118,87.4359,1643.956,1344.5787,813.5165,749.45056,-0.29833984375,0.03045654296875,0.93902587890625,1.734619140625,-4.18701171875,0.04486083984375,1.0,4.0,4.0,4.0,1.0,100.0,event
09:28:14.363,0.0,0.0,0.0,0.8808065,0.0,0.0,0.0,0.5395615,0.0,0.0,0.0,0.56420153,0.0,0.0,0.0,0.6176797,0.0,0.0,0.0,0.4804118,739.3773,858.24176,795.38464,796.99634,838.9011,-0.29833984375,0.03045654296875,0.93902587890625,1.734619140625,-4.18701171875,0.04486083984375,1.0,4.0,4.0,4.0,1.0,100.0,event
09:28:14.364,0.0,0.0,0.0,0.8808065,0.0,0.0,0.0,0.5395615,0.0,0.0,0.0,0.56420153,0.0,0.0,0.0,0.6176797,0.0,0.0,0.0,0.4804118,0.0,286.88644,610.84247,786.9231,755.89746,-0.29833984375,0.03045654296875,0.93902587890625,1.734619140625,-4.18701171875,0.04486083984375,1.0,4.0,4.0,4.0,1.0,100.0,event
09:28:14.364,0.0,0.0,0.0,0.8808065,0.0,0.0,0.0,0.5395615,0.0,0.0,0.0,0.56420153,0.0,0.0,0.0,0.6176797,0.0,0.0,0.0,0.4804118,178.49817,585.8608,845.34796,799.81683,636.63007,-0.29833984375,0.03045654296875,0.93902587890625,1.734619140625,-4.18701171875,0.04486083984375,1.0,4.0,4.0,4.0,1.0,100.0,event
09:28:14.365,0.0,0.0,0.0,0.8808065,0.0,0.0,0.0,0.5395615,0.0,0.0,0.0,0.56420153,0.0,0.0,0.0,0.6176797,0.0,0.0,0.0,0.4804118,1230.1465,1243.8462,1064.1392,810.696,752.674,-0.29833984375,0.03045654296875,0.93902587890625,1.734619140625,-4.18701171875,0.04486083984375,1.0,4.0,4.0,4.0,1.0,100.0,event
09:28:14.365,0.0,0.0,0.0,0.8808065,0.0,0.0,0.0,0.5395615,0.0,0.0,0.0,0.56420153,0.0,0.0,0.0,0.6176797,0.0,0.0,0.0,0.4804118,157.94872,1467.4725,993.6264,814.3223,874.35895,-0.29833984375,0.03045654296875,0.93902587890625,1.734619140625,-4.18701171875,0.04486083984375,1.0,4.0,4.0,4.0,1.0,100.0,event
09:28:14.365,0.0,0.0,0.0,0.8808065,0.0,0.0,0.0,0.5395615,0.0,0.0,0.0,0.56420153,0.0,0.0,0.0,0.6176797,0.0,0.0,0.0,0.4804118,868.315,935.2015,747.4359,797.8022,820.3663,-0.29833984375,0.03045654296875,0.93902587890625,1.734619140625,-4.18701171875,0.04486083984375,1.0,4.0,4.0,4.0,1.0,100.0,event
09:28:14.366,0.0,0.0,0.0,0.8808065,0.0,0.0,0.0,0.5395615,0.0,0.0,0.0,0.56420153,0.0,0.0,0.0,0.6176797,0.0,0.0,0.0,0.4804118,793.36993,389.23077,456.52014,801.8315,938.4249,-0.29833984375,0.03045654296875,0.93902587890625,1.734619140625,-4.18701171875,0.04486083984375,1.0,4.0,4.0,4.0,1.0,100.0,event
09:28:14.366,0.0,0.0,0.0,0.8808065,0.0,0.0,0.0,0.5395615,0.0,0.0,0.0,0.56420153,0.0,0.0,0.0,0.6176797,0.0,0.0,0.0,0.4804118,0.0,234.90843,596.337,784.90845,753.0769,-0.29833984375,0.03045654296875,0.93902587890625,1.734619140625,-4.18701171875,0.04486083984375,1.0,4.0,4.0,4.0,1.0,100.0,event
09:28:14.366,0.0,0.0,0.0,0.8808065,0.0,0.0,0.0,0.5395615,0.0,0.0,0.0,0.56420153,0.0,0.0,0.0,0.6176797,0.0,0.0,0.0,0.4804118,0.0,444.83517,688.60803,788.5348,734.5421,-0.29833984375,0.03045654296875,0.93902587890625,1.734619140625,-4.18701171875,0.04486083984375,1.0,4.0,4.0,4.0,1.0,100.0,event
09:28:14.367,0.0,0.0,0.0,0.8808065,0.0,0.0,0.0,0.5395615,0.0,0.0,0.0,0.56420153,0.0,0.0,0.0,0.6176797,0.0,0.0,0.0,0.4804118,178.9011,1440.0732,1095.1648,801.02563,907.3993,-0.29833984375,0.03045654296875,0.93902587890625,1.734619140625,-4.18701171875,0.04486083984375,1.0,4.0,4.0,4.0,1.0,100.0,event
09:28:14.368,0.0,0.0,0.0,0.8808065,0.0,0.0,0.0,0.5395615,0.0,0.0,0.0,0.56420153,0.0,0.0,0.0,0.6176797,0.0,0.0,0.0,0.4804118,990.40295,1542.4176,1285.348,781.685,801.02563,-0.29833984375,0.03045654296875,0.93902587890625,1.734619140625,-4.18701171875,0.04486083984375,1.0,4.0,4.0,4.0,1.0,100.0,event
09:28:14.428,0.0,0.0,0.0,0.8808065,0.0,0.0,0.0,0.5395615,0.0,0.0,0.0,0.56420153,0.0,0.0,0.0,0.6176797,0.0,0.0,0.0,0.4804118,0.0,480.29303,708.3516,786.9231,760.7326,-0.2979736328125,0.0283203125,0.93853759765625,1.861724853515625,-3.970184326171875,0.19439697265625,1.0,4.0,4.0,4.0,1.0,100.0,event
09:28:14.429,0.0,0.0,0.0,0.8808065,0.0,0.0,0.0,0.5395615,0.0,0.0,0.0,0.56420153,0.0,0.0,0.0,0.6176797,0.0,0.0,0.0,0.4804118,0.0,120.87912,503.26007,790.54944,771.6117,-0.2979736328125,0.0283203125,0.93853759765625,1.861724853515625,-3.970184326171875,0.19439697265625,1.0,4.0,4.0,4.0,1.0,100.0,event
09:28:14.430,0.0,0.0,0.0,0.8808065,0.0,0.0,0.0,0.5395615,0.0,0.0,0.0,0.56420153,0.0,0.0,0.0,0.6176797,0.0,0.0,0.0,0.4804118,782.0879,987.98535,958.97437,803.8461,797.3993,-0.2979736328125,0.0283203125,0.93853759765625,1.861724853515625,-3.970184326171875,0.19439697265625,1.0,4.0,4.0,4.0,1.0,100.0,event
09:28:14.430,0.0,0.0,0.0,0.8808065,0.0,0.0,0.0,0.5395615,0.0,0.0,0.0,0.56420153,0.0,0.0,0.0,0.6176797,0.0,0.0,0.0,0.4804118,169.23077,51.978024,1299.4506,812.3077,813.91943,-0.2979736328125,0.0283203125,0.93853759765625,1.861724853515625,-3.970184326171875,0.19439697265625,1.0,4.0,4.0,4.0,1.0,100.0,event
09:28:14.431,0.0,0.0,0.0,0.8808065,0.0,0.0,0.0,0.5395615,0.0,0.0,0.0,0.56420153,0.0,0.0,0.0,0.6176797,0.0,0.0,0.0,0.4804118,990.80585,1166.4835,872.3443,805.05493,867.50916,-0.2979736328125,0.0283203125,0.93853759765625,1.861724853515625,-3.970184326171875,0.19439697265625,1.0,4.0,4.0,4.0,1.0,100.0,event
09:28:14.431,0.0,0.0,0.0,0.8808065,0.0,0.0,0.0,0.5395615,0.0,0.0,0.0,0.56420153,0.0,0.0,0.0,0.6176797,0.0,0.0,0.0,0.4804118,0.0,209.12088,411.79486,781.685,785.7143,-0.2979736328125,0.0283203125,0.93853759765625,1.861724853515625,-3.970184326171875,0.19439697265625,1.0,4.0,4.0,4.0,1.0,100.0,event
09:28:14.432,0.0,0.0,0.0,0.8808065,0.0,0.0,0.0,0.5395615,0.0,0.0,0.0,0.56420153,0.0,0.0,0.0,0.6176797,0.0,0.0,0.0,0.4804118,0.0,47.142857,452.89377,781.685,745.82416,-0.2979736328125,0.0283203125,0.93853759765625,1.861724853515625,-3.970184326171875,0.19439697265625,1.0,4.0,4.0,4.0,1.0,100.0,event
09:28:14.433,0.0,0.0,0.0,0.8808065,0.0,0.0,0.0,0.5395615,0.0,0.0,0.0,0.56420153,0.0,0.0,0.0,0.6176797,0.0,0.0,0.0,0.4804118,678.5348,859.45056,866.30035,800.6227,750.65936,-0.2979736328125,0.0283203125,0.93853759765625,1.861724853515625,-3.970184326171875,0.19439697265625,1.0,4.0,4.0,4.0,1.0,100.0,event
09:28:14.433,0.0,0.0,0.0,0.8808065,0.0,0.0,0.0,0.5395615,0.0,0.0,0.0,0.56420153,0.0,0.0,0.0,0.6176797,0.0,0.0,0.0,0.4804118,145.05495,1168.4982,801.02563,807.8755,926.7399,-0.2979736328125,0.0283203125,0.93853759765625,1.861724853515625,-3.970184326171875,0.19439697265625,1.0,4.0,4.0,4.0,1.0,100.0,event
09:28:14.434,0.0,0.0,0.0,0.8808065,0.0,0.0,0.0,0.5395615,0.0,0.0,0.0,0.56420153,0.0,0.0,0.0,0.6176797,0.0,0.0,0.0,0.4804118,1124.9817,525.0183,382.38095,805.05493,1117.326,-0.2979736328125,0.0283203125,0.93853759765625,1.861724853515625,-3.970184326171875,0.19439697265625,1.0,4.0,4.0,4.0,1.0,100.0,event
09:28:14.434,0.0,0.0,0.0,0.8808065,0.0,0.0,0.0,0.5395615,0.0,0.0,0.0,0.56420153,0.0,0.0,0.0,0.6176797,0.0,0.0,0.0,0.4804118,66.886444,441.61172,653.5531,784.90845,836.08057,-0.2979736328125,0.0283203125,0.93853759765625,1.861724853515625,-3.970184326171875,0.19439697265625,1.0,4.0,4.0,4.0,1.0,100.0,event
09:28:14.435,0.0,0.0,0.0,0.8808065,0.0,0.0,0.0,0.5395615,0.0,0.0,0.0,0.56420153,0.0,0.0,0.0,0.6176797,0.0,0.0,0.0,0.4804118,0.0,418.24176,789.34064,791.3553,697.47253,-0.2979736328125,0.0283203125,0.93853759765625,1.861724853515625,-3.970184326171875,0.19439697265625,1.0,4.0,4.0,4.0,1.0,100.0,event
09:28:14.459,0.0,0.0,0.0,0.8808065,0.0,0.0,0.0,0.5395615,0.0,0.0,0.0,0.56420153,0.0,0.0,0.0,0.6176797,0.0,0.0,0.0,0.4804118,640.65936,844.5421,897.72894,816.7399,764.35895,-0.2979736328125,0.0283203125,0.93853759765625,1.861724853515625,-3.970184326171875,0.19439697265625,1.0,4.0,4.0,4.0,1.0,100.0,event
09:28:14.460,0.0,0.0,0.0,0.87853515,0.0,0.0,0.0,0.5463366,0.0,0.0,0.0,0.56420153,0.0,0.0,0.0,0.62829244,0.0,0.0,0.0,0.48701537,90.65934,1564.9817,1354.652,806.6667,752.674,-0.2979736328125,0.0283203125,0.93853759765625,1.861724853515625,-3.970184326171875,0.19439697265625,1.0,4.0,4.0,4.0,1.0,100.0,event
09:28:14.464,0.0,0.0,0.0,0.87853515,0.0,0.0,0.0,0.5463366,0.0,0.0,0.0,0.56420153,0.0,0.0,0.0,0.62829244,0.0,0.0,0.0,0.48701537,1381.2454,1612.1245,1392.9304,793.36993,705.12823,-0.2979736328125,0.0283203125,0.93853759765625,1.861724853515625,-3.970184326171875,0.19439697265625,1.0,4.0,4.0,4.0,1.0,100.0,event
09:28:14.464,0.0,0.0,0.0,0.87853515,0.0,0.0,0.0,0.5463366,0.0,0.0,0.0,0.56420153,0.0,0.0,0.0,0.62829244,0.0,0.0,0.0,0.48701537,276.41025,823.5897,883.22345,792.1612,705.9341,-0.2979736328125,0.0283203125,0.93853759765625,1.861724853515625,-3.970184326171875,0.19439697265625,1.0,4.0,4.0,4.0,1.0,100.0,event
09:28:14.465,0.0,0.0,0.0,0.87853515,0.0,0.0,0.0,0.5463366,0.0,0.0,0.0,0.56420153,0.0,0.0,0.0,0.62829244,0.0,0.0,0.0,0.48701537,0.0,83.40659,498.4249,785.31134,738.97437,-0.2979736328125,0.0283203125,0.93853759765625,1.861724853515625,-3.970184326171875,0.19439697265625,1.0,4.0,4.0,4.0,1.0,100.0,event
09:28:14.466,0.0,0.0,0.0,0.87853515,0.0,0.0,0.0,0.5463366,0.0,0.0,0.0,0.56420153,0.0,0.0,0.0,0.62829244,0.0,0.0,0.0,0.48701537,649.92676,486.337,662.01465,793.36993,799.41394,-0.2979736328125,0.0283203125,0.93853759765625,1.861724853515625,-3.970184326171875,0.19439697265625,1.0,4.0,4.0,4.0,1.0,100.0,event
09:28:14.467,0.0,0.0,0.0,0.87853515,0.0,0.0,0.0,0.5463366,0.0,0.0,0.0,0.56420153,0.0,0.0,0.0,0.62829244,0.0,0.0,0.0,0.48701537,59.23077,1403.4066,1046.4103,807.0696,851.39197,-0.2979736328125,0.0283203125,0.93853759765625,1.861724853515625,-3.970184326171875,0.19439697265625,1.0,4.0,4.0,4.0,1.0,100.0,event
09:28:14.468,0.0,0.0,0.0,0.87853515,0.0,0.0,0.0,0.5463366,0.0,0.0,0.0,0.56420153,0.0,0.0,0.0,0.62829244,0.0,0.0,0.0,0.48701537,1397.7656,1367.1428,990.40295,786.9231,838.49817,-0.2979736328125,0.0283203125,0.93853759765625,1.861724853515625,-3.970184326171875,0.19439697265625,1.0,4.0,4.0,4.0,1.0,100.0,event
09:28:14.469,0.0,0.0,0.0,0.87853515,0.0,0.0,0.0,0.5463366,0.0,0.0,0.0,0.56420153,0.0,0.0,0.0,0.62829244,0.0,0.0,0.0,0.48701537,280.03662,228.05861,212.74725,775.64105,1001.685,-0.2979736328125,0.0283203125,0.93853759765625,1.861724853515625,-3.970184326171875,0.19439697265625,1.0,4.0,4.0,4.0,1.0,100.0,event
09:28:14.469,0.0,0.0,0.0,0.87853515,0.0,0.0,0.0,0.5463366,0.0,0.0,0.0,0.56420153,0.0,0.0,0.0,0.62829244,0.0,0.0,0.0,0.48701537,0.0,63.663002,228.05861,780.4762,853.00366,-0.2979736328125,0.0283203125,0.93853759765625,1.861724853515625,-3.970184326171875,0.19439697265625,1.0,4.0,4.0,4.0,1.0,100.0,event
09:28:14.470,0.0,0.0,0.0,0.87853515,0.0,0.0,0.0,0.5463366,0.0,0.0,0.0,0.56420153,0.0,0.0,0.0,0.62829244,0.0,0.0,0.0,0.48701537,544.35895,828.8278,970.65936,791.3553,596.7399,-0.2979736328125,0.0283203125,0.93853759765625,1.861724853515625,-3.970184326171875,0.19439697265625,1.0,4.0,4.0,4.0,1.0,100.0,event
09:28:14.470,0.0,0.0,0.0,0.87853515,0.0,0.0,0.0,0.5463366,0.0,0.0,0.0,0.56420153,0.0,0.0,0.0,0.62829244,0.0,0.0,0.0,0.48701537,1616.1538,1442.8938,1166.4835,809.89014,707.9487,-0.2979736328125,0.0283203125,0.93853759765625,1.861724853515625,-3.970184326171875,0.19439697265625,1.0,4.0,4.0,4.0,1.0,100.0,event
09:28:14.527,0.0,0.0,0.0,0.87853515,0.0,0.0,0.0,0.5463366,0.0,0.0,0.0,0.56420153,0.0,0.0,0.0,0.62829244,0.0,0.0,0.0,0.48701537,1637.9121,1640.3297,1218.8645,807.47253,764.7619,-0.29681396484375,0.0338134765625,0.9476318359375,2.743988037109375,-4.000091552734375,0.306549072265625,1.0,4.0,4.0,4.0,1.0,100.0,event
09:28:14.528,0.0,0.0,0.0,0.87853515,0.0,0.0,0.0,0.5463366,0.0,0.0,0.0,0.56420153,0.0,0.0,0.0,0.62829244,0.0,0.0,0.0,0.48701537,672.8938,1147.5458,1056.8865,790.14655,678.1319,-0.29681396484375,0.0338134765625,0.9476318359375,2.743988037109375,-4.000091552734375,0.306549072265625,1.0,4.0,4.0,4.0,1.0,100.0,event
09:28:14.528,0.0,0.0,0.0,0.87853515,0.0,0.0,0.0,0.5463366,0.0,0.0,0.0,0.56420153,0.0,0.0,0.0,0.62829244,0.0,0.0,0.0,0.48701537,0.0,489.1575,804.65204,783.2967,670.07324,-0.29681396484375,0.0338134765625,0.9476318359375,2.743988037109375,-4.000091552734375,0.306549072265625,1.0,4.0,4.0,4.0,1.0,100.0,event
09:28:14.529,0.0,0.0,0.0,0.87853515,0.0,0.0,0.0,0.5463366,0.0,0.0,0.0,0.56420153,0.0,0.0,0.0,0.62829244,0.0,0.0,0.0,0.48701537,1463.4432,1269.6337,1088.7179,806.26373,718.8278,-0.29681396484375,0.0338134765625,0.9476318359375,2.743988037109375,-4.000091552734375,0.306549072265625,1.0,4.0,4.0,4.0,1.0,100.0,event
09:28:14.529,0.0,0.0,0.0,0.87853515,0.0,0.0,0.0,0.5463366,0.0,0.0,0.0,0.56420153,0.0,0.0,0.0,0.62829244,0.0,0.0,0.0,0.48701537,343.69965,547.98535,786.1172,797.8022,703.91943,-0.29681396484375,0.0338134765625,0.9476318359375,2.743988037109375,-4.000091552734375,0.306549072265625,1.0,4.0,4.0,4.0,1.0,100.0,event
09:28:14.530,0.0,0.0,0.0,0.87853515,0.0,0.0,0.0,0.5463366,0.0,0.0,0.0,0.56420153,0.0,0.0,0.0,0.62829244,0.0,0.0,0.0,0.48701537,80.18315,1594.7986,1183.4066,789.7436,853.4066,-0.29681396484375,0.0338134765625,0.9476318359375,2.743988037109375,-4.000091552734375,0.306549072265625,1.0,4.0,4.0,4.0,1.0,100.0,event
09:28:14.530,0.0,0.0,0.0,0.87853515,0.0,0.0,0.0,0.5463366,0.0,0.0,0.0,0.56420153,0.0,0.0,0.0,0.62829244,0.0,0.0,0.0,0.48701537,769.59705,881.2088,815.5311,778.46155,862.27106,-0.29681396484375,0.0338134765625,0.9476318359375,2.743988037109375,-4.000091552734375,0.306549072265625,1.0,4.0,4.0,4.0,1.0,100.0,event
09:28:14.531,0.0,0.0,0.0,0.87853515,0.0,0.0,0.0,0.5463366,0.0,0.0,0.0,0.56420153,0.0,0.0,0.0,0.62829244,0.0,0.0,0.0,0.48701537,0.0,93.07692,280.8425,776.04395,1002.8938,-0.29681396484375,0.0338134765625,0.9476318359375,2.743988037109375,-4.000091552734375,0.306549072265625,1.0,4.0,4.0,4.0,1.0,100.0,event
09:28:14.532,0.0,0.0,0.0,0.87853515,0.0,0.0,0.0,0.5463366,0.0,0.0,0.0,0.56420153,0.0,0.0,0.0,0.62829244,0.0,0.0,0.0,0.48701537,217.98535,147.47253,130.95238,784.90845,1079.0476,-0.29681396484375,0.0338134765625,0.9476318359375,2.743988037109375,-4.000091552734375,0.306549072265625,1.0,4.0,4.0,4.0,1.0,100.0,event
09:28:14.532,0.0,0.0,0.0,0.87853515,0.0,0.0,0.0,0.5463366,0.0,0.0,0.0,0.56420153,0.0,0.0,0.0,0.62829244,0.0,0.0,0.0,0.48701537,1302.2711,1159.6337,1016.5934,807.0696,736.55676,-0.29681396484375,0.0338134765625,0.9476318359375,2.743988037109375,-4.000091552734375,0.306549072265625,1.0,4.0,4.0,4.0,1.0,100.0,event
09:28:14.533,0.0,0.0,0.0,0.87853515,0.0,0.0,0.0,0.5463366,0.0,0.0,0.0,0.56420153,0.0,0.0,0.0,0.62829244,0.0,0.0,0.0,0.48701537,137.8022,41.904762,1436.8499,796.99634,711.1722,-0.29681396484375,0.0338134765625,0.9476318359375,2.743988037109375,-4.000091552734375,0.306549072265625,1.0,4.0,4.0,4.0,1.0,100.0,event
09:28:14.533,0.0,0.0,0.0,0.87853515,0.0,0.0,0.0,0.5463366,0.0,0.0,0.0,0.56420153,0.0,0.0,0.0,0.62829244,0.0,0.0,0.0,0.48701537,845.7509,1133.8462,1012.1612,765.16486,793.7729,-0.29681396484375,0.0338134765625,0.9476318359375,2.743988037109375,-4.000091552734375,0.306549072265625,1.0,4.0,4.0,4.0,1.0,100.0,event
09:28:14.564,0.0,0.0,0.0,0.87853515,0.0,0.0,0.0,0.5463366,0.0,0.0,0.0,0.56420153,0.0,0.0,0.0,0.62829244,0.0,0.0,0.0,0.48701537,0.0,468.60806,760.7326,757.1062,678.5348,-0.2913818359375,0.03363037109375,0.94647216796875,2.0037841796875,-3.75335693359375,0.411224365234375,1.0,4.0,4.0,4.0,1.0,100.0,event
09:28:14.565,0.0,0.0,0.0,0.87853515,0.0,0.0,0.0,0.5463366,0.0,0.0,0.0,0.56420153,0.0,0.0,0.0,0.62829244,0.0,0.0,0.0,0.48701537,76.95971,582.6374,912.6374,774.83514,581.4286,-0.2913818359375,0.03363037109375,0.94647216796875,2.0037841796875,-3.75335693359375,0.411224365234375,1.0,4.0,4.0,4.0,1.0,100.0,event
09:28:14.565,0.0,0.0,0.0,0.87853515,0.0,0.0,0.0,0.5463366,0.0,0.0,0.0,0.56420153,0.0,0.0,0.0,0.62829244,0.0,0.0,0.0,0.48701537,1082.674,1226.1172,1111.6849,802.23444,694.2491,-0.2913818359375,0.03363037109375,0.94647216796875,2.0037841796875,-3.75335693359375,0.411224365234375,1.0,4.0,4.0,4.0,1.0,100.0,event
09:28:14.566,0.0,0.0,0.0,0.8633417,0.0,0.0,0.0,0.5310296,0.0,0.0,0.0,0.56420153,0.0,0.0,0.0,0.63604033,0.0,0.0,0.0,0.4900312,178.09525,34.249084,1243.8462,799.011,819.15753,-0.2913818359375,0.03363037109375,0.94647216796875,2.0037841796875,-3.75335693359375,0.411224365234375,1.0,4.0,4.0,4.0,1.0,100.0,event
09:28:14.570,0.0,0.0,0.0,0.8633417,0.0,0.0,0.0,0.5310296,0.0,0.0,0.0,0.56420153,0.0,0.0,0.0,0.63604033,0.0,0.0,0.0,0.4900312,942.0513,1295.8242,1085.8975,789.7436,768.3883,-0.2913818359375,0.03363037109375,0.94647216796875,2.0037841796875,-3.75335693359375,0.411224365234375,1.0,4.0,4.0,4.0,1.0,100.0,event
09:28:14.571,0.0,0.0,0.0,0.8633417,0.0,0.0,0.0,0.5310296,0.0,0.0,0.0,0.56420153,0.0,0.0,0.0,0.63604033,0.0,0.0,0.0,0.4900312,0.0,327.58243,617.28937,780.87915,781.685,-0.2913818359375,0.03363037109375,0.94647216796875,2.0037841796875,-3.75335693359375,0.411224365234375,1.0,4.0,4.0,4.0,1.0,100.0,event
09:28:14.572,0.0,0.0,0.0,0.8633417,0.0,0.0,0.0,0.5310296,0.0,0.0,0.0,0.56420153,0.0,0.0,0.0,0.63604033,0.0,0.0,0.0,0.4900312,0.0,40.29304,460.54944,778.0586,830.84247,-0.2913818359375,0.03363037109375,0.94647216796875,2.0037841796875,-3.75335693359375,0.411224365234375,1.0,4.0,4.0,4.0,1.0,100.0,event
09:28:14.572,0.0,0.0,0.0,0.8633417,0.0,0.0,0.0,0.5310296,0.0,0.0,0.0,0.56420153,0.0,0.0,0.0,0.63604033,0.0,0.0,0.0,0.4900312,699.0842,350.9524,460.54944,801.4286,972.27106,-0.2913818359375,0.03363037109375,0.94647216796875,2.0037841796875,-3.75335693359375,0.411224365234375,1.0,4.0,4.0,4.0,1.0,100.0,event
09:28:14.573,0.0,0.0,0.0,0.8633417,0.0,0.0,0.0,0.5310296,0.0,0.0,0.0,0.56420153,0.0,0.0,0.0,0.63604033,0.0,0.0,0.0,0.4900312,158.75458,1355.0549,1066.1538,798.60803,887.25275,-0.2913818359375,0.03363037109375,0.94647216796875,2.0037841796875,-3.75335693359375,0.411224365234375,1.0,4.0,4.0,4.0,1.0,100.0,event
09:28:14.574,0.0,0.0,0.0,0.8633417,0.0,0.0,0.0,0.5310296,0.0,0.0,0.0,0.56420153,0.0,0.0,0.0,0.63604033,0.0,0.0,0.0,0.4900312,1073.8096,1602.8572,1333.6996,796.5934,704.7253,-0.2913818359375,0.03363037109375,0.94647216796875,2.0037841796875,-3.75335693359375,0.411224365234375,1.0,4.0,4.0,4.0,1.0,100.0,event
09:28:14.574,0.0,0.0,0.0,0.8633417,0.0,0.0,0.0,0.5310296,0.0,0.0,0.0,0.56420153,0.0,0.0,0.0,0.63604033,0.0,0.0,0.0,0.4900312,1.6117216,519.3773,715.2015,792.5641,770.0,-0.2913818359375,0.03363037109375,0.94647216796875,2.0037841796875,-3.75335693359375,0.411224365234375,1.0,4.0,4.0,4.0,1.0,100.0,event
09:28:14.575,0.0,0.0,0.0,0.8633417,0.0,0.0,0.0,0.5310296,0.0,0.0,0.0,0.56420153,0.0,0.0,0.0,0.63604033,0.0,0.0,0.0,0.4900312,0.0,135.78755,544.7619,780.4762,784.5055,-0.2913818359375,0.03363037109375,0.94647216796875,2.0037841796875,-3.75335693359375,0.411224365234375,1.0,4.0,4.0,4.0,1.0,100.0,event
09:28:14.601,0.0,0.0,0.0,0.8633417,0.0,0.0,0.0,0.5310296,0.0,0.0,0.0,0.56420153,0.0,0.0,0.0,0.63604033,0.0,0.0,0.0,0.4900312,783.2967,1105.238,1093.956,805.4579,709.9634,-0.29339599609375,0.0303955078125,0.94427490234375,1.562652587890625,-3.529052734375,0.179443359375,1.0,4.0,4.0,4.0,1.0,100.0,event
09:28:14.602,0.0,0.0,0.0,0.8633417,0.0,0.0,0.0,0.5310296,0.0,0.0,0.0,0.56420153,0.0,0.0,0.0,0.63604033,0.0,0.0,0.0,0.4900312,161.97803,80.18315,1486.0073,808.2784,760.7326,-0.29339599609375,0.0303955078125,0.94427490234375,1.562652587890625,-3.529052734375,0.179443359375,1.0,4.0,4.0,4.0,1.0,100.0,event
09:28:14.603,0.0,0.0,0.0,0.8633417,0.0,0.0,0.0,0.5310296,0.0,0.0,0.0,0.56420153,0.0,0.0,0.0,0.63604033,0.0,0.0,0.0,0.4900312,1051.2454,1239.414,1081.0623,791.75824,873.5531,-0.29339599609375,0.0303955078125,0.94427490234375,1.562652587890625,-3.529052734375,0.179443359375,1.0,4.0,4.0,4.0,1.0,100.0,event
09:28:14.603,0.0,0.0,0.0,0.8633417,0.0,0.0,0.0,0.5310296,0.0,0.0,0.0,0.56420153,0.0,0.0,0.0,0.63604033,0.0,0.0,0.0,0.4900312,2.014652,483.11356,634.61536,778.46155,813.1135,-0.29339599609375,0.0303955078125,0.94427490234375,1.562652587890625,-3.529052734375,0.179443359375,1.0,4.0,4.0,4.0,1.0,100.0,event
09:28:14.604,0.0,0.0,0.0,0.8633417,0.0,0.0,0.0,0.5310296,0.0,0.0,0.0,0.56420153,0.0,0.0,0.0,0.63604033,0.0,0.0,0.0,0.4900312,0.0,438.38828,774.43225,771.2088,746.63007,-0.29339599609375,0.0303955078125,0.94427490234375,1.562652587890625,-3.529052734375,0.179443359375,1.0,4.0,4.0,4.0,1.0,100.0,event
09:28:14.605,0.0,0.0,0.0,0.8633417,0.0,0.0,0.0,0.5310296,0.0,0.0,0.0,0.56420153,0.0,0.0,0.0,0.63604033,0.0,0.0,0.0,0.4900312,720.0366,985.56775,975.4945,793.7729,841.31866,-0.29339599609375,0.0303955078125,0.94427490234375,1.562652587890625,-3.529052734375,0.179443359375,1.0,4.0,4.0,4.0,1.0,100.0,event
09:28:14.605,0.0,0.0,0.0,0.8633417,0.0,0.0,0.0,0.5310296,0.0,0.0,0.0,0.56420153,0.0,0.0,0.0,0.63604033,0.0,0.0,0.0,0.4900312,106.37363,1129.011,792.1612,817.1429,1058.0952,-0.29339599609375,0.0303955078125,0.94427490234375,1.562652587890625,-3.529052734375,0.179443359375,1.0,4.0,4.0,4.0,1.0,100.0,event
09:28:14.606,0.0,0.0,0.0,0.8633417,0.0,0.0,0.0,0.5310296,0.0,0.0,0.0,0.56420153,0.0,0.0,0.0,0.63604033,0.0,0.0,0.0,0.4900312,1268.8279,658.3883,437.17947,810.696,1152.7839,-0.29339599609375,0.0303955078125,0.94427490234375,1.562652587890625,-3.529052734375,0.179443359375,1.0,4.0,4.0,4.0,1.0,100.0,event
09:28:14.606,0.0,0.0,0.0,0.8633417,0.0,0.0,0.0,0.5310296,0.0,0.0,0.0,0.56420153,0.0,0.0,0.0,0.63604033,0.0,0.0,0.0,0.4900312,188.57143,634.21246,728.49817,797.3993,857.4359,-0.29339599609375,0.0303955078125,0.94427490234375,1.562652587890625,-3.529052734375,0.179443359375,1.0,4.0,4.0,4.0,1.0,100.0,event
09:28:14.607,0.0,0.0,0.0,0.8633417,0.0,0.0,0.0,0.5310296,0.0,0.0,0.0,0.56420153,0.0,0.0,0.0,0.63604033,0.0,0.0,0.0,0.4900312,0.0,406.95972,741.79486,790.9524,690.6227,-0.29339599609375,0.0303955078125,0.94427490234375,1.562652587890625,-3.529052734375,0.179443359375,1.0,4.0,4.0,4.0,1.0,100.0,event
09:28:14.607,0.0,0.0,0.0,0.8633417,0.0,0.0,0.0,0.5310296,0.0,0.0,0.0,0.56420153,0.0,0.0,0.0,0.63604033,0.0,0.0,0.0,0.4900312,603.9927,626.1539,706.7399,796.1905,762.74725,-0.29339599609375,0.0303955078125,0.94427490234375,1.562652587890625,-3.529052734375,0.179443359375,1.0,4.0,4.0,4.0,1.0,100.0,event
09:28:14.608,0.0,0.0,0.0,0.8633417,0.0,0.0,0.0,0.5310296,0.0,0.0,0.0,0.56420153,0.0,0.0,0.0,0.63604033,0.0,0.0,0.0,0.4900312,51.575092,1461.0256,1240.6227,823.1868,815.12823,-0.29339599609375,0.0303955078125,0.94427490234375,1.562652587890625,-3.529052734375,0.179443359375,1.0,4.0,4.0,4.0,1.0,100.0,event
09:28:14.663,0.0,0.0,0.0,0.8633417,0.0,0.0,0.0,0.5310296,0.0,0.0,0.0,0.56420153,0.0,0.0,0.0,0.63604033,0.0,0.0,0.0,0.4900312,1477.9487,55.604397,1459.414,814.3223,784.5055,-0.29339599609375,0.0303955078125,0.94427490234375,1.562652587890625,-3.529052734375,0.179443359375,1.0,4.0,4.0,4.0,1.0,100.0,event
09:28:14.664,0.0,0.0,0.0,0.8633417,0.0,0.0,0.0,0.5310296,0.0,0.0,0.0,0.56420153,0.0,0.0,0.0,0.63604033,0.0,0.0,0.0,0.4900312,408.57144,958.97437,936.8132,799.41394,775.64105,-0.29339599609375,0.0303955078125,0.94427490234375,1.562652587890625,-3.529052734375,0.179443359375,1.0,4.0,4.0,4.0,1.0,100.0,event
09:28:14.665,0.0,0.0,0.0,0.8633417,0.0,0.0,0.0,0.5310296,0.0,0.0,0.0,0.56420153,0.0,0.0,0.0,0.63604033,0.0,0.0,0.0,0.4900312,0.0,149.08424,392.85715,788.5348,768.3883,-0.29339599609375,0.0303955078125,0.94427490234375,1.562652587890625,-3.529052734375,0.179443359375,1.0,4.0,4.0,4.0,1.0,100.0,event
09:28:14.666,0.0,0.0,0.0,0.8633417,0.0,0.0,0.0,0.5310296,0.0,0.0,0.0,0.56420153,0.0,0.0,0.0,0.63604033,0.0,0.0,0.0,0.4900312,554.43225,786.9231,818.7546,807.0696,755.09155,-0.29339599609375,0.0303955078125,0.94427490234375,1.562652587890625,-3.529052734375,0.179443359375,1.0,4.0,4.0,4.0,1.0,100.0,event
09:28:14.666,0.0,0.0,0.0,0.8633417,0.0,0.0,0.0,0.5310296,0.0,0.0,0.0,0.56420153,0.0,0.0,0.0,0.63604033,0.0,0.0,0.0,0.4900312,31.831501,1644.359,1419.5238,824.7985,751.4652,-0.29339599609375,0.0303955078125,0.94427490234375,1.562652587890625,-3.529052734375,0.179443359375,1.0,4.0,4.0,4.0,1.0,100.0,event
09:28:14.667,0.0,0.0,0.0,0.8260824,0.0,0.0,0.0,0.48233765,0.0,0.0,0.0,0.54132915,0.0,0.0,0.0,0.6421246,0.0,0.0,0.0,0.48780224,1497.2894,1457.3993,1164.0659,814.3223,869.12085,-0.29339599609375,0.0303955078125,0.94427490234375,1.562652587890625,-3.529052734375,0.179443359375,1.0,4.0,4.0,4.0,1.0,100.0,event
09:28:14.671,0.0,0.0,0.0,0.8260824,0.0,0.0,0.0,0.48233765,0.0,0.0,0.0,0.54132915,0.0,0.0,0.0,0.6421246,0.0,0.0,0.0,0.48780224,397.69232,366.26373,306.63004,815.12823,1098.3883,-0.29339599609375,0.0303955078125,0.94427490234375,1.562652587890625,-3.529052734375,0.179443359375,1.0,4.0,4.0,4.0,1.0,100.0,event
09:28:14.672,0.0,0.0,0.0,0.8260824,0.0,0.0,0.0,0.48233765,0.0,0.0,0.0,0.54132915,0.0,0.0,0.0,0.6421246,0.0,0.0,0.0,0.48780224,0.0,138.60806,394.06595,791.75824,908.20514,-0.29339599609375,0.0303955078125,0.94427490234375,1.562652587890625,-3.529052734375,0.179443359375,1.0,4.0,4.0,4.0,1.0,100.0,event
09:28:14.673,0.0,0.0,0.0,0.8260824,0.0,0.0,0.0,0.48233765,0.0,0.0,0.0,0.54132915,0.0,0.0,0.0,0.6421246,0.0,0.0,0.0,0.48780224,464.9817,921.50183,1048.4249,786.9231,670.87915,-0.29339599609375,0.0303955078125,0.94427490234375,1.562652587890625,-3.529052734375,0.179443359375,1.0,4.0,4.0,4.0,1.0,100.0,event
