TimeStamp,Delta_TP9,Delta_AF7,Delta_AF8,Delta_TP10,Theta_TP9,Theta_AF7,Theta_AF8,Theta_TP10,Alpha_TP9,Alpha_AF7,Alpha_AF8,Alpha_TP10,Beta_TP9,Beta_AF7,Beta_AF8,Beta_TP10,Gamma_TP9,Gamma_AF7,Gamma_AF8,Gamma_TP10,RAW_TP9,RAW_AF7,RAW_AF8,RAW_TP10,AUX_RIGHT,Accelerometer_X,Accelerometer_Y,Accelerometer_Z,Gyro_X,Gyro_Y,Gyro_Z,HeadBandOn,HSI_TP9,HSI_AF7,HSI_AF8,HSI_TP10,Battery,Elements
12:21:18.218,0.8973687,0.42737865,1.0724108,0.72717005,0.76033276,-0.4043015,0.16404524,0.57188565,1.1090368,-0.039439894,0.08034421,0.8142435,0.89748657,0.61035067,0.03613614,0.9939066,0.90741056,0.41700727,-0.29845706,0.9150388,827.619,796.5934,886.4469,812.3077,662.8205,-0.47869873046875,0.21844482421875,0.8387451171875,4.568328857421875,4.85992431640625,1.652374267578125,1.0,1.0,1.0,1.0,1.0,90.0,event
12:21:18.219,0.8973687,0.42737865,1.0724108,0.72717005,0.76033276,-0.4043015,0.16404524,0.57188565,1.1090368,-0.039439894,0.08034421,0.8142435,0.89748657,0.61035067,0.03613614,0.9939066,0.90741056,0.41700727,-0.29845706,0.9150388,841.7216,805.05493,883.22345,822.381,723.2601,-0.47869873046875,0.21844482421875,0.8387451171875,4.568328857421875,4.85992431640625,1.652374267578125,1.0,1.0,1.0,1.0,1.0,90.0,event
12:21:18.220,0.8973687,0.42737865,1.0724108,0.72717005,0.76033276,-0.4043015,0.16404524,0.57188565,1.1090368,-0.039439894,0.08034421,0.8142435,0.89748657,0.61035067,0.03613614,0.9939066,0.90741056,0.41700727,-0.29845706,0.9150388,861.06226,810.696,890.07324,844.5421,780.4762,-0.47869873046875,0.21844482421875,0.8387451171875,4.568328857421875,4.85992431640625,1.652374267578125,1.0,1.0,1.0,1.0,1.0,90.0,event
12:21:18.221,0.8973687,0.42737865,1.0724108,0.72717005,0.76033276,-0.4043015,0.16404524,0.57188565,1.1090368,-0.039439894,0.08034421,0.8142435,0.89748657,0.61035067,0.03613614,0.9939066,0.90741056,0.41700727,-0.29845706,0.9150388,850.18317,811.50183,894.10254,844.94507,822.7839,-0.47869873046875,0.21844482421875,0.8387451171875,4.568328857421875,4.85992431640625,1.652374267578125,1.0,1.0,1.0,1.0,1.0,90.0,event
12:21:18.221,0.8973687,0.42737865,1.0724108,0.72717005,0.76033276,-0.4043015,0.16404524,0.57188565,1.1090368,-0.039439894,0.08034421,0.8142435,0.89748657,0.61035067,0.03613614,0.9939066,0.90741056,0.41700727,-0.29845706,0.9150388,822.381,802.23444,890.87915,812.71063,810.696,-0.47869873046875,0.21844482421875,0.8387451171875,4.568328857421875,4.85992431640625,1.652374267578125,1.0,1.0,1.0,1.0,1.0,90.0,event
12:21:18.222,0.8973687,0.42737865,1.0724108,0.72717005,0.76033276,-0.4043015,0.16404524,0.57188565,1.1090368,-0.039439894,0.08034421,0.8142435,0.89748657,0.61035067,0.03613614,0.9939066,0.90741056,0.41700727,-0.29845706,0.9150388,814.3223,797.3993,886.8498,803.44324,809.0842,-0.47869873046875,0.21844482421875,0.8387451171875,4.568328857421875,4.85992431640625,1.652374267578125,1.0,1.0,1.0,1.0,1.0,90.0,event
12:21:18.223,0.8973687,0.42737865,1.0724108,0.72717005,0.76033276,-0.4043015,0.16404524,0.57188565,1.1090368,-0.039439894,0.08034421,0.8142435,0.89748657,0.61035067,0.03613614,0.9939066,0.90741056,0.41700727,-0.29845706,0.9150388,820.7692,801.02563,884.0293,805.8608,1014.9817,-0.47869873046875,0.21844482421875,0.8387451171875,4.568328857421875,4.85992431640625,1.652374267578125,1.0,1.0,1.0,1.0,1.0,90.0,event
12:21:18.223,0.8973687,0.42737865,1.0724108,0.72717005,0.76033276,-0.4043015,0.16404524,0.57188565,1.1090368,-0.039439894,0.08034421,0.8142435,0.89748657,0.61035067,0.03613614,0.9939066,0.90741056,0.41700727,-0.29845706,0.9150388,830.84247,800.6227,883.6264,809.89014,991.6117,-0.47869873046875,0.21844482421875,0.8387451171875,4.568328857421875,4.85992431640625,1.652374267578125,1.0,1.0,1.0,1.0,1.0,90.0,event
12:21:18.224,0.8973687,0.42737865,1.0724108,0.72717005,0.76033276,-0.4043015,0.16404524,0.57188565,1.1090368,-0.039439894,0.08034421,0.8142435,0.89748657,0.61035067,0.03613614,0.9939066,0.90741056,0.41700727,-0.29845706,0.9150388,834.4689,800.2198,887.6557,819.15753,755.09155,-0.47869873046875,0.21844482421875,0.8387451171875,4.568328857421875,4.85992431640625,1.652374267578125,1.0,1.0,1.0,1.0,1.0,90.0,event
12:21:18.225,0.8973687,0.42737865,1.0724108,0.72717005,0.76033276,-0.4043015,0.16404524,0.57188565,1.1090368,-0.039439894,0.08034421,0.8142435,0.89748657,0.61035067,0.03613614,0.9939066,0.90741056,0.41700727,-0.29845706,0.9150388,839.304,804.65204,892.8938,827.2161,840.5128,-0.47869873046875,0.21844482421875,0.8387451171875,4.568328857421875,4.85992431640625,1.652374267578125,1.0,1.0,1.0,1.0,1.0,90.0,event
12:21:18.225,0.8973687,0.42737865,1.0724108,0.72717005,0.76033276,-0.4043015,0.16404524,0.57188565,1.1090368,-0.039439894,0.08034421,0.8142435,0.89748657,0.61035067,0.03613614,0.9939066,0.90741056,0.41700727,-0.29845706,0.9150388,843.73627,804.2491,890.07324,826.4103,933.5897,-0.47869873046875,0.21844482421875,0.8387451171875,4.568328857421875,4.85992431640625,1.652374267578125,1.0,1.0,1.0,1.0,1.0,90.0,event
12:21:18.226,0.8973687,0.42737865,1.0724108,0.72717005,0.76033276,-0.4043015,0.16404524,0.57188565,1.1090368,-0.039439894,0.08034421,0.8142435,0.89748657,0.61035067,0.03613614,0.9939066,0.90741056,0.41700727,-0.29845706,0.9150388,822.7839,798.20514,887.25275,817.9487,791.75824,-0.47869873046875,0.21844482421875,0.8387451171875,4.568328857421875,4.85992431640625,1.652374267578125,1.0,1.0,1.0,1.0,1.0,90.0,event
12:21:18.303,0.8973687,0.42737865,1.0724108,0.72717005,0.76033276,-0.4043015,0.16404524,0.57188565,1.1090368,-0.039439894,0.08034421,0.8142435,0.89748657,0.61035067,0.03613614,0.9939066,0.90741056,0.41700727,-0.29845706,0.9150388,820.7692,793.7729,889.67035,823.9927,704.7253,-0.49444580078125,0.2216796875,0.83587646484375,4.059906005859375,1.2261962890625,3.06549072265625,1.0,1.0,1.0,1.0,1.0,90.0,event
12:21:18.305,0.8973687,0.42737865,1.0724108,0.72717005,0.76033276,-0.4043015,0.16404524,0.57188565,1.1090368,-0.039439894,0.08034421,0.8142435,0.89748657,0.61035067,0.03613614,0.9939066,0.90741056,0.41700727,-0.29845706,0.9150388,831.6484,802.6374,884.83514,835.6777,730.10986,-0.49444580078125,0.2216796875,0.83587646484375,4.059906005859375,1.2261962890625,3.06549072265625,1.0,1.0,1.0,1.0,1.0,90.0,event
12:21:18.306,0.8973687,0.42737865,1.0724108,0.72717005,0.76033276,-0.4043015,0.16404524,0.57188565,1.1090368,-0.039439894,0.08034421,0.8142435,0.89748657,0.61035067,0.03613614,0.9939066,0.90741056,0.41700727,-0.29845706,0.9150388,831.6484,811.50183,887.25275,822.381,737.3626,-0.49444580078125,0.2216796875,0.83587646484375,4.059906005859375,1.2261962890625,3.06549072265625,1.0,1.0,1.0,1.0,1.0,90.0,event
12:21:18.307,0.8232278,0.39601558,1.0724108,0.68225956,0.77449304,-0.42004415,0.16404524,0.6128884,1.1018353,-0.04003536,0.08034421,0.8142435,0.90163535,0.6263087,0.03613614,0.99420893,0.9061877,0.41643634,-0.29845706,0.92406636,829.2308,807.47253,883.22345,824.3956,717.619,-0.49444580078125,0.2216796875,0.83587646484375,4.059906005859375,1.2261962890625,3.06549072265625,1.0,1.0,1.0,1.0,1.0,90.0,event
12:21:18.313,0.8232278,0.39601558,1.0724108,0.68225956,0.77449304,-0.42004415,0.16404524,0.6128884,1.1018353,-0.04003536,0.08034421,0.8142435,0.90163535,0.6263087,0.03613614,0.99420893,0.9061877,0.41643634,-0.29845706,0.92406636,830.84247,803.0403,880.0,837.6923,703.5165,-0.49444580078125,0.2216796875,0.83587646484375,4.059906005859375,1.2261962890625,3.06549072265625,1.0,1.0,1.0,1.0,1.0,90.0,event
12:21:18.314,0.8232278,0.39601558,1.0724108,0.68225956,0.77449304,-0.42004415,0.16404524,0.6128884,1.1018353,-0.04003536,0.08034421,0.8142435,0.90163535,0.6263087,0.03613614,0.99420893,0.9061877,0.41643634,-0.29845706,0.92406636,828.8278,797.3993,882.8205,826.4103,884.0293,-0.49444580078125,0.2216796875,0.83587646484375,4.059906005859375,1.2261962890625,3.06549072265625,1.0,1.0,1.0,1.0,1.0,90.0,event
12:21:18.315,0.8232278,0.39601558,1.0724108,0.68225956,0.77449304,-0.42004415,0.16404524,0.6128884,1.1018353,-0.04003536,0.08034421,0.8142435,0.90163535,0.6263087,0.03613614,0.99420893,0.9061877,0.41643634,-0.29845706,0.92406636,821.5751,798.60803,884.0293,817.5458,1014.17584,-0.49444580078125,0.2216796875,0.83587646484375,4.059906005859375,1.2261962890625,3.06549072265625,1.0,1.0,1.0,1.0,1.0,90.0,event
12:21:18.316,0.8232278,0.39601558,1.0724108,0.68225956,0.77449304,-0.42004415,0.16404524,0.6128884,1.1018353,-0.04003536,0.08034421,0.8142435,0.90163535,0.6263087,0.03613614,0.99420893,0.9061877,0.41643634,-0.29845706,0.92406636,828.022,805.05493,882.01465,823.5897,814.7253,-0.49444580078125,0.2216796875,0.83587646484375,4.059906005859375,1.2261962890625,3.06549072265625,1.0,1.0,1.0,1.0,1.0,90.0,event
12:21:18.317,0.8232278,0.39601558,1.0724108,0.68225956,0.77449304,-0.42004415,0.16404524,0.6128884,1.1018353,-0.04003536,0.08034421,0.8142435,0.90163535,0.6263087,0.03613614,0.99420893,0.9061877,0.41643634,-0.29845706,0.92406636,822.7839,809.4872,880.40295,831.6484,745.42126,-0.49444580078125,0.2216796875,0.83587646484375,4.059906005859375,1.2261962890625,3.06549072265625,1.0,1.0,1.0,1.0,1.0,90.0,event
12:21:18.318,0.8232278,0.39601558,1.0724108,0.68225956,0.77449304,-0.42004415,0.16404524,0.6128884,1.1018353,-0.04003536,0.08034421,0.8142435,0.90163535,0.6263087,0.03613614,0.99420893,0.9061877,0.41643634,-0.29845706,0.92406636,816.7399,808.2784,876.77655,828.4249,838.49817,-0.49444580078125,0.2216796875,0.83587646484375,4.059906005859375,1.2261962890625,3.06549072265625,1.0,1.0,1.0,1.0,1.0,90.0,event
12:21:18.319,0.8232278,0.39601558,1.0724108,0.68225956,0.77449304,-0.42004415,0.16404524,0.6128884,1.1018353,-0.04003536,0.08034421,0.8142435,0.90163535,0.6263087,0.03613614,0.99420893,0.9061877,0.41643634,-0.29845706,0.92406636,829.6337,805.8608,878.7912,830.4396,775.64105,-0.49444580078125,0.2216796875,0.83587646484375,4.059906005859375,1.2261962890625,3.06549072265625,1.0,1.0,1.0,1.0,1.0,90.0,event
12:21:18.320,0.8232278,0.39601558,1.0724108,0.68225956,0.77449304,-0.42004415,0.16404524,0.6128884,1.1018353,-0.04003536,0.08034421,0.8142435,0.90163535,0.6263087,0.03613614,0.99420893,0.9061877,0.41643634,-0.29845706,0.92406636,828.022,803.0403,880.0,830.0366,688.60803,-0.49444580078125,0.2216796875,0.83587646484375,4.059906005859375,1.2261962890625,3.06549072265625,1.0,1.0,1.0,1.0,1.0,90.0,event
12:21:18.321,0.8232278,0.39601558,1.0724108,0.68225956,0.77449304,-0.42004415,0.16404524,0.6128884,1.1018353,-0.04003536,0.08034421,0.8142435,0.90163535,0.6263087,0.03613614,0.99420893,0.9061877,0.41643634,-0.29845706,0.92406636,806.26373,807.47253,877.1795,813.91943,745.0183,-0.50030517578125,0.23028564453125,0.81939697265625,3.99261474609375,-1.48040771484375,4.44122314453125,1.0,1.0,1.0,1.0,1.0,90.0,event
12:21:18.322,0.8232278,0.39601558,1.0724108,0.68225956,0.77449304,-0.42004415,0.16404524,0.6128884,1.1018353,-0.04003536,0.08034421,0.8142435,0.90163535,0.6263087,0.03613614,0.99420893,0.9061877,0.41643634,-0.29845706,0.92406636,809.4872,811.0989,876.3736,812.3077,801.8315,-0.50030517578125,0.23028564453125,0.81939697265625,3.99261474609375,-1.48040771484375,4.44122314453125,1.0,1.0,1.0,1.0,1.0,90.0,event
12:21:18.323,0.8232278,0.39601558,1.0724108,0.68225956,0.77449304,-0.42004415,0.16404524,0.6128884,1.1018353,-0.04003536,0.08034421,0.8142435,0.90163535,0.6263087,0.03613614,0.99420893,0.9061877,0.41643634,-0.29845706,0.92406636,819.15753,805.4579,871.9414,828.8278,779.2674,-0.50030517578125,0.23028564453125,0.81939697265625,3.99261474609375,-1.48040771484375,4.44122314453125,1.0,1.0,1.0,1.0,1.0,90.0,event
12:21:18.323,0.8232278,0.39601558,1.0724108,0.68225956,0.77449304,-0.42004415,0.16404524,0.6128884,1.1018353,-0.04003536,0.08034421,0.8142435,0.90163535,0.6263087,0.03613614,0.99420893,0.9061877,0.41643634,-0.29845706,0.92406636,811.0989,802.6374,867.9121,822.7839,675.31134,-0.50030517578125,0.23028564453125,0.81939697265625,3.99261474609375,-1.48040771484375,4.44122314453125,1.0,1.0,1.0,1.0,1.0,90.0,event
12:21:18.324,0.8232278,0.39601558,1.0724108,0.68225956,0.77449304,-0.42004415,0.16404524,0.6128884,1.1018353,-0.04003536,0.08034421,0.8142435,0.90163535,0.6263087,0.03613614,0.99420893,0.9061877,0.41643634,-0.29845706,0.92406636,803.8461,799.81683,866.7033,821.978,655.9707,-0.50030517578125,0.23028564453125,0.81939697265625,3.99261474609375,-1.48040771484375,4.44122314453125,1.0,1.0,1.0,1.0,1.0,90.0,event
12:21:18.325,0.8232278,0.39601558,1.0724108,0.68225956,0.77449304,-0.42004415,0.16404524,0.6128884,1.1018353,-0.04003536,0.08034421,0.8142435,0.90163535,0.6263087,0.03613614,0.99420893,0.9061877,0.41643634,-0.29845706,0.92406636,818.3516,803.8461,867.9121,822.381,811.9048,-0.50030517578125,0.23028564453125,0.81939697265625,3.99261474609375,-1.48040771484375,4.44122314453125,1.0,1.0,1.0,1.0,1.0,90.0,event
12:21:18.328,0.8232278,0.39601558,1.0724108,0.68225956,0.77449304,-0.42004415,0.16404524,0.6128884,1.1018353,-0.04003536,0.08034421,0.8142435,0.90163535,0.6263087,0.03613614,0.99420893,0.9061877,0.41643634,-0.29845706,0.92406636,825.6044,809.89014,861.4652,815.9341,881.2088,-0.50030517578125,0.23028564453125,0.81939697265625,3.99261474609375,-1.48040771484375,4.44122314453125,1.0,1.0,1.0,1.0,1.0,90.0,event
12:21:18.329,0.8232278,0.39601558,1.0724108,0.68225956,0.77449304,-0.42004415,0.16404524,0.6128884,1.1018353,-0.04003536,0.08034421,0.8142435,0.90163535,0.6263087,0.03613614,0.99420893,0.9061877,0.41643634,-0.29845706,0.92406636,815.5311,806.26373,854.21246,821.978,747.03296,-0.50030517578125,0.23028564453125,0.81939697265625,3.99261474609375,-1.48040771484375,4.44122314453125,1.0,1.0,1.0,1.0,1.0,90.0,event
12:21:18.330,0.8232278,0.39601558,1.0724108,0.68225956,0.77449304,-0.42004415,0.16404524,0.6128884,1.1018353,-0.04003536,0.08034421,0.8142435,0.90163535,0.6263087,0.03613614,0.99420893,0.9061877,0.41643634,-0.29845706,0.92406636,809.89014,803.8461,865.89746,823.9927,740.989,-0.50030517578125,0.23028564453125,0.81939697265625,3.99261474609375,-1.48040771484375,4.44122314453125,1.0,1.0,1.0,1.0,1.0,90.0,event
12:21:18.331,0.8232278,0.39601558,1.0724108,0.68225956,0.77449304,-0.42004415,0.16404524,0.6128884,1.1018353,-0.04003536,0.08034421,0.8142435,0.90163535,0.6263087,0.03613614,0.99420893,0.9061877,0.41643634,-0.29845706,0.92406636,811.9048,809.89014,876.3736,820.3663,837.28937,-0.50030517578125,0.23028564453125,0.81939697265625,3.99261474609375,-1.48040771484375,4.44122314453125,1.0,1.0,1.0,1.0,1.0,90.0,event
12:21:18.331,0.8232278,0.39601558,1.0724108,0.68225956,0.77449304,-0.42004415,0.16404524,0.6128884,1.1018353,-0.04003536,0.08034421,0.8142435,0.90163535,0.6263087,0.03613614,0.99420893,0.9061877,0.41643634,-0.29845706,0.92406636,818.3516,804.2491,866.7033,815.9341,743.4066,-0.50030517578125,0.23028564453125,0.81939697265625,3.99261474609375,-1.48040771484375,4.44122314453125,1.0,1.0,1.0,1.0,1.0,90.0,event
12:21:18.332,0.8232278,0.39601558,1.0724108,0.68225956,0.77449304,-0.42004415,0.16404524,0.6128884,1.1018353,-0.04003536,0.08034421,0.8142435,0.90163535,0.6263087,0.03613614,0.99420893,0.9061877,0.41643634,-0.29845706,0.92406636,821.5751,798.20514,857.03296,816.7399,668.86444,-0.50030517578125,0.23028564453125,0.81939697265625,3.99261474609375,-1.48040771484375,4.44122314453125,1.0,1.0,1.0,1.0,1.0,90.0,event
12:21:18.364,0.8232278,0.39601558,1.0724108,0.68225956,0.77449304,-0.42004415,0.16404524,0.6128884,1.1018353,-0.04003536,0.08034421,0.8142435,0.90163535,0.6263087,0.03613614,0.99420893,0.9061877,0.41643634,-0.29845706,0.92406636,807.0696,807.8755,853.4066,818.7546,734.1392,-0.50030517578125,0.23028564453125,0.81939697265625,3.99261474609375,-1.48040771484375,4.44122314453125,1.0,1.0,1.0,1.0,1.0,90.0,event
12:21:18.365,0.8232278,0.39601558,1.0724108,0.68225956,0.77449304,-0.42004415,0.16404524,0.6128884,1.1018353,-0.04003536,0.08034421,0.8142435,0.90163535,0.6263087,0.03613614,0.99420893,0.9061877,0.41643634,-0.29845706,0.92406636,806.26373,816.7399,850.58606,804.2491,956.9597,-0.50030517578125,0.23028564453125,0.81939697265625,3.99261474609375,-1.48040771484375,4.44122314453125,1.0,1.0,1.0,1.0,1.0,90.0,event
12:21:18.367,0.8232278,0.39601558,1.0724108,0.68225956,0.77449304,-0.42004415,0.16404524,0.6128884,1.1018353,-0.04003536,0.08034421,0.8142435,0.90163535,0.6263087,0.03613614,0.99420893,0.9061877,0.41643634,-0.29845706,0.92406636,798.60803,810.696,848.97437,810.293,861.06226,-0.50030517578125,0.23028564453125,0.81939697265625,3.99261474609375,-1.48040771484375,4.44122314453125,1.0,1.0,1.0,1.0,1.0,90.0,event
12:21:18.368,0.8232278,0.39601558,1.0724108,0.68225956,0.77449304,-0.42004415,0.16404524,0.6128884,1.1018353,-0.04003536,0.08034421,0.8142435,0.90163535,0.6263087,0.03613614,0.99420893,0.9061877,0.41643634,-0.29845706,0.92406636,794.9817,804.65204,855.82416,823.1868,830.4396,-0.50030517578125,0.23028564453125,0.81939697265625,3.99261474609375,-1.48040771484375,4.44122314453125,1.0,1.0,1.0,1.0,1.0,90.0,event
12:21:18.369,0.8232278,0.39601558,1.0724108,0.68225956,0.77449304,-0.42004415,0.16404524,0.6128884,1.1018353,-0.04003536,0.08034421,0.8142435,0.90163535,0.6263087,0.03613614,0.99420893,0.9061877,0.41643634,-0.29845706,0.92406636,798.20514,809.0842,857.8388,801.8315,882.01465,-0.50030517578125,0.23028564453125,0.81939697265625,3.99261474609375,-1.48040771484375,4.44122314453125,1.0,1.0,1.0,1.0,1.0,90.0,event
12:21:18.370,0.60956854,0.3710589,1.0724108,0.59031993,0.76191866,-0.43107325,0.16404524,0.6742357,1.076543,-0.0046465793,0.08034421,0.8142435,0.90966624,0.6466535,0.03613614,1.0132167,0.8942804,0.430953,-0.29845706,0.8838264,786.1172,809.4872,851.39197,798.60803,892.0879,-0.50030517578125,0.23028564453125,0.81939697265625,3.99261474609375,-1.48040771484375,4.44122314453125,1.0,1.0,1.0,1.0,1.0,90.0,event
12:21:18.375,0.60956854,0.3710589,1.0724108,0.59031993,0.76191866,-0.43107325,0.16404524,0.6742357,1.076543,-0.0046465793,0.08034421,0.8142435,0.90966624,0.6466535,0.03613614,1.0132167,0.8942804,0.430953,-0.29845706,0.8838264,786.9231,810.293,848.1685,805.05493,870.7326,-0.50030517578125,0.23028564453125,0.81939697265625,3.99261474609375,-1.48040771484375,4.44122314453125,1.0,1.0,1.0,1.0,1.0,90.0,event
12:21:18.376,0.60956854,0.3710589,1.0724108,0.59031993,0.76191866,-0.43107325,0.16404524,0.6742357,1.076543,-0.0046465793,0.08034421,0.8142435,0.90966624,0.6466535,0.03613614,1.0132167,0.8942804,0.430953,-0.29845706,0.8838264,796.1905,817.9487,841.7216,801.4286,716.8132,-0.50030517578125,0.23028564453125,0.81939697265625,3.99261474609375,-1.48040771484375,4.44122314453125,1.0,1.0,1.0,1.0,1.0,90.0,event
12:21:18.376,0.60956854,0.3710589,1.0724108,0.59031993,0.76191866,-0.43107325,0.16404524,0.6742357,1.076543,-0.0046465793,0.08034421,0.8142435,0.90966624,0.6466535,0.03613614,1.0132167,0.8942804,0.430953,-0.29845706,0.8838264,801.4286,811.50183,840.9158,805.05493,819.15753,-0.50030517578125,0.23028564453125,0.81939697265625,3.99261474609375,-1.48040771484375,4.44122314453125,1.0,1.0,1.0,1.0,1.0,90.0,event
12:21:18.377,0.60956854,0.3710589,1.0724108,0.59031993,0.76191866,-0.43107325,0.16404524,0.6742357,1.076543,-0.0046465793,0.08034421,0.8142435,0.90966624,0.6466535,0.03613614,1.0132167,0.8942804,0.430953,-0.29845706,0.8838264,800.2198,805.05493,850.18317,817.5458,1048.022,-0.50030517578125,0.23028564453125,0.81939697265625,3.99261474609375,-1.48040771484375,4.44122314453125,1.0,1.0,1.0,1.0,1.0,90.0,event
12:21:18.378,0.60956854,0.3710589,1.0724108,0.59031993,0.76191866,-0.43107325,0.16404524,0.6742357,1.076543,-0.0046465793,0.08034421,0.8142435,0.90966624,0.6466535,0.03613614,1.0132167,0.8942804,0.430953,-0.29845706,0.8838264,799.41394,809.0842,854.21246,838.9011,826.4103,-0.50030517578125,0.23028564453125,0.81939697265625,3.99261474609375,-1.48040771484375,4.44122314453125,1.0,1.0,1.0,1.0,1.0,90.0,event
12:21:18.379,0.60956854,0.3710589,1.0724108,0.59031993,0.76191866,-0.43107325,0.16404524,0.6742357,1.076543,-0.0046465793,0.08034421,0.8142435,0.90966624,0.6466535,0.03613614,1.0132167,0.8942804,0.430953,-0.29845706,0.8838264,802.23444,811.50183,843.3333,846.55676,658.7912,-0.50030517578125,0.23028564453125,0.81939697265625,3.99261474609375,-1.48040771484375,4.44122314453125,1.0,1.0,1.0,1.0,1.0,90.0,event
12:21:18.406,0.60956854,0.3710589,1.0724108,0.59031993,0.76191866,-0.43107325,0.16404524,0.6742357,1.076543,-0.0046465793,0.08034421,0.8142435,0.90966624,0.6466535,0.03613614,1.0132167,0.8942804,0.430953,-0.29845706,0.8838264,807.8755,823.9927,848.5714,826.8132,753.47986,-0.5028076171875,0.2369384765625,0.83929443359375,3.611297607421875,-4.44122314453125,5.061798095703125,1.0,1.0,1.0,1.0,1.0,90.0,event
12:21:18.407,0.60956854,0.3710589,1.0724108,0.59031993,0.76191866,-0.43107325,0.16404524,0.6742357,1.076543,-0.0046465793,0.08034421,0.8142435,0.90966624,0.6466535,0.03613614,1.0132167,0.8942804,0.430953,-0.29845706,0.8838264,797.3993,815.9341,853.8095,814.3223,742.6007,-0.5028076171875,0.2369384765625,0.83929443359375,3.611297607421875,-4.44122314453125,5.061798095703125,1.0,1.0,1.0,1.0,1.0,90.0,event
12:21:18.408,0.60956854,0.3710589,1.0724108,0.59031993,0.76191866,-0.43107325,0.16404524,0.6742357,1.076543,-0.0046465793,0.08034421,0.8142435,0.90966624,0.6466535,0.03613614,1.0132167,0.8942804,0.430953,-0.29845706,0.8838264,785.7143,807.8755,845.7509,817.5458,691.8315,-0.5028076171875,0.2369384765625,0.83929443359375,3.611297607421875,-4.44122314453125,5.061798095703125,1.0,1.0,1.0,1.0,1.0,90.0,event
12:21:18.409,0.60956854,0.3710589,1.0724108,0.59031993,0.76191866,-0.43107325,0.16404524,0.6742357,1.076543,-0.0046465793,0.08034421,0.8142435,0.90966624,0.6466535,0.03613614,1.0132167,0.8942804,0.430953,-0.29845706,0.8838264,791.3553,810.696,846.55676,815.12823,716.4103,-0.5028076171875,0.2369384765625,0.83929443359375,3.611297607421875,-4.44122314453125,5.061798095703125,1.0,1.0,1.0,1.0,1.0,90.0,event
12:21:18.409,0.60956854,0.3710589,1.0724108,0.59031993,0.76191866,-0.43107325,0.16404524,0.6742357,1.076543,-0.0046465793,0.08034421,0.8142435,0.90966624,0.6466535,0.03613614,1.0132167,0.8942804,0.430953,-0.29845706,0.8838264,787.72894,807.8755,846.9597,828.8278,769.19415,-0.5028076171875,0.2369384765625,0.83929443359375,3.611297607421875,-4.44122314453125,5.061798095703125,1.0,1.0,1.0,1.0,1.0,90.0,event
12:21:18.410,0.60956854,0.3710589,1.0724108,0.59031993,0.76191866,-0.43107325,0.16404524,0.6742357,1.076543,-0.0046465793,0.08034421,0.8142435,0.90966624,0.6466535,0.03613614,1.0132167,0.8942804,0.430953,-0.29845706,0.8838264,799.011,809.4872,842.9304,836.4835,843.73627,-0.5028076171875,0.2369384765625,0.83929443359375,3.611297607421875,-4.44122314453125,5.061798095703125,1.0,1.0,1.0,1.0,1.0,90.0,event
12:21:18.411,0.60956854,0.3710589,1.0724108,0.59031993,0.76191866,-0.43107325,0.16404524,0.6742357,1.076543,-0.0046465793,0.08034421,0.8142435,0.90966624,0.6466535,0.03613614,1.0132167,0.8942804,0.430953,-0.29845706,0.8838264,805.4579,814.7253,848.97437,816.7399,840.10986,-0.5028076171875,0.2369384765625,0.83929443359375,3.611297607421875,-4.44122314453125,5.061798095703125,1.0,1.0,1.0,1.0,1.0,90.0,event
12:21:18.411,0.60956854,0.3710589,1.0724108,0.59031993,0.76191866,-0.43107325,0.16404524,0.6742357,1.076543,-0.0046465793,0.08034421,0.8142435,0.90966624,0.6466535,0.03613614,1.0132167,0.8942804,0.430953,-0.29845706,0.8838264,813.91943,813.1135,848.1685,822.381,842.9304,-0.5028076171875,0.2369384765625,0.83929443359375,3.611297607421875,-4.44122314453125,5.061798095703125,1.0,1.0,1.0,1.0,1.0,90.0,event
12:21:18.412,0.60956854,0.3710589,1.0724108,0.59031993,0.76191866,-0.43107325,0.16404524,0.6742357,1.076543,-0.0046465793,0.08034421,0.8142435,0.90966624,0.6466535,0.03613614,1.0132167,0.8942804,0.430953,-0.29845706,0.8838264,788.93774,811.0989,840.9158,822.381,1014.17584,-0.5028076171875,0.2369384765625,0.83929443359375,3.611297607421875,-4.44122314453125,5.061798095703125,1.0,1.0,1.0,1.0,1.0,90.0,event
12:21:18.412,0.60956854,0.3710589,1.0724108,0.59031993,0.76191866,-0.43107325,0.16404524,0.6742357,1.076543,-0.0046465793,0.08034421,0.8142435,0.90966624,0.6466535,0.03613614,1.0132167,0.8942804,0.430953,-0.29845706,0.8838264,785.7143,814.7253,832.4542,809.89014,1017.8022,-0.5028076171875,0.2369384765625,0.83929443359375,3.611297607421875,-4.44122314453125,5.061798095703125,1.0,1.0,1.0,1.0,1.0,90.0,event
12:21:18.413,0.60956854,0.3710589,1.0724108,0.59031993,0.76191866,-0.43107325,0.16404524,0.6742357,1.076543,-0.0046465793,0.08034421,0.8142435,0.90966624,0.6466535,0.03613614,1.0132167,0.8942804,0.430953,-0.29845706,0.8838264,802.23444,822.381,835.2747,810.696,758.315,-0.5028076171875,0.2369384765625,0.83929443359375,3.611297607421875,-4.44122314453125,5.061798095703125,1.0,1.0,1.0,1.0,1.0,90.0,event
12:21:18.414,0.60956854,0.3710589,1.0724108,0.59031993,0.76191866,-0.43107325,0.16404524,0.6742357,1.076543,-0.0046465793,0.08034421,0.8142435,0.90966624,0.6466535,0.03613614,1.0132167,0.8942804,0.430953,-0.29845706,0.8838264,795.38464,811.9048,838.49817,818.3516,696.6667,-0.5028076171875,0.2369384765625,0.83929443359375,3.611297607421875,-4.44122314453125,5.061798095703125,1.0,1.0,1.0,1.0,1.0,90.0,event
12:21:18.441,0.60956854,0.3710589,1.0724108,0.59031993,0.76191866,-0.43107325,0.16404524,0.6742357,1.076543,-0.0046465793,0.08034421,0.8142435,0.90966624,0.6466535,0.03613614,1.0132167,0.8942804,0.430953,-0.29845706,0.8838264,794.17584,812.3077,835.6777,807.0696,761.53845,-0.4989013671875,0.23162841796875,0.82818603515625,1.786956787109375,-8.830108642578125,3.566436767578125,1.0,1.0,1.0,1.0,1.0,90.0,event
12:21:18.442,0.60956854,0.3710589,1.0724108,0.59031993,0.76191866,-0.43107325,0.16404524,0.6742357,1.076543,-0.0046465793,0.08034421,0.8142435,0.90966624,0.6466535,0.03613614,1.0132167,0.8942804,0.430953,-0.29845706,0.8838264,806.26373,823.9927,834.0659,807.8755,765.16486,-0.4989013671875,0.23162841796875,0.82818603515625,1.786956787109375,-8.830108642578125,3.566436767578125,1.0,1.0,1.0,1.0,1.0,90.0,event
12:21:18.443,0.60956854,0.3710589,1.0724108,0.59031993,0.76191866,-0.43107325,0.16404524,0.6742357,1.076543,-0.0046465793,0.08034421,0.8142435,0.90966624,0.6466535,0.03613614,1.0132167,0.8942804,0.430953,-0.29845706,0.8838264,806.26373,821.978,828.022,816.337,683.36993,-0.4989013671875,0.23162841796875,0.82818603515625,1.786956787109375,-8.830108642578125,3.566436767578125,1.0,1.0,1.0,1.0,1.0,90.0,event
12:21:18.443,0.60956854,0.3710589,1.0724108,0.59031993,0.76191866,-0.43107325,0.16404524,0.6742357,1.076543,-0.0046465793,0.08034421,0.8142435,0.90966624,0.6466535,0.03613614,1.0132167,0.8942804,0.430953,-0.29845706,0.8838264,811.0989,821.978,830.4396,833.2601,693.0403,-0.4989013671875,0.23162841796875,0.82818603515625,1.786956787109375,-8.830108642578125,3.566436767578125,1.0,1.0,1.0,1.0,1.0,90.0,event
12:21:18.444,0.60956854,0.3710589,1.0724108,0.59031993,0.76191866,-0.43107325,0.16404524,0.6742357,1.076543,-0.0046465793,0.08034421,0.8142435,0.90966624,0.6466535,0.03613614,1.0132167,0.8942804,0.430953,-0.29845706,0.8838264,821.1722,822.381,836.4835,834.0659,742.6007,-0.4989013671875,0.23162841796875,0.82818603515625,1.786956787109375,-8.830108642578125,3.566436767578125,1.0,1.0,1.0,1.0,1.0,90.0,event
12:21:18.445,0.60956854,0.3710589,1.0724108,0.59031993,0.76191866,-0.43107325,0.16404524,0.6742357,1.076543,-0.0046465793,0.08034421,0.8142435,0.90966624,0.6466535,0.03613614,1.0132167,0.8942804,0.430953,-0.29845706,0.8838264,821.1722,819.9634,834.87177,820.7692,841.31866,-0.4989013671875,0.23162841796875,0.82818603515625,1.786956787109375,-8.830108642578125,3.566436767578125,1.0,1.0,1.0,1.0,1.0,90.0,event
12:21:18.445,0.60956854,0.3710589,1.0724108,0.59031993,0.76191866,-0.43107325,0.16404524,0.6742357,1.076543,-0.0046465793,0.08034421,0.8142435,0.90966624,0.6466535,0.03613614,1.0132167,0.8942804,0.430953,-0.29845706,0.8838264,800.6227,813.1135,825.2015,813.91943,822.7839,-0.4989013671875,0.23162841796875,0.82818603515625,1.786956787109375,-8.830108642578125,3.566436767578125,1.0,1.0,1.0,1.0,1.0,90.0,event
12:21:18.446,0.60956854,0.3633785,1.0724108,0.59031993,0.76191866,-0.4276539,0.16404524,0.6742357,1.076543,0.0022703295,0.08034421,0.8142435,0.90966624,0.6658166,0.03613614,1.0132167,0.8942804,0.4563776,-0.29845706,0.8838264,779.67035,802.6374,825.6044,806.26373,788.93774,-0.4989013671875,0.23162841796875,0.82818603515625,1.786956787109375,-8.830108642578125,3.566436767578125,1.0,1.0,1.0,1.0,1.0,90.0,event
12:21:18.450,0.60956854,0.3633785,1.0724108,0.59031993,0.76191866,-0.4276539,0.16404524,0.6742357,1.076543,0.0022703295,0.08034421,0.8142435,0.90966624,0.6658166,0.03613614,1.0132167,0.8942804,0.4563776,-0.29845706,0.8838264,779.67035,794.9817,838.9011,807.8755,1003.2967,-0.4989013671875,0.23162841796875,0.82818603515625,1.786956787109375,-8.830108642578125,3.566436767578125,1.0,1.0,1.0,1.0,1.0,90.0,event
12:21:18.451,0.60956854,0.3633785,1.0724108,0.59031993,0.76191866,-0.4276539,0.16404524,0.6742357,1.076543,0.0022703295,0.08034421,0.8142435,0.90966624,0.6658166,0.03613614,1.0132167,0.8942804,0.4563776,-0.29845706,0.8838264,793.7729,811.0989,841.31866,814.7253,880.40295,-0.4989013671875,0.23162841796875,0.82818603515625,1.786956787109375,-8.830108642578125,3.566436767578125,1.0,1.0,1.0,1.0,1.0,90.0,event
12:21:18.452,0.60956854,0.3633785,1.0724108,0.59031993,0.76191866,-0.4276539,0.16404524,0.6742357,1.076543,0.0022703295,0.08034421,0.8142435,0.90966624,0.6658166,0.03613614,1.0132167,0.8942804,0.4563776,-0.29845706,0.8838264,815.5311,823.1868,837.28937,801.02563,682.5641,-0.4989013671875,0.23162841796875,0.82818603515625,1.786956787109375,-8.830108642578125,3.566436767578125,1.0,1.0,1.0,1.0,1.0,90.0,event
12:21:18.452,0.60956854,0.3633785,1.0724108,0.59031993,0.76191866,-0.4276539,0.16404524,0.6742357,1.076543,0.0022703295,0.08034421,0.8142435,0.90966624,0.6658166,0.03613614,1.0132167,0.8942804,0.4563776,-0.29845706,0.8838264,807.0696,813.1135,827.619,786.1172,753.8828,-0.4989013671875,0.23162841796875,0.82818603515625,1.786956787109375,-8.830108642578125,3.566436767578125,1.0,1.0,1.0,1.0,1.0,90.0,event
12:21:18.483,0.60956854,0.3633785,1.0724108,0.59031993,0.76191866,-0.4276539,0.16404524,0.6742357,1.076543,0.0022703295,0.08034421,0.8142435,0.90966624,0.6658166,0.03613614,1.0132167,0.8942804,0.4563776,-0.29845706,0.8838264,801.02563,803.0403,829.2308,813.1135,761.53845,-0.5111083984375,0.2379150390625,0.8245849609375,2.572021484375,-8.695526123046875,2.893524169921875,1.0,1.0,1.0,1.0,1.0,90.0,event
12:21:18.484,0.60956854,0.3633785,1.0724108,0.59031993,0.76191866,-0.4276539,0.16404524,0.6742357,1.076543,0.0022703295,0.08034421,0.8142435,0.90966624,0.6658166,0.03613614,1.0132167,0.8942804,0.4563776,-0.29845706,0.8838264,813.1135,807.47253,837.28937,818.7546,669.2674,-0.5111083984375,0.2379150390625,0.8245849609375,2.572021484375,-8.695526123046875,2.893524169921875,1.0,1.0,1.0,1.0,1.0,90.0,event
12:21:18.485,0.60956854,0.3633785,1.0724108,0.59031993,0.76191866,-0.4276539,0.16404524,0.6742357,1.076543,0.0022703295,0.08034421,0.8142435,0.90966624,0.6658166,0.03613614,1.0132167,0.8942804,0.4563776,-0.29845706,0.8838264,813.5165,830.84247,827.619,808.68134,756.30035,-0.5111083984375,0.2379150390625,0.8245849609375,2.572021484375,-8.695526123046875,2.893524169921875,1.0,1.0,1.0,1.0,1.0,90.0,event
12:21:18.485,0.60956854,0.3633785,1.0724108,0.59031993,0.76191866,-0.4276539,0.16404524,0.6742357,1.076543,0.0022703295,0.08034421,0.8142435,0.90966624,0.6658166,0.03613614,1.0132167,0.8942804,0.4563776,-0.29845706,0.8838264,811.50183,820.3663,828.8278,788.5348,656.77655,-0.5111083984375,0.2379150390625,0.8245849609375,2.572021484375,-8.695526123046875,2.893524169921875,1.0,1.0,1.0,1.0,1.0,90.0,event
12:21:18.486,0.60956854,0.3633785,1.0724108,0.59031993,0.76191866,-0.4276539,0.16404524,0.6742357,1.076543,0.0022703295,0.08034421,0.8142435,0.90966624,0.6658166,0.03613614,1.0132167,0.8942804,0.4563776,-0.29845706,0.8838264,804.65204,817.9487,832.4542,813.91943,722.8571,-0.5111083984375,0.2379150390625,0.8245849609375,2.572021484375,-8.695526123046875,2.893524169921875,1.0,1.0,1.0,1.0,1.0,90.0,event
12:21:18.487,0.60956854,0.3633785,1.0724108,0.59031993,0.76191866,-0.4276539,0.16404524,0.6742357,1.076543,0.0022703295,0.08034421,0.8142435,0.90966624,0.6658166,0.03613614,1.0132167,0.8942804,0.4563776,-0.29845706,0.8838264,808.68134,813.1135,829.2308,800.2198,760.32965,-0.5111083984375,0.2379150390625,0.8245849609375,2.572021484375,-8.695526123046875,2.893524169921875,1.0,1.0,1.0,1.0,1.0,90.0,event
12:21:18.487,0.60956854,0.3633785,1.0724108,0.59031993,0.76191866,-0.4276539,0.16404524,0.6742357,1.076543,0.0022703295,0.08034421,0.8142435,0.90966624,0.6658166,0.03613614,1.0132167,0.8942804,0.4563776,-0.29845706,0.8838264,817.1429,820.3663,832.0513,819.9634,892.49084,-0.5111083984375,0.2379150390625,0.8245849609375,2.572021484375,-8.695526123046875,2.893524169921875,1.0,1.0,1.0,1.0,1.0,90.0,event
12:21:18.488,0.60956854,0.3633785,1.0724108,0.59031993,0.76191866,-0.4276539,0.16404524,0.6742357,1.076543,0.0022703295,0.08034421,0.8142435,0.90966624,0.6658166,0.03613614,1.0132167,0.8942804,0.4563776,-0.29845706,0.8838264,795.78754,810.696,834.0659,822.7839,1006.1172,-0.5111083984375,0.2379150390625,0.8245849609375,2.572021484375,-8.695526123046875,2.893524169921875,1.0,1.0,1.0,1.0,1.0,90.0,event
12:21:18.489,0.60956854,0.3633785,1.0724108,0.59031993,0.76191866,-0.4276539,0.16404524,0.6742357,1.076543,0.0022703295,0.08034421,0.8142435,0.90966624,0.6658166,0.03613614,1.0132167,0.8942804,0.4563776,-0.29845706,0.8838264,797.8022,809.0842,835.6777,815.9341,879.59705,-0.5111083984375,0.2379150390625,0.8245849609375,2.572021484375,-8.695526123046875,2.893524169921875,1.0,1.0,1.0,1.0,1.0,90.0,event
12:21:18.489,0.60956854,0.3633785,1.0724108,0.59031993,0.76191866,-0.4276539,0.16404524,0.6742357,1.076543,0.0022703295,0.08034421,0.8142435,0.90966624,0.6658166,0.03613614,1.0132167,0.8942804,0.4563776,-0.29845706,0.8838264,803.44324,810.696,836.8865,813.91943,641.8681,-0.5111083984375,0.2379150390625,0.8245849609375,2.572021484375,-8.695526123046875,2.893524169921875,1.0,1.0,1.0,1.0,1.0,90.0,event
12:21:18.490,0.60956854,0.3633785,1.0724108,0.59031993,0.76191866,-0.4276539,0.16404524,0.6742357,1.076543,0.0022703295,0.08034421,0.8142435,0.90966624,0.6658166,0.03613614,1.0132167,0.8942804,0.4563776,-0.29845706,0.8838264,794.17584,810.293,836.8865,824.3956,679.7436,-0.5111083984375,0.2379150390625,0.8245849609375,2.572021484375,-8.695526123046875,2.893524169921875,1.0,1.0,1.0,1.0,1.0,90.0,event
12:21:18.490,0.60956854,0.3633785,1.0724108,0.59031993,0.76191866,-0.4276539,0.16404524,0.6742357,1.076543,0.0022703295,0.08034421,0.8142435,0.90966624,0.6658166,0.03613614,1.0132167,0.8942804,0.4563776,-0.29845706,0.8838264,797.3993,813.91943,836.4835,838.0952,725.6777,-0.5111083984375,0.2379150390625,0.8245849609375,2.572021484375,-8.695526123046875,2.893524169921875,1.0,1.0,1.0,1.0,1.0,90.0,event
12:21:18.519,0.60956854,0.3633785,1.0724108,0.59031993,0.76191866,-0.4276539,0.16404524,0.6742357,1.076543,0.0022703295,0.08034421,0.8142435,0.90966624,0.6658166,0.03613614,1.0132167,0.8942804,0.4563776,-0.29845706,0.8838264,795.38464,813.1135,834.0659,840.9158,722.0513,-0.475830078125,0.24053955078125,0.8448486328125,1.921539306640625,-5.480499267578125,1.48040771484375,1.0,1.0,1.0,1.0,1.0,90.0,event
12:21:18.520,0.60956854,0.3633785,1.0724108,0.59031993,0.76191866,-0.4276539,0.16404524,0.6742357,1.076543,0.0022703295,0.08034421,0.8142435,0.90966624,0.6658166,0.03613614,1.0132167,0.8942804,0.4563776,-0.29845706,0.8838264,788.5348,811.50183,836.8865,839.304,724.4689,-0.475830078125,0.24053955078125,0.8448486328125,1.921539306640625,-5.480499267578125,1.48040771484375,1.0,1.0,1.0,1.0,1.0,90.0,event
12:21:18.521,0.60956854,0.3633785,1.0724108,0.59031993,0.76191866,-0.4276539,0.16404524,0.6742357,1.076543,0.0022703295,0.08034421,0.8142435,0.90966624,0.6658166,0.03613614,1.0132167,0.8942804,0.4563776,-0.29845706,0.8838264,791.75824,810.293,835.2747,830.0366,784.5055,-0.475830078125,0.24053955078125,0.8448486328125,1.921539306640625,-5.480499267578125,1.48040771484375,1.0,1.0,1.0,1.0,1.0,90.0,event
12:21:18.521,0.60956854,0.3633785,1.0724108,0.59031993,0.76191866,-0.4276539,0.16404524,0.6742357,1.076543,0.0022703295,0.08034421,0.8142435,0.90966624,0.6658166,0.03613614,1.0132167,0.8942804,0.4563776,-0.29845706,0.8838264,780.87915,808.2784,834.0659,823.5897,824.3956,-0.475830078125,0.24053955078125,0.8448486328125,1.921539306640625,-5.480499267578125,1.48040771484375,1.0,1.0,1.0,1.0,1.0,90.0,event
12:21:18.523,0.60956854,0.3633785,1.0724108,0.59031993,0.76191866,-0.4276539,0.16404524,0.6742357,1.076543,0.0022703295,0.08034421,0.8142435,0.90966624,0.6658166,0.03613614,1.0132167,0.8942804,0.4563776,-0.29845706,0.8838264,774.0293,805.8608,829.2308,819.9634,745.0183,-0.475830078125,0.24053955078125,0.8448486328125,1.921539306640625,-5.480499267578125,1.48040771484375,1.0,1.0,1.0,1.0,1.0,90.0,event
12:21:18.524,0.60956854,0.3633785,1.0724108,0.59031993,0.76191866,-0.4276539,0.16404524,0.6742357,1.076543,0.0022703295,0.08034421,0.8142435,0.90966624,0.6658166,0.03613614,1.0132167,0.8942804,0.4563776,-0.29845706,0.8838264,794.57874,808.2784,826.4103,823.5897,738.97437,-0.475830078125,0.24053955078125,0.8448486328125,1.921539306640625,-5.480499267578125,1.48040771484375,1.0,1.0,1.0,1.0,1.0,90.0,event
12:21:18.525,0.60956854,0.3633785,1.0724108,0.59031993,0.76191866,-0.4276539,0.16404524,0.6742357,1.076543,0.0022703295,0.08034421,0.8142435,0.90966624,0.6658166,0.03613614,1.0132167,0.8942804,0.4563776,-0.29845706,0.8838264,817.5458,816.337,836.08057,828.8278,841.7216,-0.475830078125,0.24053955078125,0.8448486328125,1.921539306640625,-5.480499267578125,1.48040771484375,1.0,1.0,1.0,1.0,1.0,90.0,event
12:21:18.526,0.60956854,0.3633785,1.0724108,0.59031993,0.76191866,-0.4276539,0.16404524,0.6742357,1.076543,0.0022703295,0.08034421,0.8142435,0.90966624,0.6658166,0.03613614,1.0132167,0.8942804,0.4563776,-0.29845706,0.8838264,801.8315,814.3223,833.2601,836.08057,1010.9524,-0.475830078125,0.24053955078125,0.8448486328125,1.921539306640625,-5.480499267578125,1.48040771484375,1.0,1.0,1.0,1.0,1.0,90.0,event
12:21:18.526,0.60956854,0.3633785,1.0724108,0.59031993,0.76191866,-0.4276539,0.16404524,0.6742357,1.076543,0.0022703295,0.08034421,0.8142435,0.90966624,0.6658166,0.03613614,1.0132167,0.8942804,0.4563776,-0.29845706,0.8838264,801.02563,796.99634,824.7985,829.6337,756.30035,-0.475830078125,0.24053955078125,0.8448486328125,1.921539306640625,-5.480499267578125,1.48040771484375,1.0,1.0,1.0,1.0,1.0,90.0,event
12:21:18.527,0.60956854,0.36469844,1.0724108,0.59031993,0.76191866,-0.41305894,0.16404524,0.6742357,1.076543,0.0040469742,0.08034421,0.8142435,0.90966624,0.67645925,0.03613614,1.0132167,0.8942804,0.4816665,-0.29845706,0.8838264,819.15753,794.57874,821.978,811.9048,602.7839,-0.475830078125,0.24053955078125,0.8448486328125,1.921539306640625,-5.480499267578125,1.48040771484375,1.0,1.0,1.0,1.0,1.0,90.0,event
12:21:18.531,0.60956854,0.36469844,1.0724108,0.59031993,0.76191866,-0.41305894,0.16404524,0.6742357,1.076543,0.0040469742,0.08034421,0.8142435,0.90966624,0.67645925,0.03613614,1.0132167,0.8942804,0.4816665,-0.29845706,0.8838264,817.1429,803.0403,829.2308,821.978,674.5055,-0.475830078125,0.24053955078125,0.8448486328125,1.921539306640625,-5.480499267578125,1.48040771484375,1.0,1.0,1.0,1.0,1.0,90.0,event
12:21:18.532,0.60956854,0.36469844,1.0724108,0.59031993,0.76191866,-0.41305894,0.16404524,0.6742357,1.076543,0.0040469742,0.08034421,0.8142435,0.90966624,0.67645925,0.03613614,1.0132167,0.8942804,0.4816665,-0.29845706,0.8838264,819.9634,808.2784,830.4396,822.381,641.4652,-0.475830078125,0.24053955078125,0.8448486328125,1.921539306640625,-5.480499267578125,1.48040771484375,1.0,1.0,1.0,1.0,1.0,90.0,event
12:21:18.603,0.60956854,0.36469844,1.0724108,0.59031993,0.76191866,-0.41305894,0.16404524,0.6742357,1.076543,0.0040469742,0.08034421,0.8142435,0.90966624,0.67645925,0.03613614,1.0132167,0.8942804,0.4816665,-0.29845706,0.8838264,830.4396,813.91943,822.7839,828.4249,672.49084,-0.475830078125,0.24053955078125,0.8448486328125,1.921539306640625,-5.480499267578125,1.48040771484375,1.0,1.0,1.0,1.0,1.0,90.0,event
12:21:18.605,0.60956854,0.36469844,1.0724108,0.59031993,0.76191866,-0.41305894,0.16404524,0.6742357,1.076543,0.0040469742,0.08034421,0.8142435,0.90966624,0.67645925,0.03613614,1.0132167,0.8942804,0.4816665,-0.29845706,0.8838264,833.2601,818.7546,824.7985,842.52747,691.8315,-0.475830078125,0.24053955078125,0.8448486328125,1.921539306640625,-5.480499267578125,1.48040771484375,1.0,1.0,1.0,1.0,1.0,90.0,event
12:21:18.605,0.60956854,0.36469844,1.0724108,0.59031993,0.76191866,-0.41305894,0.16404524,0.6742357,1.076543,0.0040469742,0.08034421,0.8142435,0.90966624,0.67645925,0.03613614,1.0132167,0.8942804,0.4816665,-0.29845706,0.8838264,813.5165,811.9048,833.663,833.2601,774.0293,-0.475830078125,0.24053955078125,0.8448486328125,1.921539306640625,-5.480499267578125,1.48040771484375,1.0,1.0,1.0,1.0,1.0,90.0,event
12:21:18.606,0.60956854,0.36469844,1.0724108,0.59031993,0.76191866,-0.41305894,0.16404524,0.6742357,1.076543,0.0040469742,0.08034421,0.8142435,0.90966624,0.67645925,0.03613614,1.0132167,0.8942804,0.4816665,-0.29845706,0.8838264,818.7546,807.8755,838.49817,811.9048,822.7839,-0.475830078125,0.24053955078125,0.8448486328125,1.921539306640625,-5.480499267578125,1.48040771484375,1.0,1.0,1.0,1.0,1.0,90.0,event
12:21:18.607,0.60956854,0.36469844,1.0724108,0.59031993,0.76191866,-0.41305894,0.16404524,0.6742357,1.076543,0.0040469742,0.08034421,0.8142435,0.90966624,0.67645925,0.03613614,1.0132167,0.8942804,0.4816665,-0.29845706,0.8838264,803.8461,805.05493,830.4396,796.1905,792.96704,-0.475830078125,0.24053955078125,0.8448486328125,1.921539306640625,-5.480499267578125,1.48040771484375,1.0,1.0,1.0,1.0,1.0,90.0,event
12:21:18.607,0.60956854,0.36469844,1.0724108,0.59031993,0.76191866,-0.41305894,0.16404524,0.6742357,1.076543,0.0040469742,0.08034421,0.8142435,0.90966624,0.67645925,0.03613614,1.0132167,0.8942804,0.4816665,-0.29845706,0.8838264,786.52014,794.17584,823.5897,801.8315,902.1612,-0.475830078125,0.24053955078125,0.8448486328125,1.921539306640625,-5.480499267578125,1.48040771484375,1.0,1.0,1.0,1.0,1.0,90.0,event
12:21:18.608,0.60956854,0.36469844,1.0724108,0.59031993,0.76191866,-0.41305894,0.16404524,0.6742357,1.076543,0.0040469742,0.08034421,0.8142435,0.90966624,0.67645925,0.03613614,1.0132167,0.8942804,0.4816665,-0.29845706,0.8838264,786.9231,792.1612,821.5751,796.1905,1103.2234,-0.475830078125,0.24053955078125,0.8448486328125,1.921539306640625,-5.480499267578125,1.48040771484375,1.0,1.0,1.0,1.0,1.0,90.0,event
12:21:18.609,0.60956854,0.36469844,1.0724108,0.59031993,0.76191866,-0.41305894,0.16404524,0.6742357,1.076543,0.0040469742,0.08034421,0.8142435,0.90966624,0.67645925,0.03613614,1.0132167,0.8942804,0.4816665,-0.29845706,0.8838264,778.46155,794.17584,819.9634,781.685,1078.6447,-0.475830078125,0.24053955078125,0.8448486328125,1.921539306640625,-5.480499267578125,1.48040771484375,1.0,1.0,1.0,1.0,1.0,90.0,event
12:21:18.610,0.60956854,0.36469844,1.0724108,0.59031993,0.76191866,-0.41305894,0.16404524,0.6742357,1.076543,0.0040469742,0.08034421,0.8142435,0.90966624,0.67645925,0.03613614,1.0132167,0.8942804,0.4816665,-0.29845706,0.8838264,783.69965,792.1612,810.696,796.99634,781.685,-0.475830078125,0.24053955078125,0.8448486328125,1.921539306640625,-5.480499267578125,1.48040771484375,1.0,1.0,1.0,1.0,1.0,90.0,event
12:21:18.611,0.60956854,0.36469844,1.0724108,0.59031993,0.76191866,-0.41305894,0.16404524,0.6742357,1.076543,0.0040469742,0.08034421,0.8142435,0.90966624,0.67645925,0.03613614,1.0132167,0.8942804,0.4816665,-0.29845706,0.8838264,791.75824,801.4286,813.1135,795.78754,703.1135,-0.475830078125,0.24053955078125,0.8448486328125,1.921539306640625,-5.480499267578125,1.48040771484375,1.0,1.0,1.0,1.0,1.0,90.0,event
12:21:18.611,0.60956854,0.36469844,1.0724108,0.59031993,0.76191866,-0.41305894,0.16404524,0.6742357,1.076543,0.0040469742,0.08034421,0.8142435,0.90966624,0.67645925,0.03613614,1.0132167,0.8942804,0.4816665,-0.29845706,0.8838264,812.3077,810.696,823.9927,798.60803,763.1502,-0.475830078125,0.24053955078125,0.8448486328125,1.921539306640625,-5.480499267578125,1.48040771484375,1.0,1.0,1.0,1.0,1.0,90.0,event
12:21:18.612,0.60956854,0.36469844,1.0724108,0.59031993,0.76191866,-0.41305894,0.16404524,0.6742357,1.076543,0.0040469742,0.08034421,0.8142435,0.90966624,0.67645925,0.03613614,1.0132167,0.8942804,0.4816665,-0.29845706,0.8838264,801.02563,807.0696,817.1429,805.05493,698.68134,-0.475830078125,0.24053955078125,0.8448486328125,1.921539306640625,-5.480499267578125,1.48040771484375,1.0,1.0,1.0,1.0,1.0,90.0,event
12:21:18.639,0.60956854,0.36469844,1.0724108,0.59031993,0.76191866,-0.41305894,0.16404524,0.6742357,1.076543,0.0040469742,0.08034421,0.8142435,0.90966624,0.67645925,0.03613614,1.0132167,0.8942804,0.4816665,-0.29845706,0.8838264,783.2967,801.4286,813.1135,805.8608,723.2601,-0.48455810546875,0.2445068359375,0.82049560546875,1.517791748046875,-6.80389404296875,0.934600830078125,1.0,1.0,1.0,1.0,1.0,90.0,event
12:21:18.640,0.60956854,0.36469844,1.0724108,0.59031993,0.76191866,-0.41305894,0.16404524,0.6742357,1.076543,0.0040469742,0.08034421,0.8142435,0.90966624,0.67645925,0.03613614,1.0132167,0.8942804,0.4816665,-0.29845706,0.8838264,809.0842,799.81683,813.1135,815.9341,791.75824,-0.48455810546875,0.2445068359375,0.82049560546875,1.517791748046875,-6.80389404296875,0.934600830078125,1.0,1.0,1.0,1.0,1.0,90.0,event
12:21:18.641,0.60956854,0.36469844,1.0724108,0.59031993,0.76191866,-0.41305894,0.16404524,0.6742357,1.076543,0.0040469742,0.08034421,0.8142435,0.90966624,0.67645925,0.03613614,1.0132167,0.8942804,0.4816665,-0.29845706,0.8838264,824.3956,800.2198,806.26373,825.2015,798.60803,-0.48455810546875,0.2445068359375,0.82049560546875,1.517791748046875,-6.80389404296875,0.934600830078125,1.0,1.0,1.0,1.0,1.0,90.0,event
12:21:18.641,0.60956854,0.36469844,1.0724108,0.59031993,0.76191866,-0.41305894,0.16404524,0.6742357,1.076543,0.0040469742,0.08034421,0.8142435,0.90966624,0.67645925,0.03613614,1.0132167,0.8942804,0.4816665,-0.29845706,0.8838264,827.2161,803.44324,809.0842,819.15753,767.98535,-0.48455810546875,0.2445068359375,0.82049560546875,1.517791748046875,-6.80389404296875,0.934600830078125,1.0,1.0,1.0,1.0,1.0,90.0,event
12:21:18.642,0.60956854,0.36469844,1.0724108,0.59031993,0.76191866,-0.41305894,0.16404524,0.6742357,1.076543,0.0040469742,0.08034421,0.8142435,0.90966624,0.67645925,0.03613614,1.0132167,0.8942804,0.4816665,-0.29845706,0.8838264,823.1868,808.68134,807.8755,818.7546,702.3077,-0.48455810546875,0.2445068359375,0.82049560546875,1.517791748046875,-6.80389404296875,0.934600830078125,1.0,1.0,1.0,1.0,1.0,90.0,event
12:21:18.643,0.60956854,0.36469844,1.0724108,0.59031993,0.76191866,-0.41305894,0.16404524,0.6742357,1.076543,0.0040469742,0.08034421,0.8142435,0.90966624,0.67645925,0.03613614,1.0132167,0.8942804,0.4816665,-0.29845706,0.8838264,828.8278,801.02563,800.2198,819.5604,855.0183,-0.48455810546875,0.2445068359375,0.82049560546875,1.517791748046875,-6.80389404296875,0.934600830078125,1.0,1.0,1.0,1.0,1.0,90.0,event
12:21:18.644,0.60956854,0.36469844,1.0724108,0.59031993,0.76191866,-0.41305894,0.16404524,0.6742357,1.076543,0.0040469742,0.08034421,0.8142435,0.90966624,0.67645925,0.03613614,1.0132167,0.8942804,0.4816665,-0.29845706,0.8838264,817.5458,797.3993,800.2198,804.2491,1021.8315,-0.48455810546875,0.2445068359375,0.82049560546875,1.517791748046875,-6.80389404296875,0.934600830078125,1.0,1.0,1.0,1.0,1.0,90.0,event
12:21:18.645,0.60956854,0.36469844,1.0724108,0.59031993,0.76191866,-0.41305894,0.16404524,0.6742357,1.076543,0.0040469742,0.08034421,0.8142435,0.90966624,0.67645925,0.03613614,1.0132167,0.8942804,0.4816665,-0.29845706,0.8838264,808.2784,807.8755,805.05493,798.20514,924.7253,-0.48455810546875,0.2445068359375,0.82049560546875,1.517791748046875,-6.80389404296875,0.934600830078125,1.0,1.0,1.0,1.0,1.0,90.0,event
12:21:18.647,0.60956854,0.36469844,1.0724108,0.59031993,0.76191866,-0.41305894,0.16404524,0.6742357,1.076543,0.0040469742,0.08034421,0.8142435,0.90966624,0.67645925,0.03613614,1.0132167,0.8942804,0.4816665,-0.29845706,0.8838264,813.5165,806.26373,806.26373,811.0989,834.87177,-0.48455810546875,0.2445068359375,0.82049560546875,1.517791748046875,-6.80389404296875,0.934600830078125,1.0,1.0,1.0,1.0,1.0,90.0,event
12:21:18.648,0.60956854,0.36469844,1.0724108,0.59031993,0.76191866,-0.41305894,0.16404524,0.6742357,1.076543,0.0040469742,0.08034421,0.8142435,0.90966624,0.67645925,0.03613614,1.0132167,0.8942804,0.4816665,-0.29845706,0.8838264,807.0696,795.38464,810.293,795.78754,822.381,-0.48455810546875,0.2445068359375,0.82049560546875,1.517791748046875,-6.80389404296875,0.934600830078125,1.0,1.0,1.0,1.0,1.0,90.0,event
12:21:18.649,0.60956854,0.36469844,1.0724108,0.59031993,0.76191866,-0.41305894,0.16404524,0.6742357,1.076543,0.0040469742,0.08034421,0.8142435,0.90966624,0.67645925,0.03613614,1.0132167,0.8942804,0.4816665,-0.29845706,0.8838264,776.8498,798.20514,805.05493,782.49084,950.10986,-0.48455810546875,0.2445068359375,0.82049560546875,1.517791748046875,-6.80389404296875,0.934600830078125,1.0,1.0,1.0,1.0,1.0,90.0,event
12:21:18.650,0.39844742,0.37078694,1.0724108,0.59031993,0.7010825,-0.4011457,0.16404524,0.6742357,1.066684,0.0055012237,0.08034421,0.8142435,0.9150062,0.6744965,0.03613614,1.0132167,0.88768137,0.49625215,-0.29845706,0.8838264,787.326,805.8608,794.9817,802.23444,857.03296,-0.48455810546875,0.2445068359375,0.82049560546875,1.517791748046875,-6.80389404296875,0.934600830078125,1.0,1.0,1.0,1.0,1.0,90.0,event
12:21:18.689,0.39844742,0.37078694,1.0724108,0.59031993,0.7010825,-0.4011457,0.16404524,0.6742357,1.066684,0.0055012237,0.08034421,0.8142435,0.9150062,0.6744965,0.03613614,1.0132167,0.88768137,0.49625215,-0.29845706,0.8838264,819.5604,804.65204,800.6227,794.57874,705.5311,-0.47528076171875,0.2432861328125,0.8427734375,3.013153076171875,-5.600128173828125,0.52337646484375,1.0,1.0,1.0,1.0,1.0,90.0,event
12:21:18.690,0.39844742,0.37078694,1.0724108,0.59031993,0.7010825,-0.4011457,0.16404524,0.6742357,1.066684,0.0055012237,0.08034421,0.8142435,0.9150062,0.6744965,0.03613614,1.0132167,0.88768137,0.49625215,-0.29845706,0.8838264,797.8022,802.23444,806.26373,786.9231,804.2491,-0.47528076171875,0.2432861328125,0.8427734375,3.013153076171875,-5.600128173828125,0.52337646484375,1.0,1.0,1.0,1.0,1.0,90.0,event
12:21:18.690,0.39844742,0.37078694,1.0724108,0.59031993,0.7010825,-0.4011457,0.16404524,0.6742357,1.066684,0.0055012237,0.08034421,0.8142435,0.9150062,0.6744965,0.03613614,1.0132167,0.88768137,0.49625215,-0.29845706,0.8838264,774.43225,808.68134,811.0989,807.8755,811.50183,-0.47528076171875,0.2432861328125,0.8427734375,3.013153076171875,-5.600128173828125,0.52337646484375,1.0,1.0,1.0,1.0,1.0,90.0,event
12:21:18.691,0.39844742,0.37078694,1.0724108,0.59031993,0.7010825,-0.4011457,0.16404524,0.6742357,1.066684,0.0055012237,0.08034421,0.8142435,0.9150062,0.6744965,0.03613614,1.0132167,0.88768137,0.49625215,-0.29845706,0.8838264,782.49084,790.54944,793.7729,785.7143,757.9121,-0.47528076171875,0.2432861328125,0.8427734375,3.013153076171875,-5.600128173828125,0.52337646484375,1.0,1.0,1.0,1.0,1.0,90.0,event
12:21:18.691,0.39844742,0.37078694,1.0724108,0.59031993,0.7010825,-0.4011457,0.16404524,0.6742357,1.066684,0.0055012237,0.08034421,0.8142435,0.9150062,0.6744965,0.03613614,1.0132167,0.88768137,0.49625215,-0.29845706,0.8838264,766.3736,807.47253,807.0696,802.6374,735.7509,-0.47528076171875,0.2432861328125,0.8427734375,3.013153076171875,-5.600128173828125,0.52337646484375,1.0,1.0,1.0,1.0,1.0,90.0,event
12:21:18.692,0.39844742,0.37078694,1.0724108,0.59031993,0.7010825,-0.4011457,0.16404524,0.6742357,1.066684,0.0055012237,0.08034421,0.8142435,0.9150062,0.6744965,0.03613614,1.0132167,0.88768137,0.49625215,-0.29845706,0.8838264,806.6667,799.011,791.75824,803.44324,902.5641,-0.47528076171875,0.2432861328125,0.8427734375,3.013153076171875,-5.600128173828125,0.52337646484375,1.0,1.0,1.0,1.0,1.0,90.0,event
12:21:18.692,0.39844742,0.37078694,1.0724108,0.59031993,0.7010825,-0.4011457,0.16404524,0.6742357,1.066684,0.0055012237,0.08034421,0.8142435,0.9150062,0.6744965,0.03613614,1.0132167,0.88768137,0.49625215,-0.29845706,0.8838264,787.72894,813.5165,794.57874,800.6227,921.50183,-0.47528076171875,0.2432861328125,0.8427734375,3.013153076171875,-5.600128173828125,0.52337646484375,1.0,1.0,1.0,1.0,1.0,90.0,event
12:21:18.692,0.39844742,0.37078694,1.0724108,0.59031993,0.7010825,-0.4011457,0.16404524,0.6742357,1.066684,0.0055012237,0.08034421,0.8142435,0.9150062,0.6744965,0.03613614,1.0132167,0.88768137,0.49625215,-0.29845706,0.8838264,779.2674,808.68134,796.5934,798.60803,775.64105,-0.47528076171875,0.2432861328125,0.8427734375,3.013153076171875,-5.600128173828125,0.52337646484375,1.0,1.0,1.0,1.0,1.0,90.0,event
12:21:18.693,0.39844742,0.37078694,1.0724108,0.59031993,0.7010825,-0.4011457,0.16404524,0.6742357,1.066684,0.0055012237,0.08034421,0.8142435,0.9150062,0.6744965,0.03613614,1.0132167,0.88768137,0.49625215,-0.29845706,0.8838264,806.26373,789.34064,796.1905,797.3993,711.5751,-0.47528076171875,0.2432861328125,0.8427734375,3.013153076171875,-5.600128173828125,0.52337646484375,1.0,1.0,1.0,1.0,1.0,90.0,event
12:21:18.693,0.39844742,0.37078694,1.0724108,0.59031993,0.7010825,-0.4011457,0.16404524,0.6742357,1.066684,0.0055012237,0.08034421,0.8142435,0.9150062,0.6744965,0.03613614,1.0132167,0.88768137,0.49625215,-0.29845706,0.8838264,780.87915,790.54944,790.54944,794.17584,996.04395,-0.47528076171875,0.2432861328125,0.8427734375,3.013153076171875,-5.600128173828125,0.52337646484375,1.0,1.0,1.0,1.0,1.0,90.0,event
12:21:18.693,0.39844742,0.37078694,1.0724108,0.59031993,0.7010825,-0.4011457,0.16404524,0.6742357,1.066684,0.0055012237,0.08034421,0.8142435,0.9150062,0.6744965,0.03613614,1.0132167,0.88768137,0.49625215,-0.29845706,0.8838264,755.4945,791.3553,782.8938,798.20514,945.2747,-0.47528076171875,0.2432861328125,0.8427734375,3.013153076171875,-5.600128173828125,0.52337646484375,1.0,1.0,1.0,1.0,1.0,90.0,event
12:21:18.693,0.39844742,0.37078694,1.0724108,0.59031993,0.7010825,-0.4011457,0.16404524,0.6742357,1.066684,0.0055012237,0.08034421,0.8142435,0.9150062,0.6744965,0.03613614,1.0132167,0.88768137,0.49625215,-0.29845706,0.8838264,784.90845,792.1612,782.0879,809.89014,689.011,-0.47528076171875,0.2432861328125,0.8427734375,3.013153076171875,-5.600128173828125,0.52337646484375,1.0,1.0,1.0,1.0,1.0,90.0,event
12:21:18.750,0.39844742,0.37078694,1.0724108,0.59031993,0.7010825,-0.4011457,0.16404524,0.6742357,1.066684,0.0055012237,0.08034421,0.8142435,0.9150062,0.6744965,0.03613614,1.0132167,0.88768137,0.49625215,-0.29845706,0.8838264,784.10254,807.8755,786.9231,799.81683,762.3443,-0.47760009765625,0.2396240234375,0.83819580078125,2.011260986328125,-3.701019287109375,-0.321502685546875,1.0,1.0,1.0,1.0,1.0,90.0,event
12:21:18.751,0.39844742,0.37078694,1.0724108,0.59031993,0.7010825,-0.4011457,0.16404524,0.6742357,1.066684,0.0055012237,0.08034421,0.8142435,0.9150062,0.6744965,0.03613614,1.0132167,0.88768137,0.49625215,-0.29845706,0.8838264,784.5055,813.91943,788.93774,780.4762,818.7546,-0.47760009765625,0.2396240234375,0.83819580078125,2.011260986328125,-3.701019287109375,-0.321502685546875,1.0,1.0,1.0,1.0,1.0,90.0,event
12:21:18.752,0.39844742,0.37078694,1.0724108,0.59031993,0.7010825,-0.4011457,0.16404524,0.6742357,1.066684,0.0055012237,0.08034421,0.8142435,0.9150062,0.6744965,0.03613614,1.0132167,0.88768137,0.49625215,-0.29845706,0.8838264,781.685,798.60803,781.28204,803.8461,779.2674,-0.47760009765625,0.2396240234375,0.83819580078125,2.011260986328125,-3.701019287109375,-0.321502685546875,1.0,1.0,1.0,1.0,1.0,90.0,event
12:21:18.752,0.39844742,0.37078694,1.0724108,0.59031993,0.7010825,-0.4011457,0.16404524,0.6742357,1.066684,0.0055012237,0.08034421,0.8142435,0.9150062,0.6744965,0.03613614,1.0132167,0.88768137,0.49625215,-0.29845706,0.8838264,775.64105,806.6667,784.5055,794.17584,747.03296,-0.47760009765625,0.2396240234375,0.83819580078125,2.011260986328125,-3.701019287109375,-0.321502685546875,1.0,1.0,1.0,1.0,1.0,90.0,event
12:21:18.753,0.39844742,0.37078694,1.0724108,0.59031993,0.7010825,-0.4011457,0.16404524,0.6742357,1.066684,0.0055012237,0.08034421,0.8142435,0.9150062,0.6744965,0.03613614,1.0132167,0.88768137,0.49625215,-0.29845706,0.8838264,817.9487,800.6227,780.87915,824.7985,873.95605,-0.47760009765625,0.2396240234375,0.83819580078125,2.011260986328125,-3.701019287109375,-0.321502685546875,1.0,1.0,1.0,1.0,1.0,90.0,event
12:21:18.753,0.39844742,0.37078694,1.0724108,0.59031993,0.7010825,-0.4011457,0.16404524,0.6742357,1.066684,0.0055012237,0.08034421,0.8142435,0.9150062,0.6744965,0.03613614,1.0132167,0.88768137,0.49625215,-0.29845706,0.8838264,797.8022,800.6227,779.67035,812.71063,932.7839,-0.47760009765625,0.2396240234375,0.83819580078125,2.011260986328125,-3.701019287109375,-0.321502685546875,1.0,1.0,1.0,1.0,1.0,90.0,event
12:21:18.754,0.39844742,0.37078694,1.0724108,0.59031993,0.7010825,-0.4011457,0.16404524,0.6742357,1.066684,0.0055012237,0.08034421,0.8142435,0.9150062,0.6744965,0.03613614,1.0132167,0.88768137,0.49625215,-0.29845706,0.8838264,799.81683,778.46155,776.04395,805.8608,830.84247,-0.47760009765625,0.2396240234375,0.83819580078125,2.011260986328125,-3.701019287109375,-0.321502685546875,1.0,1.0,1.0,1.0,1.0,90.0,event
12:21:18.754,0.39844742,0.37078694,1.0724108,0.59031993,0.7010825,-0.4011457,0.16404524,0.6742357,1.066684,0.0055012237,0.08034421,0.8142435,0.9150062,0.6744965,0.03613614,1.0132167,0.88768137,0.49625215,-0.29845706,0.8838264,796.99634,782.49084,770.0,803.0403,730.5128,-0.47760009765625,0.2396240234375,0.83819580078125,2.011260986328125,-3.701019287109375,-0.321502685546875,1.0,1.0,1.0,1.0,1.0,90.0,event
12:21:18.755,0.39844742,0.37078694,1.0724108,0.59031993,0.7010825,-0.4011457,0.16404524,0.6742357,1.066684,0.0055012237,0.08034421,0.8142435,0.9150062,0.6744965,0.03613614,1.0132167,0.88768137,0.49625215,-0.29845706,0.8838264,787.72894,813.5165,774.0293,806.26373,868.315,-0.47760009765625,0.2396240234375,0.83819580078125,2.011260986328125,-3.701019287109375,-0.321502685546875,1.0,1.0,1.0,1.0,1.0,90.0,event
12:21:18.755,0.39844742,0.37078694,1.0724108,0.59031993,0.7010825,-0.4011457,0.16404524,0.6742357,1.066684,0.0055012237,0.08034421,0.8142435,0.9150062,0.6744965,0.03613614,1.0132167,0.88768137,0.49625215,-0.29845706,0.8838264,786.9231,819.15753,772.01465,804.65204,1008.1319,-0.47760009765625,0.2396240234375,0.83819580078125,2.011260986328125,-3.701019287109375,-0.321502685546875,1.0,1.0,1.0,1.0,1.0,90.0,event
12:21:18.756,0.39844742,0.37078694,1.0724108,0.59031993,0.7010825,-0.4011457,0.16404524,0.6742357,1.066684,0.0055012237,0.08034421,0.8142435,0.9150062,0.6744965,0.03613614,1.0132167,0.88768137,0.49625215,-0.29845706,0.8838264,785.7143,811.9048,767.98535,799.41394,761.9414,-0.47760009765625,0.2396240234375,0.83819580078125,2.011260986328125,-3.701019287109375,-0.321502685546875,1.0,1.0,1.0,1.0,1.0,90.0,event
12:21:18.756,0.39844742,0.37078694,1.0724108,0.59031993,0.7010825,-0.4011457,0.16404524,0.6742357,1.066684,0.0055012237,0.08034421,0.8142435,0.9150062,0.6744965,0.03613614,1.0132167,0.88768137,0.49625215,-0.29845706,0.8838264,796.5934,807.8755,775.64105,811.0989,674.90845,-0.47760009765625,0.2396240234375,0.83819580078125,2.011260986328125,-3.701019287109375,-0.321502685546875,1.0,1.0,1.0,1.0,1.0,90.0,event
12:21:18.798,0.39844742,0.37078694,1.0724108,0.59031993,0.7010825,-0.4011457,0.16404524,0.6742357,1.066684,0.0055012237,0.08034421,0.8142435,0.9150062,0.6744965,0.03613614,1.0132167,0.88768137,0.49625215,-0.29845706,0.8838264,783.2967,799.011,767.5824,811.0989,846.9597,-0.46795654296875,0.23583984375,0.84222412109375,1.323394775390625,-4.643096923828125,-0.351409912109375,1.0,1.0,1.0,1.0,1.0,90.0,event
12:21:18.799,0.2362199,0.3857996,1.0724108,0.59031993,0.6629599,-0.39958385,0.16404524,0.6742357,1.0591775,0.002871823,0.08034421,0.8142435,0.91977704,0.6617647,0.03613614,1.0132167,0.88216287,0.49550945,-0.29845706,0.8838264,797.8022,797.8022,764.35895,813.91943,862.674,-0.46795654296875,0.23583984375,0.84222412109375,1.323394775390625,-4.643096923828125,-0.351409912109375,1.0,1.0,1.0,1.0,1.0,90.0,event
12:21:18.803,0.2362199,0.3857996,1.0724108,0.59031993,0.6629599,-0.39958385,0.16404524,0.6742357,1.0591775,0.002871823,0.08034421,0.8142435,0.91977704,0.6617647,0.03613614,1.0132167,0.88216287,0.49550945,-0.29845706,0.8838264,817.1429,800.6227,774.83514,825.2015,757.9121,-0.46795654296875,0.23583984375,0.84222412109375,1.323394775390625,-4.643096923828125,-0.351409912109375,1.0,1.0,1.0,1.0,1.0,90.0,event
12:21:18.804,0.2362199,0.3857996,1.0724108,0.59031993,0.6629599,-0.39958385,0.16404524,0.6742357,1.0591775,0.002871823,0.08034421,0.8142435,0.91977704,0.6617647,0.03613614,1.0132167,0.88216287,0.49550945,-0.29845706,0.8838264,792.1612,796.99634,770.80585,841.7216,788.5348,-0.46795654296875,0.23583984375,0.84222412109375,1.323394775390625,-4.643096923828125,-0.351409912109375,1.0,1.0,1.0,1.0,1.0,90.0,event
12:21:18.804,0.2362199,0.3857996,1.0724108,0.59031993,0.6629599,-0.39958385,0.16404524,0.6742357,1.0591775,0.002871823,0.08034421,0.8142435,0.91977704,0.6617647,0.03613614,1.0132167,0.88216287,0.49550945,-0.29845706,0.8838264,790.9524,789.34064,765.16486,821.978,916.26373,-0.46795654296875,0.23583984375,0.84222412109375,1.323394775390625,-4.643096923828125,-0.351409912109375,1.0,1.0,1.0,1.0,1.0,90.0,event
12:21:18.805,0.2362199,0.3857996,1.0724108,0.59031993,0.6629599,-0.39958385,0.16404524,0.6742357,1.0591775,0.002871823,0.08034421,0.8142435,0.91977704,0.6617647,0.03613614,1.0132167,0.88216287,0.49550945,-0.29845706,0.8838264,803.44324,787.326,767.1795,808.2784,919.4872,-0.46795654296875,0.23583984375,0.84222412109375,1.323394775390625,-4.643096923828125,-0.351409912109375,1.0,1.0,1.0,1.0,1.0,90.0,event
12:21:18.805,0.2362199,0.3857996,1.0724108,0.59031993,0.6629599,-0.39958385,0.16404524,0.6742357,1.0591775,0.002871823,0.08034421,0.8142435,0.91977704,0.6617647,0.03613614,1.0132167,0.88216287,0.49550945,-0.29845706,0.8838264,826.0073,799.81683,774.0293,824.3956,875.9707,-0.46795654296875,0.23583984375,0.84222412109375,1.323394775390625,-4.643096923828125,-0.351409912109375,1.0,1.0,1.0,1.0,1.0,90.0,event
12:21:18.806,0.2362199,0.3857996,1.0724108,0.59031993,0.6629599,-0.39958385,0.16404524,0.6742357,1.0591775,0.002871823,0.08034421,0.8142435,0.91977704,0.6617647,0.03613614,1.0132167,0.88216287,0.49550945,-0.29845706,0.8838264,833.2601,806.26373,774.43225,839.304,843.3333,-0.46795654296875,0.23583984375,0.84222412109375,1.323394775390625,-4.643096923828125,-0.351409912109375,1.0,1.0,1.0,1.0,1.0,90.0,event
12:21:18.806,0.2362199,0.3857996,1.0724108,0.59031993,0.6629599,-0.39958385,0.16404524,0.6742357,1.0591775,0.002871823,0.08034421,0.8142435,0.91977704,0.6617647,0.03613614,1.0132167,0.88216287,0.49550945,-0.29845706,0.8838264,799.011,785.31134,772.8205,831.6484,936.4103,-0.46795654296875,0.23583984375,0.84222412109375,1.323394775390625,-4.643096923828125,-0.351409912109375,1.0,1.0,1.0,1.0,1.0,90.0,event
12:21:18.807,0.2362199,0.3857996,1.0724108,0.59031993,0.6629599,-0.39958385,0.16404524,0.6742357,1.0591775,0.002871823,0.08034421,0.8142435,0.91977704,0.6617647,0.03613614,1.0132167,0.88216287,0.49550945,-0.29845706,0.8838264,791.3553,786.9231,774.0293,815.5311,895.7143,-0.46795654296875,0.23583984375,0.84222412109375,1.323394775390625,-4.643096923828125,-0.351409912109375,1.0,1.0,1.0,1.0,1.0,90.0,event
12:21:18.808,0.2362199,0.3857996,1.0724108,0.59031993,0.6629599,-0.39958385,0.16404524,0.6742357,1.0591775,0.002871823,0.08034421,0.8142435,0.91977704,0.6617647,0.03613614,1.0132167,0.88216287,0.49550945,-0.29845706,0.8838264,818.3516,808.2784,774.43225,817.5458,752.674,-0.46795654296875,0.23583984375,0.84222412109375,1.323394775390625,-4.643096923828125,-0.351409912109375,1.0,1.0,1.0,1.0,1.0,90.0,event
12:21:18.808,0.2362199,0.3857996,1.0724108,0.59031993,0.6629599,-0.39958385,0.16404524,0.6742357,1.0591775,0.002871823,0.08034421,0.8142435,0.91977704,0.6617647,0.03613614,1.0132167,0.88216287,0.49550945,-0.29845706,0.8838264,807.8755,803.0403,777.6557,819.5604,715.6044,-0.46795654296875,0.23583984375,0.84222412109375,1.323394775390625,-4.643096923828125,-0.351409912109375,1.0,1.0,1.0,1.0,1.0,90.0,event
12:21:18.847,0.2362199,0.3857996,1.0724108,0.59031993,0.6629599,-0.39958385,0.16404524,0.6742357,1.0591775,0.002871823,0.08034421,0.8142435,0.91977704,0.6617647,0.03613614,1.0132167,0.88216287,0.49550945,-0.29845706,0.8838264,820.7692,809.89014,776.4469,824.7985,748.6447,-0.46795654296875,0.23583984375,0.84222412109375,1.323394775390625,-4.643096923828125,-0.351409912109375,1.0,1.0,1.0,1.0,1.0,90.0,event
12:21:18.848,0.2362199,0.3857996,1.0724108,0.59031993,0.6629599,-0.39958385,0.16404524,0.6742357,1.0591775,0.002871823,0.08034421,0.8142435,0.91977704,0.6617647,0.03613614,1.0132167,0.88216287,0.49550945,-0.29845706,0.8838264,821.5751,807.47253,782.8938,847.3626,696.6667,-0.46795654296875,0.23583984375,0.84222412109375,1.323394775390625,-4.643096923828125,-0.351409912109375,1.0,1.0,1.0,1.0,1.0,90.0,event
12:21:18.849,0.2362199,0.3857996,1.0724108,0.59031993,0.6629599,-0.39958385,0.16404524,0.6742357,1.0591775,0.002871823,0.08034421,0.8142435,0.91977704,0.6617647,0.03613614,1.0132167,0.88216287,0.49550945,-0.29845706,0.8838264,817.9487,812.71063,784.5055,836.08057,702.71063,-0.46795654296875,0.23583984375,0.84222412109375,1.323394775390625,-4.643096923828125,-0.351409912109375,1.0,1.0,1.0,1.0,1.0,90.0,event
12:21:18.849,0.2362199,0.3857996,1.0724108,0.59031993,0.6629599,-0.39958385,0.16404524,0.6742357,1.0591775,0.002871823,0.08034421,0.8142435,0.91977704,0.6617647,0.03613614,1.0132167,0.88216287,0.49550945,-0.29845706,0.8838264,821.1722,813.1135,785.31134,827.619,782.8938,-0.46795654296875,0.23583984375,0.84222412109375,1.323394775390625,-4.643096923828125,-0.351409912109375,1.0,1.0,1.0,1.0,1.0,90.0,event
12:21:18.850,0.2362199,0.3857996,1.0724108,0.59031993,0.6629599,-0.39958385,0.16404524,0.6742357,1.0591775,0.002871823,0.08034421,0.8142435,0.91977704,0.6617647,0.03613614,1.0132167,0.88216287,0.49550945,-0.29845706,0.8838264,815.5311,794.57874,779.67035,819.15753,860.65936,-0.46795654296875,0.23583984375,0.84222412109375,1.323394775390625,-4.643096923828125,-0.351409912109375,1.0,1.0,1.0,1.0,1.0,90.0,event
12:21:18.851,0.2362199,0.3857996,1.0724108,0.59031993,0.6629599,-0.39958385,0.16404524,0.6742357,1.0591775,0.002871823,0.08034421,0.8142435,0.91977704,0.6617647,0.03613614,1.0132167,0.88216287,0.49550945,-0.29845706,0.8838264,811.0989,788.93774,777.6557,812.3077,867.1062,-0.46795654296875,0.23583984375,0.84222412109375,1.323394775390625,-4.643096923828125,-0.351409912109375,1.0,1.0,1.0,1.0,1.0,90.0,event
12:21:18.851,0.2362199,0.3857996,1.0724108,0.59031993,0.6629599,-0.39958385,0.16404524,0.6742357,1.0591775,0.002871823,0.08034421,0.8142435,0.91977704,0.6617647,0.03613614,1.0132167,0.88216287,0.49550945,-0.29845706,0.8838264,811.9048,793.36993,781.685,811.50183,796.5934,-0.46795654296875,0.23583984375,0.84222412109375,1.323394775390625,-4.643096923828125,-0.351409912109375,1.0,1.0,1.0,1.0,1.0,90.0,event
12:21:18.852,0.2362199,0.3857996,1.0724108,0.59031993,0.6629599,-0.39958385,0.16404524,0.6742357,1.0591775,0.002871823,0.08034421,0.8142435,0.91977704,0.6617647,0.03613614,1.0132167,0.88216287,0.49550945,-0.29845706,0.8838264,801.8315,804.65204,788.1319,836.4835,1048.022,-0.46795654296875,0.23583984375,0.84222412109375,1.323394775390625,-4.643096923828125,-0.351409912109375,1.0,1.0,1.0,1.0,1.0,90.0,event
12:21:18.852,0.2362199,0.3857996,1.0724108,0.59031993,0.6629599,-0.39958385,0.16404524,0.6742357,1.0591775,0.002871823,0.08034421,0.8142435,0.91977704,0.6617647,0.03613614,1.0132167,0.88216287,0.49550945,-0.29845706,0.8838264,807.47253,797.8022,787.326,815.5311,827.2161,-0.46795654296875,0.23583984375,0.84222412109375,1.323394775390625,-4.643096923828125,-0.351409912109375,1.0,1.0,1.0,1.0,1.0,90.0,event
12:21:18.853,0.2362199,0.3857996,1.0724108,0.59031993,0.6629599,-0.39958385,0.16404524,0.6742357,1.0591775,0.002871823,0.08034421,0.8142435,0.91977704,0.6617647,0.03613614,1.0132167,0.88216287,0.49550945,-0.29845706,0.8838264,802.23444,791.75824,784.5055,824.3956,871.53845,-0.46795654296875,0.23583984375,0.84222412109375,1.323394775390625,-4.643096923828125,-0.351409912109375,1.0,1.0,1.0,1.0,1.0,90.0,event
12:21:18.853,0.2362199,0.3857996,1.0724108,0.59031993,0.6629599,-0.39958385,0.16404524,0.6742357,1.0591775,0.002871823,0.08034421,0.8142435,0.91977704,0.6617647,0.03613614,1.0132167,0.88216287,0.49550945,-0.29845706,0.8838264,813.91943,780.87915,786.9231,813.1135,757.50916,-0.46795654296875,0.23583984375,0.84222412109375,1.323394775390625,-4.643096923828125,-0.351409912109375,1.0,1.0,1.0,1.0,1.0,90.0,event
12:21:18.854,0.2362199,0.3857996,1.0724108,0.59031993,0.6629599,-0.39958385,0.16404524,0.6742357,1.0591775,0.002871823,0.08034421,0.8142435,0.91977704,0.6617647,0.03613614,1.0132167,0.88216287,0.49550945,-0.29845706,0.8838264,844.94507,803.0403,796.1905,827.2161,896.9231,-0.46795654296875,0.23583984375,0.84222412109375,1.323394775390625,-4.643096923828125,-0.351409912109375,1.0,1.0,1.0,1.0,1.0,90.0,event
12:21:18.855,0.2362199,0.3857996,1.0724108,0.59031993,0.6629599,-0.39958385,0.16404524,0.6742357,1.0591775,0.002871823,0.08034421,0.8142435,0.91977704,0.6617647,0.03613614,1.0132167,0.88216287,0.49550945,-0.29845706,0.8838264,848.97437,809.89014,793.7729,828.022,865.09155,-0.46142578125,0.23846435546875,0.8326416015625,-0.55328369140625,-4.358978271484375,-0.2093505859375,1.0,1.0,1.0,1.0,1.0,90.0,event
12:21:18.856,0.2362199,0.3857996,1.0724108,0.59031993,0.6629599,-0.39958385,0.16404524,0.6742357,1.0591775,0.002871823,0.08034421,0.8142435,0.91977704,0.6617647,0.03613614,1.0132167,0.88216287,0.49550945,-0.29845706,0.8838264,816.337,802.6374,783.2967,817.9487,745.0183,-0.46142578125,0.23846435546875,0.8326416015625,-0.55328369140625,-4.358978271484375,-0.2093505859375,1.0,1.0,1.0,1.0,1.0,90.0,event
12:21:18.856,0.2362199,0.3857996,1.0724108,0.59031993,0.6629599,-0.39958385,0.16404524,0.6742357,1.0591775,0.002871823,0.08034421,0.8142435,0.91977704,0.6617647,0.03613614,1.0132167,0.88216287,0.49550945,-0.29845706,0.8838264,815.5311,806.6667,791.75824,809.0842,705.5311,-0.46142578125,0.23846435546875,0.8326416015625,-0.55328369140625,-4.358978271484375,-0.2093505859375,1.0,1.0,1.0,1.0,1.0,90.0,event
12:21:18.857,0.16570055,0.4152535,1.0724108,0.59031993,0.63258773,-0.41096547,0.16404524,0.6742357,1.0346947,0.002871823,0.08034421,0.8142435,0.91904926,0.64517826,0.03613614,1.0132167,0.8670292,0.48175976,-0.29845706,0.8838264,819.5604,803.8461,800.2198,821.1722,731.7216,-0.46142578125,0.23846435546875,0.8326416015625,-0.55328369140625,-4.358978271484375,-0.2093505859375,1.0,1.0,1.0,1.0,1.0,90.0,event
12:21:18.861,0.16570055,0.4152535,1.0724108,0.59031993,0.63258773,-0.41096547,0.16404524,0.6742357,1.0346947,0.002871823,0.08034421,0.8142435,0.91904926,0.64517826,0.03613614,1.0132167,0.8670292,0.48175976,-0.29845706,0.8838264,820.3663,803.8461,793.7729,821.978,739.3773,-0.46142578125,0.23846435546875,0.8326416015625,-0.55328369140625,-4.358978271484375,-0.2093505859375,1.0,1.0,1.0,1.0,1.0,90.0,event
12:21:18.861,0.16570055,0.4152535,1.0724108,0.59031993,0.63258773,-0.41096547,0.16404524,0.6742357,1.0346947,0.002871823,0.08034421,0.8142435,0.91904926,0.64517826,0.03613614,1.0132167,0.8670292,0.48175976,-0.29845706,0.8838264,836.8865,814.7253,788.93774,814.3223,848.97437,-0.46142578125,0.23846435546875,0.8326416015625,-0.55328369140625,-4.358978271484375,-0.2093505859375,1.0,1.0,1.0,1.0,1.0,90.0,event
12:21:18.862,0.16570055,0.4152535,1.0724108,0.59031993,0.63258773,-0.41096547,0.16404524,0.6742357,1.0346947,0.002871823,0.08034421,0.8142435,0.91904926,0.64517826,0.03613614,1.0132167,0.8670292,0.48175976,-0.29845706,0.8838264,839.304,803.0403,805.4579,824.3956,1067.3627,-0.46142578125,0.23846435546875,0.8326416015625,-0.55328369140625,-4.358978271484375,-0.2093505859375,1.0,1.0,1.0,1.0,1.0,90.0,event
12:21:18.862,0.16570055,0.4152535,1.0724108,0.59031993,0.63258773,-0.41096547,0.16404524,0.6742357,1.0346947,0.002871823,0.08034421,0.8142435,0.91904926,0.64517826,0.03613614,1.0132167,0.8670292,0.48175976,-0.29845706,0.8838264,844.1392,815.5311,797.8022,819.5604,894.5055,-0.46142578125,0.23846435546875,0.8326416015625,-0.55328369140625,-4.358978271484375,-0.2093505859375,1.0,1.0,1.0,1.0,1.0,90.0,event
12:21:18.863,0.16570055,0.4152535,1.0724108,0.59031993,0.63258773,-0.41096547,0.16404524,0.6742357,1.0346947,0.002871823,0.08034421,0.8142435,0.91904926,0.64517826,0.03613614,1.0132167,0.8670292,0.48175976,-0.29845706,0.8838264,828.8278,801.8315,805.05493,824.3956,1137.4725,-0.46142578125,0.23846435546875,0.8326416015625,-0.55328369140625,-4.358978271484375,-0.2093505859375,1.0,1.0,1.0,1.0,1.0,90.0,event
12:21:18.863,0.16570055,0.4152535,1.0724108,0.59031993,0.63258773,-0.41096547,0.16404524,0.6742357,1.0346947,0.002871823,0.08034421,0.8142435,0.91904926,0.64517826,0.03613614,1.0132167,0.8670292,0.48175976,-0.29845706,0.8838264,817.9487,807.47253,801.02563,816.337,807.8755,-0.46142578125,0.23846435546875,0.8326416015625,-0.55328369140625,-4.358978271484375,-0.2093505859375,1.0,1.0,1.0,1.0,1.0,90.0,event
12:21:18.864,0.16570055,0.4152535,1.0724108,0.59031993,0.63258773,-0.41096547,0.16404524,0.6742357,1.0346947,0.002871823,0.08034421,0.8142435,0.91904926,0.64517826,0.03613614,1.0132167,0.8670292,0.48175976,-0.29845706,0.8838264,827.2161,807.0696,796.99634,817.1429,715.6044,-0.46142578125,0.23846435546875,0.8326416015625,-0.55328369140625,-4.358978271484375,-0.2093505859375,1.0,1.0,1.0,1.0,1.0,90.0,event
12:21:18.864,0.16570055,0.4152535,1.0724108,0.59031993,0.63258773,-0.41096547,0.16404524,0.6742357,1.0346947,0.002871823,0.08034421,0.8142435,0.91904926,0.64517826,0.03613614,1.0132167,0.8670292,0.48175976,-0.29845706,0.8838264,836.8865,804.65204,803.8461,827.619,762.74725,-0.46142578125,0.23846435546875,0.8326416015625,-0.55328369140625,-4.358978271484375,-0.2093505859375,1.0,1.0,1.0,1.0,1.0,90.0,event
12:21:18.886,0.16570055,0.4152535,1.0724108,0.59031993,0.63258773,-0.41096547,0.16404524,0.6742357,1.0346947,0.002871823,0.08034421,0.8142435,0.91904926,0.64517826,0.03613614,1.0132167,0.8670292,0.48175976,-0.29845706,0.8838264,809.4872,798.60803,805.8608,835.6777,696.26373,-0.4610595703125,0.23260498046875,0.8409423828125,0.396270751953125,-2.6318359375,-1.263580322265625,1.0,1.0,1.0,1.0,1.0,90.0,event
12:21:18.887,0.16570055,0.4152535,1.0724108,0.59031993,0.63258773,-0.41096547,0.16404524,0.6742357,1.0346947,0.002871823,0.08034421,0.8142435,0.91904926,0.64517826,0.03613614,1.0132167,0.8670292,0.48175976,-0.29845706,0.8838264,807.8755,796.1905,798.20514,827.2161,700.293,-0.4610595703125,0.23260498046875,0.8409423828125,0.396270751953125,-2.6318359375,-1.263580322265625,1.0,1.0,1.0,1.0,1.0,90.0,event
12:21:18.887,0.16570055,0.4152535,1.0724108,0.59031993,0.63258773,-0.41096547,0.16404524,0.6742357,1.0346947,0.002871823,0.08034421,0.8142435,0.91904926,0.64517826,0.03613614,1.0132167,0.8670292,0.48175976,-0.29845706,0.8838264,830.84247,803.8461,804.65204,816.337,781.28204,-0.4610595703125,0.23260498046875,0.8409423828125,0.396270751953125,-2.6318359375,-1.263580322265625,1.0,1.0,1.0,1.0,1.0,90.0,event
12:21:18.888,0.16570055,0.4152535,1.0724108,0.59031993,0.63258773,-0.41096547,0.16404524,0.6742357,1.0346947,0.002871823,0.08034421,0.8142435,0.91904926,0.64517826,0.03613614,1.0132167,0.8670292,0.48175976,-0.29845706,0.8838264,808.2784,809.0842,809.0842,810.293,738.97437,-0.4610595703125,0.23260498046875,0.8409423828125,0.396270751953125,-2.6318359375,-1.263580322265625,1.0,1.0,1.0,1.0,1.0,90.0,event
12:21:18.888,0.16570055,0.4152535,1.0724108,0.59031993,0.63258773,-0.41096547,0.16404524,0.6742357,1.0346947,0.002871823,0.08034421,0.8142435,0.91904926,0.64517826,0.03613614,1.0132167,0.8670292,0.48175976,-0.29845706,0.8838264,823.5897,817.1429,811.9048,808.2784,796.5934,-0.4610595703125,0.23260498046875,0.8409423828125,0.396270751953125,-2.6318359375,-1.263580322265625,1.0,1.0,1.0,1.0,1.0,90.0,event
12:21:18.889,0.16570055,0.4152535,1.0724108,0.59031993,0.63258773,-0.41096547,0.16404524,0.6742357,1.0346947,0.002871823,0.08034421,0.8142435,0.91904926,0.64517826,0.03613614,1.0132167,0.8670292,0.48175976,-0.29845706,0.8838264,792.5641,801.02563,813.1135,801.4286,722.4542,-0.4610595703125,0.23260498046875,0.8409423828125,0.396270751953125,-2.6318359375,-1.263580322265625,1.0,1.0,1.0,1.0,1.0,90.0,event
12:21:18.889,0.16570055,0.4152535,1.0724108,0.59031993,0.63258773,-0.41096547,0.16404524,0.6742357,1.0346947,0.002871823,0.08034421,0.8142435,0.91904926,0.64517826,0.03613614,1.0132167,0.8670292,0.48175976,-0.29845706,0.8838264,794.17584,813.91943,813.91943,803.8461,846.9597,-0.4610595703125,0.23260498046875,0.8409423828125,0.396270751953125,-2.6318359375,-1.263580322265625,1.0,1.0,1.0,1.0,1.0,90.0,event
12:21:18.890,0.16570055,0.4152535,1.0724108,0.59031993,0.63258773,-0.41096547,0.16404524,0.6742357,1.0346947,0.002871823,0.08034421,0.8142435,0.91904926,0.64517826,0.03613614,1.0132167,0.8670292,0.48175976,-0.29845706,0.8838264,825.6044,827.619,803.0403,832.4542,1029.4872,-0.4610595703125,0.23260498046875,0.8409423828125,0.396270751953125,-2.6318359375,-1.263580322265625,1.0,1.0,1.0,1.0,1.0,90.0,event
12:21:18.890,0.16570055,0.4152535,1.0724108,0.59031993,0.63258773,-0.41096547,0.16404524,0.6742357,1.0346947,0.002871823,0.08034421,0.8142435,0.91904926,0.64517826,0.03613614,1.0132167,0.8670292,0.48175976,-0.29845706,0.8838264,852.1978,822.7839,815.9341,840.10986,837.28937,-0.4610595703125,0.23260498046875,0.8409423828125,0.396270751953125,-2.6318359375,-1.263580322265625,1.0,1.0,1.0,1.0,1.0,90.0,event
12:21:18.891,0.16570055,0.4152535,1.0724108,0.59031993,0.63258773,-0.41096547,0.16404524,0.6742357,1.0346947,0.002871823,0.08034421,0.8142435,0.91904926,0.64517826,0.03613614,1.0132167,0.8670292,0.48175976,-0.29845706,0.8838264,823.1868,802.6374,819.5604,830.0366,685.38464,-0.4610595703125,0.23260498046875,0.8409423828125,0.396270751953125,-2.6318359375,-1.263580322265625,1.0,1.0,1.0,1.0,1.0,90.0,event
12:21:18.891,0.16570055,0.4152535,1.0724108,0.59031993,0.63258773,-0.41096547,0.16404524,0.6742357,1.0346947,0.002871823,0.08034421,0.8142435,0.91904926,0.64517826,0.03613614,1.0132167,0.8670292,0.48175976,-0.29845706,0.8838264,782.8938,801.8315,807.8755,794.17584,800.2198,-0.4610595703125,0.23260498046875,0.8409423828125,0.396270751953125,-2.6318359375,-1.263580322265625,1.0,1.0,1.0,1.0,1.0,90.0,event
12:21:18.892,0.16570055,0.4152535,1.0724108,0.59031993,0.63258773,-0.41096547,0.16404524,0.6742357,1.0346947,0.002871823,0.08034421,0.8142435,0.91904926,0.64517826,0.03613614,1.0132167,0.8670292,0.48175976,-0.29845706,0.8838264,784.5055,809.89014,805.8608,772.8205,760.7326,-0.4610595703125,0.23260498046875,0.8409423828125,0.396270751953125,-2.6318359375,-1.263580322265625,1.0,1.0,1.0,1.0,1.0,90.0,event
12:21:18.988,0.16570055,0.4152535,1.0724108,0.59031993,0.63258773,-0.41096547,0.16404524,0.6742357,1.0346947,0.002871823,0.08034421,0.8142435,0.91904926,0.64517826,0.03613614,1.0132167,0.8670292,0.48175976,-0.29845706,0.8838264,790.9524,811.50183,806.26373,796.5934,641.4652,-0.46636962890625,0.2352294921875,0.83953857421875,0.897216796875,-3.42437744140625,-2.100982666015625,1.0,1.0,1.0,1.0,1.0,90.0,event
12:21:18.989,0.16570055,0.4152535,1.0724108,0.59031993,0.63258773,-0.41096547,0.16404524,0.6742357,1.0346947,0.002871823,0.08034421,0.8142435,0.91904926,0.64517826,0.03613614,1.0132167,0.8670292,0.48175976,-0.29845706,0.8838264,799.81683,809.4872,807.8755,808.2784,665.2381,-0.46636962890625,0.2352294921875,0.83953857421875,0.897216796875,-3.42437744140625,-2.100982666015625,1.0,1.0,1.0,1.0,1.0,90.0,event
12:21:18.990,0.16570055,0.4152535,1.0724108,0.59031993,0.63258773,-0.41096547,0.16404524,0.6742357,1.0346947,0.002871823,0.08034421,0.8142435,0.91904926,0.64517826,0.03613614,1.0132167,0.8670292,0.48175976,-0.29845706,0.8838264,820.7692,812.3077,803.8461,829.6337,765.16486,-0.46636962890625,0.2352294921875,0.83953857421875,0.897216796875,-3.42437744140625,-2.100982666015625,1.0,1.0,1.0,1.0,1.0,90.0,event
12:21:18.991,0.16570055,0.4152535,1.0724108,0.59031993,0.63258773,-0.41096547,0.16404524,0.6742357,1.0346947,0.002871823,0.08034421,0.8142435,0.91904926,0.64517826,0.03613614,1.0132167,0.8670292,0.48175976,-0.29845706,0.8838264,823.1868,802.6374,800.2198,824.7985,710.7692,-0.46636962890625,0.2352294921875,0.83953857421875,0.897216796875,-3.42437744140625,-2.100982666015625,1.0,1.0,1.0,1.0,1.0,90.0,event
12:21:18.992,0.16570055,0.4152535,1.0724108,0.59031993,0.63258773,-0.41096547,0.16404524,0.6742357,1.0346947,0.002871823,0.08034421,0.8142435,0.91904926,0.64517826,0.03613614,1.0132167,0.8670292,0.48175976,-0.29845706,0.8838264,812.71063,798.20514,808.68134,794.17584,664.43225,-0.46636962890625,0.2352294921875,0.83953857421875,0.897216796875,-3.42437744140625,-2.100982666015625,1.0,1.0,1.0,1.0,1.0,90.0,event
12:21:18.993,0.1678775,0.4444404,1.0724108,0.66818506,0.56923556,-0.4303285,0.16404524,0.7770709,0.963146,0.002871823,0.08034421,0.9633712,0.9091956,0.6314496,0.03613614,0.93981993,0.83505434,0.46286747,-0.29845706,0.8129861,809.89014,803.8461,813.5165,797.8022,781.28204,-0.46636962890625,0.2352294921875,0.83953857421875,0.897216796875,-3.42437744140625,-2.100982666015625,1.0,1.0,1.0,1.0,1.0,90.0,event
12:21:18.998,0.1678775,0.4444404,1.0724108,0.66818506,0.56923556,-0.4303285,0.16404524,0.7770709,0.963146,0.002871823,0.08034421,0.9633712,0.9091956,0.6314496,0.03613614,0.93981993,0.83505434,0.46286747,-0.29845706,0.8129861,801.4286,801.02563,807.8755,811.9048,990.0,-0.46636962890625,0.2352294921875,0.83953857421875,0.897216796875,-3.42437744140625,-2.100982666015625,1.0,1.0,1.0,1.0,1.0,90.0,event
12:21:18.998,0.1678775,0.4444404,1.0724108,0.66818506,0.56923556,-0.4303285,0.16404524,0.7770709,0.963146,0.002871823,0.08034421,0.9633712,0.9091956,0.6314496,0.03613614,0.93981993,0.83505434,0.46286747,-0.29845706,0.8129861,811.9048,812.71063,807.47253,819.9634,931.5751,-0.46636962890625,0.2352294921875,0.83953857421875,0.897216796875,-3.42437744140625,-2.100982666015625,1.0,1.0,1.0,1.0,1.0,90.0,event
12:21:18.999,0.1678775,0.4444404,1.0724108,0.66818506,0.56923556,-0.4303285,0.16404524,0.7770709,0.963146,0.002871823,0.08034421,0.9633712,0.9091956,0.6314496,0.03613614,0.93981993,0.83505434,0.46286747,-0.29845706,0.8129861,809.0842,824.7985,813.5165,811.9048,684.57874,-0.46636962890625,0.2352294921875,0.83953857421875,0.897216796875,-3.42437744140625,-2.100982666015625,1.0,1.0,1.0,1.0,1.0,90.0,event
12:21:19.000,0.1678775,0.4444404,1.0724108,0.66818506,0.56923556,-0.4303285,0.16404524,0.7770709,0.963146,0.002871823,0.08034421,0.9633712,0.9091956,0.6314496,0.03613614,0.93981993,0.83505434,0.46286747,-0.29845706,0.8129861,800.6227,800.6227,815.9341,779.2674,740.989,-0.46636962890625,0.2352294921875,0.83953857421875,0.897216796875,-3.42437744140625,-2.100982666015625,1.0,1.0,1.0,1.0,1.0,90.0,event
12:21:19.000,0.1678775,0.4444404,1.0724108,0.66818506,0.56923556,-0.4303285,0.16404524,0.7770709,0.963146,0.002871823,0.08034421,0.9633712,0.9091956,0.6314496,0.03613614,0.93981993,0.83505434,0.46286747,-0.29845706,0.8129861,793.7729,808.68134,815.9341,794.9817,695.05493,-0.46636962890625,0.2352294921875,0.83953857421875,0.897216796875,-3.42437744140625,-2.100982666015625,1.0,1.0,1.0,1.0,1.0,90.0,event
12:21:19.001,0.1678775,0.4444404,1.0724108,0.66818506,0.56923556,-0.4303285,0.16404524,0.7770709,0.963146,0.002871823,0.08034421,0.9633712,0.9091956,0.6314496,0.03613614,0.93981993,0.83505434,0.46286747,-0.29845706,0.8129861,812.3077,816.337,816.337,777.25275,646.7033,-0.46636962890625,0.2352294921875,0.83953857421875,0.897216796875,-3.42437744140625,-2.100982666015625,1.0,1.0,1.0,1.0,1.0,90.0,event
12:21:19.031,0.1678775,0.4444404,1.0724108,0.66818506,0.56923556,-0.4303285,0.16404524,0.7770709,0.963146,0.002871823,0.08034421,0.9633712,0.9091956,0.6314496,0.03613614,0.93981993,0.83505434,0.46286747,-0.29845706,0.8129861,820.7692,815.5311,813.1135,796.99634,650.32965,-0.48046875,0.22607421875,0.83935546875,2.213134765625,-2.788848876953125,-0.13458251953125,1.0,1.0,1.0,1.0,1.0,90.0,event
12:21:19.032,0.1678775,0.4444404,1.0724108,0.66818506,0.56923556,-0.4303285,0.16404524,0.7770709,0.963146,0.002871823,0.08034421,0.9633712,0.9091956,0.6314496,0.03613614,0.93981993,0.83505434,0.46286747,-0.29845706,0.8129861,800.2198,805.8608,816.337,813.5165,809.0842,-0.48046875,0.22607421875,0.83935546875,2.213134765625,-2.788848876953125,-0.13458251953125,1.0,1.0,1.0,1.0,1.0,90.0,event
12:21:19.033,0.1678775,0.4444404,1.0724108,0.66818506,0.56923556,-0.4303285,0.16404524,0.7770709,0.963146,0.002871823,0.08034421,0.9633712,0.9091956,0.6314496,0.03613614,0.93981993,0.83505434,0.46286747,-0.29845706,0.8129861,796.99634,807.47253,818.7546,815.12823,906.1905,-0.48046875,0.22607421875,0.83935546875,2.213134765625,-2.788848876953125,-0.13458251953125,1.0,1.0,1.0,1.0,1.0,90.0,event
12:21:19.035,0.1678775,0.4444404,1.0724108,0.66818506,0.56923556,-0.4303285,0.16404524,0.7770709,0.963146,0.002871823,0.08034421,0.9633712,0.9091956,0.6314496,0.03613614,0.93981993,0.83505434,0.46286747,-0.29845706,0.8129861,810.696,811.9048,812.3077,823.5897,750.2564,-0.48046875,0.22607421875,0.83935546875,2.213134765625,-2.788848876953125,-0.13458251953125,1.0,1.0,1.0,1.0,1.0,90.0,event
12:21:19.037,0.1678775,0.4444404,1.0724108,0.66818506,0.56923556,-0.4303285,0.16404524,0.7770709,0.963146,0.002871823,0.08034421,0.9633712,0.9091956,0.6314496,0.03613614,0.93981993,0.83505434,0.46286747,-0.29845706,0.8129861,805.4579,802.6374,821.1722,828.022,693.8461,-0.48046875,0.22607421875,0.83935546875,2.213134765625,-2.788848876953125,-0.13458251953125,1.0,1.0,1.0,1.0,1.0,90.0,event
12:21:19.038,0.1678775,0.4444404,1.0724108,0.66818506,0.56923556,-0.4303285,0.16404524,0.7770709,0.963146,0.002871823,0.08034421,0.9633712,0.9091956,0.6314496,0.03613614,0.93981993,0.83505434,0.46286747,-0.29845706,0.8129861,798.20514,798.60803,824.7985,811.9048,843.3333,-0.48046875,0.22607421875,0.83935546875,2.213134765625,-2.788848876953125,-0.13458251953125,1.0,1.0,1.0,1.0,1.0,90.0,event
12:21:19.038,0.1678775,0.4444404,1.0724108,0.66818506,0.56923556,-0.4303285,0.16404524,0.7770709,0.963146,0.002871823,0.08034421,0.9633712,0.9091956,0.6314496,0.03613614,0.93981993,0.83505434,0.46286747,-0.29845706,0.8129861,793.7729,808.68134,821.1722,802.6374,890.87915,-0.48046875,0.22607421875,0.83935546875,2.213134765625,-2.788848876953125,-0.13458251953125,1.0,1.0,1.0,1.0,1.0,90.0,event
12:21:19.039,0.1678775,0.4444404,1.0724108,0.66818506,0.56923556,-0.4303285,0.16404524,0.7770709,0.963146,0.002871823,0.08034421,0.9633712,0.9091956,0.6314496,0.03613614,0.93981993,0.83505434,0.46286747,-0.29845706,0.8129861,773.22345,812.71063,819.5604,807.8755,792.5641,-0.48046875,0.22607421875,0.83935546875,2.213134765625,-2.788848876953125,-0.13458251953125,1.0,1.0,1.0,1.0,1.0,90.0,event
12:21:19.040,0.1678775,0.4444404,1.0724108,0.66818506,0.56923556,-0.4303285,0.16404524,0.7770709,0.963146,0.002871823,0.08034421,0.9633712,0.9091956,0.6314496,0.03613614,0.93981993,0.83505434,0.46286747,-0.29845706,0.8129861,761.13556,809.89014,817.1429,791.75824,684.9817,-0.48046875,0.22607421875,0.83935546875,2.213134765625,-2.788848876953125,-0.13458251953125,1.0,1.0,1.0,1.0,1.0,90.0,event
12:21:19.040,0.1678775,0.4444404,1.0724108,0.66818506,0.56923556,-0.4303285,0.16404524,0.7770709,0.963146,0.002871823,0.08034421,0.9633712,0.9091956,0.6314496,0.03613614,0.93981993,0.83505434,0.46286747,-0.29845706,0.8129861,776.04395,804.2491,817.1429,792.5641,784.10254,-0.48046875,0.22607421875,0.83935546875,2.213134765625,-2.788848876953125,-0.13458251953125,1.0,1.0,1.0,1.0,1.0,90.0,event
12:21:19.041,0.1678775,0.4444404,1.0724108,0.66818506,0.56923556,-0.4303285,0.16404524,0.7770709,0.963146,0.002871823,0.08034421,0.9633712,0.9091956,0.6314496,0.03613614,0.93981993,0.83505434,0.46286747,-0.29845706,0.8129861,799.41394,803.44324,819.5604,808.68134,841.7216,-0.48046875,0.22607421875,0.83935546875,2.213134765625,-2.788848876953125,-0.13458251953125,1.0,1.0,1.0,1.0,1.0,90.0,event
12:21:19.042,0.1678775,0.4444404,1.0724108,0.66818506,0.56923556,-0.4303285,0.16404524,0.7770709,0.963146,0.002871823,0.08034421,0.9633712,0.9091956,0.6314496,0.03613614,0.93981993,0.83505434,0.46286747,-0.29845706,0.8129861,796.99634,803.0403,825.6044,802.23444,713.1868,-0.48046875,0.22607421875,0.83935546875,2.213134765625,-2.788848876953125,-0.13458251953125,1.0,1.0,1.0,1.0,1.0,90.0,event
12:21:19.070,0.1678775,0.4444404,1.0724108,0.66818506,0.56923556,-0.4303285,0.16404524,0.7770709,0.963146,0.002871823,0.08034421,0.9633712,0.9091956,0.6314496,0.03613614,0.93981993,0.83505434,0.46286747,-0.29845706,0.8129861,789.7436,797.3993,821.1722,794.17584,761.53845,-0.48046875,0.22607421875,0.83935546875,2.213134765625,-2.788848876953125,-0.13458251953125,1.0,1.0,1.0,1.0,1.0,90.0,event
12:21:19.071,0.1678775,0.4444404,1.0724108,0.66818506,0.56923556,-0.4303285,0.16404524,0.7770709,0.963146,0.002871823,0.08034421,0.9633712,0.9091956,0.6314496,0.03613614,0.93981993,0.83505434,0.46286747,-0.29845706,0.8129861,799.41394,794.17584,813.5165,803.0403,873.5531,-0.48046875,0.22607421875,0.83935546875,2.213134765625,-2.788848876953125,-0.13458251953125,1.0,1.0,1.0,1.0,1.0,90.0,event
12:21:19.072,0.1678775,0.4444404,1.0724108,0.66818506,0.56923556,-0.4303285,0.16404524,0.7770709,0.963146,0.002871823,0.08034421,0.9633712,0.9091956,0.6314496,0.03613614,0.93981993,0.83505434,0.46286747,-0.29845706,0.8129861,819.5604,803.0403,815.9341,814.3223,821.5751,-0.48046875,0.22607421875,0.83935546875,2.213134765625,-2.788848876953125,-0.13458251953125,1.0,1.0,1.0,1.0,1.0,90.0,event
12:21:19.072,0.1678775,0.4444404,1.0724108,0.66818506,0.56923556,-0.4303285,0.16404524,0.7770709,0.963146,0.002871823,0.08034421,0.9633712,0.9091956,0.6314496,0.03613614,0.93981993,0.83505434,0.46286747,-0.29845706,0.8129861,833.663,811.50183,817.5458,803.8461,734.5421,-0.48046875,0.22607421875,0.83935546875,2.213134765625,-2.788848876953125,-0.13458251953125,1.0,1.0,1.0,1.0,1.0,90.0,event
12:21:19.073,0.1678775,0.4444404,1.0724108,0.66818506,0.56923556,-0.4303285,0.16404524,0.7770709,0.963146,0.002871823,0.08034421,0.9633712,0.9091956,0.6314496,0.03613614,0.93981993,0.83505434,0.46286747,-0.29845706,0.8129861,817.9487,809.4872,819.5604,815.9341,975.09155,-0.48046875,0.22607421875,0.83935546875,2.213134765625,-2.788848876953125,-0.13458251953125,1.0,1.0,1.0,1.0,1.0,90.0,event
12:21:19.073,0.1678775,0.4444404,1.0724108,0.66818506,0.56923556,-0.4303285,0.16404524,0.7770709,0.963146,0.002871823,0.08034421,0.9633712,0.9091956,0.6314496,0.03613614,0.93981993,0.83505434,0.46286747,-0.29845706,0.8129861,826.8132,814.3223,817.1429,811.50183,735.7509,-0.48046875,0.22607421875,0.83935546875,2.213134765625,-2.788848876953125,-0.13458251953125,1.0,1.0,1.0,1.0,1.0,90.0,event
12:21:19.074,0.1678775,0.4444404,1.0724108,0.66818506,0.56923556,-0.4303285,0.16404524,0.7770709,0.963146,0.002871823,0.08034421,0.9633712,0.9091956,0.6314496,0.03613614,0.93981993,0.83505434,0.46286747,-0.29845706,0.8129861,809.89014,795.78754,815.5311,810.696,1000.07324,-0.48046875,0.22607421875,0.83935546875,2.213134765625,-2.788848876953125,-0.13458251953125,1.0,1.0,1.0,1.0,1.0,90.0,event
12:21:19.074,0.1678775,0.4701068,1.0724108,0.7990764,0.56923556,-0.45102343,0.16404524,0.78436697,0.963146,0.002871823,0.08034421,0.9048062,0.9091956,0.6238945,0.03613614,0.8959432,0.83505434,0.44862512,-0.29845706,0.7514809,828.4249,800.2198,811.50183,821.5751,733.73627,-0.48046875,0.22607421875,0.83935546875,2.213134765625,-2.788848876953125,-0.13458251953125,1.0,1.0,1.0,1.0,1.0,90.0,event
12:21:19.078,0.1678775,0.4701068,1.0724108,0.7990764,0.56923556,-0.45102343,0.16404524,0.78436697,0.963146,0.002871823,0.08034421,0.9048062,0.9091956,0.6238945,0.03613614,0.8959432,0.83505434,0.44862512,-0.29845706,0.7514809,836.08057,802.6374,819.9634,832.4542,757.50916,-0.48046875,0.22607421875,0.83935546875,2.213134765625,-2.788848876953125,-0.13458251953125,1.0,1.0,1.0,1.0,1.0,90.0,event
12:21:19.079,0.1678775,0.4701068,1.0724108,0.7990764,0.56923556,-0.45102343,0.16404524,0.78436697,0.963146,0.002871823,0.08034421,0.9048062,0.9091956,0.6238945,0.03613614,0.8959432,0.83505434,0.44862512,-0.29845706,0.7514809,809.4872,802.6374,816.337,816.337,926.337,-0.48046875,0.22607421875,0.83935546875,2.213134765625,-2.788848876953125,-0.13458251953125,1.0,1.0,1.0,1.0,1.0,90.0,event
12:21:19.080,0.1678775,0.4701068,1.0724108,0.7990764,0.56923556,-0.45102343,0.16404524,0.78436697,0.963146,0.002871823,0.08034421,0.9048062,0.9091956,0.6238945,0.03613614,0.8959432,0.83505434,0.44862512,-0.29845706,0.7514809,798.20514,809.0842,809.0842,801.02563,775.2381,-0.48046875,0.22607421875,0.83935546875,2.213134765625,-2.788848876953125,-0.13458251953125,1.0,1.0,1.0,1.0,1.0,90.0,event
12:21:19.080,0.1678775,0.4701068,1.0724108,0.7990764,0.56923556,-0.45102343,0.16404524,0.78436697,0.963146,0.002871823,0.08034421,0.9048062,0.9091956,0.6238945,0.03613614,0.8959432,0.83505434,0.44862512,-0.29845706,0.7514809,809.89014,813.5165,815.12823,789.34064,689.41394,-0.48046875,0.22607421875,0.83935546875,2.213134765625,-2.788848876953125,-0.13458251953125,1.0,1.0,1.0,1.0,1.0,90.0,event
12:21:19.104,0.1678775,0.4701068,1.0724108,0.7990764,0.56923556,-0.45102343,0.16404524,0.78436697,0.963146,0.002871823,0.08034421,0.9048062,0.9091956,0.6238945,0.03613614,0.8959432,0.83505434,0.44862512,-0.29845706,0.7514809,823.5897,799.81683,817.9487,815.9341,868.315,-0.473876953125,0.22967529296875,0.835205078125,1.816864013671875,-0.0299072265625,-1.256103515625,1.0,1.0,1.0,1.0,1.0,90.0,event
12:21:19.104,0.1678775,0.4701068,1.0724108,0.7990764,0.56923556,-0.45102343,0.16404524,0.78436697,0.963146,0.002871823,0.08034421,0.9048062,0.9091956,0.6238945,0.03613614,0.8959432,0.83505434,0.44862512,-0.29845706,0.7514809,816.7399,806.26373,815.5311,791.3553,759.12085,-0.473876953125,0.22967529296875,0.835205078125,1.816864013671875,-0.0299072265625,-1.256103515625,1.0,1.0,1.0,1.0,1.0,90.0,event
12:21:19.105,0.1678775,0.4701068,1.0724108,0.7990764,0.56923556,-0.45102343,0.16404524,0.78436697,0.963146,0.002871823,0.08034421,0.9048062,0.9091956,0.6238945,0.03613614,0.8959432,0.83505434,0.44862512,-0.29845706,0.7514809,819.5604,803.44324,821.978,813.5165,816.337,-0.473876953125,0.22967529296875,0.835205078125,1.816864013671875,-0.0299072265625,-1.256103515625,1.0,1.0,1.0,1.0,1.0,90.0,event
12:21:19.106,0.1678775,0.4701068,1.0724108,0.7990764,0.56923556,-0.45102343,0.16404524,0.78436697,0.963146,0.002871823,0.08034421,0.9048062,0.9091956,0.6238945,0.03613614,0.8959432,0.83505434,0.44862512,-0.29845706,0.7514809,805.05493,799.011,813.91943,811.0989,722.8571,-0.473876953125,0.22967529296875,0.835205078125,1.816864013671875,-0.0299072265625,-1.256103515625,1.0,1.0,1.0,1.0,1.0,90.0,event
12:21:19.106,0.1678775,0.4701068,1.0724108,0.7990764,0.56923556,-0.45102343,0.16404524,0.78436697,0.963146,0.002871823,0.08034421,0.9048062,0.9091956,0.6238945,0.03613614,0.8959432,0.83505434,0.44862512,-0.29845706,0.7514809,805.4579,805.05493,811.9048,805.05493,797.8022,-0.473876953125,0.22967529296875,0.835205078125,1.816864013671875,-0.0299072265625,-1.256103515625,1.0,1.0,1.0,1.0,1.0,90.0,event
12:21:19.107,0.1678775,0.4701068,1.0724108,0.7990764,0.56923556,-0.45102343,0.16404524,0.78436697,0.963146,0.002871823,0.08034421,0.9048062,0.9091956,0.6238945,0.03613614,0.8959432,0.83505434,0.44862512,-0.29845706,0.7514809,813.91943,811.0989,817.5458,792.5641,927.5458,-0.473876953125,0.22967529296875,0.835205078125,1.816864013671875,-0.0299072265625,-1.256103515625,1.0,1.0,1.0,1.0,1.0,90.0,event
12:21:19.107,0.1678775,0.4701068,1.0724108,0.7990764,0.56923556,-0.45102343,0.16404524,0.78436697,0.963146,0.002871823,0.08034421,0.9048062,0.9091956,0.6238945,0.03613614,0.8959432,0.83505434,0.44862512,-0.29845706,0.7514809,821.978,804.2491,814.3223,795.78754,897.326,-0.473876953125,0.22967529296875,0.835205078125,1.816864013671875,-0.0299072265625,-1.256103515625,1.0,1.0,1.0,1.0,1.0,90.0,event
12:21:19.108,0.1678775,0.4701068,1.0724108,0.7990764,0.56923556,-0.45102343,0.16404524,0.78436697,0.963146,0.002871823,0.08034421,0.9048062,0.9091956,0.6238945,0.03613614,0.8959432,0.83505434,0.44862512,-0.29845706,0.7514809,817.1429,797.3993,813.91943,799.41394,771.6117,-0.473876953125,0.22967529296875,0.835205078125,1.816864013671875,-0.0299072265625,-1.256103515625,1.0,1.0,1.0,1.0,1.0,90.0,event
12:21:19.108,0.1678775,0.4701068,1.0724108,0.7990764,0.56923556,-0.45102343,0.16404524,0.78436697,0.963146,0.002871823,0.08034421,0.9048062,0.9091956,0.6238945,0.03613614,0.8959432,0.83505434,0.44862512,-0.29845706,0.7514809,795.38464,799.81683,812.71063,816.7399,745.0183,-0.473876953125,0.22967529296875,0.835205078125,1.816864013671875,-0.0299072265625,-1.256103515625,1.0,1.0,1.0,1.0,1.0,90.0,event
12:21:19.109,0.1678775,0.4701068,1.0724108,0.7990764,0.56923556,-0.45102343,0.16404524,0.78436697,0.963146,0.002871823,0.08034421,0.9048062,0.9091956,0.6238945,0.03613614,0.8959432,0.83505434,0.44862512,-0.29845706,0.7514809,790.54944,799.81683,813.1135,821.1722,762.3443,-0.473876953125,0.22967529296875,0.835205078125,1.816864013671875,-0.0299072265625,-1.256103515625,1.0,1.0,1.0,1.0,1.0,90.0,event
12:21:19.110,0.1678775,0.4701068,1.0724108,0.7990764,0.56923556,-0.45102343,0.16404524,0.78436697,0.963146,0.002871823,0.08034421,0.9048062,0.9091956,0.6238945,0.03613614,0.8959432,0.83505434,0.44862512,-0.29845706,0.7514809,821.1722,804.2491,807.0696,816.337,687.3993,-0.473876953125,0.22967529296875,0.835205078125,1.816864013671875,-0.0299072265625,-1.256103515625,1.0,1.0,1.0,1.0,1.0,90.0,event
12:21:19.110,0.1678775,0.4701068,1.0724108,0.7990764,0.56923556,-0.45102343,0.16404524,0.78436697,0.963146,0.002871823,0.08034421,0.9048062,0.9091956,0.6238945,0.03613614,0.8959432,0.83505434,0.44862512,-0.29845706,0.7514809,813.5165,801.02563,807.47253,823.1868,743.00366,-0.473876953125,0.22967529296875,0.835205078125,1.816864013671875,-0.0299072265625,-1.256103515625,1.0,1.0,1.0,1.0,1.0,90.0,event
12:21:19.133,0.1678775,0.4701068,1.0724108,0.7990764,0.56923556,-0.45102343,0.16404524,0.78436697,0.963146,0.002871823,0.08034421,0.9048062,0.9091956,0.6238945,0.03613614,0.8959432,0.83505434,0.44862512,-0.29845706,0.7514809,819.5604,797.3993,821.978,803.44324,815.12823,-0.48291015625,0.226318359375,0.83709716796875,3.289794921875,0.59814453125,-1.218719482421875,1.0,1.0,1.0,1.0,1.0,90.0,event
12:21:19.134,0.1678775,0.4701068,1.0724108,0.7990764,0.56923556,-0.45102343,0.16404524,0.78436697,0.963146,0.002871823,0.08034421,0.9048062,0.9091956,0.6238945,0.03613614,0.8959432,0.83505434,0.44862512,-0.29845706,0.7514809,819.5604,810.293,820.3663,796.1905,960.58606,-0.48291015625,0.226318359375,0.83709716796875,3.289794921875,0.59814453125,-1.218719482421875,1.0,1.0,1.0,1.0,1.0,90.0,event
12:21:19.135,0.1678775,0.4701068,1.0724108,0.7990764,0.56923556,-0.45102343,0.16404524,0.78436697,0.963146,0.002871823,0.08034421,0.9048062,0.9091956,0.6238945,0.03613614,0.8959432,0.83505434,0.44862512,-0.29845706,0.7514809,797.8022,811.0989,806.26373,784.5055,776.4469,-0.48291015625,0.226318359375,0.83709716796875,3.289794921875,0.59814453125,-1.218719482421875,1.0,1.0,1.0,1.0,1.0,90.0,event
12:21:19.135,0.1678775,0.4701068,1.0724108,0.7990764,0.56923556,-0.45102343,0.16404524,0.78436697,0.963146,0.002871823,0.08034421,0.9048062,0.9091956,0.6238945,0.03613614,0.8959432,0.83505434,0.44862512,-0.29845706,0.7514809,788.93774,781.28204,804.65204,796.1905,738.97437,-0.48291015625,0.226318359375,0.83709716796875,3.289794921875,0.59814453125,-1.218719482421875,1.0,1.0,1.0,1.0,1.0,90.0,event
12:21:19.136,0.1678775,0.4701068,1.0724108,0.7990764,0.56923556,-0.45102343,0.16404524,0.78436697,0.963146,0.002871823,0.08034421,0.9048062,0.9091956,0.6238945,0.03613614,0.8959432,0.83505434,0.44862512,-0.29845706,0.7514809,802.23444,786.1172,808.2784,799.41394,942.0513,-0.48291015625,0.226318359375,0.83709716796875,3.289794921875,0.59814453125,-1.218719482421875,1.0,1.0,1.0,1.0,1.0,90.0,event
12:21:19.136,0.1678775,0.4701068,1.0724108,0.7990764,0.56923556,-0.45102343,0.16404524,0.78436697,0.963146,0.002871823,0.08034421,0.9048062,0.9091956,0.6238945,0.03613614,0.8959432,0.83505434,0.44862512,-0.29845706,0.7514809,793.7729,804.2491,806.6667,796.99634,1007.72894,-0.48291015625,0.226318359375,0.83709716796875,3.289794921875,0.59814453125,-1.218719482421875,1.0,1.0,1.0,1.0,1.0,90.0,event
12:21:19.137,0.1678775,0.4701068,1.0724108,0.7990764,0.56923556,-0.45102343,0.16404524,0.78436697,0.963146,0.002871823,0.08034421,0.9048062,0.9091956,0.6238945,0.03613614,0.8959432,0.83505434,0.44862512,-0.29845706,0.7514809,784.90845,807.8755,813.91943,813.1135,842.9304,-0.48291015625,0.226318359375,0.83709716796875,3.289794921875,0.59814453125,-1.218719482421875,1.0,1.0,1.0,1.0,1.0,90.0,event
12:21:19.137,0.1678775,0.4701068,1.0724108,0.7990764,0.56923556,-0.45102343,0.16404524,0.78436697,0.963146,0.002871823,0.08034421,0.9048062,0.9091956,0.6238945,0.03613614,0.8959432,0.83505434,0.44862512,-0.29845706,0.7514809,798.60803,806.6667,820.3663,809.89014,749.45056,-0.48291015625,0.226318359375,0.83709716796875,3.289794921875,0.59814453125,-1.218719482421875,1.0,1.0,1.0,1.0,1.0,90.0,event
12:21:19.138,0.1678775,0.4701068,1.0724108,0.7990764,0.56923556,-0.45102343,0.16404524,0.78436697,0.963146,0.002871823,0.08034421,0.9048062,0.9091956,0.6238945,0.03613614,0.8959432,0.83505434,0.44862512,-0.29845706,0.7514809,810.696,807.47253,809.89014,786.1172,950.9158,-0.48291015625,0.226318359375,0.83709716796875,3.289794921875,0.59814453125,-1.218719482421875,1.0,1.0,1.0,1.0,1.0,90.0,event
12:21:19.138,0.1678775,0.48444653,1.0724108,0.95382583,0.56923556,-0.46238083,0.16404524,0.79756886,0.963146,-0.012731183,0.08034421,0.83567923,0.9091956,0.6223094,0.03613614,0.88469726,0.83505434,0.4439041,-0.29845706,0.70304453,811.0989,815.5311,801.8315,788.1319,897.72894,-0.48291015625,0.226318359375,0.83709716796875,3.289794921875,0.59814453125,-1.218719482421875,1.0,1.0,1.0,1.0,1.0,90.0,event
12:21:19.142,0.1678775,0.48444653,1.0724108,0.95382583,0.56923556,-0.46238083,0.16404524,0.79756886,0.963146,-0.012731183,0.08034421,0.83567923,0.9091956,0.6223094,0.03613614,0.88469726,0.83505434,0.4439041,-0.29845706,0.70304453,777.25275,798.60803,812.71063,785.7143,896.52014,-0.48291015625,0.226318359375,0.83709716796875,3.289794921875,0.59814453125,-1.218719482421875,1.0,1.0,1.0,1.0,1.0,90.0,event
12:21:19.142,0.1678775,0.48444653,1.0724108,0.95382583,0.56923556,-0.46238083,0.16404524,0.79756886,0.963146,-0.012731183,0.08034421,0.83567923,0.9091956,0.6223094,0.03613614,0.88469726,0.83505434,0.4439041,-0.29845706,0.70304453,788.1319,811.9048,805.4579,794.17584,743.4066,-0.48291015625,0.226318359375,0.83709716796875,3.289794921875,0.59814453125,-1.218719482421875,1.0,1.0,1.0,1.0,1.0,90.0,event
12:21:19.202,0.1678775,0.48444653,1.0724108,0.95382583,0.56923556,-0.46238083,0.16404524,0.79756886,0.963146,-0.012731183,0.08034421,0.83567923,0.9091956,0.6223094,0.03613614,0.88469726,0.83505434,0.4439041,-0.29845706,0.70304453,780.4762,795.38464,813.5165,788.5348,892.49084,-0.482421875,0.2216796875,0.84869384765625,2.011260986328125,0.59814453125,-2.908477783203125,1.0,1.0,1.0,1.0,1.0,90.0,event
12:21:19.203,0.1678775,0.48444653,1.0724108,0.95382583,0.56923556,-0.46238083,0.16404524,0.79756886,0.963146,-0.012731183,0.08034421,0.83567923,0.9091956,0.6223094,0.03613614,0.88469726,0.83505434,0.4439041,-0.29845706,0.70304453,792.96704,804.2491,809.89014,786.1172,696.6667,-0.482421875,0.2216796875,0.84869384765625,2.011260986328125,0.59814453125,-2.908477783203125,1.0,1.0,1.0,1.0,1.0,90.0,event
12:21:19.204,0.1678775,0.48444653,1.0724108,0.95382583,0.56923556,-0.46238083,0.16404524,0.79756886,0.963146,-0.012731183,0.08034421,0.83567923,0.9091956,0.6223094,0.03613614,0.88469726,0.83505434,0.4439041,-0.29845706,0.70304453,804.65204,794.57874,811.0989,782.49084,675.7143,-0.482421875,0.2216796875,0.84869384765625,2.011260986328125,0.59814453125,-2.908477783203125,1.0,1.0,1.0,1.0,1.0,90.0,event
12:21:19.205,0.1678775,0.48444653,1.0724108,0.95382583,0.56923556,-0.46238083,0.16404524,0.79756886,0.963146,-0.012731183,0.08034421,0.83567923,0.9091956,0.6223094,0.03613614,0.88469726,0.83505434,0.4439041,-0.29845706,0.70304453,794.57874,789.7436,807.0696,790.9524,749.45056,-0.482421875,0.2216796875,0.84869384765625,2.011260986328125,0.59814453125,-2.908477783203125,1.0,1.0,1.0,1.0,1.0,90.0,event
12:21:19.205,0.1678775,0.48444653,1.0724108,0.95382583,0.56923556,-0.46238083,0.16404524,0.79756886,0.963146,-0.012731183,0.08034421,0.83567923,0.9091956,0.6223094,0.03613614,0.88469726,0.83505434,0.4439041,-0.29845706,0.70304453,799.81683,805.8608,797.3993,799.011,651.9414,-0.482421875,0.2216796875,0.84869384765625,2.011260986328125,0.59814453125,-2.908477783203125,1.0,1.0,1.0,1.0,1.0,90.0,event
12:21:19.206,0.1678775,0.48444653,1.0724108,0.95382583,0.56923556,-0.46238083,0.16404524,0.79756886,0.963146,-0.012731183,0.08034421,0.83567923,0.9091956,0.6223094,0.03613614,0.88469726,0.83505434,0.4439041,-0.29845706,0.70304453,802.23444,804.2491,800.6227,794.9817,764.7619,-0.482421875,0.2216796875,0.84869384765625,2.011260986328125,0.59814453125,-2.908477783203125,1.0,1.0,1.0,1.0,1.0,90.0,event
12:21:19.207,0.1678775,0.48444653,1.0724108,0.95382583,0.56923556,-0.46238083,0.16404524,0.79756886,0.963146,-0.012731183,0.08034421,0.83567923,0.9091956,0.6223094,0.03613614,0.88469726,0.83505434,0.4439041,-0.29845706,0.70304453,781.28204,799.81683,808.68134,794.57874,838.49817,-0.482421875,0.2216796875,0.84869384765625,2.011260986328125,0.59814453125,-2.908477783203125,1.0,1.0,1.0,1.0,1.0,90.0,event
12:21:19.207,0.1678775,0.48444653,1.0724108,0.95382583,0.56923556,-0.46238083,0.16404524,0.79756886,0.963146,-0.012731183,0.08034421,0.83567923,0.9091956,0.6223094,0.03613614,0.88469726,0.83505434,0.4439041,-0.29845706,0.70304453,786.1172,802.23444,807.8755,798.20514,799.41394,-0.482421875,0.2216796875,0.84869384765625,2.011260986328125,0.59814453125,-2.908477783203125,1.0,1.0,1.0,1.0,1.0,90.0,event
12:21:19.208,0.1678775,0.48444653,1.0724108,0.95382583,0.56923556,-0.46238083,0.16404524,0.79756886,0.963146,-0.012731183,0.08034421,0.83567923,0.9091956,0.6223094,0.03613614,0.88469726,0.83505434,0.4439041,-0.29845706,0.70304453,796.1905,791.3553,816.7399,809.0842,821.5751,-0.482421875,0.2216796875,0.84869384765625,2.011260986328125,0.59814453125,-2.908477783203125,1.0,1.0,1.0,1.0,1.0,90.0,event
12:21:19.208,0.1678775,0.48444653,1.0724108,0.95382583,0.56923556,-0.46238083,0.16404524,0.79756886,0.963146,-0.012731183,0.08034421,0.83567923,0.9091956,0.6223094,0.03613614,0.88469726,0.83505434,0.4439041,-0.29845706,0.70304453,803.8461,791.3553,815.12823,814.7253,988.3883,-0.482421875,0.2216796875,0.84869384765625,2.011260986328125,0.59814453125,-2.908477783203125,1.0,1.0,1.0,1.0,1.0,90.0,event
12:21:19.209,0.1678775,0.48444653,1.0724108,0.95382583,0.56923556,-0.46238083,0.16404524,0.79756886,0.963146,-0.012731183,0.08034421,0.83567923,0.9091956,0.6223094,0.03613614,0.88469726,0.83505434,0.4439041,-0.29845706,0.70304453,796.99634,798.60803,799.011,800.6227,665.2381,-0.482421875,0.2216796875,0.84869384765625,2.011260986328125,0.59814453125,-2.908477783203125,1.0,1.0,1.0,1.0,1.0,90.0,event
12:21:19.210,0.1678775,0.48444653,1.0724108,0.95382583,0.56923556,-0.46238083,0.16404524,0.79756886,0.963146,-0.012731183,0.08034421,0.83567923,0.9091956,0.6223094,0.03613614,0.88469726,0.83505434,0.4439041,-0.29845706,0.70304453,789.34064,808.2784,806.6667,811.9048,740.58606,-0.482421875,0.2216796875,0.84869384765625,2.011260986328125,0.59814453125,-2.908477783203125,1.0,1.0,1.0,1.0,1.0,90.0,event
12:21:19.238,0.1678775,0.48444653,1.0724108,0.95382583,0.56923556,-0.46238083,0.16404524,0.79756886,0.963146,-0.012731183,0.08034421,0.83567923,0.9091956,0.6223094,0.03613614,0.88469726,0.83505434,0.4439041,-0.29845706,0.70304453,782.0879,799.41394,817.5458,796.5934,729.707,-0.4842529296875,0.23406982421875,0.827880859375,3.686065673828125,-0.94207763671875,-0.336456298828125,1.0,1.0,1.0,1.0,1.0,90.0,event
12:21:19.240,0.1678775,0.48444653,1.0724108,0.95382583,0.56923556,-0.46238083,0.16404524,0.79756886,0.963146,-0.012731183,0.08034421,0.83567923,0.9091956,0.6223094,0.03613614,0.88469726,0.83505434,0.4439041,-0.29845706,0.70304453,790.54944,802.23444,813.5165,794.57874,764.35895,-0.4842529296875,0.23406982421875,0.827880859375,3.686065673828125,-0.94207763671875,-0.336456298828125,1.0,1.0,1.0,1.0,1.0,90.0,event
12:21:19.240,0.1678775,0.48444653,1.0724108,0.95382583,0.56923556,-0.46238083,0.16404524,0.79756886,0.963146,-0.012731183,0.08034421,0.83567923,0.9091956,0.6223094,0.03613614,0.88469726,0.83505434,0.4439041,-0.29845706,0.70304453,789.7436,811.9048,809.89014,806.26373,853.4066,-0.4842529296875,0.23406982421875,0.827880859375,3.686065673828125,-0.94207763671875,-0.336456298828125,1.0,1.0,1.0,1.0,1.0,90.0,event
12:21:19.241,0.1678775,0.48444653,1.0724108,0.95382583,0.56923556,-0.46238083,0.16404524,0.79756886,0.963146,-0.012731183,0.08034421,0.83567923,0.9091956,0.6223094,0.03613614,0.88469726,0.83505434,0.4439041,-0.29845706,0.70304453,788.93774,807.0696,809.0842,794.9817,851.39197,-0.4842529296875,0.23406982421875,0.827880859375,3.686065673828125,-0.94207763671875,-0.336456298828125,1.0,1.0,1.0,1.0,1.0,90.0,event
12:21:19.241,0.1678775,0.48444653,1.0724108,0.95382583,0.56923556,-0.46238083,0.16404524,0.79756886,0.963146,-0.012731183,0.08034421,0.83567923,0.9091956,0.6223094,0.03613614,0.88469726,0.83505434,0.4439041,-0.29845706,0.70304453,794.17584,797.3993,808.2784,785.31134,828.8278,-0.4842529296875,0.23406982421875,0.827880859375,3.686065673828125,-0.94207763671875,-0.336456298828125,1.0,1.0,1.0,1.0,1.0,90.0,event
12:21:19.242,0.1678775,0.48444653,1.0724108,0.95382583,0.56923556,-0.46238083,0.16404524,0.79756886,0.963146,-0.012731183,0.08034421,0.83567923,0.9091956,0.6223094,0.03613614,0.88469726,0.83505434,0.4439041,-0.29845706,0.70304453,809.0842,791.75824,807.0696,792.96704,849.3773,-0.4842529296875,0.23406982421875,0.827880859375,3.686065673828125,-0.94207763671875,-0.336456298828125,1.0,1.0,1.0,1.0,1.0,90.0,event
12:21:19.243,0.1678775,0.48444653,1.0724108,0.95382583,0.56923556,-0.46238083,0.16404524,0.79756886,0.963146,-0.012731183,0.08034421,0.83567923,0.9091956,0.6223094,0.03613614,0.88469726,0.83505434,0.4439041,-0.29845706,0.70304453,790.9524,798.60803,813.91943,807.0696,971.8681,-0.4842529296875,0.23406982421875,0.827880859375,3.686065673828125,-0.94207763671875,-0.336456298828125,1.0,1.0,1.0,1.0,1.0,90.0,event
12:21:19.243,0.1678775,0.48444653,1.0724108,0.95382583,0.56923556,-0.46238083,0.16404524,0.79756886,0.963146,-0.012731183,0.08034421,0.83567923,0.9091956,0.6223094,0.03613614,0.88469726,0.83505434,0.4439041,-0.29845706,0.70304453,811.9048,796.5934,810.293,801.02563,878.7912,-0.4842529296875,0.23406982421875,0.827880859375,3.686065673828125,-0.94207763671875,-0.336456298828125,1.0,1.0,1.0,1.0,1.0,90.0,event
12:21:19.244,0.1678775,0.48444653,1.0724108,0.95382583,0.56923556,-0.46238083,0.16404524,0.79756886,0.963146,-0.012731183,0.08034421,0.83567923,0.9091956,0.6223094,0.03613614,0.88469726,0.83505434,0.4439041,-0.29845706,0.70304453,808.2784,798.20514,807.47253,815.9341,882.8205,-0.4842529296875,0.23406982421875,0.827880859375,3.686065673828125,-0.94207763671875,-0.336456298828125,1.0,1.0,1.0,1.0,1.0,90.0,event
12:21:19.245,0.1678775,0.48444653,1.0724108,0.95382583,0.56923556,-0.46238083,0.16404524,0.79756886,0.963146,-0.012731183,0.08034421,0.83567923,0.9091956,0.6223094,0.03613614,0.88469726,0.83505434,0.4439041,-0.29845706,0.70304453,827.2161,807.8755,806.26373,819.15753,684.17584,-0.4842529296875,0.23406982421875,0.827880859375,3.686065673828125,-0.94207763671875,-0.336456298828125,1.0,1.0,1.0,1.0,1.0,90.0,event
12:21:19.245,0.1678775,0.48444653,1.0724108,0.95382583,0.56923556,-0.46238083,0.16404524,0.79756886,0.963146,-0.012731183,0.08034421,0.83567923,0.9091956,0.6223094,0.03613614,0.88469726,0.83505434,0.4439041,-0.29845706,0.70304453,817.9487,811.9048,814.7253,812.3077,737.76556,-0.4842529296875,0.23406982421875,0.827880859375,3.686065673828125,-0.94207763671875,-0.336456298828125,1.0,1.0,1.0,1.0,1.0,90.0,event
12:21:19.246,0.1678775,0.48445645,1.0724108,1.08279,0.56923556,-0.463595,0.16404524,0.8145987,0.963146,-0.03674421,0.08034421,0.7967641,0.9091956,0.6234827,0.03613614,0.8942238,0.83505434,0.4458884,-0.29845706,0.7074686,818.3516,807.47253,813.91943,818.7546,902.5641,-0.4842529296875,0.23406982421875,0.827880859375,3.686065673828125,-0.94207763671875,-0.336456298828125,1.0,1.0,1.0,1.0,1.0,90.0,event
12:21:19.275,0.1678775,0.48445645,1.0724108,1.08279,0.56923556,-0.463595,0.16404524,0.8145987,0.963146,-0.03674421,0.08034421,0.7967641,0.9091956,0.6234827,0.03613614,0.8942238,0.83505434,0.4458884,-0.29845706,0.7074686,824.7985,807.8755,816.7399,831.6484,770.40295,-0.4842529296875,0.23406982421875,0.827880859375,3.686065673828125,-0.94207763671875,-0.336456298828125,1.0,1.0,1.0,1.0,1.0,90.0,event
12:21:19.276,0.1678775,0.48445645,1.0724108,1.08279,0.56923556,-0.463595,0.16404524,0.8145987,0.963146,-0.03674421,0.08034421,0.7967641,0.9091956,0.6234827,0.03613614,0.8942238,0.83505434,0.4458884,-0.29845706,0.7074686,815.5311,809.4872,815.5311,822.381,691.02563,-0.4842529296875,0.23406982421875,0.827880859375,3.686065673828125,-0.94207763671875,-0.336456298828125,1.0,1.0,1.0,1.0,1.0,90.0,event
12:21:19.277,0.1678775,0.48445645,1.0724108,1.08279,0.56923556,-0.463595,0.16404524,0.8145987,0.963146,-0.03674421,0.08034421,0.7967641,0.9091956,0.6234827,0.03613614,0.8942238,0.83505434,0.4458884,-0.29845706,0.7074686,811.9048,812.71063,812.3077,811.50183,708.7546,-0.4842529296875,0.23406982421875,0.827880859375,3.686065673828125,-0.94207763671875,-0.336456298828125,1.0,1.0,1.0,1.0,1.0,90.0,event
12:21:19.277,0.1678775,0.48445645,1.0724108,1.08279,0.56923556,-0.463595,0.16404524,0.8145987,0.963146,-0.03674421,0.08034421,0.7967641,0.9091956,0.6234827,0.03613614,0.8942238,0.83505434,0.4458884,-0.29845706,0.7074686,804.2491,811.50183,809.0842,811.50183,777.25275,-0.4842529296875,0.23406982421875,0.827880859375,3.686065673828125,-0.94207763671875,-0.336456298828125,1.0,1.0,1.0,1.0,1.0,90.0,event
12:21:19.278,0.1678775,0.48445645,1.0724108,1.08279,0.56923556,-0.463595,0.16404524,0.8145987,0.963146,-0.03674421,0.08034421,0.7967641,0.9091956,0.6234827,0.03613614,0.8942238,0.83505434,0.4458884,-0.29845706,0.7074686,788.93774,791.3553,811.9048,796.5934,818.7546,-0.4842529296875,0.23406982421875,0.827880859375,3.686065673828125,-0.94207763671875,-0.336456298828125,1.0,1.0,1.0,1.0,1.0,90.0,event
12:21:19.278,0.1678775,0.48445645,1.0724108,1.08279,0.56923556,-0.463595,0.16404524,0.8145987,0.963146,-0.03674421,0.08034421,0.7967641,0.9091956,0.6234827,0.03613614,0.8942238,0.83505434,0.4458884,-0.29845706,0.7074686,803.8461,801.02563,811.50183,810.293,722.8571,-0.4842529296875,0.23406982421875,0.827880859375,3.686065673828125,-0.94207763671875,-0.336456298828125,1.0,1.0,1.0,1.0,1.0,90.0,event
12:21:19.279,0.1678775,0.48445645,1.0724108,1.08279,0.56923556,-0.463595,0.16404524,0.8145987,0.963146,-0.03674421,0.08034421,0.7967641,0.9091956,0.6234827,0.03613614,0.8942238,0.83505434,0.4458884,-0.29845706,0.7074686,801.4286,797.8022,815.9341,799.81683,894.90845,-0.4842529296875,0.23406982421875,0.827880859375,3.686065673828125,-0.94207763671875,-0.336456298828125,1.0,1.0,1.0,1.0,1.0,90.0,event
12:21:19.279,0.1678775,0.48445645,1.0724108,1.08279,0.56923556,-0.463595,0.16404524,0.8145987,0.963146,-0.03674421,0.08034421,0.7967641,0.9091956,0.6234827,0.03613614,0.8942238,0.83505434,0.4458884,-0.29845706,0.7074686,803.0403,795.38464,811.0989,819.15753,1110.4762,-0.4842529296875,0.23406982421875,0.827880859375,3.686065673828125,-0.94207763671875,-0.336456298828125,1.0,1.0,1.0,1.0,1.0,90.0,event
12:21:19.280,0.1678775,0.48445645,1.0724108,1.08279,0.56923556,-0.463595,0.16404524,0.8145987,0.963146,-0.03674421,0.08034421,0.7967641,0.9091956,0.6234827,0.03613614,0.8942238,0.83505434,0.4458884,-0.29845706,0.7074686,790.9524,792.5641,809.4872,811.50183,915.4579,-0.4842529296875,0.23406982421875,0.827880859375,3.686065673828125,-0.94207763671875,-0.336456298828125,1.0,1.0,1.0,1.0,1.0,90.0,event
12:21:19.280,0.1678775,0.48445645,1.0724108,1.08279,0.56923556,-0.463595,0.16404524,0.8145987,0.963146,-0.03674421,0.08034421,0.7967641,0.9091956,0.6234827,0.03613614,0.8942238,0.83505434,0.4458884,-0.29845706,0.7074686,801.02563,805.8608,814.3223,798.60803,632.6007,-0.4842529296875,0.23406982421875,0.827880859375,3.686065673828125,-0.94207763671875,-0.336456298828125,1.0,1.0,1.0,1.0,1.0,90.0,event
12:21:19.281,0.1678775,0.48445645,1.0724108,1.08279,0.56923556,-0.463595,0.16404524,0.8145987,0.963146,-0.03674421,0.08034421,0.7967641,0.9091956,0.6234827,0.03613614,0.8942238,0.83505434,0.4458884,-0.29845706,0.7074686,804.2491,812.3077,813.91943,806.6667,716.0073,-0.4842529296875,0.23406982421875,0.827880859375,3.686065673828125,-0.94207763671875,-0.336456298828125,1.0,1.0,1.0,1.0,1.0,90.0,event
12:21:19.281,0.1678775,0.48445645,1.0724108,1.08279,0.56923556,-0.463595,0.16404524,0.8145987,0.963146,-0.03674421,0.08034421,0.7967641,0.9091956,0.6234827,0.03613614,0.8942238,0.83505434,0.4458884,-0.29845706,0.7074686,803.0403,805.8608,815.5311,831.6484,765.16486,-0.4842529296875,0.23406982421875,0.827880859375,3.686065673828125,-0.94207763671875,-0.336456298828125,1.0,1.0,1.0,1.0,1.0,90.0,event
12:21:19.364,0.1678775,0.48445645,1.0724108,1.08279,0.56923556,-0.463595,0.16404524,0.8145987,0.963146,-0.03674421,0.08034421,0.7967641,0.9091956,0.6234827,0.03613614,0.8942238,0.83505434,0.4458884,-0.29845706,0.7074686,808.2784,801.4286,826.4103,839.707,715.2015,-0.4962158203125,0.22991943359375,0.8271484375,3.431854248046875,-2.01873779296875,0.657958984375,1.0,1.0,1.0,1.0,1.0,90.0,event
12:21:19.365,0.1678775,0.48445645,1.0724108,1.08279,0.56923556,-0.463595,0.16404524,0.8145987,0.963146,-0.03674421,0.08034421,0.7967641,0.9091956,0.6234827,0.03613614,0.8942238,0.83505434,0.4458884,-0.29845706,0.7074686,820.7692,802.23444,827.619,834.87177,696.6667,-0.4962158203125,0.22991943359375,0.8271484375,3.431854248046875,-2.01873779296875,0.657958984375,1.0,1.0,1.0,1.0,1.0,90.0,event
12:21:19.366,0.1678775,0.48445645,1.0724108,1.08279,0.56923556,-0.463595,0.16404524,0.8145987,0.963146,-0.03674421,0.08034421,0.7967641,0.9091956,0.6234827,0.03613614,0.8942238,0.83505434,0.4458884,-0.29845706,0.7074686,822.381,795.78754,819.9634,828.022,707.1429,-0.4962158203125,0.22991943359375,0.8271484375,3.431854248046875,-2.01873779296875,0.657958984375,1.0,1.0,1.0,1.0,1.0,90.0,event
12:21:19.367,0.1678775,0.48445645,1.0724108,1.08279,0.56923556,-0.463595,0.16404524,0.8145987,0.963146,-0.03674421,0.08034421,0.7967641,0.9091956,0.6234827,0.03613614,0.8942238,0.83505434,0.4458884,-0.29845706,0.7074686,810.696,793.7729,816.337,829.2308,729.707,-0.4962158203125,0.22991943359375,0.8271484375,3.431854248046875,-2.01873779296875,0.657958984375,1.0,1.0,1.0,1.0,1.0,90.0,event
12:21:19.368,0.1678775,0.48445645,1.0724108,1.08279,0.56923556,-0.463595,0.16404524,0.8145987,0.963146,-0.03674421,0.08034421,0.7967641,0.9091956,0.6234827,0.03613614,0.8942238,0.83505434,0.4458884,-0.29845706,0.7074686,813.91943,804.65204,813.91943,829.2308,711.978,-0.4962158203125,0.22991943359375,0.8271484375,3.431854248046875,-2.01873779296875,0.657958984375,1.0,1.0,1.0,1.0,1.0,90.0,event
12:21:19.368,0.1678775,0.48445645,1.0724108,1.08279,0.56923556,-0.463595,0.16404524,0.8145987,0.963146,-0.03674421,0.08034421,0.7967641,0.9091956,0.6234827,0.03613614,0.8942238,0.83505434,0.4458884,-0.29845706,0.7074686,816.337,805.05493,816.337,817.9487,759.5238,-0.4962158203125,0.22991943359375,0.8271484375,3.431854248046875,-2.01873779296875,0.657958984375,1.0,1.0,1.0,1.0,1.0,90.0,event
12:21:19.369,0.1678775,0.48445645,1.0724108,1.08279,0.56923556,-0.463595,0.16404524,0.8145987,0.963146,-0.03674421,0.08034421,0.7967641,0.9091956,0.6234827,0.03613614,0.8942238,0.83505434,0.4458884,-0.29845706,0.7074686,807.8755,792.5641,814.3223,811.9048,975.89746,-0.4962158203125,0.22991943359375,0.8271484375,3.431854248046875,-2.01873779296875,0.657958984375,1.0,1.0,1.0,1.0,1.0,90.0,event
