TimeStamp,Delta_TP9,Delta_AF7,Delta_AF8,Delta_TP10,Theta_TP9,Theta_AF7,Theta_AF8,Theta_TP10,Alpha_TP9,Alpha_AF7,Alpha_AF8,Alpha_TP10,Beta_TP9,Beta_AF7,Beta_AF8,Beta_TP10,Gamma_TP9,Gamma_AF7,Gamma_AF8,Gamma_TP10,RAW_TP9,RAW_AF7,RAW_AF8,RAW_TP10,AUX_RIGHT,Accelerometer_X,Accelerometer_Y,Accelerometer_Z,Gyro_X,Gyro_Y,Gyro_Z,HeadBandOn,HSI_TP9,HSI_AF7,HSI_AF8,HSI_TP10,Battery,Elements
10:25:05.021,1.1092489,0.20864868,0.21062867,0.85544145,0.30162016,-0.69901186,-0.49250084,0.35062066,0.71057916,-0.36520633,-0.22008398,0.7500911,0.6795231,-0.2010892,-0.023880463,0.611749,0.65640855,-0.49672553,-0.27329123,0.18066336,773.22345,785.7143,805.8608,782.8938,762.3443,-0.090087890625,-0.00653076171875,0.98333740234375,2.385101318359375,-4.553375244140625,1.60003662109375,1.0,1.0,1.0,1.0,1.0,95.0,event
10:25:05.022,1.1092489,0.20864868,0.21062867,0.85544145,0.30162016,-0.69901186,-0.49250084,0.35062066,0.71057916,-0.36520633,-0.22008398,0.7500911,0.6795231,-0.2010892,-0.023880463,0.611749,0.65640855,-0.49672553,-0.27329123,0.18066336,761.13556,788.5348,801.4286,796.5934,776.8498,-0.090087890625,-0.00653076171875,0.98333740234375,2.385101318359375,-4.553375244140625,1.60003662109375,1.0,1.0,1.0,1.0,1.0,95.0,event
10:25:05.023,1.1092489,0.20864868,0.21062867,0.85544145,0.30162016,-0.69901186,-0.49250084,0.35062066,0.71057916,-0.36520633,-0.22008398,0.7500911,0.6795231,-0.2010892,-0.023880463,0.611749,0.65640855,-0.49672553,-0.27329123,0.18066336,763.1502,778.46155,802.6374,780.07324,728.9011,-0.090087890625,-0.00653076171875,0.98333740234375,2.385101318359375,-4.553375244140625,1.60003662109375,1.0,1.0,1.0,1.0,1.0,95.0,event
10:25:05.023,1.1092489,0.20864868,0.21062867,0.85544145,0.30162016,-0.69901186,-0.49250084,0.35062066,0.71057916,-0.36520633,-0.22008398,0.7500911,0.6795231,-0.2010892,-0.023880463,0.611749,0.65640855,-0.49672553,-0.27329123,0.18066336,755.89746,784.5055,803.44324,797.3993,750.65936,-0.090087890625,-0.00653076171875,0.98333740234375,2.385101318359375,-4.553375244140625,1.60003662109375,1.0,1.0,1.0,1.0,1.0,95.0,event
10:25:05.024,1.1092489,0.20864868,0.21062867,0.85544145,0.30162016,-0.69901186,-0.49250084,0.35062066,0.71057916,-0.36520633,-0.22008398,0.7500911,0.6795231,-0.2010892,-0.023880463,0.611749,0.65640855,-0.49672553,-0.27329123,0.18066336,757.1062,779.2674,803.0403,764.7619,729.707,-0.090087890625,-0.00653076171875,0.98333740234375,2.385101318359375,-4.553375244140625,1.60003662109375,1.0,1.0,1.0,1.0,1.0,95.0,event
10:25:05.024,1.1092489,0.20864868,0.21062867,0.85544145,0.30162016,-0.69901186,-0.49250084,0.35062066,0.71057916,-0.36520633,-0.22008398,0.7500911,0.6795231,-0.2010892,-0.023880463,0.611749,0.65640855,-0.49672553,-0.27329123,0.18066336,759.12085,782.8938,802.23444,784.10254,819.5604,-0.090087890625,-0.00653076171875,0.98333740234375,2.385101318359375,-4.553375244140625,1.60003662109375,1.0,1.0,1.0,1.0,1.0,95.0,event
10:25:05.025,1.1092489,0.20864868,0.21062867,0.85544145,0.30162016,-0.69901186,-0.49250084,0.35062066,0.71057916,-0.36520633,-0.22008398,0.7500911,0.6795231,-0.2010892,-0.023880463,0.611749,0.65640855,-0.49672553,-0.27329123,0.18066336,773.6264,787.326,801.8315,811.9048,872.74725,-0.090087890625,-0.00653076171875,0.98333740234375,2.385101318359375,-4.553375244140625,1.60003662109375,1.0,1.0,1.0,1.0,1.0,95.0,event
10:25:05.025,1.1092489,0.20864868,0.21062867,0.85544145,0.30162016,-0.69901186,-0.49250084,0.35062066,0.71057916,-0.36520633,-0.22008398,0.7500911,0.6795231,-0.2010892,-0.023880463,0.611749,0.65640855,-0.49672553,-0.27329123,0.18066336,793.7729,781.28204,801.02563,818.3516,870.7326,-0.090087890625,-0.00653076171875,0.98333740234375,2.385101318359375,-4.553375244140625,1.60003662109375,1.0,1.0,1.0,1.0,1.0,95.0,event
10:25:05.026,1.1092489,0.20864868,0.21062867,0.85544145,0.30162016,-0.69901186,-0.49250084,0.35062066,0.71057916,-0.36520633,-0.22008398,0.7500911,0.6795231,-0.2010892,-0.023880463,0.611749,0.65640855,-0.49672553,-0.27329123,0.18066336,790.14655,779.2674,798.20514,793.7729,969.0476,-0.090087890625,-0.00653076171875,0.98333740234375,2.385101318359375,-4.553375244140625,1.60003662109375,1.0,1.0,1.0,1.0,1.0,95.0,event
10:25:05.026,1.1092489,0.21647711,0.18183011,0.8265202,0.30162016,-0.72712994,-0.50831103,0.3280375,0.71057916,-0.36520633,-0.22008398,0.7534595,0.6795231,-0.19551097,-0.028255133,0.5910353,0.65640855,-0.49054614,-0.27547702,0.20222431,779.2674,786.9231,800.6227,772.4176,852.6007,-0.090087890625,-0.00653076171875,0.98333740234375,2.385101318359375,-4.553375244140625,1.60003662109375,1.0,1.0,1.0,1.0,1.0,95.0,event
10:25:05.030,1.1092489,0.21647711,0.18183011,0.8265202,0.30162016,-0.72712994,-0.50831103,0.3280375,0.71057916,-0.36520633,-0.22008398,0.7534595,0.6795231,-0.19551097,-0.028255133,0.5910353,0.65640855,-0.49054614,-0.27547702,0.20222431,789.34064,781.28204,801.4286,780.4762,632.1978,-0.090087890625,-0.00653076171875,0.98333740234375,2.385101318359375,-4.553375244140625,1.60003662109375,1.0,1.0,1.0,1.0,1.0,95.0,event
10:25:05.030,1.1092489,0.21647711,0.18183011,0.8265202,0.30162016,-0.72712994,-0.50831103,0.3280375,0.71057916,-0.36520633,-0.22008398,0.7534595,0.6795231,-0.19551097,-0.028255133,0.5910353,0.65640855,-0.49054614,-0.27547702,0.20222431,804.2491,779.67035,798.60803,803.8461,850.989,-0.090087890625,-0.00653076171875,0.98333740234375,2.385101318359375,-4.553375244140625,1.60003662109375,1.0,1.0,1.0,1.0,1.0,95.0,event
10:25:05.052,1.1092489,0.21647711,0.18183011,0.8265202,0.30162016,-0.72712994,-0.50831103,0.3280375,0.71057916,-0.36520633,-0.22008398,0.7534595,0.6795231,-0.19551097,-0.028255133,0.5910353,0.65640855,-0.49054614,-0.27547702,0.20222431,801.8315,786.9231,799.011,811.50183,980.32965,-0.09716796875,-0.00628662109375,0.97711181640625,2.100982666015625,-4.015045166015625,1.3458251953125,1.0,1.0,1.0,1.0,1.0,95.0,event
10:25:05.053,1.1092489,0.21647711,0.18183011,0.8265202,0.30162016,-0.72712994,-0.50831103,0.3280375,0.71057916,-0.36520633,-0.22008398,0.7534595,0.6795231,-0.19551097,-0.028255133,0.5910353,0.65640855,-0.49054614,-0.27547702,0.20222431,787.72894,788.93774,803.8461,790.9524,736.1539,-0.09716796875,-0.00628662109375,0.97711181640625,2.100982666015625,-4.015045166015625,1.3458251953125,1.0,1.0,1.0,1.0,1.0,95.0,event
10:25:05.054,1.1092489,0.21647711,0.18183011,0.8265202,0.30162016,-0.72712994,-0.50831103,0.3280375,0.71057916,-0.36520633,-0.22008398,0.7534595,0.6795231,-0.19551097,-0.028255133,0.5910353,0.65640855,-0.49054614,-0.27547702,0.20222431,777.25275,784.5055,802.23444,780.87915,679.34064,-0.09716796875,-0.00628662109375,0.97711181640625,2.100982666015625,-4.015045166015625,1.3458251953125,1.0,1.0,1.0,1.0,1.0,95.0,event
10:25:05.054,1.1092489,0.21647711,0.18183011,0.8265202,0.30162016,-0.72712994,-0.50831103,0.3280375,0.71057916,-0.36520633,-0.22008398,0.7534595,0.6795231,-0.19551097,-0.028255133,0.5910353,0.65640855,-0.49054614,-0.27547702,0.20222431,769.19415,789.34064,794.57874,796.99634,775.2381,-0.09716796875,-0.00628662109375,0.97711181640625,2.100982666015625,-4.015045166015625,1.3458251953125,1.0,1.0,1.0,1.0,1.0,95.0,event
10:25:05.055,1.1092489,0.21647711,0.18183011,0.8265202,0.30162016,-0.72712994,-0.50831103,0.3280375,0.71057916,-0.36520633,-0.22008398,0.7534595,0.6795231,-0.19551097,-0.028255133,0.5910353,0.65640855,-0.49054614,-0.27547702,0.20222431,772.01465,791.75824,795.38464,815.12823,810.696,-0.09716796875,-0.00628662109375,0.97711181640625,2.100982666015625,-4.015045166015625,1.3458251953125,1.0,1.0,1.0,1.0,1.0,95.0,event
10:25:05.056,1.1092489,0.21647711,0.18183011,0.8265202,0.30162016,-0.72712994,-0.50831103,0.3280375,0.71057916,-0.36520633,-0.22008398,0.7534595,0.6795231,-0.19551097,-0.028255133,0.5910353,0.65640855,-0.49054614,-0.27547702,0.20222431,778.46155,789.34064,807.0696,831.6484,852.6007,-0.09716796875,-0.00628662109375,0.97711181640625,2.100982666015625,-4.015045166015625,1.3458251953125,1.0,1.0,1.0,1.0,1.0,95.0,event
10:25:05.057,1.1092489,0.21647711,0.18183011,0.8265202,0.30162016,-0.72712994,-0.50831103,0.3280375,0.71057916,-0.36520633,-0.22008398,0.7534595,0.6795231,-0.19551097,-0.028255133,0.5910353,0.65640855,-0.49054614,-0.27547702,0.20222431,787.72894,791.3553,811.9048,813.91943,834.0659,-0.09716796875,-0.00628662109375,0.97711181640625,2.100982666015625,-4.015045166015625,1.3458251953125,1.0,1.0,1.0,1.0,1.0,95.0,event
10:25:05.058,1.1092489,0.21647711,0.18183011,0.8265202,0.30162016,-0.72712994,-0.50831103,0.3280375,0.71057916,-0.36520633,-0.22008398,0.7534595,0.6795231,-0.19551097,-0.028255133,0.5910353,0.65640855,-0.49054614,-0.27547702,0.20222431,779.67035,784.5055,806.26373,788.1319,933.5897,-0.09716796875,-0.00628662109375,0.97711181640625,2.100982666015625,-4.015045166015625,1.3458251953125,1.0,1.0,1.0,1.0,1.0,95.0,event
10:25:05.058,1.1092489,0.21647711,0.18183011,0.8265202,0.30162016,-0.72712994,-0.50831103,0.3280375,0.71057916,-0.36520633,-0.22008398,0.7534595,0.6795231,-0.19551097,-0.028255133,0.5910353,0.65640855,-0.49054614,-0.27547702,0.20222431,778.0586,787.72894,801.8315,801.8315,1035.5311,-0.09716796875,-0.00628662109375,0.97711181640625,2.100982666015625,-4.015045166015625,1.3458251953125,1.0,1.0,1.0,1.0,1.0,95.0,event
10:25:05.059,1.1092489,0.21647711,0.18183011,0.8265202,0.30162016,-0.72712994,-0.50831103,0.3280375,0.71057916,-0.36520633,-0.22008398,0.7534595,0.6795231,-0.19551097,-0.028255133,0.5910353,0.65640855,-0.49054614,-0.27547702,0.20222431,787.72894,797.8022,800.2198,819.9634,800.6227,-0.09716796875,-0.00628662109375,0.97711181640625,2.100982666015625,-4.015045166015625,1.3458251953125,1.0,1.0,1.0,1.0,1.0,95.0,event
10:25:05.060,1.1092489,0.21647711,0.18183011,0.8265202,0.30162016,-0.72712994,-0.50831103,0.3280375,0.71057916,-0.36520633,-0.22008398,0.7534595,0.6795231,-0.19551097,-0.028255133,0.5910353,0.65640855,-0.49054614,-0.27547702,0.20222431,787.326,790.14655,804.2491,827.2161,713.9927,-0.09716796875,-0.00628662109375,0.97711181640625,2.100982666015625,-4.015045166015625,1.3458251953125,1.0,1.0,1.0,1.0,1.0,95.0,event
10:25:05.060,1.1092489,0.21647711,0.18183011,0.8265202,0.30162016,-0.72712994,-0.50831103,0.3280375,0.71057916,-0.36520633,-0.22008398,0.7534595,0.6795231,-0.19551097,-0.028255133,0.5910353,0.65640855,-0.49054614,-0.27547702,0.20222431,785.31134,784.10254,808.68134,811.0989,769.19415,-0.09716796875,-0.00628662109375,0.97711181640625,2.100982666015625,-4.015045166015625,1.3458251953125,1.0,1.0,1.0,1.0,1.0,95.0,event
10:25:05.113,1.1092489,0.21647711,0.18183011,0.8265202,0.30162016,-0.72712994,-0.50831103,0.3280375,0.71057916,-0.36520633,-0.22008398,0.7534595,0.6795231,-0.19551097,-0.028255133,0.5910353,0.65640855,-0.49054614,-0.27547702,0.20222431,774.43225,786.1172,807.8755,779.67035,689.011,-0.09716796875,-0.00628662109375,0.97711181640625,2.100982666015625,-4.015045166015625,1.3458251953125,1.0,1.0,1.0,1.0,1.0,95.0,event
10:25:05.114,1.1092489,0.21647711,0.18183011,0.8265202,0.30162016,-0.72712994,-0.50831103,0.3280375,0.71057916,-0.36520633,-0.22008398,0.7534595,0.6795231,-0.19551097,-0.028255133,0.5910353,0.65640855,-0.49054614,-0.27547702,0.20222431,767.1795,786.52014,806.26373,778.86444,643.8828,-0.09716796875,-0.00628662109375,0.97711181640625,2.100982666015625,-4.015045166015625,1.3458251953125,1.0,1.0,1.0,1.0,1.0,95.0,event
10:25:05.115,1.1092489,0.21647711,0.18183011,0.8265202,0.30162016,-0.72712994,-0.50831103,0.3280375,0.71057916,-0.36520633,-0.22008398,0.7534595,0.6795231,-0.19551097,-0.028255133,0.5910353,0.65640855,-0.49054614,-0.27547702,0.20222431,787.326,782.8938,802.6374,804.2491,823.9927,-0.09716796875,-0.00628662109375,0.97711181640625,2.100982666015625,-4.015045166015625,1.3458251953125,1.0,1.0,1.0,1.0,1.0,95.0,event
10:25:05.115,1.1092489,0.21647711,0.18183011,0.8265202,0.30162016,-0.72712994,-0.50831103,0.3280375,0.71057916,-0.36520633,-0.22008398,0.7534595,0.6795231,-0.19551097,-0.028255133,0.5910353,0.65640855,-0.49054614,-0.27547702,0.20222431,793.36993,788.93774,801.4286,826.8132,923.1135,-0.09716796875,-0.00628662109375,0.97711181640625,2.100982666015625,-4.015045166015625,1.3458251953125,1.0,1.0,1.0,1.0,1.0,95.0,event
10:25:05.116,1.1092489,0.21647711,0.18183011,0.8265202,0.30162016,-0.72712994,-0.50831103,0.3280375,0.71057916,-0.36520633,-0.22008398,0.7534595,0.6795231,-0.19551097,-0.028255133,0.5910353,0.65640855,-0.49054614,-0.27547702,0.20222431,789.7436,791.75824,803.0403,819.15753,806.26373,-0.09716796875,-0.00628662109375,0.97711181640625,2.100982666015625,-4.015045166015625,1.3458251953125,1.0,1.0,1.0,1.0,1.0,95.0,event
10:25:05.116,1.1092489,0.21647711,0.18183011,0.8265202,0.30162016,-0.72712994,-0.50831103,0.3280375,0.71057916,-0.36520633,-0.22008398,0.7534595,0.6795231,-0.19551097,-0.028255133,0.5910353,0.65640855,-0.49054614,-0.27547702,0.20222431,777.6557,787.72894,803.44324,782.0879,794.57874,-0.09716796875,-0.00628662109375,0.97711181640625,2.100982666015625,-4.015045166015625,1.3458251953125,1.0,1.0,1.0,1.0,1.0,95.0,event
10:25:05.117,1.1092489,0.21647711,0.18183011,0.8265202,0.30162016,-0.72712994,-0.50831103,0.3280375,0.71057916,-0.36520633,-0.22008398,0.7534595,0.6795231,-0.19551097,-0.028255133,0.5910353,0.65640855,-0.49054614,-0.27547702,0.20222431,781.685,806.26373,813.5165,813.5165,833.663,-0.09716796875,-0.00628662109375,0.97711181640625,2.100982666015625,-4.015045166015625,1.3458251953125,1.0,1.0,1.0,1.0,1.0,95.0,event
10:25:05.117,1.1092489,0.21647711,0.18183011,0.8265202,0.30162016,-0.72712994,-0.50831103,0.3280375,0.71057916,-0.36520633,-0.22008398,0.7534595,0.6795231,-0.19551097,-0.028255133,0.5910353,0.65640855,-0.49054614,-0.27547702,0.20222431,780.07324,789.34064,807.0696,783.69965,865.89746,-0.09716796875,-0.00628662109375,0.97711181640625,2.100982666015625,-4.015045166015625,1.3458251953125,1.0,1.0,1.0,1.0,1.0,95.0,event
10:25:05.117,1.1092489,0.21647711,0.18183011,0.8265202,0.30162016,-0.72712994,-0.50831103,0.3280375,0.71057916,-0.36520633,-0.22008398,0.7534595,0.6795231,-0.19551097,-0.028255133,0.5910353,0.65640855,-0.49054614,-0.27547702,0.20222431,798.60803,797.3993,810.293,801.02563,950.5128,-0.09716796875,-0.00628662109375,0.97711181640625,2.100982666015625,-4.015045166015625,1.3458251953125,1.0,1.0,1.0,1.0,1.0,95.0,event
10:25:05.118,1.1092489,0.21647711,0.18183011,0.8265202,0.30162016,-0.72712994,-0.50831103,0.3280375,0.71057916,-0.36520633,-0.22008398,0.7534595,0.6795231,-0.19551097,-0.028255133,0.5910353,0.65640855,-0.49054614,-0.27547702,0.20222431,774.43225,794.17584,807.0696,813.5165,715.2015,-0.09716796875,-0.00628662109375,0.97711181640625,2.100982666015625,-4.015045166015625,1.3458251953125,1.0,1.0,1.0,1.0,1.0,95.0,event
10:25:05.118,1.1092489,0.21647711,0.18183011,0.8265202,0.30162016,-0.72712994,-0.50831103,0.3280375,0.71057916,-0.36520633,-0.22008398,0.7534595,0.6795231,-0.19551097,-0.028255133,0.5910353,0.65640855,-0.49054614,-0.27547702,0.20222431,774.0293,784.90845,804.65204,786.9231,705.9341,-0.09716796875,-0.00628662109375,0.97711181640625,2.100982666015625,-4.015045166015625,1.3458251953125,1.0,1.0,1.0,1.0,1.0,95.0,event
10:25:05.119,0.8788148,0.22534205,0.15572229,0.8028341,0.19309482,-0.75156456,-0.51289356,0.30558872,0.35200396,-0.36520633,-0.22008398,0.7534595,0.3348598,-0.19030923,-0.027439445,0.5741104,0.31235224,-0.48196164,-0.25514925,0.22727892,770.80585,788.93774,805.05493,776.8498,649.92676,-0.09716796875,-0.00628662109375,0.97711181640625,2.100982666015625,-4.015045166015625,1.3458251953125,1.0,1.0,1.0,1.0,1.0,95.0,event
10:25:05.181,0.8788148,0.22534205,0.15572229,0.8028341,0.19309482,-0.75156456,-0.51289356,0.30558872,0.35200396,-0.36520633,-0.22008398,0.7534595,0.3348598,-0.19030923,-0.027439445,0.5741104,0.31235224,-0.48196164,-0.25514925,0.22727892,782.8938,798.60803,803.44324,802.23444,670.4762,-0.09930419921875,-0.00799560546875,0.9815673828125,1.42059326171875,-4.344024658203125,0.79254150390625,1.0,1.0,1.0,1.0,1.0,95.0,event
10:25:05.182,0.8788148,0.22534205,0.15572229,0.8028341,0.19309482,-0.75156456,-0.51289356,0.30558872,0.35200396,-0.36520633,-0.22008398,0.7534595,0.3348598,-0.19030923,-0.027439445,0.5741104,0.31235224,-0.48196164,-0.25514925,0.22727892,783.2967,795.78754,805.8608,813.1135,698.68134,-0.09930419921875,-0.00799560546875,0.9815673828125,1.42059326171875,-4.344024658203125,0.79254150390625,1.0,1.0,1.0,1.0,1.0,95.0,event
10:25:05.183,0.8788148,0.22534205,0.15572229,0.8028341,0.19309482,-0.75156456,-0.51289356,0.30558872,0.35200396,-0.36520633,-0.22008398,0.7534595,0.3348598,-0.19030923,-0.027439445,0.5741104,0.31235224,-0.48196164,-0.25514925,0.22727892,768.7912,789.7436,805.05493,798.60803,747.8388,-0.09930419921875,-0.00799560546875,0.9815673828125,1.42059326171875,-4.344024658203125,0.79254150390625,1.0,1.0,1.0,1.0,1.0,95.0,event
10:25:05.184,0.8788148,0.22534205,0.15572229,0.8028341,0.19309482,-0.75156456,-0.51289356,0.30558872,0.35200396,-0.36520633,-0.22008398,0.7534595,0.3348598,-0.19030923,-0.027439445,0.5741104,0.31235224,-0.48196164,-0.25514925,0.22727892,767.98535,794.57874,804.2491,777.25275,764.7619,-0.09930419921875,-0.00799560546875,0.9815673828125,1.42059326171875,-4.344024658203125,0.79254150390625,1.0,1.0,1.0,1.0,1.0,95.0,event
10:25:05.185,0.8788148,0.22534205,0.15572229,0.8028341,0.19309482,-0.75156456,-0.51289356,0.30558872,0.35200396,-0.36520633,-0.22008398,0.7534595,0.3348598,-0.19030923,-0.027439445,0.5741104,0.31235224,-0.48196164,-0.25514925,0.22727892,772.01465,790.9524,802.6374,768.7912,701.9048,-0.09930419921875,-0.00799560546875,0.9815673828125,1.42059326171875,-4.344024658203125,0.79254150390625,1.0,1.0,1.0,1.0,1.0,95.0,event
10:25:05.185,0.8788148,0.22534205,0.15572229,0.8028341,0.19309482,-0.75156456,-0.51289356,0.30558872,0.35200396,-0.36520633,-0.22008398,0.7534595,0.3348598,-0.19030923,-0.027439445,0.5741104,0.31235224,-0.48196164,-0.25514925,0.22727892,772.4176,788.93774,802.23444,778.86444,757.1062,-0.09930419921875,-0.00799560546875,0.9815673828125,1.42059326171875,-4.344024658203125,0.79254150390625,1.0,1.0,1.0,1.0,1.0,95.0,event
10:25:05.186,0.8788148,0.22534205,0.15572229,0.8028341,0.19309482,-0.75156456,-0.51289356,0.30558872,0.35200396,-0.36520633,-0.22008398,0.7534595,0.3348598,-0.19030923,-0.027439445,0.5741104,0.31235224,-0.48196164,-0.25514925,0.22727892,779.67035,786.52014,800.2198,798.60803,1055.6776,-0.09930419921875,-0.00799560546875,0.9815673828125,1.42059326171875,-4.344024658203125,0.79254150390625,1.0,1.0,1.0,1.0,1.0,95.0,event
10:25:05.187,0.8788148,0.22534205,0.15572229,0.8028341,0.19309482,-0.75156456,-0.51289356,0.30558872,0.35200396,-0.36520633,-0.22008398,0.7534595,0.3348598,-0.19030923,-0.027439445,0.5741104,0.31235224,-0.48196164,-0.25514925,0.22727892,782.8938,786.52014,797.8022,808.2784,1135.8608,-0.09930419921875,-0.00799560546875,0.9815673828125,1.42059326171875,-4.344024658203125,0.79254150390625,1.0,1.0,1.0,1.0,1.0,95.0,event
10:25:05.188,0.8788148,0.22534205,0.15572229,0.8028341,0.19309482,-0.75156456,-0.51289356,0.30558872,0.35200396,-0.36520633,-0.22008398,0.7534595,0.3348598,-0.19030923,-0.027439445,0.5741104,0.31235224,-0.48196164,-0.25514925,0.22727892,794.17584,794.57874,800.6227,786.1172,830.0366,-0.09930419921875,-0.00799560546875,0.9815673828125,1.42059326171875,-4.344024658203125,0.79254150390625,1.0,1.0,1.0,1.0,1.0,95.0,event
10:25:05.189,0.8788148,0.22534205,0.15572229,0.8028341,0.19309482,-0.75156456,-0.51289356,0.30558872,0.35200396,-0.36520633,-0.22008398,0.7534595,0.3348598,-0.19030923,-0.027439445,0.5741104,0.31235224,-0.48196164,-0.25514925,0.22727892,790.14655,786.1172,798.60803,774.43225,728.9011,-0.09930419921875,-0.00799560546875,0.9815673828125,1.42059326171875,-4.344024658203125,0.79254150390625,1.0,1.0,1.0,1.0,1.0,95.0,event
10:25:05.190,0.8788148,0.22534205,0.15572229,0.8028341,0.19309482,-0.75156456,-0.51289356,0.30558872,0.35200396,-0.36520633,-0.22008398,0.7534595,0.3348598,-0.19030923,-0.027439445,0.5741104,0.31235224,-0.48196164,-0.25514925,0.22727892,771.6117,786.52014,797.8022,787.72894,790.14655,-0.09930419921875,-0.00799560546875,0.9815673828125,1.42059326171875,-4.344024658203125,0.79254150390625,1.0,1.0,1.0,1.0,1.0,95.0,event
10:25:05.191,0.8788148,0.22534205,0.15572229,0.8028341,0.19309482,-0.75156456,-0.51289356,0.30558872,0.35200396,-0.36520633,-0.22008398,0.7534595,0.3348598,-0.19030923,-0.027439445,0.5741104,0.31235224,-0.48196164,-0.25514925,0.22727892,786.1172,791.3553,802.23444,810.293,835.6777,-0.09930419921875,-0.00799560546875,0.9815673828125,1.42059326171875,-4.344024658203125,0.79254150390625,1.0,1.0,1.0,1.0,1.0,95.0,event
10:25:05.213,0.8788148,0.22534205,0.15572229,0.8028341,0.19309482,-0.75156456,-0.51289356,0.30558872,0.35200396,-0.36520633,-0.22008398,0.7534595,0.3348598,-0.19030923,-0.027439445,0.5741104,0.31235224,-0.48196164,-0.25514925,0.22727892,793.36993,789.34064,802.6374,818.7546,743.8095,-0.090576171875,-0.00732421875,0.9898681640625,1.831817626953125,-5.562744140625,0.67291259765625,1.0,1.0,1.0,1.0,1.0,95.0,event
10:25:05.214,0.8788148,0.22534205,0.15572229,0.8028341,0.19309482,-0.75156456,-0.51289356,0.30558872,0.35200396,-0.36520633,-0.22008398,0.7534595,0.3348598,-0.19030923,-0.027439445,0.5741104,0.31235224,-0.48196164,-0.25514925,0.22727892,786.9231,788.1319,795.78754,801.02563,701.50183,-0.090576171875,-0.00732421875,0.9898681640625,1.831817626953125,-5.562744140625,0.67291259765625,1.0,1.0,1.0,1.0,1.0,95.0,event
10:25:05.215,0.8788148,0.22534205,0.15572229,0.8028341,0.19309482,-0.75156456,-0.51289356,0.30558872,0.35200396,-0.36520633,-0.22008398,0.7534595,0.3348598,-0.19030923,-0.027439445,0.5741104,0.31235224,-0.48196164,-0.25514925,0.22727892,796.5934,791.75824,790.54944,786.1172,749.45056,-0.090576171875,-0.00732421875,0.9898681640625,1.831817626953125,-5.562744140625,0.67291259765625,1.0,1.0,1.0,1.0,1.0,95.0,event
10:25:05.216,0.8788148,0.22534205,0.15572229,0.8028341,0.19309482,-0.75156456,-0.51289356,0.30558872,0.35200396,-0.36520633,-0.22008398,0.7534595,0.3348598,-0.19030923,-0.027439445,0.5741104,0.31235224,-0.48196164,-0.25514925,0.22727892,799.41394,796.99634,794.57874,788.93774,704.3223,-0.090576171875,-0.00732421875,0.9898681640625,1.831817626953125,-5.562744140625,0.67291259765625,1.0,1.0,1.0,1.0,1.0,95.0,event
10:25:05.217,0.8788148,0.22534205,0.15572229,0.8028341,0.19309482,-0.75156456,-0.51289356,0.30558872,0.35200396,-0.36520633,-0.22008398,0.7534595,0.3348598,-0.19030923,-0.027439445,0.5741104,0.31235224,-0.48196164,-0.25514925,0.22727892,767.5824,794.17584,799.81683,798.60803,652.74725,-0.090576171875,-0.00732421875,0.9898681640625,1.831817626953125,-5.562744140625,0.67291259765625,1.0,1.0,1.0,1.0,1.0,95.0,event
10:25:05.217,0.8788148,0.22534205,0.15572229,0.8028341,0.19309482,-0.75156456,-0.51289356,0.30558872,0.35200396,-0.36520633,-0.22008398,0.7534595,0.3348598,-0.19030923,-0.027439445,0.5741104,0.31235224,-0.48196164,-0.25514925,0.22727892,765.56775,783.69965,805.4579,807.8755,833.663,-0.090576171875,-0.00732421875,0.9898681640625,1.831817626953125,-5.562744140625,0.67291259765625,1.0,1.0,1.0,1.0,1.0,95.0,event
10:25:05.218,0.8788148,0.22534205,0.15572229,0.8028341,0.19309482,-0.75156456,-0.51289356,0.30558872,0.35200396,-0.36520633,-0.22008398,0.7534595,0.3348598,-0.19030923,-0.027439445,0.5741104,0.31235224,-0.48196164,-0.25514925,0.22727892,776.04395,783.69965,808.68134,786.9231,942.4542,-0.090576171875,-0.00732421875,0.9898681640625,1.831817626953125,-5.562744140625,0.67291259765625,1.0,1.0,1.0,1.0,1.0,95.0,event
10:25:05.219,0.8788148,0.22534205,0.15572229,0.8028341,0.19309482,-0.75156456,-0.51289356,0.30558872,0.35200396,-0.36520633,-0.22008398,0.7534595,0.3348598,-0.19030923,-0.027439445,0.5741104,0.31235224,-0.48196164,-0.25514925,0.22727892,768.7912,786.9231,809.0842,765.56775,739.3773,-0.090576171875,-0.00732421875,0.9898681640625,1.831817626953125,-5.562744140625,0.67291259765625,1.0,1.0,1.0,1.0,1.0,95.0,event
10:25:05.220,0.8788148,0.22534205,0.15572229,0.8028341,0.19309482,-0.75156456,-0.51289356,0.30558872,0.35200396,-0.36520633,-0.22008398,0.7534595,0.3348598,-0.19030923,-0.027439445,0.5741104,0.31235224,-0.48196164,-0.25514925,0.22727892,775.2381,780.07324,808.68134,785.31134,682.1612,-0.090576171875,-0.00732421875,0.9898681640625,1.831817626953125,-5.562744140625,0.67291259765625,1.0,1.0,1.0,1.0,1.0,95.0,event
10:25:05.221,0.8788148,0.22534205,0.15572229,0.8028341,0.19309482,-0.75156456,-0.51289356,0.30558872,0.35200396,-0.36520633,-0.22008398,0.7534595,0.3348598,-0.19030923,-0.027439445,0.5741104,0.31235224,-0.48196164,-0.25514925,0.22727892,780.07324,774.43225,804.2491,803.0403,814.7253,-0.090576171875,-0.00732421875,0.9898681640625,1.831817626953125,-5.562744140625,0.67291259765625,1.0,1.0,1.0,1.0,1.0,95.0,event
10:25:05.222,0.8788148,0.22534205,0.15572229,0.8028341,0.19309482,-0.75156456,-0.51289356,0.30558872,0.35200396,-0.36520633,-0.22008398,0.7534595,0.3348598,-0.19030923,-0.027439445,0.5741104,0.31235224,-0.48196164,-0.25514925,0.22727892,792.5641,774.43225,800.6227,816.7399,1114.9084,-0.090576171875,-0.00732421875,0.9898681640625,1.831817626953125,-5.562744140625,0.67291259765625,1.0,1.0,1.0,1.0,1.0,95.0,event
10:25:05.223,0.8788148,0.22534205,0.15572229,0.8028341,0.19309482,-0.75156456,-0.51289356,0.30558872,0.35200396,-0.36520633,-0.22008398,0.7534595,0.3348598,-0.19030923,-0.027439445,0.5741104,0.31235224,-0.48196164,-0.25514925,0.22727892,803.0403,788.5348,802.23444,807.0696,1041.978,-0.090576171875,-0.00732421875,0.9898681640625,1.831817626953125,-5.562744140625,0.67291259765625,1.0,1.0,1.0,1.0,1.0,95.0,event
10:25:05.276,0.8788148,0.22534205,0.15572229,0.8028341,0.19309482,-0.75156456,-0.51289356,0.30558872,0.35200396,-0.36520633,-0.22008398,0.7534595,0.3348598,-0.19030923,-0.027439445,0.5741104,0.31235224,-0.48196164,-0.25514925,0.22727892,780.07324,791.3553,805.05493,781.28204,722.0513,-0.08514404296875,-0.0108642578125,0.9825439453125,0.665435791015625,-5.301055908203125,0.964508056640625,1.0,1.0,1.0,1.0,1.0,95.0,event
10:25:05.277,0.9035996,0.23010781,0.13635665,0.78149724,0.17390011,-0.7754461,-0.5071688,0.2879718,0.35368788,-0.36615133,-0.2185138,0.7534595,0.40765825,-0.18776485,-0.0265333,0.56081814,0.31996053,-0.4747731,-0.21755096,0.24480887,776.04395,791.3553,802.23444,784.90845,727.6923,-0.08514404296875,-0.0108642578125,0.9825439453125,0.665435791015625,-5.301055908203125,0.964508056640625,1.0,1.0,1.0,1.0,1.0,95.0,event
10:25:05.280,0.9035996,0.23010781,0.13635665,0.78149724,0.17390011,-0.7754461,-0.5071688,0.2879718,0.35368788,-0.36615133,-0.2185138,0.7534595,0.40765825,-0.18776485,-0.0265333,0.56081814,0.31996053,-0.4747731,-0.21755096,0.24480887,784.5055,791.3553,801.8315,802.6374,807.8755,-0.08514404296875,-0.0108642578125,0.9825439453125,0.665435791015625,-5.301055908203125,0.964508056640625,1.0,1.0,1.0,1.0,1.0,95.0,event
10:25:05.281,0.9035996,0.23010781,0.13635665,0.78149724,0.17390011,-0.7754461,-0.5071688,0.2879718,0.35368788,-0.36615133,-0.2185138,0.7534595,0.40765825,-0.18776485,-0.0265333,0.56081814,0.31996053,-0.4747731,-0.21755096,0.24480887,785.7143,784.5055,808.68134,815.5311,780.87915,-0.08514404296875,-0.0108642578125,0.9825439453125,0.665435791015625,-5.301055908203125,0.964508056640625,1.0,1.0,1.0,1.0,1.0,95.0,event
10:25:05.281,0.9035996,0.23010781,0.13635665,0.78149724,0.17390011,-0.7754461,-0.5071688,0.2879718,0.35368788,-0.36615133,-0.2185138,0.7534595,0.40765825,-0.18776485,-0.0265333,0.56081814,0.31996053,-0.4747731,-0.21755096,0.24480887,778.86444,781.28204,807.47253,795.78754,719.2308,-0.08514404296875,-0.0108642578125,0.9825439453125,0.665435791015625,-5.301055908203125,0.964508056640625,1.0,1.0,1.0,1.0,1.0,95.0,event
10:25:05.282,0.9035996,0.23010781,0.13635665,0.78149724,0.17390011,-0.7754461,-0.5071688,0.2879718,0.35368788,-0.36615133,-0.2185138,0.7534595,0.40765825,-0.18776485,-0.0265333,0.56081814,0.31996053,-0.4747731,-0.21755096,0.24480887,770.0,782.8938,801.8315,766.77655,917.47253,-0.08514404296875,-0.0108642578125,0.9825439453125,0.665435791015625,-5.301055908203125,0.964508056640625,1.0,1.0,1.0,1.0,1.0,95.0,event
10:25:05.282,0.9035996,0.23010781,0.13635665,0.78149724,0.17390011,-0.7754461,-0.5071688,0.2879718,0.35368788,-0.36615133,-0.2185138,0.7534595,0.40765825,-0.18776485,-0.0265333,0.56081814,0.31996053,-0.4747731,-0.21755096,0.24480887,772.01465,787.72894,798.60803,773.6264,984.35895,-0.08514404296875,-0.0108642578125,0.9825439453125,0.665435791015625,-5.301055908203125,0.964508056640625,1.0,1.0,1.0,1.0,1.0,95.0,event
10:25:05.283,0.9035996,0.23010781,0.13635665,0.78149724,0.17390011,-0.7754461,-0.5071688,0.2879718,0.35368788,-0.36615133,-0.2185138,0.7534595,0.40765825,-0.18776485,-0.0265333,0.56081814,0.31996053,-0.4747731,-0.21755096,0.24480887,785.31134,783.2967,798.60803,798.60803,853.4066,-0.08514404296875,-0.0108642578125,0.9825439453125,0.665435791015625,-5.301055908203125,0.964508056640625,1.0,1.0,1.0,1.0,1.0,95.0,event
10:25:05.283,0.9035996,0.23010781,0.13635665,0.78149724,0.17390011,-0.7754461,-0.5071688,0.2879718,0.35368788,-0.36615133,-0.2185138,0.7534595,0.40765825,-0.18776485,-0.0265333,0.56081814,0.31996053,-0.4747731,-0.21755096,0.24480887,784.90845,786.1172,802.6374,810.293,668.86444,-0.08514404296875,-0.0108642578125,0.9825439453125,0.665435791015625,-5.301055908203125,0.964508056640625,1.0,1.0,1.0,1.0,1.0,95.0,event
10:25:05.283,0.9035996,0.23010781,0.13635665,0.78149724,0.17390011,-0.7754461,-0.5071688,0.2879718,0.35368788,-0.36615133,-0.2185138,0.7534595,0.40765825,-0.18776485,-0.0265333,0.56081814,0.31996053,-0.4747731,-0.21755096,0.24480887,778.86444,790.14655,800.2198,792.96704,744.61536,-0.08514404296875,-0.0108642578125,0.9825439453125,0.665435791015625,-5.301055908203125,0.964508056640625,1.0,1.0,1.0,1.0,1.0,95.0,event
10:25:05.284,0.9035996,0.23010781,0.13635665,0.78149724,0.17390011,-0.7754461,-0.5071688,0.2879718,0.35368788,-0.36615133,-0.2185138,0.7534595,0.40765825,-0.18776485,-0.0265333,0.56081814,0.31996053,-0.4747731,-0.21755096,0.24480887,809.4872,788.1319,798.60803,763.95605,821.978,-0.08514404296875,-0.0108642578125,0.9825439453125,0.665435791015625,-5.301055908203125,0.964508056640625,1.0,1.0,1.0,1.0,1.0,95.0,event
10:25:05.284,0.9035996,0.23010781,0.13635665,0.78149724,0.17390011,-0.7754461,-0.5071688,0.2879718,0.35368788,-0.36615133,-0.2185138,0.7534595,0.40765825,-0.18776485,-0.0265333,0.56081814,0.31996053,-0.4747731,-0.21755096,0.24480887,806.6667,788.5348,804.2491,763.5531,749.45056,-0.08514404296875,-0.0108642578125,0.9825439453125,0.665435791015625,-5.301055908203125,0.964508056640625,1.0,1.0,1.0,1.0,1.0,95.0,event
10:25:05.311,0.9035996,0.23010781,0.13635665,0.78149724,0.17390011,-0.7754461,-0.5071688,0.2879718,0.35368788,-0.36615133,-0.2185138,0.7534595,0.40765825,-0.18776485,-0.0265333,0.56081814,0.31996053,-0.4747731,-0.21755096,0.24480887,776.4469,789.34064,803.8461,786.1172,819.9634,-0.08587646484375,-0.0228271484375,0.98260498046875,1.3458251953125,-4.852447509765625,0.500946044921875,1.0,1.0,1.0,1.0,1.0,95.0,event
10:25:05.312,0.9035996,0.23010781,0.13635665,0.78149724,0.17390011,-0.7754461,-0.5071688,0.2879718,0.35368788,-0.36615133,-0.2185138,0.7534595,0.40765825,-0.18776485,-0.0265333,0.56081814,0.31996053,-0.4747731,-0.21755096,0.24480887,786.1172,788.93774,799.011,801.8315,873.95605,-0.08587646484375,-0.0228271484375,0.98260498046875,1.3458251953125,-4.852447509765625,0.500946044921875,1.0,1.0,1.0,1.0,1.0,95.0,event
10:25:05.312,0.9035996,0.23010781,0.13635665,0.78149724,0.17390011,-0.7754461,-0.5071688,0.2879718,0.35368788,-0.36615133,-0.2185138,0.7534595,0.40765825,-0.18776485,-0.0265333,0.56081814,0.31996053,-0.4747731,-0.21755096,0.24480887,790.14655,791.3553,798.20514,808.2784,823.9927,-0.08587646484375,-0.0228271484375,0.98260498046875,1.3458251953125,-4.852447509765625,0.500946044921875,1.0,1.0,1.0,1.0,1.0,95.0,event
10:25:05.313,0.9035996,0.23010781,0.13635665,0.78149724,0.17390011,-0.7754461,-0.5071688,0.2879718,0.35368788,-0.36615133,-0.2185138,0.7534595,0.40765825,-0.18776485,-0.0265333,0.56081814,0.31996053,-0.4747731,-0.21755096,0.24480887,786.9231,786.52014,798.60803,791.3553,651.9414,-0.08587646484375,-0.0228271484375,0.98260498046875,1.3458251953125,-4.852447509765625,0.500946044921875,1.0,1.0,1.0,1.0,1.0,95.0,event
10:25:05.314,0.9035996,0.23010781,0.13635665,0.78149724,0.17390011,-0.7754461,-0.5071688,0.2879718,0.35368788,-0.36615133,-0.2185138,0.7534595,0.40765825,-0.18776485,-0.0265333,0.56081814,0.31996053,-0.4747731,-0.21755096,0.24480887,794.57874,786.9231,795.78754,795.78754,846.55676,-0.08587646484375,-0.0228271484375,0.98260498046875,1.3458251953125,-4.852447509765625,0.500946044921875,1.0,1.0,1.0,1.0,1.0,95.0,event
10:25:05.314,0.9035996,0.23010781,0.13635665,0.78149724,0.17390011,-0.7754461,-0.5071688,0.2879718,0.35368788,-0.36615133,-0.2185138,0.7534595,0.40765825,-0.18776485,-0.0265333,0.56081814,0.31996053,-0.4747731,-0.21755096,0.24480887,787.326,785.31134,795.78754,784.5055,674.5055,-0.08587646484375,-0.0228271484375,0.98260498046875,1.3458251953125,-4.852447509765625,0.500946044921875,1.0,1.0,1.0,1.0,1.0,95.0,event
10:25:05.315,0.9035996,0.23010781,0.13635665,0.78149724,0.17390011,-0.7754461,-0.5071688,0.2879718,0.35368788,-0.36615133,-0.2185138,0.7534595,0.40765825,-0.18776485,-0.0265333,0.56081814,0.31996053,-0.4747731,-0.21755096,0.24480887,803.8461,789.34064,802.6374,808.68134,891.28204,-0.08587646484375,-0.0228271484375,0.98260498046875,1.3458251953125,-4.852447509765625,0.500946044921875,1.0,1.0,1.0,1.0,1.0,95.0,event
10:25:05.315,0.9035996,0.23010781,0.13635665,0.78149724,0.17390011,-0.7754461,-0.5071688,0.2879718,0.35368788,-0.36615133,-0.2185138,0.7534595,0.40765825,-0.18776485,-0.0265333,0.56081814,0.31996053,-0.4747731,-0.21755096,0.24480887,788.1319,789.7436,809.4872,813.1135,725.6777,-0.08587646484375,-0.0228271484375,0.98260498046875,1.3458251953125,-4.852447509765625,0.500946044921875,1.0,1.0,1.0,1.0,1.0,95.0,event
10:25:05.316,0.9035996,0.23010781,0.13635665,0.78149724,0.17390011,-0.7754461,-0.5071688,0.2879718,0.35368788,-0.36615133,-0.2185138,0.7534595,0.40765825,-0.18776485,-0.0265333,0.56081814,0.31996053,-0.4747731,-0.21755096,0.24480887,799.41394,780.87915,813.91943,790.9524,740.58606,-0.08587646484375,-0.0228271484375,0.98260498046875,1.3458251953125,-4.852447509765625,0.500946044921875,1.0,1.0,1.0,1.0,1.0,95.0,event
10:25:05.317,0.9035996,0.23010781,0.13635665,0.78149724,0.17390011,-0.7754461,-0.5071688,0.2879718,0.35368788,-0.36615133,-0.2185138,0.7534595,0.40765825,-0.18776485,-0.0265333,0.56081814,0.31996053,-0.4747731,-0.21755096,0.24480887,801.4286,782.49084,813.5165,782.8938,842.52747,-0.08587646484375,-0.0228271484375,0.98260498046875,1.3458251953125,-4.852447509765625,0.500946044921875,1.0,1.0,1.0,1.0,1.0,95.0,event
10:25:05.318,0.9035996,0.23010781,0.13635665,0.78149724,0.17390011,-0.7754461,-0.5071688,0.2879718,0.35368788,-0.36615133,-0.2185138,0.7534595,0.40765825,-0.18776485,-0.0265333,0.56081814,0.31996053,-0.4747731,-0.21755096,0.24480887,786.9231,794.9817,807.0696,802.6374,754.2857,-0.08587646484375,-0.0228271484375,0.98260498046875,1.3458251953125,-4.852447509765625,0.500946044921875,1.0,1.0,1.0,1.0,1.0,95.0,event
10:25:05.318,0.9035996,0.23010781,0.13635665,0.78149724,0.17390011,-0.7754461,-0.5071688,0.2879718,0.35368788,-0.36615133,-0.2185138,0.7534595,0.40765825,-0.18776485,-0.0265333,0.56081814,0.31996053,-0.4747731,-0.21755096,0.24480887,794.17584,797.3993,802.6374,827.2161,749.45056,-0.08587646484375,-0.0228271484375,0.98260498046875,1.3458251953125,-4.852447509765625,0.500946044921875,1.0,1.0,1.0,1.0,1.0,95.0,event
10:25:05.345,0.9035996,0.23010781,0.13635665,0.78149724,0.17390011,-0.7754461,-0.5071688,0.2879718,0.35368788,-0.36615133,-0.2185138,0.7534595,0.40765825,-0.18776485,-0.0265333,0.56081814,0.31996053,-0.4747731,-0.21755096,0.24480887,790.14655,785.7143,799.011,830.84247,874.35895,-0.08587646484375,-0.0228271484375,0.98260498046875,1.3458251953125,-4.852447509765625,0.500946044921875,1.0,1.0,1.0,1.0,1.0,95.0,event
10:25:05.346,0.9035996,0.23010781,0.13635665,0.78149724,0.17390011,-0.7754461,-0.5071688,0.2879718,0.35368788,-0.36615133,-0.2185138,0.7534595,0.40765825,-0.18776485,-0.0265333,0.56081814,0.31996053,-0.4747731,-0.21755096,0.24480887,784.5055,786.1172,800.6227,794.9817,937.2161,-0.08587646484375,-0.0228271484375,0.98260498046875,1.3458251953125,-4.852447509765625,0.500946044921875,1.0,1.0,1.0,1.0,1.0,95.0,event
10:25:05.347,0.90800357,0.23446074,0.12522534,0.7600475,0.16037157,-0.78373647,-0.49567765,0.28037694,0.36869222,-0.38105336,-0.20384772,0.7534595,0.48951033,-0.18506877,-0.028015994,0.55295366,0.32562643,-0.46996704,-0.17732775,0.25074124,793.36993,793.36993,799.011,786.9231,728.9011,-0.08587646484375,-0.0228271484375,0.98260498046875,1.3458251953125,-4.852447509765625,0.500946044921875,1.0,1.0,1.0,1.0,1.0,95.0,event
10:25:05.347,0.9035996,0.23010781,0.13635665,0.78149724,0.17390011,-0.7754461,-0.5071688,0.2879718,0.35368788,-0.36615133,-0.2185138,0.7534595,0.40765825,-0.18776485,-0.0265333,0.56081814,0.31996053,-0.4747731,-0.21755096,0.24480887,782.49084,796.99634,800.6227,770.0,782.49084,-0.08587646484375,-0.0228271484375,0.98260498046875,1.3458251953125,-4.852447509765625,0.500946044921875,1.0,1.0,1.0,1.0,1.0,95.0,event
10:25:05.351,0.90800357,0.23446074,0.12522534,0.7600475,0.16037157,-0.78373647,-0.49567765,0.28037694,0.36869222,-0.38105336,-0.20384772,0.7534595,0.48951033,-0.18506877,-0.028015994,0.55295366,0.32562643,-0.46996704,-0.17732775,0.25074124,801.02563,790.14655,798.20514,805.4579,850.989,-0.08587646484375,-0.0228271484375,0.98260498046875,1.3458251953125,-4.852447509765625,0.500946044921875,1.0,1.0,1.0,1.0,1.0,95.0,event
10:25:05.352,0.90800357,0.23446074,0.12522534,0.7600475,0.16037157,-0.78373647,-0.49567765,0.28037694,0.36869222,-0.38105336,-0.20384772,0.7534595,0.48951033,-0.18506877,-0.028015994,0.55295366,0.32562643,-0.46996704,-0.17732775,0.25074124,797.3993,786.1172,795.38464,813.1135,971.4652,-0.08587646484375,-0.0228271484375,0.98260498046875,1.3458251953125,-4.852447509765625,0.500946044921875,1.0,1.0,1.0,1.0,1.0,95.0,event
10:25:05.353,0.90800357,0.23446074,0.12522534,0.7600475,0.16037157,-0.78373647,-0.49567765,0.28037694,0.36869222,-0.38105336,-0.20384772,0.7534595,0.48951033,-0.18506877,-0.028015994,0.55295366,0.32562643,-0.46996704,-0.17732775,0.25074124,794.9817,785.7143,799.81683,796.1905,889.2674,-0.08587646484375,-0.0228271484375,0.98260498046875,1.3458251953125,-4.852447509765625,0.500946044921875,1.0,1.0,1.0,1.0,1.0,95.0,event
10:25:05.353,0.90800357,0.23446074,0.12522534,0.7600475,0.16037157,-0.78373647,-0.49567765,0.28037694,0.36869222,-0.38105336,-0.20384772,0.7534595,0.48951033,-0.18506877,-0.028015994,0.55295366,0.32562643,-0.46996704,-0.17732775,0.25074124,804.65204,789.7436,803.44324,772.4176,712.7839,-0.08587646484375,-0.0228271484375,0.98260498046875,1.3458251953125,-4.852447509765625,0.500946044921875,1.0,1.0,1.0,1.0,1.0,95.0,event
10:25:05.354,0.90800357,0.23446074,0.12522534,0.7600475,0.16037157,-0.78373647,-0.49567765,0.28037694,0.36869222,-0.38105336,-0.20384772,0.7534595,0.48951033,-0.18506877,-0.028015994,0.55295366,0.32562643,-0.46996704,-0.17732775,0.25074124,825.2015,784.10254,806.26373,800.2198,852.1978,-0.08587646484375,-0.0228271484375,0.98260498046875,1.3458251953125,-4.852447509765625,0.500946044921875,1.0,1.0,1.0,1.0,1.0,95.0,event
10:25:05.355,0.90800357,0.23446074,0.12522534,0.7600475,0.16037157,-0.78373647,-0.49567765,0.28037694,0.36869222,-0.38105336,-0.20384772,0.7534595,0.48951033,-0.18506877,-0.028015994,0.55295366,0.32562643,-0.46996704,-0.17732775,0.25074124,807.0696,788.1319,805.4579,835.6777,1029.0842,-0.08587646484375,-0.0228271484375,0.98260498046875,1.3458251953125,-4.852447509765625,0.500946044921875,1.0,1.0,1.0,1.0,1.0,95.0,event
10:25:05.356,0.90800357,0.23446074,0.12522534,0.7600475,0.16037157,-0.78373647,-0.49567765,0.28037694,0.36869222,-0.38105336,-0.20384772,0.7534595,0.48951033,-0.18506877,-0.028015994,0.55295366,0.32562643,-0.46996704,-0.17732775,0.25074124,784.10254,790.9524,800.6227,815.5311,782.49084,-0.08587646484375,-0.0228271484375,0.98260498046875,1.3458251953125,-4.852447509765625,0.500946044921875,1.0,1.0,1.0,1.0,1.0,95.0,event
10:25:05.356,0.90800357,0.23446074,0.12522534,0.7600475,0.16037157,-0.78373647,-0.49567765,0.28037694,0.36869222,-0.38105336,-0.20384772,0.7534595,0.48951033,-0.18506877,-0.028015994,0.55295366,0.32562643,-0.46996704,-0.17732775,0.25074124,780.07324,780.87915,801.8315,784.10254,700.293,-0.08587646484375,-0.0228271484375,0.98260498046875,1.3458251953125,-4.852447509765625,0.500946044921875,1.0,1.0,1.0,1.0,1.0,95.0,event
10:25:05.385,0.90800357,0.23446074,0.12522534,0.7600475,0.16037157,-0.78373647,-0.49567765,0.28037694,0.36869222,-0.38105336,-0.20384772,0.7534595,0.48951033,-0.18506877,-0.028015994,0.55295366,0.32562643,-0.46996704,-0.17732775,0.25074124,762.74725,778.86444,803.44324,775.2381,736.9597,-0.082275390625,-0.01763916015625,0.983642578125,1.4056396484375,-4.29168701171875,1.143951416015625,1.0,1.0,1.0,1.0,1.0,95.0,event
10:25:05.386,0.90800357,0.23446074,0.12522534,0.7600475,0.16037157,-0.78373647,-0.49567765,0.28037694,0.36869222,-0.38105336,-0.20384772,0.7534595,0.48951033,-0.18506877,-0.028015994,0.55295366,0.32562643,-0.46996704,-0.17732775,0.25074124,761.9414,780.4762,805.05493,783.69965,684.9817,-0.082275390625,-0.01763916015625,0.983642578125,1.4056396484375,-4.29168701171875,1.143951416015625,1.0,1.0,1.0,1.0,1.0,95.0,event
10:25:05.387,0.90800357,0.23446074,0.12522534,0.7600475,0.16037157,-0.78373647,-0.49567765,0.28037694,0.36869222,-0.38105336,-0.20384772,0.7534595,0.48951033,-0.18506877,-0.028015994,0.55295366,0.32562643,-0.46996704,-0.17732775,0.25074124,765.9707,782.0879,803.8461,802.23444,614.87177,-0.082275390625,-0.01763916015625,0.983642578125,1.4056396484375,-4.29168701171875,1.143951416015625,1.0,1.0,1.0,1.0,1.0,95.0,event
10:25:05.388,0.90800357,0.23446074,0.12522534,0.7600475,0.16037157,-0.78373647,-0.49567765,0.28037694,0.36869222,-0.38105336,-0.20384772,0.7534595,0.48951033,-0.18506877,-0.028015994,0.55295366,0.32562643,-0.46996704,-0.17732775,0.25074124,759.12085,781.28204,801.8315,818.3516,693.44324,-0.082275390625,-0.01763916015625,0.983642578125,1.4056396484375,-4.29168701171875,1.143951416015625,1.0,1.0,1.0,1.0,1.0,95.0,event
10:25:05.389,0.90800357,0.23446074,0.12522534,0.7600475,0.16037157,-0.78373647,-0.49567765,0.28037694,0.36869222,-0.38105336,-0.20384772,0.7534595,0.48951033,-0.18506877,-0.028015994,0.55295366,0.32562643,-0.46996704,-0.17732775,0.25074124,766.3736,782.0879,810.293,806.6667,786.1172,-0.082275390625,-0.01763916015625,0.983642578125,1.4056396484375,-4.29168701171875,1.143951416015625,1.0,1.0,1.0,1.0,1.0,95.0,event
10:25:05.390,0.90800357,0.23446074,0.12522534,0.7600475,0.16037157,-0.78373647,-0.49567765,0.28037694,0.36869222,-0.38105336,-0.20384772,0.7534595,0.48951033,-0.18506877,-0.028015994,0.55295366,0.32562643,-0.46996704,-0.17732775,0.25074124,776.4469,782.8938,813.5165,790.9524,782.49084,-0.082275390625,-0.01763916015625,0.983642578125,1.4056396484375,-4.29168701171875,1.143951416015625,1.0,1.0,1.0,1.0,1.0,95.0,event
10:25:05.391,0.90800357,0.23446074,0.12522534,0.7600475,0.16037157,-0.78373647,-0.49567765,0.28037694,0.36869222,-0.38105336,-0.20384772,0.7534595,0.48951033,-0.18506877,-0.028015994,0.55295366,0.32562643,-0.46996704,-0.17732775,0.25074124,775.2381,784.5055,799.41394,800.2198,763.95605,-0.082275390625,-0.01763916015625,0.983642578125,1.4056396484375,-4.29168701171875,1.143951416015625,1.0,1.0,1.0,1.0,1.0,95.0,event
10:25:05.392,0.90800357,0.23446074,0.12522534,0.7600475,0.16037157,-0.78373647,-0.49567765,0.28037694,0.36869222,-0.38105336,-0.20384772,0.7534595,0.48951033,-0.18506877,-0.028015994,0.55295366,0.32562643,-0.46996704,-0.17732775,0.25074124,782.8938,779.2674,794.9817,818.3516,824.7985,-0.082275390625,-0.01763916015625,0.983642578125,1.4056396484375,-4.29168701171875,1.143951416015625,1.0,1.0,1.0,1.0,1.0,95.0,event
10:25:05.392,0.90800357,0.23446074,0.12522534,0.7600475,0.16037157,-0.78373647,-0.49567765,0.28037694,0.36869222,-0.38105336,-0.20384772,0.7534595,0.48951033,-0.18506877,-0.028015994,0.55295366,0.32562643,-0.46996704,-0.17732775,0.25074124,790.14655,774.0293,801.02563,832.8571,1056.8865,-0.082275390625,-0.01763916015625,0.983642578125,1.4056396484375,-4.29168701171875,1.143951416015625,1.0,1.0,1.0,1.0,1.0,95.0,event
10:25:05.393,0.90800357,0.23446074,0.12522534,0.7600475,0.16037157,-0.78373647,-0.49567765,0.28037694,0.36869222,-0.38105336,-0.20384772,0.7534595,0.48951033,-0.18506877,-0.028015994,0.55295366,0.32562643,-0.46996704,-0.17732775,0.25074124,784.10254,780.87915,813.5165,807.0696,630.58606,-0.082275390625,-0.01763916015625,0.983642578125,1.4056396484375,-4.29168701171875,1.143951416015625,1.0,1.0,1.0,1.0,1.0,95.0,event
10:25:05.393,0.90800357,0.23446074,0.12522534,0.7600475,0.16037157,-0.78373647,-0.49567765,0.28037694,0.36869222,-0.38105336,-0.20384772,0.7534595,0.48951033,-0.18506877,-0.028015994,0.55295366,0.32562643,-0.46996704,-0.17732775,0.25074124,789.7436,785.7143,806.26373,819.15753,1002.8938,-0.082275390625,-0.01763916015625,0.983642578125,1.4056396484375,-4.29168701171875,1.143951416015625,1.0,1.0,1.0,1.0,1.0,95.0,event
10:25:05.393,0.90800357,0.23446074,0.12522534,0.7600475,0.16037157,-0.78373647,-0.49567765,0.28037694,0.36869222,-0.38105336,-0.20384772,0.7534595,0.48951033,-0.18506877,-0.028015994,0.55295366,0.32562643,-0.46996704,-0.17732775,0.25074124,784.10254,784.5055,813.91943,789.7436,670.4762,-0.082275390625,-0.01763916015625,0.983642578125,1.4056396484375,-4.29168701171875,1.143951416015625,1.0,1.0,1.0,1.0,1.0,95.0,event
10:25:05.485,0.90800357,0.23446074,0.12522534,0.7600475,0.16037157,-0.78373647,-0.49567765,0.28037694,0.36869222,-0.38105336,-0.20384772,0.7534595,0.48951033,-0.18506877,-0.028015994,0.55295366,0.32562643,-0.46996704,-0.17732775,0.25074124,809.89014,790.14655,809.89014,836.4835,700.293,-0.0904541015625,-0.02081298828125,0.98394775390625,1.48040771484375,-4.089813232421875,0.785064697265625,1.0,1.0,1.0,1.0,1.0,95.0,event
10:25:05.486,0.90800357,0.23446074,0.12522534,0.7600475,0.16037157,-0.78373647,-0.49567765,0.28037694,0.36869222,-0.38105336,-0.20384772,0.7534595,0.48951033,-0.18506877,-0.028015994,0.55295366,0.32562643,-0.46996704,-0.17732775,0.25074124,805.8608,791.75824,807.47253,844.94507,712.7839,-0.0904541015625,-0.02081298828125,0.98394775390625,1.48040771484375,-4.089813232421875,0.785064697265625,1.0,1.0,1.0,1.0,1.0,95.0,event
10:25:05.486,0.90800357,0.23446074,0.12522534,0.7600475,0.16037157,-0.78373647,-0.49567765,0.28037694,0.36869222,-0.38105336,-0.20384772,0.7534595,0.48951033,-0.18506877,-0.028015994,0.55295366,0.32562643,-0.46996704,-0.17732775,0.25074124,804.65204,783.2967,800.6227,830.4396,712.7839,-0.0904541015625,-0.02081298828125,0.98394775390625,1.48040771484375,-4.089813232421875,0.785064697265625,1.0,1.0,1.0,1.0,1.0,95.0,event
10:25:05.487,0.90800357,0.23446074,0.12522534,0.7600475,0.16037157,-0.78373647,-0.49567765,0.28037694,0.36869222,-0.38105336,-0.20384772,0.7534595,0.48951033,-0.18506877,-0.028015994,0.55295366,0.32562643,-0.46996704,-0.17732775,0.25074124,805.05493,778.0586,803.0403,807.0696,754.2857,-0.0904541015625,-0.02081298828125,0.98394775390625,1.48040771484375,-4.089813232421875,0.785064697265625,1.0,1.0,1.0,1.0,1.0,95.0,event
10:25:05.487,0.90800357,0.23446074,0.12522534,0.7600475,0.16037157,-0.78373647,-0.49567765,0.28037694,0.36869222,-0.38105336,-0.20384772,0.7534595,0.48951033,-0.18506877,-0.028015994,0.55295366,0.32562643,-0.46996704,-0.17732775,0.25074124,788.5348,778.86444,804.65204,810.696,738.1685,-0.0904541015625,-0.02081298828125,0.98394775390625,1.48040771484375,-4.089813232421875,0.785064697265625,1.0,1.0,1.0,1.0,1.0,95.0,event
10:25:05.488,0.89213836,0.23638137,0.11274781,0.73962116,0.14818643,-0.7570655,-0.48710746,0.2836719,0.42928824,-0.4038167,-0.17296432,0.7571001,0.5695559,-0.17594557,-0.031635284,0.55171263,0.33248612,-0.46534526,-0.14573598,0.24791348,792.1612,781.685,803.0403,826.0073,769.59705,-0.0904541015625,-0.02081298828125,0.98394775390625,1.48040771484375,-4.089813232421875,0.785064697265625,1.0,1.0,1.0,1.0,1.0,95.0,event
10:25:05.492,0.89213836,0.23638137,0.11274781,0.73962116,0.14818643,-0.7570655,-0.48710746,0.2836719,0.42928824,-0.4038167,-0.17296432,0.7571001,0.5695559,-0.17594557,-0.031635284,0.55171263,0.33248612,-0.46534526,-0.14573598,0.24791348,796.5934,789.7436,807.0696,833.2601,830.0366,-0.0904541015625,-0.02081298828125,0.98394775390625,1.48040771484375,-4.089813232421875,0.785064697265625,1.0,1.0,1.0,1.0,1.0,95.0,event
10:25:05.493,0.89213836,0.23638137,0.11274781,0.73962116,0.14818643,-0.7570655,-0.48710746,0.2836719,0.42928824,-0.4038167,-0.17296432,0.7571001,0.5695559,-0.17594557,-0.031635284,0.55171263,0.33248612,-0.46534526,-0.14573598,0.24791348,808.68134,781.685,804.2491,834.87177,950.9158,-0.0904541015625,-0.02081298828125,0.98394775390625,1.48040771484375,-4.089813232421875,0.785064697265625,1.0,1.0,1.0,1.0,1.0,95.0,event
10:25:05.494,0.89213836,0.23638137,0.11274781,0.73962116,0.14818643,-0.7570655,-0.48710746,0.2836719,0.42928824,-0.4038167,-0.17296432,0.7571001,0.5695559,-0.17594557,-0.031635284,0.55171263,0.33248612,-0.46534526,-0.14573598,0.24791348,806.26373,780.87915,802.6374,813.5165,938.4249,-0.0904541015625,-0.02081298828125,0.98394775390625,1.48040771484375,-4.089813232421875,0.785064697265625,1.0,1.0,1.0,1.0,1.0,95.0,event
10:25:05.494,0.89213836,0.23638137,0.11274781,0.73962116,0.14818643,-0.7570655,-0.48710746,0.2836719,0.42928824,-0.4038167,-0.17296432,0.7571001,0.5695559,-0.17594557,-0.031635284,0.55171263,0.33248612,-0.46534526,-0.14573598,0.24791348,801.02563,794.57874,807.0696,812.71063,777.25275,-0.0904541015625,-0.02081298828125,0.98394775390625,1.48040771484375,-4.089813232421875,0.785064697265625,1.0,1.0,1.0,1.0,1.0,95.0,event
10:25:05.495,0.89213836,0.23638137,0.11274781,0.73962116,0.14818643,-0.7570655,-0.48710746,0.2836719,0.42928824,-0.4038167,-0.17296432,0.7571001,0.5695559,-0.17594557,-0.031635284,0.55171263,0.33248612,-0.46534526,-0.14573598,0.24791348,801.4286,792.1612,806.26373,835.6777,754.68866,-0.0904541015625,-0.02081298828125,0.98394775390625,1.48040771484375,-4.089813232421875,0.785064697265625,1.0,1.0,1.0,1.0,1.0,95.0,event
10:25:05.495,0.89213836,0.23638137,0.11274781,0.73962116,0.14818643,-0.7570655,-0.48710746,0.2836719,0.42928824,-0.4038167,-0.17296432,0.7571001,0.5695559,-0.17594557,-0.031635284,0.55171263,0.33248612,-0.46534526,-0.14573598,0.24791348,807.47253,792.1612,806.6667,848.1685,839.304,-0.0904541015625,-0.02081298828125,0.98394775390625,1.48040771484375,-4.089813232421875,0.785064697265625,1.0,1.0,1.0,1.0,1.0,95.0,event
10:25:05.523,0.89213836,0.23638137,0.11274781,0.73962116,0.14818643,-0.7570655,-0.48710746,0.2836719,0.42928824,-0.4038167,-0.17296432,0.7571001,0.5695559,-0.17594557,-0.031635284,0.55171263,0.33248612,-0.46534526,-0.14573598,0.24791348,814.7253,797.3993,811.0989,837.6923,852.6007,-0.08154296875,-0.01519775390625,0.98577880859375,2.31781005859375,-4.53094482421875,0.91217041015625,1.0,1.0,1.0,1.0,1.0,95.0,event
10:25:05.524,0.89213836,0.23638137,0.11274781,0.73962116,0.14818643,-0.7570655,-0.48710746,0.2836719,0.42928824,-0.4038167,-0.17296432,0.7571001,0.5695559,-0.17594557,-0.031635284,0.55171263,0.33248612,-0.46534526,-0.14573598,0.24791348,811.0989,792.5641,807.0696,809.4872,684.9817,-0.08154296875,-0.01519775390625,0.98577880859375,2.31781005859375,-4.53094482421875,0.91217041015625,1.0,1.0,1.0,1.0,1.0,95.0,event
10:25:05.524,0.89213836,0.23638137,0.11274781,0.73962116,0.14818643,-0.7570655,-0.48710746,0.2836719,0.42928824,-0.4038167,-0.17296432,0.7571001,0.5695559,-0.17594557,-0.031635284,0.55171263,0.33248612,-0.46534526,-0.14573598,0.24791348,811.50183,788.5348,799.011,801.4286,705.5311,-0.08154296875,-0.01519775390625,0.98577880859375,2.31781005859375,-4.53094482421875,0.91217041015625,1.0,1.0,1.0,1.0,1.0,95.0,event
10:25:05.525,0.89213836,0.23638137,0.11274781,0.73962116,0.14818643,-0.7570655,-0.48710746,0.2836719,0.42928824,-0.4038167,-0.17296432,0.7571001,0.5695559,-0.17594557,-0.031635284,0.55171263,0.33248612,-0.46534526,-0.14573598,0.24791348,827.2161,784.10254,801.4286,850.18317,822.7839,-0.08154296875,-0.01519775390625,0.98577880859375,2.31781005859375,-4.53094482421875,0.91217041015625,1.0,1.0,1.0,1.0,1.0,95.0,event
10:25:05.525,0.89213836,0.23638137,0.11274781,0.73962116,0.14818643,-0.7570655,-0.48710746,0.2836719,0.42928824,-0.4038167,-0.17296432,0.7571001,0.5695559,-0.17594557,-0.031635284,0.55171263,0.33248612,-0.46534526,-0.14573598,0.24791348,815.12823,784.5055,799.011,823.5897,818.7546,-0.08154296875,-0.01519775390625,0.98577880859375,2.31781005859375,-4.53094482421875,0.91217041015625,1.0,1.0,1.0,1.0,1.0,95.0,event
10:25:05.526,0.89213836,0.23638137,0.11274781,0.73962116,0.14818643,-0.7570655,-0.48710746,0.2836719,0.42928824,-0.4038167,-0.17296432,0.7571001,0.5695559,-0.17594557,-0.031635284,0.55171263,0.33248612,-0.46534526,-0.14573598,0.24791348,828.4249,788.1319,801.4286,853.00366,822.381,-0.08154296875,-0.01519775390625,0.98577880859375,2.31781005859375,-4.53094482421875,0.91217041015625,1.0,1.0,1.0,1.0,1.0,95.0,event
10:25:05.526,0.89213836,0.23638137,0.11274781,0.73962116,0.14818643,-0.7570655,-0.48710746,0.2836719,0.42928824,-0.4038167,-0.17296432,0.7571001,0.5695559,-0.17594557,-0.031635284,0.55171263,0.33248612,-0.46534526,-0.14573598,0.24791348,825.2015,780.4762,799.41394,836.08057,911.8315,-0.08154296875,-0.01519775390625,0.98577880859375,2.31781005859375,-4.53094482421875,0.91217041015625,1.0,1.0,1.0,1.0,1.0,95.0,event
10:25:05.527,0.89213836,0.23638137,0.11274781,0.73962116,0.14818643,-0.7570655,-0.48710746,0.2836719,0.42928824,-0.4038167,-0.17296432,0.7571001,0.5695559,-0.17594557,-0.031635284,0.55171263,0.33248612,-0.46534526,-0.14573598,0.24791348,821.1722,775.64105,800.6227,822.7839,1091.9414,-0.08154296875,-0.01519775390625,0.98577880859375,2.31781005859375,-4.53094482421875,0.91217041015625,1.0,1.0,1.0,1.0,1.0,95.0,event
10:25:05.527,0.89213836,0.23638137,0.11274781,0.73962116,0.14818643,-0.7570655,-0.48710746,0.2836719,0.42928824,-0.4038167,-0.17296432,0.7571001,0.5695559,-0.17594557,-0.031635284,0.55171263,0.33248612,-0.46534526,-0.14573598,0.24791348,809.4872,793.7729,805.05493,829.2308,948.9011,-0.08154296875,-0.01519775390625,0.98577880859375,2.31781005859375,-4.53094482421875,0.91217041015625,1.0,1.0,1.0,1.0,1.0,95.0,event
10:25:05.528,0.89213836,0.23638137,0.11274781,0.73962116,0.14818643,-0.7570655,-0.48710746,0.2836719,0.42928824,-0.4038167,-0.17296432,0.7571001,0.5695559,-0.17594557,-0.031635284,0.55171263,0.33248612,-0.46534526,-0.14573598,0.24791348,803.8461,790.9524,809.89014,845.7509,718.022,-0.08154296875,-0.01519775390625,0.98577880859375,2.31781005859375,-4.53094482421875,0.91217041015625,1.0,1.0,1.0,1.0,1.0,95.0,event
10:25:05.528,0.89213836,0.23638137,0.11274781,0.73962116,0.14818643,-0.7570655,-0.48710746,0.2836719,0.42928824,-0.4038167,-0.17296432,0.7571001,0.5695559,-0.17594557,-0.031635284,0.55171263,0.33248612,-0.46534526,-0.14573598,0.24791348,807.8755,785.7143,803.0403,836.08057,752.27106,-0.08154296875,-0.01519775390625,0.98577880859375,2.31781005859375,-4.53094482421875,0.91217041015625,1.0,1.0,1.0,1.0,1.0,95.0,event
10:25:05.529,0.89213836,0.23638137,0.11274781,0.73962116,0.14818643,-0.7570655,-0.48710746,0.2836719,0.42928824,-0.4038167,-0.17296432,0.7571001,0.5695559,-0.17594557,-0.031635284,0.55171263,0.33248612,-0.46534526,-0.14573598,0.24791348,808.68134,788.93774,801.4286,814.7253,748.6447,-0.0860595703125,-0.01336669921875,0.9830322265625,1.92901611328125,-4.6356201171875,1.0467529296875,1.0,1.0,1.0,1.0,1.0,95.0,event
10:25:05.529,0.89213836,0.23638137,0.11274781,0.73962116,0.14818643,-0.7570655,-0.48710746,0.2836719,0.42928824,-0.4038167,-0.17296432,0.7571001,0.5695559,-0.17594557,-0.031635284,0.55171263,0.33248612,-0.46534526,-0.14573598,0.24791348,810.696,791.3553,796.1905,810.293,740.18317,-0.08154296875,-0.01519775390625,0.98577880859375,2.31781005859375,-4.53094482421875,0.91217041015625,1.0,1.0,1.0,1.0,1.0,95.0,event
10:25:05.530,0.89213836,0.23638137,0.11274781,0.73962116,0.14818643,-0.7570655,-0.48710746,0.2836719,0.42928824,-0.4038167,-0.17296432,0.7571001,0.5695559,-0.17594557,-0.031635284,0.55171263,0.33248612,-0.46534526,-0.14573598,0.24791348,813.1135,785.31134,799.81683,832.0513,731.31866,-0.0860595703125,-0.01336669921875,0.9830322265625,1.92901611328125,-4.6356201171875,1.0467529296875,1.0,1.0,1.0,1.0,1.0,95.0,event
10:25:05.530,0.89213836,0.23638137,0.11274781,0.73962116,0.14818643,-0.7570655,-0.48710746,0.2836719,0.42928824,-0.4038167,-0.17296432,0.7571001,0.5695559,-0.17594557,-0.031635284,0.55171263,0.33248612,-0.46534526,-0.14573598,0.24791348,809.4872,780.4762,796.99634,850.18317,816.337,-0.0860595703125,-0.01336669921875,0.9830322265625,1.92901611328125,-4.6356201171875,1.0467529296875,1.0,1.0,1.0,1.0,1.0,95.0,event
10:25:05.531,0.89213836,0.23638137,0.11274781,0.73962116,0.14818643,-0.7570655,-0.48710746,0.2836719,0.42928824,-0.4038167,-0.17296432,0.7571001,0.5695559,-0.17594557,-0.031635284,0.55171263,0.33248612,-0.46534526,-0.14573598,0.24791348,807.47253,784.5055,800.6227,848.97437,859.85345,-0.0860595703125,-0.01336669921875,0.9830322265625,1.92901611328125,-4.6356201171875,1.0467529296875,1.0,1.0,1.0,1.0,1.0,95.0,event
10:25:05.531,0.89213836,0.23638137,0.11274781,0.73962116,0.14818643,-0.7570655,-0.48710746,0.2836719,0.42928824,-0.4038167,-0.17296432,0.7571001,0.5695559,-0.17594557,-0.031635284,0.55171263,0.33248612,-0.46534526,-0.14573598,0.24791348,801.4286,780.4762,803.0403,815.5311,778.86444,-0.0860595703125,-0.01336669921875,0.9830322265625,1.92901611328125,-4.6356201171875,1.0467529296875,1.0,1.0,1.0,1.0,1.0,95.0,event
10:25:05.532,0.89213836,0.23638137,0.11274781,0.73962116,0.14818643,-0.7570655,-0.48710746,0.2836719,0.42928824,-0.4038167,-0.17296432,0.7571001,0.5695559,-0.17594557,-0.031635284,0.55171263,0.33248612,-0.46534526,-0.14573598,0.24791348,803.0403,782.0879,806.6667,803.8461,738.1685,-0.0860595703125,-0.01336669921875,0.9830322265625,1.92901611328125,-4.6356201171875,1.0467529296875,1.0,1.0,1.0,1.0,1.0,95.0,event
10:25:05.532,0.89213836,0.23638137,0.11274781,0.73962116,0.14818643,-0.7570655,-0.48710746,0.2836719,0.42928824,-0.4038167,-0.17296432,0.7571001,0.5695559,-0.17594557,-0.031635284,0.55171263,0.33248612,-0.46534526,-0.14573598,0.24791348,800.6227,782.8938,805.4579,812.71063,869.12085,-0.0860595703125,-0.01336669921875,0.9830322265625,1.92901611328125,-4.6356201171875,1.0467529296875,1.0,1.0,1.0,1.0,1.0,95.0,event
10:25:05.533,0.8756377,0.22867337,0.08815477,0.6981043,0.15695333,-0.69339156,-0.49178964,0.29384047,0.49047214,-0.43688512,-0.14954564,0.77966225,0.637951,-0.1575796,-0.033447094,0.5569839,0.34162033,-0.4582336,-0.12536114,0.23165713,793.7729,784.5055,803.8461,823.5897,1000.4762,-0.0860595703125,-0.01336669921875,0.9830322265625,1.92901611328125,-4.6356201171875,1.0467529296875,1.0,1.0,1.0,1.0,1.0,95.0,event
10:25:05.537,0.8756377,0.22867337,0.08815477,0.6981043,0.15695333,-0.69339156,-0.49178964,0.29384047,0.49047214,-0.43688512,-0.14954564,0.77966225,0.637951,-0.1575796,-0.033447094,0.5569839,0.34162033,-0.4582336,-0.12536114,0.23165713,794.9817,789.34064,804.2491,833.663,765.16486,-0.0860595703125,-0.01336669921875,0.9830322265625,1.92901611328125,-4.6356201171875,1.0467529296875,1.0,1.0,1.0,1.0,1.0,95.0,event
10:25:05.538,0.8756377,0.22867337,0.08815477,0.6981043,0.15695333,-0.69339156,-0.49178964,0.29384047,0.49047214,-0.43688512,-0.14954564,0.77966225,0.637951,-0.1575796,-0.033447094,0.5569839,0.34162033,-0.4582336,-0.12536114,0.23165713,813.1135,781.28204,803.8461,802.6374,661.2088,-0.0860595703125,-0.01336669921875,0.9830322265625,1.92901611328125,-4.6356201171875,1.0467529296875,1.0,1.0,1.0,1.0,1.0,95.0,event
10:25:05.538,0.8756377,0.22867337,0.08815477,0.6981043,0.15695333,-0.69339156,-0.49178964,0.29384047,0.49047214,-0.43688512,-0.14954564,0.77966225,0.637951,-0.1575796,-0.033447094,0.5569839,0.34162033,-0.4582336,-0.12536114,0.23165713,805.8608,780.87915,802.6374,818.7546,686.1905,-0.0860595703125,-0.01336669921875,0.9830322265625,1.92901611328125,-4.6356201171875,1.0467529296875,1.0,1.0,1.0,1.0,1.0,95.0,event
10:25:05.539,0.8756377,0.22867337,0.08815477,0.6981043,0.15695333,-0.69339156,-0.49178964,0.29384047,0.49047214,-0.43688512,-0.14954564,0.77966225,0.637951,-0.1575796,-0.033447094,0.5569839,0.34162033,-0.4582336,-0.12536114,0.23165713,809.0842,786.9231,801.4286,805.4579,672.0879,-0.0860595703125,-0.01336669921875,0.9830322265625,1.92901611328125,-4.6356201171875,1.0467529296875,1.0,1.0,1.0,1.0,1.0,95.0,event
10:25:05.599,0.8756377,0.22867337,0.08815477,0.6981043,0.15695333,-0.69339156,-0.49178964,0.29384047,0.49047214,-0.43688512,-0.14954564,0.77966225,0.637951,-0.1575796,-0.033447094,0.5569839,0.34162033,-0.4582336,-0.12536114,0.23165713,817.1429,784.90845,803.8461,826.8132,731.7216,-0.0860595703125,-0.01336669921875,0.9830322265625,1.92901611328125,-4.6356201171875,1.0467529296875,1.0,1.0,1.0,1.0,1.0,95.0,event
10:25:05.600,0.8756377,0.22867337,0.08815477,0.6981043,0.15695333,-0.69339156,-0.49178964,0.29384047,0.49047214,-0.43688512,-0.14954564,0.77966225,0.637951,-0.1575796,-0.033447094,0.5569839,0.34162033,-0.4582336,-0.12536114,0.23165713,823.1868,781.685,803.0403,844.5421,768.3883,-0.0860595703125,-0.01336669921875,0.9830322265625,1.92901611328125,-4.6356201171875,1.0467529296875,1.0,1.0,1.0,1.0,1.0,95.0,event
10:25:05.601,0.8756377,0.22867337,0.08815477,0.6981043,0.15695333,-0.69339156,-0.49178964,0.29384047,0.49047214,-0.43688512,-0.14954564,0.77966225,0.637951,-0.1575796,-0.033447094,0.5569839,0.34162033,-0.4582336,-0.12536114,0.23165713,828.022,783.69965,804.65204,814.7253,803.44324,-0.0860595703125,-0.01336669921875,0.9830322265625,1.92901611328125,-4.6356201171875,1.0467529296875,1.0,1.0,1.0,1.0,1.0,95.0,event
10:25:05.601,0.8756377,0.22867337,0.08815477,0.6981043,0.15695333,-0.69339156,-0.49178964,0.29384047,0.49047214,-0.43688512,-0.14954564,0.77966225,0.637951,-0.1575796,-0.033447094,0.5569839,0.34162033,-0.4582336,-0.12536114,0.23165713,807.0696,788.1319,811.50183,779.67035,825.2015,-0.0860595703125,-0.01336669921875,0.9830322265625,1.92901611328125,-4.6356201171875,1.0467529296875,1.0,1.0,1.0,1.0,1.0,95.0,event
10:25:05.601,0.8756377,0.22867337,0.08815477,0.6981043,0.15695333,-0.69339156,-0.49178964,0.29384047,0.49047214,-0.43688512,-0.14954564,0.77966225,0.637951,-0.1575796,-0.033447094,0.5569839,0.34162033,-0.4582336,-0.12536114,0.23165713,778.86444,787.326,807.8755,789.34064,811.50183,-0.0860595703125,-0.01336669921875,0.9830322265625,1.92901611328125,-4.6356201171875,1.0467529296875,1.0,1.0,1.0,1.0,1.0,95.0,event
10:25:05.602,0.8756377,0.22867337,0.08815477,0.6981043,0.15695333,-0.69339156,-0.49178964,0.29384047,0.49047214,-0.43688512,-0.14954564,0.77966225,0.637951,-0.1575796,-0.033447094,0.5569839,0.34162033,-0.4582336,-0.12536114,0.23165713,790.54944,780.4762,798.60803,809.89014,858.6447,-0.0860595703125,-0.01336669921875,0.9830322265625,1.92901611328125,-4.6356201171875,1.0467529296875,1.0,1.0,1.0,1.0,1.0,95.0,event
10:25:05.602,0.8756377,0.22867337,0.08815477,0.6981043,0.15695333,-0.69339156,-0.49178964,0.29384047,0.49047214,-0.43688512,-0.14954564,0.77966225,0.637951,-0.1575796,-0.033447094,0.5569839,0.34162033,-0.4582336,-0.12536114,0.23165713,796.5934,773.6264,797.8022,827.619,1120.5494,-0.0860595703125,-0.01336669921875,0.9830322265625,1.92901611328125,-4.6356201171875,1.0467529296875,1.0,1.0,1.0,1.0,1.0,95.0,event
10:25:05.603,0.8756377,0.22867337,0.08815477,0.6981043,0.15695333,-0.69339156,-0.49178964,0.29384047,0.49047214,-0.43688512,-0.14954564,0.77966225,0.637951,-0.1575796,-0.033447094,0.5569839,0.34162033,-0.4582336,-0.12536114,0.23165713,794.57874,782.8938,805.8608,823.1868,1035.1282,-0.0860595703125,-0.01336669921875,0.9830322265625,1.92901611328125,-4.6356201171875,1.0467529296875,1.0,1.0,1.0,1.0,1.0,95.0,event
10:25:05.603,0.8756377,0.22867337,0.08815477,0.6981043,0.15695333,-0.69339156,-0.49178964,0.29384047,0.49047214,-0.43688512,-0.14954564,0.77966225,0.637951,-0.1575796,-0.033447094,0.5569839,0.34162033,-0.4582336,-0.12536114,0.23165713,794.9817,786.52014,805.4579,789.7436,634.21246,-0.0860595703125,-0.01336669921875,0.9830322265625,1.92901611328125,-4.6356201171875,1.0467529296875,1.0,1.0,1.0,1.0,1.0,95.0,event
10:25:05.603,0.8756377,0.22867337,0.08815477,0.6981043,0.15695333,-0.69339156,-0.49178964,0.29384047,0.49047214,-0.43688512,-0.14954564,0.77966225,0.637951,-0.1575796,-0.033447094,0.5569839,0.34162033,-0.4582336,-0.12536114,0.23165713,790.9524,783.69965,798.60803,793.36993,666.8498,-0.0860595703125,-0.01336669921875,0.9830322265625,1.92901611328125,-4.6356201171875,1.0467529296875,1.0,1.0,1.0,1.0,1.0,95.0,event
10:25:05.604,0.8756377,0.22867337,0.08815477,0.6981043,0.15695333,-0.69339156,-0.49178964,0.29384047,0.49047214,-0.43688512,-0.14954564,0.77966225,0.637951,-0.1575796,-0.033447094,0.5569839,0.34162033,-0.4582336,-0.12536114,0.23165713,790.54944,786.1172,796.1905,823.1868,762.3443,-0.0860595703125,-0.01336669921875,0.9830322265625,1.92901611328125,-4.6356201171875,1.0467529296875,1.0,1.0,1.0,1.0,1.0,95.0,event
10:25:05.604,0.8756377,0.22867337,0.08815477,0.6981043,0.15695333,-0.69339156,-0.49178964,0.29384047,0.49047214,-0.43688512,-0.14954564,0.77966225,0.637951,-0.1575796,-0.033447094,0.5569839,0.34162033,-0.4582336,-0.12536114,0.23165713,796.5934,782.0879,798.60803,832.4542,737.76556,-0.0860595703125,-0.01336669921875,0.9830322265625,1.92901611328125,-4.6356201171875,1.0467529296875,1.0,1.0,1.0,1.0,1.0,95.0,event
10:25:05.632,0.8756377,0.22867337,0.08815477,0.6981043,0.15695333,-0.69339156,-0.49178964,0.29384047,0.49047214,-0.43688512,-0.14954564,0.77966225,0.637951,-0.1575796,-0.033447094,0.5569839,0.34162033,-0.4582336,-0.12536114,0.23165713,796.5934,781.28204,806.26373,815.12823,744.21246,-0.0816650390625,-0.0145263671875,0.9866943359375,1.876678466796875,-3.87298583984375,-0.5084228515625,1.0,1.0,1.0,1.0,1.0,95.0,event
10:25:05.633,0.8756377,0.22867337,0.08815477,0.6981043,0.15695333,-0.69339156,-0.49178964,0.29384047,0.49047214,-0.43688512,-0.14954564,0.77966225,0.637951,-0.1575796,-0.033447094,0.5569839,0.34162033,-0.4582336,-0.12536114,0.23165713,798.20514,786.9231,808.2784,805.8608,734.94507,-0.0816650390625,-0.0145263671875,0.9866943359375,1.876678466796875,-3.87298583984375,-0.5084228515625,1.0,1.0,1.0,1.0,1.0,95.0,event
10:25:05.634,0.8756377,0.22867337,0.08815477,0.6981043,0.15695333,-0.69339156,-0.49178964,0.29384047,0.49047214,-0.43688512,-0.14954564,0.77966225,0.637951,-0.1575796,-0.033447094,0.5569839,0.34162033,-0.4582336,-0.12536114,0.23165713,792.1612,784.10254,807.0696,824.3956,710.3663,-0.0816650390625,-0.0145263671875,0.9866943359375,1.876678466796875,-3.87298583984375,-0.5084228515625,1.0,1.0,1.0,1.0,1.0,95.0,event
10:25:05.634,0.8756377,0.22867337,0.08815477,0.6981043,0.15695333,-0.69339156,-0.49178964,0.29384047,0.49047214,-0.43688512,-0.14954564,0.77966225,0.637951,-0.1575796,-0.033447094,0.5569839,0.34162033,-0.4582336,-0.12536114,0.23165713,789.7436,785.7143,805.4579,813.91943,708.7546,-0.0816650390625,-0.0145263671875,0.9866943359375,1.876678466796875,-3.87298583984375,-0.5084228515625,1.0,1.0,1.0,1.0,1.0,95.0,event
10:25:05.635,0.8756377,0.22867337,0.08815477,0.6981043,0.15695333,-0.69339156,-0.49178964,0.29384047,0.49047214,-0.43688512,-0.14954564,0.77966225,0.637951,-0.1575796,-0.033447094,0.5569839,0.34162033,-0.4582336,-0.12536114,0.23165713,803.8461,782.8938,804.2491,844.94507,962.6007,-0.0816650390625,-0.0145263671875,0.9866943359375,1.876678466796875,-3.87298583984375,-0.5084228515625,1.0,1.0,1.0,1.0,1.0,95.0,event
10:25:05.635,0.8756377,0.22867337,0.08815477,0.6981043,0.15695333,-0.69339156,-0.49178964,0.29384047,0.49047214,-0.43688512,-0.14954564,0.77966225,0.637951,-0.1575796,-0.033447094,0.5569839,0.34162033,-0.4582336,-0.12536114,0.23165713,806.26373,784.5055,805.4579,845.34796,830.84247,-0.0816650390625,-0.0145263671875,0.9866943359375,1.876678466796875,-3.87298583984375,-0.5084228515625,1.0,1.0,1.0,1.0,1.0,95.0,event
10:25:05.636,0.8756377,0.22867337,0.08815477,0.6981043,0.15695333,-0.69339156,-0.49178964,0.29384047,0.49047214,-0.43688512,-0.14954564,0.77966225,0.637951,-0.1575796,-0.033447094,0.5569839,0.34162033,-0.4582336,-0.12536114,0.23165713,807.0696,787.326,808.68134,821.978,903.36993,-0.0816650390625,-0.0145263671875,0.9866943359375,1.876678466796875,-3.87298583984375,-0.5084228515625,1.0,1.0,1.0,1.0,1.0,95.0,event
10:25:05.636,0.8756377,0.22867337,0.08815477,0.6981043,0.15695333,-0.69339156,-0.49178964,0.29384047,0.49047214,-0.43688512,-0.14954564,0.77966225,0.637951,-0.1575796,-0.033447094,0.5569839,0.34162033,-0.4582336,-0.12536114,0.23165713,810.293,786.52014,801.8315,827.2161,786.52014,-0.0816650390625,-0.0145263671875,0.9866943359375,1.876678466796875,-3.87298583984375,-0.5084228515625,1.0,1.0,1.0,1.0,1.0,95.0,event
10:25:05.637,0.8756377,0.22867337,0.08815477,0.6981043,0.15695333,-0.69339156,-0.49178964,0.29384047,0.49047214,-0.43688512,-0.14954564,0.77966225,0.637951,-0.1575796,-0.033447094,0.5569839,0.34162033,-0.4582336,-0.12536114,0.23165713,829.2308,789.34064,801.8315,843.3333,717.619,-0.0816650390625,-0.0145263671875,0.9866943359375,1.876678466796875,-3.87298583984375,-0.5084228515625,1.0,1.0,1.0,1.0,1.0,95.0,event
10:25:05.637,0.865827,0.2131877,0.055185888,0.7055192,0.21369693,-0.61043185,-0.51572996,0.28796557,0.58545554,-0.45683196,-0.09484169,0.8210394,0.6965442,-0.1349196,-0.028405095,0.5567006,0.3523483,-0.44783205,-0.1120499,0.22661345,835.6777,784.5055,808.68134,840.10986,917.8755,-0.0816650390625,-0.0145263671875,0.9866943359375,1.876678466796875,-3.87298583984375,-0.5084228515625,1.0,1.0,1.0,1.0,1.0,95.0,event
10:25:05.642,0.865827,0.2131877,0.055185888,0.7055192,0.21369693,-0.61043185,-0.51572996,0.28796557,0.58545554,-0.45683196,-0.09484169,0.8210394,0.6965442,-0.1349196,-0.028405095,0.5567006,0.3523483,-0.44783205,-0.1120499,0.22661345,801.8315,781.685,804.2491,831.2454,1077.8389,-0.0816650390625,-0.0145263671875,0.9866943359375,1.876678466796875,-3.87298583984375,-0.5084228515625,1.0,1.0,1.0,1.0,1.0,95.0,event
10:25:05.642,0.865827,0.2131877,0.055185888,0.7055192,0.21369693,-0.61043185,-0.51572996,0.28796557,0.58545554,-0.45683196,-0.09484169,0.8210394,0.6965442,-0.1349196,-0.028405095,0.5567006,0.3523483,-0.44783205,-0.1120499,0.22661345,792.96704,786.1172,803.8461,805.8608,746.63007,-0.0816650390625,-0.0145263671875,0.9866943359375,1.876678466796875,-3.87298583984375,-0.5084228515625,1.0,1.0,1.0,1.0,1.0,95.0,event
10:25:05.670,0.865827,0.2131877,0.055185888,0.7055192,0.21369693,-0.61043185,-0.51572996,0.28796557,0.58545554,-0.45683196,-0.09484169,0.8210394,0.6965442,-0.1349196,-0.028405095,0.5567006,0.3523483,-0.44783205,-0.1120499,0.22661345,794.17584,782.49084,807.47253,794.17584,645.89746,-0.0787353515625,-0.01708984375,0.98394775390625,1.9140625,-4.224395751953125,-0.456085205078125,1.0,1.0,1.0,1.0,1.0,95.0,event
10:25:05.671,0.865827,0.2131877,0.055185888,0.7055192,0.21369693,-0.61043185,-0.51572996,0.28796557,0.58545554,-0.45683196,-0.09484169,0.8210394,0.6965442,-0.1349196,-0.028405095,0.5567006,0.3523483,-0.44783205,-0.1120499,0.22661345,804.65204,788.1319,804.2491,840.9158,824.3956,-0.0787353515625,-0.01708984375,0.98394775390625,1.9140625,-4.224395751953125,-0.456085205078125,1.0,1.0,1.0,1.0,1.0,95.0,event
10:25:05.671,0.865827,0.2131877,0.055185888,0.7055192,0.21369693,-0.61043185,-0.51572996,0.28796557,0.58545554,-0.45683196,-0.09484169,0.8210394,0.6965442,-0.1349196,-0.028405095,0.5567006,0.3523483,-0.44783205,-0.1120499,0.22661345,799.81683,786.52014,806.6667,817.1429,786.9231,-0.0787353515625,-0.01708984375,0.98394775390625,1.9140625,-4.224395751953125,-0.456085205078125,1.0,1.0,1.0,1.0,1.0,95.0,event
10:25:05.672,0.865827,0.2131877,0.055185888,0.7055192,0.21369693,-0.61043185,-0.51572996,0.28796557,0.58545554,-0.45683196,-0.09484169,0.8210394,0.6965442,-0.1349196,-0.028405095,0.5567006,0.3523483,-0.44783205,-0.1120499,0.22661345,805.8608,784.90845,808.68134,840.9158,809.89014,-0.0787353515625,-0.01708984375,0.98394775390625,1.9140625,-4.224395751953125,-0.456085205078125,1.0,1.0,1.0,1.0,1.0,95.0,event
10:25:05.672,0.865827,0.2131877,0.055185888,0.7055192,0.21369693,-0.61043185,-0.51572996,0.28796557,0.58545554,-0.45683196,-0.09484169,0.8210394,0.6965442,-0.1349196,-0.028405095,0.5567006,0.3523483,-0.44783205,-0.1120499,0.22661345,813.91943,782.0879,808.68134,813.91943,775.64105,-0.0787353515625,-0.01708984375,0.98394775390625,1.9140625,-4.224395751953125,-0.456085205078125,1.0,1.0,1.0,1.0,1.0,95.0,event
10:25:05.673,0.865827,0.2131877,0.055185888,0.7055192,0.21369693,-0.61043185,-0.51572996,0.28796557,0.58545554,-0.45683196,-0.09484169,0.8210394,0.6965442,-0.1349196,-0.028405095,0.5567006,0.3523483,-0.44783205,-0.1120499,0.22661345,815.5311,784.10254,808.2784,800.6227,810.696,-0.0787353515625,-0.01708984375,0.98394775390625,1.9140625,-4.224395751953125,-0.456085205078125,1.0,1.0,1.0,1.0,1.0,95.0,event
10:25:05.673,0.865827,0.2131877,0.055185888,0.7055192,0.21369693,-0.61043185,-0.51572996,0.28796557,0.58545554,-0.45683196,-0.09484169,0.8210394,0.6965442,-0.1349196,-0.028405095,0.5567006,0.3523483,-0.44783205,-0.1120499,0.22661345,803.8461,790.14655,812.3077,816.7399,854.21246,-0.0787353515625,-0.01708984375,0.98394775390625,1.9140625,-4.224395751953125,-0.456085205078125,1.0,1.0,1.0,1.0,1.0,95.0,event
10:25:05.674,0.865827,0.2131877,0.055185888,0.7055192,0.21369693,-0.61043185,-0.51572996,0.28796557,0.58545554,-0.45683196,-0.09484169,0.8210394,0.6965442,-0.1349196,-0.028405095,0.5567006,0.3523483,-0.44783205,-0.1120499,0.22661345,801.4286,789.7436,809.89014,828.4249,774.43225,-0.0787353515625,-0.01708984375,0.98394775390625,1.9140625,-4.224395751953125,-0.456085205078125,1.0,1.0,1.0,1.0,1.0,95.0,event
10:25:05.674,0.865827,0.2131877,0.055185888,0.7055192,0.21369693,-0.61043185,-0.51572996,0.28796557,0.58545554,-0.45683196,-0.09484169,0.8210394,0.6965442,-0.1349196,-0.028405095,0.5567006,0.3523483,-0.44783205,-0.1120499,0.22661345,808.2784,780.87915,808.2784,832.8571,825.6044,-0.0787353515625,-0.01708984375,0.98394775390625,1.9140625,-4.224395751953125,-0.456085205078125,1.0,1.0,1.0,1.0,1.0,95.0,event
10:25:05.675,0.865827,0.2131877,0.055185888,0.7055192,0.21369693,-0.61043185,-0.51572996,0.28796557,0.58545554,-0.45683196,-0.09484169,0.8210394,0.6965442,-0.1349196,-0.028405095,0.5567006,0.3523483,-0.44783205,-0.1120499,0.22661345,815.9341,781.28204,809.0842,816.7399,1073.0037,-0.0787353515625,-0.01708984375,0.98394775390625,1.9140625,-4.224395751953125,-0.456085205078125,1.0,1.0,1.0,1.0,1.0,95.0,event
10:25:05.675,0.865827,0.2131877,0.055185888,0.7055192,0.21369693,-0.61043185,-0.51572996,0.28796557,0.58545554,-0.45683196,-0.09484169,0.8210394,0.6965442,-0.1349196,-0.028405095,0.5567006,0.3523483,-0.44783205,-0.1120499,0.22661345,816.7399,793.7729,806.26373,796.99634,912.6374,-0.0787353515625,-0.01708984375,0.98394775390625,1.9140625,-4.224395751953125,-0.456085205078125,1.0,1.0,1.0,1.0,1.0,95.0,event
10:25:05.676,0.865827,0.2131877,0.055185888,0.7055192,0.21369693,-0.61043185,-0.51572996,0.28796557,0.58545554,-0.45683196,-0.09484169,0.8210394,0.6965442,-0.1349196,-0.028405095,0.5567006,0.3523483,-0.44783205,-0.1120499,0.22661345,801.02563,788.93774,808.68134,813.91943,683.36993,-0.0787353515625,-0.01708984375,0.98394775390625,1.9140625,-4.224395751953125,-0.456085205078125,1.0,1.0,1.0,1.0,1.0,95.0,event
10:25:05.737,0.865827,0.2131877,0.055185888,0.7055192,0.21369693,-0.61043185,-0.51572996,0.28796557,0.58545554,-0.45683196,-0.09484169,0.8210394,0.6965442,-0.1349196,-0.028405095,0.5567006,0.3523483,-0.44783205,-0.1120499,0.22661345,786.52014,786.9231,815.9341,834.87177,770.80585,-0.0765380859375,-0.01593017578125,0.98370361328125,3.087921142578125,-4.403839111328125,0.186920166015625,1.0,1.0,1.0,1.0,1.0,95.0,event
10:25:05.738,0.865827,0.2131877,0.055185888,0.7055192,0.21369693,-0.61043185,-0.51572996,0.28796557,0.58545554,-0.45683196,-0.09484169,0.8210394,0.6965442,-0.1349196,-0.028405095,0.5567006,0.3523483,-0.44783205,-0.1120499,0.22661345,793.7729,791.3553,818.7546,830.0366,845.34796,-0.0765380859375,-0.01593017578125,0.98370361328125,3.087921142578125,-4.403839111328125,0.186920166015625,1.0,1.0,1.0,1.0,1.0,95.0,event
10:25:05.739,0.865827,0.2131877,0.055185888,0.7055192,0.21369693,-0.61043185,-0.51572996,0.28796557,0.58545554,-0.45683196,-0.09484169,0.8210394,0.6965442,-0.1349196,-0.028405095,0.5567006,0.3523483,-0.44783205,-0.1120499,0.22661345,797.8022,791.3553,810.696,805.8608,720.0366,-0.0765380859375,-0.01593017578125,0.98370361328125,3.087921142578125,-4.403839111328125,0.186920166015625,1.0,1.0,1.0,1.0,1.0,95.0,event
10:25:05.740,0.865827,0.2131877,0.055185888,0.7055192,0.21369693,-0.61043185,-0.51572996,0.28796557,0.58545554,-0.45683196,-0.09484169,0.8210394,0.6965442,-0.1349196,-0.028405095,0.5567006,0.3523483,-0.44783205,-0.1120499,0.22661345,800.6227,788.93774,805.4579,801.4286,633.8095,-0.0765380859375,-0.01593017578125,0.98370361328125,3.087921142578125,-4.403839111328125,0.186920166015625,1.0,1.0,1.0,1.0,1.0,95.0,event
10:25:05.740,0.865827,0.2131877,0.055185888,0.7055192,0.21369693,-0.61043185,-0.51572996,0.28796557,0.58545554,-0.45683196,-0.09484169,0.8210394,0.6965442,-0.1349196,-0.028405095,0.5567006,0.3523483,-0.44783205,-0.1120499,0.22661345,796.5934,784.5055,804.65204,819.9634,785.31134,-0.0765380859375,-0.01593017578125,0.98370361328125,3.087921142578125,-4.403839111328125,0.186920166015625,1.0,1.0,1.0,1.0,1.0,95.0,event
10:25:05.741,0.865827,0.2131877,0.055185888,0.7055192,0.21369693,-0.61043185,-0.51572996,0.28796557,0.58545554,-0.45683196,-0.09484169,0.8210394,0.6965442,-0.1349196,-0.028405095,0.5567006,0.3523483,-0.44783205,-0.1120499,0.22661345,794.17584,785.31134,807.47253,831.2454,940.0366,-0.0765380859375,-0.01593017578125,0.98370361328125,3.087921142578125,-4.403839111328125,0.186920166015625,1.0,1.0,1.0,1.0,1.0,95.0,event
10:25:05.743,0.865827,0.2131877,0.055185888,0.7055192,0.21369693,-0.61043185,-0.51572996,0.28796557,0.58545554,-0.45683196,-0.09484169,0.8210394,0.6965442,-0.1349196,-0.028405095,0.5567006,0.3523483,-0.44783205,-0.1120499,0.22661345,804.2491,785.7143,810.293,842.52747,840.9158,-0.0765380859375,-0.01593017578125,0.98370361328125,3.087921142578125,-4.403839111328125,0.186920166015625,1.0,1.0,1.0,1.0,1.0,95.0,event
10:25:05.744,0.865827,0.2131877,0.055185888,0.7055192,0.21369693,-0.61043185,-0.51572996,0.28796557,0.58545554,-0.45683196,-0.09484169,0.8210394,0.6965442,-0.1349196,-0.028405095,0.5567006,0.3523483,-0.44783205,-0.1120499,0.22661345,803.0403,782.8938,811.50183,830.4396,685.38464,-0.0765380859375,-0.01593017578125,0.98370361328125,3.087921142578125,-4.403839111328125,0.186920166015625,1.0,1.0,1.0,1.0,1.0,95.0,event
10:25:05.745,0.865827,0.2131877,0.055185888,0.7055192,0.21369693,-0.61043185,-0.51572996,0.28796557,0.58545554,-0.45683196,-0.09484169,0.8210394,0.6965442,-0.1349196,-0.028405095,0.5567006,0.3523483,-0.44783205,-0.1120499,0.22661345,798.60803,779.2674,811.50183,807.47253,818.7546,-0.0765380859375,-0.01593017578125,0.98370361328125,3.087921142578125,-4.403839111328125,0.186920166015625,1.0,1.0,1.0,1.0,1.0,95.0,event
10:25:05.746,0.865827,0.2131877,0.055185888,0.7055192,0.21369693,-0.61043185,-0.51572996,0.28796557,0.58545554,-0.45683196,-0.09484169,0.8210394,0.6965442,-0.1349196,-0.028405095,0.5567006,0.3523483,-0.44783205,-0.1120499,0.22661345,797.3993,790.9524,811.50183,819.15753,1010.14655,-0.0765380859375,-0.01593017578125,0.98370361328125,3.087921142578125,-4.403839111328125,0.186920166015625,1.0,1.0,1.0,1.0,1.0,95.0,event
10:25:05.746,0.865827,0.2131877,0.055185888,0.7055192,0.21369693,-0.61043185,-0.51572996,0.28796557,0.58545554,-0.45683196,-0.09484169,0.8210394,0.6965442,-0.1349196,-0.028405095,0.5567006,0.3523483,-0.44783205,-0.1120499,0.22661345,803.44324,799.41394,815.9341,839.707,788.5348,-0.0765380859375,-0.01593017578125,0.98370361328125,3.087921142578125,-4.403839111328125,0.186920166015625,1.0,1.0,1.0,1.0,1.0,95.0,event
10:25:05.747,0.8782248,0.18608622,0.01341893,0.7826426,0.32237405,-0.52616966,-0.5543398,0.267194,0.63707304,-0.49400055,-0.056173198,0.8138466,0.74780047,-0.11456832,-0.01593712,0.54541326,0.3614583,-0.43608555,-0.101386905,0.23567468,799.81683,789.7436,811.9048,846.55676,716.8132,-0.0765380859375,-0.01593017578125,0.98370361328125,3.087921142578125,-4.403839111328125,0.186920166015625,1.0,1.0,1.0,1.0,1.0,95.0,event
10:25:05.777,0.8782248,0.18608622,0.01341893,0.7826426,0.32237405,-0.52616966,-0.5543398,0.267194,0.63707304,-0.49400055,-0.056173198,0.8138466,0.74780047,-0.11456832,-0.01593712,0.54541326,0.3614583,-0.43608555,-0.101386905,0.23567468,802.23444,784.10254,809.4872,830.0366,833.2601,-0.0733642578125,-0.01080322265625,0.9888916015625,2.400054931640625,-4.007568359375,0.575714111328125,1.0,1.0,1.0,1.0,1.0,95.0,event
10:25:05.778,0.8782248,0.18608622,0.01341893,0.7826426,0.32237405,-0.52616966,-0.5543398,0.267194,0.63707304,-0.49400055,-0.056173198,0.8138466,0.74780047,-0.11456832,-0.01593712,0.54541326,0.3614583,-0.43608555,-0.101386905,0.23567468,812.3077,788.5348,815.9341,804.65204,832.0513,-0.0733642578125,-0.01080322265625,0.9888916015625,2.400054931640625,-4.007568359375,0.575714111328125,1.0,1.0,1.0,1.0,1.0,95.0,event
10:25:05.778,0.8782248,0.18608622,0.01341893,0.7826426,0.32237405,-0.52616966,-0.5543398,0.267194,0.63707304,-0.49400055,-0.056173198,0.8138466,0.74780047,-0.11456832,-0.01593712,0.54541326,0.3614583,-0.43608555,-0.101386905,0.23567468,808.68134,787.326,814.3223,800.2198,721.6484,-0.0733642578125,-0.01080322265625,0.9888916015625,2.400054931640625,-4.007568359375,0.575714111328125,1.0,1.0,1.0,1.0,1.0,95.0,event
10:25:05.779,0.8782248,0.18608622,0.01341893,0.7826426,0.32237405,-0.52616966,-0.5543398,0.267194,0.63707304,-0.49400055,-0.056173198,0.8138466,0.74780047,-0.11456832,-0.01593712,0.54541326,0.3614583,-0.43608555,-0.101386905,0.23567468,814.3223,778.0586,810.293,810.293,709.9634,-0.0733642578125,-0.01080322265625,0.9888916015625,2.400054931640625,-4.007568359375,0.575714111328125,1.0,1.0,1.0,1.0,1.0,95.0,event
10:25:05.779,0.8782248,0.18608622,0.01341893,0.7826426,0.32237405,-0.52616966,-0.5543398,0.267194,0.63707304,-0.49400055,-0.056173198,0.8138466,0.74780047,-0.11456832,-0.01593712,0.54541326,0.3614583,-0.43608555,-0.101386905,0.23567468,800.2198,778.0586,811.0989,828.8278,849.3773,-0.0733642578125,-0.01080322265625,0.9888916015625,2.400054931640625,-4.007568359375,0.575714111328125,1.0,1.0,1.0,1.0,1.0,95.0,event
10:25:05.780,0.8782248,0.18608622,0.01341893,0.7826426,0.32237405,-0.52616966,-0.5543398,0.267194,0.63707304,-0.49400055,-0.056173198,0.8138466,0.74780047,-0.11456832,-0.01593712,0.54541326,0.3614583,-0.43608555,-0.101386905,0.23567468,785.31134,779.67035,810.696,823.9927,914.2491,-0.0733642578125,-0.01080322265625,0.9888916015625,2.400054931640625,-4.007568359375,0.575714111328125,1.0,1.0,1.0,1.0,1.0,95.0,event
10:25:05.781,0.8782248,0.18608622,0.01341893,0.7826426,0.32237405,-0.52616966,-0.5543398,0.267194,0.63707304,-0.49400055,-0.056173198,0.8138466,0.74780047,-0.11456832,-0.01593712,0.54541326,0.3614583,-0.43608555,-0.101386905,0.23567468,782.8938,776.04395,810.696,796.5934,871.9414,-0.0733642578125,-0.01080322265625,0.9888916015625,2.400054931640625,-4.007568359375,0.575714111328125,1.0,1.0,1.0,1.0,1.0,95.0,event
10:25:05.781,0.8782248,0.18608622,0.01341893,0.7826426,0.32237405,-0.52616966,-0.5543398,0.267194,0.63707304,-0.49400055,-0.056173198,0.8138466,0.74780047,-0.11456832,-0.01593712,0.54541326,0.3614583,-0.43608555,-0.101386905,0.23567468,791.75824,772.8205,810.293,805.4579,880.0,-0.0733642578125,-0.01080322265625,0.9888916015625,2.400054931640625,-4.007568359375,0.575714111328125,1.0,1.0,1.0,1.0,1.0,95.0,event
10:25:05.782,0.8782248,0.18608622,0.01341893,0.7826426,0.32237405,-0.52616966,-0.5543398,0.267194,0.63707304,-0.49400055,-0.056173198,0.8138466,0.74780047,-0.11456832,-0.01593712,0.54541326,0.3614583,-0.43608555,-0.101386905,0.23567468,802.6374,784.10254,810.293,825.6044,971.06226,-0.0733642578125,-0.01080322265625,0.9888916015625,2.400054931640625,-4.007568359375,0.575714111328125,1.0,1.0,1.0,1.0,1.0,95.0,event
10:25:05.782,0.8782248,0.18608622,0.01341893,0.7826426,0.32237405,-0.52616966,-0.5543398,0.267194,0.63707304,-0.49400055,-0.056173198,0.8138466,0.74780047,-0.11456832,-0.01593712,0.54541326,0.3614583,-0.43608555,-0.101386905,0.23567468,797.3993,793.7729,813.1135,830.0366,886.4469,-0.0733642578125,-0.01080322265625,0.9888916015625,2.400054931640625,-4.007568359375,0.575714111328125,1.0,1.0,1.0,1.0,1.0,95.0,event
10:25:05.782,0.8782248,0.18608622,0.01341893,0.7826426,0.32237405,-0.52616966,-0.5543398,0.267194,0.63707304,-0.49400055,-0.056173198,0.8138466,0.74780047,-0.11456832,-0.01593712,0.54541326,0.3614583,-0.43608555,-0.101386905,0.23567468,795.78754,782.49084,808.68134,822.7839,777.6557,-0.0733642578125,-0.01080322265625,0.9888916015625,2.400054931640625,-4.007568359375,0.575714111328125,1.0,1.0,1.0,1.0,1.0,95.0,event
10:25:05.783,0.8782248,0.18608622,0.01341893,0.7826426,0.32237405,-0.52616966,-0.5543398,0.267194,0.63707304,-0.49400055,-0.056173198,0.8138466,0.74780047,-0.11456832,-0.01593712,0.54541326,0.3614583,-0.43608555,-0.101386905,0.23567468,792.96704,778.0586,799.011,793.36993,811.9048,-0.0733642578125,-0.01080322265625,0.9888916015625,2.400054931640625,-4.007568359375,0.575714111328125,1.0,1.0,1.0,1.0,1.0,95.0,event
10:25:05.806,0.8782248,0.18608622,0.01341893,0.7826426,0.32237405,-0.52616966,-0.5543398,0.267194,0.63707304,-0.49400055,-0.056173198,0.8138466,0.74780047,-0.11456832,-0.01593712,0.54541326,0.3614583,-0.43608555,-0.101386905,0.23567468,794.57874,781.685,800.6227,790.14655,751.8681,-0.0733642578125,-0.01080322265625,0.9888916015625,2.400054931640625,-4.007568359375,0.575714111328125,1.0,1.0,1.0,1.0,1.0,95.0,event
10:25:05.807,0.8782248,0.18608622,0.01341893,0.7826426,0.32237405,-0.52616966,-0.5543398,0.267194,0.63707304,-0.49400055,-0.056173198,0.8138466,0.74780047,-0.11456832,-0.01593712,0.54541326,0.3614583,-0.43608555,-0.101386905,0.23567468,796.1905,783.69965,805.4579,809.0842,662.8205,-0.0733642578125,-0.01080322265625,0.9888916015625,2.400054931640625,-4.007568359375,0.575714111328125,1.0,1.0,1.0,1.0,1.0,95.0,event
10:25:05.808,0.8782248,0.18608622,0.01341893,0.7826426,0.32237405,-0.52616966,-0.5543398,0.267194,0.63707304,-0.49400055,-0.056173198,0.8138466,0.74780047,-0.11456832,-0.01593712,0.54541326,0.3614583,-0.43608555,-0.101386905,0.23567468,793.7729,785.31134,809.4872,829.2308,697.0696,-0.0733642578125,-0.01080322265625,0.9888916015625,2.400054931640625,-4.007568359375,0.575714111328125,1.0,1.0,1.0,1.0,1.0,95.0,event
10:25:05.808,0.8782248,0.18608622,0.01341893,0.7826426,0.32237405,-0.52616966,-0.5543398,0.267194,0.63707304,-0.49400055,-0.056173198,0.8138466,0.74780047,-0.11456832,-0.01593712,0.54541326,0.3614583,-0.43608555,-0.101386905,0.23567468,783.2967,780.4762,816.337,819.15753,804.65204,-0.0733642578125,-0.01080322265625,0.9888916015625,2.400054931640625,-4.007568359375,0.575714111328125,1.0,1.0,1.0,1.0,1.0,95.0,event
10:25:05.809,0.8782248,0.18608622,0.01341893,0.7826426,0.32237405,-0.52616966,-0.5543398,0.267194,0.63707304,-0.49400055,-0.056173198,0.8138466,0.74780047,-0.11456832,-0.01593712,0.54541326,0.3614583,-0.43608555,-0.101386905,0.23567468,768.3883,777.6557,813.91943,780.4762,822.7839,-0.0733642578125,-0.01080322265625,0.9888916015625,2.400054931640625,-4.007568359375,0.575714111328125,1.0,1.0,1.0,1.0,1.0,95.0,event
10:25:05.809,0.8782248,0.18608622,0.01341893,0.7826426,0.32237405,-0.52616966,-0.5543398,0.267194,0.63707304,-0.49400055,-0.056173198,0.8138466,0.74780047,-0.11456832,-0.01593712,0.54541326,0.3614583,-0.43608555,-0.101386905,0.23567468,767.1795,782.0879,814.7253,787.72894,788.5348,-0.0733642578125,-0.01080322265625,0.9888916015625,2.400054931640625,-4.007568359375,0.575714111328125,1.0,1.0,1.0,1.0,1.0,95.0,event
10:25:05.810,0.8782248,0.18608622,0.01341893,0.7826426,0.32237405,-0.52616966,-0.5543398,0.267194,0.63707304,-0.49400055,-0.056173198,0.8138466,0.74780047,-0.11456832,-0.01593712,0.54541326,0.3614583,-0.43608555,-0.101386905,0.23567468,782.8938,782.8938,813.5165,804.65204,868.71796,-0.0733642578125,-0.01080322265625,0.9888916015625,2.400054931640625,-4.007568359375,0.575714111328125,1.0,1.0,1.0,1.0,1.0,95.0,event
10:25:05.810,0.8782248,0.18608622,0.01341893,0.7826426,0.32237405,-0.52616966,-0.5543398,0.267194,0.63707304,-0.49400055,-0.056173198,0.8138466,0.74780047,-0.11456832,-0.01593712,0.54541326,0.3614583,-0.43608555,-0.101386905,0.23567468,799.41394,784.5055,805.4579,817.5458,928.7546,-0.0733642578125,-0.01080322265625,0.9888916015625,2.400054931640625,-4.007568359375,0.575714111328125,1.0,1.0,1.0,1.0,1.0,95.0,event
10:25:05.811,0.8782248,0.18608622,0.01341893,0.7826426,0.32237405,-0.52616966,-0.5543398,0.267194,0.63707304,-0.49400055,-0.056173198,0.8138466,0.74780047,-0.11456832,-0.01593712,0.54541326,0.3614583,-0.43608555,-0.101386905,0.23567468,805.05493,783.2967,806.6667,819.9634,850.18317,-0.0733642578125,-0.01080322265625,0.9888916015625,2.400054931640625,-4.007568359375,0.575714111328125,1.0,1.0,1.0,1.0,1.0,95.0,event
10:25:05.811,0.8782248,0.18608622,0.01341893,0.7826426,0.32237405,-0.52616966,-0.5543398,0.267194,0.63707304,-0.49400055,-0.056173198,0.8138466,0.74780047,-0.11456832,-0.01593712,0.54541326,0.3614583,-0.43608555,-0.101386905,0.23567468,791.75824,777.6557,809.0842,794.57874,704.3223,-0.0733642578125,-0.01080322265625,0.9888916015625,2.400054931640625,-4.007568359375,0.575714111328125,1.0,1.0,1.0,1.0,1.0,95.0,event
10:25:05.812,0.8782248,0.18608622,0.01341893,0.7826426,0.32237405,-0.52616966,-0.5543398,0.267194,0.63707304,-0.49400055,-0.056173198,0.8138466,0.74780047,-0.11456832,-0.01593712,0.54541326,0.3614583,-0.43608555,-0.101386905,0.23567468,776.4469,774.0293,811.0989,817.1429,873.1502,-0.0733642578125,-0.01080322265625,0.9888916015625,2.400054931640625,-4.007568359375,0.575714111328125,1.0,1.0,1.0,1.0,1.0,95.0,event
10:25:05.812,0.8782248,0.18608622,0.01341893,0.7826426,0.32237405,-0.52616966,-0.5543398,0.267194,0.63707304,-0.49400055,-0.056173198,0.8138466,0.74780047,-0.11456832,-0.01593712,0.54541326,0.3614583,-0.43608555,-0.101386905,0.23567468,771.2088,777.6557,808.2784,795.38464,649.92676,-0.0733642578125,-0.01080322265625,0.9888916015625,2.400054931640625,-4.007568359375,0.575714111328125,1.0,1.0,1.0,1.0,1.0,95.0,event
10:25:05.861,0.8782248,0.18608622,0.01341893,0.7826426,0.32237405,-0.52616966,-0.5543398,0.267194,0.63707304,-0.49400055,-0.056173198,0.8138466,0.74780047,-0.11456832,-0.01593712,0.54541326,0.3614583,-0.43608555,-0.101386905,0.23567468,778.0586,779.2674,813.1135,831.6484,1067.7656,-0.07391357421875,-0.01812744140625,0.98431396484375,2.175750732421875,-3.985137939453125,-0.291595458984375,1.0,1.0,1.0,1.0,1.0,95.0,event
10:25:05.862,0.91174227,0.14776063,-0.04695164,0.8808316,0.4381343,-0.45347956,-0.5967899,0.26279634,0.63707304,-0.47549793,-0.056173198,0.7428261,0.7924176,-0.098769695,-0.0011880097,0.5272147,0.3676545,-0.42780054,-0.09337062,0.25546363,776.4469,784.90845,810.293,825.6044,885.64105,-0.07391357421875,-0.01812744140625,0.98431396484375,2.175750732421875,-3.985137939453125,-0.291595458984375,1.0,1.0,1.0,1.0,1.0,95.0,event
10:25:05.865,0.91174227,0.14776063,-0.04695164,0.8808316,0.4381343,-0.45347956,-0.5967899,0.26279634,0.63707304,-0.47549793,-0.056173198,0.7428261,0.7924176,-0.098769695,-0.0011880097,0.5272147,0.3676545,-0.42780054,-0.09337062,0.25546363,784.10254,776.04395,806.26373,800.6227,750.2564,-0.07391357421875,-0.01812744140625,0.98431396484375,2.175750732421875,-3.985137939453125,-0.291595458984375,1.0,1.0,1.0,1.0,1.0,95.0,event
10:25:05.865,0.91174227,0.14776063,-0.04695164,0.8808316,0.4381343,-0.45347956,-0.5967899,0.26279634,0.63707304,-0.47549793,-0.056173198,0.7428261,0.7924176,-0.098769695,-0.0011880097,0.5272147,0.3676545,-0.42780054,-0.09337062,0.25546363,790.54944,777.6557,805.4579,791.75824,733.73627,-0.07391357421875,-0.01812744140625,0.98431396484375,2.175750732421875,-3.985137939453125,-0.291595458984375,1.0,1.0,1.0,1.0,1.0,95.0,event
10:25:05.866,0.91174227,0.14776063,-0.04695164,0.8808316,0.4381343,-0.45347956,-0.5967899,0.26279634,0.63707304,-0.47549793,-0.056173198,0.7428261,0.7924176,-0.098769695,-0.0011880097,0.5272147,0.3676545,-0.42780054,-0.09337062,0.25546363,795.78754,781.685,804.65204,806.6667,738.1685,-0.07391357421875,-0.01812744140625,0.98431396484375,2.175750732421875,-3.985137939453125,-0.291595458984375,1.0,1.0,1.0,1.0,1.0,95.0,event
10:25:05.866,0.91174227,0.14776063,-0.04695164,0.8808316,0.4381343,-0.45347956,-0.5967899,0.26279634,0.63707304,-0.47549793,-0.056173198,0.7428261,0.7924176,-0.098769695,-0.0011880097,0.5272147,0.3676545,-0.42780054,-0.09337062,0.25546363,794.9817,777.6557,802.6374,823.9927,859.45056,-0.07391357421875,-0.01812744140625,0.98431396484375,2.175750732421875,-3.985137939453125,-0.291595458984375,1.0,1.0,1.0,1.0,1.0,95.0,event
10:25:05.866,0.91174227,0.14776063,-0.04695164,0.8808316,0.4381343,-0.45347956,-0.5967899,0.26279634,0.63707304,-0.47549793,-0.056173198,0.7428261,0.7924176,-0.098769695,-0.0011880097,0.5272147,0.3676545,-0.42780054,-0.09337062,0.25546363,790.9524,772.8205,804.2491,828.4249,957.76556,-0.07391357421875,-0.01812744140625,0.98431396484375,2.175750732421875,-3.985137939453125,-0.291595458984375,1.0,1.0,1.0,1.0,1.0,95.0,event
10:25:05.867,0.91174227,0.14776063,-0.04695164,0.8808316,0.4381343,-0.45347956,-0.5967899,0.26279634,0.63707304,-0.47549793,-0.056173198,0.7428261,0.7924176,-0.098769695,-0.0011880097,0.5272147,0.3676545,-0.42780054,-0.09337062,0.25546363,796.1905,768.7912,801.8315,807.47253,1134.652,-0.07391357421875,-0.01812744140625,0.98431396484375,2.175750732421875,-3.985137939453125,-0.291595458984375,1.0,1.0,1.0,1.0,1.0,95.0,event
10:25:05.867,0.91174227,0.14776063,-0.04695164,0.8808316,0.4381343,-0.45347956,-0.5967899,0.26279634,0.63707304,-0.47549793,-0.056173198,0.7428261,0.7924176,-0.098769695,-0.0011880097,0.5272147,0.3676545,-0.42780054,-0.09337062,0.25546363,801.02563,780.4762,802.6374,785.31134,982.74725,-0.07391357421875,-0.01812744140625,0.98431396484375,2.175750732421875,-3.985137939453125,-0.291595458984375,1.0,1.0,1.0,1.0,1.0,95.0,event
10:25:05.867,0.91174227,0.14776063,-0.04695164,0.8808316,0.4381343,-0.45347956,-0.5967899,0.26279634,0.63707304,-0.47549793,-0.056173198,0.7428261,0.7924176,-0.098769695,-0.0011880097,0.5272147,0.3676545,-0.42780054,-0.09337062,0.25546363,807.0696,783.69965,810.696,800.6227,624.94507,-0.07391357421875,-0.01812744140625,0.98431396484375,2.175750732421875,-3.985137939453125,-0.291595458984375,1.0,1.0,1.0,1.0,1.0,95.0,event
10:25:05.868,0.91174227,0.14776063,-0.04695164,0.8808316,0.4381343,-0.45347956,-0.5967899,0.26279634,0.63707304,-0.47549793,-0.056173198,0.7428261,0.7924176,-0.098769695,-0.0011880097,0.5272147,0.3676545,-0.42780054,-0.09337062,0.25546363,803.0403,778.46155,811.50183,827.2161,733.73627,-0.07391357421875,-0.01812744140625,0.98431396484375,2.175750732421875,-3.985137939453125,-0.291595458984375,1.0,1.0,1.0,1.0,1.0,95.0,event
10:25:05.868,0.91174227,0.14776063,-0.04695164,0.8808316,0.4381343,-0.45347956,-0.5967899,0.26279634,0.63707304,-0.47549793,-0.056173198,0.7428261,0.7924176,-0.098769695,-0.0011880097,0.5272147,0.3676545,-0.42780054,-0.09337062,0.25546363,794.17584,779.2674,809.0842,826.4103,792.1612,-0.07391357421875,-0.01812744140625,0.98431396484375,2.175750732421875,-3.985137939453125,-0.291595458984375,1.0,1.0,1.0,1.0,1.0,95.0,event
10:25:05.955,0.91174227,0.14776063,-0.04695164,0.8808316,0.4381343,-0.45347956,-0.5967899,0.26279634,0.63707304,-0.47549793,-0.056173198,0.7428261,0.7924176,-0.098769695,-0.0011880097,0.5272147,0.3676545,-0.42780054,-0.09337062,0.25546363,787.326,778.86444,806.26373,802.6374,681.75824,-0.0712890625,-0.0111083984375,0.98822021484375,2.16827392578125,-3.4393310546875,0.28411865234375,1.0,1.0,1.0,1.0,1.0,95.0,event
10:25:05.956,0.91174227,0.14776063,-0.04695164,0.8808316,0.4381343,-0.45347956,-0.5967899,0.26279634,0.63707304,-0.47549793,-0.056173198,0.7428261,0.7924176,-0.098769695,-0.0011880097,0.5272147,0.3676545,-0.42780054,-0.09337062,0.25546363,790.54944,783.2967,804.2491,792.1612,643.8828,-0.0712890625,-0.0111083984375,0.98822021484375,2.16827392578125,-3.4393310546875,0.28411865234375,1.0,1.0,1.0,1.0,1.0,95.0,event
10:25:05.957,0.91174227,0.14776063,-0.04695164,0.8808316,0.4381343,-0.45347956,-0.5967899,0.26279634,0.63707304,-0.47549793,-0.056173198,0.7428261,0.7924176,-0.098769695,-0.0011880097,0.5272147,0.3676545,-0.42780054,-0.09337062,0.25546363,797.3993,782.8938,808.68134,819.5604,735.34796,-0.0712890625,-0.0111083984375,0.98822021484375,2.16827392578125,-3.4393310546875,0.28411865234375,1.0,1.0,1.0,1.0,1.0,95.0,event
10:25:05.957,0.91174227,0.14776063,-0.04695164,0.8808316,0.4381343,-0.45347956,-0.5967899,0.26279634,0.63707304,-0.47549793,-0.056173198,0.7428261,0.7924176,-0.098769695,-0.0011880097,0.5272147,0.3676545,-0.42780054,-0.09337062,0.25546363,790.54944,784.10254,805.8608,803.0403,714.3956,-0.0712890625,-0.0111083984375,0.98822021484375,2.16827392578125,-3.4393310546875,0.28411865234375,1.0,1.0,1.0,1.0,1.0,95.0,event
10:25:05.958,0.91174227,0.14776063,-0.04695164,0.8808316,0.4381343,-0.45347956,-0.5967899,0.26279634,0.63707304,-0.47549793,-0.056173198,0.7428261,0.7924176,-0.098769695,-0.0011880097,0.5272147,0.3676545,-0.42780054,-0.09337062,0.25546363,799.011,777.25275,809.4872,827.2161,749.85345,-0.0712890625,-0.0111083984375,0.98822021484375,2.16827392578125,-3.4393310546875,0.28411865234375,1.0,1.0,1.0,1.0,1.0,95.0,event
10:25:05.959,0.91174227,0.14776063,-0.04695164,0.8808316,0.4381343,-0.45347956,-0.5967899,0.26279634,0.63707304,-0.47549793,-0.056173198,0.7428261,0.7924176,-0.098769695,-0.0011880097,0.5272147,0.3676545,-0.42780054,-0.09337062,0.25546363,796.99634,776.04395,808.2784,786.9231,952.52747,-0.0712890625,-0.0111083984375,0.98822021484375,2.16827392578125,-3.4393310546875,0.28411865234375,1.0,1.0,1.0,1.0,1.0,95.0,event
10:25:05.959,0.91174227,0.14776063,-0.04695164,0.8808316,0.4381343,-0.45347956,-0.5967899,0.26279634,0.63707304,-0.47549793,-0.056173198,0.7428261,0.7924176,-0.098769695,-0.0011880097,0.5272147,0.3676545,-0.42780054,-0.09337062,0.25546363,792.96704,775.2381,811.50183,807.8755,799.41394,-0.0712890625,-0.0111083984375,0.98822021484375,2.16827392578125,-3.4393310546875,0.28411865234375,1.0,1.0,1.0,1.0,1.0,95.0,event
10:25:05.960,0.91174227,0.14776063,-0.04695164,0.8808316,0.4381343,-0.45347956,-0.5967899,0.26279634,0.63707304,-0.47549793,-0.056173198,0.7428261,0.7924176,-0.098769695,-0.0011880097,0.5272147,0.3676545,-0.42780054,-0.09337062,0.25546363,799.41394,784.90845,807.0696,796.1905,1059.3041,-0.0712890625,-0.0111083984375,0.98822021484375,2.16827392578125,-3.4393310546875,0.28411865234375,1.0,1.0,1.0,1.0,1.0,95.0,event
10:25:05.960,0.91174227,0.14776063,-0.04695164,0.8808316,0.4381343,-0.45347956,-0.5967899,0.26279634,0.63707304,-0.47549793,-0.056173198,0.7428261,0.7924176,-0.098769695,-0.0011880097,0.5272147,0.3676545,-0.42780054,-0.09337062,0.25546363,798.60803,788.5348,814.3223,819.9634,814.7253,-0.0712890625,-0.0111083984375,0.98822021484375,2.16827392578125,-3.4393310546875,0.28411865234375,1.0,1.0,1.0,1.0,1.0,95.0,event
10:25:05.961,0.91174227,0.14776063,-0.04695164,0.8808316,0.4381343,-0.45347956,-0.5967899,0.26279634,0.63707304,-0.47549793,-0.056173198,0.7428261,0.7924176,-0.098769695,-0.0011880097,0.5272147,0.3676545,-0.42780054,-0.09337062,0.25546363,790.14655,778.46155,813.5165,830.4396,727.6923,-0.0712890625,-0.0111083984375,0.98822021484375,2.16827392578125,-3.4393310546875,0.28411865234375,1.0,1.0,1.0,1.0,1.0,95.0,event
10:25:05.961,0.91174227,0.14776063,-0.04695164,0.8808316,0.4381343,-0.45347956,-0.5967899,0.26279634,0.63707304,-0.47549793,-0.056173198,0.7428261,0.7924176,-0.098769695,-0.0011880097,0.5272147,0.3676545,-0.42780054,-0.09337062,0.25546363,792.96704,781.685,808.2784,813.1135,832.0513,-0.0712890625,-0.0111083984375,0.98822021484375,2.16827392578125,-3.4393310546875,0.28411865234375,1.0,1.0,1.0,1.0,1.0,95.0,event
10:25:05.962,0.91174227,0.14776063,-0.04695164,0.8808316,0.4381343,-0.45347956,-0.5967899,0.26279634,0.63707304,-0.47549793,-0.056173198,0.7428261,0.7924176,-0.098769695,-0.0011880097,0.5272147,0.3676545,-0.42780054,-0.09337062,0.25546363,793.7729,783.2967,807.8755,792.1612,719.2308,-0.0712890625,-0.0111083984375,0.98822021484375,2.16827392578125,-3.4393310546875,0.28411865234375,1.0,1.0,1.0,1.0,1.0,95.0,event
10:25:05.991,0.91174227,0.14776063,-0.04695164,0.8808316,0.4381343,-0.45347956,-0.5967899,0.26279634,0.63707304,-0.47549793,-0.056173198,0.7428261,0.7924176,-0.098769695,-0.0011880097,0.5272147,0.3676545,-0.42780054,-0.09337062,0.25546363,790.9524,782.0879,810.696,799.41394,609.6337,-0.0791015625,-0.0179443359375,0.98333740234375,2.04864501953125,-3.0804443359375,0.6280517578125,1.0,1.0,1.0,1.0,1.0,95.0,event
10:25:05.992,0.91174227,0.14776063,-0.04695164,0.8808316,0.4381343,-0.45347956,-0.5967899,0.26279634,0.63707304,-0.47549793,-0.056173198,0.7428261,0.7924176,-0.098769695,-0.0011880097,0.5272147,0.3676545,-0.42780054,-0.09337062,0.25546363,814.7253,781.685,808.68134,815.12823,668.46155,-0.0791015625,-0.0179443359375,0.98333740234375,2.04864501953125,-3.0804443359375,0.6280517578125,1.0,1.0,1.0,1.0,1.0,95.0,event
10:25:05.993,0.94535106,0.096856534,-0.12581907,0.95249087,0.52426153,-0.39590845,-0.62768555,0.30014285,0.6573627,-0.45667866,-0.056173198,0.68550134,0.8266153,-0.08566955,0.009716914,0.51129097,0.37317285,-0.42879623,-0.08891064,0.27861145,788.5348,783.2967,809.89014,814.3223,816.7399,-0.0791015625,-0.0179443359375,0.98333740234375,2.04864501953125,-3.0804443359375,0.6280517578125,1.0,1.0,1.0,1.0,1.0,95.0,event
10:25:05.993,0.91174227,0.14776063,-0.04695164,0.8808316,0.4381343,-0.45347956,-0.5967899,0.26279634,0.63707304,-0.47549793,-0.056173198,0.7428261,0.7924176,-0.098769695,-0.0011880097,0.5272147,0.3676545,-0.42780054,-0.09337062,0.25546363,807.47253,781.28204,805.05493,820.7692,827.619,-0.0791015625,-0.0179443359375,0.98333740234375,2.04864501953125,-3.0804443359375,0.6280517578125,1.0,1.0,1.0,1.0,1.0,95.0,event
10:25:05.998,0.94535106,0.096856534,-0.12581907,0.95249087,0.52426153,-0.39590845,-0.62768555,0.30014285,0.6573627,-0.45667866,-0.056173198,0.68550134,0.8266153,-0.08566955,0.009716914,0.51129097,0.37317285,-0.42879623,-0.08891064,0.27861145,793.36993,782.8938,814.7253,800.6227,655.9707,-0.0791015625,-0.0179443359375,0.98333740234375,2.04864501953125,-3.0804443359375,0.6280517578125,1.0,1.0,1.0,1.0,1.0,95.0,event
10:25:05.998,0.94535106,0.096856534,-0.12581907,0.95249087,0.52426153,-0.39590845,-0.62768555,0.30014285,0.6573627,-0.45667866,-0.056173198,0.68550134,0.8266153,-0.08566955,0.009716914,0.51129097,0.37317285,-0.42879623,-0.08891064,0.27861145,791.75824,773.22345,814.3223,800.6227,716.8132,-0.0791015625,-0.0179443359375,0.98333740234375,2.04864501953125,-3.0804443359375,0.6280517578125,1.0,1.0,1.0,1.0,1.0,95.0,event
10:25:05.999,0.94535106,0.096856534,-0.12581907,0.95249087,0.52426153,-0.39590845,-0.62768555,0.30014285,0.6573627,-0.45667866,-0.056173198,0.68550134,0.8266153,-0.08566955,0.009716914,0.51129097,0.37317285,-0.42879623,-0.08891064,0.27861145,786.1172,772.01465,812.71063,813.91943,954.94507,-0.0791015625,-0.0179443359375,0.98333740234375,2.04864501953125,-3.0804443359375,0.6280517578125,1.0,1.0,1.0,1.0,1.0,95.0,event
10:25:05.999,0.94535106,0.096856534,-0.12581907,0.95249087,0.52426153,-0.39590845,-0.62768555,0.30014285,0.6573627,-0.45667866,-0.056173198,0.68550134,0.8266153,-0.08566955,0.009716914,0.51129097,0.37317285,-0.42879623,-0.08891064,0.27861145,788.5348,783.2967,810.293,832.0513,903.36993,-0.0791015625,-0.0179443359375,0.98333740234375,2.04864501953125,-3.0804443359375,0.6280517578125,1.0,1.0,1.0,1.0,1.0,95.0,event
10:25:06.000,0.94535106,0.096856534,-0.12581907,0.95249087,0.52426153,-0.39590845,-0.62768555,0.30014285,0.6573627,-0.45667866,-0.056173198,0.68550134,0.8266153,-0.08566955,0.009716914,0.51129097,0.37317285,-0.42879623,-0.08891064,0.27861145,786.9231,775.2381,807.0696,822.381,733.73627,-0.0791015625,-0.0179443359375,0.98333740234375,2.04864501953125,-3.0804443359375,0.6280517578125,1.0,1.0,1.0,1.0,1.0,95.0,event
10:25:06.001,0.94535106,0.096856534,-0.12581907,0.95249087,0.52426153,-0.39590845,-0.62768555,0.30014285,0.6573627,-0.45667866,-0.056173198,0.68550134,0.8266153,-0.08566955,0.009716914,0.51129097,0.37317285,-0.42879623,-0.08891064,0.27861145,783.2967,770.80585,806.6667,787.326,726.4835,-0.0791015625,-0.0179443359375,0.98333740234375,2.04864501953125,-3.0804443359375,0.6280517578125,1.0,1.0,1.0,1.0,1.0,95.0,event
10:25:06.001,0.94535106,0.096856534,-0.12581907,0.95249087,0.52426153,-0.39590845,-0.62768555,0.30014285,0.6573627,-0.45667866,-0.056173198,0.68550134,0.8266153,-0.08566955,0.009716914,0.51129097,0.37317285,-0.42879623,-0.08891064,0.27861145,780.07324,780.4762,803.0403,778.0586,709.15753,-0.0791015625,-0.0179443359375,0.98333740234375,2.04864501953125,-3.0804443359375,0.6280517578125,1.0,1.0,1.0,1.0,1.0,95.0,event
10:25:06.002,0.94535106,0.096856534,-0.12581907,0.95249087,0.52426153,-0.39590845,-0.62768555,0.30014285,0.6573627,-0.45667866,-0.056173198,0.68550134,0.8266153,-0.08566955,0.009716914,0.51129097,0.37317285,-0.42879623,-0.08891064,0.27861145,784.10254,785.7143,807.0696,794.9817,673.69965,-0.0791015625,-0.0179443359375,0.98333740234375,2.04864501953125,-3.0804443359375,0.6280517578125,1.0,1.0,1.0,1.0,1.0,95.0,event
10:25:06.026,0.94535106,0.096856534,-0.12581907,0.95249087,0.52426153,-0.39590845,-0.62768555,0.30014285,0.6573627,-0.45667866,-0.056173198,0.68550134,0.8266153,-0.08566955,0.009716914,0.51129097,0.37317285,-0.42879623,-0.08891064,0.27861145,799.81683,780.4762,808.68134,815.12823,726.08057,-0.0758056640625,-0.01580810546875,0.9849853515625,1.8841552734375,-3.775787353515625,-0.471038818359375,1.0,1.0,1.0,1.0,1.0,95.0,event
10:25:06.027,0.94535106,0.096856534,-0.12581907,0.95249087,0.52426153,-0.39590845,-0.62768555,0.30014285,0.6573627,-0.45667866,-0.056173198,0.68550134,0.8266153,-0.08566955,0.009716914,0.51129097,0.37317285,-0.42879623,-0.08891064,0.27861145,795.78754,774.83514,804.2491,812.3077,886.04395,-0.0758056640625,-0.01580810546875,0.9849853515625,1.8841552734375,-3.775787353515625,-0.471038818359375,1.0,1.0,1.0,1.0,1.0,95.0,event
10:25:06.028,0.94535106,0.096856534,-0.12581907,0.95249087,0.52426153,-0.39590845,-0.62768555,0.30014285,0.6573627,-0.45667866,-0.056173198,0.68550134,0.8266153,-0.08566955,0.009716914,0.51129097,0.37317285,-0.42879623,-0.08891064,0.27861145,784.5055,780.87915,805.8608,784.90845,902.1612,-0.0758056640625,-0.01580810546875,0.9849853515625,1.8841552734375,-3.775787353515625,-0.471038818359375,1.0,1.0,1.0,1.0,1.0,95.0,event
10:25:06.029,0.94535106,0.096856534,-0.12581907,0.95249087,0.52426153,-0.39590845,-0.62768555,0.30014285,0.6573627,-0.45667866,-0.056173198,0.68550134,0.8266153,-0.08566955,0.009716914,0.51129097,0.37317285,-0.42879623,-0.08891064,0.27861145,788.5348,784.90845,805.4579,784.10254,764.35895,-0.0758056640625,-0.01580810546875,0.9849853515625,1.8841552734375,-3.775787353515625,-0.471038818359375,1.0,1.0,1.0,1.0,1.0,95.0,event
10:25:06.030,0.94535106,0.096856534,-0.12581907,0.95249087,0.52426153,-0.39590845,-0.62768555,0.30014285,0.6573627,-0.45667866,-0.056173198,0.68550134,0.8266153,-0.08566955,0.009716914,0.51129097,0.37317285,-0.42879623,-0.08891064,0.27861145,792.5641,779.67035,802.6374,800.2198,716.0073,-0.0758056640625,-0.01580810546875,0.9849853515625,1.8841552734375,-3.775787353515625,-0.471038818359375,1.0,1.0,1.0,1.0,1.0,95.0,event
10:25:06.031,0.94535106,0.096856534,-0.12581907,0.95249087,0.52426153,-0.39590845,-0.62768555,0.30014285,0.6573627,-0.45667866,-0.056173198,0.68550134,0.8266153,-0.08566955,0.009716914,0.51129097,0.37317285,-0.42879623,-0.08891064,0.27861145,790.54944,776.8498,804.65204,817.1429,946.8865,-0.0758056640625,-0.01580810546875,0.9849853515625,1.8841552734375,-3.775787353515625,-0.471038818359375,1.0,1.0,1.0,1.0,1.0,95.0,event
10:25:06.032,0.94535106,0.096856534,-0.12581907,0.95249087,0.52426153,-0.39590845,-0.62768555,0.30014285,0.6573627,-0.45667866,-0.056173198,0.68550134,0.8266153,-0.08566955,0.009716914,0.51129097,0.37317285,-0.42879623,-0.08891064,0.27861145,795.38464,780.07324,807.0696,822.7839,992.4176,-0.0758056640625,-0.01580810546875,0.9849853515625,1.8841552734375,-3.775787353515625,-0.471038818359375,1.0,1.0,1.0,1.0,1.0,95.0,event
10:25:06.033,0.94535106,0.096856534,-0.12581907,0.95249087,0.52426153,-0.39590845,-0.62768555,0.30014285,0.6573627,-0.45667866,-0.056173198,0.68550134,0.8266153,-0.08566955,0.009716914,0.51129097,0.37317285,-0.42879623,-0.08891064,0.27861145,780.07324,779.2674,807.0696,774.0293,665.64105,-0.0758056640625,-0.01580810546875,0.9849853515625,1.8841552734375,-3.775787353515625,-0.471038818359375,1.0,1.0,1.0,1.0,1.0,95.0,event
10:25:06.033,0.94535106,0.096856534,-0.12581907,0.95249087,0.52426153,-0.39590845,-0.62768555,0.30014285,0.6573627,-0.45667866,-0.056173198,0.68550134,0.8266153,-0.08566955,0.009716914,0.51129097,0.37317285,-0.42879623,-0.08891064,0.27861145,788.93774,781.685,809.4872,794.17584,732.52747,-0.0758056640625,-0.01580810546875,0.9849853515625,1.8841552734375,-3.775787353515625,-0.471038818359375,1.0,1.0,1.0,1.0,1.0,95.0,event
10:25:06.034,0.94535106,0.096856534,-0.12581907,0.95249087,0.52426153,-0.39590845,-0.62768555,0.30014285,0.6573627,-0.45667866,-0.056173198,0.68550134,0.8266153,-0.08566955,0.009716914,0.51129097,0.37317285,-0.42879623,-0.08891064,0.27861145,780.07324,781.28204,804.65204,792.5641,862.27106,-0.0758056640625,-0.01580810546875,0.9849853515625,1.8841552734375,-3.775787353515625,-0.471038818359375,1.0,1.0,1.0,1.0,1.0,95.0,event
10:25:06.034,0.94535106,0.096856534,-0.12581907,0.95249087,0.52426153,-0.39590845,-0.62768555,0.30014285,0.6573627,-0.45667866,-0.056173198,0.68550134,0.8266153,-0.08566955,0.009716914,0.51129097,0.37317285,-0.42879623,-0.08891064,0.27861145,786.52014,786.9231,804.65204,808.2784,886.8498,-0.0758056640625,-0.01580810546875,0.9849853515625,1.8841552734375,-3.775787353515625,-0.471038818359375,1.0,1.0,1.0,1.0,1.0,95.0,event
10:25:06.035,0.94535106,0.096856534,-0.12581907,0.95249087,0.52426153,-0.39590845,-0.62768555,0.30014285,0.6573627,-0.45667866,-0.056173198,0.68550134,0.8266153,-0.08566955,0.009716914,0.51129097,0.37317285,-0.42879623,-0.08891064,0.27861145,782.8938,781.28204,804.2491,806.6667,731.31866,-0.0758056640625,-0.01580810546875,0.9849853515625,1.8841552734375,-3.775787353515625,-0.471038818359375,1.0,1.0,1.0,1.0,1.0,95.0,event
10:25:06.069,0.94535106,0.096856534,-0.12581907,0.95249087,0.52426153,-0.39590845,-0.62768555,0.30014285,0.6573627,-0.45667866,-0.056173198,0.68550134,0.8266153,-0.08566955,0.009716914,0.51129097,0.37317285,-0.42879623,-0.08891064,0.27861145,778.86444,777.25275,806.26373,786.9231,740.989,-0.0758056640625,-0.01580810546875,0.9849853515625,1.8841552734375,-3.775787353515625,-0.471038818359375,1.0,1.0,1.0,1.0,1.0,95.0,event
10:25:06.070,0.94535106,0.096856534,-0.12581907,0.95249087,0.52426153,-0.39590845,-0.62768555,0.30014285,0.6573627,-0.45667866,-0.056173198,0.68550134,0.8266153,-0.08566955,0.009716914,0.51129097,0.37317285,-0.42879623,-0.08891064,0.27861145,773.6264,780.07324,802.6374,772.8205,718.8278,-0.0758056640625,-0.01580810546875,0.9849853515625,1.8841552734375,-3.775787353515625,-0.471038818359375,1.0,1.0,1.0,1.0,1.0,95.0,event
10:25:06.071,0.94535106,0.096856534,-0.12581907,0.95249087,0.52426153,-0.39590845,-0.62768555,0.30014285,0.6573627,-0.45667866,-0.056173198,0.68550134,0.8266153,-0.08566955,0.009716914,0.51129097,0.37317285,-0.42879623,-0.08891064,0.27861145,774.0293,781.28204,799.41394,784.5055,703.91943,-0.0758056640625,-0.01580810546875,0.9849853515625,1.8841552734375,-3.775787353515625,-0.471038818359375,1.0,1.0,1.0,1.0,1.0,95.0,event
10:25:06.072,0.94535106,0.096856534,-0.12581907,0.95249087,0.52426153,-0.39590845,-0.62768555,0.30014285,0.6573627,-0.45667866,-0.056173198,0.68550134,0.8266153,-0.08566955,0.009716914,0.51129097,0.37317285,-0.42879623,-0.08891064,0.27861145,782.0879,779.2674,803.44324,806.6667,729.707,-0.0758056640625,-0.01580810546875,0.9849853515625,1.8841552734375,-3.775787353515625,-0.471038818359375,1.0,1.0,1.0,1.0,1.0,95.0,event
10:25:06.073,0.94535106,0.096856534,-0.12581907,0.95249087,0.52426153,-0.39590845,-0.62768555,0.30014285,0.6573627,-0.45667866,-0.056173198,0.68550134,0.8266153,-0.08566955,0.009716914,0.51129097,0.37317285,-0.42879623,-0.08891064,0.27861145,782.0879,776.04395,809.89014,817.9487,818.3516,-0.0758056640625,-0.01580810546875,0.9849853515625,1.8841552734375,-3.775787353515625,-0.471038818359375,1.0,1.0,1.0,1.0,1.0,95.0,event
10:25:06.073,0.9674773,0.04557647,-0.20623775,0.9907951,0.57248086,-0.35386404,-0.64234334,0.36040473,0.6889148,-0.45124835,-0.056173198,0.66896963,0.84694034,-0.072361365,0.015721388,0.503956,0.38411468,-0.4402423,-0.086705156,0.298995,801.02563,775.2381,811.9048,796.5934,1019.41394,-0.0758056640625,-0.01580810546875,0.9849853515625,1.8841552734375,-3.775787353515625,-0.471038818359375,1.0,1.0,1.0,1.0,1.0,95.0,event
10:25:06.077,0.9674773,0.04557647,-0.20623775,0.9907951,0.57248086,-0.35386404,-0.64234334,0.36040473,0.6889148,-0.45124835,-0.056173198,0.66896963,0.84694034,-0.072361365,0.015721388,0.503956,0.38411468,-0.4402423,-0.086705156,0.298995,795.78754,785.7143,814.3223,780.87915,933.9927,-0.0758056640625,-0.01580810546875,0.9849853515625,1.8841552734375,-3.775787353515625,-0.471038818359375,1.0,1.0,1.0,1.0,1.0,95.0,event
10:25:06.078,0.9674773,0.04557647,-0.20623775,0.9907951,0.57248086,-0.35386404,-0.64234334,0.36040473,0.6889148,-0.45124835,-0.056173198,0.66896963,0.84694034,-0.072361365,0.015721388,0.503956,0.38411468,-0.4402423,-0.086705156,0.298995,766.77655,790.14655,815.12823,790.9524,714.3956,-0.0758056640625,-0.01580810546875,0.9849853515625,1.8841552734375,-3.775787353515625,-0.471038818359375,1.0,1.0,1.0,1.0,1.0,95.0,event
10:25:06.079,0.9674773,0.04557647,-0.20623775,0.9907951,0.57248086,-0.35386404,-0.64234334,0.36040473,0.6889148,-0.45124835,-0.056173198,0.66896963,0.84694034,-0.072361365,0.015721388,0.503956,0.38411468,-0.4402423,-0.086705156,0.298995,769.59705,775.2381,809.0842,805.05493,780.07324,-0.0758056640625,-0.01580810546875,0.9849853515625,1.8841552734375,-3.775787353515625,-0.471038818359375,1.0,1.0,1.0,1.0,1.0,95.0,event
10:25:06.079,0.9674773,0.04557647,-0.20623775,0.9907951,0.57248086,-0.35386404,-0.64234334,0.36040473,0.6889148,-0.45124835,-0.056173198,0.66896963,0.84694034,-0.072361365,0.015721388,0.503956,0.38411468,-0.4402423,-0.086705156,0.298995,777.25275,774.83514,807.8755,815.12823,880.40295,-0.0758056640625,-0.01580810546875,0.9849853515625,1.8841552734375,-3.775787353515625,-0.471038818359375,1.0,1.0,1.0,1.0,1.0,95.0,event
10:25:06.080,0.9674773,0.04557647,-0.20623775,0.9907951,0.57248086,-0.35386404,-0.64234334,0.36040473,0.6889148,-0.45124835,-0.056173198,0.66896963,0.84694034,-0.072361365,0.015721388,0.503956,0.38411468,-0.4402423,-0.086705156,0.298995,772.01465,779.67035,810.293,795.78754,761.53845,-0.0758056640625,-0.01580810546875,0.9849853515625,1.8841552734375,-3.775787353515625,-0.471038818359375,1.0,1.0,1.0,1.0,1.0,95.0,event
10:25:06.080,0.9674773,0.04557647,-0.20623775,0.9907951,0.57248086,-0.35386404,-0.64234334,0.36040473,0.6889148,-0.45124835,-0.056173198,0.66896963,0.84694034,-0.072361365,0.015721388,0.503956,0.38411468,-0.4402423,-0.086705156,0.298995,767.5824,771.2088,807.47253,772.8205,680.54944,-0.0758056640625,-0.01580810546875,0.9849853515625,1.8841552734375,-3.775787353515625,-0.471038818359375,1.0,1.0,1.0,1.0,1.0,95.0,event
10:25:06.114,0.9674773,0.04557647,-0.20623775,0.9907951,0.57248086,-0.35386404,-0.64234334,0.36040473,0.6889148,-0.45124835,-0.056173198,0.66896963,0.84694034,-0.072361365,0.015721388,0.503956,0.38411468,-0.4402423,-0.086705156,0.298995,773.6264,778.46155,805.4579,781.28204,714.7985,-0.07269287109375,-0.01483154296875,0.98590087890625,1.95892333984375,-3.730926513671875,0.186920166015625,1.0,1.0,1.0,1.0,1.0,95.0,event
10:25:06.115,0.9674773,0.04557647,-0.20623775,0.9907951,0.57248086,-0.35386404,-0.64234334,0.36040473,0.6889148,-0.45124835,-0.056173198,0.66896963,0.84694034,-0.072361365,0.015721388,0.503956,0.38411468,-0.4402423,-0.086705156,0.298995,781.28204,786.1172,808.68134,801.8315,776.4469,-0.07269287109375,-0.01483154296875,0.98590087890625,1.95892333984375,-3.730926513671875,0.186920166015625,1.0,1.0,1.0,1.0,1.0,95.0,event
10:25:06.116,0.9674773,0.04557647,-0.20623775,0.9907951,0.57248086,-0.35386404,-0.64234334,0.36040473,0.6889148,-0.45124835,-0.056173198,0.66896963,0.84694034,-0.072361365,0.015721388,0.503956,0.38411468,-0.4402423,-0.086705156,0.298995,781.28204,774.43225,809.4872,804.2491,722.4542,-0.07269287109375,-0.01483154296875,0.98590087890625,1.95892333984375,-3.730926513671875,0.186920166015625,1.0,1.0,1.0,1.0,1.0,95.0,event
10:25:06.116,0.9674773,0.04557647,-0.20623775,0.9907951,0.57248086,-0.35386404,-0.64234334,0.36040473,0.6889148,-0.45124835,-0.056173198,0.66896963,0.84694034,-0.072361365,0.015721388,0.503956,0.38411468,-0.4402423,-0.086705156,0.298995,784.10254,779.67035,812.71063,815.5311,763.5531,-0.07269287109375,-0.01483154296875,0.98590087890625,1.95892333984375,-3.730926513671875,0.186920166015625,1.0,1.0,1.0,1.0,1.0,95.0,event
10:25:06.117,0.9674773,0.04557647,-0.20623775,0.9907951,0.57248086,-0.35386404,-0.64234334,0.36040473,0.6889148,-0.45124835,-0.056173198,0.66896963,0.84694034,-0.072361365,0.015721388,0.503956,0.38411468,-0.4402423,-0.086705156,0.298995,782.0879,774.83514,804.2491,786.1172,732.9304,-0.07269287109375,-0.01483154296875,0.98590087890625,1.95892333984375,-3.730926513671875,0.186920166015625,1.0,1.0,1.0,1.0,1.0,95.0,event
10:25:06.117,0.9674773,0.04557647,-0.20623775,0.9907951,0.57248086,-0.35386404,-0.64234334,0.36040473,0.6889148,-0.45124835,-0.056173198,0.66896963,0.84694034,-0.072361365,0.015721388,0.503956,0.38411468,-0.4402423,-0.086705156,0.298995,791.3553,776.8498,801.4286,803.8461,767.1795,-0.07269287109375,-0.01483154296875,0.98590087890625,1.95892333984375,-3.730926513671875,0.186920166015625,1.0,1.0,1.0,1.0,1.0,95.0,event
10:25:06.118,0.9674773,0.04557647,-0.20623775,0.9907951,0.57248086,-0.35386404,-0.64234334,0.36040473,0.6889148,-0.45124835,-0.056173198,0.66896963,0.84694034,-0.072361365,0.015721388,0.503956,0.38411468,-0.4402423,-0.086705156,0.298995,791.3553,778.0586,800.6227,821.978,868.315,-0.07269287109375,-0.01483154296875,0.98590087890625,1.95892333984375,-3.730926513671875,0.186920166015625,1.0,1.0,1.0,1.0,1.0,95.0,event
10:25:06.118,0.9674773,0.04557647,-0.20623775,0.9907951,0.57248086,-0.35386404,-0.64234334,0.36040473,0.6889148,-0.45124835,-0.056173198,0.66896963,0.84694034,-0.072361365,0.015721388,0.503956,0.38411468,-0.4402423,-0.086705156,0.298995,792.96704,780.07324,803.0403,827.2161,918.2784,-0.07269287109375,-0.01483154296875,0.98590087890625,1.95892333984375,-3.730926513671875,0.186920166015625,1.0,1.0,1.0,1.0,1.0,95.0,event
10:25:06.119,0.9674773,0.04557647,-0.20623775,0.9907951,0.57248086,-0.35386404,-0.64234334,0.36040473,0.6889148,-0.45124835,-0.056173198,0.66896963,0.84694034,-0.072361365,0.015721388,0.503956,0.38411468,-0.4402423,-0.086705156,0.298995,805.8608,777.6557,809.89014,809.0842,1011.3553,-0.07269287109375,-0.01483154296875,0.98590087890625,1.95892333984375,-3.730926513671875,0.186920166015625,1.0,1.0,1.0,1.0,1.0,95.0,event
10:25:06.119,0.9674773,0.04557647,-0.20623775,0.9907951,0.57248086,-0.35386404,-0.64234334,0.36040473,0.6889148,-0.45124835,-0.056173198,0.66896963,0.84694034,-0.072361365,0.015721388,0.503956,0.38411468,-0.4402423,-0.086705156,0.298995,794.17584,784.5055,815.5311,777.6557,1080.2565,-0.07269287109375,-0.01483154296875,0.98590087890625,1.95892333984375,-3.730926513671875,0.186920166015625,1.0,1.0,1.0,1.0,1.0,95.0,event
