TimeStamp,Delta_TP9,Delta_AF7,Delta_AF8,Delta_TP10,Theta_TP9,Theta_AF7,Theta_AF8,Theta_TP10,Alpha_TP9,Alpha_AF7,Alpha_AF8,Alpha_TP10,Beta_TP9,Beta_AF7,Beta_AF8,Beta_TP10,Gamma_TP9,Gamma_AF7,Gamma_AF8,Gamma_TP10,RAW_TP9,RAW_AF7,RAW_AF8,RAW_TP10,AUX_RIGHT,Accelerometer_X,Accelerometer_Y,Accelerometer_Z,Gyro_X,Gyro_Y,Gyro_Z,HeadBandOn,HSI_TP9,HSI_AF7,HSI_AF8,HSI_TP10,Battery,Elements
12:22:25.984,0.7754663,-0.5014699,-0.5109859,1.0136182,0.47129223,-0.42218423,-0.45511466,0.47981873,0.44261116,-0.28482863,-0.18155974,0.6251764,0.4462279,-0.29445723,-0.37968516,0.5500383,0.3247215,-0.5567734,-0.65734786,0.14287424,867.1062,807.8755,807.47253,838.9011,700.293,-0.1572265625,-0.0169677734375,0.982177734375,1.742095947265625,-2.8411865234375,1.2261962890625,1.0,1.0,1.0,1.0,1.0,100.0,event
12:22:25.985,0.7754663,-0.5014699,-0.5109859,1.0136182,0.47129223,-0.42218423,-0.45511466,0.47981873,0.44261116,-0.28482863,-0.18155974,0.6251764,0.4462279,-0.29445723,-0.37968516,0.5500383,0.3247215,-0.5567734,-0.65734786,0.14287424,847.3626,808.68134,806.26373,823.9927,655.16486,-0.1572265625,-0.0169677734375,0.982177734375,1.742095947265625,-2.8411865234375,1.2261962890625,1.0,1.0,1.0,1.0,1.0,100.0,event
12:22:25.986,0.7754663,-0.5014699,-0.5109859,1.0136182,0.47129223,-0.42218423,-0.45511466,0.47981873,0.44261116,-0.28482863,-0.18155974,0.6251764,0.4462279,-0.29445723,-0.37968516,0.5500383,0.3247215,-0.5567734,-0.65734786,0.14287424,845.34796,811.9048,803.8461,829.6337,731.7216,-0.1572265625,-0.0169677734375,0.982177734375,1.742095947265625,-2.8411865234375,1.2261962890625,1.0,1.0,1.0,1.0,1.0,100.0,event
12:22:25.987,0.7754663,-0.5014699,-0.5109859,1.0136182,0.47129223,-0.42218423,-0.45511466,0.47981873,0.44261116,-0.28482863,-0.18155974,0.6251764,0.4462279,-0.29445723,-0.37968516,0.5500383,0.3247215,-0.5567734,-0.65734786,0.14287424,865.09155,811.0989,807.47253,850.58606,747.8388,-0.1572265625,-0.0169677734375,0.982177734375,1.742095947265625,-2.8411865234375,1.2261962890625,1.0,1.0,1.0,1.0,1.0,100.0,event
12:22:25.988,0.7754663,-0.5014699,-0.5109859,1.0136182,0.47129223,-0.42218423,-0.45511466,0.47981873,0.44261116,-0.28482863,-0.18155974,0.6251764,0.4462279,-0.29445723,-0.37968516,0.5500383,0.3247215,-0.5567734,-0.65734786,0.14287424,863.8828,806.26373,807.47253,850.58606,837.6923,-0.1572265625,-0.0169677734375,0.982177734375,1.742095947265625,-2.8411865234375,1.2261962890625,1.0,1.0,1.0,1.0,1.0,100.0,event
12:22:25.988,0.7754663,-0.5014699,-0.5109859,1.0136182,0.47129223,-0.42218423,-0.45511466,0.47981873,0.44261116,-0.28482863,-0.18155974,0.6251764,0.4462279,-0.29445723,-0.37968516,0.5500383,0.3247215,-0.5567734,-0.65734786,0.14287424,881.2088,805.4579,808.68134,861.06226,731.7216,-0.1572265625,-0.0169677734375,0.982177734375,1.742095947265625,-2.8411865234375,1.2261962890625,1.0,1.0,1.0,1.0,1.0,100.0,event
12:22:25.989,0.7754663,-0.5014699,-0.5109859,1.0136182,0.47129223,-0.42218423,-0.45511466,0.47981873,0.44261116,-0.28482863,-0.18155974,0.6251764,0.4462279,-0.29445723,-0.37968516,0.5500383,0.3247215,-0.5567734,-0.65734786,0.14287424,848.1685,810.696,806.26373,844.94507,1066.9597,-0.1572265625,-0.0169677734375,0.982177734375,1.742095947265625,-2.8411865234375,1.2261962890625,1.0,1.0,1.0,1.0,1.0,100.0,event
12:22:25.990,0.7754663,-0.50674564,-0.49759716,1.0136182,0.47129223,-0.41185465,-0.47792876,0.47981873,0.44261116,-0.28360716,-0.19677918,0.6251764,0.4462279,-0.28220305,-0.36113822,0.5500383,0.3247215,-0.5636766,-0.63887197,0.14287424,848.5714,809.89014,804.65204,845.7509,1116.5201,-0.1572265625,-0.0169677734375,0.982177734375,1.742095947265625,-2.8411865234375,1.2261962890625,1.0,1.0,1.0,1.0,1.0,100.0,event
12:22:25.995,0.7754663,-0.50674564,-0.49759716,1.0136182,0.47129223,-0.41185465,-0.47792876,0.47981873,0.44261116,-0.28360716,-0.19677918,0.6251764,0.4462279,-0.28220305,-0.36113822,0.5500383,0.3247215,-0.5636766,-0.63887197,0.14287424,861.06226,809.4872,803.44324,844.1392,765.9707,-0.1572265625,-0.0169677734375,0.982177734375,1.742095947265625,-2.8411865234375,1.2261962890625,1.0,1.0,1.0,1.0,1.0,100.0,event
12:22:25.996,0.7754663,-0.50674564,-0.49759716,1.0136182,0.47129223,-0.41185465,-0.47792876,0.47981873,0.44261116,-0.28360716,-0.19677918,0.6251764,0.4462279,-0.28220305,-0.36113822,0.5500383,0.3247215,-0.5636766,-0.63887197,0.14287424,888.86444,811.50183,802.6374,872.3443,671.28204,-0.1572265625,-0.0169677734375,0.982177734375,1.742095947265625,-2.8411865234375,1.2261962890625,1.0,1.0,1.0,1.0,1.0,100.0,event
12:22:25.996,0.7754663,-0.50674564,-0.49759716,1.0136182,0.47129223,-0.41185465,-0.47792876,0.47981873,0.44261116,-0.28360716,-0.19677918,0.6251764,0.4462279,-0.28220305,-0.36113822,0.5500383,0.3247215,-0.5636766,-0.63887197,0.14287424,884.43225,813.91943,807.8755,867.50916,819.15753,-0.1572265625,-0.0169677734375,0.982177734375,1.742095947265625,-2.8411865234375,1.2261962890625,1.0,1.0,1.0,1.0,1.0,100.0,event
12:22:25.997,0.7754663,-0.50674564,-0.49759716,1.0136182,0.47129223,-0.41185465,-0.47792876,0.47981873,0.44261116,-0.28360716,-0.19677918,0.6251764,0.4462279,-0.28220305,-0.36113822,0.5500383,0.3247215,-0.5636766,-0.63887197,0.14287424,858.6447,813.91943,810.293,832.8571,858.24176,-0.1572265625,-0.0169677734375,0.982177734375,1.742095947265625,-2.8411865234375,1.2261962890625,1.0,1.0,1.0,1.0,1.0,100.0,event
12:22:26.022,0.7754663,-0.50674564,-0.49759716,1.0136182,0.47129223,-0.41185465,-0.47792876,0.47981873,0.44261116,-0.28360716,-0.19677918,0.6251764,0.4462279,-0.28220305,-0.36113822,0.5500383,0.3247215,-0.5636766,-0.63887197,0.14287424,850.58606,813.1135,807.47253,808.2784,761.13556,-0.1689453125,-0.01629638671875,0.9686279296875,1.667327880859375,-2.699127197265625,0.059814453125,1.0,1.0,1.0,1.0,1.0,100.0,event
12:22:26.023,0.7754663,-0.50674564,-0.49759716,1.0136182,0.47129223,-0.41185465,-0.47792876,0.47981873,0.44261116,-0.28360716,-0.19677918,0.6251764,0.4462279,-0.28220305,-0.36113822,0.5500383,0.3247215,-0.5636766,-0.63887197,0.14287424,856.2271,810.696,804.65204,830.0366,728.9011,-0.1689453125,-0.01629638671875,0.9686279296875,1.667327880859375,-2.699127197265625,0.059814453125,1.0,1.0,1.0,1.0,1.0,100.0,event
12:22:26.024,0.7754663,-0.50674564,-0.49759716,1.0136182,0.47129223,-0.41185465,-0.47792876,0.47981873,0.44261116,-0.28360716,-0.19677918,0.6251764,0.4462279,-0.28220305,-0.36113822,0.5500383,0.3247215,-0.5636766,-0.63887197,0.14287424,873.95605,813.1135,808.2784,859.85345,836.08057,-0.1689453125,-0.01629638671875,0.9686279296875,1.667327880859375,-2.699127197265625,0.059814453125,1.0,1.0,1.0,1.0,1.0,100.0,event
12:22:26.025,0.7754663,-0.50674564,-0.49759716,1.0136182,0.47129223,-0.41185465,-0.47792876,0.47981873,0.44261116,-0.28360716,-0.19677918,0.6251764,0.4462279,-0.28220305,-0.36113822,0.5500383,0.3247215,-0.5636766,-0.63887197,0.14287424,893.2967,819.15753,811.0989,850.18317,769.19415,-0.1689453125,-0.01629638671875,0.9686279296875,1.667327880859375,-2.699127197265625,0.059814453125,1.0,1.0,1.0,1.0,1.0,100.0,event
12:22:26.026,0.7754663,-0.50674564,-0.49759716,1.0136182,0.47129223,-0.41185465,-0.47792876,0.47981873,0.44261116,-0.28360716,-0.19677918,0.6251764,0.4462279,-0.28220305,-0.36113822,0.5500383,0.3247215,-0.5636766,-0.63887197,0.14287424,888.86444,822.7839,809.4872,842.1245,667.25275,-0.1689453125,-0.01629638671875,0.9686279296875,1.667327880859375,-2.699127197265625,0.059814453125,1.0,1.0,1.0,1.0,1.0,100.0,event
12:22:26.027,0.7754663,-0.50674564,-0.49759716,1.0136182,0.47129223,-0.41185465,-0.47792876,0.47981873,0.44261116,-0.28360716,-0.19677918,0.6251764,0.4462279,-0.28220305,-0.36113822,0.5500383,0.3247215,-0.5636766,-0.63887197,0.14287424,856.63007,818.3516,806.26373,816.7399,815.5311,-0.1689453125,-0.01629638671875,0.9686279296875,1.667327880859375,-2.699127197265625,0.059814453125,1.0,1.0,1.0,1.0,1.0,100.0,event
12:22:26.028,0.7754663,-0.50674564,-0.49759716,1.0136182,0.47129223,-0.41185465,-0.47792876,0.47981873,0.44261116,-0.28360716,-0.19677918,0.6251764,0.4462279,-0.28220305,-0.36113822,0.5500383,0.3247215,-0.5636766,-0.63887197,0.14287424,854.61536,813.91943,806.26373,818.7546,958.97437,-0.1689453125,-0.01629638671875,0.9686279296875,1.667327880859375,-2.699127197265625,0.059814453125,1.0,1.0,1.0,1.0,1.0,100.0,event
12:22:26.029,0.7754663,-0.50674564,-0.49759716,1.0136182,0.47129223,-0.41185465,-0.47792876,0.47981873,0.44261116,-0.28360716,-0.19677918,0.6251764,0.4462279,-0.28220305,-0.36113822,0.5500383,0.3247215,-0.5636766,-0.63887197,0.14287424,882.8205,817.5458,809.4872,847.76556,811.9048,-0.1689453125,-0.01629638671875,0.9686279296875,1.667327880859375,-2.699127197265625,0.059814453125,1.0,1.0,1.0,1.0,1.0,100.0,event
12:22:26.030,0.7754663,-0.50674564,-0.49759716,1.0136182,0.47129223,-0.41185465,-0.47792876,0.47981873,0.44261116,-0.28360716,-0.19677918,0.6251764,0.4462279,-0.28220305,-0.36113822,0.5500383,0.3247215,-0.5636766,-0.63887197,0.14287424,888.0586,813.5165,808.2784,848.1685,704.7253,-0.1689453125,-0.01629638671875,0.9686279296875,1.667327880859375,-2.699127197265625,0.059814453125,1.0,1.0,1.0,1.0,1.0,100.0,event
12:22:26.030,0.7754663,-0.50674564,-0.49759716,1.0136182,0.47129223,-0.41185465,-0.47792876,0.47981873,0.44261116,-0.28360716,-0.19677918,0.6251764,0.4462279,-0.28220305,-0.36113822,0.5500383,0.3247215,-0.5636766,-0.63887197,0.14287424,863.0769,811.9048,809.89014,815.12823,782.0879,-0.1689453125,-0.01629638671875,0.9686279296875,1.667327880859375,-2.699127197265625,0.059814453125,1.0,1.0,1.0,1.0,1.0,100.0,event
12:22:26.031,0.7754663,-0.50674564,-0.49759716,1.0136182,0.47129223,-0.41185465,-0.47792876,0.47981873,0.44261116,-0.28360716,-0.19677918,0.6251764,0.4462279,-0.28220305,-0.36113822,0.5500383,0.3247215,-0.5636766,-0.63887197,0.14287424,848.5714,811.9048,808.2784,800.2198,774.0293,-0.1689453125,-0.01629638671875,0.9686279296875,1.667327880859375,-2.699127197265625,0.059814453125,1.0,1.0,1.0,1.0,1.0,100.0,event
12:22:26.032,0.7754663,-0.50674564,-0.49759716,1.0136182,0.47129223,-0.41185465,-0.47792876,0.47981873,0.44261116,-0.28360716,-0.19677918,0.6251764,0.4462279,-0.28220305,-0.36113822,0.5500383,0.3247215,-0.5636766,-0.63887197,0.14287424,862.674,812.71063,805.8608,824.7985,726.8865,-0.1689453125,-0.01629638671875,0.9686279296875,1.667327880859375,-2.699127197265625,0.059814453125,1.0,1.0,1.0,1.0,1.0,100.0,event
12:22:26.061,0.7754663,-0.50674564,-0.49759716,1.0136182,0.47129223,-0.41185465,-0.47792876,0.47981873,0.44261116,-0.28360716,-0.19677918,0.6251764,0.4462279,-0.28220305,-0.36113822,0.5500383,0.3247215,-0.5636766,-0.63887197,0.14287424,885.2381,814.3223,807.0696,845.7509,754.2857,-0.1689453125,-0.01629638671875,0.9686279296875,1.667327880859375,-2.699127197265625,0.059814453125,1.0,1.0,1.0,1.0,1.0,100.0,event
12:22:26.062,0.7754663,-0.50674564,-0.49759716,1.0136182,0.47129223,-0.41185465,-0.47792876,0.47981873,0.44261116,-0.28360716,-0.19677918,0.6251764,0.4462279,-0.28220305,-0.36113822,0.5500383,0.3247215,-0.5636766,-0.63887197,0.14287424,863.8828,813.5165,802.6374,818.7546,808.2784,-0.1689453125,-0.01629638671875,0.9686279296875,1.667327880859375,-2.699127197265625,0.059814453125,1.0,1.0,1.0,1.0,1.0,100.0,event
12:22:26.062,0.7754663,-0.50674564,-0.49759716,1.0136182,0.47129223,-0.41185465,-0.47792876,0.47981873,0.44261116,-0.28360716,-0.19677918,0.6251764,0.4462279,-0.28220305,-0.36113822,0.5500383,0.3247215,-0.5636766,-0.63887197,0.14287424,884.83514,812.71063,803.44324,852.6007,769.19415,-0.1689453125,-0.01629638671875,0.9686279296875,1.667327880859375,-2.699127197265625,0.059814453125,1.0,1.0,1.0,1.0,1.0,100.0,event
12:22:26.063,0.7754663,-0.50674564,-0.49759716,1.0136182,0.47129223,-0.41185465,-0.47792876,0.47981873,0.44261116,-0.28360716,-0.19677918,0.6251764,0.4462279,-0.28220305,-0.36113822,0.5500383,0.3247215,-0.5636766,-0.63887197,0.14287424,843.73627,815.5311,809.0842,791.75824,777.25275,-0.1689453125,-0.01629638671875,0.9686279296875,1.667327880859375,-2.699127197265625,0.059814453125,1.0,1.0,1.0,1.0,1.0,100.0,event
12:22:26.064,0.7754663,-0.50674564,-0.49759716,1.0136182,0.47129223,-0.41185465,-0.47792876,0.47981873,0.44261116,-0.28360716,-0.19677918,0.6251764,0.4462279,-0.28220305,-0.36113822,0.5500383,0.3247215,-0.5636766,-0.63887197,0.14287424,839.707,815.9341,811.9048,817.1429,672.49084,-0.1689453125,-0.01629638671875,0.9686279296875,1.667327880859375,-2.699127197265625,0.059814453125,1.0,1.0,1.0,1.0,1.0,100.0,event
12:22:26.064,0.7754663,-0.50674564,-0.49759716,1.0136182,0.47129223,-0.41185465,-0.47792876,0.47981873,0.44261116,-0.28360716,-0.19677918,0.6251764,0.4462279,-0.28220305,-0.36113822,0.5500383,0.3247215,-0.5636766,-0.63887197,0.14287424,854.61536,813.5165,809.4872,819.5604,907.3993,-0.1689453125,-0.01629638671875,0.9686279296875,1.667327880859375,-2.699127197265625,0.059814453125,1.0,1.0,1.0,1.0,1.0,100.0,event
12:22:26.065,0.7754663,-0.50674564,-0.49759716,1.0136182,0.47129223,-0.41185465,-0.47792876,0.47981873,0.44261116,-0.28360716,-0.19677918,0.6251764,0.4462279,-0.28220305,-0.36113822,0.5500383,0.3247215,-0.5636766,-0.63887197,0.14287424,872.74725,813.5165,809.0842,814.7253,1174.5421,-0.1689453125,-0.01629638671875,0.9686279296875,1.667327880859375,-2.699127197265625,0.059814453125,1.0,1.0,1.0,1.0,1.0,100.0,event
12:22:26.066,0.7754663,-0.50674564,-0.49759716,1.0136182,0.47129223,-0.41185465,-0.47792876,0.47981873,0.44261116,-0.28360716,-0.19677918,0.6251764,0.4462279,-0.28220305,-0.36113822,0.5500383,0.3247215,-0.5636766,-0.63887197,0.14287424,875.16486,814.7253,810.696,810.696,874.35895,-0.1689453125,-0.01629638671875,0.9686279296875,1.667327880859375,-2.699127197265625,0.059814453125,1.0,1.0,1.0,1.0,1.0,100.0,event
12:22:26.067,0.7754663,-0.50674564,-0.49759716,1.0136182,0.47129223,-0.41185465,-0.47792876,0.47981873,0.44261116,-0.28360716,-0.19677918,0.6251764,0.4462279,-0.28220305,-0.36113822,0.5500383,0.3247215,-0.5636766,-0.63887197,0.14287424,843.3333,813.1135,809.4872,792.96704,699.89014,-0.1689453125,-0.01629638671875,0.9686279296875,1.667327880859375,-2.699127197265625,0.059814453125,1.0,1.0,1.0,1.0,1.0,100.0,event
12:22:26.068,0.7603602,-0.5228671,-0.50031126,1.0136182,0.46633047,-0.41076657,-0.50204986,0.47981873,0.39057794,-0.28184554,-0.21531785,0.6251764,0.4468066,-0.26199383,-0.34074596,0.5500383,0.34384316,-0.558742,-0.6205637,0.14287424,829.2308,808.68134,807.0696,793.7729,789.7436,-0.1689453125,-0.01629638671875,0.9686279296875,1.667327880859375,-2.699127197265625,0.059814453125,1.0,1.0,1.0,1.0,1.0,100.0,event
12:22:26.073,0.7603602,-0.5228671,-0.50031126,1.0136182,0.46633047,-0.41076657,-0.50204986,0.47981873,0.39057794,-0.28184554,-0.21531785,0.6251764,0.4468066,-0.26199383,-0.34074596,0.5500383,0.34384316,-0.558742,-0.6205637,0.14287424,857.03296,808.68134,806.26373,806.6667,772.8205,-0.1689453125,-0.01629638671875,0.9686279296875,1.667327880859375,-2.699127197265625,0.059814453125,1.0,1.0,1.0,1.0,1.0,100.0,event
12:22:26.073,0.7603602,-0.5228671,-0.50031126,1.0136182,0.46633047,-0.41076657,-0.50204986,0.47981873,0.39057794,-0.28184554,-0.21531785,0.6251764,0.4468066,-0.26199383,-0.34074596,0.5500383,0.34384316,-0.558742,-0.6205637,0.14287424,881.6117,808.2784,808.68134,824.3956,750.2564,-0.1689453125,-0.01629638671875,0.9686279296875,1.667327880859375,-2.699127197265625,0.059814453125,1.0,1.0,1.0,1.0,1.0,100.0,event
12:22:26.103,0.7603602,-0.5228671,-0.50031126,1.0136182,0.46633047,-0.41076657,-0.50204986,0.47981873,0.39057794,-0.28184554,-0.21531785,0.6251764,0.4468066,-0.26199383,-0.34074596,0.5500383,0.34384316,-0.558742,-0.6205637,0.14287424,874.35895,809.0842,808.68134,801.8315,761.9414,-0.15380859375,-0.02362060546875,0.9720458984375,1.18133544921875,-3.760833740234375,-0.97198486328125,1.0,1.0,1.0,1.0,1.0,100.0,event
12:22:26.104,0.7603602,-0.5228671,-0.50031126,1.0136182,0.46633047,-0.41076657,-0.50204986,0.47981873,0.39057794,-0.28184554,-0.21531785,0.6251764,0.4468066,-0.26199383,-0.34074596,0.5500383,0.34384316,-0.558742,-0.6205637,0.14287424,840.9158,811.0989,809.0842,764.7619,705.5311,-0.15380859375,-0.02362060546875,0.9720458984375,1.18133544921875,-3.760833740234375,-0.97198486328125,1.0,1.0,1.0,1.0,1.0,100.0,event
12:22:26.105,0.7603602,-0.5228671,-0.50031126,1.0136182,0.46633047,-0.41076657,-0.50204986,0.47981873,0.39057794,-0.28184554,-0.21531785,0.6251764,0.4468066,-0.26199383,-0.34074596,0.5500383,0.34384316,-0.558742,-0.6205637,0.14287424,831.2454,809.89014,811.50183,772.4176,678.1319,-0.15380859375,-0.02362060546875,0.9720458984375,1.18133544921875,-3.760833740234375,-0.97198486328125,1.0,1.0,1.0,1.0,1.0,100.0,event
12:22:26.106,0.7603602,-0.5228671,-0.50031126,1.0136182,0.46633047,-0.41076657,-0.50204986,0.47981873,0.39057794,-0.28184554,-0.21531785,0.6251764,0.4468066,-0.26199383,-0.34074596,0.5500383,0.34384316,-0.558742,-0.6205637,0.14287424,858.24176,811.50183,808.68134,789.34064,701.50183,-0.15380859375,-0.02362060546875,0.9720458984375,1.18133544921875,-3.760833740234375,-0.97198486328125,1.0,1.0,1.0,1.0,1.0,100.0,event
12:22:26.106,0.7603602,-0.5228671,-0.50031126,1.0136182,0.46633047,-0.41076657,-0.50204986,0.47981873,0.39057794,-0.28184554,-0.21531785,0.6251764,0.4468066,-0.26199383,-0.34074596,0.5500383,0.34384316,-0.558742,-0.6205637,0.14287424,881.6117,809.4872,806.26373,799.81683,766.77655,-0.15380859375,-0.02362060546875,0.9720458984375,1.18133544921875,-3.760833740234375,-0.97198486328125,1.0,1.0,1.0,1.0,1.0,100.0,event
12:22:26.107,0.7603602,-0.5228671,-0.50031126,1.0136182,0.46633047,-0.41076657,-0.50204986,0.47981873,0.39057794,-0.28184554,-0.21531785,0.6251764,0.4468066,-0.26199383,-0.34074596,0.5500383,0.34384316,-0.558742,-0.6205637,0.14287424,862.674,810.696,804.65204,789.34064,846.55676,-0.15380859375,-0.02362060546875,0.9720458984375,1.18133544921875,-3.760833740234375,-0.97198486328125,1.0,1.0,1.0,1.0,1.0,100.0,event
12:22:26.107,0.7603602,-0.5228671,-0.50031126,1.0136182,0.46633047,-0.41076657,-0.50204986,0.47981873,0.39057794,-0.28184554,-0.21531785,0.6251764,0.4468066,-0.26199383,-0.34074596,0.5500383,0.34384316,-0.558742,-0.6205637,0.14287424,842.1245,812.71063,805.4579,769.19415,841.7216,-0.15380859375,-0.02362060546875,0.9720458984375,1.18133544921875,-3.760833740234375,-0.97198486328125,1.0,1.0,1.0,1.0,1.0,100.0,event
12:22:26.108,0.7603602,-0.5228671,-0.50031126,1.0136182,0.46633047,-0.41076657,-0.50204986,0.47981873,0.39057794,-0.28184554,-0.21531785,0.6251764,0.4468066,-0.26199383,-0.34074596,0.5500383,0.34384316,-0.558742,-0.6205637,0.14287424,842.52747,807.47253,808.2784,788.5348,803.44324,-0.15380859375,-0.02362060546875,0.9720458984375,1.18133544921875,-3.760833740234375,-0.97198486328125,1.0,1.0,1.0,1.0,1.0,100.0,event
12:22:26.108,0.7603602,-0.5228671,-0.50031126,1.0136182,0.46633047,-0.41076657,-0.50204986,0.47981873,0.39057794,-0.28184554,-0.21531785,0.6251764,0.4468066,-0.26199383,-0.34074596,0.5500383,0.34384316,-0.558742,-0.6205637,0.14287424,843.73627,808.2784,803.0403,791.3553,748.24176,-0.15380859375,-0.02362060546875,0.9720458984375,1.18133544921875,-3.760833740234375,-0.97198486328125,1.0,1.0,1.0,1.0,1.0,100.0,event
12:22:26.109,0.7603602,-0.5228671,-0.50031126,1.0136182,0.46633047,-0.41076657,-0.50204986,0.47981873,0.39057794,-0.28184554,-0.21531785,0.6251764,0.4468066,-0.26199383,-0.34074596,0.5500383,0.34384316,-0.558742,-0.6205637,0.14287424,859.45056,808.2784,805.05493,804.2491,970.65936,-0.15380859375,-0.02362060546875,0.9720458984375,1.18133544921875,-3.760833740234375,-0.97198486328125,1.0,1.0,1.0,1.0,1.0,100.0,event
12:22:26.109,0.7603602,-0.5228671,-0.50031126,1.0136182,0.46633047,-0.41076657,-0.50204986,0.47981873,0.39057794,-0.28184554,-0.21531785,0.6251764,0.4468066,-0.26199383,-0.34074596,0.5500383,0.34384316,-0.558742,-0.6205637,0.14287424,848.97437,807.8755,801.8315,803.0403,958.1685,-0.15380859375,-0.02362060546875,0.9720458984375,1.18133544921875,-3.760833740234375,-0.97198486328125,1.0,1.0,1.0,1.0,1.0,100.0,event
12:22:26.110,0.7603602,-0.5228671,-0.50031126,1.0136182,0.46633047,-0.41076657,-0.50204986,0.47981873,0.39057794,-0.28184554,-0.21531785,0.6251764,0.4468066,-0.26199383,-0.34074596,0.5500383,0.34384316,-0.558742,-0.6205637,0.14287424,841.7216,808.2784,804.2491,772.4176,707.1429,-0.15380859375,-0.02362060546875,0.9720458984375,1.18133544921875,-3.760833740234375,-0.97198486328125,1.0,1.0,1.0,1.0,1.0,100.0,event
12:22:26.152,0.7603602,-0.5228671,-0.50031126,1.0136182,0.46633047,-0.41076657,-0.50204986,0.47981873,0.39057794,-0.28184554,-0.21531785,0.6251764,0.4468066,-0.26199383,-0.34074596,0.5500383,0.34384316,-0.558742,-0.6205637,0.14287424,821.5751,803.0403,801.4286,768.7912,734.5421,-0.14556884765625,-0.02239990234375,0.9774169921875,1.71966552734375,-3.06549072265625,-1.36077880859375,1.0,1.0,1.0,1.0,1.0,100.0,event
12:22:26.153,0.7603602,-0.5228671,-0.50031126,1.0136182,0.46633047,-0.41076657,-0.50204986,0.47981873,0.39057794,-0.28184554,-0.21531785,0.6251764,0.4468066,-0.26199383,-0.34074596,0.5500383,0.34384316,-0.558742,-0.6205637,0.14287424,842.52747,805.05493,801.02563,786.52014,782.8938,-0.14556884765625,-0.02239990234375,0.9774169921875,1.71966552734375,-3.06549072265625,-1.36077880859375,1.0,1.0,1.0,1.0,1.0,100.0,event
12:22:26.154,0.7603602,-0.5228671,-0.50031126,1.0136182,0.46633047,-0.41076657,-0.50204986,0.47981873,0.39057794,-0.28184554,-0.21531785,0.6251764,0.4468066,-0.26199383,-0.34074596,0.5500383,0.34384316,-0.558742,-0.6205637,0.14287424,852.1978,809.0842,806.6667,816.337,777.25275,-0.14556884765625,-0.02239990234375,0.9774169921875,1.71966552734375,-3.06549072265625,-1.36077880859375,1.0,1.0,1.0,1.0,1.0,100.0,event
12:22:26.155,0.7603602,-0.5228671,-0.50031126,1.0136182,0.46633047,-0.41076657,-0.50204986,0.47981873,0.39057794,-0.28184554,-0.21531785,0.6251764,0.4468066,-0.26199383,-0.34074596,0.5500383,0.34384316,-0.558742,-0.6205637,0.14287424,849.3773,807.47253,809.4872,803.8461,749.45056,-0.14556884765625,-0.02239990234375,0.9774169921875,1.71966552734375,-3.06549072265625,-1.36077880859375,1.0,1.0,1.0,1.0,1.0,100.0,event
12:22:26.155,0.7603602,-0.5228671,-0.50031126,1.0136182,0.46633047,-0.41076657,-0.50204986,0.47981873,0.39057794,-0.28184554,-0.21531785,0.6251764,0.4468066,-0.26199383,-0.34074596,0.5500383,0.34384316,-0.558742,-0.6205637,0.14287424,828.4249,807.8755,808.68134,765.56775,754.2857,-0.14556884765625,-0.02239990234375,0.9774169921875,1.71966552734375,-3.06549072265625,-1.36077880859375,1.0,1.0,1.0,1.0,1.0,100.0,event
12:22:26.156,0.7603602,-0.5228671,-0.50031126,1.0136182,0.46633047,-0.41076657,-0.50204986,0.47981873,0.39057794,-0.28184554,-0.21531785,0.6251764,0.4468066,-0.26199383,-0.34074596,0.5500383,0.34384316,-0.558742,-0.6205637,0.14287424,824.3956,809.0842,804.2491,748.6447,863.47986,-0.14556884765625,-0.02239990234375,0.9774169921875,1.71966552734375,-3.06549072265625,-1.36077880859375,1.0,1.0,1.0,1.0,1.0,100.0,event
12:22:26.157,0.7603602,-0.5228671,-0.50031126,1.0136182,0.46633047,-0.41076657,-0.50204986,0.47981873,0.39057794,-0.28184554,-0.21531785,0.6251764,0.4468066,-0.26199383,-0.34074596,0.5500383,0.34384316,-0.558742,-0.6205637,0.14287424,848.1685,809.89014,802.6374,749.85345,897.326,-0.14556884765625,-0.02239990234375,0.9774169921875,1.71966552734375,-3.06549072265625,-1.36077880859375,1.0,1.0,1.0,1.0,1.0,100.0,event
12:22:26.158,0.7603602,-0.5228671,-0.50031126,1.0136182,0.46633047,-0.41076657,-0.50204986,0.47981873,0.39057794,-0.28184554,-0.21531785,0.6251764,0.4468066,-0.26199383,-0.34074596,0.5500383,0.34384316,-0.558742,-0.6205637,0.14287424,858.24176,809.4872,806.26373,777.6557,815.9341,-0.14556884765625,-0.02239990234375,0.9774169921875,1.71966552734375,-3.06549072265625,-1.36077880859375,1.0,1.0,1.0,1.0,1.0,100.0,event
12:22:26.159,0.7603602,-0.5228671,-0.50031126,1.0136182,0.46633047,-0.41076657,-0.50204986,0.47981873,0.39057794,-0.28184554,-0.21531785,0.6251764,0.4468066,-0.26199383,-0.34074596,0.5500383,0.34384316,-0.558742,-0.6205637,0.14287424,829.2308,806.6667,804.65204,758.71796,1086.7032,-0.14556884765625,-0.02239990234375,0.9774169921875,1.71966552734375,-3.06549072265625,-1.36077880859375,1.0,1.0,1.0,1.0,1.0,100.0,event
12:22:26.159,0.7603602,-0.5228671,-0.50031126,1.0136182,0.46633047,-0.41076657,-0.50204986,0.47981873,0.39057794,-0.28184554,-0.21531785,0.6251764,0.4468066,-0.26199383,-0.34074596,0.5500383,0.34384316,-0.558742,-0.6205637,0.14287424,845.7509,806.26373,803.44324,788.5348,929.5604,-0.14556884765625,-0.02239990234375,0.9774169921875,1.71966552734375,-3.06549072265625,-1.36077880859375,1.0,1.0,1.0,1.0,1.0,100.0,event
12:22:26.160,0.7603602,-0.5228671,-0.50031126,1.0136182,0.46633047,-0.41076657,-0.50204986,0.47981873,0.39057794,-0.28184554,-0.21531785,0.6251764,0.4468066,-0.26199383,-0.34074596,0.5500383,0.34384316,-0.558742,-0.6205637,0.14287424,834.87177,807.8755,804.2491,737.3626,837.28937,-0.14556884765625,-0.02239990234375,0.9774169921875,1.71966552734375,-3.06549072265625,-1.36077880859375,1.0,1.0,1.0,1.0,1.0,100.0,event
12:22:26.161,0.9035199,-0.5347347,-0.51656896,1.0136182,0.7210679,-0.41186538,-0.52492446,0.47981873,1.1112182,-0.2786115,-0.1786196,0.6251764,0.51576245,-0.23804657,-0.32779178,0.5500383,0.39902595,-0.5477782,-0.6020925,0.14287424,837.6923,815.12823,805.4579,761.9414,740.58606,-0.14556884765625,-0.02239990234375,0.9774169921875,1.71966552734375,-3.06549072265625,-1.36077880859375,1.0,1.0,1.0,1.0,1.0,100.0,event
12:22:26.218,0.9035199,-0.5347347,-0.51656896,1.0136182,0.7210679,-0.41186538,-0.52492446,0.47981873,1.1112182,-0.2786115,-0.1786196,0.6251764,0.51576245,-0.23804657,-0.32779178,0.5500383,0.39902595,-0.5477782,-0.6020925,0.14287424,863.0769,818.7546,807.0696,803.8461,789.7436,-0.15313720703125,-0.02325439453125,0.96746826171875,1.854248046875,-3.87298583984375,0.67291259765625,1.0,1.0,1.0,1.0,1.0,100.0,event
12:22:26.219,0.9035199,-0.5347347,-0.51656896,1.0136182,0.7210679,-0.41186538,-0.52492446,0.47981873,1.1112182,-0.2786115,-0.1786196,0.6251764,0.51576245,-0.23804657,-0.32779178,0.5500383,0.39902595,-0.5477782,-0.6020925,0.14287424,870.32965,813.5165,805.4579,801.4286,731.31866,-0.15313720703125,-0.02325439453125,0.96746826171875,1.854248046875,-3.87298583984375,0.67291259765625,1.0,1.0,1.0,1.0,1.0,100.0,event
12:22:26.220,0.9035199,-0.5347347,-0.51656896,1.0136182,0.7210679,-0.41186538,-0.52492446,0.47981873,1.1112182,-0.2786115,-0.1786196,0.6251764,0.51576245,-0.23804657,-0.32779178,0.5500383,0.39902595,-0.5477782,-0.6020925,0.14287424,838.49817,812.71063,805.8608,766.77655,679.34064,-0.15313720703125,-0.02325439453125,0.96746826171875,1.854248046875,-3.87298583984375,0.67291259765625,1.0,1.0,1.0,1.0,1.0,100.0,event
12:22:26.221,0.9035199,-0.5347347,-0.51656896,1.0136182,0.7210679,-0.41186538,-0.52492446,0.47981873,1.1112182,-0.2786115,-0.1786196,0.6251764,0.51576245,-0.23804657,-0.32779178,0.5500383,0.39902595,-0.5477782,-0.6020925,0.14287424,814.3223,811.50183,805.05493,759.12085,672.0879,-0.15313720703125,-0.02325439453125,0.96746826171875,1.854248046875,-3.87298583984375,0.67291259765625,1.0,1.0,1.0,1.0,1.0,100.0,event
12:22:26.222,0.9035199,-0.5347347,-0.51656896,1.0136182,0.7210679,-0.41186538,-0.52492446,0.47981873,1.1112182,-0.2786115,-0.1786196,0.6251764,0.51576245,-0.23804657,-0.32779178,0.5500383,0.39902595,-0.5477782,-0.6020925,0.14287424,809.0842,807.47253,803.0403,771.2088,670.4762,-0.15313720703125,-0.02325439453125,0.96746826171875,1.854248046875,-3.87298583984375,0.67291259765625,1.0,1.0,1.0,1.0,1.0,100.0,event
12:22:26.222,0.9035199,-0.5347347,-0.51656896,1.0136182,0.7210679,-0.41186538,-0.52492446,0.47981873,1.1112182,-0.2786115,-0.1786196,0.6251764,0.51576245,-0.23804657,-0.32779178,0.5500383,0.39902595,-0.5477782,-0.6020925,0.14287424,845.7509,809.0842,803.44324,796.5934,789.34064,-0.15313720703125,-0.02325439453125,0.96746826171875,1.854248046875,-3.87298583984375,0.67291259765625,1.0,1.0,1.0,1.0,1.0,100.0,event
12:22:26.223,0.9035199,-0.5347347,-0.51656896,1.0136182,0.7210679,-0.41186538,-0.52492446,0.47981873,1.1112182,-0.2786115,-0.1786196,0.6251764,0.51576245,-0.23804657,-0.32779178,0.5500383,0.39902595,-0.5477782,-0.6020925,0.14287424,850.989,811.0989,807.0696,815.5311,834.87177,-0.15313720703125,-0.02325439453125,0.96746826171875,1.854248046875,-3.87298583984375,0.67291259765625,1.0,1.0,1.0,1.0,1.0,100.0,event
12:22:26.224,0.9035199,-0.5347347,-0.51656896,1.0136182,0.7210679,-0.41186538,-0.52492446,0.47981873,1.1112182,-0.2786115,-0.1786196,0.6251764,0.51576245,-0.23804657,-0.32779178,0.5500383,0.39902595,-0.5477782,-0.6020925,0.14287424,839.304,809.4872,807.8755,802.23444,784.5055,-0.15313720703125,-0.02325439453125,0.96746826171875,1.854248046875,-3.87298583984375,0.67291259765625,1.0,1.0,1.0,1.0,1.0,100.0,event
12:22:26.224,0.9035199,-0.5347347,-0.51656896,1.0136182,0.7210679,-0.41186538,-0.52492446,0.47981873,1.1112182,-0.2786115,-0.1786196,0.6251764,0.51576245,-0.23804657,-0.32779178,0.5500383,0.39902595,-0.5477782,-0.6020925,0.14287424,831.2454,806.26373,806.6667,782.8938,983.95605,-0.15313720703125,-0.02325439453125,0.96746826171875,1.854248046875,-3.87298583984375,0.67291259765625,1.0,1.0,1.0,1.0,1.0,100.0,event
12:22:26.225,0.9035199,-0.5347347,-0.51656896,1.0136182,0.7210679,-0.41186538,-0.52492446,0.47981873,1.1112182,-0.2786115,-0.1786196,0.6251764,0.51576245,-0.23804657,-0.32779178,0.5500383,0.39902595,-0.5477782,-0.6020925,0.14287424,824.7985,803.8461,805.8608,785.31134,896.9231,-0.15313720703125,-0.02325439453125,0.96746826171875,1.854248046875,-3.87298583984375,0.67291259765625,1.0,1.0,1.0,1.0,1.0,100.0,event
12:22:26.226,0.9035199,-0.5347347,-0.51656896,1.0136182,0.7210679,-0.41186538,-0.52492446,0.47981873,1.1112182,-0.2786115,-0.1786196,0.6251764,0.51576245,-0.23804657,-0.32779178,0.5500383,0.39902595,-0.5477782,-0.6020925,0.14287424,852.6007,807.0696,804.2491,806.26373,689.81683,-0.15313720703125,-0.02325439453125,0.96746826171875,1.854248046875,-3.87298583984375,0.67291259765625,1.0,1.0,1.0,1.0,1.0,100.0,event
12:22:26.227,0.9035199,-0.5347347,-0.51656896,1.0136182,0.7210679,-0.41186538,-0.52492446,0.47981873,1.1112182,-0.2786115,-0.1786196,0.6251764,0.51576245,-0.23804657,-0.32779178,0.5500383,0.39902595,-0.5477782,-0.6020925,0.14287424,853.4066,808.68134,803.44324,821.978,802.23444,-0.15313720703125,-0.02325439453125,0.96746826171875,1.854248046875,-3.87298583984375,0.67291259765625,1.0,1.0,1.0,1.0,1.0,100.0,event
12:22:26.253,0.9035199,-0.5347347,-0.51656896,1.0136182,0.7210679,-0.41186538,-0.52492446,0.47981873,1.1112182,-0.2786115,-0.1786196,0.6251764,0.51576245,-0.23804657,-0.32779178,0.5500383,0.39902595,-0.5477782,-0.6020925,0.14287424,819.5604,807.0696,804.2491,808.2784,892.49084,-0.1533203125,-0.0155029296875,0.97442626953125,2.49725341796875,-2.714080810546875,-0.276641845703125,1.0,1.0,1.0,1.0,1.0,100.0,event
12:22:26.254,0.9035199,-0.5347347,-0.51656896,1.0136182,0.7210679,-0.41186538,-0.52492446,0.47981873,1.1112182,-0.2786115,-0.1786196,0.6251764,0.51576245,-0.23804657,-0.32779178,0.5500383,0.39902595,-0.5477782,-0.6020925,0.14287424,821.5751,807.0696,808.68134,787.326,739.3773,-0.1533203125,-0.0155029296875,0.97442626953125,2.49725341796875,-2.714080810546875,-0.276641845703125,1.0,1.0,1.0,1.0,1.0,100.0,event
12:22:26.256,0.9035199,-0.5347347,-0.51656896,1.0136182,0.7210679,-0.41186538,-0.52492446,0.47981873,1.1112182,-0.2786115,-0.1786196,0.6251764,0.51576245,-0.23804657,-0.32779178,0.5500383,0.39902595,-0.5477782,-0.6020925,0.14287424,836.08057,805.8608,806.6667,776.4469,697.0696,-0.1533203125,-0.0155029296875,0.97442626953125,2.49725341796875,-2.714080810546875,-0.276641845703125,1.0,1.0,1.0,1.0,1.0,100.0,event
12:22:26.257,0.9035199,-0.5347347,-0.51656896,1.0136182,0.7210679,-0.41186538,-0.52492446,0.47981873,1.1112182,-0.2786115,-0.1786196,0.6251764,0.51576245,-0.23804657,-0.32779178,0.5500383,0.39902595,-0.5477782,-0.6020925,0.14287424,838.9011,803.44324,804.2491,787.72894,782.49084,-0.1533203125,-0.0155029296875,0.97442626953125,2.49725341796875,-2.714080810546875,-0.276641845703125,1.0,1.0,1.0,1.0,1.0,100.0,event
12:22:26.258,0.9035199,-0.5347347,-0.51656896,1.0136182,0.7210679,-0.41186538,-0.52492446,0.47981873,1.1112182,-0.2786115,-0.1786196,0.6251764,0.51576245,-0.23804657,-0.32779178,0.5500383,0.39902595,-0.5477782,-0.6020925,0.14287424,846.1539,805.05493,802.23444,807.0696,757.1062,-0.1533203125,-0.0155029296875,0.97442626953125,2.49725341796875,-2.714080810546875,-0.276641845703125,1.0,1.0,1.0,1.0,1.0,100.0,event
12:22:26.258,0.9035199,-0.5347347,-0.51656896,1.0136182,0.7210679,-0.41186538,-0.52492446,0.47981873,1.1112182,-0.2786115,-0.1786196,0.6251764,0.51576245,-0.23804657,-0.32779178,0.5500383,0.39902595,-0.5477782,-0.6020925,0.14287424,849.3773,803.8461,805.8608,812.3077,789.7436,-0.1533203125,-0.0155029296875,0.97442626953125,2.49725341796875,-2.714080810546875,-0.276641845703125,1.0,1.0,1.0,1.0,1.0,100.0,event
12:22:26.259,0.9035199,-0.5347347,-0.51656896,1.0136182,0.7210679,-0.41186538,-0.52492446,0.47981873,1.1112182,-0.2786115,-0.1786196,0.6251764,0.51576245,-0.23804657,-0.32779178,0.5500383,0.39902595,-0.5477782,-0.6020925,0.14287424,825.2015,806.6667,801.02563,787.326,784.10254,-0.1533203125,-0.0155029296875,0.97442626953125,2.49725341796875,-2.714080810546875,-0.276641845703125,1.0,1.0,1.0,1.0,1.0,100.0,event
12:22:26.260,0.9035199,-0.5347347,-0.51656896,1.0136182,0.7210679,-0.41186538,-0.52492446,0.47981873,1.1112182,-0.2786115,-0.1786196,0.6251764,0.51576245,-0.23804657,-0.32779178,0.5500383,0.39902595,-0.5477782,-0.6020925,0.14287424,808.2784,805.4579,799.81683,792.96704,948.0952,-0.1533203125,-0.0155029296875,0.97442626953125,2.49725341796875,-2.714080810546875,-0.276641845703125,1.0,1.0,1.0,1.0,1.0,100.0,event
12:22:26.261,0.9035199,-0.5347347,-0.51656896,1.0136182,0.7210679,-0.41186538,-0.52492446,0.47981873,1.1112182,-0.2786115,-0.1786196,0.6251764,0.51576245,-0.23804657,-0.32779178,0.5500383,0.39902595,-0.5477782,-0.6020925,0.14287424,825.2015,807.0696,796.5934,813.1135,990.80585,-0.1533203125,-0.0155029296875,0.97442626953125,2.49725341796875,-2.714080810546875,-0.276641845703125,1.0,1.0,1.0,1.0,1.0,100.0,event
12:22:26.262,0.9035199,-0.5347347,-0.51656896,1.0136182,0.7210679,-0.41186538,-0.52492446,0.47981873,1.1112182,-0.2786115,-0.1786196,0.6251764,0.51576245,-0.23804657,-0.32779178,0.5500383,0.39902595,-0.5477782,-0.6020925,0.14287424,855.82416,811.9048,801.4286,826.0073,745.42126,-0.1533203125,-0.0155029296875,0.97442626953125,2.49725341796875,-2.714080810546875,-0.276641845703125,1.0,1.0,1.0,1.0,1.0,100.0,event
12:22:26.263,0.9035199,-0.5347347,-0.51656896,1.0136182,0.7210679,-0.41186538,-0.52492446,0.47981873,1.1112182,-0.2786115,-0.1786196,0.6251764,0.51576245,-0.23804657,-0.32779178,0.5500383,0.39902595,-0.5477782,-0.6020925,0.14287424,853.00366,811.50183,804.65204,814.3223,695.4579,-0.1533203125,-0.0155029296875,0.97442626953125,2.49725341796875,-2.714080810546875,-0.276641845703125,1.0,1.0,1.0,1.0,1.0,100.0,event
12:22:26.264,0.9035199,-0.5347347,-0.51656896,1.0136182,0.7210679,-0.41186538,-0.52492446,0.47981873,1.1112182,-0.2786115,-0.1786196,0.6251764,0.51576245,-0.23804657,-0.32779178,0.5500383,0.39902595,-0.5477782,-0.6020925,0.14287424,818.3516,806.6667,809.89014,788.1319,765.9707,-0.1533203125,-0.0155029296875,0.97442626953125,2.49725341796875,-2.714080810546875,-0.276641845703125,1.0,1.0,1.0,1.0,1.0,100.0,event
12:22:26.285,0.9035199,-0.5347347,-0.51656896,1.0136182,0.7210679,-0.41186538,-0.52492446,0.47981873,1.1112182,-0.2786115,-0.1786196,0.6251764,0.51576245,-0.23804657,-0.32779178,0.5500383,0.39902595,-0.5477782,-0.6020925,0.14287424,803.44324,803.0403,809.0842,796.99634,743.4066,-0.1533203125,-0.0155029296875,0.97442626953125,2.49725341796875,-2.714080810546875,-0.276641845703125,1.0,1.0,1.0,1.0,1.0,100.0,event
12:22:26.286,1.0413225,-0.5250563,-0.5381554,1.0136182,0.84097415,-0.40710607,-0.5488481,0.47981873,1.1262745,-0.27713865,-0.17618638,0.6251764,0.57204324,-0.2163976,-0.32626045,0.5500383,0.43288556,-0.53880775,-0.5868032,0.14287424,815.5311,805.05493,804.2491,798.60803,733.3333,-0.1533203125,-0.0155029296875,0.97442626953125,2.49725341796875,-2.714080810546875,-0.276641845703125,1.0,1.0,1.0,1.0,1.0,100.0,event
12:22:26.291,1.0413225,-0.5250563,-0.5381554,1.0136182,0.84097415,-0.40710607,-0.5488481,0.47981873,1.1262745,-0.27713865,-0.17618638,0.6251764,0.57204324,-0.2163976,-0.32626045,0.5500383,0.43288556,-0.53880775,-0.5868032,0.14287424,831.6484,807.8755,803.8461,806.6667,779.67035,-0.1533203125,-0.0155029296875,0.97442626953125,2.49725341796875,-2.714080810546875,-0.276641845703125,1.0,1.0,1.0,1.0,1.0,100.0,event
12:22:26.291,1.0413225,-0.5250563,-0.5381554,1.0136182,0.84097415,-0.40710607,-0.5488481,0.47981873,1.1262745,-0.27713865,-0.17618638,0.6251764,0.57204324,-0.2163976,-0.32626045,0.5500383,0.43288556,-0.53880775,-0.5868032,0.14287424,836.4835,809.4872,801.8315,800.2198,884.0293,-0.1533203125,-0.0155029296875,0.97442626953125,2.49725341796875,-2.714080810546875,-0.276641845703125,1.0,1.0,1.0,1.0,1.0,100.0,event
12:22:26.292,1.0413225,-0.5250563,-0.5381554,1.0136182,0.84097415,-0.40710607,-0.5488481,0.47981873,1.1262745,-0.27713865,-0.17618638,0.6251764,0.57204324,-0.2163976,-0.32626045,0.5500383,0.43288556,-0.53880775,-0.5868032,0.14287424,797.3993,808.68134,803.0403,787.326,752.674,-0.1533203125,-0.0155029296875,0.97442626953125,2.49725341796875,-2.714080810546875,-0.276641845703125,1.0,1.0,1.0,1.0,1.0,100.0,event
12:22:26.292,1.0413225,-0.5250563,-0.5381554,1.0136182,0.84097415,-0.40710607,-0.5488481,0.47981873,1.1262745,-0.27713865,-0.17618638,0.6251764,0.57204324,-0.2163976,-0.32626045,0.5500383,0.43288556,-0.53880775,-0.5868032,0.14287424,806.6667,810.293,801.02563,774.0293,797.8022,-0.1533203125,-0.0155029296875,0.97442626953125,2.49725341796875,-2.714080810546875,-0.276641845703125,1.0,1.0,1.0,1.0,1.0,100.0,event
12:22:26.293,1.0413225,-0.5250563,-0.5381554,1.0136182,0.84097415,-0.40710607,-0.5488481,0.47981873,1.1262745,-0.27713865,-0.17618638,0.6251764,0.57204324,-0.2163976,-0.32626045,0.5500383,0.43288556,-0.53880775,-0.5868032,0.14287424,823.1868,809.0842,807.8755,799.81683,858.6447,-0.1533203125,-0.0155029296875,0.97442626953125,2.49725341796875,-2.714080810546875,-0.276641845703125,1.0,1.0,1.0,1.0,1.0,100.0,event
12:22:26.293,1.0413225,-0.5250563,-0.5381554,1.0136182,0.84097415,-0.40710607,-0.5488481,0.47981873,1.1262745,-0.27713865,-0.17618638,0.6251764,0.57204324,-0.2163976,-0.32626045,0.5500383,0.43288556,-0.53880775,-0.5868032,0.14287424,821.978,810.293,810.696,810.293,1110.0732,-0.1533203125,-0.0155029296875,0.97442626953125,2.49725341796875,-2.714080810546875,-0.276641845703125,1.0,1.0,1.0,1.0,1.0,100.0,event
12:22:26.294,1.0413225,-0.5250563,-0.5381554,1.0136182,0.84097415,-0.40710607,-0.5488481,0.47981873,1.1262745,-0.27713865,-0.17618638,0.6251764,0.57204324,-0.2163976,-0.32626045,0.5500383,0.43288556,-0.53880775,-0.5868032,0.14287424,835.6777,809.0842,809.0842,797.8022,1031.5018,-0.1533203125,-0.0155029296875,0.97442626953125,2.49725341796875,-2.714080810546875,-0.276641845703125,1.0,1.0,1.0,1.0,1.0,100.0,event
12:22:26.294,1.0413225,-0.5250563,-0.5381554,1.0136182,0.84097415,-0.40710607,-0.5488481,0.47981873,1.1262745,-0.27713865,-0.17618638,0.6251764,0.57204324,-0.2163976,-0.32626045,0.5500383,0.43288556,-0.53880775,-0.5868032,0.14287424,828.022,809.0842,806.26373,780.07324,719.2308,-0.1533203125,-0.0155029296875,0.97442626953125,2.49725341796875,-2.714080810546875,-0.276641845703125,1.0,1.0,1.0,1.0,1.0,100.0,event
12:22:26.295,1.0413225,-0.5250563,-0.5381554,1.0136182,0.84097415,-0.40710607,-0.5488481,0.47981873,1.1262745,-0.27713865,-0.17618638,0.6251764,0.57204324,-0.2163976,-0.32626045,0.5500383,0.43288556,-0.53880775,-0.5868032,0.14287424,805.8608,806.26373,802.6374,813.1135,762.74725,-0.1533203125,-0.0155029296875,0.97442626953125,2.49725341796875,-2.714080810546875,-0.276641845703125,1.0,1.0,1.0,1.0,1.0,100.0,event
12:22:26.295,1.0413225,-0.5250563,-0.5381554,1.0136182,0.84097415,-0.40710607,-0.5488481,0.47981873,1.1262745,-0.27713865,-0.17618638,0.6251764,0.57204324,-0.2163976,-0.32626045,0.5500383,0.43288556,-0.53880775,-0.5868032,0.14287424,828.4249,805.4579,807.47253,830.4396,791.75824,-0.1533203125,-0.0155029296875,0.97442626953125,2.49725341796875,-2.714080810546875,-0.276641845703125,1.0,1.0,1.0,1.0,1.0,100.0,event
12:22:26.357,1.0413225,-0.5250563,-0.5381554,1.0136182,0.84097415,-0.40710607,-0.5488481,0.47981873,1.1262745,-0.27713865,-0.17618638,0.6251764,0.57204324,-0.2163976,-0.32626045,0.5500383,0.43288556,-0.53880775,-0.5868032,0.14287424,844.94507,809.89014,810.696,849.7802,758.315,-0.16619873046875,-0.02630615234375,0.96856689453125,1.084136962890625,-3.5888671875,2.041168212890625,1.0,1.0,1.0,1.0,1.0,100.0,event
12:22:26.358,1.0413225,-0.5250563,-0.5381554,1.0136182,0.84097415,-0.40710607,-0.5488481,0.47981873,1.1262745,-0.27713865,-0.17618638,0.6251764,0.57204324,-0.2163976,-0.32626045,0.5500383,0.43288556,-0.53880775,-0.5868032,0.14287424,841.31866,811.0989,807.8755,846.1539,763.95605,-0.16619873046875,-0.02630615234375,0.96856689453125,1.084136962890625,-3.5888671875,2.041168212890625,1.0,1.0,1.0,1.0,1.0,100.0,event
12:22:26.359,1.0413225,-0.5250563,-0.5381554,1.0136182,0.84097415,-0.40710607,-0.5488481,0.47981873,1.1262745,-0.27713865,-0.17618638,0.6251764,0.57204324,-0.2163976,-0.32626045,0.5500383,0.43288556,-0.53880775,-0.5868032,0.14287424,815.12823,809.0842,808.68134,819.15753,827.619,-0.16619873046875,-0.02630615234375,0.96856689453125,1.084136962890625,-3.5888671875,2.041168212890625,1.0,1.0,1.0,1.0,1.0,100.0,event
12:22:26.359,1.0413225,-0.5250563,-0.5381554,1.0136182,0.84097415,-0.40710607,-0.5488481,0.47981873,1.1262745,-0.27713865,-0.17618638,0.6251764,0.57204324,-0.2163976,-0.32626045,0.5500383,0.43288556,-0.53880775,-0.5868032,0.14287424,808.68134,806.6667,811.50183,818.7546,786.52014,-0.16619873046875,-0.02630615234375,0.96856689453125,1.084136962890625,-3.5888671875,2.041168212890625,1.0,1.0,1.0,1.0,1.0,100.0,event
12:22:26.360,1.0413225,-0.5250563,-0.5381554,1.0136182,0.84097415,-0.40710607,-0.5488481,0.47981873,1.1262745,-0.27713865,-0.17618638,0.6251764,0.57204324,-0.2163976,-0.32626045,0.5500383,0.43288556,-0.53880775,-0.5868032,0.14287424,838.9011,807.0696,809.0842,812.71063,702.71063,-0.16619873046875,-0.02630615234375,0.96856689453125,1.084136962890625,-3.5888671875,2.041168212890625,1.0,1.0,1.0,1.0,1.0,100.0,event
12:22:26.361,1.0413225,-0.5250563,-0.5381554,1.0136182,0.84097415,-0.40710607,-0.5488481,0.47981873,1.1262745,-0.27713865,-0.17618638,0.6251764,0.57204324,-0.2163976,-0.32626045,0.5500383,0.43288556,-0.53880775,-0.5868032,0.14287424,852.6007,807.47253,808.2784,826.4103,743.00366,-0.16619873046875,-0.02630615234375,0.96856689453125,1.084136962890625,-3.5888671875,2.041168212890625,1.0,1.0,1.0,1.0,1.0,100.0,event
12:22:26.361,1.0413225,-0.5250563,-0.5381554,1.0136182,0.84097415,-0.40710607,-0.5488481,0.47981873,1.1262745,-0.27713865,-0.17618638,0.6251764,0.57204324,-0.2163976,-0.32626045,0.5500383,0.43288556,-0.53880775,-0.5868032,0.14287424,846.55676,803.8461,807.0696,868.315,972.27106,-0.16619873046875,-0.02630615234375,0.96856689453125,1.084136962890625,-3.5888671875,2.041168212890625,1.0,1.0,1.0,1.0,1.0,100.0,event
12:22:26.362,1.0413225,-0.5250563,-0.5381554,1.0136182,0.84097415,-0.40710607,-0.5488481,0.47981873,1.1262745,-0.27713865,-0.17618638,0.6251764,0.57204324,-0.2163976,-0.32626045,0.5500383,0.43288556,-0.53880775,-0.5868032,0.14287424,828.022,803.8461,805.05493,865.4945,1144.3224,-0.16619873046875,-0.02630615234375,0.96856689453125,1.084136962890625,-3.5888671875,2.041168212890625,1.0,1.0,1.0,1.0,1.0,100.0,event
12:22:26.363,1.0413225,-0.5250563,-0.5381554,1.0136182,0.84097415,-0.40710607,-0.5488481,0.47981873,1.1262745,-0.27713865,-0.17618638,0.6251764,0.57204324,-0.2163976,-0.32626045,0.5500383,0.43288556,-0.53880775,-0.5868032,0.14287424,830.4396,809.4872,809.0842,850.989,828.8278,-0.16619873046875,-0.02630615234375,0.96856689453125,1.084136962890625,-3.5888671875,2.041168212890625,1.0,1.0,1.0,1.0,1.0,100.0,event
12:22:26.363,1.0413225,-0.5250563,-0.5381554,1.0136182,0.84097415,-0.40710607,-0.5488481,0.47981873,1.1262745,-0.27713865,-0.17618638,0.6251764,0.57204324,-0.2163976,-0.32626045,0.5500383,0.43288556,-0.53880775,-0.5868032,0.14287424,838.0952,811.50183,810.293,862.27106,701.50183,-0.16619873046875,-0.02630615234375,0.96856689453125,1.084136962890625,-3.5888671875,2.041168212890625,1.0,1.0,1.0,1.0,1.0,100.0,event
12:22:26.364,1.0413225,-0.5250563,-0.5381554,1.0136182,0.84097415,-0.40710607,-0.5488481,0.47981873,1.1262745,-0.27713865,-0.17618638,0.6251764,0.57204324,-0.2163976,-0.32626045,0.5500383,0.43288556,-0.53880775,-0.5868032,0.14287424,869.12085,812.71063,809.0842,868.71796,778.0586,-0.16619873046875,-0.02630615234375,0.96856689453125,1.084136962890625,-3.5888671875,2.041168212890625,1.0,1.0,1.0,1.0,1.0,100.0,event
12:22:26.365,1.0413225,-0.5250563,-0.5381554,1.0136182,0.84097415,-0.40710607,-0.5488481,0.47981873,1.1262745,-0.27713865,-0.17618638,0.6251764,0.57204324,-0.2163976,-0.32626045,0.5500383,0.43288556,-0.53880775,-0.5868032,0.14287424,887.25275,815.5311,808.68134,853.4066,765.16486,-0.16619873046875,-0.02630615234375,0.96856689453125,1.084136962890625,-3.5888671875,2.041168212890625,1.0,1.0,1.0,1.0,1.0,100.0,event
12:22:26.394,1.0413225,-0.5250563,-0.5381554,1.0136182,0.84097415,-0.40710607,-0.5488481,0.47981873,1.1262745,-0.27713865,-0.17618638,0.6251764,0.57204324,-0.2163976,-0.32626045,0.5500383,0.43288556,-0.53880775,-0.5868032,0.14287424,836.8865,811.9048,810.696,832.4542,672.0879,-0.15740966796875,-0.0189208984375,0.9859619140625,2.474822998046875,-4.4561767578125,1.622467041015625,1.0,1.0,1.0,1.0,1.0,100.0,event
12:22:26.395,1.0413225,-0.5250563,-0.5381554,1.0136182,0.84097415,-0.40710607,-0.5488481,0.47981873,1.1262745,-0.27713865,-0.17618638,0.6251764,0.57204324,-0.2163976,-0.32626045,0.5500383,0.43288556,-0.53880775,-0.5868032,0.14287424,817.1429,807.47253,807.47253,818.7546,649.12085,-0.15740966796875,-0.0189208984375,0.9859619140625,2.474822998046875,-4.4561767578125,1.622467041015625,1.0,1.0,1.0,1.0,1.0,100.0,event
12:22:26.396,1.0413225,-0.5250563,-0.5381554,1.0136182,0.84097415,-0.40710607,-0.5488481,0.47981873,1.1262745,-0.27713865,-0.17618638,0.6251764,0.57204324,-0.2163976,-0.32626045,0.5500383,0.43288556,-0.53880775,-0.5868032,0.14287424,840.5128,809.4872,803.8461,825.6044,747.03296,-0.15740966796875,-0.0189208984375,0.9859619140625,2.474822998046875,-4.4561767578125,1.622467041015625,1.0,1.0,1.0,1.0,1.0,100.0,event
12:22:26.397,1.0641073,-0.48921692,-0.5555071,1.0136182,0.866266,-0.39056045,-0.5779167,0.47981873,1.1262745,-0.2664796,-0.26561904,0.6251764,0.59365946,-0.20025422,-0.33389768,0.5500383,0.4500056,-0.53579,-0.57916373,0.14287424,869.92676,812.71063,807.0696,880.80585,727.28937,-0.15740966796875,-0.0189208984375,0.9859619140625,2.474822998046875,-4.4561767578125,1.622467041015625,1.0,1.0,1.0,1.0,1.0,100.0,event
12:22:26.402,1.0641073,-0.48921692,-0.5555071,1.0136182,0.866266,-0.39056045,-0.5779167,0.47981873,1.1262745,-0.2664796,-0.26561904,0.6251764,0.59365946,-0.20025422,-0.33389768,0.5500383,0.4500056,-0.53579,-0.57916373,0.14287424,868.71796,812.3077,806.6667,882.01465,738.97437,-0.15740966796875,-0.0189208984375,0.9859619140625,2.474822998046875,-4.4561767578125,1.622467041015625,1.0,1.0,1.0,1.0,1.0,100.0,event
12:22:26.403,1.0641073,-0.48921692,-0.5555071,1.0136182,0.866266,-0.39056045,-0.5779167,0.47981873,1.1262745,-0.2664796,-0.26561904,0.6251764,0.59365946,-0.20025422,-0.33389768,0.5500383,0.4500056,-0.53579,-0.57916373,0.14287424,855.42126,813.1135,803.44324,855.0183,854.21246,-0.15740966796875,-0.0189208984375,0.9859619140625,2.474822998046875,-4.4561767578125,1.622467041015625,1.0,1.0,1.0,1.0,1.0,100.0,event
12:22:26.403,1.0641073,-0.48921692,-0.5555071,1.0136182,0.866266,-0.39056045,-0.5779167,0.47981873,1.1262745,-0.2664796,-0.26561904,0.6251764,0.59365946,-0.20025422,-0.33389768,0.5500383,0.4500056,-0.53579,-0.57916373,0.14287424,848.97437,813.1135,801.4286,850.18317,896.52014,-0.15740966796875,-0.0189208984375,0.9859619140625,2.474822998046875,-4.4561767578125,1.622467041015625,1.0,1.0,1.0,1.0,1.0,100.0,event
12:22:26.404,1.0641073,-0.48921692,-0.5555071,1.0136182,0.866266,-0.39056045,-0.5779167,0.47981873,1.1262745,-0.2664796,-0.26561904,0.6251764,0.59365946,-0.20025422,-0.33389768,0.5500383,0.4500056,-0.53579,-0.57916373,0.14287424,856.63007,811.9048,804.2491,835.2747,841.31866,-0.15740966796875,-0.0189208984375,0.9859619140625,2.474822998046875,-4.4561767578125,1.622467041015625,1.0,1.0,1.0,1.0,1.0,100.0,event
12:22:26.405,1.0641073,-0.48921692,-0.5555071,1.0136182,0.866266,-0.39056045,-0.5779167,0.47981873,1.1262745,-0.2664796,-0.26561904,0.6251764,0.59365946,-0.20025422,-0.33389768,0.5500383,0.4500056,-0.53579,-0.57916373,0.14287424,870.7326,813.91943,808.2784,837.28937,736.9597,-0.15740966796875,-0.0189208984375,0.9859619140625,2.474822998046875,-4.4561767578125,1.622467041015625,1.0,1.0,1.0,1.0,1.0,100.0,event
12:22:26.405,1.0641073,-0.48921692,-0.5555071,1.0136182,0.866266,-0.39056045,-0.5779167,0.47981873,1.1262745,-0.2664796,-0.26561904,0.6251764,0.59365946,-0.20025422,-0.33389768,0.5500383,0.4500056,-0.53579,-0.57916373,0.14287424,861.06226,814.7253,809.4872,849.7802,792.1612,-0.15740966796875,-0.0189208984375,0.9859619140625,2.474822998046875,-4.4561767578125,1.622467041015625,1.0,1.0,1.0,1.0,1.0,100.0,event
12:22:26.406,1.0641073,-0.48921692,-0.5555071,1.0136182,0.866266,-0.39056045,-0.5779167,0.47981873,1.1262745,-0.2664796,-0.26561904,0.6251764,0.59365946,-0.20025422,-0.33389768,0.5500383,0.4500056,-0.53579,-0.57916373,0.14287424,840.5128,813.91943,808.2784,833.663,977.1062,-0.15740966796875,-0.0189208984375,0.9859619140625,2.474822998046875,-4.4561767578125,1.622467041015625,1.0,1.0,1.0,1.0,1.0,100.0,event
12:22:26.407,1.0641073,-0.48921692,-0.5555071,1.0136182,0.866266,-0.39056045,-0.5779167,0.47981873,1.1262745,-0.2664796,-0.26561904,0.6251764,0.59365946,-0.20025422,-0.33389768,0.5500383,0.4500056,-0.53579,-0.57916373,0.14287424,833.663,811.9048,803.44324,813.5165,889.2674,-0.15740966796875,-0.0189208984375,0.9859619140625,2.474822998046875,-4.4561767578125,1.622467041015625,1.0,1.0,1.0,1.0,1.0,100.0,event
12:22:26.433,1.0641073,-0.48921692,-0.5555071,1.0136182,0.866266,-0.39056045,-0.5779167,0.47981873,1.1262745,-0.2664796,-0.26561904,0.6251764,0.59365946,-0.20025422,-0.33389768,0.5500383,0.4500056,-0.53579,-0.57916373,0.14287424,841.31866,812.3077,803.8461,830.0366,678.5348,-0.1566162109375,-0.0264892578125,0.96539306640625,0.9869384765625,-4.9945068359375,1.495361328125,1.0,1.0,1.0,1.0,1.0,100.0,event
12:22:26.434,1.0641073,-0.48921692,-0.5555071,1.0136182,0.866266,-0.39056045,-0.5779167,0.47981873,1.1262745,-0.2664796,-0.26561904,0.6251764,0.59365946,-0.20025422,-0.33389768,0.5500383,0.4500056,-0.53579,-0.57916373,0.14287424,858.24176,810.696,807.47253,847.3626,828.022,-0.1566162109375,-0.0264892578125,0.96539306640625,0.9869384765625,-4.9945068359375,1.495361328125,1.0,1.0,1.0,1.0,1.0,100.0,event
12:22:26.435,1.0641073,-0.48921692,-0.5555071,1.0136182,0.866266,-0.39056045,-0.5779167,0.47981873,1.1262745,-0.2664796,-0.26561904,0.6251764,0.59365946,-0.20025422,-0.33389768,0.5500383,0.4500056,-0.53579,-0.57916373,0.14287424,870.32965,813.91943,807.8755,854.61536,993.6264,-0.1566162109375,-0.0264892578125,0.96539306640625,0.9869384765625,-4.9945068359375,1.495361328125,1.0,1.0,1.0,1.0,1.0,100.0,event
12:22:26.435,1.0641073,-0.48921692,-0.5555071,1.0136182,0.866266,-0.39056045,-0.5779167,0.47981873,1.1262745,-0.2664796,-0.26561904,0.6251764,0.59365946,-0.20025422,-0.33389768,0.5500383,0.4500056,-0.53579,-0.57916373,0.14287424,861.4652,817.1429,809.0842,850.18317,774.0293,-0.1566162109375,-0.0264892578125,0.96539306640625,0.9869384765625,-4.9945068359375,1.495361328125,1.0,1.0,1.0,1.0,1.0,100.0,event
12:22:26.436,1.0641073,-0.48921692,-0.5555071,1.0136182,0.866266,-0.39056045,-0.5779167,0.47981873,1.1262745,-0.2664796,-0.26561904,0.6251764,0.59365946,-0.20025422,-0.33389768,0.5500383,0.4500056,-0.53579,-0.57916373,0.14287424,839.304,811.0989,803.44324,822.7839,673.69965,-0.1566162109375,-0.0264892578125,0.96539306640625,0.9869384765625,-4.9945068359375,1.495361328125,1.0,1.0,1.0,1.0,1.0,100.0,event
12:22:26.437,1.0641073,-0.48921692,-0.5555071,1.0136182,0.866266,-0.39056045,-0.5779167,0.47981873,1.1262745,-0.2664796,-0.26561904,0.6251764,0.59365946,-0.20025422,-0.33389768,0.5500383,0.4500056,-0.53579,-0.57916373,0.14287424,840.5128,811.0989,800.6227,832.4542,914.2491,-0.1566162109375,-0.0264892578125,0.96539306640625,0.9869384765625,-4.9945068359375,1.495361328125,1.0,1.0,1.0,1.0,1.0,100.0,event
12:22:26.437,1.0641073,-0.48921692,-0.5555071,1.0136182,0.866266,-0.39056045,-0.5779167,0.47981873,1.1262745,-0.2664796,-0.26561904,0.6251764,0.59365946,-0.20025422,-0.33389768,0.5500383,0.4500056,-0.53579,-0.57916373,0.14287424,835.2747,810.293,805.4579,845.34796,1006.9231,-0.1566162109375,-0.0264892578125,0.96539306640625,0.9869384765625,-4.9945068359375,1.495361328125,1.0,1.0,1.0,1.0,1.0,100.0,event
12:22:26.438,1.0641073,-0.48921692,-0.5555071,1.0136182,0.866266,-0.39056045,-0.5779167,0.47981873,1.1262745,-0.2664796,-0.26561904,0.6251764,0.59365946,-0.20025422,-0.33389768,0.5500383,0.4500056,-0.53579,-0.57916373,0.14287424,832.8571,808.68134,809.0842,855.0183,801.02563,-0.1566162109375,-0.0264892578125,0.96539306640625,0.9869384765625,-4.9945068359375,1.495361328125,1.0,1.0,1.0,1.0,1.0,100.0,event
12:22:26.438,1.0641073,-0.48921692,-0.5555071,1.0136182,0.866266,-0.39056045,-0.5779167,0.47981873,1.1262745,-0.2664796,-0.26561904,0.6251764,0.59365946,-0.20025422,-0.33389768,0.5500383,0.4500056,-0.53579,-0.57916373,0.14287424,848.5714,809.4872,809.89014,858.24176,704.3223,-0.1566162109375,-0.0264892578125,0.96539306640625,0.9869384765625,-4.9945068359375,1.495361328125,1.0,1.0,1.0,1.0,1.0,100.0,event
12:22:26.439,1.0641073,-0.48921692,-0.5555071,1.0136182,0.866266,-0.39056045,-0.5779167,0.47981873,1.1262745,-0.2664796,-0.26561904,0.6251764,0.59365946,-0.20025422,-0.33389768,0.5500383,0.4500056,-0.53579,-0.57916373,0.14287424,825.6044,808.68134,807.47253,824.7985,816.337,-0.1566162109375,-0.0264892578125,0.96539306640625,0.9869384765625,-4.9945068359375,1.495361328125,1.0,1.0,1.0,1.0,1.0,100.0,event
12:22:26.441,1.0641073,-0.48921692,-0.5555071,1.0136182,0.866266,-0.39056045,-0.5779167,0.47981873,1.1262745,-0.2664796,-0.26561904,0.6251764,0.59365946,-0.20025422,-0.33389768,0.5500383,0.4500056,-0.53579,-0.57916373,0.14287424,816.7399,807.0696,805.4579,823.1868,807.0696,-0.1566162109375,-0.0264892578125,0.96539306640625,0.9869384765625,-4.9945068359375,1.495361328125,1.0,1.0,1.0,1.0,1.0,100.0,event
12:22:26.442,1.0641073,-0.48921692,-0.5555071,1.0136182,0.866266,-0.39056045,-0.5779167,0.47981873,1.1262745,-0.2664796,-0.26561904,0.6251764,0.59365946,-0.20025422,-0.33389768,0.5500383,0.4500056,-0.53579,-0.57916373,0.14287424,834.4689,807.8755,805.05493,826.0073,682.1612,-0.1566162109375,-0.0264892578125,0.96539306640625,0.9869384765625,-4.9945068359375,1.495361328125,1.0,1.0,1.0,1.0,1.0,100.0,event
12:22:26.471,1.0641073,-0.48921692,-0.5555071,1.0136182,0.866266,-0.39056045,-0.5779167,0.47981873,1.1262745,-0.2664796,-0.26561904,0.6251764,0.59365946,-0.20025422,-0.33389768,0.5500383,0.4500056,-0.53579,-0.57916373,0.14287424,854.21246,807.8755,807.47253,826.4103,813.1135,-0.1502685546875,-0.02947998046875,0.97406005859375,2.071075439453125,-3.222503662109375,0.067291259765625,1.0,1.0,1.0,1.0,1.0,100.0,event
12:22:26.473,1.0641073,-0.48921692,-0.5555071,1.0136182,0.866266,-0.39056045,-0.5779167,0.47981873,1.1262745,-0.2664796,-0.26561904,0.6251764,0.59365946,-0.20025422,-0.33389768,0.5500383,0.4500056,-0.53579,-0.57916373,0.14287424,859.45056,809.0842,812.71063,844.94507,907.8022,-0.1502685546875,-0.02947998046875,0.97406005859375,2.071075439453125,-3.222503662109375,0.067291259765625,1.0,1.0,1.0,1.0,1.0,100.0,event
12:22:26.474,1.0641073,-0.48921692,-0.5555071,1.0136182,0.866266,-0.39056045,-0.5779167,0.47981873,1.1262745,-0.2664796,-0.26561904,0.6251764,0.59365946,-0.20025422,-0.33389768,0.5500383,0.4500056,-0.53579,-0.57916373,0.14287424,841.7216,809.89014,809.4872,821.5751,830.4396,-0.1502685546875,-0.02947998046875,0.97406005859375,2.071075439453125,-3.222503662109375,0.067291259765625,1.0,1.0,1.0,1.0,1.0,100.0,event
12:22:26.474,1.0641073,-0.48921692,-0.5555071,1.0136182,0.866266,-0.39056045,-0.5779167,0.47981873,1.1262745,-0.2664796,-0.26561904,0.6251764,0.59365946,-0.20025422,-0.33389768,0.5500383,0.4500056,-0.53579,-0.57916373,0.14287424,829.6337,807.0696,803.8461,794.9817,720.84247,-0.1502685546875,-0.02947998046875,0.97406005859375,2.071075439453125,-3.222503662109375,0.067291259765625,1.0,1.0,1.0,1.0,1.0,100.0,event
12:22:26.475,1.0641073,-0.48921692,-0.5555071,1.0136182,0.866266,-0.39056045,-0.5779167,0.47981873,1.1262745,-0.2664796,-0.26561904,0.6251764,0.59365946,-0.20025422,-0.33389768,0.5500383,0.4500056,-0.53579,-0.57916373,0.14287424,833.2601,804.65204,803.44324,810.293,713.5897,-0.1502685546875,-0.02947998046875,0.97406005859375,2.071075439453125,-3.222503662109375,0.067291259765625,1.0,1.0,1.0,1.0,1.0,100.0,event
12:22:26.476,1.0874745,-0.43497065,-0.5594987,1.0136182,0.88689715,-0.36652136,-0.6136109,0.47981873,1.1262745,-0.25354436,-0.34384522,0.6251764,0.6132182,-0.19020256,-0.34506345,0.5500383,0.46501306,-0.5395706,-0.5781729,0.14287424,842.1245,804.65204,806.6667,837.6923,855.0183,-0.1502685546875,-0.02947998046875,0.97406005859375,2.071075439453125,-3.222503662109375,0.067291259765625,1.0,1.0,1.0,1.0,1.0,100.0,event
12:22:26.480,1.0874745,-0.43497065,-0.5594987,1.0136182,0.88689715,-0.36652136,-0.6136109,0.47981873,1.1262745,-0.25354436,-0.34384522,0.6251764,0.6132182,-0.19020256,-0.34506345,0.5500383,0.46501306,-0.5395706,-0.5781729,0.14287424,849.7802,807.0696,810.696,863.8828,973.8828,-0.1502685546875,-0.02947998046875,0.97406005859375,2.071075439453125,-3.222503662109375,0.067291259765625,1.0,1.0,1.0,1.0,1.0,100.0,event
12:22:26.481,1.0874745,-0.43497065,-0.5594987,1.0136182,0.88689715,-0.36652136,-0.6136109,0.47981873,1.1262745,-0.25354436,-0.34384522,0.6251764,0.6132182,-0.19020256,-0.34506345,0.5500383,0.46501306,-0.5395706,-0.5781729,0.14287424,834.4689,809.0842,811.9048,834.0659,838.49817,-0.1502685546875,-0.02947998046875,0.97406005859375,2.071075439453125,-3.222503662109375,0.067291259765625,1.0,1.0,1.0,1.0,1.0,100.0,event
12:22:26.481,1.0874745,-0.43497065,-0.5594987,1.0136182,0.88689715,-0.36652136,-0.6136109,0.47981873,1.1262745,-0.25354436,-0.34384522,0.6251764,0.6132182,-0.19020256,-0.34506345,0.5500383,0.46501306,-0.5395706,-0.5781729,0.14287424,820.3663,808.68134,807.0696,784.90845,682.1612,-0.1502685546875,-0.02947998046875,0.97406005859375,2.071075439453125,-3.222503662109375,0.067291259765625,1.0,1.0,1.0,1.0,1.0,100.0,event
12:22:26.482,1.0874745,-0.43497065,-0.5594987,1.0136182,0.88689715,-0.36652136,-0.6136109,0.47981873,1.1262745,-0.25354436,-0.34384522,0.6251764,0.6132182,-0.19020256,-0.34506345,0.5500383,0.46501306,-0.5395706,-0.5781729,0.14287424,867.50916,806.26373,806.26373,841.31866,816.337,-0.1502685546875,-0.02947998046875,0.97406005859375,2.071075439453125,-3.222503662109375,0.067291259765625,1.0,1.0,1.0,1.0,1.0,100.0,event
12:22:26.482,1.0874745,-0.43497065,-0.5594987,1.0136182,0.88689715,-0.36652136,-0.6136109,0.47981873,1.1262745,-0.25354436,-0.34384522,0.6251764,0.6132182,-0.19020256,-0.34506345,0.5500383,0.46501306,-0.5395706,-0.5781729,0.14287424,836.08057,805.8608,803.8461,808.68134,837.28937,-0.1502685546875,-0.02947998046875,0.97406005859375,2.071075439453125,-3.222503662109375,0.067291259765625,1.0,1.0,1.0,1.0,1.0,100.0,event
12:22:26.483,1.0874745,-0.43497065,-0.5594987,1.0136182,0.88689715,-0.36652136,-0.6136109,0.47981873,1.1262745,-0.25354436,-0.34384522,0.6251764,0.6132182,-0.19020256,-0.34506345,0.5500383,0.46501306,-0.5395706,-0.5781729,0.14287424,861.06226,804.65204,806.26373,846.55676,687.8022,-0.1502685546875,-0.02947998046875,0.97406005859375,2.071075439453125,-3.222503662109375,0.067291259765625,1.0,1.0,1.0,1.0,1.0,100.0,event
12:22:26.537,1.0874745,-0.43497065,-0.5594987,1.0136182,0.88689715,-0.36652136,-0.6136109,0.47981873,1.1262745,-0.25354436,-0.34384522,0.6251764,0.6132182,-0.19020256,-0.34506345,0.5500383,0.46501306,-0.5395706,-0.5781729,0.14287424,827.619,801.4286,805.05493,826.0073,756.30035,-0.1502685546875,-0.02947998046875,0.97406005859375,2.071075439453125,-3.222503662109375,0.067291259765625,1.0,1.0,1.0,1.0,1.0,100.0,event
12:22:26.538,1.0874745,-0.43497065,-0.5594987,1.0136182,0.88689715,-0.36652136,-0.6136109,0.47981873,1.1262745,-0.25354436,-0.34384522,0.6251764,0.6132182,-0.19020256,-0.34506345,0.5500383,0.46501306,-0.5395706,-0.5781729,0.14287424,817.9487,803.8461,806.26373,822.381,757.9121,-0.1502685546875,-0.02947998046875,0.97406005859375,2.071075439453125,-3.222503662109375,0.067291259765625,1.0,1.0,1.0,1.0,1.0,100.0,event
12:22:26.539,1.0874745,-0.43497065,-0.5594987,1.0136182,0.88689715,-0.36652136,-0.6136109,0.47981873,1.1262745,-0.25354436,-0.34384522,0.6251764,0.6132182,-0.19020256,-0.34506345,0.5500383,0.46501306,-0.5395706,-0.5781729,0.14287424,827.2161,806.26373,807.8755,830.0366,649.12085,-0.1502685546875,-0.02947998046875,0.97406005859375,2.071075439453125,-3.222503662109375,0.067291259765625,1.0,1.0,1.0,1.0,1.0,100.0,event
12:22:26.539,1.0874745,-0.43497065,-0.5594987,1.0136182,0.88689715,-0.36652136,-0.6136109,0.47981873,1.1262745,-0.25354436,-0.34384522,0.6251764,0.6132182,-0.19020256,-0.34506345,0.5500383,0.46501306,-0.5395706,-0.5781729,0.14287424,846.55676,805.4579,804.2491,825.6044,748.6447,-0.1502685546875,-0.02947998046875,0.97406005859375,2.071075439453125,-3.222503662109375,0.067291259765625,1.0,1.0,1.0,1.0,1.0,100.0,event
12:22:26.540,1.0874745,-0.43497065,-0.5594987,1.0136182,0.88689715,-0.36652136,-0.6136109,0.47981873,1.1262745,-0.25354436,-0.34384522,0.6251764,0.6132182,-0.19020256,-0.34506345,0.5500383,0.46501306,-0.5395706,-0.5781729,0.14287424,845.7509,804.2491,800.2198,828.4249,973.0769,-0.1502685546875,-0.02947998046875,0.97406005859375,2.071075439453125,-3.222503662109375,0.067291259765625,1.0,1.0,1.0,1.0,1.0,100.0,event
12:22:26.541,1.0874745,-0.43497065,-0.5594987,1.0136182,0.88689715,-0.36652136,-0.6136109,0.47981873,1.1262745,-0.25354436,-0.34384522,0.6251764,0.6132182,-0.19020256,-0.34506345,0.5500383,0.46501306,-0.5395706,-0.5781729,0.14287424,808.68134,804.2491,801.4286,778.46155,929.15753,-0.1502685546875,-0.02947998046875,0.97406005859375,2.071075439453125,-3.222503662109375,0.067291259765625,1.0,1.0,1.0,1.0,1.0,100.0,event
12:22:26.541,1.0874745,-0.43497065,-0.5594987,1.0136182,0.88689715,-0.36652136,-0.6136109,0.47981873,1.1262745,-0.25354436,-0.34384522,0.6251764,0.6132182,-0.19020256,-0.34506345,0.5500383,0.46501306,-0.5395706,-0.5781729,0.14287424,826.0073,802.6374,801.02563,806.26373,1013.7729,-0.1502685546875,-0.02947998046875,0.97406005859375,2.071075439453125,-3.222503662109375,0.067291259765625,1.0,1.0,1.0,1.0,1.0,100.0,event
12:22:26.542,1.0874745,-0.43497065,-0.5594987,1.0136182,0.88689715,-0.36652136,-0.6136109,0.47981873,1.1262745,-0.25354436,-0.34384522,0.6251764,0.6132182,-0.19020256,-0.34506345,0.5500383,0.46501306,-0.5395706,-0.5781729,0.14287424,848.5714,803.44324,805.8608,828.8278,884.0293,-0.1502685546875,-0.02947998046875,0.97406005859375,2.071075439453125,-3.222503662109375,0.067291259765625,1.0,1.0,1.0,1.0,1.0,100.0,event
12:22:26.542,1.0874745,-0.43497065,-0.5594987,1.0136182,0.88689715,-0.36652136,-0.6136109,0.47981873,1.1262745,-0.25354436,-0.34384522,0.6251764,0.6132182,-0.19020256,-0.34506345,0.5500383,0.46501306,-0.5395706,-0.5781729,0.14287424,820.7692,807.8755,804.2491,790.54944,774.43225,-0.1502685546875,-0.02947998046875,0.97406005859375,2.071075439453125,-3.222503662109375,0.067291259765625,1.0,1.0,1.0,1.0,1.0,100.0,event
12:22:26.543,1.0874745,-0.43497065,-0.5594987,1.0136182,0.88689715,-0.36652136,-0.6136109,0.47981873,1.1262745,-0.25354436,-0.34384522,0.6251764,0.6132182,-0.19020256,-0.34506345,0.5500383,0.46501306,-0.5395706,-0.5781729,0.14287424,856.63007,801.4286,799.81683,833.2601,1010.9524,-0.1502685546875,-0.02947998046875,0.97406005859375,2.071075439453125,-3.222503662109375,0.067291259765625,1.0,1.0,1.0,1.0,1.0,100.0,event
12:22:26.543,1.0874745,-0.43497065,-0.5594987,1.0136182,0.88689715,-0.36652136,-0.6136109,0.47981873,1.1262745,-0.25354436,-0.34384522,0.6251764,0.6132182,-0.19020256,-0.34506345,0.5500383,0.46501306,-0.5395706,-0.5781729,0.14287424,841.7216,805.05493,802.23444,792.96704,750.2564,-0.1502685546875,-0.02947998046875,0.97406005859375,2.071075439453125,-3.222503662109375,0.067291259765625,1.0,1.0,1.0,1.0,1.0,100.0,event
12:22:26.544,1.0874745,-0.43497065,-0.5594987,1.0136182,0.88689715,-0.36652136,-0.6136109,0.47981873,1.1262745,-0.25354436,-0.34384522,0.6251764,0.6132182,-0.19020256,-0.34506345,0.5500383,0.46501306,-0.5395706,-0.5781729,0.14287424,819.9634,805.8608,808.2784,779.67035,732.1245,-0.1502685546875,-0.02947998046875,0.97406005859375,2.071075439453125,-3.222503662109375,0.067291259765625,1.0,1.0,1.0,1.0,1.0,100.0,event
12:22:26.571,1.0874745,-0.43497065,-0.5594987,1.0136182,0.88689715,-0.36652136,-0.6136109,0.47981873,1.1262745,-0.25354436,-0.34384522,0.6251764,0.6132182,-0.19020256,-0.34506345,0.5500383,0.46501306,-0.5395706,-0.5781729,0.14287424,818.7546,806.6667,807.8755,794.9817,763.5531,-0.1529541015625,-0.01934814453125,0.9775390625,2.392578125,-2.878570556640625,0.88226318359375,1.0,1.0,1.0,1.0,1.0,100.0,event
12:22:26.572,1.0874745,-0.43497065,-0.5594987,1.0136182,0.88689715,-0.36652136,-0.6136109,0.47981873,1.1262745,-0.25354436,-0.34384522,0.6251764,0.6132182,-0.19020256,-0.34506345,0.5500383,0.46501306,-0.5395706,-0.5781729,0.14287424,832.0513,805.05493,808.68134,830.4396,739.3773,-0.1529541015625,-0.01934814453125,0.9775390625,2.392578125,-2.878570556640625,0.88226318359375,1.0,1.0,1.0,1.0,1.0,100.0,event
12:22:26.573,1.0874745,-0.43497065,-0.5594987,1.0136182,0.88689715,-0.36652136,-0.6136109,0.47981873,1.1262745,-0.25354436,-0.34384522,0.6251764,0.6132182,-0.19020256,-0.34506345,0.5500383,0.46501306,-0.5395706,-0.5781729,0.14287424,834.87177,803.8461,809.0842,847.76556,744.21246,-0.1529541015625,-0.01934814453125,0.9775390625,2.392578125,-2.878570556640625,0.88226318359375,1.0,1.0,1.0,1.0,1.0,100.0,event
12:22:26.573,1.0874745,-0.43497065,-0.5594987,1.0136182,0.88689715,-0.36652136,-0.6136109,0.47981873,1.1262745,-0.25354436,-0.34384522,0.6251764,0.6132182,-0.19020256,-0.34506345,0.5500383,0.46501306,-0.5395706,-0.5781729,0.14287424,814.7253,803.8461,807.0696,805.8608,726.8865,-0.1529541015625,-0.01934814453125,0.9775390625,2.392578125,-2.878570556640625,0.88226318359375,1.0,1.0,1.0,1.0,1.0,100.0,event
12:22:26.574,1.0874745,-0.43497065,-0.5594987,1.0136182,0.88689715,-0.36652136,-0.6136109,0.47981873,1.1262745,-0.25354436,-0.34384522,0.6251764,0.6132182,-0.19020256,-0.34506345,0.5500383,0.46501306,-0.5395706,-0.5781729,0.14287424,809.0842,806.26373,804.2491,820.7692,817.1429,-0.1529541015625,-0.01934814453125,0.9775390625,2.392578125,-2.878570556640625,0.88226318359375,1.0,1.0,1.0,1.0,1.0,100.0,event
12:22:26.574,1.0874745,-0.43497065,-0.5594987,1.0136182,0.88689715,-0.36652136,-0.6136109,0.47981873,1.1262745,-0.25354436,-0.34384522,0.6251764,0.6132182,-0.19020256,-0.34506345,0.5500383,0.46501306,-0.5395706,-0.5781729,0.14287424,813.5165,805.05493,802.6374,794.57874,765.16486,-0.1529541015625,-0.01934814453125,0.9775390625,2.392578125,-2.878570556640625,0.88226318359375,1.0,1.0,1.0,1.0,1.0,100.0,event
12:22:26.575,1.1079642,-0.3835275,-0.549494,0.96693003,0.9087975,-0.34468666,-0.6484992,0.4006141,1.1262745,-0.26777828,-0.36792368,0.6071909,0.62948257,-0.18554285,-0.35607716,0.5473206,0.48025274,-0.5503263,-0.57618743,0.100665264,840.9158,809.0842,808.2784,850.58606,842.52747,-0.1529541015625,-0.01934814453125,0.9775390625,2.392578125,-2.878570556640625,0.88226318359375,1.0,1.0,1.0,1.0,1.0,100.0,event
12:22:26.575,1.0874745,-0.43497065,-0.5594987,1.0136182,0.88689715,-0.36652136,-0.6136109,0.47981873,1.1262745,-0.25354436,-0.34384522,0.6251764,0.6132182,-0.19020256,-0.34506345,0.5500383,0.46501306,-0.5395706,-0.5781729,0.14287424,831.2454,807.8755,809.0842,833.2601,820.3663,-0.1529541015625,-0.01934814453125,0.9775390625,2.392578125,-2.878570556640625,0.88226318359375,1.0,1.0,1.0,1.0,1.0,100.0,event
12:22:26.580,1.1079642,-0.3835275,-0.549494,0.96693003,0.9087975,-0.34468666,-0.6484992,0.4006141,1.1262745,-0.26777828,-0.36792368,0.6071909,0.62948257,-0.18554285,-0.35607716,0.5473206,0.48025274,-0.5503263,-0.57618743,0.100665264,813.5165,811.50183,807.0696,850.18317,911.4286,-0.1529541015625,-0.01934814453125,0.9775390625,2.392578125,-2.878570556640625,0.88226318359375,1.0,1.0,1.0,1.0,1.0,100.0,event
12:22:26.581,1.1079642,-0.3835275,-0.549494,0.96693003,0.9087975,-0.34468666,-0.6484992,0.4006141,1.1262745,-0.26777828,-0.36792368,0.6071909,0.62948257,-0.18554285,-0.35607716,0.5473206,0.48025274,-0.5503263,-0.57618743,0.100665264,814.7253,813.5165,807.8755,796.99634,828.4249,-0.1529541015625,-0.01934814453125,0.9775390625,2.392578125,-2.878570556640625,0.88226318359375,1.0,1.0,1.0,1.0,1.0,100.0,event
12:22:26.581,1.1079642,-0.3835275,-0.549494,0.96693003,0.9087975,-0.34468666,-0.6484992,0.4006141,1.1262745,-0.26777828,-0.36792368,0.6071909,0.62948257,-0.18554285,-0.35607716,0.5473206,0.48025274,-0.5503263,-0.57618743,0.100665264,820.7692,808.68134,804.2491,776.04395,715.6044,-0.1529541015625,-0.01934814453125,0.9775390625,2.392578125,-2.878570556640625,0.88226318359375,1.0,1.0,1.0,1.0,1.0,100.0,event
12:22:26.582,1.1079642,-0.3835275,-0.549494,0.96693003,0.9087975,-0.34468666,-0.6484992,0.4006141,1.1262745,-0.26777828,-0.36792368,0.6071909,0.62948257,-0.18554285,-0.35607716,0.5473206,0.48025274,-0.5503263,-0.57618743,0.100665264,838.49817,805.8608,806.26373,792.96704,785.31134,-0.1529541015625,-0.01934814453125,0.9775390625,2.392578125,-2.878570556640625,0.88226318359375,1.0,1.0,1.0,1.0,1.0,100.0,event
12:22:26.606,1.1079642,-0.3835275,-0.549494,0.96693003,0.9087975,-0.34468666,-0.6484992,0.4006141,1.1262745,-0.26777828,-0.36792368,0.6071909,0.62948257,-0.18554285,-0.35607716,0.5473206,0.48025274,-0.5503263,-0.57618743,0.100665264,847.76556,807.47253,810.696,834.4689,997.6557,-0.1531982421875,-0.0135498046875,0.97161865234375,2.46734619140625,-2.893524169921875,0.6878662109375,1.0,1.0,1.0,1.0,1.0,100.0,event
12:22:26.607,1.1079642,-0.3835275,-0.549494,0.96693003,0.9087975,-0.34468666,-0.6484992,0.4006141,1.1262745,-0.26777828,-0.36792368,0.6071909,0.62948257,-0.18554285,-0.35607716,0.5473206,0.48025274,-0.5503263,-0.57618743,0.100665264,836.4835,812.3077,810.696,831.6484,874.7619,-0.1531982421875,-0.0135498046875,0.97161865234375,2.46734619140625,-2.893524169921875,0.6878662109375,1.0,1.0,1.0,1.0,1.0,100.0,event
12:22:26.607,1.1079642,-0.3835275,-0.549494,0.96693003,0.9087975,-0.34468666,-0.6484992,0.4006141,1.1262745,-0.26777828,-0.36792368,0.6071909,0.62948257,-0.18554285,-0.35607716,0.5473206,0.48025274,-0.5503263,-0.57618743,0.100665264,811.9048,807.0696,805.05493,799.81683,678.5348,-0.1531982421875,-0.0135498046875,0.97161865234375,2.46734619140625,-2.893524169921875,0.6878662109375,1.0,1.0,1.0,1.0,1.0,100.0,event
12:22:26.608,1.1079642,-0.3835275,-0.549494,0.96693003,0.9087975,-0.34468666,-0.6484992,0.4006141,1.1262745,-0.26777828,-0.36792368,0.6071909,0.62948257,-0.18554285,-0.35607716,0.5473206,0.48025274,-0.5503263,-0.57618743,0.100665264,821.5751,803.8461,801.8315,799.41394,743.4066,-0.1531982421875,-0.0135498046875,0.97161865234375,2.46734619140625,-2.893524169921875,0.6878662109375,1.0,1.0,1.0,1.0,1.0,100.0,event
12:22:26.608,1.1079642,-0.3835275,-0.549494,0.96693003,0.9087975,-0.34468666,-0.6484992,0.4006141,1.1262745,-0.26777828,-0.36792368,0.6071909,0.62948257,-0.18554285,-0.35607716,0.5473206,0.48025274,-0.5503263,-0.57618743,0.100665264,851.79486,809.0842,805.8608,810.293,722.8571,-0.1531982421875,-0.0135498046875,0.97161865234375,2.46734619140625,-2.893524169921875,0.6878662109375,1.0,1.0,1.0,1.0,1.0,100.0,event
12:22:26.609,1.1079642,-0.3835275,-0.549494,0.96693003,0.9087975,-0.34468666,-0.6484992,0.4006141,1.1262745,-0.26777828,-0.36792368,0.6071909,0.62948257,-0.18554285,-0.35607716,0.5473206,0.48025274,-0.5503263,-0.57618743,0.100665264,848.1685,808.2784,808.2784,826.0073,761.53845,-0.1531982421875,-0.0135498046875,0.97161865234375,2.46734619140625,-2.893524169921875,0.6878662109375,1.0,1.0,1.0,1.0,1.0,100.0,event
12:22:26.610,1.1079642,-0.3835275,-0.549494,0.96693003,0.9087975,-0.34468666,-0.6484992,0.4006141,1.1262745,-0.26777828,-0.36792368,0.6071909,0.62948257,-0.18554285,-0.35607716,0.5473206,0.48025274,-0.5503263,-0.57618743,0.100665264,848.97437,807.8755,805.8608,823.9927,832.0513,-0.1531982421875,-0.0135498046875,0.97161865234375,2.46734619140625,-2.893524169921875,0.6878662109375,1.0,1.0,1.0,1.0,1.0,100.0,event
12:22:26.610,1.1079642,-0.3835275,-0.549494,0.96693003,0.9087975,-0.34468666,-0.6484992,0.4006141,1.1262745,-0.26777828,-0.36792368,0.6071909,0.62948257,-0.18554285,-0.35607716,0.5473206,0.48025274,-0.5503263,-0.57618743,0.100665264,829.6337,808.2784,801.4286,818.3516,935.6044,-0.1531982421875,-0.0135498046875,0.97161865234375,2.46734619140625,-2.893524169921875,0.6878662109375,1.0,1.0,1.0,1.0,1.0,100.0,event
12:22:26.610,1.1079642,-0.3835275,-0.549494,0.96693003,0.9087975,-0.34468666,-0.6484992,0.4006141,1.1262745,-0.26777828,-0.36792368,0.6071909,0.62948257,-0.18554285,-0.35607716,0.5473206,0.48025274,-0.5503263,-0.57618743,0.100665264,809.4872,809.0842,801.4286,810.293,1019.011,-0.1531982421875,-0.0135498046875,0.97161865234375,2.46734619140625,-2.893524169921875,0.6878662109375,1.0,1.0,1.0,1.0,1.0,100.0,event
12:22:26.611,1.1079642,-0.3835275,-0.549494,0.96693003,0.9087975,-0.34468666,-0.6484992,0.4006141,1.1262745,-0.26777828,-0.36792368,0.6071909,0.62948257,-0.18554285,-0.35607716,0.5473206,0.48025274,-0.5503263,-0.57618743,0.100665264,844.94507,809.4872,801.4286,811.9048,830.0366,-0.1531982421875,-0.0135498046875,0.97161865234375,2.46734619140625,-2.893524169921875,0.6878662109375,1.0,1.0,1.0,1.0,1.0,100.0,event
12:22:26.611,1.1079642,-0.3835275,-0.549494,0.96693003,0.9087975,-0.34468666,-0.6484992,0.4006141,1.1262745,-0.26777828,-0.36792368,0.6071909,0.62948257,-0.18554285,-0.35607716,0.5473206,0.48025274,-0.5503263,-0.57618743,0.100665264,861.4652,810.293,800.6227,835.6777,723.663,-0.1531982421875,-0.0135498046875,0.97161865234375,2.46734619140625,-2.893524169921875,0.6878662109375,1.0,1.0,1.0,1.0,1.0,100.0,event
12:22:26.612,1.1079642,-0.3835275,-0.549494,0.96693003,0.9087975,-0.34468666,-0.6484992,0.4006141,1.1262745,-0.26777828,-0.36792368,0.6071909,0.62948257,-0.18554285,-0.35607716,0.5473206,0.48025274,-0.5503263,-0.57618743,0.100665264,858.24176,813.1135,805.4579,849.7802,782.8938,-0.1531982421875,-0.0135498046875,0.97161865234375,2.46734619140625,-2.893524169921875,0.6878662109375,1.0,1.0,1.0,1.0,1.0,100.0,event
12:22:26.671,1.1079642,-0.3835275,-0.549494,0.96693003,0.9087975,-0.34468666,-0.6484992,0.4006141,1.1262745,-0.26777828,-0.36792368,0.6071909,0.62948257,-0.18554285,-0.35607716,0.5473206,0.48025274,-0.5503263,-0.57618743,0.100665264,846.1539,809.4872,809.4872,822.7839,749.45056,-0.1712646484375,-0.017822265625,0.97747802734375,2.0037841796875,-4.628143310546875,-1.03179931640625,1.0,1.0,1.0,1.0,1.0,100.0,event
12:22:26.672,1.1079642,-0.3835275,-0.549494,0.96693003,0.9087975,-0.34468666,-0.6484992,0.4006141,1.1262745,-0.26777828,-0.36792368,0.6071909,0.62948257,-0.18554285,-0.35607716,0.5473206,0.48025274,-0.5503263,-0.57618743,0.100665264,828.4249,807.47253,807.0696,803.8461,582.23444,-0.1712646484375,-0.017822265625,0.97747802734375,2.0037841796875,-4.628143310546875,-1.03179931640625,1.0,1.0,1.0,1.0,1.0,100.0,event
12:22:26.673,1.1079642,-0.3835275,-0.549494,0.96693003,0.9087975,-0.34468666,-0.6484992,0.4006141,1.1262745,-0.26777828,-0.36792368,0.6071909,0.62948257,-0.18554285,-0.35607716,0.5473206,0.48025274,-0.5503263,-0.57618743,0.100665264,844.94507,804.2491,802.6374,817.1429,632.1978,-0.1712646484375,-0.017822265625,0.97747802734375,2.0037841796875,-4.628143310546875,-1.03179931640625,1.0,1.0,1.0,1.0,1.0,100.0,event
12:22:26.673,1.1079642,-0.3835275,-0.549494,0.96693003,0.9087975,-0.34468666,-0.6484992,0.4006141,1.1262745,-0.26777828,-0.36792368,0.6071909,0.62948257,-0.18554285,-0.35607716,0.5473206,0.48025274,-0.5503263,-0.57618743,0.100665264,864.68866,802.23444,802.6374,828.022,736.9597,-0.1712646484375,-0.017822265625,0.97747802734375,2.0037841796875,-4.628143310546875,-1.03179931640625,1.0,1.0,1.0,1.0,1.0,100.0,event
12:22:26.674,1.1079642,-0.3835275,-0.549494,0.96693003,0.9087975,-0.34468666,-0.6484992,0.4006141,1.1262745,-0.26777828,-0.36792368,0.6071909,0.62948257,-0.18554285,-0.35607716,0.5473206,0.48025274,-0.5503263,-0.57618743,0.100665264,844.5421,808.2784,805.8608,836.4835,763.5531,-0.1712646484375,-0.017822265625,0.97747802734375,2.0037841796875,-4.628143310546875,-1.03179931640625,1.0,1.0,1.0,1.0,1.0,100.0,event
12:22:26.675,1.1079642,-0.3835275,-0.549494,0.96693003,0.9087975,-0.34468666,-0.6484992,0.4006141,1.1262745,-0.26777828,-0.36792368,0.6071909,0.62948257,-0.18554285,-0.35607716,0.5473206,0.48025274,-0.5503263,-0.57618743,0.100665264,831.2454,805.05493,803.0403,808.68134,839.304,-0.1712646484375,-0.017822265625,0.97747802734375,2.0037841796875,-4.628143310546875,-1.03179931640625,1.0,1.0,1.0,1.0,1.0,100.0,event
12:22:26.675,1.1079642,-0.3835275,-0.549494,0.96693003,0.9087975,-0.34468666,-0.6484992,0.4006141,1.1262745,-0.26777828,-0.36792368,0.6071909,0.62948257,-0.18554285,-0.35607716,0.5473206,0.48025274,-0.5503263,-0.57618743,0.100665264,840.5128,803.44324,801.02563,804.65204,848.1685,-0.1712646484375,-0.017822265625,0.97747802734375,2.0037841796875,-4.628143310546875,-1.03179931640625,1.0,1.0,1.0,1.0,1.0,100.0,event
12:22:26.676,1.1079642,-0.3835275,-0.549494,0.96693003,0.9087975,-0.34468666,-0.6484992,0.4006141,1.1262745,-0.26777828,-0.36792368,0.6071909,0.62948257,-0.18554285,-0.35607716,0.5473206,0.48025274,-0.5503263,-0.57618743,0.100665264,838.0952,806.6667,801.8315,827.2161,958.97437,-0.1712646484375,-0.017822265625,0.97747802734375,2.0037841796875,-4.628143310546875,-1.03179931640625,1.0,1.0,1.0,1.0,1.0,100.0,event
12:22:26.677,1.1079642,-0.3835275,-0.549494,0.96693003,0.9087975,-0.34468666,-0.6484992,0.4006141,1.1262745,-0.26777828,-0.36792368,0.6071909,0.62948257,-0.18554285,-0.35607716,0.5473206,0.48025274,-0.5503263,-0.57618743,0.100665264,840.5128,813.1135,802.6374,832.4542,923.1135,-0.1712646484375,-0.017822265625,0.97747802734375,2.0037841796875,-4.628143310546875,-1.03179931640625,1.0,1.0,1.0,1.0,1.0,100.0,event
12:22:26.678,1.133903,-0.3496278,-0.5374157,0.8888268,0.9444094,-0.3283158,-0.67182314,0.30438787,1.1262745,-0.27478793,-0.34292805,0.56638026,0.6439864,-0.18574825,-0.36539382,0.5430631,0.49651644,-0.567177,-0.5649505,0.07195347,859.85345,813.1135,804.65204,835.2747,769.19415,-0.1712646484375,-0.017822265625,0.97747802734375,2.0037841796875,-4.628143310546875,-1.03179931640625,1.0,1.0,1.0,1.0,1.0,100.0,event
12:22:26.681,1.133903,-0.3496278,-0.5374157,0.8888268,0.9444094,-0.3283158,-0.67182314,0.30438787,1.1262745,-0.27478793,-0.34292805,0.56638026,0.6439864,-0.18574825,-0.36539382,0.5430631,0.49651644,-0.567177,-0.5649505,0.07195347,843.73627,806.6667,800.2198,818.7546,765.56775,-0.1712646484375,-0.017822265625,0.97747802734375,2.0037841796875,-4.628143310546875,-1.03179931640625,1.0,1.0,1.0,1.0,1.0,100.0,event
12:22:26.682,1.133903,-0.3496278,-0.5374157,0.8888268,0.9444094,-0.3283158,-0.67182314,0.30438787,1.1262745,-0.27478793,-0.34292805,0.56638026,0.6439864,-0.18574825,-0.36539382,0.5430631,0.49651644,-0.567177,-0.5649505,0.07195347,820.3663,803.44324,800.2198,828.8278,706.7399,-0.1712646484375,-0.017822265625,0.97747802734375,2.0037841796875,-4.628143310546875,-1.03179931640625,1.0,1.0,1.0,1.0,1.0,100.0,event
12:22:26.708,1.133903,-0.3496278,-0.5374157,0.8888268,0.9444094,-0.3283158,-0.67182314,0.30438787,1.1262745,-0.27478793,-0.34292805,0.56638026,0.6439864,-0.18574825,-0.36539382,0.5430631,0.49651644,-0.567177,-0.5649505,0.07195347,842.52747,797.3993,801.4286,860.2564,706.337,-0.1544189453125,-0.0245361328125,0.97314453125,2.0635986328125,-4.807586669921875,-2.400054931640625,1.0,1.0,1.0,1.0,1.0,100.0,event
12:22:26.709,1.133903,-0.3496278,-0.5374157,0.8888268,0.9444094,-0.3283158,-0.67182314,0.30438787,1.1262745,-0.27478793,-0.34292805,0.56638026,0.6439864,-0.18574825,-0.36539382,0.5430631,0.49651644,-0.567177,-0.5649505,0.07195347,881.6117,804.65204,798.20514,865.4945,737.3626,-0.1544189453125,-0.0245361328125,0.97314453125,2.0635986328125,-4.807586669921875,-2.400054931640625,1.0,1.0,1.0,1.0,1.0,100.0,event
12:22:26.710,1.133903,-0.3496278,-0.5374157,0.8888268,0.9444094,-0.3283158,-0.67182314,0.30438787,1.1262745,-0.27478793,-0.34292805,0.56638026,0.6439864,-0.18574825,-0.36539382,0.5430631,0.49651644,-0.567177,-0.5649505,0.07195347,886.04395,810.696,798.60803,811.9048,817.5458,-0.1544189453125,-0.0245361328125,0.97314453125,2.0635986328125,-4.807586669921875,-2.400054931640625,1.0,1.0,1.0,1.0,1.0,100.0,event
12:22:26.712,1.133903,-0.3496278,-0.5374157,0.8888268,0.9444094,-0.3283158,-0.67182314,0.30438787,1.1262745,-0.27478793,-0.34292805,0.56638026,0.6439864,-0.18574825,-0.36539382,0.5430631,0.49651644,-0.567177,-0.5649505,0.07195347,855.0183,809.89014,800.2198,776.8498,866.30035,-0.1544189453125,-0.0245361328125,0.97314453125,2.0635986328125,-4.807586669921875,-2.400054931640625,1.0,1.0,1.0,1.0,1.0,100.0,event
12:22:26.713,1.133903,-0.3496278,-0.5374157,0.8888268,0.9444094,-0.3283158,-0.67182314,0.30438787,1.1262745,-0.27478793,-0.34292805,0.56638026,0.6439864,-0.18574825,-0.36539382,0.5430631,0.49651644,-0.567177,-0.5649505,0.07195347,847.76556,812.71063,799.011,773.22345,799.41394,-0.1544189453125,-0.0245361328125,0.97314453125,2.0635986328125,-4.807586669921875,-2.400054931640625,1.0,1.0,1.0,1.0,1.0,100.0,event
12:22:26.715,1.133903,-0.3496278,-0.5374157,0.8888268,0.9444094,-0.3283158,-0.67182314,0.30438787,1.1262745,-0.27478793,-0.34292805,0.56638026,0.6439864,-0.18574825,-0.36539382,0.5430631,0.49651644,-0.567177,-0.5649505,0.07195347,862.674,811.50183,796.5934,788.1319,864.68866,-0.1544189453125,-0.0245361328125,0.97314453125,2.0635986328125,-4.807586669921875,-2.400054931640625,1.0,1.0,1.0,1.0,1.0,100.0,event
12:22:26.716,1.133903,-0.3496278,-0.5374157,0.8888268,0.9444094,-0.3283158,-0.67182314,0.30438787,1.1262745,-0.27478793,-0.34292805,0.56638026,0.6439864,-0.18574825,-0.36539382,0.5430631,0.49651644,-0.567177,-0.5649505,0.07195347,884.83514,812.3077,796.5934,814.3223,998.46155,-0.1544189453125,-0.0245361328125,0.97314453125,2.0635986328125,-4.807586669921875,-2.400054931640625,1.0,1.0,1.0,1.0,1.0,100.0,event
12:22:26.717,1.133903,-0.3496278,-0.5374157,0.8888268,0.9444094,-0.3283158,-0.67182314,0.30438787,1.1262745,-0.27478793,-0.34292805,0.56638026,0.6439864,-0.18574825,-0.36539382,0.5430631,0.49651644,-0.567177,-0.5649505,0.07195347,880.0,815.12823,800.2198,802.6374,1033.9194,-0.1544189453125,-0.0245361328125,0.97314453125,2.0635986328125,-4.807586669921875,-2.400054931640625,1.0,1.0,1.0,1.0,1.0,100.0,event
12:22:26.718,1.133903,-0.3496278,-0.5374157,0.8888268,0.9444094,-0.3283158,-0.67182314,0.30438787,1.1262745,-0.27478793,-0.34292805,0.56638026,0.6439864,-0.18574825,-0.36539382,0.5430631,0.49651644,-0.567177,-0.5649505,0.07195347,853.8095,813.5165,799.011,794.17584,760.7326,-0.1544189453125,-0.0245361328125,0.97314453125,2.0635986328125,-4.807586669921875,-2.400054931640625,1.0,1.0,1.0,1.0,1.0,100.0,event
12:22:26.718,1.133903,-0.3496278,-0.5374157,0.8888268,0.9444094,-0.3283158,-0.67182314,0.30438787,1.1262745,-0.27478793,-0.34292805,0.56638026,0.6439864,-0.18574825,-0.36539382,0.5430631,0.49651644,-0.567177,-0.5649505,0.07195347,838.9011,811.0989,794.9817,786.9231,688.60803,-0.1544189453125,-0.0245361328125,0.97314453125,2.0635986328125,-4.807586669921875,-2.400054931640625,1.0,1.0,1.0,1.0,1.0,100.0,event
12:22:26.719,1.133903,-0.3496278,-0.5374157,0.8888268,0.9444094,-0.3283158,-0.67182314,0.30438787,1.1262745,-0.27478793,-0.34292805,0.56638026,0.6439864,-0.18574825,-0.36539382,0.5430631,0.49651644,-0.567177,-0.5649505,0.07195347,823.1868,807.47253,796.1905,777.6557,706.337,-0.1544189453125,-0.0245361328125,0.97314453125,2.0635986328125,-4.807586669921875,-2.400054931640625,1.0,1.0,1.0,1.0,1.0,100.0,event
12:22:26.720,1.133903,-0.3496278,-0.5374157,0.8888268,0.9444094,-0.3283158,-0.67182314,0.30438787,1.1262745,-0.27478793,-0.34292805,0.56638026,0.6439864,-0.18574825,-0.36539382,0.5430631,0.49651644,-0.567177,-0.5649505,0.07195347,852.1978,806.6667,794.57874,800.6227,746.63007,-0.1544189453125,-0.0245361328125,0.97314453125,2.0635986328125,-4.807586669921875,-2.400054931640625,1.0,1.0,1.0,1.0,1.0,100.0,event
12:22:26.762,1.133903,-0.3496278,-0.5374157,0.8888268,0.9444094,-0.3283158,-0.67182314,0.30438787,1.1262745,-0.27478793,-0.34292805,0.56638026,0.6439864,-0.18574825,-0.36539382,0.5430631,0.49651644,-0.567177,-0.5649505,0.07195347,854.21246,810.696,804.2491,826.8132,761.9414,-0.1544189453125,-0.0245361328125,0.97314453125,2.0635986328125,-4.807586669921875,-2.400054931640625,1.0,1.0,1.0,1.0,1.0,100.0,event
12:22:26.762,1.133903,-0.3496278,-0.5374157,0.8888268,0.9444094,-0.3283158,-0.67182314,0.30438787,1.1262745,-0.27478793,-0.34292805,0.56638026,0.6439864,-0.18574825,-0.36539382,0.5430631,0.49651644,-0.567177,-0.5649505,0.07195347,878.7912,809.0842,798.60803,830.0366,773.6264,-0.1544189453125,-0.0245361328125,0.97314453125,2.0635986328125,-4.807586669921875,-2.400054931640625,1.0,1.0,1.0,1.0,1.0,100.0,event
12:22:26.763,1.133903,-0.3496278,-0.5374157,0.8888268,0.9444094,-0.3283158,-0.67182314,0.30438787,1.1262745,-0.27478793,-0.34292805,0.56638026,0.6439864,-0.18574825,-0.36539382,0.5430631,0.49651644,-0.567177,-0.5649505,0.07195347,837.6923,810.293,801.02563,797.8022,780.4762,-0.1544189453125,-0.0245361328125,0.97314453125,2.0635986328125,-4.807586669921875,-2.400054931640625,1.0,1.0,1.0,1.0,1.0,100.0,event
12:22:26.763,1.133903,-0.3496278,-0.5374157,0.8888268,0.9444094,-0.3283158,-0.67182314,0.30438787,1.1262745,-0.27478793,-0.34292805,0.56638026,0.6439864,-0.18574825,-0.36539382,0.5430631,0.49651644,-0.567177,-0.5649505,0.07195347,834.87177,808.2784,796.99634,791.75824,804.65204,-0.1544189453125,-0.0245361328125,0.97314453125,2.0635986328125,-4.807586669921875,-2.400054931640625,1.0,1.0,1.0,1.0,1.0,100.0,event
12:22:26.764,1.133903,-0.3496278,-0.5374157,0.8888268,0.9444094,-0.3283158,-0.67182314,0.30438787,1.1262745,-0.27478793,-0.34292805,0.56638026,0.6439864,-0.18574825,-0.36539382,0.5430631,0.49651644,-0.567177,-0.5649505,0.07195347,857.8388,805.4579,797.3993,809.0842,873.95605,-0.1544189453125,-0.0245361328125,0.97314453125,2.0635986328125,-4.807586669921875,-2.400054931640625,1.0,1.0,1.0,1.0,1.0,100.0,event
12:22:26.764,1.133903,-0.3496278,-0.5374157,0.8888268,0.9444094,-0.3283158,-0.67182314,0.30438787,1.1262745,-0.27478793,-0.34292805,0.56638026,0.6439864,-0.18574825,-0.36539382,0.5430631,0.49651644,-0.567177,-0.5649505,0.07195347,886.8498,805.8608,798.60803,817.9487,835.6777,-0.1544189453125,-0.0245361328125,0.97314453125,2.0635986328125,-4.807586669921875,-2.400054931640625,1.0,1.0,1.0,1.0,1.0,100.0,event
12:22:26.764,1.133903,-0.3496278,-0.5374157,0.8888268,0.9444094,-0.3283158,-0.67182314,0.30438787,1.1262745,-0.27478793,-0.34292805,0.56638026,0.6439864,-0.18574825,-0.36539382,0.5430631,0.49651644,-0.567177,-0.5649505,0.07195347,853.8095,807.8755,801.02563,803.0403,1028.2784,-0.1544189453125,-0.0245361328125,0.97314453125,2.0635986328125,-4.807586669921875,-2.400054931640625,1.0,1.0,1.0,1.0,1.0,100.0,event
12:22:26.765,1.133903,-0.3496278,-0.5374157,0.8888268,0.9444094,-0.3283158,-0.67182314,0.30438787,1.1262745,-0.27478793,-0.34292805,0.56638026,0.6439864,-0.18574825,-0.36539382,0.5430631,0.49651644,-0.567177,-0.5649505,0.07195347,841.31866,811.0989,801.02563,790.54944,1029.8901,-0.1544189453125,-0.0245361328125,0.97314453125,2.0635986328125,-4.807586669921875,-2.400054931640625,1.0,1.0,1.0,1.0,1.0,100.0,event
12:22:26.765,1.133903,-0.3496278,-0.5374157,0.8888268,0.9444094,-0.3283158,-0.67182314,0.30438787,1.1262745,-0.27478793,-0.34292805,0.56638026,0.6439864,-0.18574825,-0.36539382,0.5430631,0.49651644,-0.567177,-0.5649505,0.07195347,860.2564,810.696,800.2198,806.26373,712.381,-0.1544189453125,-0.0245361328125,0.97314453125,2.0635986328125,-4.807586669921875,-2.400054931640625,1.0,1.0,1.0,1.0,1.0,100.0,event
12:22:26.765,1.133903,-0.3496278,-0.5374157,0.8888268,0.9444094,-0.3283158,-0.67182314,0.30438787,1.1262745,-0.27478793,-0.34292805,0.56638026,0.6439864,-0.18574825,-0.36539382,0.5430631,0.49651644,-0.567177,-0.5649505,0.07195347,857.8388,807.8755,803.44324,830.84247,713.1868,-0.1544189453125,-0.0245361328125,0.97314453125,2.0635986328125,-4.807586669921875,-2.400054931640625,1.0,1.0,1.0,1.0,1.0,100.0,event
12:22:26.766,1.179892,-0.32878602,-0.5316289,0.8888268,1.0043803,-0.31308484,-0.6793883,0.30438787,1.1262745,-0.25167745,-0.32717353,0.56638026,0.6604375,-0.19170259,-0.37178475,0.5430631,0.512285,-0.5847293,-0.5441658,0.07195347,869.5238,809.4872,806.6667,804.2491,676.1172,-0.1544189453125,-0.0245361328125,0.97314453125,2.0635986328125,-4.807586669921875,-2.400054931640625,1.0,1.0,1.0,1.0,1.0,100.0,event
12:22:26.766,1.133903,-0.3496278,-0.5374157,0.8888268,0.9444094,-0.3283158,-0.67182314,0.30438787,1.1262745,-0.27478793,-0.34292805,0.56638026,0.6439864,-0.18574825,-0.36539382,0.5430631,0.49651644,-0.567177,-0.5649505,0.07195347,877.5824,809.0842,803.8461,830.0366,763.5531,-0.1544189453125,-0.0245361328125,0.97314453125,2.0635986328125,-4.807586669921875,-2.400054931640625,1.0,1.0,1.0,1.0,1.0,100.0,event
12:22:26.816,1.179892,-0.32878602,-0.5316289,0.8888268,1.0043803,-0.31308484,-0.6793883,0.30438787,1.1262745,-0.25167745,-0.32717353,0.56638026,0.6604375,-0.19170259,-0.37178475,0.5430631,0.512285,-0.5847293,-0.5441658,0.07195347,842.52747,809.89014,807.0696,789.7436,673.69965,-0.14276123046875,-0.02191162109375,0.98687744140625,1.652374267578125,-4.02252197265625,-1.65985107421875,1.0,1.0,1.0,1.0,1.0,100.0,event
12:22:26.817,1.179892,-0.32878602,-0.5316289,0.8888268,1.0043803,-0.31308484,-0.6793883,0.30438787,1.1262745,-0.25167745,-0.32717353,0.56638026,0.6604375,-0.19170259,-0.37178475,0.5430631,0.512285,-0.5847293,-0.5441658,0.07195347,863.8828,810.293,803.44324,792.1612,745.42126,-0.14276123046875,-0.02191162109375,0.98687744140625,1.652374267578125,-4.02252197265625,-1.65985107421875,1.0,1.0,1.0,1.0,1.0,100.0,event
12:22:26.817,1.179892,-0.32878602,-0.5316289,0.8888268,1.0043803,-0.31308484,-0.6793883,0.30438787,1.1262745,-0.25167745,-0.32717353,0.56638026,0.6604375,-0.19170259,-0.37178475,0.5430631,0.512285,-0.5847293,-0.5441658,0.07195347,881.6117,813.1135,806.26373,809.89014,787.326,-0.14276123046875,-0.02191162109375,0.98687744140625,1.652374267578125,-4.02252197265625,-1.65985107421875,1.0,1.0,1.0,1.0,1.0,100.0,event
12:22:26.818,1.179892,-0.32878602,-0.5316289,0.8888268,1.0043803,-0.31308484,-0.6793883,0.30438787,1.1262745,-0.25167745,-0.32717353,0.56638026,0.6604375,-0.19170259,-0.37178475,0.5430631,0.512285,-0.5847293,-0.5441658,0.07195347,882.4176,815.9341,807.47253,831.2454,803.8461,-0.14276123046875,-0.02191162109375,0.98687744140625,1.652374267578125,-4.02252197265625,-1.65985107421875,1.0,1.0,1.0,1.0,1.0,100.0,event
12:22:26.818,1.179892,-0.32878602,-0.5316289,0.8888268,1.0043803,-0.31308484,-0.6793883,0.30438787,1.1262745,-0.25167745,-0.32717353,0.56638026,0.6604375,-0.19170259,-0.37178475,0.5430631,0.512285,-0.5847293,-0.5441658,0.07195347,865.09155,814.7253,805.8608,838.49817,812.3077,-0.14276123046875,-0.02191162109375,0.98687744140625,1.652374267578125,-4.02252197265625,-1.65985107421875,1.0,1.0,1.0,1.0,1.0,100.0,event
12:22:26.819,1.179892,-0.32878602,-0.5316289,0.8888268,1.0043803,-0.31308484,-0.6793883,0.30438787,1.1262745,-0.25167745,-0.32717353,0.56638026,0.6604375,-0.19170259,-0.37178475,0.5430631,0.512285,-0.5847293,-0.5441658,0.07195347,828.4249,812.3077,805.05493,821.1722,936.8132,-0.14276123046875,-0.02191162109375,0.98687744140625,1.652374267578125,-4.02252197265625,-1.65985107421875,1.0,1.0,1.0,1.0,1.0,100.0,event
12:22:26.819,1.179892,-0.32878602,-0.5316289,0.8888268,1.0043803,-0.31308484,-0.6793883,0.30438787,1.1262745,-0.25167745,-0.32717353,0.56638026,0.6604375,-0.19170259,-0.37178475,0.5430631,0.512285,-0.5847293,-0.5441658,0.07195347,825.2015,809.4872,803.8461,811.9048,978.71796,-0.14276123046875,-0.02191162109375,0.98687744140625,1.652374267578125,-4.02252197265625,-1.65985107421875,1.0,1.0,1.0,1.0,1.0,100.0,event
12:22:26.820,1.179892,-0.32878602,-0.5316289,0.8888268,1.0043803,-0.31308484,-0.6793883,0.30438787,1.1262745,-0.25167745,-0.32717353,0.56638026,0.6604375,-0.19170259,-0.37178475,0.5430631,0.512285,-0.5847293,-0.5441658,0.07195347,875.16486,808.2784,804.65204,834.0659,825.6044,-0.14276123046875,-0.02191162109375,0.98687744140625,1.652374267578125,-4.02252197265625,-1.65985107421875,1.0,1.0,1.0,1.0,1.0,100.0,event
12:22:26.820,1.179892,-0.32878602,-0.5316289,0.8888268,1.0043803,-0.31308484,-0.6793883,0.30438787,1.1262745,-0.25167745,-0.32717353,0.56638026,0.6604375,-0.19170259,-0.37178475,0.5430631,0.512285,-0.5847293,-0.5441658,0.07195347,855.0183,808.68134,803.0403,825.6044,864.2857,-0.14276123046875,-0.02191162109375,0.98687744140625,1.652374267578125,-4.02252197265625,-1.65985107421875,1.0,1.0,1.0,1.0,1.0,100.0,event
12:22:26.821,1.179892,-0.32878602,-0.5316289,0.8888268,1.0043803,-0.31308484,-0.6793883,0.30438787,1.1262745,-0.25167745,-0.32717353,0.56638026,0.6604375,-0.19170259,-0.37178475,0.5430631,0.512285,-0.5847293,-0.5441658,0.07195347,831.2454,809.0842,800.6227,805.4579,973.47986,-0.14276123046875,-0.02191162109375,0.98687744140625,1.652374267578125,-4.02252197265625,-1.65985107421875,1.0,1.0,1.0,1.0,1.0,100.0,event
12:22:26.821,1.179892,-0.32878602,-0.5316289,0.8888268,1.0043803,-0.31308484,-0.6793883,0.30438787,1.1262745,-0.25167745,-0.32717353,0.56638026,0.6604375,-0.19170259,-0.37178475,0.5430631,0.512285,-0.5847293,-0.5441658,0.07195347,848.5714,805.8608,804.2491,825.2015,943.2601,-0.14276123046875,-0.02191162109375,0.98687744140625,1.652374267578125,-4.02252197265625,-1.65985107421875,1.0,1.0,1.0,1.0,1.0,100.0,event
12:22:26.822,1.179892,-0.32878602,-0.5316289,0.8888268,1.0043803,-0.31308484,-0.6793883,0.30438787,1.1262745,-0.25167745,-0.32717353,0.56638026,0.6604375,-0.19170259,-0.37178475,0.5430631,0.512285,-0.5847293,-0.5441658,0.07195347,832.8571,808.2784,797.8022,793.36993,677.326,-0.14276123046875,-0.02191162109375,0.98687744140625,1.652374267578125,-4.02252197265625,-1.65985107421875,1.0,1.0,1.0,1.0,1.0,100.0,event
12:22:26.853,1.179892,-0.32878602,-0.5316289,0.8888268,1.0043803,-0.31308484,-0.6793883,0.30438787,1.1262745,-0.25167745,-0.32717353,0.56638026,0.6604375,-0.19170259,-0.37178475,0.5430631,0.512285,-0.5847293,-0.5441658,0.07195347,830.84247,805.05493,799.81683,816.337,619.304,-0.14910888671875,-0.023193359375,0.96929931640625,1.8841552734375,-3.252410888671875,-1.24114990234375,1.0,1.0,1.0,1.0,1.0,100.0,event
12:22:26.854,1.179892,-0.32878602,-0.5316289,0.8888268,1.0043803,-0.31308484,-0.6793883,0.30438787,1.1262745,-0.25167745,-0.32717353,0.56638026,0.6604375,-0.19170259,-0.37178475,0.5430631,0.512285,-0.5847293,-0.5441658,0.07195347,853.4066,807.0696,805.4579,844.1392,763.1502,-0.14910888671875,-0.023193359375,0.96929931640625,1.8841552734375,-3.252410888671875,-1.24114990234375,1.0,1.0,1.0,1.0,1.0,100.0,event
12:22:26.854,1.179892,-0.32878602,-0.5316289,0.8888268,1.0043803,-0.31308484,-0.6793883,0.30438787,1.1262745,-0.25167745,-0.32717353,0.56638026,0.6604375,-0.19170259,-0.37178475,0.5430631,0.512285,-0.5847293,-0.5441658,0.07195347,874.35895,807.8755,804.65204,833.2601,745.0183,-0.14910888671875,-0.023193359375,0.96929931640625,1.8841552734375,-3.252410888671875,-1.24114990234375,1.0,1.0,1.0,1.0,1.0,100.0,event
12:22:26.854,1.179892,-0.32878602,-0.5316289,0.8888268,1.0043803,-0.31308484,-0.6793883,0.30438787,1.1262745,-0.25167745,-0.32717353,0.56638026,0.6604375,-0.19170259,-0.37178475,0.5430631,0.512285,-0.5847293,-0.5441658,0.07195347,858.6447,808.68134,802.6374,806.26373,622.9304,-0.14910888671875,-0.023193359375,0.96929931640625,1.8841552734375,-3.252410888671875,-1.24114990234375,1.0,1.0,1.0,1.0,1.0,100.0,event
12:22:26.855,1.179892,-0.32878602,-0.5316289,0.8888268,1.0043803,-0.31308484,-0.6793883,0.30438787,1.1262745,-0.25167745,-0.32717353,0.56638026,0.6604375,-0.19170259,-0.37178475,0.5430631,0.512285,-0.5847293,-0.5441658,0.07195347,841.31866,809.89014,800.2198,798.60803,685.78754,-0.14910888671875,-0.023193359375,0.96929931640625,1.8841552734375,-3.252410888671875,-1.24114990234375,1.0,1.0,1.0,1.0,1.0,100.0,event
12:22:26.855,1.179892,-0.32878602,-0.5316289,0.8888268,1.0043803,-0.31308484,-0.6793883,0.30438787,1.1262745,-0.25167745,-0.32717353,0.56638026,0.6604375,-0.19170259,-0.37178475,0.5430631,0.512285,-0.5847293,-0.5441658,0.07195347,843.73627,808.68134,803.44324,811.9048,877.5824,-0.14910888671875,-0.023193359375,0.96929931640625,1.8841552734375,-3.252410888671875,-1.24114990234375,1.0,1.0,1.0,1.0,1.0,100.0,event
12:22:26.856,1.179892,-0.32878602,-0.5316289,0.8888268,1.0043803,-0.31308484,-0.6793883,0.30438787,1.1262745,-0.25167745,-0.32717353,0.56638026,0.6604375,-0.19170259,-0.37178475,0.5430631,0.512285,-0.5847293,-0.5441658,0.07195347,862.674,809.89014,808.2784,837.28937,748.6447,-0.14910888671875,-0.023193359375,0.96929931640625,1.8841552734375,-3.252410888671875,-1.24114990234375,1.0,1.0,1.0,1.0,1.0,100.0,event
12:22:26.856,1.179892,-0.32878602,-0.5316289,0.8888268,1.0043803,-0.31308484,-0.6793883,0.30438787,1.1262745,-0.25167745,-0.32717353,0.56638026,0.6604375,-0.19170259,-0.37178475,0.5430631,0.512285,-0.5847293,-0.5441658,0.07195347,861.4652,807.8755,807.47253,827.2161,892.8938,-0.14910888671875,-0.023193359375,0.96929931640625,1.8841552734375,-3.252410888671875,-1.24114990234375,1.0,1.0,1.0,1.0,1.0,100.0,event
12:22:26.857,1.179892,-0.32878602,-0.5316289,0.8888268,1.0043803,-0.31308484,-0.6793883,0.30438787,1.1262745,-0.25167745,-0.32717353,0.56638026,0.6604375,-0.19170259,-0.37178475,0.5430631,0.512285,-0.5847293,-0.5441658,0.07195347,834.87177,809.89014,806.26373,818.3516,731.7216,-0.14910888671875,-0.023193359375,0.96929931640625,1.8841552734375,-3.252410888671875,-1.24114990234375,1.0,1.0,1.0,1.0,1.0,100.0,event
12:22:26.858,1.179892,-0.32878602,-0.5316289,0.8888268,1.0043803,-0.31308484,-0.6793883,0.30438787,1.1262745,-0.25167745,-0.32717353,0.56638026,0.6604375,-0.19170259,-0.37178475,0.5430631,0.512285,-0.5847293,-0.5441658,0.07195347,810.293,803.8461,802.23444,786.1172,890.07324,-0.14910888671875,-0.023193359375,0.96929931640625,1.8841552734375,-3.252410888671875,-1.24114990234375,1.0,1.0,1.0,1.0,1.0,100.0,event
12:22:26.858,1.179892,-0.32878602,-0.5316289,0.8888268,1.0043803,-0.31308484,-0.6793883,0.30438787,1.1262745,-0.25167745,-0.32717353,0.56638026,0.6604375,-0.19170259,-0.37178475,0.5430631,0.512285,-0.5847293,-0.5441658,0.07195347,833.2601,801.4286,802.6374,792.5641,867.50916,-0.14910888671875,-0.023193359375,0.96929931640625,1.8841552734375,-3.252410888671875,-1.24114990234375,1.0,1.0,1.0,1.0,1.0,100.0,event
12:22:26.859,1.179892,-0.32878602,-0.5316289,0.8888268,1.0043803,-0.31308484,-0.6793883,0.30438787,1.1262745,-0.25167745,-0.32717353,0.56638026,0.6604375,-0.19170259,-0.37178475,0.5430631,0.512285,-0.5847293,-0.5441658,0.07195347,863.8828,807.8755,805.8608,833.2601,739.3773,-0.14910888671875,-0.023193359375,0.96929931640625,1.8841552734375,-3.252410888671875,-1.24114990234375,1.0,1.0,1.0,1.0,1.0,100.0,event
12:22:26.883,1.179892,-0.32878602,-0.5316289,0.8888268,1.0043803,-0.31308484,-0.6793883,0.30438787,1.1262745,-0.25167745,-0.32717353,0.56638026,0.6604375,-0.19170259,-0.37178475,0.5430631,0.512285,-0.5847293,-0.5441658,0.07195347,862.674,811.0989,807.8755,838.9011,810.696,-0.15625,-0.03076171875,0.9830322265625,0.949554443359375,-4.239349365234375,0.067291259765625,1.0,1.0,1.0,1.0,1.0,100.0,event
12:22:26.884,1.2573855,-0.30738798,-0.51534355,0.8888268,1.0915114,-0.29615209,-0.6736266,0.30438787,1.1262745,-0.24719432,-0.31848663,0.56638026,0.68469024,-0.20447692,-0.37498632,0.5430631,0.5252774,-0.5953133,-0.5212042,0.07195347,845.7509,811.50183,808.68134,792.1612,884.83514,-0.15625,-0.03076171875,0.9830322265625,0.949554443359375,-4.239349365234375,0.067291259765625,1.0,1.0,1.0,1.0,1.0,100.0,event
12:22:26.888,1.2573855,-0.30738798,-0.51534355,0.8888268,1.0915114,-0.29615209,-0.6736266,0.30438787,1.1262745,-0.24719432,-0.31848663,0.56638026,0.68469024,-0.20447692,-0.37498632,0.5430631,0.5252774,-0.5953133,-0.5212042,0.07195347,825.6044,810.696,804.65204,768.7912,733.73627,-0.15625,-0.03076171875,0.9830322265625,0.949554443359375,-4.239349365234375,0.067291259765625,1.0,1.0,1.0,1.0,1.0,100.0,event
12:22:26.889,1.2573855,-0.30738798,-0.51534355,0.8888268,1.0915114,-0.29615209,-0.6736266,0.30438787,1.1262745,-0.24719432,-0.31848663,0.56638026,0.68469024,-0.20447692,-0.37498632,0.5430631,0.5252774,-0.5953133,-0.5212042,0.07195347,847.3626,809.4872,802.23444,782.8938,691.8315,-0.15625,-0.03076171875,0.9830322265625,0.949554443359375,-4.239349365234375,0.067291259765625,1.0,1.0,1.0,1.0,1.0,100.0,event
12:22:26.889,1.2573855,-0.30738798,-0.51534355,0.8888268,1.0915114,-0.29615209,-0.6736266,0.30438787,1.1262745,-0.24719432,-0.31848663,0.56638026,0.68469024,-0.20447692,-0.37498632,0.5430631,0.5252774,-0.5953133,-0.5212042,0.07195347,871.13556,811.9048,803.8461,810.293,788.1319,-0.15625,-0.03076171875,0.9830322265625,0.949554443359375,-4.239349365234375,0.067291259765625,1.0,1.0,1.0,1.0,1.0,100.0,event
12:22:26.890,1.2573855,-0.30738798,-0.51534355,0.8888268,1.0915114,-0.29615209,-0.6736266,0.30438787,1.1262745,-0.24719432,-0.31848663,0.56638026,0.68469024,-0.20447692,-0.37498632,0.5430631,0.5252774,-0.5953133,-0.5212042,0.07195347,835.2747,809.4872,808.2784,807.0696,843.73627,-0.15625,-0.03076171875,0.9830322265625,0.949554443359375,-4.239349365234375,0.067291259765625,1.0,1.0,1.0,1.0,1.0,100.0,event
12:22:26.890,1.2573855,-0.30738798,-0.51534355,0.8888268,1.0915114,-0.29615209,-0.6736266,0.30438787,1.1262745,-0.24719432,-0.31848663,0.56638026,0.68469024,-0.20447692,-0.37498632,0.5430631,0.5252774,-0.5953133,-0.5212042,0.07195347,850.58606,810.696,805.8608,824.3956,828.022,-0.15625,-0.03076171875,0.9830322265625,0.949554443359375,-4.239349365234375,0.067291259765625,1.0,1.0,1.0,1.0,1.0,100.0,event
12:22:26.891,1.2573855,-0.30738798,-0.51534355,0.8888268,1.0915114,-0.29615209,-0.6736266,0.30438787,1.1262745,-0.24719432,-0.31848663,0.56638026,0.68469024,-0.20447692,-0.37498632,0.5430631,0.5252774,-0.5953133,-0.5212042,0.07195347,822.381,812.3077,808.68134,791.3553,732.1245,-0.15625,-0.03076171875,0.9830322265625,0.949554443359375,-4.239349365234375,0.067291259765625,1.0,1.0,1.0,1.0,1.0,100.0,event
12:22:26.891,1.2573855,-0.30738798,-0.51534355,0.8888268,1.0915114,-0.29615209,-0.6736266,0.30438787,1.1262745,-0.24719432,-0.31848663,0.56638026,0.68469024,-0.20447692,-0.37498632,0.5430631,0.5252774,-0.5953133,-0.5212042,0.07195347,814.7253,807.8755,808.2784,803.44324,863.0769,-0.15625,-0.03076171875,0.9830322265625,0.949554443359375,-4.239349365234375,0.067291259765625,1.0,1.0,1.0,1.0,1.0,100.0,event
12:22:26.891,1.2573855,-0.30738798,-0.51534355,0.8888268,1.0915114,-0.29615209,-0.6736266,0.30438787,1.1262745,-0.24719432,-0.31848663,0.56638026,0.68469024,-0.20447692,-0.37498632,0.5430631,0.5252774,-0.5953133,-0.5212042,0.07195347,840.9158,805.05493,806.6667,822.381,1030.6959,-0.15625,-0.03076171875,0.9830322265625,0.949554443359375,-4.239349365234375,0.067291259765625,1.0,1.0,1.0,1.0,1.0,100.0,event
12:22:26.892,1.2573855,-0.30738798,-0.51534355,0.8888268,1.0915114,-0.29615209,-0.6736266,0.30438787,1.1262745,-0.24719432,-0.31848663,0.56638026,0.68469024,-0.20447692,-0.37498632,0.5430631,0.5252774,-0.5953133,-0.5212042,0.07195347,848.97437,811.9048,808.2784,834.0659,756.7033,-0.15625,-0.03076171875,0.9830322265625,0.949554443359375,-4.239349365234375,0.067291259765625,1.0,1.0,1.0,1.0,1.0,100.0,event
12:22:26.892,1.2573855,-0.30738798,-0.51534355,0.8888268,1.0915114,-0.29615209,-0.6736266,0.30438787,1.1262745,-0.24719432,-0.31848663,0.56638026,0.68469024,-0.20447692,-0.37498632,0.5430631,0.5252774,-0.5953133,-0.5212042,0.07195347,821.5751,811.9048,807.0696,811.9048,663.6264,-0.15625,-0.03076171875,0.9830322265625,0.949554443359375,-4.239349365234375,0.067291259765625,1.0,1.0,1.0,1.0,1.0,100.0,event
12:22:26.954,1.2573855,-0.30738798,-0.51534355,0.8888268,1.0915114,-0.29615209,-0.6736266,0.30438787,1.1262745,-0.24719432,-0.31848663,0.56638026,0.68469024,-0.20447692,-0.37498632,0.5430631,0.5252774,-0.5953133,-0.5212042,0.07195347,810.293,805.4579,801.02563,787.326,697.47253,-0.14031982421875,-0.026123046875,0.9727783203125,2.504730224609375,-3.925323486328125,-1.83929443359375,1.0,1.0,1.0,1.0,1.0,100.0,event
12:22:26.955,1.2573855,-0.30738798,-0.51534355,0.8888268,1.0915114,-0.29615209,-0.6736266,0.30438787,1.1262745,-0.24719432,-0.31848663,0.56638026,0.68469024,-0.20447692,-0.37498632,0.5430631,0.5252774,-0.5953133,-0.5212042,0.07195347,823.1868,805.05493,801.02563,797.8022,781.28204,-0.14031982421875,-0.026123046875,0.9727783203125,2.504730224609375,-3.925323486328125,-1.83929443359375,1.0,1.0,1.0,1.0,1.0,100.0,event
12:22:26.956,1.2573855,-0.30738798,-0.51534355,0.8888268,1.0915114,-0.29615209,-0.6736266,0.30438787,1.1262745,-0.24719432,-0.31848663,0.56638026,0.68469024,-0.20447692,-0.37498632,0.5430631,0.5252774,-0.5953133,-0.5212042,0.07195347,840.5128,804.2491,803.8461,809.0842,743.8095,-0.14031982421875,-0.026123046875,0.9727783203125,2.504730224609375,-3.925323486328125,-1.83929443359375,1.0,1.0,1.0,1.0,1.0,100.0,event
12:22:26.957,1.2573855,-0.30738798,-0.51534355,0.8888268,1.0915114,-0.29615209,-0.6736266,0.30438787,1.1262745,-0.24719432,-0.31848663,0.56638026,0.68469024,-0.20447692,-0.37498632,0.5430631,0.5252774,-0.5953133,-0.5212042,0.07195347,823.9927,800.6227,805.4579,824.7985,707.1429,-0.14031982421875,-0.026123046875,0.9727783203125,2.504730224609375,-3.925323486328125,-1.83929443359375,1.0,1.0,1.0,1.0,1.0,100.0,event
12:22:26.958,1.2573855,-0.30738798,-0.51534355,0.8888268,1.0915114,-0.29615209,-0.6736266,0.30438787,1.1262745,-0.24719432,-0.31848663,0.56638026,0.68469024,-0.20447692,-0.37498632,0.5430631,0.5252774,-0.5953133,-0.5212042,0.07195347,813.1135,805.4579,803.44324,793.36993,894.5055,-0.14031982421875,-0.026123046875,0.9727783203125,2.504730224609375,-3.925323486328125,-1.83929443359375,1.0,1.0,1.0,1.0,1.0,100.0,event
12:22:26.958,1.2573855,-0.30738798,-0.51534355,0.8888268,1.0915114,-0.29615209,-0.6736266,0.30438787,1.1262745,-0.24719432,-0.31848663,0.56638026,0.68469024,-0.20447692,-0.37498632,0.5430631,0.5252774,-0.5953133,-0.5212042,0.07195347,808.2784,802.6374,804.65204,815.5311,828.022,-0.14031982421875,-0.026123046875,0.9727783203125,2.504730224609375,-3.925323486328125,-1.83929443359375,1.0,1.0,1.0,1.0,1.0,100.0,event
12:22:26.959,1.2573855,-0.30738798,-0.51534355,0.8888268,1.0915114,-0.29615209,-0.6736266,0.30438787,1.1262745,-0.24719432,-0.31848663,0.56638026,0.68469024,-0.20447692,-0.37498632,0.5430631,0.5252774,-0.5953133,-0.5212042,0.07195347,820.7692,804.65204,806.26373,799.011,864.68866,-0.14031982421875,-0.026123046875,0.9727783203125,2.504730224609375,-3.925323486328125,-1.83929443359375,1.0,1.0,1.0,1.0,1.0,100.0,event
12:22:26.959,1.2573855,-0.30738798,-0.51534355,0.8888268,1.0915114,-0.29615209,-0.6736266,0.30438787,1.1262745,-0.24719432,-0.31848663,0.56638026,0.68469024,-0.20447692,-0.37498632,0.5430631,0.5252774,-0.5953133,-0.5212042,0.07195347,833.663,809.0842,809.89014,817.5458,844.5421,-0.14031982421875,-0.026123046875,0.9727783203125,2.504730224609375,-3.925323486328125,-1.83929443359375,1.0,1.0,1.0,1.0,1.0,100.0,event
12:22:26.960,1.2573855,-0.30738798,-0.51534355,0.8888268,1.0915114,-0.29615209,-0.6736266,0.30438787,1.1262745,-0.24719432,-0.31848663,0.56638026,0.68469024,-0.20447692,-0.37498632,0.5430631,0.5252774,-0.5953133,-0.5212042,0.07195347,846.1539,813.1135,811.9048,860.2564,980.7326,-0.14031982421875,-0.026123046875,0.9727783203125,2.504730224609375,-3.925323486328125,-1.83929443359375,1.0,1.0,1.0,1.0,1.0,100.0,event
12:22:26.960,1.2573855,-0.30738798,-0.51534355,0.8888268,1.0915114,-0.29615209,-0.6736266,0.30438787,1.1262745,-0.24719432,-0.31848663,0.56638026,0.68469024,-0.20447692,-0.37498632,0.5430631,0.5252774,-0.5953133,-0.5212042,0.07195347,844.1392,816.337,813.91943,847.3626,911.4286,-0.14031982421875,-0.026123046875,0.9727783203125,2.504730224609375,-3.925323486328125,-1.83929443359375,1.0,1.0,1.0,1.0,1.0,100.0,event
12:22:26.961,1.2573855,-0.30738798,-0.51534355,0.8888268,1.0915114,-0.29615209,-0.6736266,0.30438787,1.1262745,-0.24719432,-0.31848663,0.56638026,0.68469024,-0.20447692,-0.37498632,0.5430631,0.5252774,-0.5953133,-0.5212042,0.07195347,836.08057,815.5311,808.68134,780.07324,735.7509,-0.14031982421875,-0.026123046875,0.9727783203125,2.504730224609375,-3.925323486328125,-1.83929443359375,1.0,1.0,1.0,1.0,1.0,100.0,event
12:22:26.962,1.2573855,-0.30738798,-0.51534355,0.8888268,1.0915114,-0.29615209,-0.6736266,0.30438787,1.1262745,-0.24719432,-0.31848663,0.56638026,0.68469024,-0.20447692,-0.37498632,0.5430631,0.5252774,-0.5953133,-0.5212042,0.07195347,839.304,810.293,802.23444,781.28204,823.5897,-0.14031982421875,-0.026123046875,0.9727783203125,2.504730224609375,-3.925323486328125,-1.83929443359375,1.0,1.0,1.0,1.0,1.0,100.0,event
12:22:26.989,1.2573855,-0.30738798,-0.51534355,0.8888268,1.0915114,-0.29615209,-0.6736266,0.30438787,1.1262745,-0.24719432,-0.31848663,0.56638026,0.68469024,-0.20447692,-0.37498632,0.5430631,0.5252774,-0.5953133,-0.5212042,0.07195347,849.7802,809.0842,809.89014,801.8315,800.2198,-0.14031982421875,-0.026123046875,0.9727783203125,2.504730224609375,-3.925323486328125,-1.83929443359375,1.0,1.0,1.0,1.0,1.0,100.0,event
12:22:26.990,1.2573855,-0.30738798,-0.51534355,0.8888268,1.0915114,-0.29615209,-0.6736266,0.30438787,1.1262745,-0.24719432,-0.31848663,0.56638026,0.68469024,-0.20447692,-0.37498632,0.5430631,0.5252774,-0.5953133,-0.5212042,0.07195347,855.42126,811.50183,811.9048,804.2491,716.0073,-0.14031982421875,-0.026123046875,0.9727783203125,2.504730224609375,-3.925323486328125,-1.83929443359375,1.0,1.0,1.0,1.0,1.0,100.0,event
12:22:26.991,1.2573855,-0.28099498,-0.47450826,0.8888268,1.0915114,-0.28525016,-0.6566892,0.30438787,1.1262745,-0.24719432,-0.29908797,0.56638026,0.68469024,-0.22205837,-0.37665823,0.5430631,0.5252774,-0.5940659,-0.5035994,0.07195347,827.619,809.0842,805.8608,784.5055,701.9048,-0.14031982421875,-0.026123046875,0.9727783203125,2.504730224609375,-3.925323486328125,-1.83929443359375,1.0,1.0,1.0,1.0,1.0,100.0,event
12:22:26.991,1.2573855,-0.30738798,-0.51534355,0.8888268,1.0915114,-0.29615209,-0.6736266,0.30438787,1.1262745,-0.24719432,-0.31848663,0.56638026,0.68469024,-0.20447692,-0.37498632,0.5430631,0.5252774,-0.5953133,-0.5212042,0.07195347,857.8388,811.50183,806.6667,796.99634,721.2454,-0.14031982421875,-0.026123046875,0.9727783203125,2.504730224609375,-3.925323486328125,-1.83929443359375,1.0,1.0,1.0,1.0,1.0,100.0,event
12:22:26.995,1.2573855,-0.28099498,-0.47450826,0.8888268,1.0915114,-0.28525016,-0.6566892,0.30438787,1.1262745,-0.24719432,-0.29908797,0.56638026,0.68469024,-0.22205837,-0.37665823,0.5430631,0.5252774,-0.5940659,-0.5035994,0.07195347,807.8755,806.26373,803.44324,790.9524,725.6777,-0.14031982421875,-0.026123046875,0.9727783203125,2.504730224609375,-3.925323486328125,-1.83929443359375,1.0,1.0,1.0,1.0,1.0,100.0,event
12:22:26.995,1.2573855,-0.28099498,-0.47450826,0.8888268,1.0915114,-0.28525016,-0.6566892,0.30438787,1.1262745,-0.24719432,-0.29908797,0.56638026,0.68469024,-0.22205837,-0.37665823,0.5430631,0.5252774,-0.5940659,-0.5035994,0.07195347,837.28937,804.65204,803.44324,806.26373,788.5348,-0.14031982421875,-0.026123046875,0.9727783203125,2.504730224609375,-3.925323486328125,-1.83929443359375,1.0,1.0,1.0,1.0,1.0,100.0,event
12:22:26.996,1.2573855,-0.28099498,-0.47450826,0.8888268,1.0915114,-0.28525016,-0.6566892,0.30438787,1.1262745,-0.24719432,-0.29908797,0.56638026,0.68469024,-0.22205837,-0.37665823,0.5430631,0.5252774,-0.5940659,-0.5035994,0.07195347,848.1685,806.6667,808.2784,811.0989,776.4469,-0.14031982421875,-0.026123046875,0.9727783203125,2.504730224609375,-3.925323486328125,-1.83929443359375,1.0,1.0,1.0,1.0,1.0,100.0,event
12:22:26.997,1.2573855,-0.28099498,-0.47450826,0.8888268,1.0915114,-0.28525016,-0.6566892,0.30438787,1.1262745,-0.24719432,-0.29908797,0.56638026,0.68469024,-0.22205837,-0.37665823,0.5430631,0.5252774,-0.5940659,-0.5035994,0.07195347,836.08057,807.0696,807.8755,818.3516,882.01465,-0.14031982421875,-0.026123046875,0.9727783203125,2.504730224609375,-3.925323486328125,-1.83929443359375,1.0,1.0,1.0,1.0,1.0,100.0,event
12:22:26.997,1.2573855,-0.28099498,-0.47450826,0.8888268,1.0915114,-0.28525016,-0.6566892,0.30438787,1.1262745,-0.24719432,-0.29908797,0.56638026,0.68469024,-0.22205837,-0.37665823,0.5430631,0.5252774,-0.5940659,-0.5035994,0.07195347,825.6044,806.6667,805.8608,807.8755,945.2747,-0.14031982421875,-0.026123046875,0.9727783203125,2.504730224609375,-3.925323486328125,-1.83929443359375,1.0,1.0,1.0,1.0,1.0,100.0,event
12:22:26.998,1.2573855,-0.28099498,-0.47450826,0.8888268,1.0915114,-0.28525016,-0.6566892,0.30438787,1.1262745,-0.24719432,-0.29908797,0.56638026,0.68469024,-0.22205837,-0.37665823,0.5430631,0.5252774,-0.5940659,-0.5035994,0.07195347,820.7692,808.2784,805.8608,793.36993,726.4835,-0.14031982421875,-0.026123046875,0.9727783203125,2.504730224609375,-3.925323486328125,-1.83929443359375,1.0,1.0,1.0,1.0,1.0,100.0,event
12:22:26.999,1.2573855,-0.28099498,-0.47450826,0.8888268,1.0915114,-0.28525016,-0.6566892,0.30438787,1.1262745,-0.24719432,-0.29908797,0.56638026,0.68469024,-0.22205837,-0.37665823,0.5430631,0.5252774,-0.5940659,-0.5035994,0.07195347,839.304,811.0989,806.26373,813.91943,657.5824,-0.14031982421875,-0.026123046875,0.9727783203125,2.504730224609375,-3.925323486328125,-1.83929443359375,1.0,1.0,1.0,1.0,1.0,100.0,event
12:22:26.999,1.2573855,-0.28099498,-0.47450826,0.8888268,1.0915114,-0.28525016,-0.6566892,0.30438787,1.1262745,-0.24719432,-0.29908797,0.56638026,0.68469024,-0.22205837,-0.37665823,0.5430631,0.5252774,-0.5940659,-0.5035994,0.07195347,869.92676,810.293,809.4872,826.0073,871.9414,-0.14031982421875,-0.026123046875,0.9727783203125,2.504730224609375,-3.925323486328125,-1.83929443359375,1.0,1.0,1.0,1.0,1.0,100.0,event
12:22:27.036,1.2573855,-0.28099498,-0.47450826,0.8888268,1.0915114,-0.28525016,-0.6566892,0.30438787,1.1262745,-0.24719432,-0.29908797,0.56638026,0.68469024,-0.22205837,-0.37665823,0.5430631,0.5252774,-0.5940659,-0.5035994,0.07195347,857.03296,808.2784,810.293,826.4103,885.2381,-0.1529541015625,-0.01788330078125,0.983154296875,1.353302001953125,-3.66363525390625,0.91217041015625,1.0,1.0,1.0,1.0,1.0,100.0,event
12:22:27.038,1.2573855,-0.28099498,-0.47450826,0.8888268,1.0915114,-0.28525016,-0.6566892,0.30438787,1.1262745,-0.24719432,-0.29908797,0.56638026,0.68469024,-0.22205837,-0.37665823,0.5430631,0.5252774,-0.5940659,-0.5035994,0.07195347,834.4689,808.68134,809.4872,815.5311,681.3553,-0.1529541015625,-0.01788330078125,0.983154296875,1.353302001953125,-3.66363525390625,0.91217041015625,1.0,1.0,1.0,1.0,1.0,100.0,event
12:22:27.039,1.2573855,-0.28099498,-0.47450826,0.8888268,1.0915114,-0.28525016,-0.6566892,0.30438787,1.1262745,-0.24719432,-0.29908797,0.56638026,0.68469024,-0.22205837,-0.37665823,0.5430631,0.5252774,-0.5940659,-0.5035994,0.07195347,832.4542,805.8608,808.2784,805.05493,688.20514,-0.1529541015625,-0.01788330078125,0.983154296875,1.353302001953125,-3.66363525390625,0.91217041015625,1.0,1.0,1.0,1.0,1.0,100.0,event
12:22:27.040,1.2573855,-0.28099498,-0.47450826,0.8888268,1.0915114,-0.28525016,-0.6566892,0.30438787,1.1262745,-0.24719432,-0.29908797,0.56638026,0.68469024,-0.22205837,-0.37665823,0.5430631,0.5252774,-0.5940659,-0.5035994,0.07195347,846.1539,807.0696,805.05493,804.65204,709.9634,-0.1529541015625,-0.01788330078125,0.983154296875,1.353302001953125,-3.66363525390625,0.91217041015625,1.0,1.0,1.0,1.0,1.0,100.0,event
12:22:27.041,1.2573855,-0.28099498,-0.47450826,0.8888268,1.0915114,-0.28525016,-0.6566892,0.30438787,1.1262745,-0.24719432,-0.29908797,0.56638026,0.68469024,-0.22205837,-0.37665823,0.5430631,0.5252774,-0.5940659,-0.5035994,0.07195347,861.06226,805.8608,804.2491,817.9487,706.337,-0.1529541015625,-0.01788330078125,0.983154296875,1.353302001953125,-3.66363525390625,0.91217041015625,1.0,1.0,1.0,1.0,1.0,100.0,event
12:22:27.042,1.2573855,-0.28099498,-0.47450826,0.8888268,1.0915114,-0.28525016,-0.6566892,0.30438787,1.1262745,-0.24719432,-0.29908797,0.56638026,0.68469024,-0.22205837,-0.37665823,0.5430631,0.5252774,-0.5940659,-0.5035994,0.07195347,854.61536,805.8608,805.4579,842.52747,807.47253,-0.1529541015625,-0.01788330078125,0.983154296875,1.353302001953125,-3.66363525390625,0.91217041015625,1.0,1.0,1.0,1.0,1.0,100.0,event
12:22:27.042,1.2573855,-0.28099498,-0.47450826,0.8888268,1.0915114,-0.28525016,-0.6566892,0.30438787,1.1262745,-0.24719432,-0.29908797,0.56638026,0.68469024,-0.22205837,-0.37665823,0.5430631,0.5252774,-0.5940659,-0.5035994,0.07195347,842.52747,810.696,806.26373,825.6044,877.5824,-0.1529541015625,-0.01788330078125,0.983154296875,1.353302001953125,-3.66363525390625,0.91217041015625,1.0,1.0,1.0,1.0,1.0,100.0,event
12:22:27.043,1.2573855,-0.28099498,-0.47450826,0.8888268,1.0915114,-0.28525016,-0.6566892,0.30438787,1.1262745,-0.24719432,-0.29908797,0.56638026,0.68469024,-0.22205837,-0.37665823,0.5430631,0.5252774,-0.5940659,-0.5035994,0.07195347,817.9487,804.2491,801.8315,802.6374,1050.0366,-0.1529541015625,-0.01788330078125,0.983154296875,1.353302001953125,-3.66363525390625,0.91217041015625,1.0,1.0,1.0,1.0,1.0,100.0,event
12:22:27.043,1.2573855,-0.28099498,-0.47450826,0.8888268,1.0915114,-0.28525016,-0.6566892,0.30438787,1.1262745,-0.24719432,-0.29908797,0.56638026,0.68469024,-0.22205837,-0.37665823,0.5430631,0.5252774,-0.5940659,-0.5035994,0.07195347,814.3223,804.2491,802.6374,818.7546,1006.52014,-0.1529541015625,-0.01788330078125,0.983154296875,1.353302001953125,-3.66363525390625,0.91217041015625,1.0,1.0,1.0,1.0,1.0,100.0,event
12:22:27.044,1.2573855,-0.28099498,-0.47450826,0.8888268,1.0915114,-0.28525016,-0.6566892,0.30438787,1.1262745,-0.24719432,-0.29908797,0.56638026,0.68469024,-0.22205837,-0.37665823,0.5430631,0.5252774,-0.5940659,-0.5035994,0.07195347,836.8865,809.89014,810.293,864.68866,735.7509,-0.1529541015625,-0.01788330078125,0.983154296875,1.353302001953125,-3.66363525390625,0.91217041015625,1.0,1.0,1.0,1.0,1.0,100.0,event
12:22:27.044,1.2573855,-0.28099498,-0.47450826,0.8888268,1.0915114,-0.28525016,-0.6566892,0.30438787,1.1262745,-0.24719432,-0.29908797,0.56638026,0.68469024,-0.22205837,-0.37665823,0.5430631,0.5252774,-0.5940659,-0.5035994,0.07195347,836.8865,806.26373,806.6667,876.77655,812.3077,-0.1529541015625,-0.01788330078125,0.983154296875,1.353302001953125,-3.66363525390625,0.91217041015625,1.0,1.0,1.0,1.0,1.0,100.0,event
12:22:27.045,1.2573855,-0.28099498,-0.47450826,0.8888268,1.0915114,-0.28525016,-0.6566892,0.30438787,1.1262745,-0.24719432,-0.29908797,0.56638026,0.68469024,-0.22205837,-0.37665823,0.5430631,0.5252774,-0.5940659,-0.5035994,0.07195347,827.2161,805.8608,805.05493,821.1722,800.6227,-0.1529541015625,-0.01788330078125,0.983154296875,1.353302001953125,-3.66363525390625,0.91217041015625,1.0,1.0,1.0,1.0,1.0,100.0,event
12:22:27.084,1.2573855,-0.28099498,-0.47450826,0.8888268,1.0915114,-0.28525016,-0.6566892,0.30438787,1.1262745,-0.24719432,-0.29908797,0.56638026,0.68469024,-0.22205837,-0.37665823,0.5430631,0.5252774,-0.5940659,-0.5035994,0.07195347,825.6044,804.2491,804.65204,761.53845,657.5824,-0.15277099609375,-0.0267333984375,0.97186279296875,1.831817626953125,-2.654266357421875,-0.0299072265625,1.0,1.0,1.0,1.0,1.0,100.0,event
