TimeStamp,Delta_TP9,Delta_AF7,Delta_AF8,Delta_TP10,Theta_TP9,Theta_AF7,Theta_AF8,Theta_TP10,Alpha_TP9,Alpha_AF7,Alpha_AF8,Alpha_TP10,Beta_TP9,Beta_AF7,Beta_AF8,Beta_TP10,Gamma_TP9,Gamma_AF7,Gamma_AF8,Gamma_TP10,RAW_TP9,RAW_AF7,RAW_AF8,RAW_TP10,AUX_RIGHT,Accelerometer_X,Accelerometer_Y,Accelerometer_Z,Gyro_X,Gyro_Y,Gyro_Z,HeadBandOn,HSI_TP9,HSI_AF7,HSI_AF8,HSI_TP10,Battery,Elements
12:36:10.785,0.8044175,0.30999377,0.15904438,0.6924311,0.29634935,0.14314339,-0.611388,0.8740131,0.8773431,0.271117,-0.16267513,1.0902227,0.9408355,-0.0030449154,-0.055827912,0.95094436,0.60814166,-0.2544437,-0.36015496,0.6076212,778.0586,808.2784,791.75824,695.4579,887.25275,-0.27252197265625,0.13006591796875,0.9422607421875,2.572021484375,-2.6617431640625,0.43365478515625,1.0,2.0,1.0,1.0,2.0,100.0,event
12:36:10.786,0.8044175,0.30999377,0.15904438,0.6924311,0.29634935,0.14314339,-0.611388,0.8740131,0.8773431,0.271117,-0.16267513,1.0902227,0.9408355,-0.0030449154,-0.055827912,0.95094436,0.60814166,-0.2544437,-0.36015496,0.6076212,771.6117,806.26373,796.5934,677.326,845.7509,-0.27252197265625,0.13006591796875,0.9422607421875,2.572021484375,-2.6617431640625,0.43365478515625,1.0,2.0,1.0,1.0,2.0,100.0,event
12:36:10.786,0.7540409,0.251639,0.13899763,0.6924311,0.23260754,0.10195432,-0.5976629,0.8740131,0.8786924,0.271117,-0.13635202,1.0902227,0.9302953,-0.0034361924,-0.07837615,0.95094436,0.56761926,-0.25829765,-0.35217923,0.6076212,754.2857,801.4286,792.96704,669.67035,790.54944,-0.27252197265625,0.13006591796875,0.9422607421875,2.572021484375,-2.6617431640625,0.43365478515625,1.0,1.0,1.0,1.0,1.0,100.0,event
12:36:10.791,0.7540409,0.251639,0.13899763,0.6924311,0.23260754,0.10195432,-0.5976629,0.8740131,0.8786924,0.271117,-0.13635202,1.0902227,0.9302953,-0.0034361924,-0.07837615,0.95094436,0.56761926,-0.25829765,-0.35217923,0.6076212,754.68866,801.4286,790.54944,675.7143,782.0879,-0.27252197265625,0.13006591796875,0.9422607421875,2.572021484375,-2.6617431640625,0.43365478515625,1.0,1.0,1.0,1.0,1.0,100.0,event
12:36:10.792,0.7540409,0.251639,0.13899763,0.6924311,0.23260754,0.10195432,-0.5976629,0.8740131,0.8786924,0.271117,-0.13635202,1.0902227,0.9302953,-0.0034361924,-0.07837615,0.95094436,0.56761926,-0.25829765,-0.35217923,0.6076212,772.01465,803.0403,792.96704,682.5641,809.89014,-0.27252197265625,0.13006591796875,0.9422607421875,2.572021484375,-2.6617431640625,0.43365478515625,1.0,1.0,1.0,1.0,1.0,100.0,event
12:36:10.793,0.7540409,0.251639,0.13899763,0.6924311,0.23260754,0.10195432,-0.5976629,0.8740131,0.8786924,0.271117,-0.13635202,1.0902227,0.9302953,-0.0034361924,-0.07837615,0.95094436,0.56761926,-0.25829765,-0.35217923,0.6076212,779.67035,806.6667,798.60803,686.99634,670.07324,-0.27252197265625,0.13006591796875,0.9422607421875,2.572021484375,-2.6617431640625,0.43365478515625,1.0,1.0,1.0,1.0,1.0,100.0,event
12:36:10.793,0.7540409,0.251639,0.13899763,0.6924311,0.23260754,0.10195432,-0.5976629,0.8740131,0.8786924,0.271117,-0.13635202,1.0902227,0.9302953,-0.0034361924,-0.07837615,0.95094436,0.56761926,-0.25829765,-0.35217923,0.6076212,777.6557,804.65204,795.78754,686.1905,713.9927,-0.27252197265625,0.13006591796875,0.9422607421875,2.572021484375,-2.6617431640625,0.43365478515625,1.0,1.0,1.0,1.0,1.0,100.0,event
12:36:10.821,0.7540409,0.251639,0.13899763,0.6924311,0.23260754,0.10195432,-0.5976629,0.8740131,0.8786924,0.271117,-0.13635202,1.0902227,0.9302953,-0.0034361924,-0.07837615,0.95094436,0.56761926,-0.25829765,-0.35217923,0.6076212,797.8022,810.293,797.3993,676.1172,780.4762,-0.27587890625,0.12939453125,0.9423828125,2.3028564453125,-4.149627685546875,1.338348388671875,1.0,1.0,1.0,1.0,1.0,100.0,event
12:36:10.822,0.7540409,0.251639,0.13899763,0.6924311,0.23260754,0.10195432,-0.5976629,0.8740131,0.8786924,0.271117,-0.13635202,1.0902227,0.9302953,-0.0034361924,-0.07837615,0.95094436,0.56761926,-0.25829765,-0.35217923,0.6076212,801.8315,809.4872,793.36993,691.8315,1109.2675,-0.27587890625,0.12939453125,0.9423828125,2.3028564453125,-4.149627685546875,1.338348388671875,1.0,1.0,1.0,1.0,1.0,100.0,event
12:36:10.823,0.7540409,0.251639,0.13899763,0.6924311,0.23260754,0.10195432,-0.5976629,0.8740131,0.8786924,0.271117,-0.13635202,1.0902227,0.9302953,-0.0034361924,-0.07837615,0.95094436,0.56761926,-0.25829765,-0.35217923,0.6076212,783.69965,810.293,797.8022,720.0366,1011.75824,-0.27587890625,0.12939453125,0.9423828125,2.3028564453125,-4.149627685546875,1.338348388671875,1.0,1.0,1.0,1.0,1.0,100.0,event
12:36:10.824,0.7540409,0.251639,0.13899763,0.6924311,0.23260754,0.10195432,-0.5976629,0.8740131,0.8786924,0.271117,-0.13635202,1.0902227,0.9302953,-0.0034361924,-0.07837615,0.95094436,0.56761926,-0.25829765,-0.35217923,0.6076212,782.49084,817.1429,801.02563,711.5751,715.6044,-0.27587890625,0.12939453125,0.9423828125,2.3028564453125,-4.149627685546875,1.338348388671875,1.0,1.0,1.0,1.0,1.0,100.0,event
12:36:10.825,0.7540409,0.251639,0.13899763,0.6924311,0.23260754,0.10195432,-0.5976629,0.8740131,0.8786924,0.271117,-0.13635202,1.0902227,0.9302953,-0.0034361924,-0.07837615,0.95094436,0.56761926,-0.25829765,-0.35217923,0.6076212,789.34064,817.5458,790.14655,679.7436,793.7729,-0.27587890625,0.12939453125,0.9423828125,2.3028564453125,-4.149627685546875,1.338348388671875,1.0,1.0,1.0,1.0,1.0,100.0,event
12:36:10.827,0.7540409,0.251639,0.13899763,0.6924311,0.23260754,0.10195432,-0.5976629,0.8740131,0.8786924,0.271117,-0.13635202,1.0902227,0.9302953,-0.0034361924,-0.07837615,0.95094436,0.56761926,-0.25829765,-0.35217923,0.6076212,785.7143,809.89014,789.7436,672.8938,847.3626,-0.27587890625,0.12939453125,0.9423828125,2.3028564453125,-4.149627685546875,1.338348388671875,1.0,1.0,1.0,1.0,1.0,100.0,event
12:36:10.828,0.7540409,0.251639,0.13899763,0.6924311,0.23260754,0.10195432,-0.5976629,0.8740131,0.8786924,0.271117,-0.13635202,1.0902227,0.9302953,-0.0034361924,-0.07837615,0.95094436,0.56761926,-0.25829765,-0.35217923,0.6076212,786.52014,806.26373,799.011,687.3993,850.989,-0.27587890625,0.12939453125,0.9423828125,2.3028564453125,-4.149627685546875,1.338348388671875,1.0,1.0,1.0,1.0,1.0,100.0,event
12:36:10.829,0.7540409,0.251639,0.13899763,0.6924311,0.23260754,0.10195432,-0.5976629,0.8740131,0.8786924,0.271117,-0.13635202,1.0902227,0.9302953,-0.0034361924,-0.07837615,0.95094436,0.56761926,-0.25829765,-0.35217923,0.6076212,786.52014,807.8755,797.8022,692.23444,815.12823,-0.27587890625,0.12939453125,0.9423828125,2.3028564453125,-4.149627685546875,1.338348388671875,1.0,1.0,1.0,1.0,1.0,100.0,event
12:36:10.829,0.7540409,0.251639,0.13899763,0.6924311,0.23260754,0.10195432,-0.5976629,0.8740131,0.8786924,0.271117,-0.13635202,1.0902227,0.9302953,-0.0034361924,-0.07837615,0.95094436,0.56761926,-0.25829765,-0.35217923,0.6076212,775.64105,806.26373,794.57874,681.3553,894.90845,-0.27587890625,0.12939453125,0.9423828125,2.3028564453125,-4.149627685546875,1.338348388671875,1.0,1.0,1.0,1.0,1.0,100.0,event
12:36:10.830,0.7540409,0.251639,0.13899763,0.6924311,0.23260754,0.10195432,-0.5976629,0.8740131,0.8786924,0.271117,-0.13635202,1.0902227,0.9302953,-0.0034361924,-0.07837615,0.95094436,0.56761926,-0.25829765,-0.35217923,0.6076212,773.6264,810.293,796.1905,687.3993,894.5055,-0.27587890625,0.12939453125,0.9423828125,2.3028564453125,-4.149627685546875,1.338348388671875,1.0,1.0,1.0,1.0,1.0,100.0,event
12:36:10.831,0.7540409,0.251639,0.13899763,0.6924311,0.23260754,0.10195432,-0.5976629,0.8740131,0.8786924,0.271117,-0.13635202,1.0902227,0.9302953,-0.0034361924,-0.07837615,0.95094436,0.56761926,-0.25829765,-0.35217923,0.6076212,768.3883,811.9048,799.011,700.293,688.60803,-0.27587890625,0.12939453125,0.9423828125,2.3028564453125,-4.149627685546875,1.338348388671875,1.0,1.0,1.0,1.0,1.0,100.0,event
12:36:10.832,0.7540409,0.251639,0.13899763,0.6924311,0.23260754,0.10195432,-0.5976629,0.8740131,0.8786924,0.271117,-0.13635202,1.0902227,0.9302953,-0.0034361924,-0.07837615,0.95094436,0.56761926,-0.25829765,-0.35217923,0.6076212,767.98535,807.47253,795.78754,699.89014,709.9634,-0.27587890625,0.12939453125,0.9423828125,2.3028564453125,-4.149627685546875,1.338348388671875,1.0,1.0,1.0,1.0,1.0,100.0,event
12:36:10.859,0.7540409,0.251639,0.13899763,0.6924311,0.23260754,0.10195432,-0.5976629,0.8740131,0.8786924,0.271117,-0.13635202,1.0902227,0.9302953,-0.0034361924,-0.07837615,0.95094436,0.56761926,-0.25829765,-0.35217923,0.6076212,788.5348,808.2784,792.1612,697.8755,812.71063,-0.27587890625,0.12939453125,0.9423828125,2.3028564453125,-4.149627685546875,1.338348388671875,1.0,1.0,1.0,1.0,1.0,100.0,event
12:36:10.860,0.7540409,0.251639,0.13899763,0.6924311,0.23260754,0.10195432,-0.5976629,0.8740131,0.8786924,0.271117,-0.13635202,1.0902227,0.9302953,-0.0034361924,-0.07837615,0.95094436,0.56761926,-0.25829765,-0.35217923,0.6076212,807.47253,814.7253,796.5934,691.02563,716.4103,-0.27587890625,0.12939453125,0.9423828125,2.3028564453125,-4.149627685546875,1.338348388671875,1.0,1.0,1.0,1.0,1.0,100.0,event
12:36:10.861,0.7540409,0.251639,0.13899763,0.6924311,0.23260754,0.10195432,-0.5976629,0.8740131,0.8786924,0.271117,-0.13635202,1.0902227,0.9302953,-0.0034361924,-0.07837615,0.95094436,0.56761926,-0.25829765,-0.35217923,0.6076212,801.8315,811.9048,794.17584,681.3553,701.9048,-0.27587890625,0.12939453125,0.9423828125,2.3028564453125,-4.149627685546875,1.338348388671875,1.0,1.0,1.0,1.0,1.0,100.0,event
12:36:10.862,0.7540409,0.251639,0.13899763,0.6924311,0.23260754,0.10195432,-0.5976629,0.8740131,0.8786924,0.271117,-0.13635202,1.0902227,0.9302953,-0.0034361924,-0.07837615,0.95094436,0.56761926,-0.25829765,-0.35217923,0.6076212,780.4762,805.8608,793.7729,684.17584,802.23444,-0.27587890625,0.12939453125,0.9423828125,2.3028564453125,-4.149627685546875,1.338348388671875,1.0,1.0,1.0,1.0,1.0,100.0,event
12:36:10.862,0.7540409,0.251639,0.13899763,0.6924311,0.23260754,0.10195432,-0.5976629,0.8740131,0.8786924,0.271117,-0.13635202,1.0902227,0.9302953,-0.0034361924,-0.07837615,0.95094436,0.56761926,-0.25829765,-0.35217923,0.6076212,763.5531,804.65204,794.9817,683.7729,919.89014,-0.27587890625,0.12939453125,0.9423828125,2.3028564453125,-4.149627685546875,1.338348388671875,1.0,1.0,1.0,1.0,1.0,100.0,event
12:36:10.863,0.7540409,0.251639,0.13899763,0.6924311,0.23260754,0.10195432,-0.5976629,0.8740131,0.8786924,0.271117,-0.13635202,1.0902227,0.9302953,-0.0034361924,-0.07837615,0.95094436,0.56761926,-0.25829765,-0.35217923,0.6076212,773.22345,809.89014,793.36993,690.6227,1004.10254,-0.27587890625,0.12939453125,0.9423828125,2.3028564453125,-4.149627685546875,1.338348388671875,1.0,1.0,1.0,1.0,1.0,100.0,event
12:36:10.863,0.7540409,0.251639,0.13899763,0.6924311,0.23260754,0.10195432,-0.5976629,0.8740131,0.8786924,0.271117,-0.13635202,1.0902227,0.9302953,-0.0034361924,-0.07837615,0.95094436,0.56761926,-0.25829765,-0.35217923,0.6076212,785.7143,813.1135,794.57874,689.81683,882.01465,-0.27587890625,0.12939453125,0.9423828125,2.3028564453125,-4.149627685546875,1.338348388671875,1.0,1.0,1.0,1.0,1.0,100.0,event
12:36:10.864,0.7540409,0.251639,0.13899763,0.6924311,0.23260754,0.10195432,-0.5976629,0.8740131,0.8786924,0.271117,-0.13635202,1.0902227,0.9302953,-0.0034361924,-0.07837615,0.95094436,0.56761926,-0.25829765,-0.35217923,0.6076212,785.7143,811.9048,794.17584,684.57874,805.8608,-0.27587890625,0.12939453125,0.9423828125,2.3028564453125,-4.149627685546875,1.338348388671875,1.0,1.0,1.0,1.0,1.0,100.0,event
12:36:10.864,0.7540409,0.251639,0.13899763,0.6924311,0.23260754,0.10195432,-0.5976629,0.8740131,0.8786924,0.271117,-0.13635202,1.0902227,0.9302953,-0.0034361924,-0.07837615,0.95094436,0.56761926,-0.25829765,-0.35217923,0.6076212,787.326,808.68134,792.96704,694.2491,990.0,-0.27587890625,0.12939453125,0.9423828125,2.3028564453125,-4.149627685546875,1.338348388671875,1.0,1.0,1.0,1.0,1.0,100.0,event
12:36:10.865,0.70893127,0.18872605,0.10716528,0.6924311,0.17667778,0.021816388,-0.59614486,0.8740131,0.9181887,0.271117,-0.13575143,1.0902227,0.9215653,-0.0018902909,-0.09811079,0.95094436,0.5317526,-0.25971496,-0.33933467,0.6076212,801.02563,810.696,793.36993,696.6667,904.17584,-0.27587890625,0.12939453125,0.9423828125,2.3028564453125,-4.149627685546875,1.338348388671875,1.0,1.0,1.0,1.0,1.0,100.0,event
12:36:10.868,0.70893127,0.18872605,0.10716528,0.6924311,0.17667778,0.021816388,-0.59614486,0.8740131,0.9181887,0.271117,-0.13575143,1.0902227,0.9215653,-0.0018902909,-0.09811079,0.95094436,0.5317526,-0.25971496,-0.33933467,0.6076212,800.6227,816.337,792.96704,700.293,765.56775,-0.27587890625,0.12939453125,0.9423828125,2.3028564453125,-4.149627685546875,1.338348388671875,1.0,1.0,1.0,1.0,1.0,100.0,event
12:36:10.869,0.70893127,0.18872605,0.10716528,0.6924311,0.17667778,0.021816388,-0.59614486,0.8740131,0.9181887,0.271117,-0.13575143,1.0902227,0.9215653,-0.0018902909,-0.09811079,0.95094436,0.5317526,-0.25971496,-0.33933467,0.6076212,802.23444,809.89014,789.34064,709.9634,803.0403,-0.27587890625,0.12939453125,0.9423828125,2.3028564453125,-4.149627685546875,1.338348388671875,1.0,1.0,1.0,1.0,1.0,100.0,event
12:36:10.923,0.70893127,0.18872605,0.10716528,0.6924311,0.17667778,0.021816388,-0.59614486,0.8740131,0.9181887,0.271117,-0.13575143,1.0902227,0.9215653,-0.0018902909,-0.09811079,0.95094436,0.5317526,-0.25971496,-0.33933467,0.6076212,802.23444,807.8755,794.17584,712.7839,752.27106,-0.2752685546875,0.125244140625,0.94183349609375,1.846771240234375,-3.4991455078125,0.179443359375,1.0,1.0,1.0,1.0,1.0,100.0,event
12:36:10.924,0.70893127,0.18872605,0.10716528,0.6924311,0.17667778,0.021816388,-0.59614486,0.8740131,0.9181887,0.271117,-0.13575143,1.0902227,0.9215653,-0.0018902909,-0.09811079,0.95094436,0.5317526,-0.25971496,-0.33933467,0.6076212,791.3553,813.5165,792.96704,700.696,705.9341,-0.2752685546875,0.125244140625,0.94183349609375,1.846771240234375,-3.4991455078125,0.179443359375,1.0,1.0,1.0,1.0,1.0,100.0,event
12:36:10.925,0.70893127,0.18872605,0.10716528,0.6924311,0.17667778,0.021816388,-0.59614486,0.8740131,0.9181887,0.271117,-0.13575143,1.0902227,0.9215653,-0.0018902909,-0.09811079,0.95094436,0.5317526,-0.25971496,-0.33933467,0.6076212,804.2491,811.9048,785.31134,702.71063,743.4066,-0.2752685546875,0.125244140625,0.94183349609375,1.846771240234375,-3.4991455078125,0.179443359375,1.0,1.0,1.0,1.0,1.0,100.0,event
12:36:10.926,0.70893127,0.18872605,0.10716528,0.6924311,0.17667778,0.021816388,-0.59614486,0.8740131,0.9181887,0.271117,-0.13575143,1.0902227,0.9215653,-0.0018902909,-0.09811079,0.95094436,0.5317526,-0.25971496,-0.33933467,0.6076212,781.685,807.0696,799.41394,720.4396,834.4689,-0.2752685546875,0.125244140625,0.94183349609375,1.846771240234375,-3.4991455078125,0.179443359375,1.0,1.0,1.0,1.0,1.0,100.0,event
12:36:10.926,0.70893127,0.18872605,0.10716528,0.6924311,0.17667778,0.021816388,-0.59614486,0.8740131,0.9181887,0.271117,-0.13575143,1.0902227,0.9215653,-0.0018902909,-0.09811079,0.95094436,0.5317526,-0.25971496,-0.33933467,0.6076212,804.2491,809.0842,794.17584,720.0366,817.1429,-0.2752685546875,0.125244140625,0.94183349609375,1.846771240234375,-3.4991455078125,0.179443359375,1.0,1.0,1.0,1.0,1.0,100.0,event
12:36:10.927,0.70893127,0.18872605,0.10716528,0.6924311,0.17667778,0.021816388,-0.59614486,0.8740131,0.9181887,0.271117,-0.13575143,1.0902227,0.9215653,-0.0018902909,-0.09811079,0.95094436,0.5317526,-0.25971496,-0.33933467,0.6076212,780.4762,804.65204,798.20514,706.337,857.4359,-0.2752685546875,0.125244140625,0.94183349609375,1.846771240234375,-3.4991455078125,0.179443359375,1.0,1.0,1.0,1.0,1.0,100.0,event
12:36:10.928,0.70893127,0.18872605,0.10716528,0.6924311,0.17667778,0.021816388,-0.59614486,0.8740131,0.9181887,0.271117,-0.13575143,1.0902227,0.9215653,-0.0018902909,-0.09811079,0.95094436,0.5317526,-0.25971496,-0.33933467,0.6076212,789.7436,807.47253,794.9817,711.5751,873.5531,-0.2752685546875,0.125244140625,0.94183349609375,1.846771240234375,-3.4991455078125,0.179443359375,1.0,1.0,1.0,1.0,1.0,100.0,event
12:36:10.928,0.70893127,0.18872605,0.10716528,0.6924311,0.17667778,0.021816388,-0.59614486,0.8740131,0.9181887,0.271117,-0.13575143,1.0902227,0.9215653,-0.0018902909,-0.09811079,0.95094436,0.5317526,-0.25971496,-0.33933467,0.6076212,790.9524,811.50183,793.36993,727.28937,1007.72894,-0.2752685546875,0.125244140625,0.94183349609375,1.846771240234375,-3.4991455078125,0.179443359375,1.0,1.0,1.0,1.0,1.0,100.0,event
12:36:10.929,0.70893127,0.18872605,0.10716528,0.6924311,0.17667778,0.021816388,-0.59614486,0.8740131,0.9181887,0.271117,-0.13575143,1.0902227,0.9215653,-0.0018902909,-0.09811079,0.95094436,0.5317526,-0.25971496,-0.33933467,0.6076212,794.17584,811.50183,798.60803,729.304,1172.1245,-0.2752685546875,0.125244140625,0.94183349609375,1.846771240234375,-3.4991455078125,0.179443359375,1.0,1.0,1.0,1.0,1.0,100.0,event
12:36:10.930,0.70893127,0.18872605,0.10716528,0.6924311,0.17667778,0.021816388,-0.59614486,0.8740131,0.9181887,0.271117,-0.13575143,1.0902227,0.9215653,-0.0018902909,-0.09811079,0.95094436,0.5317526,-0.25971496,-0.33933467,0.6076212,813.1135,810.293,802.23444,728.9011,898.1319,-0.2752685546875,0.125244140625,0.94183349609375,1.846771240234375,-3.4991455078125,0.179443359375,1.0,1.0,1.0,1.0,1.0,100.0,event
12:36:10.930,0.70893127,0.18872605,0.10716528,0.6924311,0.17667778,0.021816388,-0.59614486,0.8740131,0.9181887,0.271117,-0.13575143,1.0902227,0.9215653,-0.0018902909,-0.09811079,0.95094436,0.5317526,-0.25971496,-0.33933467,0.6076212,802.6374,808.2784,799.011,714.7985,730.9158,-0.2752685546875,0.125244140625,0.94183349609375,1.846771240234375,-3.4991455078125,0.179443359375,1.0,1.0,1.0,1.0,1.0,100.0,event
12:36:10.931,0.70893127,0.18872605,0.10716528,0.6924311,0.17667778,0.021816388,-0.59614486,0.8740131,0.9181887,0.271117,-0.13575143,1.0902227,0.9215653,-0.0018902909,-0.09811079,0.95094436,0.5317526,-0.25971496,-0.33933467,0.6076212,772.8205,807.0696,795.38464,711.1722,770.80585,-0.2752685546875,0.125244140625,0.94183349609375,1.846771240234375,-3.4991455078125,0.179443359375,1.0,1.0,1.0,1.0,1.0,100.0,event
12:36:10.957,0.70893127,0.18872605,0.10716528,0.6924311,0.17667778,0.021816388,-0.59614486,0.8740131,0.9181887,0.271117,-0.13575143,1.0902227,0.9215653,-0.0018902909,-0.09811079,0.95094436,0.5317526,-0.25971496,-0.33933467,0.6076212,782.0879,811.50183,794.17584,725.6777,702.3077,-0.27044677734375,0.12451171875,0.9423828125,1.921539306640625,-3.312225341796875,0.097198486328125,1.0,1.0,1.0,1.0,1.0,100.0,event
12:36:10.958,0.70893127,0.18872605,0.10716528,0.6924311,0.17667778,0.021816388,-0.59614486,0.8740131,0.9181887,0.271117,-0.13575143,1.0902227,0.9215653,-0.0018902909,-0.09811079,0.95094436,0.5317526,-0.25971496,-0.33933467,0.6076212,794.17584,807.8755,790.14655,726.8865,664.83514,-0.27044677734375,0.12451171875,0.9423828125,1.921539306640625,-3.312225341796875,0.097198486328125,1.0,1.0,1.0,1.0,1.0,100.0,event
12:36:10.959,0.70893127,0.18872605,0.10716528,0.6924311,0.17667778,0.021816388,-0.59614486,0.8740131,0.9181887,0.271117,-0.13575143,1.0902227,0.9215653,-0.0018902909,-0.09811079,0.95094436,0.5317526,-0.25971496,-0.33933467,0.6076212,782.49084,801.4286,791.75824,723.663,736.9597,-0.27044677734375,0.12451171875,0.9423828125,1.921539306640625,-3.312225341796875,0.097198486328125,1.0,1.0,1.0,1.0,1.0,100.0,event
12:36:10.959,0.70893127,0.18872605,0.10716528,0.6924311,0.17667778,0.021816388,-0.59614486,0.8740131,0.9181887,0.271117,-0.13575143,1.0902227,0.9215653,-0.0018902909,-0.09811079,0.95094436,0.5317526,-0.25971496,-0.33933467,0.6076212,770.80585,808.68134,793.7729,711.5751,759.12085,-0.27044677734375,0.12451171875,0.9423828125,1.921539306640625,-3.312225341796875,0.097198486328125,1.0,1.0,1.0,1.0,1.0,100.0,event
12:36:10.960,0.70893127,0.18872605,0.10716528,0.6924311,0.17667778,0.021816388,-0.59614486,0.8740131,0.9181887,0.271117,-0.13575143,1.0902227,0.9215653,-0.0018902909,-0.09811079,0.95094436,0.5317526,-0.25971496,-0.33933467,0.6076212,773.6264,813.1135,789.34064,712.7839,711.5751,-0.27044677734375,0.12451171875,0.9423828125,1.921539306640625,-3.312225341796875,0.097198486328125,1.0,1.0,1.0,1.0,1.0,100.0,event
12:36:10.961,0.70893127,0.18872605,0.10716528,0.6924311,0.17667778,0.021816388,-0.59614486,0.8740131,0.9181887,0.271117,-0.13575143,1.0902227,0.9215653,-0.0018902909,-0.09811079,0.95094436,0.5317526,-0.25971496,-0.33933467,0.6076212,775.64105,806.26373,791.3553,711.978,730.10986,-0.27044677734375,0.12451171875,0.9423828125,1.921539306640625,-3.312225341796875,0.097198486328125,1.0,1.0,1.0,1.0,1.0,100.0,event
12:36:10.961,0.70893127,0.18872605,0.10716528,0.6924311,0.17667778,0.021816388,-0.59614486,0.8740131,0.9181887,0.271117,-0.13575143,1.0902227,0.9215653,-0.0018902909,-0.09811079,0.95094436,0.5317526,-0.25971496,-0.33933467,0.6076212,792.96704,805.05493,793.7729,722.4542,843.73627,-0.27044677734375,0.12451171875,0.9423828125,1.921539306640625,-3.312225341796875,0.097198486328125,1.0,1.0,1.0,1.0,1.0,100.0,event
12:36:10.962,0.70893127,0.18872605,0.10716528,0.6924311,0.17667778,0.021816388,-0.59614486,0.8740131,0.9181887,0.271117,-0.13575143,1.0902227,0.9215653,-0.0018902909,-0.09811079,0.95094436,0.5317526,-0.25971496,-0.33933467,0.6076212,811.0989,810.293,795.78754,735.7509,1065.751,-0.27044677734375,0.12451171875,0.9423828125,1.921539306640625,-3.312225341796875,0.097198486328125,1.0,1.0,1.0,1.0,1.0,100.0,event
12:36:10.963,0.70893127,0.18872605,0.10716528,0.6924311,0.17667778,0.021816388,-0.59614486,0.8740131,0.9181887,0.271117,-0.13575143,1.0902227,0.9215653,-0.0018902909,-0.09811079,0.95094436,0.5317526,-0.25971496,-0.33933467,0.6076212,804.65204,812.71063,799.81683,723.2601,902.1612,-0.27044677734375,0.12451171875,0.9423828125,1.921539306640625,-3.312225341796875,0.097198486328125,1.0,1.0,1.0,1.0,1.0,100.0,event
12:36:10.963,0.70893127,0.18872605,0.10716528,0.6924311,0.17667778,0.021816388,-0.59614486,0.8740131,0.9181887,0.271117,-0.13575143,1.0902227,0.9215653,-0.0018902909,-0.09811079,0.95094436,0.5317526,-0.25971496,-0.33933467,0.6076212,788.93774,811.50183,795.38464,723.663,700.293,-0.27044677734375,0.12451171875,0.9423828125,1.921539306640625,-3.312225341796875,0.097198486328125,1.0,1.0,1.0,1.0,1.0,100.0,event
12:36:10.964,0.70893127,0.18872605,0.10716528,0.6924311,0.17667778,0.021816388,-0.59614486,0.8740131,0.9181887,0.271117,-0.13575143,1.0902227,0.9215653,-0.0018902909,-0.09811079,0.95094436,0.5317526,-0.25971496,-0.33933467,0.6076212,795.78754,809.89014,786.52014,718.022,732.52747,-0.27044677734375,0.12451171875,0.9423828125,1.921539306640625,-3.312225341796875,0.097198486328125,1.0,1.0,1.0,1.0,1.0,100.0,event
12:36:10.965,0.67417586,0.1314155,0.073733404,0.6924311,0.15374431,-0.09207723,-0.6070084,0.8740131,0.9721194,0.271117,-0.13575143,1.0902227,0.9132458,0.003359093,-0.11247498,0.95094436,0.5063938,-0.25983942,-0.32925418,0.6076212,790.54944,808.2784,790.9524,722.8571,926.7399,-0.27044677734375,0.12451171875,0.9423828125,1.921539306640625,-3.312225341796875,0.097198486328125,1.0,1.0,1.0,1.0,1.0,100.0,event
12:36:10.991,0.67417586,0.1314155,0.073733404,0.6924311,0.15374431,-0.09207723,-0.6070084,0.8740131,0.9721194,0.271117,-0.13575143,1.0902227,0.9132458,0.003359093,-0.11247498,0.95094436,0.5063938,-0.25983942,-0.32925418,0.6076212,784.90845,807.47253,799.81683,723.2601,843.73627,-0.27667236328125,0.12127685546875,0.94854736328125,2.07855224609375,-3.289794921875,0.25421142578125,1.0,1.0,1.0,1.0,1.0,100.0,event
12:36:10.992,0.67417586,0.1314155,0.073733404,0.6924311,0.15374431,-0.09207723,-0.6070084,0.8740131,0.9721194,0.271117,-0.13575143,1.0902227,0.9132458,0.003359093,-0.11247498,0.95094436,0.5063938,-0.25983942,-0.32925418,0.6076212,808.68134,811.0989,797.8022,700.293,691.4286,-0.27667236328125,0.12127685546875,0.94854736328125,2.07855224609375,-3.289794921875,0.25421142578125,1.0,1.0,1.0,1.0,1.0,100.0,event
12:36:10.992,0.67417586,0.1314155,0.073733404,0.6924311,0.15374431,-0.09207723,-0.6070084,0.8740131,0.9721194,0.271117,-0.13575143,1.0902227,0.9132458,0.003359093,-0.11247498,0.95094436,0.5063938,-0.25983942,-0.32925418,0.6076212,798.60803,811.50183,797.3993,691.02563,764.35895,-0.27667236328125,0.12127685546875,0.94854736328125,2.07855224609375,-3.289794921875,0.25421142578125,1.0,1.0,1.0,1.0,1.0,100.0,event
12:36:10.993,0.67417586,0.1314155,0.073733404,0.6924311,0.15374431,-0.09207723,-0.6070084,0.8740131,0.9721194,0.271117,-0.13575143,1.0902227,0.9132458,0.003359093,-0.11247498,0.95094436,0.5063938,-0.25983942,-0.32925418,0.6076212,771.6117,808.2784,799.41394,697.47253,759.92676,-0.27667236328125,0.12127685546875,0.94854736328125,2.07855224609375,-3.289794921875,0.25421142578125,1.0,1.0,1.0,1.0,1.0,100.0,event
12:36:10.994,0.67417586,0.1314155,0.073733404,0.6924311,0.15374431,-0.09207723,-0.6070084,0.8740131,0.9721194,0.271117,-0.13575143,1.0902227,0.9132458,0.003359093,-0.11247498,0.95094436,0.5063938,-0.25983942,-0.32925418,0.6076212,776.8498,808.2784,796.1905,693.0403,701.0989,-0.27667236328125,0.12127685546875,0.94854736328125,2.07855224609375,-3.289794921875,0.25421142578125,1.0,1.0,1.0,1.0,1.0,100.0,event
12:36:10.994,0.67417586,0.1314155,0.073733404,0.6924311,0.15374431,-0.09207723,-0.6070084,0.8740131,0.9721194,0.271117,-0.13575143,1.0902227,0.9132458,0.003359093,-0.11247498,0.95094436,0.5063938,-0.25983942,-0.32925418,0.6076212,792.5641,806.26373,792.96704,702.71063,736.1539,-0.27667236328125,0.12127685546875,0.94854736328125,2.07855224609375,-3.289794921875,0.25421142578125,1.0,1.0,1.0,1.0,1.0,100.0,event
12:36:10.995,0.67417586,0.1314155,0.073733404,0.6924311,0.15374431,-0.09207723,-0.6070084,0.8740131,0.9721194,0.271117,-0.13575143,1.0902227,0.9132458,0.003359093,-0.11247498,0.95094436,0.5063938,-0.25983942,-0.32925418,0.6076212,795.78754,809.4872,788.93774,713.5897,931.5751,-0.27667236328125,0.12127685546875,0.94854736328125,2.07855224609375,-3.289794921875,0.25421142578125,1.0,1.0,1.0,1.0,1.0,100.0,event
12:36:10.995,0.67417586,0.1314155,0.073733404,0.6924311,0.15374431,-0.09207723,-0.6070084,0.8740131,0.9721194,0.271117,-0.13575143,1.0902227,0.9132458,0.003359093,-0.11247498,0.95094436,0.5063938,-0.25983942,-0.32925418,0.6076212,791.3553,813.91943,792.5641,697.47253,973.0769,-0.27667236328125,0.12127685546875,0.94854736328125,2.07855224609375,-3.289794921875,0.25421142578125,1.0,1.0,1.0,1.0,1.0,100.0,event
12:36:10.996,0.67417586,0.1314155,0.073733404,0.6924311,0.15374431,-0.09207723,-0.6070084,0.8740131,0.9721194,0.271117,-0.13575143,1.0902227,0.9132458,0.003359093,-0.11247498,0.95094436,0.5063938,-0.25983942,-0.32925418,0.6076212,804.2491,810.293,799.41394,694.65204,685.38464,-0.27667236328125,0.12127685546875,0.94854736328125,2.07855224609375,-3.289794921875,0.25421142578125,1.0,1.0,1.0,1.0,1.0,100.0,event
12:36:10.997,0.67417586,0.1314155,0.073733404,0.6924311,0.15374431,-0.09207723,-0.6070084,0.8740131,0.9721194,0.271117,-0.13575143,1.0902227,0.9132458,0.003359093,-0.11247498,0.95094436,0.5063938,-0.25983942,-0.32925418,0.6076212,803.8461,804.65204,798.60803,716.8132,631.39197,-0.27667236328125,0.12127685546875,0.94854736328125,2.07855224609375,-3.289794921875,0.25421142578125,1.0,1.0,1.0,1.0,1.0,100.0,event
12:36:10.997,0.67417586,0.1314155,0.073733404,0.6924311,0.15374431,-0.09207723,-0.6070084,0.8740131,0.9721194,0.271117,-0.13575143,1.0902227,0.9132458,0.003359093,-0.11247498,0.95094436,0.5063938,-0.25983942,-0.32925418,0.6076212,795.38464,802.23444,799.41394,745.82416,745.82416,-0.27667236328125,0.12127685546875,0.94854736328125,2.07855224609375,-3.289794921875,0.25421142578125,1.0,1.0,1.0,1.0,1.0,100.0,event
12:36:10.998,0.67417586,0.1314155,0.073733404,0.6924311,0.15374431,-0.09207723,-0.6070084,0.8740131,0.9721194,0.271117,-0.13575143,1.0902227,0.9132458,0.003359093,-0.11247498,0.95094436,0.5063938,-0.25983942,-0.32925418,0.6076212,799.41394,807.47253,796.99634,757.50916,704.3223,-0.27667236328125,0.12127685546875,0.94854736328125,2.07855224609375,-3.289794921875,0.25421142578125,1.0,1.0,1.0,1.0,1.0,100.0,event
12:36:11.024,0.67417586,0.1314155,0.073733404,0.6924311,0.15374431,-0.09207723,-0.6070084,0.8740131,0.9721194,0.271117,-0.13575143,1.0902227,0.9132458,0.003359093,-0.11247498,0.95094436,0.5063938,-0.25983942,-0.32925418,0.6076212,803.0403,815.12823,793.36993,720.84247,676.9231,-0.269775390625,0.1282958984375,0.9429931640625,3.2000732421875,-2.97576904296875,0.8673095703125,1.0,1.0,1.0,1.0,1.0,100.0,event
12:36:11.025,0.67417586,0.1314155,0.073733404,0.6924311,0.15374431,-0.09207723,-0.6070084,0.8740131,0.9721194,0.271117,-0.13575143,1.0902227,0.9132458,0.003359093,-0.11247498,0.95094436,0.5063938,-0.25983942,-0.32925418,0.6076212,776.8498,814.3223,789.7436,678.93774,701.50183,-0.269775390625,0.1282958984375,0.9429931640625,3.2000732421875,-2.97576904296875,0.8673095703125,1.0,1.0,1.0,1.0,1.0,100.0,event
12:36:11.026,0.67417586,0.1314155,0.073733404,0.6924311,0.15374431,-0.09207723,-0.6070084,0.8740131,0.9721194,0.271117,-0.13575143,1.0902227,0.9132458,0.003359093,-0.11247498,0.95094436,0.5063938,-0.25983942,-0.32925418,0.6076212,782.0879,813.5165,790.9524,693.0403,787.326,-0.269775390625,0.1282958984375,0.9429931640625,3.2000732421875,-2.97576904296875,0.8673095703125,1.0,1.0,1.0,1.0,1.0,100.0,event
12:36:11.027,0.67417586,0.1314155,0.073733404,0.6924311,0.15374431,-0.09207723,-0.6070084,0.8740131,0.9721194,0.271117,-0.13575143,1.0902227,0.9132458,0.003359093,-0.11247498,0.95094436,0.5063938,-0.25983942,-0.32925418,0.6076212,815.12823,815.9341,792.96704,720.84247,731.31866,-0.269775390625,0.1282958984375,0.9429931640625,3.2000732421875,-2.97576904296875,0.8673095703125,1.0,1.0,1.0,1.0,1.0,100.0,event
12:36:11.027,0.67417586,0.1314155,0.073733404,0.6924311,0.15374431,-0.09207723,-0.6070084,0.8740131,0.9721194,0.271117,-0.13575143,1.0902227,0.9132458,0.003359093,-0.11247498,0.95094436,0.5063938,-0.25983942,-0.32925418,0.6076212,808.68134,812.3077,789.34064,740.58606,657.98535,-0.269775390625,0.1282958984375,0.9429931640625,3.2000732421875,-2.97576904296875,0.8673095703125,1.0,1.0,1.0,1.0,1.0,100.0,event
12:36:11.028,0.67417586,0.1314155,0.073733404,0.6924311,0.15374431,-0.09207723,-0.6070084,0.8740131,0.9721194,0.271117,-0.13575143,1.0902227,0.9132458,0.003359093,-0.11247498,0.95094436,0.5063938,-0.25983942,-0.32925418,0.6076212,803.44324,810.293,790.54944,737.76556,803.8461,-0.269775390625,0.1282958984375,0.9429931640625,3.2000732421875,-2.97576904296875,0.8673095703125,1.0,1.0,1.0,1.0,1.0,100.0,event
12:36:11.029,0.67417586,0.1314155,0.073733404,0.6924311,0.15374431,-0.09207723,-0.6070084,0.8740131,0.9721194,0.271117,-0.13575143,1.0902227,0.9132458,0.003359093,-0.11247498,0.95094436,0.5063938,-0.25983942,-0.32925418,0.6076212,791.3553,811.9048,792.1612,721.6484,1023.0403,-0.269775390625,0.1282958984375,0.9429931640625,3.2000732421875,-2.97576904296875,0.8673095703125,1.0,1.0,1.0,1.0,1.0,100.0,event
12:36:11.029,0.67417586,0.1314155,0.073733404,0.6924311,0.15374431,-0.09207723,-0.6070084,0.8740131,0.9721194,0.271117,-0.13575143,1.0902227,0.9132458,0.003359093,-0.11247498,0.95094436,0.5063938,-0.25983942,-0.32925418,0.6076212,786.9231,812.3077,791.75824,714.7985,823.9927,-0.269775390625,0.1282958984375,0.9429931640625,3.2000732421875,-2.97576904296875,0.8673095703125,1.0,1.0,1.0,1.0,1.0,100.0,event
12:36:11.030,0.67417586,0.1314155,0.073733404,0.6924311,0.15374431,-0.09207723,-0.6070084,0.8740131,0.9721194,0.271117,-0.13575143,1.0902227,0.9132458,0.003359093,-0.11247498,0.95094436,0.5063938,-0.25983942,-0.32925418,0.6076212,798.60803,807.8755,794.17584,712.7839,654.7619,-0.269775390625,0.1282958984375,0.9429931640625,3.2000732421875,-2.97576904296875,0.8673095703125,1.0,1.0,1.0,1.0,1.0,100.0,event
12:36:11.031,0.67417586,0.1314155,0.073733404,0.6924311,0.15374431,-0.09207723,-0.6070084,0.8740131,0.9721194,0.271117,-0.13575143,1.0902227,0.9132458,0.003359093,-0.11247498,0.95094436,0.5063938,-0.25983942,-0.32925418,0.6076212,784.5055,801.8315,799.011,701.0989,765.56775,-0.269775390625,0.1282958984375,0.9429931640625,3.2000732421875,-2.97576904296875,0.8673095703125,1.0,1.0,1.0,1.0,1.0,100.0,event
12:36:11.033,0.67417586,0.1314155,0.073733404,0.6924311,0.15374431,-0.09207723,-0.6070084,0.8740131,0.9721194,0.271117,-0.13575143,1.0902227,0.9132458,0.003359093,-0.11247498,0.95094436,0.5063938,-0.25983942,-0.32925418,0.6076212,780.07324,810.293,790.14655,686.1905,666.04395,-0.269775390625,0.1282958984375,0.9429931640625,3.2000732421875,-2.97576904296875,0.8673095703125,1.0,1.0,1.0,1.0,1.0,100.0,event
12:36:11.033,0.67417586,0.1314155,0.073733404,0.6924311,0.15374431,-0.09207723,-0.6070084,0.8740131,0.9721194,0.271117,-0.13575143,1.0902227,0.9132458,0.003359093,-0.11247498,0.95094436,0.5063938,-0.25983942,-0.32925418,0.6076212,778.86444,806.6667,797.8022,685.38464,716.0073,-0.269775390625,0.1282958984375,0.9429931640625,3.2000732421875,-2.97576904296875,0.8673095703125,1.0,1.0,1.0,1.0,1.0,100.0,event
12:36:11.095,0.67417586,0.1314155,0.073733404,0.6924311,0.15374431,-0.09207723,-0.6070084,0.8740131,0.9721194,0.271117,-0.13575143,1.0902227,0.9132458,0.003359093,-0.11247498,0.95094436,0.5063938,-0.25983942,-0.32925418,0.6076212,780.4762,809.4872,792.1612,697.0696,678.5348,-0.269775390625,0.1282958984375,0.9429931640625,3.2000732421875,-2.97576904296875,0.8673095703125,1.0,1.0,1.0,1.0,1.0,100.0,event
12:36:11.096,0.6623794,0.08426823,0.041958712,0.6924311,0.17892581,-0.20651598,-0.62204397,0.8740131,1.010866,0.2739598,-0.13575143,1.0902227,0.9032149,0.009098454,-0.12083483,0.95094436,0.49856356,-0.26235962,-0.32665977,0.6076212,795.38464,807.0696,793.7729,714.3956,721.6484,-0.269775390625,0.1282958984375,0.9429931640625,3.2000732421875,-2.97576904296875,0.8673095703125,1.0,1.0,1.0,1.0,1.0,100.0,event
12:36:11.101,0.6623794,0.08426823,0.041958712,0.6924311,0.17892581,-0.20651598,-0.62204397,0.8740131,1.010866,0.2739598,-0.13575143,1.0902227,0.9032149,0.009098454,-0.12083483,0.95094436,0.49856356,-0.26235962,-0.32665977,0.6076212,806.6667,808.68134,793.36993,707.9487,782.49084,-0.269775390625,0.1282958984375,0.9429931640625,3.2000732421875,-2.97576904296875,0.8673095703125,1.0,1.0,1.0,1.0,1.0,100.0,event
12:36:11.102,0.6623794,0.08426823,0.041958712,0.6924311,0.17892581,-0.20651598,-0.62204397,0.8740131,1.010866,0.2739598,-0.13575143,1.0902227,0.9032149,0.009098454,-0.12083483,0.95094436,0.49856356,-0.26235962,-0.32665977,0.6076212,806.26373,811.9048,795.78754,692.23444,790.9524,-0.269775390625,0.1282958984375,0.9429931640625,3.2000732421875,-2.97576904296875,0.8673095703125,1.0,1.0,1.0,1.0,1.0,100.0,event
12:36:11.103,0.6623794,0.08426823,0.041958712,0.6924311,0.17892581,-0.20651598,-0.62204397,0.8740131,1.010866,0.2739598,-0.13575143,1.0902227,0.9032149,0.009098454,-0.12083483,0.95094436,0.49856356,-0.26235962,-0.32665977,0.6076212,795.78754,809.4872,795.38464,695.4579,667.25275,-0.269775390625,0.1282958984375,0.9429931640625,3.2000732421875,-2.97576904296875,0.8673095703125,1.0,1.0,1.0,1.0,1.0,100.0,event
12:36:11.104,0.6623794,0.08426823,0.041958712,0.6924311,0.17892581,-0.20651598,-0.62204397,0.8740131,1.010866,0.2739598,-0.13575143,1.0902227,0.9032149,0.009098454,-0.12083483,0.95094436,0.49856356,-0.26235962,-0.32665977,0.6076212,793.7729,804.2491,788.93774,724.4689,830.4396,-0.269775390625,0.1282958984375,0.9429931640625,3.2000732421875,-2.97576904296875,0.8673095703125,1.0,1.0,1.0,1.0,1.0,100.0,event
12:36:11.106,0.6623794,0.08426823,0.041958712,0.6924311,0.17892581,-0.20651598,-0.62204397,0.8740131,1.010866,0.2739598,-0.13575143,1.0902227,0.9032149,0.009098454,-0.12083483,0.95094436,0.49856356,-0.26235962,-0.32665977,0.6076212,793.36993,807.8755,788.93774,732.9304,1093.956,-0.269775390625,0.1282958984375,0.9429931640625,3.2000732421875,-2.97576904296875,0.8673095703125,1.0,1.0,1.0,1.0,1.0,100.0,event
12:36:11.107,0.6623794,0.08426823,0.041958712,0.6924311,0.17892581,-0.20651598,-0.62204397,0.8740131,1.010866,0.2739598,-0.13575143,1.0902227,0.9032149,0.009098454,-0.12083483,0.95094436,0.49856356,-0.26235962,-0.32665977,0.6076212,786.1172,815.5311,794.17584,712.7839,839.304,-0.269775390625,0.1282958984375,0.9429931640625,3.2000732421875,-2.97576904296875,0.8673095703125,1.0,1.0,1.0,1.0,1.0,100.0,event
12:36:11.108,0.6623794,0.08426823,0.041958712,0.6924311,0.17892581,-0.20651598,-0.62204397,0.8740131,1.010866,0.2739598,-0.13575143,1.0902227,0.9032149,0.009098454,-0.12083483,0.95094436,0.49856356,-0.26235962,-0.32665977,0.6076212,781.28204,808.68134,796.5934,697.0696,664.0293,-0.269775390625,0.1282958984375,0.9429931640625,3.2000732421875,-2.97576904296875,0.8673095703125,1.0,1.0,1.0,1.0,1.0,100.0,event
12:36:11.109,0.6623794,0.08426823,0.041958712,0.6924311,0.17892581,-0.20651598,-0.62204397,0.8740131,1.010866,0.2739598,-0.13575143,1.0902227,0.9032149,0.009098454,-0.12083483,0.95094436,0.49856356,-0.26235962,-0.32665977,0.6076212,777.6557,805.8608,798.60803,695.4579,772.4176,-0.269775390625,0.1282958984375,0.9429931640625,3.2000732421875,-2.97576904296875,0.8673095703125,1.0,1.0,1.0,1.0,1.0,100.0,event
12:36:11.110,0.6623794,0.08426823,0.041958712,0.6924311,0.17892581,-0.20651598,-0.62204397,0.8740131,1.010866,0.2739598,-0.13575143,1.0902227,0.9032149,0.009098454,-0.12083483,0.95094436,0.49856356,-0.26235962,-0.32665977,0.6076212,777.6557,811.9048,794.57874,708.3516,804.65204,-0.269775390625,0.1282958984375,0.9429931640625,3.2000732421875,-2.97576904296875,0.8673095703125,1.0,1.0,1.0,1.0,1.0,100.0,event
12:36:11.111,0.6623794,0.08426823,0.041958712,0.6924311,0.17892581,-0.20651598,-0.62204397,0.8740131,1.010866,0.2739598,-0.13575143,1.0902227,0.9032149,0.009098454,-0.12083483,0.95094436,0.49856356,-0.26235962,-0.32665977,0.6076212,779.67035,804.65204,790.54944,709.15753,752.27106,-0.269775390625,0.1282958984375,0.9429931640625,3.2000732421875,-2.97576904296875,0.8673095703125,1.0,1.0,1.0,1.0,1.0,100.0,event
12:36:11.148,0.6623794,0.08426823,0.041958712,0.6924311,0.17892581,-0.20651598,-0.62204397,0.8740131,1.010866,0.2739598,-0.13575143,1.0902227,0.9032149,0.009098454,-0.12083483,0.95094436,0.49856356,-0.26235962,-0.32665977,0.6076212,782.49084,802.23444,794.9817,713.1868,768.7912,-0.27923583984375,0.132568359375,0.94622802734375,1.757049560546875,-2.9608154296875,0.55328369140625,1.0,1.0,1.0,1.0,1.0,100.0,event
12:36:11.149,0.6623794,0.08426823,0.041958712,0.6924311,0.17892581,-0.20651598,-0.62204397,0.8740131,1.010866,0.2739598,-0.13575143,1.0902227,0.9032149,0.009098454,-0.12083483,0.95094436,0.49856356,-0.26235962,-0.32665977,0.6076212,770.80585,809.4872,798.60803,686.5934,842.1245,-0.27923583984375,0.132568359375,0.94622802734375,1.757049560546875,-2.9608154296875,0.55328369140625,1.0,1.0,1.0,1.0,1.0,100.0,event
12:36:11.149,0.6623794,0.08426823,0.041958712,0.6924311,0.17892581,-0.20651598,-0.62204397,0.8740131,1.010866,0.2739598,-0.13575143,1.0902227,0.9032149,0.009098454,-0.12083483,0.95094436,0.49856356,-0.26235962,-0.32665977,0.6076212,778.86444,809.4872,800.6227,701.50183,850.989,-0.27923583984375,0.132568359375,0.94622802734375,1.757049560546875,-2.9608154296875,0.55328369140625,1.0,1.0,1.0,1.0,1.0,100.0,event
12:36:11.150,0.6623794,0.08426823,0.041958712,0.6924311,0.17892581,-0.20651598,-0.62204397,0.8740131,1.010866,0.2739598,-0.13575143,1.0902227,0.9032149,0.009098454,-0.12083483,0.95094436,0.49856356,-0.26235962,-0.32665977,0.6076212,778.0586,806.26373,796.99634,701.0989,724.87177,-0.27923583984375,0.132568359375,0.94622802734375,1.757049560546875,-2.9608154296875,0.55328369140625,1.0,1.0,1.0,1.0,1.0,100.0,event
12:36:11.150,0.6623794,0.08426823,0.041958712,0.6924311,0.17892581,-0.20651598,-0.62204397,0.8740131,1.010866,0.2739598,-0.13575143,1.0902227,0.9032149,0.009098454,-0.12083483,0.95094436,0.49856356,-0.26235962,-0.32665977,0.6076212,799.81683,809.0842,800.2198,716.0073,691.8315,-0.27923583984375,0.132568359375,0.94622802734375,1.757049560546875,-2.9608154296875,0.55328369140625,1.0,1.0,1.0,1.0,1.0,100.0,event
12:36:11.151,0.6623794,0.08426823,0.041958712,0.6924311,0.17892581,-0.20651598,-0.62204397,0.8740131,1.010866,0.2739598,-0.13575143,1.0902227,0.9032149,0.009098454,-0.12083483,0.95094436,0.49856356,-0.26235962,-0.32665977,0.6076212,791.75824,807.8755,801.8315,708.7546,862.674,-0.27923583984375,0.132568359375,0.94622802734375,1.757049560546875,-2.9608154296875,0.55328369140625,1.0,1.0,1.0,1.0,1.0,100.0,event
12:36:11.151,0.6623794,0.08426823,0.041958712,0.6924311,0.17892581,-0.20651598,-0.62204397,0.8740131,1.010866,0.2739598,-0.13575143,1.0902227,0.9032149,0.009098454,-0.12083483,0.95094436,0.49856356,-0.26235962,-0.32665977,0.6076212,781.28204,803.44324,798.60803,710.3663,912.6374,-0.27923583984375,0.132568359375,0.94622802734375,1.757049560546875,-2.9608154296875,0.55328369140625,1.0,1.0,1.0,1.0,1.0,100.0,event
12:36:11.152,0.6623794,0.08426823,0.041958712,0.6924311,0.17892581,-0.20651598,-0.62204397,0.8740131,1.010866,0.2739598,-0.13575143,1.0902227,0.9032149,0.009098454,-0.12083483,0.95094436,0.49856356,-0.26235962,-0.32665977,0.6076212,791.3553,807.47253,795.38464,715.2015,784.5055,-0.27923583984375,0.132568359375,0.94622802734375,1.757049560546875,-2.9608154296875,0.55328369140625,1.0,1.0,1.0,1.0,1.0,100.0,event
12:36:11.152,0.6623794,0.08426823,0.041958712,0.6924311,0.17892581,-0.20651598,-0.62204397,0.8740131,1.010866,0.2739598,-0.13575143,1.0902227,0.9032149,0.009098454,-0.12083483,0.95094436,0.49856356,-0.26235962,-0.32665977,0.6076212,799.011,808.68134,797.3993,724.87177,751.06226,-0.27923583984375,0.132568359375,0.94622802734375,1.757049560546875,-2.9608154296875,0.55328369140625,1.0,1.0,1.0,1.0,1.0,100.0,event
12:36:11.153,0.6623794,0.08426823,0.041958712,0.6924311,0.17892581,-0.20651598,-0.62204397,0.8740131,1.010866,0.2739598,-0.13575143,1.0902227,0.9032149,0.009098454,-0.12083483,0.95094436,0.49856356,-0.26235962,-0.32665977,0.6076212,791.75824,805.4579,803.0403,750.65936,1011.75824,-0.27923583984375,0.132568359375,0.94622802734375,1.757049560546875,-2.9608154296875,0.55328369140625,1.0,1.0,1.0,1.0,1.0,100.0,event
12:36:11.153,0.6623794,0.08426823,0.041958712,0.6924311,0.17892581,-0.20651598,-0.62204397,0.8740131,1.010866,0.2739598,-0.13575143,1.0902227,0.9032149,0.009098454,-0.12083483,0.95094436,0.49856356,-0.26235962,-0.32665977,0.6076212,796.1905,805.05493,805.8608,753.8828,968.24176,-0.27923583984375,0.132568359375,0.94622802734375,1.757049560546875,-2.9608154296875,0.55328369140625,1.0,1.0,1.0,1.0,1.0,100.0,event
12:36:11.154,0.6623794,0.08426823,0.041958712,0.6924311,0.17892581,-0.20651598,-0.62204397,0.8740131,1.010866,0.2739598,-0.13575143,1.0902227,0.9032149,0.009098454,-0.12083483,0.95094436,0.49856356,-0.26235962,-0.32665977,0.6076212,798.60803,809.4872,803.8461,733.3333,720.4396,-0.27923583984375,0.132568359375,0.94622802734375,1.757049560546875,-2.9608154296875,0.55328369140625,1.0,1.0,1.0,1.0,1.0,100.0,event
12:36:11.183,0.6623794,0.08426823,0.041958712,0.6924311,0.17892581,-0.20651598,-0.62204397,0.8740131,1.010866,0.2739598,-0.13575143,1.0902227,0.9032149,0.009098454,-0.12083483,0.95094436,0.49856356,-0.26235962,-0.32665977,0.6076212,782.49084,809.4872,804.2491,714.7985,761.13556,-0.278564453125,0.11883544921875,0.93658447265625,1.854248046875,-3.3795166015625,-0.7177734375,1.0,1.0,1.0,1.0,1.0,100.0,event
12:36:11.184,0.6623794,0.08426823,0.041958712,0.6924311,0.17892581,-0.20651598,-0.62204397,0.8740131,1.010866,0.2739598,-0.13575143,1.0902227,0.9032149,0.009098454,-0.12083483,0.95094436,0.49856356,-0.26235962,-0.32665977,0.6076212,801.02563,807.0696,802.23444,735.7509,738.1685,-0.278564453125,0.11883544921875,0.93658447265625,1.854248046875,-3.3795166015625,-0.7177734375,1.0,1.0,1.0,1.0,1.0,100.0,event
12:36:11.184,0.6623794,0.08426823,0.041958712,0.6924311,0.17892581,-0.20651598,-0.62204397,0.8740131,1.010866,0.2739598,-0.13575143,1.0902227,0.9032149,0.009098454,-0.12083483,0.95094436,0.49856356,-0.26235962,-0.32665977,0.6076212,789.34064,808.68134,802.6374,707.1429,806.6667,-0.278564453125,0.11883544921875,0.93658447265625,1.854248046875,-3.3795166015625,-0.7177734375,1.0,1.0,1.0,1.0,1.0,100.0,event
12:36:11.185,0.6728853,0.043504883,0.011229976,0.6924311,0.23264834,-0.2786717,-0.6366104,0.8740131,1.0143913,0.26361144,-0.13575143,1.0902227,0.893384,0.0083031785,-0.12530626,0.95094436,0.5087066,-0.2713786,-0.3304166,0.6076212,786.52014,803.8461,801.8315,758.71796,726.8865,-0.278564453125,0.11883544921875,0.93658447265625,1.854248046875,-3.3795166015625,-0.7177734375,1.0,1.0,1.0,1.0,1.0,100.0,event
12:36:11.187,0.6728853,0.043504883,0.011229976,0.6924311,0.23264834,-0.2786717,-0.6366104,0.8740131,1.0143913,0.26361144,-0.13575143,1.0902227,0.893384,0.0083031785,-0.12530626,0.95094436,0.5087066,-0.2713786,-0.3304166,0.6076212,789.34064,803.8461,804.2491,754.68866,803.8461,-0.278564453125,0.11883544921875,0.93658447265625,1.854248046875,-3.3795166015625,-0.7177734375,1.0,1.0,1.0,1.0,1.0,100.0,event
12:36:11.188,0.6728853,0.043504883,0.011229976,0.6924311,0.23264834,-0.2786717,-0.6366104,0.8740131,1.0143913,0.26361144,-0.13575143,1.0902227,0.893384,0.0083031785,-0.12530626,0.95094436,0.5087066,-0.2713786,-0.3304166,0.6076212,783.69965,807.47253,802.6374,728.0952,905.38464,-0.278564453125,0.11883544921875,0.93658447265625,1.854248046875,-3.3795166015625,-0.7177734375,1.0,1.0,1.0,1.0,1.0,100.0,event
12:36:11.188,0.6728853,0.043504883,0.011229976,0.6924311,0.23264834,-0.2786717,-0.6366104,0.8740131,1.0143913,0.26361144,-0.13575143,1.0902227,0.893384,0.0083031785,-0.12530626,0.95094436,0.5087066,-0.2713786,-0.3304166,0.6076212,786.52014,804.2491,805.4579,740.58606,904.9817,-0.278564453125,0.11883544921875,0.93658447265625,1.854248046875,-3.3795166015625,-0.7177734375,1.0,1.0,1.0,1.0,1.0,100.0,event
12:36:11.189,0.6728853,0.043504883,0.011229976,0.6924311,0.23264834,-0.2786717,-0.6366104,0.8740131,1.0143913,0.26361144,-0.13575143,1.0902227,0.893384,0.0083031785,-0.12530626,0.95094436,0.5087066,-0.2713786,-0.3304166,0.6076212,782.8938,808.68134,801.4286,727.6923,781.28204,-0.278564453125,0.11883544921875,0.93658447265625,1.854248046875,-3.3795166015625,-0.7177734375,1.0,1.0,1.0,1.0,1.0,100.0,event
12:36:11.189,0.6728853,0.043504883,0.011229976,0.6924311,0.23264834,-0.2786717,-0.6366104,0.8740131,1.0143913,0.26361144,-0.13575143,1.0902227,0.893384,0.0083031785,-0.12530626,0.95094436,0.5087066,-0.2713786,-0.3304166,0.6076212,780.4762,807.8755,801.02563,744.21246,946.4835,-0.278564453125,0.11883544921875,0.93658447265625,1.854248046875,-3.3795166015625,-0.7177734375,1.0,1.0,1.0,1.0,1.0,100.0,event
12:36:11.189,0.6728853,0.043504883,0.011229976,0.6924311,0.23264834,-0.2786717,-0.6366104,0.8740131,1.0143913,0.26361144,-0.13575143,1.0902227,0.893384,0.0083031785,-0.12530626,0.95094436,0.5087066,-0.2713786,-0.3304166,0.6076212,790.54944,805.05493,803.44324,752.674,1179.7803,-0.278564453125,0.11883544921875,0.93658447265625,1.854248046875,-3.3795166015625,-0.7177734375,1.0,1.0,1.0,1.0,1.0,100.0,event
12:36:11.190,0.6728853,0.043504883,0.011229976,0.6924311,0.23264834,-0.2786717,-0.6366104,0.8740131,1.0143913,0.26361144,-0.13575143,1.0902227,0.893384,0.0083031785,-0.12530626,0.95094436,0.5087066,-0.2713786,-0.3304166,0.6076212,783.2967,802.23444,803.0403,734.5421,837.28937,-0.278564453125,0.11883544921875,0.93658447265625,1.854248046875,-3.3795166015625,-0.7177734375,1.0,1.0,1.0,1.0,1.0,100.0,event
12:36:11.190,0.6728853,0.043504883,0.011229976,0.6924311,0.23264834,-0.2786717,-0.6366104,0.8740131,1.0143913,0.26361144,-0.13575143,1.0902227,0.893384,0.0083031785,-0.12530626,0.95094436,0.5087066,-0.2713786,-0.3304166,0.6076212,780.87915,799.41394,800.6227,715.2015,634.21246,-0.278564453125,0.11883544921875,0.93658447265625,1.854248046875,-3.3795166015625,-0.7177734375,1.0,1.0,1.0,1.0,1.0,100.0,event
12:36:11.241,0.6728853,0.043504883,0.011229976,0.6924311,0.23264834,-0.2786717,-0.6366104,0.8740131,1.0143913,0.26361144,-0.13575143,1.0902227,0.893384,0.0083031785,-0.12530626,0.95094436,0.5087066,-0.2713786,-0.3304166,0.6076212,792.5641,797.8022,797.8022,724.4689,826.0073,-0.27545166015625,0.129638671875,0.93829345703125,2.37762451171875,-2.325286865234375,0.291595458984375,1.0,1.0,1.0,1.0,1.0,100.0,event
12:36:11.242,0.6728853,0.043504883,0.011229976,0.6924311,0.23264834,-0.2786717,-0.6366104,0.8740131,1.0143913,0.26361144,-0.13575143,1.0902227,0.893384,0.0083031785,-0.12530626,0.95094436,0.5087066,-0.2713786,-0.3304166,0.6076212,798.20514,803.44324,798.60803,733.3333,778.0586,-0.27545166015625,0.129638671875,0.93829345703125,2.37762451171875,-2.325286865234375,0.291595458984375,1.0,1.0,1.0,1.0,1.0,100.0,event
12:36:11.242,0.6728853,0.043504883,0.011229976,0.6924311,0.23264834,-0.2786717,-0.6366104,0.8740131,1.0143913,0.26361144,-0.13575143,1.0902227,0.893384,0.0083031785,-0.12530626,0.95094436,0.5087066,-0.2713786,-0.3304166,0.6076212,798.20514,806.6667,799.011,730.10986,703.5165,-0.27545166015625,0.129638671875,0.93829345703125,2.37762451171875,-2.325286865234375,0.291595458984375,1.0,1.0,1.0,1.0,1.0,100.0,event
12:36:11.243,0.6728853,0.043504883,0.011229976,0.6924311,0.23264834,-0.2786717,-0.6366104,0.8740131,1.0143913,0.26361144,-0.13575143,1.0902227,0.893384,0.0083031785,-0.12530626,0.95094436,0.5087066,-0.2713786,-0.3304166,0.6076212,786.1172,810.293,794.9817,744.21246,760.7326,-0.27545166015625,0.129638671875,0.93829345703125,2.37762451171875,-2.325286865234375,0.291595458984375,1.0,1.0,1.0,1.0,1.0,100.0,event
12:36:11.243,0.6728853,0.043504883,0.011229976,0.6924311,0.23264834,-0.2786717,-0.6366104,0.8740131,1.0143913,0.26361144,-0.13575143,1.0902227,0.893384,0.0083031785,-0.12530626,0.95094436,0.5087066,-0.2713786,-0.3304166,0.6076212,771.2088,811.9048,794.57874,748.24176,774.43225,-0.27545166015625,0.129638671875,0.93829345703125,2.37762451171875,-2.325286865234375,0.291595458984375,1.0,1.0,1.0,1.0,1.0,100.0,event
12:36:11.244,0.6728853,0.043504883,0.011229976,0.6924311,0.23264834,-0.2786717,-0.6366104,0.8740131,1.0143913,0.26361144,-0.13575143,1.0902227,0.893384,0.0083031785,-0.12530626,0.95094436,0.5087066,-0.2713786,-0.3304166,0.6076212,776.8498,811.9048,798.60803,740.18317,819.9634,-0.27545166015625,0.129638671875,0.93829345703125,2.37762451171875,-2.325286865234375,0.291595458984375,1.0,1.0,1.0,1.0,1.0,100.0,event
12:36:11.244,0.6728853,0.043504883,0.011229976,0.6924311,0.23264834,-0.2786717,-0.6366104,0.8740131,1.0143913,0.26361144,-0.13575143,1.0902227,0.893384,0.0083031785,-0.12530626,0.95094436,0.5087066,-0.2713786,-0.3304166,0.6076212,790.9524,813.5165,796.1905,741.79486,795.38464,-0.27545166015625,0.129638671875,0.93829345703125,2.37762451171875,-2.325286865234375,0.291595458984375,1.0,1.0,1.0,1.0,1.0,100.0,event
12:36:11.245,0.6728853,0.043504883,0.011229976,0.6924311,0.23264834,-0.2786717,-0.6366104,0.8740131,1.0143913,0.26361144,-0.13575143,1.0902227,0.893384,0.0083031785,-0.12530626,0.95094436,0.5087066,-0.2713786,-0.3304166,0.6076212,782.0879,811.0989,800.6227,730.5128,854.21246,-0.27545166015625,0.129638671875,0.93829345703125,2.37762451171875,-2.325286865234375,0.291595458984375,1.0,1.0,1.0,1.0,1.0,100.0,event
12:36:11.245,0.6728853,0.043504883,0.011229976,0.6924311,0.23264834,-0.2786717,-0.6366104,0.8740131,1.0143913,0.26361144,-0.13575143,1.0902227,0.893384,0.0083031785,-0.12530626,0.95094436,0.5087066,-0.2713786,-0.3304166,0.6076212,784.90845,811.0989,799.011,738.97437,953.3333,-0.27545166015625,0.129638671875,0.93829345703125,2.37762451171875,-2.325286865234375,0.291595458984375,1.0,1.0,1.0,1.0,1.0,100.0,event
12:36:11.245,0.6728853,0.043504883,0.011229976,0.6924311,0.23264834,-0.2786717,-0.6366104,0.8740131,1.0143913,0.26361144,-0.13575143,1.0902227,0.893384,0.0083031785,-0.12530626,0.95094436,0.5087066,-0.2713786,-0.3304166,0.6076212,791.3553,810.696,796.5934,743.00366,747.4359,-0.27545166015625,0.129638671875,0.93829345703125,2.37762451171875,-2.325286865234375,0.291595458984375,1.0,1.0,1.0,1.0,1.0,100.0,event
12:36:11.246,0.6728853,0.043504883,0.011229976,0.6924311,0.23264834,-0.2786717,-0.6366104,0.8740131,1.0143913,0.26361144,-0.13575143,1.0902227,0.893384,0.0083031785,-0.12530626,0.95094436,0.5087066,-0.2713786,-0.3304166,0.6076212,795.78754,811.50183,802.23444,728.49817,684.17584,-0.27545166015625,0.129638671875,0.93829345703125,2.37762451171875,-2.325286865234375,0.291595458984375,1.0,1.0,1.0,1.0,1.0,100.0,event
12:36:11.246,0.6728853,0.043504883,0.011229976,0.6924311,0.23264834,-0.2786717,-0.6366104,0.8740131,1.0143913,0.26361144,-0.13575143,1.0902227,0.893384,0.0083031785,-0.12530626,0.95094436,0.5087066,-0.2713786,-0.3304166,0.6076212,811.0989,811.0989,798.60803,741.39197,761.13556,-0.27545166015625,0.129638671875,0.93829345703125,2.37762451171875,-2.325286865234375,0.291595458984375,1.0,1.0,1.0,1.0,1.0,100.0,event
12:36:11.277,0.6728853,0.043504883,0.011229976,0.6924311,0.23264834,-0.2786717,-0.6366104,0.8740131,1.0143913,0.26361144,-0.13575143,1.0902227,0.893384,0.0083031785,-0.12530626,0.95094436,0.5087066,-0.2713786,-0.3304166,0.6076212,810.293,812.3077,798.60803,756.30035,863.47986,-0.28289794921875,0.13079833984375,0.937744140625,1.95892333984375,-3.768310546875,1.15142822265625,1.0,1.0,1.0,1.0,1.0,100.0,event
12:36:11.278,0.6728853,0.043504883,0.011229976,0.6924311,0.23264834,-0.2786717,-0.6366104,0.8740131,1.0143913,0.26361144,-0.13575143,1.0902227,0.893384,0.0083031785,-0.12530626,0.95094436,0.5087066,-0.2713786,-0.3304166,0.6076212,812.71063,821.1722,790.54944,752.27106,879.59705,-0.28289794921875,0.13079833984375,0.937744140625,1.95892333984375,-3.768310546875,1.15142822265625,1.0,1.0,1.0,1.0,1.0,100.0,event
12:36:11.279,0.6728853,0.043504883,0.011229976,0.6924311,0.23264834,-0.2786717,-0.6366104,0.8740131,1.0143913,0.26361144,-0.13575143,1.0902227,0.893384,0.0083031785,-0.12530626,0.95094436,0.5087066,-0.2713786,-0.3304166,0.6076212,807.8755,820.3663,791.3553,744.61536,752.674,-0.28289794921875,0.13079833984375,0.937744140625,1.95892333984375,-3.768310546875,1.15142822265625,1.0,1.0,1.0,1.0,1.0,100.0,event
12:36:11.279,0.6728853,0.043504883,0.011229976,0.6924311,0.23264834,-0.2786717,-0.6366104,0.8740131,1.0143913,0.26361144,-0.13575143,1.0902227,0.893384,0.0083031785,-0.12530626,0.95094436,0.5087066,-0.2713786,-0.3304166,0.6076212,789.7436,805.4579,800.6227,730.10986,832.0513,-0.28289794921875,0.13079833984375,0.937744140625,1.95892333984375,-3.768310546875,1.15142822265625,1.0,1.0,1.0,1.0,1.0,100.0,event
12:36:11.280,0.6728853,0.043504883,0.011229976,0.6924311,0.23264834,-0.2786717,-0.6366104,0.8740131,1.0143913,0.26361144,-0.13575143,1.0902227,0.893384,0.0083031785,-0.12530626,0.95094436,0.5087066,-0.2713786,-0.3304166,0.6076212,782.8938,799.011,799.41394,734.1392,817.5458,-0.28289794921875,0.13079833984375,0.937744140625,1.95892333984375,-3.768310546875,1.15142822265625,1.0,1.0,1.0,1.0,1.0,100.0,event
12:36:11.280,0.68735474,-0.0042002383,-0.014940656,0.6924311,0.27833626,-0.30246314,-0.6477355,0.8740131,1.0158694,0.25962076,-0.13575143,1.0902227,0.8874918,-0.0035995618,-0.12921289,0.95094436,0.5281848,-0.28789905,-0.3345713,0.6076212,796.1905,801.4286,800.6227,756.30035,755.89746,-0.28289794921875,0.13079833984375,0.937744140625,1.95892333984375,-3.768310546875,1.15142822265625,1.0,1.0,1.0,1.0,1.0,100.0,event
12:36:11.284,0.68735474,-0.0042002383,-0.014940656,0.6924311,0.27833626,-0.30246314,-0.6477355,0.8740131,1.0158694,0.25962076,-0.13575143,1.0902227,0.8874918,-0.0035995618,-0.12921289,0.95094436,0.5281848,-0.28789905,-0.3345713,0.6076212,806.6667,809.89014,799.81683,743.00366,892.49084,-0.28289794921875,0.13079833984375,0.937744140625,1.95892333984375,-3.768310546875,1.15142822265625,1.0,1.0,1.0,1.0,1.0,100.0,event
12:36:11.284,0.68735474,-0.0042002383,-0.014940656,0.6924311,0.27833626,-0.30246314,-0.6477355,0.8740131,1.0158694,0.25962076,-0.13575143,1.0902227,0.8874918,-0.0035995618,-0.12921289,0.95094436,0.5281848,-0.28789905,-0.3345713,0.6076212,795.38464,813.1135,797.8022,731.31866,983.1502,-0.28289794921875,0.13079833984375,0.937744140625,1.95892333984375,-3.768310546875,1.15142822265625,1.0,1.0,1.0,1.0,1.0,100.0,event
12:36:11.285,0.68735474,-0.0042002383,-0.014940656,0.6924311,0.27833626,-0.30246314,-0.6477355,0.8740131,1.0158694,0.25962076,-0.13575143,1.0902227,0.8874918,-0.0035995618,-0.12921289,0.95094436,0.5281848,-0.28789905,-0.3345713,0.6076212,780.87915,809.0842,793.7729,734.5421,1004.90845,-0.28289794921875,0.13079833984375,0.937744140625,1.95892333984375,-3.768310546875,1.15142822265625,1.0,1.0,1.0,1.0,1.0,100.0,event
12:36:11.285,0.68735474,-0.0042002383,-0.014940656,0.6924311,0.27833626,-0.30246314,-0.6477355,0.8740131,1.0158694,0.25962076,-0.13575143,1.0902227,0.8874918,-0.0035995618,-0.12921289,0.95094436,0.5281848,-0.28789905,-0.3345713,0.6076212,788.5348,810.696,797.3993,745.0183,815.12823,-0.28289794921875,0.13079833984375,0.937744140625,1.95892333984375,-3.768310546875,1.15142822265625,1.0,1.0,1.0,1.0,1.0,100.0,event
12:36:11.286,0.68735474,-0.0042002383,-0.014940656,0.6924311,0.27833626,-0.30246314,-0.6477355,0.8740131,1.0158694,0.25962076,-0.13575143,1.0902227,0.8874918,-0.0035995618,-0.12921289,0.95094436,0.5281848,-0.28789905,-0.3345713,0.6076212,781.685,807.0696,795.78754,724.4689,743.8095,-0.28289794921875,0.13079833984375,0.937744140625,1.95892333984375,-3.768310546875,1.15142822265625,1.0,1.0,1.0,1.0,1.0,100.0,event
12:36:11.286,0.68735474,-0.0042002383,-0.014940656,0.6924311,0.27833626,-0.30246314,-0.6477355,0.8740131,1.0158694,0.25962076,-0.13575143,1.0902227,0.8874918,-0.0035995618,-0.12921289,0.95094436,0.5281848,-0.28789905,-0.3345713,0.6076212,801.4286,809.4872,802.6374,747.8388,712.7839,-0.28289794921875,0.13079833984375,0.937744140625,1.95892333984375,-3.768310546875,1.15142822265625,1.0,1.0,1.0,1.0,1.0,100.0,event
12:36:11.348,0.68735474,-0.0042002383,-0.014940656,0.6924311,0.27833626,-0.30246314,-0.6477355,0.8740131,1.0158694,0.25962076,-0.13575143,1.0902227,0.8874918,-0.0035995618,-0.12921289,0.95094436,0.5281848,-0.28789905,-0.3345713,0.6076212,774.43225,807.0696,792.96704,713.5897,711.1722,-0.28289794921875,0.13079833984375,0.937744140625,1.95892333984375,-3.768310546875,1.15142822265625,1.0,1.0,1.0,1.0,1.0,100.0,event
12:36:11.350,0.68735474,-0.0042002383,-0.014940656,0.6924311,0.27833626,-0.30246314,-0.6477355,0.8740131,1.0158694,0.25962076,-0.13575143,1.0902227,0.8874918,-0.0035995618,-0.12921289,0.95094436,0.5281848,-0.28789905,-0.3345713,0.6076212,799.81683,806.26373,793.7729,713.1868,716.4103,-0.28289794921875,0.13079833984375,0.937744140625,1.95892333984375,-3.768310546875,1.15142822265625,1.0,1.0,1.0,1.0,1.0,100.0,event
12:36:11.351,0.68735474,-0.0042002383,-0.014940656,0.6924311,0.27833626,-0.30246314,-0.6477355,0.8740131,1.0158694,0.25962076,-0.13575143,1.0902227,0.8874918,-0.0035995618,-0.12921289,0.95094436,0.5281848,-0.28789905,-0.3345713,0.6076212,819.9634,804.65204,795.78754,721.6484,774.83514,-0.28289794921875,0.13079833984375,0.937744140625,1.95892333984375,-3.768310546875,1.15142822265625,1.0,1.0,1.0,1.0,1.0,100.0,event
12:36:11.352,0.68735474,-0.0042002383,-0.014940656,0.6924311,0.27833626,-0.30246314,-0.6477355,0.8740131,1.0158694,0.25962076,-0.13575143,1.0902227,0.8874918,-0.0035995618,-0.12921289,0.95094436,0.5281848,-0.28789905,-0.3345713,0.6076212,816.7399,804.2491,795.38464,734.5421,826.0073,-0.28289794921875,0.13079833984375,0.937744140625,1.95892333984375,-3.768310546875,1.15142822265625,1.0,1.0,1.0,1.0,1.0,100.0,event
12:36:11.353,0.68735474,-0.0042002383,-0.014940656,0.6924311,0.27833626,-0.30246314,-0.6477355,0.8740131,1.0158694,0.25962076,-0.13575143,1.0902227,0.8874918,-0.0035995618,-0.12921289,0.95094436,0.5281848,-0.28789905,-0.3345713,0.6076212,791.3553,811.50183,792.5641,731.31866,775.2381,-0.28289794921875,0.13079833984375,0.937744140625,1.95892333984375,-3.768310546875,1.15142822265625,1.0,1.0,1.0,1.0,1.0,100.0,event
12:36:11.354,0.68735474,-0.0042002383,-0.014940656,0.6924311,0.27833626,-0.30246314,-0.6477355,0.8740131,1.0158694,0.25962076,-0.13575143,1.0902227,0.8874918,-0.0035995618,-0.12921289,0.95094436,0.5281848,-0.28789905,-0.3345713,0.6076212,769.19415,815.12823,792.5641,726.8865,788.93774,-0.28289794921875,0.13079833984375,0.937744140625,1.95892333984375,-3.768310546875,1.15142822265625,1.0,1.0,1.0,1.0,1.0,100.0,event
12:36:11.355,0.68735474,-0.0042002383,-0.014940656,0.6924311,0.27833626,-0.30246314,-0.6477355,0.8740131,1.0158694,0.25962076,-0.13575143,1.0902227,0.8874918,-0.0035995618,-0.12921289,0.95094436,0.5281848,-0.28789905,-0.3345713,0.6076212,780.07324,811.0989,794.9817,729.707,872.74725,-0.28289794921875,0.13079833984375,0.937744140625,1.95892333984375,-3.768310546875,1.15142822265625,1.0,1.0,1.0,1.0,1.0,100.0,event
12:36:11.356,0.68735474,-0.0042002383,-0.014940656,0.6924311,0.27833626,-0.30246314,-0.6477355,0.8740131,1.0158694,0.25962076,-0.13575143,1.0902227,0.8874918,-0.0035995618,-0.12921289,0.95094436,0.5281848,-0.28789905,-0.3345713,0.6076212,792.96704,809.4872,793.36993,740.18317,1049.2307,-0.28289794921875,0.13079833984375,0.937744140625,1.95892333984375,-3.768310546875,1.15142822265625,1.0,1.0,1.0,1.0,1.0,100.0,event
12:36:11.357,0.68735474,-0.0042002383,-0.014940656,0.6924311,0.27833626,-0.30246314,-0.6477355,0.8740131,1.0158694,0.25962076,-0.13575143,1.0902227,0.8874918,-0.0035995618,-0.12921289,0.95094436,0.5281848,-0.28789905,-0.3345713,0.6076212,786.52014,811.9048,787.72894,734.94507,949.707,-0.28289794921875,0.13079833984375,0.937744140625,1.95892333984375,-3.768310546875,1.15142822265625,1.0,1.0,1.0,1.0,1.0,100.0,event
12:36:11.361,0.68735474,-0.0042002383,-0.014940656,0.6924311,0.27833626,-0.30246314,-0.6477355,0.8740131,1.0158694,0.25962076,-0.13575143,1.0902227,0.8874918,-0.0035995618,-0.12921289,0.95094436,0.5281848,-0.28789905,-0.3345713,0.6076212,782.8938,810.293,784.10254,725.6777,723.2601,-0.28289794921875,0.13079833984375,0.937744140625,1.95892333984375,-3.768310546875,1.15142822265625,1.0,1.0,1.0,1.0,1.0,100.0,event
12:36:11.362,0.68735474,-0.0042002383,-0.014940656,0.6924311,0.27833626,-0.30246314,-0.6477355,0.8740131,1.0158694,0.25962076,-0.13575143,1.0902227,0.8874918,-0.0035995618,-0.12921289,0.95094436,0.5281848,-0.28789905,-0.3345713,0.6076212,791.75824,812.3077,787.72894,713.5897,719.6337,-0.28289794921875,0.13079833984375,0.937744140625,1.95892333984375,-3.768310546875,1.15142822265625,1.0,1.0,1.0,1.0,1.0,100.0,event
12:36:11.363,0.68735474,-0.0042002383,-0.014940656,0.6924311,0.27833626,-0.30246314,-0.6477355,0.8740131,1.0158694,0.25962076,-0.13575143,1.0902227,0.8874918,-0.0035995618,-0.12921289,0.95094436,0.5281848,-0.28789905,-0.3345713,0.6076212,799.41394,812.3077,795.38464,698.68134,678.93774,-0.28289794921875,0.13079833984375,0.937744140625,1.95892333984375,-3.768310546875,1.15142822265625,1.0,1.0,1.0,1.0,1.0,100.0,event
12:36:11.387,0.68735474,-0.0042002383,-0.014940656,0.6924311,0.27833626,-0.30246314,-0.6477355,0.8740131,1.0158694,0.25962076,-0.13575143,1.0902227,0.8874918,-0.0035995618,-0.12921289,0.95094436,0.5281848,-0.28789905,-0.3345713,0.6076212,792.1612,803.0403,801.02563,713.5897,652.3443,-0.275390625,0.1246337890625,0.943115234375,1.816864013671875,-4.269256591796875,-0.306549072265625,1.0,1.0,1.0,1.0,1.0,100.0,event
12:36:11.389,0.68735474,-0.0042002383,-0.014940656,0.6924311,0.27833626,-0.30246314,-0.6477355,0.8740131,1.0158694,0.25962076,-0.13575143,1.0902227,0.8874918,-0.0035995618,-0.12921289,0.95094436,0.5281848,-0.28789905,-0.3345713,0.6076212,795.38464,799.41394,803.0403,736.1539,678.1319,-0.275390625,0.1246337890625,0.943115234375,1.816864013671875,-4.269256591796875,-0.306549072265625,1.0,1.0,1.0,1.0,1.0,100.0,event
12:36:11.390,0.68735474,-0.0042002383,-0.014940656,0.6924311,0.27833626,-0.30246314,-0.6477355,0.8740131,1.0158694,0.25962076,-0.13575143,1.0902227,0.8874918,-0.0035995618,-0.12921289,0.95094436,0.5281848,-0.28789905,-0.3345713,0.6076212,808.2784,808.68134,799.011,742.1978,721.2454,-0.275390625,0.1246337890625,0.943115234375,1.816864013671875,-4.269256591796875,-0.306549072265625,1.0,1.0,1.0,1.0,1.0,100.0,event
12:36:11.391,0.68735474,-0.0042002383,-0.014940656,0.6924311,0.27833626,-0.30246314,-0.6477355,0.8740131,1.0158694,0.25962076,-0.13575143,1.0902227,0.8874918,-0.0035995618,-0.12921289,0.95094436,0.5281848,-0.28789905,-0.3345713,0.6076212,814.3223,818.3516,798.20514,735.7509,683.7729,-0.275390625,0.1246337890625,0.943115234375,1.816864013671875,-4.269256591796875,-0.306549072265625,1.0,1.0,1.0,1.0,1.0,100.0,event
12:36:11.391,0.68735474,-0.0042002383,-0.014940656,0.6924311,0.27833626,-0.30246314,-0.6477355,0.8740131,1.0158694,0.25962076,-0.13575143,1.0902227,0.8874918,-0.0035995618,-0.12921289,0.95094436,0.5281848,-0.28789905,-0.3345713,0.6076212,791.75824,818.7546,797.3993,734.5421,705.12823,-0.275390625,0.1246337890625,0.943115234375,1.816864013671875,-4.269256591796875,-0.306549072265625,1.0,1.0,1.0,1.0,1.0,100.0,event
12:36:11.392,0.68735474,-0.0042002383,-0.014940656,0.6924311,0.27833626,-0.30246314,-0.6477355,0.8740131,1.0158694,0.25962076,-0.13575143,1.0902227,0.8874918,-0.0035995618,-0.12921289,0.95094436,0.5281848,-0.28789905,-0.3345713,0.6076212,783.2967,813.5165,794.17584,740.58606,800.6227,-0.275390625,0.1246337890625,0.943115234375,1.816864013671875,-4.269256591796875,-0.306549072265625,1.0,1.0,1.0,1.0,1.0,100.0,event
12:36:11.393,0.68735474,-0.0042002383,-0.014940656,0.6924311,0.27833626,-0.30246314,-0.6477355,0.8740131,1.0158694,0.25962076,-0.13575143,1.0902227,0.8874918,-0.0035995618,-0.12921289,0.95094436,0.5281848,-0.28789905,-0.3345713,0.6076212,808.2784,810.696,794.57874,738.1685,888.86444,-0.275390625,0.1246337890625,0.943115234375,1.816864013671875,-4.269256591796875,-0.306549072265625,1.0,1.0,1.0,1.0,1.0,100.0,event
12:36:11.394,0.6908387,-0.05593089,-0.08240968,1.4437506,0.29896614,-0.3085035,-0.7042854,0.73370105,1.0181134,0.25621995,-0.14475794,0.825966,0.88644725,-0.023326855,-0.14917986,0.9987499,0.5443336,-0.3083408,-0.34912556,0.6899448,813.91943,808.68134,798.20514,746.63007,861.8681,-0.275390625,0.1246337890625,0.943115234375,1.816864013671875,-4.269256591796875,-0.306549072265625,1.0,1.0,1.0,1.0,1.0,100.0,event
12:36:11.398,0.6908387,-0.05593089,-0.08240968,1.4437506,0.29896614,-0.3085035,-0.7042854,0.73370105,1.0181134,0.25621995,-0.14475794,0.825966,0.88644725,-0.023326855,-0.14917986,0.9987499,0.5443336,-0.3083408,-0.34912556,0.6899448,799.81683,808.2784,799.011,757.9121,750.2564,-0.275390625,0.1246337890625,0.943115234375,1.816864013671875,-4.269256591796875,-0.306549072265625,1.0,1.0,1.0,1.0,1.0,100.0,event
12:36:11.398,0.6908387,-0.05593089,-0.08240968,1.4437506,0.29896614,-0.3085035,-0.7042854,0.73370105,1.0181134,0.25621995,-0.14475794,0.825966,0.88644725,-0.023326855,-0.14917986,0.9987499,0.5443336,-0.3083408,-0.34912556,0.6899448,780.07324,810.293,794.57874,748.24176,741.79486,-0.275390625,0.1246337890625,0.943115234375,1.816864013671875,-4.269256591796875,-0.306549072265625,1.0,1.0,1.0,1.0,1.0,100.0,event
12:36:11.399,0.6908387,-0.05593089,-0.08240968,1.4437506,0.29896614,-0.3085035,-0.7042854,0.73370105,1.0181134,0.25621995,-0.14475794,0.825966,0.88644725,-0.023326855,-0.14917986,0.9987499,0.5443336,-0.3083408,-0.34912556,0.6899448,780.07324,813.5165,795.38464,761.9414,831.2454,-0.275390625,0.1246337890625,0.943115234375,1.816864013671875,-4.269256591796875,-0.306549072265625,1.0,1.0,1.0,1.0,1.0,100.0,event
12:36:11.399,0.6908387,-0.05593089,-0.08240968,1.4437506,0.29896614,-0.3085035,-0.7042854,0.73370105,1.0181134,0.25621995,-0.14475794,0.825966,0.88644725,-0.023326855,-0.14917986,0.9987499,0.5443336,-0.3083408,-0.34912556,0.6899448,784.5055,811.0989,796.1905,766.3736,841.31866,-0.275390625,0.1246337890625,0.943115234375,1.816864013671875,-4.269256591796875,-0.306549072265625,1.0,1.0,1.0,1.0,1.0,100.0,event
12:36:11.423,0.6908387,-0.05593089,-0.08240968,1.4437506,0.29896614,-0.3085035,-0.7042854,0.73370105,1.0181134,0.25621995,-0.14475794,0.825966,0.88644725,-0.023326855,-0.14917986,0.9987499,0.5443336,-0.3083408,-0.34912556,0.6899448,761.9414,805.8608,790.14655,742.6007,747.4359,-0.269287109375,0.12371826171875,0.9412841796875,2.4224853515625,-4.18701171875,-0.231781005859375,1.0,1.0,1.0,1.0,1.0,100.0,event
12:36:11.423,0.6908387,-0.05593089,-0.08240968,1.4437506,0.29896614,-0.3085035,-0.7042854,0.73370105,1.0181134,0.25621995,-0.14475794,0.825966,0.88644725,-0.023326855,-0.14917986,0.9987499,0.5443336,-0.3083408,-0.34912556,0.6899448,770.80585,806.26373,789.34064,732.9304,699.89014,-0.269287109375,0.12371826171875,0.9412841796875,2.4224853515625,-4.18701171875,-0.231781005859375,1.0,1.0,1.0,1.0,1.0,100.0,event
12:36:11.424,0.6908387,-0.05593089,-0.08240968,1.4437506,0.29896614,-0.3085035,-0.7042854,0.73370105,1.0181134,0.25621995,-0.14475794,0.825966,0.88644725,-0.023326855,-0.14917986,0.9987499,0.5443336,-0.3083408,-0.34912556,0.6899448,795.78754,799.011,799.81683,747.8388,1099.1941,-0.269287109375,0.12371826171875,0.9412841796875,2.4224853515625,-4.18701171875,-0.231781005859375,1.0,1.0,1.0,1.0,1.0,100.0,event
12:36:11.424,0.6908387,-0.05593089,-0.08240968,1.4437506,0.29896614,-0.3085035,-0.7042854,0.73370105,1.0181134,0.25621995,-0.14475794,0.825966,0.88644725,-0.023326855,-0.14917986,0.9987499,0.5443336,-0.3083408,-0.34912556,0.6899448,786.52014,802.23444,797.8022,736.1539,967.03296,-0.269287109375,0.12371826171875,0.9412841796875,2.4224853515625,-4.18701171875,-0.231781005859375,1.0,1.0,1.0,1.0,1.0,100.0,event
12:36:11.425,0.6908387,-0.05593089,-0.08240968,1.4437506,0.29896614,-0.3085035,-0.7042854,0.73370105,1.0181134,0.25621995,-0.14475794,0.825966,0.88644725,-0.023326855,-0.14917986,0.9987499,0.5443336,-0.3083408,-0.34912556,0.6899448,826.4103,806.6667,799.41394,780.4762,780.87915,-0.269287109375,0.12371826171875,0.9412841796875,2.4224853515625,-4.18701171875,-0.231781005859375,1.0,1.0,1.0,1.0,1.0,100.0,event
12:36:11.425,0.6908387,-0.05593089,-0.08240968,1.4437506,0.29896614,-0.3085035,-0.7042854,0.73370105,1.0181134,0.25621995,-0.14475794,0.825966,0.88644725,-0.023326855,-0.14917986,0.9987499,0.5443336,-0.3083408,-0.34912556,0.6899448,816.7399,811.0989,797.3993,780.07324,801.8315,-0.269287109375,0.12371826171875,0.9412841796875,2.4224853515625,-4.18701171875,-0.231781005859375,1.0,1.0,1.0,1.0,1.0,100.0,event
12:36:11.426,0.6908387,-0.05593089,-0.08240968,1.4437506,0.29896614,-0.3085035,-0.7042854,0.73370105,1.0181134,0.25621995,-0.14475794,0.825966,0.88644725,-0.023326855,-0.14917986,0.9987499,0.5443336,-0.3083408,-0.34912556,0.6899448,797.8022,810.293,798.20514,754.68866,1073.8096,-0.269287109375,0.12371826171875,0.9412841796875,2.4224853515625,-4.18701171875,-0.231781005859375,1.0,1.0,1.0,1.0,1.0,100.0,event
12:36:11.426,0.6908387,-0.05593089,-0.08240968,1.4437506,0.29896614,-0.3085035,-0.7042854,0.73370105,1.0181134,0.25621995,-0.14475794,0.825966,0.88644725,-0.023326855,-0.14917986,0.9987499,0.5443336,-0.3083408,-0.34912556,0.6899448,803.44324,811.9048,794.17584,747.4359,889.67035,-0.269287109375,0.12371826171875,0.9412841796875,2.4224853515625,-4.18701171875,-0.231781005859375,1.0,1.0,1.0,1.0,1.0,100.0,event
12:36:11.427,0.6908387,-0.05593089,-0.08240968,1.4437506,0.29896614,-0.3085035,-0.7042854,0.73370105,1.0181134,0.25621995,-0.14475794,0.825966,0.88644725,-0.023326855,-0.14917986,0.9987499,0.5443336,-0.3083408,-0.34912556,0.6899448,791.3553,809.89014,790.54944,746.63007,675.7143,-0.269287109375,0.12371826171875,0.9412841796875,2.4224853515625,-4.18701171875,-0.231781005859375,1.0,1.0,1.0,1.0,1.0,100.0,event
12:36:11.427,0.6908387,-0.05593089,-0.08240968,1.4437506,0.29896614,-0.3085035,-0.7042854,0.73370105,1.0181134,0.25621995,-0.14475794,0.825966,0.88644725,-0.023326855,-0.14917986,0.9987499,0.5443336,-0.3083408,-0.34912556,0.6899448,792.1612,806.26373,796.1905,762.3443,776.8498,-0.269287109375,0.12371826171875,0.9412841796875,2.4224853515625,-4.18701171875,-0.231781005859375,1.0,1.0,1.0,1.0,1.0,100.0,event
12:36:11.427,0.6908387,-0.05593089,-0.08240968,1.4437506,0.29896614,-0.3085035,-0.7042854,0.73370105,1.0181134,0.25621995,-0.14475794,0.825966,0.88644725,-0.023326855,-0.14917986,0.9987499,0.5443336,-0.3083408,-0.34912556,0.6899448,792.1612,803.8461,797.3993,760.32965,925.9341,-0.269287109375,0.12371826171875,0.9412841796875,2.4224853515625,-4.18701171875,-0.231781005859375,1.0,1.0,1.0,1.0,1.0,100.0,event
12:36:11.428,0.6908387,-0.05593089,-0.08240968,1.4437506,0.29896614,-0.3085035,-0.7042854,0.73370105,1.0181134,0.25621995,-0.14475794,0.825966,0.88644725,-0.023326855,-0.14917986,0.9987499,0.5443336,-0.3083408,-0.34912556,0.6899448,780.87915,802.6374,796.1905,753.47986,735.34796,-0.269287109375,0.12371826171875,0.9412841796875,2.4224853515625,-4.18701171875,-0.231781005859375,1.0,1.0,1.0,1.0,1.0,100.0,event
12:36:11.455,0.6908387,-0.05593089,-0.08240968,1.4437506,0.29896614,-0.3085035,-0.7042854,0.73370105,1.0181134,0.25621995,-0.14475794,0.825966,0.88644725,-0.023326855,-0.14917986,0.9987499,0.5443336,-0.3083408,-0.34912556,0.6899448,776.04395,800.6227,801.8315,748.24176,610.84247,-0.27020263671875,0.12872314453125,0.9462890625,2.833709716796875,-3.895416259765625,0.949554443359375,1.0,1.0,1.0,1.0,1.0,100.0,event
12:36:11.456,0.6908387,-0.05593089,-0.08240968,1.4437506,0.29896614,-0.3085035,-0.7042854,0.73370105,1.0181134,0.25621995,-0.14475794,0.825966,0.88644725,-0.023326855,-0.14917986,0.9987499,0.5443336,-0.3083408,-0.34912556,0.6899448,790.9524,805.05493,801.02563,743.8095,718.022,-0.27020263671875,0.12872314453125,0.9462890625,2.833709716796875,-3.895416259765625,0.949554443359375,1.0,1.0,1.0,1.0,1.0,100.0,event
12:36:11.456,0.6908387,-0.05593089,-0.08240968,1.4437506,0.29896614,-0.3085035,-0.7042854,0.73370105,1.0181134,0.25621995,-0.14475794,0.825966,0.88644725,-0.023326855,-0.14917986,0.9987499,0.5443336,-0.3083408,-0.34912556,0.6899448,794.9817,807.0696,792.1612,750.65936,760.7326,-0.27020263671875,0.12872314453125,0.9462890625,2.833709716796875,-3.895416259765625,0.949554443359375,1.0,1.0,1.0,1.0,1.0,100.0,event
12:36:11.457,0.6908387,-0.05593089,-0.08240968,1.4437506,0.29896614,-0.3085035,-0.7042854,0.73370105,1.0181134,0.25621995,-0.14475794,0.825966,0.88644725,-0.023326855,-0.14917986,0.9987499,0.5443336,-0.3083408,-0.34912556,0.6899448,783.2967,806.26373,796.99634,744.21246,689.011,-0.27020263671875,0.12872314453125,0.9462890625,2.833709716796875,-3.895416259765625,0.949554443359375,1.0,1.0,1.0,1.0,1.0,100.0,event
12:36:11.457,0.6908387,-0.05593089,-0.08240968,1.4437506,0.29896614,-0.3085035,-0.7042854,0.73370105,1.0181134,0.25621995,-0.14475794,0.825966,0.88644725,-0.023326855,-0.14917986,0.9987499,0.5443336,-0.3083408,-0.34912556,0.6899448,782.49084,802.23444,795.78754,754.68866,718.8278,-0.27020263671875,0.12872314453125,0.9462890625,2.833709716796875,-3.895416259765625,0.949554443359375,1.0,1.0,1.0,1.0,1.0,100.0,event
12:36:11.458,0.6908387,-0.05593089,-0.08240968,1.4437506,0.29896614,-0.3085035,-0.7042854,0.73370105,1.0181134,0.25621995,-0.14475794,0.825966,0.88644725,-0.023326855,-0.14917986,0.9987499,0.5443336,-0.3083408,-0.34912556,0.6899448,794.17584,801.8315,791.75824,732.9304,834.0659,-0.27020263671875,0.12872314453125,0.9462890625,2.833709716796875,-3.895416259765625,0.949554443359375,1.0,1.0,1.0,1.0,1.0,100.0,event
12:36:11.458,0.6908387,-0.05593089,-0.08240968,1.4437506,0.29896614,-0.3085035,-0.7042854,0.73370105,1.0181134,0.25621995,-0.14475794,0.825966,0.88644725,-0.023326855,-0.14917986,0.9987499,0.5443336,-0.3083408,-0.34912556,0.6899448,804.65204,801.4286,793.36993,738.97437,943.2601,-0.27020263671875,0.12872314453125,0.9462890625,2.833709716796875,-3.895416259765625,0.949554443359375,1.0,1.0,1.0,1.0,1.0,100.0,event
12:36:11.459,0.6908387,-0.05593089,-0.08240968,1.4437506,0.29896614,-0.3085035,-0.7042854,0.73370105,1.0181134,0.25621995,-0.14475794,0.825966,0.88644725,-0.023326855,-0.14917986,0.9987499,0.5443336,-0.3083408,-0.34912556,0.6899448,794.57874,808.68134,790.9524,751.8681,779.2674,-0.27020263671875,0.12872314453125,0.9462890625,2.833709716796875,-3.895416259765625,0.949554443359375,1.0,1.0,1.0,1.0,1.0,100.0,event
12:36:11.459,0.6908387,-0.05593089,-0.08240968,1.4437506,0.29896614,-0.3085035,-0.7042854,0.73370105,1.0181134,0.25621995,-0.14475794,0.825966,0.88644725,-0.023326855,-0.14917986,0.9987499,0.5443336,-0.3083408,-0.34912556,0.6899448,794.9817,805.4579,794.9817,759.12085,731.7216,-0.27020263671875,0.12872314453125,0.9462890625,2.833709716796875,-3.895416259765625,0.949554443359375,1.0,1.0,1.0,1.0,1.0,100.0,event
12:36:11.459,0.6793905,-0.10566398,-0.09350949,1.4437506,0.29793108,-0.31715518,-0.66539454,0.73370105,1.0181134,0.24639091,-0.1441619,0.825966,0.88744646,-0.04172982,-0.17177698,0.9987499,0.55051154,-0.3232524,-0.35089546,0.6899448,784.10254,796.99634,798.60803,731.7216,879.59705,-0.27020263671875,0.12872314453125,0.9462890625,2.833709716796875,-3.895416259765625,0.949554443359375,1.0,1.0,1.0,1.0,1.0,100.0,event
12:36:11.463,0.6793905,-0.10566398,-0.09350949,1.4437506,0.29793108,-0.31715518,-0.66539454,0.73370105,1.0181134,0.24639091,-0.1441619,0.825966,0.88744646,-0.04172982,-0.17177698,0.9987499,0.55051154,-0.3232524,-0.35089546,0.6899448,770.0,796.99634,790.14655,715.2015,832.4542,-0.27020263671875,0.12872314453125,0.9462890625,2.833709716796875,-3.895416259765625,0.949554443359375,1.0,1.0,1.0,1.0,1.0,100.0,event
12:36:11.463,0.6793905,-0.10566398,-0.09350949,1.4437506,0.29793108,-0.31715518,-0.66539454,0.73370105,1.0181134,0.24639091,-0.1441619,0.825966,0.88744646,-0.04172982,-0.17177698,0.9987499,0.55051154,-0.3232524,-0.35089546,0.6899448,790.54944,803.0403,786.52014,745.82416,676.9231,-0.27020263671875,0.12872314453125,0.9462890625,2.833709716796875,-3.895416259765625,0.949554443359375,1.0,1.0,1.0,1.0,1.0,100.0,event
12:36:11.531,0.6793905,-0.10566398,-0.09350949,1.4437506,0.29793108,-0.31715518,-0.66539454,0.73370105,1.0181134,0.24639091,-0.1441619,0.825966,0.88744646,-0.04172982,-0.17177698,0.9987499,0.55051154,-0.3232524,-0.35089546,0.6899448,797.3993,796.1905,796.5934,757.9121,684.17584,-0.27508544921875,0.124755859375,0.94622802734375,2.28790283203125,-3.96270751953125,1.256103515625,1.0,1.0,1.0,1.0,1.0,100.0,event
12:36:11.532,0.6793905,-0.10566398,-0.09350949,1.4437506,0.29793108,-0.31715518,-0.66539454,0.73370105,1.0181134,0.24639091,-0.1441619,0.825966,0.88744646,-0.04172982,-0.17177698,0.9987499,0.55051154,-0.3232524,-0.35089546,0.6899448,809.4872,792.96704,802.23444,760.7326,825.2015,-0.27508544921875,0.124755859375,0.94622802734375,2.28790283203125,-3.96270751953125,1.256103515625,1.0,1.0,1.0,1.0,1.0,100.0,event
12:36:11.533,0.6793905,-0.10566398,-0.09350949,1.4437506,0.29793108,-0.31715518,-0.66539454,0.73370105,1.0181134,0.24639091,-0.1441619,0.825966,0.88744646,-0.04172982,-0.17177698,0.9987499,0.55051154,-0.3232524,-0.35089546,0.6899448,814.7253,801.02563,800.6227,768.7912,769.19415,-0.27508544921875,0.124755859375,0.94622802734375,2.28790283203125,-3.96270751953125,1.256103515625,1.0,1.0,1.0,1.0,1.0,100.0,event
12:36:11.533,0.6793905,-0.10566398,-0.09350949,1.4437506,0.29793108,-0.31715518,-0.66539454,0.73370105,1.0181134,0.24639091,-0.1441619,0.825966,0.88744646,-0.04172982,-0.17177698,0.9987499,0.55051154,-0.3232524,-0.35089546,0.6899448,787.72894,807.0696,800.2198,739.7802,614.87177,-0.27508544921875,0.124755859375,0.94622802734375,2.28790283203125,-3.96270751953125,1.256103515625,1.0,1.0,1.0,1.0,1.0,100.0,event
12:36:11.534,0.6793905,-0.10566398,-0.09350949,1.4437506,0.29793108,-0.31715518,-0.66539454,0.73370105,1.0181134,0.24639091,-0.1441619,0.825966,0.88744646,-0.04172982,-0.17177698,0.9987499,0.55051154,-0.3232524,-0.35089546,0.6899448,772.01465,800.2198,795.78754,717.2161,673.69965,-0.27508544921875,0.124755859375,0.94622802734375,2.28790283203125,-3.96270751953125,1.256103515625,1.0,1.0,1.0,1.0,1.0,100.0,event
12:36:11.535,0.6793905,-0.10566398,-0.09350949,1.4437506,0.29793108,-0.31715518,-0.66539454,0.73370105,1.0181134,0.24639091,-0.1441619,0.825966,0.88744646,-0.04172982,-0.17177698,0.9987499,0.55051154,-0.3232524,-0.35089546,0.6899448,781.685,798.20514,794.17584,734.1392,893.69965,-0.27508544921875,0.124755859375,0.94622802734375,2.28790283203125,-3.96270751953125,1.256103515625,1.0,1.0,1.0,1.0,1.0,100.0,event
12:36:11.535,0.6793905,-0.10566398,-0.09350949,1.4437506,0.29793108,-0.31715518,-0.66539454,0.73370105,1.0181134,0.24639091,-0.1441619,0.825966,0.88744646,-0.04172982,-0.17177698,0.9987499,0.55051154,-0.3232524,-0.35089546,0.6899448,784.5055,803.0403,796.5934,756.30035,883.22345,-0.27508544921875,0.124755859375,0.94622802734375,2.28790283203125,-3.96270751953125,1.256103515625,1.0,1.0,1.0,1.0,1.0,100.0,event
12:36:11.536,0.6793905,-0.10566398,-0.09350949,1.4437506,0.29793108,-0.31715518,-0.66539454,0.73370105,1.0181134,0.24639091,-0.1441619,0.825966,0.88744646,-0.04172982,-0.17177698,0.9987499,0.55051154,-0.3232524,-0.35089546,0.6899448,794.9817,799.41394,799.41394,762.3443,734.1392,-0.27508544921875,0.124755859375,0.94622802734375,2.28790283203125,-3.96270751953125,1.256103515625,1.0,1.0,1.0,1.0,1.0,100.0,event
12:36:11.537,0.6793905,-0.10566398,-0.09350949,1.4437506,0.29793108,-0.31715518,-0.66539454,0.73370105,1.0181134,0.24639091,-0.1441619,0.825966,0.88744646,-0.04172982,-0.17177698,0.9987499,0.55051154,-0.3232524,-0.35089546,0.6899448,786.1172,805.8608,803.44324,756.7033,741.39197,-0.27508544921875,0.124755859375,0.94622802734375,2.28790283203125,-3.96270751953125,1.256103515625,1.0,1.0,1.0,1.0,1.0,100.0,event
12:36:11.537,0.6793905,-0.10566398,-0.09350949,1.4437506,0.29793108,-0.31715518,-0.66539454,0.73370105,1.0181134,0.24639091,-0.1441619,0.825966,0.88744646,-0.04172982,-0.17177698,0.9987499,0.55051154,-0.3232524,-0.35089546,0.6899448,769.59705,807.0696,802.6374,747.03296,961.39197,-0.27508544921875,0.124755859375,0.94622802734375,2.28790283203125,-3.96270751953125,1.256103515625,1.0,1.0,1.0,1.0,1.0,100.0,event
12:36:11.538,0.6793905,-0.10566398,-0.09350949,1.4437506,0.29793108,-0.31715518,-0.66539454,0.73370105,1.0181134,0.24639091,-0.1441619,0.825966,0.88744646,-0.04172982,-0.17177698,0.9987499,0.55051154,-0.3232524,-0.35089546,0.6899448,775.64105,804.2491,800.2198,737.76556,851.79486,-0.27508544921875,0.124755859375,0.94622802734375,2.28790283203125,-3.96270751953125,1.256103515625,1.0,1.0,1.0,1.0,1.0,100.0,event
12:36:11.538,0.6793905,-0.10566398,-0.09350949,1.4437506,0.29793108,-0.31715518,-0.66539454,0.73370105,1.0181134,0.24639091,-0.1441619,0.825966,0.88744646,-0.04172982,-0.17177698,0.9987499,0.55051154,-0.3232524,-0.35089546,0.6899448,791.75824,806.6667,797.8022,758.71796,701.9048,-0.27508544921875,0.124755859375,0.94622802734375,2.28790283203125,-3.96270751953125,1.256103515625,1.0,1.0,1.0,1.0,1.0,100.0,event
12:36:11.565,0.6793905,-0.10566398,-0.09350949,1.4437506,0.29793108,-0.31715518,-0.66539454,0.73370105,1.0181134,0.24639091,-0.1441619,0.825966,0.88744646,-0.04172982,-0.17177698,0.9987499,0.55051154,-0.3232524,-0.35089546,0.6899448,799.011,805.8608,799.81683,778.0586,743.4066,-0.27508544921875,0.124755859375,0.94622802734375,2.28790283203125,-3.96270751953125,1.256103515625,1.0,1.0,1.0,1.0,1.0,100.0,event
12:36:11.566,0.6793905,-0.10566398,-0.09350949,1.4437506,0.29793108,-0.31715518,-0.66539454,0.73370105,1.0181134,0.24639091,-0.1441619,0.825966,0.88744646,-0.04172982,-0.17177698,0.9987499,0.55051154,-0.3232524,-0.35089546,0.6899448,799.41394,807.0696,804.65204,783.2967,726.08057,-0.27508544921875,0.124755859375,0.94622802734375,2.28790283203125,-3.96270751953125,1.256103515625,1.0,1.0,1.0,1.0,1.0,100.0,event
12:36:11.567,0.6793905,-0.10566398,-0.09350949,1.4437506,0.29793108,-0.31715518,-0.66539454,0.73370105,1.0181134,0.24639091,-0.1441619,0.825966,0.88744646,-0.04172982,-0.17177698,0.9987499,0.55051154,-0.3232524,-0.35089546,0.6899448,796.5934,802.23444,802.6374,796.99634,674.10254,-0.27508544921875,0.124755859375,0.94622802734375,2.28790283203125,-3.96270751953125,1.256103515625,1.0,1.0,1.0,1.0,1.0,100.0,event
12:36:11.567,0.6793905,-0.10566398,-0.09350949,1.4437506,0.29793108,-0.31715518,-0.66539454,0.73370105,1.0181134,0.24639091,-0.1441619,0.825966,0.88744646,-0.04172982,-0.17177698,0.9987499,0.55051154,-0.3232524,-0.35089546,0.6899448,817.1429,801.4286,798.60803,794.57874,688.60803,-0.27508544921875,0.124755859375,0.94622802734375,2.28790283203125,-3.96270751953125,1.256103515625,1.0,1.0,1.0,1.0,1.0,100.0,event
12:36:11.568,0.6793905,-0.10566398,-0.09350949,1.4437506,0.29793108,-0.31715518,-0.66539454,0.73370105,1.0181134,0.24639091,-0.1441619,0.825966,0.88744646,-0.04172982,-0.17177698,0.9987499,0.55051154,-0.3232524,-0.35089546,0.6899448,827.619,809.0842,793.36993,780.07324,855.42126,-0.27508544921875,0.124755859375,0.94622802734375,2.28790283203125,-3.96270751953125,1.256103515625,1.0,1.0,1.0,1.0,1.0,100.0,event
12:36:11.569,0.6793905,-0.10566398,-0.09350949,1.4437506,0.29793108,-0.31715518,-0.66539454,0.73370105,1.0181134,0.24639091,-0.1441619,0.825966,0.88744646,-0.04172982,-0.17177698,0.9987499,0.55051154,-0.3232524,-0.35089546,0.6899448,799.011,812.71063,793.36993,761.13556,934.7985,-0.27508544921875,0.124755859375,0.94622802734375,2.28790283203125,-3.96270751953125,1.256103515625,1.0,1.0,1.0,1.0,1.0,100.0,event
12:36:11.570,0.6793905,-0.10566398,-0.09350949,1.4437506,0.29793108,-0.31715518,-0.66539454,0.73370105,1.0181134,0.24639091,-0.1441619,0.825966,0.88744646,-0.04172982,-0.17177698,0.9987499,0.55051154,-0.3232524,-0.35089546,0.6899448,780.87915,814.3223,795.78754,755.89746,846.9597,-0.27508544921875,0.124755859375,0.94622802734375,2.28790283203125,-3.96270751953125,1.256103515625,1.0,1.0,1.0,1.0,1.0,100.0,event
12:36:11.572,0.6793905,-0.10566398,-0.09350949,1.4437506,0.29793108,-0.31715518,-0.66539454,0.73370105,1.0181134,0.24639091,-0.1441619,0.825966,0.88744646,-0.04172982,-0.17177698,0.9987499,0.55051154,-0.3232524,-0.35089546,0.6899448,777.25275,814.3223,796.5934,749.0476,786.9231,-0.27508544921875,0.124755859375,0.94622802734375,2.28790283203125,-3.96270751953125,1.256103515625,1.0,1.0,1.0,1.0,1.0,100.0,event
12:36:11.573,0.6793905,-0.10566398,-0.09350949,1.4437506,0.29793108,-0.31715518,-0.66539454,0.73370105,1.0181134,0.24639091,-0.1441619,0.825966,0.88744646,-0.04172982,-0.17177698,0.9987499,0.55051154,-0.3232524,-0.35089546,0.6899448,778.0586,812.71063,799.81683,746.2271,910.2198,-0.27508544921875,0.124755859375,0.94622802734375,2.28790283203125,-3.96270751953125,1.256103515625,1.0,1.0,1.0,1.0,1.0,100.0,event
12:36:11.574,0.6793905,-0.10566398,-0.09350949,1.4437506,0.29793108,-0.31715518,-0.66539454,0.73370105,1.0181134,0.24639091,-0.1441619,0.825966,0.88744646,-0.04172982,-0.17177698,0.9987499,0.55051154,-0.3232524,-0.35089546,0.6899448,787.72894,813.5165,798.60803,760.32965,1016.5934,-0.27508544921875,0.124755859375,0.94622802734375,2.28790283203125,-3.96270751953125,1.256103515625,1.0,1.0,1.0,1.0,1.0,100.0,event
12:36:11.574,0.6793905,-0.10566398,-0.09350949,1.4437506,0.29793108,-0.31715518,-0.66539454,0.73370105,1.0181134,0.24639091,-0.1441619,0.825966,0.88744646,-0.04172982,-0.17177698,0.9987499,0.55051154,-0.3232524,-0.35089546,0.6899448,786.9231,807.8755,795.78754,750.65936,812.3077,-0.27508544921875,0.124755859375,0.94622802734375,2.28790283203125,-3.96270751953125,1.256103515625,1.0,1.0,1.0,1.0,1.0,100.0,event
12:36:11.575,0.6589513,-0.13601874,-0.07675737,1.4437506,0.2858335,-0.3339826,-0.60545844,0.73370105,1.0181134,0.22579648,-0.18152277,0.825966,0.8891108,-0.052328374,-0.19671483,0.9987499,0.5505393,-0.32315776,-0.3413826,0.6899448,791.3553,801.02563,795.78754,743.00366,776.8498,-0.27508544921875,0.124755859375,0.94622802734375,2.28790283203125,-3.96270751953125,1.256103515625,1.0,1.0,1.0,1.0,1.0,100.0,event
12:36:11.603,0.6589513,-0.13601874,-0.07675737,1.4437506,0.2858335,-0.3339826,-0.60545844,0.73370105,1.0181134,0.22579648,-0.18152277,0.825966,0.8891108,-0.052328374,-0.19671483,0.9987499,0.5505393,-0.32315776,-0.3413826,0.6899448,794.9817,801.02563,796.99634,735.7509,848.1685,-0.26605224609375,0.12646484375,0.942138671875,3.102874755859375,-3.57391357421875,1.03179931640625,1.0,1.0,1.0,1.0,1.0,100.0,event
12:36:11.605,0.6589513,-0.13601874,-0.07675737,1.4437506,0.2858335,-0.3339826,-0.60545844,0.73370105,1.0181134,0.22579648,-0.18152277,0.825966,0.8891108,-0.052328374,-0.19671483,0.9987499,0.5505393,-0.32315776,-0.3413826,0.6899448,796.1905,807.8755,794.57874,734.5421,790.9524,-0.26605224609375,0.12646484375,0.942138671875,3.102874755859375,-3.57391357421875,1.03179931640625,1.0,1.0,1.0,1.0,1.0,100.0,event
12:36:11.606,0.6589513,-0.13601874,-0.07675737,1.4437506,0.2858335,-0.3339826,-0.60545844,0.73370105,1.0181134,0.22579648,-0.18152277,0.825966,0.8891108,-0.052328374,-0.19671483,0.9987499,0.5505393,-0.32315776,-0.3413826,0.6899448,821.978,809.89014,798.20514,762.74725,734.94507,-0.26605224609375,0.12646484375,0.942138671875,3.102874755859375,-3.57391357421875,1.03179931640625,1.0,1.0,1.0,1.0,1.0,100.0,event
12:36:11.606,0.6589513,-0.13601874,-0.07675737,1.4437506,0.2858335,-0.3339826,-0.60545844,0.73370105,1.0181134,0.22579648,-0.18152277,0.825966,0.8891108,-0.052328374,-0.19671483,0.9987499,0.5505393,-0.32315776,-0.3413826,0.6899448,827.2161,802.6374,794.57874,758.71796,806.6667,-0.26605224609375,0.12646484375,0.942138671875,3.102874755859375,-3.57391357421875,1.03179931640625,1.0,1.0,1.0,1.0,1.0,100.0,event
12:36:11.607,0.6589513,-0.13601874,-0.07675737,1.4437506,0.2858335,-0.3339826,-0.60545844,0.73370105,1.0181134,0.22579648,-0.18152277,0.825966,0.8891108,-0.052328374,-0.19671483,0.9987499,0.5505393,-0.32315776,-0.3413826,0.6899448,818.3516,805.05493,791.3553,748.24176,869.12085,-0.26605224609375,0.12646484375,0.942138671875,3.102874755859375,-3.57391357421875,1.03179931640625,1.0,1.0,1.0,1.0,1.0,100.0,event
12:36:11.607,0.6589513,-0.13601874,-0.07675737,1.4437506,0.2858335,-0.3339826,-0.60545844,0.73370105,1.0181134,0.22579648,-0.18152277,0.825966,0.8891108,-0.052328374,-0.19671483,0.9987499,0.5505393,-0.32315776,-0.3413826,0.6899448,790.54944,804.2491,797.8022,754.68866,840.10986,-0.26605224609375,0.12646484375,0.942138671875,3.102874755859375,-3.57391357421875,1.03179931640625,1.0,1.0,1.0,1.0,1.0,100.0,event
12:36:11.608,0.6589513,-0.13601874,-0.07675737,1.4437506,0.2858335,-0.3339826,-0.60545844,0.73370105,1.0181134,0.22579648,-0.18152277,0.825966,0.8891108,-0.052328374,-0.19671483,0.9987499,0.5505393,-0.32315776,-0.3413826,0.6899448,770.40295,801.4286,798.60803,747.03296,826.0073,-0.26605224609375,0.12646484375,0.942138671875,3.102874755859375,-3.57391357421875,1.03179931640625,1.0,1.0,1.0,1.0,1.0,100.0,event
12:36:11.608,0.6589513,-0.13601874,-0.07675737,1.4437506,0.2858335,-0.3339826,-0.60545844,0.73370105,1.0181134,0.22579648,-0.18152277,0.825966,0.8891108,-0.052328374,-0.19671483,0.9987499,0.5505393,-0.32315776,-0.3413826,0.6899448,786.1172,799.41394,798.60803,746.2271,862.27106,-0.26605224609375,0.12646484375,0.942138671875,3.102874755859375,-3.57391357421875,1.03179931640625,1.0,1.0,1.0,1.0,1.0,100.0,event
12:36:11.609,0.6589513,-0.13601874,-0.07675737,1.4437506,0.2858335,-0.3339826,-0.60545844,0.73370105,1.0181134,0.22579648,-0.18152277,0.825966,0.8891108,-0.052328374,-0.19671483,0.9987499,0.5505393,-0.32315776,-0.3413826,0.6899448,798.60803,797.8022,799.81683,757.50916,1124.5787,-0.26605224609375,0.12646484375,0.942138671875,3.102874755859375,-3.57391357421875,1.03179931640625,1.0,1.0,1.0,1.0,1.0,100.0,event
12:36:11.609,0.6589513,-0.13601874,-0.07675737,1.4437506,0.2858335,-0.3339826,-0.60545844,0.73370105,1.0181134,0.22579648,-0.18152277,0.825966,0.8891108,-0.052328374,-0.19671483,0.9987499,0.5505393,-0.32315776,-0.3413826,0.6899448,794.9817,804.2491,798.20514,766.77655,1079.4506,-0.26605224609375,0.12646484375,0.942138671875,3.102874755859375,-3.57391357421875,1.03179931640625,1.0,1.0,1.0,1.0,1.0,100.0,event
12:36:11.610,0.6589513,-0.13601874,-0.07675737,1.4437506,0.2858335,-0.3339826,-0.60545844,0.73370105,1.0181134,0.22579648,-0.18152277,0.825966,0.8891108,-0.052328374,-0.19671483,0.9987499,0.5505393,-0.32315776,-0.3413826,0.6899448,787.326,811.9048,796.99634,758.315,729.707,-0.26605224609375,0.12646484375,0.942138671875,3.102874755859375,-3.57391357421875,1.03179931640625,1.0,1.0,1.0,1.0,1.0,100.0,event
12:36:11.610,0.6589513,-0.13601874,-0.07675737,1.4437506,0.2858335,-0.3339826,-0.60545844,0.73370105,1.0181134,0.22579648,-0.18152277,0.825966,0.8891108,-0.052328374,-0.19671483,0.9987499,0.5505393,-0.32315776,-0.3413826,0.6899448,792.1612,812.71063,795.78754,760.32965,728.9011,-0.26605224609375,0.12646484375,0.942138671875,3.102874755859375,-3.57391357421875,1.03179931640625,1.0,1.0,1.0,1.0,1.0,100.0,event
12:36:11.647,0.6589513,-0.13601874,-0.07675737,1.4437506,0.2858335,-0.3339826,-0.60545844,0.73370105,1.0181134,0.22579648,-0.18152277,0.825966,0.8891108,-0.052328374,-0.19671483,0.9987499,0.5505393,-0.32315776,-0.3413826,0.6899448,795.38464,809.89014,798.60803,763.1502,805.8608,-0.27679443359375,0.1263427734375,0.93505859375,2.818756103515625,-3.267364501953125,0.8074951171875,1.0,1.0,1.0,1.0,1.0,100.0,event
12:36:11.648,0.6589513,-0.13601874,-0.07675737,1.4437506,0.2858335,-0.3339826,-0.60545844,0.73370105,1.0181134,0.22579648,-0.18152277,0.825966,0.8891108,-0.052328374,-0.19671483,0.9987499,0.5505393,-0.32315776,-0.3413826,0.6899448,807.8755,810.696,798.20514,757.9121,783.69965,-0.27679443359375,0.1263427734375,0.93505859375,2.818756103515625,-3.267364501953125,0.8074951171875,1.0,1.0,1.0,1.0,1.0,100.0,event
12:36:11.649,0.6589513,-0.13601874,-0.07675737,1.4437506,0.2858335,-0.3339826,-0.60545844,0.73370105,1.0181134,0.22579648,-0.18152277,0.825966,0.8891108,-0.052328374,-0.19671483,0.9987499,0.5505393,-0.32315776,-0.3413826,0.6899448,800.6227,811.0989,800.2198,751.06226,783.69965,-0.27679443359375,0.1263427734375,0.93505859375,2.818756103515625,-3.267364501953125,0.8074951171875,1.0,1.0,1.0,1.0,1.0,100.0,event
12:36:11.649,0.6589513,-0.13601874,-0.07675737,1.4437506,0.2858335,-0.3339826,-0.60545844,0.73370105,1.0181134,0.22579648,-0.18152277,0.825966,0.8891108,-0.052328374,-0.19671483,0.9987499,0.5505393,-0.32315776,-0.3413826,0.6899448,794.17584,813.1135,801.4286,731.7216,819.5604,-0.27679443359375,0.1263427734375,0.93505859375,2.818756103515625,-3.267364501953125,0.8074951171875,1.0,1.0,1.0,1.0,1.0,100.0,event
12:36:11.650,0.6589513,-0.13601874,-0.07675737,1.4437506,0.2858335,-0.3339826,-0.60545844,0.73370105,1.0181134,0.22579648,-0.18152277,0.825966,0.8891108,-0.052328374,-0.19671483,0.9987499,0.5505393,-0.32315776,-0.3413826,0.6899448,807.8755,808.68134,803.44324,716.8132,776.8498,-0.27679443359375,0.1263427734375,0.93505859375,2.818756103515625,-3.267364501953125,0.8074951171875,1.0,1.0,1.0,1.0,1.0,100.0,event
12:36:11.650,0.6589513,-0.13601874,-0.07675737,1.4437506,0.2858335,-0.3339826,-0.60545844,0.73370105,1.0181134,0.22579648,-0.18152277,0.825966,0.8891108,-0.052328374,-0.19671483,0.9987499,0.5505393,-0.32315776,-0.3413826,0.6899448,809.89014,808.2784,799.41394,742.6007,751.06226,-0.27679443359375,0.1263427734375,0.93505859375,2.818756103515625,-3.267364501953125,0.8074951171875,1.0,1.0,1.0,1.0,1.0,100.0,event
12:36:11.651,0.6589513,-0.13601874,-0.07675737,1.4437506,0.2858335,-0.3339826,-0.60545844,0.73370105,1.0181134,0.22579648,-0.18152277,0.825966,0.8891108,-0.052328374,-0.19671483,0.9987499,0.5505393,-0.32315776,-0.3413826,0.6899448,796.1905,809.0842,793.36993,765.9707,826.8132,-0.27679443359375,0.1263427734375,0.93505859375,2.818756103515625,-3.267364501953125,0.8074951171875,1.0,1.0,1.0,1.0,1.0,100.0,event
12:36:11.651,0.6589513,-0.13601874,-0.07675737,1.4437506,0.2858335,-0.3339826,-0.60545844,0.73370105,1.0181134,0.22579648,-0.18152277,0.825966,0.8891108,-0.052328374,-0.19671483,0.9987499,0.5505393,-0.32315776,-0.3413826,0.6899448,783.2967,806.6667,795.78754,759.12085,1040.3663,-0.27679443359375,0.1263427734375,0.93505859375,2.818756103515625,-3.267364501953125,0.8074951171875,1.0,1.0,1.0,1.0,1.0,100.0,event
12:36:11.652,0.6589513,-0.13601874,-0.07675737,1.4437506,0.2858335,-0.3339826,-0.60545844,0.73370105,1.0181134,0.22579648,-0.18152277,0.825966,0.8891108,-0.052328374,-0.19671483,0.9987499,0.5505393,-0.32315776,-0.3413826,0.6899448,780.4762,803.44324,796.1905,761.13556,1084.6886,-0.27679443359375,0.1263427734375,0.93505859375,2.818756103515625,-3.267364501953125,0.8074951171875,1.0,1.0,1.0,1.0,1.0,100.0,event
12:36:11.653,0.6589513,-0.13601874,-0.07675737,1.4437506,0.2858335,-0.3339826,-0.60545844,0.73370105,1.0181134,0.22579648,-0.18152277,0.825966,0.8891108,-0.052328374,-0.19671483,0.9987499,0.5505393,-0.32315776,-0.3413826,0.6899448,788.93774,801.02563,795.78754,740.989,737.3626,-0.27679443359375,0.1263427734375,0.93505859375,2.818756103515625,-3.267364501953125,0.8074951171875,1.0,1.0,1.0,1.0,1.0,100.0,event
12:36:11.653,0.6589513,-0.13601874,-0.07675737,1.4437506,0.2858335,-0.3339826,-0.60545844,0.73370105,1.0181134,0.22579648,-0.18152277,0.825966,0.8891108,-0.052328374,-0.19671483,0.9987499,0.5505393,-0.32315776,-0.3413826,0.6899448,794.57874,802.23444,794.17584,719.2308,703.1135,-0.27679443359375,0.1263427734375,0.93505859375,2.818756103515625,-3.267364501953125,0.8074951171875,1.0,1.0,1.0,1.0,1.0,100.0,event
12:36:11.654,0.6589513,-0.13601874,-0.07675737,1.4437506,0.2858335,-0.3339826,-0.60545844,0.73370105,1.0181134,0.22579648,-0.18152277,0.825966,0.8891108,-0.052328374,-0.19671483,0.9987499,0.5505393,-0.32315776,-0.3413826,0.6899448,794.9817,800.6227,796.5934,723.663,900.9524,-0.27679443359375,0.1263427734375,0.93505859375,2.818756103515625,-3.267364501953125,0.8074951171875,1.0,1.0,1.0,1.0,1.0,100.0,event
12:36:11.682,0.6589513,-0.13601874,-0.07675737,1.4437506,0.2858335,-0.3339826,-0.60545844,0.73370105,1.0181134,0.22579648,-0.18152277,0.825966,0.8891108,-0.052328374,-0.19671483,0.9987499,0.5505393,-0.32315776,-0.3413826,0.6899448,799.011,807.0696,796.5934,742.1978,810.293,-0.27197265625,0.13348388671875,0.945556640625,3.476715087890625,-3.416900634765625,0.964508056640625,1.0,1.0,1.0,1.0,1.0,100.0,event
12:36:11.683,0.63688165,-0.14252052,-0.051362902,1.4437506,0.2682384,-0.36139253,-0.55386025,0.73370105,1.0181134,0.19536938,-0.20820042,0.825966,0.89423466,-0.05732251,-0.22109523,0.9987499,0.553455,-0.30645877,-0.3239924,0.6899448,796.5934,811.9048,794.57874,751.06226,698.2784,-0.27197265625,0.13348388671875,0.945556640625,3.476715087890625,-3.416900634765625,0.964508056640625,1.0,1.0,1.0,1.0,1.0,100.0,event
12:36:11.688,0.63688165,-0.14252052,-0.051362902,1.4437506,0.2682384,-0.36139253,-0.55386025,0.73370105,1.0181134,0.19536938,-0.20820042,0.825966,0.89423466,-0.05732251,-0.22109523,0.9987499,0.553455,-0.30645877,-0.3239924,0.6899448,791.3553,805.8608,794.57874,732.52747,762.74725,-0.27197265625,0.13348388671875,0.945556640625,3.476715087890625,-3.416900634765625,0.964508056640625,1.0,1.0,1.0,1.0,1.0,100.0,event
12:36:11.688,0.63688165,-0.14252052,-0.051362902,1.4437506,0.2682384,-0.36139253,-0.55386025,0.73370105,1.0181134,0.19536938,-0.20820042,0.825966,0.89423466,-0.05732251,-0.22109523,0.9987499,0.553455,-0.30645877,-0.3239924,0.6899448,782.8938,805.8608,796.99634,735.7509,723.2601,-0.27197265625,0.13348388671875,0.945556640625,3.476715087890625,-3.416900634765625,0.964508056640625,1.0,1.0,1.0,1.0,1.0,100.0,event
12:36:11.689,0.63688165,-0.14252052,-0.051362902,1.4437506,0.2682384,-0.36139253,-0.55386025,0.73370105,1.0181134,0.19536938,-0.20820042,0.825966,0.89423466,-0.05732251,-0.22109523,0.9987499,0.553455,-0.30645877,-0.3239924,0.6899448,815.12823,809.0842,795.38464,746.2271,723.663,-0.27197265625,0.13348388671875,0.945556640625,3.476715087890625,-3.416900634765625,0.964508056640625,1.0,1.0,1.0,1.0,1.0,100.0,event
12:36:11.690,0.63688165,-0.14252052,-0.051362902,1.4437506,0.2682384,-0.36139253,-0.55386025,0.73370105,1.0181134,0.19536938,-0.20820042,0.825966,0.89423466,-0.05732251,-0.22109523,0.9987499,0.553455,-0.30645877,-0.3239924,0.6899448,820.3663,809.0842,794.17584,732.9304,796.99634,-0.27197265625,0.13348388671875,0.945556640625,3.476715087890625,-3.416900634765625,0.964508056640625,1.0,1.0,1.0,1.0,1.0,100.0,event
12:36:11.690,0.63688165,-0.14252052,-0.051362902,1.4437506,0.2682384,-0.36139253,-0.55386025,0.73370105,1.0181134,0.19536938,-0.20820042,0.825966,0.89423466,-0.05732251,-0.22109523,0.9987499,0.553455,-0.30645877,-0.3239924,0.6899448,814.3223,809.4872,794.17584,729.304,889.2674,-0.27197265625,0.13348388671875,0.945556640625,3.476715087890625,-3.416900634765625,0.964508056640625,1.0,1.0,1.0,1.0,1.0,100.0,event
12:36:11.691,0.63688165,-0.14252052,-0.051362902,1.4437506,0.2682384,-0.36139253,-0.55386025,0.73370105,1.0181134,0.19536938,-0.20820042,0.825966,0.89423466,-0.05732251,-0.22109523,0.9987499,0.553455,-0.30645877,-0.3239924,0.6899448,815.12823,806.6667,797.8022,730.5128,963.00366,-0.27197265625,0.13348388671875,0.945556640625,3.476715087890625,-3.416900634765625,0.964508056640625,1.0,1.0,1.0,1.0,1.0,100.0,event
12:36:11.691,0.63688165,-0.14252052,-0.051362902,1.4437506,0.2682384,-0.36139253,-0.55386025,0.73370105,1.0181134,0.19536938,-0.20820042,0.825966,0.89423466,-0.05732251,-0.22109523,0.9987499,0.553455,-0.30645877,-0.3239924,0.6899448,799.81683,807.8755,800.2198,736.55676,851.39197,-0.27197265625,0.13348388671875,0.945556640625,3.476715087890625,-3.416900634765625,0.964508056640625,1.0,1.0,1.0,1.0,1.0,100.0,event
12:36:11.692,0.63688165,-0.14252052,-0.051362902,1.4437506,0.2682384,-0.36139253,-0.55386025,0.73370105,1.0181134,0.19536938,-0.20820042,0.825966,0.89423466,-0.05732251,-0.22109523,0.9987499,0.553455,-0.30645877,-0.3239924,0.6899448,786.1172,808.68134,802.6374,751.06226,717.619,-0.27197265625,0.13348388671875,0.945556640625,3.476715087890625,-3.416900634765625,0.964508056640625,1.0,1.0,1.0,1.0,1.0,100.0,event
12:36:11.693,0.63688165,-0.14252052,-0.051362902,1.4437506,0.2682384,-0.36139253,-0.55386025,0.73370105,1.0181134,0.19536938,-0.20820042,0.825966,0.89423466,-0.05732251,-0.22109523,0.9987499,0.553455,-0.30645877,-0.3239924,0.6899448,784.10254,806.26373,805.4579,757.1062,759.12085,-0.27197265625,0.13348388671875,0.945556640625,3.476715087890625,-3.416900634765625,0.964508056640625,1.0,1.0,1.0,1.0,1.0,100.0,event
12:36:11.693,0.63688165,-0.14252052,-0.051362902,1.4437506,0.2682384,-0.36139253,-0.55386025,0.73370105,1.0181134,0.19536938,-0.20820042,0.825966,0.89423466,-0.05732251,-0.22109523,0.9987499,0.553455,-0.30645877,-0.3239924,0.6899448,788.93774,807.0696,802.6374,750.2564,764.7619,-0.27197265625,0.13348388671875,0.945556640625,3.476715087890625,-3.416900634765625,0.964508056640625,1.0,1.0,1.0,1.0,1.0,100.0,event
12:36:11.745,0.63688165,-0.14252052,-0.051362902,1.4437506,0.2682384,-0.36139253,-0.55386025,0.73370105,1.0181134,0.19536938,-0.20820042,0.825966,0.89423466,-0.05732251,-0.22109523,0.9987499,0.553455,-0.30645877,-0.3239924,0.6899448,780.07324,813.5165,795.38464,724.0659,680.9524,-0.267333984375,0.13726806640625,0.94390869140625,3.22998046875,-3.357086181640625,1.607513427734375,1.0,1.0,1.0,1.0,1.0,100.0,event
12:36:11.746,0.63688165,-0.14252052,-0.051362902,1.4437506,0.2682384,-0.36139253,-0.55386025,0.73370105,1.0181134,0.19536938,-0.20820042,0.825966,0.89423466,-0.05732251,-0.22109523,0.9987499,0.553455,-0.30645877,-0.3239924,0.6899448,786.9231,817.5458,794.17584,723.2601,707.5458,-0.267333984375,0.13726806640625,0.94390869140625,3.22998046875,-3.357086181640625,1.607513427734375,1.0,1.0,1.0,1.0,1.0,100.0,event
12:36:11.746,0.63688165,-0.14252052,-0.051362902,1.4437506,0.2682384,-0.36139253,-0.55386025,0.73370105,1.0181134,0.19536938,-0.20820042,0.825966,0.89423466,-0.05732251,-0.22109523,0.9987499,0.553455,-0.30645877,-0.3239924,0.6899448,811.50183,817.5458,800.2198,738.97437,834.0659,-0.267333984375,0.13726806640625,0.94390869140625,3.22998046875,-3.357086181640625,1.607513427734375,1.0,1.0,1.0,1.0,1.0,100.0,event
12:36:11.747,0.63688165,-0.14252052,-0.051362902,1.4437506,0.2682384,-0.36139253,-0.55386025,0.73370105,1.0181134,0.19536938,-0.20820042,0.825966,0.89423466,-0.05732251,-0.22109523,0.9987499,0.553455,-0.30645877,-0.3239924,0.6899448,798.60803,819.15753,798.20514,760.7326,755.4945,-0.267333984375,0.13726806640625,0.94390869140625,3.22998046875,-3.357086181640625,1.607513427734375,1.0,1.0,1.0,1.0,1.0,100.0,event
12:36:11.747,0.63688165,-0.14252052,-0.051362902,1.4437506,0.2682384,-0.36139253,-0.55386025,0.73370105,1.0181134,0.19536938,-0.20820042,0.825966,0.89423466,-0.05732251,-0.22109523,0.9987499,0.553455,-0.30645877,-0.3239924,0.6899448,811.0989,818.3516,801.02563,750.2564,847.76556,-0.267333984375,0.13726806640625,0.94390869140625,3.22998046875,-3.357086181640625,1.607513427734375,1.0,1.0,1.0,1.0,1.0,100.0,event
12:36:11.748,0.63688165,-0.14252052,-0.051362902,1.4437506,0.2682384,-0.36139253,-0.55386025,0.73370105,1.0181134,0.19536938,-0.20820042,0.825966,0.89423466,-0.05732251,-0.22109523,0.9987499,0.553455,-0.30645877,-0.3239924,0.6899448,782.8938,804.2491,805.4579,722.0513,956.1539,-0.267333984375,0.13726806640625,0.94390869140625,3.22998046875,-3.357086181640625,1.607513427734375,1.0,1.0,1.0,1.0,1.0,100.0,event
12:36:11.748,0.63688165,-0.14252052,-0.051362902,1.4437506,0.2682384,-0.36139253,-0.55386025,0.73370105,1.0181134,0.19536938,-0.20820042,0.825966,0.89423466,-0.05732251,-0.22109523,0.9987499,0.553455,-0.30645877,-0.3239924,0.6899448,786.9231,807.47253,803.44324,749.45056,742.6007,-0.267333984375,0.13726806640625,0.94390869140625,3.22998046875,-3.357086181640625,1.607513427734375,1.0,1.0,1.0,1.0,1.0,100.0,event
12:36:11.749,0.63688165,-0.14252052,-0.051362902,1.4437506,0.2682384,-0.36139253,-0.55386025,0.73370105,1.0181134,0.19536938,-0.20820042,0.825966,0.89423466,-0.05732251,-0.22109523,0.9987499,0.553455,-0.30645877,-0.3239924,0.6899448,784.90845,813.5165,800.6227,746.2271,1035.5311,-0.267333984375,0.13726806640625,0.94390869140625,3.22998046875,-3.357086181640625,1.607513427734375,1.0,1.0,1.0,1.0,1.0,100.0,event
12:36:11.749,0.63688165,-0.14252052,-0.051362902,1.4437506,0.2682384,-0.36139253,-0.55386025,0.73370105,1.0181134,0.19536938,-0.20820042,0.825966,0.89423466,-0.05732251,-0.22109523,0.9987499,0.553455,-0.30645877,-0.3239924,0.6899448,798.20514,815.9341,800.2198,772.01465,805.8608,-0.267333984375,0.13726806640625,0.94390869140625,3.22998046875,-3.357086181640625,1.607513427734375,1.0,1.0,1.0,1.0,1.0,100.0,event
12:36:11.750,0.63688165,-0.14252052,-0.051362902,1.4437506,0.2682384,-0.36139253,-0.55386025,0.73370105,1.0181134,0.19536938,-0.20820042,0.825966,0.89423466,-0.05732251,-0.22109523,0.9987499,0.553455,-0.30645877,-0.3239924,0.6899448,803.0403,813.5165,805.8608,753.8828,794.9817,-0.267333984375,0.13726806640625,0.94390869140625,3.22998046875,-3.357086181640625,1.607513427734375,1.0,1.0,1.0,1.0,1.0,100.0,event
12:36:11.750,0.63688165,-0.14252052,-0.051362902,1.4437506,0.2682384,-0.36139253,-0.55386025,0.73370105,1.0181134,0.19536938,-0.20820042,0.825966,0.89423466,-0.05732251,-0.22109523,0.9987499,0.553455,-0.30645877,-0.3239924,0.6899448,782.0879,809.4872,806.6667,728.9011,817.5458,-0.267333984375,0.13726806640625,0.94390869140625,3.22998046875,-3.357086181640625,1.607513427734375,1.0,1.0,1.0,1.0,1.0,100.0,event
12:36:11.751,0.63688165,-0.14252052,-0.051362902,1.4437506,0.2682384,-0.36139253,-0.55386025,0.73370105,1.0181134,0.19536938,-0.20820042,0.825966,0.89423466,-0.05732251,-0.22109523,0.9987499,0.553455,-0.30645877,-0.3239924,0.6899448,798.20514,807.0696,800.2198,733.73627,700.293,-0.267333984375,0.13726806640625,0.94390869140625,3.22998046875,-3.357086181640625,1.607513427734375,1.0,1.0,1.0,1.0,1.0,100.0,event
12:36:11.808,0.63688165,-0.14252052,-0.051362902,1.4437506,0.2682384,-0.36139253,-0.55386025,0.73370105,1.0181134,0.19536938,-0.20820042,0.825966,0.89423466,-0.05732251,-0.22109523,0.9987499,0.553455,-0.30645877,-0.3239924,0.6899448,808.2784,807.0696,800.6227,749.0476,683.7729,-0.267333984375,0.13726806640625,0.94390869140625,3.22998046875,-3.357086181640625,1.607513427734375,1.0,1.0,1.0,1.0,1.0,100.0,event
12:36:11.809,0.63688165,-0.14252052,-0.051362902,1.4437506,0.2682384,-0.36139253,-0.55386025,0.73370105,1.0181134,0.19536938,-0.20820042,0.825966,0.89423466,-0.05732251,-0.22109523,0.9987499,0.553455,-0.30645877,-0.3239924,0.6899448,807.0696,807.8755,802.23444,755.09155,780.07324,-0.267333984375,0.13726806640625,0.94390869140625,3.22998046875,-3.357086181640625,1.607513427734375,1.0,1.0,1.0,1.0,1.0,100.0,event
12:36:11.809,0.63688165,-0.14252052,-0.051362902,1.4437506,0.2682384,-0.36139253,-0.55386025,0.73370105,1.0181134,0.19536938,-0.20820042,0.825966,0.89423466,-0.05732251,-0.22109523,0.9987499,0.553455,-0.30645877,-0.3239924,0.6899448,799.41394,807.47253,797.8022,749.45056,819.15753,-0.267333984375,0.13726806640625,0.94390869140625,3.22998046875,-3.357086181640625,1.607513427734375,1.0,1.0,1.0,1.0,1.0,100.0,event
12:36:11.810,0.61569643,-0.13537383,-0.041939203,1.4437506,0.24711797,-0.39817742,-0.5263489,0.73370105,1.0181134,0.14005253,-0.19447306,0.825966,0.9068561,-0.060728587,-0.2414124,0.9987499,0.5643566,-0.28312132,-0.30115548,0.6899448,783.2967,809.0842,801.02563,747.8388,693.44324,-0.267333984375,0.13726806640625,0.94390869140625,3.22998046875,-3.357086181640625,1.607513427734375,1.0,1.0,1.0,1.0,1.0,100.0,event
12:36:11.814,0.61569643,-0.13537383,-0.041939203,1.4437506,0.24711797,-0.39817742,-0.5263489,0.73370105,1.0181134,0.14005253,-0.19447306,0.825966,0.9068561,-0.060728587,-0.2414124,0.9987499,0.5643566,-0.28312132,-0.30115548,0.6899448,789.7436,808.2784,805.8608,761.9414,681.3553,-0.267333984375,0.13726806640625,0.94390869140625,3.22998046875,-3.357086181640625,1.607513427734375,1.0,1.0,1.0,1.0,1.0,100.0,event
12:36:11.815,0.61569643,-0.13537383,-0.041939203,1.4437506,0.24711797,-0.39817742,-0.5263489,0.73370105,1.0181134,0.14005253,-0.19447306,0.825966,0.9068561,-0.060728587,-0.2414124,0.9987499,0.5643566,-0.28312132,-0.30115548,0.6899448,784.10254,804.65204,803.8461,772.01465,881.2088,-0.267333984375,0.13726806640625,0.94390869140625,3.22998046875,-3.357086181640625,1.607513427734375,1.0,1.0,1.0,1.0,1.0,100.0,event
12:36:11.816,0.61569643,-0.13537383,-0.041939203,1.4437506,0.24711797,-0.39817742,-0.5263489,0.73370105,1.0181134,0.14005253,-0.19447306,0.825966,0.9068561,-0.060728587,-0.2414124,0.9987499,0.5643566,-0.28312132,-0.30115548,0.6899448,798.20514,805.05493,801.8315,765.9707,1146.337,-0.267333984375,0.13726806640625,0.94390869140625,3.22998046875,-3.357086181640625,1.607513427734375,1.0,1.0,1.0,1.0,1.0,100.0,event
12:36:11.816,0.61569643,-0.13537383,-0.041939203,1.4437506,0.24711797,-0.39817742,-0.5263489,0.73370105,1.0181134,0.14005253,-0.19447306,0.825966,0.9068561,-0.060728587,-0.2414124,0.9987499,0.5643566,-0.28312132,-0.30115548,0.6899448,796.1905,809.4872,803.44324,765.9707,982.3443,-0.267333984375,0.13726806640625,0.94390869140625,3.22998046875,-3.357086181640625,1.607513427734375,1.0,1.0,1.0,1.0,1.0,100.0,event
12:36:11.817,0.61569643,-0.13537383,-0.041939203,1.4437506,0.24711797,-0.39817742,-0.5263489,0.73370105,1.0181134,0.14005253,-0.19447306,0.825966,0.9068561,-0.060728587,-0.2414124,0.9987499,0.5643566,-0.28312132,-0.30115548,0.6899448,772.4176,808.68134,803.44324,737.76556,745.0183,-0.267333984375,0.13726806640625,0.94390869140625,3.22998046875,-3.357086181640625,1.607513427734375,1.0,1.0,1.0,1.0,1.0,100.0,event
12:36:11.817,0.61569643,-0.13537383,-0.041939203,1.4437506,0.24711797,-0.39817742,-0.5263489,0.73370105,1.0181134,0.14005253,-0.19447306,0.825966,0.9068561,-0.060728587,-0.2414124,0.9987499,0.5643566,-0.28312132,-0.30115548,0.6899448,770.0,811.50183,805.05493,744.21246,692.6374,-0.267333984375,0.13726806640625,0.94390869140625,3.22998046875,-3.357086181640625,1.607513427734375,1.0,1.0,1.0,1.0,1.0,100.0,event
12:36:11.818,0.61569643,-0.13537383,-0.041939203,1.4437506,0.24711797,-0.39817742,-0.5263489,0.73370105,1.0181134,0.14005253,-0.19447306,0.825966,0.9068561,-0.060728587,-0.2414124,0.9987499,0.5643566,-0.28312132,-0.30115548,0.6899448,778.0586,801.8315,803.0403,753.0769,953.73627,-0.267333984375,0.13726806640625,0.94390869140625,3.22998046875,-3.357086181640625,1.607513427734375,1.0,1.0,1.0,1.0,1.0,100.0,event
12:36:11.819,0.61569643,-0.13537383,-0.041939203,1.4437506,0.24711797,-0.39817742,-0.5263489,0.73370105,1.0181134,0.14005253,-0.19447306,0.825966,0.9068561,-0.060728587,-0.2414124,0.9987499,0.5643566,-0.28312132,-0.30115548,0.6899448,775.64105,803.8461,809.0842,765.9707,870.7326,-0.267333984375,0.13726806640625,0.94390869140625,3.22998046875,-3.357086181640625,1.607513427734375,1.0,1.0,1.0,1.0,1.0,100.0,event
12:36:11.843,0.61569643,-0.13537383,-0.041939203,1.4437506,0.24711797,-0.39817742,-0.5263489,0.73370105,1.0181134,0.14005253,-0.19447306,0.825966,0.9068561,-0.060728587,-0.2414124,0.9987499,0.5643566,-0.28312132,-0.30115548,0.6899448,779.67035,805.8608,810.293,773.22345,726.8865,-0.268798828125,0.13201904296875,0.9453125,2.79632568359375,-2.115936279296875,0.88226318359375,1.0,1.0,1.0,1.0,1.0,100.0,event
12:36:11.844,0.61569643,-0.13537383,-0.041939203,1.4437506,0.24711797,-0.39817742,-0.5263489,0.73370105,1.0181134,0.14005253,-0.19447306,0.825966,0.9068561,-0.060728587,-0.2414124,0.9987499,0.5643566,-0.28312132,-0.30115548,0.6899448,785.7143,806.6667,807.8755,787.72894,769.19415,-0.268798828125,0.13201904296875,0.9453125,2.79632568359375,-2.115936279296875,0.88226318359375,1.0,1.0,1.0,1.0,1.0,100.0,event
12:36:11.845,0.61569643,-0.13537383,-0.041939203,1.4437506,0.24711797,-0.39817742,-0.5263489,0.73370105,1.0181134,0.14005253,-0.19447306,0.825966,0.9068561,-0.060728587,-0.2414124,0.9987499,0.5643566,-0.28312132,-0.30115548,0.6899448,773.22345,804.2491,807.47253,762.74725,772.8205,-0.268798828125,0.13201904296875,0.9453125,2.79632568359375,-2.115936279296875,0.88226318359375,1.0,1.0,1.0,1.0,1.0,100.0,event
12:36:11.846,0.61569643,-0.13537383,-0.041939203,1.4437506,0.24711797,-0.39817742,-0.5263489,0.73370105,1.0181134,0.14005253,-0.19447306,0.825966,0.9068561,-0.060728587,-0.2414124,0.9987499,0.5643566,-0.28312132,-0.30115548,0.6899448,775.2381,804.2491,804.65204,733.73627,722.4542,-0.268798828125,0.13201904296875,0.9453125,2.79632568359375,-2.115936279296875,0.88226318359375,1.0,1.0,1.0,1.0,1.0,100.0,event
12:36:11.846,0.61569643,-0.13537383,-0.041939203,1.4437506,0.24711797,-0.39817742,-0.5263489,0.73370105,1.0181134,0.14005253,-0.19447306,0.825966,0.9068561,-0.060728587,-0.2414124,0.9987499,0.5643566,-0.28312132,-0.30115548,0.6899448,786.1172,806.6667,801.02563,758.71796,699.89014,-0.268798828125,0.13201904296875,0.9453125,2.79632568359375,-2.115936279296875,0.88226318359375,1.0,1.0,1.0,1.0,1.0,100.0,event
12:36:11.847,0.61569643,-0.13537383,-0.041939203,1.4437506,0.24711797,-0.39817742,-0.5263489,0.73370105,1.0181134,0.14005253,-0.19447306,0.825966,0.9068561,-0.060728587,-0.2414124,0.9987499,0.5643566,-0.28312132,-0.30115548,0.6899448,798.20514,807.47253,803.8461,790.14655,857.8388,-0.268798828125,0.13201904296875,0.9453125,2.79632568359375,-2.115936279296875,0.88226318359375,1.0,1.0,1.0,1.0,1.0,100.0,event
12:36:11.848,0.61569643,-0.13537383,-0.041939203,1.4437506,0.24711797,-0.39817742,-0.5263489,0.73370105,1.0181134,0.14005253,-0.19447306,0.825966,0.9068561,-0.060728587,-0.2414124,0.9987499,0.5643566,-0.28312132,-0.30115548,0.6899448,796.5934,809.89014,808.68134,781.28204,952.52747,-0.268798828125,0.13201904296875,0.9453125,2.79632568359375,-2.115936279296875,0.88226318359375,1.0,1.0,1.0,1.0,1.0,100.0,event
12:36:11.849,0.61569643,-0.13537383,-0.041939203,1.4437506,0.24711797,-0.39817742,-0.5263489,0.73370105,1.0181134,0.14005253,-0.19447306,0.825966,0.9068561,-0.060728587,-0.2414124,0.9987499,0.5643566,-0.28312132,-0.30115548,0.6899448,794.17584,809.4872,808.68134,763.95605,799.011,-0.268798828125,0.13201904296875,0.9453125,2.79632568359375,-2.115936279296875,0.88226318359375,1.0,1.0,1.0,1.0,1.0,100.0,event
12:36:11.850,0.61569643,-0.13537383,-0.041939203,1.4437506,0.24711797,-0.39817742,-0.5263489,0.73370105,1.0181134,0.14005253,-0.19447306,0.825966,0.9068561,-0.060728587,-0.2414124,0.9987499,0.5643566,-0.28312132,-0.30115548,0.6899448,813.5165,809.89014,809.0842,770.0,755.89746,-0.268798828125,0.13201904296875,0.9453125,2.79632568359375,-2.115936279296875,0.88226318359375,1.0,1.0,1.0,1.0,1.0,100.0,event
12:36:11.850,0.61569643,-0.13537383,-0.041939203,1.4437506,0.24711797,-0.39817742,-0.5263489,0.73370105,1.0181134,0.14005253,-0.19447306,0.825966,0.9068561,-0.060728587,-0.2414124,0.9987499,0.5643566,-0.28312132,-0.30115548,0.6899448,815.9341,808.68134,806.26373,773.6264,978.315,-0.268798828125,0.13201904296875,0.9453125,2.79632568359375,-2.115936279296875,0.88226318359375,1.0,1.0,1.0,1.0,1.0,100.0,event
12:36:11.851,0.61569643,-0.13537383,-0.041939203,1.4437506,0.24711797,-0.39817742,-0.5263489,0.73370105,1.0181134,0.14005253,-0.19447306,0.825966,0.9068561,-0.060728587,-0.2414124,0.9987499,0.5643566,-0.28312132,-0.30115548,0.6899448,793.7729,806.26373,807.0696,775.64105,1154.3956,-0.268798828125,0.13201904296875,0.9453125,2.79632568359375,-2.115936279296875,0.88226318359375,1.0,1.0,1.0,1.0,1.0,100.0,event
12:36:11.852,0.61569643,-0.13537383,-0.041939203,1.4437506,0.24711797,-0.39817742,-0.5263489,0.73370105,1.0181134,0.14005253,-0.19447306,0.825966,0.9068561,-0.060728587,-0.2414124,0.9987499,0.5643566,-0.28312132,-0.30115548,0.6899448,792.5641,809.4872,809.4872,763.1502,866.30035,-0.268798828125,0.13201904296875,0.9453125,2.79632568359375,-2.115936279296875,0.88226318359375,1.0,1.0,1.0,1.0,1.0,100.0,event
12:36:11.874,0.61569643,-0.13537383,-0.041939203,1.4437506,0.24711797,-0.39817742,-0.5263489,0.73370105,1.0181134,0.14005253,-0.19447306,0.825966,0.9068561,-0.060728587,-0.2414124,0.9987499,0.5643566,-0.28312132,-0.30115548,0.6899448,778.86444,807.0696,806.26373,767.5824,677.72894,-0.26776123046875,0.1324462890625,0.9403076171875,2.67669677734375,-1.697235107421875,0.545806884765625,1.0,1.0,1.0,1.0,1.0,100.0,event
12:36:11.874,0.61569643,-0.13537383,-0.041939203,1.4437506,0.24711797,-0.39817742,-0.5263489,0.73370105,1.0181134,0.14005253,-0.19447306,0.825966,0.9068561,-0.060728587,-0.2414124,0.9987499,0.5643566,-0.28312132,-0.30115548,0.6899448,777.25275,807.8755,808.2784,786.9231,752.674,-0.26776123046875,0.1324462890625,0.9403076171875,2.67669677734375,-1.697235107421875,0.545806884765625,1.0,1.0,1.0,1.0,1.0,100.0,event
12:36:11.875,0.61569643,-0.13537383,-0.041939203,1.4437506,0.24711797,-0.39817742,-0.5263489,0.73370105,1.0181134,0.14005253,-0.19447306,0.825966,0.9068561,-0.060728587,-0.2414124,0.9987499,0.5643566,-0.28312132,-0.30115548,0.6899448,802.6374,805.05493,808.68134,771.6117,811.0989,-0.26776123046875,0.1324462890625,0.9403076171875,2.67669677734375,-1.697235107421875,0.545806884765625,1.0,1.0,1.0,1.0,1.0,100.0,event
12:36:11.876,0.61569643,-0.13537383,-0.041939203,1.4437506,0.24711797,-0.39817742,-0.5263489,0.73370105,1.0181134,0.14005253,-0.19447306,0.825966,0.9068561,-0.060728587,-0.2414124,0.9987499,0.5643566,-0.28312132,-0.30115548,0.6899448,800.6227,799.011,804.2491,769.59705,736.9597,-0.26776123046875,0.1324462890625,0.9403076171875,2.67669677734375,-1.697235107421875,0.545806884765625,1.0,1.0,1.0,1.0,1.0,100.0,event
12:36:11.876,0.61569643,-0.13537383,-0.041939203,1.4437506,0.24711797,-0.39817742,-0.5263489,0.73370105,1.0181134,0.14005253,-0.19447306,0.825966,0.9068561,-0.060728587,-0.2414124,0.9987499,0.5643566,-0.28312132,-0.30115548,0.6899448,803.44324,805.8608,804.65204,779.2674,731.31866,-0.26776123046875,0.1324462890625,0.9403076171875,2.67669677734375,-1.697235107421875,0.545806884765625,1.0,1.0,1.0,1.0,1.0,100.0,event
12:36:11.877,0.56725127,-0.13343434,-0.06442385,1.4437506,0.21084969,-0.4340748,-0.5215899,0.73370105,0.99645066,0.087404884,-0.19447306,0.825966,0.92722094,-0.062140074,-0.2559657,0.9987499,0.5716422,-0.26329467,-0.2765721,0.6899448,802.6374,809.0842,802.6374,801.4286,897.326,-0.26776123046875,0.1324462890625,0.9403076171875,2.67669677734375,-1.697235107421875,0.545806884765625,1.0,1.0,1.0,1.0,1.0,100.0,event
12:36:11.881,0.56725127,-0.13343434,-0.06442385,1.4437506,0.21084969,-0.4340748,-0.5215899,0.73370105,0.99645066,0.087404884,-0.19447306,0.825966,0.92722094,-0.062140074,-0.2559657,0.9987499,0.5716422,-0.26329467,-0.2765721,0.6899448,787.72894,803.44324,796.1905,790.54944,908.60803,-0.26776123046875,0.1324462890625,0.9403076171875,2.67669677734375,-1.697235107421875,0.545806884765625,1.0,1.0,1.0,1.0,1.0,100.0,event
12:36:11.881,0.56725127,-0.13343434,-0.06442385,1.4437506,0.21084969,-0.4340748,-0.5215899,0.73370105,0.99645066,0.087404884,-0.19447306,0.825966,0.92722094,-0.062140074,-0.2559657,0.9987499,0.5716422,-0.26329467,-0.2765721,0.6899448,805.4579,802.6374,796.1905,765.9707,747.03296,-0.26776123046875,0.1324462890625,0.9403076171875,2.67669677734375,-1.697235107421875,0.545806884765625,1.0,1.0,1.0,1.0,1.0,100.0,event
