TimeStamp,Delta_TP9,Delta_AF7,Delta_AF8,Delta_TP10,Theta_TP9,Theta_AF7,Theta_AF8,Theta_TP10,Alpha_TP9,Alpha_AF7,Alpha_AF8,Alpha_TP10,Beta_TP9,Beta_AF7,Beta_AF8,Beta_TP10,Gamma_TP9,Gamma_AF7,Gamma_AF8,Gamma_TP10,RAW_TP9,RAW_AF7,RAW_AF8,RAW_TP10,AUX_RIGHT,Accelerometer_X,Accelerometer_Y,Accelerometer_Z,Gyro_X,Gyro_Y,Gyro_Z,HeadBandOn,HSI_TP9,HSI_AF7,HSI_AF8,HSI_TP10,Battery,Elements
14:34:24.373,0.0,0.0,0.0,0.0,0.0,0.0,0.0,0.0,0.0,0.0,0.0,0.0,0.0,0.0,0.0,0.0,0.0,0.0,0.0,0.0,714.3956,1350.2197,951.31866,816.7399,707.5458,-0.0733642578125,0.02825927734375,0.986572265625,2.6617431640625,-4.284210205078125,0.052337646484375,0.0,4.0,4.0,4.0,4.0,100.0,event
14:34:24.375,0.0,0.0,0.0,0.0,0.0,0.0,0.0,0.0,0.0,0.0,0.0,0.0,0.0,0.0,0.0,0.0,0.0,0.0,0.0,0.0,655.56775,1148.7546,840.10986,817.5458,710.7692,-0.0733642578125,0.02825927734375,0.986572265625,2.6617431640625,-4.284210205078125,0.052337646484375,0.0,4.0,4.0,4.0,4.0,100.0,event
14:34:24.376,0.0,0.0,0.0,0.0,0.0,0.0,0.0,0.0,0.0,0.0,0.0,0.0,0.0,0.0,0.0,0.0,0.0,0.0,0.0,0.0,808.68134,1152.381,820.7692,820.3663,717.2161,-0.0733642578125,0.02825927734375,0.986572265625,2.6617431640625,-4.284210205078125,0.052337646484375,0.0,4.0,4.0,4.0,4.0,100.0,event
14:34:24.378,0.0,0.0,0.0,0.0,0.0,0.0,0.0,0.0,0.0,0.0,0.0,0.0,0.0,0.0,0.0,0.0,0.0,0.0,0.0,0.0,1000.87915,1380.0366,1028.6813,832.8571,683.36993,-0.0733642578125,0.02825927734375,0.986572265625,2.6617431640625,-4.284210205078125,0.052337646484375,0.0,4.0,4.0,4.0,4.0,100.0,event
14:34:24.380,0.0,0.0,0.0,0.0,0.0,0.0,0.0,0.0,0.0,0.0,0.0,0.0,0.0,0.0,0.0,0.0,0.0,0.0,0.0,0.0,963.4066,1341.7583,986.3736,825.2015,681.3553,-0.0733642578125,0.02825927734375,0.986572265625,2.6617431640625,-4.284210205078125,0.052337646484375,0.0,4.0,4.0,4.0,4.0,100.0,event
14:34:24.381,0.0,0.0,0.0,0.0,0.0,0.0,0.0,0.0,0.0,0.0,0.0,0.0,0.0,0.0,0.0,0.0,0.0,0.0,0.0,0.0,730.9158,937.619,538.315,814.7253,868.315,-0.0733642578125,0.02825927734375,0.986572265625,2.6617431640625,-4.284210205078125,0.052337646484375,0.0,4.0,4.0,4.0,4.0,100.0,event
14:34:24.383,0.0,0.0,0.0,0.0,0.0,0.0,0.0,0.0,0.0,0.0,0.0,0.0,0.0,0.0,0.0,0.0,0.0,0.0,0.0,0.0,647.50916,845.7509,289.70697,813.5165,985.56775,-0.0733642578125,0.02825927734375,0.986572265625,2.6617431640625,-4.284210205078125,0.052337646484375,0.0,4.0,4.0,4.0,4.0,100.0,event
14:34:24.384,0.0,0.0,0.0,0.0,0.0,0.0,0.0,0.0,0.0,0.0,0.0,0.0,0.0,0.0,0.0,0.0,0.0,0.0,0.0,0.0,785.7143,1431.6117,777.6557,809.4872,747.8388,-0.0733642578125,0.02825927734375,0.986572265625,2.6617431640625,-4.284210205078125,0.052337646484375,0.0,4.0,4.0,4.0,4.0,100.0,event
14:34:24.385,0.0,0.0,0.0,0.0,0.0,0.0,0.0,0.0,0.0,0.0,0.0,0.0,0.0,0.0,0.0,0.0,0.0,0.0,0.0,0.0,992.8205,6.4468865,1210.8059,833.2601,721.6484,-0.0733642578125,0.02825927734375,0.986572265625,2.6617431640625,-4.284210205078125,0.052337646484375,0.0,4.0,4.0,4.0,4.0,100.0,event
14:34:24.386,0.0,0.0,0.0,0.0,0.0,0.0,0.0,0.0,0.0,0.0,0.0,0.0,0.0,0.0,0.0,0.0,0.0,0.0,0.0,0.0,981.9414,1173.7362,789.34064,842.9304,876.77655,-0.0733642578125,0.02825927734375,0.986572265625,2.6617431640625,-4.284210205078125,0.052337646484375,0.0,4.0,4.0,4.0,4.0,100.0,event
14:34:24.386,0.0,0.0,0.0,0.0,0.0,0.0,0.0,0.0,0.0,0.0,0.0,0.0,0.0,0.0,0.0,0.0,0.0,0.0,0.0,0.0,757.50916,1071.7949,489.56042,828.4249,848.97437,-0.0733642578125,0.02825927734375,0.986572265625,2.6617431640625,-4.284210205078125,0.052337646484375,0.0,4.0,4.0,4.0,4.0,100.0,event
14:34:24.387,0.0,0.0,0.0,0.0,0.0,0.0,0.0,0.0,0.0,0.0,0.0,0.0,0.0,0.0,0.0,0.0,0.0,0.0,0.0,0.0,661.6117,1497.6923,911.4286,815.9341,705.12823,-0.0733642578125,0.02825927734375,0.986572265625,2.6617431640625,-4.284210205078125,0.052337646484375,0.0,4.0,4.0,4.0,4.0,100.0,event
14:34:24.409,0.0,0.0,0.0,0.0,0.0,0.0,0.0,0.0,0.0,0.0,0.0,0.0,0.0,0.0,0.0,0.0,0.0,0.0,0.0,0.0,763.1502,1430.8059,998.86444,830.0366,741.79486,-0.06805419921875,0.03271484375,0.99676513671875,2.8411865234375,-4.41131591796875,0.6878662109375,0.0,4.0,4.0,4.0,4.0,100.0,event
14:34:24.410,0.0,0.0,0.0,0.0,0.0,0.0,0.0,0.0,0.0,0.0,0.0,0.0,0.0,0.0,0.0,0.0,0.0,0.0,0.0,0.0,954.5421,1201.5385,722.0513,850.58606,870.32965,-0.06805419921875,0.03271484375,0.99676513671875,2.8411865234375,-4.41131591796875,0.6878662109375,0.0,4.0,4.0,4.0,4.0,100.0,event
14:34:24.410,0.0,0.0,0.0,0.0,0.0,0.0,0.0,0.0,0.0,0.0,0.0,0.0,0.0,0.0,0.0,0.0,0.0,0.0,0.0,0.0,1005.31134,1346.5934,735.7509,844.1392,830.0366,-0.06805419921875,0.03271484375,0.99676513671875,2.8411865234375,-4.41131591796875,0.6878662109375,0.0,4.0,4.0,4.0,4.0,100.0,event
14:34:24.411,0.0,0.0,0.0,0.0,0.0,0.0,0.0,0.0,0.0,0.0,0.0,0.0,0.0,0.0,0.0,0.0,0.0,0.0,0.0,0.0,830.4396,1528.7179,894.90845,844.94507,691.8315,-0.06805419921875,0.03271484375,0.99676513671875,2.8411865234375,-4.41131591796875,0.6878662109375,0.0,4.0,4.0,4.0,4.0,100.0,event
14:34:24.415,0.0,0.0,0.0,0.0,0.0,0.0,0.0,0.0,0.0,0.0,0.0,0.0,0.0,0.0,0.0,0.0,0.0,0.0,0.0,0.0,686.1905,1430.8059,860.65936,818.3516,691.4286,-0.06805419921875,0.03271484375,0.99676513671875,2.8411865234375,-4.41131591796875,0.6878662109375,0.0,4.0,4.0,4.0,4.0,100.0,event
14:34:24.415,0.0,0.0,0.0,0.0,0.0,0.0,0.0,0.0,0.0,0.0,0.0,0.0,0.0,0.0,0.0,0.0,0.0,0.0,0.0,0.0,730.10986,1339.3407,794.57874,792.1612,831.2454,-0.06805419921875,0.03271484375,0.99676513671875,2.8411865234375,-4.41131591796875,0.6878662109375,0.0,4.0,4.0,4.0,4.0,100.0,event
14:34:24.416,0.0,0.0,0.0,0.0,0.0,0.0,0.0,0.0,0.0,0.0,0.0,0.0,0.0,0.0,0.0,0.0,0.0,0.0,0.0,0.0,928.3516,1416.7032,789.7436,814.3223,929.5604,-0.06805419921875,0.03271484375,0.99676513671875,2.8411865234375,-4.41131591796875,0.6878662109375,0.0,4.0,4.0,4.0,4.0,100.0,event
14:34:24.416,0.0,0.0,0.0,0.0,0.0,0.0,0.0,0.0,0.0,0.0,0.0,0.0,0.0,0.0,0.0,0.0,0.0,0.0,0.0,0.0,998.86444,1549.6703,866.30035,812.71063,758.71796,-0.06805419921875,0.03271484375,0.99676513671875,2.8411865234375,-4.41131591796875,0.6878662109375,0.0,4.0,4.0,4.0,4.0,100.0,event
14:34:24.417,0.0,0.0,0.0,0.0,0.0,0.0,0.0,0.0,0.0,0.0,0.0,0.0,0.0,0.0,0.0,0.0,0.0,0.0,0.0,0.0,618.0952,1117.326,403.33334,792.1612,877.1795,-0.06805419921875,0.03271484375,0.99676513671875,2.8411865234375,-4.41131591796875,0.6878662109375,0.0,4.0,4.0,4.0,4.0,100.0,event
14:34:24.417,0.0,0.0,0.0,0.0,0.0,0.0,0.0,0.0,0.0,0.0,0.0,0.0,0.0,0.0,0.0,0.0,0.0,0.0,0.0,0.0,798.60803,1490.8425,870.32965,794.9817,690.2198,-0.06805419921875,0.03271484375,0.99676513671875,2.8411865234375,-4.41131591796875,0.6878662109375,0.0,4.0,4.0,4.0,4.0,100.0,event
14:34:24.418,0.0,0.0,0.0,0.0,0.0,0.0,0.0,0.0,0.0,0.0,0.0,0.0,0.0,0.0,0.0,0.0,0.0,0.0,0.0,0.0,685.38464,1351.0256,570.14655,795.78754,857.03296,-0.06805419921875,0.03271484375,0.99676513671875,2.8411865234375,-4.41131591796875,0.6878662109375,0.0,4.0,4.0,4.0,4.0,100.0,event
14:34:24.419,0.0,0.0,0.0,0.0,0.0,0.0,0.0,0.0,0.0,0.0,0.0,0.0,0.0,0.0,0.0,0.0,0.0,0.0,0.0,0.0,910.6227,59.6337,1196.7032,817.5458,725.2747,-0.06805419921875,0.03271484375,0.99676513671875,2.8411865234375,-4.41131591796875,0.6878662109375,0.0,4.0,4.0,4.0,4.0,100.0,event
14:34:24.459,0.0,0.0,0.0,0.0,0.0,0.0,0.0,0.0,0.0,0.0,0.0,0.0,0.0,0.0,0.0,0.0,0.0,0.0,0.0,0.0,993.6264,1518.6447,1022.23444,832.4542,813.91943,-0.06805419921875,0.03271484375,0.99676513671875,2.8411865234375,-4.41131591796875,0.6878662109375,0.0,4.0,4.0,4.0,4.0,100.0,event
14:34:24.460,0.0,0.0,0.0,0.0,0.0,0.0,0.0,0.0,0.0,0.0,0.0,0.0,0.0,0.0,0.0,0.0,0.0,0.0,0.0,0.0,821.978,1387.6923,737.3626,819.5604,848.97437,-0.06805419921875,0.03271484375,0.99676513671875,2.8411865234375,-4.41131591796875,0.6878662109375,0.0,4.0,4.0,4.0,4.0,100.0,event
14:34:24.461,0.0,0.0,0.0,0.0,0.0,0.0,0.0,0.0,0.0,0.0,0.0,0.0,0.0,0.0,0.0,0.0,0.0,0.0,0.0,0.0,646.30035,1511.392,865.89746,811.0989,765.16486,-0.06805419921875,0.03271484375,0.99676513671875,2.8411865234375,-4.41131591796875,0.6878662109375,0.0,4.0,4.0,4.0,4.0,100.0,event
14:34:24.461,0.0,0.0,0.0,0.0,0.0,0.0,0.0,0.0,0.0,0.0,0.0,0.0,0.0,0.0,0.0,0.0,0.0,0.0,0.0,0.0,680.54944,1522.674,968.24176,822.381,749.85345,-0.06805419921875,0.03271484375,0.99676513671875,2.8411865234375,-4.41131591796875,0.6878662109375,0.0,4.0,4.0,4.0,4.0,100.0,event
14:34:24.462,0.0,0.0,0.0,0.0,0.0,0.0,0.0,0.0,0.0,0.0,0.0,0.0,0.0,0.0,0.0,0.0,0.0,0.0,0.0,0.0,882.4176,1318.7913,790.9524,842.9304,923.1135,-0.06805419921875,0.03271484375,0.99676513671875,2.8411865234375,-4.41131591796875,0.6878662109375,0.0,4.0,4.0,4.0,4.0,100.0,event
14:34:24.463,0.0,0.0,0.0,0.0,0.0,0.0,0.0,0.0,0.0,0.0,0.0,0.0,0.0,0.0,0.0,0.0,0.0,0.0,0.0,0.0,996.04395,1246.6666,609.6337,828.022,1037.5458,-0.06805419921875,0.03271484375,0.99676513671875,2.8411865234375,-4.41131591796875,0.6878662109375,0.0,4.0,4.0,4.0,4.0,100.0,event
14:34:24.463,0.0,0.0,0.0,0.0,0.0,0.0,0.0,0.0,0.0,0.0,0.0,0.0,0.0,0.0,0.0,0.0,0.0,0.0,0.0,0.0,862.27106,1431.6117,617.28937,813.5165,911.8315,-0.06805419921875,0.03271484375,0.99676513671875,2.8411865234375,-4.41131591796875,0.6878662109375,0.0,4.0,4.0,4.0,4.0,100.0,event
14:34:24.464,0.0,0.0,0.0,0.0,0.0,0.0,0.0,0.0,0.0,0.0,0.0,0.0,0.0,0.0,0.0,0.0,0.0,0.0,0.0,0.0,674.10254,1620.1831,814.7253,817.1429,752.674,-0.06805419921875,0.03271484375,0.99676513671875,2.8411865234375,-4.41131591796875,0.6878662109375,0.0,4.0,4.0,4.0,4.0,100.0,event
14:34:24.465,0.0,0.0,0.0,0.0,0.0,0.0,0.0,0.0,0.0,0.0,0.0,0.0,0.0,0.0,0.0,0.0,0.0,0.0,0.0,0.0,861.4652,1210.8059,535.89746,838.0952,1046.0073,-0.06805419921875,0.03271484375,0.99676513671875,2.8411865234375,-4.41131591796875,0.6878662109375,0.0,4.0,4.0,4.0,4.0,100.0,event
14:34:24.465,0.0,0.0,0.0,0.0,0.0,0.0,0.0,0.0,0.0,0.0,0.0,0.0,0.0,0.0,0.0,0.0,0.0,0.0,0.0,0.0,670.4762,1366.7399,737.3626,823.9927,851.39197,-0.06805419921875,0.03271484375,0.99676513671875,2.8411865234375,-4.41131591796875,0.6878662109375,0.0,4.0,4.0,4.0,4.0,100.0,event
14:34:24.466,0.0,0.0,0.0,0.0,0.0,0.0,0.0,0.0,0.0,0.0,0.0,0.0,0.0,0.0,0.0,0.0,0.0,0.0,0.0,0.0,1014.57874,1626.227,913.44324,830.4396,849.3773,-0.06805419921875,0.03271484375,0.99676513671875,2.8411865234375,-4.41131591796875,0.6878662109375,0.0,4.0,4.0,4.0,4.0,100.0,event
14:34:24.466,0.0,0.0,0.0,0.0,0.0,0.0,0.0,0.0,0.0,0.0,0.0,0.0,0.0,0.0,0.0,0.0,0.0,0.0,0.0,0.0,889.67035,1599.6337,905.38464,807.0696,738.97437,-0.06805419921875,0.03271484375,0.99676513671875,2.8411865234375,-4.41131591796875,0.6878662109375,0.0,4.0,4.0,4.0,4.0,100.0,event
14:34:24.511,0.0,0.0,0.0,0.0,0.0,0.0,0.0,0.0,0.0,0.0,0.0,0.0,0.0,0.0,0.0,0.0,0.0,0.0,0.0,0.0,672.8938,1439.2675,659.59705,802.23444,810.293,-0.06744384765625,0.025390625,0.97857666015625,1.727142333984375,-4.65057373046875,-0.5084228515625,0.0,4.0,4.0,4.0,4.0,100.0,event
14:34:24.513,0.0,0.0,0.0,0.0,0.0,0.0,0.0,0.0,0.0,0.0,0.0,0.0,0.0,0.0,0.0,0.0,0.0,0.0,0.0,0.0,657.5824,1531.9414,806.26373,808.68134,798.20514,-0.06744384765625,0.025390625,0.97857666015625,1.727142333984375,-4.65057373046875,-0.5084228515625,0.0,4.0,4.0,4.0,4.0,100.0,event
14:34:24.514,0.0,0.0,0.0,0.0,0.0,0.0,0.0,0.0,0.0,0.0,0.0,0.0,0.0,0.0,0.0,0.0,0.0,0.0,0.0,0.0,842.52747,1649.1941,1145.1282,812.71063,712.7839,-0.06744384765625,0.025390625,0.97857666015625,1.727142333984375,-4.65057373046875,-0.5084228515625,0.0,4.0,4.0,4.0,4.0,100.0,event
14:34:24.515,0.0,0.0,0.0,0.0,0.0,0.0,0.0,0.0,0.0,0.0,0.0,0.0,0.0,0.0,0.0,0.0,0.0,0.0,0.0,0.0,996.4469,1615.751,1200.7325,820.7692,789.34064,-0.06744384765625,0.025390625,0.97857666015625,1.727142333984375,-4.65057373046875,-0.5084228515625,0.0,4.0,4.0,4.0,4.0,100.0,event
14:34:24.516,0.0,0.0,0.0,0.0,0.0,0.0,0.0,0.0,0.0,0.0,0.0,0.0,0.0,0.0,0.0,0.0,0.0,0.0,0.0,0.0,911.02563,1418.3151,869.12085,820.3663,864.68866,-0.06744384765625,0.025390625,0.97857666015625,1.727142333984375,-4.65057373046875,-0.5084228515625,0.0,4.0,4.0,4.0,4.0,100.0,event
14:34:24.518,0.0,0.0,0.0,0.0,0.0,0.0,0.0,0.0,0.0,0.0,0.0,0.0,0.0,0.0,0.0,0.0,0.0,0.0,0.0,0.0,698.2784,1238.608,534.2857,816.7399,840.10986,-0.06744384765625,0.025390625,0.97857666015625,1.727142333984375,-4.65057373046875,-0.5084228515625,0.0,4.0,4.0,4.0,4.0,100.0,event
14:34:24.522,0.0,0.0,0.0,0.0,0.0,0.0,0.0,0.0,0.0,0.0,0.0,0.0,0.0,0.0,0.0,0.0,0.0,0.0,0.0,0.0,644.2857,1356.6666,601.978,828.022,781.685,-0.06744384765625,0.025390625,0.97857666015625,1.727142333984375,-4.65057373046875,-0.5084228515625,0.0,4.0,4.0,4.0,4.0,100.0,event
14:34:24.523,0.0,0.0,0.0,0.0,0.0,0.0,0.0,0.0,0.0,0.0,0.0,0.0,0.0,0.0,0.0,0.0,0.0,0.0,0.0,0.0,806.6667,1591.978,900.54944,836.08057,795.78754,-0.06744384765625,0.025390625,0.97857666015625,1.727142333984375,-4.65057373046875,-0.5084228515625,0.0,4.0,4.0,4.0,4.0,100.0,event
14:34:24.524,0.0,0.0,0.0,0.0,0.0,0.0,0.0,0.0,0.0,0.0,0.0,0.0,0.0,0.0,0.0,0.0,0.0,0.0,0.0,0.0,977.1062,1229.3407,545.16486,842.1245,1004.5055,-0.06744384765625,0.025390625,0.97857666015625,1.727142333984375,-4.65057373046875,-0.5084228515625,0.0,4.0,4.0,4.0,4.0,100.0,event
14:34:24.525,0.0,0.0,0.0,0.0,0.0,0.0,0.0,0.0,0.0,0.0,0.0,0.0,0.0,0.0,0.0,0.0,0.0,0.0,0.0,0.0,925.9341,1164.0659,239.74359,845.7509,1011.75824,-0.06744384765625,0.025390625,0.97857666015625,1.727142333984375,-4.65057373046875,-0.5084228515625,0.0,4.0,4.0,4.0,4.0,100.0,event
14:34:24.525,0.0,0.0,0.0,0.0,0.0,0.0,0.0,0.0,0.0,0.0,0.0,0.0,0.0,0.0,0.0,0.0,0.0,0.0,0.0,0.0,736.1539,15.714286,747.03296,832.8571,686.5934,-0.06744384765625,0.025390625,0.97857666015625,1.727142333984375,-4.65057373046875,-0.5084228515625,0.0,4.0,4.0,4.0,4.0,100.0,event
14:34:24.526,0.0,0.0,0.0,0.0,0.0,0.0,0.0,0.0,0.0,0.0,0.0,0.0,0.0,0.0,0.0,0.0,0.0,0.0,0.0,0.0,664.83514,1606.4835,838.9011,828.4249,657.98535,-0.06744384765625,0.025390625,0.97857666015625,1.727142333984375,-4.65057373046875,-0.5084228515625,0.0,4.0,4.0,4.0,4.0,100.0,event
14:34:24.560,0.0,0.0,0.0,0.0,0.0,0.0,0.0,0.0,0.0,0.0,0.0,0.0,0.0,0.0,0.0,0.0,0.0,0.0,0.0,0.0,797.8022,1552.0879,879.59705,838.9011,734.1392,-0.063232421875,0.02752685546875,0.99053955078125,2.4224853515625,-3.446807861328125,-0.366363525390625,0.0,4.0,4.0,4.0,4.0,100.0,event
14:34:24.561,0.0,0.0,0.0,0.0,0.0,0.0,0.0,0.0,0.0,0.0,0.0,0.0,0.0,0.0,0.0,0.0,0.0,0.0,0.0,0.0,1013.36993,1627.4359,1092.3444,850.18317,668.86444,-0.063232421875,0.02752685546875,0.99053955078125,2.4224853515625,-3.446807861328125,-0.366363525390625,0.0,4.0,4.0,4.0,4.0,100.0,event
14:34:24.562,0.0,0.0,0.0,0.0,0.0,0.0,0.0,0.0,0.0,0.0,0.0,0.0,0.0,0.0,0.0,0.0,0.0,0.0,0.0,0.0,1011.3553,1635.0916,1050.0366,848.5714,657.1795,-0.063232421875,0.02752685546875,0.99053955078125,2.4224853515625,-3.446807861328125,-0.366363525390625,0.0,4.0,4.0,4.0,4.0,100.0,event
14:34:24.563,0.0,0.0,0.0,0.0,0.0,0.0,0.0,0.0,0.0,0.0,0.0,0.0,0.0,0.0,0.0,0.0,0.0,0.0,0.0,0.0,771.6117,1391.3187,733.73627,835.6777,717.619,-0.063232421875,0.02752685546875,0.99053955078125,2.4224853515625,-3.446807861328125,-0.366363525390625,0.0,4.0,4.0,4.0,4.0,100.0,event
14:34:24.564,0.0,0.0,0.0,0.0,0.0,0.0,0.0,0.0,0.0,0.0,0.0,0.0,0.0,0.0,0.0,0.0,0.0,0.0,0.0,0.0,642.27106,1376.0073,641.4652,829.2308,739.7802,-0.063232421875,0.02752685546875,0.99053955078125,2.4224853515625,-3.446807861328125,-0.366363525390625,0.0,4.0,4.0,4.0,4.0,100.0,event
14:34:24.564,0.0,0.0,0.0,0.0,0.0,0.0,0.0,0.0,0.0,0.0,0.0,0.0,0.0,0.0,0.0,0.0,0.0,0.0,0.0,0.0,749.85345,1549.2675,813.5165,836.08057,719.2308,-0.063232421875,0.02752685546875,0.99053955078125,2.4224853515625,-3.446807861328125,-0.366363525390625,0.0,4.0,4.0,4.0,4.0,100.0,event
14:34:24.565,0.0,0.0,0.0,0.0,0.0,0.0,0.0,0.0,0.0,0.0,0.0,0.0,0.0,0.0,0.0,0.0,0.0,0.0,0.0,0.0,959.3773,1582.3077,850.58606,845.34796,802.6374,-0.063232421875,0.02752685546875,0.99053955078125,2.4224853515625,-3.446807861328125,-0.366363525390625,0.0,4.0,4.0,4.0,4.0,100.0,event
14:34:24.566,0.0,0.0,0.0,0.0,0.0,0.0,0.0,0.0,0.0,0.0,0.0,0.0,0.0,0.0,0.0,0.0,0.0,0.0,0.0,0.0,974.68866,1367.9487,616.4835,849.3773,973.0769,-0.063232421875,0.02752685546875,0.99053955078125,2.4224853515625,-3.446807861328125,-0.366363525390625,0.0,4.0,4.0,4.0,4.0,100.0,event
14:34:24.566,0.0,0.0,0.0,0.0,0.0,0.0,0.0,0.0,0.0,0.0,0.0,0.0,0.0,0.0,0.0,0.0,0.0,0.0,0.0,0.0,757.1062,1202.3444,237.326,829.2308,1001.685,-0.063232421875,0.02752685546875,0.99053955078125,2.4224853515625,-3.446807861328125,-0.366363525390625,0.0,4.0,4.0,4.0,4.0,100.0,event
14:34:24.567,0.0,0.0,0.0,0.0,0.0,0.0,0.0,0.0,0.0,0.0,0.0,0.0,0.0,0.0,0.0,0.0,0.0,0.0,0.0,0.0,644.68866,1592.7839,612.0513,822.381,795.78754,-0.063232421875,0.02752685546875,0.99053955078125,2.4224853515625,-3.446807861328125,-0.366363525390625,0.0,4.0,4.0,4.0,4.0,100.0,event
14:34:24.568,0.0,0.0,0.0,0.0,0.0,0.0,0.0,0.0,0.0,0.0,0.0,0.0,0.0,0.0,0.0,0.0,0.0,0.0,0.0,0.0,724.0659,15.311356,917.8755,846.1539,746.2271,-0.063232421875,0.02752685546875,0.99053955078125,2.4224853515625,-3.446807861328125,-0.366363525390625,0.0,4.0,4.0,4.0,4.0,100.0,event
14:34:24.568,0.0,0.0,0.0,0.0,0.0,0.0,0.0,0.0,0.0,0.0,0.0,0.0,0.0,0.0,0.0,0.0,0.0,0.0,0.0,0.0,915.4579,1516.63,672.8938,840.9158,844.1392,-0.063232421875,0.02752685546875,0.99053955078125,2.4224853515625,-3.446807861328125,-0.366363525390625,0.0,4.0,4.0,4.0,4.0,100.0,event
14:34:24.612,0.0,0.0,0.0,0.0,0.0,0.0,0.0,0.0,0.0,0.0,0.0,0.0,0.0,0.0,0.0,0.0,0.0,0.0,0.0,0.0,983.95605,1552.0879,748.6447,832.4542,867.50916,-0.0657958984375,0.02862548828125,0.986572265625,2.295379638671875,-3.54400634765625,0.695343017578125,0.0,4.0,4.0,4.0,4.0,100.0,event
14:34:24.613,0.0,0.0,0.0,0.0,0.0,0.0,0.0,0.0,0.0,0.0,0.0,0.0,0.0,0.0,0.0,0.0,0.0,0.0,0.0,0.0,790.14655,1646.3737,962.6007,819.5604,729.707,-0.0657958984375,0.02862548828125,0.986572265625,2.295379638671875,-3.54400634765625,0.695343017578125,0.0,4.0,4.0,4.0,4.0,100.0,event
14:34:24.614,0.0,0.0,0.0,0.0,0.0,0.0,0.0,0.0,0.0,0.0,0.0,0.0,0.0,0.0,0.0,0.0,0.0,0.0,0.0,0.0,628.97437,1623.4066,879.59705,807.0696,673.2967,-0.0657958984375,0.02862548828125,0.986572265625,2.295379638671875,-3.54400634765625,0.695343017578125,0.0,4.0,4.0,4.0,4.0,100.0,event
14:34:24.615,0.0,0.0,0.0,0.0,0.0,0.0,0.0,0.0,0.0,0.0,0.0,0.0,0.0,0.0,0.0,0.0,0.0,0.0,0.0,0.0,693.44324,1625.4213,910.2198,813.5165,723.2601,-0.0657958984375,0.02862548828125,0.986572265625,2.295379638671875,-3.54400634765625,0.695343017578125,0.0,4.0,4.0,4.0,4.0,100.0,event
14:34:24.615,0.0,0.0,0.0,0.0,0.0,0.0,0.0,0.0,0.0,0.0,0.0,0.0,0.0,0.0,0.0,0.0,0.0,0.0,0.0,0.0,906.99634,1631.8682,1068.1685,823.5897,774.43225,-0.0657958984375,0.02862548828125,0.986572265625,2.295379638671875,-3.54400634765625,0.695343017578125,0.0,4.0,4.0,4.0,4.0,100.0,event
14:34:24.616,0.0,0.0,0.0,0.0,0.0,0.0,0.0,0.0,0.0,0.0,0.0,0.0,0.0,0.0,0.0,0.0,0.0,0.0,0.0,0.0,989.59705,1590.3663,904.57874,830.4396,817.1429,-0.0657958984375,0.02862548828125,0.986572265625,2.295379638671875,-3.54400634765625,0.695343017578125,0.0,4.0,4.0,4.0,4.0,100.0,event
14:34:24.617,0.0,0.0,0.0,0.0,0.0,0.0,0.0,0.0,0.0,0.0,0.0,0.0,0.0,0.0,0.0,0.0,0.0,0.0,0.0,0.0,808.2784,1582.3077,705.9341,822.381,858.6447,-0.0657958984375,0.02862548828125,0.986572265625,2.295379638671875,-3.54400634765625,0.695343017578125,0.0,4.0,4.0,4.0,4.0,100.0,event
14:34:24.617,0.0,0.0,0.0,0.0,0.0,0.0,0.0,0.0,0.0,0.0,0.0,0.0,0.0,0.0,0.0,0.0,0.0,0.0,0.0,0.0,615.6777,1329.2675,343.69965,815.5311,1019.81683,-0.0657958984375,0.02862548828125,0.986572265625,2.295379638671875,-3.54400634765625,0.695343017578125,0.0,4.0,4.0,4.0,4.0,100.0,event
14:34:24.621,0.0,0.0,0.0,0.0,0.0,0.0,0.0,0.0,0.0,0.0,0.0,0.0,0.0,0.0,0.0,0.0,0.0,0.0,0.0,0.0,664.43225,1371.5751,440.0,820.7692,938.8278,-0.0657958984375,0.02862548828125,0.986572265625,2.295379638671875,-3.54400634765625,0.695343017578125,0.0,4.0,4.0,4.0,4.0,100.0,event
14:34:24.622,0.0,0.0,0.0,0.0,0.0,0.0,0.0,0.0,0.0,0.0,0.0,0.0,0.0,0.0,0.0,0.0,0.0,0.0,0.0,0.0,883.22345,28.608059,1187.4359,816.7399,736.55676,-0.0657958984375,0.02862548828125,0.986572265625,2.295379638671875,-3.54400634765625,0.695343017578125,0.0,4.0,4.0,4.0,4.0,100.0,event
14:34:24.623,0.0,0.0,0.0,0.0,0.0,0.0,0.0,0.0,0.0,0.0,0.0,0.0,0.0,0.0,0.0,0.0,0.0,0.0,0.0,0.0,979.92676,1595.2014,1108.0586,823.5897,798.20514,-0.0657958984375,0.02862548828125,0.986572265625,2.295379638671875,-3.54400634765625,0.695343017578125,0.0,4.0,4.0,4.0,4.0,100.0,event
14:34:24.623,0.0,0.0,0.0,0.0,0.0,0.0,0.0,0.0,0.0,0.0,0.0,0.0,0.0,0.0,0.0,0.0,0.0,0.0,0.0,0.0,841.31866,1567.8022,838.9011,828.8278,854.61536,-0.0657958984375,0.02862548828125,0.986572265625,2.295379638671875,-3.54400634765625,0.695343017578125,0.0,4.0,4.0,4.0,4.0,100.0,event
14:34:24.648,0.0,0.0,0.0,0.0,0.0,0.0,0.0,0.0,0.0,0.0,0.0,0.0,0.0,0.0,0.0,0.0,0.0,0.0,0.0,0.0,658.7912,1613.7362,881.6117,823.5897,814.7253,-0.0712890625,0.0294189453125,0.98687744140625,2.27294921875,-3.386993408203125,0.755157470703125,0.0,4.0,4.0,4.0,4.0,100.0,event
14:34:24.649,0.0,0.0,0.0,0.0,0.0,0.0,0.0,0.0,0.0,0.0,0.0,0.0,0.0,0.0,0.0,0.0,0.0,0.0,0.0,0.0,673.69965,1635.8975,905.78754,819.15753,745.42126,-0.0712890625,0.0294189453125,0.98687744140625,2.27294921875,-3.386993408203125,0.755157470703125,0.0,4.0,4.0,4.0,4.0,100.0,event
14:34:24.650,0.0,0.0,0.0,0.0,0.0,0.0,0.0,0.0,0.0,0.0,0.0,0.0,0.0,0.0,0.0,0.0,0.0,0.0,0.0,0.0,876.3736,1552.0879,912.6374,840.9158,817.5458,-0.0712890625,0.0294189453125,0.98687744140625,2.27294921875,-3.386993408203125,0.755157470703125,0.0,4.0,4.0,4.0,4.0,100.0,event
14:34:24.651,0.0,0.0,0.0,0.0,0.0,0.0,0.0,0.0,0.0,0.0,0.0,0.0,0.0,0.0,0.0,0.0,0.0,0.0,0.0,0.0,1013.36993,1486.8132,838.0952,857.4359,908.20514,-0.0712890625,0.0294189453125,0.98687744140625,2.27294921875,-3.386993408203125,0.755157470703125,0.0,4.0,4.0,4.0,4.0,100.0,event
14:34:24.652,0.0,0.0,0.0,0.0,0.0,0.0,0.0,0.0,0.0,0.0,0.0,0.0,0.0,0.0,0.0,0.0,0.0,0.0,0.0,0.0,895.31134,1602.8572,854.21246,836.08057,784.5055,-0.0712890625,0.0294189453125,0.98687744140625,2.27294921875,-3.386993408203125,0.755157470703125,0.0,4.0,4.0,4.0,4.0,100.0,event
14:34:24.652,0.0,0.0,0.0,0.0,0.0,0.0,0.0,0.0,0.0,0.0,0.0,0.0,0.0,0.0,0.0,0.0,0.0,0.0,0.0,0.0,681.75824,1579.0842,759.12085,825.2015,765.16486,-0.0712890625,0.0294189453125,0.98687744140625,2.27294921875,-3.386993408203125,0.755157470703125,0.0,4.0,4.0,4.0,4.0,100.0,event
14:34:24.653,0.0,0.0,0.0,0.0,0.0,0.0,0.0,0.0,0.0,0.0,0.0,0.0,0.0,0.0,0.0,0.0,0.0,0.0,0.0,0.0,651.53845,1375.6044,574.17584,829.6337,913.0403,-0.0712890625,0.0294189453125,0.98687744140625,2.27294921875,-3.386993408203125,0.755157470703125,0.0,4.0,4.0,4.0,4.0,100.0,event
14:34:24.654,0.0,0.0,0.0,0.0,0.0,0.0,0.0,0.0,0.0,0.0,0.0,0.0,0.0,0.0,0.0,0.0,0.0,0.0,0.0,0.0,833.2601,1305.0916,442.82053,833.2601,1010.14655,-0.0712890625,0.0294189453125,0.98687744140625,2.27294921875,-3.386993408203125,0.755157470703125,0.0,4.0,4.0,4.0,4.0,100.0,event
14:34:24.654,0.0,0.0,0.0,0.0,0.0,0.0,0.0,0.0,0.0,0.0,0.0,0.0,0.0,0.0,0.0,0.0,0.0,0.0,0.0,0.0,1014.9817,1619.3773,860.65936,826.4103,792.96704,-0.0712890625,0.0294189453125,0.98687744140625,2.27294921875,-3.386993408203125,0.755157470703125,0.0,4.0,4.0,4.0,4.0,100.0,event
14:34:24.655,0.0,0.0,0.0,0.0,0.0,0.0,0.0,0.0,0.0,0.0,0.0,0.0,0.0,0.0,0.0,0.0,0.0,0.0,0.0,0.0,920.696,1.2087913,991.6117,817.1429,633.8095,-0.0712890625,0.0294189453125,0.98687744140625,2.27294921875,-3.386993408203125,0.755157470703125,0.0,4.0,4.0,4.0,4.0,100.0,event
14:34:24.656,0.0,0.0,0.0,0.0,0.0,0.0,0.0,0.0,0.0,0.0,0.0,0.0,0.0,0.0,0.0,0.0,0.0,0.0,0.0,0.0,691.4286,1474.7252,686.5934,809.0842,676.1172,-0.0712890625,0.0294189453125,0.98687744140625,2.27294921875,-3.386993408203125,0.755157470703125,0.0,4.0,4.0,4.0,4.0,100.0,event
14:34:24.656,0.0,0.0,0.0,0.0,0.0,0.0,0.0,0.0,0.0,0.0,0.0,0.0,0.0,0.0,0.0,0.0,0.0,0.0,0.0,0.0,651.13556,1535.5677,825.6044,815.12823,688.60803,-0.0712890625,0.0294189453125,0.98687744140625,2.27294921875,-3.386993408203125,0.755157470703125,0.0,4.0,4.0,4.0,4.0,100.0,event
14:34:24.680,0.0,0.0,0.0,0.0,0.0,0.0,0.0,0.0,0.0,0.0,0.0,0.0,0.0,0.0,0.0,0.0,0.0,0.0,0.0,0.0,811.0989,3.2234433,1108.8645,825.2015,636.63007,-0.0712890625,0.0294189453125,0.98687744140625,2.27294921875,-3.386993408203125,0.755157470703125,0.0,4.0,4.0,4.0,4.0,100.0,event
14:34:24.682,0.0,0.0,0.0,0.0,0.0,0.0,0.0,0.0,0.0,0.0,0.0,0.0,0.0,0.0,0.0,0.0,0.0,0.0,0.0,0.0,987.5824,1617.7656,1132.6373,834.0659,711.978,-0.0712890625,0.0294189453125,0.98687744140625,2.27294921875,-3.386993408203125,0.755157470703125,0.0,4.0,4.0,4.0,4.0,100.0,event
14:34:24.683,0.0,0.0,0.0,0.0,0.0,0.0,0.0,0.0,0.0,0.0,0.0,0.0,0.0,0.0,0.0,0.0,0.0,0.0,0.0,0.0,928.3516,1488.8279,901.3553,832.4542,830.0366,-0.0712890625,0.0294189453125,0.98687744140625,2.27294921875,-3.386993408203125,0.755157470703125,0.0,4.0,4.0,4.0,4.0,100.0,event
14:34:24.684,0.0,0.0,0.0,0.0,0.0,0.0,0.0,0.0,0.0,0.0,0.0,0.0,0.0,0.0,0.0,0.0,0.0,0.0,0.0,0.0,708.3516,1411.8682,748.24176,823.5897,757.9121,-0.0712890625,0.0294189453125,0.98687744140625,2.27294921875,-3.386993408203125,0.755157470703125,0.0,4.0,4.0,4.0,4.0,100.0,event
14:34:24.685,0.0,0.0,0.0,0.0,0.0,0.0,0.0,0.0,0.0,0.0,0.0,0.0,0.0,0.0,0.0,0.0,0.0,0.0,0.0,0.0,649.92676,1392.5275,748.6447,820.3663,780.07324,-0.0712890625,0.0294189453125,0.98687744140625,2.27294921875,-3.386993408203125,0.755157470703125,0.0,4.0,4.0,4.0,4.0,100.0,event
14:34:24.686,0.0,0.0,0.0,0.0,0.0,0.0,0.0,0.0,0.0,0.0,0.0,0.0,0.0,0.0,0.0,0.0,0.0,0.0,0.0,0.0,797.3993,1488.022,870.32965,825.6044,863.47986,-0.0712890625,0.0294189453125,0.98687744140625,2.27294921875,-3.386993408203125,0.755157470703125,0.0,4.0,4.0,4.0,4.0,100.0,event
14:34:24.687,0.0,0.0,0.0,0.0,0.0,0.0,0.0,0.0,0.0,0.0,0.0,0.0,0.0,0.0,0.0,0.0,0.0,0.0,0.0,0.0,975.4945,1157.2161,560.07324,857.4359,1079.0476,-0.0712890625,0.0294189453125,0.98687744140625,2.27294921875,-3.386993408203125,0.755157470703125,0.0,4.0,4.0,4.0,4.0,100.0,event
14:34:24.688,0.0,0.0,0.0,0.0,0.0,0.0,0.0,0.0,0.0,0.0,0.0,0.0,0.0,0.0,0.0,0.0,0.0,0.0,0.0,0.0,938.4249,1031.5018,163.18681,851.79486,1253.5165,-0.0712890625,0.0294189453125,0.98687744140625,2.27294921875,-3.386993408203125,0.755157470703125,0.0,4.0,4.0,4.0,4.0,100.0,event
14:34:24.688,0.0,0.0,0.0,0.0,0.0,0.0,0.0,0.0,0.0,0.0,0.0,0.0,0.0,0.0,0.0,0.0,0.0,0.0,0.0,0.0,733.3333,1606.0806,576.1905,815.9341,784.5055,-0.0712890625,0.0294189453125,0.98687744140625,2.27294921875,-3.386993408203125,0.755157470703125,0.0,4.0,4.0,4.0,4.0,100.0,event
14:34:24.689,0.0,0.0,0.0,0.0,0.0,0.0,0.0,0.0,0.0,0.0,0.0,0.0,0.0,0.0,0.0,0.0,0.0,0.0,0.0,0.0,638.24176,1605.6776,837.6923,809.4872,590.293,-0.0712890625,0.0294189453125,0.98687744140625,2.27294921875,-3.386993408203125,0.755157470703125,0.0,4.0,4.0,4.0,4.0,100.0,event
14:34:24.693,0.0,0.0,0.0,0.0,0.0,0.0,0.0,0.0,0.0,0.0,0.0,0.0,0.0,0.0,0.0,0.0,0.0,0.0,0.0,0.0,749.85345,1497.6923,934.3956,816.7399,734.94507,-0.0712890625,0.0294189453125,0.98687744140625,2.27294921875,-3.386993408203125,0.755157470703125,0.0,4.0,4.0,4.0,4.0,100.0,event
14:34:24.694,0.0,0.0,0.0,0.0,0.0,0.0,0.0,0.0,0.0,0.0,0.0,0.0,0.0,0.0,0.0,0.0,0.0,0.0,0.0,0.0,968.6447,1581.9048,1139.0842,832.4542,722.8571,-0.0712890625,0.0294189453125,0.98687744140625,2.27294921875,-3.386993408203125,0.755157470703125,0.0,4.0,4.0,4.0,4.0,100.0,event
14:34:24.790,0.0,0.0,0.0,0.0,0.0,0.0,0.0,0.0,0.0,0.0,0.0,0.0,0.0,0.0,0.0,0.0,0.0,0.0,0.0,0.0,978.71796,1514.6154,1137.0696,830.84247,714.3956,-0.068603515625,0.02740478515625,0.98291015625,1.786956787109375,-3.327178955078125,0.052337646484375,0.0,4.0,4.0,4.0,4.0,100.0,event
14:34:24.792,0.0,0.0,0.0,0.0,0.0,0.0,0.0,0.0,0.0,0.0,0.0,0.0,0.0,0.0,0.0,0.0,0.0,0.0,0.0,0.0,738.5714,1210.0,773.6264,824.7985,749.0476,-0.068603515625,0.02740478515625,0.98291015625,1.786956787109375,-3.327178955078125,0.052337646484375,0.0,4.0,4.0,4.0,4.0,100.0,event
14:34:24.793,0.0,0.0,0.0,0.0,0.0,0.0,0.0,0.0,0.0,0.0,0.0,0.0,0.0,0.0,0.0,0.0,0.0,0.0,0.0,0.0,624.5421,1164.4689,672.0879,818.7546,743.8095,-0.068603515625,0.02740478515625,0.98291015625,1.786956787109375,-3.327178955078125,0.052337646484375,0.0,4.0,4.0,4.0,4.0,100.0,event
14:34:24.795,0.0,0.0,0.0,0.0,0.0,0.0,0.0,0.0,0.0,0.0,0.0,0.0,0.0,0.0,0.0,0.0,0.0,0.0,0.0,0.0,728.0952,1416.7032,1006.52014,808.68134,671.685,-0.068603515625,0.02740478515625,0.98291015625,1.786956787109375,-3.327178955078125,0.052337646484375,0.0,4.0,4.0,4.0,4.0,100.0,event
14:34:24.797,0.0,0.0,0.0,0.0,0.0,0.0,0.0,0.0,0.0,0.0,0.0,0.0,0.0,0.0,0.0,0.0,0.0,0.0,0.0,0.0,923.91943,1423.956,1113.2968,808.2784,625.34796,-0.068603515625,0.02740478515625,0.98291015625,1.786956787109375,-3.327178955078125,0.052337646484375,0.0,4.0,4.0,4.0,4.0,100.0,event
14:34:24.798,0.0,0.0,0.0,0.0,0.0,0.0,0.0,0.0,0.0,0.0,0.0,0.0,0.0,0.0,0.0,0.0,0.0,0.0,0.0,0.0,960.989,1039.9634,727.28937,815.5311,814.3223,-0.068603515625,0.02740478515625,0.98291015625,1.786956787109375,-3.327178955078125,0.052337646484375,0.0,4.0,4.0,4.0,4.0,100.0,event
14:34:24.800,0.0,0.0,0.0,0.0,0.0,0.0,0.0,0.0,0.0,0.0,0.0,0.0,0.0,0.0,0.0,0.0,0.0,0.0,0.0,0.0,754.68866,850.58606,321.13553,808.2784,936.4103,-0.068603515625,0.02740478515625,0.98291015625,1.786956787109375,-3.327178955078125,0.052337646484375,0.0,4.0,4.0,4.0,4.0,100.0,event
14:34:24.802,0.0,0.0,0.0,0.0,0.0,0.0,0.0,0.0,0.0,0.0,0.0,0.0,0.0,0.0,0.0,0.0,0.0,0.0,0.0,0.0,626.1539,1183.8096,498.82785,794.17584,765.16486,-0.068603515625,0.02740478515625,0.98291015625,1.786956787109375,-3.327178955078125,0.052337646484375,0.0,4.0,4.0,4.0,4.0,100.0,event
14:34:24.803,0.0,0.0,0.0,0.0,0.0,0.0,0.0,0.0,0.0,0.0,0.0,0.0,0.0,0.0,0.0,0.0,0.0,0.0,0.0,0.0,712.7839,1476.337,927.1429,794.9817,657.1795,-0.068603515625,0.02740478515625,0.98291015625,1.786956787109375,-3.327178955078125,0.052337646484375,0.0,4.0,4.0,4.0,4.0,100.0,event
14:34:24.804,0.0,0.0,0.0,0.0,0.0,0.0,0.0,0.0,0.0,0.0,0.0,0.0,0.0,0.0,0.0,0.0,0.0,0.0,0.0,0.0,898.93774,1189.8535,841.7216,812.71063,811.9048,-0.068603515625,0.02740478515625,0.98291015625,1.786956787109375,-3.327178955078125,0.052337646484375,0.0,4.0,4.0,4.0,4.0,100.0,event
14:34:24.805,0.0,0.0,0.0,0.0,0.0,0.0,0.0,0.0,0.0,0.0,0.0,0.0,0.0,0.0,0.0,0.0,0.0,0.0,0.0,0.0,950.5128,892.0879,386.00732,817.9487,957.3626,-0.068603515625,0.02740478515625,0.98291015625,1.786956787109375,-3.327178955078125,0.052337646484375,0.0,4.0,4.0,4.0,4.0,100.0,event
14:34:24.806,0.0,0.0,0.0,0.0,0.0,0.0,0.0,0.0,0.0,0.0,0.0,0.0,0.0,0.0,0.0,0.0,0.0,0.0,0.0,0.0,803.0403,1354.652,657.98535,812.71063,760.7326,-0.068603515625,0.02740478515625,0.98291015625,1.786956787109375,-3.327178955078125,0.052337646484375,0.0,4.0,4.0,4.0,4.0,100.0,event
14:34:24.807,0.0,0.0,0.0,0.0,0.0,0.0,0.0,0.0,0.0,0.0,0.0,0.0,0.0,0.0,0.0,0.0,0.0,0.0,0.0,0.0,657.5824,1385.2748,892.0879,813.91943,673.2967,-0.07080078125,0.02679443359375,0.985107421875,2.3626708984375,-3.42437744140625,0.276641845703125,0.0,4.0,4.0,4.0,4.0,100.0,event
14:34:24.808,0.0,0.0,0.0,0.0,0.0,0.0,0.0,0.0,0.0,0.0,0.0,0.0,0.0,0.0,0.0,0.0,0.0,0.0,0.0,0.0,705.12823,1246.2638,877.98535,836.4835,720.4396,-0.07080078125,0.02679443359375,0.985107421875,2.3626708984375,-3.42437744140625,0.276641845703125,0.0,4.0,4.0,4.0,4.0,100.0,event
14:34:24.808,0.0,0.0,0.0,0.0,0.0,0.0,0.0,0.0,0.0,0.0,0.0,0.0,0.0,0.0,0.0,0.0,0.0,0.0,0.0,0.0,916.26373,1336.9231,1012.1612,840.10986,743.4066,-0.07080078125,0.02679443359375,0.985107421875,2.3626708984375,-3.42437744140625,0.276641845703125,0.0,4.0,4.0,4.0,4.0,100.0,event
14:34:24.809,0.0,0.0,0.0,0.0,0.0,0.0,0.0,0.0,0.0,0.0,0.0,0.0,0.0,0.0,0.0,0.0,0.0,0.0,0.0,0.0,853.00366,1144.7252,913.0403,822.7839,787.72894,-0.07080078125,0.02679443359375,0.985107421875,2.3626708984375,-3.42437744140625,0.276641845703125,0.0,4.0,4.0,4.0,4.0,100.0,event
14:34:24.809,0.0,0.0,0.0,0.0,0.0,0.0,0.0,0.0,0.0,0.0,0.0,0.0,0.0,0.0,0.0,0.0,0.0,0.0,0.0,0.0,1009.7436,1365.9341,1137.0696,825.2015,761.13556,-0.07080078125,0.02679443359375,0.985107421875,2.3626708984375,-3.42437744140625,0.276641845703125,0.0,4.0,4.0,4.0,4.0,100.0,event
14:34:24.810,0.0,0.0,0.0,0.0,0.0,0.0,0.0,0.0,0.0,0.0,0.0,0.0,0.0,0.0,0.0,0.0,0.0,0.0,0.0,0.0,672.8938,925.5311,586.26373,819.15753,853.4066,-0.07080078125,0.02679443359375,0.985107421875,2.3626708984375,-3.42437744140625,0.276641845703125,0.0,4.0,4.0,4.0,4.0,100.0,event
14:34:24.811,0.0,0.0,0.0,0.0,0.0,0.0,0.0,0.0,0.0,0.0,0.0,0.0,0.0,0.0,0.0,0.0,0.0,0.0,0.0,0.0,689.011,1021.4286,580.2198,826.0073,846.9597,-0.07080078125,0.02679443359375,0.985107421875,2.3626708984375,-3.42437744140625,0.276641845703125,0.0,4.0,4.0,4.0,4.0,100.0,event
14:34:24.811,0.0,0.0,0.0,0.0,0.0,0.0,0.0,0.0,0.0,0.0,0.0,0.0,0.0,0.0,0.0,0.0,0.0,0.0,0.0,0.0,905.38464,1319.1941,925.5311,836.4835,736.55676,-0.07080078125,0.02679443359375,0.985107421875,2.3626708984375,-3.42437744140625,0.276641845703125,0.0,4.0,4.0,4.0,4.0,100.0,event
14:34:24.812,0.0,0.0,0.0,0.0,0.0,0.0,0.0,0.0,0.0,0.0,0.0,0.0,0.0,0.0,0.0,0.0,0.0,0.0,0.0,0.0,1012.1612,1325.641,1090.7325,822.7839,754.68866,-0.07080078125,0.02679443359375,0.985107421875,2.3626708984375,-3.42437744140625,0.276641845703125,0.0,4.0,4.0,4.0,4.0,100.0,event
14:34:24.813,0.0,0.0,0.0,0.0,0.0,0.0,0.0,0.0,0.0,0.0,0.0,0.0,0.0,0.0,0.0,0.0,0.0,0.0,0.0,0.0,817.9487,812.71063,486.337,797.8022,944.0659,-0.07080078125,0.02679443359375,0.985107421875,2.3626708984375,-3.42437744140625,0.276641845703125,0.0,4.0,4.0,4.0,4.0,100.0,event
14:34:24.813,0.0,0.0,0.0,0.0,0.0,0.0,0.0,0.0,0.0,0.0,0.0,0.0,0.0,0.0,0.0,0.0,0.0,0.0,0.0,0.0,609.6337,879.59705,270.3663,789.34064,907.8022,-0.07080078125,0.02679443359375,0.985107421875,2.3626708984375,-3.42437744140625,0.276641845703125,0.0,4.0,4.0,4.0,4.0,100.0,event
14:34:24.814,0.0,0.0,0.0,0.0,0.0,0.0,0.0,0.0,0.0,0.0,0.0,0.0,0.0,0.0,0.0,0.0,0.0,0.0,0.0,0.0,616.8865,1380.4396,848.1685,785.31134,685.78754,-0.07080078125,0.02679443359375,0.985107421875,2.3626708984375,-3.42437744140625,0.276641845703125,0.0,4.0,4.0,4.0,4.0,100.0,event
14:34:24.839,0.0,0.0,0.0,0.0,0.0,0.0,0.0,0.0,0.0,0.0,0.0,0.0,0.0,0.0,0.0,0.0,0.0,0.0,0.0,0.0,805.4579,1288.5714,1021.8315,799.011,741.39197,-0.06915283203125,0.03167724609375,0.9884033203125,2.220611572265625,-4.0673828125,0.261688232421875,0.0,4.0,4.0,4.0,4.0,100.0,event
14:34:24.841,0.0,0.0,0.0,0.0,0.0,0.0,0.0,0.0,0.0,0.0,0.0,0.0,0.0,0.0,0.0,0.0,0.0,0.0,0.0,0.0,960.989,1094.762,835.6777,810.696,922.3077,-0.06915283203125,0.03167724609375,0.9884033203125,2.220611572265625,-4.0673828125,0.261688232421875,0.0,4.0,4.0,4.0,4.0,100.0,event
14:34:24.841,0.0,0.0,0.0,0.0,0.0,0.0,0.0,0.0,0.0,0.0,0.0,0.0,0.0,0.0,0.0,0.0,0.0,0.0,0.0,0.0,880.0,1208.7913,855.42126,811.50183,848.97437,-0.06915283203125,0.03167724609375,0.9884033203125,2.220611572265625,-4.0673828125,0.261688232421875,0.0,4.0,4.0,4.0,4.0,100.0,event
14:34:24.842,0.0,0.0,0.0,0.0,0.0,0.0,0.0,0.0,0.0,0.0,0.0,0.0,0.0,0.0,0.0,0.0,0.0,0.0,0.0,0.0,669.67035,1199.9268,862.27106,812.3077,670.87915,-0.06915283203125,0.03167724609375,0.9884033203125,2.220611572265625,-4.0673828125,0.261688232421875,0.0,4.0,4.0,4.0,4.0,100.0,event
14:34:24.842,0.0,0.0,0.0,0.0,0.0,0.0,0.0,0.0,0.0,0.0,0.0,0.0,0.0,0.0,0.0,0.0,0.0,0.0,0.0,0.0,625.7509,1084.2858,829.2308,793.7729,737.76556,-0.06915283203125,0.03167724609375,0.9884033203125,2.220611572265625,-4.0673828125,0.261688232421875,0.0,4.0,4.0,4.0,4.0,100.0,event
14:34:24.843,0.0,0.0,0.0,0.0,0.0,0.0,0.0,0.0,0.0,0.0,0.0,0.0,0.0,0.0,0.0,0.0,0.0,0.0,0.0,0.0,787.326,1013.36993,761.9414,799.011,912.23444,-0.06915283203125,0.03167724609375,0.9884033203125,2.220611572265625,-4.0673828125,0.261688232421875,0.0,4.0,4.0,4.0,4.0,100.0,event
14:34:24.844,0.0,0.0,0.0,0.0,0.0,0.0,0.0,0.0,0.0,0.0,0.0,0.0,0.0,0.0,0.0,0.0,0.0,0.0,0.0,0.0,971.4652,1140.6959,814.3223,809.89014,895.7143,-0.06915283203125,0.03167724609375,0.9884033203125,2.220611572265625,-4.0673828125,0.261688232421875,0.0,4.0,4.0,4.0,4.0,100.0,event
14:34:24.845,0.0,0.0,0.0,0.0,0.0,0.0,0.0,0.0,0.0,0.0,0.0,0.0,0.0,0.0,0.0,0.0,0.0,0.0,0.0,0.0,906.1905,1255.9341,910.2198,805.05493,767.98535,-0.06915283203125,0.03167724609375,0.9884033203125,2.220611572265625,-4.0673828125,0.261688232421875,0.0,4.0,4.0,4.0,4.0,100.0,event
14:34:24.846,0.0,0.0,0.0,0.0,0.0,0.0,0.0,0.0,0.0,0.0,0.0,0.0,0.0,0.0,0.0,0.0,0.0,0.0,0.0,0.0,654.7619,884.0293,554.43225,801.8315,773.6264,-0.06915283203125,0.03167724609375,0.9884033203125,2.220611572265625,-4.0673828125,0.261688232421875,0.0,4.0,4.0,4.0,4.0,100.0,event
14:34:24.848,0.0,0.0,0.0,0.0,0.0,0.0,0.0,0.0,0.0,0.0,0.0,0.0,0.0,0.0,0.0,0.0,0.0,0.0,0.0,0.0,599.5604,751.8681,276.8132,807.47253,885.64105,-0.06915283203125,0.03167724609375,0.9884033203125,2.220611572265625,-4.0673828125,0.261688232421875,0.0,4.0,4.0,4.0,4.0,100.0,event
14:34:24.849,0.0,0.0,0.0,0.0,0.0,0.0,0.0,0.0,0.0,0.0,0.0,0.0,0.0,0.0,0.0,0.0,0.0,0.0,0.0,0.0,789.7436,1417.1062,892.8938,808.68134,761.9414,-0.06915283203125,0.03167724609375,0.9884033203125,2.220611572265625,-4.0673828125,0.261688232421875,0.0,4.0,4.0,4.0,4.0,100.0,event
14:34:24.850,0.0,0.0,0.0,0.0,0.0,0.0,0.0,0.0,0.0,0.0,0.0,0.0,0.0,0.0,0.0,0.0,0.0,0.0,0.0,0.0,984.35895,1457.8022,1175.751,815.5311,687.8022,-0.06915283203125,0.03167724609375,0.9884033203125,2.220611572265625,-4.0673828125,0.261688232421875,0.0,4.0,4.0,4.0,4.0,100.0,event
14:34:24.873,0.0,0.0,0.0,0.0,0.0,0.0,0.0,0.0,0.0,0.0,0.0,0.0,0.0,0.0,0.0,0.0,0.0,0.0,0.0,0.0,931.1722,1110.8792,821.1722,812.3077,715.6044,-0.06732177734375,0.029052734375,0.986572265625,2.011260986328125,-3.626251220703125,0.471038818359375,0.0,4.0,4.0,4.0,4.0,100.0,event
14:34:24.874,0.0,0.0,0.0,0.0,0.0,0.0,0.0,0.0,0.0,0.0,0.0,0.0,0.0,0.0,0.0,0.0,0.0,0.0,0.0,0.0,694.2491,1020.6227,599.5604,802.23444,786.9231,-0.06732177734375,0.029052734375,0.986572265625,2.011260986328125,-3.626251220703125,0.471038818359375,0.0,4.0,4.0,4.0,4.0,100.0,event
14:34:24.875,0.0,0.0,0.0,0.0,0.0,0.0,0.0,0.0,0.0,0.0,0.0,0.0,0.0,0.0,0.0,0.0,0.0,0.0,0.0,0.0,635.42126,1180.989,807.0696,798.60803,766.3736,-0.06732177734375,0.029052734375,0.986572265625,2.011260986328125,-3.626251220703125,0.471038818359375,0.0,4.0,4.0,4.0,4.0,100.0,event
14:34:24.876,0.0,0.0,0.0,0.0,0.0,0.0,0.0,0.0,0.0,0.0,0.0,0.0,0.0,0.0,0.0,0.0,0.0,0.0,0.0,0.0,782.0879,1296.63,1116.1172,806.26373,698.68134,-0.06732177734375,0.029052734375,0.986572265625,2.011260986328125,-3.626251220703125,0.471038818359375,0.0,4.0,4.0,4.0,4.0,100.0,event
14:34:24.877,0.0,0.0,0.0,0.0,0.0,0.0,0.0,0.0,0.0,0.0,0.0,0.0,0.0,0.0,0.0,0.0,0.0,0.0,0.0,0.0,956.1539,1039.9634,882.8205,821.1722,824.3956,-0.06732177734375,0.029052734375,0.986572265625,2.011260986328125,-3.626251220703125,0.471038818359375,0.0,4.0,4.0,4.0,4.0,100.0,event
14:34:24.878,0.0,0.0,0.0,0.0,0.0,0.0,0.0,0.0,0.0,0.0,0.0,0.0,0.0,0.0,0.0,0.0,0.0,0.0,0.0,0.0,950.5128,940.84247,590.696,818.7546,933.1868,-0.06732177734375,0.029052734375,0.986572265625,2.011260986328125,-3.626251220703125,0.471038818359375,0.0,4.0,4.0,4.0,4.0,100.0,event
14:34:24.879,0.0,0.0,0.0,0.0,0.0,0.0,0.0,0.0,0.0,0.0,0.0,0.0,0.0,0.0,0.0,0.0,0.0,0.0,0.0,0.0,743.00366,1039.1575,599.9634,813.5165,886.4469,-0.06732177734375,0.029052734375,0.986572265625,2.011260986328125,-3.626251220703125,0.471038818359375,0.0,4.0,4.0,4.0,4.0,100.0,event
14:34:24.880,0.0,0.0,0.0,0.0,0.0,0.0,0.0,0.0,0.0,0.0,0.0,0.0,0.0,0.0,0.0,0.0,0.0,0.0,0.0,0.0,647.1062,1197.5092,839.304,801.8315,765.9707,-0.06732177734375,0.029052734375,0.986572265625,2.011260986328125,-3.626251220703125,0.471038818359375,0.0,4.0,4.0,4.0,4.0,100.0,event
14:34:24.881,0.0,0.0,0.0,0.0,0.0,0.0,0.0,0.0,0.0,0.0,0.0,0.0,0.0,0.0,0.0,0.0,0.0,0.0,0.0,0.0,727.6923,869.92676,598.7546,795.78754,913.0403,-0.06732177734375,0.029052734375,0.986572265625,2.011260986328125,-3.626251220703125,0.471038818359375,0.0,4.0,4.0,4.0,4.0,100.0,event
14:34:24.881,0.0,0.0,0.0,0.0,0.0,0.0,0.0,0.0,0.0,0.0,0.0,0.0,0.0,0.0,0.0,0.0,0.0,0.0,0.0,0.0,931.5751,1007.72894,616.8865,810.293,983.1502,-0.06732177734375,0.029052734375,0.986572265625,2.011260986328125,-3.626251220703125,0.471038818359375,0.0,4.0,4.0,4.0,4.0,100.0,event
14:34:24.882,0.0,0.0,0.0,0.0,0.0,0.0,0.0,0.0,0.0,0.0,0.0,0.0,0.0,0.0,0.0,0.0,0.0,0.0,0.0,0.0,990.80585,1383.663,1060.1099,811.0989,739.3773,-0.06732177734375,0.029052734375,0.986572265625,2.011260986328125,-3.626251220703125,0.471038818359375,0.0,4.0,4.0,4.0,4.0,100.0,event
14:34:24.883,0.0,0.0,0.0,0.0,0.0,0.0,0.0,0.0,0.0,0.0,0.0,0.0,0.0,0.0,0.0,0.0,0.0,0.0,0.0,0.0,765.9707,958.97437,665.2381,795.78754,743.00366,-0.06732177734375,0.029052734375,0.986572265625,2.011260986328125,-3.626251220703125,0.471038818359375,0.0,4.0,4.0,4.0,4.0,100.0,event
14:34:24.927,0.0,0.0,0.0,0.0,0.0,0.0,0.0,0.0,0.0,0.0,0.0,0.0,0.0,0.0,0.0,0.0,0.0,0.0,0.0,0.0,632.6007,998.0586,633.4066,790.14655,761.9414,-0.06732177734375,0.029052734375,0.986572265625,2.011260986328125,-3.626251220703125,0.471038818359375,0.0,4.0,4.0,4.0,4.0,100.0,event
14:34:24.928,0.0,0.0,0.0,0.0,0.0,0.0,0.0,0.0,0.0,0.0,0.0,0.0,0.0,0.0,0.0,0.0,0.0,0.0,0.0,0.0,727.28937,1287.7656,1042.7839,802.6374,707.5458,-0.06732177734375,0.029052734375,0.986572265625,2.011260986328125,-3.626251220703125,0.471038818359375,0.0,4.0,4.0,4.0,4.0,100.0,event
14:34:24.933,0.0,0.0,0.0,0.0,0.0,0.0,0.0,0.0,0.0,0.0,0.0,0.0,0.0,0.0,0.0,0.0,0.0,0.0,0.0,0.0,938.4249,1323.6263,1245.8608,814.7253,728.0952,-0.06732177734375,0.029052734375,0.986572265625,2.011260986328125,-3.626251220703125,0.471038818359375,0.0,4.0,4.0,4.0,4.0,100.0,event
14:34:24.934,0.0,0.0,0.0,0.0,0.0,0.0,0.0,0.0,0.0,0.0,0.0,0.0,0.0,0.0,0.0,0.0,0.0,0.0,0.0,0.0,993.22345,1070.989,1044.3956,817.9487,830.84247,-0.06732177734375,0.029052734375,0.986572265625,2.011260986328125,-3.626251220703125,0.471038818359375,0.0,4.0,4.0,4.0,4.0,100.0,event
14:34:24.934,0.0,0.0,0.0,0.0,0.0,0.0,0.0,0.0,0.0,0.0,0.0,0.0,0.0,0.0,0.0,0.0,0.0,0.0,0.0,0.0,784.90845,857.4359,683.7729,804.65204,895.31134,-0.06732177734375,0.029052734375,0.986572265625,2.011260986328125,-3.626251220703125,0.471038818359375,0.0,4.0,4.0,4.0,4.0,100.0,event
14:34:24.935,0.0,0.0,0.0,0.0,0.0,0.0,0.0,0.0,0.0,0.0,0.0,0.0,0.0,0.0,0.0,0.0,0.0,0.0,0.0,0.0,629.3773,970.2564,708.3516,808.2784,896.9231,-0.06732177734375,0.029052734375,0.986572265625,2.011260986328125,-3.626251220703125,0.471038818359375,0.0,4.0,4.0,4.0,4.0,100.0,event
14:34:24.936,0.0,0.0,0.0,0.0,0.0,0.0,0.0,0.0,0.0,0.0,0.0,0.0,0.0,0.0,0.0,0.0,0.0,0.0,0.0,0.0,703.91943,1092.3444,863.0769,818.3516,902.96704,-0.06732177734375,0.029052734375,0.986572265625,2.011260986328125,-3.626251220703125,0.471038818359375,0.0,4.0,4.0,4.0,4.0,100.0,event
14:34:24.936,0.0,0.0,0.0,0.0,0.0,0.0,0.0,0.0,0.0,0.0,0.0,0.0,0.0,0.0,0.0,0.0,0.0,0.0,0.0,0.0,905.38464,983.1502,821.978,813.1135,938.022,-0.06732177734375,0.029052734375,0.986572265625,2.011260986328125,-3.626251220703125,0.471038818359375,0.0,4.0,4.0,4.0,4.0,100.0,event
14:34:24.937,0.0,0.0,0.0,0.0,0.0,0.0,0.0,0.0,0.0,0.0,0.0,0.0,0.0,0.0,0.0,0.0,0.0,0.0,0.0,0.0,974.2857,617.28937,324.35898,832.8571,1139.4872,-0.06732177734375,0.029052734375,0.986572265625,2.011260986328125,-3.626251220703125,0.471038818359375,0.0,4.0,4.0,4.0,4.0,100.0,event
14:34:24.938,0.0,0.0,0.0,0.0,0.0,0.0,0.0,0.0,0.0,0.0,0.0,0.0,0.0,0.0,0.0,0.0,0.0,0.0,0.0,0.0,828.022,997.6557,419.45056,828.8278,922.3077,-0.06732177734375,0.029052734375,0.986572265625,2.011260986328125,-3.626251220703125,0.471038818359375,0.0,4.0,4.0,4.0,4.0,100.0,event
14:34:24.939,0.0,0.0,0.0,0.0,0.0,0.0,0.0,0.0,0.0,0.0,0.0,0.0,0.0,0.0,0.0,0.0,0.0,0.0,0.0,0.0,668.86444,1364.7252,921.0989,803.0403,617.6923,-0.06732177734375,0.029052734375,0.986572265625,2.011260986328125,-3.626251220703125,0.471038818359375,0.0,4.0,4.0,4.0,4.0,100.0,event
14:34:24.939,0.0,0.0,0.0,0.0,0.0,0.0,0.0,0.0,0.0,0.0,0.0,0.0,0.0,0.0,0.0,0.0,0.0,0.0,0.0,0.0,688.60803,1141.5018,918.68134,812.71063,682.5641,-0.06732177734375,0.029052734375,0.986572265625,2.011260986328125,-3.626251220703125,0.471038818359375,0.0,4.0,4.0,4.0,4.0,100.0,event
14:34:24.990,0.0,0.0,0.0,0.0,0.0,0.0,0.0,0.0,0.0,0.0,0.0,0.0,0.0,0.0,0.0,0.0,0.0,0.0,0.0,0.0,894.10254,1204.359,1052.0513,822.381,726.4835,-0.06964111328125,0.0284423828125,0.986328125,2.130889892578125,-3.386993408203125,0.082244873046875,0.0,4.0,4.0,4.0,4.0,100.0,event
14:34:24.992,0.0,0.0,0.0,0.0,0.0,0.0,0.0,0.0,0.0,0.0,0.0,0.0,0.0,0.0,0.0,0.0,0.0,0.0,0.0,0.0,1013.36993,1240.6227,1162.4542,828.022,718.4249,-0.06964111328125,0.0284423828125,0.986328125,2.130889892578125,-3.386993408203125,0.082244873046875,0.0,4.0,4.0,4.0,4.0,100.0,event
14:34:24.993,0.0,0.0,0.0,0.0,0.0,0.0,0.0,0.0,0.0,0.0,0.0,0.0,0.0,0.0,0.0,0.0,0.0,0.0,0.0,0.0,855.42126,1024.249,936.4103,819.9634,716.0073,-0.06964111328125,0.0284423828125,0.986328125,2.130889892578125,-3.386993408203125,0.082244873046875,0.0,4.0,4.0,4.0,4.0,100.0,event
14:34:24.994,0.0,0.0,0.0,0.0,0.0,0.0,0.0,0.0,0.0,0.0,0.0,0.0,0.0,0.0,0.0,0.0,0.0,0.0,0.0,0.0,665.64105,929.15753,753.47986,815.12823,705.12823,-0.06964111328125,0.0284423828125,0.986328125,2.130889892578125,-3.386993408203125,0.082244873046875,0.0,4.0,4.0,4.0,4.0,100.0,event
14:34:24.996,0.0,0.0,0.0,0.0,0.0,0.0,0.0,0.0,0.0,0.0,0.0,0.0,0.0,0.0,0.0,0.0,0.0,0.0,0.0,0.0,687.3993,1068.1685,935.2015,818.7546,691.02563,-0.06964111328125,0.0284423828125,0.986328125,2.130889892578125,-3.386993408203125,0.082244873046875,0.0,4.0,4.0,4.0,4.0,100.0,event
14:34:24.997,0.0,0.0,0.0,0.0,0.0,0.0,0.0,0.0,0.0,0.0,0.0,0.0,0.0,0.0,0.0,0.0,0.0,0.0,0.0,0.0,873.95605,1050.8425,979.92676,825.2015,750.65936,-0.06964111328125,0.0284423828125,0.986328125,2.130889892578125,-3.386993408203125,0.082244873046875,0.0,4.0,4.0,4.0,4.0,100.0,event
14:34:24.999,0.0,0.0,0.0,0.0,0.0,0.0,0.0,0.0,0.0,0.0,0.0,0.0,0.0,0.0,0.0,0.0,0.0,0.0,0.0,0.0,1013.36993,1007.326,854.21246,833.2601,796.99634,-0.06964111328125,0.0284423828125,0.986328125,2.130889892578125,-3.386993408203125,0.082244873046875,0.0,4.0,4.0,4.0,4.0,100.0,event
14:34:25.001,0.0,0.0,0.0,0.0,0.0,0.0,0.0,0.0,0.0,0.0,0.0,0.0,0.0,0.0,0.0,0.0,0.0,0.0,0.0,0.0,887.6557,612.8571,355.3846,830.4396,1000.87915,-0.06964111328125,0.0284423828125,0.986328125,2.130889892578125,-3.386993408203125,0.082244873046875,0.0,4.0,4.0,4.0,4.0,100.0,event
14:34:25.003,0.0,0.0,0.0,0.0,0.0,0.0,0.0,0.0,0.0,0.0,0.0,0.0,0.0,0.0,0.0,0.0,0.0,0.0,0.0,0.0,678.93774,708.7546,208.71794,826.8132,1014.9817,-0.06964111328125,0.0284423828125,0.986328125,2.130889892578125,-3.386993408203125,0.082244873046875,0.0,4.0,4.0,4.0,4.0,100.0,event
14:34:25.005,0.0,0.0,0.0,0.0,0.0,0.0,0.0,0.0,0.0,0.0,0.0,0.0,0.0,0.0,0.0,0.0,0.0,0.0,0.0,0.0,678.1319,1418.7179,945.2747,834.87177,686.1905,-0.06964111328125,0.0284423828125,0.986328125,2.130889892578125,-3.386993408203125,0.082244873046875,0.0,4.0,4.0,4.0,4.0,100.0,event
14:34:25.007,0.0,0.0,0.0,0.0,0.0,0.0,0.0,0.0,0.0,0.0,0.0,0.0,0.0,0.0,0.0,0.0,0.0,0.0,0.0,0.0,851.39197,1258.3517,1077.4359,838.49817,655.56775,-0.06964111328125,0.0284423828125,0.986328125,2.130889892578125,-3.386993408203125,0.082244873046875,0.0,4.0,4.0,4.0,4.0,100.0,event
14:34:25.008,0.0,0.0,0.0,0.0,0.0,0.0,0.0,0.0,0.0,0.0,0.0,0.0,0.0,0.0,0.0,0.0,0.0,0.0,0.0,0.0,1011.75824,1038.7546,889.2674,835.2747,749.85345,-0.06964111328125,0.0284423828125,0.986328125,2.130889892578125,-3.386993408203125,0.082244873046875,0.0,4.0,4.0,4.0,4.0,100.0,event
14:34:25.029,0.0,0.0,0.0,0.0,0.0,0.0,0.0,0.0,0.0,0.0,0.0,0.0,0.0,0.0,0.0,0.0,0.0,0.0,0.0,0.0,946.08057,1107.2528,890.4762,836.08057,709.15753,-0.069091796875,0.033203125,0.98431396484375,2.4224853515625,-3.671112060546875,0.299072265625,0.0,4.0,4.0,4.0,4.0,100.0,event
14:34:25.030,0.0,0.0,0.0,0.0,0.0,0.0,0.0,0.0,0.0,0.0,0.0,0.0,0.0,0.0,0.0,0.0,0.0,0.0,0.0,0.0,736.55676,1111.6849,924.3223,830.0366,622.1245,-0.069091796875,0.033203125,0.98431396484375,2.4224853515625,-3.671112060546875,0.299072265625,0.0,4.0,4.0,4.0,4.0,100.0,event
14:34:25.031,0.0,0.0,0.0,0.0,0.0,0.0,0.0,0.0,0.0,0.0,0.0,0.0,0.0,0.0,0.0,0.0,0.0,0.0,0.0,0.0,685.78754,990.40295,873.95605,825.2015,708.3516,-0.069091796875,0.033203125,0.98431396484375,2.4224853515625,-3.671112060546875,0.299072265625,0.0,4.0,4.0,4.0,4.0,100.0,event
14:34:25.032,0.0,0.0,0.0,0.0,0.0,0.0,0.0,0.0,0.0,0.0,0.0,0.0,0.0,0.0,0.0,0.0,0.0,0.0,0.0,0.0,847.3626,1052.4542,977.50916,834.0659,826.4103,-0.069091796875,0.033203125,0.98431396484375,2.4224853515625,-3.671112060546875,0.299072265625,0.0,4.0,4.0,4.0,4.0,100.0,event
14:34:25.035,0.0,0.0,0.0,0.0,0.0,0.0,0.0,0.0,0.0,0.0,0.0,0.0,0.0,0.0,0.0,0.0,0.0,0.0,0.0,0.0,1027.4725,1151.978,1146.7399,836.4835,803.44324,-0.069091796875,0.033203125,0.98431396484375,2.4224853515625,-3.671112060546875,0.299072265625,0.0,4.0,4.0,4.0,4.0,100.0,event
14:34:25.036,0.0,0.0,0.0,0.0,0.0,0.0,0.0,0.0,0.0,0.0,0.0,0.0,0.0,0.0,0.0,0.0,0.0,0.0,0.0,0.0,961.39197,946.4835,873.95605,824.3956,830.4396,-0.069091796875,0.033203125,0.98431396484375,2.4224853515625,-3.671112060546875,0.299072265625,0.0,4.0,4.0,4.0,4.0,100.0,event
14:34:25.037,0.0,0.0,0.0,0.0,0.0,0.0,0.0,0.0,0.0,0.0,0.0,0.0,0.0,0.0,0.0,0.0,0.0,0.0,0.0,0.0,713.1868,689.81683,479.48718,815.9341,956.55676,-0.069091796875,0.033203125,0.98431396484375,2.4224853515625,-3.671112060546875,0.299072265625,0.0,4.0,4.0,4.0,4.0,100.0,event
14:34:25.037,0.0,0.0,0.0,0.0,0.0,0.0,0.0,0.0,0.0,0.0,0.0,0.0,0.0,0.0,0.0,0.0,0.0,0.0,0.0,0.0,645.89746,702.71063,312.27106,833.663,1027.8755,-0.069091796875,0.033203125,0.98431396484375,2.4224853515625,-3.671112060546875,0.299072265625,0.0,4.0,4.0,4.0,4.0,100.0,event
14:34:25.038,0.0,0.0,0.0,0.0,0.0,0.0,0.0,0.0,0.0,0.0,0.0,0.0,0.0,0.0,0.0,0.0,0.0,0.0,0.0,0.0,803.8461,1314.762,894.90845,835.2747,826.4103,-0.069091796875,0.033203125,0.98431396484375,2.4224853515625,-3.671112060546875,0.299072265625,0.0,4.0,4.0,4.0,4.0,100.0,event
14:34:25.039,0.0,0.0,0.0,0.0,0.0,0.0,0.0,0.0,0.0,0.0,0.0,0.0,0.0,0.0,0.0,0.0,0.0,0.0,0.0,0.0,942.4542,982.3443,841.7216,820.3663,840.5128,-0.069091796875,0.033203125,0.98431396484375,2.4224853515625,-3.671112060546875,0.299072265625,0.0,4.0,4.0,4.0,4.0,100.0,event
14:34:25.039,0.0,0.0,0.0,0.0,0.0,0.0,0.0,0.0,0.0,0.0,0.0,0.0,0.0,0.0,0.0,0.0,0.0,0.0,0.0,0.0,980.7326,1430.8059,1256.337,820.3663,746.63007,-0.069091796875,0.033203125,0.98431396484375,2.4224853515625,-3.671112060546875,0.299072265625,0.0,4.0,4.0,4.0,4.0,100.0,event
14:34:25.040,0.0,0.0,0.0,0.0,0.0,0.0,0.0,0.0,0.0,0.0,0.0,0.0,0.0,0.0,0.0,0.0,0.0,0.0,0.0,0.0,720.4396,874.35895,602.7839,801.4286,788.5348,-0.069091796875,0.033203125,0.98431396484375,2.4224853515625,-3.671112060546875,0.299072265625,0.0,4.0,4.0,4.0,4.0,100.0,event
14:34:25.079,0.0,0.0,0.0,0.0,0.0,0.0,0.0,0.0,0.0,0.0,0.0,0.0,0.0,0.0,0.0,0.0,0.0,0.0,0.0,0.0,636.63007,1158.8279,909.81683,795.78754,687.3993,-0.066162109375,0.0286865234375,0.98431396484375,2.0037841796875,-3.33465576171875,0.478515625,0.0,4.0,4.0,4.0,4.0,100.0,event
14:34:25.081,0.0,0.0,0.0,0.0,0.0,0.0,0.0,0.0,0.0,0.0,0.0,0.0,0.0,0.0,0.0,0.0,0.0,0.0,0.0,0.0,751.4652,1229.7435,1198.3151,811.9048,727.28937,-0.066162109375,0.0286865234375,0.98431396484375,2.0037841796875,-3.33465576171875,0.478515625,0.0,4.0,4.0,4.0,4.0,100.0,event
14:34:25.082,0.0,0.0,0.0,0.0,0.0,0.0,0.0,0.0,0.0,0.0,0.0,0.0,0.0,0.0,0.0,0.0,0.0,0.0,0.0,0.0,937.2161,933.5897,894.90845,823.1868,833.663,-0.066162109375,0.0286865234375,0.98431396484375,2.0037841796875,-3.33465576171875,0.478515625,0.0,4.0,4.0,4.0,4.0,100.0,event
14:34:25.083,0.0,0.0,0.0,0.0,0.0,0.0,0.0,0.0,0.0,0.0,0.0,0.0,0.0,0.0,0.0,0.0,0.0,0.0,0.0,0.0,968.6447,980.32965,728.0952,822.7839,810.293,-0.066162109375,0.0286865234375,0.98431396484375,2.0037841796875,-3.33465576171875,0.478515625,0.0,4.0,4.0,4.0,4.0,100.0,event
14:34:25.084,0.0,0.0,0.0,0.0,0.0,0.0,0.0,0.0,0.0,0.0,0.0,0.0,0.0,0.0,0.0,0.0,0.0,0.0,0.0,0.0,771.2088,1143.1135,871.13556,817.9487,729.707,-0.066162109375,0.0286865234375,0.98431396484375,2.0037841796875,-3.33465576171875,0.478515625,0.0,4.0,4.0,4.0,4.0,100.0,event
14:34:25.086,0.0,0.0,0.0,0.0,0.0,0.0,0.0,0.0,0.0,0.0,0.0,0.0,0.0,0.0,0.0,0.0,0.0,0.0,0.0,0.0,632.1978,1042.7839,832.8571,812.3077,769.59705,-0.066162109375,0.0286865234375,0.98431396484375,2.0037841796875,-3.33465576171875,0.478515625,0.0,4.0,4.0,4.0,4.0,100.0,event
14:34:25.087,0.0,0.0,0.0,0.0,0.0,0.0,0.0,0.0,0.0,0.0,0.0,0.0,0.0,0.0,0.0,0.0,0.0,0.0,0.0,0.0,686.1905,775.64105,546.77655,816.7399,1023.44324,-0.066162109375,0.0286865234375,0.98431396484375,2.0037841796875,-3.33465576171875,0.478515625,0.0,4.0,4.0,4.0,4.0,100.0,event
14:34:25.088,0.0,0.0,0.0,0.0,0.0,0.0,0.0,0.0,0.0,0.0,0.0,0.0,0.0,0.0,0.0,0.0,0.0,0.0,0.0,0.0,896.1172,947.28937,576.1905,826.0073,1033.9194,-0.066162109375,0.0286865234375,0.98431396484375,2.0037841796875,-3.33465576171875,0.478515625,0.0,4.0,4.0,4.0,4.0,100.0,event
14:34:25.089,0.0,0.0,0.0,0.0,0.0,0.0,0.0,0.0,0.0,0.0,0.0,0.0,0.0,0.0,0.0,0.0,0.0,0.0,0.0,0.0,771.2088,1129.414,827.2161,813.5165,646.7033,-0.066162109375,0.0286865234375,0.98431396484375,2.0037841796875,-3.33465576171875,0.478515625,0.0,4.0,4.0,4.0,4.0,100.0,event
14:34:25.089,0.0,0.0,0.0,0.0,0.0,0.0,0.0,0.0,0.0,0.0,0.0,0.0,0.0,0.0,0.0,0.0,0.0,0.0,0.0,0.0,985.16486,1409.0476,1021.8315,818.7546,700.293,-0.066162109375,0.0286865234375,0.98431396484375,2.0037841796875,-3.33465576171875,0.478515625,0.0,4.0,4.0,4.0,4.0,100.0,event
14:34:25.090,0.0,0.0,0.0,0.0,0.0,0.0,0.0,0.0,0.0,0.0,0.0,0.0,0.0,0.0,0.0,0.0,0.0,0.0,0.0,0.0,611.2454,1050.4396,735.7509,801.02563,701.0989,-0.066162109375,0.0286865234375,0.98431396484375,2.0037841796875,-3.33465576171875,0.478515625,0.0,4.0,4.0,4.0,4.0,100.0,event
14:34:25.091,0.0,0.0,0.0,0.0,0.0,0.0,0.0,0.0,0.0,0.0,0.0,0.0,0.0,0.0,0.0,0.0,0.0,0.0,0.0,0.0,687.8022,1269.6337,1039.5604,802.6374,692.23444,-0.066162109375,0.0286865234375,0.98431396484375,2.0037841796875,-3.33465576171875,0.478515625,0.0,4.0,4.0,4.0,4.0,100.0,event
14:34:25.130,0.0,0.0,0.0,0.0,0.0,0.0,0.0,0.0,0.0,0.0,0.0,0.0,0.0,0.0,0.0,0.0,0.0,0.0,0.0,0.0,900.54944,1353.8462,1267.619,828.022,722.8571,-0.066162109375,0.0286865234375,0.98431396484375,2.0037841796875,-3.33465576171875,0.478515625,0.0,4.0,4.0,4.0,4.0,100.0,event
14:34:25.131,0.0,0.0,0.0,0.0,0.0,0.0,0.0,0.0,0.0,0.0,0.0,0.0,0.0,0.0,0.0,0.0,0.0,0.0,0.0,0.0,978.315,1126.1904,1073.4066,812.3077,888.86444,-0.066162109375,0.0286865234375,0.98431396484375,2.0037841796875,-3.33465576171875,0.478515625,0.0,4.0,4.0,4.0,4.0,100.0,event
14:34:25.132,0.0,0.0,0.0,0.0,0.0,0.0,0.0,0.0,0.0,0.0,0.0,0.0,0.0,0.0,0.0,0.0,0.0,0.0,0.0,0.0,798.20514,918.68134,720.0366,791.3553,925.12823,-0.066162109375,0.0286865234375,0.98431396484375,2.0037841796875,-3.33465576171875,0.478515625,0.0,4.0,4.0,4.0,4.0,100.0,event
14:34:25.134,0.0,0.0,0.0,0.0,0.0,0.0,0.0,0.0,0.0,0.0,0.0,0.0,0.0,0.0,0.0,0.0,0.0,0.0,0.0,0.0,643.0769,1135.0549,881.6117,792.5641,786.1172,-0.066162109375,0.0286865234375,0.98431396484375,2.0037841796875,-3.33465576171875,0.478515625,0.0,4.0,4.0,4.0,4.0,100.0,event
14:34:25.135,0.0,0.0,0.0,0.0,0.0,0.0,0.0,0.0,0.0,0.0,0.0,0.0,0.0,0.0,0.0,0.0,0.0,0.0,0.0,0.0,693.0403,1232.1611,1100.0,799.011,689.011,-0.066162109375,0.0286865234375,0.98431396484375,2.0037841796875,-3.33465576171875,0.478515625,0.0,4.0,4.0,4.0,4.0,100.0,event
14:34:25.136,0.0,0.0,0.0,0.0,0.0,0.0,0.0,0.0,0.0,0.0,0.0,0.0,0.0,0.0,0.0,0.0,0.0,0.0,0.0,0.0,894.5055,994.43225,946.4835,814.3223,833.663,-0.066162109375,0.0286865234375,0.98431396484375,2.0037841796875,-3.33465576171875,0.478515625,0.0,4.0,4.0,4.0,4.0,100.0,event
14:34:25.139,0.0,0.0,0.0,0.0,0.0,0.0,0.0,0.0,0.0,0.0,0.0,0.0,0.0,0.0,0.0,0.0,0.0,0.0,0.0,0.0,980.7326,531.4652,268.75458,821.5751,1174.5421,-0.066162109375,0.0286865234375,0.98431396484375,2.0037841796875,-3.33465576171875,0.478515625,0.0,4.0,4.0,4.0,4.0,100.0,event
14:34:25.140,0.0,0.0,0.0,0.0,0.0,0.0,0.0,0.0,0.0,0.0,0.0,0.0,0.0,0.0,0.0,0.0,0.0,0.0,0.0,0.0,844.5421,972.27106,334.43222,809.4872,1017.8022,-0.066162109375,0.0286865234375,0.98431396484375,2.0037841796875,-3.33465576171875,0.478515625,0.0,4.0,4.0,4.0,4.0,100.0,event
14:34:25.141,0.0,0.0,0.0,0.0,0.0,0.0,0.0,0.0,0.0,0.0,0.0,0.0,0.0,0.0,0.0,0.0,0.0,0.0,0.0,0.0,681.3553,1502.5275,972.27106,796.99634,697.8755,-0.066162109375,0.0286865234375,0.98431396484375,2.0037841796875,-3.33465576171875,0.478515625,0.0,4.0,4.0,4.0,4.0,100.0,event
14:34:25.141,0.0,0.0,0.0,0.0,0.0,0.0,0.0,0.0,0.0,0.0,0.0,0.0,0.0,0.0,0.0,0.0,0.0,0.0,0.0,0.0,679.34064,1212.8206,920.293,796.5934,766.3736,-0.066162109375,0.0286865234375,0.98431396484375,2.0037841796875,-3.33465576171875,0.478515625,0.0,4.0,4.0,4.0,4.0,100.0,event
14:34:25.142,0.0,0.0,0.0,0.0,0.0,0.0,0.0,0.0,0.0,0.0,0.0,0.0,0.0,0.0,0.0,0.0,0.0,0.0,0.0,0.0,883.6264,1262.7839,1031.9048,809.4872,850.58606,-0.066162109375,0.0286865234375,0.98431396484375,2.0037841796875,-3.33465576171875,0.478515625,0.0,4.0,4.0,4.0,4.0,100.0,event
14:34:25.143,0.0,0.0,0.0,0.0,0.0,0.0,0.0,0.0,0.0,0.0,0.0,0.0,0.0,0.0,0.0,0.0,0.0,0.0,0.0,0.0,1019.81683,1370.3663,1213.6263,819.9634,791.3553,-0.066162109375,0.0286865234375,0.98431396484375,2.0037841796875,-3.33465576171875,0.478515625,0.0,4.0,4.0,4.0,4.0,100.0,event
14:34:25.179,0.0,0.0,0.0,0.0,0.0,0.0,0.0,0.0,0.0,0.0,0.0,0.0,0.0,0.0,0.0,0.0,0.0,0.0,0.0,0.0,889.67035,1163.663,1032.7106,803.0403,757.9121,-0.07171630859375,0.028564453125,0.98956298828125,1.89910888671875,-3.386993408203125,0.441131591796875,0.0,4.0,4.0,4.0,4.0,100.0,event
14:34:25.180,0.0,0.0,0.0,0.0,0.0,0.0,0.0,0.0,0.0,0.0,0.0,0.0,0.0,0.0,0.0,0.0,0.0,0.0,0.0,0.0,740.989,1031.5018,835.6777,794.57874,770.80585,-0.07171630859375,0.028564453125,0.98956298828125,1.89910888671875,-3.386993408203125,0.441131591796875,0.0,4.0,4.0,4.0,4.0,100.0,event
14:34:25.181,0.0,0.0,0.0,0.0,0.0,0.0,0.0,0.0,0.0,0.0,0.0,0.0,0.0,0.0,0.0,0.0,0.0,0.0,0.0,0.0,693.8461,1164.4689,964.61536,810.293,759.5238,-0.07171630859375,0.028564453125,0.98956298828125,1.89910888671875,-3.386993408203125,0.441131591796875,0.0,4.0,4.0,4.0,4.0,100.0,event
14:34:25.182,0.0,0.0,0.0,0.0,0.0,0.0,0.0,0.0,0.0,0.0,0.0,0.0,0.0,0.0,0.0,0.0,0.0,0.0,0.0,0.0,831.6484,1314.762,1233.773,819.9634,728.0952,-0.07171630859375,0.028564453125,0.98956298828125,1.89910888671875,-3.386993408203125,0.441131591796875,0.0,4.0,4.0,4.0,4.0,100.0,event
14:34:25.183,0.0,0.0,0.0,0.0,0.0,0.0,0.0,0.0,0.0,0.0,0.0,0.0,0.0,0.0,0.0,0.0,0.0,0.0,0.0,0.0,1015.78754,1204.359,1158.4249,825.2015,751.06226,-0.07171630859375,0.028564453125,0.98956298828125,1.89910888671875,-3.386993408203125,0.441131591796875,0.0,4.0,4.0,4.0,4.0,100.0,event
14:34:25.183,0.0,0.0,0.0,0.0,0.0,0.0,0.0,0.0,0.0,0.0,0.0,0.0,0.0,0.0,0.0,0.0,0.0,0.0,0.0,0.0,894.10254,958.97437,766.77655,819.15753,910.6227,-0.07171630859375,0.028564453125,0.98956298828125,1.89910888671875,-3.386993408203125,0.441131591796875,0.0,4.0,4.0,4.0,4.0,100.0,event
14:34:25.184,0.0,0.0,0.0,0.0,0.0,0.0,0.0,0.0,0.0,0.0,0.0,0.0,0.0,0.0,0.0,0.0,0.0,0.0,0.0,0.0,672.0879,952.52747,576.1905,811.50183,925.12823,-0.07171630859375,0.028564453125,0.98956298828125,1.89910888671875,-3.386993408203125,0.441131591796875,0.0,4.0,4.0,4.0,4.0,100.0,event
14:34:25.184,0.0,0.0,0.0,0.0,0.0,0.0,0.0,0.0,0.0,0.0,0.0,0.0,0.0,0.0,0.0,0.0,0.0,0.0,0.0,0.0,652.74725,1151.5751,770.80585,806.6667,874.35895,-0.07171630859375,0.028564453125,0.98956298828125,1.89910888671875,-3.386993408203125,0.441131591796875,0.0,4.0,4.0,4.0,4.0,100.0,event
14:34:25.185,0.0,0.0,0.0,0.0,0.0,0.0,0.0,0.0,0.0,0.0,0.0,0.0,0.0,0.0,0.0,0.0,0.0,0.0,0.0,0.0,838.0952,1352.6373,1151.978,809.89014,846.9597,-0.07171630859375,0.028564453125,0.98956298828125,1.89910888671875,-3.386993408203125,0.441131591796875,0.0,4.0,4.0,4.0,4.0,100.0,event
14:34:25.185,0.0,0.0,0.0,0.0,0.0,0.0,0.0,0.0,0.0,0.0,0.0,0.0,0.0,0.0,0.0,0.0,0.0,0.0,0.0,0.0,1001.685,861.4652,724.87177,831.6484,1027.0696,-0.07171630859375,0.028564453125,0.98956298828125,1.89910888671875,-3.386993408203125,0.441131591796875,0.0,4.0,4.0,4.0,4.0,100.0,event
14:34:25.186,0.0,0.0,0.0,0.0,0.0,0.0,0.0,0.0,0.0,0.0,0.0,0.0,0.0,0.0,0.0,0.0,0.0,0.0,0.0,0.0,923.91943,830.0366,379.96338,823.9927,1038.7546,-0.07171630859375,0.028564453125,0.98956298828125,1.89910888671875,-3.386993408203125,0.441131591796875,0.0,4.0,4.0,4.0,4.0,100.0,event
14:34:25.186,0.0,0.0,0.0,0.0,0.0,0.0,0.0,0.0,0.0,0.0,0.0,0.0,0.0,0.0,0.0,0.0,0.0,0.0,0.0,0.0,725.2747,1424.762,945.2747,795.78754,738.5714,-0.07171630859375,0.028564453125,0.98956298828125,1.89910888671875,-3.386993408203125,0.441131591796875,0.0,4.0,4.0,4.0,4.0,100.0,event
14:34:25.235,0.0,0.0,0.0,0.0,0.0,0.0,0.0,0.0,0.0,0.0,0.0,0.0,0.0,0.0,0.0,0.0,0.0,0.0,0.0,0.0,663.6264,1222.4908,999.67035,817.5458,750.2564,-0.06829833984375,0.02587890625,0.98248291015625,2.041168212890625,-3.162689208984375,-0.25421142578125,0.0,4.0,4.0,4.0,4.0,100.0,event
14:34:25.236,0.0,0.0,0.0,0.0,0.0,0.0,0.0,0.0,0.0,0.0,0.0,0.0,0.0,0.0,0.0,0.0,0.0,0.0,0.0,0.0,805.8608,1115.7142,963.4066,842.52747,768.3883,-0.06829833984375,0.02587890625,0.98248291015625,2.041168212890625,-3.162689208984375,-0.25421142578125,0.0,4.0,4.0,4.0,4.0,100.0,event
14:34:25.238,0.0,0.0,0.0,0.0,0.0,0.0,0.0,0.0,0.0,0.0,0.0,0.0,0.0,0.0,0.0,0.0,0.0,0.0,0.0,0.0,980.32965,1257.1428,1131.4286,816.337,747.4359,-0.06829833984375,0.02587890625,0.98248291015625,2.041168212890625,-3.162689208984375,-0.25421142578125,0.0,4.0,4.0,4.0,4.0,100.0,event
14:34:25.239,0.0,0.0,0.0,0.0,0.0,0.0,0.0,0.0,0.0,0.0,0.0,0.0,0.0,0.0,0.0,0.0,0.0,0.0,0.0,0.0,940.4396,1199.5238,1114.9084,794.9817,736.55676,-0.06829833984375,0.02587890625,0.98248291015625,2.041168212890625,-3.162689208984375,-0.25421142578125,0.0,4.0,4.0,4.0,4.0,100.0,event
14:34:25.241,0.0,0.0,0.0,0.0,0.0,0.0,0.0,0.0,0.0,0.0,0.0,0.0,0.0,0.0,0.0,0.0,0.0,0.0,0.0,0.0,713.5897,942.4542,809.0842,799.41394,747.03296,-0.06829833984375,0.02587890625,0.98248291015625,2.041168212890625,-3.162689208984375,-0.25421142578125,0.0,4.0,4.0,4.0,4.0,100.0,event
14:34:25.243,0.0,0.0,0.0,0.0,0.0,0.0,0.0,0.0,0.0,0.0,0.0,0.0,0.0,0.0,0.0,0.0,0.0,0.0,0.0,0.0,624.5421,844.94507,587.8755,793.36993,798.60803,-0.06829833984375,0.02587890625,0.98248291015625,2.041168212890625,-3.162689208984375,-0.25421142578125,0.0,4.0,4.0,4.0,4.0,100.0,event
14:34:25.244,0.0,0.0,0.0,0.0,0.0,0.0,0.0,0.0,0.0,0.0,0.0,0.0,0.0,0.0,0.0,0.0,0.0,0.0,0.0,0.0,750.65936,1069.7803,762.74725,790.54944,774.43225,-0.06829833984375,0.02587890625,0.98248291015625,2.041168212890625,-3.162689208984375,-0.25421142578125,0.0,4.0,4.0,4.0,4.0,100.0,event
14:34:25.245,0.0,0.0,0.0,0.0,0.0,0.0,0.0,0.0,0.0,0.0,0.0,0.0,0.0,0.0,0.0,0.0,0.0,0.0,0.0,0.0,963.8095,1296.63,1039.1575,805.05493,728.9011,-0.06829833984375,0.02587890625,0.98248291015625,2.041168212890625,-3.162689208984375,-0.25421142578125,0.0,4.0,4.0,4.0,4.0,100.0,event
14:34:25.249,0.0,0.0,0.0,0.0,0.0,0.0,0.0,0.0,0.0,0.0,0.0,0.0,0.0,0.0,0.0,0.0,0.0,0.0,0.0,0.0,964.61536,999.2674,814.7253,804.2491,892.0879,-0.06829833984375,0.02587890625,0.98248291015625,2.041168212890625,-3.162689208984375,-0.25421142578125,0.0,4.0,4.0,4.0,4.0,100.0,event
14:34:25.249,0.0,0.0,0.0,0.0,0.0,0.0,0.0,0.0,0.0,0.0,0.0,0.0,0.0,0.0,0.0,0.0,0.0,0.0,0.0,0.0,726.08057,564.10254,163.99268,797.8022,1160.4396,-0.06829833984375,0.02587890625,0.98248291015625,2.041168212890625,-3.162689208984375,-0.25421142578125,0.0,4.0,4.0,4.0,4.0,100.0,event
14:34:25.250,0.0,0.0,0.0,0.0,0.0,0.0,0.0,0.0,0.0,0.0,0.0,0.0,0.0,0.0,0.0,0.0,0.0,0.0,0.0,0.0,630.58606,1172.9304,559.67035,789.34064,923.91943,-0.06829833984375,0.02587890625,0.98248291015625,2.041168212890625,-3.162689208984375,-0.25421142578125,0.0,4.0,4.0,4.0,4.0,100.0,event
14:34:25.251,0.0,0.0,0.0,0.0,0.0,0.0,0.0,0.0,0.0,0.0,0.0,0.0,0.0,0.0,0.0,0.0,0.0,0.0,0.0,0.0,732.1245,1514.2124,1191.4652,792.96704,683.36993,-0.06829833984375,0.02587890625,0.98248291015625,2.041168212890625,-3.162689208984375,-0.25421142578125,0.0,4.0,4.0,4.0,4.0,100.0,event
14:34:25.292,0.0,0.0,0.0,0.0,0.0,0.0,0.0,0.0,0.0,0.0,0.0,0.0,0.0,0.0,0.0,0.0,0.0,0.0,0.0,0.0,926.337,1205.1648,1090.7325,808.2784,792.96704,-0.069091796875,0.028564453125,0.9927978515625,2.370147705078125,-3.57391357421875,0.007476806640625,0.0,4.0,4.0,4.0,4.0,100.0,event
14:34:25.294,0.0,0.0,0.0,0.0,0.0,0.0,0.0,0.0,0.0,0.0,0.0,0.0,0.0,0.0,0.0,0.0,0.0,0.0,0.0,0.0,969.45056,1152.7839,1008.93774,809.4872,809.4872,-0.069091796875,0.028564453125,0.9927978515625,2.370147705078125,-3.57391357421875,0.007476806640625,0.0,4.0,4.0,4.0,4.0,100.0,event
14:34:25.296,0.0,0.0,0.0,0.0,0.0,0.0,0.0,0.0,0.0,0.0,0.0,0.0,0.0,0.0,0.0,0.0,0.0,0.0,0.0,0.0,773.22345,1108.4615,979.12085,814.7253,690.2198,-0.069091796875,0.028564453125,0.9927978515625,2.370147705078125,-3.57391357421875,0.007476806640625,0.0,4.0,4.0,4.0,4.0,100.0,event
14:34:25.298,0.0,0.0,0.0,0.0,0.0,0.0,0.0,0.0,0.0,0.0,0.0,0.0,0.0,0.0,0.0,0.0,0.0,0.0,0.0,0.0,633.00366,1028.2784,942.0513,803.0403,641.06226,-0.069091796875,0.028564453125,0.9927978515625,2.370147705078125,-3.57391357421875,0.007476806640625,0.0,4.0,4.0,4.0,4.0,100.0,event
14:34:25.299,0.0,0.0,0.0,0.0,0.0,0.0,0.0,0.0,0.0,0.0,0.0,0.0,0.0,0.0,0.0,0.0,0.0,0.0,0.0,0.0,709.15753,1006.9231,945.2747,796.99634,710.3663,-0.069091796875,0.028564453125,0.9927978515625,2.370147705078125,-3.57391357421875,0.007476806640625,0.0,4.0,4.0,4.0,4.0,100.0,event
14:34:25.301,0.0,0.0,0.0,0.0,0.0,0.0,0.0,0.0,0.0,0.0,0.0,0.0,0.0,0.0,0.0,0.0,0.0,0.0,0.0,0.0,917.47253,974.2857,865.09155,814.3223,818.7546,-0.069091796875,0.028564453125,0.9927978515625,2.370147705078125,-3.57391357421875,0.007476806640625,0.0,4.0,4.0,4.0,4.0,100.0,event
14:34:25.303,0.0,0.0,0.0,0.0,0.0,0.0,0.0,0.0,0.0,0.0,0.0,0.0,0.0,0.0,0.0,0.0,0.0,0.0,0.0,0.0,992.4176,983.5531,781.685,812.71063,844.94507,-0.069091796875,0.028564453125,0.9927978515625,2.370147705078125,-3.57391357421875,0.007476806640625,0.0,4.0,4.0,4.0,4.0,100.0,event
14:34:25.304,0.0,0.0,0.0,0.0,0.0,0.0,0.0,0.0,0.0,0.0,0.0,0.0,0.0,0.0,0.0,0.0,0.0,0.0,0.0,0.0,821.5751,1064.1392,856.2271,804.2491,774.0293,-0.069091796875,0.028564453125,0.9927978515625,2.370147705078125,-3.57391357421875,0.007476806640625,0.0,4.0,4.0,4.0,4.0,100.0,event
14:34:25.306,0.0,0.0,0.0,0.0,0.0,0.0,0.0,0.0,0.0,0.0,0.0,0.0,0.0,0.0,0.0,0.0,0.0,0.0,0.0,0.0,647.9121,659.59705,441.61172,809.89014,896.52014,-0.069091796875,0.028564453125,0.9927978515625,2.370147705078125,-3.57391357421875,0.007476806640625,0.0,4.0,4.0,4.0,4.0,100.0,event
14:34:25.307,0.0,0.0,0.0,0.0,0.0,0.0,0.0,0.0,0.0,0.0,0.0,0.0,0.0,0.0,0.0,0.0,0.0,0.0,0.0,0.0,698.2784,842.52747,493.1868,813.5165,911.8315,-0.069091796875,0.028564453125,0.9927978515625,2.370147705078125,-3.57391357421875,0.007476806640625,0.0,4.0,4.0,4.0,4.0,100.0,event
14:34:25.309,0.0,0.0,0.0,0.0,0.0,0.0,0.0,0.0,0.0,0.0,0.0,0.0,0.0,0.0,0.0,0.0,0.0,0.0,0.0,0.0,912.6374,1407.033,1210.0,813.1135,722.8571,-0.069091796875,0.028564453125,0.9927978515625,2.370147705078125,-3.57391357421875,0.007476806640625,0.0,4.0,4.0,4.0,4.0,100.0,event
14:34:25.310,0.0,0.0,0.0,0.0,0.0,0.0,0.0,0.0,0.0,0.0,0.0,0.0,0.0,0.0,0.0,0.0,0.0,0.0,0.0,0.0,1000.07324,1018.60803,978.315,824.7985,794.17584,-0.069091796875,0.028564453125,0.9927978515625,2.370147705078125,-3.57391357421875,0.007476806640625,0.0,4.0,4.0,4.0,4.0,100.0,event
14:34:25.361,0.0,0.0,0.0,0.0,0.0,0.0,0.0,0.0,0.0,0.0,0.0,0.0,0.0,0.0,0.0,0.0,0.0,0.0,0.0,0.0,830.4396,805.05493,618.49817,820.7692,859.0476,-0.0650634765625,0.027099609375,0.9801025390625,1.54022216796875,-4.104766845703125,-0.2392578125,0.0,4.0,4.0,4.0,4.0,100.0,event
14:34:25.363,0.0,0.0,0.0,0.0,0.0,0.0,0.0,0.0,0.0,0.0,0.0,0.0,0.0,0.0,0.0,0.0,0.0,0.0,0.0,0.0,650.7326,1057.6923,829.6337,800.2198,711.5751,-0.0650634765625,0.027099609375,0.9801025390625,1.54022216796875,-4.104766845703125,-0.2392578125,0.0,4.0,4.0,4.0,4.0,100.0,event
14:34:25.364,0.0,0.0,0.0,0.0,0.0,0.0,0.0,0.0,0.0,0.0,0.0,0.0,0.0,0.0,0.0,0.0,0.0,0.0,0.0,0.0,679.7436,1157.619,1129.8169,813.1135,624.94507,-0.0650634765625,0.027099609375,0.9801025390625,1.54022216796875,-4.104766845703125,-0.2392578125,0.0,4.0,4.0,4.0,4.0,100.0,event
14:34:25.365,0.0,0.0,0.0,0.0,0.0,0.0,0.0,0.0,0.0,0.0,0.0,0.0,0.0,0.0,0.0,0.0,0.0,0.0,0.0,0.0,875.56775,962.1978,1052.4542,826.4103,689.011,-0.0650634765625,0.027099609375,0.9801025390625,1.54022216796875,-4.104766845703125,-0.2392578125,0.0,4.0,4.0,4.0,4.0,100.0,event
14:34:25.367,0.0,0.0,0.0,0.0,0.0,0.0,0.0,0.0,0.0,0.0,0.0,0.0,0.0,0.0,0.0,0.0,0.0,0.0,0.0,0.0,998.0586,909.41394,933.5897,811.50183,815.5311,-0.0650634765625,0.027099609375,0.9801025390625,1.54022216796875,-4.104766845703125,-0.2392578125,0.0,4.0,4.0,4.0,4.0,100.0,event
14:34:25.368,0.0,0.0,0.0,0.0,0.0,0.0,0.0,0.0,0.0,0.0,0.0,0.0,0.0,0.0,0.0,0.0,0.0,0.0,0.0,0.0,851.79486,860.65936,789.7436,803.8461,838.9011,-0.0650634765625,0.027099609375,0.9801025390625,1.54022216796875,-4.104766845703125,-0.2392578125,0.0,4.0,4.0,4.0,4.0,100.0,event
14:34:25.369,0.0,0.0,0.0,0.0,0.0,0.0,0.0,0.0,0.0,0.0,0.0,0.0,0.0,0.0,0.0,0.0,0.0,0.0,0.0,0.0,653.1502,846.9597,678.93774,803.44324,781.28204,-0.0650634765625,0.027099609375,0.9801025390625,1.54022216796875,-4.104766845703125,-0.2392578125,0.0,4.0,4.0,4.0,4.0,100.0,event
14:34:25.371,0.0,0.0,0.0,0.0,0.0,0.0,0.0,0.0,0.0,0.0,0.0,0.0,0.0,0.0,0.0,0.0,0.0,0.0,0.0,0.0,659.19415,804.2491,710.3663,813.91943,890.4762,-0.0650634765625,0.027099609375,0.9801025390625,1.54022216796875,-4.104766845703125,-0.2392578125,0.0,4.0,4.0,4.0,4.0,100.0,event
14:34:25.371,0.0,0.0,0.0,0.0,0.0,0.0,0.0,0.0,0.0,0.0,0.0,0.0,0.0,0.0,0.0,0.0,0.0,0.0,0.0,0.0,845.34796,696.6667,570.9524,829.6337,1010.54944,-0.0650634765625,0.027099609375,0.9801025390625,1.54022216796875,-4.104766845703125,-0.2392578125,0.0,4.0,4.0,4.0,4.0,100.0,event
14:34:25.372,0.0,0.0,0.0,0.0,0.0,0.0,0.0,0.0,0.0,0.0,0.0,0.0,0.0,0.0,0.0,0.0,0.0,0.0,0.0,0.0,1007.72894,1180.989,974.68866,826.4103,873.5531,-0.0650634765625,0.027099609375,0.9801025390625,1.54022216796875,-4.104766845703125,-0.2392578125,0.0,4.0,4.0,4.0,4.0,100.0,event
14:34:25.375,0.0,0.0,0.0,0.0,0.0,0.0,0.0,0.0,0.0,0.0,0.0,0.0,0.0,0.0,0.0,0.0,0.0,0.0,0.0,0.0,902.1612,1141.5018,1135.8608,824.3956,749.85345,-0.0650634765625,0.027099609375,0.9801025390625,1.54022216796875,-4.104766845703125,-0.2392578125,0.0,4.0,4.0,4.0,4.0,100.0,event
14:34:25.376,0.0,0.0,0.0,0.0,0.0,0.0,0.0,0.0,0.0,0.0,0.0,0.0,0.0,0.0,0.0,0.0,0.0,0.0,0.0,0.0,676.1172,721.6484,710.7692,825.2015,757.1062,-0.0650634765625,0.027099609375,0.9801025390625,1.54022216796875,-4.104766845703125,-0.2392578125,0.0,4.0,4.0,4.0,4.0,100.0,event
14:34:25.377,0.0,0.0,0.0,0.0,0.0,0.0,0.0,0.0,0.0,0.0,0.0,0.0,0.0,0.0,0.0,0.0,0.0,0.0,0.0,0.0,667.6557,892.49084,858.24176,819.15753,730.5128,-0.0650634765625,0.027099609375,0.9801025390625,1.54022216796875,-4.104766845703125,-0.2392578125,0.0,4.0,4.0,4.0,4.0,100.0,event
14:34:25.377,0.0,0.0,0.0,0.0,0.0,0.0,0.0,0.0,0.0,0.0,0.0,0.0,0.0,0.0,0.0,0.0,0.0,0.0,0.0,0.0,849.3773,1093.5531,1243.0403,818.7546,703.5165,-0.0650634765625,0.027099609375,0.9801025390625,1.54022216796875,-4.104766845703125,-0.2392578125,0.0,4.0,4.0,4.0,4.0,100.0,event
14:34:25.378,0.0,0.0,0.0,0.0,0.0,0.0,0.0,0.0,0.0,0.0,0.0,0.0,0.0,0.0,0.0,0.0,0.0,0.0,0.0,0.0,1002.49084,877.5824,1095.5677,833.663,775.2381,-0.0650634765625,0.027099609375,0.9801025390625,1.54022216796875,-4.104766845703125,-0.2392578125,0.0,4.0,4.0,4.0,4.0,100.0,event
14:34:25.379,0.0,0.0,0.0,0.0,0.0,0.0,0.0,0.0,0.0,0.0,0.0,0.0,0.0,0.0,0.0,0.0,0.0,0.0,0.0,0.0,925.12823,619.304,680.14655,838.0952,863.47986,-0.0650634765625,0.027099609375,0.9801025390625,1.54022216796875,-4.104766845703125,-0.2392578125,0.0,4.0,4.0,4.0,4.0,100.0,event
14:34:25.379,0.0,0.0,0.0,0.0,0.0,0.0,0.0,0.0,0.0,0.0,0.0,0.0,0.0,0.0,0.0,0.0,0.0,0.0,0.0,0.0,706.7399,770.0,693.44324,824.7985,834.4689,-0.0650634765625,0.027099609375,0.9801025390625,1.54022216796875,-4.104766845703125,-0.2392578125,0.0,4.0,4.0,4.0,4.0,100.0,event
14:34:25.380,0.0,0.0,0.0,0.0,0.0,0.0,0.0,0.0,0.0,0.0,0.0,0.0,0.0,0.0,0.0,0.0,0.0,0.0,0.0,0.0,796.1905,796.99634,827.619,813.91943,790.9524,-0.0650634765625,0.027099609375,0.9801025390625,1.54022216796875,-4.104766845703125,-0.2392578125,0.0,4.0,4.0,4.0,4.0,100.0,event
14:34:25.380,0.0,0.0,0.0,0.0,0.0,0.0,0.0,0.0,0.0,0.0,0.0,0.0,0.0,0.0,0.0,0.0,0.0,0.0,0.0,0.0,647.9121,890.87915,886.8498,812.3077,762.3443,-0.0650634765625,0.027099609375,0.9801025390625,1.54022216796875,-4.104766845703125,-0.2392578125,0.0,4.0,4.0,4.0,4.0,100.0,event
14:34:25.381,0.0,0.0,0.0,0.0,0.0,0.0,0.0,0.0,0.0,0.0,0.0,0.0,0.0,0.0,0.0,0.0,0.0,0.0,0.0,0.0,987.1795,850.58606,813.5165,830.4396,821.1722,-0.0650634765625,0.027099609375,0.9801025390625,1.54022216796875,-4.104766845703125,-0.2392578125,0.0,4.0,4.0,4.0,4.0,100.0,event
14:34:25.382,0.0,0.0,0.0,0.0,0.0,0.0,0.0,0.0,0.0,0.0,0.0,0.0,0.0,0.0,0.0,0.0,0.0,0.0,0.0,0.0,954.5421,985.56775,928.3516,828.4249,770.0,-0.0650634765625,0.027099609375,0.9801025390625,1.54022216796875,-4.104766845703125,-0.2392578125,0.0,4.0,4.0,4.0,4.0,100.0,event
14:34:25.382,0.0,0.0,0.0,0.0,0.0,0.0,0.0,0.0,0.0,0.0,0.0,0.0,0.0,0.0,0.0,0.0,0.0,0.0,0.0,0.0,732.1245,1006.52014,1005.31134,814.7253,736.55676,-0.0650634765625,0.027099609375,0.9801025390625,1.54022216796875,-4.104766845703125,-0.2392578125,0.0,4.0,4.0,4.0,4.0,100.0,event
14:34:25.383,0.0,0.0,0.0,0.0,0.0,0.0,0.0,0.0,0.0,0.0,0.0,0.0,0.0,0.0,0.0,0.0,0.0,0.0,0.0,0.0,654.35895,937.2161,1063.3334,810.696,723.2601,-0.0650634765625,0.027099609375,0.9801025390625,1.54022216796875,-4.104766845703125,-0.2392578125,0.0,4.0,4.0,4.0,4.0,100.0,event
14:34:25.384,0.0,0.0,0.0,0.0,0.0,0.0,0.0,0.0,0.0,0.0,0.0,0.0,0.0,0.0,0.0,0.0,0.0,0.0,0.0,0.0,763.95605,536.30035,642.674,826.4103,939.2308,-0.0650634765625,0.027099609375,0.9801025390625,1.54022216796875,-4.104766845703125,-0.2392578125,0.0,4.0,4.0,4.0,4.0,100.0,event
14:34:25.431,0.0,0.0,0.0,0.0,0.0,0.0,0.0,0.0,0.0,0.0,0.0,0.0,0.0,0.0,0.0,0.0,0.0,0.0,0.0,0.0,966.2271,795.38464,687.3993,835.2747,960.989,-0.06201171875,0.03033447265625,0.989501953125,1.83929443359375,-3.39447021484375,-0.179443359375,0.0,4.0,4.0,4.0,4.0,100.0,event
14:34:25.432,0.0,0.0,0.0,0.0,0.0,0.0,0.0,0.0,0.0,0.0,0.0,0.0,0.0,0.0,0.0,0.0,0.0,0.0,0.0,0.0,984.7619,1210.0,1159.6337,820.3663,727.6923,-0.06201171875,0.03033447265625,0.989501953125,1.83929443359375,-3.39447021484375,-0.179443359375,0.0,4.0,4.0,4.0,4.0,100.0,event
14:34:25.433,0.0,0.0,0.0,0.0,0.0,0.0,0.0,0.0,0.0,0.0,0.0,0.0,0.0,0.0,0.0,0.0,0.0,0.0,0.0,0.0,741.39197,859.85345,905.78754,824.3956,819.15753,-0.06201171875,0.03033447265625,0.989501953125,1.83929443359375,-3.39447021484375,-0.179443359375,0.0,4.0,4.0,4.0,4.0,100.0,event
14:34:25.435,0.0,0.0,0.0,0.0,0.0,0.0,0.0,0.0,0.0,0.0,0.0,0.0,0.0,0.0,0.0,0.0,0.0,0.0,0.0,0.0,627.76556,841.7216,860.65936,831.6484,844.5421,-0.06201171875,0.03033447265625,0.989501953125,1.83929443359375,-3.39447021484375,-0.179443359375,0.0,4.0,4.0,4.0,4.0,100.0,event
14:34:25.436,0.0,0.0,0.0,0.0,0.0,0.0,0.0,0.0,0.0,0.0,0.0,0.0,0.0,0.0,0.0,0.0,0.0,0.0,0.0,0.0,746.2271,1020.6227,1133.0403,818.7546,755.4945,-0.06201171875,0.03033447265625,0.989501953125,1.83929443359375,-3.39447021484375,-0.179443359375,0.0,4.0,4.0,4.0,4.0,100.0,event
14:34:25.437,0.0,0.0,0.0,0.0,0.0,0.0,0.0,0.0,0.0,0.0,0.0,0.0,0.0,0.0,0.0,0.0,0.0,0.0,0.0,0.0,931.5751,915.4579,1072.6007,823.9927,792.5641,-0.06201171875,0.03033447265625,0.989501953125,1.83929443359375,-3.39447021484375,-0.179443359375,0.0,4.0,4.0,4.0,4.0,100.0,event
14:34:25.439,0.0,0.0,0.0,0.0,0.0,0.0,0.0,0.0,0.0,0.0,0.0,0.0,0.0,0.0,0.0,0.0,0.0,0.0,0.0,0.0,939.2308,645.4945,714.3956,829.6337,948.9011,-0.06201171875,0.03033447265625,0.989501953125,1.83929443359375,-3.39447021484375,-0.179443359375,0.0,4.0,4.0,4.0,4.0,100.0,event
14:34:25.440,0.0,0.0,0.0,0.0,0.0,0.0,0.0,0.0,0.0,0.0,0.0,0.0,0.0,0.0,0.0,0.0,0.0,0.0,0.0,0.0,720.84247,385.6044,182.52747,823.1868,1110.8792,-0.06201171875,0.03033447265625,0.989501953125,1.83929443359375,-3.39447021484375,-0.179443359375,0.0,4.0,4.0,4.0,4.0,100.0,event
14:34:25.440,0.0,0.0,0.0,0.0,0.0,0.0,0.0,0.0,0.0,0.0,0.0,0.0,0.0,0.0,0.0,0.0,0.0,0.0,0.0,0.0,614.0659,956.55676,533.47986,811.50183,799.41394,-0.06201171875,0.03033447265625,0.989501953125,1.83929443359375,-3.39447021484375,-0.179443359375,0.0,4.0,4.0,4.0,4.0,100.0,event
14:34:25.441,0.0,0.0,0.0,0.0,0.0,0.0,0.0,0.0,0.0,0.0,0.0,0.0,0.0,0.0,0.0,0.0,0.0,0.0,0.0,0.0,718.4249,1312.3444,1161.6483,818.3516,603.9927,-0.06201171875,0.03033447265625,0.989501953125,1.83929443359375,-3.39447021484375,-0.179443359375,0.0,4.0,4.0,4.0,4.0,100.0,event
14:34:25.442,0.0,0.0,0.0,0.0,0.0,0.0,0.0,0.0,0.0,0.0,0.0,0.0,0.0,0.0,0.0,0.0,0.0,0.0,0.0,0.0,915.05493,1003.2967,1055.2748,826.8132,806.6667,-0.06201171875,0.03033447265625,0.989501953125,1.83929443359375,-3.39447021484375,-0.179443359375,0.0,4.0,4.0,4.0,4.0,100.0,event
14:34:25.442,0.0,0.0,0.0,0.0,0.0,0.0,0.0,0.0,0.0,0.0,0.0,0.0,0.0,0.0,0.0,0.0,0.0,0.0,0.0,0.0,974.68866,952.52747,998.46155,826.4103,817.1429,-0.06201171875,0.03033447265625,0.989501953125,1.83929443359375,-3.39447021484375,-0.179443359375,0.0,4.0,4.0,4.0,4.0,100.0,event
14:34:25.478,0.0,0.0,0.0,0.0,0.0,0.0,0.0,0.0,0.0,0.0,0.0,0.0,0.0,0.0,0.0,0.0,0.0,0.0,0.0,0.0,786.52014,1002.0879,1041.5751,823.9927,711.978,-0.06866455078125,0.029296875,0.9925537109375,1.8243408203125,-3.701019287109375,0.695343017578125,0.0,4.0,4.0,4.0,4.0,100.0,event
14:34:25.479,0.0,0.0,0.0,0.0,0.0,0.0,0.0,0.0,0.0,0.0,0.0,0.0,0.0,0.0,0.0,0.0,0.0,0.0,0.0,0.0,635.82416,938.8278,1046.8132,811.0989,722.0513,-0.06866455078125,0.029296875,0.9925537109375,1.8243408203125,-3.701019287109375,0.695343017578125,0.0,4.0,4.0,4.0,4.0,100.0,event
14:34:25.480,0.0,0.0,0.0,0.0,0.0,0.0,0.0,0.0,0.0,0.0,0.0,0.0,0.0,0.0,0.0,0.0,0.0,0.0,0.0,0.0,692.6374,887.6557,1043.5897,807.8755,804.2491,-0.06866455078125,0.029296875,0.9925537109375,1.8243408203125,-3.701019287109375,0.695343017578125,0.0,4.0,4.0,4.0,4.0,100.0,event
14:34:25.481,0.0,0.0,0.0,0.0,0.0,0.0,0.0,0.0,0.0,0.0,0.0,0.0,0.0,0.0,0.0,0.0,0.0,0.0,0.0,0.0,896.9231,975.09155,1113.6996,811.50183,807.47253,-0.06866455078125,0.029296875,0.9925537109375,1.8243408203125,-3.701019287109375,0.695343017578125,0.0,4.0,4.0,4.0,4.0,100.0,event
14:34:25.481,0.0,0.0,0.0,0.0,0.0,0.0,0.0,0.0,0.0,0.0,0.0,0.0,0.0,0.0,0.0,0.0,0.0,0.0,0.0,0.0,991.2088,971.06226,1164.4689,819.15753,768.3883,-0.06866455078125,0.029296875,0.9925537109375,1.8243408203125,-3.701019287109375,0.695343017578125,0.0,4.0,4.0,4.0,4.0,100.0,event
14:34:25.482,0.0,0.0,0.0,0.0,0.0,0.0,0.0,0.0,0.0,0.0,0.0,0.0,0.0,0.0,0.0,0.0,0.0,0.0,0.0,0.0,816.7399,773.22345,884.83514,816.7399,821.978,-0.06866455078125,0.029296875,0.9925537109375,1.8243408203125,-3.701019287109375,0.695343017578125,0.0,4.0,4.0,4.0,4.0,100.0,event
14:34:25.483,0.0,0.0,0.0,0.0,0.0,0.0,0.0,0.0,0.0,0.0,0.0,0.0,0.0,0.0,0.0,0.0,0.0,0.0,0.0,0.0,672.0879,674.90845,487.54578,814.3223,948.0952,-0.06866455078125,0.029296875,0.9925537109375,1.8243408203125,-3.701019287109375,0.695343017578125,0.0,4.0,4.0,4.0,4.0,100.0,event
14:34:25.483,0.0,0.0,0.0,0.0,0.0,0.0,0.0,0.0,0.0,0.0,0.0,0.0,0.0,0.0,0.0,0.0,0.0,0.0,0.0,0.0,626.9597,420.65933,361.42856,812.71063,995.64105,-0.06866455078125,0.029296875,0.9925537109375,1.8243408203125,-3.701019287109375,0.695343017578125,0.0,4.0,4.0,4.0,4.0,100.0,event
14:34:25.484,0.0,0.0,0.0,0.0,0.0,0.0,0.0,0.0,0.0,0.0,0.0,0.0,0.0,0.0,0.0,0.0,0.0,0.0,0.0,0.0,902.1612,1200.7325,1096.3737,822.7839,777.25275,-0.06866455078125,0.029296875,0.9925537109375,1.8243408203125,-3.701019287109375,0.695343017578125,0.0,4.0,4.0,4.0,4.0,100.0,event
14:34:25.484,0.0,0.0,0.0,0.0,0.0,0.0,0.0,0.0,0.0,0.0,0.0,0.0,0.0,0.0,0.0,0.0,0.0,0.0,0.0,0.0,1005.7143,968.24176,970.2564,823.5897,839.304,-0.06866455078125,0.029296875,0.9925537109375,1.8243408203125,-3.701019287109375,0.695343017578125,0.0,4.0,4.0,4.0,4.0,100.0,event
14:34:25.485,0.0,0.0,0.0,0.0,0.0,0.0,0.0,0.0,0.0,0.0,0.0,0.0,0.0,0.0,0.0,0.0,0.0,0.0,0.0,0.0,843.3333,807.47253,658.3883,817.1429,822.7839,-0.06866455078125,0.029296875,0.9925537109375,1.8243408203125,-3.701019287109375,0.695343017578125,0.0,4.0,4.0,4.0,4.0,100.0,event
14:34:25.486,0.0,0.0,0.0,0.0,0.0,0.0,0.0,0.0,0.0,0.0,0.0,0.0,0.0,0.0,0.0,0.0,0.0,0.0,0.0,0.0,645.4945,997.25275,816.7399,811.9048,713.5897,-0.06866455078125,0.029296875,0.9925537109375,1.8243408203125,-3.701019287109375,0.695343017578125,0.0,4.0,4.0,4.0,4.0,100.0,event
14:34:25.488,0.0,0.0,0.0,0.0,0.0,0.0,0.0,0.0,0.0,0.0,0.0,0.0,0.0,0.0,0.0,0.0,0.0,0.0,0.0,0.0,663.6264,1138.6813,1147.9487,809.0842,663.22345,-0.0693359375,0.02972412109375,0.986328125,2.52716064453125,-2.474822998046875,0.695343017578125,0.0,4.0,4.0,4.0,4.0,100.0,event
14:34:25.489,0.0,0.0,0.0,0.0,0.0,0.0,0.0,0.0,0.0,0.0,0.0,0.0,0.0,0.0,0.0,0.0,0.0,0.0,0.0,0.0,861.06226,971.8681,1118.5348,820.3663,761.13556,-0.0693359375,0.02972412109375,0.986328125,2.52716064453125,-2.474822998046875,0.695343017578125,0.0,4.0,4.0,4.0,4.0,100.0,event
14:34:25.490,0.0,0.0,0.0,0.0,0.0,0.0,0.0,0.0,0.0,0.0,0.0,0.0,0.0,0.0,0.0,0.0,0.0,0.0,0.0,0.0,995.64105,895.7143,1026.6666,844.94507,819.5604,-0.0693359375,0.02972412109375,0.986328125,2.52716064453125,-2.474822998046875,0.695343017578125,0.0,4.0,4.0,4.0,4.0,100.0,event
14:34:25.491,0.0,0.0,0.0,0.0,0.0,0.0,0.0,0.0,0.0,0.0,0.0,0.0,0.0,0.0,0.0,0.0,0.0,0.0,0.0,0.0,874.7619,946.4835,1023.44324,821.978,739.3773,-0.0693359375,0.02972412109375,0.986328125,2.52716064453125,-2.474822998046875,0.695343017578125,0.0,4.0,4.0,4.0,4.0,100.0,event
14:34:25.492,0.0,0.0,0.0,0.0,0.0,0.0,0.0,0.0,0.0,0.0,0.0,0.0,0.0,0.0,0.0,0.0,0.0,0.0,0.0,0.0,658.7912,916.26373,971.4652,793.36993,663.22345,-0.0693359375,0.02972412109375,0.986328125,2.52716064453125,-2.474822998046875,0.695343017578125,0.0,4.0,4.0,4.0,4.0,100.0,event
14:34:25.492,0.0,0.0,0.0,0.0,0.0,0.0,0.0,0.0,0.0,0.0,0.0,0.0,0.0,0.0,0.0,0.0,0.0,0.0,0.0,0.0,621.7216,658.7912,747.8388,815.9341,836.8865,-0.0693359375,0.02972412109375,0.986328125,2.52716064453125,-2.474822998046875,0.695343017578125,0.0,4.0,4.0,4.0,4.0,100.0,event
14:34:25.493,0.0,0.0,0.0,0.0,0.0,0.0,0.0,0.0,0.0,0.0,0.0,0.0,0.0,0.0,0.0,0.0,0.0,0.0,0.0,0.0,795.78754,603.9927,550.0,831.2454,988.3883,-0.0693359375,0.02972412109375,0.986328125,2.52716064453125,-2.474822998046875,0.695343017578125,0.0,4.0,4.0,4.0,4.0,100.0,event
14:34:25.494,0.0,0.0,0.0,0.0,0.0,0.0,0.0,0.0,0.0,0.0,0.0,0.0,0.0,0.0,0.0,0.0,0.0,0.0,0.0,0.0,982.3443,1108.0586,931.978,831.2454,788.1319,-0.0693359375,0.02972412109375,0.986328125,2.52716064453125,-2.474822998046875,0.695343017578125,0.0,4.0,4.0,4.0,4.0,100.0,event
14:34:25.495,0.0,0.0,0.0,0.0,0.0,0.0,0.0,0.0,0.0,0.0,0.0,0.0,0.0,0.0,0.0,0.0,0.0,0.0,0.0,0.0,902.5641,1162.4542,1106.8499,814.3223,636.63007,-0.0693359375,0.02972412109375,0.986328125,2.52716064453125,-2.474822998046875,0.695343017578125,0.0,4.0,4.0,4.0,4.0,100.0,event
14:34:25.495,0.0,0.0,0.0,0.0,0.0,0.0,0.0,0.0,0.0,0.0,0.0,0.0,0.0,0.0,0.0,0.0,0.0,0.0,0.0,0.0,676.1172,728.9011,697.47253,799.81683,779.2674,-0.0693359375,0.02972412109375,0.986328125,2.52716064453125,-2.474822998046875,0.695343017578125,0.0,4.0,4.0,4.0,4.0,100.0,event
14:34:25.496,0.0,0.0,0.0,0.0,0.0,0.0,0.0,0.0,0.0,0.0,0.0,0.0,0.0,0.0,0.0,0.0,0.0,0.0,0.0,0.0,641.06226,798.60803,686.5934,798.20514,822.381,-0.0693359375,0.02972412109375,0.986328125,2.52716064453125,-2.474822998046875,0.695343017578125,0.0,4.0,4.0,4.0,4.0,100.0,event
14:34:25.497,0.0,0.0,0.0,0.0,0.0,0.0,0.0,0.0,0.0,0.0,0.0,0.0,0.0,0.0,0.0,0.0,0.0,0.0,0.0,0.0,799.41394,1143.9194,1098.3883,803.8461,813.1135,-0.0693359375,0.02972412109375,0.986328125,2.52716064453125,-2.474822998046875,0.695343017578125,0.0,4.0,4.0,4.0,4.0,100.0,event
14:34:25.528,0.0,0.0,0.0,0.0,0.0,0.0,0.0,0.0,0.0,0.0,0.0,0.0,0.0,0.0,0.0,0.0,0.0,0.0,0.0,0.0,951.31866,979.12085,1032.7106,796.1905,863.47986,-0.06671142578125,0.02435302734375,0.9818115234375,1.71966552734375,-2.5421142578125,0.201873779296875,0.0,4.0,4.0,4.0,4.0,100.0,event
14:34:25.529,0.0,0.0,0.0,0.0,0.0,0.0,0.0,0.0,0.0,0.0,0.0,0.0,0.0,0.0,0.0,0.0,0.0,0.0,0.0,0.0,881.2088,728.0952,697.8755,786.1172,896.52014,-0.06671142578125,0.02435302734375,0.9818115234375,1.71966552734375,-2.5421142578125,0.201873779296875,0.0,4.0,4.0,4.0,4.0,100.0,event
14:34:25.532,0.0,0.0,0.0,0.0,0.0,0.0,0.0,0.0,0.0,0.0,0.0,0.0,0.0,0.0,0.0,0.0,0.0,0.0,0.0,0.0,649.92676,804.65204,660.40295,759.12085,799.011,-0.06671142578125,0.02435302734375,0.9818115234375,1.71966552734375,-2.5421142578125,0.201873779296875,0.0,4.0,4.0,4.0,4.0,100.0,event
14:34:25.532,0.0,0.0,0.0,0.0,0.0,0.0,0.0,0.0,0.0,0.0,0.0,0.0,0.0,0.0,0.0,0.0,0.0,0.0,0.0,0.0,558.0586,1056.0806,964.21246,720.4396,588.2784,-0.06671142578125,0.02435302734375,0.9818115234375,1.71966552734375,-2.5421142578125,0.201873779296875,0.0,4.0,4.0,4.0,4.0,100.0,event
14:34:25.532,0.0,0.0,0.0,0.0,0.0,0.0,0.0,0.0,0.0,0.0,0.0,0.0,0.0,0.0,0.0,0.0,0.0,0.0,0.0,0.0,665.2381,1006.1172,1075.0183,699.89014,635.42126,-0.06671142578125,0.02435302734375,0.9818115234375,1.71966552734375,-2.5421142578125,0.201873779296875,0.0,4.0,4.0,4.0,4.0,100.0,event
14:34:25.533,0.0,0.0,0.0,0.0,0.0,0.0,0.0,0.0,0.0,0.0,0.0,0.0,0.0,0.0,0.0,0.0,0.0,0.0,0.0,0.0,826.0073,860.65936,949.707,679.7436,822.7839,-0.06671142578125,0.02435302734375,0.9818115234375,1.71966552734375,-2.5421142578125,0.201873779296875,0.0,4.0,4.0,4.0,4.0,100.0,event
14:34:25.533,0.0,0.0,0.0,0.0,0.0,0.0,0.0,0.0,0.0,0.0,0.0,0.0,0.0,0.0,0.0,0.0,0.0,0.0,0.0,0.0,793.7729,784.5055,742.6007,664.43225,906.5934,-0.06671142578125,0.02435302734375,0.9818115234375,1.71966552734375,-2.5421142578125,0.201873779296875,0.0,4.0,4.0,4.0,4.0,100.0,event
14:34:25.534,0.0,0.0,0.0,0.0,0.0,0.0,0.0,0.0,0.0,0.0,0.0,0.0,0.0,0.0,0.0,0.0,0.0,0.0,0.0,0.0,467.8022,1001.28204,1002.0879,631.39197,666.8498,-0.06671142578125,0.02435302734375,0.9818115234375,1.71966552734375,-2.5421142578125,0.201873779296875,0.0,4.0,4.0,4.0,4.0,100.0,event
14:34:25.534,0.0,0.0,0.0,0.0,0.0,0.0,0.0,0.0,0.0,0.0,0.0,0.0,0.0,0.0,0.0,0.0,0.0,0.0,0.0,0.0,570.14655,612.8571,697.0696,629.7802,920.696,-0.06671142578125,0.02435302734375,0.9818115234375,1.71966552734375,-2.5421142578125,0.201873779296875,0.0,4.0,4.0,4.0,4.0,100.0,event
14:34:25.534,0.0,0.0,0.0,0.0,0.0,0.0,0.0,0.0,0.0,0.0,0.0,0.0,0.0,0.0,0.0,0.0,0.0,0.0,0.0,0.0,570.54944,872.3443,734.94507,648.315,784.90845,-0.06671142578125,0.02435302734375,0.9818115234375,1.71966552734375,-2.5421142578125,0.201873779296875,0.0,4.0,4.0,4.0,4.0,100.0,event
14:34:25.535,0.0,0.0,0.0,0.0,0.0,0.0,0.0,0.0,0.0,0.0,0.0,0.0,0.0,0.0,0.0,0.0,0.0,0.0,0.0,0.0,784.5055,799.011,696.6667,632.6007,984.7619,-0.06671142578125,0.02435302734375,0.9818115234375,1.71966552734375,-2.5421142578125,0.201873779296875,0.0,4.0,4.0,4.0,4.0,100.0,event
14:34:25.535,0.0,0.0,0.0,0.0,0.0,0.0,0.0,0.0,0.0,0.0,0.0,0.0,0.0,0.0,0.0,0.0,0.0,0.0,0.0,0.0,814.3223,1232.1611,1165.6776,630.58606,704.3223,-0.06671142578125,0.02435302734375,0.9818115234375,1.71966552734375,-2.5421142578125,0.201873779296875,0.0,4.0,4.0,4.0,4.0,100.0,event
14:34:25.588,0.0,0.0,0.0,0.0,0.0,0.0,0.0,0.0,0.0,0.0,0.0,0.0,0.0,0.0,0.0,0.0,0.0,0.0,0.0,0.0,575.38464,875.9707,889.2674,618.49817,702.3077,-0.06671142578125,0.02435302734375,0.9818115234375,1.71966552734375,-2.5421142578125,0.201873779296875,0.0,4.0,4.0,4.0,4.0,100.0,event
14:34:25.589,0.0,0.0,0.0,0.0,0.0,0.0,0.0,0.0,0.0,0.0,0.0,0.0,0.0,0.0,0.0,0.0,0.0,0.0,0.0,0.0,458.93774,863.8828,849.7802,616.4835,772.01465,-0.06671142578125,0.02435302734375,0.9818115234375,1.71966552734375,-2.5421142578125,0.201873779296875,0.0,4.0,4.0,4.0,4.0,100.0,event
14:34:25.591,0.0,0.0,0.0,0.0,0.0,0.0,0.0,0.0,0.0,0.0,0.0,0.0,0.0,0.0,0.0,0.0,0.0,0.0,0.0,0.0,558.86444,995.64105,1052.0513,628.97437,805.8608,-0.06671142578125,0.02435302734375,0.9818115234375,1.71966552734375,-2.5421142578125,0.201873779296875,0.0,4.0,4.0,4.0,4.0,100.0,event
14:34:25.592,0.0,0.0,0.0,0.0,0.0,0.0,0.0,0.0,0.0,0.0,0.0,0.0,0.0,0.0,0.0,0.0,0.0,0.0,0.0,0.0,764.35895,1036.7399,1141.9048,633.8095,787.326,-0.06671142578125,0.02435302734375,0.9818115234375,1.71966552734375,-2.5421142578125,0.201873779296875,0.0,4.0,4.0,4.0,4.0,100.0,event
14:34:25.594,0.0,0.0,0.0,0.0,0.0,0.0,0.0,0.0,0.0,0.0,0.0,0.0,0.0,0.0,0.0,0.0,0.0,0.0,0.0,0.0,830.4396,892.0879,1013.7729,665.2381,842.1245,-0.06671142578125,0.02435302734375,0.9818115234375,1.71966552734375,-2.5421142578125,0.201873779296875,0.0,4.0,4.0,4.0,4.0,100.0,event
14:34:25.595,0.0,0.0,0.0,0.0,0.0,0.0,0.0,0.0,0.0,0.0,0.0,0.0,0.0,0.0,0.0,0.0,0.0,0.0,0.0,0.0,626.9597,601.5751,490.76923,670.87915,1013.36993,-0.06671142578125,0.02435302734375,0.9818115234375,1.71966552734375,-2.5421142578125,0.201873779296875,0.0,4.0,4.0,4.0,4.0,100.0,event
14:34:25.596,0.0,0.0,0.0,0.0,0.0,0.0,0.0,0.0,0.0,0.0,0.0,0.0,0.0,0.0,0.0,0.0,0.0,0.0,0.0,0.0,513.73627,978.315,633.00366,668.0586,896.1172,-0.06671142578125,0.02435302734375,0.9818115234375,1.71966552734375,-2.5421142578125,0.201873779296875,0.0,4.0,4.0,4.0,4.0,100.0,event
14:34:25.597,0.0,0.0,0.0,0.0,0.0,0.0,0.0,0.0,0.0,0.0,0.0,0.0,0.0,0.0,0.0,0.0,0.0,0.0,0.0,0.0,634.61536,1341.3553,1150.7693,695.4579,697.0696,-0.06671142578125,0.02435302734375,0.9818115234375,1.71966552734375,-2.5421142578125,0.201873779296875,0.0,4.0,4.0,4.0,4.0,100.0,event
14:34:25.598,0.0,0.0,0.0,0.0,0.0,0.0,0.0,0.0,0.0,0.0,0.0,0.0,0.0,0.0,0.0,0.0,0.0,0.0,0.0,0.0,846.9597,1058.4982,1048.4249,714.7985,815.5311,-0.06671142578125,0.02435302734375,0.9818115234375,1.71966552734375,-2.5421142578125,0.201873779296875,0.0,4.0,4.0,4.0,4.0,100.0,event
14:34:25.599,0.0,0.0,0.0,0.0,0.0,0.0,0.0,0.0,0.0,0.0,0.0,0.0,0.0,0.0,0.0,0.0,0.0,0.0,0.0,0.0,907.8022,890.07324,731.7216,717.2161,1014.9817,-0.06671142578125,0.02435302734375,0.9818115234375,1.71966552734375,-2.5421142578125,0.201873779296875,0.0,4.0,4.0,4.0,4.0,100.0,event
14:34:25.600,0.0,0.0,0.0,0.0,0.0,0.0,0.0,0.0,0.0,0.0,0.0,0.0,0.0,0.0,0.0,0.0,0.0,0.0,0.0,0.0,757.1062,1343.37,1041.5751,721.2454,863.0769,-0.06671142578125,0.02435302734375,0.9818115234375,1.71966552734375,-2.5421142578125,0.201873779296875,0.0,4.0,4.0,4.0,4.0,100.0,event
14:34:25.601,0.0,0.0,0.0,0.0,0.0,0.0,0.0,0.0,0.0,0.0,0.0,0.0,0.0,0.0,0.0,0.0,0.0,0.0,0.0,0.0,593.91943,1345.7876,1194.6886,723.663,776.04395,-0.06671142578125,0.02435302734375,0.9818115234375,1.71966552734375,-2.5421142578125,0.201873779296875,0.0,4.0,4.0,4.0,4.0,100.0,event
14:34:25.649,0.0,0.0,0.0,0.0,0.0,0.0,0.0,0.0,0.0,0.0,0.0,0.0,0.0,0.0,0.0,0.0,0.0,0.0,0.0,0.0,627.76556,1196.3004,1100.8059,747.8388,826.0073,-0.07220458984375,0.02264404296875,0.98553466796875,2.01873779296875,-1.89910888671875,0.590667724609375,0.0,4.0,4.0,4.0,4.0,100.0,event
14:34:25.650,0.0,0.0,0.0,0.0,0.0,0.0,0.0,0.0,0.0,0.0,0.0,0.0,0.0,0.0,0.0,0.0,0.0,0.0,0.0,0.0,845.34796,1302.2711,1201.5385,778.46155,806.26373,-0.07220458984375,0.02264404296875,0.98553466796875,2.01873779296875,-1.89910888671875,0.590667724609375,0.0,4.0,4.0,4.0,4.0,100.0,event
14:34:25.651,0.0,0.0,0.0,0.0,0.0,0.0,0.0,0.0,0.0,0.0,0.0,0.0,0.0,0.0,0.0,0.0,0.0,0.0,0.0,0.0,962.1978,1359.8901,1266.0073,774.43225,725.6777,-0.07220458984375,0.02264404296875,0.98553466796875,2.01873779296875,-1.89910888671875,0.590667724609375,0.0,4.0,4.0,4.0,4.0,100.0,event
14:34:25.652,0.0,0.0,0.0,0.0,0.0,0.0,0.0,0.0,0.0,0.0,0.0,0.0,0.0,0.0,0.0,0.0,0.0,0.0,0.0,0.0,809.0842,1226.1172,1062.5275,779.67035,711.5751,-0.07220458984375,0.02264404296875,0.98553466796875,2.01873779296875,-1.89910888671875,0.590667724609375,0.0,4.0,4.0,4.0,4.0,100.0,event
14:34:25.656,0.0,0.0,0.0,0.0,0.0,0.0,0.0,0.0,0.0,0.0,0.0,0.0,0.0,0.0,0.0,0.0,0.0,0.0,0.0,0.0,611.6484,1153.5897,863.8828,778.86444,727.28937,-0.07220458984375,0.02264404296875,0.98553466796875,2.01873779296875,-1.89910888671875,0.590667724609375,0.0,4.0,4.0,4.0,4.0,100.0,event
14:34:25.657,0.0,0.0,0.0,0.0,0.0,0.0,0.0,0.0,0.0,0.0,0.0,0.0,0.0,0.0,0.0,0.0,0.0,0.0,0.0,0.0,632.1978,1262.7839,879.19415,787.326,765.56775,-0.07220458984375,0.02264404296875,0.98553466796875,2.01873779296875,-1.89910888671875,0.590667724609375,0.0,4.0,4.0,4.0,4.0,100.0,event
14:34:25.657,0.0,0.0,0.0,0.0,0.0,0.0,0.0,0.0,0.0,0.0,0.0,0.0,0.0,0.0,0.0,0.0,0.0,0.0,0.0,0.0,836.8865,1419.9268,992.4176,811.9048,793.36993,-0.07220458984375,0.02264404296875,0.98553466796875,2.01873779296875,-1.89910888671875,0.590667724609375,0.0,4.0,4.0,4.0,4.0,100.0,event
14:34:25.658,0.0,0.0,0.0,0.0,0.0,0.0,0.0,0.0,0.0,0.0,0.0,0.0,0.0,0.0,0.0,0.0,0.0,0.0,0.0,0.0,962.6007,1518.2417,1019.011,823.9927,827.2161,-0.07220458984375,0.02264404296875,0.98553466796875,2.01873779296875,-1.89910888671875,0.590667724609375,0.0,4.0,4.0,4.0,4.0,100.0,event
14:34:25.659,0.0,0.0,0.0,0.0,0.0,0.0,0.0,0.0,0.0,0.0,0.0,0.0,0.0,0.0,0.0,0.0,0.0,0.0,0.0,0.0,821.1722,1210.0,544.35895,821.978,1071.392,-0.07220458984375,0.02264404296875,0.98553466796875,2.01873779296875,-1.89910888671875,0.590667724609375,0.0,4.0,4.0,4.0,4.0,100.0,event
14:34:25.659,0.0,0.0,0.0,0.0,0.0,0.0,0.0,0.0,0.0,0.0,0.0,0.0,0.0,0.0,0.0,0.0,0.0,0.0,0.0,0.0,623.3333,1239.011,338.46155,814.7253,1093.1501,-0.07220458984375,0.02264404296875,0.98553466796875,2.01873779296875,-1.89910888671875,0.590667724609375,0.0,4.0,4.0,4.0,4.0,100.0,event
14:34:25.660,0.0,0.0,0.0,0.0,0.0,0.0,0.0,0.0,0.0,0.0,0.0,0.0,0.0,0.0,0.0,0.0,0.0,0.0,0.0,0.0,642.27106,11.282051,1027.4725,821.1722,730.5128,-0.07220458984375,0.02264404296875,0.98553466796875,2.01873779296875,-1.89910888671875,0.590667724609375,0.0,4.0,4.0,4.0,4.0,100.0,event
14:34:25.661,0.0,0.0,0.0,0.0,0.0,0.0,0.0,0.0,0.0,0.0,0.0,0.0,0.0,0.0,0.0,0.0,0.0,0.0,0.0,0.0,835.2747,1622.1978,1274.0659,848.97437,723.2601,-0.07220458984375,0.02264404296875,0.98553466796875,2.01873779296875,-1.89910888671875,0.590667724609375,0.0,4.0,4.0,4.0,4.0,100.0,event
14:34:25.683,0.0,0.0,0.0,0.0,0.0,0.0,0.0,0.0,0.0,0.0,0.0,0.0,0.0,0.0,0.0,0.0,0.0,0.0,0.0,0.0,979.12085,1608.0952,1151.1721,858.6447,797.3993,-0.07452392578125,0.02984619140625,0.98565673828125,2.056121826171875,-0.874786376953125,0.635528564453125,0.0,4.0,4.0,4.0,4.0,100.0,event
14:34:25.685,0.0,0.0,0.0,0.0,0.0,0.0,0.0,0.0,0.0,0.0,0.0,0.0,0.0,0.0,0.0,0.0,0.0,0.0,0.0,0.0,881.2088,1628.2417,1116.9231,857.4359,713.5897,-0.07452392578125,0.02984619140625,0.98565673828125,2.056121826171875,-0.874786376953125,0.635528564453125,0.0,4.0,4.0,4.0,4.0,100.0,event
14:34:25.686,0.0,0.0,0.0,0.0,0.0,0.0,0.0,0.0,0.0,0.0,0.0,0.0,0.0,0.0,0.0,0.0,0.0,0.0,0.0,0.0,675.7143,1634.2858,1133.0403,849.3773,703.1135,-0.07452392578125,0.02984619140625,0.98565673828125,2.056121826171875,-0.874786376953125,0.635528564453125,0.0,4.0,4.0,4.0,4.0,100.0,event
14:34:25.687,0.0,0.0,0.0,0.0,0.0,0.0,0.0,0.0,0.0,0.0,0.0,0.0,0.0,0.0,0.0,0.0,0.0,0.0,0.0,0.0,646.30035,1608.9011,1063.7362,839.304,750.65936,-0.07452392578125,0.02984619140625,0.98565673828125,2.056121826171875,-0.874786376953125,0.635528564453125,0.0,4.0,4.0,4.0,4.0,100.0,event
14:34:25.688,0.0,0.0,0.0,0.0,0.0,0.0,0.0,0.0,0.0,0.0,0.0,0.0,0.0,0.0,0.0,0.0,0.0,0.0,0.0,0.0,839.707,1604.8718,1057.2894,861.06226,781.28204,-0.07452392578125,0.02984619140625,0.98565673828125,2.056121826171875,-0.874786376953125,0.635528564453125,0.0,4.0,4.0,4.0,4.0,100.0,event
14:34:25.689,0.0,0.0,0.0,0.0,0.0,0.0,0.0,0.0,0.0,0.0,0.0,0.0,0.0,0.0,0.0,0.0,0.0,0.0,0.0,0.0,1024.249,1620.989,1086.3004,874.7619,873.95605,-0.07452392578125,0.02984619140625,0.98565673828125,2.056121826171875,-0.874786376953125,0.635528564453125,0.0,4.0,4.0,4.0,4.0,100.0,event
14:34:25.690,0.0,0.0,0.0,0.0,0.0,0.0,0.0,0.0,0.0,0.0,0.0,0.0,0.0,0.0,0.0,0.0,0.0,0.0,0.0,0.0,942.8571,3.2234433,909.81683,862.674,873.1502,-0.07452392578125,0.02984619140625,0.98565673828125,2.056121826171875,-0.874786376953125,0.635528564453125,0.0,4.0,4.0,4.0,4.0,100.0,event
14:34:25.691,0.0,0.0,0.0,0.0,0.0,0.0,0.0,0.0,0.0,0.0,0.0,0.0,0.0,0.0,0.0,0.0,0.0,0.0,0.0,0.0,692.23444,1552.8938,655.56775,855.42126,848.5714,-0.07452392578125,0.02984619140625,0.98565673828125,2.056121826171875,-0.874786376953125,0.635528564453125,0.0,4.0,4.0,4.0,4.0,100.0,event
14:34:25.692,0.0,0.0,0.0,0.0,0.0,0.0,0.0,0.0,0.0,0.0,0.0,0.0,0.0,0.0,0.0,0.0,0.0,0.0,0.0,0.0,602.381,1463.8462,446.4469,866.30035,933.5897,-0.07452392578125,0.02984619140625,0.98565673828125,2.056121826171875,-0.874786376953125,0.635528564453125,0.0,4.0,4.0,4.0,4.0,100.0,event
14:34:25.693,0.0,0.0,0.0,0.0,0.0,0.0,0.0,0.0,0.0,0.0,0.0,0.0,0.0,0.0,0.0,0.0,0.0,0.0,0.0,0.0,777.6557,1624.2124,841.31866,867.1062,865.89746,-0.07452392578125,0.02984619140625,0.98565673828125,2.056121826171875,-0.874786376953125,0.635528564453125,0.0,4.0,4.0,4.0,4.0,100.0,event
14:34:25.694,0.0,0.0,0.0,0.0,0.0,0.0,0.0,0.0,0.0,0.0,0.0,0.0,0.0,0.0,0.0,0.0,0.0,0.0,0.0,0.0,1001.685,1647.1794,1305.8975,864.68866,748.24176,-0.07452392578125,0.02984619140625,0.98565673828125,2.056121826171875,-0.874786376953125,0.635528564453125,0.0,4.0,4.0,4.0,4.0,100.0,event
14:34:25.695,0.0,0.0,0.0,0.0,0.0,0.0,0.0,0.0,0.0,0.0,0.0,0.0,0.0,0.0,0.0,0.0,0.0,0.0,0.0,0.0,958.5714,1552.4908,953.3333,875.16486,795.38464,-0.07452392578125,0.02984619140625,0.98565673828125,2.056121826171875,-0.874786376953125,0.635528564453125,0.0,4.0,4.0,4.0,4.0,100.0,event
14:34:25.742,0.0,0.0,0.0,0.0,0.0,0.0,0.0,0.0,0.0,0.0,0.0,0.0,0.0,0.0,0.0,0.0,0.0,0.0,0.0,0.0,721.2454,1571.8315,747.4359,873.1502,815.9341,-0.07696533203125,0.02752685546875,0.98651123046875,2.026214599609375,1.77947998046875,0.5084228515625,0.0,4.0,4.0,4.0,4.0,100.0,event
14:34:25.744,0.0,0.0,0.0,0.0,0.0,0.0,0.0,0.0,0.0,0.0,0.0,0.0,0.0,0.0,0.0,0.0,0.0,0.0,0.0,0.0,668.46155,1641.9414,1170.9158,856.2271,701.50183,-0.07696533203125,0.02752685546875,0.98651123046875,2.026214599609375,1.77947998046875,0.5084228515625,0.0,4.0,4.0,4.0,4.0,100.0,event
14:34:25.744,0.0,0.0,0.0,0.0,0.0,0.0,0.0,0.0,0.0,0.0,0.0,0.0,0.0,0.0,0.0,0.0,0.0,0.0,0.0,0.0,834.87177,1624.2124,1313.1501,869.5238,726.8865,-0.07696533203125,0.02752685546875,0.98651123046875,2.026214599609375,1.77947998046875,0.5084228515625,0.0,4.0,4.0,4.0,4.0,100.0,event
14:34:25.745,0.0,0.0,0.0,0.0,0.0,0.0,0.0,0.0,0.0,0.0,0.0,0.0,0.0,0.0,0.0,0.0,0.0,0.0,0.0,0.0,1043.9927,1628.6447,1255.9341,889.67035,796.99634,-0.07696533203125,0.02752685546875,0.98651123046875,2.026214599609375,1.77947998046875,0.5084228515625,0.0,4.0,4.0,4.0,4.0,100.0,event
14:34:25.746,0.0,0.0,0.0,0.0,0.0,0.0,0.0,0.0,0.0,0.0,0.0,0.0,0.0,0.0,0.0,0.0,0.0,0.0,0.0,0.0,1057.2894,1627.4359,1129.414,866.30035,771.6117,-0.07696533203125,0.02752685546875,0.98651123046875,2.026214599609375,1.77947998046875,0.5084228515625,0.0,4.0,4.0,4.0,4.0,100.0,event
14:34:25.746,0.0,0.0,0.0,0.0,0.0,0.0,0.0,0.0,0.0,0.0,0.0,0.0,0.0,0.0,0.0,0.0,0.0,0.0,0.0,0.0,832.0513,1623.8096,873.95605,850.989,794.9817,-0.07696533203125,0.02752685546875,0.98651123046875,2.026214599609375,1.77947998046875,0.5084228515625,0.0,4.0,4.0,4.0,4.0,100.0,event
14:34:25.750,0.0,0.0,0.0,0.0,0.0,0.0,0.0,0.0,0.0,0.0,0.0,0.0,0.0,0.0,0.0,0.0,0.0,0.0,0.0,0.0,720.4396,1649.1941,851.39197,848.5714,792.5641,-0.07696533203125,0.02752685546875,0.98651123046875,2.026214599609375,1.77947998046875,0.5084228515625,0.0,4.0,4.0,4.0,4.0,100.0,event
14:34:25.751,0.0,0.0,0.0,0.0,0.0,0.0,0.0,0.0,0.0,0.0,0.0,0.0,0.0,0.0,0.0,0.0,0.0,0.0,0.0,0.0,818.7546,1507.3627,660.40295,853.8095,900.54944,-0.07696533203125,0.02752685546875,0.98651123046875,2.026214599609375,1.77947998046875,0.5084228515625,0.0,4.0,4.0,4.0,4.0,100.0,event
14:34:25.751,0.0,0.0,0.0,0.0,0.0,0.0,0.0,0.0,0.0,0.0,0.0,0.0,0.0,0.0,0.0,0.0,0.0,0.0,0.0,0.0,1054.4689,1503.7362,770.0,866.7033,988.7912,-0.07696533203125,0.02752685546875,0.98651123046875,2.026214599609375,1.77947998046875,0.5084228515625,0.0,4.0,4.0,4.0,4.0,100.0,event
14:34:25.752,0.0,0.0,0.0,0.0,0.0,0.0,0.0,0.0,0.0,0.0,0.0,0.0,0.0,0.0,0.0,0.0,0.0,0.0,0.0,0.0,1129.011,8.461538,1272.4542,860.2564,746.63007,-0.07696533203125,0.02752685546875,0.98651123046875,2.026214599609375,1.77947998046875,0.5084228515625,0.0,4.0,4.0,4.0,4.0,100.0,event
14:34:25.753,0.0,0.0,0.0,0.0,0.0,0.0,0.0,0.0,0.0,0.0,0.0,0.0,0.0,0.0,0.0,0.0,0.0,0.0,0.0,0.0,719.6337,1561.7583,838.49817,836.8865,772.4176,-0.07696533203125,0.02752685546875,0.98651123046875,2.026214599609375,1.77947998046875,0.5084228515625,0.0,4.0,4.0,4.0,4.0,100.0,event
14:34:25.753,0.0,0.0,0.0,0.0,0.0,0.0,0.0,0.0,0.0,0.0,0.0,0.0,0.0,0.0,0.0,0.0,0.0,0.0,0.0,0.0,881.2088,1604.8718,1027.8755,844.1392,690.2198,-0.07696533203125,0.02752685546875,0.98651123046875,2.026214599609375,1.77947998046875,0.5084228515625,0.0,4.0,4.0,4.0,4.0,100.0,event
14:34:25.790,0.0,0.0,0.0,0.0,0.0,0.0,0.0,0.0,0.0,0.0,0.0,0.0,0.0,0.0,0.0,0.0,0.0,0.0,0.0,0.0,821.5751,1606.4835,980.32965,854.61536,785.7143,-0.08160400390625,0.030029296875,0.99053955078125,2.01873779296875,3.050537109375,0.76263427734375,0.0,4.0,4.0,4.0,4.0,100.0,event
14:34:25.792,0.0,0.0,0.0,0.0,0.0,0.0,0.0,0.0,0.0,0.0,0.0,0.0,0.0,0.0,0.0,0.0,0.0,0.0,0.0,0.0,1048.4249,18.131868,1266.8132,872.3443,724.0659,-0.08160400390625,0.030029296875,0.99053955078125,2.01873779296875,3.050537109375,0.76263427734375,0.0,4.0,4.0,4.0,4.0,100.0,event
14:34:25.794,0.0,0.0,0.0,0.0,0.0,0.0,0.0,0.0,0.0,0.0,0.0,0.0,0.0,0.0,0.0,0.0,0.0,0.0,0.0,0.0,1129.8169,1527.9121,1136.6666,860.65936,746.2271,-0.08160400390625,0.030029296875,0.99053955078125,2.01873779296875,3.050537109375,0.76263427734375,0.0,4.0,4.0,4.0,4.0,100.0,event
14:34:25.795,0.0,0.0,0.0,0.0,0.0,0.0,0.0,0.0,0.0,0.0,0.0,0.0,0.0,0.0,0.0,0.0,0.0,0.0,0.0,0.0,919.89014,1409.8535,716.0073,846.9597,797.3993,-0.08160400390625,0.030029296875,0.99053955078125,2.01873779296875,3.050537109375,0.76263427734375,0.0,4.0,4.0,4.0,4.0,100.0,event
14:34:25.797,0.0,0.0,0.0,0.0,0.0,0.0,0.0,0.0,0.0,0.0,0.0,0.0,0.0,0.0,0.0,0.0,0.0,0.0,0.0,0.0,759.92676,1600.0366,890.87915,844.5421,726.08057,-0.08160400390625,0.030029296875,0.99053955078125,2.01873779296875,3.050537109375,0.76263427734375,0.0,4.0,4.0,4.0,4.0,100.0,event
14:34:25.798,0.0,0.0,0.0,0.0,0.0,0.0,0.0,0.0,0.0,0.0,0.0,0.0,0.0,0.0,0.0,0.0,0.0,0.0,0.0,0.0,844.94507,16.923077,1066.5568,848.97437,782.49084,-0.08160400390625,0.030029296875,0.99053955078125,2.01873779296875,3.050537109375,0.76263427734375,0.0,4.0,4.0,4.0,4.0,100.0,event
14:34:25.800,0.0,0.0,0.0,0.0,0.0,0.0,0.0,0.0,0.0,0.0,0.0,0.0,0.0,0.0,0.0,0.0,0.0,0.0,0.0,0.0,1051.2454,1459.414,933.1868,861.8681,975.4945,-0.08160400390625,0.030029296875,0.99053955078125,2.01873779296875,3.050537109375,0.76263427734375,0.0,4.0,4.0,4.0,4.0,100.0,event
14:34:25.803,0.0,0.0,0.0,0.0,0.0,0.0,0.0,0.0,0.0,0.0,0.0,0.0,0.0,0.0,0.0,0.0,0.0,0.0,0.0,0.0,1131.0256,1257.9487,587.47253,865.09155,1053.2601,-0.08160400390625,0.030029296875,0.99053955078125,2.01873779296875,3.050537109375,0.76263427734375,0.0,4.0,4.0,4.0,4.0,100.0,event
14:34:25.804,0.0,0.0,0.0,0.0,0.0,0.0,0.0,0.0,0.0,0.0,0.0,0.0,0.0,0.0,0.0,0.0,0.0,0.0,0.0,0.0,999.2674,1579.8901,817.1429,845.34796,807.47253,-0.08160400390625,0.030029296875,0.99053955078125,2.01873779296875,3.050537109375,0.76263427734375,0.0,4.0,4.0,4.0,4.0,100.0,event
14:34:25.805,0.0,0.0,0.0,0.0,0.0,0.0,0.0,0.0,0.0,0.0,0.0,0.0,0.0,0.0,0.0,0.0,0.0,0.0,0.0,0.0,870.32965,1647.9854,1075.8242,830.84247,651.9414,-0.08160400390625,0.030029296875,0.99053955078125,2.01873779296875,3.050537109375,0.76263427734375,0.0,4.0,4.0,4.0,4.0,100.0,event
14:34:25.806,0.0,0.0,0.0,0.0,0.0,0.0,0.0,0.0,0.0,0.0,0.0,0.0,0.0,0.0,0.0,0.0,0.0,0.0,0.0,0.0,923.1135,1485.6044,1027.0696,833.2601,737.76556,-0.08160400390625,0.030029296875,0.99053955078125,2.01873779296875,3.050537109375,0.76263427734375,0.0,4.0,4.0,4.0,4.0,100.0,event
14:34:25.807,0.0,0.0,0.0,0.0,0.0,0.0,0.0,0.0,0.0,0.0,0.0,0.0,0.0,0.0,0.0,0.0,0.0,0.0,0.0,0.0,1129.414,1521.8682,1183.0037,840.5128,764.35895,-0.08160400390625,0.030029296875,0.99053955078125,2.01873779296875,3.050537109375,0.76263427734375,0.0,4.0,4.0,4.0,4.0,100.0,event
14:34:25.828,0.0,0.0,0.0,0.0,0.0,0.0,0.0,0.0,0.0,0.0,0.0,0.0,0.0,0.0,0.0,0.0,0.0,0.0,0.0,0.0,1241.8315,1529.5238,1290.586,853.4066,704.3223,-0.08160400390625,0.030029296875,0.99053955078125,2.01873779296875,3.050537109375,0.76263427734375,0.0,4.0,4.0,4.0,4.0,100.0,event
14:34:25.829,0.0,0.0,0.0,0.0,0.0,0.0,0.0,0.0,0.0,0.0,0.0,0.0,0.0,0.0,0.0,0.0,0.0,0.0,0.0,0.0,906.99634,1203.1501,871.9414,825.2015,710.7692,-0.08160400390625,0.030029296875,0.99053955078125,2.01873779296875,3.050537109375,0.76263427734375,0.0,4.0,4.0,4.0,4.0,100.0,event
14:34:25.829,0.0,0.0,0.0,0.0,0.0,0.0,0.0,0.0,0.0,0.0,0.0,0.0,0.0,0.0,0.0,0.0,0.0,0.0,0.0,0.0,1106.044,1363.5165,1127.3993,841.31866,719.6337,-0.08160400390625,0.030029296875,0.99053955078125,2.01873779296875,3.050537109375,0.76263427734375,0.0,4.0,4.0,4.0,4.0,100.0,event
14:34:25.830,0.0,0.0,0.0,0.0,0.0,0.0,0.0,0.0,0.0,0.0,0.0,0.0,0.0,0.0,0.0,0.0,0.0,0.0,0.0,0.0,914.2491,1270.0366,874.7619,832.8571,788.93774,-0.08160400390625,0.030029296875,0.99053955078125,2.01873779296875,3.050537109375,0.76263427734375,0.0,4.0,4.0,4.0,4.0,100.0,event
14:34:25.830,0.0,0.0,0.0,0.0,0.0,0.0,0.0,0.0,0.0,0.0,0.0,0.0,0.0,0.0,0.0,0.0,0.0,0.0,0.0,0.0,1110.8792,1452.967,1161.2454,843.3333,828.022,-0.08160400390625,0.030029296875,0.99053955078125,2.01873779296875,3.050537109375,0.76263427734375,0.0,4.0,4.0,4.0,4.0,100.0,event
14:34:25.830,0.0,0.0,0.0,0.0,0.0,0.0,0.0,0.0,0.0,0.0,0.0,0.0,0.0,0.0,0.0,0.0,0.0,0.0,0.0,0.0,1224.1025,1405.0183,1178.9744,863.0769,784.90845,-0.08160400390625,0.030029296875,0.99053955078125,2.01873779296875,3.050537109375,0.76263427734375,0.0,4.0,4.0,4.0,4.0,100.0,event
14:34:25.831,0.0,0.0,0.0,0.0,0.0,0.0,0.0,0.0,0.0,0.0,0.0,0.0,0.0,0.0,0.0,0.0,0.0,0.0,0.0,0.0,1048.022,932.7839,528.24176,849.7802,1053.2601,-0.08160400390625,0.030029296875,0.99053955078125,2.01873779296875,3.050537109375,0.76263427734375,0.0,4.0,4.0,4.0,4.0,100.0,event
14:34:25.831,0.0,0.0,0.0,0.0,0.0,0.0,0.0,0.0,0.0,0.0,0.0,0.0,0.0,0.0,0.0,0.0,0.0,0.0,0.0,0.0,830.4396,992.8205,233.2967,819.5604,1122.5641,-0.08160400390625,0.030029296875,0.99053955078125,2.01873779296875,3.050537109375,0.76263427734375,0.0,4.0,4.0,4.0,4.0,100.0,event
14:34:25.834,0.0,0.0,0.0,0.0,0.0,0.0,0.0,0.0,0.0,0.0,0.0,0.0,0.0,0.0,0.0,0.0,0.0,0.0,0.0,0.0,847.3626,1625.0183,951.7216,816.337,754.2857,-0.08160400390625,0.030029296875,0.99053955078125,2.01873779296875,3.050537109375,0.76263427734375,0.0,4.0,4.0,4.0,4.0,100.0,event
14:34:25.834,0.0,0.0,0.0,0.0,0.0,0.0,0.0,0.0,0.0,0.0,0.0,0.0,0.0,0.0,0.0,0.0,0.0,0.0,0.0,0.0,1035.1282,1604.0659,1280.1099,833.663,711.1722,-0.08160400390625,0.030029296875,0.99053955078125,2.01873779296875,3.050537109375,0.76263427734375,0.0,4.0,4.0,4.0,4.0,100.0,event
14:34:25.835,0.0,0.0,0.0,0.0,0.0,0.0,0.0,0.0,0.0,0.0,0.0,0.0,0.0,0.0,0.0,0.0,0.0,0.0,0.0,0.0,1194.6886,1437.6556,1152.381,847.76556,786.1172,-0.08160400390625,0.030029296875,0.99053955078125,2.01873779296875,3.050537109375,0.76263427734375,0.0,4.0,4.0,4.0,4.0,100.0,event
14:34:25.835,0.0,0.0,0.0,0.0,0.0,0.0,0.0,0.0,0.0,0.0,0.0,0.0,0.0,0.0,0.0,0.0,0.0,0.0,0.0,0.0,1100.403,1407.8389,1100.8059,845.34796,685.78754,-0.08160400390625,0.030029296875,0.99053955078125,2.01873779296875,3.050537109375,0.76263427734375,0.0,4.0,4.0,4.0,4.0,100.0,event
14:34:25.887,0.0,0.0,0.0,0.0,0.0,0.0,0.0,0.0,0.0,0.0,0.0,0.0,0.0,0.0,0.0,0.0,0.0,0.0,0.0,0.0,863.47986,1384.0659,1064.1392,829.2308,670.87915,-0.09246826171875,0.02734375,0.97930908203125,1.577606201171875,3.850555419921875,1.682281494140625,0.0,4.0,4.0,4.0,4.0,100.0,event
14:34:25.888,0.0,0.0,0.0,0.0,0.0,0.0,0.0,0.0,0.0,0.0,0.0,0.0,0.0,0.0,0.0,0.0,0.0,0.0,0.0,0.0,795.38464,1298.6447,1021.8315,825.2015,768.3883,-0.09246826171875,0.02734375,0.97930908203125,1.577606201171875,3.850555419921875,1.682281494140625,0.0,4.0,4.0,4.0,4.0,100.0,event
14:34:25.889,0.0,0.0,0.0,0.0,0.0,0.0,0.0,0.0,0.0,0.0,0.0,0.0,0.0,0.0,0.0,0.0,0.0,0.0,0.0,0.0,1063.7362,1444.9084,1241.4286,850.989,706.7399,-0.09246826171875,0.02734375,0.97930908203125,1.577606201171875,3.850555419921875,1.682281494140625,0.0,4.0,4.0,4.0,4.0,100.0,event
14:34:25.889,0.0,0.0,0.0,0.0,0.0,0.0,0.0,0.0,0.0,0.0,0.0,0.0,0.0,0.0,0.0,0.0,0.0,0.0,0.0,0.0,912.23444,1317.9854,1061.3187,837.6923,786.1172,-0.09246826171875,0.02734375,0.97930908203125,1.577606201171875,3.850555419921875,1.682281494140625,0.0,4.0,4.0,4.0,4.0,100.0,event
14:34:25.890,0.0,0.0,0.0,0.0,0.0,0.0,0.0,0.0,0.0,0.0,0.0,0.0,0.0,0.0,0.0,0.0,0.0,0.0,0.0,0.0,1009.34064,1384.4689,1156.8132,844.94507,671.28204,-0.09246826171875,0.02734375,0.97930908203125,1.577606201171875,3.850555419921875,1.682281494140625,0.0,4.0,4.0,4.0,4.0,100.0,event
14:34:25.891,0.0,0.0,0.0,0.0,0.0,0.0,0.0,0.0,0.0,0.0,0.0,0.0,0.0,0.0,0.0,0.0,0.0,0.0,0.0,0.0,765.9707,1070.989,704.7253,844.1392,875.16486,-0.09246826171875,0.02734375,0.97930908203125,1.577606201171875,3.850555419921875,1.682281494140625,0.0,4.0,4.0,4.0,4.0,100.0,event
14:34:25.891,0.0,0.0,0.0,0.0,0.0,0.0,0.0,0.0,0.0,0.0,0.0,0.0,0.0,0.0,0.0,0.0,0.0,0.0,0.0,0.0,681.75824,1016.5934,479.48718,842.1245,992.8205,-0.09246826171875,0.02734375,0.97930908203125,1.577606201171875,3.850555419921875,1.682281494140625,0.0,4.0,4.0,4.0,4.0,100.0,event
14:34:25.892,0.0,0.0,0.0,0.0,0.0,0.0,0.0,0.0,0.0,0.0,0.0,0.0,0.0,0.0,0.0,0.0,0.0,0.0,0.0,0.0,830.0366,1425.1648,817.1429,833.2601,880.0,-0.09246826171875,0.02734375,0.97930908203125,1.577606201171875,3.850555419921875,1.682281494140625,0.0,4.0,4.0,4.0,4.0,100.0,event
14:34:25.893,0.0,0.0,0.0,0.0,0.0,0.0,0.0,0.0,0.0,0.0,0.0,0.0,0.0,0.0,0.0,0.0,0.0,0.0,0.0,0.0,1037.1428,1633.8828,1214.4323,842.52747,774.43225,-0.09246826171875,0.02734375,0.97930908203125,1.577606201171875,3.850555419921875,1.682281494140625,0.0,4.0,4.0,4.0,4.0,100.0,event
14:34:25.893,0.0,0.0,0.0,0.0,0.0,0.0,0.0,0.0,0.0,0.0,0.0,0.0,0.0,0.0,0.0,0.0,0.0,0.0,0.0,0.0,1006.9231,1253.5165,941.2454,848.97437,843.73627,-0.09246826171875,0.02734375,0.97930908203125,1.577606201171875,3.850555419921875,1.682281494140625,0.0,4.0,4.0,4.0,4.0,100.0,event
14:34:25.894,0.0,0.0,0.0,0.0,0.0,0.0,0.0,0.0,0.0,0.0,0.0,0.0,0.0,0.0,0.0,0.0,0.0,0.0,0.0,0.0,789.7436,1039.9634,465.3846,849.7802,965.0183,-0.09246826171875,0.02734375,0.97930908203125,1.577606201171875,3.850555419921875,1.682281494140625,0.0,4.0,4.0,4.0,4.0,100.0,event
14:34:25.895,0.0,0.0,0.0,0.0,0.0,0.0,0.0,0.0,0.0,0.0,0.0,0.0,0.0,0.0,0.0,0.0,0.0,0.0,0.0,0.0,710.3663,1541.6117,939.6337,850.18317,740.989,-0.09246826171875,0.02734375,0.97930908203125,1.577606201171875,3.850555419921875,1.682281494140625,0.0,4.0,4.0,4.0,4.0,100.0,event
14:34:25.918,0.0,0.0,0.0,0.0,0.0,0.0,0.0,0.0,0.0,0.0,0.0,0.0,0.0,0.0,0.0,0.0,0.0,0.0,0.0,0.0,799.41394,1591.978,1273.2601,842.1245,655.9707,-0.10516357421875,0.0245361328125,0.97760009765625,1.338348388671875,1.143951416015625,1.74957275390625,0.0,4.0,4.0,4.0,4.0,100.0,event
14:34:25.919,0.0,0.0,0.0,0.0,0.0,0.0,0.0,0.0,0.0,0.0,0.0,0.0,0.0,0.0,0.0,0.0,0.0,0.0,0.0,0.0,977.9121,1438.0586,1160.4396,844.5421,774.43225,-0.10516357421875,0.0245361328125,0.97760009765625,1.338348388671875,1.143951416015625,1.74957275390625,0.0,4.0,4.0,4.0,4.0,100.0,event
14:34:25.920,0.0,0.0,0.0,0.0,0.0,0.0,0.0,0.0,0.0,0.0,0.0,0.0,0.0,0.0,0.0,0.0,0.0,0.0,0.0,0.0,798.20514,1411.8682,1042.381,834.0659,736.55676,-0.10516357421875,0.0245361328125,0.97760009765625,1.338348388671875,1.143951416015625,1.74957275390625,0.0,4.0,4.0,4.0,4.0,100.0,event
14:34:25.920,0.0,0.0,0.0,0.0,0.0,0.0,0.0,0.0,0.0,0.0,0.0,0.0,0.0,0.0,0.0,0.0,0.0,0.0,0.0,0.0,991.2088,1433.2234,1100.8059,850.989,797.8022,-0.10516357421875,0.0245361328125,0.97760009765625,1.338348388671875,1.143951416015625,1.74957275390625,0.0,4.0,4.0,4.0,4.0,100.0,event
14:34:25.921,0.0,0.0,0.0,0.0,0.0,0.0,0.0,0.0,0.0,0.0,0.0,0.0,0.0,0.0,0.0,0.0,0.0,0.0,0.0,0.0,678.5348,1368.7546,1003.69965,823.5897,715.6044,-0.10516357421875,0.0245361328125,0.97760009765625,1.338348388671875,1.143951416015625,1.74957275390625,0.0,4.0,4.0,4.0,4.0,100.0,event
14:34:25.921,0.0,0.0,0.0,0.0,0.0,0.0,0.0,0.0,0.0,0.0,0.0,0.0,0.0,0.0,0.0,0.0,0.0,0.0,0.0,0.0,741.79486,1297.4359,932.381,821.978,834.0659,-0.10516357421875,0.0245361328125,0.97760009765625,1.338348388671875,1.143951416015625,1.74957275390625,0.0,4.0,4.0,4.0,4.0,100.0,event
14:34:25.922,0.0,0.0,0.0,0.0,0.0,0.0,0.0,0.0,0.0,0.0,0.0,0.0,0.0,0.0,0.0,0.0,0.0,0.0,0.0,0.0,913.44324,1353.0403,904.57874,826.8132,921.50183,-0.10516357421875,0.0245361328125,0.97760009765625,1.338348388671875,1.143951416015625,1.74957275390625,0.0,4.0,4.0,4.0,4.0,100.0,event
14:34:25.923,0.0,0.0,0.0,0.0,0.0,0.0,0.0,0.0,0.0,0.0,0.0,0.0,0.0,0.0,0.0,0.0,0.0,0.0,0.0,0.0,975.4945,1522.2711,1076.63,834.4689,831.6484,-0.10516357421875,0.0245361328125,0.97760009765625,1.338348388671875,1.143951416015625,1.74957275390625,0.0,4.0,4.0,4.0,4.0,100.0,event
14:34:25.923,0.0,0.0,0.0,0.0,0.0,0.0,0.0,0.0,0.0,0.0,0.0,0.0,0.0,0.0,0.0,0.0,0.0,0.0,0.0,0.0,803.44324,1411.4652,1034.3224,823.9927,685.78754,-0.10516357421875,0.0245361328125,0.97760009765625,1.338348388671875,1.143951416015625,1.74957275390625,0.0,4.0,4.0,4.0,4.0,100.0,event
14:34:25.924,0.0,0.0,0.0,0.0,0.0,0.0,0.0,0.0,0.0,0.0,0.0,0.0,0.0,0.0,0.0,0.0,0.0,0.0,0.0,0.0,636.63007,969.85345,437.58243,828.4249,888.0586,-0.10516357421875,0.0245361328125,0.97760009765625,1.338348388671875,1.143951416015625,1.74957275390625,0.0,4.0,4.0,4.0,4.0,100.0,event
14:34:25.928,0.0,0.0,0.0,0.0,0.0,0.0,0.0,0.0,0.0,0.0,0.0,0.0,0.0,0.0,0.0,0.0,0.0,0.0,0.0,0.0,696.26373,1221.2821,541.9414,840.10986,973.8828,-0.10516357421875,0.0245361328125,0.97760009765625,1.338348388671875,1.143951416015625,1.74957275390625,0.0,4.0,4.0,4.0,4.0,100.0,event
14:34:25.929,0.0,0.0,0.0,0.0,0.0,0.0,0.0,0.0,0.0,0.0,0.0,0.0,0.0,0.0,0.0,0.0,0.0,0.0,0.0,0.0,903.36993,62.05128,1281.3187,838.0952,693.44324,-0.10516357421875,0.0245361328125,0.97760009765625,1.338348388671875,1.143951416015625,1.74957275390625,0.0,4.0,4.0,4.0,4.0,100.0,event
14:34:25.953,0.0,0.0,0.0,0.0,0.0,0.0,0.0,0.0,0.0,0.0,0.0,0.0,0.0,0.0,0.0,0.0,0.0,0.0,0.0,0.0,953.73627,1526.7032,1178.5714,840.9158,782.49084,-0.1112060546875,0.02294921875,0.981689453125,1.734619140625,-1.0467529296875,0.8673095703125,0.0,4.0,4.0,4.0,4.0,100.0,event
14:34:25.955,0.0,0.0,0.0,0.0,0.0,0.0,0.0,0.0,0.0,0.0,0.0,0.0,0.0,0.0,0.0,0.0,0.0,0.0,0.0,0.0,578.20514,1476.7399,903.36993,826.8132,707.9487,-0.1112060546875,0.02294921875,0.981689453125,1.734619140625,-1.0467529296875,0.8673095703125,0.0,4.0,4.0,4.0,4.0,100.0,event
14:34:25.955,0.0,0.0,0.0,0.0,0.0,0.0,0.0,0.0,0.0,0.0,0.0,0.0,0.0,0.0,0.0,0.0,0.0,0.0,0.0,0.0,752.674,1337.7289,830.4396,834.0659,847.3626,-0.1112060546875,0.02294921875,0.981689453125,1.734619140625,-1.0467529296875,0.8673095703125,0.0,4.0,4.0,4.0,4.0,100.0,event
14:34:25.956,0.0,0.0,0.0,0.0,0.0,0.0,0.0,0.0,0.0,0.0,0.0,0.0,0.0,0.0,0.0,0.0,0.0,0.0,0.0,0.0,618.49817,1637.1062,1201.9414,834.0659,680.9524,-0.1112060546875,0.02294921875,0.981689453125,1.734619140625,-1.0467529296875,0.8673095703125,0.0,4.0,4.0,4.0,4.0,100.0,event
14:34:25.957,0.0,0.0,0.0,0.0,0.0,0.0,0.0,0.0,0.0,0.0,0.0,0.0,0.0,0.0,0.0,0.0,0.0,0.0,0.0,0.0,895.7143,1386.8865,929.9634,841.31866,880.0,-0.1112060546875,0.02294921875,0.981689453125,1.734619140625,-1.0467529296875,0.8673095703125,0.0,4.0,4.0,4.0,4.0,100.0,event
14:34:25.957,0.0,0.0,0.0,0.0,0.0,0.0,0.0,0.0,0.0,0.0,0.0,0.0,0.0,0.0,0.0,0.0,0.0,0.0,0.0,0.0,801.8315,1511.7949,1183.8096,839.304,786.1172,-0.1112060546875,0.02294921875,0.981689453125,1.734619140625,-1.0467529296875,0.8673095703125,0.0,4.0,4.0,4.0,4.0,100.0,event
14:34:25.958,0.0,0.0,0.0,0.0,0.0,0.0,0.0,0.0,0.0,0.0,0.0,0.0,0.0,0.0,0.0,0.0,0.0,0.0,0.0,0.0,751.4652,1397.3627,756.30035,846.9597,900.54944,-0.1112060546875,0.02294921875,0.981689453125,1.734619140625,-1.0467529296875,0.8673095703125,0.0,4.0,4.0,4.0,4.0,100.0,event
14:34:25.959,0.0,0.0,0.0,0.0,0.0,0.0,0.0,0.0,0.0,0.0,0.0,0.0,0.0,0.0,0.0,0.0,0.0,0.0,0.0,0.0,552.8205,1520.2565,843.73627,827.2161,806.26373,-0.1112060546875,0.02294921875,0.981689453125,1.734619140625,-1.0467529296875,0.8673095703125,0.0,4.0,4.0,4.0,4.0,100.0,event
14:34:25.959,0.0,0.0,0.0,0.0,0.0,0.0,0.0,0.0,0.0,0.0,0.0,0.0,0.0,0.0,0.0,0.0,0.0,0.0,0.0,0.0,552.8205,1460.2197,846.1539,819.15753,819.5604,-0.1112060546875,0.02294921875,0.981689453125,1.734619140625,-1.0467529296875,0.8673095703125,0.0,4.0,4.0,4.0,4.0,100.0,event
14:34:25.960,0.0,0.0,0.0,0.0,0.0,0.0,0.0,0.0,0.0,0.0,0.0,0.0,0.0,0.0,0.0,0.0,0.0,0.0,0.0,0.0,753.0769,1384.0659,848.97437,837.6923,929.9634,-0.1112060546875,0.02294921875,0.981689453125,1.734619140625,-1.0467529296875,0.8673095703125,0.0,4.0,4.0,4.0,4.0,100.0,event
14:34:25.960,0.0,0.0,0.0,0.0,0.0,0.0,0.0,0.0,0.0,0.0,0.0,0.0,0.0,0.0,0.0,0.0,0.0,0.0,0.0,0.0,903.36993,1635.0916,1201.5385,833.663,807.47253,-0.1112060546875,0.02294921875,0.981689453125,1.734619140625,-1.0467529296875,0.8673095703125,0.0,4.0,4.0,4.0,4.0,100.0,event
14:34:25.961,0.0,0.0,0.0,0.0,0.0,0.0,0.0,0.0,0.0,0.0,0.0,0.0,0.0,0.0,0.0,0.0,0.0,0.0,0.0,0.0,780.87915,8.058608,1176.9597,826.4103,729.304,-0.1112060546875,0.02294921875,0.981689453125,1.734619140625,-1.0467529296875,0.8673095703125,0.0,4.0,4.0,4.0,4.0,100.0,event
14:34:25.987,0.0,0.0,0.0,0.0,0.0,0.0,0.0,0.0,0.0,0.0,0.0,0.0,0.0,0.0,0.0,0.0,0.0,0.0,0.0,0.0,553.6264,1262.7839,695.05493,818.7546,938.022,-0.11077880859375,0.029296875,0.982421875,2.40753173828125,-4.239349365234375,-0.186920166015625,0.0,4.0,4.0,4.0,4.0,100.0,event
14:34:25.989,0.0,0.0,0.0,0.0,0.0,0.0,0.0,0.0,0.0,0.0,0.0,0.0,0.0,0.0,0.0,0.0,0.0,0.0,0.0,0.0,523.4066,1193.0769,404.5421,814.7253,1105.238,-0.11077880859375,0.029296875,0.982421875,2.40753173828125,-4.239349365234375,-0.186920166015625,0.0,4.0,4.0,4.0,4.0,100.0,event
14:34:25.989,0.0,0.0,0.0,0.0,0.0,0.0,0.0,0.0,0.0,0.0,0.0,0.0,0.0,0.0,0.0,0.0,0.0,0.0,0.0,0.0,720.4396,1639.9268,1044.3956,817.5458,862.674,-0.11077880859375,0.029296875,0.982421875,2.40753173828125,-4.239349365234375,-0.186920166015625,0.0,4.0,4.0,4.0,4.0,100.0,event
14:34:25.990,0.0,0.0,0.0,0.0,0.0,0.0,0.0,0.0,0.0,0.0,0.0,0.0,0.0,0.0,0.0,0.0,0.0,0.0,0.0,0.0,880.40295,1645.5677,1322.4176,834.0659,748.6447,-0.11077880859375,0.029296875,0.982421875,2.40753173828125,-4.239349365234375,-0.186920166015625,0.0,4.0,4.0,4.0,4.0,100.0,event
14:34:25.991,0.0,0.0,0.0,0.0,0.0,0.0,0.0,0.0,0.0,0.0,0.0,0.0,0.0,0.0,0.0,0.0,0.0,0.0,0.0,0.0,552.8205,1440.4762,726.4835,817.1429,855.82416,-0.11077880859375,0.029296875,0.982421875,2.40753173828125,-4.239349365234375,-0.186920166015625,0.0,4.0,4.0,4.0,4.0,100.0,event
14:34:25.991,0.0,0.0,0.0,0.0,0.0,0.0,0.0,0.0,0.0,0.0,0.0,0.0,0.0,0.0,0.0,0.0,0.0,0.0,0.0,0.0,759.12085,1513.8096,968.24176,835.2747,819.5604,-0.11077880859375,0.029296875,0.982421875,2.40753173828125,-4.239349365234375,-0.186920166015625,0.0,4.0,4.0,4.0,4.0,100.0,event
14:34:25.992,0.0,0.0,0.0,0.0,0.0,0.0,0.0,0.0,0.0,0.0,0.0,0.0,0.0,0.0,0.0,0.0,0.0,0.0,0.0,0.0,550.0,1547.2528,805.4579,814.3223,807.47253,-0.11077880859375,0.029296875,0.982421875,2.40753173828125,-4.239349365234375,-0.186920166015625,0.0,4.0,4.0,4.0,4.0,100.0,event
14:34:25.992,0.0,0.0,0.0,0.0,0.0,0.0,0.0,0.0,0.0,0.0,0.0,0.0,0.0,0.0,0.0,0.0,0.0,0.0,0.0,0.0,703.91943,19.74359,1139.4872,812.71063,769.19415,-0.11077880859375,0.029296875,0.982421875,2.40753173828125,-4.239349365234375,-0.186920166015625,0.0,4.0,4.0,4.0,4.0,100.0,event
14:34:25.993,0.0,0.0,0.0,0.0,0.0,0.0,0.0,0.0,0.0,0.0,0.0,0.0,0.0,0.0,0.0,0.0,0.0,0.0,0.0,0.0,856.63007,1371.978,854.21246,827.619,991.2088,-0.11077880859375,0.029296875,0.982421875,2.40753173828125,-4.239349365234375,-0.186920166015625,0.0,4.0,4.0,4.0,4.0,100.0,event
14:34:25.994,0.0,0.0,0.0,0.0,0.0,0.0,0.0,0.0,0.0,0.0,0.0,0.0,0.0,0.0,0.0,0.0,0.0,0.0,0.0,0.0,798.20514,1349.8169,588.68134,833.663,1015.38464,-0.11077880859375,0.029296875,0.982421875,2.40753173828125,-4.239349365234375,-0.186920166015625,0.0,4.0,4.0,4.0,4.0,100.0,event
14:34:25.994,0.0,0.0,0.0,0.0,0.0,0.0,0.0,0.0,0.0,0.0,0.0,0.0,0.0,0.0,0.0,0.0,0.0,0.0,0.0,0.0,620.5128,30.21978,1013.36993,807.8755,737.76556,-0.11077880859375,0.029296875,0.982421875,2.40753173828125,-4.239349365234375,-0.186920166015625,0.0,4.0,4.0,4.0,4.0,100.0,event
14:34:25.995,0.0,0.0,0.0,0.0,0.0,0.0,0.0,0.0,0.0,0.0,0.0,0.0,0.0,0.0,0.0,0.0,0.0,0.0,0.0,0.0,561.28204,1583.5165,1028.6813,810.293,694.65204,-0.11077880859375,0.029296875,0.982421875,2.40753173828125,-4.239349365234375,-0.186920166015625,0.0,4.0,4.0,4.0,4.0,100.0,event
14:34:26.082,0.0,0.0,0.0,0.0,0.0,0.0,0.0,0.0,0.0,0.0,0.0,0.0,0.0,0.0,0.0,0.0,0.0,0.0,0.0,0.0,694.65204,1534.359,1034.7252,827.619,713.1868,-0.11077880859375,0.029296875,0.982421875,2.40753173828125,-4.239349365234375,-0.186920166015625,0.0,4.0,4.0,4.0,4.0,100.0,event
14:34:26.083,0.0,0.0,0.0,0.0,0.0,0.0,0.0,0.0,0.0,0.0,0.0,0.0,0.0,0.0,0.0,0.0,0.0,0.0,0.0,0.0,892.0879,1623.4066,1241.0256,826.4103,741.39197,-0.11077880859375,0.029296875,0.982421875,2.40753173828125,-4.239349365234375,-0.186920166015625,0.0,4.0,4.0,4.0,4.0,100.0,event
14:34:26.085,0.0,0.0,0.0,0.0,0.0,0.0,0.0,0.0,0.0,0.0,0.0,0.0,0.0,0.0,0.0,0.0,0.0,0.0,0.0,0.0,866.7033,1635.0916,1205.5677,817.5458,723.663,-0.11077880859375,0.029296875,0.982421875,2.40753173828125,-4.239349365234375,-0.186920166015625,0.0,4.0,4.0,4.0,4.0,100.0,event
14:34:26.086,0.0,0.0,0.0,0.0,0.0,0.0,0.0,0.0,0.0,0.0,0.0,0.0,0.0,0.0,0.0,0.0,0.0,0.0,0.0,0.0,633.4066,1364.7252,813.1135,813.1135,799.011,-0.11077880859375,0.029296875,0.982421875,2.40753173828125,-4.239349365234375,-0.186920166015625,0.0,4.0,4.0,4.0,4.0,100.0,event
14:34:26.088,0.0,0.0,0.0,0.0,0.0,0.0,0.0,0.0,0.0,0.0,0.0,0.0,0.0,0.0,0.0,0.0,0.0,0.0,0.0,0.0,547.5824,1324.8352,694.65204,813.5165,821.5751,-0.11077880859375,0.029296875,0.982421875,2.40753173828125,-4.239349365234375,-0.186920166015625,0.0,4.0,4.0,4.0,4.0,100.0,event
14:34:26.089,0.0,0.0,0.0,0.0,0.0,0.0,0.0,0.0,0.0,0.0,0.0,0.0,0.0,0.0,0.0,0.0,0.0,0.0,0.0,0.0,691.4286,1534.359,929.9634,823.1868,780.4762,-0.11077880859375,0.029296875,0.982421875,2.40753173828125,-4.239349365234375,-0.186920166015625,0.0,4.0,4.0,4.0,4.0,100.0,event
14:34:26.091,0.0,0.0,0.0,0.0,0.0,0.0,0.0,0.0,0.0,0.0,0.0,0.0,0.0,0.0,0.0,0.0,0.0,0.0,0.0,0.0,919.4872,1559.3407,994.0293,834.87177,796.1905,-0.11077880859375,0.029296875,0.982421875,2.40753173828125,-4.239349365234375,-0.186920166015625,0.0,4.0,4.0,4.0,4.0,100.0,event
