TimeStamp,Delta_TP9,Delta_AF7,Delta_AF8,Delta_TP10,Theta_TP9,Theta_AF7,Theta_AF8,Theta_TP10,Alpha_TP9,Alpha_AF7,Alpha_AF8,Alpha_TP10,Beta_TP9,Beta_AF7,Beta_AF8,Beta_TP10,Gamma_TP9,Gamma_AF7,Gamma_AF8,Gamma_TP10,RAW_TP9,RAW_AF7,RAW_AF8,RAW_TP10,AUX_RIGHT,Accelerometer_X,Accelerometer_Y,Accelerometer_Z,Gyro_X,Gyro_Y,Gyro_Z,HeadBandOn,HSI_TP9,HSI_AF7,HSI_AF8,HSI_TP10,Battery,Elements
15:19:10.079,1.3753287,0.41766816,0.43127266,0.75502646,0.9595783,-0.03473798,-0.07555087,0.5601103,1.1597807,0.15260331,0.12997137,0.8859534,0.5243821,-0.08191299,-0.10136285,0.72571266,0.36199543,-0.43230328,-0.4813776,0.25752258,791.3553,803.0403,803.0403,792.96704,704.3223,-0.2965087890625,0.033203125,0.94525146484375,1.936492919921875,-2.833709716796875,-0.246734619140625,1.0,2.0,1.0,1.0,2.0,80.0,event
15:19:10.080,1.3753287,0.41766816,0.43127266,0.75502646,0.9595783,-0.03473798,-0.07555087,0.5601103,1.1597807,0.15260331,0.12997137,0.8859534,0.5243821,-0.08191299,-0.10136285,0.72571266,0.36199543,-0.43230328,-0.4813776,0.25752258,788.93774,804.2491,797.3993,788.5348,713.5897,-0.2965087890625,0.033203125,0.94525146484375,1.936492919921875,-2.833709716796875,-0.246734619140625,1.0,2.0,1.0,1.0,2.0,80.0,event
15:19:10.081,1.3753287,0.41766816,0.43127266,0.75502646,0.9595783,-0.03473798,-0.07555087,0.5601103,1.1597807,0.15260331,0.12997137,0.8859534,0.5243821,-0.08191299,-0.10136285,0.72571266,0.36199543,-0.43230328,-0.4813776,0.25752258,788.1319,805.05493,799.011,794.57874,813.1135,-0.2965087890625,0.033203125,0.94525146484375,1.936492919921875,-2.833709716796875,-0.246734619140625,1.0,2.0,1.0,1.0,2.0,80.0,event
15:19:10.082,1.3753287,0.41766816,0.43127266,0.75502646,0.9595783,-0.03473798,-0.07555087,0.5601103,1.1597807,0.15260331,0.12997137,0.8859534,0.5243821,-0.08191299,-0.10136285,0.72571266,0.36199543,-0.43230328,-0.4813776,0.25752258,782.0879,805.8608,801.8315,784.10254,834.87177,-0.2965087890625,0.033203125,0.94525146484375,1.936492919921875,-2.833709716796875,-0.246734619140625,1.0,2.0,1.0,1.0,2.0,80.0,event
15:19:10.083,1.3753287,0.41766816,0.43127266,0.75502646,0.9595783,-0.03473798,-0.07555087,0.5601103,1.1597807,0.15260331,0.12997137,0.8859534,0.5243821,-0.08191299,-0.10136285,0.72571266,0.36199543,-0.43230328,-0.4813776,0.25752258,788.93774,803.8461,803.44324,791.75824,700.293,-0.2965087890625,0.033203125,0.94525146484375,1.936492919921875,-2.833709716796875,-0.246734619140625,1.0,2.0,1.0,1.0,2.0,80.0,event
15:19:10.084,1.3753287,0.41766816,0.43127266,0.75502646,0.9595783,-0.03473798,-0.07555087,0.5601103,1.1597807,0.15260331,0.12997137,0.8859534,0.5243821,-0.08191299,-0.10136285,0.72571266,0.36199543,-0.43230328,-0.4813776,0.25752258,792.96704,803.44324,805.8608,797.8022,763.5531,-0.2965087890625,0.033203125,0.94525146484375,1.936492919921875,-2.833709716796875,-0.246734619140625,1.0,2.0,1.0,1.0,2.0,80.0,event
15:19:10.085,1.3753287,0.41766816,0.43127266,0.75502646,0.9595783,-0.03473798,-0.07555087,0.5601103,1.1597807,0.15260331,0.12997137,0.8859534,0.5243821,-0.08191299,-0.10136285,0.72571266,0.36199543,-0.43230328,-0.4813776,0.25752258,782.0879,803.44324,801.02563,797.8022,1142.7106,-0.2965087890625,0.033203125,0.94525146484375,1.936492919921875,-2.833709716796875,-0.246734619140625,1.0,2.0,1.0,1.0,2.0,80.0,event
15:19:10.085,1.3753287,0.41766816,0.43127266,0.75502646,0.9595783,-0.03473798,-0.07555087,0.5601103,1.1597807,0.15260331,0.12997137,0.8859534,0.5243821,-0.08191299,-0.10136285,0.72571266,0.36199543,-0.43230328,-0.4813776,0.25752258,782.49084,803.44324,801.4286,796.5934,994.0293,-0.2965087890625,0.033203125,0.94525146484375,1.936492919921875,-2.833709716796875,-0.246734619140625,1.0,2.0,1.0,1.0,2.0,80.0,event
15:19:10.086,1.3753287,0.41766816,0.43127266,0.75502646,0.9595783,-0.03473798,-0.07555087,0.5601103,1.1597807,0.15260331,0.12997137,0.8859534,0.5243821,-0.08191299,-0.10136285,0.72571266,0.36199543,-0.43230328,-0.4813776,0.25752258,785.7143,804.65204,803.44324,799.011,716.4103,-0.2965087890625,0.033203125,0.94525146484375,1.936492919921875,-2.833709716796875,-0.246734619140625,1.0,2.0,1.0,1.0,2.0,80.0,event
15:19:10.088,1.3753287,0.41766816,0.43127266,0.75502646,0.9595783,-0.03473798,-0.07555087,0.5601103,1.1597807,0.15260331,0.12997137,0.8859534,0.5243821,-0.08191299,-0.10136285,0.72571266,0.36199543,-0.43230328,-0.4813776,0.25752258,791.75824,806.6667,805.05493,799.011,751.4652,-0.2965087890625,0.033203125,0.94525146484375,1.936492919921875,-2.833709716796875,-0.246734619140625,1.0,2.0,1.0,1.0,2.0,80.0,event
15:19:10.089,1.3753287,0.41766816,0.43127266,0.75502646,0.9595783,-0.03473798,-0.07555087,0.5601103,1.1597807,0.15260331,0.12997137,0.8859534,0.5243821,-0.08191299,-0.10136285,0.72571266,0.36199543,-0.43230328,-0.4813776,0.25752258,799.011,811.0989,807.0696,785.31134,688.60803,-0.2965087890625,0.033203125,0.94525146484375,1.936492919921875,-2.833709716796875,-0.246734619140625,1.0,2.0,1.0,1.0,2.0,80.0,event
15:19:10.090,1.3753287,0.41766816,0.43127266,0.75502646,0.9595783,-0.03473798,-0.07555087,0.5601103,1.1597807,0.15260331,0.12997137,0.8859534,0.5243821,-0.08191299,-0.10136285,0.72571266,0.36199543,-0.43230328,-0.4813776,0.25752258,793.36993,811.9048,805.8608,788.5348,660.80585,-0.2965087890625,0.033203125,0.94525146484375,1.936492919921875,-2.833709716796875,-0.246734619140625,1.0,2.0,1.0,1.0,2.0,80.0,event
15:19:10.116,1.3753287,0.41766816,0.43127266,0.75502646,0.9595783,-0.03473798,-0.07555087,0.5601103,1.1597807,0.15260331,0.12997137,0.8859534,0.5243821,-0.08191299,-0.10136285,0.72571266,0.36199543,-0.43230328,-0.4813776,0.25752258,789.34064,806.6667,803.8461,793.7729,719.2308,-0.29364013671875,0.03363037109375,0.94427490234375,1.457977294921875,-3.78326416015625,0.261688232421875,1.0,2.0,1.0,1.0,2.0,80.0,event
15:19:10.118,1.3753287,0.41766816,0.43127266,0.75502646,0.9595783,-0.03473798,-0.07555087,0.5601103,1.1597807,0.15260331,0.12997137,0.8859534,0.5243821,-0.08191299,-0.10136285,0.72571266,0.36199543,-0.43230328,-0.4813776,0.25752258,790.54944,810.696,801.02563,784.5055,825.2015,-0.29364013671875,0.03363037109375,0.94427490234375,1.457977294921875,-3.78326416015625,0.261688232421875,1.0,2.0,1.0,1.0,2.0,80.0,event
15:19:10.118,1.3753287,0.41766816,0.43127266,0.75502646,0.9595783,-0.03473798,-0.07555087,0.5601103,1.1597807,0.15260331,0.12997137,0.8859534,0.5243821,-0.08191299,-0.10136285,0.72571266,0.36199543,-0.43230328,-0.4813776,0.25752258,789.34064,805.4579,803.0403,788.5348,805.4579,-0.29364013671875,0.03363037109375,0.94427490234375,1.457977294921875,-3.78326416015625,0.261688232421875,1.0,2.0,1.0,1.0,2.0,80.0,event
15:19:10.119,0.9510777,0.4260862,0.33007976,0.7338056,0.23278251,-0.022549147,-0.14155515,0.16056605,0.40947208,0.18019113,0.12507166,0.38970095,0.64292717,-0.0818717,-0.10705104,0.9011952,0.009570454,-0.42323795,-0.4781386,0.18603064,788.1319,810.293,802.23444,788.5348,759.92676,-0.29364013671875,0.03363037109375,0.94427490234375,1.457977294921875,-3.78326416015625,0.261688232421875,1.0,2.0,1.0,1.0,2.0,80.0,event
15:19:10.124,0.9510777,0.4260862,0.33007976,0.7338056,0.23278251,-0.022549147,-0.14155515,0.16056605,0.40947208,0.18019113,0.12507166,0.38970095,0.64292717,-0.0818717,-0.10705104,0.9011952,0.009570454,-0.42323795,-0.4781386,0.18603064,784.90845,804.2491,800.6227,780.87915,768.3883,-0.29364013671875,0.03363037109375,0.94427490234375,1.457977294921875,-3.78326416015625,0.261688232421875,1.0,2.0,1.0,1.0,2.0,80.0,event
15:19:10.125,0.9510777,0.4260862,0.33007976,0.7338056,0.23278251,-0.022549147,-0.14155515,0.16056605,0.40947208,0.18019113,0.12507166,0.38970095,0.64292717,-0.0818717,-0.10705104,0.9011952,0.009570454,-0.42323795,-0.4781386,0.18603064,784.90845,807.0696,800.2198,789.7436,914.2491,-0.29364013671875,0.03363037109375,0.94427490234375,1.457977294921875,-3.78326416015625,0.261688232421875,1.0,2.0,1.0,1.0,2.0,80.0,event
15:19:10.125,0.9510777,0.4260862,0.33007976,0.7338056,0.23278251,-0.022549147,-0.14155515,0.16056605,0.40947208,0.18019113,0.12507166,0.38970095,0.64292717,-0.0818717,-0.10705104,0.9011952,0.009570454,-0.42323795,-0.4781386,0.18603064,789.34064,806.26373,799.81683,798.60803,979.5238,-0.29364013671875,0.03363037109375,0.94427490234375,1.457977294921875,-3.78326416015625,0.261688232421875,1.0,2.0,1.0,1.0,2.0,80.0,event
15:19:10.126,0.9510777,0.4260862,0.33007976,0.7338056,0.23278251,-0.022549147,-0.14155515,0.16056605,0.40947208,0.18019113,0.12507166,0.38970095,0.64292717,-0.0818717,-0.10705104,0.9011952,0.009570454,-0.42323795,-0.4781386,0.18603064,786.1172,804.2491,799.81683,790.54944,864.2857,-0.29364013671875,0.03363037109375,0.94427490234375,1.457977294921875,-3.78326416015625,0.261688232421875,1.0,2.0,1.0,1.0,2.0,80.0,event
15:19:10.127,0.9510777,0.4260862,0.33007976,0.7338056,0.23278251,-0.022549147,-0.14155515,0.16056605,0.40947208,0.18019113,0.12507166,0.38970095,0.64292717,-0.0818717,-0.10705104,0.9011952,0.009570454,-0.42323795,-0.4781386,0.18603064,786.52014,807.47253,801.8315,782.8938,741.79486,-0.29364013671875,0.03363037109375,0.94427490234375,1.457977294921875,-3.78326416015625,0.261688232421875,1.0,2.0,1.0,1.0,2.0,80.0,event
15:19:10.127,0.9510777,0.4260862,0.33007976,0.7338056,0.23278251,-0.022549147,-0.14155515,0.16056605,0.40947208,0.18019113,0.12507166,0.38970095,0.64292717,-0.0818717,-0.10705104,0.9011952,0.009570454,-0.42323795,-0.4781386,0.18603064,790.9524,805.4579,801.02563,774.0293,973.0769,-0.29364013671875,0.03363037109375,0.94427490234375,1.457977294921875,-3.78326416015625,0.261688232421875,1.0,2.0,1.0,1.0,2.0,80.0,event
15:19:10.128,0.9510777,0.4260862,0.33007976,0.7338056,0.23278251,-0.022549147,-0.14155515,0.16056605,0.40947208,0.18019113,0.12507166,0.38970095,0.64292717,-0.0818717,-0.10705104,0.9011952,0.009570454,-0.42323795,-0.4781386,0.18603064,790.14655,805.8608,805.8608,784.90845,701.0989,-0.29364013671875,0.03363037109375,0.94427490234375,1.457977294921875,-3.78326416015625,0.261688232421875,1.0,2.0,1.0,1.0,2.0,80.0,event
15:19:10.128,0.9510777,0.4260862,0.33007976,0.7338056,0.23278251,-0.022549147,-0.14155515,0.16056605,0.40947208,0.18019113,0.12507166,0.38970095,0.64292717,-0.0818717,-0.10705104,0.9011952,0.009570454,-0.42323795,-0.4781386,0.18603064,790.9524,803.8461,802.6374,778.46155,946.08057,-0.29364013671875,0.03363037109375,0.94427490234375,1.457977294921875,-3.78326416015625,0.261688232421875,1.0,2.0,1.0,1.0,2.0,80.0,event
15:19:10.159,0.9510777,0.4260862,0.33007976,0.7338056,0.23278251,-0.022549147,-0.14155515,0.16056605,0.40947208,0.18019113,0.12507166,0.38970095,0.64292717,-0.0818717,-0.10705104,0.9011952,0.009570454,-0.42323795,-0.4781386,0.18603064,787.72894,805.05493,802.6374,787.72894,726.08057,-0.29364013671875,0.03472900390625,0.94647216796875,1.1065673828125,-4.673004150390625,1.016845703125,1.0,2.0,1.0,1.0,2.0,80.0,event
15:19:10.161,0.9510777,0.4260862,0.33007976,0.7338056,0.23278251,-0.022549147,-0.14155515,0.16056605,0.40947208,0.18019113,0.12507166,0.38970095,0.64292717,-0.0818717,-0.10705104,0.9011952,0.009570454,-0.42323795,-0.4781386,0.18603064,780.07324,799.011,795.38464,771.6117,722.8571,-0.29364013671875,0.03472900390625,0.94647216796875,1.1065673828125,-4.673004150390625,1.016845703125,1.0,2.0,1.0,1.0,2.0,80.0,event
15:19:10.161,0.9510777,0.4260862,0.33007976,0.7338056,0.23278251,-0.022549147,-0.14155515,0.16056605,0.40947208,0.18019113,0.12507166,0.38970095,0.64292717,-0.0818717,-0.10705104,0.9011952,0.009570454,-0.42323795,-0.4781386,0.18603064,786.52014,801.02563,796.5934,784.10254,797.3993,-0.29364013671875,0.03472900390625,0.94647216796875,1.1065673828125,-4.673004150390625,1.016845703125,1.0,2.0,1.0,1.0,2.0,80.0,event
15:19:10.162,0.9510777,0.4260862,0.33007976,0.7338056,0.23278251,-0.022549147,-0.14155515,0.16056605,0.40947208,0.18019113,0.12507166,0.38970095,0.64292717,-0.0818717,-0.10705104,0.9011952,0.009570454,-0.42323795,-0.4781386,0.18603064,781.28204,801.4286,797.3993,776.04395,683.36993,-0.29364013671875,0.03472900390625,0.94647216796875,1.1065673828125,-4.673004150390625,1.016845703125,1.0,2.0,1.0,1.0,2.0,80.0,event
15:19:10.162,0.9510777,0.4260862,0.33007976,0.7338056,0.23278251,-0.022549147,-0.14155515,0.16056605,0.40947208,0.18019113,0.12507166,0.38970095,0.64292717,-0.0818717,-0.10705104,0.9011952,0.009570454,-0.42323795,-0.4781386,0.18603064,784.90845,799.81683,801.02563,782.8938,745.42126,-0.29364013671875,0.03472900390625,0.94647216796875,1.1065673828125,-4.673004150390625,1.016845703125,1.0,2.0,1.0,1.0,2.0,80.0,event
15:19:10.163,0.9510777,0.4260862,0.33007976,0.7338056,0.23278251,-0.022549147,-0.14155515,0.16056605,0.40947208,0.18019113,0.12507166,0.38970095,0.64292717,-0.0818717,-0.10705104,0.9011952,0.009570454,-0.42323795,-0.4781386,0.18603064,786.9231,799.81683,801.8315,782.8938,877.1795,-0.29364013671875,0.03472900390625,0.94647216796875,1.1065673828125,-4.673004150390625,1.016845703125,1.0,2.0,1.0,1.0,2.0,80.0,event
15:19:10.164,0.9510777,0.4260862,0.33007976,0.7338056,0.23278251,-0.022549147,-0.14155515,0.16056605,0.40947208,0.18019113,0.12507166,0.38970095,0.64292717,-0.0818717,-0.10705104,0.9011952,0.009570454,-0.42323795,-0.4781386,0.18603064,783.69965,803.8461,803.0403,788.1319,890.87915,-0.29364013671875,0.03472900390625,0.94647216796875,1.1065673828125,-4.673004150390625,1.016845703125,1.0,2.0,1.0,1.0,2.0,80.0,event
15:19:10.164,0.9510777,0.4260862,0.33007976,0.7338056,0.23278251,-0.022549147,-0.14155515,0.16056605,0.40947208,0.18019113,0.12507166,0.38970095,0.64292717,-0.0818717,-0.10705104,0.9011952,0.009570454,-0.42323795,-0.4781386,0.18603064,770.0,804.2491,805.4579,776.8498,714.7985,-0.29364013671875,0.03472900390625,0.94647216796875,1.1065673828125,-4.673004150390625,1.016845703125,1.0,2.0,1.0,1.0,2.0,80.0,event
15:19:10.165,0.9510777,0.4260862,0.33007976,0.7338056,0.23278251,-0.022549147,-0.14155515,0.16056605,0.40947208,0.18019113,0.12507166,0.38970095,0.64292717,-0.0818717,-0.10705104,0.9011952,0.009570454,-0.42323795,-0.4781386,0.18603064,778.46155,803.0403,804.2491,775.64105,770.80585,-0.29364013671875,0.03472900390625,0.94647216796875,1.1065673828125,-4.673004150390625,1.016845703125,1.0,2.0,1.0,1.0,2.0,80.0,event
15:19:10.165,0.9510777,0.4260862,0.33007976,0.7338056,0.23278251,-0.022549147,-0.14155515,0.16056605,0.40947208,0.18019113,0.12507166,0.38970095,0.64292717,-0.0818717,-0.10705104,0.9011952,0.009570454,-0.42323795,-0.4781386,0.18603064,788.1319,801.4286,801.4286,796.99634,1109.6703,-0.29364013671875,0.03472900390625,0.94647216796875,1.1065673828125,-4.673004150390625,1.016845703125,1.0,2.0,1.0,1.0,2.0,80.0,event
15:19:10.166,0.9510777,0.4260862,0.33007976,0.7338056,0.23278251,-0.022549147,-0.14155515,0.16056605,0.40947208,0.18019113,0.12507166,0.38970095,0.64292717,-0.0818717,-0.10705104,0.9011952,0.009570454,-0.42323795,-0.4781386,0.18603064,778.86444,800.6227,799.81683,793.7729,879.19415,-0.29364013671875,0.03472900390625,0.94647216796875,1.1065673828125,-4.673004150390625,1.016845703125,1.0,2.0,1.0,1.0,2.0,80.0,event
15:19:10.166,0.9510777,0.4260862,0.33007976,0.7338056,0.23278251,-0.022549147,-0.14155515,0.16056605,0.40947208,0.18019113,0.12507166,0.38970095,0.64292717,-0.0818717,-0.10705104,0.9011952,0.009570454,-0.42323795,-0.4781386,0.18603064,781.28204,801.4286,802.6374,794.9817,653.95605,-0.29364013671875,0.03472900390625,0.94647216796875,1.1065673828125,-4.673004150390625,1.016845703125,1.0,2.0,1.0,1.0,2.0,80.0,event
15:19:10.190,0.9510777,0.4260862,0.33007976,0.7338056,0.23278251,-0.022549147,-0.14155515,0.16056605,0.40947208,0.18019113,0.12507166,0.38970095,0.64292717,-0.0818717,-0.10705104,0.9011952,0.009570454,-0.42323795,-0.4781386,0.18603064,774.43225,803.8461,802.6374,794.9817,746.63007,-0.29522705078125,0.0338134765625,0.94525146484375,2.0635986328125,-4.83001708984375,1.742095947265625,1.0,2.0,1.0,1.0,2.0,80.0,event
15:19:10.191,0.9510777,0.4260862,0.33007976,0.7338056,0.23278251,-0.022549147,-0.14155515,0.16056605,0.40947208,0.18019113,0.12507166,0.38970095,0.64292717,-0.0818717,-0.10705104,0.9011952,0.009570454,-0.42323795,-0.4781386,0.18603064,778.86444,803.44324,799.41394,787.326,679.34064,-0.29522705078125,0.0338134765625,0.94525146484375,2.0635986328125,-4.83001708984375,1.742095947265625,1.0,2.0,1.0,1.0,2.0,80.0,event
15:19:10.192,0.9510777,0.4260862,0.33007976,0.7338056,0.23278251,-0.022549147,-0.14155515,0.16056605,0.40947208,0.18019113,0.12507166,0.38970095,0.64292717,-0.0818717,-0.10705104,0.9011952,0.009570454,-0.42323795,-0.4781386,0.18603064,787.72894,803.0403,801.02563,790.14655,656.3736,-0.29522705078125,0.0338134765625,0.94525146484375,2.0635986328125,-4.83001708984375,1.742095947265625,1.0,2.0,1.0,1.0,2.0,80.0,event
15:19:10.192,0.9510777,0.4260862,0.33007976,0.7338056,0.23278251,-0.022549147,-0.14155515,0.16056605,0.40947208,0.18019113,0.12507166,0.38970095,0.64292717,-0.0818717,-0.10705104,0.9011952,0.009570454,-0.42323795,-0.4781386,0.18603064,779.2674,802.6374,800.6227,778.0586,724.0659,-0.29522705078125,0.0338134765625,0.94525146484375,2.0635986328125,-4.83001708984375,1.742095947265625,1.0,2.0,1.0,1.0,2.0,80.0,event
15:19:10.193,0.9510777,0.4260862,0.33007976,0.7338056,0.23278251,-0.022549147,-0.14155515,0.16056605,0.40947208,0.18019113,0.12507166,0.38970095,0.64292717,-0.0818717,-0.10705104,0.9011952,0.009570454,-0.42323795,-0.4781386,0.18603064,784.5055,802.23444,796.1905,758.71796,794.17584,-0.29522705078125,0.0338134765625,0.94525146484375,2.0635986328125,-4.83001708984375,1.742095947265625,1.0,2.0,1.0,1.0,2.0,80.0,event
15:19:10.194,0.93443036,0.44163522,0.29058185,0.67541754,0.31695792,-0.0073960135,-0.1684839,0.1698374,0.42632324,0.20234159,0.099014774,0.3946272,0.61460024,-0.08727511,-0.10948385,0.86414737,-0.008002641,-0.4078717,-0.47393826,0.1956388,773.6264,796.99634,799.41394,759.5238,838.0952,-0.29522705078125,0.0338134765625,0.94525146484375,2.0635986328125,-4.83001708984375,1.742095947265625,1.0,1.0,1.0,1.0,1.0,80.0,event
15:19:10.198,0.93443036,0.44163522,0.29058185,0.67541754,0.31695792,-0.0073960135,-0.1684839,0.1698374,0.42632324,0.20234159,0.099014774,0.3946272,0.61460024,-0.08727511,-0.10948385,0.86414737,-0.008002641,-0.4078717,-0.47393826,0.1956388,766.3736,799.81683,801.02563,763.1502,830.4396,-0.29522705078125,0.0338134765625,0.94525146484375,2.0635986328125,-4.83001708984375,1.742095947265625,1.0,1.0,1.0,1.0,1.0,80.0,event
15:19:10.199,0.93443036,0.44163522,0.29058185,0.67541754,0.31695792,-0.0073960135,-0.1684839,0.1698374,0.42632324,0.20234159,0.099014774,0.3946272,0.61460024,-0.08727511,-0.10948385,0.86414737,-0.008002641,-0.4078717,-0.47393826,0.1956388,772.4176,803.44324,798.60803,765.9707,737.3626,-0.29522705078125,0.0338134765625,0.94525146484375,2.0635986328125,-4.83001708984375,1.742095947265625,1.0,1.0,1.0,1.0,1.0,80.0,event
15:19:10.202,0.93443036,0.44163522,0.29058185,0.67541754,0.31695792,-0.0073960135,-0.1684839,0.1698374,0.42632324,0.20234159,0.099014774,0.3946272,0.61460024,-0.08727511,-0.10948385,0.86414737,-0.008002641,-0.4078717,-0.47393826,0.1956388,777.6557,802.6374,799.81683,776.8498,904.57874,-0.29522705078125,0.0338134765625,0.94525146484375,2.0635986328125,-4.83001708984375,1.742095947265625,1.0,1.0,1.0,1.0,1.0,80.0,event
15:19:10.203,0.93443036,0.44163522,0.29058185,0.67541754,0.31695792,-0.0073960135,-0.1684839,0.1698374,0.42632324,0.20234159,0.099014774,0.3946272,0.61460024,-0.08727511,-0.10948385,0.86414737,-0.008002641,-0.4078717,-0.47393826,0.1956388,778.46155,797.8022,798.20514,774.83514,886.8498,-0.29522705078125,0.0338134765625,0.94525146484375,2.0635986328125,-4.83001708984375,1.742095947265625,1.0,1.0,1.0,1.0,1.0,80.0,event
15:19:10.204,0.93443036,0.44163522,0.29058185,0.67541754,0.31695792,-0.0073960135,-0.1684839,0.1698374,0.42632324,0.20234159,0.099014774,0.3946272,0.61460024,-0.08727511,-0.10948385,0.86414737,-0.008002641,-0.4078717,-0.47393826,0.1956388,783.2967,802.23444,794.9817,776.4469,653.1502,-0.29522705078125,0.0338134765625,0.94525146484375,2.0635986328125,-4.83001708984375,1.742095947265625,1.0,1.0,1.0,1.0,1.0,80.0,event
15:19:10.205,0.93443036,0.44163522,0.29058185,0.67541754,0.31695792,-0.0073960135,-0.1684839,0.1698374,0.42632324,0.20234159,0.099014774,0.3946272,0.61460024,-0.08727511,-0.10948385,0.86414737,-0.008002641,-0.4078717,-0.47393826,0.1956388,782.49084,809.89014,792.96704,783.2967,717.2161,-0.29522705078125,0.0338134765625,0.94525146484375,2.0635986328125,-4.83001708984375,1.742095947265625,1.0,1.0,1.0,1.0,1.0,80.0,event
15:19:10.244,0.93443036,0.44163522,0.29058185,0.67541754,0.31695792,-0.0073960135,-0.1684839,0.1698374,0.42632324,0.20234159,0.099014774,0.3946272,0.61460024,-0.08727511,-0.10948385,0.86414737,-0.008002641,-0.4078717,-0.47393826,0.1956388,770.80585,804.65204,793.7729,782.8938,856.63007,-0.2850341796875,0.034423828125,0.94903564453125,2.10845947265625,-4.26177978515625,0.3289794921875,1.0,1.0,1.0,1.0,1.0,80.0,event
15:19:10.245,0.93443036,0.44163522,0.29058185,0.67541754,0.31695792,-0.0073960135,-0.1684839,0.1698374,0.42632324,0.20234159,0.099014774,0.3946272,0.61460024,-0.08727511,-0.10948385,0.86414737,-0.008002641,-0.4078717,-0.47393826,0.1956388,785.31134,802.6374,796.5934,776.04395,735.34796,-0.2850341796875,0.034423828125,0.94903564453125,2.10845947265625,-4.26177978515625,0.3289794921875,1.0,1.0,1.0,1.0,1.0,80.0,event
15:19:10.246,0.93443036,0.44163522,0.29058185,0.67541754,0.31695792,-0.0073960135,-0.1684839,0.1698374,0.42632324,0.20234159,0.099014774,0.3946272,0.61460024,-0.08727511,-0.10948385,0.86414737,-0.008002641,-0.4078717,-0.47393826,0.1956388,792.96704,800.6227,790.54944,769.59705,655.16486,-0.2850341796875,0.034423828125,0.94903564453125,2.10845947265625,-4.26177978515625,0.3289794921875,1.0,1.0,1.0,1.0,1.0,80.0,event
15:19:10.247,0.93443036,0.44163522,0.29058185,0.67541754,0.31695792,-0.0073960135,-0.1684839,0.1698374,0.42632324,0.20234159,0.099014774,0.3946272,0.61460024,-0.08727511,-0.10948385,0.86414737,-0.008002641,-0.4078717,-0.47393826,0.1956388,772.4176,790.9524,786.9231,770.0,705.5311,-0.2850341796875,0.034423828125,0.94903564453125,2.10845947265625,-4.26177978515625,0.3289794921875,1.0,1.0,1.0,1.0,1.0,80.0,event
15:19:10.248,0.93443036,0.44163522,0.29058185,0.67541754,0.31695792,-0.0073960135,-0.1684839,0.1698374,0.42632324,0.20234159,0.099014774,0.3946272,0.61460024,-0.08727511,-0.10948385,0.86414737,-0.008002641,-0.4078717,-0.47393826,0.1956388,770.40295,785.31134,788.93774,774.0293,799.81683,-0.2850341796875,0.034423828125,0.94903564453125,2.10845947265625,-4.26177978515625,0.3289794921875,1.0,1.0,1.0,1.0,1.0,80.0,event
15:19:10.248,0.93443036,0.44163522,0.29058185,0.67541754,0.31695792,-0.0073960135,-0.1684839,0.1698374,0.42632324,0.20234159,0.099014774,0.3946272,0.61460024,-0.08727511,-0.10948385,0.86414737,-0.008002641,-0.4078717,-0.47393826,0.1956388,776.04395,782.49084,788.93774,771.6117,832.8571,-0.2850341796875,0.034423828125,0.94903564453125,2.10845947265625,-4.26177978515625,0.3289794921875,1.0,1.0,1.0,1.0,1.0,80.0,event
15:19:10.249,0.93443036,0.44163522,0.29058185,0.67541754,0.31695792,-0.0073960135,-0.1684839,0.1698374,0.42632324,0.20234159,0.099014774,0.3946272,0.61460024,-0.08727511,-0.10948385,0.86414737,-0.008002641,-0.4078717,-0.47393826,0.1956388,772.01465,780.87915,786.1172,759.12085,775.2381,-0.2850341796875,0.034423828125,0.94903564453125,2.10845947265625,-4.26177978515625,0.3289794921875,1.0,1.0,1.0,1.0,1.0,80.0,event
15:19:10.250,0.93443036,0.44163522,0.29058185,0.67541754,0.31695792,-0.0073960135,-0.1684839,0.1698374,0.42632324,0.20234159,0.099014774,0.3946272,0.61460024,-0.08727511,-0.10948385,0.86414737,-0.008002641,-0.4078717,-0.47393826,0.1956388,775.2381,782.49084,783.69965,769.59705,842.52747,-0.2850341796875,0.034423828125,0.94903564453125,2.10845947265625,-4.26177978515625,0.3289794921875,1.0,1.0,1.0,1.0,1.0,80.0,event
15:19:10.250,0.93443036,0.44163522,0.29058185,0.67541754,0.31695792,-0.0073960135,-0.1684839,0.1698374,0.42632324,0.20234159,0.099014774,0.3946272,0.61460024,-0.08727511,-0.10948385,0.86414737,-0.008002641,-0.4078717,-0.47393826,0.1956388,770.0,779.67035,785.31134,778.46155,1034.3224,-0.2850341796875,0.034423828125,0.94903564453125,2.10845947265625,-4.26177978515625,0.3289794921875,1.0,1.0,1.0,1.0,1.0,80.0,event
15:19:10.251,0.93443036,0.44163522,0.29058185,0.67541754,0.31695792,-0.0073960135,-0.1684839,0.1698374,0.42632324,0.20234159,0.099014774,0.3946272,0.61460024,-0.08727511,-0.10948385,0.86414737,-0.008002641,-0.4078717,-0.47393826,0.1956388,753.47986,778.0586,785.7143,758.71796,821.1722,-0.2850341796875,0.034423828125,0.94903564453125,2.10845947265625,-4.26177978515625,0.3289794921875,1.0,1.0,1.0,1.0,1.0,80.0,event
15:19:10.252,0.93443036,0.44163522,0.29058185,0.67541754,0.31695792,-0.0073960135,-0.1684839,0.1698374,0.42632324,0.20234159,0.099014774,0.3946272,0.61460024,-0.08727511,-0.10948385,0.86414737,-0.008002641,-0.4078717,-0.47393826,0.1956388,759.92676,784.5055,787.326,766.3736,724.4689,-0.2850341796875,0.034423828125,0.94903564453125,2.10845947265625,-4.26177978515625,0.3289794921875,1.0,1.0,1.0,1.0,1.0,80.0,event
15:19:10.252,0.93443036,0.44163522,0.29058185,0.67541754,0.31695792,-0.0073960135,-0.1684839,0.1698374,0.42632324,0.20234159,0.099014774,0.3946272,0.61460024,-0.08727511,-0.10948385,0.86414737,-0.008002641,-0.4078717,-0.47393826,0.1956388,778.46155,788.93774,790.9524,776.04395,811.9048,-0.2850341796875,0.034423828125,0.94903564453125,2.10845947265625,-4.26177978515625,0.3289794921875,1.0,1.0,1.0,1.0,1.0,80.0,event
15:19:10.291,0.93443036,0.44163522,0.29058185,0.67541754,0.31695792,-0.0073960135,-0.1684839,0.1698374,0.42632324,0.20234159,0.099014774,0.3946272,0.61460024,-0.08727511,-0.10948385,0.86414737,-0.008002641,-0.4078717,-0.47393826,0.1956388,779.67035,786.52014,787.326,771.2088,770.0,-0.2850341796875,0.034423828125,0.94903564453125,2.10845947265625,-4.26177978515625,0.3289794921875,1.0,1.0,1.0,1.0,1.0,80.0,event
15:19:10.292,0.93443036,0.44163522,0.29058185,0.67541754,0.31695792,-0.0073960135,-0.1684839,0.1698374,0.42632324,0.20234159,0.099014774,0.3946272,0.61460024,-0.08727511,-0.10948385,0.86414737,-0.008002641,-0.4078717,-0.47393826,0.1956388,766.77655,786.52014,784.5055,765.56775,690.6227,-0.2850341796875,0.034423828125,0.94903564453125,2.10845947265625,-4.26177978515625,0.3289794921875,1.0,1.0,1.0,1.0,1.0,80.0,event
15:19:10.292,0.93443036,0.44163522,0.29058185,0.67541754,0.31695792,-0.0073960135,-0.1684839,0.1698374,0.42632324,0.20234159,0.099014774,0.3946272,0.61460024,-0.08727511,-0.10948385,0.86414737,-0.008002641,-0.4078717,-0.47393826,0.1956388,763.95605,790.54944,788.93774,760.7326,676.52014,-0.2850341796875,0.034423828125,0.94903564453125,2.10845947265625,-4.26177978515625,0.3289794921875,1.0,1.0,1.0,1.0,1.0,80.0,event
15:19:10.293,0.93443036,0.44163522,0.29058185,0.67541754,0.31695792,-0.0073960135,-0.1684839,0.1698374,0.42632324,0.20234159,0.099014774,0.3946272,0.61460024,-0.08727511,-0.10948385,0.86414737,-0.008002641,-0.4078717,-0.47393826,0.1956388,779.2674,794.17584,792.5641,770.40295,883.22345,-0.2850341796875,0.034423828125,0.94903564453125,2.10845947265625,-4.26177978515625,0.3289794921875,1.0,1.0,1.0,1.0,1.0,80.0,event
15:19:10.294,0.93443036,0.44163522,0.29058185,0.67541754,0.31695792,-0.0073960135,-0.1684839,0.1698374,0.42632324,0.20234159,0.099014774,0.3946272,0.61460024,-0.08727511,-0.10948385,0.86414737,-0.008002641,-0.4078717,-0.47393826,0.1956388,779.67035,794.17584,791.75824,780.4762,854.61536,-0.2850341796875,0.034423828125,0.94903564453125,2.10845947265625,-4.26177978515625,0.3289794921875,1.0,1.0,1.0,1.0,1.0,80.0,event
15:19:10.294,0.93443036,0.44163522,0.29058185,0.67541754,0.31695792,-0.0073960135,-0.1684839,0.1698374,0.42632324,0.20234159,0.099014774,0.3946272,0.61460024,-0.08727511,-0.10948385,0.86414737,-0.008002641,-0.4078717,-0.47393826,0.1956388,774.0293,790.54944,792.5641,778.46155,841.7216,-0.2850341796875,0.034423828125,0.94903564453125,2.10845947265625,-4.26177978515625,0.3289794921875,1.0,1.0,1.0,1.0,1.0,80.0,event
15:19:10.295,0.93443036,0.44163522,0.29058185,0.67541754,0.31695792,-0.0073960135,-0.1684839,0.1698374,0.42632324,0.20234159,0.099014774,0.3946272,0.61460024,-0.08727511,-0.10948385,0.86414737,-0.008002641,-0.4078717,-0.47393826,0.1956388,782.0879,794.57874,798.20514,785.7143,915.05493,-0.2850341796875,0.034423828125,0.94903564453125,2.10845947265625,-4.26177978515625,0.3289794921875,1.0,1.0,1.0,1.0,1.0,80.0,event
15:19:10.296,0.9122757,0.45034653,0.28503472,0.64721674,0.3700781,0.0074493596,-0.18640302,0.17893732,0.43650284,0.20973063,0.070586085,0.42477664,0.5813462,-0.09701078,-0.11329861,0.8278325,-0.025114378,-0.3925242,-0.47210526,0.20983092,781.685,792.96704,798.20514,789.34064,1036.7399,-0.2850341796875,0.034423828125,0.94903564453125,2.10845947265625,-4.26177978515625,0.3289794921875,1.0,1.0,1.0,1.0,1.0,80.0,event
15:19:10.300,0.9122757,0.45034653,0.28503472,0.64721674,0.3700781,0.0074493596,-0.18640302,0.17893732,0.43650284,0.20973063,0.070586085,0.42477664,0.5813462,-0.09701078,-0.11329861,0.8278325,-0.025114378,-0.3925242,-0.47210526,0.20983092,779.2674,794.57874,794.57874,780.4762,967.03296,-0.2850341796875,0.034423828125,0.94903564453125,2.10845947265625,-4.26177978515625,0.3289794921875,1.0,1.0,1.0,1.0,1.0,80.0,event
15:19:10.301,0.9122757,0.45034653,0.28503472,0.64721674,0.3700781,0.0074493596,-0.18640302,0.17893732,0.43650284,0.20973063,0.070586085,0.42477664,0.5813462,-0.09701078,-0.11329861,0.8278325,-0.025114378,-0.3925242,-0.47210526,0.20983092,780.4762,798.20514,794.57874,778.46155,749.0476,-0.2850341796875,0.034423828125,0.94903564453125,2.10845947265625,-4.26177978515625,0.3289794921875,1.0,1.0,1.0,1.0,1.0,80.0,event
15:19:10.301,0.9122757,0.45034653,0.28503472,0.64721674,0.3700781,0.0074493596,-0.18640302,0.17893732,0.43650284,0.20973063,0.070586085,0.42477664,0.5813462,-0.09701078,-0.11329861,0.8278325,-0.025114378,-0.3925242,-0.47210526,0.20983092,778.0586,801.8315,802.6374,783.69965,785.31134,-0.2850341796875,0.034423828125,0.94903564453125,2.10845947265625,-4.26177978515625,0.3289794921875,1.0,1.0,1.0,1.0,1.0,80.0,event
15:19:10.302,0.9122757,0.45034653,0.28503472,0.64721674,0.3700781,0.0074493596,-0.18640302,0.17893732,0.43650284,0.20973063,0.070586085,0.42477664,0.5813462,-0.09701078,-0.11329861,0.8278325,-0.025114378,-0.3925242,-0.47210526,0.20983092,785.7143,805.05493,801.4286,783.2967,855.42126,-0.2850341796875,0.034423828125,0.94903564453125,2.10845947265625,-4.26177978515625,0.3289794921875,1.0,1.0,1.0,1.0,1.0,80.0,event
15:19:10.344,0.9122757,0.45034653,0.28503472,0.64721674,0.3700781,0.0074493596,-0.18640302,0.17893732,0.43650284,0.20973063,0.070586085,0.42477664,0.5813462,-0.09701078,-0.11329861,0.8278325,-0.025114378,-0.3925242,-0.47210526,0.20983092,789.34064,799.011,791.3553,782.8938,813.5165,-0.28607177734375,0.031982421875,0.9503173828125,1.60003662109375,-2.474822998046875,-0.500946044921875,1.0,1.0,1.0,1.0,1.0,80.0,event
15:19:10.346,0.9122757,0.45034653,0.28503472,0.64721674,0.3700781,0.0074493596,-0.18640302,0.17893732,0.43650284,0.20973063,0.070586085,0.42477664,0.5813462,-0.09701078,-0.11329861,0.8278325,-0.025114378,-0.3925242,-0.47210526,0.20983092,787.72894,794.9817,794.17584,782.49084,756.7033,-0.28607177734375,0.031982421875,0.9503173828125,1.60003662109375,-2.474822998046875,-0.500946044921875,1.0,1.0,1.0,1.0,1.0,80.0,event
15:19:10.346,0.9122757,0.45034653,0.28503472,0.64721674,0.3700781,0.0074493596,-0.18640302,0.17893732,0.43650284,0.20973063,0.070586085,0.42477664,0.5813462,-0.09701078,-0.11329861,0.8278325,-0.025114378,-0.3925242,-0.47210526,0.20983092,785.31134,801.02563,795.78754,782.0879,755.89746,-0.28607177734375,0.031982421875,0.9503173828125,1.60003662109375,-2.474822998046875,-0.500946044921875,1.0,1.0,1.0,1.0,1.0,80.0,event
15:19:10.348,0.9122757,0.45034653,0.28503472,0.64721674,0.3700781,0.0074493596,-0.18640302,0.17893732,0.43650284,0.20973063,0.070586085,0.42477664,0.5813462,-0.09701078,-0.11329861,0.8278325,-0.025114378,-0.3925242,-0.47210526,0.20983092,783.69965,804.65204,787.72894,775.2381,767.98535,-0.28607177734375,0.031982421875,0.9503173828125,1.60003662109375,-2.474822998046875,-0.500946044921875,1.0,1.0,1.0,1.0,1.0,80.0,event
15:19:10.348,0.9122757,0.45034653,0.28503472,0.64721674,0.3700781,0.0074493596,-0.18640302,0.17893732,0.43650284,0.20973063,0.070586085,0.42477664,0.5813462,-0.09701078,-0.11329861,0.8278325,-0.025114378,-0.3925242,-0.47210526,0.20983092,785.31134,801.02563,789.34064,776.4469,763.95605,-0.28607177734375,0.031982421875,0.9503173828125,1.60003662109375,-2.474822998046875,-0.500946044921875,1.0,1.0,1.0,1.0,1.0,80.0,event
15:19:10.349,0.9122757,0.45034653,0.28503472,0.64721674,0.3700781,0.0074493596,-0.18640302,0.17893732,0.43650284,0.20973063,0.070586085,0.42477664,0.5813462,-0.09701078,-0.11329861,0.8278325,-0.025114378,-0.3925242,-0.47210526,0.20983092,786.52014,797.8022,794.57874,783.2967,793.36993,-0.28607177734375,0.031982421875,0.9503173828125,1.60003662109375,-2.474822998046875,-0.500946044921875,1.0,1.0,1.0,1.0,1.0,80.0,event
15:19:10.350,0.9122757,0.45034653,0.28503472,0.64721674,0.3700781,0.0074493596,-0.18640302,0.17893732,0.43650284,0.20973063,0.070586085,0.42477664,0.5813462,-0.09701078,-0.11329861,0.8278325,-0.025114378,-0.3925242,-0.47210526,0.20983092,785.7143,794.17584,795.38464,788.5348,917.0696,-0.28607177734375,0.031982421875,0.9503173828125,1.60003662109375,-2.474822998046875,-0.500946044921875,1.0,1.0,1.0,1.0,1.0,80.0,event
15:19:10.350,0.9122757,0.45034653,0.28503472,0.64721674,0.3700781,0.0074493596,-0.18640302,0.17893732,0.43650284,0.20973063,0.070586085,0.42477664,0.5813462,-0.09701078,-0.11329861,0.8278325,-0.025114378,-0.3925242,-0.47210526,0.20983092,791.75824,794.9817,796.99634,806.26373,1231.7583,-0.28607177734375,0.031982421875,0.9503173828125,1.60003662109375,-2.474822998046875,-0.500946044921875,1.0,1.0,1.0,1.0,1.0,80.0,event
15:19:10.351,0.9122757,0.45034653,0.28503472,0.64721674,0.3700781,0.0074493596,-0.18640302,0.17893732,0.43650284,0.20973063,0.070586085,0.42477664,0.5813462,-0.09701078,-0.11329861,0.8278325,-0.025114378,-0.3925242,-0.47210526,0.20983092,786.1172,800.2198,796.99634,792.1612,991.6117,-0.28607177734375,0.031982421875,0.9503173828125,1.60003662109375,-2.474822998046875,-0.500946044921875,1.0,1.0,1.0,1.0,1.0,80.0,event
15:19:10.352,0.9122757,0.45034653,0.28503472,0.64721674,0.3700781,0.0074493596,-0.18640302,0.17893732,0.43650284,0.20973063,0.070586085,0.42477664,0.5813462,-0.09701078,-0.11329861,0.8278325,-0.025114378,-0.3925242,-0.47210526,0.20983092,784.5055,797.8022,795.38464,773.22345,661.6117,-0.28607177734375,0.031982421875,0.9503173828125,1.60003662109375,-2.474822998046875,-0.500946044921875,1.0,1.0,1.0,1.0,1.0,80.0,event
15:19:10.353,0.9122757,0.45034653,0.28503472,0.64721674,0.3700781,0.0074493596,-0.18640302,0.17893732,0.43650284,0.20973063,0.070586085,0.42477664,0.5813462,-0.09701078,-0.11329861,0.8278325,-0.025114378,-0.3925242,-0.47210526,0.20983092,778.0586,803.0403,798.60803,789.34064,701.0989,-0.28607177734375,0.031982421875,0.9503173828125,1.60003662109375,-2.474822998046875,-0.500946044921875,1.0,1.0,1.0,1.0,1.0,80.0,event
15:19:10.353,0.9122757,0.45034653,0.28503472,0.64721674,0.3700781,0.0074493596,-0.18640302,0.17893732,0.43650284,0.20973063,0.070586085,0.42477664,0.5813462,-0.09701078,-0.11329861,0.8278325,-0.025114378,-0.3925242,-0.47210526,0.20983092,776.4469,799.41394,799.41394,790.9524,745.82416,-0.28607177734375,0.031982421875,0.9503173828125,1.60003662109375,-2.474822998046875,-0.500946044921875,1.0,1.0,1.0,1.0,1.0,80.0,event
15:19:10.415,0.9122757,0.45034653,0.28503472,0.64721674,0.3700781,0.0074493596,-0.18640302,0.17893732,0.43650284,0.20973063,0.070586085,0.42477664,0.5813462,-0.09701078,-0.11329861,0.8278325,-0.025114378,-0.3925242,-0.47210526,0.20983092,785.31134,801.4286,794.17584,778.46155,653.5531,-0.2950439453125,0.0274658203125,0.9483642578125,1.9439697265625,-2.280426025390625,-0.261688232421875,1.0,1.0,1.0,1.0,1.0,80.0,event
15:19:10.416,0.9122757,0.45034653,0.28503472,0.64721674,0.3700781,0.0074493596,-0.18640302,0.17893732,0.43650284,0.20973063,0.070586085,0.42477664,0.5813462,-0.09701078,-0.11329861,0.8278325,-0.025114378,-0.3925242,-0.47210526,0.20983092,773.6264,802.23444,796.5934,784.10254,750.65936,-0.2950439453125,0.0274658203125,0.9483642578125,1.9439697265625,-2.280426025390625,-0.261688232421875,1.0,1.0,1.0,1.0,1.0,80.0,event
15:19:10.417,0.9122757,0.45034653,0.28503472,0.64721674,0.3700781,0.0074493596,-0.18640302,0.17893732,0.43650284,0.20973063,0.070586085,0.42477664,0.5813462,-0.09701078,-0.11329861,0.8278325,-0.025114378,-0.3925242,-0.47210526,0.20983092,768.3883,801.02563,796.1905,790.14655,782.0879,-0.2950439453125,0.0274658203125,0.9483642578125,1.9439697265625,-2.280426025390625,-0.261688232421875,1.0,1.0,1.0,1.0,1.0,80.0,event
15:19:10.418,0.9122757,0.45034653,0.28503472,0.64721674,0.3700781,0.0074493596,-0.18640302,0.17893732,0.43650284,0.20973063,0.070586085,0.42477664,0.5813462,-0.09701078,-0.11329861,0.8278325,-0.025114378,-0.3925242,-0.47210526,0.20983092,768.7912,804.2491,800.2198,780.4762,717.2161,-0.2950439453125,0.0274658203125,0.9483642578125,1.9439697265625,-2.280426025390625,-0.261688232421875,1.0,1.0,1.0,1.0,1.0,80.0,event
15:19:10.419,0.9122757,0.45034653,0.28503472,0.64721674,0.3700781,0.0074493596,-0.18640302,0.17893732,0.43650284,0.20973063,0.070586085,0.42477664,0.5813462,-0.09701078,-0.11329861,0.8278325,-0.025114378,-0.3925242,-0.47210526,0.20983092,774.83514,803.0403,803.0403,774.83514,688.60803,-0.2950439453125,0.0274658203125,0.9483642578125,1.9439697265625,-2.280426025390625,-0.261688232421875,1.0,1.0,1.0,1.0,1.0,80.0,event
15:19:10.420,0.9122757,0.45034653,0.28503472,0.64721674,0.3700781,0.0074493596,-0.18640302,0.17893732,0.43650284,0.20973063,0.070586085,0.42477664,0.5813462,-0.09701078,-0.11329861,0.8278325,-0.025114378,-0.3925242,-0.47210526,0.20983092,785.31134,798.20514,802.6374,775.64105,823.9927,-0.2950439453125,0.0274658203125,0.9483642578125,1.9439697265625,-2.280426025390625,-0.261688232421875,1.0,1.0,1.0,1.0,1.0,80.0,event
15:19:10.420,0.9122757,0.45034653,0.28503472,0.64721674,0.3700781,0.0074493596,-0.18640302,0.17893732,0.43650284,0.20973063,0.070586085,0.42477664,0.5813462,-0.09701078,-0.11329861,0.8278325,-0.025114378,-0.3925242,-0.47210526,0.20983092,780.87915,800.6227,803.8461,788.5348,1080.6593,-0.2950439453125,0.0274658203125,0.9483642578125,1.9439697265625,-2.280426025390625,-0.261688232421875,1.0,1.0,1.0,1.0,1.0,80.0,event
15:19:10.421,0.9122757,0.45034653,0.28503472,0.64721674,0.3700781,0.0074493596,-0.18640302,0.17893732,0.43650284,0.20973063,0.070586085,0.42477664,0.5813462,-0.09701078,-0.11329861,0.8278325,-0.025114378,-0.3925242,-0.47210526,0.20983092,780.4762,795.38464,798.60803,784.5055,1003.69965,-0.2950439453125,0.0274658203125,0.9483642578125,1.9439697265625,-2.280426025390625,-0.261688232421875,1.0,1.0,1.0,1.0,1.0,80.0,event
15:19:10.422,0.9122757,0.45034653,0.28503472,0.64721674,0.3700781,0.0074493596,-0.18640302,0.17893732,0.43650284,0.20973063,0.070586085,0.42477664,0.5813462,-0.09701078,-0.11329861,0.8278325,-0.025114378,-0.3925242,-0.47210526,0.20983092,788.5348,794.57874,798.20514,775.2381,747.8388,-0.2950439453125,0.0274658203125,0.9483642578125,1.9439697265625,-2.280426025390625,-0.261688232421875,1.0,1.0,1.0,1.0,1.0,80.0,event
15:19:10.424,0.8898745,0.4534787,0.284495,0.6519699,0.39916107,0.028270336,-0.20004009,0.19100131,0.44872925,0.21053943,0.075990215,0.4949514,0.5474632,-0.106361516,-0.11860959,0.7975932,-0.042706832,-0.38382843,-0.4713303,0.21861525,782.8938,797.8022,801.02563,790.14655,776.04395,-0.2950439453125,0.0274658203125,0.9483642578125,1.9439697265625,-2.280426025390625,-0.261688232421875,1.0,1.0,1.0,1.0,1.0,80.0,event
15:19:10.429,0.8898745,0.4534787,0.284495,0.6519699,0.39916107,0.028270336,-0.20004009,0.19100131,0.44872925,0.21053943,0.075990215,0.4949514,0.5474632,-0.106361516,-0.11860959,0.7975932,-0.042706832,-0.38382843,-0.4713303,0.21861525,780.07324,799.011,799.011,790.14655,931.1722,-0.2950439453125,0.0274658203125,0.9483642578125,1.9439697265625,-2.280426025390625,-0.261688232421875,1.0,1.0,1.0,1.0,1.0,80.0,event
15:19:10.430,0.8898745,0.4534787,0.284495,0.6519699,0.39916107,0.028270336,-0.20004009,0.19100131,0.44872925,0.21053943,0.075990215,0.4949514,0.5474632,-0.106361516,-0.11860959,0.7975932,-0.042706832,-0.38382843,-0.4713303,0.21861525,778.86444,803.8461,798.60803,790.14655,805.8608,-0.2950439453125,0.0274658203125,0.9483642578125,1.9439697265625,-2.280426025390625,-0.261688232421875,1.0,1.0,1.0,1.0,1.0,80.0,event
15:19:10.459,0.8898745,0.4534787,0.284495,0.6519699,0.39916107,0.028270336,-0.20004009,0.19100131,0.44872925,0.21053943,0.075990215,0.4949514,0.5474632,-0.106361516,-0.11860959,0.7975932,-0.042706832,-0.38382843,-0.4713303,0.21861525,783.2967,803.8461,797.8022,788.1319,695.4579,-0.29571533203125,0.035400390625,0.94427490234375,2.79632568359375,-2.4224853515625,-0.500946044921875,1.0,1.0,1.0,1.0,1.0,80.0,event
15:19:10.460,0.8898745,0.4534787,0.284495,0.6519699,0.39916107,0.028270336,-0.20004009,0.19100131,0.44872925,0.21053943,0.075990215,0.4949514,0.5474632,-0.106361516,-0.11860959,0.7975932,-0.042706832,-0.38382843,-0.4713303,0.21861525,782.8938,800.2198,798.20514,779.67035,761.53845,-0.29571533203125,0.035400390625,0.94427490234375,2.79632568359375,-2.4224853515625,-0.500946044921875,1.0,1.0,1.0,1.0,1.0,80.0,event
15:19:10.461,0.8898745,0.4534787,0.284495,0.6519699,0.39916107,0.028270336,-0.20004009,0.19100131,0.44872925,0.21053943,0.075990215,0.4949514,0.5474632,-0.106361516,-0.11860959,0.7975932,-0.042706832,-0.38382843,-0.4713303,0.21861525,774.0293,796.5934,800.2198,777.6557,796.99634,-0.29571533203125,0.035400390625,0.94427490234375,2.79632568359375,-2.4224853515625,-0.500946044921875,1.0,1.0,1.0,1.0,1.0,80.0,event
15:19:10.462,0.8898745,0.4534787,0.284495,0.6519699,0.39916107,0.028270336,-0.20004009,0.19100131,0.44872925,0.21053943,0.075990215,0.4949514,0.5474632,-0.106361516,-0.11860959,0.7975932,-0.042706832,-0.38382843,-0.4713303,0.21861525,781.685,800.6227,796.99634,784.10254,745.82416,-0.29571533203125,0.035400390625,0.94427490234375,2.79632568359375,-2.4224853515625,-0.500946044921875,1.0,1.0,1.0,1.0,1.0,80.0,event
15:19:10.463,0.8898745,0.4534787,0.284495,0.6519699,0.39916107,0.028270336,-0.20004009,0.19100131,0.44872925,0.21053943,0.075990215,0.4949514,0.5474632,-0.106361516,-0.11860959,0.7975932,-0.042706832,-0.38382843,-0.4713303,0.21861525,784.90845,802.23444,795.38464,787.326,727.6923,-0.29571533203125,0.035400390625,0.94427490234375,2.79632568359375,-2.4224853515625,-0.500946044921875,1.0,1.0,1.0,1.0,1.0,80.0,event
15:19:10.464,0.8898745,0.4534787,0.284495,0.6519699,0.39916107,0.028270336,-0.20004009,0.19100131,0.44872925,0.21053943,0.075990215,0.4949514,0.5474632,-0.106361516,-0.11860959,0.7975932,-0.042706832,-0.38382843,-0.4713303,0.21861525,778.0586,799.011,799.011,786.1172,961.79486,-0.29571533203125,0.035400390625,0.94427490234375,2.79632568359375,-2.4224853515625,-0.500946044921875,1.0,1.0,1.0,1.0,1.0,80.0,event
15:19:10.464,0.8898745,0.4534787,0.284495,0.6519699,0.39916107,0.028270336,-0.20004009,0.19100131,0.44872925,0.21053943,0.075990215,0.4949514,0.5474632,-0.106361516,-0.11860959,0.7975932,-0.042706832,-0.38382843,-0.4713303,0.21861525,774.43225,800.2198,802.23444,780.87915,1104.4323,-0.29571533203125,0.035400390625,0.94427490234375,2.79632568359375,-2.4224853515625,-0.500946044921875,1.0,1.0,1.0,1.0,1.0,80.0,event
15:19:10.465,0.8898745,0.4534787,0.284495,0.6519699,0.39916107,0.028270336,-0.20004009,0.19100131,0.44872925,0.21053943,0.075990215,0.4949514,0.5474632,-0.106361516,-0.11860959,0.7975932,-0.042706832,-0.38382843,-0.4713303,0.21861525,781.28204,805.05493,801.8315,777.25275,834.0659,-0.29571533203125,0.035400390625,0.94427490234375,2.79632568359375,-2.4224853515625,-0.500946044921875,1.0,1.0,1.0,1.0,1.0,80.0,event
15:19:10.465,0.8898745,0.4534787,0.284495,0.6519699,0.39916107,0.028270336,-0.20004009,0.19100131,0.44872925,0.21053943,0.075990215,0.4949514,0.5474632,-0.106361516,-0.11860959,0.7975932,-0.042706832,-0.38382843,-0.4713303,0.21861525,778.46155,804.65204,796.99634,778.0586,729.707,-0.29571533203125,0.035400390625,0.94427490234375,2.79632568359375,-2.4224853515625,-0.500946044921875,1.0,1.0,1.0,1.0,1.0,80.0,event
15:19:10.466,0.8898745,0.4534787,0.284495,0.6519699,0.39916107,0.028270336,-0.20004009,0.19100131,0.44872925,0.21053943,0.075990215,0.4949514,0.5474632,-0.106361516,-0.11860959,0.7975932,-0.042706832,-0.38382843,-0.4713303,0.21861525,773.6264,801.4286,794.9817,770.80585,877.1795,-0.29571533203125,0.035400390625,0.94427490234375,2.79632568359375,-2.4224853515625,-0.500946044921875,1.0,1.0,1.0,1.0,1.0,80.0,event
15:19:10.467,0.8898745,0.4534787,0.284495,0.6519699,0.39916107,0.028270336,-0.20004009,0.19100131,0.44872925,0.21053943,0.075990215,0.4949514,0.5474632,-0.106361516,-0.11860959,0.7975932,-0.042706832,-0.38382843,-0.4713303,0.21861525,778.86444,799.81683,794.57874,771.6117,893.2967,-0.29571533203125,0.035400390625,0.94427490234375,2.79632568359375,-2.4224853515625,-0.500946044921875,1.0,1.0,1.0,1.0,1.0,80.0,event
15:19:10.467,0.8898745,0.4534787,0.284495,0.6519699,0.39916107,0.028270336,-0.20004009,0.19100131,0.44872925,0.21053943,0.075990215,0.4949514,0.5474632,-0.106361516,-0.11860959,0.7975932,-0.042706832,-0.38382843,-0.4713303,0.21861525,785.31134,797.3993,793.7729,790.54944,806.26373,-0.29571533203125,0.035400390625,0.94427490234375,2.79632568359375,-2.4224853515625,-0.500946044921875,1.0,1.0,1.0,1.0,1.0,80.0,event
15:19:10.497,0.8898745,0.4534787,0.284495,0.6519699,0.39916107,0.028270336,-0.20004009,0.19100131,0.44872925,0.21053943,0.075990215,0.4949514,0.5474632,-0.106361516,-0.11860959,0.7975932,-0.042706832,-0.38382843,-0.4713303,0.21861525,784.10254,794.57874,794.57874,791.3553,871.13556,-0.2955322265625,0.03094482421875,0.9464111328125,1.62994384765625,-3.45428466796875,-0.142059326171875,1.0,1.0,1.0,1.0,1.0,80.0,event
15:19:10.499,0.8898745,0.4534787,0.284495,0.6519699,0.39916107,0.028270336,-0.20004009,0.19100131,0.44872925,0.21053943,0.075990215,0.4949514,0.5474632,-0.106361516,-0.11860959,0.7975932,-0.042706832,-0.38382843,-0.4713303,0.21861525,782.0879,795.78754,794.9817,782.8938,887.25275,-0.2955322265625,0.03094482421875,0.9464111328125,1.62994384765625,-3.45428466796875,-0.142059326171875,1.0,1.0,1.0,1.0,1.0,80.0,event
15:19:10.499,0.8898745,0.4534787,0.284495,0.6519699,0.39916107,0.028270336,-0.20004009,0.19100131,0.44872925,0.21053943,0.075990215,0.4949514,0.5474632,-0.106361516,-0.11860959,0.7975932,-0.042706832,-0.38382843,-0.4713303,0.21861525,802.23444,801.02563,795.78754,797.8022,765.16486,-0.2955322265625,0.03094482421875,0.9464111328125,1.62994384765625,-3.45428466796875,-0.142059326171875,1.0,1.0,1.0,1.0,1.0,80.0,event
15:19:10.500,0.8898745,0.4534787,0.284495,0.6519699,0.39916107,0.028270336,-0.20004009,0.19100131,0.44872925,0.21053943,0.075990215,0.4949514,0.5474632,-0.106361516,-0.11860959,0.7975932,-0.042706832,-0.38382843,-0.4713303,0.21861525,798.60803,803.0403,795.78754,793.7729,674.90845,-0.2955322265625,0.03094482421875,0.9464111328125,1.62994384765625,-3.45428466796875,-0.142059326171875,1.0,1.0,1.0,1.0,1.0,80.0,event
15:19:10.501,0.8898745,0.4534787,0.284495,0.6519699,0.39916107,0.028270336,-0.20004009,0.19100131,0.44872925,0.21053943,0.075990215,0.4949514,0.5474632,-0.106361516,-0.11860959,0.7975932,-0.042706832,-0.38382843,-0.4713303,0.21861525,776.8498,799.011,797.3993,786.1172,707.5458,-0.2955322265625,0.03094482421875,0.9464111328125,1.62994384765625,-3.45428466796875,-0.142059326171875,1.0,1.0,1.0,1.0,1.0,80.0,event
15:19:10.501,0.8898745,0.4534787,0.284495,0.6519699,0.39916107,0.028270336,-0.20004009,0.19100131,0.44872925,0.21053943,0.075990215,0.4949514,0.5474632,-0.106361516,-0.11860959,0.7975932,-0.042706832,-0.38382843,-0.4713303,0.21861525,787.326,795.78754,797.8022,788.5348,857.4359,-0.2955322265625,0.03094482421875,0.9464111328125,1.62994384765625,-3.45428466796875,-0.142059326171875,1.0,1.0,1.0,1.0,1.0,80.0,event
15:19:10.502,0.8898745,0.4534787,0.284495,0.6519699,0.39916107,0.028270336,-0.20004009,0.19100131,0.44872925,0.21053943,0.075990215,0.4949514,0.5474632,-0.106361516,-0.11860959,0.7975932,-0.042706832,-0.38382843,-0.4713303,0.21861525,791.3553,801.4286,796.99634,789.7436,929.15753,-0.2955322265625,0.03094482421875,0.9464111328125,1.62994384765625,-3.45428466796875,-0.142059326171875,1.0,1.0,1.0,1.0,1.0,80.0,event
15:19:10.503,0.8898745,0.4534787,0.284495,0.6519699,0.39916107,0.028270336,-0.20004009,0.19100131,0.44872925,0.21053943,0.075990215,0.4949514,0.5474632,-0.106361516,-0.11860959,0.7975932,-0.042706832,-0.38382843,-0.4713303,0.21861525,780.87915,800.2198,796.5934,796.99634,787.72894,-0.2955322265625,0.03094482421875,0.9464111328125,1.62994384765625,-3.45428466796875,-0.142059326171875,1.0,1.0,1.0,1.0,1.0,80.0,event
15:19:10.504,0.8898745,0.4534787,0.284495,0.6519699,0.39916107,0.028270336,-0.20004009,0.19100131,0.44872925,0.21053943,0.075990215,0.4949514,0.5474632,-0.106361516,-0.11860959,0.7975932,-0.042706832,-0.38382843,-0.4713303,0.21861525,796.5934,797.8022,793.36993,791.75824,898.93774,-0.2955322265625,0.03094482421875,0.9464111328125,1.62994384765625,-3.45428466796875,-0.142059326171875,1.0,1.0,1.0,1.0,1.0,80.0,event
15:19:10.504,0.8898745,0.4534787,0.284495,0.6519699,0.39916107,0.028270336,-0.20004009,0.19100131,0.44872925,0.21053943,0.075990215,0.4949514,0.5474632,-0.106361516,-0.11860959,0.7975932,-0.042706832,-0.38382843,-0.4713303,0.21861525,796.5934,794.57874,795.38464,790.54944,716.4103,-0.2955322265625,0.03094482421875,0.9464111328125,1.62994384765625,-3.45428466796875,-0.142059326171875,1.0,1.0,1.0,1.0,1.0,80.0,event
15:19:10.505,0.8898745,0.4534787,0.284495,0.6519699,0.39916107,0.028270336,-0.20004009,0.19100131,0.44872925,0.21053943,0.075990215,0.4949514,0.5474632,-0.106361516,-0.11860959,0.7975932,-0.042706832,-0.38382843,-0.4713303,0.21861525,780.07324,803.0403,795.78754,790.9524,810.293,-0.2955322265625,0.03094482421875,0.9464111328125,1.62994384765625,-3.45428466796875,-0.142059326171875,1.0,1.0,1.0,1.0,1.0,80.0,event
15:19:10.506,0.8687899,0.45509046,0.29690182,0.68049335,0.41135645,0.060105506,-0.201193,0.20810826,0.46485987,0.24421866,0.10228568,0.53578335,0.51508164,-0.10882892,-0.12292076,0.7761435,-0.06218046,-0.38537574,-0.47105,0.22024068,780.87915,804.65204,797.8022,787.326,632.1978,-0.2955322265625,0.03094482421875,0.9464111328125,1.62994384765625,-3.45428466796875,-0.142059326171875,1.0,1.0,1.0,1.0,1.0,80.0,event
15:19:10.539,0.8687899,0.45509046,0.29690182,0.68049335,0.41135645,0.060105506,-0.201193,0.20810826,0.46485987,0.24421866,0.10228568,0.53578335,0.51508164,-0.10882892,-0.12292076,0.7761435,-0.06218046,-0.38537574,-0.47105,0.22024068,780.87915,800.6227,797.3993,783.2967,661.6117,-0.2955322265625,0.03094482421875,0.9464111328125,1.62994384765625,-3.45428466796875,-0.142059326171875,1.0,1.0,1.0,1.0,1.0,80.0,event
15:19:10.541,0.8687899,0.45509046,0.29690182,0.68049335,0.41135645,0.060105506,-0.201193,0.20810826,0.46485987,0.24421866,0.10228568,0.53578335,0.51508164,-0.10882892,-0.12292076,0.7761435,-0.06218046,-0.38537574,-0.47105,0.22024068,784.10254,802.23444,797.8022,779.2674,715.6044,-0.2955322265625,0.03094482421875,0.9464111328125,1.62994384765625,-3.45428466796875,-0.142059326171875,1.0,1.0,1.0,1.0,1.0,80.0,event
15:19:10.541,0.8687899,0.45509046,0.29690182,0.68049335,0.41135645,0.060105506,-0.201193,0.20810826,0.46485987,0.24421866,0.10228568,0.53578335,0.51508164,-0.10882892,-0.12292076,0.7761435,-0.06218046,-0.38537574,-0.47105,0.22024068,796.5934,801.4286,799.41394,785.7143,738.5714,-0.2955322265625,0.03094482421875,0.9464111328125,1.62994384765625,-3.45428466796875,-0.142059326171875,1.0,1.0,1.0,1.0,1.0,80.0,event
15:19:10.542,0.8687899,0.45509046,0.29690182,0.68049335,0.41135645,0.060105506,-0.201193,0.20810826,0.46485987,0.24421866,0.10228568,0.53578335,0.51508164,-0.10882892,-0.12292076,0.7761435,-0.06218046,-0.38537574,-0.47105,0.22024068,790.14655,799.011,797.3993,784.5055,776.04395,-0.2955322265625,0.03094482421875,0.9464111328125,1.62994384765625,-3.45428466796875,-0.142059326171875,1.0,1.0,1.0,1.0,1.0,80.0,event
15:19:10.542,0.8687899,0.45509046,0.29690182,0.68049335,0.41135645,0.060105506,-0.201193,0.20810826,0.46485987,0.24421866,0.10228568,0.53578335,0.51508164,-0.10882892,-0.12292076,0.7761435,-0.06218046,-0.38537574,-0.47105,0.22024068,784.10254,801.8315,793.7729,783.2967,812.3077,-0.2955322265625,0.03094482421875,0.9464111328125,1.62994384765625,-3.45428466796875,-0.142059326171875,1.0,1.0,1.0,1.0,1.0,80.0,event
15:19:10.543,0.8687899,0.45509046,0.29690182,0.68049335,0.41135645,0.060105506,-0.201193,0.20810826,0.46485987,0.24421866,0.10228568,0.53578335,0.51508164,-0.10882892,-0.12292076,0.7761435,-0.06218046,-0.38537574,-0.47105,0.22024068,786.52014,802.23444,798.60803,788.5348,931.1722,-0.2955322265625,0.03094482421875,0.9464111328125,1.62994384765625,-3.45428466796875,-0.142059326171875,1.0,1.0,1.0,1.0,1.0,80.0,event
15:19:10.544,0.8687899,0.45509046,0.29690182,0.68049335,0.41135645,0.060105506,-0.201193,0.20810826,0.46485987,0.24421866,0.10228568,0.53578335,0.51508164,-0.10882892,-0.12292076,0.7761435,-0.06218046,-0.38537574,-0.47105,0.22024068,777.25275,801.4286,801.02563,786.1172,965.42126,-0.2955322265625,0.03094482421875,0.9464111328125,1.62994384765625,-3.45428466796875,-0.142059326171875,1.0,1.0,1.0,1.0,1.0,80.0,event
15:19:10.544,0.8687899,0.45509046,0.29690182,0.68049335,0.41135645,0.060105506,-0.201193,0.20810826,0.46485987,0.24421866,0.10228568,0.53578335,0.51508164,-0.10882892,-0.12292076,0.7761435,-0.06218046,-0.38537574,-0.47105,0.22024068,771.6117,801.8315,799.011,785.7143,751.8681,-0.2955322265625,0.03094482421875,0.9464111328125,1.62994384765625,-3.45428466796875,-0.142059326171875,1.0,1.0,1.0,1.0,1.0,80.0,event
15:19:10.545,0.8687899,0.45509046,0.29690182,0.68049335,0.41135645,0.060105506,-0.201193,0.20810826,0.46485987,0.24421866,0.10228568,0.53578335,0.51508164,-0.10882892,-0.12292076,0.7761435,-0.06218046,-0.38537574,-0.47105,0.22024068,783.69965,801.4286,800.6227,788.93774,927.9487,-0.2955322265625,0.03094482421875,0.9464111328125,1.62994384765625,-3.45428466796875,-0.142059326171875,1.0,1.0,1.0,1.0,1.0,80.0,event
15:19:10.545,0.8687899,0.45509046,0.29690182,0.68049335,0.41135645,0.060105506,-0.201193,0.20810826,0.46485987,0.24421866,0.10228568,0.53578335,0.51508164,-0.10882892,-0.12292076,0.7761435,-0.06218046,-0.38537574,-0.47105,0.22024068,774.83514,801.8315,798.20514,789.7436,734.5421,-0.2955322265625,0.03094482421875,0.9464111328125,1.62994384765625,-3.45428466796875,-0.142059326171875,1.0,1.0,1.0,1.0,1.0,80.0,event
15:19:10.546,0.8687899,0.45509046,0.29690182,0.68049335,0.41135645,0.060105506,-0.201193,0.20810826,0.46485987,0.24421866,0.10228568,0.53578335,0.51508164,-0.10882892,-0.12292076,0.7761435,-0.06218046,-0.38537574,-0.47105,0.22024068,792.5641,803.8461,801.4286,788.1319,790.54944,-0.2955322265625,0.03094482421875,0.9464111328125,1.62994384765625,-3.45428466796875,-0.142059326171875,1.0,1.0,1.0,1.0,1.0,80.0,event
15:19:10.547,0.8687899,0.45509046,0.29690182,0.68049335,0.41135645,0.060105506,-0.201193,0.20810826,0.46485987,0.24421866,0.10228568,0.53578335,0.51508164,-0.10882892,-0.12292076,0.7761435,-0.06218046,-0.38537574,-0.47105,0.22024068,779.67035,801.4286,800.6227,789.34064,743.4066,-0.2955322265625,0.03094482421875,0.9464111328125,1.62994384765625,-3.45428466796875,-0.142059326171875,1.0,1.0,1.0,1.0,1.0,80.0,event
15:19:10.575,0.8687899,0.45509046,0.29690182,0.68049335,0.41135645,0.060105506,-0.201193,0.20810826,0.46485987,0.24421866,0.10228568,0.53578335,0.51508164,-0.10882892,-0.12292076,0.7761435,-0.06218046,-0.38537574,-0.47105,0.22024068,778.46155,800.2198,802.6374,794.57874,834.4689,-0.29241943359375,0.03076171875,0.9429931640625,1.86920166015625,-3.581390380859375,0.082244873046875,1.0,1.0,1.0,1.0,1.0,80.0,event
15:19:10.576,0.8687899,0.45509046,0.29690182,0.68049335,0.41135645,0.060105506,-0.201193,0.20810826,0.46485987,0.24421866,0.10228568,0.53578335,0.51508164,-0.10882892,-0.12292076,0.7761435,-0.06218046,-0.38537574,-0.47105,0.22024068,784.10254,799.81683,807.47253,792.96704,843.3333,-0.29241943359375,0.03076171875,0.9429931640625,1.86920166015625,-3.581390380859375,0.082244873046875,1.0,1.0,1.0,1.0,1.0,80.0,event
15:19:10.577,0.8687899,0.45509046,0.29690182,0.68049335,0.41135645,0.060105506,-0.201193,0.20810826,0.46485987,0.24421866,0.10228568,0.53578335,0.51508164,-0.10882892,-0.12292076,0.7761435,-0.06218046,-0.38537574,-0.47105,0.22024068,781.28204,797.8022,803.0403,793.36993,741.39197,-0.29241943359375,0.03076171875,0.9429931640625,1.86920166015625,-3.581390380859375,0.082244873046875,1.0,1.0,1.0,1.0,1.0,80.0,event
15:19:10.577,0.8687899,0.45509046,0.29690182,0.68049335,0.41135645,0.060105506,-0.201193,0.20810826,0.46485987,0.24421866,0.10228568,0.53578335,0.51508164,-0.10882892,-0.12292076,0.7761435,-0.06218046,-0.38537574,-0.47105,0.22024068,788.93774,805.4579,798.20514,788.1319,761.53845,-0.29241943359375,0.03076171875,0.9429931640625,1.86920166015625,-3.581390380859375,0.082244873046875,1.0,1.0,1.0,1.0,1.0,80.0,event
15:19:10.578,0.8687899,0.45509046,0.29690182,0.68049335,0.41135645,0.060105506,-0.201193,0.20810826,0.46485987,0.24421866,0.10228568,0.53578335,0.51508164,-0.10882892,-0.12292076,0.7761435,-0.06218046,-0.38537574,-0.47105,0.22024068,770.0,809.4872,805.05493,772.8205,836.4835,-0.29241943359375,0.03076171875,0.9429931640625,1.86920166015625,-3.581390380859375,0.082244873046875,1.0,1.0,1.0,1.0,1.0,80.0,event
15:19:10.579,0.8687899,0.45509046,0.29690182,0.68049335,0.41135645,0.060105506,-0.201193,0.20810826,0.46485987,0.24421866,0.10228568,0.53578335,0.51508164,-0.10882892,-0.12292076,0.7761435,-0.06218046,-0.38537574,-0.47105,0.22024068,781.685,808.2784,798.20514,784.5055,878.7912,-0.29241943359375,0.03076171875,0.9429931640625,1.86920166015625,-3.581390380859375,0.082244873046875,1.0,1.0,1.0,1.0,1.0,80.0,event
15:19:10.579,0.8687899,0.45509046,0.29690182,0.68049335,0.41135645,0.060105506,-0.201193,0.20810826,0.46485987,0.24421866,0.10228568,0.53578335,0.51508164,-0.10882892,-0.12292076,0.7761435,-0.06218046,-0.38537574,-0.47105,0.22024068,768.7912,809.0842,800.2198,774.43225,904.17584,-0.29241943359375,0.03076171875,0.9429931640625,1.86920166015625,-3.581390380859375,0.082244873046875,1.0,1.0,1.0,1.0,1.0,80.0,event
15:19:10.580,0.8687899,0.45509046,0.29690182,0.68049335,0.41135645,0.060105506,-0.201193,0.20810826,0.46485987,0.24421866,0.10228568,0.53578335,0.51508164,-0.10882892,-0.12292076,0.7761435,-0.06218046,-0.38537574,-0.47105,0.22024068,774.0293,810.293,799.81683,776.8498,763.95605,-0.29241943359375,0.03076171875,0.9429931640625,1.86920166015625,-3.581390380859375,0.082244873046875,1.0,1.0,1.0,1.0,1.0,80.0,event
15:19:10.581,0.8687899,0.45509046,0.29690182,0.68049335,0.41135645,0.060105506,-0.201193,0.20810826,0.46485987,0.24421866,0.10228568,0.53578335,0.51508164,-0.10882892,-0.12292076,0.7761435,-0.06218046,-0.38537574,-0.47105,0.22024068,781.28204,813.1135,790.9524,766.77655,963.8095,-0.29241943359375,0.03076171875,0.9429931640625,1.86920166015625,-3.581390380859375,0.082244873046875,1.0,1.0,1.0,1.0,1.0,80.0,event
15:19:10.581,0.8687899,0.45509046,0.29690182,0.68049335,0.41135645,0.060105506,-0.201193,0.20810826,0.46485987,0.24421866,0.10228568,0.53578335,0.51508164,-0.10882892,-0.12292076,0.7761435,-0.06218046,-0.38537574,-0.47105,0.22024068,773.6264,814.3223,792.1612,761.13556,881.6117,-0.29241943359375,0.03076171875,0.9429931640625,1.86920166015625,-3.581390380859375,0.082244873046875,1.0,1.0,1.0,1.0,1.0,80.0,event
15:19:10.582,0.8687899,0.45509046,0.29690182,0.68049335,0.41135645,0.060105506,-0.201193,0.20810826,0.46485987,0.24421866,0.10228568,0.53578335,0.51508164,-0.10882892,-0.12292076,0.7761435,-0.06218046,-0.38537574,-0.47105,0.22024068,780.87915,811.50183,792.1612,780.87915,800.2198,-0.29241943359375,0.03076171875,0.9429931640625,1.86920166015625,-3.581390380859375,0.082244873046875,1.0,1.0,1.0,1.0,1.0,80.0,event
15:19:10.582,0.8687899,0.45509046,0.29690182,0.68049335,0.41135645,0.060105506,-0.201193,0.20810826,0.46485987,0.24421866,0.10228568,0.53578335,0.51508164,-0.10882892,-0.12292076,0.7761435,-0.06218046,-0.38537574,-0.47105,0.22024068,783.2967,809.4872,788.5348,781.28204,755.4945,-0.29241943359375,0.03076171875,0.9429931640625,1.86920166015625,-3.581390380859375,0.082244873046875,1.0,1.0,1.0,1.0,1.0,80.0,event
15:19:10.609,0.8687899,0.45509046,0.29690182,0.68049335,0.41135645,0.060105506,-0.201193,0.20810826,0.46485987,0.24421866,0.10228568,0.53578335,0.51508164,-0.10882892,-0.12292076,0.7761435,-0.06218046,-0.38537574,-0.47105,0.22024068,787.326,809.89014,791.75824,773.22345,750.65936,-0.29205322265625,0.03448486328125,0.95440673828125,2.6019287109375,-3.611297607421875,0.740203857421875,1.0,1.0,1.0,1.0,1.0,80.0,event
15:19:10.610,0.84807914,0.4580325,0.32447532,0.71749824,0.4120205,0.10066243,-0.18474387,0.22780654,0.47800857,0.28536215,0.116761334,0.53949773,0.48596424,-0.099701345,-0.12571552,0.76354474,-0.08252962,-0.39556983,-0.47302836,0.21725461,769.59705,809.0842,796.99634,774.43225,706.337,-0.29205322265625,0.03448486328125,0.95440673828125,2.6019287109375,-3.611297607421875,0.740203857421875,1.0,1.0,1.0,1.0,1.0,80.0,event
15:19:10.614,0.84807914,0.4580325,0.32447532,0.71749824,0.4120205,0.10066243,-0.18474387,0.22780654,0.47800857,0.28536215,0.116761334,0.53949773,0.48596424,-0.099701345,-0.12571552,0.76354474,-0.08252962,-0.39556983,-0.47302836,0.21725461,770.80585,811.0989,797.3993,780.07324,681.75824,-0.29205322265625,0.03448486328125,0.95440673828125,2.6019287109375,-3.611297607421875,0.740203857421875,1.0,1.0,1.0,1.0,1.0,80.0,event
15:19:10.615,0.84807914,0.4580325,0.32447532,0.71749824,0.4120205,0.10066243,-0.18474387,0.22780654,0.47800857,0.28536215,0.116761334,0.53949773,0.48596424,-0.099701345,-0.12571552,0.76354474,-0.08252962,-0.39556983,-0.47302836,0.21725461,783.2967,811.50183,792.5641,778.86444,716.0073,-0.29205322265625,0.03448486328125,0.95440673828125,2.6019287109375,-3.611297607421875,0.740203857421875,1.0,1.0,1.0,1.0,1.0,80.0,event
15:19:10.616,0.84807914,0.4580325,0.32447532,0.71749824,0.4120205,0.10066243,-0.18474387,0.22780654,0.47800857,0.28536215,0.116761334,0.53949773,0.48596424,-0.099701345,-0.12571552,0.76354474,-0.08252962,-0.39556983,-0.47302836,0.21725461,783.2967,805.05493,792.96704,771.6117,731.31866,-0.29205322265625,0.03448486328125,0.95440673828125,2.6019287109375,-3.611297607421875,0.740203857421875,1.0,1.0,1.0,1.0,1.0,80.0,event
15:19:10.616,0.84807914,0.4580325,0.32447532,0.71749824,0.4120205,0.10066243,-0.18474387,0.22780654,0.47800857,0.28536215,0.116761334,0.53949773,0.48596424,-0.099701345,-0.12571552,0.76354474,-0.08252962,-0.39556983,-0.47302836,0.21725461,779.2674,801.8315,794.9817,766.77655,828.022,-0.29205322265625,0.03448486328125,0.95440673828125,2.6019287109375,-3.611297607421875,0.740203857421875,1.0,1.0,1.0,1.0,1.0,80.0,event
15:19:10.617,0.84807914,0.4580325,0.32447532,0.71749824,0.4120205,0.10066243,-0.18474387,0.22780654,0.47800857,0.28536215,0.116761334,0.53949773,0.48596424,-0.099701345,-0.12571552,0.76354474,-0.08252962,-0.39556983,-0.47302836,0.21725461,779.2674,803.0403,796.1905,773.22345,819.15753,-0.29205322265625,0.03448486328125,0.95440673828125,2.6019287109375,-3.611297607421875,0.740203857421875,1.0,1.0,1.0,1.0,1.0,80.0,event
15:19:10.618,0.84807914,0.4580325,0.32447532,0.71749824,0.4120205,0.10066243,-0.18474387,0.22780654,0.47800857,0.28536215,0.116761334,0.53949773,0.48596424,-0.099701345,-0.12571552,0.76354474,-0.08252962,-0.39556983,-0.47302836,0.21725461,788.93774,809.89014,792.96704,778.0586,977.50916,-0.29205322265625,0.03448486328125,0.95440673828125,2.6019287109375,-3.611297607421875,0.740203857421875,1.0,1.0,1.0,1.0,1.0,80.0,event
15:19:10.618,0.84807914,0.4580325,0.32447532,0.71749824,0.4120205,0.10066243,-0.18474387,0.22780654,0.47800857,0.28536215,0.116761334,0.53949773,0.48596424,-0.099701345,-0.12571552,0.76354474,-0.08252962,-0.39556983,-0.47302836,0.21725461,791.3553,806.26373,796.1905,778.86444,807.8755,-0.29205322265625,0.03448486328125,0.95440673828125,2.6019287109375,-3.611297607421875,0.740203857421875,1.0,1.0,1.0,1.0,1.0,80.0,event
15:19:10.619,0.84807914,0.4580325,0.32447532,0.71749824,0.4120205,0.10066243,-0.18474387,0.22780654,0.47800857,0.28536215,0.116761334,0.53949773,0.48596424,-0.099701345,-0.12571552,0.76354474,-0.08252962,-0.39556983,-0.47302836,0.21725461,781.28204,810.696,793.36993,780.87915,894.5055,-0.29205322265625,0.03448486328125,0.95440673828125,2.6019287109375,-3.611297607421875,0.740203857421875,1.0,1.0,1.0,1.0,1.0,80.0,event
15:19:10.620,0.84807914,0.4580325,0.32447532,0.71749824,0.4120205,0.10066243,-0.18474387,0.22780654,0.47800857,0.28536215,0.116761334,0.53949773,0.48596424,-0.099701345,-0.12571552,0.76354474,-0.08252962,-0.39556983,-0.47302836,0.21725461,774.43225,804.2491,794.17584,778.46155,782.0879,-0.29205322265625,0.03448486328125,0.95440673828125,2.6019287109375,-3.611297607421875,0.740203857421875,1.0,1.0,1.0,1.0,1.0,80.0,event
15:19:10.621,0.84807914,0.4580325,0.32447532,0.71749824,0.4120205,0.10066243,-0.18474387,0.22780654,0.47800857,0.28536215,0.116761334,0.53949773,0.48596424,-0.099701345,-0.12571552,0.76354474,-0.08252962,-0.39556983,-0.47302836,0.21725461,780.87915,803.44324,796.99634,779.2674,830.4396,-0.29205322265625,0.03448486328125,0.95440673828125,2.6019287109375,-3.611297607421875,0.740203857421875,1.0,1.0,1.0,1.0,1.0,80.0,event
15:19:10.644,0.84807914,0.4580325,0.32447532,0.71749824,0.4120205,0.10066243,-0.18474387,0.22780654,0.47800857,0.28536215,0.116761334,0.53949773,0.48596424,-0.099701345,-0.12571552,0.76354474,-0.08252962,-0.39556983,-0.47302836,0.21725461,787.72894,808.68134,795.78754,783.2967,796.99634,-0.2904052734375,0.0313720703125,0.9453125,1.697235107421875,-3.84307861328125,0.500946044921875,1.0,1.0,1.0,1.0,1.0,80.0,event
15:19:10.646,0.84807914,0.4580325,0.32447532,0.71749824,0.4120205,0.10066243,-0.18474387,0.22780654,0.47800857,0.28536215,0.116761334,0.53949773,0.48596424,-0.099701345,-0.12571552,0.76354474,-0.08252962,-0.39556983,-0.47302836,0.21725461,783.2967,808.2784,794.9817,780.4762,688.20514,-0.2904052734375,0.0313720703125,0.9453125,1.697235107421875,-3.84307861328125,0.500946044921875,1.0,1.0,1.0,1.0,1.0,80.0,event
15:19:10.647,0.84807914,0.4580325,0.32447532,0.71749824,0.4120205,0.10066243,-0.18474387,0.22780654,0.47800857,0.28536215,0.116761334,0.53949773,0.48596424,-0.099701345,-0.12571552,0.76354474,-0.08252962,-0.39556983,-0.47302836,0.21725461,790.54944,809.0842,797.3993,779.2674,709.9634,-0.2904052734375,0.0313720703125,0.9453125,1.697235107421875,-3.84307861328125,0.500946044921875,1.0,1.0,1.0,1.0,1.0,80.0,event
15:19:10.648,0.84807914,0.4580325,0.32447532,0.71749824,0.4120205,0.10066243,-0.18474387,0.22780654,0.47800857,0.28536215,0.116761334,0.53949773,0.48596424,-0.099701345,-0.12571552,0.76354474,-0.08252962,-0.39556983,-0.47302836,0.21725461,790.54944,811.50183,796.5934,771.2088,751.4652,-0.2904052734375,0.0313720703125,0.9453125,1.697235107421875,-3.84307861328125,0.500946044921875,1.0,1.0,1.0,1.0,1.0,80.0,event
15:19:10.648,0.84807914,0.4580325,0.32447532,0.71749824,0.4120205,0.10066243,-0.18474387,0.22780654,0.47800857,0.28536215,0.116761334,0.53949773,0.48596424,-0.099701345,-0.12571552,0.76354474,-0.08252962,-0.39556983,-0.47302836,0.21725461,789.34064,811.50183,798.20514,764.35895,768.7912,-0.2904052734375,0.0313720703125,0.9453125,1.697235107421875,-3.84307861328125,0.500946044921875,1.0,1.0,1.0,1.0,1.0,80.0,event
15:19:10.649,0.84807914,0.4580325,0.32447532,0.71749824,0.4120205,0.10066243,-0.18474387,0.22780654,0.47800857,0.28536215,0.116761334,0.53949773,0.48596424,-0.099701345,-0.12571552,0.76354474,-0.08252962,-0.39556983,-0.47302836,0.21725461,801.02563,808.2784,798.20514,775.2381,813.1135,-0.2904052734375,0.0313720703125,0.9453125,1.697235107421875,-3.84307861328125,0.500946044921875,1.0,1.0,1.0,1.0,1.0,80.0,event
15:19:10.650,0.84807914,0.4580325,0.32447532,0.71749824,0.4120205,0.10066243,-0.18474387,0.22780654,0.47800857,0.28536215,0.116761334,0.53949773,0.48596424,-0.099701345,-0.12571552,0.76354474,-0.08252962,-0.39556983,-0.47302836,0.21725461,792.5641,806.6667,794.9817,788.93774,826.8132,-0.2904052734375,0.0313720703125,0.9453125,1.697235107421875,-3.84307861328125,0.500946044921875,1.0,1.0,1.0,1.0,1.0,80.0,event
15:19:10.651,0.84807914,0.4580325,0.32447532,0.71749824,0.4120205,0.10066243,-0.18474387,0.22780654,0.47800857,0.28536215,0.116761334,0.53949773,0.48596424,-0.099701345,-0.12571552,0.76354474,-0.08252962,-0.39556983,-0.47302836,0.21725461,782.49084,803.44324,797.8022,788.5348,994.0293,-0.2904052734375,0.0313720703125,0.9453125,1.697235107421875,-3.84307861328125,0.500946044921875,1.0,1.0,1.0,1.0,1.0,80.0,event
15:19:10.652,0.84807914,0.4580325,0.32447532,0.71749824,0.4120205,0.10066243,-0.18474387,0.22780654,0.47800857,0.28536215,0.116761334,0.53949773,0.48596424,-0.099701345,-0.12571552,0.76354474,-0.08252962,-0.39556983,-0.47302836,0.21725461,785.31134,801.02563,798.20514,792.1612,947.28937,-0.2904052734375,0.0313720703125,0.9453125,1.697235107421875,-3.84307861328125,0.500946044921875,1.0,1.0,1.0,1.0,1.0,80.0,event
15:19:10.652,0.84807914,0.4580325,0.32447532,0.71749824,0.4120205,0.10066243,-0.18474387,0.22780654,0.47800857,0.28536215,0.116761334,0.53949773,0.48596424,-0.099701345,-0.12571552,0.76354474,-0.08252962,-0.39556983,-0.47302836,0.21725461,788.5348,809.0842,798.60803,797.3993,725.2747,-0.2904052734375,0.0313720703125,0.9453125,1.697235107421875,-3.84307861328125,0.500946044921875,1.0,1.0,1.0,1.0,1.0,80.0,event
15:19:10.656,0.84807914,0.4580325,0.32447532,0.71749824,0.4120205,0.10066243,-0.18474387,0.22780654,0.47800857,0.28536215,0.116761334,0.53949773,0.48596424,-0.099701345,-0.12571552,0.76354474,-0.08252962,-0.39556983,-0.47302836,0.21725461,794.9817,814.7253,801.8315,796.1905,711.978,-0.2904052734375,0.0313720703125,0.9453125,1.697235107421875,-3.84307861328125,0.500946044921875,1.0,1.0,1.0,1.0,1.0,80.0,event
15:19:10.657,0.84807914,0.4580325,0.32447532,0.71749824,0.4120205,0.10066243,-0.18474387,0.22780654,0.47800857,0.28536215,0.116761334,0.53949773,0.48596424,-0.099701345,-0.12571552,0.76354474,-0.08252962,-0.39556983,-0.47302836,0.21725461,794.17584,810.293,801.02563,800.2198,768.7912,-0.2904052734375,0.0313720703125,0.9453125,1.697235107421875,-3.84307861328125,0.500946044921875,1.0,1.0,1.0,1.0,1.0,80.0,event
15:19:10.699,0.84807914,0.4580325,0.32447532,0.71749824,0.4120205,0.10066243,-0.18474387,0.22780654,0.47800857,0.28536215,0.116761334,0.53949773,0.48596424,-0.099701345,-0.12571552,0.76354474,-0.08252962,-0.39556983,-0.47302836,0.21725461,791.75824,804.65204,796.1905,799.81683,798.20514,-0.28814697265625,0.03466796875,0.944091796875,2.4224853515625,-3.102874755859375,0.650482177734375,1.0,1.0,1.0,1.0,1.0,80.0,event
15:19:10.700,0.84807914,0.4580325,0.32447532,0.71749824,0.4120205,0.10066243,-0.18474387,0.22780654,0.47800857,0.28536215,0.116761334,0.53949773,0.48596424,-0.099701345,-0.12571552,0.76354474,-0.08252962,-0.39556983,-0.47302836,0.21725461,790.9524,805.05493,799.41394,796.1905,773.22345,-0.28814697265625,0.03466796875,0.944091796875,2.4224853515625,-3.102874755859375,0.650482177734375,1.0,1.0,1.0,1.0,1.0,80.0,event
15:19:10.700,0.84807914,0.4580325,0.32447532,0.71749824,0.4120205,0.10066243,-0.18474387,0.22780654,0.47800857,0.28536215,0.116761334,0.53949773,0.48596424,-0.099701345,-0.12571552,0.76354474,-0.08252962,-0.39556983,-0.47302836,0.21725461,792.1612,804.2491,809.0842,798.20514,742.6007,-0.28814697265625,0.03466796875,0.944091796875,2.4224853515625,-3.102874755859375,0.650482177734375,1.0,1.0,1.0,1.0,1.0,80.0,event
15:19:10.701,0.8273921,0.47113392,0.3542821,0.74345374,0.40647838,0.14085494,-0.15759486,0.2462043,0.49036977,0.3135133,0.14511912,0.53949773,0.46159747,-0.081241466,-0.13125569,0.75530344,-0.097485416,-0.4086031,-0.48010632,0.21372384,795.78754,805.8608,806.6667,797.8022,791.75824,-0.28814697265625,0.03466796875,0.944091796875,2.4224853515625,-3.102874755859375,0.650482177734375,1.0,1.0,1.0,1.0,1.0,80.0,event
15:19:10.706,0.8273921,0.47113392,0.3542821,0.74345374,0.40647838,0.14085494,-0.15759486,0.2462043,0.49036977,0.3135133,0.14511912,0.53949773,0.46159747,-0.081241466,-0.13125569,0.75530344,-0.097485416,-0.4086031,-0.48010632,0.21372384,796.5934,806.6667,799.81683,792.5641,773.22345,-0.28814697265625,0.03466796875,0.944091796875,2.4224853515625,-3.102874755859375,0.650482177734375,1.0,1.0,1.0,1.0,1.0,80.0,event
15:19:10.706,0.8273921,0.47113392,0.3542821,0.74345374,0.40647838,0.14085494,-0.15759486,0.2462043,0.49036977,0.3135133,0.14511912,0.53949773,0.46159747,-0.081241466,-0.13125569,0.75530344,-0.097485416,-0.4086031,-0.48010632,0.21372384,809.4872,807.0696,797.3993,788.1319,819.15753,-0.28814697265625,0.03466796875,0.944091796875,2.4224853515625,-3.102874755859375,0.650482177734375,1.0,1.0,1.0,1.0,1.0,80.0,event
15:19:10.707,0.8273921,0.47113392,0.3542821,0.74345374,0.40647838,0.14085494,-0.15759486,0.2462043,0.49036977,0.3135133,0.14511912,0.53949773,0.46159747,-0.081241466,-0.13125569,0.75530344,-0.097485416,-0.4086031,-0.48010632,0.21372384,812.3077,805.05493,795.78754,791.3553,970.65936,-0.28814697265625,0.03466796875,0.944091796875,2.4224853515625,-3.102874755859375,0.650482177734375,1.0,1.0,1.0,1.0,1.0,80.0,event
15:19:10.708,0.8273921,0.47113392,0.3542821,0.74345374,0.40647838,0.14085494,-0.15759486,0.2462043,0.49036977,0.3135133,0.14511912,0.53949773,0.46159747,-0.081241466,-0.13125569,0.75530344,-0.097485416,-0.4086031,-0.48010632,0.21372384,799.41394,805.05493,792.1612,792.5641,1112.4908,-0.28814697265625,0.03466796875,0.944091796875,2.4224853515625,-3.102874755859375,0.650482177734375,1.0,1.0,1.0,1.0,1.0,80.0,event
15:19:10.708,0.8273921,0.47113392,0.3542821,0.74345374,0.40647838,0.14085494,-0.15759486,0.2462043,0.49036977,0.3135133,0.14511912,0.53949773,0.46159747,-0.081241466,-0.13125569,0.75530344,-0.097485416,-0.4086031,-0.48010632,0.21372384,794.17584,804.2491,792.96704,779.67035,844.5421,-0.28814697265625,0.03466796875,0.944091796875,2.4224853515625,-3.102874755859375,0.650482177734375,1.0,1.0,1.0,1.0,1.0,80.0,event
15:19:10.709,0.8273921,0.47113392,0.3542821,0.74345374,0.40647838,0.14085494,-0.15759486,0.2462043,0.49036977,0.3135133,0.14511912,0.53949773,0.46159747,-0.081241466,-0.13125569,0.75530344,-0.097485416,-0.4086031,-0.48010632,0.21372384,798.20514,800.2198,796.5934,791.75824,683.7729,-0.28814697265625,0.03466796875,0.944091796875,2.4224853515625,-3.102874755859375,0.650482177734375,1.0,1.0,1.0,1.0,1.0,80.0,event
15:19:10.710,0.8273921,0.47113392,0.3542821,0.74345374,0.40647838,0.14085494,-0.15759486,0.2462043,0.49036977,0.3135133,0.14511912,0.53949773,0.46159747,-0.081241466,-0.13125569,0.75530344,-0.097485416,-0.4086031,-0.48010632,0.21372384,796.99634,799.81683,796.5934,796.1905,774.0293,-0.28814697265625,0.03466796875,0.944091796875,2.4224853515625,-3.102874755859375,0.650482177734375,1.0,1.0,1.0,1.0,1.0,80.0,event
15:19:10.711,0.8273921,0.47113392,0.3542821,0.74345374,0.40647838,0.14085494,-0.15759486,0.2462043,0.49036977,0.3135133,0.14511912,0.53949773,0.46159747,-0.081241466,-0.13125569,0.75530344,-0.097485416,-0.4086031,-0.48010632,0.21372384,799.81683,799.81683,801.4286,788.5348,782.49084,-0.28814697265625,0.03466796875,0.944091796875,2.4224853515625,-3.102874755859375,0.650482177734375,1.0,1.0,1.0,1.0,1.0,80.0,event
15:19:10.764,0.8273921,0.47113392,0.3542821,0.74345374,0.40647838,0.14085494,-0.15759486,0.2462043,0.49036977,0.3135133,0.14511912,0.53949773,0.46159747,-0.081241466,-0.13125569,0.75530344,-0.097485416,-0.4086031,-0.48010632,0.21372384,803.8461,801.8315,803.0403,788.5348,730.10986,-0.28814697265625,0.03466796875,0.944091796875,2.4224853515625,-3.102874755859375,0.650482177734375,1.0,1.0,1.0,1.0,1.0,80.0,event
15:19:10.765,0.8273921,0.47113392,0.3542821,0.74345374,0.40647838,0.14085494,-0.15759486,0.2462043,0.49036977,0.3135133,0.14511912,0.53949773,0.46159747,-0.081241466,-0.13125569,0.75530344,-0.097485416,-0.4086031,-0.48010632,0.21372384,794.57874,809.89014,802.6374,782.0879,714.7985,-0.28814697265625,0.03466796875,0.944091796875,2.4224853515625,-3.102874755859375,0.650482177734375,1.0,1.0,1.0,1.0,1.0,80.0,event
15:19:10.766,0.8273921,0.47113392,0.3542821,0.74345374,0.40647838,0.14085494,-0.15759486,0.2462043,0.49036977,0.3135133,0.14511912,0.53949773,0.46159747,-0.081241466,-0.13125569,0.75530344,-0.097485416,-0.4086031,-0.48010632,0.21372384,793.36993,809.89014,798.60803,784.90845,790.9524,-0.28814697265625,0.03466796875,0.944091796875,2.4224853515625,-3.102874755859375,0.650482177734375,1.0,1.0,1.0,1.0,1.0,80.0,event
15:19:10.766,0.8273921,0.47113392,0.3542821,0.74345374,0.40647838,0.14085494,-0.15759486,0.2462043,0.49036977,0.3135133,0.14511912,0.53949773,0.46159747,-0.081241466,-0.13125569,0.75530344,-0.097485416,-0.4086031,-0.48010632,0.21372384,792.1612,799.81683,794.57874,786.52014,770.40295,-0.28814697265625,0.03466796875,0.944091796875,2.4224853515625,-3.102874755859375,0.650482177734375,1.0,1.0,1.0,1.0,1.0,80.0,event
15:19:10.767,0.8273921,0.47113392,0.3542821,0.74345374,0.40647838,0.14085494,-0.15759486,0.2462043,0.49036977,0.3135133,0.14511912,0.53949773,0.46159747,-0.081241466,-0.13125569,0.75530344,-0.097485416,-0.4086031,-0.48010632,0.21372384,783.69965,803.44324,798.60803,784.90845,772.8205,-0.28814697265625,0.03466796875,0.944091796875,2.4224853515625,-3.102874755859375,0.650482177734375,1.0,1.0,1.0,1.0,1.0,80.0,event
15:19:10.768,0.8273921,0.47113392,0.3542821,0.74345374,0.40647838,0.14085494,-0.15759486,0.2462043,0.49036977,0.3135133,0.14511912,0.53949773,0.46159747,-0.081241466,-0.13125569,0.75530344,-0.097485416,-0.4086031,-0.48010632,0.21372384,781.685,806.6667,800.2198,774.43225,868.71796,-0.28814697265625,0.03466796875,0.944091796875,2.4224853515625,-3.102874755859375,0.650482177734375,1.0,1.0,1.0,1.0,1.0,80.0,event
15:19:10.768,0.8273921,0.47113392,0.3542821,0.74345374,0.40647838,0.14085494,-0.15759486,0.2462043,0.49036977,0.3135133,0.14511912,0.53949773,0.46159747,-0.081241466,-0.13125569,0.75530344,-0.097485416,-0.4086031,-0.48010632,0.21372384,788.1319,806.26373,799.011,781.28204,1059.3041,-0.28814697265625,0.03466796875,0.944091796875,2.4224853515625,-3.102874755859375,0.650482177734375,1.0,1.0,1.0,1.0,1.0,80.0,event
15:19:10.769,0.8273921,0.47113392,0.3542821,0.74345374,0.40647838,0.14085494,-0.15759486,0.2462043,0.49036977,0.3135133,0.14511912,0.53949773,0.46159747,-0.081241466,-0.13125569,0.75530344,-0.097485416,-0.4086031,-0.48010632,0.21372384,778.86444,805.8608,801.02563,785.7143,838.49817,-0.28814697265625,0.03466796875,0.944091796875,2.4224853515625,-3.102874755859375,0.650482177734375,1.0,1.0,1.0,1.0,1.0,80.0,event
15:19:10.769,0.8273921,0.47113392,0.3542821,0.74345374,0.40647838,0.14085494,-0.15759486,0.2462043,0.49036977,0.3135133,0.14511912,0.53949773,0.46159747,-0.081241466,-0.13125569,0.75530344,-0.097485416,-0.4086031,-0.48010632,0.21372384,785.31134,805.4579,799.81683,802.23444,1112.8938,-0.28814697265625,0.03466796875,0.944091796875,2.4224853515625,-3.102874755859375,0.650482177734375,1.0,1.0,1.0,1.0,1.0,80.0,event
15:19:10.770,0.8273921,0.47113392,0.3542821,0.74345374,0.40647838,0.14085494,-0.15759486,0.2462043,0.49036977,0.3135133,0.14511912,0.53949773,0.46159747,-0.081241466,-0.13125569,0.75530344,-0.097485416,-0.4086031,-0.48010632,0.21372384,773.6264,805.05493,798.20514,774.43225,759.92676,-0.28814697265625,0.03466796875,0.944091796875,2.4224853515625,-3.102874755859375,0.650482177734375,1.0,1.0,1.0,1.0,1.0,80.0,event
15:19:10.771,0.8273921,0.47113392,0.3542821,0.74345374,0.40647838,0.14085494,-0.15759486,0.2462043,0.49036977,0.3135133,0.14511912,0.53949773,0.46159747,-0.081241466,-0.13125569,0.75530344,-0.097485416,-0.4086031,-0.48010632,0.21372384,772.01465,804.65204,799.011,784.5055,744.61536,-0.28814697265625,0.03466796875,0.944091796875,2.4224853515625,-3.102874755859375,0.650482177734375,1.0,1.0,1.0,1.0,1.0,80.0,event
15:19:10.771,0.8273921,0.47113392,0.3542821,0.74345374,0.40647838,0.14085494,-0.15759486,0.2462043,0.49036977,0.3135133,0.14511912,0.53949773,0.46159747,-0.081241466,-0.13125569,0.75530344,-0.097485416,-0.4086031,-0.48010632,0.21372384,769.59705,804.2491,802.23444,776.4469,613.2601,-0.28814697265625,0.03466796875,0.944091796875,2.4224853515625,-3.102874755859375,0.650482177734375,1.0,1.0,1.0,1.0,1.0,80.0,event
15:19:10.796,0.8273921,0.47113392,0.3542821,0.74345374,0.40647838,0.14085494,-0.15759486,0.2462043,0.49036977,0.3135133,0.14511912,0.53949773,0.46159747,-0.081241466,-0.13125569,0.75530344,-0.097485416,-0.4086031,-0.48010632,0.21372384,769.19415,802.6374,801.4286,774.0293,625.7509,-0.29107666015625,0.03631591796875,0.9451904296875,2.1234130859375,-3.327178955078125,1.09161376953125,1.0,1.0,1.0,1.0,1.0,80.0,event
15:19:10.797,0.8273921,0.47113392,0.3542821,0.74345374,0.40647838,0.14085494,-0.15759486,0.2462043,0.49036977,0.3135133,0.14511912,0.53949773,0.46159747,-0.081241466,-0.13125569,0.75530344,-0.097485416,-0.4086031,-0.48010632,0.21372384,783.2967,803.44324,799.81683,783.69965,693.0403,-0.29107666015625,0.03631591796875,0.9451904296875,2.1234130859375,-3.327178955078125,1.09161376953125,1.0,1.0,1.0,1.0,1.0,80.0,event
15:19:10.798,0.8273921,0.47113392,0.3542821,0.74345374,0.40647838,0.14085494,-0.15759486,0.2462043,0.49036977,0.3135133,0.14511912,0.53949773,0.46159747,-0.081241466,-0.13125569,0.75530344,-0.097485416,-0.4086031,-0.48010632,0.21372384,785.31134,801.8315,801.8315,789.7436,713.1868,-0.29107666015625,0.03631591796875,0.9451904296875,2.1234130859375,-3.327178955078125,1.09161376953125,1.0,1.0,1.0,1.0,1.0,80.0,event
15:19:10.798,0.8273921,0.47113392,0.3542821,0.74345374,0.40647838,0.14085494,-0.15759486,0.2462043,0.49036977,0.3135133,0.14511912,0.53949773,0.46159747,-0.081241466,-0.13125569,0.75530344,-0.097485416,-0.4086031,-0.48010632,0.21372384,775.64105,801.8315,801.02563,790.9524,675.7143,-0.29107666015625,0.03631591796875,0.9451904296875,2.1234130859375,-3.327178955078125,1.09161376953125,1.0,1.0,1.0,1.0,1.0,80.0,event
15:19:10.799,0.8273921,0.47113392,0.3542821,0.74345374,0.40647838,0.14085494,-0.15759486,0.2462043,0.49036977,0.3135133,0.14511912,0.53949773,0.46159747,-0.081241466,-0.13125569,0.75530344,-0.097485416,-0.4086031,-0.48010632,0.21372384,777.6557,802.23444,799.41394,787.326,686.1905,-0.29107666015625,0.03631591796875,0.9451904296875,2.1234130859375,-3.327178955078125,1.09161376953125,1.0,1.0,1.0,1.0,1.0,80.0,event
15:19:10.800,0.80793756,0.49278513,0.36815375,0.7502461,0.40018404,0.17197567,-0.13224313,0.26167202,0.49792695,0.327788,0.1506872,0.53949773,0.44213936,-0.06212177,-0.14307499,0.7459348,-0.09830813,-0.42046615,-0.4914368,0.21078064,780.4762,796.5934,799.011,784.10254,864.2857,-0.29107666015625,0.03631591796875,0.9451904296875,2.1234130859375,-3.327178955078125,1.09161376953125,1.0,1.0,1.0,1.0,1.0,80.0,event
15:19:10.805,0.80793756,0.49278513,0.36815375,0.7502461,0.40018404,0.17197567,-0.13224313,0.26167202,0.49792695,0.327788,0.1506872,0.53949773,0.44213936,-0.06212177,-0.14307499,0.7459348,-0.09830813,-0.42046615,-0.4914368,0.21078064,799.41394,800.2198,804.65204,786.1172,818.3516,-0.29107666015625,0.03631591796875,0.9451904296875,2.1234130859375,-3.327178955078125,1.09161376953125,1.0,1.0,1.0,1.0,1.0,80.0,event
15:19:10.805,0.80793756,0.49278513,0.36815375,0.7502461,0.40018404,0.17197567,-0.13224313,0.26167202,0.49792695,0.327788,0.1506872,0.53949773,0.44213936,-0.06212177,-0.14307499,0.7459348,-0.09830813,-0.42046615,-0.4914368,0.21078064,784.90845,796.99634,800.6227,784.10254,974.68866,-0.29107666015625,0.03631591796875,0.9451904296875,2.1234130859375,-3.327178955078125,1.09161376953125,1.0,1.0,1.0,1.0,1.0,80.0,event
15:19:10.806,0.80793756,0.49278513,0.36815375,0.7502461,0.40018404,0.17197567,-0.13224313,0.26167202,0.49792695,0.327788,0.1506872,0.53949773,0.44213936,-0.06212177,-0.14307499,0.7459348,-0.09830813,-0.42046615,-0.4914368,0.21078064,793.7729,796.99634,804.65204,780.4762,735.34796,-0.29107666015625,0.03631591796875,0.9451904296875,2.1234130859375,-3.327178955078125,1.09161376953125,1.0,1.0,1.0,1.0,1.0,80.0,event
15:19:10.807,0.80793756,0.49278513,0.36815375,0.7502461,0.40018404,0.17197567,-0.13224313,0.26167202,0.49792695,0.327788,0.1506872,0.53949773,0.44213936,-0.06212177,-0.14307499,0.7459348,-0.09830813,-0.42046615,-0.4914368,0.21078064,778.0586,800.6227,804.65204,786.9231,823.5897,-0.29107666015625,0.03631591796875,0.9451904296875,2.1234130859375,-3.327178955078125,1.09161376953125,1.0,1.0,1.0,1.0,1.0,80.0,event
15:19:10.807,0.80793756,0.49278513,0.36815375,0.7502461,0.40018404,0.17197567,-0.13224313,0.26167202,0.49792695,0.327788,0.1506872,0.53949773,0.44213936,-0.06212177,-0.14307499,0.7459348,-0.09830813,-0.42046615,-0.4914368,0.21078064,790.9524,800.6227,800.2198,796.99634,984.7619,-0.29107666015625,0.03631591796875,0.9451904296875,2.1234130859375,-3.327178955078125,1.09161376953125,1.0,1.0,1.0,1.0,1.0,80.0,event
15:19:10.808,0.80793756,0.49278513,0.36815375,0.7502461,0.40018404,0.17197567,-0.13224313,0.26167202,0.49792695,0.327788,0.1506872,0.53949773,0.44213936,-0.06212177,-0.14307499,0.7459348,-0.09830813,-0.42046615,-0.4914368,0.21078064,800.6227,794.57874,799.41394,793.7729,814.3223,-0.29107666015625,0.03631591796875,0.9451904296875,2.1234130859375,-3.327178955078125,1.09161376953125,1.0,1.0,1.0,1.0,1.0,80.0,event
15:19:10.860,0.80793756,0.49278513,0.36815375,0.7502461,0.40018404,0.17197567,-0.13224313,0.26167202,0.49792695,0.327788,0.1506872,0.53949773,0.44213936,-0.06212177,-0.14307499,0.7459348,-0.09830813,-0.42046615,-0.4914368,0.21078064,784.90845,794.17584,803.44324,791.75824,679.7436,-0.2972412109375,0.033447265625,0.93988037109375,1.7645263671875,-2.88604736328125,0.538330078125,1.0,1.0,1.0,1.0,1.0,80.0,event
15:19:10.861,0.80793756,0.49278513,0.36815375,0.7502461,0.40018404,0.17197567,-0.13224313,0.26167202,0.49792695,0.327788,0.1506872,0.53949773,0.44213936,-0.06212177,-0.14307499,0.7459348,-0.09830813,-0.42046615,-0.4914368,0.21078064,783.2967,798.60803,810.293,799.81683,734.5421,-0.2972412109375,0.033447265625,0.93988037109375,1.7645263671875,-2.88604736328125,0.538330078125,1.0,1.0,1.0,1.0,1.0,80.0,event
15:19:10.862,0.80793756,0.49278513,0.36815375,0.7502461,0.40018404,0.17197567,-0.13224313,0.26167202,0.49792695,0.327788,0.1506872,0.53949773,0.44213936,-0.06212177,-0.14307499,0.7459348,-0.09830813,-0.42046615,-0.4914368,0.21078064,788.5348,807.8755,813.91943,799.41394,684.17584,-0.2972412109375,0.033447265625,0.93988037109375,1.7645263671875,-2.88604736328125,0.538330078125,1.0,1.0,1.0,1.0,1.0,80.0,event
15:19:10.862,0.80793756,0.49278513,0.36815375,0.7502461,0.40018404,0.17197567,-0.13224313,0.26167202,0.49792695,0.327788,0.1506872,0.53949773,0.44213936,-0.06212177,-0.14307499,0.7459348,-0.09830813,-0.42046615,-0.4914368,0.21078064,788.93774,809.4872,808.2784,793.36993,638.24176,-0.2972412109375,0.033447265625,0.93988037109375,1.7645263671875,-2.88604736328125,0.538330078125,1.0,1.0,1.0,1.0,1.0,80.0,event
15:19:10.863,0.80793756,0.49278513,0.36815375,0.7502461,0.40018404,0.17197567,-0.13224313,0.26167202,0.49792695,0.327788,0.1506872,0.53949773,0.44213936,-0.06212177,-0.14307499,0.7459348,-0.09830813,-0.42046615,-0.4914368,0.21078064,792.1612,805.4579,805.8608,796.5934,677.326,-0.2972412109375,0.033447265625,0.93988037109375,1.7645263671875,-2.88604736328125,0.538330078125,1.0,1.0,1.0,1.0,1.0,80.0,event
15:19:10.864,0.80793756,0.49278513,0.36815375,0.7502461,0.40018404,0.17197567,-0.13224313,0.26167202,0.49792695,0.327788,0.1506872,0.53949773,0.44213936,-0.06212177,-0.14307499,0.7459348,-0.09830813,-0.42046615,-0.4914368,0.21078064,794.17584,805.05493,801.02563,782.8938,835.6777,-0.2972412109375,0.033447265625,0.93988037109375,1.7645263671875,-2.88604736328125,0.538330078125,1.0,1.0,1.0,1.0,1.0,80.0,event
15:19:10.864,0.80793756,0.49278513,0.36815375,0.7502461,0.40018404,0.17197567,-0.13224313,0.26167202,0.49792695,0.327788,0.1506872,0.53949773,0.44213936,-0.06212177,-0.14307499,0.7459348,-0.09830813,-0.42046615,-0.4914368,0.21078064,794.57874,806.6667,803.8461,797.3993,838.0952,-0.2972412109375,0.033447265625,0.93988037109375,1.7645263671875,-2.88604736328125,0.538330078125,1.0,1.0,1.0,1.0,1.0,80.0,event
15:19:10.865,0.80793756,0.49278513,0.36815375,0.7502461,0.40018404,0.17197567,-0.13224313,0.26167202,0.49792695,0.327788,0.1506872,0.53949773,0.44213936,-0.06212177,-0.14307499,0.7459348,-0.09830813,-0.42046615,-0.4914368,0.21078064,779.67035,804.2491,803.8461,792.1612,677.72894,-0.2972412109375,0.033447265625,0.93988037109375,1.7645263671875,-2.88604736328125,0.538330078125,1.0,1.0,1.0,1.0,1.0,80.0,event
15:19:10.867,0.80793756,0.49278513,0.36815375,0.7502461,0.40018404,0.17197567,-0.13224313,0.26167202,0.49792695,0.327788,0.1506872,0.53949773,0.44213936,-0.06212177,-0.14307499,0.7459348,-0.09830813,-0.42046615,-0.4914368,0.21078064,773.22345,807.47253,803.0403,801.02563,638.6447,-0.2972412109375,0.033447265625,0.93988037109375,1.7645263671875,-2.88604736328125,0.538330078125,1.0,1.0,1.0,1.0,1.0,80.0,event
15:19:10.868,0.80793756,0.49278513,0.36815375,0.7502461,0.40018404,0.17197567,-0.13224313,0.26167202,0.49792695,0.327788,0.1506872,0.53949773,0.44213936,-0.06212177,-0.14307499,0.7459348,-0.09830813,-0.42046615,-0.4914368,0.21078064,796.1905,807.0696,801.4286,784.5055,969.45056,-0.2972412109375,0.033447265625,0.93988037109375,1.7645263671875,-2.88604736328125,0.538330078125,1.0,1.0,1.0,1.0,1.0,80.0,event
15:19:10.869,0.80793756,0.49278513,0.36815375,0.7502461,0.40018404,0.17197567,-0.13224313,0.26167202,0.49792695,0.327788,0.1506872,0.53949773,0.44213936,-0.06212177,-0.14307499,0.7459348,-0.09830813,-0.42046615,-0.4914368,0.21078064,804.2491,805.8608,803.44324,782.8938,1014.17584,-0.2972412109375,0.033447265625,0.93988037109375,1.7645263671875,-2.88604736328125,0.538330078125,1.0,1.0,1.0,1.0,1.0,80.0,event
15:19:10.870,0.80793756,0.49278513,0.36815375,0.7502461,0.40018404,0.17197567,-0.13224313,0.26167202,0.49792695,0.327788,0.1506872,0.53949773,0.44213936,-0.06212177,-0.14307499,0.7459348,-0.09830813,-0.42046615,-0.4914368,0.21078064,787.72894,804.65204,804.2491,788.93774,738.1685,-0.2972412109375,0.033447265625,0.93988037109375,1.7645263671875,-2.88604736328125,0.538330078125,1.0,1.0,1.0,1.0,1.0,80.0,event
15:19:10.898,0.80793756,0.49278513,0.36815375,0.7502461,0.40018404,0.17197567,-0.13224313,0.26167202,0.49792695,0.327788,0.1506872,0.53949773,0.44213936,-0.06212177,-0.14307499,0.7459348,-0.09830813,-0.42046615,-0.4914368,0.21078064,780.07324,799.41394,803.0403,795.78754,754.68866,-0.29486083984375,0.03662109375,0.94989013671875,2.175750732421875,-3.626251220703125,0.22430419921875,1.0,1.0,1.0,1.0,1.0,80.0,event
15:19:10.899,0.80793756,0.49278513,0.36815375,0.7502461,0.40018404,0.17197567,-0.13224313,0.26167202,0.49792695,0.327788,0.1506872,0.53949773,0.44213936,-0.06212177,-0.14307499,0.7459348,-0.09830813,-0.42046615,-0.4914368,0.21078064,781.685,798.20514,798.20514,791.3553,886.8498,-0.29486083984375,0.03662109375,0.94989013671875,2.175750732421875,-3.626251220703125,0.22430419921875,1.0,1.0,1.0,1.0,1.0,80.0,event
15:19:10.899,0.80793756,0.49278513,0.36815375,0.7502461,0.40018404,0.17197567,-0.13224313,0.26167202,0.49792695,0.327788,0.1506872,0.53949773,0.44213936,-0.06212177,-0.14307499,0.7459348,-0.09830813,-0.42046615,-0.4914368,0.21078064,781.28204,798.20514,797.3993,786.9231,799.011,-0.29486083984375,0.03662109375,0.94989013671875,2.175750732421875,-3.626251220703125,0.22430419921875,1.0,1.0,1.0,1.0,1.0,80.0,event
15:19:10.900,0.80793756,0.49278513,0.36815375,0.7502461,0.40018404,0.17197567,-0.13224313,0.26167202,0.49792695,0.327788,0.1506872,0.53949773,0.44213936,-0.06212177,-0.14307499,0.7459348,-0.09830813,-0.42046615,-0.4914368,0.21078064,782.8938,799.011,800.2198,786.9231,700.293,-0.29486083984375,0.03662109375,0.94989013671875,2.175750732421875,-3.626251220703125,0.22430419921875,1.0,1.0,1.0,1.0,1.0,80.0,event
15:19:10.900,0.80793756,0.49278513,0.36815375,0.7502461,0.40018404,0.17197567,-0.13224313,0.26167202,0.49792695,0.327788,0.1506872,0.53949773,0.44213936,-0.06212177,-0.14307499,0.7459348,-0.09830813,-0.42046615,-0.4914368,0.21078064,785.7143,799.41394,801.8315,767.1795,777.6557,-0.29486083984375,0.03662109375,0.94989013671875,2.175750732421875,-3.626251220703125,0.22430419921875,1.0,1.0,1.0,1.0,1.0,80.0,event
15:19:10.901,0.80793756,0.49278513,0.36815375,0.7502461,0.40018404,0.17197567,-0.13224313,0.26167202,0.49792695,0.327788,0.1506872,0.53949773,0.44213936,-0.06212177,-0.14307499,0.7459348,-0.09830813,-0.42046615,-0.4914368,0.21078064,762.74725,794.57874,794.9817,776.8498,854.21246,-0.29486083984375,0.03662109375,0.94989013671875,2.175750732421875,-3.626251220703125,0.22430419921875,1.0,1.0,1.0,1.0,1.0,80.0,event
15:19:10.901,0.80793756,0.49278513,0.36815375,0.7502461,0.40018404,0.17197567,-0.13224313,0.26167202,0.49792695,0.327788,0.1506872,0.53949773,0.44213936,-0.06212177,-0.14307499,0.7459348,-0.09830813,-0.42046615,-0.4914368,0.21078064,770.0,796.1905,797.8022,770.40295,853.8095,-0.29486083984375,0.03662109375,0.94989013671875,2.175750732421875,-3.626251220703125,0.22430419921875,1.0,1.0,1.0,1.0,1.0,80.0,event
15:19:10.902,0.7859859,0.5077826,0.35615516,0.74051774,0.39943126,0.18476214,-0.120869696,0.2812266,0.50308025,0.33659184,0.1506872,0.5402027,0.42610765,-0.05144188,-0.15969153,0.7341152,-0.08309387,-0.42976987,-0.502892,0.20594409,780.07324,796.99634,802.23444,782.8938,749.45056,-0.29486083984375,0.03662109375,0.94989013671875,2.175750732421875,-3.626251220703125,0.22430419921875,1.0,1.0,1.0,1.0,1.0,80.0,event
15:19:10.906,0.7859859,0.5077826,0.35615516,0.74051774,0.39943126,0.18476214,-0.120869696,0.2812266,0.50308025,0.33659184,0.1506872,0.5402027,0.42610765,-0.05144188,-0.15969153,0.7341152,-0.08309387,-0.42976987,-0.502892,0.20594409,787.326,799.81683,800.2198,798.20514,831.2454,-0.29486083984375,0.03662109375,0.94989013671875,2.175750732421875,-3.626251220703125,0.22430419921875,1.0,1.0,1.0,1.0,1.0,80.0,event
15:19:10.907,0.7859859,0.5077826,0.35615516,0.74051774,0.39943126,0.18476214,-0.120869696,0.2812266,0.50308025,0.33659184,0.1506872,0.5402027,0.42610765,-0.05144188,-0.15969153,0.7341152,-0.08309387,-0.42976987,-0.502892,0.20594409,784.5055,800.2198,797.8022,801.8315,1051.6483,-0.29486083984375,0.03662109375,0.94989013671875,2.175750732421875,-3.626251220703125,0.22430419921875,1.0,1.0,1.0,1.0,1.0,80.0,event
15:19:10.907,0.7859859,0.5077826,0.35615516,0.74051774,0.39943126,0.18476214,-0.120869696,0.2812266,0.50308025,0.33659184,0.1506872,0.5402027,0.42610765,-0.05144188,-0.15969153,0.7341152,-0.08309387,-0.42976987,-0.502892,0.20594409,785.31134,802.6374,799.81683,789.7436,802.23444,-0.29486083984375,0.03662109375,0.94989013671875,2.175750732421875,-3.626251220703125,0.22430419921875,1.0,1.0,1.0,1.0,1.0,80.0,event
15:19:10.908,0.7859859,0.5077826,0.35615516,0.74051774,0.39943126,0.18476214,-0.120869696,0.2812266,0.50308025,0.33659184,0.1506872,0.5402027,0.42610765,-0.05144188,-0.15969153,0.7341152,-0.08309387,-0.42976987,-0.502892,0.20594409,783.69965,802.23444,798.60803,785.31134,576.99634,-0.29486083984375,0.03662109375,0.94989013671875,2.175750732421875,-3.626251220703125,0.22430419921875,1.0,1.0,1.0,1.0,1.0,80.0,event
15:19:10.932,0.7859859,0.5077826,0.35615516,0.74051774,0.39943126,0.18476214,-0.120869696,0.2812266,0.50308025,0.33659184,0.1506872,0.5402027,0.42610765,-0.05144188,-0.15969153,0.7341152,-0.08309387,-0.42976987,-0.502892,0.20594409,776.4469,794.57874,796.99634,782.0879,697.47253,-0.2884521484375,0.03826904296875,0.94561767578125,1.7047119140625,-4.643096923828125,0.37384033203125,1.0,1.0,1.0,1.0,1.0,80.0,event
15:19:10.933,0.7859859,0.5077826,0.35615516,0.74051774,0.39943126,0.18476214,-0.120869696,0.2812266,0.50308025,0.33659184,0.1506872,0.5402027,0.42610765,-0.05144188,-0.15969153,0.7341152,-0.08309387,-0.42976987,-0.502892,0.20594409,781.685,793.36993,798.20514,776.8498,863.0769,-0.2884521484375,0.03826904296875,0.94561767578125,1.7047119140625,-4.643096923828125,0.37384033203125,1.0,1.0,1.0,1.0,1.0,80.0,event
15:19:10.933,0.7859859,0.5077826,0.35615516,0.74051774,0.39943126,0.18476214,-0.120869696,0.2812266,0.50308025,0.33659184,0.1506872,0.5402027,0.42610765,-0.05144188,-0.15969153,0.7341152,-0.08309387,-0.42976987,-0.502892,0.20594409,783.2967,799.41394,796.5934,779.67035,767.98535,-0.2884521484375,0.03826904296875,0.94561767578125,1.7047119140625,-4.643096923828125,0.37384033203125,1.0,1.0,1.0,1.0,1.0,80.0,event
15:19:10.934,0.7859859,0.5077826,0.35615516,0.74051774,0.39943126,0.18476214,-0.120869696,0.2812266,0.50308025,0.33659184,0.1506872,0.5402027,0.42610765,-0.05144188,-0.15969153,0.7341152,-0.08309387,-0.42976987,-0.502892,0.20594409,778.0586,801.4286,795.78754,777.25275,645.89746,-0.2884521484375,0.03826904296875,0.94561767578125,1.7047119140625,-4.643096923828125,0.37384033203125,1.0,1.0,1.0,1.0,1.0,80.0,event
15:19:10.935,0.7859859,0.5077826,0.35615516,0.74051774,0.39943126,0.18476214,-0.120869696,0.2812266,0.50308025,0.33659184,0.1506872,0.5402027,0.42610765,-0.05144188,-0.15969153,0.7341152,-0.08309387,-0.42976987,-0.502892,0.20594409,779.67035,809.4872,792.1612,778.86444,888.86444,-0.2884521484375,0.03826904296875,0.94561767578125,1.7047119140625,-4.643096923828125,0.37384033203125,1.0,1.0,1.0,1.0,1.0,80.0,event
15:19:10.935,0.7859859,0.5077826,0.35615516,0.74051774,0.39943126,0.18476214,-0.120869696,0.2812266,0.50308025,0.33659184,0.1506872,0.5402027,0.42610765,-0.05144188,-0.15969153,0.7341152,-0.08309387,-0.42976987,-0.502892,0.20594409,778.46155,809.0842,794.57874,780.4762,770.0,-0.2884521484375,0.03826904296875,0.94561767578125,1.7047119140625,-4.643096923828125,0.37384033203125,1.0,1.0,1.0,1.0,1.0,80.0,event
15:19:10.936,0.7859859,0.5077826,0.35615516,0.74051774,0.39943126,0.18476214,-0.120869696,0.2812266,0.50308025,0.33659184,0.1506872,0.5402027,0.42610765,-0.05144188,-0.15969153,0.7341152,-0.08309387,-0.42976987,-0.502892,0.20594409,784.5055,801.4286,789.34064,781.28204,836.4835,-0.2884521484375,0.03826904296875,0.94561767578125,1.7047119140625,-4.643096923828125,0.37384033203125,1.0,1.0,1.0,1.0,1.0,80.0,event
15:19:10.936,0.7859859,0.5077826,0.35615516,0.74051774,0.39943126,0.18476214,-0.120869696,0.2812266,0.50308025,0.33659184,0.1506872,0.5402027,0.42610765,-0.05144188,-0.15969153,0.7341152,-0.08309387,-0.42976987,-0.502892,0.20594409,778.86444,802.6374,792.1612,783.2967,743.4066,-0.2884521484375,0.03826904296875,0.94561767578125,1.7047119140625,-4.643096923828125,0.37384033203125,1.0,1.0,1.0,1.0,1.0,80.0,event
15:19:10.937,0.7859859,0.5077826,0.35615516,0.74051774,0.39943126,0.18476214,-0.120869696,0.2812266,0.50308025,0.33659184,0.1506872,0.5402027,0.42610765,-0.05144188,-0.15969153,0.7341152,-0.08309387,-0.42976987,-0.502892,0.20594409,772.8205,801.02563,794.17584,791.75824,913.44324,-0.2884521484375,0.03826904296875,0.94561767578125,1.7047119140625,-4.643096923828125,0.37384033203125,1.0,1.0,1.0,1.0,1.0,80.0,event
15:19:10.937,0.7859859,0.5077826,0.35615516,0.74051774,0.39943126,0.18476214,-0.120869696,0.2812266,0.50308025,0.33659184,0.1506872,0.5402027,0.42610765,-0.05144188,-0.15969153,0.7341152,-0.08309387,-0.42976987,-0.502892,0.20594409,783.69965,799.41394,796.5934,796.1905,932.381,-0.2884521484375,0.03826904296875,0.94561767578125,1.7047119140625,-4.643096923828125,0.37384033203125,1.0,1.0,1.0,1.0,1.0,80.0,event
15:19:10.938,0.7859859,0.5077826,0.35615516,0.74051774,0.39943126,0.18476214,-0.120869696,0.2812266,0.50308025,0.33659184,0.1506872,0.5402027,0.42610765,-0.05144188,-0.15969153,0.7341152,-0.08309387,-0.42976987,-0.502892,0.20594409,786.9231,800.6227,797.8022,784.90845,773.6264,-0.2884521484375,0.03826904296875,0.94561767578125,1.7047119140625,-4.643096923828125,0.37384033203125,1.0,1.0,1.0,1.0,1.0,80.0,event
15:19:10.938,0.7859859,0.5077826,0.35615516,0.74051774,0.39943126,0.18476214,-0.120869696,0.2812266,0.50308025,0.33659184,0.1506872,0.5402027,0.42610765,-0.05144188,-0.15969153,0.7341152,-0.08309387,-0.42976987,-0.502892,0.20594409,776.8498,801.4286,799.81683,784.10254,858.24176,-0.2884521484375,0.03826904296875,0.94561767578125,1.7047119140625,-4.643096923828125,0.37384033203125,1.0,1.0,1.0,1.0,1.0,80.0,event
15:19:10.960,0.7859859,0.5077826,0.35615516,0.74051774,0.39943126,0.18476214,-0.120869696,0.2812266,0.50308025,0.33659184,0.1506872,0.5402027,0.42610765,-0.05144188,-0.15969153,0.7341152,-0.08309387,-0.42976987,-0.502892,0.20594409,777.25275,801.4286,799.011,777.6557,855.82416,-0.2884521484375,0.03826904296875,0.94561767578125,1.7047119140625,-4.643096923828125,0.37384033203125,1.0,1.0,1.0,1.0,1.0,80.0,event
15:19:10.961,0.7859859,0.5077826,0.35615516,0.74051774,0.39943126,0.18476214,-0.120869696,0.2812266,0.50308025,0.33659184,0.1506872,0.5402027,0.42610765,-0.05144188,-0.15969153,0.7341152,-0.08309387,-0.42976987,-0.502892,0.20594409,773.22345,800.6227,792.1612,780.07324,700.293,-0.2884521484375,0.03826904296875,0.94561767578125,1.7047119140625,-4.643096923828125,0.37384033203125,1.0,1.0,1.0,1.0,1.0,80.0,event
15:19:10.962,0.7859859,0.5077826,0.35615516,0.74051774,0.39943126,0.18476214,-0.120869696,0.2812266,0.50308025,0.33659184,0.1506872,0.5402027,0.42610765,-0.05144188,-0.15969153,0.7341152,-0.08309387,-0.42976987,-0.502892,0.20594409,761.13556,802.6374,791.3553,784.10254,623.73627,-0.2884521484375,0.03826904296875,0.94561767578125,1.7047119140625,-4.643096923828125,0.37384033203125,1.0,1.0,1.0,1.0,1.0,80.0,event
15:19:10.962,0.7859859,0.5077826,0.35615516,0.74051774,0.39943126,0.18476214,-0.120869696,0.2812266,0.50308025,0.33659184,0.1506872,0.5402027,0.42610765,-0.05144188,-0.15969153,0.7341152,-0.08309387,-0.42976987,-0.502892,0.20594409,764.35895,801.4286,791.75824,780.4762,740.989,-0.2884521484375,0.03826904296875,0.94561767578125,1.7047119140625,-4.643096923828125,0.37384033203125,1.0,1.0,1.0,1.0,1.0,80.0,event
15:19:10.963,0.7859859,0.5077826,0.35615516,0.74051774,0.39943126,0.18476214,-0.120869696,0.2812266,0.50308025,0.33659184,0.1506872,0.5402027,0.42610765,-0.05144188,-0.15969153,0.7341152,-0.08309387,-0.42976987,-0.502892,0.20594409,786.52014,806.6667,796.1905,785.31134,855.82416,-0.2884521484375,0.03826904296875,0.94561767578125,1.7047119140625,-4.643096923828125,0.37384033203125,1.0,1.0,1.0,1.0,1.0,80.0,event
15:19:10.963,0.7859859,0.5077826,0.35615516,0.74051774,0.39943126,0.18476214,-0.120869696,0.2812266,0.50308025,0.33659184,0.1506872,0.5402027,0.42610765,-0.05144188,-0.15969153,0.7341152,-0.08309387,-0.42976987,-0.502892,0.20594409,775.64105,800.2198,793.36993,784.5055,874.7619,-0.2884521484375,0.03826904296875,0.94561767578125,1.7047119140625,-4.643096923828125,0.37384033203125,1.0,1.0,1.0,1.0,1.0,80.0,event
15:19:10.964,0.7859859,0.5077826,0.35615516,0.74051774,0.39943126,0.18476214,-0.120869696,0.2812266,0.50308025,0.33659184,0.1506872,0.5402027,0.42610765,-0.05144188,-0.15969153,0.7341152,-0.08309387,-0.42976987,-0.502892,0.20594409,788.5348,808.68134,796.1905,778.46155,818.3516,-0.2884521484375,0.03826904296875,0.94561767578125,1.7047119140625,-4.643096923828125,0.37384033203125,1.0,1.0,1.0,1.0,1.0,80.0,event
15:19:10.964,0.7859859,0.5077826,0.35615516,0.74051774,0.39943126,0.18476214,-0.120869696,0.2812266,0.50308025,0.33659184,0.1506872,0.5402027,0.42610765,-0.05144188,-0.15969153,0.7341152,-0.08309387,-0.42976987,-0.502892,0.20594409,790.14655,806.6667,795.78754,778.46155,838.49817,-0.2884521484375,0.03826904296875,0.94561767578125,1.7047119140625,-4.643096923828125,0.37384033203125,1.0,1.0,1.0,1.0,1.0,80.0,event
15:19:10.965,0.7859859,0.5077826,0.35615516,0.74051774,0.39943126,0.18476214,-0.120869696,0.2812266,0.50308025,0.33659184,0.1506872,0.5402027,0.42610765,-0.05144188,-0.15969153,0.7341152,-0.08309387,-0.42976987,-0.502892,0.20594409,795.78754,803.0403,798.20514,782.8938,1031.5018,-0.2884521484375,0.03826904296875,0.94561767578125,1.7047119140625,-4.643096923828125,0.37384033203125,1.0,1.0,1.0,1.0,1.0,80.0,event
15:19:10.965,0.7670229,0.5086525,0.31208828,0.7222622,0.40940773,0.17424008,-0.12754685,0.31095216,0.5074031,0.3391433,0.1506872,0.54354787,0.4112977,-0.051807307,-0.17586577,0.72182226,-0.057959143,-0.43433183,-0.5099614,0.19761142,795.38464,802.6374,800.2198,785.31134,879.19415,-0.2884521484375,0.03826904296875,0.94561767578125,1.7047119140625,-4.643096923828125,0.37384033203125,1.0,1.0,1.0,1.0,1.0,80.0,event
15:19:10.969,0.7670229,0.5086525,0.31208828,0.7222622,0.40940773,0.17424008,-0.12754685,0.31095216,0.5074031,0.3391433,0.1506872,0.54354787,0.4112977,-0.051807307,-0.17586577,0.72182226,-0.057959143,-0.43433183,-0.5099614,0.19761142,787.326,803.44324,799.81683,787.72894,711.5751,-0.2884521484375,0.03826904296875,0.94561767578125,1.7047119140625,-4.643096923828125,0.37384033203125,1.0,1.0,1.0,1.0,1.0,80.0,event
15:19:10.969,0.7670229,0.5086525,0.31208828,0.7222622,0.40940773,0.17424008,-0.12754685,0.31095216,0.5074031,0.3391433,0.1506872,0.54354787,0.4112977,-0.051807307,-0.17586577,0.72182226,-0.057959143,-0.43433183,-0.5099614,0.19761142,782.0879,806.26373,798.20514,786.1172,764.7619,-0.2884521484375,0.03826904296875,0.94561767578125,1.7047119140625,-4.643096923828125,0.37384033203125,1.0,1.0,1.0,1.0,1.0,80.0,event
15:19:11.065,0.7670229,0.5086525,0.31208828,0.7222622,0.40940773,0.17424008,-0.12754685,0.31095216,0.5074031,0.3391433,0.1506872,0.54354787,0.4112977,-0.051807307,-0.17586577,0.72182226,-0.057959143,-0.43433183,-0.5099614,0.19761142,790.9524,807.8755,800.6227,792.1612,701.50183,-0.291259765625,0.0330810546875,0.94775390625,1.278533935546875,-3.686065673828125,0.396270751953125,1.0,1.0,1.0,1.0,1.0,80.0,event
15:19:11.066,0.7670229,0.5086525,0.31208828,0.7222622,0.40940773,0.17424008,-0.12754685,0.31095216,0.5074031,0.3391433,0.1506872,0.54354787,0.4112977,-0.051807307,-0.17586577,0.72182226,-0.057959143,-0.43433183,-0.5099614,0.19761142,786.1172,802.6374,798.60803,795.78754,642.674,-0.291259765625,0.0330810546875,0.94775390625,1.278533935546875,-3.686065673828125,0.396270751953125,1.0,1.0,1.0,1.0,1.0,80.0,event
15:19:11.067,0.7670229,0.5086525,0.31208828,0.7222622,0.40940773,0.17424008,-0.12754685,0.31095216,0.5074031,0.3391433,0.1506872,0.54354787,0.4112977,-0.051807307,-0.17586577,0.72182226,-0.057959143,-0.43433183,-0.5099614,0.19761142,784.10254,801.4286,796.99634,786.1172,692.6374,-0.291259765625,0.0330810546875,0.94775390625,1.278533935546875,-3.686065673828125,0.396270751953125,1.0,1.0,1.0,1.0,1.0,80.0,event
15:19:11.067,0.7670229,0.5086525,0.31208828,0.7222622,0.40940773,0.17424008,-0.12754685,0.31095216,0.5074031,0.3391433,0.1506872,0.54354787,0.4112977,-0.051807307,-0.17586577,0.72182226,-0.057959143,-0.43433183,-0.5099614,0.19761142,792.1612,804.2491,804.2491,784.10254,798.60803,-0.291259765625,0.0330810546875,0.94775390625,1.278533935546875,-3.686065673828125,0.396270751953125,1.0,1.0,1.0,1.0,1.0,80.0,event
15:19:11.068,0.7670229,0.5086525,0.31208828,0.7222622,0.40940773,0.17424008,-0.12754685,0.31095216,0.5074031,0.3391433,0.1506872,0.54354787,0.4112977,-0.051807307,-0.17586577,0.72182226,-0.057959143,-0.43433183,-0.5099614,0.19761142,790.54944,803.44324,803.8461,805.8608,759.5238,-0.291259765625,0.0330810546875,0.94775390625,1.278533935546875,-3.686065673828125,0.396270751953125,1.0,1.0,1.0,1.0,1.0,80.0,event
15:19:11.069,0.7670229,0.5086525,0.31208828,0.7222622,0.40940773,0.17424008,-0.12754685,0.31095216,0.5074031,0.3391433,0.1506872,0.54354787,0.4112977,-0.051807307,-0.17586577,0.72182226,-0.057959143,-0.43433183,-0.5099614,0.19761142,791.3553,805.4579,800.6227,811.50183,802.23444,-0.291259765625,0.0330810546875,0.94775390625,1.278533935546875,-3.686065673828125,0.396270751953125,1.0,1.0,1.0,1.0,1.0,80.0,event
15:19:11.069,0.7670229,0.5086525,0.31208828,0.7222622,0.40940773,0.17424008,-0.12754685,0.31095216,0.5074031,0.3391433,0.1506872,0.54354787,0.4112977,-0.051807307,-0.17586577,0.72182226,-0.057959143,-0.43433183,-0.5099614,0.19761142,786.1172,807.8755,803.44324,795.78754,871.13556,-0.291259765625,0.0330810546875,0.94775390625,1.278533935546875,-3.686065673828125,0.396270751953125,1.0,1.0,1.0,1.0,1.0,80.0,event
15:19:11.070,0.7670229,0.5086525,0.31208828,0.7222622,0.40940773,0.17424008,-0.12754685,0.31095216,0.5074031,0.3391433,0.1506872,0.54354787,0.4112977,-0.051807307,-0.17586577,0.72182226,-0.057959143,-0.43433183,-0.5099614,0.19761142,777.6557,802.6374,803.0403,791.3553,1032.7106,-0.291259765625,0.0330810546875,0.94775390625,1.278533935546875,-3.686065673828125,0.396270751953125,1.0,1.0,1.0,1.0,1.0,80.0,event
15:19:11.070,0.7670229,0.5086525,0.31208828,0.7222622,0.40940773,0.17424008,-0.12754685,0.31095216,0.5074031,0.3391433,0.1506872,0.54354787,0.4112977,-0.051807307,-0.17586577,0.72182226,-0.057959143,-0.43433183,-0.5099614,0.19761142,772.8205,803.44324,803.8461,796.1905,1120.9524,-0.291259765625,0.0330810546875,0.94775390625,1.278533935546875,-3.686065673828125,0.396270751953125,1.0,1.0,1.0,1.0,1.0,80.0,event
15:19:11.071,0.7670229,0.5086525,0.31208828,0.7222622,0.40940773,0.17424008,-0.12754685,0.31095216,0.5074031,0.3391433,0.1506872,0.54354787,0.4112977,-0.051807307,-0.17586577,0.72182226,-0.057959143,-0.43433183,-0.5099614,0.19761142,772.8205,808.68134,804.2491,793.36993,811.9048,-0.291259765625,0.0330810546875,0.94775390625,1.278533935546875,-3.686065673828125,0.396270751953125,1.0,1.0,1.0,1.0,1.0,80.0,event
15:19:11.072,0.7670229,0.5086525,0.31208828,0.7222622,0.40940773,0.17424008,-0.12754685,0.31095216,0.5074031,0.3391433,0.1506872,0.54354787,0.4112977,-0.051807307,-0.17586577,0.72182226,-0.057959143,-0.43433183,-0.5099614,0.19761142,774.43225,809.4872,803.0403,793.36993,691.8315,-0.291259765625,0.0330810546875,0.94775390625,1.278533935546875,-3.686065673828125,0.396270751953125,1.0,1.0,1.0,1.0,1.0,80.0,event
15:19:11.072,0.7670229,0.5086525,0.31208828,0.7222622,0.40940773,0.17424008,-0.12754685,0.31095216,0.5074031,0.3391433,0.1506872,0.54354787,0.4112977,-0.051807307,-0.17586577,0.72182226,-0.057959143,-0.43433183,-0.5099614,0.19761142,782.49084,806.6667,803.0403,797.3993,786.1172,-0.291259765625,0.0330810546875,0.94775390625,1.278533935546875,-3.686065673828125,0.396270751953125,1.0,1.0,1.0,1.0,1.0,80.0,event
15:19:11.073,0.7670229,0.5086525,0.31208828,0.7222622,0.40940773,0.17424008,-0.12754685,0.31095216,0.5074031,0.3391433,0.1506872,0.54354787,0.4112977,-0.051807307,-0.17586577,0.72182226,-0.057959143,-0.43433183,-0.5099614,0.19761142,788.1319,805.8608,809.89014,800.2198,772.01465,-0.29510498046875,0.030517578125,0.94647216796875,1.667327880859375,-3.170166015625,-0.07476806640625,1.0,1.0,1.0,1.0,1.0,80.0,event
15:19:11.074,0.7670229,0.5086525,0.31208828,0.7222622,0.40940773,0.17424008,-0.12754685,0.31095216,0.5074031,0.3391433,0.1506872,0.54354787,0.4112977,-0.051807307,-0.17586577,0.72182226,-0.057959143,-0.43433183,-0.5099614,0.19761142,799.011,811.0989,813.5165,799.011,741.79486,-0.29510498046875,0.030517578125,0.94647216796875,1.667327880859375,-3.170166015625,-0.07476806640625,1.0,1.0,1.0,1.0,1.0,80.0,event
15:19:11.074,0.7670229,0.5086525,0.31208828,0.7222622,0.40940773,0.17424008,-0.12754685,0.31095216,0.5074031,0.3391433,0.1506872,0.54354787,0.4112977,-0.051807307,-0.17586577,0.72182226,-0.057959143,-0.43433183,-0.5099614,0.19761142,798.20514,807.47253,807.0696,789.7436,784.90845,-0.29510498046875,0.030517578125,0.94647216796875,1.667327880859375,-3.170166015625,-0.07476806640625,1.0,1.0,1.0,1.0,1.0,80.0,event
15:19:11.075,0.7670229,0.5086525,0.31208828,0.7222622,0.40940773,0.17424008,-0.12754685,0.31095216,0.5074031,0.3391433,0.1506872,0.54354787,0.4112977,-0.051807307,-0.17586577,0.72182226,-0.057959143,-0.43433183,-0.5099614,0.19761142,793.36993,801.8315,804.65204,788.1319,786.1172,-0.29510498046875,0.030517578125,0.94647216796875,1.667327880859375,-3.170166015625,-0.07476806640625,1.0,1.0,1.0,1.0,1.0,80.0,event
15:19:11.076,0.7670229,0.5086525,0.31208828,0.7222622,0.40940773,0.17424008,-0.12754685,0.31095216,0.5074031,0.3391433,0.1506872,0.54354787,0.4112977,-0.051807307,-0.17586577,0.72182226,-0.057959143,-0.43433183,-0.5099614,0.19761142,802.23444,807.8755,805.05493,792.96704,776.8498,-0.29510498046875,0.030517578125,0.94647216796875,1.667327880859375,-3.170166015625,-0.07476806640625,1.0,1.0,1.0,1.0,1.0,80.0,event
15:19:11.076,0.7670229,0.5086525,0.31208828,0.7222622,0.40940773,0.17424008,-0.12754685,0.31095216,0.5074031,0.3391433,0.1506872,0.54354787,0.4112977,-0.051807307,-0.17586577,0.72182226,-0.057959143,-0.43433183,-0.5099614,0.19761142,794.9817,810.293,803.44324,792.96704,832.0513,-0.29510498046875,0.030517578125,0.94647216796875,1.667327880859375,-3.170166015625,-0.07476806640625,1.0,1.0,1.0,1.0,1.0,80.0,event
15:19:11.077,0.7670229,0.5086525,0.31208828,0.7222622,0.40940773,0.17424008,-0.12754685,0.31095216,0.5074031,0.3391433,0.1506872,0.54354787,0.4112977,-0.051807307,-0.17586577,0.72182226,-0.057959143,-0.43433183,-0.5099614,0.19761142,786.1172,807.47253,798.60803,781.685,882.01465,-0.29510498046875,0.030517578125,0.94647216796875,1.667327880859375,-3.170166015625,-0.07476806640625,1.0,1.0,1.0,1.0,1.0,80.0,event
15:19:11.080,0.7670229,0.5086525,0.31208828,0.7222622,0.40940773,0.17424008,-0.12754685,0.31095216,0.5074031,0.3391433,0.1506872,0.54354787,0.4112977,-0.051807307,-0.17586577,0.72182226,-0.057959143,-0.43433183,-0.5099614,0.19761142,790.14655,809.4872,797.8022,786.1172,909.41394,-0.29510498046875,0.030517578125,0.94647216796875,1.667327880859375,-3.170166015625,-0.07476806640625,1.0,1.0,1.0,1.0,1.0,80.0,event
15:19:11.081,0.7670229,0.5086525,0.31208828,0.7222622,0.40940773,0.17424008,-0.12754685,0.31095216,0.5074031,0.3391433,0.1506872,0.54354787,0.4112977,-0.051807307,-0.17586577,0.72182226,-0.057959143,-0.43433183,-0.5099614,0.19761142,789.34064,811.50183,806.26373,797.3993,821.1722,-0.29510498046875,0.030517578125,0.94647216796875,1.667327880859375,-3.170166015625,-0.07476806640625,1.0,1.0,1.0,1.0,1.0,80.0,event
15:19:11.081,0.7670229,0.5086525,0.31208828,0.7222622,0.40940773,0.17424008,-0.12754685,0.31095216,0.5074031,0.3391433,0.1506872,0.54354787,0.4112977,-0.051807307,-0.17586577,0.72182226,-0.057959143,-0.43433183,-0.5099614,0.19761142,782.8938,807.47253,803.44324,794.17584,690.2198,-0.29510498046875,0.030517578125,0.94647216796875,1.667327880859375,-3.170166015625,-0.07476806640625,1.0,1.0,1.0,1.0,1.0,80.0,event
15:19:11.082,0.7670229,0.5086525,0.31208828,0.7222622,0.40940773,0.17424008,-0.12754685,0.31095216,0.5074031,0.3391433,0.1506872,0.54354787,0.4112977,-0.051807307,-0.17586577,0.72182226,-0.057959143,-0.43433183,-0.5099614,0.19761142,787.326,803.8461,796.1905,790.9524,814.7253,-0.29510498046875,0.030517578125,0.94647216796875,1.667327880859375,-3.170166015625,-0.07476806640625,1.0,1.0,1.0,1.0,1.0,80.0,event
15:19:11.083,0.75400203,0.49918452,0.25081506,0.7033441,0.42895797,0.14708854,-0.14326324,0.34694284,0.51950926,0.3468212,0.1510935,0.54354787,0.39739886,-0.059254687,-0.1874227,0.7107274,-0.03154966,-0.42751428,-0.5085271,0.18857755,784.5055,805.4579,799.011,784.90845,1061.3187,-0.29510498046875,0.030517578125,0.94647216796875,1.667327880859375,-3.170166015625,-0.07476806640625,1.0,1.0,1.0,1.0,1.0,80.0,event
15:19:11.115,0.75400203,0.49918452,0.25081506,0.7033441,0.42895797,0.14708854,-0.14326324,0.34694284,0.51950926,0.3468212,0.1510935,0.54354787,0.39739886,-0.059254687,-0.1874227,0.7107274,-0.03154966,-0.42751428,-0.5085271,0.18857755,781.685,809.4872,796.99634,775.2381,811.0989,-0.2908935546875,0.03314208984375,0.9410400390625,2.37762451171875,-2.6318359375,0.85235595703125,1.0,1.0,1.0,1.0,1.0,80.0,event
15:19:11.116,0.75400203,0.49918452,0.25081506,0.7033441,0.42895797,0.14708854,-0.14326324,0.34694284,0.51950926,0.3468212,0.1510935,0.54354787,0.39739886,-0.059254687,-0.1874227,0.7107274,-0.03154966,-0.42751428,-0.5085271,0.18857755,784.90845,807.0696,792.1612,770.80585,662.4176,-0.2908935546875,0.03314208984375,0.9410400390625,2.37762451171875,-2.6318359375,0.85235595703125,1.0,1.0,1.0,1.0,1.0,80.0,event
15:19:11.117,0.75400203,0.49918452,0.25081506,0.7033441,0.42895797,0.14708854,-0.14326324,0.34694284,0.51950926,0.3468212,0.1510935,0.54354787,0.39739886,-0.059254687,-0.1874227,0.7107274,-0.03154966,-0.42751428,-0.5085271,0.18857755,778.0586,805.8608,794.57874,770.40295,735.7509,-0.2908935546875,0.03314208984375,0.9410400390625,2.37762451171875,-2.6318359375,0.85235595703125,1.0,1.0,1.0,1.0,1.0,80.0,event
15:19:11.118,0.75400203,0.49918452,0.25081506,0.7033441,0.42895797,0.14708854,-0.14326324,0.34694284,0.51950926,0.3468212,0.1510935,0.54354787,0.39739886,-0.059254687,-0.1874227,0.7107274,-0.03154966,-0.42751428,-0.5085271,0.18857755,792.96704,806.6667,798.60803,785.31134,687.3993,-0.2908935546875,0.03314208984375,0.9410400390625,2.37762451171875,-2.6318359375,0.85235595703125,1.0,1.0,1.0,1.0,1.0,80.0,event
15:19:11.118,0.75400203,0.49918452,0.25081506,0.7033441,0.42895797,0.14708854,-0.14326324,0.34694284,0.51950926,0.3468212,0.1510935,0.54354787,0.39739886,-0.059254687,-0.1874227,0.7107274,-0.03154966,-0.42751428,-0.5085271,0.18857755,781.685,807.0696,796.99634,776.8498,719.6337,-0.2908935546875,0.03314208984375,0.9410400390625,2.37762451171875,-2.6318359375,0.85235595703125,1.0,1.0,1.0,1.0,1.0,80.0,event
15:19:11.119,0.75400203,0.49918452,0.25081506,0.7033441,0.42895797,0.14708854,-0.14326324,0.34694284,0.51950926,0.3468212,0.1510935,0.54354787,0.39739886,-0.059254687,-0.1874227,0.7107274,-0.03154966,-0.42751428,-0.5085271,0.18857755,792.1612,804.2491,797.8022,794.57874,788.1319,-0.2908935546875,0.03314208984375,0.9410400390625,2.37762451171875,-2.6318359375,0.85235595703125,1.0,1.0,1.0,1.0,1.0,80.0,event
15:19:11.119,0.75400203,0.49918452,0.25081506,0.7033441,0.42895797,0.14708854,-0.14326324,0.34694284,0.51950926,0.3468212,0.1510935,0.54354787,0.39739886,-0.059254687,-0.1874227,0.7107274,-0.03154966,-0.42751428,-0.5085271,0.18857755,797.3993,804.2491,796.5934,797.8022,1002.0879,-0.2908935546875,0.03314208984375,0.9410400390625,2.37762451171875,-2.6318359375,0.85235595703125,1.0,1.0,1.0,1.0,1.0,80.0,event
15:19:11.120,0.75400203,0.49918452,0.25081506,0.7033441,0.42895797,0.14708854,-0.14326324,0.34694284,0.51950926,0.3468212,0.1510935,0.54354787,0.39739886,-0.059254687,-0.1874227,0.7107274,-0.03154966,-0.42751428,-0.5085271,0.18857755,801.4286,807.8755,802.23444,787.326,905.78754,-0.2908935546875,0.03314208984375,0.9410400390625,2.37762451171875,-2.6318359375,0.85235595703125,1.0,1.0,1.0,1.0,1.0,80.0,event
15:19:11.121,0.75400203,0.49918452,0.25081506,0.7033441,0.42895797,0.14708854,-0.14326324,0.34694284,0.51950926,0.3468212,0.1510935,0.54354787,0.39739886,-0.059254687,-0.1874227,0.7107274,-0.03154966,-0.42751428,-0.5085271,0.18857755,800.6227,808.68134,802.6374,783.69965,670.07324,-0.2908935546875,0.03314208984375,0.9410400390625,2.37762451171875,-2.6318359375,0.85235595703125,1.0,1.0,1.0,1.0,1.0,80.0,event
15:19:11.121,0.75400203,0.49918452,0.25081506,0.7033441,0.42895797,0.14708854,-0.14326324,0.34694284,0.51950926,0.3468212,0.1510935,0.54354787,0.39739886,-0.059254687,-0.1874227,0.7107274,-0.03154966,-0.42751428,-0.5085271,0.18857755,796.1905,809.4872,794.57874,789.34064,679.7436,-0.2908935546875,0.03314208984375,0.9410400390625,2.37762451171875,-2.6318359375,0.85235595703125,1.0,1.0,1.0,1.0,1.0,80.0,event
15:19:11.122,0.75400203,0.49918452,0.25081506,0.7033441,0.42895797,0.14708854,-0.14326324,0.34694284,0.51950926,0.3468212,0.1510935,0.54354787,0.39739886,-0.059254687,-0.1874227,0.7107274,-0.03154966,-0.42751428,-0.5085271,0.18857755,792.5641,808.68134,797.3993,788.5348,711.978,-0.2908935546875,0.03314208984375,0.9410400390625,2.37762451171875,-2.6318359375,0.85235595703125,1.0,1.0,1.0,1.0,1.0,80.0,event
15:19:11.122,0.75400203,0.49918452,0.25081506,0.7033441,0.42895797,0.14708854,-0.14326324,0.34694284,0.51950926,0.3468212,0.1510935,0.54354787,0.39739886,-0.059254687,-0.1874227,0.7107274,-0.03154966,-0.42751428,-0.5085271,0.18857755,796.99634,806.6667,803.8461,786.1172,670.4762,-0.2908935546875,0.03314208984375,0.9410400390625,2.37762451171875,-2.6318359375,0.85235595703125,1.0,1.0,1.0,1.0,1.0,80.0,event
