TimeStamp,Delta_TP9,Delta_AF7,Delta_AF8,Delta_TP10,Theta_TP9,Theta_AF7,Theta_AF8,Theta_TP10,Alpha_TP9,Alpha_AF7,Alpha_AF8,Alpha_TP10,Beta_TP9,Beta_AF7,Beta_AF8,Beta_TP10,Gamma_TP9,Gamma_AF7,Gamma_AF8,Gamma_TP10,RAW_TP9,RAW_AF7,RAW_AF8,RAW_TP10,AUX_RIGHT,Accelerometer_X,Accelerometer_Y,Accelerometer_Z,Gyro_X,Gyro_Y,Gyro_Z,HeadBandOn,HSI_TP9,HSI_AF7,HSI_AF8,HSI_TP10,Battery,Elements
15:36:13.433,1.9005222,0.5494092,0.16877481,0.57683957,1.3582662,-0.1550005,0.105729185,0.69597846,1.041275,-0.03504223,-0.09757685,0.56917286,0.87950575,-0.009343619,0.03896129,0.7605818,0.29827246,-0.07507124,-0.2620494,0.14972204,803.8461,818.3516,804.2491,803.8461,809.0842,-0.2861328125,0.027099609375,0.9464111328125,1.622467041015625,-3.78326416015625,0.1495361328125,1.0,2.0,1.0,1.0,2.0,80.0,event
15:36:13.434,1.9005222,0.5494092,0.16877481,0.57683957,1.3582662,-0.1550005,0.105729185,0.69597846,1.041275,-0.03504223,-0.09757685,0.56917286,0.87950575,-0.009343619,0.03896129,0.7605818,0.29827246,-0.07507124,-0.2620494,0.14972204,804.2491,812.71063,811.50183,807.0696,713.9927,-0.2861328125,0.027099609375,0.9464111328125,1.622467041015625,-3.78326416015625,0.1495361328125,1.0,2.0,1.0,1.0,2.0,80.0,event
15:36:13.434,1.9005222,0.5494092,0.16877481,0.57683957,1.3582662,-0.1550005,0.105729185,0.69597846,1.041275,-0.03504223,-0.09757685,0.56917286,0.87950575,-0.009343619,0.03896129,0.7605818,0.29827246,-0.07507124,-0.2620494,0.14972204,801.8315,812.71063,813.1135,803.8461,762.74725,-0.2861328125,0.027099609375,0.9464111328125,1.622467041015625,-3.78326416015625,0.1495361328125,1.0,2.0,1.0,1.0,2.0,80.0,event
15:36:13.435,1.9005222,0.5494092,0.16877481,0.57683957,1.3582662,-0.1550005,0.105729185,0.69597846,1.041275,-0.03504223,-0.09757685,0.56917286,0.87950575,-0.009343619,0.03896129,0.7605818,0.29827246,-0.07507124,-0.2620494,0.14972204,791.75824,812.3077,801.02563,794.17584,777.25275,-0.2861328125,0.027099609375,0.9464111328125,1.622467041015625,-3.78326416015625,0.1495361328125,1.0,2.0,1.0,1.0,2.0,80.0,event
15:36:13.436,1.9005222,0.5494092,0.16877481,0.57683957,1.3582662,-0.1550005,0.105729185,0.69597846,1.041275,-0.03504223,-0.09757685,0.56917286,0.87950575,-0.009343619,0.03896129,0.7605818,0.29827246,-0.07507124,-0.2620494,0.14972204,797.3993,811.9048,803.0403,797.3993,697.8755,-0.2861328125,0.027099609375,0.9464111328125,1.622467041015625,-3.78326416015625,0.1495361328125,1.0,2.0,1.0,1.0,2.0,80.0,event
15:36:13.436,1.9005222,0.5494092,0.16877481,0.57683957,1.3582662,-0.1550005,0.105729185,0.69597846,1.041275,-0.03504223,-0.09757685,0.56917286,0.87950575,-0.009343619,0.03896129,0.7605818,0.29827246,-0.07507124,-0.2620494,0.14972204,799.011,810.696,807.8755,800.2198,753.8828,-0.2861328125,0.027099609375,0.9464111328125,1.622467041015625,-3.78326416015625,0.1495361328125,1.0,2.0,1.0,1.0,2.0,80.0,event
15:36:13.437,1.9005222,0.5494092,0.16877481,0.57683957,1.3582662,-0.1550005,0.105729185,0.69597846,1.041275,-0.03504223,-0.09757685,0.56917286,0.87950575,-0.009343619,0.03896129,0.7605818,0.29827246,-0.07507124,-0.2620494,0.14972204,794.17584,813.91943,811.9048,804.65204,858.24176,-0.2861328125,0.027099609375,0.9464111328125,1.622467041015625,-3.78326416015625,0.1495361328125,1.0,2.0,1.0,1.0,2.0,80.0,event
15:36:13.438,1.9005222,0.5494092,0.16877481,0.57683957,1.3582662,-0.1550005,0.105729185,0.69597846,1.041275,-0.03504223,-0.09757685,0.56917286,0.87950575,-0.009343619,0.03896129,0.7605818,0.29827246,-0.07507124,-0.2620494,0.14972204,794.57874,813.91943,813.5165,819.15753,1049.6337,-0.2861328125,0.027099609375,0.9464111328125,1.622467041015625,-3.78326416015625,0.1495361328125,1.0,2.0,1.0,1.0,2.0,80.0,event
15:36:13.438,1.9005222,0.5494092,0.16877481,0.57683957,1.3582662,-0.1550005,0.105729185,0.69597846,1.041275,-0.03504223,-0.09757685,0.56917286,0.87950575,-0.009343619,0.03896129,0.7605818,0.29827246,-0.07507124,-0.2620494,0.14972204,799.41394,809.89014,810.293,809.0842,944.87177,-0.2861328125,0.027099609375,0.9464111328125,1.622467041015625,-3.78326416015625,0.1495361328125,1.0,2.0,1.0,1.0,2.0,80.0,event
15:36:13.439,1.9005222,0.5494092,0.16877481,0.57683957,1.3582662,-0.1550005,0.105729185,0.69597846,1.041275,-0.03504223,-0.09757685,0.56917286,0.87950575,-0.009343619,0.03896129,0.7605818,0.29827246,-0.07507124,-0.2620494,0.14972204,801.02563,814.7253,803.44324,789.7436,716.8132,-0.2861328125,0.027099609375,0.9464111328125,1.622467041015625,-3.78326416015625,0.1495361328125,1.0,2.0,1.0,1.0,2.0,80.0,event
15:36:13.440,1.9005222,0.5494092,0.16877481,0.57683957,1.3582662,-0.1550005,0.105729185,0.69597846,1.041275,-0.03504223,-0.09757685,0.56917286,0.87950575,-0.009343619,0.03896129,0.7605818,0.29827246,-0.07507124,-0.2620494,0.14972204,804.65204,815.9341,803.0403,792.96704,796.99634,-0.2861328125,0.027099609375,0.9464111328125,1.622467041015625,-3.78326416015625,0.1495361328125,1.0,2.0,1.0,1.0,2.0,80.0,event
15:36:13.440,1.9005222,0.5494092,0.16877481,0.57683957,1.3582662,-0.1550005,0.105729185,0.69597846,1.041275,-0.03504223,-0.09757685,0.56917286,0.87950575,-0.009343619,0.03896129,0.7605818,0.29827246,-0.07507124,-0.2620494,0.14972204,806.26373,815.5311,811.9048,804.2491,1046.4103,-0.2861328125,0.027099609375,0.9464111328125,1.622467041015625,-3.78326416015625,0.1495361328125,1.0,2.0,1.0,1.0,2.0,80.0,event
15:36:13.472,1.9005222,0.5494092,0.16877481,0.57683957,1.3582662,-0.1550005,0.105729185,0.69597846,1.041275,-0.03504223,-0.09757685,0.56917286,0.87950575,-0.009343619,0.03896129,0.7605818,0.29827246,-0.07507124,-0.2620494,0.14972204,794.57874,821.1722,818.3516,805.8608,863.47986,-0.2816162109375,0.0262451171875,0.9483642578125,1.9140625,-3.78326416015625,0.179443359375,1.0,2.0,1.0,1.0,2.0,80.0,event
15:36:13.473,1.9005222,0.5494092,0.16877481,0.57683957,1.3582662,-0.1550005,0.105729185,0.69597846,1.041275,-0.03504223,-0.09757685,0.56917286,0.87950575,-0.009343619,0.03896129,0.7605818,0.29827246,-0.07507124,-0.2620494,0.14972204,790.54944,813.1135,813.91943,794.9817,640.65936,-0.2816162109375,0.0262451171875,0.9483642578125,1.9140625,-3.78326416015625,0.179443359375,1.0,2.0,1.0,1.0,2.0,80.0,event
15:36:13.474,1.9005222,0.5494092,0.16877481,0.57683957,1.3582662,-0.1550005,0.105729185,0.69597846,1.041275,-0.03504223,-0.09757685,0.56917286,0.87950575,-0.009343619,0.03896129,0.7605818,0.29827246,-0.07507124,-0.2620494,0.14972204,790.14655,808.2784,810.293,783.2967,718.8278,-0.2816162109375,0.0262451171875,0.9483642578125,1.9140625,-3.78326416015625,0.179443359375,1.0,2.0,1.0,1.0,2.0,80.0,event
15:36:13.475,1.9005222,0.5494092,0.16877481,0.57683957,1.3582662,-0.1550005,0.105729185,0.69597846,1.041275,-0.03504223,-0.09757685,0.56917286,0.87950575,-0.009343619,0.03896129,0.7605818,0.29827246,-0.07507124,-0.2620494,0.14972204,786.9231,809.0842,811.50183,782.0879,717.2161,-0.2816162109375,0.0262451171875,0.9483642578125,1.9140625,-3.78326416015625,0.179443359375,1.0,2.0,1.0,1.0,2.0,80.0,event
15:36:13.476,1.9005222,0.5494092,0.16877481,0.57683957,1.3582662,-0.1550005,0.105729185,0.69597846,1.041275,-0.03504223,-0.09757685,0.56917286,0.87950575,-0.009343619,0.03896129,0.7605818,0.29827246,-0.07507124,-0.2620494,0.14972204,800.2198,809.0842,811.9048,800.2198,709.5604,-0.2816162109375,0.0262451171875,0.9483642578125,1.9140625,-3.78326416015625,0.179443359375,1.0,2.0,1.0,1.0,2.0,80.0,event
15:36:13.477,1.9005222,0.5494092,0.16877481,0.57683957,1.3582662,-0.1550005,0.105729185,0.69597846,1.041275,-0.03504223,-0.09757685,0.56917286,0.87950575,-0.009343619,0.03896129,0.7605818,0.29827246,-0.07507124,-0.2620494,0.14972204,799.81683,810.696,810.696,805.05493,848.97437,-0.2816162109375,0.0262451171875,0.9483642578125,1.9140625,-3.78326416015625,0.179443359375,1.0,2.0,1.0,1.0,2.0,80.0,event
15:36:13.478,1.9005222,0.5494092,0.16877481,0.57683957,1.3582662,-0.1550005,0.105729185,0.69597846,1.041275,-0.03504223,-0.09757685,0.56917286,0.87950575,-0.009343619,0.03896129,0.7605818,0.29827246,-0.07507124,-0.2620494,0.14972204,788.93774,811.0989,808.68134,804.65204,1041.1721,-0.2816162109375,0.0262451171875,0.9483642578125,1.9140625,-3.78326416015625,0.179443359375,1.0,2.0,1.0,1.0,2.0,80.0,event
15:36:13.479,1.9005222,0.5494092,0.16877481,0.57683957,1.3582662,-0.1550005,0.105729185,0.69597846,1.041275,-0.03504223,-0.09757685,0.56917286,0.87950575,-0.009343619,0.03896129,0.7605818,0.29827246,-0.07507124,-0.2620494,0.14972204,790.14655,814.3223,810.696,809.0842,1009.34064,-0.2816162109375,0.0262451171875,0.9483642578125,1.9140625,-3.78326416015625,0.179443359375,1.0,2.0,1.0,1.0,2.0,80.0,event
15:36:13.480,1.9005222,0.5500424,0.2877728,0.57683957,1.3582662,-0.19811988,0.16560185,0.69597846,1.041275,-0.007849325,-0.120843396,0.56917286,0.87950575,-1.5745885e-05,0.03270236,0.7605818,0.29827246,-0.03663179,-0.2656083,0.14972204,808.68134,804.65204,811.9048,805.8608,746.63007,-0.2816162109375,0.0262451171875,0.9483642578125,1.9140625,-3.78326416015625,0.179443359375,1.0,2.0,1.0,1.0,2.0,80.0,event
15:36:13.480,1.9005222,0.5494092,0.16877481,0.57683957,1.3582662,-0.1550005,0.105729185,0.69597846,1.041275,-0.03504223,-0.09757685,0.56917286,0.87950575,-0.009343619,0.03896129,0.7605818,0.29827246,-0.07507124,-0.2620494,0.14972204,800.2198,808.68134,815.12823,803.0403,711.5751,-0.2816162109375,0.0262451171875,0.9483642578125,1.9140625,-3.78326416015625,0.179443359375,1.0,2.0,1.0,1.0,2.0,80.0,event
15:36:13.485,1.9005222,0.5500424,0.2877728,0.57683957,1.3582662,-0.19811988,0.16560185,0.69597846,1.041275,-0.007849325,-0.120843396,0.56917286,0.87950575,-1.5745885e-05,0.03270236,0.7605818,0.29827246,-0.03663179,-0.2656083,0.14972204,812.71063,805.8608,810.293,819.5604,931.5751,-0.2816162109375,0.0262451171875,0.9483642578125,1.9140625,-3.78326416015625,0.179443359375,1.0,2.0,1.0,1.0,2.0,80.0,event
15:36:13.486,1.9005222,0.5500424,0.2877728,0.57683957,1.3582662,-0.19811988,0.16560185,0.69597846,1.041275,-0.007849325,-0.120843396,0.56917286,0.87950575,-1.5745885e-05,0.03270236,0.7605818,0.29827246,-0.03663179,-0.2656083,0.14972204,805.05493,807.47253,812.71063,804.65204,805.4579,-0.2816162109375,0.0262451171875,0.9483642578125,1.9140625,-3.78326416015625,0.179443359375,1.0,2.0,1.0,1.0,2.0,80.0,event
15:36:13.512,1.9005222,0.5500424,0.2877728,0.57683957,1.3582662,-0.19811988,0.16560185,0.69597846,1.041275,-0.007849325,-0.120843396,0.56917286,0.87950575,-1.5745885e-05,0.03270236,0.7605818,0.29827246,-0.03663179,-0.2656083,0.14972204,801.4286,812.3077,815.9341,805.8608,674.10254,-0.28204345703125,0.0296630859375,0.95172119140625,1.712188720703125,-3.327178955078125,0.58319091796875,1.0,2.0,1.0,1.0,2.0,80.0,event
15:36:13.513,1.9005222,0.5500424,0.2877728,0.57683957,1.3582662,-0.19811988,0.16560185,0.69597846,1.041275,-0.007849325,-0.120843396,0.56917286,0.87950575,-1.5745885e-05,0.03270236,0.7605818,0.29827246,-0.03663179,-0.2656083,0.14972204,813.91943,813.5165,812.71063,808.68134,669.67035,-0.28204345703125,0.0296630859375,0.95172119140625,1.712188720703125,-3.327178955078125,0.58319091796875,1.0,2.0,1.0,1.0,2.0,80.0,event
15:36:13.514,1.9005222,0.5500424,0.2877728,0.57683957,1.3582662,-0.19811988,0.16560185,0.69597846,1.041275,-0.007849325,-0.120843396,0.56917286,0.87950575,-1.5745885e-05,0.03270236,0.7605818,0.29827246,-0.03663179,-0.2656083,0.14972204,802.6374,809.89014,804.2491,797.3993,751.06226,-0.28204345703125,0.0296630859375,0.95172119140625,1.712188720703125,-3.327178955078125,0.58319091796875,1.0,2.0,1.0,1.0,2.0,80.0,event
15:36:13.514,1.9005222,0.5500424,0.2877728,0.57683957,1.3582662,-0.19811988,0.16560185,0.69597846,1.041275,-0.007849325,-0.120843396,0.56917286,0.87950575,-1.5745885e-05,0.03270236,0.7605818,0.29827246,-0.03663179,-0.2656083,0.14972204,788.5348,806.6667,808.68134,795.78754,753.0769,-0.28204345703125,0.0296630859375,0.95172119140625,1.712188720703125,-3.327178955078125,0.58319091796875,1.0,2.0,1.0,1.0,2.0,80.0,event
15:36:13.515,1.9005222,0.5500424,0.2877728,0.57683957,1.3582662,-0.19811988,0.16560185,0.69597846,1.041275,-0.007849325,-0.120843396,0.56917286,0.87950575,-1.5745885e-05,0.03270236,0.7605818,0.29827246,-0.03663179,-0.2656083,0.14972204,799.41394,813.1135,815.12823,795.38464,684.17584,-0.28204345703125,0.0296630859375,0.95172119140625,1.712188720703125,-3.327178955078125,0.58319091796875,1.0,2.0,1.0,1.0,2.0,80.0,event
15:36:13.516,1.9005222,0.5500424,0.2877728,0.57683957,1.3582662,-0.19811988,0.16560185,0.69597846,1.041275,-0.007849325,-0.120843396,0.56917286,0.87950575,-1.5745885e-05,0.03270236,0.7605818,0.29827246,-0.03663179,-0.2656083,0.14972204,804.2491,814.3223,815.5311,791.3553,822.381,-0.28204345703125,0.0296630859375,0.95172119140625,1.712188720703125,-3.327178955078125,0.58319091796875,1.0,2.0,1.0,1.0,2.0,80.0,event
15:36:13.516,1.9005222,0.5500424,0.2877728,0.57683957,1.3582662,-0.19811988,0.16560185,0.69597846,1.041275,-0.007849325,-0.120843396,0.56917286,0.87950575,-1.5745885e-05,0.03270236,0.7605818,0.29827246,-0.03663179,-0.2656083,0.14972204,809.0842,811.0989,810.696,803.0403,1053.2601,-0.28204345703125,0.0296630859375,0.95172119140625,1.712188720703125,-3.327178955078125,0.58319091796875,1.0,2.0,1.0,1.0,2.0,80.0,event
15:36:13.517,1.9005222,0.5500424,0.2877728,0.57683957,1.3582662,-0.19811988,0.16560185,0.69597846,1.041275,-0.007849325,-0.120843396,0.56917286,0.87950575,-1.5745885e-05,0.03270236,0.7605818,0.29827246,-0.03663179,-0.2656083,0.14972204,803.44324,815.5311,810.293,806.26373,689.41394,-0.28204345703125,0.0296630859375,0.95172119140625,1.712188720703125,-3.327178955078125,0.58319091796875,1.0,2.0,1.0,1.0,2.0,80.0,event
15:36:13.517,1.9005222,0.5500424,0.2877728,0.57683957,1.3582662,-0.19811988,0.16560185,0.69597846,1.041275,-0.007849325,-0.120843396,0.56917286,0.87950575,-1.5745885e-05,0.03270236,0.7605818,0.29827246,-0.03663179,-0.2656083,0.14972204,809.0842,812.3077,805.4579,813.91943,865.09155,-0.28204345703125,0.0296630859375,0.95172119140625,1.712188720703125,-3.327178955078125,0.58319091796875,1.0,2.0,1.0,1.0,2.0,80.0,event
15:36:13.518,1.9005222,0.5500424,0.2877728,0.57683957,1.3582662,-0.19811988,0.16560185,0.69597846,1.041275,-0.007849325,-0.120843396,0.56917286,0.87950575,-1.5745885e-05,0.03270236,0.7605818,0.29827246,-0.03663179,-0.2656083,0.14972204,802.6374,816.7399,808.2784,797.3993,778.86444,-0.28204345703125,0.0296630859375,0.95172119140625,1.712188720703125,-3.327178955078125,0.58319091796875,1.0,2.0,1.0,1.0,2.0,80.0,event
15:36:13.518,1.9005222,0.5500424,0.2877728,0.57683957,1.3582662,-0.19811988,0.16560185,0.69597846,1.041275,-0.007849325,-0.120843396,0.56917286,0.87950575,-1.5745885e-05,0.03270236,0.7605818,0.29827246,-0.03663179,-0.2656083,0.14972204,805.4579,813.5165,806.26373,792.1612,794.57874,-0.28204345703125,0.0296630859375,0.95172119140625,1.712188720703125,-3.327178955078125,0.58319091796875,1.0,2.0,1.0,1.0,2.0,80.0,event
15:36:13.519,1.9005222,0.5500424,0.2877728,0.57683957,1.3582662,-0.19811988,0.16560185,0.69597846,1.041275,-0.007849325,-0.120843396,0.56917286,0.87950575,-1.5745885e-05,0.03270236,0.7605818,0.29827246,-0.03663179,-0.2656083,0.14972204,809.4872,813.91943,811.9048,796.99634,752.674,-0.28204345703125,0.0296630859375,0.95172119140625,1.712188720703125,-3.327178955078125,0.58319091796875,1.0,2.0,1.0,1.0,2.0,80.0,event
15:36:13.603,1.9005222,0.5500424,0.2877728,0.57683957,1.3582662,-0.19811988,0.16560185,0.69597846,1.041275,-0.007849325,-0.120843396,0.56917286,0.87950575,-1.5745885e-05,0.03270236,0.7605818,0.29827246,-0.03663179,-0.2656083,0.14972204,800.2198,816.7399,814.3223,806.26373,731.31866,-0.28802490234375,0.02685546875,0.94580078125,1.637420654296875,-2.3626708984375,0.022430419921875,1.0,2.0,1.0,1.0,2.0,80.0,event
15:36:13.604,1.9005222,0.5500424,0.2877728,0.57683957,1.3582662,-0.19811988,0.16560185,0.69597846,1.041275,-0.007849325,-0.120843396,0.56917286,0.87950575,-1.5745885e-05,0.03270236,0.7605818,0.29827246,-0.03663179,-0.2656083,0.14972204,784.5055,812.3077,815.5311,793.7729,865.89746,-0.28802490234375,0.02685546875,0.94580078125,1.637420654296875,-2.3626708984375,0.022430419921875,1.0,2.0,1.0,1.0,2.0,80.0,event
15:36:13.605,1.9005222,0.5500424,0.2877728,0.57683957,1.3582662,-0.19811988,0.16560185,0.69597846,1.041275,-0.007849325,-0.120843396,0.56917286,0.87950575,-1.5745885e-05,0.03270236,0.7605818,0.29827246,-0.03663179,-0.2656083,0.14972204,797.3993,812.3077,817.5458,786.9231,971.06226,-0.28802490234375,0.02685546875,0.94580078125,1.637420654296875,-2.3626708984375,0.022430419921875,1.0,2.0,1.0,1.0,2.0,80.0,event
15:36:13.605,1.9005222,0.5500424,0.2877728,0.57683957,1.3582662,-0.19811988,0.16560185,0.69597846,1.041275,-0.007849325,-0.120843396,0.56917286,0.87950575,-1.5745885e-05,0.03270236,0.7605818,0.29827246,-0.03663179,-0.2656083,0.14972204,805.8608,810.293,817.5458,790.54944,834.4689,-0.28802490234375,0.02685546875,0.94580078125,1.637420654296875,-2.3626708984375,0.022430419921875,1.0,2.0,1.0,1.0,2.0,80.0,event
15:36:13.606,1.9005222,0.5500424,0.2877728,0.57683957,1.3582662,-0.19811988,0.16560185,0.69597846,1.041275,-0.007849325,-0.120843396,0.56917286,0.87950575,-1.5745885e-05,0.03270236,0.7605818,0.29827246,-0.03663179,-0.2656083,0.14972204,796.5934,809.0842,811.0989,789.34064,751.8681,-0.28802490234375,0.02685546875,0.94580078125,1.637420654296875,-2.3626708984375,0.022430419921875,1.0,2.0,1.0,1.0,2.0,80.0,event
15:36:13.607,1.9005222,0.5500424,0.2877728,0.57683957,1.3582662,-0.19811988,0.16560185,0.69597846,1.041275,-0.007849325,-0.120843396,0.56917286,0.87950575,-1.5745885e-05,0.03270236,0.7605818,0.29827246,-0.03663179,-0.2656083,0.14972204,780.87915,803.44324,811.50183,785.7143,938.022,-0.28802490234375,0.02685546875,0.94580078125,1.637420654296875,-2.3626708984375,0.022430419921875,1.0,2.0,1.0,1.0,2.0,80.0,event
15:36:13.607,1.9005222,0.5500424,0.2877728,0.57683957,1.3582662,-0.19811988,0.16560185,0.69597846,1.041275,-0.007849325,-0.120843396,0.56917286,0.87950575,-1.5745885e-05,0.03270236,0.7605818,0.29827246,-0.03663179,-0.2656083,0.14972204,782.49084,807.8755,810.293,774.0293,884.83514,-0.28802490234375,0.02685546875,0.94580078125,1.637420654296875,-2.3626708984375,0.022430419921875,1.0,2.0,1.0,1.0,2.0,80.0,event
15:36:13.608,1.9005222,0.5500424,0.2877728,0.57683957,1.3582662,-0.19811988,0.16560185,0.69597846,1.041275,-0.007849325,-0.120843396,0.56917286,0.87950575,-1.5745885e-05,0.03270236,0.7605818,0.29827246,-0.03663179,-0.2656083,0.14972204,788.5348,804.65204,817.1429,796.5934,709.15753,-0.28802490234375,0.02685546875,0.94580078125,1.637420654296875,-2.3626708984375,0.022430419921875,1.0,2.0,1.0,1.0,2.0,80.0,event
15:36:13.608,1.9005222,0.5500424,0.2877728,0.57683957,1.3582662,-0.19811988,0.16560185,0.69597846,1.041275,-0.007849325,-0.120843396,0.56917286,0.87950575,-1.5745885e-05,0.03270236,0.7605818,0.29827246,-0.03663179,-0.2656083,0.14972204,792.1612,801.8315,816.7399,807.47253,806.26373,-0.28802490234375,0.02685546875,0.94580078125,1.637420654296875,-2.3626708984375,0.022430419921875,1.0,2.0,1.0,1.0,2.0,80.0,event
15:36:13.609,1.9005222,0.5500424,0.2877728,0.57683957,1.3582662,-0.19811988,0.16560185,0.69597846,1.041275,-0.007849325,-0.120843396,0.56917286,0.87950575,-1.5745885e-05,0.03270236,0.7605818,0.29827246,-0.03663179,-0.2656083,0.14972204,786.9231,807.0696,808.68134,792.5641,865.09155,-0.28802490234375,0.02685546875,0.94580078125,1.637420654296875,-2.3626708984375,0.022430419921875,1.0,2.0,1.0,1.0,2.0,80.0,event
15:36:13.610,1.9005222,0.5500424,0.2877728,0.57683957,1.3582662,-0.19811988,0.16560185,0.69597846,1.041275,-0.007849325,-0.120843396,0.56917286,0.87950575,-1.5745885e-05,0.03270236,0.7605818,0.29827246,-0.03663179,-0.2656083,0.14972204,790.54944,807.47253,809.89014,792.1612,937.619,-0.28802490234375,0.02685546875,0.94580078125,1.637420654296875,-2.3626708984375,0.022430419921875,1.0,2.0,1.0,1.0,2.0,80.0,event
15:36:13.610,1.9005222,0.5546367,0.37233347,0.57683957,1.3582662,-0.2186606,0.2001973,0.69597846,1.041275,0.017572537,-0.11625521,0.56917286,0.87950575,0.01194815,0.031090887,0.7605818,0.29827246,-0.0016166848,-0.26280612,0.14972204,796.5934,803.8461,811.9048,791.3553,736.1539,-0.28802490234375,0.02685546875,0.94580078125,1.637420654296875,-2.3626708984375,0.022430419921875,1.0,2.0,1.0,1.0,2.0,80.0,event
15:36:13.614,1.9005222,0.5546367,0.37233347,0.57683957,1.3582662,-0.2186606,0.2001973,0.69597846,1.041275,0.017572537,-0.11625521,0.56917286,0.87950575,0.01194815,0.031090887,0.7605818,0.29827246,-0.0016166848,-0.26280612,0.14972204,796.99634,802.6374,805.8608,805.4579,720.0366,-0.28802490234375,0.02685546875,0.94580078125,1.637420654296875,-2.3626708984375,0.022430419921875,1.0,2.0,1.0,1.0,2.0,80.0,event
15:36:13.615,1.9005222,0.5546367,0.37233347,0.57683957,1.3582662,-0.2186606,0.2001973,0.69597846,1.041275,0.017572537,-0.11625521,0.56917286,0.87950575,0.01194815,0.031090887,0.7605818,0.29827246,-0.0016166848,-0.26280612,0.14972204,801.8315,809.4872,807.0696,803.8461,839.304,-0.28802490234375,0.02685546875,0.94580078125,1.637420654296875,-2.3626708984375,0.022430419921875,1.0,2.0,1.0,1.0,2.0,80.0,event
15:36:13.616,1.9005222,0.5546367,0.37233347,0.57683957,1.3582662,-0.2186606,0.2001973,0.69597846,1.041275,0.017572537,-0.11625521,0.56917286,0.87950575,0.01194815,0.031090887,0.7605818,0.29827246,-0.0016166848,-0.26280612,0.14972204,813.5165,814.7253,815.9341,798.60803,750.65936,-0.28802490234375,0.02685546875,0.94580078125,1.637420654296875,-2.3626708984375,0.022430419921875,1.0,2.0,1.0,1.0,2.0,80.0,event
15:36:13.616,1.9005222,0.5546367,0.37233347,0.57683957,1.3582662,-0.2186606,0.2001973,0.69597846,1.041275,0.017572537,-0.11625521,0.56917286,0.87950575,0.01194815,0.031090887,0.7605818,0.29827246,-0.0016166848,-0.26280612,0.14972204,811.0989,812.3077,813.91943,806.26373,679.34064,-0.28802490234375,0.02685546875,0.94580078125,1.637420654296875,-2.3626708984375,0.022430419921875,1.0,2.0,1.0,1.0,2.0,80.0,event
15:36:13.617,1.9005222,0.5546367,0.37233347,0.57683957,1.3582662,-0.2186606,0.2001973,0.69597846,1.041275,0.017572537,-0.11625521,0.56917286,0.87950575,0.01194815,0.031090887,0.7605818,0.29827246,-0.0016166848,-0.26280612,0.14972204,809.0842,808.68134,813.5165,799.41394,838.9011,-0.28802490234375,0.02685546875,0.94580078125,1.637420654296875,-2.3626708984375,0.022430419921875,1.0,2.0,1.0,1.0,2.0,80.0,event
15:36:13.618,1.9005222,0.5546367,0.37233347,0.57683957,1.3582662,-0.2186606,0.2001973,0.69597846,1.041275,0.017572537,-0.11625521,0.56917286,0.87950575,0.01194815,0.031090887,0.7605818,0.29827246,-0.0016166848,-0.26280612,0.14972204,805.4579,804.65204,813.1135,799.81683,1113.6996,-0.28802490234375,0.02685546875,0.94580078125,1.637420654296875,-2.3626708984375,0.022430419921875,1.0,2.0,1.0,1.0,2.0,80.0,event
15:36:13.618,1.9005222,0.5546367,0.37233347,0.57683957,1.3582662,-0.2186606,0.2001973,0.69597846,1.041275,0.017572537,-0.11625521,0.56917286,0.87950575,0.01194815,0.031090887,0.7605818,0.29827246,-0.0016166848,-0.26280612,0.14972204,801.02563,803.0403,809.0842,807.0696,999.67035,-0.28802490234375,0.02685546875,0.94580078125,1.637420654296875,-2.3626708984375,0.022430419921875,1.0,2.0,1.0,1.0,2.0,80.0,event
15:36:13.619,1.9005222,0.5546367,0.37233347,0.57683957,1.3582662,-0.2186606,0.2001973,0.69597846,1.041275,0.017572537,-0.11625521,0.56917286,0.87950575,0.01194815,0.031090887,0.7605818,0.29827246,-0.0016166848,-0.26280612,0.14972204,801.02563,803.0403,810.696,807.8755,675.7143,-0.28802490234375,0.02685546875,0.94580078125,1.637420654296875,-2.3626708984375,0.022430419921875,1.0,2.0,1.0,1.0,2.0,80.0,event
15:36:13.620,1.9005222,0.5546367,0.37233347,0.57683957,1.3582662,-0.2186606,0.2001973,0.69597846,1.041275,0.017572537,-0.11625521,0.56917286,0.87950575,0.01194815,0.031090887,0.7605818,0.29827246,-0.0016166848,-0.26280612,0.14972204,803.8461,804.2491,814.3223,801.8315,624.94507,-0.28802490234375,0.02685546875,0.94580078125,1.637420654296875,-2.3626708984375,0.022430419921875,1.0,2.0,1.0,1.0,2.0,80.0,event
15:36:13.620,1.9005222,0.5546367,0.37233347,0.57683957,1.3582662,-0.2186606,0.2001973,0.69597846,1.041275,0.017572537,-0.11625521,0.56917286,0.87950575,0.01194815,0.031090887,0.7605818,0.29827246,-0.0016166848,-0.26280612,0.14972204,799.41394,809.4872,809.89014,809.89014,718.022,-0.28802490234375,0.02685546875,0.94580078125,1.637420654296875,-2.3626708984375,0.022430419921875,1.0,2.0,1.0,1.0,2.0,80.0,event
15:36:13.621,1.9005222,0.5546367,0.37233347,0.57683957,1.3582662,-0.2186606,0.2001973,0.69597846,1.041275,0.017572537,-0.11625521,0.56917286,0.87950575,0.01194815,0.031090887,0.7605818,0.29827246,-0.0016166848,-0.26280612,0.14972204,800.6227,809.4872,809.0842,806.6667,749.0476,-0.28802490234375,0.02685546875,0.94580078125,1.637420654296875,-2.3626708984375,0.022430419921875,1.0,2.0,1.0,1.0,2.0,80.0,event
15:36:13.622,1.9005222,0.5546367,0.37233347,0.57683957,1.3582662,-0.2186606,0.2001973,0.69597846,1.041275,0.017572537,-0.11625521,0.56917286,0.87950575,0.01194815,0.031090887,0.7605818,0.29827246,-0.0016166848,-0.26280612,0.14972204,807.47253,806.26373,811.9048,798.20514,696.6667,-0.28802490234375,0.02685546875,0.94580078125,1.637420654296875,-2.3626708984375,0.022430419921875,1.0,2.0,1.0,1.0,2.0,80.0,event
15:36:13.642,1.9005222,0.5546367,0.37233347,0.57683957,1.3582662,-0.2186606,0.2001973,0.69597846,1.041275,0.017572537,-0.11625521,0.56917286,0.87950575,0.01194815,0.031090887,0.7605818,0.29827246,-0.0016166848,-0.26280612,0.14972204,811.9048,811.9048,807.47253,801.02563,699.0842,-0.2933349609375,0.0264892578125,0.94488525390625,2.03369140625,-3.349609375,0.037384033203125,1.0,2.0,1.0,1.0,2.0,80.0,event
15:36:13.643,1.9005222,0.5546367,0.37233347,0.57683957,1.3582662,-0.2186606,0.2001973,0.69597846,1.041275,0.017572537,-0.11625521,0.56917286,0.87950575,0.01194815,0.031090887,0.7605818,0.29827246,-0.0016166848,-0.26280612,0.14972204,805.05493,813.91943,800.6227,791.75824,734.94507,-0.2933349609375,0.0264892578125,0.94488525390625,2.03369140625,-3.349609375,0.037384033203125,1.0,2.0,1.0,1.0,2.0,80.0,event
15:36:13.644,1.9005222,0.5546367,0.37233347,0.57683957,1.3582662,-0.2186606,0.2001973,0.69597846,1.041275,0.017572537,-0.11625521,0.56917286,0.87950575,0.01194815,0.031090887,0.7605818,0.29827246,-0.0016166848,-0.26280612,0.14972204,794.9817,811.0989,806.26373,794.57874,712.7839,-0.2933349609375,0.0264892578125,0.94488525390625,2.03369140625,-3.349609375,0.037384033203125,1.0,2.0,1.0,1.0,2.0,80.0,event
15:36:13.645,1.9005222,0.5546367,0.37233347,0.57683957,1.3582662,-0.2186606,0.2001973,0.69597846,1.041275,0.017572537,-0.11625521,0.56917286,0.87950575,0.01194815,0.031090887,0.7605818,0.29827246,-0.0016166848,-0.26280612,0.14972204,800.6227,814.3223,812.3077,807.8755,700.696,-0.2933349609375,0.0264892578125,0.94488525390625,2.03369140625,-3.349609375,0.037384033203125,1.0,2.0,1.0,1.0,2.0,80.0,event
15:36:13.645,1.9005222,0.5546367,0.37233347,0.57683957,1.3582662,-0.2186606,0.2001973,0.69597846,1.041275,0.017572537,-0.11625521,0.56917286,0.87950575,0.01194815,0.031090887,0.7605818,0.29827246,-0.0016166848,-0.26280612,0.14972204,804.2491,809.4872,809.0842,802.6374,792.1612,-0.2933349609375,0.0264892578125,0.94488525390625,2.03369140625,-3.349609375,0.037384033203125,1.0,2.0,1.0,1.0,2.0,80.0,event
15:36:13.646,1.9005222,0.5546367,0.37233347,0.57683957,1.3582662,-0.2186606,0.2001973,0.69597846,1.041275,0.017572537,-0.11625521,0.56917286,0.87950575,0.01194815,0.031090887,0.7605818,0.29827246,-0.0016166848,-0.26280612,0.14972204,799.41394,810.293,808.68134,796.5934,956.55676,-0.2933349609375,0.0264892578125,0.94488525390625,2.03369140625,-3.349609375,0.037384033203125,1.0,2.0,1.0,1.0,2.0,80.0,event
15:36:13.647,1.9005222,0.5546367,0.37233347,0.57683957,1.3582662,-0.2186606,0.2001973,0.69597846,1.041275,0.017572537,-0.11625521,0.56917286,0.87950575,0.01194815,0.031090887,0.7605818,0.29827246,-0.0016166848,-0.26280612,0.14972204,799.41394,816.337,811.9048,802.23444,864.2857,-0.2933349609375,0.0264892578125,0.94488525390625,2.03369140625,-3.349609375,0.037384033203125,1.0,2.0,1.0,1.0,2.0,80.0,event
15:36:13.648,1.9005222,0.5546367,0.37233347,0.57683957,1.3582662,-0.2186606,0.2001973,0.69597846,1.041275,0.017572537,-0.11625521,0.56917286,0.87950575,0.01194815,0.031090887,0.7605818,0.29827246,-0.0016166848,-0.26280612,0.14972204,796.1905,811.9048,810.293,795.78754,762.3443,-0.2933349609375,0.0264892578125,0.94488525390625,2.03369140625,-3.349609375,0.037384033203125,1.0,2.0,1.0,1.0,2.0,80.0,event
15:36:13.648,1.9005222,0.5546367,0.37233347,0.57683957,1.3582662,-0.2186606,0.2001973,0.69597846,1.041275,0.017572537,-0.11625521,0.56917286,0.87950575,0.01194815,0.031090887,0.7605818,0.29827246,-0.0016166848,-0.26280612,0.14972204,789.34064,812.3077,810.696,795.78754,911.02563,-0.2933349609375,0.0264892578125,0.94488525390625,2.03369140625,-3.349609375,0.037384033203125,1.0,2.0,1.0,1.0,2.0,80.0,event
15:36:13.649,1.9005222,0.5546367,0.37233347,0.57683957,1.3582662,-0.2186606,0.2001973,0.69597846,1.041275,0.017572537,-0.11625521,0.56917286,0.87950575,0.01194815,0.031090887,0.7605818,0.29827246,-0.0016166848,-0.26280612,0.14972204,792.5641,811.50183,812.3077,799.81683,1057.2894,-0.2933349609375,0.0264892578125,0.94488525390625,2.03369140625,-3.349609375,0.037384033203125,1.0,2.0,1.0,1.0,2.0,80.0,event
15:36:13.649,1.9005222,0.5546367,0.37233347,0.57683957,1.3582662,-0.2186606,0.2001973,0.69597846,1.041275,0.017572537,-0.11625521,0.56917286,0.87950575,0.01194815,0.031090887,0.7605818,0.29827246,-0.0016166848,-0.26280612,0.14972204,793.36993,809.0842,807.8755,787.72894,763.1502,-0.2933349609375,0.0264892578125,0.94488525390625,2.03369140625,-3.349609375,0.037384033203125,1.0,2.0,1.0,1.0,2.0,80.0,event
15:36:13.650,1.9005222,0.5546367,0.37233347,0.57683957,1.3582662,-0.2186606,0.2001973,0.69597846,1.041275,0.017572537,-0.11625521,0.56917286,0.87950575,0.01194815,0.031090887,0.7605818,0.29827246,-0.0016166848,-0.26280612,0.14972204,793.36993,810.696,808.2784,786.1172,653.5531,-0.2933349609375,0.0264892578125,0.94488525390625,2.03369140625,-3.349609375,0.037384033203125,1.0,2.0,1.0,1.0,2.0,80.0,event
15:36:13.698,1.9005222,0.5546367,0.37233347,0.57683957,1.3582662,-0.2186606,0.2001973,0.69597846,1.041275,0.017572537,-0.11625521,0.56917286,0.87950575,0.01194815,0.031090887,0.7605818,0.29827246,-0.0016166848,-0.26280612,0.14972204,800.2198,814.3223,808.68134,792.5641,789.7436,-0.2838134765625,0.0291748046875,0.9447021484375,2.489776611328125,-3.431854248046875,0.755157470703125,1.0,2.0,1.0,1.0,2.0,80.0,event
15:36:13.699,1.9005222,0.566685,0.42077264,0.57683957,1.3582662,-0.2217039,0.21340817,0.69597846,1.041275,0.053810596,-0.086120844,0.56917286,0.87950575,0.019422622,0.0327586,0.7605818,0.29827246,0.021372715,-0.25565675,0.14972204,803.0403,811.9048,805.4579,790.54944,753.0769,-0.2838134765625,0.0291748046875,0.9447021484375,2.489776611328125,-3.431854248046875,0.755157470703125,1.0,2.0,1.0,1.0,2.0,80.0,event
15:36:13.702,1.9005222,0.566685,0.42077264,0.57683957,1.3582662,-0.2217039,0.21340817,0.69597846,1.041275,0.053810596,-0.086120844,0.56917286,0.87950575,0.019422622,0.0327586,0.7605818,0.29827246,0.021372715,-0.25565675,0.14972204,792.96704,808.2784,812.3077,789.34064,676.9231,-0.2838134765625,0.0291748046875,0.9447021484375,2.489776611328125,-3.431854248046875,0.755157470703125,1.0,2.0,1.0,1.0,2.0,80.0,event
15:36:13.702,1.9005222,0.566685,0.42077264,0.57683957,1.3582662,-0.2217039,0.21340817,0.69597846,1.041275,0.053810596,-0.086120844,0.56917286,0.87950575,0.019422622,0.0327586,0.7605818,0.29827246,0.021372715,-0.25565675,0.14972204,791.75824,809.4872,815.9341,800.2198,709.9634,-0.2838134765625,0.0291748046875,0.9447021484375,2.489776611328125,-3.431854248046875,0.755157470703125,1.0,2.0,1.0,1.0,2.0,80.0,event
15:36:13.702,1.9005222,0.566685,0.42077264,0.57683957,1.3582662,-0.2217039,0.21340817,0.69597846,1.041275,0.053810596,-0.086120844,0.56917286,0.87950575,0.019422622,0.0327586,0.7605818,0.29827246,0.021372715,-0.25565675,0.14972204,807.47253,811.50183,812.3077,805.4579,762.3443,-0.2838134765625,0.0291748046875,0.9447021484375,2.489776611328125,-3.431854248046875,0.755157470703125,1.0,2.0,1.0,1.0,2.0,80.0,event
15:36:13.703,1.9005222,0.566685,0.42077264,0.57683957,1.3582662,-0.2217039,0.21340817,0.69597846,1.041275,0.053810596,-0.086120844,0.56917286,0.87950575,0.019422622,0.0327586,0.7605818,0.29827246,0.021372715,-0.25565675,0.14972204,799.011,809.89014,813.5165,805.05493,752.674,-0.2838134765625,0.0291748046875,0.9447021484375,2.489776611328125,-3.431854248046875,0.755157470703125,1.0,2.0,1.0,1.0,2.0,80.0,event
15:36:13.703,1.9005222,0.566685,0.42077264,0.57683957,1.3582662,-0.2217039,0.21340817,0.69597846,1.041275,0.053810596,-0.086120844,0.56917286,0.87950575,0.019422622,0.0327586,0.7605818,0.29827246,0.021372715,-0.25565675,0.14972204,799.81683,812.71063,811.50183,796.1905,802.6374,-0.2838134765625,0.0291748046875,0.9447021484375,2.489776611328125,-3.431854248046875,0.755157470703125,1.0,2.0,1.0,1.0,2.0,80.0,event
15:36:13.703,1.9005222,0.566685,0.42077264,0.57683957,1.3582662,-0.2217039,0.21340817,0.69597846,1.041275,0.053810596,-0.086120844,0.56917286,0.87950575,0.019422622,0.0327586,0.7605818,0.29827246,0.021372715,-0.25565675,0.14972204,792.1612,810.293,810.696,795.78754,778.0586,-0.2838134765625,0.0291748046875,0.9447021484375,2.489776611328125,-3.431854248046875,0.755157470703125,1.0,2.0,1.0,1.0,2.0,80.0,event
15:36:13.704,1.9005222,0.566685,0.42077264,0.57683957,1.3582662,-0.2217039,0.21340817,0.69597846,1.041275,0.053810596,-0.086120844,0.56917286,0.87950575,0.019422622,0.0327586,0.7605818,0.29827246,0.021372715,-0.25565675,0.14972204,788.93774,814.3223,811.50183,797.3993,977.9121,-0.2838134765625,0.0291748046875,0.9447021484375,2.489776611328125,-3.431854248046875,0.755157470703125,1.0,2.0,1.0,1.0,2.0,80.0,event
15:36:13.704,1.9005222,0.566685,0.42077264,0.57683957,1.3582662,-0.2217039,0.21340817,0.69597846,1.041275,0.053810596,-0.086120844,0.56917286,0.87950575,0.019422622,0.0327586,0.7605818,0.29827246,0.021372715,-0.25565675,0.14972204,782.49084,809.4872,809.89014,792.5641,872.74725,-0.2838134765625,0.0291748046875,0.9447021484375,2.489776611328125,-3.431854248046875,0.755157470703125,1.0,2.0,1.0,1.0,2.0,80.0,event
15:36:13.704,1.9005222,0.566685,0.42077264,0.57683957,1.3582662,-0.2217039,0.21340817,0.69597846,1.041275,0.053810596,-0.086120844,0.56917286,0.87950575,0.019422622,0.0327586,0.7605818,0.29827246,0.021372715,-0.25565675,0.14972204,783.69965,801.02563,810.696,801.02563,772.4176,-0.2838134765625,0.0291748046875,0.9447021484375,2.489776611328125,-3.431854248046875,0.755157470703125,1.0,2.0,1.0,1.0,2.0,80.0,event
15:36:13.705,1.9005222,0.566685,0.42077264,0.57683957,1.3582662,-0.2217039,0.21340817,0.69597846,1.041275,0.053810596,-0.086120844,0.56917286,0.87950575,0.019422622,0.0327586,0.7605818,0.29827246,0.021372715,-0.25565675,0.14972204,788.5348,801.02563,807.47253,795.78754,837.28937,-0.2838134765625,0.0291748046875,0.9447021484375,2.489776611328125,-3.431854248046875,0.755157470703125,1.0,2.0,1.0,1.0,2.0,80.0,event
15:36:13.732,1.9005222,0.566685,0.42077264,0.57683957,1.3582662,-0.2217039,0.21340817,0.69597846,1.041275,0.053810596,-0.086120844,0.56917286,0.87950575,0.019422622,0.0327586,0.7605818,0.29827246,0.021372715,-0.25565675,0.14972204,787.326,806.6667,809.89014,781.685,824.3956,-0.28765869140625,0.03350830078125,0.952392578125,2.34771728515625,-4.17205810546875,2.03369140625,1.0,2.0,1.0,1.0,2.0,80.0,event
15:36:13.733,1.9005222,0.566685,0.42077264,0.57683957,1.3582662,-0.2217039,0.21340817,0.69597846,1.041275,0.053810596,-0.086120844,0.56917286,0.87950575,0.019422622,0.0327586,0.7605818,0.29827246,0.021372715,-0.25565675,0.14972204,790.14655,814.3223,809.4872,786.9231,771.6117,-0.28765869140625,0.03350830078125,0.952392578125,2.34771728515625,-4.17205810546875,2.03369140625,1.0,2.0,1.0,1.0,2.0,80.0,event
15:36:13.733,1.9005222,0.566685,0.42077264,0.57683957,1.3582662,-0.2217039,0.21340817,0.69597846,1.041275,0.053810596,-0.086120844,0.56917286,0.87950575,0.019422622,0.0327586,0.7605818,0.29827246,0.021372715,-0.25565675,0.14972204,784.10254,808.68134,810.293,776.04395,780.87915,-0.28765869140625,0.03350830078125,0.952392578125,2.34771728515625,-4.17205810546875,2.03369140625,1.0,2.0,1.0,1.0,2.0,80.0,event
15:36:13.734,1.9005222,0.566685,0.42077264,0.57683957,1.3582662,-0.2217039,0.21340817,0.69597846,1.041275,0.053810596,-0.086120844,0.56917286,0.87950575,0.019422622,0.0327586,0.7605818,0.29827246,0.021372715,-0.25565675,0.14972204,791.75824,814.3223,810.293,781.685,735.7509,-0.28765869140625,0.03350830078125,0.952392578125,2.34771728515625,-4.17205810546875,2.03369140625,1.0,2.0,1.0,1.0,2.0,80.0,event
15:36:13.734,1.9005222,0.566685,0.42077264,0.57683957,1.3582662,-0.2217039,0.21340817,0.69597846,1.041275,0.053810596,-0.086120844,0.56917286,0.87950575,0.019422622,0.0327586,0.7605818,0.29827246,0.021372715,-0.25565675,0.14972204,775.64105,812.3077,807.0696,787.72894,799.41394,-0.28765869140625,0.03350830078125,0.952392578125,2.34771728515625,-4.17205810546875,2.03369140625,1.0,2.0,1.0,1.0,2.0,80.0,event
15:36:13.734,1.9005222,0.566685,0.42077264,0.57683957,1.3582662,-0.2217039,0.21340817,0.69597846,1.041275,0.053810596,-0.086120844,0.56917286,0.87950575,0.019422622,0.0327586,0.7605818,0.29827246,0.021372715,-0.25565675,0.14972204,798.60803,818.7546,812.71063,789.34064,783.2967,-0.28765869140625,0.03350830078125,0.952392578125,2.34771728515625,-4.17205810546875,2.03369140625,1.0,2.0,1.0,1.0,2.0,80.0,event
15:36:13.735,1.9005222,0.566685,0.42077264,0.57683957,1.3582662,-0.2217039,0.21340817,0.69597846,1.041275,0.053810596,-0.086120844,0.56917286,0.87950575,0.019422622,0.0327586,0.7605818,0.29827246,0.021372715,-0.25565675,0.14972204,785.31134,807.8755,807.8755,787.326,796.99634,-0.28765869140625,0.03350830078125,0.952392578125,2.34771728515625,-4.17205810546875,2.03369140625,1.0,2.0,1.0,1.0,2.0,80.0,event
15:36:13.735,1.9005222,0.566685,0.42077264,0.57683957,1.3582662,-0.2217039,0.21340817,0.69597846,1.041275,0.053810596,-0.086120844,0.56917286,0.87950575,0.019422622,0.0327586,0.7605818,0.29827246,0.021372715,-0.25565675,0.14972204,793.36993,800.2198,809.89014,784.90845,894.5055,-0.28765869140625,0.03350830078125,0.952392578125,2.34771728515625,-4.17205810546875,2.03369140625,1.0,2.0,1.0,1.0,2.0,80.0,event
15:36:13.736,1.9005222,0.566685,0.42077264,0.57683957,1.3582662,-0.2217039,0.21340817,0.69597846,1.041275,0.053810596,-0.086120844,0.56917286,0.87950575,0.019422622,0.0327586,0.7605818,0.29827246,0.021372715,-0.25565675,0.14972204,785.31134,801.02563,805.8608,792.96704,990.40295,-0.28765869140625,0.03350830078125,0.952392578125,2.34771728515625,-4.17205810546875,2.03369140625,1.0,2.0,1.0,1.0,2.0,80.0,event
15:36:13.736,1.9005222,0.566685,0.42077264,0.57683957,1.3582662,-0.2217039,0.21340817,0.69597846,1.041275,0.053810596,-0.086120844,0.56917286,0.87950575,0.019422622,0.0327586,0.7605818,0.29827246,0.021372715,-0.25565675,0.14972204,781.28204,808.68134,803.8461,792.5641,738.1685,-0.28765869140625,0.03350830078125,0.952392578125,2.34771728515625,-4.17205810546875,2.03369140625,1.0,2.0,1.0,1.0,2.0,80.0,event
15:36:13.737,1.9005222,0.566685,0.42077264,0.57683957,1.3582662,-0.2217039,0.21340817,0.69597846,1.041275,0.053810596,-0.086120844,0.56917286,0.87950575,0.019422622,0.0327586,0.7605818,0.29827246,0.021372715,-0.25565675,0.14972204,795.78754,809.89014,803.44324,793.7729,695.4579,-0.28765869140625,0.03350830078125,0.952392578125,2.34771728515625,-4.17205810546875,2.03369140625,1.0,2.0,1.0,1.0,2.0,80.0,event
15:36:13.737,1.9005222,0.566685,0.42077264,0.57683957,1.3582662,-0.2217039,0.21340817,0.69597846,1.041275,0.053810596,-0.086120844,0.56917286,0.87950575,0.019422622,0.0327586,0.7605818,0.29827246,0.021372715,-0.25565675,0.14972204,801.8315,813.5165,802.6374,783.2967,761.13556,-0.28765869140625,0.03350830078125,0.952392578125,2.34771728515625,-4.17205810546875,2.03369140625,1.0,2.0,1.0,1.0,2.0,80.0,event
15:36:13.809,1.9005222,0.566685,0.42077264,0.57683957,1.3582662,-0.2217039,0.21340817,0.69597846,1.041275,0.053810596,-0.086120844,0.56917286,0.87950575,0.019422622,0.0327586,0.7605818,0.29827246,0.021372715,-0.25565675,0.14972204,790.9524,816.7399,803.8461,768.7912,698.68134,-0.288330078125,0.03289794921875,0.94451904296875,2.25799560546875,-3.96270751953125,0.97198486328125,1.0,2.0,1.0,1.0,2.0,80.0,event
15:36:13.810,1.9005222,0.566685,0.42077264,0.57683957,1.3582662,-0.2217039,0.21340817,0.69597846,1.041275,0.053810596,-0.086120844,0.56917286,0.87950575,0.019422622,0.0327586,0.7605818,0.29827246,0.021372715,-0.25565675,0.14972204,794.9817,812.71063,809.4872,788.5348,676.9231,-0.288330078125,0.03289794921875,0.94451904296875,2.25799560546875,-3.96270751953125,0.97198486328125,1.0,2.0,1.0,1.0,2.0,80.0,event
15:36:13.810,1.9005222,0.566685,0.42077264,0.57683957,1.3582662,-0.2217039,0.21340817,0.69597846,1.041275,0.053810596,-0.086120844,0.56917286,0.87950575,0.019422622,0.0327586,0.7605818,0.29827246,0.021372715,-0.25565675,0.14972204,794.9817,812.3077,811.0989,792.96704,755.4945,-0.288330078125,0.03289794921875,0.94451904296875,2.25799560546875,-3.96270751953125,0.97198486328125,1.0,2.0,1.0,1.0,2.0,80.0,event
15:36:13.811,1.9005222,0.5800322,0.4420079,0.57683957,1.3582662,-0.21550821,0.21651107,0.69597846,1.041275,0.056765083,-0.06350856,0.56917286,0.87950575,0.021253625,0.031102847,0.7605818,0.29827246,0.029449536,-0.25014082,0.14972204,793.7729,817.5458,806.26373,789.7436,967.03296,-0.288330078125,0.03289794921875,0.94451904296875,2.25799560546875,-3.96270751953125,0.97198486328125,1.0,2.0,1.0,1.0,2.0,80.0,event
15:36:13.815,1.9005222,0.5800322,0.4420079,0.57683957,1.3582662,-0.21550821,0.21651107,0.69597846,1.041275,0.056765083,-0.06350856,0.56917286,0.87950575,0.021253625,0.031102847,0.7605818,0.29827246,0.029449536,-0.25014082,0.14972204,794.57874,819.5604,805.8608,790.9524,873.1502,-0.288330078125,0.03289794921875,0.94451904296875,2.25799560546875,-3.96270751953125,0.97198486328125,1.0,2.0,1.0,1.0,2.0,80.0,event
15:36:13.816,1.9005222,0.5800322,0.4420079,0.57683957,1.3582662,-0.21550821,0.21651107,0.69597846,1.041275,0.056765083,-0.06350856,0.56917286,0.87950575,0.021253625,0.031102847,0.7605818,0.29827246,0.029449536,-0.25014082,0.14972204,788.5348,814.3223,801.4286,782.0879,703.91943,-0.288330078125,0.03289794921875,0.94451904296875,2.25799560546875,-3.96270751953125,0.97198486328125,1.0,2.0,1.0,1.0,2.0,80.0,event
15:36:13.816,1.9005222,0.5800322,0.4420079,0.57683957,1.3582662,-0.21550821,0.21651107,0.69597846,1.041275,0.056765083,-0.06350856,0.56917286,0.87950575,0.021253625,0.031102847,0.7605818,0.29827246,0.029449536,-0.25014082,0.14972204,796.1905,817.9487,801.4286,776.8498,825.2015,-0.288330078125,0.03289794921875,0.94451904296875,2.25799560546875,-3.96270751953125,0.97198486328125,1.0,2.0,1.0,1.0,2.0,80.0,event
15:36:13.817,1.9005222,0.5800322,0.4420079,0.57683957,1.3582662,-0.21550821,0.21651107,0.69597846,1.041275,0.056765083,-0.06350856,0.56917286,0.87950575,0.021253625,0.031102847,0.7605818,0.29827246,0.029449536,-0.25014082,0.14972204,787.326,814.3223,801.02563,779.2674,1080.2565,-0.288330078125,0.03289794921875,0.94451904296875,2.25799560546875,-3.96270751953125,0.97198486328125,1.0,2.0,1.0,1.0,2.0,80.0,event
15:36:13.818,1.9005222,0.5800322,0.4420079,0.57683957,1.3582662,-0.21550821,0.21651107,0.69597846,1.041275,0.056765083,-0.06350856,0.56917286,0.87950575,0.021253625,0.031102847,0.7605818,0.29827246,0.029449536,-0.25014082,0.14972204,782.0879,808.2784,801.8315,784.5055,938.4249,-0.288330078125,0.03289794921875,0.94451904296875,2.25799560546875,-3.96270751953125,0.97198486328125,1.0,2.0,1.0,1.0,2.0,80.0,event
15:36:13.820,1.9005222,0.5800322,0.4420079,0.57683957,1.3582662,-0.21550821,0.21651107,0.69597846,1.041275,0.056765083,-0.06350856,0.56917286,0.87950575,0.021253625,0.031102847,0.7605818,0.29827246,0.029449536,-0.25014082,0.14972204,792.1612,812.71063,805.8608,781.28204,734.1392,-0.288330078125,0.03289794921875,0.94451904296875,2.25799560546875,-3.96270751953125,0.97198486328125,1.0,2.0,1.0,1.0,2.0,80.0,event
15:36:13.820,1.9005222,0.5800322,0.4420079,0.57683957,1.3582662,-0.21550821,0.21651107,0.69597846,1.041275,0.056765083,-0.06350856,0.56917286,0.87950575,0.021253625,0.031102847,0.7605818,0.29827246,0.029449536,-0.25014082,0.14972204,790.54944,813.5165,805.8608,780.07324,732.1245,-0.288330078125,0.03289794921875,0.94451904296875,2.25799560546875,-3.96270751953125,0.97198486328125,1.0,2.0,1.0,1.0,2.0,80.0,event
15:36:13.821,1.9005222,0.5800322,0.4420079,0.57683957,1.3582662,-0.21550821,0.21651107,0.69597846,1.041275,0.056765083,-0.06350856,0.56917286,0.87950575,0.021253625,0.031102847,0.7605818,0.29827246,0.029449536,-0.25014082,0.14972204,788.1319,812.71063,813.91943,790.9524,750.2564,-0.288330078125,0.03289794921875,0.94451904296875,2.25799560546875,-3.96270751953125,0.97198486328125,1.0,2.0,1.0,1.0,2.0,80.0,event
15:36:13.848,1.9005222,0.5800322,0.4420079,0.57683957,1.3582662,-0.21550821,0.21651107,0.69597846,1.041275,0.056765083,-0.06350856,0.56917286,0.87950575,0.021253625,0.031102847,0.7605818,0.29827246,0.029449536,-0.25014082,0.14972204,801.4286,810.696,815.5311,798.20514,703.1135,-0.288330078125,0.03289794921875,0.94451904296875,2.25799560546875,-3.96270751953125,0.97198486328125,1.0,2.0,1.0,1.0,2.0,80.0,event
15:36:13.850,1.9005222,0.5800322,0.4420079,0.57683957,1.3582662,-0.21550821,0.21651107,0.69597846,1.041275,0.056765083,-0.06350856,0.56917286,0.87950575,0.021253625,0.031102847,0.7605818,0.29827246,0.029449536,-0.25014082,0.14972204,799.81683,809.89014,807.47253,793.7729,676.1172,-0.288330078125,0.03289794921875,0.94451904296875,2.25799560546875,-3.96270751953125,0.97198486328125,1.0,2.0,1.0,1.0,2.0,80.0,event
15:36:13.851,1.9005222,0.5800322,0.4420079,0.57683957,1.3582662,-0.21550821,0.21651107,0.69597846,1.041275,0.056765083,-0.06350856,0.56917286,0.87950575,0.021253625,0.031102847,0.7605818,0.29827246,0.029449536,-0.25014082,0.14972204,794.57874,807.47253,805.4579,797.3993,771.2088,-0.288330078125,0.03289794921875,0.94451904296875,2.25799560546875,-3.96270751953125,0.97198486328125,1.0,2.0,1.0,1.0,2.0,80.0,event
15:36:13.852,1.9005222,0.5800322,0.4420079,0.57683957,1.3582662,-0.21550821,0.21651107,0.69597846,1.041275,0.056765083,-0.06350856,0.56917286,0.87950575,0.021253625,0.031102847,0.7605818,0.29827246,0.029449536,-0.25014082,0.14972204,796.99634,809.0842,815.5311,806.26373,767.1795,-0.288330078125,0.03289794921875,0.94451904296875,2.25799560546875,-3.96270751953125,0.97198486328125,1.0,2.0,1.0,1.0,2.0,80.0,event
15:36:13.853,1.9005222,0.5800322,0.4420079,0.57683957,1.3582662,-0.21550821,0.21651107,0.69597846,1.041275,0.056765083,-0.06350856,0.56917286,0.87950575,0.021253625,0.031102847,0.7605818,0.29827246,0.029449536,-0.25014082,0.14972204,793.7729,811.0989,815.12823,801.4286,757.1062,-0.288330078125,0.03289794921875,0.94451904296875,2.25799560546875,-3.96270751953125,0.97198486328125,1.0,2.0,1.0,1.0,2.0,80.0,event
15:36:13.854,1.9005222,0.5800322,0.4420079,0.57683957,1.3582662,-0.21550821,0.21651107,0.69597846,1.041275,0.056765083,-0.06350856,0.56917286,0.87950575,0.021253625,0.031102847,0.7605818,0.29827246,0.029449536,-0.25014082,0.14972204,787.72894,807.8755,810.696,790.54944,851.79486,-0.288330078125,0.03289794921875,0.94451904296875,2.25799560546875,-3.96270751953125,0.97198486328125,1.0,2.0,1.0,1.0,2.0,80.0,event
15:36:13.854,1.9005222,0.5800322,0.4420079,0.57683957,1.3582662,-0.21550821,0.21651107,0.69597846,1.041275,0.056765083,-0.06350856,0.56917286,0.87950575,0.021253625,0.031102847,0.7605818,0.29827246,0.029449536,-0.25014082,0.14972204,785.7143,811.0989,813.1135,795.78754,944.87177,-0.288330078125,0.03289794921875,0.94451904296875,2.25799560546875,-3.96270751953125,0.97198486328125,1.0,2.0,1.0,1.0,2.0,80.0,event
15:36:13.855,1.9005222,0.5800322,0.4420079,0.57683957,1.3582662,-0.21550821,0.21651107,0.69597846,1.041275,0.056765083,-0.06350856,0.56917286,0.87950575,0.021253625,0.031102847,0.7605818,0.29827246,0.029449536,-0.25014082,0.14972204,795.38464,811.50183,811.9048,794.9817,900.14655,-0.288330078125,0.03289794921875,0.94451904296875,2.25799560546875,-3.96270751953125,0.97198486328125,1.0,2.0,1.0,1.0,2.0,80.0,event
15:36:13.856,1.9005222,0.5800322,0.4420079,0.57683957,1.3582662,-0.21550821,0.21651107,0.69597846,1.041275,0.056765083,-0.06350856,0.56917286,0.87950575,0.021253625,0.031102847,0.7605818,0.29827246,0.029449536,-0.25014082,0.14972204,797.3993,803.8461,811.9048,788.1319,751.06226,-0.288330078125,0.03289794921875,0.94451904296875,2.25799560546875,-3.96270751953125,0.97198486328125,1.0,2.0,1.0,1.0,2.0,80.0,event
15:36:13.856,1.9005222,0.5800322,0.4420079,0.57683957,1.3582662,-0.21550821,0.21651107,0.69597846,1.041275,0.056765083,-0.06350856,0.56917286,0.87950575,0.021253625,0.031102847,0.7605818,0.29827246,0.029449536,-0.25014082,0.14972204,793.36993,799.81683,811.9048,786.1172,641.06226,-0.288330078125,0.03289794921875,0.94451904296875,2.25799560546875,-3.96270751953125,0.97198486328125,1.0,2.0,1.0,1.0,2.0,80.0,event
15:36:13.857,1.9005222,0.5800322,0.4420079,0.57683957,1.3582662,-0.21550821,0.21651107,0.69597846,1.041275,0.056765083,-0.06350856,0.56917286,0.87950575,0.021253625,0.031102847,0.7605818,0.29827246,0.029449536,-0.25014082,0.14972204,792.5641,805.8608,815.12823,793.36993,882.8205,-0.288330078125,0.03289794921875,0.94451904296875,2.25799560546875,-3.96270751953125,0.97198486328125,1.0,2.0,1.0,1.0,2.0,80.0,event
15:36:13.857,1.9005222,0.5800322,0.4420079,0.57683957,1.3582662,-0.21550821,0.21651107,0.69597846,1.041275,0.056765083,-0.06350856,0.56917286,0.87950575,0.021253625,0.031102847,0.7605818,0.29827246,0.029449536,-0.25014082,0.14972204,796.99634,811.50183,815.5311,803.44324,1106.4469,-0.288330078125,0.03289794921875,0.94451904296875,2.25799560546875,-3.96270751953125,0.97198486328125,1.0,2.0,1.0,1.0,2.0,80.0,event
15:36:13.925,1.9005222,0.5800322,0.4420079,0.57683957,1.3582662,-0.21550821,0.21651107,0.69597846,1.041275,0.056765083,-0.06350856,0.56917286,0.87950575,0.021253625,0.031102847,0.7605818,0.29827246,0.029449536,-0.25014082,0.14972204,799.41394,809.89014,809.89014,797.8022,824.7985,-0.28814697265625,0.0335693359375,0.9500732421875,2.160797119140625,-2.4822998046875,-0.142059326171875,1.0,2.0,1.0,1.0,2.0,80.0,event
15:36:13.926,1.9005222,0.5800322,0.4420079,0.57683957,1.3582662,-0.21550821,0.21651107,0.69597846,1.041275,0.056765083,-0.06350856,0.56917286,0.87950575,0.021253625,0.031102847,0.7605818,0.29827246,0.029449536,-0.25014082,0.14972204,800.6227,811.0989,808.2784,794.57874,696.6667,-0.28814697265625,0.0335693359375,0.9500732421875,2.160797119140625,-2.4822998046875,-0.142059326171875,1.0,2.0,1.0,1.0,2.0,80.0,event
15:36:13.927,1.9005222,0.5800322,0.4420079,0.57683957,1.3582662,-0.21550821,0.21651107,0.69597846,1.041275,0.056765083,-0.06350856,0.56917286,0.87950575,0.021253625,0.031102847,0.7605818,0.29827246,0.029449536,-0.25014082,0.14972204,780.4762,812.71063,808.2784,781.28204,743.00366,-0.28814697265625,0.0335693359375,0.9500732421875,2.160797119140625,-2.4822998046875,-0.142059326171875,1.0,2.0,1.0,1.0,2.0,80.0,event
15:36:13.927,1.9005222,0.5800322,0.4420079,0.57683957,1.3582662,-0.21550821,0.21651107,0.69597846,1.041275,0.056765083,-0.06350856,0.56917286,0.87950575,0.021253625,0.031102847,0.7605818,0.29827246,0.029449536,-0.25014082,0.14972204,792.1612,815.12823,807.0696,783.2967,753.47986,-0.28814697265625,0.0335693359375,0.9500732421875,2.160797119140625,-2.4822998046875,-0.142059326171875,1.0,2.0,1.0,1.0,2.0,80.0,event
15:36:13.928,1.9005222,0.5800322,0.4420079,0.57683957,1.3582662,-0.21550821,0.21651107,0.69597846,1.041275,0.056765083,-0.06350856,0.56917286,0.87950575,0.021253625,0.031102847,0.7605818,0.29827246,0.029449536,-0.25014082,0.14972204,780.07324,807.8755,809.4872,788.1319,762.74725,-0.28814697265625,0.0335693359375,0.9500732421875,2.160797119140625,-2.4822998046875,-0.142059326171875,1.0,2.0,1.0,1.0,2.0,80.0,event
15:36:13.929,1.9005222,0.58337635,0.45024472,0.57683957,1.3582662,-0.20693342,0.21787405,0.69597846,1.041275,0.06275383,-0.06550406,0.56917286,0.87950575,0.019174611,0.021189686,0.7605818,0.29827246,0.026145045,-0.24812593,0.14972204,786.52014,809.0842,807.47253,784.10254,891.28204,-0.28814697265625,0.0335693359375,0.9500732421875,2.160797119140625,-2.4822998046875,-0.142059326171875,1.0,2.0,1.0,1.0,2.0,80.0,event
15:36:13.933,1.9005222,0.58337635,0.45024472,0.57683957,1.3582662,-0.20693342,0.21787405,0.69597846,1.041275,0.06275383,-0.06550406,0.56917286,0.87950575,0.019174611,0.021189686,0.7605818,0.29827246,0.026145045,-0.24812593,0.14972204,787.326,808.68134,807.8755,784.90845,1075.8242,-0.28814697265625,0.0335693359375,0.9500732421875,2.160797119140625,-2.4822998046875,-0.142059326171875,1.0,2.0,1.0,1.0,2.0,80.0,event
15:36:13.934,1.9005222,0.58337635,0.45024472,0.57683957,1.3582662,-0.20693342,0.21787405,0.69597846,1.041275,0.06275383,-0.06550406,0.56917286,0.87950575,0.019174611,0.021189686,0.7605818,0.29827246,0.026145045,-0.24812593,0.14972204,786.1172,813.91943,809.89014,793.36993,938.8278,-0.28814697265625,0.0335693359375,0.9500732421875,2.160797119140625,-2.4822998046875,-0.142059326171875,1.0,2.0,1.0,1.0,2.0,80.0,event
15:36:13.935,1.9005222,0.58337635,0.45024472,0.57683957,1.3582662,-0.20693342,0.21787405,0.69597846,1.041275,0.06275383,-0.06550406,0.56917286,0.87950575,0.019174611,0.021189686,0.7605818,0.29827246,0.026145045,-0.24812593,0.14972204,792.5641,814.7253,810.293,793.36993,725.6777,-0.28814697265625,0.0335693359375,0.9500732421875,2.160797119140625,-2.4822998046875,-0.142059326171875,1.0,2.0,1.0,1.0,2.0,80.0,event
15:36:13.936,1.9005222,0.58337635,0.45024472,0.57683957,1.3582662,-0.20693342,0.21787405,0.69597846,1.041275,0.06275383,-0.06550406,0.56917286,0.87950575,0.019174611,0.021189686,0.7605818,0.29827246,0.026145045,-0.24812593,0.14972204,798.20514,813.1135,811.50183,794.57874,778.86444,-0.28814697265625,0.0335693359375,0.9500732421875,2.160797119140625,-2.4822998046875,-0.142059326171875,1.0,2.0,1.0,1.0,2.0,80.0,event
15:36:13.936,1.9005222,0.58337635,0.45024472,0.57683957,1.3582662,-0.20693342,0.21787405,0.69597846,1.041275,0.06275383,-0.06550406,0.56917286,0.87950575,0.019174611,0.021189686,0.7605818,0.29827246,0.026145045,-0.24812593,0.14972204,789.7436,813.91943,812.3077,800.6227,914.65204,-0.28814697265625,0.0335693359375,0.9500732421875,2.160797119140625,-2.4822998046875,-0.142059326171875,1.0,2.0,1.0,1.0,2.0,80.0,event
15:36:13.937,1.9005222,0.58337635,0.45024472,0.57683957,1.3582662,-0.20693342,0.21787405,0.69597846,1.041275,0.06275383,-0.06550406,0.56917286,0.87950575,0.019174611,0.021189686,0.7605818,0.29827246,0.026145045,-0.24812593,0.14972204,789.34064,811.0989,811.50183,795.38464,782.8938,-0.28814697265625,0.0335693359375,0.9500732421875,2.160797119140625,-2.4822998046875,-0.142059326171875,1.0,2.0,1.0,1.0,2.0,80.0,event
15:36:13.965,1.9005222,0.58337635,0.45024472,0.57683957,1.3582662,-0.20693342,0.21787405,0.69597846,1.041275,0.06275383,-0.06550406,0.56917286,0.87950575,0.019174611,0.021189686,0.7605818,0.29827246,0.026145045,-0.24812593,0.14972204,792.5641,810.293,814.3223,786.1172,697.0696,-0.2874755859375,0.0286865234375,0.947998046875,1.4654541015625,-3.45428466796875,0.418701171875,1.0,2.0,1.0,1.0,2.0,80.0,event
15:36:13.966,1.9005222,0.58337635,0.45024472,0.57683957,1.3582662,-0.20693342,0.21787405,0.69597846,1.041275,0.06275383,-0.06550406,0.56917286,0.87950575,0.019174611,0.021189686,0.7605818,0.29827246,0.026145045,-0.24812593,0.14972204,796.1905,809.0842,809.89014,796.99634,764.7619,-0.2874755859375,0.0286865234375,0.947998046875,1.4654541015625,-3.45428466796875,0.418701171875,1.0,2.0,1.0,1.0,2.0,80.0,event
15:36:13.967,1.9005222,0.58337635,0.45024472,0.57683957,1.3582662,-0.20693342,0.21787405,0.69597846,1.041275,0.06275383,-0.06550406,0.56917286,0.87950575,0.019174611,0.021189686,0.7605818,0.29827246,0.026145045,-0.24812593,0.14972204,793.7729,811.9048,803.8461,811.0989,782.0879,-0.2874755859375,0.0286865234375,0.947998046875,1.4654541015625,-3.45428466796875,0.418701171875,1.0,2.0,1.0,1.0,2.0,80.0,event
15:36:13.968,1.9005222,0.58337635,0.45024472,0.57683957,1.3582662,-0.20693342,0.21787405,0.69597846,1.041275,0.06275383,-0.06550406,0.56917286,0.87950575,0.019174611,0.021189686,0.7605818,0.29827246,0.026145045,-0.24812593,0.14972204,793.7729,816.337,809.89014,806.26373,788.1319,-0.2874755859375,0.0286865234375,0.947998046875,1.4654541015625,-3.45428466796875,0.418701171875,1.0,2.0,1.0,1.0,2.0,80.0,event
15:36:13.969,1.9005222,0.58337635,0.45024472,0.57683957,1.3582662,-0.20693342,0.21787405,0.69597846,1.041275,0.06275383,-0.06550406,0.56917286,0.87950575,0.019174611,0.021189686,0.7605818,0.29827246,0.026145045,-0.24812593,0.14972204,794.57874,811.0989,806.6667,792.5641,887.25275,-0.2874755859375,0.0286865234375,0.947998046875,1.4654541015625,-3.45428466796875,0.418701171875,1.0,2.0,1.0,1.0,2.0,80.0,event
15:36:13.970,1.9005222,0.58337635,0.45024472,0.57683957,1.3582662,-0.20693342,0.21787405,0.69597846,1.041275,0.06275383,-0.06550406,0.56917286,0.87950575,0.019174611,0.021189686,0.7605818,0.29827246,0.026145045,-0.24812593,0.14972204,793.36993,807.0696,808.2784,786.9231,998.46155,-0.2874755859375,0.0286865234375,0.947998046875,1.4654541015625,-3.45428466796875,0.418701171875,1.0,2.0,1.0,1.0,2.0,80.0,event
15:36:13.971,1.9005222,0.58337635,0.45024472,0.57683957,1.3582662,-0.20693342,0.21787405,0.69597846,1.041275,0.06275383,-0.06550406,0.56917286,0.87950575,0.019174611,0.021189686,0.7605818,0.29827246,0.026145045,-0.24812593,0.14972204,790.9524,801.4286,808.68134,780.4762,1089.5238,-0.2874755859375,0.0286865234375,0.947998046875,1.4654541015625,-3.45428466796875,0.418701171875,1.0,2.0,1.0,1.0,2.0,80.0,event
15:36:13.972,1.9005222,0.58337635,0.45024472,0.57683957,1.3582662,-0.20693342,0.21787405,0.69597846,1.041275,0.06275383,-0.06550406,0.56917286,0.87950575,0.019174611,0.021189686,0.7605818,0.29827246,0.026145045,-0.24812593,0.14972204,785.7143,802.23444,808.68134,774.43225,987.98535,-0.2874755859375,0.0286865234375,0.947998046875,1.4654541015625,-3.45428466796875,0.418701171875,1.0,2.0,1.0,1.0,2.0,80.0,event
15:36:13.973,1.9005222,0.58337635,0.45024472,0.57683957,1.3582662,-0.20693342,0.21787405,0.69597846,1.041275,0.06275383,-0.06550406,0.56917286,0.87950575,0.019174611,0.021189686,0.7605818,0.29827246,0.026145045,-0.24812593,0.14972204,788.5348,807.47253,818.3516,785.31134,862.27106,-0.2874755859375,0.0286865234375,0.947998046875,1.4654541015625,-3.45428466796875,0.418701171875,1.0,2.0,1.0,1.0,2.0,80.0,event
15:36:13.973,1.9005222,0.58337635,0.45024472,0.57683957,1.3582662,-0.20693342,0.21787405,0.69597846,1.041275,0.06275383,-0.06550406,0.56917286,0.87950575,0.019174611,0.021189686,0.7605818,0.29827246,0.026145045,-0.24812593,0.14972204,789.34064,811.0989,819.9634,792.5641,966.63007,-0.2874755859375,0.0286865234375,0.947998046875,1.4654541015625,-3.45428466796875,0.418701171875,1.0,2.0,1.0,1.0,2.0,80.0,event
15:36:13.974,1.9005222,0.58337635,0.45024472,0.57683957,1.3582662,-0.20693342,0.21787405,0.69597846,1.041275,0.06275383,-0.06550406,0.56917286,0.87950575,0.019174611,0.021189686,0.7605818,0.29827246,0.026145045,-0.24812593,0.14972204,789.34064,808.68134,817.9487,785.31134,935.2015,-0.2874755859375,0.0286865234375,0.947998046875,1.4654541015625,-3.45428466796875,0.418701171875,1.0,2.0,1.0,1.0,2.0,80.0,event
15:36:13.975,1.9005222,0.58337635,0.45024472,0.57683957,1.3582662,-0.20693342,0.21787405,0.69597846,1.041275,0.06275383,-0.06550406,0.56917286,0.87950575,0.019174611,0.021189686,0.7605818,0.29827246,0.026145045,-0.24812593,0.14972204,786.9231,805.4579,815.12823,792.96704,736.9597,-0.2874755859375,0.0286865234375,0.947998046875,1.4654541015625,-3.45428466796875,0.418701171875,1.0,2.0,1.0,1.0,2.0,80.0,event
15:36:14.009,1.9005222,0.58337635,0.45024472,0.57683957,1.3582662,-0.20693342,0.21787405,0.69597846,1.041275,0.06275383,-0.06550406,0.56917286,0.87950575,0.019174611,0.021189686,0.7605818,0.29827246,0.026145045,-0.24812593,0.14972204,794.17584,806.6667,820.7692,807.8755,629.3773,-0.28350830078125,0.025146484375,0.9437255859375,1.846771240234375,-3.30474853515625,0.112152099609375,1.0,2.0,1.0,1.0,2.0,80.0,event
15:36:14.011,1.9005222,0.58337635,0.45024472,0.57683957,1.3582662,-0.20693342,0.21787405,0.69597846,1.041275,0.06275383,-0.06550406,0.56917286,0.87950575,0.019174611,0.021189686,0.7605818,0.29827246,0.026145045,-0.24812593,0.14972204,802.23444,807.47253,818.3516,800.6227,906.1905,-0.28350830078125,0.025146484375,0.9437255859375,1.846771240234375,-3.30474853515625,0.112152099609375,1.0,2.0,1.0,1.0,2.0,80.0,event
15:36:14.012,1.9005222,0.58337635,0.45024472,0.57683957,1.3582662,-0.20693342,0.21787405,0.69597846,1.041275,0.06275383,-0.06550406,0.56917286,0.87950575,0.019174611,0.021189686,0.7605818,0.29827246,0.026145045,-0.24812593,0.14972204,786.9231,809.89014,816.7399,791.3553,1016.1905,-0.28350830078125,0.025146484375,0.9437255859375,1.846771240234375,-3.30474853515625,0.112152099609375,1.0,2.0,1.0,1.0,2.0,80.0,event
15:36:14.013,1.9005222,0.58337635,0.45024472,0.57683957,1.3582662,-0.20693342,0.21787405,0.69597846,1.041275,0.06275383,-0.06550406,0.56917286,0.87950575,0.019174611,0.021189686,0.7605818,0.29827246,0.026145045,-0.24812593,0.14972204,776.8498,813.91943,817.1429,786.1172,684.17584,-0.28350830078125,0.025146484375,0.9437255859375,1.846771240234375,-3.30474853515625,0.112152099609375,1.0,2.0,1.0,1.0,2.0,80.0,event
15:36:14.014,1.9005222,0.58337635,0.45024472,0.57683957,1.3582662,-0.20693342,0.21787405,0.69597846,1.041275,0.06275383,-0.06550406,0.56917286,0.87950575,0.019174611,0.021189686,0.7605818,0.29827246,0.026145045,-0.24812593,0.14972204,785.31134,819.5604,811.0989,788.93774,630.58606,-0.28350830078125,0.025146484375,0.9437255859375,1.846771240234375,-3.30474853515625,0.112152099609375,1.0,2.0,1.0,1.0,2.0,80.0,event
15:36:14.015,1.9005222,0.58337635,0.45024472,0.57683957,1.3582662,-0.20693342,0.21787405,0.69597846,1.041275,0.06275383,-0.06550406,0.56917286,0.87950575,0.019174611,0.021189686,0.7605818,0.29827246,0.026145045,-0.24812593,0.14972204,784.5055,815.9341,810.696,801.02563,764.7619,-0.28350830078125,0.025146484375,0.9437255859375,1.846771240234375,-3.30474853515625,0.112152099609375,1.0,2.0,1.0,1.0,2.0,80.0,event
15:36:14.015,1.9005222,0.58337635,0.45024472,0.57683957,1.3582662,-0.20693342,0.21787405,0.69597846,1.041275,0.06275383,-0.06550406,0.56917286,0.87950575,0.019174611,0.021189686,0.7605818,0.29827246,0.026145045,-0.24812593,0.14972204,787.326,811.9048,814.7253,801.4286,882.01465,-0.28350830078125,0.025146484375,0.9437255859375,1.846771240234375,-3.30474853515625,0.112152099609375,1.0,2.0,1.0,1.0,2.0,80.0,event
15:36:14.016,1.9005222,0.57341725,0.45058012,0.57683957,1.3582662,-0.1967405,0.21982998,0.69597846,1.041275,0.084985875,-0.086896695,0.56917286,0.87950575,0.016800035,0.0046309754,0.7605818,0.29827246,0.017931502,-0.24756217,0.14972204,783.2967,807.8755,813.5165,790.54944,798.60803,-0.28350830078125,0.025146484375,0.9437255859375,1.846771240234375,-3.30474853515625,0.112152099609375,1.0,2.0,1.0,1.0,2.0,80.0,event
15:36:14.019,1.9005222,0.57341725,0.45058012,0.57683957,1.3582662,-0.1967405,0.21982998,0.69597846,1.041275,0.084985875,-0.086896695,0.56917286,0.87950575,0.016800035,0.0046309754,0.7605818,0.29827246,0.017931502,-0.24756217,0.14972204,781.28204,808.2784,816.337,790.9524,734.94507,-0.28350830078125,0.025146484375,0.9437255859375,1.846771240234375,-3.30474853515625,0.112152099609375,1.0,2.0,1.0,1.0,2.0,80.0,event
15:36:14.020,1.9005222,0.57341725,0.45058012,0.57683957,1.3582662,-0.1967405,0.21982998,0.69597846,1.041275,0.084985875,-0.086896695,0.56917286,0.87950575,0.016800035,0.0046309754,0.7605818,0.29827246,0.017931502,-0.24756217,0.14972204,781.685,811.0989,816.337,794.9817,933.1868,-0.28350830078125,0.025146484375,0.9437255859375,1.846771240234375,-3.30474853515625,0.112152099609375,1.0,2.0,1.0,1.0,2.0,80.0,event
15:36:14.021,1.9005222,0.57341725,0.45058012,0.57683957,1.3582662,-0.1967405,0.21982998,0.69597846,1.041275,0.084985875,-0.086896695,0.56917286,0.87950575,0.016800035,0.0046309754,0.7605818,0.29827246,0.017931502,-0.24756217,0.14972204,781.28204,804.65204,809.89014,777.25275,784.5055,-0.28350830078125,0.025146484375,0.9437255859375,1.846771240234375,-3.30474853515625,0.112152099609375,1.0,2.0,1.0,1.0,2.0,80.0,event
15:36:14.021,1.9005222,0.57341725,0.45058012,0.57683957,1.3582662,-0.1967405,0.21982998,0.69597846,1.041275,0.084985875,-0.086896695,0.56917286,0.87950575,0.016800035,0.0046309754,0.7605818,0.29827246,0.017931502,-0.24756217,0.14972204,790.14655,808.2784,805.4579,787.72894,642.674,-0.28350830078125,0.025146484375,0.9437255859375,1.846771240234375,-3.30474853515625,0.112152099609375,1.0,2.0,1.0,1.0,2.0,80.0,event
15:36:14.057,1.9005222,0.57341725,0.45058012,0.57683957,1.3582662,-0.1967405,0.21982998,0.69597846,1.041275,0.084985875,-0.086896695,0.56917286,0.87950575,0.016800035,0.0046309754,0.7605818,0.29827246,0.017931502,-0.24756217,0.14972204,794.9817,809.0842,805.4579,795.78754,757.50916,-0.28607177734375,0.02947998046875,0.9473876953125,2.10845947265625,-3.357086181640625,0.620574951171875,1.0,2.0,1.0,1.0,2.0,80.0,event
15:36:14.058,1.9005222,0.57341725,0.45058012,0.57683957,1.3582662,-0.1967405,0.21982998,0.69597846,1.041275,0.084985875,-0.086896695,0.56917286,0.87950575,0.016800035,0.0046309754,0.7605818,0.29827246,0.017931502,-0.24756217,0.14972204,796.5934,806.26373,809.4872,790.14655,750.65936,-0.28607177734375,0.02947998046875,0.9473876953125,2.10845947265625,-3.357086181640625,0.620574951171875,1.0,2.0,1.0,1.0,2.0,80.0,event
15:36:14.059,1.9005222,0.57341725,0.45058012,0.57683957,1.3582662,-0.1967405,0.21982998,0.69597846,1.041275,0.084985875,-0.086896695,0.56917286,0.87950575,0.016800035,0.0046309754,0.7605818,0.29827246,0.017931502,-0.24756217,0.14972204,783.69965,807.0696,813.91943,792.5641,687.8022,-0.28607177734375,0.02947998046875,0.9473876953125,2.10845947265625,-3.357086181640625,0.620574951171875,1.0,2.0,1.0,1.0,2.0,80.0,event
15:36:14.059,1.9005222,0.57341725,0.45058012,0.57683957,1.3582662,-0.1967405,0.21982998,0.69597846,1.041275,0.084985875,-0.086896695,0.56917286,0.87950575,0.016800035,0.0046309754,0.7605818,0.29827246,0.017931502,-0.24756217,0.14972204,798.60803,806.26373,812.3077,793.36993,701.0989,-0.28607177734375,0.02947998046875,0.9473876953125,2.10845947265625,-3.357086181640625,0.620574951171875,1.0,2.0,1.0,1.0,2.0,80.0,event
15:36:14.060,1.9005222,0.57341725,0.45058012,0.57683957,1.3582662,-0.1967405,0.21982998,0.69597846,1.041275,0.084985875,-0.086896695,0.56917286,0.87950575,0.016800035,0.0046309754,0.7605818,0.29827246,0.017931502,-0.24756217,0.14972204,780.87915,806.26373,811.9048,787.326,755.89746,-0.28607177734375,0.02947998046875,0.9473876953125,2.10845947265625,-3.357086181640625,0.620574951171875,1.0,2.0,1.0,1.0,2.0,80.0,event
15:36:14.061,1.9005222,0.57341725,0.45058012,0.57683957,1.3582662,-0.1967405,0.21982998,0.69597846,1.041275,0.084985875,-0.086896695,0.56917286,0.87950575,0.016800035,0.0046309754,0.7605818,0.29827246,0.017931502,-0.24756217,0.14972204,786.1172,804.2491,814.3223,796.1905,867.9121,-0.28607177734375,0.02947998046875,0.9473876953125,2.10845947265625,-3.357086181640625,0.620574951171875,1.0,2.0,1.0,1.0,2.0,80.0,event
15:36:14.061,1.9005222,0.57341725,0.45058012,0.57683957,1.3582662,-0.1967405,0.21982998,0.69597846,1.041275,0.084985875,-0.086896695,0.56917286,0.87950575,0.016800035,0.0046309754,0.7605818,0.29827246,0.017931502,-0.24756217,0.14972204,788.93774,807.47253,815.5311,803.0403,790.14655,-0.28607177734375,0.02947998046875,0.9473876953125,2.10845947265625,-3.357086181640625,0.620574951171875,1.0,2.0,1.0,1.0,2.0,80.0,event
15:36:14.062,1.9005222,0.57341725,0.45058012,0.57683957,1.3582662,-0.1967405,0.21982998,0.69597846,1.041275,0.084985875,-0.086896695,0.56917286,0.87950575,0.016800035,0.0046309754,0.7605818,0.29827246,0.017931502,-0.24756217,0.14972204,794.57874,808.2784,812.3077,786.1172,691.8315,-0.28607177734375,0.02947998046875,0.9473876953125,2.10845947265625,-3.357086181640625,0.620574951171875,1.0,2.0,1.0,1.0,2.0,80.0,event
15:36:14.063,1.9005222,0.57341725,0.45058012,0.57683957,1.3582662,-0.1967405,0.21982998,0.69597846,1.041275,0.084985875,-0.086896695,0.56917286,0.87950575,0.016800035,0.0046309754,0.7605818,0.29827246,0.017931502,-0.24756217,0.14972204,787.72894,805.05493,808.2784,781.28204,787.326,-0.28607177734375,0.02947998046875,0.9473876953125,2.10845947265625,-3.357086181640625,0.620574951171875,1.0,2.0,1.0,1.0,2.0,80.0,event
15:36:14.064,1.9005222,0.57341725,0.45058012,0.57683957,1.3582662,-0.1967405,0.21982998,0.69597846,1.041275,0.084985875,-0.086896695,0.56917286,0.87950575,0.016800035,0.0046309754,0.7605818,0.29827246,0.017931502,-0.24756217,0.14972204,791.3553,803.44324,805.05493,782.8938,756.7033,-0.28607177734375,0.02947998046875,0.9473876953125,2.10845947265625,-3.357086181640625,0.620574951171875,1.0,2.0,1.0,1.0,2.0,80.0,event
15:36:14.064,1.9005222,0.57341725,0.45058012,0.57683957,1.3582662,-0.1967405,0.21982998,0.69597846,1.041275,0.084985875,-0.086896695,0.56917286,0.87950575,0.016800035,0.0046309754,0.7605818,0.29827246,0.017931502,-0.24756217,0.14972204,786.1172,806.26373,803.0403,780.4762,660.80585,-0.28607177734375,0.02947998046875,0.9473876953125,2.10845947265625,-3.357086181640625,0.620574951171875,1.0,2.0,1.0,1.0,2.0,80.0,event
15:36:14.065,1.9005222,0.57341725,0.45058012,0.57683957,1.3582662,-0.1967405,0.21982998,0.69597846,1.041275,0.084985875,-0.086896695,0.56917286,0.87950575,0.016800035,0.0046309754,0.7605818,0.29827246,0.017931502,-0.24756217,0.14972204,777.25275,808.68134,807.0696,780.4762,722.8571,-0.28607177734375,0.02947998046875,0.9473876953125,2.10845947265625,-3.357086181640625,0.620574951171875,1.0,2.0,1.0,1.0,2.0,80.0,event
15:36:14.103,1.9005222,0.57341725,0.45058012,0.57683957,1.3582662,-0.1967405,0.21982998,0.69597846,1.041275,0.084985875,-0.086896695,0.56917286,0.87950575,0.016800035,0.0046309754,0.7605818,0.29827246,0.017931502,-0.24756217,0.14972204,779.67035,809.89014,812.71063,789.34064,947.6923,-0.28607177734375,0.02947998046875,0.9473876953125,2.10845947265625,-3.357086181640625,0.620574951171875,1.0,2.0,1.0,1.0,2.0,80.0,event
15:36:14.104,1.9005222,0.57341725,0.45058012,0.57683957,1.3582662,-0.1967405,0.21982998,0.69597846,1.041275,0.084985875,-0.086896695,0.56917286,0.87950575,0.016800035,0.0046309754,0.7605818,0.29827246,0.017931502,-0.24756217,0.14972204,784.90845,809.0842,805.4579,797.8022,880.80585,-0.28607177734375,0.02947998046875,0.9473876953125,2.10845947265625,-3.357086181640625,0.620574951171875,1.0,2.0,1.0,1.0,2.0,80.0,event
15:36:14.105,1.9005222,0.57341725,0.45058012,0.57683957,1.3582662,-0.1967405,0.21982998,0.69597846,1.041275,0.084985875,-0.086896695,0.56917286,0.87950575,0.016800035,0.0046309754,0.7605818,0.29827246,0.017931502,-0.24756217,0.14972204,783.69965,806.26373,803.0403,796.5934,660.40295,-0.28607177734375,0.02947998046875,0.9473876953125,2.10845947265625,-3.357086181640625,0.620574951171875,1.0,2.0,1.0,1.0,2.0,80.0,event
15:36:14.106,1.9005222,0.57341725,0.45058012,0.57683957,1.3582662,-0.1967405,0.21982998,0.69597846,1.041275,0.084985875,-0.086896695,0.56917286,0.87950575,0.016800035,0.0046309754,0.7605818,0.29827246,0.017931502,-0.24756217,0.14972204,785.31134,804.2491,805.4579,795.38464,717.619,-0.28607177734375,0.02947998046875,0.9473876953125,2.10845947265625,-3.357086181640625,0.620574951171875,1.0,2.0,1.0,1.0,2.0,80.0,event
15:36:14.107,1.9005222,0.57341725,0.45058012,0.57683957,1.3582662,-0.1967405,0.21982998,0.69597846,1.041275,0.084985875,-0.086896695,0.56917286,0.87950575,0.016800035,0.0046309754,0.7605818,0.29827246,0.017931502,-0.24756217,0.14972204,790.54944,807.47253,810.696,798.60803,750.2564,-0.28607177734375,0.02947998046875,0.9473876953125,2.10845947265625,-3.357086181640625,0.620574951171875,1.0,2.0,1.0,1.0,2.0,80.0,event
15:36:14.108,1.9005222,0.57341725,0.45058012,0.57683957,1.3582662,-0.1967405,0.21982998,0.69597846,1.041275,0.084985875,-0.086896695,0.56917286,0.87950575,0.016800035,0.0046309754,0.7605818,0.29827246,0.017931502,-0.24756217,0.14972204,787.72894,811.0989,814.7253,803.44324,759.5238,-0.28607177734375,0.02947998046875,0.9473876953125,2.10845947265625,-3.357086181640625,0.620574951171875,1.0,2.0,1.0,1.0,2.0,80.0,event
15:36:14.108,1.9005222,0.57341725,0.45058012,0.57683957,1.3582662,-0.1967405,0.21982998,0.69597846,1.041275,0.084985875,-0.086896695,0.56917286,0.87950575,0.016800035,0.0046309754,0.7605818,0.29827246,0.017931502,-0.24756217,0.14972204,785.31134,803.0403,807.0696,802.6374,788.1319,-0.28607177734375,0.02947998046875,0.9473876953125,2.10845947265625,-3.357086181640625,0.620574951171875,1.0,2.0,1.0,1.0,2.0,80.0,event
15:36:14.109,1.9005222,0.57341725,0.45058012,0.57683957,1.3582662,-0.1967405,0.21982998,0.69597846,1.041275,0.084985875,-0.086896695,0.56917286,0.87950575,0.016800035,0.0046309754,0.7605818,0.29827246,0.017931502,-0.24756217,0.14972204,774.83514,799.011,804.2491,795.38464,816.7399,-0.28607177734375,0.02947998046875,0.9473876953125,2.10845947265625,-3.357086181640625,0.620574951171875,1.0,2.0,1.0,1.0,2.0,80.0,event
15:36:14.110,1.9005222,0.57341725,0.45058012,0.57683957,1.3582662,-0.1967405,0.21982998,0.69597846,1.041275,0.084985875,-0.086896695,0.56917286,0.87950575,0.016800035,0.0046309754,0.7605818,0.29827246,0.017931502,-0.24756217,0.14972204,778.86444,803.8461,803.8461,802.6374,1022.23444,-0.28607177734375,0.02947998046875,0.9473876953125,2.10845947265625,-3.357086181640625,0.620574951171875,1.0,2.0,1.0,1.0,2.0,80.0,event
15:36:14.111,1.9005222,0.5493804,0.44932398,0.57683957,1.3582662,-0.1843669,0.22202416,0.69597846,1.041275,0.09219565,-0.083992384,0.56917286,0.87950575,0.016715938,-0.011360115,0.7605818,0.29827246,0.009238646,-0.24740341,0.14972204,786.9231,803.0403,804.2491,793.36993,929.5604,-0.28607177734375,0.02947998046875,0.9473876953125,2.10845947265625,-3.357086181640625,0.620574951171875,1.0,2.0,1.0,1.0,2.0,80.0,event
15:36:14.115,1.9005222,0.5493804,0.44932398,0.57683957,1.3582662,-0.1843669,0.22202416,0.69597846,1.041275,0.09219565,-0.083992384,0.56917286,0.87950575,0.016715938,-0.011360115,0.7605818,0.29827246,0.009238646,-0.24740341,0.14972204,782.0879,801.4286,812.71063,773.6264,659.19415,-0.28607177734375,0.02947998046875,0.9473876953125,2.10845947265625,-3.357086181640625,0.620574951171875,1.0,2.0,1.0,1.0,2.0,80.0,event
15:36:14.115,1.9005222,0.5493804,0.44932398,0.57683957,1.3582662,-0.1843669,0.22202416,0.69597846,1.041275,0.09219565,-0.083992384,0.56917286,0.87950575,0.016715938,-0.011360115,0.7605818,0.29827246,0.009238646,-0.24740341,0.14972204,783.69965,804.65204,820.3663,778.86444,740.58606,-0.28607177734375,0.02947998046875,0.9473876953125,2.10845947265625,-3.357086181640625,0.620574951171875,1.0,2.0,1.0,1.0,2.0,80.0,event
15:36:14.138,1.9005222,0.5493804,0.44932398,0.57683957,1.3582662,-0.1843669,0.22202416,0.69597846,1.041275,0.09219565,-0.083992384,0.56917286,0.87950575,0.016715938,-0.011360115,0.7605818,0.29827246,0.009238646,-0.24740341,0.14972204,785.7143,807.8755,815.9341,780.4762,787.326,-0.286376953125,0.03173828125,0.94561767578125,2.160797119140625,-3.401947021484375,1.024322509765625,1.0,2.0,1.0,1.0,2.0,80.0,event
15:36:14.139,1.9005222,0.5493804,0.44932398,0.57683957,1.3582662,-0.1843669,0.22202416,0.69597846,1.041275,0.09219565,-0.083992384,0.56917286,0.87950575,0.016715938,-0.011360115,0.7605818,0.29827246,0.009238646,-0.24740341,0.14972204,779.67035,808.2784,808.68134,786.1172,667.6557,-0.286376953125,0.03173828125,0.94561767578125,2.160797119140625,-3.401947021484375,1.024322509765625,1.0,2.0,1.0,1.0,2.0,80.0,event
15:36:14.140,1.9005222,0.5493804,0.44932398,0.57683957,1.3582662,-0.1843669,0.22202416,0.69597846,1.041275,0.09219565,-0.083992384,0.56917286,0.87950575,0.016715938,-0.011360115,0.7605818,0.29827246,0.009238646,-0.24740341,0.14972204,781.28204,804.65204,805.05493,791.3553,666.4469,-0.286376953125,0.03173828125,0.94561767578125,2.160797119140625,-3.401947021484375,1.024322509765625,1.0,2.0,1.0,1.0,2.0,80.0,event
15:36:14.142,1.9005222,0.5493804,0.44932398,0.57683957,1.3582662,-0.1843669,0.22202416,0.69597846,1.041275,0.09219565,-0.083992384,0.56917286,0.87950575,0.016715938,-0.011360115,0.7605818,0.29827246,0.009238646,-0.24740341,0.14972204,788.93774,801.4286,806.6667,786.1172,722.0513,-0.286376953125,0.03173828125,0.94561767578125,2.160797119140625,-3.401947021484375,1.024322509765625,1.0,2.0,1.0,1.0,2.0,80.0,event
15:36:14.143,1.9005222,0.5493804,0.44932398,0.57683957,1.3582662,-0.1843669,0.22202416,0.69597846,1.041275,0.09219565,-0.083992384,0.56917286,0.87950575,0.016715938,-0.011360115,0.7605818,0.29827246,0.009238646,-0.24740341,0.14972204,786.52014,804.2491,803.0403,793.36993,734.5421,-0.286376953125,0.03173828125,0.94561767578125,2.160797119140625,-3.401947021484375,1.024322509765625,1.0,2.0,1.0,1.0,2.0,80.0,event
15:36:14.143,1.9005222,0.5493804,0.44932398,0.57683957,1.3582662,-0.1843669,0.22202416,0.69597846,1.041275,0.09219565,-0.083992384,0.56917286,0.87950575,0.016715938,-0.011360115,0.7605818,0.29827246,0.009238646,-0.24740341,0.14972204,779.2674,806.26373,801.4286,795.38464,832.4542,-0.286376953125,0.03173828125,0.94561767578125,2.160797119140625,-3.401947021484375,1.024322509765625,1.0,2.0,1.0,1.0,2.0,80.0,event
15:36:14.144,1.9005222,0.5493804,0.44932398,0.57683957,1.3582662,-0.1843669,0.22202416,0.69597846,1.041275,0.09219565,-0.083992384,0.56917286,0.87950575,0.016715938,-0.011360115,0.7605818,0.29827246,0.009238646,-0.24740341,0.14972204,788.93774,808.2784,805.4579,786.9231,858.6447,-0.286376953125,0.03173828125,0.94561767578125,2.160797119140625,-3.401947021484375,1.024322509765625,1.0,2.0,1.0,1.0,2.0,80.0,event
15:36:14.145,1.9005222,0.5493804,0.44932398,0.57683957,1.3582662,-0.1843669,0.22202416,0.69597846,1.041275,0.09219565,-0.083992384,0.56917286,0.87950575,0.016715938,-0.011360115,0.7605818,0.29827246,0.009238646,-0.24740341,0.14972204,796.99634,808.68134,806.26373,790.9524,944.0659,-0.286376953125,0.03173828125,0.94561767578125,2.160797119140625,-3.401947021484375,1.024322509765625,1.0,2.0,1.0,1.0,2.0,80.0,event
15:36:14.145,1.9005222,0.5493804,0.44932398,0.57683957,1.3582662,-0.1843669,0.22202416,0.69597846,1.041275,0.09219565,-0.083992384,0.56917286,0.87950575,0.016715938,-0.011360115,0.7605818,0.29827246,0.009238646,-0.24740341,0.14972204,786.1172,812.3077,812.71063,787.326,1228.9377,-0.286376953125,0.03173828125,0.94561767578125,2.160797119140625,-3.401947021484375,1.024322509765625,1.0,2.0,1.0,1.0,2.0,80.0,event
15:36:14.146,1.9005222,0.5493804,0.44932398,0.57683957,1.3582662,-0.1843669,0.22202416,0.69597846,1.041275,0.09219565,-0.083992384,0.56917286,0.87950575,0.016715938,-0.011360115,0.7605818,0.29827246,0.009238646,-0.24740341,0.14972204,778.86444,813.91943,807.0696,768.3883,881.2088,-0.286376953125,0.03173828125,0.94561767578125,2.160797119140625,-3.401947021484375,1.024322509765625,1.0,2.0,1.0,1.0,2.0,80.0,event
15:36:14.146,1.9005222,0.5493804,0.44932398,0.57683957,1.3582662,-0.1843669,0.22202416,0.69597846,1.041275,0.09219565,-0.083992384,0.56917286,0.87950575,0.016715938,-0.011360115,0.7605818,0.29827246,0.009238646,-0.24740341,0.14972204,779.67035,809.0842,807.47253,769.19415,697.8755,-0.286376953125,0.03173828125,0.94561767578125,2.160797119140625,-3.401947021484375,1.024322509765625,1.0,2.0,1.0,1.0,2.0,80.0,event
15:36:14.147,1.9005222,0.5493804,0.44932398,0.57683957,1.3582662,-0.1843669,0.22202416,0.69597846,1.041275,0.09219565,-0.083992384,0.56917286,0.87950575,0.016715938,-0.011360115,0.7605818,0.29827246,0.009238646,-0.24740341,0.14972204,782.8938,803.44324,810.293,778.46155,823.5897,-0.286376953125,0.03173828125,0.94561767578125,2.160797119140625,-3.401947021484375,1.024322509765625,1.0,2.0,1.0,1.0,2.0,80.0,event
15:36:14.172,1.9005222,0.5493804,0.44932398,0.57683957,1.3582662,-0.1843669,0.22202416,0.69597846,1.041275,0.09219565,-0.083992384,0.56917286,0.87950575,0.016715938,-0.011360115,0.7605818,0.29827246,0.009238646,-0.24740341,0.14972204,782.8938,810.293,804.2491,782.8938,708.3516,-0.2889404296875,0.02740478515625,0.9427490234375,2.056121826171875,-2.9010009765625,0.620574951171875,1.0,2.0,1.0,1.0,2.0,80.0,event
15:36:14.173,1.9005222,0.5493804,0.44932398,0.57683957,1.3582662,-0.1843669,0.22202416,0.69597846,1.041275,0.09219565,-0.083992384,0.56917286,0.87950575,0.016715938,-0.011360115,0.7605818,0.29827246,0.009238646,-0.24740341,0.14972204,771.2088,797.8022,811.50183,787.72894,718.022,-0.2889404296875,0.02740478515625,0.9427490234375,2.056121826171875,-2.9010009765625,0.620574951171875,1.0,2.0,1.0,1.0,2.0,80.0,event
15:36:14.173,1.9005222,0.5493804,0.44932398,0.57683957,1.3582662,-0.1843669,0.22202416,0.69597846,1.041275,0.09219565,-0.083992384,0.56917286,0.87950575,0.016715938,-0.011360115,0.7605818,0.29827246,0.009238646,-0.24740341,0.14972204,778.46155,809.4872,809.0842,782.8938,634.21246,-0.2889404296875,0.02740478515625,0.9427490234375,2.056121826171875,-2.9010009765625,0.620574951171875,1.0,2.0,1.0,1.0,2.0,80.0,event
15:36:14.174,1.9005222,0.5493804,0.44932398,0.57683957,1.3582662,-0.1843669,0.22202416,0.69597846,1.041275,0.09219565,-0.083992384,0.56917286,0.87950575,0.016715938,-0.011360115,0.7605818,0.29827246,0.009238646,-0.24740341,0.14972204,787.326,799.41394,808.2784,795.38464,808.68134,-0.2889404296875,0.02740478515625,0.9427490234375,2.056121826171875,-2.9010009765625,0.620574951171875,1.0,2.0,1.0,1.0,2.0,80.0,event
15:36:14.174,1.9005222,0.5493804,0.44932398,0.57683957,1.3582662,-0.1843669,0.22202416,0.69597846,1.041275,0.09219565,-0.083992384,0.56917286,0.87950575,0.016715938,-0.011360115,0.7605818,0.29827246,0.009238646,-0.24740341,0.14972204,795.78754,799.41394,806.26373,790.54944,746.2271,-0.2889404296875,0.02740478515625,0.9427490234375,2.056121826171875,-2.9010009765625,0.620574951171875,1.0,2.0,1.0,1.0,2.0,80.0,event
15:36:14.175,1.9005222,0.5493804,0.44932398,0.57683957,1.3582662,-0.1843669,0.22202416,0.69597846,1.041275,0.09219565,-0.083992384,0.56917286,0.87950575,0.016715938,-0.011360115,0.7605818,0.29827246,0.009238646,-0.24740341,0.14972204,779.67035,796.5934,810.293,792.1612,750.2564,-0.2889404296875,0.02740478515625,0.9427490234375,2.056121826171875,-2.9010009765625,0.620574951171875,1.0,2.0,1.0,1.0,2.0,80.0,event
15:36:14.176,1.9005222,0.5493804,0.44932398,0.57683957,1.3582662,-0.1843669,0.22202416,0.69597846,1.041275,0.09219565,-0.083992384,0.56917286,0.87950575,0.016715938,-0.011360115,0.7605818,0.29827246,0.009238646,-0.24740341,0.14972204,781.28204,800.6227,811.0989,801.02563,928.7546,-0.2889404296875,0.02740478515625,0.9427490234375,2.056121826171875,-2.9010009765625,0.620574951171875,1.0,2.0,1.0,1.0,2.0,80.0,event
15:36:14.176,1.9005222,0.5493804,0.44932398,0.57683957,1.3582662,-0.1843669,0.22202416,0.69597846,1.041275,0.09219565,-0.083992384,0.56917286,0.87950575,0.016715938,-0.011360115,0.7605818,0.29827246,0.009238646,-0.24740341,0.14972204,795.78754,808.2784,810.696,802.6374,1025.0549,-0.2889404296875,0.02740478515625,0.9427490234375,2.056121826171875,-2.9010009765625,0.620574951171875,1.0,2.0,1.0,1.0,2.0,80.0,event
15:36:14.177,1.9005222,0.5493804,0.44932398,0.57683957,1.3582662,-0.1843669,0.22202416,0.69597846,1.041275,0.09219565,-0.083992384,0.56917286,0.87950575,0.016715938,-0.011360115,0.7605818,0.29827246,0.009238646,-0.24740341,0.14972204,782.0879,803.44324,813.1135,797.3993,788.1319,-0.2889404296875,0.02740478515625,0.9427490234375,2.056121826171875,-2.9010009765625,0.620574951171875,1.0,2.0,1.0,1.0,2.0,80.0,event
15:36:14.177,1.9005222,0.5493804,0.44932398,0.57683957,1.3582662,-0.1843669,0.22202416,0.69597846,1.041275,0.09219565,-0.083992384,0.56917286,0.87950575,0.016715938,-0.011360115,0.7605818,0.29827246,0.009238646,-0.24740341,0.14972204,778.86444,797.3993,811.0989,782.0879,670.4762,-0.2889404296875,0.02740478515625,0.9427490234375,2.056121826171875,-2.9010009765625,0.620574951171875,1.0,2.0,1.0,1.0,2.0,80.0,event
15:36:14.178,1.9005222,0.5493804,0.44932398,0.57683957,1.3582662,-0.1843669,0.22202416,0.69597846,1.041275,0.09219565,-0.083992384,0.56917286,0.87950575,0.016715938,-0.011360115,0.7605818,0.29827246,0.009238646,-0.24740341,0.14972204,785.7143,798.60803,808.2784,787.72894,860.65936,-0.2889404296875,0.02740478515625,0.9427490234375,2.056121826171875,-2.9010009765625,0.620574951171875,1.0,2.0,1.0,1.0,2.0,80.0,event
15:36:14.178,1.9005222,0.5164811,0.45040363,0.57683957,1.3582662,-0.17441747,0.22417535,0.69597846,1.041275,0.099764876,-0.047695756,0.56917286,0.87950575,0.018567786,-0.019015344,0.7605818,0.29827246,0.0017757675,-0.24902353,0.14972204,790.14655,802.6374,809.0842,796.1905,1052.0513,-0.2889404296875,0.02740478515625,0.9427490234375,2.056121826171875,-2.9010009765625,0.620574951171875,1.0,2.0,1.0,1.0,2.0,80.0,event
15:36:14.203,1.9005222,0.5164811,0.45040363,0.57683957,1.3582662,-0.17441747,0.22417535,0.69597846,1.041275,0.099764876,-0.047695756,0.56917286,0.87950575,0.018567786,-0.019015344,0.7605818,0.29827246,0.0017757675,-0.24902353,0.14972204,792.5641,805.05493,806.26373,787.326,787.72894,-0.28399658203125,0.0294189453125,0.94403076171875,2.67669677734375,-2.37762451171875,0.994415283203125,1.0,2.0,1.0,1.0,2.0,80.0,event
15:36:14.204,1.9005222,0.5164811,0.45040363,0.57683957,1.3582662,-0.17441747,0.22417535,0.69597846,1.041275,0.099764876,-0.047695756,0.56917286,0.87950575,0.018567786,-0.019015344,0.7605818,0.29827246,0.0017757675,-0.24902353,0.14972204,789.34064,801.02563,805.05493,773.6264,607.2161,-0.28399658203125,0.0294189453125,0.94403076171875,2.67669677734375,-2.37762451171875,0.994415283203125,1.0,2.0,1.0,1.0,2.0,80.0,event
15:36:14.205,1.9005222,0.5164811,0.45040363,0.57683957,1.3582662,-0.17441747,0.22417535,0.69597846,1.041275,0.099764876,-0.047695756,0.56917286,0.87950575,0.018567786,-0.019015344,0.7605818,0.29827246,0.0017757675,-0.24902353,0.14972204,789.7436,799.41394,806.26373,776.8498,769.59705,-0.28399658203125,0.0294189453125,0.94403076171875,2.67669677734375,-2.37762451171875,0.994415283203125,1.0,2.0,1.0,1.0,2.0,80.0,event
15:36:14.205,1.9005222,0.5164811,0.45040363,0.57683957,1.3582662,-0.17441747,0.22417535,0.69597846,1.041275,0.099764876,-0.047695756,0.56917286,0.87950575,0.018567786,-0.019015344,0.7605818,0.29827246,0.0017757675,-0.24902353,0.14972204,795.78754,798.20514,803.44324,788.1319,873.5531,-0.28399658203125,0.0294189453125,0.94403076171875,2.67669677734375,-2.37762451171875,0.994415283203125,1.0,2.0,1.0,1.0,2.0,80.0,event
15:36:14.206,1.9005222,0.5164811,0.45040363,0.57683957,1.3582662,-0.17441747,0.22417535,0.69597846,1.041275,0.099764876,-0.047695756,0.56917286,0.87950575,0.018567786,-0.019015344,0.7605818,0.29827246,0.0017757675,-0.24902353,0.14972204,792.1612,800.6227,801.4286,785.7143,702.71063,-0.28399658203125,0.0294189453125,0.94403076171875,2.67669677734375,-2.37762451171875,0.994415283203125,1.0,2.0,1.0,1.0,2.0,80.0,event
15:36:14.206,1.9005222,0.5164811,0.45040363,0.57683957,1.3582662,-0.17441747,0.22417535,0.69597846,1.041275,0.099764876,-0.047695756,0.56917286,0.87950575,0.018567786,-0.019015344,0.7605818,0.29827246,0.0017757675,-0.24902353,0.14972204,793.7729,804.2491,803.0403,784.10254,635.42126,-0.28399658203125,0.0294189453125,0.94403076171875,2.67669677734375,-2.37762451171875,0.994415283203125,1.0,2.0,1.0,1.0,2.0,80.0,event
15:36:14.207,1.9005222,0.5164811,0.45040363,0.57683957,1.3582662,-0.17441747,0.22417535,0.69597846,1.041275,0.099764876,-0.047695756,0.56917286,0.87950575,0.018567786,-0.019015344,0.7605818,0.29827246,0.0017757675,-0.24902353,0.14972204,802.6374,807.47253,801.8315,785.7143,912.23444,-0.28399658203125,0.0294189453125,0.94403076171875,2.67669677734375,-2.37762451171875,0.994415283203125,1.0,2.0,1.0,1.0,2.0,80.0,event
15:36:14.207,1.9005222,0.5164811,0.45040363,0.57683957,1.3582662,-0.17441747,0.22417535,0.69597846,1.041275,0.099764876,-0.047695756,0.56917286,0.87950575,0.018567786,-0.019015344,0.7605818,0.29827246,0.0017757675,-0.24902353,0.14972204,798.20514,809.0842,799.81683,795.38464,1092.7472,-0.28399658203125,0.0294189453125,0.94403076171875,2.67669677734375,-2.37762451171875,0.994415283203125,1.0,2.0,1.0,1.0,2.0,80.0,event
15:36:14.208,1.9005222,0.5164811,0.45040363,0.57683957,1.3582662,-0.17441747,0.22417535,0.69597846,1.041275,0.099764876,-0.047695756,0.56917286,0.87950575,0.018567786,-0.019015344,0.7605818,0.29827246,0.0017757675,-0.24902353,0.14972204,796.99634,805.05493,798.20514,798.60803,780.07324,-0.28399658203125,0.0294189453125,0.94403076171875,2.67669677734375,-2.37762451171875,0.994415283203125,1.0,2.0,1.0,1.0,2.0,80.0,event
15:36:14.208,1.9005222,0.5164811,0.45040363,0.57683957,1.3582662,-0.17441747,0.22417535,0.69597846,1.041275,0.099764876,-0.047695756,0.56917286,0.87950575,0.018567786,-0.019015344,0.7605818,0.29827246,0.0017757675,-0.24902353,0.14972204,794.9817,804.65204,801.4286,791.75824,654.7619,-0.28399658203125,0.0294189453125,0.94403076171875,2.67669677734375,-2.37762451171875,0.994415283203125,1.0,2.0,1.0,1.0,2.0,80.0,event
15:36:14.209,1.9005222,0.5164811,0.45040363,0.57683957,1.3582662,-0.17441747,0.22417535,0.69597846,1.041275,0.099764876,-0.047695756,0.56917286,0.87950575,0.018567786,-0.019015344,0.7605818,0.29827246,0.0017757675,-0.24902353,0.14972204,790.14655,803.0403,803.44324,784.90845,726.4835,-0.28399658203125,0.0294189453125,0.94403076171875,2.67669677734375,-2.37762451171875,0.994415283203125,1.0,2.0,1.0,1.0,2.0,80.0,event
15:36:14.209,1.9005222,0.5164811,0.45040363,0.57683957,1.3582662,-0.17441747,0.22417535,0.69597846,1.041275,0.099764876,-0.047695756,0.56917286,0.87950575,0.018567786,-0.019015344,0.7605818,0.29827246,0.0017757675,-0.24902353,0.14972204,786.9231,801.8315,803.0403,793.36993,723.663,-0.28399658203125,0.0294189453125,0.94403076171875,2.67669677734375,-2.37762451171875,0.994415283203125,1.0,2.0,1.0,1.0,2.0,80.0,event
15:36:14.277,1.9005222,0.5164811,0.45040363,0.57683957,1.3582662,-0.17441747,0.22417535,0.69597846,1.041275,0.099764876,-0.047695756,0.56917286,0.87950575,0.018567786,-0.019015344,0.7605818,0.29827246,0.0017757675,-0.24902353,0.14972204,785.7143,806.26373,803.0403,787.72894,697.0696,-0.28399658203125,0.0294189453125,0.94403076171875,2.67669677734375,-2.37762451171875,0.994415283203125,1.0,2.0,1.0,1.0,2.0,80.0,event
15:36:14.278,1.9005222,0.5164811,0.45040363,0.57683957,1.3582662,-0.17441747,0.22417535,0.69597846,1.041275,0.099764876,-0.047695756,0.56917286,0.87950575,0.018567786,-0.019015344,0.7605818,0.29827246,0.0017757675,-0.24902353,0.14972204,782.49084,811.50183,799.41394,774.43225,760.7326,-0.28399658203125,0.0294189453125,0.94403076171875,2.67669677734375,-2.37762451171875,0.994415283203125,1.0,2.0,1.0,1.0,2.0,80.0,event
15:36:14.278,1.9005222,0.5164811,0.45040363,0.57683957,1.3582662,-0.17441747,0.22417535,0.69597846,1.041275,0.099764876,-0.047695756,0.56917286,0.87950575,0.018567786,-0.019015344,0.7605818,0.29827246,0.0017757675,-0.24902353,0.14972204,786.52014,811.0989,803.8461,789.7436,963.00366,-0.28399658203125,0.0294189453125,0.94403076171875,2.67669677734375,-2.37762451171875,0.994415283203125,1.0,2.0,1.0,1.0,2.0,80.0,event
15:36:14.279,1.9005222,0.5164811,0.45040363,0.57683957,1.3582662,-0.17441747,0.22417535,0.69597846,1.041275,0.099764876,-0.047695756,0.56917286,0.87950575,0.018567786,-0.019015344,0.7605818,0.29827246,0.0017757675,-0.24902353,0.14972204,786.52014,805.8608,809.0842,789.34064,848.5714,-0.28399658203125,0.0294189453125,0.94403076171875,2.67669677734375,-2.37762451171875,0.994415283203125,1.0,2.0,1.0,1.0,2.0,80.0,event
15:36:14.280,1.9005222,0.5164811,0.45040363,0.57683957,1.3582662,-0.17441747,0.22417535,0.69597846,1.041275,0.099764876,-0.047695756,0.56917286,0.87950575,0.018567786,-0.019015344,0.7605818,0.29827246,0.0017757675,-0.24902353,0.14972204,776.8498,799.011,800.6227,776.04395,689.81683,-0.28399658203125,0.0294189453125,0.94403076171875,2.67669677734375,-2.37762451171875,0.994415283203125,1.0,2.0,1.0,1.0,2.0,80.0,event
15:36:14.281,1.9005222,0.5164811,0.45040363,0.57683957,1.3582662,-0.17441747,0.22417535,0.69597846,1.041275,0.099764876,-0.047695756,0.56917286,0.87950575,0.018567786,-0.019015344,0.7605818,0.29827246,0.0017757675,-0.24902353,0.14972204,779.2674,794.9817,798.20514,784.10254,816.7399,-0.28399658203125,0.0294189453125,0.94403076171875,2.67669677734375,-2.37762451171875,0.994415283203125,1.0,2.0,1.0,1.0,2.0,80.0,event
15:36:14.282,1.9005222,0.5164811,0.45040363,0.57683957,1.3582662,-0.17441747,0.22417535,0.69597846,1.041275,0.099764876,-0.047695756,0.56917286,0.87950575,0.018567786,-0.019015344,0.7605818,0.29827246,0.0017757675,-0.24902353,0.14972204,788.93774,796.99634,802.6374,796.1905,1129.011,-0.28399658203125,0.0294189453125,0.94403076171875,2.67669677734375,-2.37762451171875,0.994415283203125,1.0,2.0,1.0,1.0,2.0,80.0,event
15:36:14.283,1.9005222,0.5164811,0.45040363,0.57683957,1.3582662,-0.17441747,0.22417535,0.69597846,1.041275,0.099764876,-0.047695756,0.56917286,0.87950575,0.018567786,-0.019015344,0.7605818,0.29827246,0.0017757675,-0.24902353,0.14972204,787.326,796.99634,806.26373,796.99634,928.7546,-0.28399658203125,0.0294189453125,0.94403076171875,2.67669677734375,-2.37762451171875,0.994415283203125,1.0,2.0,1.0,1.0,2.0,80.0,event
15:36:14.284,1.9005222,0.5164811,0.45040363,0.57683957,1.3582662,-0.17441747,0.22417535,0.69597846,1.041275,0.099764876,-0.047695756,0.56917286,0.87950575,0.018567786,-0.019015344,0.7605818,0.29827246,0.0017757675,-0.24902353,0.14972204,782.0879,799.81683,809.4872,789.7436,580.2198,-0.28399658203125,0.0294189453125,0.94403076171875,2.67669677734375,-2.37762451171875,0.994415283203125,1.0,2.0,1.0,1.0,2.0,80.0,event
15:36:14.285,1.9005222,0.5164811,0.45040363,0.57683957,1.3582662,-0.17441747,0.22417535,0.69597846,1.041275,0.099764876,-0.047695756,0.56917286,0.87950575,0.018567786,-0.019015344,0.7605818,0.29827246,0.0017757675,-0.24902353,0.14972204,792.1612,803.44324,808.68134,792.96704,627.3626,-0.28399658203125,0.0294189453125,0.94403076171875,2.67669677734375,-2.37762451171875,0.994415283203125,1.0,2.0,1.0,1.0,2.0,80.0,event
15:36:14.286,1.9005222,0.5164811,0.45040363,0.57683957,1.3582662,-0.17441747,0.22417535,0.69597846,1.041275,0.099764876,-0.047695756,0.56917286,0.87950575,0.018567786,-0.019015344,0.7605818,0.29827246,0.0017757675,-0.24902353,0.14972204,786.9231,801.8315,803.44324,794.9817,674.10254,-0.28399658203125,0.0294189453125,0.94403076171875,2.67669677734375,-2.37762451171875,0.994415283203125,1.0,2.0,1.0,1.0,2.0,80.0,event
15:36:14.288,1.9005222,0.5164811,0.45040363,0.57683957,1.3582662,-0.17441747,0.22417535,0.69597846,1.041275,0.099764876,-0.047695756,0.56917286,0.87950575,0.018567786,-0.019015344,0.7605818,0.29827246,0.0017757675,-0.24902353,0.14972204,780.4762,799.011,800.2198,797.8022,649.5238,-0.28399658203125,0.0294189453125,0.94403076171875,2.67669677734375,-2.37762451171875,0.994415283203125,1.0,2.0,1.0,1.0,2.0,80.0,event
15:36:14.318,1.9005222,0.5164811,0.45040363,0.57683957,1.3582662,-0.17441747,0.22417535,0.69597846,1.041275,0.099764876,-0.047695756,0.56917286,0.87950575,0.018567786,-0.019015344,0.7605818,0.29827246,0.0017757675,-0.24902353,0.14972204,782.0879,799.011,797.3993,788.5348,688.60803,-0.28863525390625,0.03094482421875,0.9437255859375,1.921539306640625,-3.611297607421875,0.755157470703125,1.0,2.0,1.0,1.0,2.0,80.0,event
15:36:14.321,1.9005222,0.47322991,0.4538498,0.57683957,1.3582662,-0.17338845,0.22628167,0.69597846,1.041275,0.10574638,-0.029176185,0.56917286,0.87950575,0.016579837,-0.0151468925,0.7605818,0.29827246,-0.003904119,-0.25311676,0.14972204,784.5055,802.23444,800.2198,779.67035,775.2381,-0.28863525390625,0.03094482421875,0.9437255859375,1.921539306640625,-3.611297607421875,0.755157470703125,1.0,2.0,1.0,1.0,2.0,80.0,event
15:36:14.326,1.9005222,0.47322991,0.4538498,0.57683957,1.3582662,-0.17338845,0.22628167,0.69597846,1.041275,0.10574638,-0.029176185,0.56917286,0.87950575,0.016579837,-0.0151468925,0.7605818,0.29827246,-0.003904119,-0.25311676,0.14972204,785.31134,801.02563,805.05493,787.72894,764.7619,-0.28863525390625,0.03094482421875,0.9437255859375,1.921539306640625,-3.611297607421875,0.755157470703125,1.0,2.0,1.0,1.0,2.0,80.0,event
15:36:14.327,1.9005222,0.47322991,0.4538498,0.57683957,1.3582662,-0.17338845,0.22628167,0.69597846,1.041275,0.10574638,-0.029176185,0.56917286,0.87950575,0.016579837,-0.0151468925,0.7605818,0.29827246,-0.003904119,-0.25311676,0.14972204,786.1172,798.60803,805.8608,788.5348,703.1135,-0.28863525390625,0.03094482421875,0.9437255859375,1.921539306640625,-3.611297607421875,0.755157470703125,1.0,2.0,1.0,1.0,2.0,80.0,event
15:36:14.328,1.9005222,0.47322991,0.4538498,0.57683957,1.3582662,-0.17338845,0.22628167,0.69597846,1.041275,0.10574638,-0.029176185,0.56917286,0.87950575,0.016579837,-0.0151468925,0.7605818,0.29827246,-0.003904119,-0.25311676,0.14972204,788.1319,800.2198,812.71063,781.685,712.7839,-0.28863525390625,0.03094482421875,0.9437255859375,1.921539306640625,-3.611297607421875,0.755157470703125,1.0,2.0,1.0,1.0,2.0,80.0,event
15:36:14.329,1.9005222,0.47322991,0.4538498,0.57683957,1.3582662,-0.17338845,0.22628167,0.69597846,1.041275,0.10574638,-0.029176185,0.56917286,0.87950575,0.016579837,-0.0151468925,0.7605818,0.29827246,-0.003904119,-0.25311676,0.14972204,789.7436,796.5934,814.3223,798.20514,784.5055,-0.28863525390625,0.03094482421875,0.9437255859375,1.921539306640625,-3.611297607421875,0.755157470703125,1.0,2.0,1.0,1.0,2.0,80.0,event
15:36:14.330,1.9005222,0.47322991,0.4538498,0.57683957,1.3582662,-0.17338845,0.22628167,0.69597846,1.041275,0.10574638,-0.029176185,0.56917286,0.87950575,0.016579837,-0.0151468925,0.7605818,0.29827246,-0.003904119,-0.25311676,0.14972204,796.99634,796.5934,812.71063,805.4579,855.82416,-0.28863525390625,0.03094482421875,0.9437255859375,1.921539306640625,-3.611297607421875,0.755157470703125,1.0,2.0,1.0,1.0,2.0,80.0,event
15:36:14.331,1.9005222,0.47322991,0.4538498,0.57683957,1.3582662,-0.17338845,0.22628167,0.69597846,1.041275,0.10574638,-0.029176185,0.56917286,0.87950575,0.016579837,-0.0151468925,0.7605818,0.29827246,-0.003904119,-0.25311676,0.14972204,788.5348,797.8022,813.5165,793.7729,804.2491,-0.28863525390625,0.03094482421875,0.9437255859375,1.921539306640625,-3.611297607421875,0.755157470703125,1.0,2.0,1.0,1.0,2.0,80.0,event
15:36:14.331,1.9005222,0.47322991,0.4538498,0.57683957,1.3582662,-0.17338845,0.22628167,0.69597846,1.041275,0.10574638,-0.029176185,0.56917286,0.87950575,0.016579837,-0.0151468925,0.7605818,0.29827246,-0.003904119,-0.25311676,0.14972204,786.9231,795.78754,811.0989,793.36993,715.6044,-0.28863525390625,0.03094482421875,0.9437255859375,1.921539306640625,-3.611297607421875,0.755157470703125,1.0,2.0,1.0,1.0,2.0,80.0,event
15:36:14.332,1.9005222,0.47322991,0.4538498,0.57683957,1.3582662,-0.17338845,0.22628167,0.69597846,1.041275,0.10574638,-0.029176185,0.56917286,0.87950575,0.016579837,-0.0151468925,0.7605818,0.29827246,-0.003904119,-0.25311676,0.14972204,797.3993,798.20514,810.696,797.3993,932.7839,-0.28863525390625,0.03094482421875,0.9437255859375,1.921539306640625,-3.611297607421875,0.755157470703125,1.0,2.0,1.0,1.0,2.0,80.0,event
15:36:14.332,1.9005222,0.47322991,0.4538498,0.57683957,1.3582662,-0.17338845,0.22628167,0.69597846,1.041275,0.10574638,-0.029176185,0.56917286,0.87950575,0.016579837,-0.0151468925,0.7605818,0.29827246,-0.003904119,-0.25311676,0.14972204,790.14655,802.6374,809.4872,796.1905,1095.9707,-0.28863525390625,0.03094482421875,0.9437255859375,1.921539306640625,-3.611297607421875,0.755157470703125,1.0,2.0,1.0,1.0,2.0,80.0,event
15:36:14.333,1.9005222,0.47322991,0.4538498,0.57683957,1.3582662,-0.17338845,0.22628167,0.69597846,1.041275,0.10574638,-0.029176185,0.56917286,0.87950575,0.016579837,-0.0151468925,0.7605818,0.29827246,-0.003904119,-0.25311676,0.14972204,786.1172,802.23444,810.696,783.69965,828.022,-0.28863525390625,0.03094482421875,0.9437255859375,1.921539306640625,-3.611297607421875,0.755157470703125,1.0,2.0,1.0,1.0,2.0,80.0,event
15:36:14.373,1.9005222,0.47322991,0.4538498,0.57683957,1.3582662,-0.17338845,0.22628167,0.69597846,1.041275,0.10574638,-0.029176185,0.56917286,0.87950575,0.016579837,-0.0151468925,0.7605818,0.29827246,-0.003904119,-0.25311676,0.14972204,789.34064,802.23444,814.7253,787.72894,736.55676,-0.28472900390625,0.02880859375,0.950927734375,1.734619140625,-3.656158447265625,0.157012939453125,1.0,2.0,1.0,1.0,2.0,80.0,event
15:36:14.374,1.9005222,0.47322991,0.4538498,0.57683957,1.3582662,-0.17338845,0.22628167,0.69597846,1.041275,0.10574638,-0.029176185,0.56917286,0.87950575,0.016579837,-0.0151468925,0.7605818,0.29827246,-0.003904119,-0.25311676,0.14972204,792.1612,804.2491,815.12823,799.41394,833.2601,-0.28472900390625,0.02880859375,0.950927734375,1.734619140625,-3.656158447265625,0.157012939453125,1.0,2.0,1.0,1.0,2.0,80.0,event
15:36:14.375,1.9005222,0.47322991,0.4538498,0.57683957,1.3582662,-0.17338845,0.22628167,0.69597846,1.041275,0.10574638,-0.029176185,0.56917286,0.87950575,0.016579837,-0.0151468925,0.7605818,0.29827246,-0.003904119,-0.25311676,0.14972204,790.54944,807.0696,810.696,794.9817,825.2015,-0.28472900390625,0.02880859375,0.950927734375,1.734619140625,-3.656158447265625,0.157012939453125,1.0,2.0,1.0,1.0,2.0,80.0,event
15:36:14.376,1.9005222,0.47322991,0.4538498,0.57683957,1.3582662,-0.17338845,0.22628167,0.69597846,1.041275,0.10574638,-0.029176185,0.56917286,0.87950575,0.016579837,-0.0151468925,0.7605818,0.29827246,-0.003904119,-0.25311676,0.14972204,791.75824,799.011,803.8461,784.90845,779.2674,-0.28472900390625,0.02880859375,0.950927734375,1.734619140625,-3.656158447265625,0.157012939453125,1.0,2.0,1.0,1.0,2.0,80.0,event
15:36:14.377,1.9005222,0.47322991,0.4538498,0.57683957,1.3582662,-0.17338845,0.22628167,0.69597846,1.041275,0.10574638,-0.029176185,0.56917286,0.87950575,0.016579837,-0.0151468925,0.7605818,0.29827246,-0.003904119,-0.25311676,0.14972204,788.5348,801.8315,804.65204,785.7143,791.75824,-0.28472900390625,0.02880859375,0.950927734375,1.734619140625,-3.656158447265625,0.157012939453125,1.0,2.0,1.0,1.0,2.0,80.0,event
15:36:14.378,1.9005222,0.47322991,0.4538498,0.57683957,1.3582662,-0.17338845,0.22628167,0.69597846,1.041275,0.10574638,-0.029176185,0.56917286,0.87950575,0.016579837,-0.0151468925,0.7605818,0.29827246,-0.003904119,-0.25311676,0.14972204,784.10254,810.696,803.44324,788.5348,894.90845,-0.28472900390625,0.02880859375,0.950927734375,1.734619140625,-3.656158447265625,0.157012939453125,1.0,2.0,1.0,1.0,2.0,80.0,event
15:36:14.378,1.9005222,0.47322991,0.4538498,0.57683957,1.3582662,-0.17338845,0.22628167,0.69597846,1.041275,0.10574638,-0.029176185,0.56917286,0.87950575,0.016579837,-0.0151468925,0.7605818,0.29827246,-0.003904119,-0.25311676,0.14972204,786.52014,810.293,795.38464,776.8498,917.8755,-0.28472900390625,0.02880859375,0.950927734375,1.734619140625,-3.656158447265625,0.157012939453125,1.0,2.0,1.0,1.0,2.0,80.0,event
15:36:14.379,1.9005222,0.47322991,0.4538498,0.57683957,1.3582662,-0.17338845,0.22628167,0.69597846,1.041275,0.10574638,-0.029176185,0.56917286,0.87950575,0.016579837,-0.0151468925,0.7605818,0.29827246,-0.003904119,-0.25311676,0.14972204,792.5641,812.3077,803.0403,776.4469,804.65204,-0.28472900390625,0.02880859375,0.950927734375,1.734619140625,-3.656158447265625,0.157012939453125,1.0,2.0,1.0,1.0,2.0,80.0,event
15:36:14.379,1.9005222,0.47322991,0.4538498,0.57683957,1.3582662,-0.17338845,0.22628167,0.69597846,1.041275,0.10574638,-0.029176185,0.56917286,0.87950575,0.016579837,-0.0151468925,0.7605818,0.29827246,-0.003904119,-0.25311676,0.14972204,792.1612,813.1135,809.4872,778.0586,822.7839,-0.28472900390625,0.02880859375,0.950927734375,1.734619140625,-3.656158447265625,0.157012939453125,1.0,2.0,1.0,1.0,2.0,80.0,event
15:36:14.380,1.9005222,0.47322991,0.4538498,0.57683957,1.3582662,-0.17338845,0.22628167,0.69597846,1.041275,0.10574638,-0.029176185,0.56917286,0.87950575,0.016579837,-0.0151468925,0.7605818,0.29827246,-0.003904119,-0.25311676,0.14972204,788.93774,808.68134,809.4872,794.17584,1009.34064,-0.28472900390625,0.02880859375,0.950927734375,1.734619140625,-3.656158447265625,0.157012939453125,1.0,2.0,1.0,1.0,2.0,80.0,event
15:36:14.381,1.9005222,0.47322991,0.4538498,0.57683957,1.3582662,-0.17338845,0.22628167,0.69597846,1.041275,0.10574638,-0.029176185,0.56917286,0.87950575,0.016579837,-0.0151468925,0.7605818,0.29827246,-0.003904119,-0.25311676,0.14972204,782.8938,805.8608,804.2491,787.72894,655.9707,-0.28472900390625,0.02880859375,0.950927734375,1.734619140625,-3.656158447265625,0.157012939453125,1.0,2.0,1.0,1.0,2.0,80.0,event
15:36:14.381,1.9005222,0.47322991,0.4538498,0.57683957,1.3582662,-0.17338845,0.22628167,0.69597846,1.041275,0.10574638,-0.029176185,0.56917286,0.87950575,0.016579837,-0.0151468925,0.7605818,0.29827246,-0.003904119,-0.25311676,0.14972204,775.64105,805.05493,810.293,801.02563,902.5641,-0.28472900390625,0.02880859375,0.950927734375,1.734619140625,-3.656158447265625,0.157012939453125,1.0,2.0,1.0,1.0,2.0,80.0,event
15:36:14.419,1.9005222,0.47322991,0.4538498,0.57683957,1.3582662,-0.17338845,0.22628167,0.69597846,1.041275,0.10574638,-0.029176185,0.56917286,0.87950575,0.016579837,-0.0151468925,0.7605818,0.29827246,-0.003904119,-0.25311676,0.14972204,789.34064,804.2491,804.65204,792.5641,672.49084,-0.2813720703125,0.02996826171875,0.95050048828125,2.160797119140625,-3.028106689453125,1.12152099609375,1.0,2.0,1.0,1.0,2.0,80.0,event
15:36:14.420,1.9005222,0.47322991,0.4538498,0.57683957,1.3582662,-0.17338845,0.22628167,0.69597846,1.041275,0.10574638,-0.029176185,0.56917286,0.87950575,0.016579837,-0.0151468925,0.7605818,0.29827246,-0.003904119,-0.25311676,0.14972204,782.0879,803.0403,805.05493,794.9817,727.6923,-0.2813720703125,0.02996826171875,0.95050048828125,2.160797119140625,-3.028106689453125,1.12152099609375,1.0,2.0,1.0,1.0,2.0,80.0,event
15:36:14.421,1.9005222,0.47322991,0.4538498,0.57683957,1.3582662,-0.17338845,0.22628167,0.69597846,1.041275,0.10574638,-0.029176185,0.56917286,0.87950575,0.016579837,-0.0151468925,0.7605818,0.29827246,-0.003904119,-0.25311676,0.14972204,788.93774,807.8755,803.0403,783.69965,696.26373,-0.2813720703125,0.02996826171875,0.95050048828125,2.160797119140625,-3.028106689453125,1.12152099609375,1.0,2.0,1.0,1.0,2.0,80.0,event
15:36:14.421,1.9005222,0.41809368,0.45948863,0.57683957,1.3582662,-0.18557552,0.2280281,0.69597846,1.041275,0.110419564,-0.009721227,0.56917286,0.87950575,0.006246578,-0.0040551145,0.7605818,0.29827246,-0.007959342,-0.25794896,0.14972204,786.1172,807.0696,810.293,782.49084,726.8865,-0.2813720703125,0.02996826171875,0.95050048828125,2.160797119140625,-3.028106689453125,1.12152099609375,1.0,2.0,1.0,1.0,2.0,80.0,event
15:36:14.425,1.9005222,0.41809368,0.45948863,0.57683957,1.3582662,-0.18557552,0.2280281,0.69597846,1.041275,0.110419564,-0.009721227,0.56917286,0.87950575,0.006246578,-0.0040551145,0.7605818,0.29827246,-0.007959342,-0.25794896,0.14972204,783.2967,805.4579,809.4872,796.5934,770.40295,-0.2813720703125,0.02996826171875,0.95050048828125,2.160797119140625,-3.028106689453125,1.12152099609375,1.0,2.0,1.0,1.0,2.0,80.0,event
15:36:14.425,1.9005222,0.41809368,0.45948863,0.57683957,1.3582662,-0.18557552,0.2280281,0.69597846,1.041275,0.110419564,-0.009721227,0.56917286,0.87950575,0.006246578,-0.0040551145,0.7605818,0.29827246,-0.007959342,-0.25794896,0.14972204,787.326,806.6667,805.8608,793.36993,859.0476,-0.2813720703125,0.02996826171875,0.95050048828125,2.160797119140625,-3.028106689453125,1.12152099609375,1.0,2.0,1.0,1.0,2.0,80.0,event
15:36:14.426,1.9005222,0.41809368,0.45948863,0.57683957,1.3582662,-0.18557552,0.2280281,0.69597846,1.041275,0.110419564,-0.009721227,0.56917286,0.87950575,0.006246578,-0.0040551145,0.7605818,0.29827246,-0.007959342,-0.25794896,0.14972204,788.1319,805.8608,808.2784,782.0879,838.49817,-0.2813720703125,0.02996826171875,0.95050048828125,2.160797119140625,-3.028106689453125,1.12152099609375,1.0,2.0,1.0,1.0,2.0,80.0,event
15:36:14.426,1.9005222,0.41809368,0.45948863,0.57683957,1.3582662,-0.18557552,0.2280281,0.69597846,1.041275,0.110419564,-0.009721227,0.56917286,0.87950575,0.006246578,-0.0040551145,0.7605818,0.29827246,-0.007959342,-0.25794896,0.14972204,790.14655,805.4579,805.8608,770.0,684.17584,-0.2813720703125,0.02996826171875,0.95050048828125,2.160797119140625,-3.028106689453125,1.12152099609375,1.0,2.0,1.0,1.0,2.0,80.0,event
15:36:14.427,1.9005222,0.41809368,0.45948863,0.57683957,1.3582662,-0.18557552,0.2280281,0.69597846,1.041275,0.110419564,-0.009721227,0.56917286,0.87950575,0.006246578,-0.0040551145,0.7605818,0.29827246,-0.007959342,-0.25794896,0.14972204,783.69965,806.6667,806.26373,774.83514,842.9304,-0.2813720703125,0.02996826171875,0.95050048828125,2.160797119140625,-3.028106689453125,1.12152099609375,1.0,2.0,1.0,1.0,2.0,80.0,event
15:36:14.427,1.9005222,0.41809368,0.45948863,0.57683957,1.3582662,-0.18557552,0.2280281,0.69597846,1.041275,0.110419564,-0.009721227,0.56917286,0.87950575,0.006246578,-0.0040551145,0.7605818,0.29827246,-0.007959342,-0.25794896,0.14972204,783.69965,805.05493,806.26373,794.9817,963.00366,-0.2813720703125,0.02996826171875,0.95050048828125,2.160797119140625,-3.028106689453125,1.12152099609375,1.0,2.0,1.0,1.0,2.0,80.0,event
15:36:14.428,1.9005222,0.41809368,0.45948863,0.57683957,1.3582662,-0.18557552,0.2280281,0.69597846,1.041275,0.110419564,-0.009721227,0.56917286,0.87950575,0.006246578,-0.0040551145,0.7605818,0.29827246,-0.007959342,-0.25794896,0.14972204,792.5641,807.47253,804.65204,784.90845,800.6227,-0.2813720703125,0.02996826171875,0.95050048828125,2.160797119140625,-3.028106689453125,1.12152099609375,1.0,2.0,1.0,1.0,2.0,80.0,event
15:36:14.428,1.9005222,0.41809368,0.45948863,0.57683957,1.3582662,-0.18557552,0.2280281,0.69597846,1.041275,0.110419564,-0.009721227,0.56917286,0.87950575,0.006246578,-0.0040551145,0.7605818,0.29827246,-0.007959342,-0.25794896,0.14972204,789.34064,809.0842,809.0842,796.99634,747.4359,-0.2813720703125,0.02996826171875,0.95050048828125,2.160797119140625,-3.028106689453125,1.12152099609375,1.0,2.0,1.0,1.0,2.0,80.0,event
15:36:14.453,1.9005222,0.41809368,0.45948863,0.57683957,1.3582662,-0.18557552,0.2280281,0.69597846,1.041275,0.110419564,-0.009721227,0.56917286,0.87950575,0.006246578,-0.0040551145,0.7605818,0.29827246,-0.007959342,-0.25794896,0.14972204,788.5348,798.60803,801.8315,786.9231,928.3516,-0.28179931640625,0.03704833984375,0.942626953125,2.31781005859375,-2.572021484375,1.607513427734375,1.0,2.0,1.0,1.0,2.0,80.0,event
15:36:14.454,1.9005222,0.41809368,0.45948863,0.57683957,1.3582662,-0.18557552,0.2280281,0.69597846,1.041275,0.110419564,-0.009721227,0.56917286,0.87950575,0.006246578,-0.0040551145,0.7605818,0.29827246,-0.007959342,-0.25794896,0.14972204,780.87915,796.99634,804.65204,782.0879,747.4359,-0.28179931640625,0.03704833984375,0.942626953125,2.31781005859375,-2.572021484375,1.607513427734375,1.0,2.0,1.0,1.0,2.0,80.0,event
15:36:14.456,1.9005222,0.41809368,0.45948863,0.57683957,1.3582662,-0.18557552,0.2280281,0.69597846,1.041275,0.110419564,-0.009721227,0.56917286,0.87950575,0.006246578,-0.0040551145,0.7605818,0.29827246,-0.007959342,-0.25794896,0.14972204,776.4469,799.41394,805.4579,780.4762,648.315,-0.28179931640625,0.03704833984375,0.942626953125,2.31781005859375,-2.572021484375,1.607513427734375,1.0,2.0,1.0,1.0,2.0,80.0,event
15:36:14.457,1.9005222,0.41809368,0.45948863,0.57683957,1.3582662,-0.18557552,0.2280281,0.69597846,1.041275,0.110419564,-0.009721227,0.56917286,0.87950575,0.006246578,-0.0040551145,0.7605818,0.29827246,-0.007959342,-0.25794896,0.14972204,779.67035,803.8461,804.65204,778.86444,678.93774,-0.28179931640625,0.03704833984375,0.942626953125,2.31781005859375,-2.572021484375,1.607513427734375,1.0,2.0,1.0,1.0,2.0,80.0,event
15:36:14.458,1.9005222,0.41809368,0.45948863,0.57683957,1.3582662,-0.18557552,0.2280281,0.69597846,1.041275,0.110419564,-0.009721227,0.56917286,0.87950575,0.006246578,-0.0040551145,0.7605818,0.29827246,-0.007959342,-0.25794896,0.14972204,790.14655,803.8461,800.6227,780.87915,749.85345,-0.28179931640625,0.03704833984375,0.942626953125,2.31781005859375,-2.572021484375,1.607513427734375,1.0,2.0,1.0,1.0,2.0,80.0,event
15:36:14.459,1.9005222,0.41809368,0.45948863,0.57683957,1.3582662,-0.18557552,0.2280281,0.69597846,1.041275,0.110419564,-0.009721227,0.56917286,0.87950575,0.006246578,-0.0040551145,0.7605818,0.29827246,-0.007959342,-0.25794896,0.14972204,780.07324,800.6227,799.011,782.0879,886.04395,-0.28179931640625,0.03704833984375,0.942626953125,2.31781005859375,-2.572021484375,1.607513427734375,1.0,2.0,1.0,1.0,2.0,80.0,event
15:36:14.460,1.9005222,0.41809368,0.45948863,0.57683957,1.3582662,-0.18557552,0.2280281,0.69597846,1.041275,0.110419564,-0.009721227,0.56917286,0.87950575,0.006246578,-0.0040551145,0.7605818,0.29827246,-0.007959342,-0.25794896,0.14972204,768.3883,797.3993,806.6667,778.46155,832.8571,-0.28179931640625,0.03704833984375,0.942626953125,2.31781005859375,-2.572021484375,1.607513427734375,1.0,2.0,1.0,1.0,2.0,80.0,event
15:36:14.460,1.9005222,0.41809368,0.45948863,0.57683957,1.3582662,-0.18557552,0.2280281,0.69597846,1.041275,0.110419564,-0.009721227,0.56917286,0.87950575,0.006246578,-0.0040551145,0.7605818,0.29827246,-0.007959342,-0.25794896,0.14972204,781.28204,796.5934,807.47253,782.49084,768.7912,-0.28179931640625,0.03704833984375,0.942626953125,2.31781005859375,-2.572021484375,1.607513427734375,1.0,2.0,1.0,1.0,2.0,80.0,event
15:36:14.461,1.9005222,0.41809368,0.45948863,0.57683957,1.3582662,-0.18557552,0.2280281,0.69597846,1.041275,0.110419564,-0.009721227,0.56917286,0.87950575,0.006246578,-0.0040551145,0.7605818,0.29827246,-0.007959342,-0.25794896,0.14972204,790.14655,800.2198,805.05493,791.3553,1007.326,-0.28179931640625,0.03704833984375,0.942626953125,2.31781005859375,-2.572021484375,1.607513427734375,1.0,2.0,1.0,1.0,2.0,80.0,event
15:36:14.462,1.9005222,0.41809368,0.45948863,0.57683957,1.3582662,-0.18557552,0.2280281,0.69597846,1.041275,0.110419564,-0.009721227,0.56917286,0.87950575,0.006246578,-0.0040551145,0.7605818,0.29827246,-0.007959342,-0.25794896,0.14972204,782.0879,803.0403,803.8461,780.07324,697.0696,-0.28179931640625,0.03704833984375,0.942626953125,2.31781005859375,-2.572021484375,1.607513427734375,1.0,2.0,1.0,1.0,2.0,80.0,event
15:36:14.462,1.9005222,0.41809368,0.45948863,0.57683957,1.3582662,-0.18557552,0.2280281,0.69597846,1.041275,0.110419564,-0.009721227,0.56917286,0.87950575,0.006246578,-0.0040551145,0.7605818,0.29827246,-0.007959342,-0.25794896,0.14972204,780.4762,797.8022,805.8608,788.93774,904.57874,-0.28179931640625,0.03704833984375,0.942626953125,2.31781005859375,-2.572021484375,1.607513427734375,1.0,2.0,1.0,1.0,2.0,80.0,event
15:36:14.463,1.9005222,0.41809368,0.45948863,0.57683957,1.3582662,-0.18557552,0.2280281,0.69597846,1.041275,0.110419564,-0.009721227,0.56917286,0.87950575,0.006246578,-0.0040551145,0.7605818,0.29827246,-0.007959342,-0.25794896,0.14972204,783.69965,805.4579,801.02563,780.87915,748.24176,-0.28179931640625,0.03704833984375,0.942626953125,2.31781005859375,-2.572021484375,1.607513427734375,1.0,2.0,1.0,1.0,2.0,80.0,event
15:36:14.488,1.9005222,0.41809368,0.45948863,0.57683957,1.3582662,-0.18557552,0.2280281,0.69597846,1.041275,0.110419564,-0.009721227,0.56917286,0.87950575,0.006246578,-0.0040551145,0.7605818,0.29827246,-0.007959342,-0.25794896,0.14972204,774.83514,795.38464,799.41394,792.5641,729.304,-0.28179931640625,0.03704833984375,0.942626953125,2.31781005859375,-2.572021484375,1.607513427734375,1.0,2.0,1.0,1.0,2.0,80.0,event
15:36:14.489,1.9005222,0.41809368,0.45948863,0.57683957,1.3582662,-0.18557552,0.2280281,0.69597846,1.041275,0.110419564,-0.009721227,0.56917286,0.87950575,0.006246578,-0.0040551145,0.7605818,0.29827246,-0.007959342,-0.25794896,0.14972204,780.87915,798.20514,802.6374,799.011,698.68134,-0.28179931640625,0.03704833984375,0.942626953125,2.31781005859375,-2.572021484375,1.607513427734375,1.0,2.0,1.0,1.0,2.0,80.0,event
15:36:14.489,1.9005222,0.41809368,0.45948863,0.57683957,1.3582662,-0.18557552,0.2280281,0.69597846,1.041275,0.110419564,-0.009721227,0.56917286,0.87950575,0.006246578,-0.0040551145,0.7605818,0.29827246,-0.007959342,-0.25794896,0.14972204,788.93774,797.8022,802.23444,787.326,789.34064,-0.28179931640625,0.03704833984375,0.942626953125,2.31781005859375,-2.572021484375,1.607513427734375,1.0,2.0,1.0,1.0,2.0,80.0,event
15:36:14.490,1.9005222,0.41809368,0.45948863,0.57683957,1.3582662,-0.18557552,0.2280281,0.69597846,1.041275,0.110419564,-0.009721227,0.56917286,0.87950575,0.006246578,-0.0040551145,0.7605818,0.29827246,-0.007959342,-0.25794896,0.14972204,793.36993,799.41394,801.4286,777.25275,900.9524,-0.28179931640625,0.03704833984375,0.942626953125,2.31781005859375,-2.572021484375,1.607513427734375,1.0,2.0,1.0,1.0,2.0,80.0,event
15:36:14.490,1.9005222,0.41809368,0.45948863,0.57683957,1.3582662,-0.18557552,0.2280281,0.69597846,1.041275,0.110419564,-0.009721227,0.56917286,0.87950575,0.006246578,-0.0040551145,0.7605818,0.29827246,-0.007959342,-0.25794896,0.14972204,793.36993,806.26373,803.0403,796.99634,857.03296,-0.28179931640625,0.03704833984375,0.942626953125,2.31781005859375,-2.572021484375,1.607513427734375,1.0,2.0,1.0,1.0,2.0,80.0,event
15:36:14.491,0.39239547,0.35762432,0.46457902,0.57683957,-0.04527159,-0.2126255,0.22918618,0.69597846,0.26826927,0.114041075,-0.0009691418,0.56917286,0.2855386,-0.011107127,0.0068993927,0.7605818,0.012856363,-0.010513369,-0.26167896,0.14972204,779.67035,802.6374,799.41394,800.6227,790.54944,-0.28179931640625,0.03704833984375,0.942626953125,2.31781005859375,-2.572021484375,1.607513427734375,1.0,2.0,1.0,1.0,2.0,80.0,event
15:36:14.494,0.39239547,0.35762432,0.46457902,0.57683957,-0.04527159,-0.2126255,0.22918618,0.69597846,0.26826927,0.114041075,-0.0009691418,0.56917286,0.2855386,-0.011107127,0.0068993927,0.7605818,0.012856363,-0.010513369,-0.26167896,0.14972204,784.5055,803.44324,798.60803,798.60803,853.4066,-0.28179931640625,0.03704833984375,0.942626953125,2.31781005859375,-2.572021484375,1.607513427734375,1.0,2.0,1.0,1.0,2.0,80.0,event
15:36:14.495,0.39239547,0.35762432,0.46457902,0.57683957,-0.04527159,-0.2126255,0.22918618,0.69597846,0.26826927,0.114041075,-0.0009691418,0.56917286,0.2855386,-0.011107127,0.0068993927,0.7605818,0.012856363,-0.010513369,-0.26167896,0.14972204,777.25275,799.011,800.2198,780.87915,1016.5934,-0.28179931640625,0.03704833984375,0.942626953125,2.31781005859375,-2.572021484375,1.607513427734375,1.0,2.0,1.0,1.0,2.0,80.0,event
15:36:14.495,0.39239547,0.35762432,0.46457902,0.57683957,-0.04527159,-0.2126255,0.22918618,0.69597846,0.26826927,0.114041075,-0.0009691418,0.56917286,0.2855386,-0.011107127,0.0068993927,0.7605818,0.012856363,-0.010513369,-0.26167896,0.14972204,788.1319,802.6374,800.6227,786.9231,991.2088,-0.28179931640625,0.03704833984375,0.942626953125,2.31781005859375,-2.572021484375,1.607513427734375,1.0,2.0,1.0,1.0,2.0,80.0,event
15:36:14.496,0.39239547,0.35762432,0.46457902,0.57683957,-0.04527159,-0.2126255,0.22918618,0.69597846,0.26826927,0.114041075,-0.0009691418,0.56917286,0.2855386,-0.011107127,0.0068993927,0.7605818,0.012856363,-0.010513369,-0.26167896,0.14972204,785.7143,798.60803,801.8315,788.93774,757.50916,-0.28179931640625,0.03704833984375,0.942626953125,2.31781005859375,-2.572021484375,1.607513427734375,1.0,2.0,1.0,1.0,2.0,80.0,event
15:36:14.496,0.39239547,0.35762432,0.46457902,0.57683957,-0.04527159,-0.2126255,0.22918618,0.69597846,0.26826927,0.114041075,-0.0009691418,0.56917286,0.2855386,-0.011107127,0.0068993927,0.7605818,0.012856363,-0.010513369,-0.26167896,0.14972204,785.7143,797.8022,805.05493,792.1612,689.41394,-0.28179931640625,0.03704833984375,0.942626953125,2.31781005859375,-2.572021484375,1.607513427734375,1.0,2.0,1.0,1.0,2.0,80.0,event
15:36:14.497,0.39239547,0.35762432,0.46457902,0.57683957,-0.04527159,-0.2126255,0.22918618,0.69597846,0.26826927,0.114041075,-0.0009691418,0.56917286,0.2855386,-0.011107127,0.0068993927,0.7605818,0.012856363,-0.010513369,-0.26167896,0.14972204,772.4176,799.41394,808.2784,791.3553,783.69965,-0.28179931640625,0.03704833984375,0.942626953125,2.31781005859375,-2.572021484375,1.607513427734375,1.0,2.0,1.0,1.0,2.0,80.0,event
