TimeStamp,Delta_TP9,Delta_AF7,Delta_AF8,Delta_TP10,Theta_TP9,Theta_AF7,Theta_AF8,Theta_TP10,Alpha_TP9,Alpha_AF7,Alpha_AF8,Alpha_TP10,Beta_TP9,Beta_AF7,Beta_AF8,Beta_TP10,Gamma_TP9,Gamma_AF7,Gamma_AF8,Gamma_TP10,RAW_TP9,RAW_AF7,RAW_AF8,RAW_TP10,AUX_RIGHT,Accelerometer_X,Accelerometer_Y,Accelerometer_Z,Gyro_X,Gyro_Y,Gyro_Z,HeadBandOn,HSI_TP9,HSI_AF7,HSI_AF8,HSI_TP10,Battery,Elements
09:18:20.241,0.0,0.0,0.0,0.6545161,0.0,0.0,0.0,0.5523013,0.0,0.0,0.0,0.4540438,0.0,0.0,0.0,0.4082328,0.0,0.0,0.0,0.16193055,0.0,435.9707,772.4176,798.20514,637.03296,-0.27044677734375,0.040771484375,0.95074462890625,2.093505859375,-3.028106689453125,0.2392578125,1.0,4.0,4.0,1.0,1.0,100.0,event
09:18:20.242,0.0,0.0,0.0,0.6545161,0.0,0.0,0.0,0.5523013,0.0,0.0,0.0,0.4540438,0.0,0.0,0.0,0.4082328,0.0,0.0,0.0,0.16193055,693.44324,743.00366,756.7033,825.6044,672.49084,-0.27044677734375,0.040771484375,0.95074462890625,2.093505859375,-3.028106689453125,0.2392578125,1.0,4.0,4.0,1.0,1.0,100.0,event
09:18:20.243,0.0,0.0,0.0,0.6545161,0.0,0.0,0.0,0.5523013,0.0,0.0,0.0,0.4540438,0.0,0.0,0.0,0.4082328,0.0,0.0,0.0,0.16193055,110.0,1226.1172,753.47986,833.663,772.4176,-0.27044677734375,0.040771484375,0.95074462890625,2.093505859375,-3.028106689453125,0.2392578125,1.0,4.0,4.0,1.0,1.0,100.0,event
09:18:20.244,0.0,0.0,0.0,0.6545161,0.0,0.0,0.0,0.5523013,0.0,0.0,0.0,0.4540438,0.0,0.0,0.0,0.4082328,0.0,0.0,0.0,0.16193055,1318.7913,1302.674,728.9011,827.619,785.7143,-0.27044677734375,0.040771484375,0.95074462890625,2.093505859375,-3.028106689453125,0.2392578125,1.0,4.0,4.0,1.0,1.0,100.0,event
09:18:20.244,0.0,0.0,0.0,0.6545161,0.0,0.0,0.0,0.5523013,0.0,0.0,0.0,0.4540438,0.0,0.0,0.0,0.4082328,0.0,0.0,0.0,0.16193055,249.41393,518.1685,713.5897,809.4872,822.7839,-0.27044677734375,0.040771484375,0.95074462890625,2.093505859375,-3.028106689453125,0.2392578125,1.0,4.0,4.0,1.0,1.0,100.0,event
09:18:20.245,0.0,0.0,0.0,0.6545161,0.0,0.0,0.0,0.5523013,0.0,0.0,0.0,0.4540438,0.0,0.0,0.0,0.4082328,0.0,0.0,0.0,0.16193055,0.0,50.76923,719.6337,806.26373,893.2967,-0.27044677734375,0.040771484375,0.95074462890625,2.093505859375,-3.028106689453125,0.2392578125,1.0,4.0,4.0,1.0,1.0,100.0,event
09:18:20.245,0.0,0.0,0.0,0.6545161,0.0,0.0,0.0,0.5523013,0.0,0.0,0.0,0.4540438,0.0,0.0,0.0,0.4082328,0.0,0.0,0.0,0.16193055,515.34796,0.0,707.5458,827.619,1149.1575,-0.27044677734375,0.040771484375,0.95074462890625,2.093505859375,-3.028106689453125,0.2392578125,1.0,4.0,4.0,1.0,1.0,100.0,event
09:18:20.246,0.0,0.0,0.0,0.6545161,0.0,0.0,0.0,0.5523013,0.0,0.0,0.0,0.4540438,0.0,0.0,0.0,0.4082328,0.0,0.0,0.0,0.16193055,1.6117216,634.61536,824.7985,832.8571,1097.5824,-0.27044677734375,0.040771484375,0.95074462890625,2.093505859375,-3.028106689453125,0.2392578125,1.0,4.0,4.0,1.0,1.0,100.0,event
09:18:20.247,0.0,0.0,0.0,0.6545161,0.0,0.0,0.0,0.5523013,0.0,0.0,0.0,0.4540438,0.0,0.0,0.0,0.4082328,0.0,0.0,0.0,0.16193055,1521.8682,1437.6556,780.07324,816.337,759.5238,-0.27044677734375,0.040771484375,0.95074462890625,2.093505859375,-3.028106689453125,0.2392578125,1.0,4.0,4.0,1.0,1.0,100.0,event
09:18:20.248,0.0,0.0,0.0,0.6545161,0.0,0.0,0.0,0.5523013,0.0,0.0,0.0,0.4540438,0.0,0.0,0.0,0.4082328,0.0,0.0,0.0,0.16193055,457.32602,641.8681,694.65204,799.81683,750.65936,-0.27044677734375,0.040771484375,0.95074462890625,2.093505859375,-3.028106689453125,0.2392578125,1.0,4.0,4.0,1.0,1.0,100.0,event
09:18:20.248,0.0,0.0,0.0,0.6545161,0.0,0.0,0.0,0.5523013,0.0,0.0,0.0,0.4540438,0.0,0.0,0.0,0.4082328,0.0,0.0,0.0,0.16193055,0.0,139.41393,755.4945,789.34064,728.9011,-0.27044677734375,0.040771484375,0.95074462890625,2.093505859375,-3.028106689453125,0.2392578125,1.0,4.0,4.0,1.0,1.0,100.0,event
09:18:20.249,0.0,0.0,0.0,0.6545161,0.0,0.0,0.0,0.5523013,0.0,0.0,0.0,0.4540438,0.0,0.0,0.0,0.4082328,0.0,0.0,0.0,0.16193055,546.3736,679.34064,801.4286,801.02563,670.87915,-0.27044677734375,0.040771484375,0.95074462890625,2.093505859375,-3.028106689453125,0.2392578125,1.0,4.0,4.0,1.0,1.0,100.0,event
09:18:20.313,0.0,0.0,0.0,0.6545161,0.0,0.0,0.0,0.5523013,0.0,0.0,0.0,0.4540438,0.0,0.0,0.0,0.4082328,0.0,0.0,0.0,0.16193055,1632.674,1417.9121,780.87915,829.6337,786.9231,-0.26751708984375,0.04925537109375,0.950439453125,2.743988037109375,-2.833709716796875,0.411224365234375,1.0,4.0,4.0,1.0,1.0,100.0,event
09:18:20.315,0.0,0.0,0.0,0.6545161,0.0,0.0,0.0,0.5523013,0.0,0.0,0.0,0.4540438,0.0,0.0,0.0,0.4082328,0.0,0.0,0.0,0.16193055,1612.9304,1351.4286,723.2601,825.6044,890.07324,-0.26751708984375,0.04925537109375,0.950439453125,2.743988037109375,-2.833709716796875,0.411224365234375,1.0,4.0,4.0,1.0,1.0,100.0,event
09:18:20.315,0.0,0.0,0.0,0.6545161,0.0,0.0,0.0,0.5523013,0.0,0.0,0.0,0.4540438,0.0,0.0,0.0,0.4082328,0.0,0.0,0.0,0.16193055,632.1978,672.8938,728.9011,795.78754,832.4542,-0.26751708984375,0.04925537109375,0.950439453125,2.743988037109375,-2.833709716796875,0.411224365234375,1.0,4.0,4.0,1.0,1.0,100.0,event
09:18:20.316,0.0,0.0,0.0,0.6545161,0.0,0.0,0.0,0.5523013,0.0,0.0,0.0,0.4540438,0.0,0.0,0.0,0.4082328,0.0,0.0,0.0,0.16193055,0.0,400.91574,758.71796,790.54944,768.7912,-0.26751708984375,0.04925537109375,0.950439453125,2.743988037109375,-2.833709716796875,0.411224365234375,1.0,4.0,4.0,1.0,1.0,100.0,event
09:18:20.317,0.0,0.0,0.0,0.6545161,0.0,0.0,0.0,0.5523013,0.0,0.0,0.0,0.4540438,0.0,0.0,0.0,0.4082328,0.0,0.0,0.0,0.16193055,408.97437,616.4835,766.77655,803.8461,767.98535,-0.26751708984375,0.04925537109375,0.950439453125,2.743988037109375,-2.833709716796875,0.411224365234375,1.0,4.0,4.0,1.0,1.0,100.0,event
09:18:20.318,0.0,0.0,0.0,0.6545161,0.0,0.0,0.0,0.5523013,0.0,0.0,0.0,0.4540438,0.0,0.0,0.0,0.4082328,0.0,0.0,0.0,0.16193055,1528.3151,957.76556,753.47986,823.1868,886.04395,-0.26751708984375,0.04925537109375,0.950439453125,2.743988037109375,-2.833709716796875,0.411224365234375,1.0,4.0,4.0,1.0,1.0,100.0,event
09:18:20.319,0.0,0.0,0.0,0.6545161,0.0,0.0,0.0,0.5523013,0.0,0.0,0.0,0.4540438,0.0,0.0,0.0,0.4082328,0.0,0.0,0.0,0.16193055,8.864469,931.5751,735.7509,821.5751,919.0842,-0.26751708984375,0.04925537109375,0.950439453125,2.743988037109375,-2.833709716796875,0.411224365234375,1.0,4.0,4.0,1.0,1.0,100.0,event
09:18:20.319,0.0,0.0,0.0,0.6545161,0.0,0.0,0.0,0.5523013,0.0,0.0,0.0,0.4540438,0.0,0.0,0.0,0.4082328,0.0,0.0,0.0,0.16193055,665.64105,454.90842,720.0366,805.05493,865.09155,-0.26751708984375,0.04925537109375,0.950439453125,2.743988037109375,-2.833709716796875,0.411224365234375,1.0,4.0,4.0,1.0,1.0,100.0,event
09:18:20.320,0.0,0.0,0.0,0.6545161,0.0,0.0,0.0,0.5523013,0.0,0.0,0.0,0.4540438,0.0,0.0,0.0,0.4082328,0.0,0.0,0.0,0.16193055,0.0,190.98901,746.63007,791.75824,770.80585,-0.26751708984375,0.04925537109375,0.950439453125,2.743988037109375,-2.833709716796875,0.411224365234375,1.0,4.0,4.0,1.0,1.0,100.0,event
09:18:20.321,0.0,0.0,0.0,0.6545161,0.0,0.0,0.0,0.5523013,0.0,0.0,0.0,0.4540438,0.0,0.0,0.0,0.4082328,0.0,0.0,0.0,0.16193055,36.263737,27.399267,704.7253,796.5934,925.5311,-0.26751708984375,0.04925537109375,0.950439453125,2.743988037109375,-2.833709716796875,0.411224365234375,1.0,4.0,4.0,1.0,1.0,100.0,event
09:18:20.321,0.0,0.0,0.0,0.6545161,0.0,0.0,0.0,0.5523013,0.0,0.0,0.0,0.4540438,0.0,0.0,0.0,0.4082328,0.0,0.0,0.0,0.16193055,1046.0073,373.51648,769.19415,822.7839,992.01465,-0.26751708984375,0.04925537109375,0.950439453125,2.743988037109375,-2.833709716796875,0.411224365234375,1.0,4.0,4.0,1.0,1.0,100.0,event
09:18:20.322,0.0,0.0,0.0,0.6545161,0.0,0.0,0.0,0.5523013,0.0,0.0,0.0,0.4540438,0.0,0.0,0.0,0.4082328,0.0,0.0,0.0,0.16193055,168.02197,1278.0952,821.1722,817.5458,711.1722,-0.26751708984375,0.04925537109375,0.950439453125,2.743988037109375,-2.833709716796875,0.411224365234375,1.0,4.0,4.0,1.0,1.0,100.0,event
09:18:20.362,0.0,0.0,0.0,0.6545161,0.0,0.0,0.0,0.5523013,0.0,0.0,0.0,0.4540438,0.0,0.0,0.0,0.4082328,0.0,0.0,0.0,0.16193055,867.50916,869.12085,689.011,799.011,681.75824,-0.26873779296875,0.041748046875,0.94635009765625,1.62994384765625,-4.26177978515625,0.216827392578125,1.0,4.0,4.0,1.0,1.0,100.0,event
09:18:20.363,0.0,0.0,0.0,0.6380376,0.0,0.0,0.0,0.5467093,0.0,0.0,0.0,0.4540438,0.0,0.0,0.0,0.39393157,0.0,0.0,0.0,0.16011946,0.0,85.42124,713.9927,794.17584,680.9524,-0.26873779296875,0.041748046875,0.94635009765625,1.62994384765625,-4.26177978515625,0.216827392578125,1.0,4.0,4.0,1.0,1.0,100.0,event
09:18:20.368,0.0,0.0,0.0,0.6380376,0.0,0.0,0.0,0.5467093,0.0,0.0,0.0,0.4540438,0.0,0.0,0.0,0.39393157,0.0,0.0,0.0,0.16011946,115.2381,291.3187,806.6667,795.38464,677.326,-0.26873779296875,0.041748046875,0.94635009765625,1.62994384765625,-4.26177978515625,0.216827392578125,1.0,4.0,4.0,1.0,1.0,100.0,event
09:18:20.368,0.0,0.0,0.0,0.6380376,0.0,0.0,0.0,0.5467093,0.0,0.0,0.0,0.4540438,0.0,0.0,0.0,0.39393157,0.0,0.0,0.0,0.16011946,1141.9048,1086.3004,795.38464,805.8608,713.5897,-0.26873779296875,0.041748046875,0.94635009765625,1.62994384765625,-4.26177978515625,0.216827392578125,1.0,4.0,4.0,1.0,1.0,100.0,event
09:18:20.369,0.0,0.0,0.0,0.6380376,0.0,0.0,0.0,0.5467093,0.0,0.0,0.0,0.4540438,0.0,0.0,0.0,0.39393157,0.0,0.0,0.0,0.16011946,162.78389,1316.7766,711.5751,813.5165,784.90845,-0.26873779296875,0.041748046875,0.94635009765625,1.62994384765625,-4.26177978515625,0.216827392578125,1.0,4.0,4.0,1.0,1.0,100.0,event
09:18:20.370,0.0,0.0,0.0,0.6380376,0.0,0.0,0.0,0.5467093,0.0,0.0,0.0,0.4540438,0.0,0.0,0.0,0.39393157,0.0,0.0,0.0,0.16011946,917.8755,602.7839,670.87915,801.02563,875.16486,-0.26873779296875,0.041748046875,0.94635009765625,1.62994384765625,-4.26177978515625,0.216827392578125,1.0,4.0,4.0,1.0,1.0,100.0,event
09:18:20.370,0.0,0.0,0.0,0.6380376,0.0,0.0,0.0,0.5467093,0.0,0.0,0.0,0.4540438,0.0,0.0,0.0,0.39393157,0.0,0.0,0.0,0.16011946,0.0,19.34066,732.52747,780.87915,891.685,-0.26873779296875,0.041748046875,0.94635009765625,1.62994384765625,-4.26177978515625,0.216827392578125,1.0,4.0,4.0,1.0,1.0,100.0,event
09:18:20.371,0.0,0.0,0.0,0.6380376,0.0,0.0,0.0,0.5467093,0.0,0.0,0.0,0.4540438,0.0,0.0,0.0,0.39393157,0.0,0.0,0.0,0.16011946,16.520147,236.92308,802.6374,774.83514,720.84247,-0.26873779296875,0.041748046875,0.94635009765625,1.62994384765625,-4.26177978515625,0.216827392578125,1.0,4.0,4.0,1.0,1.0,100.0,event
09:18:20.371,0.0,0.0,0.0,0.6380376,0.0,0.0,0.0,0.5467093,0.0,0.0,0.0,0.4540438,0.0,0.0,0.0,0.39393157,0.0,0.0,0.0,0.16011946,954.5421,702.71063,738.97437,805.8608,754.68866,-0.26873779296875,0.041748046875,0.94635009765625,1.62994384765625,-4.26177978515625,0.216827392578125,1.0,4.0,4.0,1.0,1.0,100.0,event
09:18:20.371,0.0,0.0,0.0,0.6380376,0.0,0.0,0.0,0.5467093,0.0,0.0,0.0,0.4540438,0.0,0.0,0.0,0.39393157,0.0,0.0,0.0,0.16011946,172.45421,593.91943,713.9927,825.2015,1046.8132,-0.26873779296875,0.041748046875,0.94635009765625,1.62994384765625,-4.26177978515625,0.216827392578125,1.0,4.0,4.0,1.0,1.0,100.0,event
09:18:20.372,0.0,0.0,0.0,0.6380376,0.0,0.0,0.0,0.5467093,0.0,0.0,0.0,0.4540438,0.0,0.0,0.0,0.39393157,0.0,0.0,0.0,0.16011946,1004.5055,514.1392,792.1612,807.47253,977.1062,-0.26873779296875,0.041748046875,0.94635009765625,1.62994384765625,-4.26177978515625,0.216827392578125,1.0,4.0,4.0,1.0,1.0,100.0,event
09:18:20.372,0.0,0.0,0.0,0.6380376,0.0,0.0,0.0,0.5467093,0.0,0.0,0.0,0.4540438,0.0,0.0,0.0,0.39393157,0.0,0.0,0.0,0.16011946,0.0,413.8095,773.6264,793.36993,772.8205,-0.26873779296875,0.041748046875,0.94635009765625,1.62994384765625,-4.26177978515625,0.216827392578125,1.0,4.0,4.0,1.0,1.0,100.0,event
09:18:20.398,0.0,0.0,0.0,0.6380376,0.0,0.0,0.0,0.5467093,0.0,0.0,0.0,0.4540438,0.0,0.0,0.0,0.39393157,0.0,0.0,0.0,0.16011946,0.0,67.289375,726.8865,807.8755,821.978,-0.26336669921875,0.0411376953125,0.95538330078125,2.31781005859375,-3.745880126953125,0.37384033203125,1.0,4.0,4.0,1.0,1.0,100.0,event
09:18:20.399,0.0,0.0,0.0,0.6380376,0.0,0.0,0.0,0.5467093,0.0,0.0,0.0,0.4540438,0.0,0.0,0.0,0.39393157,0.0,0.0,0.0,0.16011946,750.2564,492.38095,785.31134,830.0366,863.47986,-0.26336669921875,0.0411376953125,0.95538330078125,2.31781005859375,-3.745880126953125,0.37384033203125,1.0,4.0,4.0,1.0,1.0,100.0,event
09:18:20.400,0.0,0.0,0.0,0.6380376,0.0,0.0,0.0,0.5467093,0.0,0.0,0.0,0.4540438,0.0,0.0,0.0,0.39393157,0.0,0.0,0.0,0.16011946,152.3077,1394.9451,799.011,824.7985,769.59705,-0.26336669921875,0.0411376953125,0.95538330078125,2.31781005859375,-3.745880126953125,0.37384033203125,1.0,4.0,4.0,1.0,1.0,100.0,event
09:18:20.401,0.0,0.0,0.0,0.6380376,0.0,0.0,0.0,0.5467093,0.0,0.0,0.0,0.4540438,0.0,0.0,0.0,0.39393157,0.0,0.0,0.0,0.16011946,1150.3663,1207.5824,717.2161,813.91943,750.2564,-0.26336669921875,0.0411376953125,0.95538330078125,2.31781005859375,-3.745880126953125,0.37384033203125,1.0,4.0,4.0,1.0,1.0,100.0,event
09:18:20.402,0.0,0.0,0.0,0.6380376,0.0,0.0,0.0,0.5467093,0.0,0.0,0.0,0.4540438,0.0,0.0,0.0,0.39393157,0.0,0.0,0.0,0.16011946,77.765564,372.71063,717.2161,798.20514,751.4652,-0.26336669921875,0.0411376953125,0.95538330078125,2.31781005859375,-3.745880126953125,0.37384033203125,1.0,4.0,4.0,1.0,1.0,100.0,event
09:18:20.403,0.0,0.0,0.0,0.6380376,0.0,0.0,0.0,0.5467093,0.0,0.0,0.0,0.4540438,0.0,0.0,0.0,0.39393157,0.0,0.0,0.0,0.16011946,0.0,0.0,759.12085,807.0696,800.2198,-0.26336669921875,0.0411376953125,0.95538330078125,2.31781005859375,-3.745880126953125,0.37384033203125,1.0,4.0,4.0,1.0,1.0,100.0,event
09:18:20.404,0.0,0.0,0.0,0.6380376,0.0,0.0,0.0,0.5467093,0.0,0.0,0.0,0.4540438,0.0,0.0,0.0,0.39393157,0.0,0.0,0.0,0.16011946,696.6667,417.03296,808.68134,825.2015,811.9048,-0.26336669921875,0.0411376953125,0.95538330078125,2.31781005859375,-3.745880126953125,0.37384033203125,1.0,4.0,4.0,1.0,1.0,100.0,event
09:18:20.404,0.0,0.0,0.0,0.6380376,0.0,0.0,0.0,0.5467093,0.0,0.0,0.0,0.4540438,0.0,0.0,0.0,0.39393157,0.0,0.0,0.0,0.16011946,118.46154,1176.1538,778.46155,824.7985,807.0696,-0.26336669921875,0.0411376953125,0.95538330078125,2.31781005859375,-3.745880126953125,0.37384033203125,1.0,4.0,4.0,1.0,1.0,100.0,event
09:18:20.405,0.0,0.0,0.0,0.6380376,0.0,0.0,0.0,0.5467093,0.0,0.0,0.0,0.4540438,0.0,0.0,0.0,0.39393157,0.0,0.0,0.0,0.16011946,1257.5458,1014.17584,742.1978,818.3516,901.3553,-0.26336669921875,0.0411376953125,0.95538330078125,2.31781005859375,-3.745880126953125,0.37384033203125,1.0,4.0,4.0,1.0,1.0,100.0,event
09:18:20.406,0.0,0.0,0.0,0.6380376,0.0,0.0,0.0,0.5467093,0.0,0.0,0.0,0.4540438,0.0,0.0,0.0,0.39393157,0.0,0.0,0.0,0.16011946,182.9304,391.24542,762.74725,806.6667,870.32965,-0.26336669921875,0.0411376953125,0.95538330078125,2.31781005859375,-3.745880126953125,0.37384033203125,1.0,4.0,4.0,1.0,1.0,100.0,event
09:18:20.407,0.0,0.0,0.0,0.6380376,0.0,0.0,0.0,0.5467093,0.0,0.0,0.0,0.4540438,0.0,0.0,0.0,0.39393157,0.0,0.0,0.0,0.16011946,0.0,249.41393,768.7912,801.8315,715.6044,-0.26336669921875,0.0411376953125,0.95538330078125,2.31781005859375,-3.745880126953125,0.37384033203125,1.0,4.0,4.0,1.0,1.0,100.0,event
09:18:20.408,0.0,0.0,0.0,0.6380376,0.0,0.0,0.0,0.5467093,0.0,0.0,0.0,0.4540438,0.0,0.0,0.0,0.39393157,0.0,0.0,0.0,0.16011946,657.98535,681.3553,778.86444,827.2161,679.7436,-0.26336669921875,0.0411376953125,0.95538330078125,2.31781005859375,-3.745880126953125,0.37384033203125,1.0,4.0,4.0,1.0,1.0,100.0,event
09:18:20.435,0.0,0.0,0.0,0.6380376,0.0,0.0,0.0,0.5467093,0.0,0.0,0.0,0.4540438,0.0,0.0,0.0,0.39393157,0.0,0.0,0.0,0.16011946,83.00366,556.04395,701.9048,847.3626,884.83514,-0.2635498046875,0.04559326171875,0.9503173828125,2.093505859375,-3.267364501953125,0.620574951171875,1.0,4.0,4.0,1.0,1.0,100.0,event
09:18:20.436,0.0,0.0,0.0,0.6380376,0.0,0.0,0.0,0.5467093,0.0,0.0,0.0,0.4540438,0.0,0.0,0.0,0.39393157,0.0,0.0,0.0,0.16011946,1395.348,293.73627,748.24176,831.2454,1012.5641,-0.2635498046875,0.04559326171875,0.9503173828125,2.093505859375,-3.267364501953125,0.620574951171875,1.0,4.0,4.0,1.0,1.0,100.0,event
09:18:20.436,0.0,0.0,0.0,0.6380376,0.0,0.0,0.0,0.5467093,0.0,0.0,0.0,0.4540438,0.0,0.0,0.0,0.39393157,0.0,0.0,0.0,0.16011946,338.86447,473.04028,786.9231,809.89014,801.8315,-0.2635498046875,0.04559326171875,0.9503173828125,2.093505859375,-3.267364501953125,0.620574951171875,1.0,4.0,4.0,1.0,1.0,100.0,event
09:18:20.437,0.0,0.0,0.0,0.6250042,0.0,0.0,0.0,0.5451684,0.0,0.0,0.0,0.4540438,0.0,0.0,0.0,0.38260847,0.0,0.0,0.0,0.16088663,0.0,105.567764,716.8132,803.44324,727.6923,-0.2635498046875,0.04559326171875,0.9503173828125,2.093505859375,-3.267364501953125,0.620574951171875,1.0,4.0,4.0,1.0,1.0,100.0,event
09:18:20.440,0.0,0.0,0.0,0.6250042,0.0,0.0,0.0,0.5451684,0.0,0.0,0.0,0.4540438,0.0,0.0,0.0,0.38260847,0.0,0.0,0.0,0.16088663,528.6447,122.893776,755.89746,825.6044,892.49084,-0.2635498046875,0.04559326171875,0.9503173828125,2.093505859375,-3.267364501953125,0.620574951171875,1.0,4.0,4.0,1.0,1.0,100.0,event
09:18:20.440,0.0,0.0,0.0,0.6250042,0.0,0.0,0.0,0.5451684,0.0,0.0,0.0,0.4540438,0.0,0.0,0.0,0.38260847,0.0,0.0,0.0,0.16088663,2.8205128,827.2161,799.81683,845.7509,945.2747,-0.2635498046875,0.04559326171875,0.9503173828125,2.093505859375,-3.267364501953125,0.620574951171875,1.0,4.0,4.0,1.0,1.0,100.0,event
09:18:20.441,0.0,0.0,0.0,0.6250042,0.0,0.0,0.0,0.5451684,0.0,0.0,0.0,0.4540438,0.0,0.0,0.0,0.38260847,0.0,0.0,0.0,0.16088663,0.0,0.0,713.5897,811.9048,957.3626,-0.2635498046875,0.04559326171875,0.9503173828125,2.093505859375,-3.267364501953125,0.620574951171875,1.0,4.0,4.0,1.0,1.0,100.0,event
09:18:20.441,0.0,0.0,0.0,0.6250042,0.0,0.0,0.0,0.5451684,0.0,0.0,0.0,0.4540438,0.0,0.0,0.0,0.38260847,0.0,0.0,0.0,0.16088663,491.17215,367.47253,656.3736,817.5458,845.7509,-0.2635498046875,0.04559326171875,0.9503173828125,2.093505859375,-3.267364501953125,0.620574951171875,1.0,4.0,4.0,1.0,1.0,100.0,event
09:18:20.441,0.0,0.0,0.0,0.6250042,0.0,0.0,0.0,0.5451684,0.0,0.0,0.0,0.4540438,0.0,0.0,0.0,0.38260847,0.0,0.0,0.0,0.16088663,1540.403,1006.1172,747.03296,831.2454,880.40295,-0.2635498046875,0.04559326171875,0.9503173828125,2.093505859375,-3.267364501953125,0.620574951171875,1.0,4.0,4.0,1.0,1.0,100.0,event
09:18:20.442,0.0,0.0,0.0,0.6250042,0.0,0.0,0.0,0.5451684,0.0,0.0,0.0,0.4540438,0.0,0.0,0.0,0.38260847,0.0,0.0,0.0,0.16088663,517.3626,444.0293,858.6447,821.5751,853.00366,-0.2635498046875,0.04559326171875,0.9503173828125,2.093505859375,-3.267364501953125,0.620574951171875,1.0,4.0,4.0,1.0,1.0,100.0,event
09:18:20.444,0.0,0.0,0.0,0.6250042,0.0,0.0,0.0,0.5451684,0.0,0.0,0.0,0.4540438,0.0,0.0,0.0,0.38260847,0.0,0.0,0.0,0.16088663,1591.5751,1261.5751,774.83514,834.4689,710.3663,-0.2635498046875,0.04559326171875,0.9503173828125,2.093505859375,-3.267364501953125,0.620574951171875,1.0,4.0,4.0,1.0,1.0,100.0,event
09:18:20.444,0.0,0.0,0.0,0.6250042,0.0,0.0,0.0,0.5451684,0.0,0.0,0.0,0.4540438,0.0,0.0,0.0,0.38260847,0.0,0.0,0.0,0.16088663,23.772894,1238.2051,703.1135,823.9927,776.8498,-0.2635498046875,0.04559326171875,0.9503173828125,2.093505859375,-3.267364501953125,0.620574951171875,1.0,4.0,4.0,1.0,1.0,100.0,event
09:18:20.510,0.0,0.0,0.0,0.6250042,0.0,0.0,0.0,0.5451684,0.0,0.0,0.0,0.4540438,0.0,0.0,0.0,0.38260847,0.0,0.0,0.0,0.16088663,748.24176,590.293,713.5897,813.5165,745.42126,-0.2635498046875,0.04559326171875,0.9503173828125,2.093505859375,-3.267364501953125,0.620574951171875,1.0,4.0,4.0,1.0,1.0,100.0,event
09:18:20.511,0.0,0.0,0.0,0.6250042,0.0,0.0,0.0,0.5451684,0.0,0.0,0.0,0.4540438,0.0,0.0,0.0,0.38260847,0.0,0.0,0.0,0.16088663,0.0,303.8095,738.97437,798.60803,689.81683,-0.2635498046875,0.04559326171875,0.9503173828125,2.093505859375,-3.267364501953125,0.620574951171875,1.0,4.0,4.0,1.0,1.0,100.0,event
09:18:20.512,0.0,0.0,0.0,0.6250042,0.0,0.0,0.0,0.5451684,0.0,0.0,0.0,0.4540438,0.0,0.0,0.0,0.38260847,0.0,0.0,0.0,0.16088663,354.1758,471.8315,741.79486,807.0696,697.8755,-0.2635498046875,0.04559326171875,0.9503173828125,2.093505859375,-3.267364501953125,0.620574951171875,1.0,4.0,4.0,1.0,1.0,100.0,event
09:18:20.512,0.0,0.0,0.0,0.6250042,0.0,0.0,0.0,0.5451684,0.0,0.0,0.0,0.4540438,0.0,0.0,0.0,0.38260847,0.0,0.0,0.0,0.16088663,1447.7289,900.54944,751.8681,828.8278,760.7326,-0.2635498046875,0.04559326171875,0.9503173828125,2.093505859375,-3.267364501953125,0.620574951171875,1.0,4.0,4.0,1.0,1.0,100.0,event
09:18:20.513,0.0,0.0,0.0,0.6250042,0.0,0.0,0.0,0.5451684,0.0,0.0,0.0,0.4540438,0.0,0.0,0.0,0.38260847,0.0,0.0,0.0,0.16088663,99.52381,1071.392,735.34796,819.5604,831.2454,-0.2635498046875,0.04559326171875,0.9503173828125,2.093505859375,-3.267364501953125,0.620574951171875,1.0,4.0,4.0,1.0,1.0,100.0,event
09:18:20.514,0.0,0.0,0.0,0.6250042,0.0,0.0,0.0,0.5451684,0.0,0.0,0.0,0.4540438,0.0,0.0,0.0,0.38260847,0.0,0.0,0.0,0.16088663,807.8755,512.52747,685.78754,802.23444,877.5824,-0.2635498046875,0.04559326171875,0.9503173828125,2.093505859375,-3.267364501953125,0.620574951171875,1.0,4.0,4.0,1.0,1.0,100.0,event
09:18:20.514,0.0,0.0,0.0,0.6250042,0.0,0.0,0.0,0.5451684,0.0,0.0,0.0,0.4540438,0.0,0.0,0.0,0.38260847,0.0,0.0,0.0,0.16088663,0.0,48.754578,725.2747,794.17584,849.7802,-0.2635498046875,0.04559326171875,0.9503173828125,2.093505859375,-3.267364501953125,0.620574951171875,1.0,4.0,4.0,1.0,1.0,100.0,event
09:18:20.515,0.0,0.0,0.0,0.6250042,0.0,0.0,0.0,0.5451684,0.0,0.0,0.0,0.4540438,0.0,0.0,0.0,0.38260847,0.0,0.0,0.0,0.16088663,13.296703,0.0,707.1429,811.0989,940.84247,-0.2635498046875,0.04559326171875,0.9503173828125,2.093505859375,-3.267364501953125,0.620574951171875,1.0,4.0,4.0,1.0,1.0,100.0,event
09:18:20.515,0.0,0.0,0.0,0.6250042,0.0,0.0,0.0,0.5451684,0.0,0.0,0.0,0.4540438,0.0,0.0,0.0,0.38260847,0.0,0.0,0.0,0.16088663,986.77655,219.59708,776.04395,832.8571,1064.9451,-0.2635498046875,0.04559326171875,0.9503173828125,2.093505859375,-3.267364501953125,0.620574951171875,1.0,4.0,4.0,1.0,1.0,100.0,event
09:18:20.516,0.0,0.0,0.0,0.6250042,0.0,0.0,0.0,0.5451684,0.0,0.0,0.0,0.4540438,0.0,0.0,0.0,0.38260847,0.0,0.0,0.0,0.16088663,178.09525,1112.0879,828.4249,821.978,848.97437,-0.2635498046875,0.04559326171875,0.9503173828125,2.093505859375,-3.267364501953125,0.620574951171875,1.0,4.0,4.0,1.0,1.0,100.0,event
09:18:20.516,0.0,0.0,0.0,0.6250042,0.0,0.0,0.0,0.5451684,0.0,0.0,0.0,0.4540438,0.0,0.0,0.0,0.38260847,0.0,0.0,0.0,0.16088663,924.7253,971.8681,684.17584,804.65204,724.0659,-0.2635498046875,0.04559326171875,0.9503173828125,2.093505859375,-3.267364501953125,0.620574951171875,1.0,4.0,4.0,1.0,1.0,100.0,event
09:18:20.517,0.0,0.0,0.0,0.6250042,0.0,0.0,0.0,0.5451684,0.0,0.0,0.0,0.4540438,0.0,0.0,0.0,0.38260847,0.0,0.0,0.0,0.16088663,0.0,134.17583,693.0403,792.1612,736.9597,-0.2635498046875,0.04559326171875,0.9503173828125,2.093505859375,-3.267364501953125,0.620574951171875,1.0,4.0,4.0,1.0,1.0,100.0,event
09:18:20.545,0.0,0.0,0.0,0.6250042,0.0,0.0,0.0,0.5451684,0.0,0.0,0.0,0.4540438,0.0,0.0,0.0,0.38260847,0.0,0.0,0.0,0.16088663,69.30403,222.41759,770.40295,792.96704,671.685,-0.26922607421875,0.05126953125,0.94781494140625,2.572021484375,-1.57012939453125,0.755157470703125,1.0,4.0,4.0,1.0,1.0,100.0,event
09:18:20.546,0.0,0.0,0.0,0.6250042,0.0,0.0,0.0,0.5451684,0.0,0.0,0.0,0.4540438,0.0,0.0,0.0,0.38260847,0.0,0.0,0.0,0.16088663,1065.348,953.3333,778.0586,809.89014,660.0,-0.26922607421875,0.05126953125,0.94781494140625,2.572021484375,-1.57012939453125,0.755157470703125,1.0,4.0,4.0,1.0,1.0,100.0,event
09:18:20.547,0.0,0.0,0.0,0.6250042,0.0,0.0,0.0,0.5451684,0.0,0.0,0.0,0.4540438,0.0,0.0,0.0,0.38260847,0.0,0.0,0.0,0.16088663,170.84248,1243.4432,704.7253,805.8608,738.97437,-0.26922607421875,0.05126953125,0.94781494140625,2.572021484375,-1.57012939453125,0.755157470703125,1.0,4.0,4.0,1.0,1.0,100.0,event
09:18:20.547,0.0,0.0,0.0,0.6250042,0.0,0.0,0.0,0.5451684,0.0,0.0,0.0,0.4540438,0.0,0.0,0.0,0.38260847,0.0,0.0,0.0,0.16088663,981.13556,743.8095,676.52014,793.36993,726.8865,-0.26922607421875,0.05126953125,0.94781494140625,2.572021484375,-1.57012939453125,0.755157470703125,1.0,4.0,4.0,1.0,1.0,100.0,event
09:18:20.548,0.0,0.0,0.0,0.6250042,0.0,0.0,0.0,0.5451684,0.0,0.0,0.0,0.4540438,0.0,0.0,0.0,0.38260847,0.0,0.0,0.0,0.16088663,0.0,236.11722,719.6337,794.9817,718.022,-0.26922607421875,0.05126953125,0.94781494140625,2.572021484375,-1.57012939453125,0.755157470703125,1.0,4.0,4.0,1.0,1.0,100.0,event
09:18:20.549,0.0,0.0,0.0,0.6222927,0.0,0.0,0.0,0.5553714,0.0,0.0,0.0,0.4465286,0.0,0.0,0.0,0.377649,0.0,0.0,0.0,0.16530263,0.0,81.391945,737.3626,800.2198,743.8095,-0.26922607421875,0.05126953125,0.94781494140625,2.572021484375,-1.57012939453125,0.755157470703125,1.0,4.0,4.0,1.0,1.0,100.0,event
09:18:20.553,0.0,0.0,0.0,0.6222927,0.0,0.0,0.0,0.5553714,0.0,0.0,0.0,0.4465286,0.0,0.0,0.0,0.377649,0.0,0.0,0.0,0.16530263,789.34064,365.4579,725.2747,803.8461,861.8681,-0.26922607421875,0.05126953125,0.94781494140625,2.572021484375,-1.57012939453125,0.755157470703125,1.0,4.0,4.0,1.0,1.0,100.0,event
09:18:20.553,0.0,0.0,0.0,0.6222927,0.0,0.0,0.0,0.5553714,0.0,0.0,0.0,0.4465286,0.0,0.0,0.0,0.377649,0.0,0.0,0.0,0.16530263,160.3663,400.1099,710.3663,816.7399,1049.2307,-0.26922607421875,0.05126953125,0.94781494140625,2.572021484375,-1.57012939453125,0.755157470703125,1.0,4.0,4.0,1.0,1.0,100.0,event
09:18:20.554,0.0,0.0,0.0,0.6222927,0.0,0.0,0.0,0.5553714,0.0,0.0,0.0,0.4465286,0.0,0.0,0.0,0.377649,0.0,0.0,0.0,0.16530263,1087.9121,493.1868,775.2381,807.0696,902.5641,-0.26922607421875,0.05126953125,0.94781494140625,2.572021484375,-1.57012939453125,0.755157470703125,1.0,4.0,4.0,1.0,1.0,100.0,event
09:18:20.554,0.0,0.0,0.0,0.6222927,0.0,0.0,0.0,0.5553714,0.0,0.0,0.0,0.4465286,0.0,0.0,0.0,0.377649,0.0,0.0,0.0,0.16530263,41.0989,422.27106,754.2857,788.5348,644.68866,-0.26922607421875,0.05126953125,0.94781494140625,2.572021484375,-1.57012939453125,0.755157470703125,1.0,4.0,4.0,1.0,1.0,100.0,event
09:18:20.555,0.0,0.0,0.0,0.6222927,0.0,0.0,0.0,0.5553714,0.0,0.0,0.0,0.4465286,0.0,0.0,0.0,0.377649,0.0,0.0,0.0,0.16530263,0.0,0.0,676.9231,798.60803,745.42126,-0.26922607421875,0.05126953125,0.94781494140625,2.572021484375,-1.57012939453125,0.755157470703125,1.0,4.0,4.0,1.0,1.0,100.0,event
09:18:20.555,0.0,0.0,0.0,0.6222927,0.0,0.0,0.0,0.5553714,0.0,0.0,0.0,0.4465286,0.0,0.0,0.0,0.377649,0.0,0.0,0.0,0.16530263,650.7326,307.43588,728.9011,815.5311,894.10254,-0.26922607421875,0.05126953125,0.94781494140625,2.572021484375,-1.57012939453125,0.755157470703125,1.0,4.0,4.0,1.0,1.0,100.0,event
09:18:20.582,0.0,0.0,0.0,0.6222927,0.0,0.0,0.0,0.5553714,0.0,0.0,0.0,0.4465286,0.0,0.0,0.0,0.377649,0.0,0.0,0.0,0.16530263,125.311356,1196.7032,796.99634,818.7546,749.0476,-0.2764892578125,0.04541015625,0.9525146484375,1.77947998046875,-2.76641845703125,-0.40374755859375,1.0,4.0,4.0,1.0,1.0,100.0,event
09:18:20.582,0.0,0.0,0.0,0.6222927,0.0,0.0,0.0,0.5553714,0.0,0.0,0.0,0.4465286,0.0,0.0,0.0,0.377649,0.0,0.0,0.0,0.16530263,1218.4615,1189.0476,703.1135,810.293,696.26373,-0.2764892578125,0.04541015625,0.9525146484375,1.77947998046875,-2.76641845703125,-0.40374755859375,1.0,4.0,4.0,1.0,1.0,100.0,event
09:18:20.583,0.0,0.0,0.0,0.6222927,0.0,0.0,0.0,0.5553714,0.0,0.0,0.0,0.4465286,0.0,0.0,0.0,0.377649,0.0,0.0,0.0,0.16530263,123.2967,355.3846,695.05493,797.8022,776.04395,-0.2764892578125,0.04541015625,0.9525146484375,1.77947998046875,-2.76641845703125,-0.40374755859375,1.0,4.0,4.0,1.0,1.0,100.0,event
09:18:20.584,0.0,0.0,0.0,0.6222927,0.0,0.0,0.0,0.5553714,0.0,0.0,0.0,0.4465286,0.0,0.0,0.0,0.377649,0.0,0.0,0.0,0.16530263,680.9524,608.022,769.19415,813.1135,689.41394,-0.2764892578125,0.04541015625,0.9525146484375,1.77947998046875,-2.76641845703125,-0.40374755859375,1.0,4.0,4.0,1.0,1.0,100.0,event
09:18:20.584,0.0,0.0,0.0,0.6222927,0.0,0.0,0.0,0.5553714,0.0,0.0,0.0,0.4465286,0.0,0.0,0.0,0.377649,0.0,0.0,0.0,0.16530263,0.0,48.754578,760.7326,792.5641,722.0513,-0.2764892578125,0.04541015625,0.9525146484375,1.77947998046875,-2.76641845703125,-0.40374755859375,1.0,4.0,4.0,1.0,1.0,100.0,event
09:18:20.585,0.0,0.0,0.0,0.6222927,0.0,0.0,0.0,0.5553714,0.0,0.0,0.0,0.4465286,0.0,0.0,0.0,0.377649,0.0,0.0,0.0,0.16530263,140.21979,1097.5824,725.6777,826.8132,813.5165,-0.2764892578125,0.04541015625,0.9525146484375,1.77947998046875,-2.76641845703125,-0.40374755859375,1.0,4.0,4.0,1.0,1.0,100.0,event
09:18:20.585,0.0,0.0,0.0,0.6222927,0.0,0.0,0.0,0.5553714,0.0,0.0,0.0,0.4465286,0.0,0.0,0.0,0.377649,0.0,0.0,0.0,0.16530263,1155.6044,601.5751,667.25275,814.7253,1052.4542,-0.2764892578125,0.04541015625,0.9525146484375,1.77947998046875,-2.76641845703125,-0.40374755859375,1.0,4.0,4.0,1.0,1.0,100.0,event
09:18:20.585,0.0,0.0,0.0,0.6222927,0.0,0.0,0.0,0.5553714,0.0,0.0,0.0,0.4465286,0.0,0.0,0.0,0.377649,0.0,0.0,0.0,0.16530263,76.55678,0.0,725.6777,805.05493,980.7326,-0.2764892578125,0.04541015625,0.9525146484375,1.77947998046875,-2.76641845703125,-0.40374755859375,1.0,4.0,4.0,1.0,1.0,100.0,event
09:18:20.586,0.0,0.0,0.0,0.6222927,0.0,0.0,0.0,0.5553714,0.0,0.0,0.0,0.4465286,0.0,0.0,0.0,0.377649,0.0,0.0,0.0,0.16530263,0.0,174.06593,786.52014,798.60803,718.8278,-0.2764892578125,0.04541015625,0.9525146484375,1.77947998046875,-2.76641845703125,-0.40374755859375,1.0,4.0,4.0,1.0,1.0,100.0,event
09:18:20.586,0.0,0.0,0.0,0.6222927,0.0,0.0,0.0,0.5553714,0.0,0.0,0.0,0.4465286,0.0,0.0,0.0,0.377649,0.0,0.0,0.0,0.16530263,623.3333,589.89014,743.00366,811.0989,707.1429,-0.2764892578125,0.04541015625,0.9525146484375,1.77947998046875,-2.76641845703125,-0.40374755859375,1.0,4.0,4.0,1.0,1.0,100.0,event
09:18:20.587,0.0,0.0,0.0,0.6222927,0.0,0.0,0.0,0.5553714,0.0,0.0,0.0,0.4465286,0.0,0.0,0.0,0.377649,0.0,0.0,0.0,0.16530263,41.0989,665.2381,726.4835,834.0659,876.77655,-0.2764892578125,0.04541015625,0.9525146484375,1.77947998046875,-2.76641845703125,-0.40374755859375,1.0,4.0,4.0,1.0,1.0,100.0,event
09:18:20.587,0.0,0.0,0.0,0.6222927,0.0,0.0,0.0,0.5553714,0.0,0.0,0.0,0.4465286,0.0,0.0,0.0,0.377649,0.0,0.0,0.0,0.16530263,1517.4359,711.5751,762.3443,823.5897,921.50183,-0.2764892578125,0.04541015625,0.9525146484375,1.77947998046875,-2.76641845703125,-0.40374755859375,1.0,4.0,4.0,1.0,1.0,100.0,event
09:18:20.644,0.0,0.0,0.0,0.6222927,0.0,0.0,0.0,0.5553714,0.0,0.0,0.0,0.4465286,0.0,0.0,0.0,0.377649,0.0,0.0,0.0,0.16530263,493.1868,602.381,743.4066,808.2784,712.7839,-0.27215576171875,0.0455322265625,0.9505615234375,2.19818115234375,-3.581390380859375,-0.052337646484375,1.0,4.0,4.0,1.0,1.0,100.0,event
09:18:20.645,0.0,0.0,0.0,0.6222927,0.0,0.0,0.0,0.5553714,0.0,0.0,0.0,0.4465286,0.0,0.0,0.0,0.377649,0.0,0.0,0.0,0.16530263,0.0,122.08791,699.0842,802.23444,697.8755,-0.27215576171875,0.0455322265625,0.9505615234375,2.19818115234375,-3.581390380859375,-0.052337646484375,1.0,4.0,4.0,1.0,1.0,100.0,event
09:18:20.645,0.0,0.0,0.0,0.6222927,0.0,0.0,0.0,0.5553714,0.0,0.0,0.0,0.4465286,0.0,0.0,0.0,0.377649,0.0,0.0,0.0,0.16530263,514.94507,132.96703,734.1392,815.12823,750.65936,-0.27215576171875,0.0455322265625,0.9505615234375,2.19818115234375,-3.581390380859375,-0.052337646484375,1.0,4.0,4.0,1.0,1.0,100.0,event
09:18:20.646,0.0,0.0,0.0,0.6222927,0.0,0.0,0.0,0.5553714,0.0,0.0,0.0,0.4465286,0.0,0.0,0.0,0.377649,0.0,0.0,0.0,0.16530263,1623.8096,919.4872,811.50183,836.08057,702.3077,-0.27215576171875,0.0455322265625,0.9505615234375,2.19818115234375,-3.581390380859375,-0.052337646484375,1.0,4.0,4.0,1.0,1.0,100.0,event
09:18:20.646,0.0,0.0,0.0,0.6222927,0.0,0.0,0.0,0.5553714,0.0,0.0,0.0,0.4465286,0.0,0.0,0.0,0.377649,0.0,0.0,0.0,0.16530263,1610.9158,1287.7656,746.63007,832.0513,690.6227,-0.27215576171875,0.0455322265625,0.9505615234375,2.19818115234375,-3.581390380859375,-0.052337646484375,1.0,4.0,4.0,1.0,1.0,100.0,event
09:18:20.647,0.0,0.0,0.0,0.6222927,0.0,0.0,0.0,0.5553714,0.0,0.0,0.0,0.4465286,0.0,0.0,0.0,0.377649,0.0,0.0,0.0,0.16530263,601.5751,493.99268,639.85345,807.0696,849.7802,-0.27215576171875,0.0455322265625,0.9505615234375,2.19818115234375,-3.581390380859375,-0.052337646484375,1.0,4.0,4.0,1.0,1.0,100.0,event
09:18:20.647,0.0,0.0,0.0,0.6222927,0.0,0.0,0.0,0.5553714,0.0,0.0,0.0,0.4465286,0.0,0.0,0.0,0.377649,0.0,0.0,0.0,0.16530263,0.0,0.0,711.1722,790.54944,1018.20514,-0.27215576171875,0.0455322265625,0.9505615234375,2.19818115234375,-3.581390380859375,-0.052337646484375,1.0,4.0,4.0,1.0,1.0,100.0,event
09:18:20.648,0.0,0.0,0.0,0.6321326,0.0,0.0,0.0,0.5824594,0.0,0.0,0.0,0.42219368,0.0,0.0,0.0,0.37720808,0.0,0.0,0.0,0.17167167,422.67398,276.41025,822.7839,805.4579,861.8681,-0.27215576171875,0.0455322265625,0.9505615234375,2.19818115234375,-3.581390380859375,-0.052337646484375,1.0,4.0,4.0,1.0,1.0,100.0,event
09:18:20.651,0.0,0.0,0.0,0.6321326,0.0,0.0,0.0,0.5824594,0.0,0.0,0.0,0.42219368,0.0,0.0,0.0,0.37720808,0.0,0.0,0.0,0.17167167,1545.238,1130.2197,794.17584,834.0659,714.3956,-0.27215576171875,0.0455322265625,0.9505615234375,2.19818115234375,-3.581390380859375,-0.052337646484375,1.0,4.0,4.0,1.0,1.0,100.0,event
09:18:20.652,0.0,0.0,0.0,0.6321326,0.0,0.0,0.0,0.5824594,0.0,0.0,0.0,0.42219368,0.0,0.0,0.0,0.37720808,0.0,0.0,0.0,0.17167167,4.835165,1079.8535,673.2967,828.8278,848.5714,-0.27215576171875,0.0455322265625,0.9505615234375,2.19818115234375,-3.581390380859375,-0.052337646484375,1.0,4.0,4.0,1.0,1.0,100.0,event
09:18:20.652,0.0,0.0,0.0,0.6321326,0.0,0.0,0.0,0.5824594,0.0,0.0,0.0,0.42219368,0.0,0.0,0.0,0.37720808,0.0,0.0,0.0,0.17167167,616.08057,134.57875,665.64105,818.7546,883.22345,-0.27215576171875,0.0455322265625,0.9505615234375,2.19818115234375,-3.581390380859375,-0.052337646484375,1.0,4.0,4.0,1.0,1.0,100.0,event
09:18:20.653,0.0,0.0,0.0,0.6321326,0.0,0.0,0.0,0.5824594,0.0,0.0,0.0,0.42219368,0.0,0.0,0.0,0.37720808,0.0,0.0,0.0,0.17167167,0.0,27.802198,791.3553,829.6337,679.7436,-0.27215576171875,0.0455322265625,0.9505615234375,2.19818115234375,-3.581390380859375,-0.052337646484375,1.0,4.0,4.0,1.0,1.0,100.0,event
09:18:20.690,0.0,0.0,0.0,0.6321326,0.0,0.0,0.0,0.5824594,0.0,0.0,0.0,0.42219368,0.0,0.0,0.0,0.37720808,0.0,0.0,0.0,0.17167167,265.53113,362.23444,775.64105,825.2015,638.6447,-0.26806640625,0.04510498046875,0.950927734375,1.68975830078125,-3.850555419921875,-0.097198486328125,1.0,4.0,4.0,1.0,1.0,100.0,event
09:18:20.690,0.0,0.0,0.0,0.6321326,0.0,0.0,0.0,0.5824594,0.0,0.0,0.0,0.42219368,0.0,0.0,0.0,0.37720808,0.0,0.0,0.0,0.17167167,1316.3737,737.76556,752.674,802.23444,829.6337,-0.26806640625,0.04510498046875,0.950927734375,1.68975830078125,-3.850555419921875,-0.097198486328125,1.0,4.0,4.0,1.0,1.0,100.0,event
09:18:20.691,0.0,0.0,0.0,0.6321326,0.0,0.0,0.0,0.5824594,0.0,0.0,0.0,0.42219368,0.0,0.0,0.0,0.37720808,0.0,0.0,0.0,0.17167167,140.21979,986.77655,752.27106,775.64105,871.53845,-0.26806640625,0.04510498046875,0.950927734375,1.68975830078125,-3.850555419921875,-0.097198486328125,1.0,4.0,4.0,1.0,1.0,100.0,event
09:18:20.691,0.0,0.0,0.0,0.6321326,0.0,0.0,0.0,0.5824594,0.0,0.0,0.0,0.42219368,0.0,0.0,0.0,0.37720808,0.0,0.0,0.0,0.17167167,857.03296,741.39197,732.9304,747.03296,696.26373,-0.26806640625,0.04510498046875,0.950927734375,1.68975830078125,-3.850555419921875,-0.097198486328125,1.0,4.0,4.0,1.0,1.0,100.0,event
09:18:20.692,0.0,0.0,0.0,0.6321326,0.0,0.0,0.0,0.5824594,0.0,0.0,0.0,0.42219368,0.0,0.0,0.0,0.37720808,0.0,0.0,0.0,0.17167167,0.0,221.61172,726.4835,722.8571,655.56775,-0.26806640625,0.04510498046875,0.950927734375,1.68975830078125,-3.850555419921875,-0.097198486328125,1.0,4.0,4.0,1.0,1.0,100.0,event
09:18:20.692,0.0,0.0,0.0,0.6321326,0.0,0.0,0.0,0.5824594,0.0,0.0,0.0,0.42219368,0.0,0.0,0.0,0.37720808,0.0,0.0,0.0,0.17167167,0.0,0.0,692.23444,700.293,944.4689,-0.26806640625,0.04510498046875,0.950927734375,1.68975830078125,-3.850555419921875,-0.097198486328125,1.0,4.0,4.0,1.0,1.0,100.0,event
09:18:20.692,0.0,0.0,0.0,0.6321326,0.0,0.0,0.0,0.5824594,0.0,0.0,0.0,0.42219368,0.0,0.0,0.0,0.37720808,0.0,0.0,0.0,0.17167167,827.619,262.71063,758.71796,706.7399,1124.5787,-0.26806640625,0.04510498046875,0.950927734375,1.68975830078125,-3.850555419921875,-0.097198486328125,1.0,4.0,4.0,1.0,1.0,100.0,event
09:18:20.693,0.0,0.0,0.0,0.6321326,0.0,0.0,0.0,0.5824594,0.0,0.0,0.0,0.42219368,0.0,0.0,0.0,0.37720808,0.0,0.0,0.0,0.17167167,176.88644,1066.5568,822.7839,695.05493,795.38464,-0.26806640625,0.04510498046875,0.950927734375,1.68975830078125,-3.850555419921875,-0.097198486328125,1.0,4.0,4.0,1.0,1.0,100.0,event
09:18:20.693,0.0,0.0,0.0,0.6321326,0.0,0.0,0.0,0.5824594,0.0,0.0,0.0,0.42219368,0.0,0.0,0.0,0.37720808,0.0,0.0,0.0,0.17167167,955.34796,911.02563,705.9341,651.9414,665.2381,-0.26806640625,0.04510498046875,0.950927734375,1.68975830078125,-3.850555419921875,-0.097198486328125,1.0,4.0,4.0,1.0,1.0,100.0,event
09:18:20.693,0.0,0.0,0.0,0.6321326,0.0,0.0,0.0,0.5824594,0.0,0.0,0.0,0.42219368,0.0,0.0,0.0,0.37720808,0.0,0.0,0.0,0.17167167,0.0,130.14651,722.8571,625.7509,762.3443,-0.26806640625,0.04510498046875,0.950927734375,1.68975830078125,-3.850555419921875,-0.097198486328125,1.0,4.0,4.0,1.0,1.0,100.0,event
09:18:20.694,0.0,0.0,0.0,0.6321326,0.0,0.0,0.0,0.5824594,0.0,0.0,0.0,0.42219368,0.0,0.0,0.0,0.37720808,0.0,0.0,0.0,0.17167167,929.5604,877.5824,803.44324,618.49817,723.2601,-0.26806640625,0.04510498046875,0.950927734375,1.68975830078125,-3.850555419921875,-0.097198486328125,1.0,4.0,4.0,1.0,1.0,100.0,event
09:18:20.694,0.0,0.0,0.0,0.6321326,0.0,0.0,0.0,0.5824594,0.0,0.0,0.0,0.42219368,0.0,0.0,0.0,0.37720808,0.0,0.0,0.0,0.17167167,3.2234433,135.78755,817.9487,612.8571,733.3333,-0.26806640625,0.04510498046875,0.950927734375,1.68975830078125,-3.850555419921875,-0.097198486328125,1.0,4.0,4.0,1.0,1.0,100.0,event
09:18:20.736,0.0,0.0,0.0,0.6321326,0.0,0.0,0.0,0.5824594,0.0,0.0,0.0,0.42219368,0.0,0.0,0.0,0.37720808,0.0,0.0,0.0,0.17167167,170.43956,1287.7656,735.34796,618.0952,763.5531,-0.26806640625,0.04510498046875,0.950927734375,1.68975830078125,-3.850555419921875,-0.097198486328125,1.0,4.0,4.0,1.0,1.0,100.0,event
09:18:20.736,0.0,0.0,0.0,0.6321326,0.0,0.0,0.0,0.5824594,0.0,0.0,0.0,0.42219368,0.0,0.0,0.0,0.37720808,0.0,0.0,0.0,0.17167167,1031.9048,822.7839,693.8461,586.6667,770.40295,-0.26806640625,0.04510498046875,0.950927734375,1.68975830078125,-3.850555419921875,-0.097198486328125,1.0,4.0,4.0,1.0,1.0,100.0,event
09:18:20.737,0.0,0.0,0.0,0.6321326,0.0,0.0,0.0,0.5824594,0.0,0.0,0.0,0.42219368,0.0,0.0,0.0,0.37720808,0.0,0.0,0.0,0.17167167,3.6263735,273.99268,744.21246,562.49084,753.47986,-0.26806640625,0.04510498046875,0.950927734375,1.68975830078125,-3.850555419921875,-0.097198486328125,1.0,4.0,4.0,1.0,1.0,100.0,event
09:18:20.738,0.0,0.0,0.0,0.6321326,0.0,0.0,0.0,0.5824594,0.0,0.0,0.0,0.42219368,0.0,0.0,0.0,0.37720808,0.0,0.0,0.0,0.17167167,0.0,242.5641,759.92676,571.3553,696.26373,-0.26806640625,0.04510498046875,0.950927734375,1.68975830078125,-3.850555419921875,-0.097198486328125,1.0,4.0,4.0,1.0,1.0,100.0,event
09:18:20.738,0.0,0.0,0.0,0.6321326,0.0,0.0,0.0,0.5824594,0.0,0.0,0.0,0.42219368,0.0,0.0,0.0,0.37720808,0.0,0.0,0.0,0.17167167,761.53845,571.3553,737.76556,605.6044,732.9304,-0.26806640625,0.04510498046875,0.950927734375,1.68975830078125,-3.850555419921875,-0.097198486328125,1.0,4.0,4.0,1.0,1.0,100.0,event
09:18:20.738,0.0,0.0,0.0,0.6321326,0.0,0.0,0.0,0.5824594,0.0,0.0,0.0,0.42219368,0.0,0.0,0.0,0.37720808,0.0,0.0,0.0,0.17167167,156.33699,838.49817,730.5128,612.4542,871.53845,-0.26806640625,0.04510498046875,0.950927734375,1.68975830078125,-3.850555419921875,-0.097198486328125,1.0,4.0,4.0,1.0,1.0,100.0,event
09:18:20.739,0.0,0.0,0.0,0.6321326,0.0,0.0,0.0,0.5824594,0.0,0.0,0.0,0.42219368,0.0,0.0,0.0,0.37720808,0.0,0.0,0.0,0.17167167,1086.3004,696.26373,724.87177,591.0989,902.5641,-0.26806640625,0.04510498046875,0.950927734375,1.68975830078125,-3.850555419921875,-0.097198486328125,1.0,4.0,4.0,1.0,1.0,100.0,event
09:18:20.740,0.0,0.0,0.0,0.6321326,0.0,0.0,0.0,0.5824594,0.0,0.0,0.0,0.42219368,0.0,0.0,0.0,0.37720808,0.0,0.0,0.0,0.17167167,44.322346,158.35165,738.5714,585.8608,850.989,-0.26806640625,0.04510498046875,0.950927734375,1.68975830078125,-3.850555419921875,-0.097198486328125,1.0,4.0,4.0,1.0,1.0,100.0,event
09:18:20.740,0.0,0.0,0.0,0.6321326,0.0,0.0,0.0,0.5824594,0.0,0.0,0.0,0.42219368,0.0,0.0,0.0,0.37720808,0.0,0.0,0.0,0.17167167,0.0,5.6410255,714.3956,607.2161,804.65204,-0.26806640625,0.04510498046875,0.950927734375,1.68975830078125,-3.850555419921875,-0.097198486328125,1.0,4.0,4.0,1.0,1.0,100.0,event
09:18:20.740,0.0,0.0,0.0,0.65685844,0.0,0.0,0.0,0.60685307,0.0,0.0,0.0,0.39851016,0.0,0.0,0.0,0.37560892,0.0,0.0,0.0,0.18007047,614.0659,0.0,709.15753,635.42126,1019.81683,-0.26806640625,0.04510498046875,0.950927734375,1.68975830078125,-3.850555419921875,-0.097198486328125,1.0,4.0,4.0,1.0,1.0,100.0,event
09:18:20.744,0.0,0.0,0.0,0.65685844,0.0,0.0,0.0,0.60685307,0.0,0.0,0.0,0.39851016,0.0,0.0,0.0,0.37560892,0.0,0.0,0.0,0.18007047,102.34432,628.1685,840.5128,656.3736,994.0293,-0.26806640625,0.04510498046875,0.950927734375,1.68975830078125,-3.850555419921875,-0.097198486328125,1.0,4.0,4.0,1.0,1.0,100.0,event
09:18:20.744,0.0,0.0,0.0,0.65685844,0.0,0.0,0.0,0.60685307,0.0,0.0,0.0,0.39851016,0.0,0.0,0.0,0.37560892,0.0,0.0,0.0,0.18007047,1292.6007,1257.5458,771.2088,649.5238,780.87915,-0.26806640625,0.04510498046875,0.950927734375,1.68975830078125,-3.850555419921875,-0.097198486328125,1.0,4.0,4.0,1.0,1.0,100.0,event
09:18:20.772,0.0,0.0,0.0,0.65685844,0.0,0.0,0.0,0.60685307,0.0,0.0,0.0,0.39851016,0.0,0.0,0.0,0.37560892,0.0,0.0,0.0,0.18007047,194.61539,442.82053,700.696,628.97437,807.0696,-0.26800537109375,0.04705810546875,0.95086669921875,1.854248046875,-3.312225341796875,0.127105712890625,1.0,4.0,4.0,1.0,1.0,100.0,event
09:18:20.773,0.0,0.0,0.0,0.65685844,0.0,0.0,0.0,0.60685307,0.0,0.0,0.0,0.39851016,0.0,0.0,0.0,0.37560892,0.0,0.0,0.0,0.18007047,639.85345,597.5458,793.36993,673.2967,709.5604,-0.26800537109375,0.04705810546875,0.95086669921875,1.854248046875,-3.312225341796875,0.127105712890625,1.0,4.0,4.0,1.0,1.0,100.0,event
09:18:20.773,0.0,0.0,0.0,0.65685844,0.0,0.0,0.0,0.60685307,0.0,0.0,0.0,0.39851016,0.0,0.0,0.0,0.37560892,0.0,0.0,0.0,0.18007047,0.0,34.249084,762.74725,645.89746,746.63007,-0.26800537109375,0.04705810546875,0.95086669921875,1.854248046875,-3.312225341796875,0.127105712890625,1.0,4.0,4.0,1.0,1.0,100.0,event
09:18:20.774,0.0,0.0,0.0,0.65685844,0.0,0.0,0.0,0.60685307,0.0,0.0,0.0,0.39851016,0.0,0.0,0.0,0.37560892,0.0,0.0,0.0,0.18007047,85.01832,1286.5568,767.1795,695.8608,748.6447,-0.26800537109375,0.04705810546875,0.95086669921875,1.854248046875,-3.312225341796875,0.127105712890625,1.0,4.0,4.0,1.0,1.0,100.0,event
09:18:20.774,0.0,0.0,0.0,0.65685844,0.0,0.0,0.0,0.60685307,0.0,0.0,0.0,0.39851016,0.0,0.0,0.0,0.37560892,0.0,0.0,0.0,0.18007047,1388.4982,1064.1392,700.696,690.2198,776.8498,-0.26800537109375,0.04705810546875,0.95086669921875,1.854248046875,-3.312225341796875,0.127105712890625,1.0,4.0,4.0,1.0,1.0,100.0,event
09:18:20.775,0.0,0.0,0.0,0.65685844,0.0,0.0,0.0,0.60685307,0.0,0.0,0.0,0.39851016,0.0,0.0,0.0,0.37560892,0.0,0.0,0.0,0.18007047,301.79486,220.40292,698.68134,671.685,781.685,-0.26800537109375,0.04705810546875,0.95086669921875,1.854248046875,-3.312225341796875,0.127105712890625,1.0,4.0,4.0,1.0,1.0,100.0,event
09:18:20.776,0.0,0.0,0.0,0.65685844,0.0,0.0,0.0,0.60685307,0.0,0.0,0.0,0.39851016,0.0,0.0,0.0,0.37560892,0.0,0.0,0.0,0.18007047,0.0,0.0,750.2564,695.8608,839.304,-0.26800537109375,0.04705810546875,0.95086669921875,1.854248046875,-3.312225341796875,0.127105712890625,1.0,4.0,4.0,1.0,1.0,100.0,event
09:18:20.776,0.0,0.0,0.0,0.65685844,0.0,0.0,0.0,0.60685307,0.0,0.0,0.0,0.39851016,0.0,0.0,0.0,0.37560892,0.0,0.0,0.0,0.18007047,575.38464,436.77655,788.5348,711.978,764.35895,-0.26800537109375,0.04705810546875,0.95086669921875,1.854248046875,-3.312225341796875,0.127105712890625,1.0,4.0,4.0,1.0,1.0,100.0,event
09:18:20.777,0.0,0.0,0.0,0.65685844,0.0,0.0,0.0,0.60685307,0.0,0.0,0.0,0.39851016,0.0,0.0,0.0,0.37560892,0.0,0.0,0.0,0.18007047,1637.5092,572.96704,701.9048,740.989,936.8132,-0.26800537109375,0.04705810546875,0.95086669921875,1.854248046875,-3.312225341796875,0.127105712890625,1.0,4.0,4.0,1.0,1.0,100.0,event
09:18:20.777,0.0,0.0,0.0,0.65685844,0.0,0.0,0.0,0.60685307,0.0,0.0,0.0,0.39851016,0.0,0.0,0.0,0.37560892,0.0,0.0,0.0,0.18007047,1619.7803,225.64102,732.9304,748.24176,1074.6154,-0.26800537109375,0.04705810546875,0.95086669921875,1.854248046875,-3.312225341796875,0.127105712890625,1.0,4.0,4.0,1.0,1.0,100.0,event
09:18:20.778,0.0,0.0,0.0,0.65685844,0.0,0.0,0.0,0.60685307,0.0,0.0,0.0,0.39851016,0.0,0.0,0.0,0.37560892,0.0,0.0,0.0,0.18007047,656.3736,404.1392,794.57874,718.4249,756.30035,-0.26800537109375,0.04705810546875,0.95086669921875,1.854248046875,-3.312225341796875,0.127105712890625,1.0,4.0,4.0,1.0,1.0,100.0,event
09:18:20.778,0.0,0.0,0.0,0.65685844,0.0,0.0,0.0,0.60685307,0.0,0.0,0.0,0.39851016,0.0,0.0,0.0,0.37560892,0.0,0.0,0.0,0.18007047,0.0,188.57143,713.9927,745.0183,662.8205,-0.26800537109375,0.04705810546875,0.95086669921875,1.854248046875,-3.312225341796875,0.127105712890625,1.0,4.0,4.0,1.0,1.0,100.0,event
09:18:20.806,0.0,0.0,0.0,0.65685844,0.0,0.0,0.0,0.60685307,0.0,0.0,0.0,0.39851016,0.0,0.0,0.0,0.37560892,0.0,0.0,0.0,0.18007047,474.652,205.89743,751.06226,777.25275,725.6777,-0.270751953125,0.043701171875,0.94708251953125,1.74957275390625,-3.06549072265625,0.366363525390625,1.0,4.0,4.0,1.0,1.0,100.0,event
09:18:20.806,0.0,0.0,0.0,0.65685844,0.0,0.0,0.0,0.60685307,0.0,0.0,0.0,0.39851016,0.0,0.0,0.0,0.37560892,0.0,0.0,0.0,0.18007047,1562.967,1090.7325,792.96704,796.99634,772.8205,-0.270751953125,0.043701171875,0.94708251953125,1.74957275390625,-3.06549072265625,0.366363525390625,1.0,4.0,4.0,1.0,1.0,100.0,event
09:18:20.807,0.0,0.0,0.0,0.65685844,0.0,0.0,0.0,0.60685307,0.0,0.0,0.0,0.39851016,0.0,0.0,0.0,0.37560892,0.0,0.0,0.0,0.18007047,49.56044,1487.2161,725.2747,798.60803,772.01465,-0.270751953125,0.043701171875,0.94708251953125,1.74957275390625,-3.06549072265625,0.366363525390625,1.0,4.0,4.0,1.0,1.0,100.0,event
09:18:20.808,0.0,0.0,0.0,0.65685844,0.0,0.0,0.0,0.60685307,0.0,0.0,0.0,0.39851016,0.0,0.0,0.0,0.37560892,0.0,0.0,0.0,0.18007047,0.0,29.41392,678.1319,772.8205,815.9341,-0.270751953125,0.043701171875,0.94708251953125,1.74957275390625,-3.06549072265625,0.366363525390625,1.0,4.0,4.0,1.0,1.0,100.0,event
09:18:20.808,0.0,0.0,0.0,0.65685844,0.0,0.0,0.0,0.60685307,0.0,0.0,0.0,0.39851016,0.0,0.0,0.0,0.37560892,0.0,0.0,0.0,0.18007047,800.6227,742.1978,655.56775,767.5824,774.0293,-0.270751953125,0.043701171875,0.94708251953125,1.74957275390625,-3.06549072265625,0.366363525390625,1.0,4.0,4.0,1.0,1.0,100.0,event
09:18:20.809,0.0,0.0,0.0,0.65685844,0.0,0.0,0.0,0.60685307,0.0,0.0,0.0,0.39851016,0.0,0.0,0.0,0.37560892,0.0,0.0,0.0,0.18007047,273.1868,118.05861,748.6447,786.1172,847.76556,-0.270751953125,0.043701171875,0.94708251953125,1.74957275390625,-3.06549072265625,0.366363525390625,1.0,4.0,4.0,1.0,1.0,100.0,event
09:18:20.809,0.0,0.0,0.0,0.65685844,0.0,0.0,0.0,0.60685307,0.0,0.0,0.0,0.39851016,0.0,0.0,0.0,0.37560892,0.0,0.0,0.0,0.18007047,1409.0476,819.9634,780.87915,806.6667,851.79486,-0.270751953125,0.043701171875,0.94708251953125,1.74957275390625,-3.06549072265625,0.366363525390625,1.0,4.0,4.0,1.0,1.0,100.0,event
09:18:20.810,0.0,0.0,0.0,0.65685844,0.0,0.0,0.0,0.60685307,0.0,0.0,0.0,0.39851016,0.0,0.0,0.0,0.37560892,0.0,0.0,0.0,0.18007047,97.509155,1025.8608,681.3553,817.5458,908.60803,-0.270751953125,0.043701171875,0.94708251953125,1.74957275390625,-3.06549072265625,0.366363525390625,1.0,4.0,4.0,1.0,1.0,100.0,event
09:18:20.810,0.0,0.0,0.0,0.65685844,0.0,0.0,0.0,0.60685307,0.0,0.0,0.0,0.39851016,0.0,0.0,0.0,0.37560892,0.0,0.0,0.0,0.18007047,772.8205,221.20879,667.25275,800.2198,1049.6337,-0.270751953125,0.043701171875,0.94708251953125,1.74957275390625,-3.06549072265625,0.366363525390625,1.0,4.0,4.0,1.0,1.0,100.0,event
09:18:20.811,0.0,0.0,0.0,0.65685844,0.0,0.0,0.0,0.60685307,0.0,0.0,0.0,0.39851016,0.0,0.0,0.0,0.37560892,0.0,0.0,0.0,0.18007047,0.0,11.282051,803.8461,792.5641,893.2967,-0.270751953125,0.043701171875,0.94708251953125,1.74957275390625,-3.06549072265625,0.366363525390625,1.0,4.0,4.0,1.0,1.0,100.0,event
09:18:20.811,0.0,0.0,0.0,0.65685844,0.0,0.0,0.0,0.60685307,0.0,0.0,0.0,0.39851016,0.0,0.0,0.0,0.37560892,0.0,0.0,0.0,0.18007047,176.88644,464.1758,780.4762,813.1135,713.9927,-0.270751953125,0.043701171875,0.94708251953125,1.74957275390625,-3.06549072265625,0.366363525390625,1.0,4.0,4.0,1.0,1.0,100.0,event
09:18:20.812,0.0,0.0,0.0,0.68199015,0.0,0.0,0.0,0.62766546,0.0,0.0,0.0,0.38751954,0.0,0.0,0.0,0.3728476,0.0,0.0,0.0,0.18469067,1207.5824,641.4652,725.2747,844.94507,911.8315,-0.270751953125,0.043701171875,0.94708251953125,1.74957275390625,-3.06549072265625,0.366363525390625,1.0,4.0,4.0,1.0,1.0,100.0,event
09:18:20.881,0.0,0.0,0.0,0.68199015,0.0,0.0,0.0,0.62766546,0.0,0.0,0.0,0.38751954,0.0,0.0,0.0,0.3728476,0.0,0.0,0.0,0.18469067,158.75458,979.12085,748.24176,850.58606,1010.54944,-0.27105712890625,0.038818359375,0.94232177734375,2.041168212890625,-2.848663330078125,-0.007476806640625,1.0,4.0,4.0,1.0,1.0,100.0,event
09:18:20.883,0.0,0.0,0.0,0.68199015,0.0,0.0,0.0,0.62766546,0.0,0.0,0.0,0.38751954,0.0,0.0,0.0,0.3728476,0.0,0.0,0.0,0.18469067,960.989,1084.2858,730.9158,834.87177,840.9158,-0.27105712890625,0.038818359375,0.94232177734375,2.041168212890625,-2.848663330078125,-0.007476806640625,1.0,4.0,4.0,1.0,1.0,100.0,event
09:18:20.884,0.0,0.0,0.0,0.68199015,0.0,0.0,0.0,0.62766546,0.0,0.0,0.0,0.38751954,0.0,0.0,0.0,0.3728476,0.0,0.0,0.0,0.18469067,0.0,405.75092,698.68134,826.0073,693.44324,-0.27105712890625,0.038818359375,0.94232177734375,2.041168212890625,-2.848663330078125,-0.007476806640625,1.0,4.0,4.0,1.0,1.0,100.0,event
09:18:20.884,0.0,0.0,0.0,0.68199015,0.0,0.0,0.0,0.62766546,0.0,0.0,0.0,0.38751954,0.0,0.0,0.0,0.3728476,0.0,0.0,0.0,0.18469067,32.637363,77.765564,768.3883,832.0513,724.0659,-0.27105712890625,0.038818359375,0.94232177734375,2.041168212890625,-2.848663330078125,-0.007476806640625,1.0,4.0,4.0,1.0,1.0,100.0,event
09:18:20.885,0.0,0.0,0.0,0.68199015,0.0,0.0,0.0,0.62766546,0.0,0.0,0.0,0.38751954,0.0,0.0,0.0,0.3728476,0.0,0.0,0.0,0.18469067,1018.60803,702.3077,814.7253,866.7033,760.7326,-0.27105712890625,0.038818359375,0.94232177734375,2.041168212890625,-2.848663330078125,-0.007476806640625,1.0,4.0,4.0,1.0,1.0,100.0,event
09:18:20.886,0.0,0.0,0.0,0.68199015,0.0,0.0,0.0,0.62766546,0.0,0.0,0.0,0.38751954,0.0,0.0,0.0,0.3728476,0.0,0.0,0.0,0.18469067,172.85715,1244.249,753.0769,874.7619,801.8315,-0.27105712890625,0.038818359375,0.94232177734375,2.041168212890625,-2.848663330078125,-0.007476806640625,1.0,4.0,4.0,1.0,1.0,100.0,event
09:18:20.887,0.0,0.0,0.0,0.68199015,0.0,0.0,0.0,0.62766546,0.0,0.0,0.0,0.38751954,0.0,0.0,0.0,0.3728476,0.0,0.0,0.0,0.18469067,1003.69965,772.4176,717.2161,853.4066,877.98535,-0.27105712890625,0.038818359375,0.94232177734375,2.041168212890625,-2.848663330078125,-0.007476806640625,1.0,4.0,4.0,1.0,1.0,100.0,event
09:18:20.889,0.0,0.0,0.0,0.68199015,0.0,0.0,0.0,0.62766546,0.0,0.0,0.0,0.38751954,0.0,0.0,0.0,0.3728476,0.0,0.0,0.0,0.18469067,0.0,118.46154,676.52014,848.97437,1003.2967,-0.27105712890625,0.038818359375,0.94232177734375,2.041168212890625,-2.848663330078125,-0.007476806640625,1.0,4.0,4.0,1.0,1.0,100.0,event
09:18:20.890,0.0,0.0,0.0,0.68199015,0.0,0.0,0.0,0.62766546,0.0,0.0,0.0,0.38751954,0.0,0.0,0.0,0.3728476,0.0,0.0,0.0,0.18469067,0.0,96.7033,774.83514,850.989,1007.72894,-0.27105712890625,0.038818359375,0.94232177734375,2.041168212890625,-2.848663330078125,-0.007476806640625,1.0,4.0,4.0,1.0,1.0,100.0,event
09:18:20.891,0.0,0.0,0.0,0.68199015,0.0,0.0,0.0,0.62766546,0.0,0.0,0.0,0.38751954,0.0,0.0,0.0,0.3728476,0.0,0.0,0.0,0.18469067,859.85345,904.9817,859.45056,876.3736,796.5934,-0.27105712890625,0.038818359375,0.94232177734375,2.041168212890625,-2.848663330078125,-0.007476806640625,1.0,4.0,4.0,1.0,1.0,100.0,event
09:18:20.891,0.0,0.0,0.0,0.68199015,0.0,0.0,0.0,0.62766546,0.0,0.0,0.0,0.38751954,0.0,0.0,0.0,0.3728476,0.0,0.0,0.0,0.18469067,159.56044,1484.7986,743.8095,882.01465,802.6374,-0.27105712890625,0.038818359375,0.94232177734375,2.041168212890625,-2.848663330078125,-0.007476806640625,1.0,4.0,4.0,1.0,1.0,100.0,event
09:18:20.892,0.0,0.0,0.0,0.68199015,0.0,0.0,0.0,0.62766546,0.0,0.0,0.0,0.38751954,0.0,0.0,0.0,0.3728476,0.0,0.0,0.0,0.18469067,1128.608,1049.2307,697.8755,854.21246,821.1722,-0.27105712890625,0.038818359375,0.94232177734375,2.041168212890625,-2.848663330078125,-0.007476806640625,1.0,4.0,4.0,1.0,1.0,100.0,event
09:18:20.922,0.0,0.0,0.0,0.68199015,0.0,0.0,0.0,0.62766546,0.0,0.0,0.0,0.38751954,0.0,0.0,0.0,0.3728476,0.0,0.0,0.0,0.18469067,70.51282,407.76556,746.63007,838.9011,722.8571,-0.27105712890625,0.038818359375,0.94232177734375,2.041168212890625,-2.848663330078125,-0.007476806640625,1.0,4.0,4.0,1.0,1.0,100.0,event
09:18:20.924,0.0,0.0,0.0,0.68199015,0.0,0.0,0.0,0.62766546,0.0,0.0,0.0,0.38751954,0.0,0.0,0.0,0.3728476,0.0,0.0,0.0,0.18469067,0.0,286.0806,776.04395,859.0476,676.9231,-0.27105712890625,0.038818359375,0.94232177734375,2.041168212890625,-2.848663330078125,-0.007476806640625,1.0,4.0,4.0,1.0,1.0,100.0,event
09:18:20.925,0.0,0.0,0.0,0.68199015,0.0,0.0,0.0,0.62766546,0.0,0.0,0.0,0.38751954,0.0,0.0,0.0,0.3728476,0.0,0.0,0.0,0.18469067,681.3553,594.3223,767.1795,882.01465,861.06226,-0.27105712890625,0.038818359375,0.94232177734375,2.041168212890625,-2.848663330078125,-0.007476806640625,1.0,4.0,4.0,1.0,1.0,100.0,event
09:18:20.927,0.0,0.0,0.0,0.68199015,0.0,0.0,0.0,0.62766546,0.0,0.0,0.0,0.38751954,0.0,0.0,0.0,0.3728476,0.0,0.0,0.0,0.18469067,124.908424,944.87177,774.43225,888.86444,950.5128,-0.27105712890625,0.038818359375,0.94232177734375,2.041168212890625,-2.848663330078125,-0.007476806640625,1.0,4.0,4.0,1.0,1.0,100.0,event
09:18:20.927,0.0,0.0,0.0,0.68199015,0.0,0.0,0.0,0.62766546,0.0,0.0,0.0,0.38751954,0.0,0.0,0.0,0.3728476,0.0,0.0,0.0,0.18469067,1250.2931,1062.9304,755.4945,884.43225,808.2784,-0.27105712890625,0.038818359375,0.94232177734375,2.041168212890625,-2.848663330078125,-0.007476806640625,1.0,4.0,4.0,1.0,1.0,100.0,event
09:18:20.928,0.0,0.0,0.0,0.68199015,0.0,0.0,0.0,0.62766546,0.0,0.0,0.0,0.38751954,0.0,0.0,0.0,0.3728476,0.0,0.0,0.0,0.18469067,163.18681,413.00366,717.619,854.21246,745.82416,-0.27105712890625,0.038818359375,0.94232177734375,2.041168212890625,-2.848663330078125,-0.007476806640625,1.0,4.0,4.0,1.0,1.0,100.0,event
09:18:20.929,0.0,0.0,0.0,0.68199015,0.0,0.0,0.0,0.62766546,0.0,0.0,0.0,0.38751954,0.0,0.0,0.0,0.3728476,0.0,0.0,0.0,0.18469067,0.0,0.0,716.8132,846.9597,831.6484,-0.27105712890625,0.038818359375,0.94232177734375,2.041168212890625,-2.848663330078125,-0.007476806640625,1.0,4.0,4.0,1.0,1.0,100.0,event
09:18:20.930,0.0,0.0,0.0,0.68199015,0.0,0.0,0.0,0.62766546,0.0,0.0,0.0,0.38751954,0.0,0.0,0.0,0.3728476,0.0,0.0,0.0,0.18469067,589.4872,67.69231,783.69965,879.59705,971.4652,-0.27105712890625,0.038818359375,0.94232177734375,2.041168212890625,-2.848663330078125,-0.007476806640625,1.0,4.0,4.0,1.0,1.0,100.0,event
09:18:20.930,0.0,0.0,0.0,0.68199015,0.0,0.0,0.0,0.62766546,0.0,0.0,0.0,0.38751954,0.0,0.0,0.0,0.3728476,0.0,0.0,0.0,0.18469067,62.05128,935.6044,891.685,891.28204,836.8865,-0.27105712890625,0.038818359375,0.94232177734375,2.041168212890625,-2.848663330078125,-0.007476806640625,1.0,4.0,4.0,1.0,1.0,100.0,event
09:18:20.931,0.0,0.0,0.0,0.68199015,0.0,0.0,0.0,0.62766546,0.0,0.0,0.0,0.38751954,0.0,0.0,0.0,0.3728476,0.0,0.0,0.0,0.18469067,1411.0623,1392.1245,772.8205,871.53845,716.4103,-0.27105712890625,0.038818359375,0.94232177734375,2.041168212890625,-2.848663330078125,-0.007476806640625,1.0,4.0,4.0,1.0,1.0,100.0,event
09:18:20.932,0.0,0.0,0.0,0.68199015,0.0,0.0,0.0,0.62766546,0.0,0.0,0.0,0.38751954,0.0,0.0,0.0,0.3728476,0.0,0.0,0.0,0.18469067,324.7619,515.7509,704.7253,863.0769,753.47986,-0.27105712890625,0.038818359375,0.94232177734375,2.041168212890625,-2.848663330078125,-0.007476806640625,1.0,4.0,4.0,1.0,1.0,100.0,event
09:18:20.933,0.0,0.0,0.0,0.68199015,0.0,0.0,0.0,0.62766546,0.0,0.0,0.0,0.38751954,0.0,0.0,0.0,0.3728476,0.0,0.0,0.0,0.18469067,0.0,15.714286,774.0293,873.95605,747.8388,-0.27105712890625,0.038818359375,0.94232177734375,2.041168212890625,-2.848663330078125,-0.007476806640625,1.0,4.0,4.0,1.0,1.0,100.0,event
09:18:20.960,0.0,0.0,0.0,0.68199015,0.0,0.0,0.0,0.62766546,0.0,0.0,0.0,0.38751954,0.0,0.0,0.0,0.3728476,0.0,0.0,0.0,0.18469067,570.9524,570.14655,829.2308,879.19415,709.15753,-0.27203369140625,0.04400634765625,0.95892333984375,2.10845947265625,-3.072967529296875,0.710296630859375,1.0,4.0,4.0,1.0,1.0,100.0,event
09:18:20.961,0.0,0.0,0.0,0.6995516,0.0,0.0,0.0,0.63051075,0.0,0.0,0.0,0.38751954,0.0,0.0,0.0,0.3679416,0.0,0.0,0.0,0.18444847,33.443222,1343.773,799.011,890.4762,765.16486,-0.27203369140625,0.04400634765625,0.95892333984375,2.10845947265625,-3.072967529296875,0.710296630859375,1.0,4.0,4.0,1.0,1.0,100.0,event
09:18:20.963,,,,,,,,,,,,,,,,,,,,,,,,,,,,,,,,,,,,,,blink
09:18:20.964,0.0,0.0,0.0,0.6995516,0.0,0.0,0.0,0.63051075,0.0,0.0,0.0,0.38751954,0.0,0.0,0.0,0.3679416,0.0,0.0,0.0,0.18444847,1490.8425,1196.7032,740.989,887.6557,834.4689,-0.27203369140625,0.04400634765625,0.95892333984375,2.10845947265625,-3.072967529296875,0.710296630859375,1.0,4.0,4.0,1.0,1.0,100.0,event
09:18:20.965,0.0,0.0,0.0,0.6995516,0.0,0.0,0.0,0.63051075,0.0,0.0,0.0,0.38751954,0.0,0.0,0.0,0.3679416,0.0,0.0,0.0,0.18444847,429.5238,499.23077,763.5531,863.8828,764.35895,-0.27203369140625,0.04400634765625,0.95892333984375,2.10845947265625,-3.072967529296875,0.710296630859375,1.0,4.0,4.0,1.0,1.0,100.0,event
09:18:20.965,0.0,0.0,0.0,0.6995516,0.0,0.0,0.0,0.63051075,0.0,0.0,0.0,0.38751954,0.0,0.0,0.0,0.3679416,0.0,0.0,0.0,0.18444847,0.0,98.31502,761.53845,866.30035,679.34064,-0.27203369140625,0.04400634765625,0.95892333984375,2.10845947265625,-3.072967529296875,0.710296630859375,1.0,4.0,4.0,1.0,1.0,100.0,event
09:18:20.966,0.0,0.0,0.0,0.6995516,0.0,0.0,0.0,0.63051075,0.0,0.0,0.0,0.38751954,0.0,0.0,0.0,0.3679416,0.0,0.0,0.0,0.18444847,383.58975,256.26373,788.5348,879.19415,711.5751,-0.27203369140625,0.04400634765625,0.95892333984375,2.10845947265625,-3.072967529296875,0.710296630859375,1.0,4.0,4.0,1.0,1.0,100.0,event
09:18:20.966,0.0,0.0,0.0,0.6995516,0.0,0.0,0.0,0.63051075,0.0,0.0,0.0,0.38751954,0.0,0.0,0.0,0.3679416,0.0,0.0,0.0,0.18444847,1530.3297,467.8022,769.59705,886.04395,981.13556,-0.27203369140625,0.04400634765625,0.95892333984375,2.10845947265625,-3.072967529296875,0.710296630859375,1.0,4.0,4.0,1.0,1.0,100.0,event
09:18:20.967,0.0,0.0,0.0,0.6995516,0.0,0.0,0.0,0.63051075,0.0,0.0,0.0,0.38751954,0.0,0.0,0.0,0.3679416,0.0,0.0,0.0,0.18444847,1645.5677,336.84982,762.74725,884.0293,1112.0879,-0.27203369140625,0.04400634765625,0.95892333984375,2.10845947265625,-3.072967529296875,0.710296630859375,1.0,4.0,4.0,1.0,1.0,100.0,event
09:18:20.968,0.0,0.0,0.0,0.6995516,0.0,0.0,0.0,0.63051075,0.0,0.0,0.0,0.38751954,0.0,0.0,0.0,0.3679416,0.0,0.0,0.0,0.18444847,614.0659,463.36996,821.978,862.27106,770.40295,-0.27203369140625,0.04400634765625,0.95892333984375,2.10845947265625,-3.072967529296875,0.710296630859375,1.0,4.0,4.0,1.0,1.0,100.0,event
09:18:20.968,0.0,0.0,0.0,0.6995516,0.0,0.0,0.0,0.63051075,0.0,0.0,0.0,0.38751954,0.0,0.0,0.0,0.3679416,0.0,0.0,0.0,0.18444847,0.0,210.32967,774.43225,859.0476,663.6264,-0.27203369140625,0.04400634765625,0.95892333984375,2.10845947265625,-3.072967529296875,0.710296630859375,1.0,4.0,4.0,1.0,1.0,100.0,event
09:18:20.969,0.0,0.0,0.0,0.6995516,0.0,0.0,0.0,0.63051075,0.0,0.0,0.0,0.38751954,0.0,0.0,0.0,0.3679416,0.0,0.0,0.0,0.18444847,314.2857,118.05861,823.5897,875.56775,814.3223,-0.27203369140625,0.04400634765625,0.95892333984375,2.10845947265625,-3.072967529296875,0.710296630859375,1.0,4.0,4.0,1.0,1.0,100.0,event
09:18:20.969,0.0,0.0,0.0,0.6995516,0.0,0.0,0.0,0.63051075,0.0,0.0,0.0,0.38751954,0.0,0.0,0.0,0.3679416,0.0,0.0,0.0,0.18444847,1419.9268,979.12085,884.83514,884.43225,850.989,-0.27203369140625,0.04400634765625,0.95892333984375,2.10845947265625,-3.072967529296875,0.710296630859375,1.0,4.0,4.0,1.0,1.0,100.0,event
09:18:21.007,0.0,0.0,0.0,0.6995516,0.0,0.0,0.0,0.63051075,0.0,0.0,0.0,0.38751954,0.0,0.0,0.0,0.3679416,0.0,0.0,0.0,0.18444847,100.32967,1531.9414,803.8461,875.16486,765.56775,-0.27227783203125,0.043212890625,0.9403076171875,2.011260986328125,-3.3795166015625,0.11962890625,1.0,4.0,4.0,1.0,1.0,100.0,event
09:18:21.008,0.0,0.0,0.0,0.6995516,0.0,0.0,0.0,0.63051075,0.0,0.0,0.0,0.38751954,0.0,0.0,0.0,0.3679416,0.0,0.0,0.0,0.18444847,823.1868,849.3773,729.707,852.6007,764.35895,-0.27227783203125,0.043212890625,0.9403076171875,2.011260986328125,-3.3795166015625,0.11962890625,1.0,4.0,4.0,1.0,1.0,100.0,event
09:18:21.009,0.0,0.0,0.0,0.6995516,0.0,0.0,0.0,0.63051075,0.0,0.0,0.0,0.38751954,0.0,0.0,0.0,0.3679416,0.0,0.0,0.0,0.18444847,231.68498,244.17583,843.3333,841.31866,678.5348,-0.27227783203125,0.043212890625,0.9403076171875,2.011260986328125,-3.3795166015625,0.11962890625,1.0,4.0,4.0,1.0,1.0,100.0,event
09:18:21.009,0.0,0.0,0.0,0.6995516,0.0,0.0,0.0,0.63051075,0.0,0.0,0.0,0.38751954,0.0,0.0,0.0,0.3679416,0.0,0.0,0.0,0.18444847,1324.0293,1106.4469,844.5421,867.9121,727.28937,-0.27227783203125,0.043212890625,0.9403076171875,2.011260986328125,-3.3795166015625,0.11962890625,1.0,4.0,4.0,1.0,1.0,100.0,event
09:18:21.009,0.0,0.0,0.0,0.6995516,0.0,0.0,0.0,0.63051075,0.0,0.0,0.0,0.38751954,0.0,0.0,0.0,0.3679416,0.0,0.0,0.0,0.18444847,0.0,55.201466,754.2857,838.9011,749.0476,-0.27227783203125,0.043212890625,0.9403076171875,2.011260986328125,-3.3795166015625,0.11962890625,1.0,4.0,4.0,1.0,1.0,100.0,event
09:18:21.010,0.0,0.0,0.0,0.6995516,0.0,0.0,0.0,0.63051075,0.0,0.0,0.0,0.38751954,0.0,0.0,0.0,0.3679416,0.0,0.0,0.0,0.18444847,128.13187,1212.8206,731.7216,882.4176,915.4579,-0.27227783203125,0.043212890625,0.9403076171875,2.011260986328125,-3.3795166015625,0.11962890625,1.0,4.0,4.0,1.0,1.0,100.0,event
09:18:21.010,0.0,0.0,0.0,0.6995516,0.0,0.0,0.0,0.63051075,0.0,0.0,0.0,0.38751954,0.0,0.0,0.0,0.3679416,0.0,0.0,0.0,0.18444847,832.0513,301.79486,736.9597,844.1392,1074.2124,-0.27227783203125,0.043212890625,0.9403076171875,2.011260986328125,-3.3795166015625,0.11962890625,1.0,4.0,4.0,1.0,1.0,100.0,event
09:18:21.011,0.0,0.0,0.0,0.6995516,0.0,0.0,0.0,0.63051075,0.0,0.0,0.0,0.38751954,0.0,0.0,0.0,0.3679416,0.0,0.0,0.0,0.18444847,0.0,0.0,835.2747,806.6667,849.7802,-0.27227783203125,0.043212890625,0.9403076171875,2.011260986328125,-3.3795166015625,0.11962890625,1.0,4.0,4.0,1.0,1.0,100.0,event
09:18:21.011,0.0,0.0,0.0,0.6995516,0.0,0.0,0.0,0.63051075,0.0,0.0,0.0,0.38751954,0.0,0.0,0.0,0.3679416,0.0,0.0,0.0,0.18444847,89.85348,269.1575,810.293,810.293,651.53845,-0.27227783203125,0.043212890625,0.9403076171875,2.011260986328125,-3.3795166015625,0.11962890625,1.0,4.0,4.0,1.0,1.0,100.0,event
09:18:21.012,0.0,0.0,0.0,0.6995516,0.0,0.0,0.0,0.63051075,0.0,0.0,0.0,0.38751954,0.0,0.0,0.0,0.3679416,0.0,0.0,0.0,0.18444847,1084.2858,534.68866,766.77655,842.9304,834.4689,-0.27227783203125,0.043212890625,0.9403076171875,2.011260986328125,-3.3795166015625,0.11962890625,1.0,4.0,4.0,1.0,1.0,100.0,event
09:18:21.012,0.0,0.0,0.0,0.6995516,0.0,0.0,0.0,0.63051075,0.0,0.0,0.0,0.38751954,0.0,0.0,0.0,0.3679416,0.0,0.0,0.0,0.18444847,171.24542,855.0183,776.8498,833.663,944.4689,-0.27227783203125,0.043212890625,0.9403076171875,2.011260986328125,-3.3795166015625,0.11962890625,1.0,4.0,4.0,1.0,1.0,100.0,event
09:18:21.013,0.0,0.0,0.0,0.6995516,0.0,0.0,0.0,0.63051075,0.0,0.0,0.0,0.38751954,0.0,0.0,0.0,0.3679416,0.0,0.0,0.0,0.18444847,1016.99634,955.7509,802.23444,796.1905,726.4835,-0.27227783203125,0.043212890625,0.9403076171875,2.011260986328125,-3.3795166015625,0.11962890625,1.0,4.0,4.0,1.0,1.0,100.0,event
09:18:21.056,0.0,0.0,0.0,0.6995516,0.0,0.0,0.0,0.63051075,0.0,0.0,0.0,0.38751954,0.0,0.0,0.0,0.3679416,0.0,0.0,0.0,0.18444847,0.0,414.6154,744.21246,803.8461,612.0513,-0.26922607421875,0.04705810546875,0.95111083984375,2.093505859375,-3.887939453125,0.64300537109375,1.0,4.0,4.0,1.0,1.0,100.0,event
09:18:21.057,0.0,0.0,0.0,0.6995516,0.0,0.0,0.0,0.63051075,0.0,0.0,0.0,0.38751954,0.0,0.0,0.0,0.3679416,0.0,0.0,0.0,0.18444847,11.282051,72.930405,779.2674,813.5165,681.75824,-0.26922607421875,0.04705810546875,0.95111083984375,2.093505859375,-3.887939453125,0.64300537109375,1.0,4.0,4.0,1.0,1.0,100.0,event
09:18:21.058,0.0,0.0,0.0,0.6995516,0.0,0.0,0.0,0.63051075,0.0,0.0,0.0,0.38751954,0.0,0.0,0.0,0.3679416,0.0,0.0,0.0,0.18444847,982.74725,753.0769,844.94507,828.8278,758.315,-0.26922607421875,0.04705810546875,0.95111083984375,2.093505859375,-3.887939453125,0.64300537109375,1.0,4.0,4.0,1.0,1.0,100.0,event
09:18:21.058,0.0,0.0,0.0,0.69622165,0.0,0.0,0.0,0.5995928,0.0,0.0,0.0,0.38750196,0.0,0.0,0.0,0.36276716,0.0,0.0,0.0,0.18095618,168.02197,1509.3773,800.2198,840.10986,752.674,-0.26922607421875,0.04705810546875,0.95111083984375,2.093505859375,-3.887939453125,0.64300537109375,1.0,4.0,4.0,1.0,1.0,100.0,event
09:18:21.062,0.0,0.0,0.0,0.69622165,0.0,0.0,0.0,0.5995928,0.0,0.0,0.0,0.38750196,0.0,0.0,0.0,0.36276716,0.0,0.0,0.0,0.18095618,1099.1941,1163.2601,718.022,827.619,728.49817,-0.26922607421875,0.04705810546875,0.95111083984375,2.093505859375,-3.887939453125,0.64300537109375,1.0,4.0,4.0,1.0,1.0,100.0,event
09:18:21.063,0.0,0.0,0.0,0.69622165,0.0,0.0,0.0,0.5995928,0.0,0.0,0.0,0.38750196,0.0,0.0,0.0,0.36276716,0.0,0.0,0.0,0.18095618,35.054947,290.91574,720.84247,806.26373,841.31866,-0.26922607421875,0.04705810546875,0.95111083984375,2.093505859375,-3.887939453125,0.64300537109375,1.0,4.0,4.0,1.0,1.0,100.0,event
09:18:21.063,0.0,0.0,0.0,0.69622165,0.0,0.0,0.0,0.5995928,0.0,0.0,0.0,0.38750196,0.0,0.0,0.0,0.36276716,0.0,0.0,0.0,0.18095618,0.0,0.0,801.8315,797.3993,915.8608,-0.26922607421875,0.04705810546875,0.95111083984375,2.093505859375,-3.887939453125,0.64300537109375,1.0,4.0,4.0,1.0,1.0,100.0,event
09:18:21.065,0.0,0.0,0.0,0.69622165,0.0,0.0,0.0,0.5995928,0.0,0.0,0.0,0.38750196,0.0,0.0,0.0,0.36276716,0.0,0.0,0.0,0.18095618,798.20514,704.3223,848.1685,826.4103,837.28937,-0.26922607421875,0.04705810546875,0.95111083984375,2.093505859375,-3.887939453125,0.64300537109375,1.0,4.0,4.0,1.0,1.0,100.0,event
09:18:21.066,0.0,0.0,0.0,0.69622165,0.0,0.0,0.0,0.5995928,0.0,0.0,0.0,0.38750196,0.0,0.0,0.0,0.36276716,0.0,0.0,0.0,0.18095618,161.57509,1542.0146,801.02563,842.1245,804.65204,-0.26922607421875,0.04705810546875,0.95111083984375,2.093505859375,-3.887939453125,0.64300537109375,1.0,4.0,4.0,1.0,1.0,100.0,event
09:18:21.067,0.0,0.0,0.0,0.69622165,0.0,0.0,0.0,0.5995928,0.0,0.0,0.0,0.38750196,0.0,0.0,0.0,0.36276716,0.0,0.0,0.0,0.18095618,1067.7656,818.3516,676.1172,823.9927,1037.1428,-0.26922607421875,0.04705810546875,0.95111083984375,2.093505859375,-3.887939453125,0.64300537109375,1.0,4.0,4.0,1.0,1.0,100.0,event
09:18:21.067,0.0,0.0,0.0,0.69622165,0.0,0.0,0.0,0.5995928,0.0,0.0,0.0,0.38750196,0.0,0.0,0.0,0.36276716,0.0,0.0,0.0,0.18095618,23.772894,0.0,743.00366,811.0989,986.77655,-0.26922607421875,0.04705810546875,0.95111083984375,2.093505859375,-3.887939453125,0.64300537109375,1.0,4.0,4.0,1.0,1.0,100.0,event
09:18:21.068,0.0,0.0,0.0,0.69622165,0.0,0.0,0.0,0.5995928,0.0,0.0,0.0,0.38750196,0.0,0.0,0.0,0.36276716,0.0,0.0,0.0,0.18095618,0.0,120.07326,813.91943,809.4872,723.663,-0.26922607421875,0.04705810546875,0.95111083984375,2.093505859375,-3.887939453125,0.64300537109375,1.0,4.0,4.0,1.0,1.0,100.0,event
09:18:21.091,0.0,0.0,0.0,0.69622165,0.0,0.0,0.0,0.5995928,0.0,0.0,0.0,0.38750196,0.0,0.0,0.0,0.36276716,0.0,0.0,0.0,0.18095618,695.8608,510.91574,777.6557,832.8571,781.28204,-0.273681640625,0.04705810546875,0.94378662109375,1.951446533203125,-3.90289306640625,0.657958984375,1.0,4.0,4.0,1.0,1.0,100.0,event
09:18:21.093,0.0,0.0,0.0,0.69622165,0.0,0.0,0.0,0.5995928,0.0,0.0,0.0,0.38750196,0.0,0.0,0.0,0.36276716,0.0,0.0,0.0,0.18095618,87.03297,992.01465,810.696,847.76556,842.1245,-0.273681640625,0.04705810546875,0.94378662109375,1.951446533203125,-3.90289306640625,0.657958984375,1.0,4.0,4.0,1.0,1.0,100.0,event
09:18:21.094,0.0,0.0,0.0,0.69622165,0.0,0.0,0.0,0.5995928,0.0,0.0,0.0,0.38750196,0.0,0.0,0.0,0.36276716,0.0,0.0,0.0,0.18095618,1434.8352,1166.0806,801.02563,832.4542,806.6667,-0.273681640625,0.04705810546875,0.94378662109375,1.951446533203125,-3.90289306640625,0.657958984375,1.0,4.0,4.0,1.0,1.0,100.0,event
09:18:21.095,0.0,0.0,0.0,0.69622165,0.0,0.0,0.0,0.5995928,0.0,0.0,0.0,0.38750196,0.0,0.0,0.0,0.36276716,0.0,0.0,0.0,0.18095618,367.87546,695.8608,751.8681,815.12823,680.9524,-0.273681640625,0.04705810546875,0.94378662109375,1.951446533203125,-3.90289306640625,0.657958984375,1.0,4.0,4.0,1.0,1.0,100.0,event
09:18:21.097,0.0,0.0,0.0,0.69622165,0.0,0.0,0.0,0.5995928,0.0,0.0,0.0,0.38750196,0.0,0.0,0.0,0.36276716,0.0,0.0,0.0,0.18095618,0.0,134.17583,735.34796,808.2784,710.7692,-0.273681640625,0.04705810546875,0.94378662109375,1.951446533203125,-3.90289306640625,0.657958984375,1.0,4.0,4.0,1.0,1.0,100.0,event
09:18:21.098,0.0,0.0,0.0,0.69622165,0.0,0.0,0.0,0.5995928,0.0,0.0,0.0,0.38750196,0.0,0.0,0.0,0.36276716,0.0,0.0,0.0,0.18095618,656.3736,277.21613,776.04395,823.9927,815.9341,-0.273681640625,0.04705810546875,0.94378662109375,1.951446533203125,-3.90289306640625,0.657958984375,1.0,4.0,4.0,1.0,1.0,100.0,event
09:18:21.098,0.0,0.0,0.0,0.69622165,0.0,0.0,0.0,0.5995928,0.0,0.0,0.0,0.38750196,0.0,0.0,0.0,0.36276716,0.0,0.0,0.0,0.18095618,41.50183,1039.5604,828.4249,843.73627,879.19415,-0.273681640625,0.04705810546875,0.94378662109375,1.951446533203125,-3.90289306640625,0.657958984375,1.0,4.0,4.0,1.0,1.0,100.0,event
09:18:21.099,0.0,0.0,0.0,0.69622165,0.0,0.0,0.0,0.5995928,0.0,0.0,0.0,0.38750196,0.0,0.0,0.0,0.36276716,0.0,0.0,0.0,0.18095618,1554.5055,1401.392,803.0403,830.0366,874.7619,-0.273681640625,0.04705810546875,0.94378662109375,1.951446533203125,-3.90289306640625,0.657958984375,1.0,4.0,4.0,1.0,1.0,100.0,event
09:18:21.100,0.0,0.0,0.0,0.69622165,0.0,0.0,0.0,0.5995928,0.0,0.0,0.0,0.38750196,0.0,0.0,0.0,0.36276716,0.0,0.0,0.0,0.18095618,541.53845,651.13556,668.0586,811.9048,830.0366,-0.273681640625,0.04705810546875,0.94378662109375,1.951446533203125,-3.90289306640625,0.657958984375,1.0,4.0,4.0,1.0,1.0,100.0,event
09:18:21.100,0.0,0.0,0.0,0.69622165,0.0,0.0,0.0,0.5995928,0.0,0.0,0.0,0.38750196,0.0,0.0,0.0,0.36276716,0.0,0.0,0.0,0.18095618,0.0,0.0,716.0073,808.2784,965.42126,-0.273681640625,0.04705810546875,0.94378662109375,1.951446533203125,-3.90289306640625,0.657958984375,1.0,4.0,4.0,1.0,1.0,100.0,event
09:18:21.101,0.0,0.0,0.0,0.69622165,0.0,0.0,0.0,0.5995928,0.0,0.0,0.0,0.38750196,0.0,0.0,0.0,0.36276716,0.0,0.0,0.0,0.18095618,2.014652,1430.0,815.12823,836.8865,755.09155,-0.273681640625,0.04705810546875,0.94378662109375,1.951446533203125,-3.90289306640625,0.657958984375,1.0,4.0,4.0,1.0,1.0,100.0,event
09:18:21.101,0.0,0.0,0.0,0.69622165,0.0,0.0,0.0,0.5995928,0.0,0.0,0.0,0.38750196,0.0,0.0,0.0,0.36276716,0.0,0.0,0.0,0.18095618,612.4542,529.45056,891.685,820.3663,851.39197,-0.273681640625,0.04705810546875,0.94378662109375,1.951446533203125,-3.90289306640625,0.657958984375,1.0,4.0,4.0,1.0,1.0,100.0,event
09:18:21.124,0.0,0.0,0.0,0.69622165,0.0,0.0,0.0,0.5995928,0.0,0.0,0.0,0.38750196,0.0,0.0,0.0,0.36276716,0.0,0.0,0.0,0.18095618,1628.6447,1337.7289,733.73627,827.619,830.4396,-0.273681640625,0.04705810546875,0.94378662109375,1.951446533203125,-3.90289306640625,0.657958984375,1.0,4.0,4.0,1.0,1.0,100.0,event
09:18:21.125,0.0,0.0,0.0,0.69622165,0.0,0.0,0.0,0.5995928,0.0,0.0,0.0,0.38750196,0.0,0.0,0.0,0.36276716,0.0,0.0,0.0,0.18095618,701.50183,659.59705,741.79486,814.3223,788.93774,-0.273681640625,0.04705810546875,0.94378662109375,1.951446533203125,-3.90289306640625,0.657958984375,1.0,4.0,4.0,1.0,1.0,100.0,event
09:18:21.126,0.0,0.0,0.0,0.69622165,0.0,0.0,0.0,0.5995928,0.0,0.0,0.0,0.38750196,0.0,0.0,0.0,0.36276716,0.0,0.0,0.0,0.18095618,0.0,252.63736,753.47986,808.2784,749.85345,-0.273681640625,0.04705810546875,0.94378662109375,1.951446533203125,-3.90289306640625,0.657958984375,1.0,4.0,4.0,1.0,1.0,100.0,event
09:18:21.126,0.0,0.0,0.0,0.69622165,0.0,0.0,0.0,0.5995928,0.0,0.0,0.0,0.38750196,0.0,0.0,0.0,0.36276716,0.0,0.0,0.0,0.18095618,457.72894,341.28204,773.6264,815.12823,771.2088,-0.273681640625,0.04705810546875,0.94378662109375,1.951446533203125,-3.90289306640625,0.657958984375,1.0,4.0,4.0,1.0,1.0,100.0,event
09:18:21.127,0.0,0.0,0.0,0.69622165,0.0,0.0,0.0,0.5995928,0.0,0.0,0.0,0.38750196,0.0,0.0,0.0,0.36276716,0.0,0.0,0.0,0.18095618,1556.1172,768.7912,784.5055,840.10986,885.64105,-0.273681640625,0.04705810546875,0.94378662109375,1.951446533203125,-3.90289306640625,0.657958984375,1.0,4.0,4.0,1.0,1.0,100.0,event
09:18:21.128,0.0,0.0,0.0,0.6561353,0.0,0.0,0.0,0.52814376,0.0,0.0,0.0,0.3590932,0.0,0.0,0.0,0.36008868,0.0,0.0,0.0,0.17701785,53.186813,941.2454,780.87915,837.28937,970.2564,-0.273681640625,0.04705810546875,0.94378662109375,1.951446533203125,-3.90289306640625,0.657958984375,1.0,4.0,4.0,1.0,1.0,100.0,event
09:18:21.131,0.0,0.0,0.0,0.6561353,0.0,0.0,0.0,0.52814376,0.0,0.0,0.0,0.3590932,0.0,0.0,0.0,0.36008868,0.0,0.0,0.0,0.17701785,781.28204,539.5238,745.42126,812.3077,901.3553,-0.273681640625,0.04705810546875,0.94378662109375,1.951446533203125,-3.90289306640625,0.657958984375,1.0,4.0,4.0,1.0,1.0,100.0,event
09:18:21.132,0.0,0.0,0.0,0.6561353,0.0,0.0,0.0,0.52814376,0.0,0.0,0.0,0.3590932,0.0,0.0,0.0,0.36008868,0.0,0.0,0.0,0.17701785,0.0,131.35532,755.89746,806.6667,702.71063,-0.273681640625,0.04705810546875,0.94378662109375,1.951446533203125,-3.90289306640625,0.657958984375,1.0,4.0,4.0,1.0,1.0,100.0,event
09:18:21.132,0.0,0.0,0.0,0.6561353,0.0,0.0,0.0,0.52814376,0.0,0.0,0.0,0.3590932,0.0,0.0,0.0,0.36008868,0.0,0.0,0.0,0.17701785,129.74359,6.4468865,741.39197,813.91943,809.89014,-0.273681640625,0.04705810546875,0.94378662109375,1.951446533203125,-3.90289306640625,0.657958984375,1.0,4.0,4.0,1.0,1.0,100.0,event
09:18:21.133,0.0,0.0,0.0,0.6561353,0.0,0.0,0.0,0.52814376,0.0,0.0,0.0,0.3590932,0.0,0.0,0.0,0.36008868,0.0,0.0,0.0,0.17701785,1194.2858,477.87546,803.44324,831.2454,894.10254,-0.273681640625,0.04705810546875,0.94378662109375,1.951446533203125,-3.90289306640625,0.657958984375,1.0,4.0,4.0,1.0,1.0,100.0,event
09:18:21.133,0.0,0.0,0.0,0.6561353,0.0,0.0,0.0,0.52814376,0.0,0.0,0.0,0.3590932,0.0,0.0,0.0,0.36008868,0.0,0.0,0.0,0.17701785,157.54579,1434.8352,826.0073,829.2308,670.87915,-0.273681640625,0.04705810546875,0.94378662109375,1.951446533203125,-3.90289306640625,0.657958984375,1.0,4.0,4.0,1.0,1.0,100.0,event
09:18:21.134,0.0,0.0,0.0,0.6561353,0.0,0.0,0.0,0.52814376,0.0,0.0,0.0,0.3590932,0.0,0.0,0.0,0.36008868,0.0,0.0,0.0,0.17701785,904.57874,972.674,691.02563,799.011,656.3736,-0.273681640625,0.04705810546875,0.94378662109375,1.951446533203125,-3.90289306640625,0.657958984375,1.0,4.0,4.0,1.0,1.0,100.0,event
09:18:21.195,0.0,0.0,0.0,0.6561353,0.0,0.0,0.0,0.52814376,0.0,0.0,0.0,0.3590932,0.0,0.0,0.0,0.36008868,0.0,0.0,0.0,0.17701785,0.0,134.98169,725.2747,791.75824,663.22345,-0.27264404296875,0.0460205078125,0.95587158203125,1.9439697265625,-3.835601806640625,0.2392578125,1.0,4.0,4.0,1.0,1.0,100.0,event
09:18:21.196,0.0,0.0,0.0,0.6561353,0.0,0.0,0.0,0.52814376,0.0,0.0,0.0,0.3590932,0.0,0.0,0.0,0.36008868,0.0,0.0,0.0,0.17701785,188.57143,318.71796,810.696,804.65204,618.49817,-0.27264404296875,0.0460205078125,0.95587158203125,1.9439697265625,-3.835601806640625,0.2392578125,1.0,4.0,4.0,1.0,1.0,100.0,event
09:18:21.197,0.0,0.0,0.0,0.6561353,0.0,0.0,0.0,0.52814376,0.0,0.0,0.0,0.3590932,0.0,0.0,0.0,0.36008868,0.0,0.0,0.0,0.17701785,154.32234,1467.0696,738.97437,830.0366,788.1319,-0.27264404296875,0.0460205078125,0.95587158203125,1.9439697265625,-3.835601806640625,0.2392578125,1.0,4.0,4.0,1.0,1.0,100.0,event
09:18:21.197,0.0,0.0,0.0,0.6561353,0.0,0.0,0.0,0.52814376,0.0,0.0,0.0,0.3590932,0.0,0.0,0.0,0.36008868,0.0,0.0,0.0,0.17701785,1253.5165,1131.0256,806.26373,823.5897,636.63007,-0.27264404296875,0.0460205078125,0.95587158203125,1.9439697265625,-3.835601806640625,0.2392578125,1.0,4.0,4.0,1.0,1.0,100.0,event
09:18:21.198,0.0,0.0,0.0,0.6561353,0.0,0.0,0.0,0.52814376,0.0,0.0,0.0,0.3590932,0.0,0.0,0.0,0.36008868,0.0,0.0,0.0,0.17701785,956.9597,877.5824,684.57874,801.02563,837.6923,-0.27264404296875,0.0460205078125,0.95587158203125,1.9439697265625,-3.835601806640625,0.2392578125,1.0,4.0,4.0,1.0,1.0,100.0,event
09:18:21.198,0.0,0.0,0.0,0.6561353,0.0,0.0,0.0,0.52814376,0.0,0.0,0.0,0.3590932,0.0,0.0,0.0,0.36008868,0.0,0.0,0.0,0.17701785,0.0,153.11356,729.707,808.2784,798.20514,-0.27264404296875,0.0460205078125,0.95587158203125,1.9439697265625,-3.835601806640625,0.2392578125,1.0,4.0,4.0,1.0,1.0,100.0,event
09:18:21.199,0.0,0.0,0.0,0.6561353,0.0,0.0,0.0,0.52814376,0.0,0.0,0.0,0.3590932,0.0,0.0,0.0,0.36008868,0.0,0.0,0.0,0.17701785,20.54945,92.673996,791.75824,821.1722,786.9231,-0.27264404296875,0.0460205078125,0.95587158203125,1.9439697265625,-3.835601806640625,0.2392578125,1.0,4.0,4.0,1.0,1.0,100.0,event
09:18:21.199,0.0,0.0,0.0,0.6561353,0.0,0.0,0.0,0.52814376,0.0,0.0,0.0,0.3590932,0.0,0.0,0.0,0.36008868,0.0,0.0,0.0,0.17701785,978.315,649.92676,759.12085,821.978,855.82416,-0.27264404296875,0.0460205078125,0.95587158203125,1.9439697265625,-3.835601806640625,0.2392578125,1.0,4.0,4.0,1.0,1.0,100.0,event
09:18:21.200,0.0,0.0,0.0,0.6561353,0.0,0.0,0.0,0.52814376,0.0,0.0,0.0,0.3590932,0.0,0.0,0.0,0.36008868,0.0,0.0,0.0,0.17701785,170.03664,444.0293,692.6374,840.9158,1100.8059,-0.27264404296875,0.0460205078125,0.95587158203125,1.9439697265625,-3.835601806640625,0.2392578125,1.0,4.0,4.0,1.0,1.0,100.0,event
09:18:21.200,0.0,0.0,0.0,0.6561353,0.0,0.0,0.0,0.52814376,0.0,0.0,0.0,0.3590932,0.0,0.0,0.0,0.36008868,0.0,0.0,0.0,0.17701785,1062.9304,379.1575,776.4469,833.663,1030.6959,-0.27264404296875,0.0460205078125,0.95587158203125,1.9439697265625,-3.835601806640625,0.2392578125,1.0,4.0,4.0,1.0,1.0,100.0,event
09:18:21.201,0.0,0.0,0.0,0.6561353,0.0,0.0,0.0,0.52814376,0.0,0.0,0.0,0.3590932,0.0,0.0,0.0,0.36008868,0.0,0.0,0.0,0.17701785,4.4322343,521.79486,759.92676,806.26373,702.3077,-0.27264404296875,0.0460205078125,0.95587158203125,1.9439697265625,-3.835601806640625,0.2392578125,1.0,4.0,4.0,1.0,1.0,100.0,event
09:18:21.201,0.0,0.0,0.0,0.6561353,0.0,0.0,0.0,0.52814376,0.0,0.0,0.0,0.3590932,0.0,0.0,0.0,0.36008868,0.0,0.0,0.0,0.17701785,0.0,191.39194,742.6007,794.9817,676.1172,-0.27264404296875,0.0460205078125,0.95587158203125,1.9439697265625,-3.835601806640625,0.2392578125,1.0,4.0,4.0,1.0,1.0,100.0,event
09:18:21.231,0.0,0.0,0.0,0.6561353,0.0,0.0,0.0,0.52814376,0.0,0.0,0.0,0.3590932,0.0,0.0,0.0,0.36008868,0.0,0.0,0.0,0.17701785,863.0769,805.8608,813.5165,807.47253,786.1172,-0.26531982421875,0.04425048828125,0.94708251953125,1.861724853515625,-4.2169189453125,-0.396270751953125,1.0,4.0,4.0,1.0,1.0,100.0,event
09:18:21.232,0.0,0.0,0.0,0.6561353,0.0,0.0,0.0,0.52814376,0.0,0.0,0.0,0.3590932,0.0,0.0,0.0,0.36008868,0.0,0.0,0.0,0.17701785,156.73993,1610.1099,784.5055,808.68134,772.4176,-0.26531982421875,0.04425048828125,0.94708251953125,1.861724853515625,-4.2169189453125,-0.396270751953125,1.0,4.0,4.0,1.0,1.0,100.0,event
09:18:21.232,0.0,0.0,0.0,0.6561353,0.0,0.0,0.0,0.52814376,0.0,0.0,0.0,0.3590932,0.0,0.0,0.0,0.36008868,0.0,0.0,0.0,0.17701785,1150.3663,1390.9158,705.5311,793.7729,772.01465,-0.26531982421875,0.04425048828125,0.94708251953125,1.861724853515625,-4.2169189453125,-0.396270751953125,1.0,4.0,4.0,1.0,1.0,100.0,event
09:18:21.233,0.0,0.0,0.0,0.6561353,0.0,0.0,0.0,0.52814376,0.0,0.0,0.0,0.3590932,0.0,0.0,0.0,0.36008868,0.0,0.0,0.0,0.17701785,84.212456,437.58243,709.9634,786.1172,763.95605,-0.26531982421875,0.04425048828125,0.94708251953125,1.861724853515625,-4.2169189453125,-0.396270751953125,1.0,4.0,4.0,1.0,1.0,100.0,event
09:18:21.234,0.0,0.0,0.0,0.6561353,0.0,0.0,0.0,0.52814376,0.0,0.0,0.0,0.3590932,0.0,0.0,0.0,0.36008868,0.0,0.0,0.0,0.17701785,0.0,142.23444,773.6264,782.49084,719.2308,-0.26531982421875,0.04425048828125,0.94708251953125,1.861724853515625,-4.2169189453125,-0.396270751953125,1.0,4.0,4.0,1.0,1.0,100.0,event
09:18:21.234,0.0,0.0,0.0,0.6561353,0.0,0.0,0.0,0.52814376,0.0,0.0,0.0,0.3590932,0.0,0.0,0.0,0.36008868,0.0,0.0,0.0,0.17701785,689.81683,680.54944,773.6264,783.69965,819.15753,-0.26531982421875,0.04425048828125,0.94708251953125,1.861724853515625,-4.2169189453125,-0.396270751953125,1.0,4.0,4.0,1.0,1.0,100.0,event
09:18:21.235,0.0,0.0,0.0,0.6561353,0.0,0.0,0.0,0.52814376,0.0,0.0,0.0,0.3590932,0.0,0.0,0.0,0.36008868,0.0,0.0,0.0,0.17701785,146.66667,1232.967,767.5824,815.12823,885.64105,-0.26531982421875,0.04425048828125,0.94708251953125,1.861724853515625,-4.2169189453125,-0.396270751953125,1.0,4.0,4.0,1.0,1.0,100.0,event
09:18:21.237,0.0,0.0,0.0,0.5687047,0.0,0.0,0.0,0.4305783,0.0,0.0,0.0,0.31242862,0.0,0.0,0.0,0.3606915,0.0,0.0,0.0,0.17353451,1109.6703,768.7912,681.3553,813.91943,966.63007,-0.26531982421875,0.04425048828125,0.94708251953125,1.861724853515625,-4.2169189453125,-0.396270751953125,1.0,4.0,4.0,1.0,1.0,100.0,event
09:18:21.242,0.0,0.0,0.0,0.5687047,0.0,0.0,0.0,0.4305783,0.0,0.0,0.0,0.31242862,0.0,0.0,0.0,0.3606915,0.0,0.0,0.0,0.17353451,39.084248,0.0,698.68134,781.685,973.47986,-0.26531982421875,0.04425048828125,0.94708251953125,1.861724853515625,-4.2169189453125,-0.396270751953125,1.0,4.0,4.0,1.0,1.0,100.0,event
09:18:21.242,0.0,0.0,0.0,0.5687047,0.0,0.0,0.0,0.4305783,0.0,0.0,0.0,0.31242862,0.0,0.0,0.0,0.3606915,0.0,0.0,0.0,0.17353451,0.0,131.35532,818.7546,776.4469,796.1905,-0.26531982421875,0.04425048828125,0.94708251953125,1.861724853515625,-4.2169189453125,-0.396270751953125,1.0,4.0,4.0,1.0,1.0,100.0,event
09:18:21.243,0.0,0.0,0.0,0.5687047,0.0,0.0,0.0,0.4305783,0.0,0.0,0.0,0.31242862,0.0,0.0,0.0,0.3606915,0.0,0.0,0.0,0.17353451,692.6374,774.43225,805.05493,801.4286,786.9231,-0.26531982421875,0.04425048828125,0.94708251953125,1.861724853515625,-4.2169189453125,-0.396270751953125,1.0,4.0,4.0,1.0,1.0,100.0,event
09:18:21.244,0.0,0.0,0.0,0.5687047,0.0,0.0,0.0,0.4305783,0.0,0.0,0.0,0.31242862,0.0,0.0,0.0,0.3606915,0.0,0.0,0.0,0.17353451,74.94505,1217.6556,775.64105,828.4249,872.3443,-0.26531982421875,0.04425048828125,0.94708251953125,1.861724853515625,-4.2169189453125,-0.396270751953125,1.0,4.0,4.0,1.0,1.0,100.0,event
09:18:21.312,0.0,0.0,0.0,0.5687047,0.0,0.0,0.0,0.4305783,0.0,0.0,0.0,0.31242862,0.0,0.0,0.0,0.3606915,0.0,0.0,0.0,0.17353451,1473.9194,1253.1135,769.59705,815.12823,824.3956,-0.26739501953125,0.0433349609375,0.9547119140625,2.115936279296875,-3.521575927734375,-0.246734619140625,1.0,4.0,4.0,1.0,1.0,100.0,event
09:18:21.313,0.0,0.0,0.0,0.5687047,0.0,0.0,0.0,0.4305783,0.0,0.0,0.0,0.31242862,0.0,0.0,0.0,0.3606915,0.0,0.0,0.0,0.17353451,429.12088,814.3223,722.8571,784.10254,660.80585,-0.26739501953125,0.0433349609375,0.9547119140625,2.115936279296875,-3.521575927734375,-0.246734619140625,1.0,4.0,4.0,1.0,1.0,100.0,event
09:18:21.314,0.0,0.0,0.0,0.5687047,0.0,0.0,0.0,0.4305783,0.0,0.0,0.0,0.31242862,0.0,0.0,0.0,0.3606915,0.0,0.0,0.0,0.17353451,0.0,282.45422,722.8571,789.34064,672.0879,-0.26739501953125,0.0433349609375,0.9547119140625,2.115936279296875,-3.521575927734375,-0.246734619140625,1.0,4.0,4.0,1.0,1.0,100.0,event
09:18:21.314,0.0,0.0,0.0,0.5687047,0.0,0.0,0.0,0.4305783,0.0,0.0,0.0,0.31242862,0.0,0.0,0.0,0.3606915,0.0,0.0,0.0,0.17353451,608.8278,483.9194,781.685,813.5165,791.3553,-0.26739501953125,0.0433349609375,0.9547119140625,2.115936279296875,-3.521575927734375,-0.246734619140625,1.0,4.0,4.0,1.0,1.0,100.0,event
09:18:21.315,0.0,0.0,0.0,0.5687047,0.0,0.0,0.0,0.4305783,0.0,0.0,0.0,0.31242862,0.0,0.0,0.0,0.3606915,0.0,0.0,0.0,0.17353451,21.758242,1286.9597,796.1905,818.7546,799.81683,-0.26739501953125,0.0433349609375,0.9547119140625,2.115936279296875,-3.521575927734375,-0.246734619140625,1.0,4.0,4.0,1.0,1.0,100.0,event
09:18:21.315,0.0,0.0,0.0,0.5687047,0.0,0.0,0.0,0.4305783,0.0,0.0,0.0,0.31242862,0.0,0.0,0.0,0.3606915,0.0,0.0,0.0,0.17353451,1528.7179,1283.7362,705.12823,817.9487,803.0403,-0.26739501953125,0.0433349609375,0.9547119140625,2.115936279296875,-3.521575927734375,-0.246734619140625,1.0,4.0,4.0,1.0,1.0,100.0,event
09:18:21.316,0.0,0.0,0.0,0.5687047,0.0,0.0,0.0,0.4305783,0.0,0.0,0.0,0.31242862,0.0,0.0,0.0,0.3606915,0.0,0.0,0.0,0.17353451,514.94507,447.25275,668.0586,805.8608,872.74725,-0.26739501953125,0.0433349609375,0.9547119140625,2.115936279296875,-3.521575927734375,-0.246734619140625,1.0,4.0,4.0,1.0,1.0,100.0,event
09:18:21.317,0.0,0.0,0.0,0.5687047,0.0,0.0,0.0,0.4305783,0.0,0.0,0.0,0.31242862,0.0,0.0,0.0,0.3606915,0.0,0.0,0.0,0.17353451,0.0,0.0,707.1429,790.14655,1075.0183,-0.26739501953125,0.0433349609375,0.9547119140625,2.115936279296875,-3.521575927734375,-0.246734619140625,1.0,4.0,4.0,1.0,1.0,100.0,event
09:18:21.317,0.0,0.0,0.0,0.5687047,0.0,0.0,0.0,0.4305783,0.0,0.0,0.0,0.31242862,0.0,0.0,0.0,0.3606915,0.0,0.0,0.0,0.17353451,559.67035,437.58243,849.3773,804.2491,957.76556,-0.26739501953125,0.0433349609375,0.9547119140625,2.115936279296875,-3.521575927734375,-0.246734619140625,1.0,4.0,4.0,1.0,1.0,100.0,event
09:18:21.318,0.0,0.0,0.0,0.5687047,0.0,0.0,0.0,0.4305783,0.0,0.0,0.0,0.31242862,0.0,0.0,0.0,0.3606915,0.0,0.0,0.0,0.17353451,9.67033,1438.8645,713.9927,806.26373,796.99634,-0.26739501953125,0.0433349609375,0.9547119140625,2.115936279296875,-3.521575927734375,-0.246734619140625,1.0,4.0,4.0,1.0,1.0,100.0,event
09:18:21.318,0.0,0.0,0.0,0.5687047,0.0,0.0,0.0,0.4305783,0.0,0.0,0.0,0.31242862,0.0,0.0,0.0,0.3606915,0.0,0.0,0.0,0.17353451,1618.5714,1419.9268,810.293,819.9634,722.8571,-0.26739501953125,0.0433349609375,0.9547119140625,2.115936279296875,-3.521575927734375,-0.246734619140625,1.0,4.0,4.0,1.0,1.0,100.0,event
09:18:21.319,0.0,0.0,0.0,0.5687047,0.0,0.0,0.0,0.4305783,0.0,0.0,0.0,0.31242862,0.0,0.0,0.0,0.3606915,0.0,0.0,0.0,0.17353451,745.82416,760.7326,706.7399,790.9524,816.337,-0.26739501953125,0.0433349609375,0.9547119140625,2.115936279296875,-3.521575927734375,-0.246734619140625,1.0,4.0,4.0,1.0,1.0,100.0,event
09:18:21.349,0.0,0.0,0.0,0.5687047,0.0,0.0,0.0,0.4305783,0.0,0.0,0.0,0.31242862,0.0,0.0,0.0,0.3606915,0.0,0.0,0.0,0.17353451,0.0,277.61905,740.989,793.36993,806.26373,-0.2659912109375,0.04571533203125,0.95135498046875,1.74957275390625,-2.743988037109375,-0.61309814453125,1.0,4.0,4.0,1.0,1.0,100.0,event
09:18:21.350,0.0,0.0,0.0,0.5687047,0.0,0.0,0.0,0.4305783,0.0,0.0,0.0,0.31242862,0.0,0.0,0.0,0.3606915,0.0,0.0,0.0,0.17353451,395.67764,572.96704,780.87915,810.293,717.2161,-0.2659912109375,0.04571533203125,0.95135498046875,1.74957275390625,-2.743988037109375,-0.61309814453125,1.0,4.0,4.0,1.0,1.0,100.0,event
09:18:21.351,0.0,0.0,0.0,0.5687047,0.0,0.0,0.0,0.4305783,0.0,0.0,0.0,0.31242862,0.0,0.0,0.0,0.3606915,0.0,0.0,0.0,0.17353451,1490.8425,981.13556,743.00366,827.2161,825.2015,-0.2659912109375,0.04571533203125,0.95135498046875,1.74957275390625,-2.743988037109375,-0.61309814453125,1.0,4.0,4.0,1.0,1.0,100.0,event
09:18:21.351,0.0,0.0,0.0,0.5687047,0.0,0.0,0.0,0.4305783,0.0,0.0,0.0,0.31242862,0.0,0.0,0.0,0.3606915,0.0,0.0,0.0,0.17353451,90.25641,1174.9451,746.63007,816.337,920.696,-0.2659912109375,0.04571533203125,0.95135498046875,1.74957275390625,-2.743988037109375,-0.61309814453125,1.0,4.0,4.0,1.0,1.0,100.0,event
09:18:21.352,0.0,0.0,0.0,0.5687047,0.0,0.0,0.0,0.4305783,0.0,0.0,0.0,0.31242862,0.0,0.0,0.0,0.3606915,0.0,0.0,0.0,0.17353451,826.4103,987.5824,707.9487,802.6374,747.4359,-0.2659912109375,0.04571533203125,0.95135498046875,1.74957275390625,-2.743988037109375,-0.61309814453125,1.0,4.0,4.0,1.0,1.0,100.0,event
09:18:21.353,0.0,0.0,0.0,0.5687047,0.0,0.0,0.0,0.4305783,0.0,0.0,0.0,0.31242862,0.0,0.0,0.0,0.3606915,0.0,0.0,0.0,0.17353451,0.0,276.00732,703.1135,796.5934,747.4359,-0.2659912109375,0.04571533203125,0.95135498046875,1.74957275390625,-2.743988037109375,-0.61309814453125,1.0,4.0,4.0,1.0,1.0,100.0,event
09:18:21.354,0.0,0.0,0.0,0.5687047,0.0,0.0,0.0,0.4305783,0.0,0.0,0.0,0.31242862,0.0,0.0,0.0,0.3606915,0.0,0.0,0.0,0.17353451,25.787546,0.0,714.7985,813.1135,953.73627,-0.2659912109375,0.04571533203125,0.95135498046875,1.74957275390625,-2.743988037109375,-0.61309814453125,1.0,4.0,4.0,1.0,1.0,100.0,event
09:18:21.355,0.0,0.0,0.0,0.5687047,0.0,0.0,0.0,0.4305783,0.0,0.0,0.0,0.31242862,0.0,0.0,0.0,0.3606915,0.0,0.0,0.0,0.17353451,1031.9048,475.05493,786.52014,840.5128,1003.69965,-0.2659912109375,0.04571533203125,0.95135498046875,1.74957275390625,-2.743988037109375,-0.61309814453125,1.0,4.0,4.0,1.0,1.0,100.0,event
09:18:21.356,0.0,0.0,0.0,0.5687047,0.0,0.0,0.0,0.4305783,0.0,0.0,0.0,0.31242862,0.0,0.0,0.0,0.3606915,0.0,0.0,0.0,0.17353451,176.48352,1479.1575,803.0403,823.1868,743.4066,-0.2659912109375,0.04571533203125,0.95135498046875,1.74957275390625,-2.743988037109375,-0.61309814453125,1.0,4.0,4.0,1.0,1.0,100.0,event
09:18:21.357,0.0,0.0,0.0,0.43774113,0.0,0.0,0.0,0.34636897,0.0,0.0,0.0,0.28976876,0.0,0.0,0.0,0.36171928,0.0,0.0,0.0,0.16965537,907.8022,1094.359,677.72894,788.1319,686.5934,-0.2659912109375,0.04571533203125,0.95135498046875,1.74957275390625,-2.743988037109375,-0.61309814453125,1.0,2.0,4.0,1.0,1.0,100.0,event
09:18:21.361,0.0,0.0,0.0,0.43774113,0.0,0.0,0.0,0.34636897,0.0,0.0,0.0,0.28976876,0.0,0.0,0.0,0.36171928,0.0,0.0,0.0,0.16965537,0.0,239.74359,709.5604,778.86444,706.337,-0.2659912109375,0.04571533203125,0.95135498046875,1.74957275390625,-2.743988037109375,-0.61309814453125,1.0,2.0,4.0,1.0,1.0,100.0,event
09:18:21.361,0.0,0.0,0.0,0.43774113,0.0,0.0,0.0,0.34636897,0.0,0.0,0.0,0.28976876,0.0,0.0,0.0,0.36171928,0.0,0.0,0.0,0.16965537,78.168495,369.8901,784.10254,795.78754,673.69965,-0.2659912109375,0.04571533203125,0.95135498046875,1.74957275390625,-2.743988037109375,-0.61309814453125,1.0,2.0,4.0,1.0,1.0,100.0,event
09:18:21.388,0.0,0.0,0.0,0.43774113,0.0,0.0,0.0,0.34636897,0.0,0.0,0.0,0.28976876,0.0,0.0,0.0,0.36171928,0.0,0.0,0.0,0.16965537,1091.1355,1145.1282,786.9231,823.9927,662.01465,-0.2659912109375,0.04571533203125,0.95135498046875,1.74957275390625,-2.743988037109375,-0.61309814453125,1.0,2.0,4.0,1.0,1.0,100.0,event
09:18:21.389,0.0,0.0,0.0,0.43774113,0.0,0.0,0.0,0.34636897,0.0,0.0,0.0,0.28976876,0.0,0.0,0.0,0.36171928,0.0,0.0,0.0,0.16965537,170.84248,1560.9524,736.9597,830.84247,792.1612,-0.2659912109375,0.04571533203125,0.95135498046875,1.74957275390625,-2.743988037109375,-0.61309814453125,1.0,2.0,4.0,1.0,1.0,100.0,event
09:18:21.390,0.0,0.0,0.0,0.43774113,0.0,0.0,0.0,0.34636897,0.0,0.0,0.0,0.28976876,0.0,0.0,0.0,0.36171928,0.0,0.0,0.0,0.16965537,959.3773,1018.60803,669.67035,794.57874,868.71796,-0.2659912109375,0.04571533203125,0.95135498046875,1.74957275390625,-2.743988037109375,-0.61309814453125,1.0,2.0,4.0,1.0,1.0,100.0,event
09:18:21.390,0.0,0.0,0.0,0.43774113,0.0,0.0,0.0,0.34636897,0.0,0.0,0.0,0.28976876,0.0,0.0,0.0,0.36171928,0.0,0.0,0.0,0.16965537,0.0,247.39926,715.6044,772.8205,799.41394,-0.2659912109375,0.04571533203125,0.95135498046875,1.74957275390625,-2.743988037109375,-0.61309814453125,1.0,2.0,4.0,1.0,1.0,100.0,event
09:18:21.391,0.0,0.0,0.0,0.43774113,0.0,0.0,0.0,0.34636897,0.0,0.0,0.0,0.28976876,0.0,0.0,0.0,0.36171928,0.0,0.0,0.0,0.16965537,0.0,288.49817,778.46155,789.34064,766.3736,-0.2659912109375,0.04571533203125,0.95135498046875,1.74957275390625,-2.743988037109375,-0.61309814453125,1.0,2.0,4.0,1.0,1.0,100.0,event
09:18:21.391,0.0,0.0,0.0,0.43774113,0.0,0.0,0.0,0.34636897,0.0,0.0,0.0,0.28976876,0.0,0.0,0.0,0.36171928,0.0,0.0,0.0,0.16965537,831.2454,863.0769,739.7802,813.1135,850.58606,-0.2659912109375,0.04571533203125,0.95135498046875,1.74957275390625,-2.743988037109375,-0.61309814453125,1.0,2.0,4.0,1.0,1.0,100.0,event
09:18:21.392,0.0,0.0,0.0,0.43774113,0.0,0.0,0.0,0.34636897,0.0,0.0,0.0,0.28976876,0.0,0.0,0.0,0.36171928,0.0,0.0,0.0,0.16965537,166.00732,598.3516,678.5348,826.4103,1197.1062,-0.2659912109375,0.04571533203125,0.95135498046875,1.74957275390625,-2.743988037109375,-0.61309814453125,1.0,2.0,4.0,1.0,1.0,100.0,event
09:18:21.392,0.0,0.0,0.0,0.43774113,0.0,0.0,0.0,0.34636897,0.0,0.0,0.0,0.28976876,0.0,0.0,0.0,0.36171928,0.0,0.0,0.0,0.16965537,1099.597,375.93405,752.674,808.68134,1131.0256,-0.2659912109375,0.04571533203125,0.95135498046875,1.74957275390625,-2.743988037109375,-0.61309814453125,1.0,2.0,4.0,1.0,1.0,100.0,event
09:18:21.393,0.0,0.0,0.0,0.43774113,0.0,0.0,0.0,0.34636897,0.0,0.0,0.0,0.28976876,0.0,0.0,0.0,0.36171928,0.0,0.0,0.0,0.16965537,29.010988,593.91943,778.46155,785.31134,763.95605,-0.2659912109375,0.04571533203125,0.95135498046875,1.74957275390625,-2.743988037109375,-0.61309814453125,1.0,2.0,4.0,1.0,1.0,100.0,event
09:18:21.393,0.0,0.0,0.0,0.43774113,0.0,0.0,0.0,0.34636897,0.0,0.0,0.0,0.28976876,0.0,0.0,0.0,0.36171928,0.0,0.0,0.0,0.16965537,0.0,347.32602,745.0183,795.38464,824.3956,-0.2659912109375,0.04571533203125,0.95135498046875,1.74957275390625,-2.743988037109375,-0.61309814453125,1.0,2.0,4.0,1.0,1.0,100.0,event
09:18:21.394,0.0,0.0,0.0,0.43774113,0.0,0.0,0.0,0.34636897,0.0,0.0,0.0,0.28976876,0.0,0.0,0.0,0.36171928,0.0,0.0,0.0,0.16965537,775.64105,816.337,793.7729,827.619,870.32965,-0.2659912109375,0.04571533203125,0.95135498046875,1.74957275390625,-2.743988037109375,-0.61309814453125,1.0,2.0,4.0,1.0,1.0,100.0,event
09:18:21.394,0.0,0.0,0.0,0.43774113,0.0,0.0,0.0,0.34636897,0.0,0.0,0.0,0.28976876,0.0,0.0,0.0,0.36171928,0.0,0.0,0.0,0.16965537,140.62271,1603.663,772.4176,823.5897,762.74725,-0.2659912109375,0.04571533203125,0.95135498046875,1.74957275390625,-2.743988037109375,-0.61309814453125,1.0,2.0,4.0,1.0,1.0,100.0,event
09:18:21.430,0.0,0.0,0.0,0.43774113,0.0,0.0,0.0,0.34636897,0.0,0.0,0.0,0.28976876,0.0,0.0,0.0,0.36171928,0.0,0.0,0.0,0.16965537,1215.641,1429.1941,700.293,802.6374,734.1392,-0.27130126953125,0.041748046875,0.95098876953125,1.5252685546875,-3.0206298828125,-0.28411865234375,1.0,2.0,4.0,1.0,1.0,100.0,event
09:18:21.431,0.0,0.0,0.0,0.43774113,0.0,0.0,0.0,0.34636897,0.0,0.0,0.0,0.28976876,0.0,0.0,0.0,0.36171928,0.0,0.0,0.0,0.16965537,132.96703,502.85715,706.7399,791.75824,798.20514,-0.27130126953125,0.041748046875,0.95098876953125,1.5252685546875,-3.0206298828125,-0.28411865234375,1.0,2.0,4.0,1.0,1.0,100.0,event
09:18:21.431,0.0,0.0,0.0,0.43774113,0.0,0.0,0.0,0.34636897,0.0,0.0,0.0,0.28976876,0.0,0.0,0.0,0.36171928,0.0,0.0,0.0,0.16965537,0.0,220.80586,767.98535,795.78754,817.1429,-0.27130126953125,0.041748046875,0.95098876953125,1.5252685546875,-3.0206298828125,-0.28411865234375,1.0,2.0,4.0,1.0,1.0,100.0,event
09:18:21.432,0.0,0.0,0.0,0.43774113,0.0,0.0,0.0,0.34636897,0.0,0.0,0.0,0.28976876,0.0,0.0,0.0,0.36171928,0.0,0.0,0.0,0.16965537,696.6667,911.02563,793.36993,812.71063,775.64105,-0.27130126953125,0.041748046875,0.95098876953125,1.5252685546875,-3.0206298828125,-0.28411865234375,1.0,2.0,4.0,1.0,1.0,100.0,event
09:18:21.434,0.0,0.0,0.0,0.43774113,0.0,0.0,0.0,0.34636897,0.0,0.0,0.0,0.28976876,0.0,0.0,0.0,0.36171928,0.0,0.0,0.0,0.16965537,118.86447,1540.8059,752.27106,826.8132,765.9707,-0.27130126953125,0.041748046875,0.95098876953125,1.5252685546875,-3.0206298828125,-0.28411865234375,1.0,2.0,4.0,1.0,1.0,100.0,event
09:18:21.435,0.0,0.0,0.0,0.43774113,0.0,0.0,0.0,0.34636897,0.0,0.0,0.0,0.28976876,0.0,0.0,0.0,0.36171928,0.0,0.0,0.0,0.16965537,1263.1868,1097.1794,687.3993,817.5458,872.3443,-0.27130126953125,0.041748046875,0.95098876953125,1.5252685546875,-3.0206298828125,-0.28411865234375,1.0,2.0,4.0,1.0,1.0,100.0,event
09:18:21.436,0.0,0.0,0.0,0.43774113,0.0,0.0,0.0,0.34636897,0.0,0.0,0.0,0.28976876,0.0,0.0,0.0,0.36171928,0.0,0.0,0.0,0.16965537,188.97437,211.94139,714.3956,794.17584,866.7033,-0.27130126953125,0.041748046875,0.95098876953125,1.5252685546875,-3.0206298828125,-0.28411865234375,1.0,2.0,4.0,1.0,1.0,100.0,event
09:18:21.437,0.0,0.0,0.0,0.43774113,0.0,0.0,0.0,0.34636897,0.0,0.0,0.0,0.28976876,0.0,0.0,0.0,0.36171928,0.0,0.0,0.0,0.16965537,0.0,0.0,748.6447,788.5348,812.3077,-0.27130126953125,0.041748046875,0.95098876953125,1.5252685546875,-3.0206298828125,-0.28411865234375,1.0,2.0,4.0,1.0,1.0,100.0,event
09:18:21.438,0.0,0.0,0.0,0.43774113,0.0,0.0,0.0,0.34636897,0.0,0.0,0.0,0.28976876,0.0,0.0,0.0,0.36171928,0.0,0.0,0.0,0.16965537,649.5238,552.4176,788.1319,813.5165,738.97437,-0.27130126953125,0.041748046875,0.95098876953125,1.5252685546875,-3.0206298828125,-0.28411865234375,1.0,2.0,4.0,1.0,1.0,100.0,event
09:18:21.439,0.0,0.0,0.0,0.43774113,0.0,0.0,0.0,0.34636897,0.0,0.0,0.0,0.28976876,0.0,0.0,0.0,0.36171928,0.0,0.0,0.0,0.16965537,46.739925,816.337,717.619,828.8278,907.3993,-0.27130126953125,0.041748046875,0.95098876953125,1.5252685546875,-3.0206298828125,-0.28411865234375,1.0,2.0,4.0,1.0,1.0,100.0,event
09:18:21.440,0.0,0.0,0.0,0.43774113,0.0,0.0,0.0,0.34636897,0.0,0.0,0.0,0.28976876,0.0,0.0,0.0,0.36171928,0.0,0.0,0.0,0.16965537,1531.5385,494.3956,707.5458,812.71063,1045.6044,-0.27130126953125,0.041748046875,0.95098876953125,1.5252685546875,-3.0206298828125,-0.28411865234375,1.0,2.0,4.0,1.0,1.0,100.0,event
09:18:21.441,0.0,0.0,0.0,0.30169684,0.0,0.0,0.0,0.31430182,0.0,0.0,0.0,0.2881619,0.0,0.0,0.0,0.3612704,0.0,0.0,0.0,0.16604911,510.51282,578.20514,767.1795,792.5641,703.1135,-0.27130126953125,0.041748046875,0.95098876953125,1.5252685546875,-3.0206298828125,-0.28411865234375,1.0,2.0,4.0,1.0,1.0,100.0,event
09:18:21.470,0.0,0.0,0.0,0.30169684,0.0,0.0,0.0,0.31430182,0.0,0.0,0.0,0.2881619,0.0,0.0,0.0,0.3612704,0.0,0.0,0.0,0.16604911,0.0,282.45422,723.2601,788.1319,616.4835,-0.27557373046875,0.0380859375,0.95440673828125,1.54022216796875,-2.833709716796875,-0.34393310546875,1.0,2.0,4.0,1.0,1.0,100.0,event
09:18:21.471,0.0,0.0,0.0,0.30169684,0.0,0.0,0.0,0.31430182,0.0,0.0,0.0,0.2881619,0.0,0.0,0.0,0.3612704,0.0,0.0,0.0,0.16604911,578.20514,458.5348,766.77655,808.2784,748.24176,-0.27557373046875,0.0380859375,0.95440673828125,1.54022216796875,-2.833709716796875,-0.34393310546875,1.0,2.0,4.0,1.0,1.0,100.0,event
09:18:21.472,0.0,0.0,0.0,0.30169684,0.0,0.0,0.0,0.31430182,0.0,0.0,0.0,0.2881619,0.0,0.0,0.0,0.3612704,0.0,0.0,0.0,0.16604911,1643.956,1349.8169,797.3993,831.6484,812.3077,-0.27557373046875,0.0380859375,0.95440673828125,1.54022216796875,-2.833709716796875,-0.34393310546875,1.0,2.0,4.0,1.0,1.0,100.0,event
09:18:21.472,0.0,0.0,0.0,0.30169684,0.0,0.0,0.0,0.31430182,0.0,0.0,0.0,0.2881619,0.0,0.0,0.0,0.3612704,0.0,0.0,0.0,0.16604911,1620.586,1553.2968,724.0659,815.5311,752.27106,-0.27557373046875,0.0380859375,0.95440673828125,1.54022216796875,-2.833709716796875,-0.34393310546875,1.0,2.0,4.0,1.0,1.0,100.0,event
09:18:21.473,0.0,0.0,0.0,0.30169684,0.0,0.0,0.0,0.31430182,0.0,0.0,0.0,0.2881619,0.0,0.0,0.0,0.3612704,0.0,0.0,0.0,0.16604911,661.6117,742.1978,664.0293,790.54944,737.76556,-0.27557373046875,0.0380859375,0.95440673828125,1.54022216796875,-2.833709716796875,-0.34393310546875,1.0,2.0,4.0,1.0,1.0,100.0,event
09:18:21.473,0.0,0.0,0.0,0.30169684,0.0,0.0,0.0,0.31430182,0.0,0.0,0.0,0.2881619,0.0,0.0,0.0,0.3612704,0.0,0.0,0.0,0.16604911,0.0,31.428572,695.05493,789.7436,866.7033,-0.27557373046875,0.0380859375,0.95440673828125,1.54022216796875,-2.833709716796875,-0.34393310546875,1.0,2.0,4.0,1.0,1.0,100.0,event
09:18:21.473,0.0,0.0,0.0,0.30169684,0.0,0.0,0.0,0.31430182,0.0,0.0,0.0,0.2881619,0.0,0.0,0.0,0.3612704,0.0,0.0,0.0,0.16604911,393.663,166.41026,772.01465,807.8755,881.6117,-0.27557373046875,0.0380859375,0.95440673828125,1.54022216796875,-2.833709716796875,-0.34393310546875,1.0,2.0,4.0,1.0,1.0,100.0,event
09:18:21.474,0.0,0.0,0.0,0.30169684,0.0,0.0,0.0,0.31430182,0.0,0.0,0.0,0.2881619,0.0,0.0,0.0,0.3612704,0.0,0.0,0.0,0.16604911,1544.4323,1148.7546,817.9487,824.7985,753.8828,-0.27557373046875,0.0380859375,0.95440673828125,1.54022216796875,-2.833709716796875,-0.34393310546875,1.0,2.0,4.0,1.0,1.0,100.0,event
09:18:21.474,0.0,0.0,0.0,0.30169684,0.0,0.0,0.0,0.31430182,0.0,0.0,0.0,0.2881619,0.0,0.0,0.0,0.3612704,0.0,0.0,0.0,0.16604911,1644.359,1308.3151,684.9817,822.7839,770.0,-0.27557373046875,0.0380859375,0.95440673828125,1.54022216796875,-2.833709716796875,-0.34393310546875,1.0,2.0,4.0,1.0,1.0,100.0,event
09:18:21.475,0.0,0.0,0.0,0.30169684,0.0,0.0,0.0,0.31430182,0.0,0.0,0.0,0.2881619,0.0,0.0,0.0,0.3612704,0.0,0.0,0.0,0.16604911,0.0,0.0,818.3516,790.9524,959.7802,-0.27557373046875,0.0380859375,0.95440673828125,1.54022216796875,-2.833709716796875,-0.34393310546875,1.0,2.0,4.0,1.0,1.0,100.0,event
09:18:21.475,0.0,0.0,0.0,0.30169684,0.0,0.0,0.0,0.31430182,0.0,0.0,0.0,0.2881619,0.0,0.0,0.0,0.3612704,0.0,0.0,0.0,0.16604911,589.0842,185.34799,627.76556,807.8755,1041.1721,-0.27557373046875,0.0380859375,0.95440673828125,1.54022216796875,-2.833709716796875,-0.34393310546875,1.0,2.0,4.0,1.0,1.0,100.0,event
09:18:21.476,0.0,0.0,0.0,0.30169684,0.0,0.0,0.0,0.31430182,0.0,0.0,0.0,0.2881619,0.0,0.0,0.0,0.3612704,0.0,0.0,0.0,0.16604911,325.56778,612.4542,822.7839,796.99634,697.0696,-0.27557373046875,0.0380859375,0.95440673828125,1.54022216796875,-2.833709716796875,-0.34393310546875,1.0,2.0,4.0,1.0,1.0,100.0,event
09:18:21.544,0.0,0.0,0.0,0.30169684,0.0,0.0,0.0,0.31430182,0.0,0.0,0.0,0.2881619,0.0,0.0,0.0,0.3612704,0.0,0.0,0.0,0.16604911,1389.3041,933.9927,720.84247,821.1722,819.5604,-0.271728515625,0.04278564453125,0.95654296875,2.519683837890625,-3.170166015625,0.351409912109375,1.0,2.0,4.0,1.0,1.0,100.0,event
09:18:21.545,0.0,0.0,0.0,0.30169684,0.0,0.0,0.0,0.31430182,0.0,0.0,0.0,0.2881619,0.0,0.0,0.0,0.3612704,0.0,0.0,0.0,0.16604911,125.71429,1054.0659,726.08057,823.5897,868.315,-0.271728515625,0.04278564453125,0.95654296875,2.519683837890625,-3.170166015625,0.351409912109375,1.0,2.0,4.0,1.0,1.0,100.0,event
09:18:21.546,0.0,0.0,0.0,0.30169684,0.0,0.0,0.0,0.31430182,0.0,0.0,0.0,0.2881619,0.0,0.0,0.0,0.3612704,0.0,0.0,0.0,0.16604911,897.326,994.83514,743.8095,800.6227,736.55676,-0.271728515625,0.04278564453125,0.95654296875,2.519683837890625,-3.170166015625,0.351409912109375,1.0,2.0,4.0,1.0,1.0,100.0,event
09:18:21.546,0.0,0.0,0.0,0.30169684,0.0,0.0,0.0,0.31430182,0.0,0.0,0.0,0.2881619,0.0,0.0,0.0,0.3612704,0.0,0.0,0.0,0.16604911,0.0,460.1465,715.6044,788.5348,692.23444,-0.271728515625,0.04278564453125,0.95654296875,2.519683837890625,-3.170166015625,0.351409912109375,1.0,2.0,4.0,1.0,1.0,100.0,event
09:18:21.547,0.0,0.0,0.0,0.30169684,0.0,0.0,0.0,0.31430182,0.0,0.0,0.0,0.2881619,0.0,0.0,0.0,0.3612704,0.0,0.0,0.0,0.16604911,115.64103,267.14285,742.1978,790.14655,734.1392,-0.271728515625,0.04278564453125,0.95654296875,2.519683837890625,-3.170166015625,0.351409912109375,1.0,2.0,4.0,1.0,1.0,100.0,event
09:18:21.548,0.0,0.0,0.0,0.30169684,0.0,0.0,0.0,0.31430182,0.0,0.0,0.0,0.2881619,0.0,0.0,0.0,0.3612704,0.0,0.0,0.0,0.16604911,1152.381,770.40295,773.6264,808.68134,850.989,-0.271728515625,0.04278564453125,0.95654296875,2.519683837890625,-3.170166015625,0.351409912109375,1.0,2.0,4.0,1.0,1.0,100.0,event
09:18:21.548,0.0,0.0,0.0,0.30169684,0.0,0.0,0.0,0.31430182,0.0,0.0,0.0,0.2881619,0.0,0.0,0.0,0.3612704,0.0,0.0,0.0,0.16604911,165.20146,1236.5934,758.315,811.50183,900.9524,-0.271728515625,0.04278564453125,0.95654296875,2.519683837890625,-3.170166015625,0.351409912109375,1.0,2.0,4.0,1.0,1.0,100.0,event
09:18:21.549,0.0,0.0,0.0,0.30169684,0.0,0.0,0.0,0.31430182,0.0,0.0,0.0,0.2881619,0.0,0.0,0.0,0.3612704,0.0,0.0,0.0,0.16604911,970.2564,952.9304,715.2015,785.7143,771.2088,-0.271728515625,0.04278564453125,0.95654296875,2.519683837890625,-3.170166015625,0.351409912109375,1.0,2.0,4.0,1.0,1.0,100.0,event
09:18:21.549,0.0,0.0,0.0,0.30169684,0.0,0.0,0.0,0.31430182,0.0,0.0,0.0,0.2881619,0.0,0.0,0.0,0.3612704,0.0,0.0,0.0,0.16604911,0.0,242.96703,649.12085,777.6557,878.3883,-0.271728515625,0.04278564453125,0.95654296875,2.519683837890625,-3.170166015625,0.351409912109375,1.0,2.0,4.0,1.0,1.0,100.0,event
09:18:21.550,0.0,0.0,0.0,0.30169684,0.0,0.0,0.0,0.31430182,0.0,0.0,0.0,0.2881619,0.0,0.0,0.0,0.3612704,0.0,0.0,0.0,0.16604911,46.739925,136.19048,759.12085,790.14655,965.0183,-0.271728515625,0.04278564453125,0.95654296875,2.519683837890625,-3.170166015625,0.351409912109375,1.0,2.0,4.0,1.0,1.0,100.0,event
09:18:21.550,0.0,0.0,0.0,0.30169684,0.0,0.0,0.0,0.31430182,0.0,0.0,0.0,0.2881619,0.0,0.0,0.0,0.3612704,0.0,0.0,0.0,0.16604911,1072.6007,1041.5751,841.7216,808.2784,728.0952,-0.271728515625,0.04278564453125,0.95654296875,2.519683837890625,-3.170166015625,0.351409912109375,1.0,2.0,4.0,1.0,1.0,100.0,event
09:18:21.551,0.0,0.0,0.0,0.30169684,0.0,0.0,0.0,0.31430182,0.0,0.0,0.0,0.2881619,0.0,0.0,0.0,0.3612704,0.0,0.0,0.0,0.16604911,124.50549,1510.989,725.6777,821.1722,742.1978,-0.271728515625,0.04278564453125,0.95654296875,2.519683837890625,-3.170166015625,0.351409912109375,1.0,2.0,4.0,1.0,1.0,100.0,event
09:18:21.578,0.0,0.0,0.0,0.30169684,0.0,0.0,0.0,0.31430182,0.0,0.0,0.0,0.2881619,0.0,0.0,0.0,0.3612704,0.0,0.0,0.0,0.16604911,931.1722,870.7326,674.90845,798.60803,887.25275,-0.266845703125,0.03839111328125,0.94354248046875,1.9439697265625,-4.08233642578125,0.201873779296875,1.0,2.0,4.0,1.0,1.0,100.0,event
09:18:21.579,0.0,0.0,0.0,0.22542657,0.0,0.0,0.0,0.32867616,0.0,0.0,0.0,0.2858827,0.0,0.0,0.0,0.36292315,0.0,0.0,0.0,0.16497135,0.0,268.35165,734.5421,772.8205,813.1135,-0.266845703125,0.03839111328125,0.94354248046875,1.9439697265625,-4.08233642578125,0.201873779296875,1.0,4.0,4.0,1.0,1.0,100.0,event
09:18:21.583,0.0,0.0,0.0,0.22542657,0.0,0.0,0.0,0.32867616,0.0,0.0,0.0,0.2858827,0.0,0.0,0.0,0.36292315,0.0,0.0,0.0,0.16497135,0.0,442.41757,785.31134,783.2967,735.7509,-0.266845703125,0.03839111328125,0.94354248046875,1.9439697265625,-4.08233642578125,0.201873779296875,1.0,4.0,4.0,1.0,1.0,100.0,event
09:18:21.584,0.0,0.0,0.0,0.22542657,0.0,0.0,0.0,0.32867616,0.0,0.0,0.0,0.2858827,0.0,0.0,0.0,0.36292315,0.0,0.0,0.0,0.16497135,838.49817,877.5824,742.6007,815.12823,754.68866,-0.266845703125,0.03839111328125,0.94354248046875,1.9439697265625,-4.08233642578125,0.201873779296875,1.0,4.0,4.0,1.0,1.0,100.0,event
09:18:21.585,0.0,0.0,0.0,0.22542657,0.0,0.0,0.0,0.32867616,0.0,0.0,0.0,0.2858827,0.0,0.0,0.0,0.36292315,0.0,0.0,0.0,0.16497135,162.78389,1021.4286,704.7253,840.9158,812.71063,-0.266845703125,0.03839111328125,0.94354248046875,1.9439697265625,-4.08233642578125,0.201873779296875,1.0,4.0,4.0,1.0,1.0,100.0,event
09:18:21.586,0.0,0.0,0.0,0.22542657,0.0,0.0,0.0,0.32867616,0.0,0.0,0.0,0.2858827,0.0,0.0,0.0,0.36292315,0.0,0.0,0.0,0.16497135,1101.6117,801.4286,707.1429,829.2308,832.8571,-0.266845703125,0.03839111328125,0.94354248046875,1.9439697265625,-4.08233642578125,0.201873779296875,1.0,4.0,4.0,1.0,1.0,100.0,event
09:18:21.586,0.0,0.0,0.0,0.22542657,0.0,0.0,0.0,0.32867616,0.0,0.0,0.0,0.2858827,0.0,0.0,0.0,0.36292315,0.0,0.0,0.0,0.16497135,58.021976,253.0403,724.87177,800.6227,746.2271,-0.266845703125,0.03839111328125,0.94354248046875,1.9439697265625,-4.08233642578125,0.201873779296875,1.0,4.0,4.0,1.0,1.0,100.0,event
09:18:21.587,0.0,0.0,0.0,0.22542657,0.0,0.0,0.0,0.32867616,0.0,0.0,0.0,0.2858827,0.0,0.0,0.0,0.36292315,0.0,0.0,0.0,0.16497135,0.0,0.0,709.9634,792.5641,765.56775,-0.266845703125,0.03839111328125,0.94354248046875,1.9439697265625,-4.08233642578125,0.201873779296875,1.0,4.0,4.0,1.0,1.0,100.0,event
09:18:21.588,0.0,0.0,0.0,0.22542657,0.0,0.0,0.0,0.32867616,0.0,0.0,0.0,0.2858827,0.0,0.0,0.0,0.36292315,0.0,0.0,0.0,0.16497135,636.2271,130.95238,769.59705,807.0696,973.0769,-0.266845703125,0.03839111328125,0.94354248046875,1.9439697265625,-4.08233642578125,0.201873779296875,1.0,4.0,4.0,1.0,1.0,100.0,event
09:18:21.589,0.0,0.0,0.0,0.22542657,0.0,0.0,0.0,0.32867616,0.0,0.0,0.0,0.2858827,0.0,0.0,0.0,0.36292315,0.0,0.0,0.0,0.16497135,103.95605,1052.8572,848.1685,814.7253,920.293,-0.266845703125,0.03839111328125,0.94354248046875,1.9439697265625,-4.08233642578125,0.201873779296875,1.0,4.0,4.0,1.0,1.0,100.0,event
09:18:21.589,0.0,0.0,0.0,0.22542657,0.0,0.0,0.0,0.32867616,0.0,0.0,0.0,0.2858827,0.0,0.0,0.0,0.36292315,0.0,0.0,0.0,0.16497135,1322.0146,1401.392,723.663,802.23444,759.12085,-0.266845703125,0.03839111328125,0.94354248046875,1.9439697265625,-4.08233642578125,0.201873779296875,1.0,4.0,4.0,1.0,1.0,100.0,event
09:18:21.590,0.0,0.0,0.0,0.22542657,0.0,0.0,0.0,0.32867616,0.0,0.0,0.0,0.2858827,0.0,0.0,0.0,0.36292315,0.0,0.0,0.0,0.16497135,216.77655,489.56042,691.8315,775.2381,752.27106,-0.266845703125,0.03839111328125,0.94354248046875,1.9439697265625,-4.08233642578125,0.201873779296875,1.0,4.0,4.0,1.0,1.0,100.0,event
09:18:21.614,0.0,0.0,0.0,0.22542657,0.0,0.0,0.0,0.32867616,0.0,0.0,0.0,0.2858827,0.0,0.0,0.0,0.36292315,0.0,0.0,0.0,0.16497135,0.0,79.37729,761.13556,779.67035,706.337,-0.266845703125,0.03839111328125,0.94354248046875,1.9439697265625,-4.08233642578125,0.201873779296875,1.0,4.0,4.0,1.0,1.0,100.0,event
09:18:21.614,0.0,0.0,0.0,0.22542657,0.0,0.0,0.0,0.32867616,0.0,0.0,0.0,0.2858827,0.0,0.0,0.0,0.36292315,0.0,0.0,0.0,0.16497135,675.7143,728.0952,809.4872,809.4872,681.75824,-0.266845703125,0.03839111328125,0.94354248046875,1.9439697265625,-4.08233642578125,0.201873779296875,1.0,4.0,4.0,1.0,1.0,100.0,event
09:18:21.615,0.0,0.0,0.0,0.22542657,0.0,0.0,0.0,0.32867616,0.0,0.0,0.0,0.2858827,0.0,0.0,0.0,0.36292315,0.0,0.0,0.0,0.16497135,89.45055,1434.0293,765.16486,825.6044,728.0952,-0.266845703125,0.03839111328125,0.94354248046875,1.9439697265625,-4.08233642578125,0.201873779296875,1.0,4.0,4.0,1.0,1.0,100.0,event
09:18:21.618,0.0,0.0,0.0,0.22542657,0.0,0.0,0.0,0.32867616,0.0,0.0,0.0,0.2858827,0.0,0.0,0.0,0.36292315,0.0,0.0,0.0,0.16497135,1388.9011,1124.9817,699.89014,794.9817,838.0952,-0.266845703125,0.03839111328125,0.94354248046875,1.9439697265625,-4.08233642578125,0.201873779296875,1.0,4.0,4.0,1.0,1.0,100.0,event
09:18:21.619,0.0,0.0,0.0,0.22542657,0.0,0.0,0.0,0.32867616,0.0,0.0,0.0,0.2858827,0.0,0.0,0.0,0.36292315,0.0,0.0,0.0,0.16497135,321.9414,335.2381,714.3956,780.87915,834.0659,-0.266845703125,0.03839111328125,0.94354248046875,1.9439697265625,-4.08233642578125,0.201873779296875,1.0,4.0,4.0,1.0,1.0,100.0,event
09:18:21.620,0.0,0.0,0.0,0.22542657,0.0,0.0,0.0,0.32867616,0.0,0.0,0.0,0.2858827,0.0,0.0,0.0,0.36292315,0.0,0.0,0.0,0.16497135,0.0,0.0,739.7802,795.38464,769.59705,-0.266845703125,0.03839111328125,0.94354248046875,1.9439697265625,-4.08233642578125,0.201873779296875,1.0,4.0,4.0,1.0,1.0,100.0,event
09:18:21.621,0.0,0.0,0.0,0.22542657,0.0,0.0,0.0,0.32867616,0.0,0.0,0.0,0.2858827,0.0,0.0,0.0,0.36292315,0.0,0.0,0.0,0.16497135,587.0696,333.62637,794.57874,811.0989,764.7619,-0.266845703125,0.03839111328125,0.94354248046875,1.9439697265625,-4.08233642578125,0.201873779296875,1.0,4.0,4.0,1.0,1.0,100.0,event
09:18:21.622,0.0,0.0,0.0,0.22542657,0.0,0.0,0.0,0.32867616,0.0,0.0,0.0,0.2858827,0.0,0.0,0.0,0.36292315,0.0,0.0,0.0,0.16497135,1647.5824,631.39197,731.7216,824.7985,911.4286,-0.266845703125,0.03839111328125,0.94354248046875,1.9439697265625,-4.08233642578125,0.201873779296875,1.0,4.0,4.0,1.0,1.0,100.0,event
09:18:21.623,0.0,0.0,0.0,0.22542657,0.0,0.0,0.0,0.32867616,0.0,0.0,0.0,0.2858827,0.0,0.0,0.0,0.36292315,0.0,0.0,0.0,0.16497135,1614.5421,363.44324,741.79486,809.0842,1114.9084,-0.266845703125,0.03839111328125,0.94354248046875,1.9439697265625,-4.08233642578125,0.201873779296875,1.0,4.0,4.0,1.0,1.0,100.0,event
09:18:21.623,0.0,0.0,0.0,0.22542657,0.0,0.0,0.0,0.32867616,0.0,0.0,0.0,0.2858827,0.0,0.0,0.0,0.36292315,0.0,0.0,0.0,0.16497135,637.4359,479.48718,807.8755,796.5934,843.3333,-0.266845703125,0.03839111328125,0.94354248046875,1.9439697265625,-4.08233642578125,0.201873779296875,1.0,4.0,4.0,1.0,1.0,100.0,event
09:18:21.624,0.0,0.0,0.0,0.22542657,0.0,0.0,0.0,0.32867616,0.0,0.0,0.0,0.2858827,0.0,0.0,0.0,0.36292315,0.0,0.0,0.0,0.16497135,0.0,293.33334,735.34796,796.5934,651.9414,-0.266845703125,0.03839111328125,0.94354248046875,1.9439697265625,-4.08233642578125,0.201873779296875,1.0,4.0,4.0,1.0,1.0,100.0,event
09:18:21.625,0.0,0.0,0.0,0.22542657,0.0,0.0,0.0,0.32867616,0.0,0.0,0.0,0.2858827,0.0,0.0,0.0,0.36292315,0.0,0.0,0.0,0.16497135,536.30035,383.1868,782.49084,797.8022,744.21246,-0.266845703125,0.03839111328125,0.94354248046875,1.9439697265625,-4.08233642578125,0.201873779296875,1.0,4.0,4.0,1.0,1.0,100.0,event
09:18:21.646,0.0,0.0,0.0,0.22542657,0.0,0.0,0.0,0.32867616,0.0,0.0,0.0,0.2858827,0.0,0.0,0.0,0.36292315,0.0,0.0,0.0,0.16497135,1605.6776,1218.0586,810.696,821.1722,775.2381,-0.26617431640625,0.04364013671875,0.95556640625,2.52716064453125,-3.730926513671875,0.3289794921875,1.0,4.0,4.0,1.0,1.0,100.0,event
09:18:21.647,0.0,0.0,0.0,0.22542657,0.0,0.0,0.0,0.32867616,0.0,0.0,0.0,0.2858827,0.0,0.0,0.0,0.36292315,0.0,0.0,0.0,0.16497135,34.652016,1529.1208,745.82416,812.3077,751.8681,-0.26617431640625,0.04364013671875,0.95556640625,2.52716064453125,-3.730926513671875,0.3289794921875,1.0,4.0,4.0,1.0,1.0,100.0,event
09:18:21.648,0.0,0.0,0.0,0.22542657,0.0,0.0,0.0,0.32867616,0.0,0.0,0.0,0.2858827,0.0,0.0,0.0,0.36292315,0.0,0.0,0.0,0.16497135,787.72894,789.34064,687.3993,786.9231,756.30035,-0.26617431640625,0.04364013671875,0.95556640625,2.52716064453125,-3.730926513671875,0.3289794921875,1.0,4.0,4.0,1.0,1.0,100.0,event
09:18:21.648,0.0,0.0,0.0,0.21210632,0.0,0.0,0.0,0.36276528,0.0,0.0,0.0,0.22237003,0.0,0.0,0.0,0.37497982,0.0,0.0,0.0,0.165867,0.0,93.88278,724.0659,786.1172,746.2271,-0.26617431640625,0.04364013671875,0.95556640625,2.52716064453125,-3.730926513671875,0.3289794921875,1.0,4.0,4.0,1.0,1.0,100.0,event
09:18:21.651,0.0,0.0,0.0,0.21210632,0.0,0.0,0.0,0.36276528,0.0,0.0,0.0,0.22237003,0.0,0.0,0.0,0.37497982,0.0,0.0,0.0,0.165867,393.663,391.24542,787.72894,799.81683,716.4103,-0.26617431640625,0.04364013671875,0.95556640625,2.52716064453125,-3.730926513671875,0.3289794921875,1.0,4.0,4.0,1.0,1.0,100.0,event
09:18:21.652,0.0,0.0,0.0,0.21210632,0.0,0.0,0.0,0.36276528,0.0,0.0,0.0,0.22237003,0.0,0.0,0.0,0.37497982,0.0,0.0,0.0,0.165867,1527.9121,1003.69965,767.98535,819.9634,816.7399,-0.26617431640625,0.04364013671875,0.95556640625,2.52716064453125,-3.730926513671875,0.3289794921875,1.0,4.0,4.0,1.0,1.0,100.0,event
09:18:21.652,0.0,0.0,0.0,0.21210632,0.0,0.0,0.0,0.36276528,0.0,0.0,0.0,0.22237003,0.0,0.0,0.0,0.37497982,0.0,0.0,0.0,0.165867,50.76923,983.95605,708.3516,815.9341,935.6044,-0.26617431640625,0.04364013671875,0.95556640625,2.52716064453125,-3.730926513671875,0.3289794921875,1.0,4.0,4.0,1.0,1.0,100.0,event
09:18:21.653,0.0,0.0,0.0,0.21210632,0.0,0.0,0.0,0.36276528,0.0,0.0,0.0,0.22237003,0.0,0.0,0.0,0.37497982,0.0,0.0,0.0,0.165867,0.0,0.0,773.22345,792.96704,940.4396,-0.26617431640625,0.04364013671875,0.95556640625,2.52716064453125,-3.730926513671875,0.3289794921875,1.0,4.0,4.0,1.0,1.0,100.0,event
09:18:21.653,0.0,0.0,0.0,0.21210632,0.0,0.0,0.0,0.36276528,0.0,0.0,0.0,0.22237003,0.0,0.0,0.0,0.37497982,0.0,0.0,0.0,0.165867,721.6484,230.07326,634.61536,800.6227,1160.8425,-0.26617431640625,0.04364013671875,0.95556640625,2.52716064453125,-3.730926513671875,0.3289794921875,1.0,4.0,4.0,1.0,1.0,100.0,event
09:18:21.654,0.0,0.0,0.0,0.21210632,0.0,0.0,0.0,0.36276528,0.0,0.0,0.0,0.22237003,0.0,0.0,0.0,0.37497982,0.0,0.0,0.0,0.165867,262.30768,437.17947,846.9597,801.4286,629.3773,-0.26617431640625,0.04364013671875,0.95556640625,2.52716064453125,-3.730926513671875,0.3289794921875,1.0,4.0,4.0,1.0,1.0,100.0,event
09:18:21.654,0.0,0.0,0.0,0.21210632,0.0,0.0,0.0,0.36276528,0.0,0.0,0.0,0.22237003,0.0,0.0,0.0,0.37497982,0.0,0.0,0.0,0.165867,1323.6263,970.2564,776.4469,824.3956,772.8205,-0.26617431640625,0.04364013671875,0.95556640625,2.52716064453125,-3.730926513671875,0.3289794921875,1.0,4.0,4.0,1.0,1.0,100.0,event
09:18:21.655,0.0,0.0,0.0,0.21210632,0.0,0.0,0.0,0.36276528,0.0,0.0,0.0,0.22237003,0.0,0.0,0.0,0.37497982,0.0,0.0,0.0,0.165867,142.63736,1234.1758,760.32965,818.3516,767.5824,-0.26617431640625,0.04364013671875,0.95556640625,2.52716064453125,-3.730926513671875,0.3289794921875,1.0,4.0,4.0,1.0,1.0,100.0,event
09:18:21.740,0.0,0.0,0.0,0.21210632,0.0,0.0,0.0,0.36276528,0.0,0.0,0.0,0.22237003,0.0,0.0,0.0,0.37497982,0.0,0.0,0.0,0.165867,925.9341,1020.2198,743.8095,800.2198,701.9048,-0.26556396484375,0.04034423828125,0.95013427734375,2.280426025390625,-3.78326416015625,1.18133544921875,1.0,4.0,4.0,1.0,1.0,100.0,event
09:18:21.741,0.0,0.0,0.0,0.21210632,0.0,0.0,0.0,0.36276528,0.0,0.0,0.0,0.22237003,0.0,0.0,0.0,0.37497982,0.0,0.0,0.0,0.165867,0.0,378.75458,724.87177,791.75824,642.674,-0.26556396484375,0.04034423828125,0.95013427734375,2.280426025390625,-3.78326416015625,1.18133544921875,1.0,4.0,4.0,1.0,1.0,100.0,event
09:18:21.742,0.0,0.0,0.0,0.21210632,0.0,0.0,0.0,0.36276528,0.0,0.0,0.0,0.22237003,0.0,0.0,0.0,0.37497982,0.0,0.0,0.0,0.165867,61.245422,133.36996,771.6117,794.9817,665.64105,-0.26556396484375,0.04034423828125,0.95013427734375,2.280426025390625,-3.78326416015625,1.18133544921875,1.0,4.0,4.0,1.0,1.0,100.0,event
09:18:21.742,0.0,0.0,0.0,0.21210632,0.0,0.0,0.0,0.36276528,0.0,0.0,0.0,0.22237003,0.0,0.0,0.0,0.37497982,0.0,0.0,0.0,0.165867,1077.4359,752.674,828.022,811.9048,811.9048,-0.26556396484375,0.04034423828125,0.95013427734375,2.280426025390625,-3.78326416015625,1.18133544921875,1.0,4.0,4.0,1.0,1.0,100.0,event
09:18:21.743,0.0,0.0,0.0,0.21210632,0.0,0.0,0.0,0.36276528,0.0,0.0,0.0,0.22237003,0.0,0.0,0.0,0.37497982,0.0,0.0,0.0,0.165867,172.45421,1394.9451,770.0,811.50183,825.2015,-0.26556396484375,0.04034423828125,0.95013427734375,2.280426025390625,-3.78326416015625,1.18133544921875,1.0,4.0,4.0,1.0,1.0,100.0,event
09:18:21.744,0.0,0.0,0.0,0.21210632,0.0,0.0,0.0,0.36276528,0.0,0.0,0.0,0.22237003,0.0,0.0,0.0,0.37497982,0.0,0.0,0.0,0.165867,958.5714,849.7802,699.89014,790.9524,778.86444,-0.26556396484375,0.04034423828125,0.95013427734375,2.280426025390625,-3.78326416015625,1.18133544921875,1.0,4.0,4.0,1.0,1.0,100.0,event
09:18:21.744,0.0,0.0,0.0,0.21210632,0.0,0.0,0.0,0.36276528,0.0,0.0,0.0,0.22237003,0.0,0.0,0.0,0.37497982,0.0,0.0,0.0,0.165867,0.0,66.886444,662.4176,787.72894,966.2271,-0.26556396484375,0.04034423828125,0.95013427734375,2.280426025390625,-3.78326416015625,1.18133544921875,1.0,4.0,4.0,1.0,1.0,100.0,event
09:18:21.745,0.0,0.0,0.0,0.21210632,0.0,0.0,0.0,0.36276528,0.0,0.0,0.0,0.22237003,0.0,0.0,0.0,0.37497982,0.0,0.0,0.0,0.165867,0.0,72.52747,791.3553,804.65204,1010.14655,-0.26556396484375,0.04034423828125,0.95013427734375,2.280426025390625,-3.78326416015625,1.18133544921875,1.0,4.0,4.0,1.0,1.0,100.0,event
09:18:21.745,0.0,0.0,0.0,0.21210632,0.0,0.0,0.0,0.36276528,0.0,0.0,0.0,0.22237003,0.0,0.0,0.0,0.37497982,0.0,0.0,0.0,0.165867,928.7546,887.6557,898.93774,822.381,793.36993,-0.26556396484375,0.04034423828125,0.95013427734375,2.280426025390625,-3.78326416015625,1.18133544921875,1.0,4.0,4.0,1.0,1.0,100.0,event
09:18:21.746,0.0,0.0,0.0,0.21210632,0.0,0.0,0.0,0.36276528,0.0,0.0,0.0,0.22237003,0.0,0.0,0.0,0.37497982,0.0,0.0,0.0,0.165867,172.05128,1487.619,753.47986,818.3516,791.3553,-0.26556396484375,0.04034423828125,0.95013427734375,2.280426025390625,-3.78326416015625,1.18133544921875,1.0,4.0,4.0,1.0,1.0,100.0,event
09:18:21.746,0.0,0.0,0.0,0.21210632,0.0,0.0,0.0,0.36276528,0.0,0.0,0.0,0.22237003,0.0,0.0,0.0,0.37497982,0.0,0.0,0.0,0.165867,1043.5897,948.0952,720.0366,796.5934,866.7033,-0.26556396484375,0.04034423828125,0.95013427734375,2.280426025390625,-3.78326416015625,1.18133544921875,1.0,4.0,4.0,1.0,1.0,100.0,event
09:18:21.747,0.0,0.0,0.0,0.21210632,0.0,0.0,0.0,0.36276528,0.0,0.0,0.0,0.22237003,0.0,0.0,0.0,0.37497982,0.0,0.0,0.0,0.165867,11.282051,296.95972,761.53845,789.34064,760.32965,-0.26556396484375,0.04034423828125,0.95013427734375,2.280426025390625,-3.78326416015625,1.18133544921875,1.0,4.0,4.0,1.0,1.0,100.0,event
09:18:21.774,0.0,0.0,0.0,0.21210632,0.0,0.0,0.0,0.36276528,0.0,0.0,0.0,0.22237003,0.0,0.0,0.0,0.37497982,0.0,0.0,0.0,0.165867,0.0,280.03662,781.28204,793.36993,596.337,-0.27288818359375,0.04400634765625,0.9554443359375,2.75146484375,-2.75146484375,1.757049560546875,1.0,4.0,4.0,1.0,1.0,100.0,event
09:18:21.775,0.0,0.0,0.0,0.21210632,0.0,0.0,0.0,0.36276528,0.0,0.0,0.0,0.22237003,0.0,0.0,0.0,0.37497982,0.0,0.0,0.0,0.165867,767.5824,727.28937,774.43225,814.3223,654.35895,-0.27288818359375,0.04400634765625,0.9554443359375,2.75146484375,-2.75146484375,1.757049560546875,1.0,4.0,4.0,1.0,1.0,100.0,event
09:18:21.776,0.0,0.0,0.0,0.21210632,0.0,0.0,0.0,0.36276528,0.0,0.0,0.0,0.22237003,0.0,0.0,0.0,0.37497982,0.0,0.0,0.0,0.165867,138.60806,1095.5677,753.0769,820.3663,766.3736,-0.27288818359375,0.04400634765625,0.9554443359375,2.75146484375,-2.75146484375,1.757049560546875,1.0,4.0,4.0,1.0,1.0,100.0,event
09:18:21.777,0.0,0.0,0.0,0.21210632,0.0,0.0,0.0,0.36276528,0.0,0.0,0.0,0.22237003,0.0,0.0,0.0,0.37497982,0.0,0.0,0.0,0.165867,1239.011,1126.5934,760.32965,801.8315,755.89746,-0.27288818359375,0.04400634765625,0.9554443359375,2.75146484375,-2.75146484375,1.757049560546875,1.0,4.0,4.0,1.0,1.0,100.0,event
09:18:21.777,0.0,0.0,0.0,0.21210632,0.0,0.0,0.0,0.36276528,0.0,0.0,0.0,0.22237003,0.0,0.0,0.0,0.37497982,0.0,0.0,0.0,0.165867,159.96336,582.23444,732.1245,786.9231,719.6337,-0.27288818359375,0.04400634765625,0.9554443359375,2.75146484375,-2.75146484375,1.757049560546875,1.0,4.0,4.0,1.0,1.0,100.0,event
09:18:21.778,0.0,0.0,0.0,0.24404174,0.0,0.0,0.0,0.4076724,0.0,0.0,0.0,0.10453867,0.0,0.0,0.0,0.39617828,0.0,0.0,0.0,0.16537175,0.0,0.0,691.02563,793.36993,790.14655,-0.27288818359375,0.04400634765625,0.9554443359375,2.75146484375,-2.75146484375,1.757049560546875,1.0,4.0,4.0,1.0,1.0,100.0,event
