TimeStamp,Delta_TP9,Delta_AF7,Delta_AF8,Delta_TP10,Theta_TP9,Theta_AF7,Theta_AF8,Theta_TP10,Alpha_TP9,Alpha_AF7,Alpha_AF8,Alpha_TP10,Beta_TP9,Beta_AF7,Beta_AF8,Beta_TP10,Gamma_TP9,Gamma_AF7,Gamma_AF8,Gamma_TP10,RAW_TP9,RAW_AF7,RAW_AF8,RAW_TP10,AUX_RIGHT,Accelerometer_X,Accelerometer_Y,Accelerometer_Z,Gyro_X,Gyro_Y,Gyro_Z,HeadBandOn,HSI_TP9,HSI_AF7,HSI_AF8,HSI_TP10,Battery,Elements
10:26:42.225,0.7891471,0.95456815,1.0691229,0.26207602,0.4172231,0.6449149,0.24788928,0.005239603,0.3908828,-0.14673646,0.12286824,0.13168605,0.70385516,0.1685608,-0.2526446,0.417056,0.31322733,-0.22614846,-0.6498027,0.0232347,803.8461,814.7253,807.0696,794.17584,727.6923,-0.240966796875,0.06304931640625,0.9598388671875,2.071075439453125,-3.835601806640625,0.590667724609375,1.0,1.0,1.0,1.0,1.0,90.0,event
10:26:42.226,0.7891471,0.95456815,1.0691229,0.26207602,0.4172231,0.6449149,0.24788928,0.005239603,0.3908828,-0.14673646,0.12286824,0.13168605,0.70385516,0.1685608,-0.2526446,0.417056,0.31322733,-0.22614846,-0.6498027,0.0232347,816.337,803.8461,807.8755,804.65204,769.59705,-0.240966796875,0.06304931640625,0.9598388671875,2.071075439453125,-3.835601806640625,0.590667724609375,1.0,1.0,1.0,1.0,1.0,90.0,event
10:26:42.227,0.7891471,0.95456815,1.0691229,0.26207602,0.4172231,0.6449149,0.24788928,0.005239603,0.3908828,-0.14673646,0.12286824,0.13168605,0.70385516,0.1685608,-0.2526446,0.417056,0.31322733,-0.22614846,-0.6498027,0.0232347,809.4872,809.4872,809.4872,813.1135,845.34796,-0.240966796875,0.06304931640625,0.9598388671875,2.071075439453125,-3.835601806640625,0.590667724609375,1.0,1.0,1.0,1.0,1.0,90.0,event
10:26:42.228,0.7891471,0.95456815,1.0691229,0.26207602,0.4172231,0.6449149,0.24788928,0.005239603,0.3908828,-0.14673646,0.12286824,0.13168605,0.70385516,0.1685608,-0.2526446,0.417056,0.31322733,-0.22614846,-0.6498027,0.0232347,796.1905,819.5604,810.293,792.96704,783.69965,-0.240966796875,0.06304931640625,0.9598388671875,2.071075439453125,-3.835601806640625,0.590667724609375,1.0,1.0,1.0,1.0,1.0,90.0,event
10:26:42.228,0.7891471,0.95456815,1.0691229,0.26207602,0.4172231,0.6449149,0.24788928,0.005239603,0.3908828,-0.14673646,0.12286824,0.13168605,0.70385516,0.1685608,-0.2526446,0.417056,0.31322733,-0.22614846,-0.6498027,0.0232347,795.38464,822.7839,809.0842,804.2491,792.96704,-0.240966796875,0.06304931640625,0.9598388671875,2.071075439453125,-3.835601806640625,0.590667724609375,1.0,1.0,1.0,1.0,1.0,90.0,event
10:26:42.229,0.7891471,0.95456815,1.0691229,0.26207602,0.4172231,0.6449149,0.24788928,0.005239603,0.3908828,-0.14673646,0.12286824,0.13168605,0.70385516,0.1685608,-0.2526446,0.417056,0.31322733,-0.22614846,-0.6498027,0.0232347,801.02563,806.6667,805.4579,792.5641,834.87177,-0.240966796875,0.06304931640625,0.9598388671875,2.071075439453125,-3.835601806640625,0.590667724609375,1.0,1.0,1.0,1.0,1.0,90.0,event
10:26:42.230,0.7891471,0.95456815,1.0691229,0.26207602,0.4172231,0.6449149,0.24788928,0.005239603,0.3908828,-0.14673646,0.12286824,0.13168605,0.70385516,0.1685608,-0.2526446,0.417056,0.31322733,-0.22614846,-0.6498027,0.0232347,800.6227,797.3993,804.2491,792.96704,911.4286,-0.240966796875,0.06304931640625,0.9598388671875,2.071075439453125,-3.835601806640625,0.590667724609375,1.0,1.0,1.0,1.0,1.0,90.0,event
10:26:42.230,0.7891471,0.95456815,1.0691229,0.26207602,0.4172231,0.6449149,0.24788928,0.005239603,0.3908828,-0.14673646,0.12286824,0.13168605,0.70385516,0.1685608,-0.2526446,0.417056,0.31322733,-0.22614846,-0.6498027,0.0232347,794.9817,814.7253,807.8755,790.9524,990.40295,-0.240966796875,0.06304931640625,0.9598388671875,2.071075439453125,-3.835601806640625,0.590667724609375,1.0,1.0,1.0,1.0,1.0,90.0,event
10:26:42.231,0.7891471,0.95456815,1.0691229,0.26207602,0.4172231,0.6449149,0.24788928,0.005239603,0.3908828,-0.14673646,0.12286824,0.13168605,0.70385516,0.1685608,-0.2526446,0.417056,0.31322733,-0.22614846,-0.6498027,0.0232347,788.1319,826.8132,808.68134,789.7436,743.8095,-0.240966796875,0.06304931640625,0.9598388671875,2.071075439453125,-3.835601806640625,0.590667724609375,1.0,1.0,1.0,1.0,1.0,90.0,event
10:26:42.231,0.7891471,0.95456815,1.0691229,0.26207602,0.4172231,0.6449149,0.24788928,0.005239603,0.3908828,-0.14673646,0.12286824,0.13168605,0.70385516,0.1685608,-0.2526446,0.417056,0.31322733,-0.22614846,-0.6498027,0.0232347,802.23444,810.293,808.68134,790.14655,645.89746,-0.240966796875,0.06304931640625,0.9598388671875,2.071075439453125,-3.835601806640625,0.590667724609375,1.0,1.0,1.0,1.0,1.0,90.0,event
10:26:42.232,0.7891471,0.95456815,1.0691229,0.26207602,0.4172231,0.6449149,0.24788928,0.005239603,0.3908828,-0.14673646,0.12286824,0.13168605,0.70385516,0.1685608,-0.2526446,0.417056,0.31322733,-0.22614846,-0.6498027,0.0232347,810.696,801.02563,809.4872,799.011,726.8865,-0.240966796875,0.06304931640625,0.9598388671875,2.071075439453125,-3.835601806640625,0.590667724609375,1.0,1.0,1.0,1.0,1.0,90.0,event
10:26:42.233,0.7891471,0.95456815,1.0691229,0.26207602,0.4172231,0.6449149,0.24788928,0.005239603,0.3908828,-0.14673646,0.12286824,0.13168605,0.70385516,0.1685608,-0.2526446,0.417056,0.31322733,-0.22614846,-0.6498027,0.0232347,803.44324,809.89014,809.89014,811.9048,761.9414,-0.240966796875,0.06304931640625,0.9598388671875,2.071075439453125,-3.835601806640625,0.590667724609375,1.0,1.0,1.0,1.0,1.0,90.0,event
10:26:42.233,0.7891471,0.95456815,1.0691229,0.26207602,0.4172231,0.6449149,0.24788928,0.005239603,0.3908828,-0.14673646,0.12286824,0.13168605,0.70385516,0.1685608,-0.2526446,0.417056,0.31322733,-0.22614846,-0.6498027,0.0232347,810.696,812.71063,811.0989,793.7729,732.1245,-0.240966796875,0.06304931640625,0.9598388671875,2.071075439453125,-3.835601806640625,0.590667724609375,1.0,1.0,1.0,1.0,1.0,90.0,event
10:26:42.234,0.7891471,0.95456815,1.0691229,0.26207602,0.4172231,0.6449149,0.24788928,0.005239603,0.3908828,-0.14673646,0.12286824,0.13168605,0.70385516,0.1685608,-0.2526446,0.417056,0.31322733,-0.22614846,-0.6498027,0.0232347,807.0696,809.4872,816.337,786.9231,698.68134,-0.240966796875,0.06304931640625,0.9598388671875,2.071075439453125,-3.835601806640625,0.590667724609375,1.0,1.0,1.0,1.0,1.0,90.0,event
10:26:42.235,0.7891471,0.95456815,1.0691229,0.26207602,0.4172231,0.6449149,0.24788928,0.005239603,0.3908828,-0.14673646,0.12286824,0.13168605,0.70385516,0.1685608,-0.2526446,0.417056,0.31322733,-0.22614846,-0.6498027,0.0232347,795.38464,814.3223,814.3223,798.60803,756.7033,-0.240966796875,0.06304931640625,0.9598388671875,2.071075439453125,-3.835601806640625,0.590667724609375,1.0,1.0,1.0,1.0,1.0,90.0,event
10:26:42.236,0.7891471,0.95456815,1.0691229,0.26207602,0.4172231,0.6449149,0.24788928,0.005239603,0.3908828,-0.14673646,0.12286824,0.13168605,0.70385516,0.1685608,-0.2526446,0.417056,0.31322733,-0.22614846,-0.6498027,0.0232347,799.011,813.91943,810.696,809.0842,720.0366,-0.240966796875,0.06304931640625,0.9598388671875,2.071075439453125,-3.835601806640625,0.590667724609375,1.0,1.0,1.0,1.0,1.0,90.0,event
10:26:42.238,0.7891471,0.95456815,1.0691229,0.26207602,0.4172231,0.6449149,0.24788928,0.005239603,0.3908828,-0.14673646,0.12286824,0.13168605,0.70385516,0.1685608,-0.2526446,0.417056,0.31322733,-0.22614846,-0.6498027,0.0232347,796.99634,804.65204,810.696,799.011,765.16486,-0.240966796875,0.06304931640625,0.9598388671875,2.071075439453125,-3.835601806640625,0.590667724609375,1.0,1.0,1.0,1.0,1.0,90.0,event
10:26:42.239,0.7891471,0.95456815,1.0691229,0.26207602,0.4172231,0.6449149,0.24788928,0.005239603,0.3908828,-0.14673646,0.12286824,0.13168605,0.70385516,0.1685608,-0.2526446,0.417056,0.31322733,-0.22614846,-0.6498027,0.0232347,791.75824,801.4286,810.696,794.17584,930.3663,-0.240966796875,0.06304931640625,0.9598388671875,2.071075439453125,-3.835601806640625,0.590667724609375,1.0,1.0,1.0,1.0,1.0,90.0,event
10:26:42.240,0.7891471,0.95456815,1.0691229,0.26207602,0.4172231,0.6449149,0.24788928,0.005239603,0.3908828,-0.14673646,0.12286824,0.13168605,0.70385516,0.1685608,-0.2526446,0.417056,0.31322733,-0.22614846,-0.6498027,0.0232347,796.5934,802.23444,811.9048,807.8755,889.67035,-0.240966796875,0.06304931640625,0.9598388671875,2.071075439453125,-3.835601806640625,0.590667724609375,1.0,1.0,1.0,1.0,1.0,90.0,event
10:26:42.241,0.7891471,1.0169694,1.0700564,0.26207602,0.4172231,0.7104332,0.23813024,0.005239603,0.3908828,-0.25747886,0.12286824,0.13168605,0.70385516,0.1879165,-0.25251424,0.417056,0.31322733,-0.2659215,-0.6453177,0.0232347,806.26373,815.12823,810.293,801.4286,757.9121,-0.240966796875,0.06304931640625,0.9598388671875,2.071075439453125,-3.835601806640625,0.590667724609375,1.0,1.0,1.0,1.0,1.0,90.0,event
10:26:42.244,0.7891471,1.0169694,1.0700564,0.26207602,0.4172231,0.7104332,0.23813024,0.005239603,0.3908828,-0.25747886,0.12286824,0.13168605,0.70385516,0.1879165,-0.25251424,0.417056,0.31322733,-0.2659215,-0.6453177,0.0232347,812.71063,815.5311,805.4579,805.05493,705.12823,-0.240966796875,0.06304931640625,0.9598388671875,2.071075439453125,-3.835601806640625,0.590667724609375,1.0,1.0,1.0,1.0,1.0,90.0,event
10:26:42.245,0.7891471,1.0169694,1.0700564,0.26207602,0.4172231,0.7104332,0.23813024,0.005239603,0.3908828,-0.25747886,0.12286824,0.13168605,0.70385516,0.1879165,-0.25251424,0.417056,0.31322733,-0.2659215,-0.6453177,0.0232347,809.4872,799.81683,807.8755,804.65204,753.0769,-0.240966796875,0.06304931640625,0.9598388671875,2.071075439453125,-3.835601806640625,0.590667724609375,1.0,1.0,1.0,1.0,1.0,90.0,event
10:26:42.246,0.7891471,1.0169694,1.0700564,0.26207602,0.4172231,0.7104332,0.23813024,0.005239603,0.3908828,-0.25747886,0.12286824,0.13168605,0.70385516,0.1879165,-0.25251424,0.417056,0.31322733,-0.2659215,-0.6453177,0.0232347,811.50183,813.91943,808.2784,787.72894,854.61536,-0.240966796875,0.06304931640625,0.9598388671875,2.071075439453125,-3.835601806640625,0.590667724609375,1.0,1.0,1.0,1.0,1.0,90.0,event
10:26:42.247,0.7891471,1.0169694,1.0700564,0.26207602,0.4172231,0.7104332,0.23813024,0.005239603,0.3908828,-0.25747886,0.12286824,0.13168605,0.70385516,0.1879165,-0.25251424,0.417056,0.31322733,-0.2659215,-0.6453177,0.0232347,810.696,820.7692,804.65204,792.96704,740.989,-0.240966796875,0.06304931640625,0.9598388671875,2.071075439453125,-3.835601806640625,0.590667724609375,1.0,1.0,1.0,1.0,1.0,90.0,event
10:26:42.294,0.7891471,1.0169694,1.0700564,0.26207602,0.4172231,0.7104332,0.23813024,0.005239603,0.3908828,-0.25747886,0.12286824,0.13168605,0.70385516,0.1879165,-0.25251424,0.417056,0.31322733,-0.2659215,-0.6453177,0.0232347,790.9524,808.2784,806.6667,794.9817,659.59705,-0.24884033203125,0.05999755859375,0.954833984375,2.026214599609375,-3.895416259765625,0.246734619140625,1.0,1.0,1.0,1.0,1.0,90.0,event
10:26:42.295,0.7891471,1.0169694,1.0700564,0.26207602,0.4172231,0.7104332,0.23813024,0.005239603,0.3908828,-0.25747886,0.12286824,0.13168605,0.70385516,0.1879165,-0.25251424,0.417056,0.31322733,-0.2659215,-0.6453177,0.0232347,794.9817,802.6374,809.0842,796.5934,837.6923,-0.24884033203125,0.05999755859375,0.954833984375,2.026214599609375,-3.895416259765625,0.246734619140625,1.0,1.0,1.0,1.0,1.0,90.0,event
10:26:42.296,0.7891471,1.0169694,1.0700564,0.26207602,0.4172231,0.7104332,0.23813024,0.005239603,0.3908828,-0.25747886,0.12286824,0.13168605,0.70385516,0.1879165,-0.25251424,0.417056,0.31322733,-0.2659215,-0.6453177,0.0232347,810.696,814.3223,806.6667,801.4286,967.8388,-0.24884033203125,0.05999755859375,0.954833984375,2.026214599609375,-3.895416259765625,0.246734619140625,1.0,1.0,1.0,1.0,1.0,90.0,event
10:26:42.297,0.7891471,1.0169694,1.0700564,0.26207602,0.4172231,0.7104332,0.23813024,0.005239603,0.3908828,-0.25747886,0.12286824,0.13168605,0.70385516,0.1879165,-0.25251424,0.417056,0.31322733,-0.2659215,-0.6453177,0.0232347,795.78754,803.44324,805.4579,787.72894,737.76556,-0.24884033203125,0.05999755859375,0.954833984375,2.026214599609375,-3.895416259765625,0.246734619140625,1.0,1.0,1.0,1.0,1.0,90.0,event
10:26:42.297,0.7891471,1.0169694,1.0700564,0.26207602,0.4172231,0.7104332,0.23813024,0.005239603,0.3908828,-0.25747886,0.12286824,0.13168605,0.70385516,0.1879165,-0.25251424,0.417056,0.31322733,-0.2659215,-0.6453177,0.0232347,805.4579,810.696,805.4579,794.57874,843.3333,-0.24884033203125,0.05999755859375,0.954833984375,2.026214599609375,-3.895416259765625,0.246734619140625,1.0,1.0,1.0,1.0,1.0,90.0,event
10:26:42.298,0.7891471,1.0169694,1.0700564,0.26207602,0.4172231,0.7104332,0.23813024,0.005239603,0.3908828,-0.25747886,0.12286824,0.13168605,0.70385516,0.1879165,-0.25251424,0.417056,0.31322733,-0.2659215,-0.6453177,0.0232347,799.011,792.5641,805.05493,789.7436,914.2491,-0.24884033203125,0.05999755859375,0.954833984375,2.026214599609375,-3.895416259765625,0.246734619140625,1.0,1.0,1.0,1.0,1.0,90.0,event
10:26:42.298,0.7891471,1.0169694,1.0700564,0.26207602,0.4172231,0.7104332,0.23813024,0.005239603,0.3908828,-0.25747886,0.12286824,0.13168605,0.70385516,0.1879165,-0.25251424,0.417056,0.31322733,-0.2659215,-0.6453177,0.0232347,807.47253,796.1905,807.0696,800.2198,1239.011,-0.24884033203125,0.05999755859375,0.954833984375,2.026214599609375,-3.895416259765625,0.246734619140625,1.0,1.0,1.0,1.0,1.0,90.0,event
10:26:42.299,0.7891471,1.0169694,1.0700564,0.26207602,0.4172231,0.7104332,0.23813024,0.005239603,0.3908828,-0.25747886,0.12286824,0.13168605,0.70385516,0.1879165,-0.25251424,0.417056,0.31322733,-0.2659215,-0.6453177,0.0232347,805.4579,826.4103,811.0989,800.6227,1113.2968,-0.24884033203125,0.05999755859375,0.954833984375,2.026214599609375,-3.895416259765625,0.246734619140625,1.0,1.0,1.0,1.0,1.0,90.0,event
10:26:42.299,0.7891471,1.0169694,1.0700564,0.26207602,0.4172231,0.7104332,0.23813024,0.005239603,0.3908828,-0.25747886,0.12286824,0.13168605,0.70385516,0.1879165,-0.25251424,0.417056,0.31322733,-0.2659215,-0.6453177,0.0232347,793.36993,811.9048,810.293,798.20514,837.28937,-0.24884033203125,0.05999755859375,0.954833984375,2.026214599609375,-3.895416259765625,0.246734619140625,1.0,1.0,1.0,1.0,1.0,90.0,event
10:26:42.300,0.7891471,1.0169694,1.0700564,0.26207602,0.4172231,0.7104332,0.23813024,0.005239603,0.3908828,-0.25747886,0.12286824,0.13168605,0.70385516,0.1879165,-0.25251424,0.417056,0.31322733,-0.2659215,-0.6453177,0.0232347,787.326,793.7729,809.89014,794.57874,838.9011,-0.24884033203125,0.05999755859375,0.954833984375,2.026214599609375,-3.895416259765625,0.246734619140625,1.0,1.0,1.0,1.0,1.0,90.0,event
10:26:42.300,0.7891471,1.0169694,1.0700564,0.26207602,0.4172231,0.7104332,0.23813024,0.005239603,0.3908828,-0.25747886,0.12286824,0.13168605,0.70385516,0.1879165,-0.25251424,0.417056,0.31322733,-0.2659215,-0.6453177,0.0232347,794.9817,816.337,809.4872,791.3553,819.9634,-0.24884033203125,0.05999755859375,0.954833984375,2.026214599609375,-3.895416259765625,0.246734619140625,1.0,1.0,1.0,1.0,1.0,90.0,event
10:26:42.301,0.7891471,1.0169694,1.0700564,0.26207602,0.4172231,0.7104332,0.23813024,0.005239603,0.3908828,-0.25747886,0.12286824,0.13168605,0.70385516,0.1879165,-0.25251424,0.417056,0.31322733,-0.2659215,-0.6453177,0.0232347,813.91943,819.9634,811.9048,807.47253,685.38464,-0.24884033203125,0.05999755859375,0.954833984375,2.026214599609375,-3.895416259765625,0.246734619140625,1.0,1.0,1.0,1.0,1.0,90.0,event
10:26:42.329,0.7891471,1.0169694,1.0700564,0.26207602,0.4172231,0.7104332,0.23813024,0.005239603,0.3908828,-0.25747886,0.12286824,0.13168605,0.70385516,0.1879165,-0.25251424,0.417056,0.31322733,-0.2659215,-0.6453177,0.0232347,811.0989,807.0696,811.0989,801.02563,708.7546,-0.2391357421875,0.06744384765625,0.95623779296875,2.5421142578125,-3.985137939453125,0.321502685546875,1.0,1.0,1.0,1.0,1.0,90.0,event
10:26:42.330,0.7891471,1.0169694,1.0700564,0.26207602,0.4172231,0.7104332,0.23813024,0.005239603,0.3908828,-0.25747886,0.12286824,0.13168605,0.70385516,0.1879165,-0.25251424,0.417056,0.31322733,-0.2659215,-0.6453177,0.0232347,786.52014,807.8755,809.4872,793.7729,819.9634,-0.2391357421875,0.06744384765625,0.95623779296875,2.5421142578125,-3.985137939453125,0.321502685546875,1.0,1.0,1.0,1.0,1.0,90.0,event
10:26:42.331,0.7891471,1.0169694,1.0700564,0.26207602,0.4172231,0.7104332,0.23813024,0.005239603,0.3908828,-0.25747886,0.12286824,0.13168605,0.70385516,0.1879165,-0.25251424,0.417056,0.31322733,-0.2659215,-0.6453177,0.0232347,792.5641,804.2491,809.89014,789.7436,657.1795,-0.2391357421875,0.06744384765625,0.95623779296875,2.5421142578125,-3.985137939453125,0.321502685546875,1.0,1.0,1.0,1.0,1.0,90.0,event
10:26:42.331,0.7891471,1.0169694,1.0700564,0.26207602,0.4172231,0.7104332,0.23813024,0.005239603,0.3908828,-0.25747886,0.12286824,0.13168605,0.70385516,0.1879165,-0.25251424,0.417056,0.31322733,-0.2659215,-0.6453177,0.0232347,788.5348,807.47253,809.0842,804.65204,763.1502,-0.2391357421875,0.06744384765625,0.95623779296875,2.5421142578125,-3.985137939453125,0.321502685546875,1.0,1.0,1.0,1.0,1.0,90.0,event
10:26:42.332,0.7891471,1.0169694,1.0700564,0.26207602,0.4172231,0.7104332,0.23813024,0.005239603,0.3908828,-0.25747886,0.12286824,0.13168605,0.70385516,0.1879165,-0.25251424,0.417056,0.31322733,-0.2659215,-0.6453177,0.0232347,794.57874,803.44324,808.68134,788.93774,722.0513,-0.2391357421875,0.06744384765625,0.95623779296875,2.5421142578125,-3.985137939453125,0.321502685546875,1.0,1.0,1.0,1.0,1.0,90.0,event
10:26:42.332,0.7891471,1.0169694,1.0700564,0.26207602,0.4172231,0.7104332,0.23813024,0.005239603,0.3908828,-0.25747886,0.12286824,0.13168605,0.70385516,0.1879165,-0.25251424,0.417056,0.31322733,-0.2659215,-0.6453177,0.0232347,799.011,805.4579,803.44324,797.8022,910.2198,-0.2391357421875,0.06744384765625,0.95623779296875,2.5421142578125,-3.985137939453125,0.321502685546875,1.0,1.0,1.0,1.0,1.0,90.0,event
10:26:42.333,0.7891471,1.0169694,1.0700564,0.26207602,0.4172231,0.7104332,0.23813024,0.005239603,0.3908828,-0.25747886,0.12286824,0.13168605,0.70385516,0.1879165,-0.25251424,0.417056,0.31322733,-0.2659215,-0.6453177,0.0232347,798.60803,803.44324,803.8461,786.9231,856.2271,-0.2391357421875,0.06744384765625,0.95623779296875,2.5421142578125,-3.985137939453125,0.321502685546875,1.0,1.0,1.0,1.0,1.0,90.0,event
10:26:42.333,0.7891471,1.0169694,1.0700564,0.26207602,0.4172231,0.7104332,0.23813024,0.005239603,0.3908828,-0.25747886,0.12286824,0.13168605,0.70385516,0.1879165,-0.25251424,0.417056,0.31322733,-0.2659215,-0.6453177,0.0232347,792.5641,807.47253,807.8755,782.49084,691.8315,-0.2391357421875,0.06744384765625,0.95623779296875,2.5421142578125,-3.985137939453125,0.321502685546875,1.0,1.0,1.0,1.0,1.0,90.0,event
10:26:42.334,0.7891471,1.0169694,1.0700564,0.26207602,0.4172231,0.7104332,0.23813024,0.005239603,0.3908828,-0.25747886,0.12286824,0.13168605,0.70385516,0.1879165,-0.25251424,0.417056,0.31322733,-0.2659215,-0.6453177,0.0232347,780.87915,799.41394,805.05493,790.14655,742.6007,-0.2391357421875,0.06744384765625,0.95623779296875,2.5421142578125,-3.985137939453125,0.321502685546875,1.0,1.0,1.0,1.0,1.0,90.0,event
10:26:42.335,0.7891471,1.0169694,1.0697796,0.26207602,0.4172231,0.7104332,0.22777294,0.005239603,0.3908828,-0.25747886,0.12669683,0.13168605,0.70385516,0.1879165,-0.2512781,0.417056,0.31322733,-0.2659215,-0.64826113,0.0232347,789.34064,793.36993,803.0403,795.78754,927.9487,-0.2391357421875,0.06744384765625,0.95623779296875,2.5421142578125,-3.985137939453125,0.321502685546875,1.0,1.0,1.0,1.0,1.0,90.0,event
10:26:42.338,0.7891471,1.0169694,1.0697796,0.26207602,0.4172231,0.7104332,0.22777294,0.005239603,0.3908828,-0.25747886,0.12669683,0.13168605,0.70385516,0.1879165,-0.2512781,0.417056,0.31322733,-0.2659215,-0.64826113,0.0232347,803.44324,802.6374,802.23444,797.8022,878.7912,-0.2391357421875,0.06744384765625,0.95623779296875,2.5421142578125,-3.985137939453125,0.321502685546875,1.0,1.0,1.0,1.0,1.0,90.0,event
10:26:42.338,0.7891471,1.0169694,1.0697796,0.26207602,0.4172231,0.7104332,0.22777294,0.005239603,0.3908828,-0.25747886,0.12669683,0.13168605,0.70385516,0.1879165,-0.2512781,0.417056,0.31322733,-0.2659215,-0.64826113,0.0232347,797.8022,796.1905,801.02563,795.78754,803.44324,-0.2391357421875,0.06744384765625,0.95623779296875,2.5421142578125,-3.985137939453125,0.321502685546875,1.0,1.0,1.0,1.0,1.0,90.0,event
10:26:42.380,0.7891471,1.0169694,1.0697796,0.26207602,0.4172231,0.7104332,0.22777294,0.005239603,0.3908828,-0.25747886,0.12669683,0.13168605,0.70385516,0.1879165,-0.2512781,0.417056,0.31322733,-0.2659215,-0.64826113,0.0232347,779.2674,809.89014,803.44324,800.6227,862.674,-0.24365234375,0.06365966796875,0.954345703125,1.973876953125,-4.074859619140625,0.441131591796875,1.0,1.0,1.0,1.0,1.0,90.0,event
10:26:42.380,0.7891471,1.0169694,1.0697796,0.26207602,0.4172231,0.7104332,0.22777294,0.005239603,0.3908828,-0.25747886,0.12669683,0.13168605,0.70385516,0.1879165,-0.2512781,0.417056,0.31322733,-0.2659215,-0.64826113,0.0232347,786.9231,797.3993,801.4286,792.1612,811.0989,-0.24365234375,0.06365966796875,0.954345703125,1.973876953125,-4.074859619140625,0.441131591796875,1.0,1.0,1.0,1.0,1.0,90.0,event
10:26:42.381,0.7891471,1.0169694,1.0697796,0.26207602,0.4172231,0.7104332,0.22777294,0.005239603,0.3908828,-0.25747886,0.12669683,0.13168605,0.70385516,0.1879165,-0.2512781,0.417056,0.31322733,-0.2659215,-0.64826113,0.0232347,794.57874,802.6374,807.0696,792.5641,687.8022,-0.24365234375,0.06365966796875,0.954345703125,1.973876953125,-4.074859619140625,0.441131591796875,1.0,1.0,1.0,1.0,1.0,90.0,event
10:26:42.381,0.7891471,1.0169694,1.0697796,0.26207602,0.4172231,0.7104332,0.22777294,0.005239603,0.3908828,-0.25747886,0.12669683,0.13168605,0.70385516,0.1879165,-0.2512781,0.417056,0.31322733,-0.2659215,-0.64826113,0.0232347,801.8315,796.99634,802.23444,796.99634,765.56775,-0.24365234375,0.06365966796875,0.954345703125,1.973876953125,-4.074859619140625,0.441131591796875,1.0,1.0,1.0,1.0,1.0,90.0,event
10:26:42.381,0.7891471,1.0169694,1.0697796,0.26207602,0.4172231,0.7104332,0.22777294,0.005239603,0.3908828,-0.25747886,0.12669683,0.13168605,0.70385516,0.1879165,-0.2512781,0.417056,0.31322733,-0.2659215,-0.64826113,0.0232347,782.0879,807.8755,807.47253,807.0696,745.42126,-0.24365234375,0.06365966796875,0.954345703125,1.973876953125,-4.074859619140625,0.441131591796875,1.0,1.0,1.0,1.0,1.0,90.0,event
10:26:42.382,0.7891471,1.0169694,1.0697796,0.26207602,0.4172231,0.7104332,0.22777294,0.005239603,0.3908828,-0.25747886,0.12669683,0.13168605,0.70385516,0.1879165,-0.2512781,0.417056,0.31322733,-0.2659215,-0.64826113,0.0232347,790.14655,795.38464,802.23444,793.36993,875.9707,-0.24365234375,0.06365966796875,0.954345703125,1.973876953125,-4.074859619140625,0.441131591796875,1.0,1.0,1.0,1.0,1.0,90.0,event
10:26:42.382,0.7891471,1.0169694,1.0697796,0.26207602,0.4172231,0.7104332,0.22777294,0.005239603,0.3908828,-0.25747886,0.12669683,0.13168605,0.70385516,0.1879165,-0.2512781,0.417056,0.31322733,-0.2659215,-0.64826113,0.0232347,789.7436,804.2491,804.65204,788.93774,867.9121,-0.24365234375,0.06365966796875,0.954345703125,1.973876953125,-4.074859619140625,0.441131591796875,1.0,1.0,1.0,1.0,1.0,90.0,event
10:26:42.383,0.7891471,1.0169694,1.0697796,0.26207602,0.4172231,0.7104332,0.22777294,0.005239603,0.3908828,-0.25747886,0.12669683,0.13168605,0.70385516,0.1879165,-0.2512781,0.417056,0.31322733,-0.2659215,-0.64826113,0.0232347,789.34064,807.47253,807.8755,792.5641,728.0952,-0.24365234375,0.06365966796875,0.954345703125,1.973876953125,-4.074859619140625,0.441131591796875,1.0,1.0,1.0,1.0,1.0,90.0,event
10:26:42.383,0.7891471,1.0169694,1.0697796,0.26207602,0.4172231,0.7104332,0.22777294,0.005239603,0.3908828,-0.25747886,0.12669683,0.13168605,0.70385516,0.1879165,-0.2512781,0.417056,0.31322733,-0.2659215,-0.64826113,0.0232347,797.8022,793.7729,809.89014,809.89014,838.0952,-0.24365234375,0.06365966796875,0.954345703125,1.973876953125,-4.074859619140625,0.441131591796875,1.0,1.0,1.0,1.0,1.0,90.0,event
10:26:42.383,0.7891471,1.0169694,1.0697796,0.26207602,0.4172231,0.7104332,0.22777294,0.005239603,0.3908828,-0.25747886,0.12669683,0.13168605,0.70385516,0.1879165,-0.2512781,0.417056,0.31322733,-0.2659215,-0.64826113,0.0232347,809.0842,809.89014,807.0696,828.022,1006.52014,-0.24365234375,0.06365966796875,0.954345703125,1.973876953125,-4.074859619140625,0.441131591796875,1.0,1.0,1.0,1.0,1.0,90.0,event
10:26:42.383,0.7891471,1.0169694,1.0697796,0.26207602,0.4172231,0.7104332,0.22777294,0.005239603,0.3908828,-0.25747886,0.12669683,0.13168605,0.70385516,0.1879165,-0.2512781,0.417056,0.31322733,-0.2659215,-0.64826113,0.0232347,794.17584,814.3223,808.68134,809.4872,758.71796,-0.24365234375,0.06365966796875,0.954345703125,1.973876953125,-4.074859619140625,0.441131591796875,1.0,1.0,1.0,1.0,1.0,90.0,event
10:26:42.384,0.7891471,1.0169694,1.0697796,0.26207602,0.4172231,0.7104332,0.22777294,0.005239603,0.3908828,-0.25747886,0.12669683,0.13168605,0.70385516,0.1879165,-0.2512781,0.417056,0.31322733,-0.2659215,-0.64826113,0.0232347,786.1172,801.4286,809.89014,798.20514,701.9048,-0.24365234375,0.06365966796875,0.954345703125,1.973876953125,-4.074859619140625,0.441131591796875,1.0,1.0,1.0,1.0,1.0,90.0,event
10:26:42.427,0.7891471,1.0169694,1.0697796,0.26207602,0.4172231,0.7104332,0.22777294,0.005239603,0.3908828,-0.25747886,0.12669683,0.13168605,0.70385516,0.1879165,-0.2512781,0.417056,0.31322733,-0.2659215,-0.64826113,0.0232347,790.54944,804.2491,807.47253,799.41394,788.5348,-0.24822998046875,0.06683349609375,0.9580078125,1.996307373046875,-3.671112060546875,-0.34393310546875,1.0,1.0,1.0,1.0,1.0,90.0,event
10:26:42.428,0.7891471,1.0169694,1.0697796,0.26207602,0.4172231,0.7104332,0.22777294,0.005239603,0.3908828,-0.25747886,0.12669683,0.13168605,0.70385516,0.1879165,-0.2512781,0.417056,0.31322733,-0.2659215,-0.64826113,0.0232347,797.3993,809.0842,810.696,806.26373,794.57874,-0.24822998046875,0.06683349609375,0.9580078125,1.996307373046875,-3.671112060546875,-0.34393310546875,1.0,1.0,1.0,1.0,1.0,90.0,event
10:26:42.431,0.7891471,1.0169694,1.0697796,0.26207602,0.4172231,0.7104332,0.22777294,0.005239603,0.3908828,-0.25747886,0.12669683,0.13168605,0.70385516,0.1879165,-0.2512781,0.417056,0.31322733,-0.2659215,-0.64826113,0.0232347,806.6667,809.0842,811.9048,804.65204,801.4286,-0.24822998046875,0.06683349609375,0.9580078125,1.996307373046875,-3.671112060546875,-0.34393310546875,1.0,1.0,1.0,1.0,1.0,90.0,event
10:26:42.432,0.7891471,1.0169694,1.0697796,0.26207602,0.4172231,0.7104332,0.22777294,0.005239603,0.3908828,-0.25747886,0.12669683,0.13168605,0.70385516,0.1879165,-0.2512781,0.417056,0.31322733,-0.2659215,-0.64826113,0.0232347,794.9817,798.60803,809.0842,799.81683,744.21246,-0.24822998046875,0.06683349609375,0.9580078125,1.996307373046875,-3.671112060546875,-0.34393310546875,1.0,1.0,1.0,1.0,1.0,90.0,event
10:26:42.433,0.7891471,1.0169694,1.0697796,0.26207602,0.4172231,0.7104332,0.22777294,0.005239603,0.3908828,-0.25747886,0.12669683,0.13168605,0.70385516,0.1879165,-0.2512781,0.417056,0.31322733,-0.2659215,-0.64826113,0.0232347,790.54944,796.5934,807.8755,801.02563,855.82416,-0.24822998046875,0.06683349609375,0.9580078125,1.996307373046875,-3.671112060546875,-0.34393310546875,1.0,1.0,1.0,1.0,1.0,90.0,event
10:26:42.434,0.7891471,1.0169694,1.0697796,0.26207602,0.4172231,0.7104332,0.22777294,0.005239603,0.3908828,-0.25747886,0.12669683,0.13168605,0.70385516,0.1879165,-0.2512781,0.417056,0.31322733,-0.2659215,-0.64826113,0.0232347,799.011,807.8755,806.26373,798.60803,933.5897,-0.24822998046875,0.06683349609375,0.9580078125,1.996307373046875,-3.671112060546875,-0.34393310546875,1.0,1.0,1.0,1.0,1.0,90.0,event
10:26:42.435,0.7891471,1.0169694,1.0697796,0.26207602,0.4172231,0.7104332,0.22777294,0.005239603,0.3908828,-0.25747886,0.12669683,0.13168605,0.70385516,0.1879165,-0.2512781,0.417056,0.31322733,-0.2659215,-0.64826113,0.0232347,778.86444,807.8755,809.0842,801.02563,867.9121,-0.24822998046875,0.06683349609375,0.9580078125,1.996307373046875,-3.671112060546875,-0.34393310546875,1.0,1.0,1.0,1.0,1.0,90.0,event
10:26:42.436,0.7891471,1.0169694,1.0697796,0.26207602,0.4172231,0.7104332,0.22777294,0.005239603,0.3908828,-0.25747886,0.12669683,0.13168605,0.70385516,0.1879165,-0.2512781,0.417056,0.31322733,-0.2659215,-0.64826113,0.0232347,779.2674,803.44324,810.696,800.2198,798.20514,-0.24822998046875,0.06683349609375,0.9580078125,1.996307373046875,-3.671112060546875,-0.34393310546875,1.0,1.0,1.0,1.0,1.0,90.0,event
10:26:42.436,0.7891471,1.0169694,1.0697796,0.26207602,0.4172231,0.7104332,0.22777294,0.005239603,0.3908828,-0.25747886,0.12669683,0.13168605,0.70385516,0.1879165,-0.2512781,0.417056,0.31322733,-0.2659215,-0.64826113,0.0232347,786.1172,792.5641,808.2784,792.5641,960.18317,-0.24822998046875,0.06683349609375,0.9580078125,1.996307373046875,-3.671112060546875,-0.34393310546875,1.0,1.0,1.0,1.0,1.0,90.0,event
10:26:42.437,0.7891471,1.0169694,1.0697796,0.26207602,0.4172231,0.7104332,0.22777294,0.005239603,0.3908828,-0.25747886,0.12669683,0.13168605,0.70385516,0.1879165,-0.2512781,0.417056,0.31322733,-0.2659215,-0.64826113,0.0232347,775.64105,813.5165,812.3077,784.10254,883.6264,-0.24822998046875,0.06683349609375,0.9580078125,1.996307373046875,-3.671112060546875,-0.34393310546875,1.0,1.0,1.0,1.0,1.0,90.0,event
10:26:42.437,0.7891471,1.0169694,1.0697796,0.26207602,0.4172231,0.7104332,0.22777294,0.005239603,0.3908828,-0.25747886,0.12669683,0.13168605,0.70385516,0.1879165,-0.2512781,0.417056,0.31322733,-0.2659215,-0.64826113,0.0232347,782.8938,811.9048,814.3223,793.36993,721.6484,-0.24822998046875,0.06683349609375,0.9580078125,1.996307373046875,-3.671112060546875,-0.34393310546875,1.0,1.0,1.0,1.0,1.0,90.0,event
10:26:42.438,0.7891471,1.0169694,1.0637081,0.26207602,0.4172231,0.7104332,0.21520863,0.005239603,0.3908828,-0.25747886,0.1319332,0.13168605,0.70385516,0.1879165,-0.25305513,0.417056,0.31322733,-0.2659215,-0.6620774,0.0232347,794.57874,798.60803,807.8755,776.8498,791.3553,-0.24822998046875,0.06683349609375,0.9580078125,1.996307373046875,-3.671112060546875,-0.34393310546875,1.0,1.0,1.0,1.0,1.0,90.0,event
10:26:42.491,0.7891471,1.0169694,1.0637081,0.26207602,0.4172231,0.7104332,0.21520863,0.005239603,0.3908828,-0.25747886,0.1319332,0.13168605,0.70385516,0.1879165,-0.25305513,0.417056,0.31322733,-0.2659215,-0.6620774,0.0232347,792.96704,805.8608,812.3077,777.6557,842.1245,-0.24822998046875,0.06683349609375,0.9580078125,1.996307373046875,-3.671112060546875,-0.34393310546875,1.0,1.0,1.0,1.0,1.0,90.0,event
10:26:42.492,0.7891471,1.0169694,1.0637081,0.26207602,0.4172231,0.7104332,0.21520863,0.005239603,0.3908828,-0.25747886,0.1319332,0.13168605,0.70385516,0.1879165,-0.25305513,0.417056,0.31322733,-0.2659215,-0.6620774,0.0232347,799.81683,796.99634,802.6374,780.87915,686.99634,-0.24822998046875,0.06683349609375,0.9580078125,1.996307373046875,-3.671112060546875,-0.34393310546875,1.0,1.0,1.0,1.0,1.0,90.0,event
10:26:42.492,0.7891471,1.0169694,1.0637081,0.26207602,0.4172231,0.7104332,0.21520863,0.005239603,0.3908828,-0.25747886,0.1319332,0.13168605,0.70385516,0.1879165,-0.25305513,0.417056,0.31322733,-0.2659215,-0.6620774,0.0232347,797.8022,801.8315,808.68134,788.1319,767.5824,-0.24822998046875,0.06683349609375,0.9580078125,1.996307373046875,-3.671112060546875,-0.34393310546875,1.0,1.0,1.0,1.0,1.0,90.0,event
10:26:42.493,0.7891471,1.0169694,1.0637081,0.26207602,0.4172231,0.7104332,0.21520863,0.005239603,0.3908828,-0.25747886,0.1319332,0.13168605,0.70385516,0.1879165,-0.25305513,0.417056,0.31322733,-0.2659215,-0.6620774,0.0232347,790.9524,801.02563,809.0842,796.1905,778.46155,-0.24822998046875,0.06683349609375,0.9580078125,1.996307373046875,-3.671112060546875,-0.34393310546875,1.0,1.0,1.0,1.0,1.0,90.0,event
10:26:42.493,0.7891471,1.0169694,1.0637081,0.26207602,0.4172231,0.7104332,0.21520863,0.005239603,0.3908828,-0.25747886,0.1319332,0.13168605,0.70385516,0.1879165,-0.25305513,0.417056,0.31322733,-0.2659215,-0.6620774,0.0232347,792.1612,797.8022,810.696,782.49084,736.9597,-0.24822998046875,0.06683349609375,0.9580078125,1.996307373046875,-3.671112060546875,-0.34393310546875,1.0,1.0,1.0,1.0,1.0,90.0,event
10:26:42.494,0.7891471,1.0169694,1.0637081,0.26207602,0.4172231,0.7104332,0.21520863,0.005239603,0.3908828,-0.25747886,0.1319332,0.13168605,0.70385516,0.1879165,-0.25305513,0.417056,0.31322733,-0.2659215,-0.6620774,0.0232347,782.0879,804.65204,806.6667,820.7692,789.34064,-0.24822998046875,0.06683349609375,0.9580078125,1.996307373046875,-3.671112060546875,-0.34393310546875,1.0,1.0,1.0,1.0,1.0,90.0,event
10:26:42.494,0.7891471,1.0169694,1.0637081,0.26207602,0.4172231,0.7104332,0.21520863,0.005239603,0.3908828,-0.25747886,0.1319332,0.13168605,0.70385516,0.1879165,-0.25305513,0.417056,0.31322733,-0.2659215,-0.6620774,0.0232347,774.43225,807.47253,811.50183,796.5934,832.8571,-0.24822998046875,0.06683349609375,0.9580078125,1.996307373046875,-3.671112060546875,-0.34393310546875,1.0,1.0,1.0,1.0,1.0,90.0,event
10:26:42.495,0.7891471,1.0169694,1.0637081,0.26207602,0.4172231,0.7104332,0.21520863,0.005239603,0.3908828,-0.25747886,0.1319332,0.13168605,0.70385516,0.1879165,-0.25305513,0.417056,0.31322733,-0.2659215,-0.6620774,0.0232347,774.83514,788.1319,809.4872,752.674,942.0513,-0.24822998046875,0.06683349609375,0.9580078125,1.996307373046875,-3.671112060546875,-0.34393310546875,1.0,1.0,1.0,1.0,1.0,90.0,event
10:26:42.495,0.7891471,1.0169694,1.0637081,0.26207602,0.4172231,0.7104332,0.21520863,0.005239603,0.3908828,-0.25747886,0.1319332,0.13168605,0.70385516,0.1879165,-0.25305513,0.417056,0.31322733,-0.2659215,-0.6620774,0.0232347,783.69965,793.7729,806.26373,760.7326,1095.9707,-0.24822998046875,0.06683349609375,0.9580078125,1.996307373046875,-3.671112060546875,-0.34393310546875,1.0,1.0,1.0,1.0,1.0,90.0,event
10:26:42.495,0.7891471,1.0169694,1.0637081,0.26207602,0.4172231,0.7104332,0.21520863,0.005239603,0.3908828,-0.25747886,0.1319332,0.13168605,0.70385516,0.1879165,-0.25305513,0.417056,0.31322733,-0.2659215,-0.6620774,0.0232347,771.2088,817.1429,804.65204,793.7729,845.7509,-0.24822998046875,0.06683349609375,0.9580078125,1.996307373046875,-3.671112060546875,-0.34393310546875,1.0,1.0,1.0,1.0,1.0,90.0,event
10:26:42.496,0.7891471,1.0169694,1.0637081,0.26207602,0.4172231,0.7104332,0.21520863,0.005239603,0.3908828,-0.25747886,0.1319332,0.13168605,0.70385516,0.1879165,-0.25305513,0.417056,0.31322733,-0.2659215,-0.6620774,0.0232347,785.31134,803.8461,809.0842,806.26373,785.7143,-0.24822998046875,0.06683349609375,0.9580078125,1.996307373046875,-3.671112060546875,-0.34393310546875,1.0,1.0,1.0,1.0,1.0,90.0,event
10:26:42.496,0.7891471,1.0169694,1.0637081,0.26207602,0.4172231,0.7104332,0.21520863,0.005239603,0.3908828,-0.25747886,0.1319332,0.13168605,0.70385516,0.1879165,-0.25305513,0.417056,0.31322733,-0.2659215,-0.6620774,0.0232347,792.1612,792.96704,807.0696,776.04395,923.91943,-0.24822998046875,0.06683349609375,0.9580078125,1.996307373046875,-3.671112060546875,-0.34393310546875,1.0,1.0,1.0,1.0,1.0,90.0,event
10:26:42.529,0.7891471,1.0169694,1.0637081,0.26207602,0.4172231,0.7104332,0.21520863,0.005239603,0.3908828,-0.25747886,0.1319332,0.13168605,0.70385516,0.1879165,-0.25305513,0.417056,0.31322733,-0.2659215,-0.6620774,0.0232347,765.56775,803.0403,805.8608,774.83514,748.24176,-0.2427978515625,0.05767822265625,0.9534912109375,1.2261962890625,-3.60382080078125,-0.889739990234375,1.0,1.0,1.0,1.0,1.0,90.0,event
10:26:42.530,0.7891471,1.0169694,1.0637081,0.26207602,0.4172231,0.7104332,0.21520863,0.005239603,0.3908828,-0.25747886,0.1319332,0.13168605,0.70385516,0.1879165,-0.25305513,0.417056,0.31322733,-0.2659215,-0.6620774,0.0232347,781.685,805.4579,812.71063,802.23444,675.31134,-0.2427978515625,0.05767822265625,0.9534912109375,1.2261962890625,-3.60382080078125,-0.889739990234375,1.0,1.0,1.0,1.0,1.0,90.0,event
10:26:42.531,0.7891471,1.0169694,1.0637081,0.26207602,0.4172231,0.7104332,0.21520863,0.005239603,0.3908828,-0.25747886,0.1319332,0.13168605,0.70385516,0.1879165,-0.25305513,0.417056,0.31322733,-0.2659215,-0.6620774,0.0232347,796.99634,797.3993,809.4872,788.93774,714.7985,-0.2427978515625,0.05767822265625,0.9534912109375,1.2261962890625,-3.60382080078125,-0.889739990234375,1.0,1.0,1.0,1.0,1.0,90.0,event
10:26:42.531,0.7891471,1.0169694,1.0637081,0.26207602,0.4172231,0.7104332,0.21520863,0.005239603,0.3908828,-0.25747886,0.1319332,0.13168605,0.70385516,0.1879165,-0.25305513,0.417056,0.31322733,-0.2659215,-0.6620774,0.0232347,803.0403,802.6374,807.8755,788.5348,726.08057,-0.2427978515625,0.05767822265625,0.9534912109375,1.2261962890625,-3.60382080078125,-0.889739990234375,1.0,1.0,1.0,1.0,1.0,90.0,event
10:26:42.532,0.7891471,1.0169694,1.0637081,0.26207602,0.4172231,0.7104332,0.21520863,0.005239603,0.3908828,-0.25747886,0.1319332,0.13168605,0.70385516,0.1879165,-0.25305513,0.417056,0.31322733,-0.2659215,-0.6620774,0.0232347,788.93774,804.2491,800.6227,797.8022,736.1539,-0.2427978515625,0.05767822265625,0.9534912109375,1.2261962890625,-3.60382080078125,-0.889739990234375,1.0,1.0,1.0,1.0,1.0,90.0,event
10:26:42.532,0.7891471,1.0169694,1.0637081,0.26207602,0.4172231,0.7104332,0.21520863,0.005239603,0.3908828,-0.25747886,0.1319332,0.13168605,0.70385516,0.1879165,-0.25305513,0.417056,0.31322733,-0.2659215,-0.6620774,0.0232347,806.6667,807.8755,806.26373,796.1905,724.87177,-0.2427978515625,0.05767822265625,0.9534912109375,1.2261962890625,-3.60382080078125,-0.889739990234375,1.0,1.0,1.0,1.0,1.0,90.0,event
10:26:42.533,0.7891471,1.0169694,1.0637081,0.26207602,0.4172231,0.7104332,0.21520863,0.005239603,0.3908828,-0.25747886,0.1319332,0.13168605,0.70385516,0.1879165,-0.25305513,0.417056,0.31322733,-0.2659215,-0.6620774,0.0232347,764.7619,798.20514,808.68134,795.38464,776.8498,-0.2427978515625,0.05767822265625,0.9534912109375,1.2261962890625,-3.60382080078125,-0.889739990234375,1.0,1.0,1.0,1.0,1.0,90.0,event
10:26:42.533,0.7891471,1.0169694,1.0637081,0.26207602,0.4172231,0.7104332,0.21520863,0.005239603,0.3908828,-0.25747886,0.1319332,0.13168605,0.70385516,0.1879165,-0.25305513,0.417056,0.31322733,-0.2659215,-0.6620774,0.0232347,769.59705,790.54944,808.68134,790.54944,985.56775,-0.2427978515625,0.05767822265625,0.9534912109375,1.2261962890625,-3.60382080078125,-0.889739990234375,1.0,1.0,1.0,1.0,1.0,90.0,event
10:26:42.534,0.7891471,1.0169694,1.0637081,0.26207602,0.4172231,0.7104332,0.21520863,0.005239603,0.3908828,-0.25747886,0.1319332,0.13168605,0.70385516,0.1879165,-0.25305513,0.417056,0.31322733,-0.2659215,-0.6620774,0.0232347,788.93774,809.89014,804.65204,797.8022,958.97437,-0.2427978515625,0.05767822265625,0.9534912109375,1.2261962890625,-3.60382080078125,-0.889739990234375,1.0,1.0,1.0,1.0,1.0,90.0,event
10:26:42.534,0.7891471,1.0169694,1.0637081,0.26207602,0.4172231,0.7104332,0.21520863,0.005239603,0.3908828,-0.25747886,0.1319332,0.13168605,0.70385516,0.1879165,-0.25305513,0.417056,0.31322733,-0.2659215,-0.6620774,0.0232347,786.9231,806.26373,804.2491,799.41394,696.6667,-0.2427978515625,0.05767822265625,0.9534912109375,1.2261962890625,-3.60382080078125,-0.889739990234375,1.0,1.0,1.0,1.0,1.0,90.0,event
10:26:42.535,0.7891471,1.0169694,1.0637081,0.26207602,0.4172231,0.7104332,0.21520863,0.005239603,0.3908828,-0.25747886,0.1319332,0.13168605,0.70385516,0.1879165,-0.25305513,0.417056,0.31322733,-0.2659215,-0.6620774,0.0232347,762.74725,792.96704,808.2784,803.0403,709.5604,-0.2427978515625,0.05767822265625,0.9534912109375,1.2261962890625,-3.60382080078125,-0.889739990234375,1.0,1.0,1.0,1.0,1.0,90.0,event
10:26:42.536,0.7891471,1.0169694,1.0637081,0.26207602,0.4172231,0.7104332,0.21520863,0.005239603,0.3908828,-0.25747886,0.1319332,0.13168605,0.70385516,0.1879165,-0.25305513,0.417056,0.31322733,-0.2659215,-0.6620774,0.0232347,779.67035,811.0989,809.4872,798.20514,796.5934,-0.2427978515625,0.05767822265625,0.9534912109375,1.2261962890625,-3.60382080078125,-0.889739990234375,1.0,1.0,1.0,1.0,1.0,90.0,event
10:26:42.561,0.7891471,1.0169694,1.0637081,0.26207602,0.4172231,0.7104332,0.21520863,0.005239603,0.3908828,-0.25747886,0.1319332,0.13168605,0.70385516,0.1879165,-0.25305513,0.417056,0.31322733,-0.2659215,-0.6620774,0.0232347,799.81683,811.9048,804.2491,795.78754,753.47986,-0.24810791015625,0.056396484375,0.96240234375,2.16827392578125,-5.091705322265625,0.740203857421875,1.0,1.0,1.0,1.0,1.0,90.0,event
10:26:42.562,0.7891471,1.0169694,1.0435839,0.26207602,0.4172231,0.7104332,0.20200565,0.005239603,0.3908828,-0.25747886,0.1319332,0.13168605,0.70385516,0.1879165,-0.26215786,0.417056,0.31322733,-0.2659215,-0.6844766,0.0232347,782.49084,803.0403,805.05493,806.26373,672.49084,-0.24810791015625,0.056396484375,0.96240234375,2.16827392578125,-5.091705322265625,0.740203857421875,1.0,1.0,1.0,1.0,1.0,90.0,event
10:26:42.566,0.7891471,1.0169694,1.0435839,0.26207602,0.4172231,0.7104332,0.20200565,0.005239603,0.3908828,-0.25747886,0.1319332,0.13168605,0.70385516,0.1879165,-0.26215786,0.417056,0.31322733,-0.2659215,-0.6844766,0.0232347,788.1319,801.4286,807.0696,811.9048,690.6227,-0.24810791015625,0.056396484375,0.96240234375,2.16827392578125,-5.091705322265625,0.740203857421875,1.0,1.0,1.0,1.0,1.0,90.0,event
10:26:42.566,0.7891471,1.0169694,1.0435839,0.26207602,0.4172231,0.7104332,0.20200565,0.005239603,0.3908828,-0.25747886,0.1319332,0.13168605,0.70385516,0.1879165,-0.26215786,0.417056,0.31322733,-0.2659215,-0.6844766,0.0232347,790.54944,806.26373,805.05493,800.6227,740.989,-0.24810791015625,0.056396484375,0.96240234375,2.16827392578125,-5.091705322265625,0.740203857421875,1.0,1.0,1.0,1.0,1.0,90.0,event
10:26:42.567,0.7891471,1.0169694,1.0435839,0.26207602,0.4172231,0.7104332,0.20200565,0.005239603,0.3908828,-0.25747886,0.1319332,0.13168605,0.70385516,0.1879165,-0.26215786,0.417056,0.31322733,-0.2659215,-0.6844766,0.0232347,786.9231,809.89014,805.05493,801.02563,771.6117,-0.24810791015625,0.056396484375,0.96240234375,2.16827392578125,-5.091705322265625,0.740203857421875,1.0,1.0,1.0,1.0,1.0,90.0,event
10:26:42.568,0.7891471,1.0169694,1.0435839,0.26207602,0.4172231,0.7104332,0.20200565,0.005239603,0.3908828,-0.25747886,0.1319332,0.13168605,0.70385516,0.1879165,-0.26215786,0.417056,0.31322733,-0.2659215,-0.6844766,0.0232347,775.2381,802.6374,803.44324,797.8022,838.9011,-0.24810791015625,0.056396484375,0.96240234375,2.16827392578125,-5.091705322265625,0.740203857421875,1.0,1.0,1.0,1.0,1.0,90.0,event
10:26:42.568,0.7891471,1.0169694,1.0435839,0.26207602,0.4172231,0.7104332,0.20200565,0.005239603,0.3908828,-0.25747886,0.1319332,0.13168605,0.70385516,0.1879165,-0.26215786,0.417056,0.31322733,-0.2659215,-0.6844766,0.0232347,795.38464,791.75824,801.02563,793.36993,995.2381,-0.24810791015625,0.056396484375,0.96240234375,2.16827392578125,-5.091705322265625,0.740203857421875,1.0,1.0,1.0,1.0,1.0,90.0,event
10:26:42.569,0.7891471,1.0169694,1.0435839,0.26207602,0.4172231,0.7104332,0.20200565,0.005239603,0.3908828,-0.25747886,0.1319332,0.13168605,0.70385516,0.1879165,-0.26215786,0.417056,0.31322733,-0.2659215,-0.6844766,0.0232347,811.50183,814.3223,803.8461,815.12823,1047.2161,-0.24810791015625,0.056396484375,0.96240234375,2.16827392578125,-5.091705322265625,0.740203857421875,1.0,1.0,1.0,1.0,1.0,90.0,event
10:26:42.570,0.7891471,1.0169694,1.0435839,0.26207602,0.4172231,0.7104332,0.20200565,0.005239603,0.3908828,-0.25747886,0.1319332,0.13168605,0.70385516,0.1879165,-0.26215786,0.417056,0.31322733,-0.2659215,-0.6844766,0.0232347,798.20514,823.1868,807.47253,804.2491,754.2857,-0.24810791015625,0.056396484375,0.96240234375,2.16827392578125,-5.091705322265625,0.740203857421875,1.0,1.0,1.0,1.0,1.0,90.0,event
10:26:42.570,0.7891471,1.0169694,1.0435839,0.26207602,0.4172231,0.7104332,0.20200565,0.005239603,0.3908828,-0.25747886,0.1319332,0.13168605,0.70385516,0.1879165,-0.26215786,0.417056,0.31322733,-0.2659215,-0.6844766,0.0232347,790.9524,801.4286,809.4872,801.02563,687.3993,-0.24810791015625,0.056396484375,0.96240234375,2.16827392578125,-5.091705322265625,0.740203857421875,1.0,1.0,1.0,1.0,1.0,90.0,event
10:26:42.572,0.7891471,1.0169694,1.0435839,0.26207602,0.4172231,0.7104332,0.20200565,0.005239603,0.3908828,-0.25747886,0.1319332,0.13168605,0.70385516,0.1879165,-0.26215786,0.417056,0.31322733,-0.2659215,-0.6844766,0.0232347,775.64105,797.3993,806.26373,801.8315,823.9927,-0.24810791015625,0.056396484375,0.96240234375,2.16827392578125,-5.091705322265625,0.740203857421875,1.0,1.0,1.0,1.0,1.0,90.0,event
10:26:42.573,0.7891471,1.0169694,1.0435839,0.26207602,0.4172231,0.7104332,0.20200565,0.005239603,0.3908828,-0.25747886,0.1319332,0.13168605,0.70385516,0.1879165,-0.26215786,0.417056,0.31322733,-0.2659215,-0.6844766,0.0232347,785.31134,809.0842,803.0403,793.36993,831.6484,-0.24810791015625,0.056396484375,0.96240234375,2.16827392578125,-5.091705322265625,0.740203857421875,1.0,1.0,1.0,1.0,1.0,90.0,event
10:26:42.596,0.7891471,1.0169694,1.0435839,0.26207602,0.4172231,0.7104332,0.20200565,0.005239603,0.3908828,-0.25747886,0.1319332,0.13168605,0.70385516,0.1879165,-0.26215786,0.417056,0.31322733,-0.2659215,-0.6844766,0.0232347,799.41394,814.7253,805.8608,793.36993,683.7729,-0.23687744140625,0.06103515625,0.95465087890625,1.981353759765625,-4.912261962890625,-0.19439697265625,1.0,1.0,1.0,1.0,1.0,90.0,event
10:26:42.597,0.7891471,1.0169694,1.0435839,0.26207602,0.4172231,0.7104332,0.20200565,0.005239603,0.3908828,-0.25747886,0.1319332,0.13168605,0.70385516,0.1879165,-0.26215786,0.417056,0.31322733,-0.2659215,-0.6844766,0.0232347,788.1319,803.0403,805.8608,790.9524,678.93774,-0.23687744140625,0.06103515625,0.95465087890625,1.981353759765625,-4.912261962890625,-0.19439697265625,1.0,1.0,1.0,1.0,1.0,90.0,event
10:26:42.597,0.7891471,1.0169694,1.0435839,0.26207602,0.4172231,0.7104332,0.20200565,0.005239603,0.3908828,-0.25747886,0.1319332,0.13168605,0.70385516,0.1879165,-0.26215786,0.417056,0.31322733,-0.2659215,-0.6844766,0.0232347,786.52014,797.8022,803.0403,792.5641,829.2308,-0.23687744140625,0.06103515625,0.95465087890625,1.981353759765625,-4.912261962890625,-0.19439697265625,1.0,1.0,1.0,1.0,1.0,90.0,event
10:26:42.598,0.7891471,1.0169694,1.0435839,0.26207602,0.4172231,0.7104332,0.20200565,0.005239603,0.3908828,-0.25747886,0.1319332,0.13168605,0.70385516,0.1879165,-0.26215786,0.417056,0.31322733,-0.2659215,-0.6844766,0.0232347,786.1172,811.50183,803.44324,794.17584,662.4176,-0.23687744140625,0.06103515625,0.95465087890625,1.981353759765625,-4.912261962890625,-0.19439697265625,1.0,1.0,1.0,1.0,1.0,90.0,event
10:26:42.598,0.7891471,1.0169694,1.0435839,0.26207602,0.4172231,0.7104332,0.20200565,0.005239603,0.3908828,-0.25747886,0.1319332,0.13168605,0.70385516,0.1879165,-0.26215786,0.417056,0.31322733,-0.2659215,-0.6844766,0.0232347,784.90845,813.5165,801.02563,801.8315,759.92676,-0.23687744140625,0.06103515625,0.95465087890625,1.981353759765625,-4.912261962890625,-0.19439697265625,1.0,1.0,1.0,1.0,1.0,90.0,event
10:26:42.599,0.7891471,1.0169694,1.0435839,0.26207602,0.4172231,0.7104332,0.20200565,0.005239603,0.3908828,-0.25747886,0.1319332,0.13168605,0.70385516,0.1879165,-0.26215786,0.417056,0.31322733,-0.2659215,-0.6844766,0.0232347,797.8022,797.3993,801.4286,798.60803,814.7253,-0.23687744140625,0.06103515625,0.95465087890625,1.981353759765625,-4.912261962890625,-0.19439697265625,1.0,1.0,1.0,1.0,1.0,90.0,event
10:26:42.599,0.7891471,1.0169694,1.0435839,0.26207602,0.4172231,0.7104332,0.20200565,0.005239603,0.3908828,-0.25747886,0.1319332,0.13168605,0.70385516,0.1879165,-0.26215786,0.417056,0.31322733,-0.2659215,-0.6844766,0.0232347,797.8022,794.57874,796.99634,798.20514,1022.6374,-0.23687744140625,0.06103515625,0.95465087890625,1.981353759765625,-4.912261962890625,-0.19439697265625,1.0,1.0,1.0,1.0,1.0,90.0,event
10:26:42.600,0.7891471,1.0169694,1.0435839,0.26207602,0.4172231,0.7104332,0.20200565,0.005239603,0.3908828,-0.25747886,0.1319332,0.13168605,0.70385516,0.1879165,-0.26215786,0.417056,0.31322733,-0.2659215,-0.6844766,0.0232347,782.49084,816.337,799.81683,794.17584,773.6264,-0.23687744140625,0.06103515625,0.95465087890625,1.981353759765625,-4.912261962890625,-0.19439697265625,1.0,1.0,1.0,1.0,1.0,90.0,event
10:26:42.600,0.7891471,1.0169694,1.0435839,0.26207602,0.4172231,0.7104332,0.20200565,0.005239603,0.3908828,-0.25747886,0.1319332,0.13168605,0.70385516,0.1879165,-0.26215786,0.417056,0.31322733,-0.2659215,-0.6844766,0.0232347,785.31134,813.1135,800.2198,797.8022,580.2198,-0.23687744140625,0.06103515625,0.95465087890625,1.981353759765625,-4.912261962890625,-0.19439697265625,1.0,1.0,1.0,1.0,1.0,90.0,event
10:26:42.601,0.7891471,1.0169694,1.0435839,0.26207602,0.4172231,0.7104332,0.20200565,0.005239603,0.3908828,-0.25747886,0.1319332,0.13168605,0.70385516,0.1879165,-0.26215786,0.417056,0.31322733,-0.2659215,-0.6844766,0.0232347,802.6374,809.89014,799.011,789.7436,655.9707,-0.23687744140625,0.06103515625,0.95465087890625,1.981353759765625,-4.912261962890625,-0.19439697265625,1.0,1.0,1.0,1.0,1.0,90.0,event
10:26:42.601,0.7891471,1.0169694,1.0435839,0.26207602,0.4172231,0.7104332,0.20200565,0.005239603,0.3908828,-0.25747886,0.1319332,0.13168605,0.70385516,0.1879165,-0.26215786,0.417056,0.31322733,-0.2659215,-0.6844766,0.0232347,805.8608,817.9487,795.78754,798.60803,771.6117,-0.23687744140625,0.06103515625,0.95465087890625,1.981353759765625,-4.912261962890625,-0.19439697265625,1.0,1.0,1.0,1.0,1.0,90.0,event
10:26:42.602,0.7891471,1.0169694,1.0435839,0.26207602,0.4172231,0.7104332,0.20200565,0.005239603,0.3908828,-0.25747886,0.1319332,0.13168605,0.70385516,0.1879165,-0.26215786,0.417056,0.31322733,-0.2659215,-0.6844766,0.0232347,788.93774,811.50183,796.1905,795.78754,772.8205,-0.23687744140625,0.06103515625,0.95465087890625,1.981353759765625,-4.912261962890625,-0.19439697265625,1.0,1.0,1.0,1.0,1.0,90.0,event
10:26:42.629,0.7891471,1.0169694,1.0435839,0.26207602,0.4172231,0.7104332,0.20200565,0.005239603,0.3908828,-0.25747886,0.1319332,0.13168605,0.70385516,0.1879165,-0.26215786,0.417056,0.31322733,-0.2659215,-0.6844766,0.0232347,773.6264,808.68134,796.99634,788.5348,674.90845,-0.23687744140625,0.06103515625,0.95465087890625,1.981353759765625,-4.912261962890625,-0.19439697265625,1.0,1.0,1.0,1.0,1.0,90.0,event
10:26:42.630,0.7891471,1.0169694,1.0435839,0.26207602,0.4172231,0.7104332,0.20200565,0.005239603,0.3908828,-0.25747886,0.1319332,0.13168605,0.70385516,0.1879165,-0.26215786,0.417056,0.31322733,-0.2659215,-0.6844766,0.0232347,771.6117,802.23444,796.5934,794.17584,654.35895,-0.23687744140625,0.06103515625,0.95465087890625,1.981353759765625,-4.912261962890625,-0.19439697265625,1.0,1.0,1.0,1.0,1.0,90.0,event
10:26:42.631,0.7891471,1.0169694,1.0435839,0.26207602,0.4172231,0.7104332,0.20200565,0.005239603,0.3908828,-0.25747886,0.1319332,0.13168605,0.70385516,0.1879165,-0.26215786,0.417056,0.31322733,-0.2659215,-0.6844766,0.0232347,779.2674,811.0989,794.57874,781.28204,747.03296,-0.23687744140625,0.06103515625,0.95465087890625,1.981353759765625,-4.912261962890625,-0.19439697265625,1.0,1.0,1.0,1.0,1.0,90.0,event
10:26:42.631,0.7891471,1.0169694,0.99799716,0.26207602,0.4172231,0.7104332,0.19013043,0.005239603,0.3908828,-0.25747886,0.12985846,0.13168605,0.70385516,0.1879165,-0.27891877,0.417056,0.31322733,-0.2659215,-0.7088411,0.0232347,785.7143,820.7692,798.60803,788.5348,829.6337,-0.23687744140625,0.06103515625,0.95465087890625,1.981353759765625,-4.912261962890625,-0.19439697265625,1.0,1.0,1.0,1.0,1.0,90.0,event
10:26:42.634,0.7891471,1.0169694,0.99799716,0.26207602,0.4172231,0.7104332,0.19013043,0.005239603,0.3908828,-0.25747886,0.12985846,0.13168605,0.70385516,0.1879165,-0.27891877,0.417056,0.31322733,-0.2659215,-0.7088411,0.0232347,799.41394,810.696,798.20514,799.41394,761.13556,-0.23687744140625,0.06103515625,0.95465087890625,1.981353759765625,-4.912261962890625,-0.19439697265625,1.0,1.0,1.0,1.0,1.0,90.0,event
10:26:42.635,0.7891471,1.0169694,0.99799716,0.26207602,0.4172231,0.7104332,0.19013043,0.005239603,0.3908828,-0.25747886,0.12985846,0.13168605,0.70385516,0.1879165,-0.27891877,0.417056,0.31322733,-0.2659215,-0.7088411,0.0232347,802.23444,795.78754,795.78754,801.8315,878.7912,-0.23687744140625,0.06103515625,0.95465087890625,1.981353759765625,-4.912261962890625,-0.19439697265625,1.0,1.0,1.0,1.0,1.0,90.0,event
10:26:42.635,0.7891471,1.0169694,0.99799716,0.26207602,0.4172231,0.7104332,0.19013043,0.005239603,0.3908828,-0.25747886,0.12985846,0.13168605,0.70385516,0.1879165,-0.27891877,0.417056,0.31322733,-0.2659215,-0.7088411,0.0232347,781.685,809.4872,796.99634,802.6374,1047.2161,-0.23687744140625,0.06103515625,0.95465087890625,1.981353759765625,-4.912261962890625,-0.19439697265625,1.0,1.0,1.0,1.0,1.0,90.0,event
10:26:42.636,0.7891471,1.0169694,0.99799716,0.26207602,0.4172231,0.7104332,0.19013043,0.005239603,0.3908828,-0.25747886,0.12985846,0.13168605,0.70385516,0.1879165,-0.27891877,0.417056,0.31322733,-0.2659215,-0.7088411,0.0232347,792.96704,825.6044,793.36993,790.14655,820.3663,-0.23687744140625,0.06103515625,0.95465087890625,1.981353759765625,-4.912261962890625,-0.19439697265625,1.0,1.0,1.0,1.0,1.0,90.0,event
10:26:42.636,0.7891471,1.0169694,0.99799716,0.26207602,0.4172231,0.7104332,0.19013043,0.005239603,0.3908828,-0.25747886,0.12985846,0.13168605,0.70385516,0.1879165,-0.27891877,0.417056,0.31322733,-0.2659215,-0.7088411,0.0232347,807.47253,809.0842,794.9817,792.96704,693.8461,-0.23687744140625,0.06103515625,0.95465087890625,1.981353759765625,-4.912261962890625,-0.19439697265625,1.0,1.0,1.0,1.0,1.0,90.0,event
10:26:42.637,0.7891471,1.0169694,0.99799716,0.26207602,0.4172231,0.7104332,0.19013043,0.005239603,0.3908828,-0.25747886,0.12985846,0.13168605,0.70385516,0.1879165,-0.27891877,0.417056,0.31322733,-0.2659215,-0.7088411,0.0232347,801.02563,792.1612,796.99634,789.7436,852.1978,-0.23687744140625,0.06103515625,0.95465087890625,1.981353759765625,-4.912261962890625,-0.19439697265625,1.0,1.0,1.0,1.0,1.0,90.0,event
10:26:42.637,0.7891471,1.0169694,0.99799716,0.26207602,0.4172231,0.7104332,0.19013043,0.005239603,0.3908828,-0.25747886,0.12985846,0.13168605,0.70385516,0.1879165,-0.27891877,0.417056,0.31322733,-0.2659215,-0.7088411,0.0232347,782.0879,813.5165,797.3993,795.78754,912.6374,-0.23687744140625,0.06103515625,0.95465087890625,1.981353759765625,-4.912261962890625,-0.19439697265625,1.0,1.0,1.0,1.0,1.0,90.0,event
10:26:42.638,0.7891471,1.0169694,0.99799716,0.26207602,0.4172231,0.7104332,0.19013043,0.005239603,0.3908828,-0.25747886,0.12985846,0.13168605,0.70385516,0.1879165,-0.27891877,0.417056,0.31322733,-0.2659215,-0.7088411,0.0232347,795.78754,819.15753,798.20514,800.2198,709.15753,-0.23687744140625,0.06103515625,0.95465087890625,1.981353759765625,-4.912261962890625,-0.19439697265625,1.0,1.0,1.0,1.0,1.0,90.0,event
10:26:42.661,0.7891471,1.0169694,0.99799716,0.26207602,0.4172231,0.7104332,0.19013043,0.005239603,0.3908828,-0.25747886,0.12985846,0.13168605,0.70385516,0.1879165,-0.27891877,0.417056,0.31322733,-0.2659215,-0.7088411,0.0232347,806.26373,810.293,795.38464,795.78754,700.293,-0.2333984375,0.06036376953125,0.9600830078125,2.026214599609375,-4.2169189453125,0.67291259765625,1.0,1.0,1.0,1.0,1.0,90.0,event
10:26:42.662,0.7891471,1.0169694,0.99799716,0.26207602,0.4172231,0.7104332,0.19013043,0.005239603,0.3908828,-0.25747886,0.12985846,0.13168605,0.70385516,0.1879165,-0.27891877,0.417056,0.31322733,-0.2659215,-0.7088411,0.0232347,804.65204,815.12823,799.011,800.2198,840.10986,-0.2333984375,0.06036376953125,0.9600830078125,2.026214599609375,-4.2169189453125,0.67291259765625,1.0,1.0,1.0,1.0,1.0,90.0,event
10:26:42.663,0.7891471,1.0169694,0.99799716,0.26207602,0.4172231,0.7104332,0.19013043,0.005239603,0.3908828,-0.25747886,0.12985846,0.13168605,0.70385516,0.1879165,-0.27891877,0.417056,0.31322733,-0.2659215,-0.7088411,0.0232347,808.68134,814.3223,799.41394,799.81683,808.2784,-0.2333984375,0.06036376953125,0.9600830078125,2.026214599609375,-4.2169189453125,0.67291259765625,1.0,1.0,1.0,1.0,1.0,90.0,event
10:26:42.663,0.7891471,1.0169694,0.99799716,0.26207602,0.4172231,0.7104332,0.19013043,0.005239603,0.3908828,-0.25747886,0.12985846,0.13168605,0.70385516,0.1879165,-0.27891877,0.417056,0.31322733,-0.2659215,-0.7088411,0.0232347,792.5641,816.7399,796.5934,792.1612,709.9634,-0.2333984375,0.06036376953125,0.9600830078125,2.026214599609375,-4.2169189453125,0.67291259765625,1.0,1.0,1.0,1.0,1.0,90.0,event
10:26:42.664,0.7891471,1.0169694,0.99799716,0.26207602,0.4172231,0.7104332,0.19013043,0.005239603,0.3908828,-0.25747886,0.12985846,0.13168605,0.70385516,0.1879165,-0.27891877,0.417056,0.31322733,-0.2659215,-0.7088411,0.0232347,793.7729,818.3516,797.3993,788.5348,1017.3993,-0.2333984375,0.06036376953125,0.9600830078125,2.026214599609375,-4.2169189453125,0.67291259765625,1.0,1.0,1.0,1.0,1.0,90.0,event
10:26:42.664,0.7891471,1.0169694,0.99799716,0.26207602,0.4172231,0.7104332,0.19013043,0.005239603,0.3908828,-0.25747886,0.12985846,0.13168605,0.70385516,0.1879165,-0.27891877,0.417056,0.31322733,-0.2659215,-0.7088411,0.0232347,789.34064,814.7253,796.5934,790.14655,788.5348,-0.2333984375,0.06036376953125,0.9600830078125,2.026214599609375,-4.2169189453125,0.67291259765625,1.0,1.0,1.0,1.0,1.0,90.0,event
10:26:42.665,0.7891471,1.0169694,0.99799716,0.26207602,0.4172231,0.7104332,0.19013043,0.005239603,0.3908828,-0.25747886,0.12985846,0.13168605,0.70385516,0.1879165,-0.27891877,0.417056,0.31322733,-0.2659215,-0.7088411,0.0232347,792.5641,818.3516,794.9817,784.5055,1021.02563,-0.2333984375,0.06036376953125,0.9600830078125,2.026214599609375,-4.2169189453125,0.67291259765625,1.0,1.0,1.0,1.0,1.0,90.0,event
10:26:42.665,0.7891471,1.0169694,0.99799716,0.26207602,0.4172231,0.7104332,0.19013043,0.005239603,0.3908828,-0.25747886,0.12985846,0.13168605,0.70385516,0.1879165,-0.27891877,0.417056,0.31322733,-0.2659215,-0.7088411,0.0232347,785.31134,816.7399,794.9817,786.1172,882.01465,-0.2333984375,0.06036376953125,0.9600830078125,2.026214599609375,-4.2169189453125,0.67291259765625,1.0,1.0,1.0,1.0,1.0,90.0,event
10:26:42.666,0.7891471,1.0169694,0.99799716,0.26207602,0.4172231,0.7104332,0.19013043,0.005239603,0.3908828,-0.25747886,0.12985846,0.13168605,0.70385516,0.1879165,-0.27891877,0.417056,0.31322733,-0.2659215,-0.7088411,0.0232347,785.7143,813.91943,797.8022,786.9231,827.619,-0.2333984375,0.06036376953125,0.9600830078125,2.026214599609375,-4.2169189453125,0.67291259765625,1.0,1.0,1.0,1.0,1.0,90.0,event
10:26:42.666,0.7891471,1.0169694,0.99799716,0.26207602,0.4172231,0.7104332,0.19013043,0.005239603,0.3908828,-0.25747886,0.12985846,0.13168605,0.70385516,0.1879165,-0.27891877,0.417056,0.31322733,-0.2659215,-0.7088411,0.0232347,786.52014,810.293,802.23444,795.38464,985.16486,-0.2333984375,0.06036376953125,0.9600830078125,2.026214599609375,-4.2169189453125,0.67291259765625,1.0,1.0,1.0,1.0,1.0,90.0,event
10:26:42.667,0.7891471,1.0169694,0.99799716,0.26207602,0.4172231,0.7104332,0.19013043,0.005239603,0.3908828,-0.25747886,0.12985846,0.13168605,0.70385516,0.1879165,-0.27891877,0.417056,0.31322733,-0.2659215,-0.7088411,0.0232347,799.011,840.5128,796.5934,803.8461,960.989,-0.2333984375,0.06036376953125,0.9600830078125,2.026214599609375,-4.2169189453125,0.67291259765625,1.0,1.0,1.0,1.0,1.0,90.0,event
10:26:42.667,0.7891471,1.0169694,0.99799716,0.26207602,0.4172231,0.7104332,0.19013043,0.005239603,0.3908828,-0.25747886,0.12985846,0.13168605,0.70385516,0.1879165,-0.27891877,0.417056,0.31322733,-0.2659215,-0.7088411,0.0232347,807.8755,832.0513,793.36993,797.8022,773.6264,-0.2333984375,0.06036376953125,0.9600830078125,2.026214599609375,-4.2169189453125,0.67291259765625,1.0,1.0,1.0,1.0,1.0,90.0,event
10:26:42.730,0.7891471,1.0169694,0.99799716,0.26207602,0.4172231,0.7104332,0.19013043,0.005239603,0.3908828,-0.25747886,0.12985846,0.13168605,0.70385516,0.1879165,-0.27891877,0.417056,0.31322733,-0.2659215,-0.7088411,0.0232347,799.41394,811.0989,796.99634,778.0586,789.34064,-0.2445068359375,0.05621337890625,0.95330810546875,2.489776611328125,-3.985137939453125,0.76263427734375,1.0,1.0,1.0,1.0,1.0,90.0,event
10:26:42.731,0.7891471,1.0169694,0.99799716,0.26207602,0.4172231,0.7104332,0.19013043,0.005239603,0.3908828,-0.25747886,0.12985846,0.13168605,0.70385516,0.1879165,-0.27891877,0.417056,0.31322733,-0.2659215,-0.7088411,0.0232347,796.5934,817.9487,792.5641,777.6557,784.5055,-0.2445068359375,0.05621337890625,0.95330810546875,2.489776611328125,-3.985137939453125,0.76263427734375,1.0,1.0,1.0,1.0,1.0,90.0,event
10:26:42.732,0.7891471,1.0169694,0.99799716,0.26207602,0.4172231,0.7104332,0.19013043,0.005239603,0.3908828,-0.25747886,0.12985846,0.13168605,0.70385516,0.1879165,-0.27891877,0.417056,0.31322733,-0.2659215,-0.7088411,0.0232347,781.685,817.1429,797.8022,792.1612,729.304,-0.2445068359375,0.05621337890625,0.95330810546875,2.489776611328125,-3.985137939453125,0.76263427734375,1.0,1.0,1.0,1.0,1.0,90.0,event
10:26:42.732,0.7891471,1.0169694,0.99799716,0.26207602,0.4172231,0.7104332,0.19013043,0.005239603,0.3908828,-0.25747886,0.12985846,0.13168605,0.70385516,0.1879165,-0.27891877,0.417056,0.31322733,-0.2659215,-0.7088411,0.0232347,787.326,819.5604,798.20514,791.3553,694.2491,-0.2445068359375,0.05621337890625,0.95330810546875,2.489776611328125,-3.985137939453125,0.76263427734375,1.0,1.0,1.0,1.0,1.0,90.0,event
10:26:42.733,0.7891471,1.0169694,0.91270155,0.26207602,0.4172231,0.7104332,0.1820091,0.005239603,0.3908828,-0.25747886,0.086233184,0.13168605,0.70385516,0.1879165,-0.30246067,0.417056,0.31322733,-0.2659215,-0.7280515,0.0232347,777.25275,814.7253,805.05493,784.10254,810.696,-0.2445068359375,0.05621337890625,0.95330810546875,2.489776611328125,-3.985137939453125,0.76263427734375,1.0,1.0,1.0,1.0,1.0,90.0,event
10:26:42.733,0.7891471,1.0169694,0.99799716,0.26207602,0.4172231,0.7104332,0.19013043,0.005239603,0.3908828,-0.25747886,0.12985846,0.13168605,0.70385516,0.1879165,-0.27891877,0.417056,0.31322733,-0.2659215,-0.7088411,0.0232347,793.7729,813.91943,793.7729,780.87915,684.9817,-0.2445068359375,0.05621337890625,0.95330810546875,2.489776611328125,-3.985137939453125,0.76263427734375,1.0,1.0,1.0,1.0,1.0,90.0,event
10:26:42.737,0.7891471,1.0169694,0.91270155,0.26207602,0.4172231,0.7104332,0.1820091,0.005239603,0.3908828,-0.25747886,0.086233184,0.13168605,0.70385516,0.1879165,-0.30246067,0.417056,0.31322733,-0.2659215,-0.7280515,0.0232347,792.5641,821.978,806.6667,804.2491,935.2015,-0.2445068359375,0.05621337890625,0.95330810546875,2.489776611328125,-3.985137939453125,0.76263427734375,1.0,1.0,1.0,1.0,1.0,90.0,event
10:26:42.738,0.7891471,1.0169694,0.91270155,0.26207602,0.4172231,0.7104332,0.1820091,0.005239603,0.3908828,-0.25747886,0.086233184,0.13168605,0.70385516,0.1879165,-0.30246067,0.417056,0.31322733,-0.2659215,-0.7280515,0.0232347,811.50183,823.1868,798.60803,820.3663,769.59705,-0.2445068359375,0.05621337890625,0.95330810546875,2.489776611328125,-3.985137939453125,0.76263427734375,1.0,1.0,1.0,1.0,1.0,90.0,event
10:26:42.739,0.7891471,1.0169694,0.91270155,0.26207602,0.4172231,0.7104332,0.1820091,0.005239603,0.3908828,-0.25747886,0.086233184,0.13168605,0.70385516,0.1879165,-0.30246067,0.417056,0.31322733,-0.2659215,-0.7280515,0.0232347,788.93774,807.8755,792.1612,803.44324,832.0513,-0.2445068359375,0.05621337890625,0.95330810546875,2.489776611328125,-3.985137939453125,0.76263427734375,1.0,1.0,1.0,1.0,1.0,90.0,event
10:26:42.740,0.7891471,1.0169694,0.91270155,0.26207602,0.4172231,0.7104332,0.1820091,0.005239603,0.3908828,-0.25747886,0.086233184,0.13168605,0.70385516,0.1879165,-0.30246067,0.417056,0.31322733,-0.2659215,-0.7280515,0.0232347,785.31134,817.5458,791.3553,783.2967,1102.4176,-0.2445068359375,0.05621337890625,0.95330810546875,2.489776611328125,-3.985137939453125,0.76263427734375,1.0,1.0,1.0,1.0,1.0,90.0,event
10:26:42.741,0.7891471,1.0169694,0.91270155,0.26207602,0.4172231,0.7104332,0.1820091,0.005239603,0.3908828,-0.25747886,0.086233184,0.13168605,0.70385516,0.1879165,-0.30246067,0.417056,0.31322733,-0.2659215,-0.7280515,0.0232347,800.6227,835.6777,794.17584,783.69965,878.7912,-0.2445068359375,0.05621337890625,0.95330810546875,2.489776611328125,-3.985137939453125,0.76263427734375,1.0,1.0,1.0,1.0,1.0,90.0,event
10:26:42.742,0.7891471,1.0169694,0.91270155,0.26207602,0.4172231,0.7104332,0.1820091,0.005239603,0.3908828,-0.25747886,0.086233184,0.13168605,0.70385516,0.1879165,-0.30246067,0.417056,0.31322733,-0.2659215,-0.7280515,0.0232347,794.57874,817.1429,791.75824,785.7143,795.38464,-0.2445068359375,0.05621337890625,0.95330810546875,2.489776611328125,-3.985137939453125,0.76263427734375,1.0,1.0,1.0,1.0,1.0,90.0,event
10:26:42.767,0.7891471,1.0169694,0.91270155,0.26207602,0.4172231,0.7104332,0.1820091,0.005239603,0.3908828,-0.25747886,0.086233184,0.13168605,0.70385516,0.1879165,-0.30246067,0.417056,0.31322733,-0.2659215,-0.7280515,0.0232347,774.83514,813.5165,791.3553,773.22345,813.1135,-0.23919677734375,0.064208984375,0.9554443359375,2.773895263671875,-3.805694580078125,-0.22430419921875,1.0,1.0,1.0,1.0,1.0,90.0,event
10:26:42.768,0.7891471,1.0169694,0.91270155,0.26207602,0.4172231,0.7104332,0.1820091,0.005239603,0.3908828,-0.25747886,0.086233184,0.13168605,0.70385516,0.1879165,-0.30246067,0.417056,0.31322733,-0.2659215,-0.7280515,0.0232347,787.72894,827.619,790.9524,788.5348,678.5348,-0.23919677734375,0.064208984375,0.9554443359375,2.773895263671875,-3.805694580078125,-0.22430419921875,1.0,1.0,1.0,1.0,1.0,90.0,event
10:26:42.769,0.7891471,1.0169694,0.91270155,0.26207602,0.4172231,0.7104332,0.1820091,0.005239603,0.3908828,-0.25747886,0.086233184,0.13168605,0.70385516,0.1879165,-0.30246067,0.417056,0.31322733,-0.2659215,-0.7280515,0.0232347,795.38464,826.0073,794.17584,812.3077,648.315,-0.23919677734375,0.064208984375,0.9554443359375,2.773895263671875,-3.805694580078125,-0.22430419921875,1.0,1.0,1.0,1.0,1.0,90.0,event
10:26:42.770,0.7891471,1.0169694,0.91270155,0.26207602,0.4172231,0.7104332,0.1820091,0.005239603,0.3908828,-0.25747886,0.086233184,0.13168605,0.70385516,0.1879165,-0.30246067,0.417056,0.31322733,-0.2659215,-0.7280515,0.0232347,792.96704,826.4103,796.1905,780.4762,734.1392,-0.23919677734375,0.064208984375,0.9554443359375,2.773895263671875,-3.805694580078125,-0.22430419921875,1.0,1.0,1.0,1.0,1.0,90.0,event
10:26:42.770,0.7891471,1.0169694,0.91270155,0.26207602,0.4172231,0.7104332,0.1820091,0.005239603,0.3908828,-0.25747886,0.086233184,0.13168605,0.70385516,0.1879165,-0.30246067,0.417056,0.31322733,-0.2659215,-0.7280515,0.0232347,791.75824,819.9634,796.99634,796.1905,669.67035,-0.23919677734375,0.064208984375,0.9554443359375,2.773895263671875,-3.805694580078125,-0.22430419921875,1.0,1.0,1.0,1.0,1.0,90.0,event
10:26:42.771,0.7891471,1.0169694,0.91270155,0.26207602,0.4172231,0.7104332,0.1820091,0.005239603,0.3908828,-0.25747886,0.086233184,0.13168605,0.70385516,0.1879165,-0.30246067,0.417056,0.31322733,-0.2659215,-0.7280515,0.0232347,793.7729,827.2161,796.5934,766.77655,852.1978,-0.23919677734375,0.064208984375,0.9554443359375,2.773895263671875,-3.805694580078125,-0.22430419921875,1.0,1.0,1.0,1.0,1.0,90.0,event
10:26:42.771,0.7891471,1.0169694,0.91270155,0.26207602,0.4172231,0.7104332,0.1820091,0.005239603,0.3908828,-0.25747886,0.086233184,0.13168605,0.70385516,0.1879165,-0.30246067,0.417056,0.31322733,-0.2659215,-0.7280515,0.0232347,793.36993,831.2454,796.1905,776.8498,836.4835,-0.23919677734375,0.064208984375,0.9554443359375,2.773895263671875,-3.805694580078125,-0.22430419921875,1.0,1.0,1.0,1.0,1.0,90.0,event
10:26:42.772,0.7891471,1.0169694,0.91270155,0.26207602,0.4172231,0.7104332,0.1820091,0.005239603,0.3908828,-0.25747886,0.086233184,0.13168605,0.70385516,0.1879165,-0.30246067,0.417056,0.31322733,-0.2659215,-0.7280515,0.0232347,794.17584,832.0513,797.8022,796.99634,812.3077,-0.23919677734375,0.064208984375,0.9554443359375,2.773895263671875,-3.805694580078125,-0.22430419921875,1.0,1.0,1.0,1.0,1.0,90.0,event
10:26:42.772,0.7891471,1.0169694,0.91270155,0.26207602,0.4172231,0.7104332,0.1820091,0.005239603,0.3908828,-0.25747886,0.086233184,0.13168605,0.70385516,0.1879165,-0.30246067,0.417056,0.31322733,-0.2659215,-0.7280515,0.0232347,789.7436,826.4103,796.1905,793.7729,1063.7362,-0.23919677734375,0.064208984375,0.9554443359375,2.773895263671875,-3.805694580078125,-0.22430419921875,1.0,1.0,1.0,1.0,1.0,90.0,event
10:26:42.773,0.7891471,1.0169694,0.91270155,0.26207602,0.4172231,0.7104332,0.1820091,0.005239603,0.3908828,-0.25747886,0.086233184,0.13168605,0.70385516,0.1879165,-0.30246067,0.417056,0.31322733,-0.2659215,-0.7280515,0.0232347,788.93774,844.1392,794.57874,788.1319,937.2161,-0.23919677734375,0.064208984375,0.9554443359375,2.773895263671875,-3.805694580078125,-0.22430419921875,1.0,1.0,1.0,1.0,1.0,90.0,event
10:26:42.774,0.7891471,1.0169694,0.91270155,0.26207602,0.4172231,0.7104332,0.1820091,0.005239603,0.3908828,-0.25747886,0.086233184,0.13168605,0.70385516,0.1879165,-0.30246067,0.417056,0.31322733,-0.2659215,-0.7280515,0.0232347,788.93774,836.08057,798.60803,788.5348,703.1135,-0.23919677734375,0.064208984375,0.9554443359375,2.773895263671875,-3.805694580078125,-0.22430419921875,1.0,1.0,1.0,1.0,1.0,90.0,event
10:26:42.774,0.7891471,1.0169694,0.91270155,0.26207602,0.4172231,0.7104332,0.1820091,0.005239603,0.3908828,-0.25747886,0.086233184,0.13168605,0.70385516,0.1879165,-0.30246067,0.417056,0.31322733,-0.2659215,-0.7280515,0.0232347,760.32965,826.4103,794.17584,773.6264,749.0476,-0.23919677734375,0.064208984375,0.9554443359375,2.773895263671875,-3.805694580078125,-0.22430419921875,1.0,1.0,1.0,1.0,1.0,90.0,event
10:26:42.798,0.7891471,1.0169694,0.91270155,0.26207602,0.4172231,0.7104332,0.1820091,0.005239603,0.3908828,-0.25747886,0.086233184,0.13168605,0.70385516,0.1879165,-0.30246067,0.417056,0.31322733,-0.2659215,-0.7280515,0.0232347,744.21246,840.5128,789.34064,748.6447,778.86444,-0.2442626953125,0.05792236328125,0.9576416015625,1.9439697265625,-4.18701171875,0.695343017578125,1.0,1.0,1.0,1.0,1.0,90.0,event
10:26:42.799,0.7891471,1.0169694,0.91270155,0.26207602,0.4172231,0.7104332,0.1820091,0.005239603,0.3908828,-0.25747886,0.086233184,0.13168605,0.70385516,0.1879165,-0.30246067,0.417056,0.31322733,-0.2659215,-0.7280515,0.0232347,743.00366,834.4689,796.1905,742.6007,723.663,-0.2442626953125,0.05792236328125,0.9576416015625,1.9439697265625,-4.18701171875,0.695343017578125,1.0,1.0,1.0,1.0,1.0,90.0,event
10:26:42.800,0.7891471,1.0169694,0.91270155,0.26207602,0.4172231,0.7104332,0.1820091,0.005239603,0.3908828,-0.25747886,0.086233184,0.13168605,0.70385516,0.1879165,-0.30246067,0.417056,0.31322733,-0.2659215,-0.7280515,0.0232347,752.674,829.6337,787.326,747.8388,729.707,-0.2442626953125,0.05792236328125,0.9576416015625,1.9439697265625,-4.18701171875,0.695343017578125,1.0,1.0,1.0,1.0,1.0,90.0,event
10:26:42.800,0.7891471,1.0169694,0.91270155,0.26207602,0.4172231,0.7104332,0.1820091,0.005239603,0.3908828,-0.25747886,0.086233184,0.13168605,0.70385516,0.1879165,-0.30246067,0.417056,0.31322733,-0.2659215,-0.7280515,0.0232347,732.9304,828.4249,785.7143,739.3773,765.16486,-0.2442626953125,0.05792236328125,0.9576416015625,1.9439697265625,-4.18701171875,0.695343017578125,1.0,1.0,1.0,1.0,1.0,90.0,event
10:26:42.801,0.7891471,1.0169694,0.91270155,0.26207602,0.4172231,0.7104332,0.1820091,0.005239603,0.3908828,-0.25747886,0.086233184,0.13168605,0.70385516,0.1879165,-0.30246067,0.417056,0.31322733,-0.2659215,-0.7280515,0.0232347,707.5458,842.9304,795.78754,724.0659,725.2747,-0.2442626953125,0.05792236328125,0.9576416015625,1.9439697265625,-4.18701171875,0.695343017578125,1.0,1.0,1.0,1.0,1.0,90.0,event
10:26:42.802,0.7891471,1.0169694,0.91270155,0.26207602,0.4172231,0.7104332,0.1820091,0.005239603,0.3908828,-0.25747886,0.086233184,0.13168605,0.70385516,0.1879165,-0.30246067,0.417056,0.31322733,-0.2659215,-0.7280515,0.0232347,704.3223,850.58606,794.17584,713.5897,774.0293,-0.2442626953125,0.05792236328125,0.9576416015625,1.9439697265625,-4.18701171875,0.695343017578125,1.0,1.0,1.0,1.0,1.0,90.0,event
10:26:42.803,0.7891471,0.4925786,0.88977504,0.26207602,0.4172231,-0.56457305,0.1593204,0.005239603,0.3908828,-0.34921786,0.086233184,0.13168605,0.70385516,-0.0856975,-0.31590864,0.417056,0.31322733,-0.2093185,-0.7305079,0.0232347,695.8608,831.6484,791.3553,684.57874,926.337,-0.2442626953125,0.05792236328125,0.9576416015625,1.9439697265625,-4.18701171875,0.695343017578125,1.0,1.0,1.0,1.0,1.0,90.0,event
10:26:42.803,0.7891471,1.0169694,0.91270155,0.26207602,0.4172231,0.7104332,0.1820091,0.005239603,0.3908828,-0.25747886,0.086233184,0.13168605,0.70385516,0.1879165,-0.30246067,0.417056,0.31322733,-0.2659215,-0.7280515,0.0232347,697.47253,846.55676,788.5348,692.6374,856.2271,-0.2442626953125,0.05792236328125,0.9576416015625,1.9439697265625,-4.18701171875,0.695343017578125,1.0,1.0,1.0,1.0,1.0,90.0,event
10:26:42.807,0.7891471,0.4925786,0.88977504,0.26207602,0.4172231,-0.56457305,0.1593204,0.005239603,0.3908828,-0.34921786,0.086233184,0.13168605,0.70385516,-0.0856975,-0.31590864,0.417056,0.31322733,-0.2093185,-0.7305079,0.0232347,678.1319,853.4066,782.0879,682.96704,1008.93774,-0.2442626953125,0.05792236328125,0.9576416015625,1.9439697265625,-4.18701171875,0.695343017578125,1.0,1.0,1.0,1.0,1.0,90.0,event
10:26:42.808,0.7891471,0.4925786,0.88977504,0.26207602,0.4172231,-0.56457305,0.1593204,0.005239603,0.3908828,-0.34921786,0.086233184,0.13168605,0.70385516,-0.0856975,-0.31590864,0.417056,0.31322733,-0.2093185,-0.7305079,0.0232347,639.85345,869.5238,782.0879,660.40295,774.83514,-0.2442626953125,0.05792236328125,0.9576416015625,1.9439697265625,-4.18701171875,0.695343017578125,1.0,1.0,1.0,1.0,1.0,90.0,event
10:26:42.808,0.7891471,0.4925786,0.88977504,0.26207602,0.4172231,-0.56457305,0.1593204,0.005239603,0.3908828,-0.34921786,0.086233184,0.13168605,0.70385516,-0.0856975,-0.31590864,0.417056,0.31322733,-0.2093185,-0.7305079,0.0232347,631.39197,852.6007,796.1905,651.9414,645.89746,-0.2442626953125,0.05792236328125,0.9576416015625,1.9439697265625,-4.18701171875,0.695343017578125,1.0,1.0,1.0,1.0,1.0,90.0,event
10:26:42.809,0.7891471,0.4925786,0.88977504,0.26207602,0.4172231,-0.56457305,0.1593204,0.005239603,0.3908828,-0.34921786,0.086233184,0.13168605,0.70385516,-0.0856975,-0.31590864,0.417056,0.31322733,-0.2093185,-0.7305079,0.0232347,651.13556,854.61536,779.2674,672.0879,736.55676,-0.2442626953125,0.05792236328125,0.9576416015625,1.9439697265625,-4.18701171875,0.695343017578125,1.0,1.0,1.0,1.0,1.0,90.0,event
10:26:42.867,0.7891471,0.4925786,0.88977504,0.26207602,0.4172231,-0.56457305,0.1593204,0.005239603,0.3908828,-0.34921786,0.086233184,0.13168605,0.70385516,-0.0856975,-0.31590864,0.417056,0.31322733,-0.2093185,-0.7305079,0.0232347,654.35895,860.65936,779.67035,650.7326,713.5897,-0.2442626953125,0.05792236328125,0.9576416015625,1.9439697265625,-4.18701171875,0.695343017578125,1.0,1.0,1.0,1.0,1.0,90.0,event
10:26:42.868,0.7891471,0.4925786,0.88977504,0.26207602,0.4172231,-0.56457305,0.1593204,0.005239603,0.3908828,-0.34921786,0.086233184,0.13168605,0.70385516,-0.0856975,-0.31590864,0.417056,0.31322733,-0.2093185,-0.7305079,0.0232347,662.4176,856.63007,799.81683,651.13556,640.2564,-0.2442626953125,0.05792236328125,0.9576416015625,1.9439697265625,-4.18701171875,0.695343017578125,1.0,1.0,1.0,1.0,1.0,90.0,event
10:26:42.869,0.7891471,0.4925786,0.88977504,0.26207602,0.4172231,-0.56457305,0.1593204,0.005239603,0.3908828,-0.34921786,0.086233184,0.13168605,0.70385516,-0.0856975,-0.31590864,0.417056,0.31322733,-0.2093185,-0.7305079,0.0232347,666.4469,850.58606,782.49084,662.4176,734.1392,-0.2442626953125,0.05792236328125,0.9576416015625,1.9439697265625,-4.18701171875,0.695343017578125,1.0,1.0,1.0,1.0,1.0,90.0,event
10:26:42.870,0.7891471,0.4925786,0.88977504,0.26207602,0.4172231,-0.56457305,0.1593204,0.005239603,0.3908828,-0.34921786,0.086233184,0.13168605,0.70385516,-0.0856975,-0.31590864,0.417056,0.31322733,-0.2093185,-0.7305079,0.0232347,662.01465,856.63007,772.01465,663.6264,876.77655,-0.2442626953125,0.05792236328125,0.9576416015625,1.9439697265625,-4.18701171875,0.695343017578125,1.0,1.0,1.0,1.0,1.0,90.0,event
10:26:42.871,0.7891471,0.4925786,0.88977504,0.26207602,0.4172231,-0.56457305,0.1593204,0.005239603,0.3908828,-0.34921786,0.086233184,0.13168605,0.70385516,-0.0856975,-0.31590864,0.417056,0.31322733,-0.2093185,-0.7305079,0.0232347,680.9524,858.24176,774.0293,701.0989,803.8461,-0.2442626953125,0.05792236328125,0.9576416015625,1.9439697265625,-4.18701171875,0.695343017578125,1.0,1.0,1.0,1.0,1.0,90.0,event
10:26:42.871,0.7891471,0.4925786,0.88977504,0.26207602,0.4172231,-0.56457305,0.1593204,0.005239603,0.3908828,-0.34921786,0.086233184,0.13168605,0.70385516,-0.0856975,-0.31590864,0.417056,0.31322733,-0.2093185,-0.7305079,0.0232347,695.4579,852.1978,772.4176,701.50183,846.55676,-0.2442626953125,0.05792236328125,0.9576416015625,1.9439697265625,-4.18701171875,0.695343017578125,1.0,1.0,1.0,1.0,1.0,90.0,event
10:26:42.872,0.7891471,0.4925786,0.88977504,0.26207602,0.4172231,-0.56457305,0.1593204,0.005239603,0.3908828,-0.34921786,0.086233184,0.13168605,0.70385516,-0.0856975,-0.31590864,0.417056,0.31322733,-0.2093185,-0.7305079,0.0232347,692.6374,844.1392,778.86444,708.3516,946.4835,-0.2442626953125,0.05792236328125,0.9576416015625,1.9439697265625,-4.18701171875,0.695343017578125,1.0,1.0,1.0,1.0,1.0,90.0,event
10:26:42.873,0.7891471,0.4925786,0.88977504,0.26207602,0.4172231,-0.56457305,0.1593204,0.005239603,0.3908828,-0.34921786,0.086233184,0.13168605,0.70385516,-0.0856975,-0.31590864,0.417056,0.31322733,-0.2093185,-0.7305079,0.0232347,713.9927,836.8865,775.64105,724.87177,1021.02563,-0.2442626953125,0.05792236328125,0.9576416015625,1.9439697265625,-4.18701171875,0.695343017578125,1.0,1.0,1.0,1.0,1.0,90.0,event
10:26:42.873,0.7891471,0.4925786,0.88977504,0.26207602,0.4172231,-0.56457305,0.1593204,0.005239603,0.3908828,-0.34921786,0.086233184,0.13168605,0.70385516,-0.0856975,-0.31590864,0.417056,0.31322733,-0.2093185,-0.7305079,0.0232347,717.619,863.8828,773.22345,716.8132,921.9048,-0.2442626953125,0.05792236328125,0.9576416015625,1.9439697265625,-4.18701171875,0.695343017578125,1.0,1.0,1.0,1.0,1.0,90.0,event
10:26:42.874,0.7891471,0.4925786,0.88977504,0.26207602,0.4172231,-0.56457305,0.1593204,0.005239603,0.3908828,-0.34921786,0.086233184,0.13168605,0.70385516,-0.0856975,-0.31590864,0.417056,0.31322733,-0.2093185,-0.7305079,0.0232347,724.4689,850.989,771.6117,743.8095,726.4835,-0.2442626953125,0.05792236328125,0.9576416015625,1.9439697265625,-4.18701171875,0.695343017578125,1.0,1.0,1.0,1.0,1.0,90.0,event
10:26:42.875,0.7891471,0.4925786,0.88977504,0.26207602,0.4172231,-0.56457305,0.1593204,0.005239603,0.3908828,-0.34921786,0.086233184,0.13168605,0.70385516,-0.0856975,-0.31590864,0.417056,0.31322733,-0.2093185,-0.7305079,0.0232347,738.97437,830.4396,768.3883,751.8681,745.42126,-0.2442626953125,0.05792236328125,0.9576416015625,1.9439697265625,-4.18701171875,0.695343017578125,1.0,1.0,1.0,1.0,1.0,90.0,event
10:26:42.875,0.7891471,0.4925786,0.88977504,0.26207602,0.4172231,-0.56457305,0.1593204,0.005239603,0.3908828,-0.34921786,0.086233184,0.13168605,0.70385516,-0.0856975,-0.31590864,0.417056,0.31322733,-0.2093185,-0.7305079,0.0232347,742.6007,839.304,770.40295,747.8388,798.60803,-0.2442626953125,0.05792236328125,0.9576416015625,1.9439697265625,-4.18701171875,0.695343017578125,1.0,1.0,1.0,1.0,1.0,90.0,event
10:26:42.906,0.7891471,0.4925786,0.88977504,0.26207602,0.4172231,-0.56457305,0.1593204,0.005239603,0.3908828,-0.34921786,0.086233184,0.13168605,0.70385516,-0.0856975,-0.31590864,0.417056,0.31322733,-0.2093185,-0.7305079,0.0232347,770.0,842.9304,767.5824,754.2857,724.4689,-0.2496337890625,0.05865478515625,0.95904541015625,2.572021484375,-3.6187744140625,-0.231781005859375,1.0,1.0,1.0,1.0,1.0,90.0,event
10:26:42.907,0.7891471,0.4925786,0.88977504,0.26207602,0.4172231,-0.56457305,0.1593204,0.005239603,0.3908828,-0.34921786,0.086233184,0.13168605,0.70385516,-0.0856975,-0.31590864,0.417056,0.31322733,-0.2093185,-0.7305079,0.0232347,792.5641,838.9011,765.9707,767.1795,675.31134,-0.2496337890625,0.05865478515625,0.95904541015625,2.572021484375,-3.6187744140625,-0.231781005859375,1.0,1.0,1.0,1.0,1.0,90.0,event
10:26:42.908,0.7891471,0.4925786,0.88977504,0.26207602,0.4172231,-0.56457305,0.1593204,0.005239603,0.3908828,-0.34921786,0.086233184,0.13168605,0.70385516,-0.0856975,-0.31590864,0.417056,0.31322733,-0.2093185,-0.7305079,0.0232347,769.59705,826.4103,776.4469,776.4469,745.0183,-0.2496337890625,0.05865478515625,0.95904541015625,2.572021484375,-3.6187744140625,-0.231781005859375,1.0,1.0,1.0,1.0,1.0,90.0,event
10:26:42.908,0.7891471,0.4925786,0.88977504,0.26207602,0.4172231,-0.56457305,0.1593204,0.005239603,0.3908828,-0.34921786,0.086233184,0.13168605,0.70385516,-0.0856975,-0.31590864,0.417056,0.31322733,-0.2093185,-0.7305079,0.0232347,766.77655,839.304,771.2088,784.90845,771.2088,-0.2496337890625,0.05865478515625,0.95904541015625,2.572021484375,-3.6187744140625,-0.231781005859375,1.0,1.0,1.0,1.0,1.0,90.0,event
10:26:42.909,0.7891471,0.4925786,0.88977504,0.26207602,0.4172231,-0.56457305,0.1593204,0.005239603,0.3908828,-0.34921786,0.086233184,0.13168605,0.70385516,-0.0856975,-0.31590864,0.417056,0.31322733,-0.2093185,-0.7305079,0.0232347,790.9524,836.08057,772.8205,780.87915,667.25275,-0.2496337890625,0.05865478515625,0.95904541015625,2.572021484375,-3.6187744140625,-0.231781005859375,1.0,1.0,1.0,1.0,1.0,90.0,event
10:26:42.911,0.7891471,0.4925786,0.88977504,0.26207602,0.4172231,-0.56457305,0.1593204,0.005239603,0.3908828,-0.34921786,0.086233184,0.13168605,0.70385516,-0.0856975,-0.31590864,0.417056,0.31322733,-0.2093185,-0.7305079,0.0232347,797.8022,829.6337,776.4469,797.8022,646.30035,-0.2496337890625,0.05865478515625,0.95904541015625,2.572021484375,-3.6187744140625,-0.231781005859375,1.0,1.0,1.0,1.0,1.0,90.0,event
10:26:42.912,0.7891471,0.4925786,0.88977504,0.26207602,0.4172231,-0.56457305,0.1593204,0.005239603,0.3908828,-0.34921786,0.086233184,0.13168605,0.70385516,-0.0856975,-0.31590864,0.417056,0.31322733,-0.2093185,-0.7305079,0.0232347,790.54944,826.4103,768.7912,810.696,806.26373,-0.2496337890625,0.05865478515625,0.95904541015625,2.572021484375,-3.6187744140625,-0.231781005859375,1.0,1.0,1.0,1.0,1.0,90.0,event
10:26:42.913,0.7891471,0.4925786,0.88977504,0.26207602,0.4172231,-0.56457305,0.1593204,0.005239603,0.3908828,-0.34921786,0.086233184,0.13168605,0.70385516,-0.0856975,-0.31590864,0.417056,0.31322733,-0.2093185,-0.7305079,0.0232347,799.011,827.619,770.80585,811.50183,1169.7069,-0.2496337890625,0.05865478515625,0.95904541015625,2.572021484375,-3.6187744140625,-0.231781005859375,1.0,1.0,1.0,1.0,1.0,90.0,event
10:26:42.914,0.7891471,0.4925786,0.88977504,0.26207602,0.4172231,-0.56457305,0.1593204,0.005239603,0.3908828,-0.34921786,0.086233184,0.13168605,0.70385516,-0.0856975,-0.31590864,0.417056,0.31322733,-0.2093185,-0.7305079,0.0232347,826.0073,852.6007,771.6117,818.7546,994.83514,-0.2496337890625,0.05865478515625,0.95904541015625,2.572021484375,-3.6187744140625,-0.231781005859375,1.0,1.0,1.0,1.0,1.0,90.0,event
10:26:42.915,0.7891471,0.4925786,0.78756285,0.26207602,0.4172231,-0.56457305,0.13959293,0.005239603,0.3908828,-0.34921786,0.06517319,0.13168605,0.70385516,-0.0856975,-0.34576952,0.417056,0.31322733,-0.2093185,-0.7292924,0.0232347,804.2491,831.2454,771.2088,807.47253,697.47253,-0.2496337890625,0.05865478515625,0.95904541015625,2.572021484375,-3.6187744140625,-0.231781005859375,1.0,1.0,1.0,1.0,1.0,90.0,event
10:26:42.920,0.7891471,0.4925786,0.78756285,0.26207602,0.4172231,-0.56457305,0.13959293,0.005239603,0.3908828,-0.34921786,0.06517319,0.13168605,0.70385516,-0.0856975,-0.34576952,0.417056,0.31322733,-0.2093185,-0.7292924,0.0232347,807.0696,809.0842,771.2088,814.7253,764.35895,-0.2496337890625,0.05865478515625,0.95904541015625,2.572021484375,-3.6187744140625,-0.231781005859375,1.0,1.0,1.0,1.0,1.0,90.0,event
10:26:42.920,0.7891471,0.4925786,0.78756285,0.26207602,0.4172231,-0.56457305,0.13959293,0.005239603,0.3908828,-0.34921786,0.06517319,0.13168605,0.70385516,-0.0856975,-0.34576952,0.417056,0.31322733,-0.2093185,-0.7292924,0.0232347,815.5311,831.2454,772.4176,820.7692,726.4835,-0.2496337890625,0.05865478515625,0.95904541015625,2.572021484375,-3.6187744140625,-0.231781005859375,1.0,1.0,1.0,1.0,1.0,90.0,event
10:26:42.948,0.7891471,0.4925786,0.78756285,0.26207602,0.4172231,-0.56457305,0.13959293,0.005239603,0.3908828,-0.34921786,0.06517319,0.13168605,0.70385516,-0.0856975,-0.34576952,0.417056,0.31322733,-0.2093185,-0.7292924,0.0232347,819.15753,835.2747,776.04395,830.0366,656.3736,-0.2320556640625,0.0648193359375,0.9559326171875,2.444915771484375,-4.104766845703125,0.351409912109375,1.0,1.0,1.0,1.0,1.0,90.0,event
10:26:42.949,0.7891471,0.4925786,0.78756285,0.26207602,0.4172231,-0.56457305,0.13959293,0.005239603,0.3908828,-0.34921786,0.06517319,0.13168605,0.70385516,-0.0856975,-0.34576952,0.417056,0.31322733,-0.2093185,-0.7292924,0.0232347,831.2454,821.978,776.4469,830.84247,726.4835,-0.2320556640625,0.0648193359375,0.9559326171875,2.444915771484375,-4.104766845703125,0.351409912109375,1.0,1.0,1.0,1.0,1.0,90.0,event
10:26:42.949,0.7891471,0.4925786,0.78756285,0.26207602,0.4172231,-0.56457305,0.13959293,0.005239603,0.3908828,-0.34921786,0.06517319,0.13168605,0.70385516,-0.0856975,-0.34576952,0.417056,0.31322733,-0.2093185,-0.7292924,0.0232347,837.6923,822.7839,777.6557,834.0659,789.34064,-0.2320556640625,0.0648193359375,0.9559326171875,2.444915771484375,-4.104766845703125,0.351409912109375,1.0,1.0,1.0,1.0,1.0,90.0,event
10:26:42.950,0.7891471,0.4925786,0.78756285,0.26207602,0.4172231,-0.56457305,0.13959293,0.005239603,0.3908828,-0.34921786,0.06517319,0.13168605,0.70385516,-0.0856975,-0.34576952,0.417056,0.31322733,-0.2093185,-0.7292924,0.0232347,832.0513,828.022,782.0879,842.52747,728.49817,-0.2320556640625,0.0648193359375,0.9559326171875,2.444915771484375,-4.104766845703125,0.351409912109375,1.0,1.0,1.0,1.0,1.0,90.0,event
10:26:42.951,0.7891471,0.4925786,0.78756285,0.26207602,0.4172231,-0.56457305,0.13959293,0.005239603,0.3908828,-0.34921786,0.06517319,0.13168605,0.70385516,-0.0856975,-0.34576952,0.417056,0.31322733,-0.2093185,-0.7292924,0.0232347,817.9487,827.2161,786.1172,848.1685,689.011,-0.2320556640625,0.0648193359375,0.9559326171875,2.444915771484375,-4.104766845703125,0.351409912109375,1.0,1.0,1.0,1.0,1.0,90.0,event
10:26:42.951,0.7891471,0.4925786,0.78756285,0.26207602,0.4172231,-0.56457305,0.13959293,0.005239603,0.3908828,-0.34921786,0.06517319,0.13168605,0.70385516,-0.0856975,-0.34576952,0.417056,0.31322733,-0.2093185,-0.7292924,0.0232347,841.7216,816.337,784.90845,840.9158,792.5641,-0.2320556640625,0.0648193359375,0.9559326171875,2.444915771484375,-4.104766845703125,0.351409912109375,1.0,1.0,1.0,1.0,1.0,90.0,event
10:26:42.952,0.7891471,0.4925786,0.78756285,0.26207602,0.4172231,-0.56457305,0.13959293,0.005239603,0.3908828,-0.34921786,0.06517319,0.13168605,0.70385516,-0.0856975,-0.34576952,0.417056,0.31322733,-0.2093185,-0.7292924,0.0232347,838.49817,836.08057,783.69965,832.0513,913.44324,-0.2320556640625,0.0648193359375,0.9559326171875,2.444915771484375,-4.104766845703125,0.351409912109375,1.0,1.0,1.0,1.0,1.0,90.0,event
10:26:42.952,0.7891471,0.4925786,0.78756285,0.26207602,0.4172231,-0.56457305,0.13959293,0.005239603,0.3908828,-0.34921786,0.06517319,0.13168605,0.70385516,-0.0856975,-0.34576952,0.417056,0.31322733,-0.2093185,-0.7292924,0.0232347,851.39197,813.1135,782.8938,829.6337,1053.663,-0.2320556640625,0.0648193359375,0.9559326171875,2.444915771484375,-4.104766845703125,0.351409912109375,1.0,1.0,1.0,1.0,1.0,90.0,event
10:26:42.953,0.7891471,0.4925786,0.78756285,0.26207602,0.4172231,-0.56457305,0.13959293,0.005239603,0.3908828,-0.34921786,0.06517319,0.13168605,0.70385516,-0.0856975,-0.34576952,0.417056,0.31322733,-0.2093185,-0.7292924,0.0232347,825.2015,827.2161,783.69965,814.7253,653.5531,-0.2320556640625,0.0648193359375,0.9559326171875,2.444915771484375,-4.104766845703125,0.351409912109375,1.0,1.0,1.0,1.0,1.0,90.0,event
10:26:42.953,0.7891471,0.4925786,0.78756285,0.26207602,0.4172231,-0.56457305,0.13959293,0.005239603,0.3908828,-0.34921786,0.06517319,0.13168605,0.70385516,-0.0856975,-0.34576952,0.417056,0.31322733,-0.2093185,-0.7292924,0.0232347,830.4396,818.7546,778.86444,813.91943,754.68866,-0.2320556640625,0.0648193359375,0.9559326171875,2.444915771484375,-4.104766845703125,0.351409912109375,1.0,1.0,1.0,1.0,1.0,90.0,event
10:26:42.954,0.7891471,0.4925786,0.78756285,0.26207602,0.4172231,-0.56457305,0.13959293,0.005239603,0.3908828,-0.34921786,0.06517319,0.13168605,0.70385516,-0.0856975,-0.34576952,0.417056,0.31322733,-0.2093185,-0.7292924,0.0232347,836.08057,836.8865,779.67035,839.304,923.1135,-0.2320556640625,0.0648193359375,0.9559326171875,2.444915771484375,-4.104766845703125,0.351409912109375,1.0,1.0,1.0,1.0,1.0,90.0,event
10:26:42.955,0.7891471,0.4925786,0.78756285,0.26207602,0.4172231,-0.56457305,0.13959293,0.005239603,0.3908828,-0.34921786,0.06517319,0.13168605,0.70385516,-0.0856975,-0.34576952,0.417056,0.31322733,-0.2093185,-0.7292924,0.0232347,834.0659,842.1245,787.72894,845.34796,784.90845,-0.2320556640625,0.0648193359375,0.9559326171875,2.444915771484375,-4.104766845703125,0.351409912109375,1.0,1.0,1.0,1.0,1.0,90.0,event
10:26:43.021,0.7891471,0.4925786,0.78756285,0.26207602,0.4172231,-0.56457305,0.13959293,0.005239603,0.3908828,-0.34921786,0.06517319,0.13168605,0.70385516,-0.0856975,-0.34576952,0.417056,0.31322733,-0.2093185,-0.7292924,0.0232347,838.49817,824.7985,789.34064,849.3773,716.4103,-0.24578857421875,0.0614013671875,0.95928955078125,1.83929443359375,-3.81317138671875,0.770111083984375,1.0,1.0,1.0,1.0,1.0,90.0,event
10:26:43.023,0.7891471,0.4925786,0.78756285,0.26207602,0.4172231,-0.56457305,0.13959293,0.005239603,0.3908828,-0.34921786,0.06517319,0.13168605,0.70385516,-0.0856975,-0.34576952,0.417056,0.31322733,-0.2093185,-0.7292924,0.0232347,849.3773,815.9341,779.67035,850.18317,724.4689,-0.24578857421875,0.0614013671875,0.95928955078125,1.83929443359375,-3.81317138671875,0.770111083984375,1.0,1.0,1.0,1.0,1.0,90.0,event
10:26:43.023,0.7891471,0.4925786,0.78756285,0.26207602,0.4172231,-0.56457305,0.13959293,0.005239603,0.3908828,-0.34921786,0.06517319,0.13168605,0.70385516,-0.0856975,-0.34576952,0.417056,0.31322733,-0.2093185,-0.7292924,0.0232347,849.7802,823.5897,782.8938,821.1722,712.381,-0.24578857421875,0.0614013671875,0.95928955078125,1.83929443359375,-3.81317138671875,0.770111083984375,1.0,1.0,1.0,1.0,1.0,90.0,event
10:26:43.024,0.7891471,0.4925786,0.78756285,0.26207602,0.4172231,-0.56457305,0.13959293,0.005239603,0.3908828,-0.34921786,0.06517319,0.13168605,0.70385516,-0.0856975,-0.34576952,0.417056,0.31322733,-0.2093185,-0.7292924,0.0232347,819.5604,828.4249,784.5055,817.5458,729.707,-0.24578857421875,0.0614013671875,0.95928955078125,1.83929443359375,-3.81317138671875,0.770111083984375,1.0,1.0,1.0,1.0,1.0,90.0,event
10:26:43.025,0.7891471,0.4925786,0.78756285,0.26207602,0.4172231,-0.56457305,0.13959293,0.005239603,0.3908828,-0.34921786,0.06517319,0.13168605,0.70385516,-0.0856975,-0.34576952,0.417056,0.31322733,-0.2093185,-0.7292924,0.0232347,809.89014,825.6044,776.8498,828.022,786.52014,-0.24578857421875,0.0614013671875,0.95928955078125,1.83929443359375,-3.81317138671875,0.770111083984375,1.0,1.0,1.0,1.0,1.0,90.0,event
10:26:43.025,0.7891471,0.4925786,0.78756285,0.26207602,0.4172231,-0.56457305,0.13959293,0.005239603,0.3908828,-0.34921786,0.06517319,0.13168605,0.70385516,-0.0856975,-0.34576952,0.417056,0.31322733,-0.2093185,-0.7292924,0.0232347,839.304,808.68134,778.86444,830.4396,960.18317,-0.24578857421875,0.0614013671875,0.95928955078125,1.83929443359375,-3.81317138671875,0.770111083984375,1.0,1.0,1.0,1.0,1.0,90.0,event
10:26:43.026,0.7891471,0.4925786,0.78756285,0.26207602,0.4172231,-0.56457305,0.13959293,0.005239603,0.3908828,-0.34921786,0.06517319,0.13168605,0.70385516,-0.0856975,-0.34576952,0.417056,0.31322733,-0.2093185,-0.7292924,0.0232347,841.7216,817.5458,782.49084,850.58606,975.4945,-0.24578857421875,0.0614013671875,0.95928955078125,1.83929443359375,-3.81317138671875,0.770111083984375,1.0,1.0,1.0,1.0,1.0,90.0,event
10:26:43.027,0.7891471,0.4925786,0.78756285,0.26207602,0.4172231,-0.56457305,0.13959293,0.005239603,0.3908828,-0.34921786,0.06517319,0.13168605,0.70385516,-0.0856975,-0.34576952,0.417056,0.31322733,-0.2093185,-0.7292924,0.0232347,840.5128,834.87177,782.49084,843.3333,745.42126,-0.24578857421875,0.0614013671875,0.95928955078125,1.83929443359375,-3.81317138671875,0.770111083984375,1.0,1.0,1.0,1.0,1.0,90.0,event
10:26:43.027,0.7891471,0.4925786,0.78756285,0.26207602,0.4172231,-0.56457305,0.13959293,0.005239603,0.3908828,-0.34921786,0.06517319,0.13168605,0.70385516,-0.0856975,-0.34576952,0.417056,0.31322733,-0.2093185,-0.7292924,0.0232347,838.49817,824.7985,784.10254,838.0952,676.9231,-0.24578857421875,0.0614013671875,0.95928955078125,1.83929443359375,-3.81317138671875,0.770111083984375,1.0,1.0,1.0,1.0,1.0,90.0,event
10:26:43.028,0.7891471,0.4925786,0.78756285,0.26207602,0.4172231,-0.56457305,0.13959293,0.005239603,0.3908828,-0.34921786,0.06517319,0.13168605,0.70385516,-0.0856975,-0.34576952,0.417056,0.31322733,-0.2093185,-0.7292924,0.0232347,831.6484,809.0842,790.14655,850.989,846.1539,-0.24578857421875,0.0614013671875,0.95928955078125,1.83929443359375,-3.81317138671875,0.770111083984375,1.0,1.0,1.0,1.0,1.0,90.0,event
10:26:43.029,0.7891471,0.4925786,0.78756285,0.26207602,0.4172231,-0.56457305,0.13959293,0.005239603,0.3908828,-0.34921786,0.06517319,0.13168605,0.70385516,-0.0856975,-0.34576952,0.417056,0.31322733,-0.2093185,-0.7292924,0.0232347,844.1392,822.7839,788.5348,841.7216,884.43225,-0.24578857421875,0.0614013671875,0.95928955078125,1.83929443359375,-3.81317138671875,0.770111083984375,1.0,1.0,1.0,1.0,1.0,90.0,event
10:26:43.029,0.7891471,0.4925786,0.71662396,0.26207602,0.4172231,-0.56457305,0.09262106,0.005239603,0.3908828,-0.34921786,0.013392026,0.13168605,0.70385516,-0.0856975,-0.37325215,0.417056,0.31322733,-0.2093185,-0.71998066,0.0232347,841.7216,821.978,788.5348,824.3956,782.8938,-0.24578857421875,0.0614013671875,0.95928955078125,1.83929443359375,-3.81317138671875,0.770111083984375,1.0,1.0,1.0,1.0,1.0,90.0,event
10:26:43.032,,,,,,,,,,,,,,,,,,,,,,,,,,,,,,,,,,,,,,blink
10:26:43.062,0.7891471,0.4925786,0.71662396,0.26207602,0.4172231,-0.56457305,0.09262106,0.005239603,0.3908828,-0.34921786,0.013392026,0.13168605,0.70385516,-0.0856975,-0.37325215,0.417056,0.31322733,-0.2093185,-0.71998066,0.0232347,830.84247,807.8755,790.9524,836.08057,857.4359,-0.23382568359375,0.0625,0.95648193359375,2.160797119140625,-3.60382080078125,-0.538330078125,1.0,1.0,1.0,1.0,1.0,90.0,event
10:26:43.064,0.7891471,0.4925786,0.71662396,0.26207602,0.4172231,-0.56457305,0.09262106,0.005239603,0.3908828,-0.34921786,0.013392026,0.13168605,0.70385516,-0.0856975,-0.37325215,0.417056,0.31322733,-0.2093185,-0.71998066,0.0232347,841.31866,810.293,788.93774,844.5421,978.315,-0.23382568359375,0.0625,0.95648193359375,2.160797119140625,-3.60382080078125,-0.538330078125,1.0,1.0,1.0,1.0,1.0,90.0,event
10:26:43.064,0.7891471,0.4925786,0.71662396,0.26207602,0.4172231,-0.56457305,0.09262106,0.005239603,0.3908828,-0.34921786,0.013392026,0.13168605,0.70385516,-0.0856975,-0.37325215,0.417056,0.31322733,-0.2093185,-0.71998066,0.0232347,847.76556,826.0073,787.326,833.2601,895.31134,-0.23382568359375,0.0625,0.95648193359375,2.160797119140625,-3.60382080078125,-0.538330078125,1.0,1.0,1.0,1.0,1.0,90.0,event
10:26:43.065,0.7891471,0.4925786,0.71662396,0.26207602,0.4172231,-0.56457305,0.09262106,0.005239603,0.3908828,-0.34921786,0.013392026,0.13168605,0.70385516,-0.0856975,-0.37325215,0.417056,0.31322733,-0.2093185,-0.71998066,0.0232347,851.39197,820.7692,786.9231,826.0073,739.7802,-0.23382568359375,0.0625,0.95648193359375,2.160797119140625,-3.60382080078125,-0.538330078125,1.0,1.0,1.0,1.0,1.0,90.0,event
10:26:43.066,0.7891471,0.4925786,0.71662396,0.26207602,0.4172231,-0.56457305,0.09262106,0.005239603,0.3908828,-0.34921786,0.013392026,0.13168605,0.70385516,-0.0856975,-0.37325215,0.417056,0.31322733,-0.2093185,-0.71998066,0.0232347,821.978,807.0696,783.69965,809.89014,895.7143,-0.23382568359375,0.0625,0.95648193359375,2.160797119140625,-3.60382080078125,-0.538330078125,1.0,1.0,1.0,1.0,1.0,90.0,event
10:26:43.066,0.7891471,0.4925786,0.71662396,0.26207602,0.4172231,-0.56457305,0.09262106,0.005239603,0.3908828,-0.34921786,0.013392026,0.13168605,0.70385516,-0.0856975,-0.37325215,0.417056,0.31322733,-0.2093185,-0.71998066,0.0232347,835.6777,805.8608,789.7436,819.5604,763.5531,-0.23382568359375,0.0625,0.95648193359375,2.160797119140625,-3.60382080078125,-0.538330078125,1.0,1.0,1.0,1.0,1.0,90.0,event
10:26:43.067,0.7891471,0.4925786,0.71662396,0.26207602,0.4172231,-0.56457305,0.09262106,0.005239603,0.3908828,-0.34921786,0.013392026,0.13168605,0.70385516,-0.0856975,-0.37325215,0.417056,0.31322733,-0.2093185,-0.71998066,0.0232347,824.7985,816.337,782.49084,818.7546,866.7033,-0.23382568359375,0.0625,0.95648193359375,2.160797119140625,-3.60382080078125,-0.538330078125,1.0,1.0,1.0,1.0,1.0,90.0,event
10:26:43.068,0.7891471,0.4925786,0.71662396,0.26207602,0.4172231,-0.56457305,0.09262106,0.005239603,0.3908828,-0.34921786,0.013392026,0.13168605,0.70385516,-0.0856975,-0.37325215,0.417056,0.31322733,-0.2093185,-0.71998066,0.0232347,834.0659,825.6044,791.3553,826.4103,756.30035,-0.23382568359375,0.0625,0.95648193359375,2.160797119140625,-3.60382080078125,-0.538330078125,1.0,1.0,1.0,1.0,1.0,90.0,event
10:26:43.068,0.7891471,0.4925786,0.71662396,0.26207602,0.4172231,-0.56457305,0.09262106,0.005239603,0.3908828,-0.34921786,0.013392026,0.13168605,0.70385516,-0.0856975,-0.37325215,0.417056,0.31322733,-0.2093185,-0.71998066,0.0232347,849.7802,813.5165,786.9231,824.7985,774.83514,-0.23382568359375,0.0625,0.95648193359375,2.160797119140625,-3.60382080078125,-0.538330078125,1.0,1.0,1.0,1.0,1.0,90.0,event
10:26:43.069,0.7891471,0.4925786,0.71662396,0.26207602,0.4172231,-0.56457305,0.09262106,0.005239603,0.3908828,-0.34921786,0.013392026,0.13168605,0.70385516,-0.0856975,-0.37325215,0.417056,0.31322733,-0.2093185,-0.71998066,0.0232347,844.1392,804.2491,786.1172,830.0366,937.2161,-0.23382568359375,0.0625,0.95648193359375,2.160797119140625,-3.60382080078125,-0.538330078125,1.0,1.0,1.0,1.0,1.0,90.0,event
10:26:43.069,0.7891471,0.4925786,0.71662396,0.26207602,0.4172231,-0.56457305,0.09262106,0.005239603,0.3908828,-0.34921786,0.013392026,0.13168605,0.70385516,-0.0856975,-0.37325215,0.417056,0.31322733,-0.2093185,-0.71998066,0.0232347,820.7692,829.6337,789.7436,824.3956,799.41394,-0.23382568359375,0.0625,0.95648193359375,2.160797119140625,-3.60382080078125,-0.538330078125,1.0,1.0,1.0,1.0,1.0,90.0,event
10:26:43.070,0.7891471,0.4925786,0.71662396,0.26207602,0.4172231,-0.56457305,0.09262106,0.005239603,0.3908828,-0.34921786,0.013392026,0.13168605,0.70385516,-0.0856975,-0.37325215,0.417056,0.31322733,-0.2093185,-0.71998066,0.0232347,816.7399,825.2015,795.78754,826.4103,635.82416,-0.23382568359375,0.0625,0.95648193359375,2.160797119140625,-3.60382080078125,-0.538330078125,1.0,1.0,1.0,1.0,1.0,90.0,event
10:26:43.109,0.7891471,0.4925786,0.71662396,0.26207602,0.4172231,-0.56457305,0.09262106,0.005239603,0.3908828,-0.34921786,0.013392026,0.13168605,0.70385516,-0.0856975,-0.37325215,0.417056,0.31322733,-0.2093185,-0.71998066,0.0232347,828.022,816.7399,796.99634,830.0366,705.9341,-0.23382568359375,0.0625,0.95648193359375,2.160797119140625,-3.60382080078125,-0.538330078125,1.0,1.0,1.0,1.0,1.0,90.0,event
10:26:43.111,0.7891471,0.4925786,0.71662396,0.26207602,0.4172231,-0.56457305,0.09262106,0.005239603,0.3908828,-0.34921786,0.013392026,0.13168605,0.70385516,-0.0856975,-0.37325215,0.417056,0.31322733,-0.2093185,-0.71998066,0.0232347,818.7546,820.7692,795.38464,830.84247,786.1172,-0.23382568359375,0.0625,0.95648193359375,2.160797119140625,-3.60382080078125,-0.538330078125,1.0,1.0,1.0,1.0,1.0,90.0,event
10:26:43.112,0.7891471,0.4925786,0.71662396,0.26207602,0.4172231,-0.56457305,0.09262106,0.005239603,0.3908828,-0.34921786,0.013392026,0.13168605,0.70385516,-0.0856975,-0.37325215,0.417056,0.31322733,-0.2093185,-0.71998066,0.0232347,811.50183,813.5165,796.5934,827.2161,809.0842,-0.23382568359375,0.0625,0.95648193359375,2.160797119140625,-3.60382080078125,-0.538330078125,1.0,1.0,1.0,1.0,1.0,90.0,event
10:26:43.114,0.7891471,0.4925786,0.71662396,0.26207602,0.4172231,-0.56457305,0.09262106,0.005239603,0.3908828,-0.34921786,0.013392026,0.13168605,0.70385516,-0.0856975,-0.37325215,0.417056,0.31322733,-0.2093185,-0.71998066,0.0232347,822.381,809.0842,796.5934,820.7692,807.8755,-0.23382568359375,0.0625,0.95648193359375,2.160797119140625,-3.60382080078125,-0.538330078125,1.0,1.0,1.0,1.0,1.0,90.0,event
10:26:43.116,0.7891471,0.4925786,0.71662396,0.26207602,0.4172231,-0.56457305,0.09262106,0.005239603,0.3908828,-0.34921786,0.013392026,0.13168605,0.70385516,-0.0856975,-0.37325215,0.417056,0.31322733,-0.2093185,-0.71998066,0.0232347,830.0366,812.3077,791.3553,818.3516,797.8022,-0.23382568359375,0.0625,0.95648193359375,2.160797119140625,-3.60382080078125,-0.538330078125,1.0,1.0,1.0,1.0,1.0,90.0,event
10:26:43.118,0.7891471,0.4925786,0.71662396,0.26207602,0.4172231,-0.56457305,0.09262106,0.005239603,0.3908828,-0.34921786,0.013392026,0.13168605,0.70385516,-0.0856975,-0.37325215,0.417056,0.31322733,-0.2093185,-0.71998066,0.0232347,829.6337,821.1722,793.7729,830.0366,918.68134,-0.23382568359375,0.0625,0.95648193359375,2.160797119140625,-3.60382080078125,-0.538330078125,1.0,1.0,1.0,1.0,1.0,90.0,event
10:26:43.119,0.7891471,0.4925786,0.71662396,0.26207602,0.4172231,-0.56457305,0.09262106,0.005239603,0.3908828,-0.34921786,0.013392026,0.13168605,0.70385516,-0.0856975,-0.37325215,0.417056,0.31322733,-0.2093185,-0.71998066,0.0232347,830.0366,821.978,797.8022,826.8132,923.1135,-0.23382568359375,0.0625,0.95648193359375,2.160797119140625,-3.60382080078125,-0.538330078125,1.0,1.0,1.0,1.0,1.0,90.0,event
10:26:43.120,0.7891471,0.4925786,0.71662396,0.26207602,0.4172231,-0.56457305,0.09262106,0.005239603,0.3908828,-0.34921786,0.013392026,0.13168605,0.70385516,-0.0856975,-0.37325215,0.417056,0.31322733,-0.2093185,-0.71998066,0.0232347,822.7839,820.7692,793.36993,805.05493,790.54944,-0.23382568359375,0.0625,0.95648193359375,2.160797119140625,-3.60382080078125,-0.538330078125,1.0,1.0,1.0,1.0,1.0,90.0,event
10:26:43.121,0.7891471,0.4925786,0.71662396,0.26207602,0.4172231,-0.56457305,0.09262106,0.005239603,0.3908828,-0.34921786,0.013392026,0.13168605,0.70385516,-0.0856975,-0.37325215,0.417056,0.31322733,-0.2093185,-0.71998066,0.0232347,819.15753,806.26373,794.17584,811.0989,833.663,-0.23382568359375,0.0625,0.95648193359375,2.160797119140625,-3.60382080078125,-0.538330078125,1.0,1.0,1.0,1.0,1.0,90.0,event
10:26:43.122,0.7891471,0.4925786,0.71662396,0.26207602,0.4172231,-0.56457305,0.09262106,0.005239603,0.3908828,-0.34921786,0.013392026,0.13168605,0.70385516,-0.0856975,-0.37325215,0.417056,0.31322733,-0.2093185,-0.71998066,0.0232347,814.7253,824.7985,798.60803,831.6484,1021.02563,-0.23382568359375,0.0625,0.95648193359375,2.160797119140625,-3.60382080078125,-0.538330078125,1.0,1.0,1.0,1.0,1.0,90.0,event
10:26:43.122,0.7891471,0.4925786,0.71662396,0.26207602,0.4172231,-0.56457305,0.09262106,0.005239603,0.3908828,-0.34921786,0.013392026,0.13168605,0.70385516,-0.0856975,-0.37325215,0.417056,0.31322733,-0.2093185,-0.71998066,0.0232347,821.1722,841.31866,793.7729,821.1722,817.1429,-0.23382568359375,0.0625,0.95648193359375,2.160797119140625,-3.60382080078125,-0.538330078125,1.0,1.0,1.0,1.0,1.0,90.0,event
10:26:43.123,0.7891471,0.4925786,0.71662396,0.26207602,0.4172231,-0.56457305,0.09262106,0.005239603,0.3908828,-0.34921786,0.013392026,0.13168605,0.70385516,-0.0856975,-0.37325215,0.417056,0.31322733,-0.2093185,-0.71998066,0.0232347,833.663,816.337,794.57874,820.7692,695.05493,-0.23382568359375,0.0625,0.95648193359375,2.160797119140625,-3.60382080078125,-0.538330078125,1.0,1.0,1.0,1.0,1.0,90.0,event
10:26:43.150,0.7891471,0.4925786,0.71662396,0.26207602,0.4172231,-0.56457305,0.09262106,0.005239603,0.3908828,-0.34921786,0.013392026,0.13168605,0.70385516,-0.0856975,-0.37325215,0.417056,0.31322733,-0.2093185,-0.71998066,0.0232347,828.4249,812.3077,801.8315,824.7985,799.011,-0.2362060546875,0.0601806640625,0.96319580078125,2.0037841796875,-3.06549072265625,0.710296630859375,1.0,1.0,1.0,1.0,1.0,90.0,event
10:26:43.151,0.7891471,0.4925786,0.70182824,0.26207602,0.4172231,-0.56457305,0.017817896,0.005239603,0.3908828,-0.34921786,-0.059364904,0.13168605,0.70385516,-0.0856975,-0.3912866,0.417056,0.31322733,-0.2093185,-0.7010982,0.0232347,825.2015,820.7692,799.41394,821.1722,763.1502,-0.2362060546875,0.0601806640625,0.96319580078125,2.0037841796875,-3.06549072265625,0.710296630859375,1.0,1.0,1.0,1.0,1.0,90.0,event
10:26:43.155,0.7891471,0.4925786,0.70182824,0.26207602,0.4172231,-0.56457305,0.017817896,0.005239603,0.3908828,-0.34921786,-0.059364904,0.13168605,0.70385516,-0.0856975,-0.3912866,0.417056,0.31322733,-0.2093185,-0.7010982,0.0232347,822.381,817.1429,794.57874,808.68134,692.6374,-0.2362060546875,0.0601806640625,0.96319580078125,2.0037841796875,-3.06549072265625,0.710296630859375,1.0,1.0,1.0,1.0,1.0,90.0,event
10:26:43.156,0.7891471,0.4925786,0.70182824,0.26207602,0.4172231,-0.56457305,0.017817896,0.005239603,0.3908828,-0.34921786,-0.059364904,0.13168605,0.70385516,-0.0856975,-0.3912866,0.417056,0.31322733,-0.2093185,-0.7010982,0.0232347,810.696,811.50183,798.60803,821.978,732.1245,-0.2362060546875,0.0601806640625,0.96319580078125,2.0037841796875,-3.06549072265625,0.710296630859375,1.0,1.0,1.0,1.0,1.0,90.0,event
10:26:43.156,0.7891471,0.4925786,0.70182824,0.26207602,0.4172231,-0.56457305,0.017817896,0.005239603,0.3908828,-0.34921786,-0.059364904,0.13168605,0.70385516,-0.0856975,-0.3912866,0.417056,0.31322733,-0.2093185,-0.7010982,0.0232347,817.5458,814.7253,800.6227,818.7546,832.8571,-0.2362060546875,0.0601806640625,0.96319580078125,2.0037841796875,-3.06549072265625,0.710296630859375,1.0,1.0,1.0,1.0,1.0,90.0,event
10:26:43.157,0.7891471,0.4925786,0.70182824,0.26207602,0.4172231,-0.56457305,0.017817896,0.005239603,0.3908828,-0.34921786,-0.059364904,0.13168605,0.70385516,-0.0856975,-0.3912866,0.417056,0.31322733,-0.2093185,-0.7010982,0.0232347,819.9634,806.6667,798.20514,803.44324,796.5934,-0.2362060546875,0.0601806640625,0.96319580078125,2.0037841796875,-3.06549072265625,0.710296630859375,1.0,1.0,1.0,1.0,1.0,90.0,event
10:26:43.157,0.7891471,0.4925786,0.70182824,0.26207602,0.4172231,-0.56457305,0.017817896,0.005239603,0.3908828,-0.34921786,-0.059364904,0.13168605,0.70385516,-0.0856975,-0.3912866,0.417056,0.31322733,-0.2093185,-0.7010982,0.0232347,832.4542,808.2784,799.011,804.2491,852.1978,-0.2362060546875,0.0601806640625,0.96319580078125,2.0037841796875,-3.06549072265625,0.710296630859375,1.0,1.0,1.0,1.0,1.0,90.0,event
10:26:43.158,0.7891471,0.4925786,0.70182824,0.26207602,0.4172231,-0.56457305,0.017817896,0.005239603,0.3908828,-0.34921786,-0.059364904,0.13168605,0.70385516,-0.0856975,-0.3912866,0.417056,0.31322733,-0.2093185,-0.7010982,0.0232347,814.3223,806.26373,801.8315,805.05493,844.94507,-0.2362060546875,0.0601806640625,0.96319580078125,2.0037841796875,-3.06549072265625,0.710296630859375,1.0,1.0,1.0,1.0,1.0,90.0,event
10:26:43.158,0.7891471,0.4925786,0.70182824,0.26207602,0.4172231,-0.56457305,0.017817896,0.005239603,0.3908828,-0.34921786,-0.059364904,0.13168605,0.70385516,-0.0856975,-0.3912866,0.417056,0.31322733,-0.2093185,-0.7010982,0.0232347,811.50183,803.0403,798.20514,817.1429,1006.1172,-0.2362060546875,0.0601806640625,0.96319580078125,2.0037841796875,-3.06549072265625,0.710296630859375,1.0,1.0,1.0,1.0,1.0,90.0,event
10:26:43.159,0.7891471,0.4925786,0.70182824,0.26207602,0.4172231,-0.56457305,0.017817896,0.005239603,0.3908828,-0.34921786,-0.059364904,0.13168605,0.70385516,-0.0856975,-0.3912866,0.417056,0.31322733,-0.2093185,-0.7010982,0.0232347,814.7253,833.663,796.5934,815.9341,1018.20514,-0.2362060546875,0.0601806640625,0.96319580078125,2.0037841796875,-3.06549072265625,0.710296630859375,1.0,1.0,1.0,1.0,1.0,90.0,event
10:26:43.160,0.7891471,0.4925786,0.70182824,0.26207602,0.4172231,-0.56457305,0.017817896,0.005239603,0.3908828,-0.34921786,-0.059364904,0.13168605,0.70385516,-0.0856975,-0.3912866,0.417056,0.31322733,-0.2093185,-0.7010982,0.0232347,818.3516,819.5604,801.8315,803.0403,824.3956,-0.2362060546875,0.0601806640625,0.96319580078125,2.0037841796875,-3.06549072265625,0.710296630859375,1.0,1.0,1.0,1.0,1.0,90.0,event
10:26:43.160,0.7891471,0.4925786,0.70182824,0.26207602,0.4172231,-0.56457305,0.017817896,0.005239603,0.3908828,-0.34921786,-0.059364904,0.13168605,0.70385516,-0.0856975,-0.3912866,0.417056,0.31322733,-0.2093185,-0.7010982,0.0232347,812.71063,800.2198,803.0403,807.0696,737.3626,-0.2362060546875,0.0601806640625,0.96319580078125,2.0037841796875,-3.06549072265625,0.710296630859375,1.0,1.0,1.0,1.0,1.0,90.0,event
10:26:43.185,0.7891471,0.4925786,0.70182824,0.26207602,0.4172231,-0.56457305,0.017817896,0.005239603,0.3908828,-0.34921786,-0.059364904,0.13168605,0.70385516,-0.0856975,-0.3912866,0.417056,0.31322733,-0.2093185,-0.7010982,0.0232347,800.6227,817.1429,803.0403,806.26373,740.18317,-0.24627685546875,0.05712890625,0.9608154296875,1.786956787109375,-3.357086181640625,0.28411865234375,1.0,1.0,1.0,1.0,1.0,90.0,event
10:26:43.186,0.7891471,0.4925786,0.70182824,0.26207602,0.4172231,-0.56457305,0.017817896,0.005239603,0.3908828,-0.34921786,-0.059364904,0.13168605,0.70385516,-0.0856975,-0.3912866,0.417056,0.31322733,-0.2093185,-0.7010982,0.0232347,800.2198,817.5458,803.8461,782.8938,715.2015,-0.24627685546875,0.05712890625,0.9608154296875,1.786956787109375,-3.357086181640625,0.28411865234375,1.0,1.0,1.0,1.0,1.0,90.0,event
10:26:43.186,0.7891471,0.4925786,0.70182824,0.26207602,0.4172231,-0.56457305,0.017817896,0.005239603,0.3908828,-0.34921786,-0.059364904,0.13168605,0.70385516,-0.0856975,-0.3912866,0.417056,0.31322733,-0.2093185,-0.7010982,0.0232347,803.44324,812.71063,801.4286,790.54944,731.31866,-0.24627685546875,0.05712890625,0.9608154296875,1.786956787109375,-3.357086181640625,0.28411865234375,1.0,1.0,1.0,1.0,1.0,90.0,event
10:26:43.187,0.7891471,0.4925786,0.70182824,0.26207602,0.4172231,-0.56457305,0.017817896,0.005239603,0.3908828,-0.34921786,-0.059364904,0.13168605,0.70385516,-0.0856975,-0.3912866,0.417056,0.31322733,-0.2093185,-0.7010982,0.0232347,812.3077,809.0842,799.81683,809.0842,764.7619,-0.24627685546875,0.05712890625,0.9608154296875,1.786956787109375,-3.357086181640625,0.28411865234375,1.0,1.0,1.0,1.0,1.0,90.0,event
10:26:43.187,0.7891471,0.4925786,0.70182824,0.26207602,0.4172231,-0.56457305,0.017817896,0.005239603,0.3908828,-0.34921786,-0.059364904,0.13168605,0.70385516,-0.0856975,-0.3912866,0.417056,0.31322733,-0.2093185,-0.7010982,0.0232347,803.0403,809.4872,801.02563,810.293,817.9487,-0.24627685546875,0.05712890625,0.9608154296875,1.786956787109375,-3.357086181640625,0.28411865234375,1.0,1.0,1.0,1.0,1.0,90.0,event
10:26:43.187,0.7891471,0.4925786,0.70182824,0.26207602,0.4172231,-0.56457305,0.017817896,0.005239603,0.3908828,-0.34921786,-0.059364904,0.13168605,0.70385516,-0.0856975,-0.3912866,0.417056,0.31322733,-0.2093185,-0.7010982,0.0232347,804.65204,808.2784,801.02563,802.6374,914.2491,-0.24627685546875,0.05712890625,0.9608154296875,1.786956787109375,-3.357086181640625,0.28411865234375,1.0,1.0,1.0,1.0,1.0,90.0,event
10:26:43.188,0.7891471,0.4925786,0.70182824,0.26207602,0.4172231,-0.56457305,0.017817896,0.005239603,0.3908828,-0.34921786,-0.059364904,0.13168605,0.70385516,-0.0856975,-0.3912866,0.417056,0.31322733,-0.2093185,-0.7010982,0.0232347,795.78754,802.23444,803.8461,799.41394,832.8571,-0.24627685546875,0.05712890625,0.9608154296875,1.786956787109375,-3.357086181640625,0.28411865234375,1.0,1.0,1.0,1.0,1.0,90.0,event
10:26:43.188,0.7891471,0.4925786,0.70182824,0.26207602,0.4172231,-0.56457305,0.017817896,0.005239603,0.3908828,-0.34921786,-0.059364904,0.13168605,0.70385516,-0.0856975,-0.3912866,0.417056,0.31322733,-0.2093185,-0.7010982,0.0232347,809.4872,810.696,801.4286,786.9231,844.94507,-0.24627685546875,0.05712890625,0.9608154296875,1.786956787109375,-3.357086181640625,0.28411865234375,1.0,1.0,1.0,1.0,1.0,90.0,event
10:26:43.189,0.7891471,0.4925786,0.70182824,0.26207602,0.4172231,-0.56457305,0.017817896,0.005239603,0.3908828,-0.34921786,-0.059364904,0.13168605,0.70385516,-0.0856975,-0.3912866,0.417056,0.31322733,-0.2093185,-0.7010982,0.0232347,797.8022,815.9341,806.6667,801.4286,977.9121,-0.24627685546875,0.05712890625,0.9608154296875,1.786956787109375,-3.357086181640625,0.28411865234375,1.0,1.0,1.0,1.0,1.0,90.0,event
10:26:43.189,0.7891471,0.4925786,0.70182824,0.26207602,0.4172231,-0.56457305,0.017817896,0.005239603,0.3908828,-0.34921786,-0.059364904,0.13168605,0.70385516,-0.0856975,-0.3912866,0.417056,0.31322733,-0.2093185,-0.7010982,0.0232347,785.7143,820.3663,814.7253,782.49084,792.96704,-0.24627685546875,0.05712890625,0.9608154296875,1.786956787109375,-3.357086181640625,0.28411865234375,1.0,1.0,1.0,1.0,1.0,90.0,event
10:26:43.190,0.7891471,0.4925786,0.70182824,0.26207602,0.4172231,-0.56457305,0.017817896,0.005239603,0.3908828,-0.34921786,-0.059364904,0.13168605,0.70385516,-0.0856975,-0.3912866,0.417056,0.31322733,-0.2093185,-0.7010982,0.0232347,787.72894,813.91943,808.68134,790.54944,741.79486,-0.24627685546875,0.05712890625,0.9608154296875,1.786956787109375,-3.357086181640625,0.28411865234375,1.0,1.0,1.0,1.0,1.0,90.0,event
10:26:43.190,0.7891471,0.4925786,0.70182824,0.26207602,0.4172231,-0.56457305,0.017817896,0.005239603,0.3908828,-0.34921786,-0.059364904,0.13168605,0.70385516,-0.0856975,-0.3912866,0.417056,0.31322733,-0.2093185,-0.7010982,0.0232347,813.91943,808.2784,805.4579,809.4872,828.022,-0.24627685546875,0.05712890625,0.9608154296875,1.786956787109375,-3.357086181640625,0.28411865234375,1.0,1.0,1.0,1.0,1.0,90.0,event
10:26:43.251,0.7891471,0.4925786,0.70182824,0.26207602,0.4172231,-0.56457305,0.017817896,0.005239603,0.3908828,-0.34921786,-0.059364904,0.13168605,0.70385516,-0.0856975,-0.3912866,0.417056,0.31322733,-0.2093185,-0.7010982,0.0232347,819.15753,819.5604,809.89014,797.8022,710.7692,-0.24041748046875,0.0618896484375,0.9576416015625,2.609405517578125,-3.93280029296875,-0.665435791015625,1.0,1.0,1.0,1.0,1.0,90.0,event
10:26:43.252,0.7891471,0.4925786,0.70182824,0.26207602,0.4172231,-0.56457305,0.017817896,0.005239603,0.3908828,-0.34921786,-0.059364904,0.13168605,0.70385516,-0.0856975,-0.3912866,0.417056,0.31322733,-0.2093185,-0.7010982,0.0232347,815.12823,818.3516,810.696,800.6227,635.82416,-0.24041748046875,0.0618896484375,0.9576416015625,2.609405517578125,-3.93280029296875,-0.665435791015625,1.0,1.0,1.0,1.0,1.0,90.0,event
10:26:43.253,0.7891471,0.4925786,0.70182824,0.26207602,0.4172231,-0.56457305,0.017817896,0.005239603,0.3908828,-0.34921786,-0.059364904,0.13168605,0.70385516,-0.0856975,-0.3912866,0.417056,0.31322733,-0.2093185,-0.7010982,0.0232347,785.7143,809.89014,804.65204,794.9817,681.3553,-0.24041748046875,0.0618896484375,0.9576416015625,2.609405517578125,-3.93280029296875,-0.665435791015625,1.0,1.0,1.0,1.0,1.0,90.0,event
10:26:43.253,0.7891471,0.4925786,0.73202556,0.26207602,0.4172231,-0.56457305,-0.06293968,0.005239603,0.3908828,-0.34921786,-0.10326413,0.13168605,0.70385516,-0.0856975,-0.39691588,0.417056,0.31322733,-0.2093185,-0.6720516,0.0232347,783.2967,817.5458,805.4579,778.86444,663.22345,-0.24041748046875,0.0618896484375,0.9576416015625,2.609405517578125,-3.93280029296875,-0.665435791015625,1.0,1.0,1.0,1.0,1.0,90.0,event
10:26:43.258,0.7891471,0.4925786,0.73202556,0.26207602,0.4172231,-0.56457305,-0.06293968,0.005239603,0.3908828,-0.34921786,-0.10326413,0.13168605,0.70385516,-0.0856975,-0.39691588,0.417056,0.31322733,-0.2093185,-0.6720516,0.0232347,801.8315,816.7399,808.68134,790.54944,666.8498,-0.24041748046875,0.0618896484375,0.9576416015625,2.609405517578125,-3.93280029296875,-0.665435791015625,1.0,1.0,1.0,1.0,1.0,90.0,event
10:26:43.259,0.7891471,0.4925786,0.73202556,0.26207602,0.4172231,-0.56457305,-0.06293968,0.005239603,0.3908828,-0.34921786,-0.10326413,0.13168605,0.70385516,-0.0856975,-0.39691588,0.417056,0.31322733,-0.2093185,-0.6720516,0.0232347,807.0696,809.89014,806.26373,795.38464,733.3333,-0.24041748046875,0.0618896484375,0.9576416015625,2.609405517578125,-3.93280029296875,-0.665435791015625,1.0,1.0,1.0,1.0,1.0,90.0,event
10:26:43.260,0.7891471,0.4925786,0.73202556,0.26207602,0.4172231,-0.56457305,-0.06293968,0.005239603,0.3908828,-0.34921786,-0.10326413,0.13168605,0.70385516,-0.0856975,-0.39691588,0.417056,0.31322733,-0.2093185,-0.6720516,0.0232347,776.04395,801.8315,806.26373,791.75824,1058.9011,-0.24041748046875,0.0618896484375,0.9576416015625,2.609405517578125,-3.93280029296875,-0.665435791015625,1.0,1.0,1.0,1.0,1.0,90.0,event
10:26:43.260,0.7891471,0.4925786,0.73202556,0.26207602,0.4172231,-0.56457305,-0.06293968,0.005239603,0.3908828,-0.34921786,-0.10326413,0.13168605,0.70385516,-0.0856975,-0.39691588,0.417056,0.31322733,-0.2093185,-0.6720516,0.0232347,791.75824,808.68134,809.0842,794.9817,820.7692,-0.24041748046875,0.0618896484375,0.9576416015625,2.609405517578125,-3.93280029296875,-0.665435791015625,1.0,1.0,1.0,1.0,1.0,90.0,event
10:26:43.262,0.7891471,0.4925786,0.73202556,0.26207602,0.4172231,-0.56457305,-0.06293968,0.005239603,0.3908828,-0.34921786,-0.10326413,0.13168605,0.70385516,-0.0856975,-0.39691588,0.417056,0.31322733,-0.2093185,-0.6720516,0.0232347,786.52014,821.5751,807.0696,790.14655,923.1135,-0.24041748046875,0.0618896484375,0.9576416015625,2.609405517578125,-3.93280029296875,-0.665435791015625,1.0,1.0,1.0,1.0,1.0,90.0,event
10:26:43.263,0.7891471,0.4925786,0.73202556,0.26207602,0.4172231,-0.56457305,-0.06293968,0.005239603,0.3908828,-0.34921786,-0.10326413,0.13168605,0.70385516,-0.0856975,-0.39691588,0.417056,0.31322733,-0.2093185,-0.6720516,0.0232347,802.6374,820.3663,811.9048,794.17584,682.96704,-0.24041748046875,0.0618896484375,0.9576416015625,2.609405517578125,-3.93280029296875,-0.665435791015625,1.0,1.0,1.0,1.0,1.0,90.0,event
10:26:43.264,0.7891471,0.4925786,0.73202556,0.26207602,0.4172231,-0.56457305,-0.06293968,0.005239603,0.3908828,-0.34921786,-0.10326413,0.13168605,0.70385516,-0.0856975,-0.39691588,0.417056,0.31322733,-0.2093185,-0.6720516,0.0232347,808.68134,805.4579,808.68134,796.5934,738.1685,-0.24041748046875,0.0618896484375,0.9576416015625,2.609405517578125,-3.93280029296875,-0.665435791015625,1.0,1.0,1.0,1.0,1.0,90.0,event
10:26:43.265,0.7891471,0.4925786,0.73202556,0.26207602,0.4172231,-0.56457305,-0.06293968,0.005239603,0.3908828,-0.34921786,-0.10326413,0.13168605,0.70385516,-0.0856975,-0.39691588,0.417056,0.31322733,-0.2093185,-0.6720516,0.0232347,807.47253,813.91943,805.4579,794.57874,743.00366,-0.24041748046875,0.0618896484375,0.9576416015625,2.609405517578125,-3.93280029296875,-0.665435791015625,1.0,1.0,1.0,1.0,1.0,90.0,event
10:26:43.290,0.7891471,0.4925786,0.73202556,0.26207602,0.4172231,-0.56457305,-0.06293968,0.005239603,0.3908828,-0.34921786,-0.10326413,0.13168605,0.70385516,-0.0856975,-0.39691588,0.417056,0.31322733,-0.2093185,-0.6720516,0.0232347,805.4579,808.2784,807.8755,789.34064,709.15753,-0.23443603515625,0.06085205078125,0.95330810546875,2.07855224609375,-4.2169189453125,0.485992431640625,1.0,1.0,1.0,1.0,1.0,90.0,event
10:26:43.291,0.7891471,0.4925786,0.73202556,0.26207602,0.4172231,-0.56457305,-0.06293968,0.005239603,0.3908828,-0.34921786,-0.10326413,0.13168605,0.70385516,-0.0856975,-0.39691588,0.417056,0.31322733,-0.2093185,-0.6720516,0.0232347,796.1905,809.0842,805.8608,776.4469,705.9341,-0.23443603515625,0.06085205078125,0.95330810546875,2.07855224609375,-4.2169189453125,0.485992431640625,1.0,1.0,1.0,1.0,1.0,90.0,event
10:26:43.292,0.7891471,0.4925786,0.73202556,0.26207602,0.4172231,-0.56457305,-0.06293968,0.005239603,0.3908828,-0.34921786,-0.10326413,0.13168605,0.70385516,-0.0856975,-0.39691588,0.417056,0.31322733,-0.2093185,-0.6720516,0.0232347,802.6374,812.3077,801.8315,786.52014,728.49817,-0.23443603515625,0.06085205078125,0.95330810546875,2.07855224609375,-4.2169189453125,0.485992431640625,1.0,1.0,1.0,1.0,1.0,90.0,event
10:26:43.293,0.7891471,0.4925786,0.73202556,0.26207602,0.4172231,-0.56457305,-0.06293968,0.005239603,0.3908828,-0.34921786,-0.10326413,0.13168605,0.70385516,-0.0856975,-0.39691588,0.417056,0.31322733,-0.2093185,-0.6720516,0.0232347,806.6667,817.9487,803.44324,792.96704,802.23444,-0.23443603515625,0.06085205078125,0.95330810546875,2.07855224609375,-4.2169189453125,0.485992431640625,1.0,1.0,1.0,1.0,1.0,90.0,event
10:26:43.293,0.7891471,0.4925786,0.73202556,0.26207602,0.4172231,-0.56457305,-0.06293968,0.005239603,0.3908828,-0.34921786,-0.10326413,0.13168605,0.70385516,-0.0856975,-0.39691588,0.417056,0.31322733,-0.2093185,-0.6720516,0.0232347,811.0989,811.9048,805.8608,796.99634,819.15753,-0.23443603515625,0.06085205078125,0.95330810546875,2.07855224609375,-4.2169189453125,0.485992431640625,1.0,1.0,1.0,1.0,1.0,90.0,event
