TimeStamp,Delta_TP9,Delta_AF7,Delta_AF8,Delta_TP10,Theta_TP9,Theta_AF7,Theta_AF8,Theta_TP10,Alpha_TP9,Alpha_AF7,Alpha_AF8,Alpha_TP10,Beta_TP9,Beta_AF7,Beta_AF8,Beta_TP10,Gamma_TP9,Gamma_AF7,Gamma_AF8,Gamma_TP10,RAW_TP9,RAW_AF7,RAW_AF8,RAW_TP10,AUX_RIGHT,Accelerometer_X,Accelerometer_Y,Accelerometer_Z,Gyro_X,Gyro_Y,Gyro_Z,HeadBandOn,HSI_TP9,HSI_AF7,HSI_AF8,HSI_TP10,Battery,Elements
13:20:44.082,0.0,1.0991961,0.0,0.8663603,0.0,1.2176268,0.0,0.41998434,0.0,0.84995717,0.0,0.49343315,0.0,0.07038775,0.0,0.4576287,0.0,-0.3830379,0.0,0.15759546,753.47986,812.71063,658.7912,780.87915,699.89014,-0.101318359375,0.00067138671875,0.9837646484375,2.67669677734375,-4.149627685546875,1.039276123046875,1.0,2.0,1.0,1.0,2.0,90.0,event
13:20:44.083,0.0,1.0991961,0.0,0.8663603,0.0,1.2176268,0.0,0.41998434,0.0,0.84995717,0.0,0.49343315,0.0,0.07038775,0.0,0.4576287,0.0,-0.3830379,0.0,0.15759546,740.989,809.89014,661.2088,784.5055,792.1612,-0.101318359375,0.00067138671875,0.9837646484375,2.67669677734375,-4.149627685546875,1.039276123046875,1.0,2.0,1.0,1.0,2.0,90.0,event
13:20:44.084,0.0,1.0991961,0.0,0.8663603,0.0,1.2176268,0.0,0.41998434,0.0,0.84995717,0.0,0.49343315,0.0,0.07038775,0.0,0.4576287,0.0,-0.3830379,0.0,0.15759546,860.65936,810.696,718.4249,795.78754,753.47986,-0.101318359375,0.00067138671875,0.9837646484375,2.67669677734375,-4.149627685546875,1.039276123046875,1.0,2.0,1.0,1.0,2.0,90.0,event
13:20:44.085,0.0,1.0991961,0.0,0.8663603,0.0,1.2176268,0.0,0.41998434,0.0,0.84995717,0.0,0.49343315,0.0,0.07038775,0.0,0.4576287,0.0,-0.3830379,0.0,0.15759546,973.8828,816.7399,693.8461,810.696,707.9487,-0.101318359375,0.00067138671875,0.9837646484375,2.67669677734375,-4.149627685546875,1.039276123046875,1.0,2.0,1.0,1.0,2.0,90.0,event
13:20:44.086,0.0,1.0991961,0.0,0.8663603,0.0,1.2176268,0.0,0.41998434,0.0,0.84995717,0.0,0.49343315,0.0,0.07038775,0.0,0.4576287,0.0,-0.3830379,0.0,0.15759546,914.2491,814.7253,604.3956,788.5348,779.67035,-0.101318359375,0.00067138671875,0.9837646484375,2.67669677734375,-4.149627685546875,1.039276123046875,1.0,2.0,1.0,1.0,2.0,90.0,event
13:20:44.087,0.0,1.0991961,0.0,0.8663603,0.0,1.2176268,0.0,0.41998434,0.0,0.84995717,0.0,0.49343315,0.0,0.07038775,0.0,0.4576287,0.0,-0.3830379,0.0,0.15759546,757.9121,811.0989,588.2784,784.90845,981.53845,-0.101318359375,0.00067138671875,0.9837646484375,2.67669677734375,-4.149627685546875,1.039276123046875,1.0,2.0,1.0,1.0,2.0,90.0,event
13:20:44.088,0.0,1.0991961,0.0,0.8663603,0.0,1.2176268,0.0,0.41998434,0.0,0.84995717,0.0,0.49343315,0.0,0.07038775,0.0,0.4576287,0.0,-0.3830379,0.0,0.15759546,753.0769,820.3663,769.59705,790.9524,932.7839,-0.101318359375,0.00067138671875,0.9837646484375,2.67669677734375,-4.149627685546875,1.039276123046875,1.0,2.0,1.0,1.0,2.0,90.0,event
13:20:44.089,0.0,1.0991961,0.0,0.8663603,0.0,1.2176268,0.0,0.41998434,0.0,0.84995717,0.0,0.49343315,0.0,0.07038775,0.0,0.4576287,0.0,-0.3830379,0.0,0.15759546,897.326,824.7985,765.9707,795.38464,736.55676,-0.101318359375,0.00067138671875,0.9837646484375,2.67669677734375,-4.149627685546875,1.039276123046875,1.0,2.0,1.0,1.0,2.0,90.0,event
13:20:44.090,0.0,1.0991961,0.0,0.8663603,0.0,1.2176268,0.0,0.41998434,0.0,0.84995717,0.0,0.49343315,0.0,0.07038775,0.0,0.4576287,0.0,-0.3830379,0.0,0.15759546,1022.6374,819.9634,661.6117,807.47253,778.46155,-0.101318359375,0.00067138671875,0.9837646484375,2.67669677734375,-4.149627685546875,1.039276123046875,1.0,2.0,1.0,1.0,2.0,90.0,event
13:20:44.091,0.0,1.0991961,0.0,0.8663603,0.0,1.2176268,0.0,0.41998434,0.0,0.84995717,0.0,0.49343315,0.0,0.07038775,0.0,0.4576287,0.0,-0.3830379,0.0,0.15759546,974.2857,817.5458,695.8608,794.57874,807.0696,-0.101318359375,0.00067138671875,0.9837646484375,2.67669677734375,-4.149627685546875,1.039276123046875,1.0,2.0,1.0,1.0,2.0,90.0,event
13:20:44.092,0.0,1.0991961,0.0,0.8663603,0.0,1.2176268,0.0,0.41998434,0.0,0.84995717,0.0,0.49343315,0.0,0.07038775,0.0,0.4576287,0.0,-0.3830379,0.0,0.15759546,837.6923,813.91943,712.7839,769.59705,746.63007,-0.101318359375,0.00067138671875,0.9837646484375,2.67669677734375,-4.149627685546875,1.039276123046875,1.0,2.0,1.0,1.0,2.0,90.0,event
13:20:44.160,0.0,1.0991961,0.0,0.8663603,0.0,1.2176268,0.0,0.41998434,0.0,0.84995717,0.0,0.49343315,0.0,0.07038775,0.0,0.4576287,0.0,-0.3830379,0.0,0.15759546,809.89014,819.5604,689.011,764.7619,719.6337,-0.09197998046875,0.00238037109375,0.9833984375,2.5421142578125,-4.299163818359375,0.291595458984375,1.0,2.0,1.0,1.0,2.0,90.0,event
13:20:44.162,0.0,1.0991961,0.0,0.8663603,0.0,1.2176268,0.0,0.41998434,0.0,0.84995717,0.0,0.49343315,0.0,0.07038775,0.0,0.4576287,0.0,-0.3830379,0.0,0.15759546,904.9817,826.0073,688.20514,796.5934,846.55676,-0.09197998046875,0.00238037109375,0.9833984375,2.5421142578125,-4.299163818359375,0.291595458984375,1.0,2.0,1.0,1.0,2.0,90.0,event
13:20:44.163,0.0,1.0991961,0.0,0.8663603,0.0,1.2176268,0.0,0.41998434,0.0,0.84995717,0.0,0.49343315,0.0,0.07038775,0.0,0.4576287,0.0,-0.3830379,0.0,0.15759546,1031.9048,822.381,751.06226,830.0366,895.31134,-0.09197998046875,0.00238037109375,0.9833984375,2.5421142578125,-4.299163818359375,0.291595458984375,1.0,2.0,1.0,1.0,2.0,90.0,event
13:20:44.164,0.0,1.0991961,0.0,0.8663603,0.0,1.2176268,0.0,0.41998434,0.0,0.84995717,0.0,0.49343315,0.0,0.07038775,0.0,0.4576287,0.0,-0.3830379,0.0,0.15759546,1014.9817,813.5165,720.0366,818.7546,793.36993,-0.09197998046875,0.00238037109375,0.9833984375,2.5421142578125,-4.299163818359375,0.291595458984375,1.0,2.0,1.0,1.0,2.0,90.0,event
13:20:44.165,0.0,1.0991961,0.0,0.8663603,0.0,1.2176268,0.0,0.41998434,0.0,0.84995717,0.0,0.49343315,0.0,0.07038775,0.0,0.4576287,0.0,-0.3830379,0.0,0.15759546,870.7326,808.2784,669.67035,786.1172,700.696,-0.09197998046875,0.00238037109375,0.9833984375,2.5421142578125,-4.299163818359375,0.291595458984375,1.0,2.0,1.0,1.0,2.0,90.0,event
13:20:44.166,0.0,1.0991961,0.0,0.8663603,0.0,1.2176268,0.0,0.41998434,0.0,0.84995717,0.0,0.49343315,0.0,0.07038775,0.0,0.4576287,0.0,-0.3830379,0.0,0.15759546,790.14655,808.68134,657.98535,788.1319,838.49817,-0.09197998046875,0.00238037109375,0.9833984375,2.5421142578125,-4.299163818359375,0.291595458984375,1.0,2.0,1.0,1.0,2.0,90.0,event
13:20:44.167,0.0,1.0991961,0.0,0.8663603,0.0,1.2176268,0.0,0.41998434,0.0,0.84995717,0.0,0.49343315,0.0,0.07038775,0.0,0.4576287,0.0,-0.3830379,0.0,0.15759546,867.9121,811.50183,741.79486,797.3993,1003.2967,-0.09197998046875,0.00238037109375,0.9833984375,2.5421142578125,-4.299163818359375,0.291595458984375,1.0,2.0,1.0,1.0,2.0,90.0,event
13:20:44.168,0.0,0.9643302,0.0,0.3455953,0.0,1.029246,0.0,0.41224566,0.0,0.83700156,0.0,0.10656821,0.0,0.02053381,0.0,0.53312856,0.0,-0.300905,0.0,0.42803958,1031.9048,812.3077,776.4469,821.5751,859.0476,-0.09197998046875,0.00238037109375,0.9833984375,2.5421142578125,-4.299163818359375,0.291595458984375,1.0,2.0,1.0,1.0,2.0,90.0,event
13:20:44.173,0.0,0.9643302,0.0,0.3455953,0.0,1.029246,0.0,0.41224566,0.0,0.83700156,0.0,0.10656821,0.0,0.02053381,0.0,0.53312856,0.0,-0.300905,0.0,0.42803958,1049.2307,809.4872,670.07324,815.12823,757.1062,-0.09197998046875,0.00238037109375,0.9833984375,2.5421142578125,-4.299163818359375,0.291595458984375,1.0,2.0,1.0,1.0,2.0,90.0,event
13:20:44.174,0.0,0.9643302,0.0,0.3455953,0.0,1.029246,0.0,0.41224566,0.0,0.83700156,0.0,0.10656821,0.0,0.02053381,0.0,0.53312856,0.0,-0.300905,0.0,0.42803958,898.93774,806.6667,605.2015,782.8938,859.45056,-0.09197998046875,0.00238037109375,0.9833984375,2.5421142578125,-4.299163818359375,0.291595458984375,1.0,2.0,1.0,1.0,2.0,90.0,event
13:20:44.175,0.0,0.9643302,0.0,0.3455953,0.0,1.029246,0.0,0.41224566,0.0,0.83700156,0.0,0.10656821,0.0,0.02053381,0.0,0.53312856,0.0,-0.300905,0.0,0.42803958,821.978,808.2784,697.8755,777.25275,846.1539,-0.09197998046875,0.00238037109375,0.9833984375,2.5421142578125,-4.299163818359375,0.291595458984375,1.0,2.0,1.0,1.0,2.0,90.0,event
13:20:44.176,0.0,0.9643302,0.0,0.3455953,0.0,1.029246,0.0,0.41224566,0.0,0.83700156,0.0,0.10656821,0.0,0.02053381,0.0,0.53312856,0.0,-0.300905,0.0,0.42803958,899.7436,809.4872,740.989,795.78754,681.3553,-0.09197998046875,0.00238037109375,0.9833984375,2.5421142578125,-4.299163818359375,0.291595458984375,1.0,2.0,1.0,1.0,2.0,90.0,event
13:20:44.199,0.0,0.9643302,0.0,0.3455953,0.0,1.029246,0.0,0.41224566,0.0,0.83700156,0.0,0.10656821,0.0,0.02053381,0.0,0.53312856,0.0,-0.300905,0.0,0.42803958,1021.8315,809.4872,680.54944,812.3077,728.0952,-0.09197998046875,0.00238037109375,0.9833984375,2.5421142578125,-4.299163818359375,0.291595458984375,1.0,2.0,1.0,1.0,2.0,90.0,event
13:20:44.200,0.0,0.9643302,0.0,0.3455953,0.0,1.029246,0.0,0.41224566,0.0,0.83700156,0.0,0.10656821,0.0,0.02053381,0.0,0.53312856,0.0,-0.300905,0.0,0.42803958,901.75824,801.8315,669.67035,792.96704,755.89746,-0.09197998046875,0.00238037109375,0.9833984375,2.5421142578125,-4.299163818359375,0.291595458984375,1.0,2.0,1.0,1.0,2.0,90.0,event
13:20:44.200,0.0,0.9643302,0.0,0.3455953,0.0,1.029246,0.0,0.41224566,0.0,0.83700156,0.0,0.10656821,0.0,0.02053381,0.0,0.53312856,0.0,-0.300905,0.0,0.42803958,1039.5604,804.65204,641.06226,811.50183,849.3773,-0.09197998046875,0.00238037109375,0.9833984375,2.5421142578125,-4.299163818359375,0.291595458984375,1.0,2.0,1.0,1.0,2.0,90.0,event
13:20:44.201,0.0,0.9643302,0.0,0.3455953,0.0,1.029246,0.0,0.41224566,0.0,0.83700156,0.0,0.10656821,0.0,0.02053381,0.0,0.53312856,0.0,-0.300905,0.0,0.42803958,813.5165,810.696,689.81683,780.4762,674.5055,-0.09197998046875,0.00238037109375,0.9833984375,2.5421142578125,-4.299163818359375,0.291595458984375,1.0,2.0,1.0,1.0,2.0,90.0,event
13:20:44.201,0.0,0.9643302,0.0,0.3455953,0.0,1.029246,0.0,0.41224566,0.0,0.83700156,0.0,0.10656821,0.0,0.02053381,0.0,0.53312856,0.0,-0.300905,0.0,0.42803958,863.8828,813.91943,649.92676,800.6227,804.65204,-0.09197998046875,0.00238037109375,0.9833984375,2.5421142578125,-4.299163818359375,0.291595458984375,1.0,2.0,1.0,1.0,2.0,90.0,event
13:20:44.202,0.0,0.9643302,0.0,0.3455953,0.0,1.029246,0.0,0.41224566,0.0,0.83700156,0.0,0.10656821,0.0,0.02053381,0.0,0.53312856,0.0,-0.300905,0.0,0.42803958,974.2857,811.50183,614.0659,822.381,1101.2087,-0.09197998046875,0.00238037109375,0.9833984375,2.5421142578125,-4.299163818359375,0.291595458984375,1.0,2.0,1.0,1.0,2.0,90.0,event
13:20:44.203,0.0,0.9643302,0.0,0.3455953,0.0,1.029246,0.0,0.41224566,0.0,0.83700156,0.0,0.10656821,0.0,0.02053381,0.0,0.53312856,0.0,-0.300905,0.0,0.42803958,1040.7693,810.696,713.5897,818.7546,1082.2711,-0.09197998046875,0.00238037109375,0.9833984375,2.5421142578125,-4.299163818359375,0.291595458984375,1.0,2.0,1.0,1.0,2.0,90.0,event
13:20:44.203,0.0,0.9643302,0.0,0.3455953,0.0,1.029246,0.0,0.41224566,0.0,0.83700156,0.0,0.10656821,0.0,0.02053381,0.0,0.53312856,0.0,-0.300905,0.0,0.42803958,936.4103,813.1135,721.6484,795.38464,806.26373,-0.09197998046875,0.00238037109375,0.9833984375,2.5421142578125,-4.299163818359375,0.291595458984375,1.0,2.0,1.0,1.0,2.0,90.0,event
13:20:44.204,0.0,0.9643302,0.0,0.3455953,0.0,1.029246,0.0,0.41224566,0.0,0.83700156,0.0,0.10656821,0.0,0.02053381,0.0,0.53312856,0.0,-0.300905,0.0,0.42803958,814.3223,808.2784,630.58606,788.5348,750.65936,-0.09197998046875,0.00238037109375,0.9833984375,2.5421142578125,-4.299163818359375,0.291595458984375,1.0,2.0,1.0,1.0,2.0,90.0,event
13:20:44.204,0.0,0.9643302,0.0,0.3455953,0.0,1.029246,0.0,0.41224566,0.0,0.83700156,0.0,0.10656821,0.0,0.02053381,0.0,0.53312856,0.0,-0.300905,0.0,0.42803958,838.49817,805.05493,678.1319,801.02563,881.2088,-0.09197998046875,0.00238037109375,0.9833984375,2.5421142578125,-4.299163818359375,0.291595458984375,1.0,2.0,1.0,1.0,2.0,90.0,event
13:20:44.205,0.0,0.9643302,0.0,0.3455953,0.0,1.029246,0.0,0.41224566,0.0,0.83700156,0.0,0.10656821,0.0,0.02053381,0.0,0.53312856,0.0,-0.300905,0.0,0.42803958,982.3443,812.71063,752.674,816.337,835.6777,-0.09197998046875,0.00238037109375,0.9833984375,2.5421142578125,-4.299163818359375,0.291595458984375,1.0,2.0,1.0,1.0,2.0,90.0,event
13:20:44.205,0.0,0.9643302,0.0,0.3455953,0.0,1.029246,0.0,0.41224566,0.0,0.83700156,0.0,0.10656821,0.0,0.02053381,0.0,0.53312856,0.0,-0.300905,0.0,0.42803958,1071.392,814.3223,673.69965,818.3516,774.43225,-0.09197998046875,0.00238037109375,0.9833984375,2.5421142578125,-4.299163818359375,0.291595458984375,1.0,2.0,1.0,1.0,2.0,90.0,event
13:20:44.230,0.0,0.9643302,0.0,0.3455953,0.0,1.029246,0.0,0.41224566,0.0,0.83700156,0.0,0.10656821,0.0,0.02053381,0.0,0.53312856,0.0,-0.300905,0.0,0.42803958,956.9597,806.26373,622.9304,798.20514,767.98535,-0.08843994140625,-0.001220703125,0.987060546875,0.844879150390625,-3.93280029296875,0.396270751953125,1.0,2.0,1.0,1.0,2.0,90.0,event
13:20:44.231,0.0,0.9643302,0.0,0.3455953,0.0,1.029246,0.0,0.41224566,0.0,0.83700156,0.0,0.10656821,0.0,0.02053381,0.0,0.53312856,0.0,-0.300905,0.0,0.42803958,828.022,798.20514,692.23444,792.96704,782.8938,-0.08843994140625,-0.001220703125,0.987060546875,0.844879150390625,-3.93280029296875,0.396270751953125,1.0,2.0,1.0,1.0,2.0,90.0,event
13:20:44.232,0.0,0.9643302,0.0,0.3455953,0.0,1.029246,0.0,0.41224566,0.0,0.83700156,0.0,0.10656821,0.0,0.02053381,0.0,0.53312856,0.0,-0.300905,0.0,0.42803958,848.97437,804.65204,724.87177,793.7729,751.06226,-0.08843994140625,-0.001220703125,0.987060546875,0.844879150390625,-3.93280029296875,0.396270751953125,1.0,2.0,1.0,1.0,2.0,90.0,event
13:20:44.232,0.0,0.9643302,0.0,0.3455953,0.0,1.029246,0.0,0.41224566,0.0,0.83700156,0.0,0.10656821,0.0,0.02053381,0.0,0.53312856,0.0,-0.300905,0.0,0.42803958,968.6447,809.0842,682.5641,814.3223,710.3663,-0.08843994140625,-0.001220703125,0.987060546875,0.844879150390625,-3.93280029296875,0.396270751953125,1.0,2.0,1.0,1.0,2.0,90.0,event
13:20:44.233,0.0,0.9643302,0.0,0.3455953,0.0,1.029246,0.0,0.41224566,0.0,0.83700156,0.0,0.10656821,0.0,0.02053381,0.0,0.53312856,0.0,-0.300905,0.0,0.42803958,1055.2748,803.44324,633.4066,838.49817,780.07324,-0.08843994140625,-0.001220703125,0.987060546875,0.844879150390625,-3.93280029296875,0.396270751953125,1.0,2.0,1.0,1.0,2.0,90.0,event
13:20:44.234,0.0,0.9643302,0.0,0.3455953,0.0,1.029246,0.0,0.41224566,0.0,0.83700156,0.0,0.10656821,0.0,0.02053381,0.0,0.53312856,0.0,-0.300905,0.0,0.42803958,963.4066,803.44324,635.82416,798.20514,866.30035,-0.08843994140625,-0.001220703125,0.987060546875,0.844879150390625,-3.93280029296875,0.396270751953125,1.0,2.0,1.0,1.0,2.0,90.0,event
13:20:44.234,0.0,0.9643302,0.0,0.3455953,0.0,1.029246,0.0,0.41224566,0.0,0.83700156,0.0,0.10656821,0.0,0.02053381,0.0,0.53312856,0.0,-0.300905,0.0,0.42803958,827.619,804.65204,668.46155,767.1795,850.989,-0.08843994140625,-0.001220703125,0.987060546875,0.844879150390625,-3.93280029296875,0.396270751953125,1.0,2.0,1.0,1.0,2.0,90.0,event
13:20:44.235,0.0,0.9643302,0.0,0.3455953,0.0,1.029246,0.0,0.41224566,0.0,0.83700156,0.0,0.10656821,0.0,0.02053381,0.0,0.53312856,0.0,-0.300905,0.0,0.42803958,824.3956,804.2491,681.3553,780.87915,844.1392,-0.08843994140625,-0.001220703125,0.987060546875,0.844879150390625,-3.93280029296875,0.396270751953125,1.0,2.0,1.0,1.0,2.0,90.0,event
13:20:44.235,0.0,0.9643302,0.0,0.3455953,0.0,1.029246,0.0,0.41224566,0.0,0.83700156,0.0,0.10656821,0.0,0.02053381,0.0,0.53312856,0.0,-0.300905,0.0,0.42803958,943.663,805.4579,657.98535,808.2784,894.10254,-0.08843994140625,-0.001220703125,0.987060546875,0.844879150390625,-3.93280029296875,0.396270751953125,1.0,2.0,1.0,1.0,2.0,90.0,event
13:20:44.236,0.0,0.34066612,0.0,0.30968022,0.0,0.3920909,0.0,0.3393173,0.0,-0.5221548,0.0,0.114272185,0.0,-0.048173122,0.0,0.53003013,0.0,-0.22466247,0.0,0.4358265,1062.1245,806.26373,707.5458,824.3956,844.1392,-0.08843994140625,-0.001220703125,0.987060546875,0.844879150390625,-3.93280029296875,0.396270751953125,1.0,1.0,1.0,1.0,1.0,90.0,event
13:20:44.240,0.0,0.34066612,0.0,0.30968022,0.0,0.3920909,0.0,0.3393173,0.0,-0.5221548,0.0,0.114272185,0.0,-0.048173122,0.0,0.53003013,0.0,-0.22466247,0.0,0.4358265,862.674,804.65204,632.6007,781.28204,750.65936,-0.08843994140625,-0.001220703125,0.987060546875,0.844879150390625,-3.93280029296875,0.396270751953125,1.0,1.0,1.0,1.0,1.0,90.0,event
13:20:44.240,0.0,0.34066612,0.0,0.30968022,0.0,0.3920909,0.0,0.3393173,0.0,-0.5221548,0.0,0.114272185,0.0,-0.048173122,0.0,0.53003013,0.0,-0.22466247,0.0,0.4358265,1016.5934,807.8755,692.23444,806.26373,758.71796,-0.08843994140625,-0.001220703125,0.987060546875,0.844879150390625,-3.93280029296875,0.396270751953125,1.0,1.0,1.0,1.0,1.0,90.0,event
13:20:44.296,0.0,0.34066612,0.0,0.30968022,0.0,0.3920909,0.0,0.3393173,0.0,-0.5221548,0.0,0.114272185,0.0,-0.048173122,0.0,0.53003013,0.0,-0.22466247,0.0,0.4358265,817.9487,805.8608,586.26373,788.5348,868.71796,-0.09326171875,-0.0123291015625,0.97833251953125,0.478515625,-3.955230712890625,-0.82244873046875,1.0,1.0,1.0,1.0,1.0,90.0,event
13:20:44.297,0.0,0.34066612,0.0,0.30968022,0.0,0.3920909,0.0,0.3393173,0.0,-0.5221548,0.0,0.114272185,0.0,-0.048173122,0.0,0.53003013,0.0,-0.22466247,0.0,0.4358265,933.9927,811.0989,729.304,819.15753,947.28937,-0.09326171875,-0.0123291015625,0.97833251953125,0.478515625,-3.955230712890625,-0.82244873046875,1.0,1.0,1.0,1.0,1.0,90.0,event
13:20:44.298,0.0,0.34066612,0.0,0.30968022,0.0,0.3920909,0.0,0.3393173,0.0,-0.5221548,0.0,0.114272185,0.0,-0.048173122,0.0,0.53003013,0.0,-0.22466247,0.0,0.4358265,1076.63,813.1135,733.73627,832.0513,742.1978,-0.09326171875,-0.0123291015625,0.97833251953125,0.478515625,-3.955230712890625,-0.82244873046875,1.0,1.0,1.0,1.0,1.0,90.0,event
13:20:44.299,0.0,0.34066612,0.0,0.30968022,0.0,0.3920909,0.0,0.3393173,0.0,-0.5221548,0.0,0.114272185,0.0,-0.048173122,0.0,0.53003013,0.0,-0.22466247,0.0,0.4358265,1026.2638,812.3077,610.4396,807.47253,657.98535,-0.09326171875,-0.0123291015625,0.97833251953125,0.478515625,-3.955230712890625,-0.82244873046875,1.0,1.0,1.0,1.0,1.0,90.0,event
13:20:44.299,0.0,0.34066612,0.0,0.30968022,0.0,0.3920909,0.0,0.3393173,0.0,-0.5221548,0.0,0.114272185,0.0,-0.048173122,0.0,0.53003013,0.0,-0.22466247,0.0,0.4358265,861.06226,811.50183,644.2857,774.83514,775.2381,-0.09326171875,-0.0123291015625,0.97833251953125,0.478515625,-3.955230712890625,-0.82244873046875,1.0,1.0,1.0,1.0,1.0,90.0,event
13:20:44.300,0.0,0.34066612,0.0,0.30968022,0.0,0.3920909,0.0,0.3393173,0.0,-0.5221548,0.0,0.114272185,0.0,-0.048173122,0.0,0.53003013,0.0,-0.22466247,0.0,0.4358265,848.5714,809.89014,666.4469,775.64105,778.86444,-0.09326171875,-0.0123291015625,0.97833251953125,0.478515625,-3.955230712890625,-0.82244873046875,1.0,1.0,1.0,1.0,1.0,90.0,event
13:20:44.302,0.0,0.34066612,0.0,0.30968022,0.0,0.3920909,0.0,0.3393173,0.0,-0.5221548,0.0,0.114272185,0.0,-0.048173122,0.0,0.53003013,0.0,-0.22466247,0.0,0.4358265,970.65936,806.6667,681.3553,799.81683,781.28204,-0.09326171875,-0.0123291015625,0.97833251953125,0.478515625,-3.955230712890625,-0.82244873046875,1.0,1.0,1.0,1.0,1.0,90.0,event
13:20:44.303,0.0,0.34066612,0.0,0.30968022,0.0,0.3920909,0.0,0.3393173,0.0,-0.5221548,0.0,0.114272185,0.0,-0.048173122,0.0,0.53003013,0.0,-0.22466247,0.0,0.4358265,1089.1208,807.8755,653.1502,832.0513,850.58606,-0.09326171875,-0.0123291015625,0.97833251953125,0.478515625,-3.955230712890625,-0.82244873046875,1.0,1.0,1.0,1.0,1.0,90.0,event
13:20:44.304,0.0,0.34066612,0.0,0.30968022,0.0,0.3920909,0.0,0.3393173,0.0,-0.5221548,0.0,0.114272185,0.0,-0.048173122,0.0,0.53003013,0.0,-0.22466247,0.0,0.4358265,932.381,812.71063,704.7253,780.07324,911.02563,-0.09326171875,-0.0123291015625,0.97833251953125,0.478515625,-3.955230712890625,-0.82244873046875,1.0,1.0,1.0,1.0,1.0,90.0,event
13:20:44.304,0.0,0.34066612,0.0,0.30968022,0.0,0.3920909,0.0,0.3393173,0.0,-0.5221548,0.0,0.114272185,0.0,-0.048173122,0.0,0.53003013,0.0,-0.22466247,0.0,0.4358265,1051.6483,812.3077,589.4872,826.0073,1008.93774,-0.09326171875,-0.0123291015625,0.97833251953125,0.478515625,-3.955230712890625,-0.82244873046875,1.0,1.0,1.0,1.0,1.0,90.0,event
13:20:44.305,0.0,0.34066612,0.0,0.30968022,0.0,0.3920909,0.0,0.3393173,0.0,-0.5221548,0.0,0.114272185,0.0,-0.048173122,0.0,0.53003013,0.0,-0.22466247,0.0,0.4358265,892.49084,805.8608,682.5641,777.6557,742.1978,-0.09326171875,-0.0123291015625,0.97833251953125,0.478515625,-3.955230712890625,-0.82244873046875,1.0,1.0,1.0,1.0,1.0,90.0,event
13:20:44.306,0.0,0.34066612,0.0,0.30968022,0.0,0.3920909,0.0,0.3393173,0.0,-0.5221548,0.0,0.114272185,0.0,-0.048173122,0.0,0.53003013,0.0,-0.22466247,0.0,0.4358265,974.2857,805.4579,635.0183,810.696,852.6007,-0.09326171875,-0.0123291015625,0.97833251953125,0.478515625,-3.955230712890625,-0.82244873046875,1.0,1.0,1.0,1.0,1.0,90.0,event
13:20:44.332,0.0,0.34066612,0.0,0.30968022,0.0,0.3920909,0.0,0.3393173,0.0,-0.5221548,0.0,0.114272185,0.0,-0.048173122,0.0,0.53003013,0.0,-0.22466247,0.0,0.4358265,1106.044,807.0696,697.8755,827.2161,964.61536,-0.08648681640625,-0.0098876953125,0.98486328125,2.026214599609375,-3.925323486328125,-1.24114990234375,1.0,1.0,1.0,1.0,1.0,90.0,event
13:20:44.333,0.0,0.34066612,0.0,0.30968022,0.0,0.3920909,0.0,0.3393173,0.0,-0.5221548,0.0,0.114272185,0.0,-0.048173122,0.0,0.53003013,0.0,-0.22466247,0.0,0.4358265,1100.0,805.4579,692.23444,803.0403,817.5458,-0.08648681640625,-0.0098876953125,0.98486328125,2.026214599609375,-3.925323486328125,-1.24114990234375,1.0,1.0,1.0,1.0,1.0,90.0,event
13:20:44.334,0.0,0.34066612,0.0,0.30968022,0.0,0.3920909,0.0,0.3393173,0.0,-0.5221548,0.0,0.114272185,0.0,-0.048173122,0.0,0.53003013,0.0,-0.22466247,0.0,0.4358265,940.0366,806.6667,629.3773,774.43225,720.84247,-0.08648681640625,-0.0098876953125,0.98486328125,2.026214599609375,-3.925323486328125,-1.24114990234375,1.0,1.0,1.0,1.0,1.0,90.0,event
13:20:44.334,0.0,0.34066612,0.0,0.30968022,0.0,0.3920909,0.0,0.3393173,0.0,-0.5221548,0.0,0.114272185,0.0,-0.048173122,0.0,0.53003013,0.0,-0.22466247,0.0,0.4358265,851.39197,806.6667,629.3773,773.22345,778.46155,-0.08648681640625,-0.0098876953125,0.98486328125,2.026214599609375,-3.925323486328125,-1.24114990234375,1.0,1.0,1.0,1.0,1.0,90.0,event
13:20:44.335,0.0,0.34066612,0.0,0.30968022,0.0,0.3920909,0.0,0.3393173,0.0,-0.5221548,0.0,0.114272185,0.0,-0.048173122,0.0,0.53003013,0.0,-0.22466247,0.0,0.4358265,931.978,806.26373,673.69965,806.26373,728.0952,-0.08648681640625,-0.0098876953125,0.98486328125,2.026214599609375,-3.925323486328125,-1.24114990234375,1.0,1.0,1.0,1.0,1.0,90.0,event
13:20:44.336,0.0,0.34066612,0.0,0.30968022,0.0,0.3920909,0.0,0.3393173,0.0,-0.5221548,0.0,0.114272185,0.0,-0.048173122,0.0,0.53003013,0.0,-0.22466247,0.0,0.4358265,1057.2894,802.23444,651.53845,831.2454,767.5824,-0.08648681640625,-0.0098876953125,0.98486328125,2.026214599609375,-3.925323486328125,-1.24114990234375,1.0,1.0,1.0,1.0,1.0,90.0,event
13:20:44.336,0.0,0.34066612,0.0,0.30968022,0.0,0.3920909,0.0,0.3393173,0.0,-0.5221548,0.0,0.114272185,0.0,-0.048173122,0.0,0.53003013,0.0,-0.22466247,0.0,0.4358265,1077.8389,801.4286,628.1685,826.4103,855.82416,-0.08648681640625,-0.0098876953125,0.98486328125,2.026214599609375,-3.925323486328125,-1.24114990234375,1.0,1.0,1.0,1.0,1.0,90.0,event
13:20:44.337,0.0,0.34066612,0.0,0.30968022,0.0,0.3920909,0.0,0.3393173,0.0,-0.5221548,0.0,0.114272185,0.0,-0.048173122,0.0,0.53003013,0.0,-0.22466247,0.0,0.4358265,834.87177,807.0696,662.8205,784.10254,990.80585,-0.08648681640625,-0.0098876953125,0.98486328125,2.026214599609375,-3.925323486328125,-1.24114990234375,1.0,1.0,1.0,1.0,1.0,90.0,event
13:20:44.337,0.0,0.34066612,0.0,0.30968022,0.0,0.3920909,0.0,0.3393173,0.0,-0.5221548,0.0,0.114272185,0.0,-0.048173122,0.0,0.53003013,0.0,-0.22466247,0.0,0.4358265,946.4835,802.23444,577.3993,809.0842,914.2491,-0.08648681640625,-0.0098876953125,0.98486328125,2.026214599609375,-3.925323486328125,-1.24114990234375,1.0,1.0,1.0,1.0,1.0,90.0,event
13:20:44.338,0.0,0.34066612,0.0,0.30968022,0.0,0.3920909,0.0,0.3393173,0.0,-0.5221548,0.0,0.114272185,0.0,-0.048173122,0.0,0.53003013,0.0,-0.22466247,0.0,0.4358265,914.65204,813.91943,747.4359,796.1905,732.9304,-0.08648681640625,-0.0098876953125,0.98486328125,2.026214599609375,-3.925323486328125,-1.24114990234375,1.0,1.0,1.0,1.0,1.0,90.0,event
13:20:44.339,0.0,0.34066612,0.0,0.30968022,0.0,0.3920909,0.0,0.3393173,0.0,-0.5221548,0.0,0.114272185,0.0,-0.048173122,0.0,0.53003013,0.0,-0.22466247,0.0,0.4358265,1055.2748,812.71063,653.95605,831.6484,653.95605,-0.08648681640625,-0.0098876953125,0.98486328125,2.026214599609375,-3.925323486328125,-1.24114990234375,1.0,1.0,1.0,1.0,1.0,90.0,event
13:20:44.339,0.0,0.3392497,0.0,0.28982577,0.0,0.38772407,0.0,0.2811882,0.0,-0.33858564,0.0,0.115905136,0.0,-0.067872025,0.0,0.5345373,0.0,-0.20637324,0.0,0.45108783,1070.989,807.0696,599.9634,832.8571,824.3956,-0.08648681640625,-0.0098876953125,0.98486328125,2.026214599609375,-3.925323486328125,-1.24114990234375,1.0,1.0,1.0,1.0,1.0,90.0,event
13:20:44.376,0.0,0.3392497,0.0,0.28982577,0.0,0.38772407,0.0,0.2811882,0.0,-0.33858564,0.0,0.115905136,0.0,-0.067872025,0.0,0.5345373,0.0,-0.20637324,0.0,0.45108783,964.61536,807.47253,622.52747,803.8461,774.43225,-0.0838623046875,-0.00787353515625,0.979736328125,2.1533203125,-2.8411865234375,-0.411224365234375,1.0,1.0,1.0,1.0,1.0,90.0,event
13:20:44.377,0.0,0.3392497,0.0,0.28982577,0.0,0.38772407,0.0,0.2811882,0.0,-0.33858564,0.0,0.115905136,0.0,-0.067872025,0.0,0.5345373,0.0,-0.20637324,0.0,0.45108783,869.5238,808.2784,627.3626,783.69965,672.49084,-0.0838623046875,-0.00787353515625,0.979736328125,2.1533203125,-2.8411865234375,-0.411224365234375,1.0,1.0,1.0,1.0,1.0,90.0,event
13:20:44.378,0.0,0.3392497,0.0,0.28982577,0.0,0.38772407,0.0,0.2811882,0.0,-0.33858564,0.0,0.115905136,0.0,-0.067872025,0.0,0.5345373,0.0,-0.20637324,0.0,0.45108783,906.1905,804.65204,631.39197,795.78754,768.3883,-0.0838623046875,-0.00787353515625,0.979736328125,2.1533203125,-2.8411865234375,-0.411224365234375,1.0,1.0,1.0,1.0,1.0,90.0,event
13:20:44.378,0.0,0.3392497,0.0,0.28982577,0.0,0.38772407,0.0,0.2811882,0.0,-0.33858564,0.0,0.115905136,0.0,-0.067872025,0.0,0.5345373,0.0,-0.20637324,0.0,0.45108783,1039.1575,805.8608,615.6777,827.619,936.0073,-0.0838623046875,-0.00787353515625,0.979736328125,2.1533203125,-2.8411865234375,-0.411224365234375,1.0,1.0,1.0,1.0,1.0,90.0,event
13:20:44.379,0.0,0.3392497,0.0,0.28982577,0.0,0.38772407,0.0,0.2811882,0.0,-0.33858564,0.0,0.115905136,0.0,-0.067872025,0.0,0.5345373,0.0,-0.20637324,0.0,0.45108783,1110.0732,805.4579,642.674,853.4066,840.5128,-0.0838623046875,-0.00787353515625,0.979736328125,2.1533203125,-2.8411865234375,-0.411224365234375,1.0,1.0,1.0,1.0,1.0,90.0,event
13:20:44.380,0.0,0.3392497,0.0,0.28982577,0.0,0.38772407,0.0,0.2811882,0.0,-0.33858564,0.0,0.115905136,0.0,-0.067872025,0.0,0.5345373,0.0,-0.20637324,0.0,0.45108783,861.4652,813.1135,607.2161,791.3553,891.28204,-0.0838623046875,-0.00787353515625,0.979736328125,2.1533203125,-2.8411865234375,-0.411224365234375,1.0,1.0,1.0,1.0,1.0,90.0,event
13:20:44.380,0.0,0.3392497,0.0,0.28982577,0.0,0.38772407,0.0,0.2811882,0.0,-0.33858564,0.0,0.115905136,0.0,-0.067872025,0.0,0.5345373,0.0,-0.20637324,0.0,0.45108783,977.50916,807.47253,621.31866,810.696,826.4103,-0.0838623046875,-0.00787353515625,0.979736328125,2.1533203125,-2.8411865234375,-0.411224365234375,1.0,1.0,1.0,1.0,1.0,90.0,event
13:20:44.381,0.0,0.3392497,0.0,0.28982577,0.0,0.38772407,0.0,0.2811882,0.0,-0.33858564,0.0,0.115905136,0.0,-0.067872025,0.0,0.5345373,0.0,-0.20637324,0.0,0.45108783,899.7436,817.1429,627.76556,816.7399,995.2381,-0.0838623046875,-0.00787353515625,0.979736328125,2.1533203125,-2.8411865234375,-0.411224365234375,1.0,1.0,1.0,1.0,1.0,90.0,event
13:20:44.381,0.0,0.3392497,0.0,0.28982577,0.0,0.38772407,0.0,0.2811882,0.0,-0.33858564,0.0,0.115905136,0.0,-0.067872025,0.0,0.5345373,0.0,-0.20637324,0.0,0.45108783,1041.5751,825.2015,711.5751,823.1868,904.9817,-0.0838623046875,-0.00787353515625,0.979736328125,2.1533203125,-2.8411865234375,-0.411224365234375,1.0,1.0,1.0,1.0,1.0,90.0,event
13:20:44.382,0.0,0.3392497,0.0,0.28982577,0.0,0.38772407,0.0,0.2811882,0.0,-0.33858564,0.0,0.115905136,0.0,-0.067872025,0.0,0.5345373,0.0,-0.20637324,0.0,0.45108783,1148.7546,826.4103,664.43225,845.34796,730.10986,-0.0838623046875,-0.00787353515625,0.979736328125,2.1533203125,-2.8411865234375,-0.411224365234375,1.0,1.0,1.0,1.0,1.0,90.0,event
13:20:44.382,0.0,0.3392497,0.0,0.28982577,0.0,0.38772407,0.0,0.2811882,0.0,-0.33858564,0.0,0.115905136,0.0,-0.067872025,0.0,0.5345373,0.0,-0.20637324,0.0,0.45108783,1039.1575,816.7399,579.011,811.9048,778.86444,-0.0838623046875,-0.00787353515625,0.979736328125,2.1533203125,-2.8411865234375,-0.411224365234375,1.0,1.0,1.0,1.0,1.0,90.0,event
13:20:44.383,0.0,0.3392497,0.0,0.28982577,0.0,0.38772407,0.0,0.2811882,0.0,-0.33858564,0.0,0.115905136,0.0,-0.067872025,0.0,0.5345373,0.0,-0.20637324,0.0,0.45108783,875.9707,811.0989,655.16486,792.5641,841.7216,-0.0838623046875,-0.00787353515625,0.979736328125,2.1533203125,-2.8411865234375,-0.411224365234375,1.0,1.0,1.0,1.0,1.0,90.0,event
13:20:44.422,0.0,0.3392497,0.0,0.28982577,0.0,0.38772407,0.0,0.2811882,0.0,-0.33858564,0.0,0.115905136,0.0,-0.067872025,0.0,0.5345373,0.0,-0.20637324,0.0,0.45108783,883.22345,811.0989,706.337,808.2784,672.8938,-0.0838623046875,-0.00787353515625,0.979736328125,2.1533203125,-2.8411865234375,-0.411224365234375,1.0,1.0,1.0,1.0,1.0,90.0,event
13:20:44.423,0.0,0.3392497,0.0,0.28982577,0.0,0.38772407,0.0,0.2811882,0.0,-0.33858564,0.0,0.115905136,0.0,-0.067872025,0.0,0.5345373,0.0,-0.20637324,0.0,0.45108783,996.04395,814.7253,662.01465,816.337,646.7033,-0.0838623046875,-0.00787353515625,0.979736328125,2.1533203125,-2.8411865234375,-0.411224365234375,1.0,1.0,1.0,1.0,1.0,90.0,event
13:20:44.424,0.0,0.3392497,0.0,0.28982577,0.0,0.38772407,0.0,0.2811882,0.0,-0.33858564,0.0,0.115905136,0.0,-0.067872025,0.0,0.5345373,0.0,-0.20637324,0.0,0.45108783,1009.7436,806.6667,630.18317,822.7839,797.3993,-0.0838623046875,-0.00787353515625,0.979736328125,2.1533203125,-2.8411865234375,-0.411224365234375,1.0,1.0,1.0,1.0,1.0,90.0,event
13:20:44.424,0.0,0.3392497,0.0,0.28982577,0.0,0.38772407,0.0,0.2811882,0.0,-0.33858564,0.0,0.115905136,0.0,-0.067872025,0.0,0.5345373,0.0,-0.20637324,0.0,0.45108783,1083.4799,809.0842,614.87177,838.49817,764.35895,-0.0838623046875,-0.00787353515625,0.979736328125,2.1533203125,-2.8411865234375,-0.411224365234375,1.0,1.0,1.0,1.0,1.0,90.0,event
13:20:44.425,0.0,0.3392497,0.0,0.28982577,0.0,0.38772407,0.0,0.2811882,0.0,-0.33858564,0.0,0.115905136,0.0,-0.067872025,0.0,0.5345373,0.0,-0.20637324,0.0,0.45108783,857.03296,807.0696,624.5421,801.02563,817.9487,-0.0838623046875,-0.00787353515625,0.979736328125,2.1533203125,-2.8411865234375,-0.411224365234375,1.0,1.0,1.0,1.0,1.0,90.0,event
13:20:44.425,0.0,0.3392497,0.0,0.28982577,0.0,0.38772407,0.0,0.2811882,0.0,-0.33858564,0.0,0.115905136,0.0,-0.067872025,0.0,0.5345373,0.0,-0.20637324,0.0,0.45108783,836.8865,809.4872,648.315,806.6667,817.1429,-0.0838623046875,-0.00787353515625,0.979736328125,2.1533203125,-2.8411865234375,-0.411224365234375,1.0,1.0,1.0,1.0,1.0,90.0,event
13:20:44.426,0.0,0.3392497,0.0,0.28982577,0.0,0.38772407,0.0,0.2811882,0.0,-0.33858564,0.0,0.115905136,0.0,-0.067872025,0.0,0.5345373,0.0,-0.20637324,0.0,0.45108783,944.87177,815.9341,634.21246,822.381,934.7985,-0.0838623046875,-0.00787353515625,0.979736328125,2.1533203125,-2.8411865234375,-0.411224365234375,1.0,1.0,1.0,1.0,1.0,90.0,event
13:20:44.427,0.0,0.3392497,0.0,0.28982577,0.0,0.38772407,0.0,0.2811882,0.0,-0.33858564,0.0,0.115905136,0.0,-0.067872025,0.0,0.5345373,0.0,-0.20637324,0.0,0.45108783,1033.9194,810.293,616.4835,841.31866,1239.011,-0.0838623046875,-0.00787353515625,0.979736328125,2.1533203125,-2.8411865234375,-0.411224365234375,1.0,1.0,1.0,1.0,1.0,90.0,event
13:20:44.427,0.0,0.3392497,0.0,0.28982577,0.0,0.38772407,0.0,0.2811882,0.0,-0.33858564,0.0,0.115905136,0.0,-0.067872025,0.0,0.5345373,0.0,-0.20637324,0.0,0.45108783,1012.1612,816.7399,709.9634,825.2015,943.2601,-0.0838623046875,-0.00787353515625,0.979736328125,2.1533203125,-2.8411865234375,-0.411224365234375,1.0,1.0,1.0,1.0,1.0,90.0,event
13:20:44.428,0.0,0.3392497,0.0,0.28982577,0.0,0.38772407,0.0,0.2811882,0.0,-0.33858564,0.0,0.115905136,0.0,-0.067872025,0.0,0.5345373,0.0,-0.20637324,0.0,0.45108783,888.86444,824.3956,671.685,800.2198,683.7729,-0.0838623046875,-0.00787353515625,0.979736328125,2.1533203125,-2.8411865234375,-0.411224365234375,1.0,1.0,1.0,1.0,1.0,90.0,event
13:20:44.429,0.0,0.3392497,0.0,0.28982577,0.0,0.38772407,0.0,0.2811882,0.0,-0.33858564,0.0,0.115905136,0.0,-0.067872025,0.0,0.5345373,0.0,-0.20637324,0.0,0.45108783,838.49817,814.7253,623.73627,816.337,747.4359,-0.0838623046875,-0.00787353515625,0.979736328125,2.1533203125,-2.8411865234375,-0.411224365234375,1.0,1.0,1.0,1.0,1.0,90.0,event
13:20:44.429,0.0,0.3392497,0.0,0.28982577,0.0,0.38772407,0.0,0.2811882,0.0,-0.33858564,0.0,0.115905136,0.0,-0.067872025,0.0,0.5345373,0.0,-0.20637324,0.0,0.45108783,931.978,814.7253,686.5934,839.707,705.5311,-0.0838623046875,-0.00787353515625,0.979736328125,2.1533203125,-2.8411865234375,-0.411224365234375,1.0,1.0,1.0,1.0,1.0,90.0,event
13:20:44.457,0.0,0.3392497,0.0,0.28982577,0.0,0.38772407,0.0,0.2811882,0.0,-0.33858564,0.0,0.115905136,0.0,-0.067872025,0.0,0.5345373,0.0,-0.20637324,0.0,0.45108783,1059.7069,823.1868,685.78754,833.663,739.3773,-0.0909423828125,-0.0015869140625,0.9842529296875,3.058013916015625,-2.579498291015625,0.919647216796875,1.0,1.0,1.0,1.0,1.0,90.0,event
13:20:44.458,0.0,0.32451218,0.0,0.28517452,0.0,0.35680428,0.0,0.24157079,0.0,-0.16398253,0.0,0.115905136,0.0,-0.08681987,0.0,0.5433198,0.0,-0.20138188,0.0,0.467222,1038.3517,825.2015,613.2601,814.3223,793.7729,-0.0909423828125,-0.0015869140625,0.9842529296875,3.058013916015625,-2.579498291015625,0.919647216796875,1.0,1.0,1.0,1.0,1.0,90.0,event
13:20:44.462,0.0,0.32451218,0.0,0.28517452,0.0,0.35680428,0.0,0.24157079,0.0,-0.16398253,0.0,0.115905136,0.0,-0.08681987,0.0,0.5433198,0.0,-0.20138188,0.0,0.467222,873.1502,822.7839,618.0952,804.2491,823.5897,-0.0909423828125,-0.0015869140625,0.9842529296875,3.058013916015625,-2.579498291015625,0.919647216796875,1.0,1.0,1.0,1.0,1.0,90.0,event
13:20:44.463,0.0,0.32451218,0.0,0.28517452,0.0,0.35680428,0.0,0.24157079,0.0,-0.16398253,0.0,0.115905136,0.0,-0.08681987,0.0,0.5433198,0.0,-0.20138188,0.0,0.467222,819.9634,817.5458,694.2491,804.2491,770.40295,-0.0909423828125,-0.0015869140625,0.9842529296875,3.058013916015625,-2.579498291015625,0.919647216796875,1.0,1.0,1.0,1.0,1.0,90.0,event
13:20:44.464,0.0,0.32451218,0.0,0.28517452,0.0,0.35680428,0.0,0.24157079,0.0,-0.16398253,0.0,0.115905136,0.0,-0.08681987,0.0,0.5433198,0.0,-0.20138188,0.0,0.467222,927.9487,815.5311,693.8461,822.7839,729.707,-0.0909423828125,-0.0015869140625,0.9842529296875,3.058013916015625,-2.579498291015625,0.919647216796875,1.0,1.0,1.0,1.0,1.0,90.0,event
13:20:44.465,0.0,0.32451218,0.0,0.28517452,0.0,0.35680428,0.0,0.24157079,0.0,-0.16398253,0.0,0.115905136,0.0,-0.08681987,0.0,0.5433198,0.0,-0.20138188,0.0,0.467222,1048.4249,816.337,611.2454,842.52747,834.0659,-0.0909423828125,-0.0015869140625,0.9842529296875,3.058013916015625,-2.579498291015625,0.919647216796875,1.0,1.0,1.0,1.0,1.0,90.0,event
13:20:44.466,0.0,0.32451218,0.0,0.28517452,0.0,0.35680428,0.0,0.24157079,0.0,-0.16398253,0.0,0.115905136,0.0,-0.08681987,0.0,0.5433198,0.0,-0.20138188,0.0,0.467222,1014.57874,819.15753,562.0879,827.2161,1083.0769,-0.0909423828125,-0.0015869140625,0.9842529296875,3.058013916015625,-2.579498291015625,0.919647216796875,1.0,1.0,1.0,1.0,1.0,90.0,event
13:20:44.467,0.0,0.32451218,0.0,0.28517452,0.0,0.35680428,0.0,0.24157079,0.0,-0.16398253,0.0,0.115905136,0.0,-0.08681987,0.0,0.5433198,0.0,-0.20138188,0.0,0.467222,865.4945,819.15753,673.2967,807.0696,1004.10254,-0.0909423828125,-0.0015869140625,0.9842529296875,3.058013916015625,-2.579498291015625,0.919647216796875,1.0,1.0,1.0,1.0,1.0,90.0,event
13:20:44.468,0.0,0.32451218,0.0,0.28517452,0.0,0.35680428,0.0,0.24157079,0.0,-0.16398253,0.0,0.115905136,0.0,-0.08681987,0.0,0.5433198,0.0,-0.20138188,0.0,0.467222,805.05493,815.9341,714.3956,783.69965,752.674,-0.0909423828125,-0.0015869140625,0.9842529296875,3.058013916015625,-2.579498291015625,0.919647216796875,1.0,1.0,1.0,1.0,1.0,90.0,event
13:20:44.468,0.0,0.32451218,0.0,0.28517452,0.0,0.35680428,0.0,0.24157079,0.0,-0.16398253,0.0,0.115905136,0.0,-0.08681987,0.0,0.5433198,0.0,-0.20138188,0.0,0.467222,879.19415,817.1429,648.315,798.20514,722.4542,-0.0909423828125,-0.0015869140625,0.9842529296875,3.058013916015625,-2.579498291015625,0.919647216796875,1.0,1.0,1.0,1.0,1.0,90.0,event
13:20:44.469,0.0,0.32451218,0.0,0.28517452,0.0,0.35680428,0.0,0.24157079,0.0,-0.16398253,0.0,0.115905136,0.0,-0.08681987,0.0,0.5433198,0.0,-0.20138188,0.0,0.467222,985.56775,813.91943,643.0769,837.28937,865.89746,-0.0909423828125,-0.0015869140625,0.9842529296875,3.058013916015625,-2.579498291015625,0.919647216796875,1.0,1.0,1.0,1.0,1.0,90.0,event
13:20:44.470,0.0,0.32451218,0.0,0.28517452,0.0,0.35680428,0.0,0.24157079,0.0,-0.16398253,0.0,0.115905136,0.0,-0.08681987,0.0,0.5433198,0.0,-0.20138188,0.0,0.467222,990.0,819.5604,703.5165,821.978,786.9231,-0.0909423828125,-0.0015869140625,0.9842529296875,3.058013916015625,-2.579498291015625,0.919647216796875,1.0,1.0,1.0,1.0,1.0,90.0,event
13:20:44.510,0.0,0.32451218,0.0,0.28517452,0.0,0.35680428,0.0,0.24157079,0.0,-0.16398253,0.0,0.115905136,0.0,-0.08681987,0.0,0.5433198,0.0,-0.20138188,0.0,0.467222,859.0476,819.9634,651.13556,785.31134,678.5348,-0.08978271484375,0.0037841796875,0.9814453125,3.013153076171875,-2.8411865234375,2.086029052734375,1.0,1.0,1.0,1.0,1.0,90.0,event
13:20:44.512,0.0,0.32451218,0.0,0.28517452,0.0,0.35680428,0.0,0.24157079,0.0,-0.16398253,0.0,0.115905136,0.0,-0.08681987,0.0,0.5433198,0.0,-0.20138188,0.0,0.467222,783.69965,814.3223,644.68866,789.7436,703.91943,-0.08978271484375,0.0037841796875,0.9814453125,3.013153076171875,-2.8411865234375,2.086029052734375,1.0,1.0,1.0,1.0,1.0,90.0,event
13:20:44.512,0.0,0.32451218,0.0,0.28517452,0.0,0.35680428,0.0,0.24157079,0.0,-0.16398253,0.0,0.115905136,0.0,-0.08681987,0.0,0.5433198,0.0,-0.20138188,0.0,0.467222,853.4066,815.9341,699.89014,803.44324,738.5714,-0.08978271484375,0.0037841796875,0.9814453125,3.013153076171875,-2.8411865234375,2.086029052734375,1.0,1.0,1.0,1.0,1.0,90.0,event
13:20:44.513,0.0,0.32451218,0.0,0.28517452,0.0,0.35680428,0.0,0.24157079,0.0,-0.16398253,0.0,0.115905136,0.0,-0.08681987,0.0,0.5433198,0.0,-0.20138188,0.0,0.467222,999.67035,814.3223,696.6667,828.8278,718.022,-0.08978271484375,0.0037841796875,0.9814453125,3.013153076171875,-2.8411865234375,2.086029052734375,1.0,1.0,1.0,1.0,1.0,90.0,event
13:20:44.514,0.0,0.32451218,0.0,0.28517452,0.0,0.35680428,0.0,0.24157079,0.0,-0.16398253,0.0,0.115905136,0.0,-0.08681987,0.0,0.5433198,0.0,-0.20138188,0.0,0.467222,1046.8132,813.5165,650.32965,828.022,665.2381,-0.08978271484375,0.0037841796875,0.9814453125,3.013153076171875,-2.8411865234375,2.086029052734375,1.0,1.0,1.0,1.0,1.0,90.0,event
13:20:44.515,0.0,0.32451218,0.0,0.28517452,0.0,0.35680428,0.0,0.24157079,0.0,-0.16398253,0.0,0.115905136,0.0,-0.08681987,0.0,0.5433198,0.0,-0.20138188,0.0,0.467222,913.44324,811.50183,636.63007,809.0842,790.14655,-0.08978271484375,0.0037841796875,0.9814453125,3.013153076171875,-2.8411865234375,2.086029052734375,1.0,1.0,1.0,1.0,1.0,90.0,event
13:20:44.515,0.0,0.32451218,0.0,0.28517452,0.0,0.35680428,0.0,0.24157079,0.0,-0.16398253,0.0,0.115905136,0.0,-0.08681987,0.0,0.5433198,0.0,-0.20138188,0.0,0.467222,830.84247,810.293,689.011,822.381,913.8461,-0.08978271484375,0.0037841796875,0.9814453125,3.013153076171875,-2.8411865234375,2.086029052734375,1.0,1.0,1.0,1.0,1.0,90.0,event
13:20:44.516,0.0,0.32451218,0.0,0.28517452,0.0,0.35680428,0.0,0.24157079,0.0,-0.16398253,0.0,0.115905136,0.0,-0.08681987,0.0,0.5433198,0.0,-0.20138188,0.0,0.467222,914.2491,803.8461,729.304,813.5165,814.7253,-0.08978271484375,0.0037841796875,0.9814453125,3.013153076171875,-2.8411865234375,2.086029052734375,1.0,1.0,1.0,1.0,1.0,90.0,event
13:20:44.517,0.0,0.32451218,0.0,0.28517452,0.0,0.35680428,0.0,0.24157079,0.0,-0.16398253,0.0,0.115905136,0.0,-0.08681987,0.0,0.5433198,0.0,-0.20138188,0.0,0.467222,1062.1245,805.8608,711.1722,825.6044,711.978,-0.08978271484375,0.0037841796875,0.9814453125,3.013153076171875,-2.8411865234375,2.086029052734375,1.0,1.0,1.0,1.0,1.0,90.0,event
13:20:44.518,0.0,0.32451218,0.0,0.28517452,0.0,0.35680428,0.0,0.24157079,0.0,-0.16398253,0.0,0.115905136,0.0,-0.08681987,0.0,0.5433198,0.0,-0.20138188,0.0,0.467222,1118.1318,815.9341,621.31866,842.52747,813.91943,-0.08978271484375,0.0037841796875,0.9814453125,3.013153076171875,-2.8411865234375,2.086029052734375,1.0,1.0,1.0,1.0,1.0,90.0,event
13:20:44.518,0.0,0.32451218,0.0,0.28517452,0.0,0.35680428,0.0,0.24157079,0.0,-0.16398253,0.0,0.115905136,0.0,-0.08681987,0.0,0.5433198,0.0,-0.20138188,0.0,0.467222,1002.8938,814.3223,658.7912,802.6374,851.79486,-0.08978271484375,0.0037841796875,0.9814453125,3.013153076171875,-2.8411865234375,2.086029052734375,1.0,1.0,1.0,1.0,1.0,90.0,event
13:20:44.519,0.0,0.32451218,0.0,0.28517452,0.0,0.35680428,0.0,0.24157079,0.0,-0.16398253,0.0,0.115905136,0.0,-0.08681987,0.0,0.5433198,0.0,-0.20138188,0.0,0.467222,914.65204,812.71063,713.5897,785.31134,724.4689,-0.08978271484375,0.0037841796875,0.9814453125,3.013153076171875,-2.8411865234375,2.086029052734375,1.0,1.0,1.0,1.0,1.0,90.0,event
13:20:44.608,0.0,0.32451218,0.0,0.28517452,0.0,0.35680428,0.0,0.24157079,0.0,-0.16398253,0.0,0.115905136,0.0,-0.08681987,0.0,0.5433198,0.0,-0.20138188,0.0,0.467222,965.82416,813.1135,710.7692,797.8022,670.07324,-0.09637451171875,0.00177001953125,0.98590087890625,1.6448974609375,-2.699127197265625,2.03369140625,1.0,1.0,1.0,1.0,1.0,90.0,event
13:20:44.609,0.0,0.32451218,0.0,0.28517452,0.0,0.35680428,0.0,0.24157079,0.0,-0.16398253,0.0,0.115905136,0.0,-0.08681987,0.0,0.5433198,0.0,-0.20138188,0.0,0.467222,1081.0623,813.91943,641.06226,828.4249,826.8132,-0.09637451171875,0.00177001953125,0.98590087890625,1.6448974609375,-2.699127197265625,2.03369140625,1.0,1.0,1.0,1.0,1.0,90.0,event
13:20:44.610,0.0,0.32451218,0.0,0.28517452,0.0,0.35680428,0.0,0.24157079,0.0,-0.16398253,0.0,0.115905136,0.0,-0.08681987,0.0,0.5433198,0.0,-0.20138188,0.0,0.467222,1160.4396,811.50183,699.0842,834.4689,840.10986,-0.09637451171875,0.00177001953125,0.98590087890625,1.6448974609375,-2.699127197265625,2.03369140625,1.0,1.0,1.0,1.0,1.0,90.0,event
13:20:44.611,0.0,0.30973786,0.0,0.32455194,0.0,0.3137942,0.0,0.21915828,0.0,-0.04549481,0.0,0.115905136,0.0,-0.10033634,0.0,0.54996073,0.0,-0.20975082,0.0,0.47450563,1061.3187,809.4872,703.1135,802.6374,694.2491,-0.09637451171875,0.00177001953125,0.98590087890625,1.6448974609375,-2.699127197265625,2.03369140625,1.0,1.0,1.0,1.0,1.0,90.0,event
13:20:44.615,0.0,0.30973786,0.0,0.32455194,0.0,0.3137942,0.0,0.21915828,0.0,-0.04549481,0.0,0.115905136,0.0,-0.10033634,0.0,0.54996073,0.0,-0.20975082,0.0,0.47450563,932.7839,809.89014,653.95605,787.72894,653.95605,-0.09637451171875,0.00177001953125,0.98590087890625,1.6448974609375,-2.699127197265625,2.03369140625,1.0,1.0,1.0,1.0,1.0,90.0,event
13:20:44.616,0.0,0.30973786,0.0,0.32455194,0.0,0.3137942,0.0,0.21915828,0.0,-0.04549481,0.0,0.115905136,0.0,-0.10033634,0.0,0.54996073,0.0,-0.20975082,0.0,0.47450563,951.7216,811.50183,616.08057,798.20514,962.6007,-0.09637451171875,0.00177001953125,0.98590087890625,1.6448974609375,-2.699127197265625,2.03369140625,1.0,1.0,1.0,1.0,1.0,90.0,event
13:20:44.617,0.0,0.30973786,0.0,0.32455194,0.0,0.3137942,0.0,0.21915828,0.0,-0.04549481,0.0,0.115905136,0.0,-0.10033634,0.0,0.54996073,0.0,-0.20975082,0.0,0.47450563,1078.2417,810.293,729.304,825.6044,994.0293,-0.09637451171875,0.00177001953125,0.98590087890625,1.6448974609375,-2.699127197265625,2.03369140625,1.0,1.0,1.0,1.0,1.0,90.0,event
13:20:44.617,0.0,0.30973786,0.0,0.32455194,0.0,0.3137942,0.0,0.21915828,0.0,-0.04549481,0.0,0.115905136,0.0,-0.10033634,0.0,0.54996073,0.0,-0.20975082,0.0,0.47450563,1185.4213,810.293,765.9707,837.28937,771.2088,-0.09637451171875,0.00177001953125,0.98590087890625,1.6448974609375,-2.699127197265625,2.03369140625,1.0,1.0,1.0,1.0,1.0,90.0,event
13:20:44.618,0.0,0.30973786,0.0,0.32455194,0.0,0.3137942,0.0,0.21915828,0.0,-0.04549481,0.0,0.115905136,0.0,-0.10033634,0.0,0.54996073,0.0,-0.20975082,0.0,0.47450563,1094.359,811.0989,618.0952,830.84247,767.5824,-0.09637451171875,0.00177001953125,0.98590087890625,1.6448974609375,-2.699127197265625,2.03369140625,1.0,1.0,1.0,1.0,1.0,90.0,event
13:20:44.619,0.0,0.30973786,0.0,0.32455194,0.0,0.3137942,0.0,0.21915828,0.0,-0.04549481,0.0,0.115905136,0.0,-0.10033634,0.0,0.54996073,0.0,-0.20975082,0.0,0.47450563,932.7839,808.68134,629.7802,803.8461,871.13556,-0.09637451171875,0.00177001953125,0.98590087890625,1.6448974609375,-2.699127197265625,2.03369140625,1.0,1.0,1.0,1.0,1.0,90.0,event
13:20:44.620,0.0,0.30973786,0.0,0.32455194,0.0,0.3137942,0.0,0.21915828,0.0,-0.04549481,0.0,0.115905136,0.0,-0.10033634,0.0,0.54996073,0.0,-0.20975082,0.0,0.47450563,952.1245,813.1135,764.35895,786.52014,742.1978,-0.09637451171875,0.00177001953125,0.98590087890625,1.6448974609375,-2.699127197265625,2.03369140625,1.0,1.0,1.0,1.0,1.0,90.0,event
13:20:44.620,0.0,0.30973786,0.0,0.32455194,0.0,0.3137942,0.0,0.21915828,0.0,-0.04549481,0.0,0.115905136,0.0,-0.10033634,0.0,0.54996073,0.0,-0.20975082,0.0,0.47450563,1083.0769,813.1135,726.8865,813.1135,654.35895,-0.09637451171875,0.00177001953125,0.98590087890625,1.6448974609375,-2.699127197265625,2.03369140625,1.0,1.0,1.0,1.0,1.0,90.0,event
13:20:44.621,0.0,0.30973786,0.0,0.32455194,0.0,0.3137942,0.0,0.21915828,0.0,-0.04549481,0.0,0.115905136,0.0,-0.10033634,0.0,0.54996073,0.0,-0.20975082,0.0,0.47450563,1166.8865,814.3223,671.685,834.4689,713.9927,-0.09637451171875,0.00177001953125,0.98590087890625,1.6448974609375,-2.699127197265625,2.03369140625,1.0,1.0,1.0,1.0,1.0,90.0,event
13:20:44.622,0.0,0.30973786,0.0,0.32455194,0.0,0.3137942,0.0,0.21915828,0.0,-0.04549481,0.0,0.115905136,0.0,-0.10033634,0.0,0.54996073,0.0,-0.20975082,0.0,0.47450563,1098.7913,814.3223,682.5641,817.1429,799.011,-0.09637451171875,0.00177001953125,0.98590087890625,1.6448974609375,-2.699127197265625,2.03369140625,1.0,1.0,1.0,1.0,1.0,90.0,event
13:20:44.622,0.0,0.30973786,0.0,0.32455194,0.0,0.3137942,0.0,0.21915828,0.0,-0.04549481,0.0,0.115905136,0.0,-0.10033634,0.0,0.54996073,0.0,-0.20975082,0.0,0.47450563,965.42126,809.89014,687.8022,786.52014,833.2601,-0.09637451171875,0.00177001953125,0.98590087890625,1.6448974609375,-2.699127197265625,2.03369140625,1.0,1.0,1.0,1.0,1.0,90.0,event
13:20:44.623,0.0,0.30973786,0.0,0.32455194,0.0,0.3137942,0.0,0.21915828,0.0,-0.04549481,0.0,0.115905136,0.0,-0.10033634,0.0,0.54996073,0.0,-0.20975082,0.0,0.47450563,926.7399,812.3077,727.6923,786.1172,731.31866,-0.09637451171875,0.00177001953125,0.98590087890625,1.6448974609375,-2.699127197265625,2.03369140625,1.0,1.0,1.0,1.0,1.0,90.0,event
13:20:44.624,0.0,0.30973786,0.0,0.32455194,0.0,0.3137942,0.0,0.21915828,0.0,-0.04549481,0.0,0.115905136,0.0,-0.10033634,0.0,0.54996073,0.0,-0.20975082,0.0,0.47450563,1024.652,811.50183,694.65204,816.337,756.7033,-0.09637451171875,0.00177001953125,0.98590087890625,1.6448974609375,-2.699127197265625,2.03369140625,1.0,1.0,1.0,1.0,1.0,90.0,event
13:20:44.624,0.0,0.30973786,0.0,0.32455194,0.0,0.3137942,0.0,0.21915828,0.0,-0.04549481,0.0,0.115905136,0.0,-0.10033634,0.0,0.54996073,0.0,-0.20975082,0.0,0.47450563,1131.0256,806.6667,694.2491,834.4689,882.4176,-0.09637451171875,0.00177001953125,0.98590087890625,1.6448974609375,-2.699127197265625,2.03369140625,1.0,1.0,1.0,1.0,1.0,90.0,event
13:20:44.625,0.0,0.30973786,0.0,0.32455194,0.0,0.3137942,0.0,0.21915828,0.0,-0.04549481,0.0,0.115905136,0.0,-0.10033634,0.0,0.54996073,0.0,-0.20975082,0.0,0.47450563,1098.7913,811.9048,708.3516,817.9487,846.55676,-0.09637451171875,0.00177001953125,0.98590087890625,1.6448974609375,-2.699127197265625,2.03369140625,1.0,1.0,1.0,1.0,1.0,90.0,event
13:20:44.626,0.0,0.30973786,0.0,0.32455194,0.0,0.3137942,0.0,0.21915828,0.0,-0.04549481,0.0,0.115905136,0.0,-0.10033634,0.0,0.54996073,0.0,-0.20975082,0.0,0.47450563,888.86444,803.0403,673.2967,786.9231,834.0659,-0.09637451171875,0.00177001953125,0.98590087890625,1.6448974609375,-2.699127197265625,2.03369140625,1.0,1.0,1.0,1.0,1.0,90.0,event
13:20:44.626,0.0,0.30973786,0.0,0.32455194,0.0,0.3137942,0.0,0.21915828,0.0,-0.04549481,0.0,0.115905136,0.0,-0.10033634,0.0,0.54996073,0.0,-0.20975082,0.0,0.47450563,959.3773,809.4872,704.3223,797.8022,763.5531,-0.09637451171875,0.00177001953125,0.98590087890625,1.6448974609375,-2.699127197265625,2.03369140625,1.0,1.0,1.0,1.0,1.0,90.0,event
13:20:44.627,0.0,0.30973786,0.0,0.32455194,0.0,0.3137942,0.0,0.21915828,0.0,-0.04549481,0.0,0.115905136,0.0,-0.10033634,0.0,0.54996073,0.0,-0.20975082,0.0,0.47450563,986.77655,808.2784,728.0952,809.89014,858.6447,-0.09637451171875,0.00177001953125,0.98590087890625,1.6448974609375,-2.699127197265625,2.03369140625,1.0,1.0,1.0,1.0,1.0,90.0,event
13:20:44.627,0.0,0.30973786,0.0,0.32455194,0.0,0.3137942,0.0,0.21915828,0.0,-0.04549481,0.0,0.115905136,0.0,-0.10033634,0.0,0.54996073,0.0,-0.20975082,0.0,0.47450563,1113.2968,805.8608,742.6007,821.1722,763.95605,-0.09637451171875,0.00177001953125,0.98590087890625,1.6448974609375,-2.699127197265625,2.03369140625,1.0,1.0,1.0,1.0,1.0,90.0,event
13:20:44.628,0.0,0.30973786,0.0,0.32455194,0.0,0.3137942,0.0,0.21915828,0.0,-0.04549481,0.0,0.115905136,0.0,-0.10033634,0.0,0.54996073,0.0,-0.20975082,0.0,0.47450563,1072.1978,805.05493,657.5824,806.6667,754.2857,-0.09637451171875,0.00177001953125,0.98590087890625,1.6448974609375,-2.699127197265625,2.03369140625,1.0,1.0,1.0,1.0,1.0,90.0,event
13:20:44.660,0.0,0.30973786,0.0,0.32455194,0.0,0.3137942,0.0,0.21915828,0.0,-0.04549481,0.0,0.115905136,0.0,-0.10033634,0.0,0.54996073,0.0,-0.20975082,0.0,0.47450563,905.78754,809.0842,606.4103,790.9524,870.7326,-0.09857177734375,-0.00927734375,0.98272705078125,1.293487548828125,-2.833709716796875,-0.40374755859375,1.0,1.0,1.0,1.0,1.0,90.0,event
13:20:44.661,0.0,0.30973786,0.0,0.32455194,0.0,0.3137942,0.0,0.21915828,0.0,-0.04549481,0.0,0.115905136,0.0,-0.10033634,0.0,0.54996073,0.0,-0.20975082,0.0,0.47450563,835.2747,812.71063,764.35895,787.72894,836.8865,-0.09857177734375,-0.00927734375,0.98272705078125,1.293487548828125,-2.833709716796875,-0.40374755859375,1.0,1.0,1.0,1.0,1.0,90.0,event
13:20:44.662,0.0,0.30973786,0.0,0.32455194,0.0,0.3137942,0.0,0.21915828,0.0,-0.04549481,0.0,0.115905136,0.0,-0.10033634,0.0,0.54996073,0.0,-0.20975082,0.0,0.47450563,927.9487,811.50183,783.69965,798.60803,660.0,-0.09857177734375,-0.00927734375,0.98272705078125,1.293487548828125,-2.833709716796875,-0.40374755859375,1.0,1.0,1.0,1.0,1.0,90.0,event
13:20:44.663,0.0,0.30973786,0.0,0.32455194,0.0,0.3137942,0.0,0.21915828,0.0,-0.04549481,0.0,0.115905136,0.0,-0.10033634,0.0,0.54996073,0.0,-0.20975082,0.0,0.47450563,1046.0073,800.2198,684.17584,815.12823,709.5604,-0.09857177734375,-0.00927734375,0.98272705078125,1.293487548828125,-2.833709716796875,-0.40374755859375,1.0,1.0,1.0,1.0,1.0,90.0,event
13:20:44.663,0.0,0.30973786,0.0,0.32455194,0.0,0.3137942,0.0,0.21915828,0.0,-0.04549481,0.0,0.115905136,0.0,-0.10033634,0.0,0.54996073,0.0,-0.20975082,0.0,0.47450563,1032.7106,800.2198,670.4762,819.15753,819.5604,-0.09857177734375,-0.00927734375,0.98272705078125,1.293487548828125,-2.833709716796875,-0.40374755859375,1.0,1.0,1.0,1.0,1.0,90.0,event
13:20:44.664,0.0,0.30517474,0.0,0.4034584,0.0,0.270139,0.0,0.21234268,0.0,0.015784273,0.0,0.11638416,0.0,-0.10021257,0.0,0.55104923,0.0,-0.22588837,0.0,0.46897218,894.10254,806.26373,680.54944,795.78754,850.989,-0.09857177734375,-0.00927734375,0.98272705078125,1.293487548828125,-2.833709716796875,-0.40374755859375,1.0,1.0,1.0,1.0,1.0,90.0,event
13:20:44.668,0.0,0.30517474,0.0,0.4034584,0.0,0.270139,0.0,0.21234268,0.0,0.015784273,0.0,0.11638416,0.0,-0.10021257,0.0,0.55104923,0.0,-0.22588837,0.0,0.46897218,832.4542,805.8608,716.4103,776.8498,854.61536,-0.09857177734375,-0.00927734375,0.98272705078125,1.293487548828125,-2.833709716796875,-0.40374755859375,1.0,1.0,1.0,1.0,1.0,90.0,event
13:20:44.669,0.0,0.30517474,0.0,0.4034584,0.0,0.270139,0.0,0.21234268,0.0,0.015784273,0.0,0.11638416,0.0,-0.10021257,0.0,0.55104923,0.0,-0.22588837,0.0,0.46897218,892.49084,803.44324,703.91943,801.02563,848.1685,-0.09857177734375,-0.00927734375,0.98272705078125,1.293487548828125,-2.833709716796875,-0.40374755859375,1.0,1.0,1.0,1.0,1.0,90.0,event
13:20:44.669,0.0,0.30517474,0.0,0.4034584,0.0,0.270139,0.0,0.21234268,0.0,0.015784273,0.0,0.11638416,0.0,-0.10021257,0.0,0.55104923,0.0,-0.22588837,0.0,0.46897218,1003.69965,807.0696,629.3773,817.9487,1025.8608,-0.09857177734375,-0.00927734375,0.98272705078125,1.293487548828125,-2.833709716796875,-0.40374755859375,1.0,1.0,1.0,1.0,1.0,90.0,event
13:20:44.670,0.0,0.30517474,0.0,0.4034584,0.0,0.270139,0.0,0.21234268,0.0,0.015784273,0.0,0.11638416,0.0,-0.10021257,0.0,0.55104923,0.0,-0.22588837,0.0,0.46897218,1039.5604,811.9048,758.315,801.02563,978.315,-0.09857177734375,-0.00927734375,0.98272705078125,1.293487548828125,-2.833709716796875,-0.40374755859375,1.0,1.0,1.0,1.0,1.0,90.0,event
13:20:44.671,0.0,0.30517474,0.0,0.4034584,0.0,0.270139,0.0,0.21234268,0.0,0.015784273,0.0,0.11638416,0.0,-0.10021257,0.0,0.55104923,0.0,-0.22588837,0.0,0.46897218,918.68134,803.8461,777.25275,780.87915,739.3773,-0.09857177734375,-0.00927734375,0.98272705078125,1.293487548828125,-2.833709716796875,-0.40374755859375,1.0,1.0,1.0,1.0,1.0,90.0,event
13:20:44.671,0.0,0.30517474,0.0,0.4034584,0.0,0.270139,0.0,0.21234268,0.0,0.015784273,0.0,0.11638416,0.0,-0.10021257,0.0,0.55104923,0.0,-0.22588837,0.0,0.46897218,816.337,801.4286,689.81683,784.5055,743.8095,-0.09857177734375,-0.00927734375,0.98272705078125,1.293487548828125,-2.833709716796875,-0.40374755859375,1.0,1.0,1.0,1.0,1.0,90.0,event
13:20:44.707,0.0,0.30517474,0.0,0.4034584,0.0,0.270139,0.0,0.21234268,0.0,0.015784273,0.0,0.11638416,0.0,-0.10021257,0.0,0.55104923,0.0,-0.22588837,0.0,0.46897218,866.7033,801.02563,745.82416,797.3993,774.83514,-0.09063720703125,-0.0076904296875,0.9775390625,2.6019287109375,-2.968292236328125,-1.742095947265625,1.0,1.0,1.0,1.0,1.0,90.0,event
13:20:44.708,0.0,0.30517474,0.0,0.4034584,0.0,0.270139,0.0,0.21234268,0.0,0.015784273,0.0,0.11638416,0.0,-0.10021257,0.0,0.55104923,0.0,-0.22588837,0.0,0.46897218,993.22345,799.81683,735.7509,809.0842,753.0769,-0.09063720703125,-0.0076904296875,0.9775390625,2.6019287109375,-2.968292236328125,-1.742095947265625,1.0,1.0,1.0,1.0,1.0,90.0,event
13:20:44.709,0.0,0.30517474,0.0,0.4034584,0.0,0.270139,0.0,0.21234268,0.0,0.015784273,0.0,0.11638416,0.0,-0.10021257,0.0,0.55104923,0.0,-0.22588837,0.0,0.46897218,1033.1135,799.011,668.0586,821.5751,737.76556,-0.09063720703125,-0.0076904296875,0.9775390625,2.6019287109375,-2.968292236328125,-1.742095947265625,1.0,1.0,1.0,1.0,1.0,90.0,event
13:20:44.709,0.0,0.30517474,0.0,0.4034584,0.0,0.270139,0.0,0.21234268,0.0,0.015784273,0.0,0.11638416,0.0,-0.10021257,0.0,0.55104923,0.0,-0.22588837,0.0,0.46897218,898.93774,800.2198,651.13556,785.31134,759.5238,-0.09063720703125,-0.0076904296875,0.9775390625,2.6019287109375,-2.968292236328125,-1.742095947265625,1.0,1.0,1.0,1.0,1.0,90.0,event
13:20:44.710,0.0,0.30517474,0.0,0.4034584,0.0,0.270139,0.0,0.21234268,0.0,0.015784273,0.0,0.11638416,0.0,-0.10021257,0.0,0.55104923,0.0,-0.22588837,0.0,0.46897218,769.59705,803.44324,712.7839,765.16486,755.09155,-0.09063720703125,-0.0076904296875,0.9775390625,2.6019287109375,-2.968292236328125,-1.742095947265625,1.0,1.0,1.0,1.0,1.0,90.0,event
13:20:44.711,0.0,0.30517474,0.0,0.4034584,0.0,0.270139,0.0,0.21234268,0.0,0.015784273,0.0,0.11638416,0.0,-0.10021257,0.0,0.55104923,0.0,-0.22588837,0.0,0.46897218,792.1612,801.8315,708.7546,769.59705,815.12823,-0.09063720703125,-0.0076904296875,0.9775390625,2.6019287109375,-2.968292236328125,-1.742095947265625,1.0,1.0,1.0,1.0,1.0,90.0,event
13:20:44.712,0.0,0.30517474,0.0,0.4034584,0.0,0.270139,0.0,0.21234268,0.0,0.015784273,0.0,0.11638416,0.0,-0.10021257,0.0,0.55104923,0.0,-0.22588837,0.0,0.46897218,912.23444,803.44324,718.8278,801.8315,869.5238,-0.09063720703125,-0.0076904296875,0.9775390625,2.6019287109375,-2.968292236328125,-1.742095947265625,1.0,1.0,1.0,1.0,1.0,90.0,event
13:20:44.713,0.0,0.30517474,0.0,0.4034584,0.0,0.270139,0.0,0.21234268,0.0,0.015784273,0.0,0.11638416,0.0,-0.10021257,0.0,0.55104923,0.0,-0.22588837,0.0,0.46897218,972.27106,805.05493,654.35895,823.5897,1005.31134,-0.09063720703125,-0.0076904296875,0.9775390625,2.6019287109375,-2.968292236328125,-1.742095947265625,1.0,1.0,1.0,1.0,1.0,90.0,event
13:20:44.714,0.0,0.30517474,0.0,0.4034584,0.0,0.270139,0.0,0.21234268,0.0,0.015784273,0.0,0.11638416,0.0,-0.10021257,0.0,0.55104923,0.0,-0.22588837,0.0,0.46897218,851.39197,802.6374,629.7802,799.41394,1156.4103,-0.09063720703125,-0.0076904296875,0.9775390625,2.6019287109375,-2.968292236328125,-1.742095947265625,1.0,1.0,1.0,1.0,1.0,90.0,event
13:20:44.714,0.0,0.30517474,0.0,0.4034584,0.0,0.270139,0.0,0.21234268,0.0,0.015784273,0.0,0.11638416,0.0,-0.10021257,0.0,0.55104923,0.0,-0.22588837,0.0,0.46897218,742.1978,801.8315,774.83514,770.0,832.0513,-0.09063720703125,-0.0076904296875,0.9775390625,2.6019287109375,-2.968292236328125,-1.742095947265625,1.0,1.0,1.0,1.0,1.0,90.0,event
13:20:44.715,0.0,0.30517474,0.0,0.4034584,0.0,0.270139,0.0,0.21234268,0.0,0.015784273,0.0,0.11638416,0.0,-0.10021257,0.0,0.55104923,0.0,-0.22588837,0.0,0.46897218,770.0,799.81683,728.49817,777.25275,647.9121,-0.09063720703125,-0.0076904296875,0.9775390625,2.6019287109375,-2.968292236328125,-1.742095947265625,1.0,1.0,1.0,1.0,1.0,90.0,event
13:20:44.716,0.0,0.30517474,0.0,0.4034584,0.0,0.270139,0.0,0.21234268,0.0,0.015784273,0.0,0.11638416,0.0,-0.10021257,0.0,0.55104923,0.0,-0.22588837,0.0,0.46897218,884.43225,802.23444,636.63007,810.696,826.4103,-0.09063720703125,-0.0076904296875,0.9775390625,2.6019287109375,-2.968292236328125,-1.742095947265625,1.0,1.0,1.0,1.0,1.0,90.0,event
13:20:44.739,0.0,0.30517474,0.0,0.4034584,0.0,0.270139,0.0,0.21234268,0.0,0.015784273,0.0,0.11638416,0.0,-0.10021257,0.0,0.55104923,0.0,-0.22588837,0.0,0.46897218,1005.31134,805.4579,697.8755,823.9927,807.0696,-0.0899658203125,0.00054931640625,0.98126220703125,2.833709716796875,-3.24493408203125,0.61309814453125,1.0,1.0,1.0,1.0,1.0,90.0,event
13:20:44.740,0.0,0.30517474,0.0,0.4034584,0.0,0.270139,0.0,0.21234268,0.0,0.015784273,0.0,0.11638416,0.0,-0.10021257,0.0,0.55104923,0.0,-0.22588837,0.0,0.46897218,947.6923,807.47253,712.7839,799.011,696.26373,-0.0899658203125,0.00054931640625,0.98126220703125,2.833709716796875,-3.24493408203125,0.61309814453125,1.0,1.0,1.0,1.0,1.0,90.0,event
13:20:44.741,0.0,0.30517474,0.0,0.4034584,0.0,0.270139,0.0,0.21234268,0.0,0.015784273,0.0,0.11638416,0.0,-0.10021257,0.0,0.55104923,0.0,-0.22588837,0.0,0.46897218,806.6667,805.05493,672.8938,777.6557,651.9414,-0.0899658203125,0.00054931640625,0.98126220703125,2.833709716796875,-3.24493408203125,0.61309814453125,1.0,1.0,1.0,1.0,1.0,90.0,event
13:20:44.742,0.0,0.30517474,0.0,0.4034584,0.0,0.270139,0.0,0.21234268,0.0,0.015784273,0.0,0.11638416,0.0,-0.10021257,0.0,0.55104923,0.0,-0.22588837,0.0,0.46897218,810.696,804.65204,713.5897,790.54944,728.9011,-0.0899658203125,0.00054931640625,0.98126220703125,2.833709716796875,-3.24493408203125,0.61309814453125,1.0,1.0,1.0,1.0,1.0,90.0,event
13:20:44.743,0.0,0.30517474,0.0,0.4034584,0.0,0.270139,0.0,0.21234268,0.0,0.015784273,0.0,0.11638416,0.0,-0.10021257,0.0,0.55104923,0.0,-0.22588837,0.0,0.46897218,942.0513,809.89014,721.6484,805.8608,752.27106,-0.0899658203125,0.00054931640625,0.98126220703125,2.833709716796875,-3.24493408203125,0.61309814453125,1.0,1.0,1.0,1.0,1.0,90.0,event
13:20:44.743,0.0,0.30517474,0.0,0.4034584,0.0,0.270139,0.0,0.21234268,0.0,0.015784273,0.0,0.11638416,0.0,-0.10021257,0.0,0.55104923,0.0,-0.22588837,0.0,0.46897218,1035.1282,810.293,678.93774,829.6337,753.0769,-0.0899658203125,0.00054931640625,0.98126220703125,2.833709716796875,-3.24493408203125,0.61309814453125,1.0,1.0,1.0,1.0,1.0,90.0,event
13:20:44.744,0.0,0.30517474,0.0,0.4034584,0.0,0.270139,0.0,0.21234268,0.0,0.015784273,0.0,0.11638416,0.0,-0.10021257,0.0,0.55104923,0.0,-0.22588837,0.0,0.46897218,973.8828,811.50183,641.06226,820.3663,836.08057,-0.0899658203125,0.00054931640625,0.98126220703125,2.833709716796875,-3.24493408203125,0.61309814453125,1.0,1.0,1.0,1.0,1.0,90.0,event
13:20:44.744,0.0,0.30942464,0.0,0.49290943,0.0,0.2308221,0.0,0.21281579,0.0,0.051990032,0.0,0.13586895,0.0,-0.083458796,0.0,0.5482328,0.0,-0.24439047,0.0,0.45323044,829.6337,811.9048,621.31866,795.78754,1013.7729,-0.0899658203125,0.00054931640625,0.98126220703125,2.833709716796875,-3.24493408203125,0.61309814453125,1.0,1.0,1.0,1.0,1.0,90.0,event
13:20:44.748,0.0,0.30942464,0.0,0.49290943,0.0,0.2308221,0.0,0.21281579,0.0,0.051990032,0.0,0.13586895,0.0,-0.083458796,0.0,0.5482328,0.0,-0.24439047,0.0,0.45323044,836.4835,811.50183,791.75824,815.12823,958.1685,-0.0899658203125,0.00054931640625,0.98126220703125,2.833709716796875,-3.24493408203125,0.61309814453125,1.0,1.0,1.0,1.0,1.0,90.0,event
13:20:44.749,0.0,0.30942464,0.0,0.49290943,0.0,0.2308221,0.0,0.21281579,0.0,0.051990032,0.0,0.13586895,0.0,-0.083458796,0.0,0.5482328,0.0,-0.24439047,0.0,0.45323044,963.00366,810.696,759.5238,819.9634,738.97437,-0.0899658203125,0.00054931640625,0.98126220703125,2.833709716796875,-3.24493408203125,0.61309814453125,1.0,1.0,1.0,1.0,1.0,90.0,event
13:20:44.749,0.0,0.30942464,0.0,0.49290943,0.0,0.2308221,0.0,0.21281579,0.0,0.051990032,0.0,0.13586895,0.0,-0.083458796,0.0,0.5482328,0.0,-0.24439047,0.0,0.45323044,1048.4249,809.0842,651.13556,826.0073,703.5165,-0.0899658203125,0.00054931640625,0.98126220703125,2.833709716796875,-3.24493408203125,0.61309814453125,1.0,1.0,1.0,1.0,1.0,90.0,event
13:20:44.750,0.0,0.30942464,0.0,0.49290943,0.0,0.2308221,0.0,0.21281579,0.0,0.051990032,0.0,0.13586895,0.0,-0.083458796,0.0,0.5482328,0.0,-0.24439047,0.0,0.45323044,994.43225,813.91943,668.46155,807.0696,773.22345,-0.0899658203125,0.00054931640625,0.98126220703125,2.833709716796875,-3.24493408203125,0.61309814453125,1.0,1.0,1.0,1.0,1.0,90.0,event
13:20:44.772,0.0,0.30942464,0.0,0.49290943,0.0,0.2308221,0.0,0.21281579,0.0,0.051990032,0.0,0.13586895,0.0,-0.083458796,0.0,0.5482328,0.0,-0.24439047,0.0,0.45323044,880.40295,814.7253,719.6337,782.0879,725.2747,-0.0982666015625,-0.00274658203125,0.98333740234375,2.833709716796875,-3.701019287109375,2.714080810546875,1.0,1.0,1.0,1.0,1.0,90.0,event
13:20:44.773,0.0,0.30942464,0.0,0.49290943,0.0,0.2308221,0.0,0.21281579,0.0,0.051990032,0.0,0.13586895,0.0,-0.083458796,0.0,0.5482328,0.0,-0.24439047,0.0,0.45323044,862.27106,815.5311,719.6337,792.1612,631.39197,-0.0982666015625,-0.00274658203125,0.98333740234375,2.833709716796875,-3.701019287109375,2.714080810546875,1.0,1.0,1.0,1.0,1.0,90.0,event
13:20:44.774,0.0,0.30942464,0.0,0.49290943,0.0,0.2308221,0.0,0.21281579,0.0,0.051990032,0.0,0.13586895,0.0,-0.083458796,0.0,0.5482328,0.0,-0.24439047,0.0,0.45323044,946.4835,820.3663,670.87915,816.337,736.1539,-0.0982666015625,-0.00274658203125,0.98333740234375,2.833709716796875,-3.701019287109375,2.714080810546875,1.0,1.0,1.0,1.0,1.0,90.0,event
13:20:44.775,0.0,0.30942464,0.0,0.49290943,0.0,0.2308221,0.0,0.21281579,0.0,0.051990032,0.0,0.13586895,0.0,-0.083458796,0.0,0.5482328,0.0,-0.24439047,0.0,0.45323044,1072.1978,824.7985,739.7802,837.28937,856.63007,-0.0982666015625,-0.00274658203125,0.98333740234375,2.833709716796875,-3.701019287109375,2.714080810546875,1.0,1.0,1.0,1.0,1.0,90.0,event
13:20:44.776,0.0,0.30942464,0.0,0.49290943,0.0,0.2308221,0.0,0.21281579,0.0,0.051990032,0.0,0.13586895,0.0,-0.083458796,0.0,0.5482328,0.0,-0.24439047,0.0,0.45323044,1058.0952,823.1868,718.8278,805.05493,816.337,-0.0982666015625,-0.00274658203125,0.98333740234375,2.833709716796875,-3.701019287109375,2.714080810546875,1.0,1.0,1.0,1.0,1.0,90.0,event
13:20:44.777,0.0,0.30942464,0.0,0.49290943,0.0,0.2308221,0.0,0.21281579,0.0,0.051990032,0.0,0.13586895,0.0,-0.083458796,0.0,0.5482328,0.0,-0.24439047,0.0,0.45323044,903.36993,822.7839,649.12085,786.1172,794.17584,-0.0982666015625,-0.00274658203125,0.98333740234375,2.833709716796875,-3.701019287109375,2.714080810546875,1.0,1.0,1.0,1.0,1.0,90.0,event
13:20:44.777,0.0,0.30942464,0.0,0.49290943,0.0,0.2308221,0.0,0.21281579,0.0,0.051990032,0.0,0.13586895,0.0,-0.083458796,0.0,0.5482328,0.0,-0.24439047,0.0,0.45323044,831.6484,815.12823,650.32965,785.7143,871.53845,-0.0982666015625,-0.00274658203125,0.98333740234375,2.833709716796875,-3.701019287109375,2.714080810546875,1.0,1.0,1.0,1.0,1.0,90.0,event
13:20:44.778,0.0,0.30942464,0.0,0.49290943,0.0,0.2308221,0.0,0.21281579,0.0,0.051990032,0.0,0.13586895,0.0,-0.083458796,0.0,0.5482328,0.0,-0.24439047,0.0,0.45323044,927.1429,811.50183,716.4103,799.41394,972.27106,-0.0982666015625,-0.00274658203125,0.98333740234375,2.833709716796875,-3.701019287109375,2.714080810546875,1.0,1.0,1.0,1.0,1.0,90.0,event
13:20:44.779,0.0,0.30942464,0.0,0.49290943,0.0,0.2308221,0.0,0.21281579,0.0,0.051990032,0.0,0.13586895,0.0,-0.083458796,0.0,0.5482328,0.0,-0.24439047,0.0,0.45323044,876.77655,817.9487,708.3516,784.90845,766.3736,-0.0982666015625,-0.00274658203125,0.98333740234375,2.833709716796875,-3.701019287109375,2.714080810546875,1.0,1.0,1.0,1.0,1.0,90.0,event
13:20:44.779,0.0,0.30942464,0.0,0.49290943,0.0,0.2308221,0.0,0.21281579,0.0,0.051990032,0.0,0.13586895,0.0,-0.083458796,0.0,0.5482328,0.0,-0.24439047,0.0,0.45323044,931.978,819.15753,632.1978,787.326,759.12085,-0.0982666015625,-0.00274658203125,0.98333740234375,2.833709716796875,-3.701019287109375,2.714080810546875,1.0,1.0,1.0,1.0,1.0,90.0,event
13:20:44.779,0.0,0.30942464,0.0,0.49290943,0.0,0.2308221,0.0,0.21281579,0.0,0.051990032,0.0,0.13586895,0.0,-0.083458796,0.0,0.5482328,0.0,-0.24439047,0.0,0.45323044,1083.0769,823.1868,772.8205,829.2308,753.0769,-0.0982666015625,-0.00274658203125,0.98333740234375,2.833709716796875,-3.701019287109375,2.714080810546875,1.0,1.0,1.0,1.0,1.0,90.0,event
13:20:44.779,0.0,0.30942464,0.0,0.49290943,0.0,0.2308221,0.0,0.21281579,0.0,0.051990032,0.0,0.13586895,0.0,-0.083458796,0.0,0.5482328,0.0,-0.24439047,0.0,0.45323044,1075.0183,821.978,674.10254,820.3663,636.63007,-0.0982666015625,-0.00274658203125,0.98333740234375,2.833709716796875,-3.701019287109375,2.714080810546875,1.0,1.0,1.0,1.0,1.0,90.0,event
13:20:44.843,0.0,0.30942464,0.0,0.49290943,0.0,0.2308221,0.0,0.21281579,0.0,0.051990032,0.0,0.13586895,0.0,-0.083458796,0.0,0.5482328,0.0,-0.24439047,0.0,0.45323044,977.50916,822.381,728.9011,817.5458,695.05493,-0.0982666015625,-0.00274658203125,0.98333740234375,2.833709716796875,-3.701019287109375,2.714080810546875,1.0,1.0,1.0,1.0,1.0,90.0,event
13:20:44.844,0.0,0.30942464,0.0,0.49290943,0.0,0.2308221,0.0,0.21281579,0.0,0.051990032,0.0,0.13586895,0.0,-0.083458796,0.0,0.5482328,0.0,-0.24439047,0.0,0.45323044,1111.2821,823.5897,680.9524,828.022,727.6923,-0.0982666015625,-0.00274658203125,0.98333740234375,2.833709716796875,-3.701019287109375,2.714080810546875,1.0,1.0,1.0,1.0,1.0,90.0,event
13:20:44.845,0.0,0.30942464,0.0,0.49290943,0.0,0.2308221,0.0,0.21281579,0.0,0.051990032,0.0,0.13586895,0.0,-0.083458796,0.0,0.5482328,0.0,-0.24439047,0.0,0.45323044,1104.4323,821.5751,641.8681,823.5897,935.2015,-0.0982666015625,-0.00274658203125,0.98333740234375,2.833709716796875,-3.701019287109375,2.714080810546875,1.0,1.0,1.0,1.0,1.0,90.0,event
13:20:44.845,0.0,0.30942464,0.0,0.49290943,0.0,0.2308221,0.0,0.21281579,0.0,0.051990032,0.0,0.13586895,0.0,-0.083458796,0.0,0.5482328,0.0,-0.24439047,0.0,0.45323044,972.674,814.3223,691.02563,803.0403,910.2198,-0.0982666015625,-0.00274658203125,0.98333740234375,2.833709716796875,-3.701019287109375,2.714080810546875,1.0,1.0,1.0,1.0,1.0,90.0,event
13:20:44.846,0.0,0.30942464,0.0,0.49290943,0.0,0.2308221,0.0,0.21281579,0.0,0.051990032,0.0,0.13586895,0.0,-0.083458796,0.0,0.5482328,0.0,-0.24439047,0.0,0.45323044,892.49084,814.3223,713.1868,779.67035,744.21246,-0.0982666015625,-0.00274658203125,0.98333740234375,2.833709716796875,-3.701019287109375,2.714080810546875,1.0,1.0,1.0,1.0,1.0,90.0,event
13:20:44.846,0.0,0.30942464,0.0,0.49290943,0.0,0.2308221,0.0,0.21281579,0.0,0.051990032,0.0,0.13586895,0.0,-0.083458796,0.0,0.5482328,0.0,-0.24439047,0.0,0.45323044,946.08057,822.7839,657.98535,803.44324,763.5531,-0.0982666015625,-0.00274658203125,0.98333740234375,2.833709716796875,-3.701019287109375,2.714080810546875,1.0,1.0,1.0,1.0,1.0,90.0,event
13:20:44.847,0.0,0.30942464,0.0,0.49290943,0.0,0.2308221,0.0,0.21281579,0.0,0.051990032,0.0,0.13586895,0.0,-0.083458796,0.0,0.5482328,0.0,-0.24439047,0.0,0.45323044,1059.7069,824.3956,598.7546,832.0513,998.86444,-0.0982666015625,-0.00274658203125,0.98333740234375,2.833709716796875,-3.701019287109375,2.714080810546875,1.0,1.0,1.0,1.0,1.0,90.0,event
13:20:44.847,0.0,0.30942464,0.0,0.49290943,0.0,0.2308221,0.0,0.21281579,0.0,0.051990032,0.0,0.13586895,0.0,-0.083458796,0.0,0.5482328,0.0,-0.24439047,0.0,0.45323044,1104.0293,820.7692,751.4652,818.3516,1019.81683,-0.0982666015625,-0.00274658203125,0.98333740234375,2.833709716796875,-3.701019287109375,2.714080810546875,1.0,1.0,1.0,1.0,1.0,90.0,event
13:20:44.848,0.0,0.30942464,0.0,0.49290943,0.0,0.2308221,0.0,0.21281579,0.0,0.051990032,0.0,0.13586895,0.0,-0.083458796,0.0,0.5482328,0.0,-0.24439047,0.0,0.45323044,1013.7729,823.1868,773.6264,792.5641,731.31866,-0.0982666015625,-0.00274658203125,0.98333740234375,2.833709716796875,-3.701019287109375,2.714080810546875,1.0,1.0,1.0,1.0,1.0,90.0,event
13:20:44.849,0.0,0.32125056,0.0,0.57378376,0.0,0.19662704,0.0,0.21290493,0.0,0.073599845,0.0,0.165431,0.0,-0.059543222,0.0,0.5449479,0.0,-0.26226354,0.0,0.4352532,904.17584,830.0366,676.9231,788.1319,691.4286,-0.0982666015625,-0.00274658203125,0.98333740234375,2.833709716796875,-3.701019287109375,2.714080810546875,1.0,1.0,1.0,1.0,1.0,90.0,event
13:20:44.854,0.0,0.32125056,0.0,0.57378376,0.0,0.19662704,0.0,0.21290493,0.0,0.073599845,0.0,0.165431,0.0,-0.059543222,0.0,0.5449479,0.0,-0.26226354,0.0,0.4352532,928.7546,827.2161,725.2747,794.9817,681.75824,-0.0982666015625,-0.00274658203125,0.98333740234375,2.833709716796875,-3.701019287109375,2.714080810546875,1.0,1.0,1.0,1.0,1.0,90.0,event
13:20:44.855,0.0,0.32125056,0.0,0.57378376,0.0,0.19662704,0.0,0.21290493,0.0,0.073599845,0.0,0.165431,0.0,-0.059543222,0.0,0.5449479,0.0,-0.26226354,0.0,0.4352532,1061.3187,822.7839,732.1245,817.5458,631.39197,-0.0982666015625,-0.00274658203125,0.98333740234375,2.833709716796875,-3.701019287109375,2.714080810546875,1.0,1.0,1.0,1.0,1.0,90.0,event
13:20:44.891,0.0,0.32125056,0.0,0.57378376,0.0,0.19662704,0.0,0.21290493,0.0,0.073599845,0.0,0.165431,0.0,-0.059543222,0.0,0.5449479,0.0,-0.26226354,0.0,0.4352532,1115.3114,815.5311,695.8608,822.381,682.1612,-0.09588623046875,6.103515625e-05,0.9873046875,2.8411865234375,-3.30474853515625,1.12152099609375,1.0,1.0,1.0,1.0,1.0,90.0,event
13:20:44.892,0.0,0.32125056,0.0,0.57378376,0.0,0.19662704,0.0,0.21290493,0.0,0.073599845,0.0,0.165431,0.0,-0.059543222,0.0,0.5449479,0.0,-0.26226354,0.0,0.4352532,995.64105,812.71063,658.3883,795.38464,700.696,-0.09588623046875,6.103515625e-05,0.9873046875,2.8411865234375,-3.30474853515625,1.12152099609375,1.0,1.0,1.0,1.0,1.0,90.0,event
13:20:44.893,0.0,0.32125056,0.0,0.57378376,0.0,0.19662704,0.0,0.21290493,0.0,0.073599845,0.0,0.165431,0.0,-0.059543222,0.0,0.5449479,0.0,-0.26226354,0.0,0.4352532,872.74725,817.1429,723.663,784.90845,734.94507,-0.09588623046875,6.103515625e-05,0.9873046875,2.8411865234375,-3.30474853515625,1.12152099609375,1.0,1.0,1.0,1.0,1.0,90.0,event
13:20:44.894,0.0,0.32125056,0.0,0.57378376,0.0,0.19662704,0.0,0.21290493,0.0,0.073599845,0.0,0.165431,0.0,-0.059543222,0.0,0.5449479,0.0,-0.26226354,0.0,0.4352532,915.4579,820.3663,752.27106,792.96704,721.2454,-0.09588623046875,6.103515625e-05,0.9873046875,2.8411865234375,-3.30474853515625,1.12152099609375,1.0,1.0,1.0,1.0,1.0,90.0,event
13:20:44.895,0.0,0.32125056,0.0,0.57378376,0.0,0.19662704,0.0,0.21290493,0.0,0.073599845,0.0,0.165431,0.0,-0.059543222,0.0,0.5449479,0.0,-0.26226354,0.0,0.4352532,1057.6923,823.5897,702.71063,821.1722,686.5934,-0.09588623046875,6.103515625e-05,0.9873046875,2.8411865234375,-3.30474853515625,1.12152099609375,1.0,1.0,1.0,1.0,1.0,90.0,event
13:20:44.896,0.0,0.32125056,0.0,0.57378376,0.0,0.19662704,0.0,0.21290493,0.0,0.073599845,0.0,0.165431,0.0,-0.059543222,0.0,0.5449479,0.0,-0.26226354,0.0,0.4352532,1013.36993,808.2784,682.96704,804.2491,889.67035,-0.09588623046875,6.103515625e-05,0.9873046875,2.8411865234375,-3.30474853515625,1.12152099609375,1.0,1.0,1.0,1.0,1.0,90.0,event
13:20:44.896,0.0,0.32125056,0.0,0.57378376,0.0,0.19662704,0.0,0.21290493,0.0,0.073599845,0.0,0.165431,0.0,-0.059543222,0.0,0.5449479,0.0,-0.26226354,0.0,0.4352532,1117.326,815.12823,662.01465,840.9158,824.7985,-0.09588623046875,6.103515625e-05,0.9873046875,2.8411865234375,-3.30474853515625,1.12152099609375,1.0,1.0,1.0,1.0,1.0,90.0,event
13:20:44.897,0.0,0.32125056,0.0,0.57378376,0.0,0.19662704,0.0,0.21290493,0.0,0.073599845,0.0,0.165431,0.0,-0.059543222,0.0,0.5449479,0.0,-0.26226354,0.0,0.4352532,902.96704,815.9341,720.4396,780.07324,824.7985,-0.09588623046875,6.103515625e-05,0.9873046875,2.8411865234375,-3.30474853515625,1.12152099609375,1.0,1.0,1.0,1.0,1.0,90.0,event
13:20:44.898,0.0,0.32125056,0.0,0.57378376,0.0,0.19662704,0.0,0.21290493,0.0,0.073599845,0.0,0.165431,0.0,-0.059543222,0.0,0.5449479,0.0,-0.26226354,0.0,0.4352532,939.6337,822.7839,762.3443,783.2967,720.0366,-0.09588623046875,6.103515625e-05,0.9873046875,2.8411865234375,-3.30474853515625,1.12152099609375,1.0,1.0,1.0,1.0,1.0,90.0,event
13:20:44.899,0.0,0.32125056,0.0,0.57378376,0.0,0.19662704,0.0,0.21290493,0.0,0.073599845,0.0,0.165431,0.0,-0.059543222,0.0,0.5449479,0.0,-0.26226354,0.0,0.4352532,1060.5128,826.0073,651.13556,804.65204,830.84247,-0.09588623046875,6.103515625e-05,0.9873046875,2.8411865234375,-3.30474853515625,1.12152099609375,1.0,1.0,1.0,1.0,1.0,90.0,event
13:20:44.900,0.0,0.32125056,0.0,0.57378376,0.0,0.19662704,0.0,0.21290493,0.0,0.073599845,0.0,0.165431,0.0,-0.059543222,0.0,0.5449479,0.0,-0.26226354,0.0,0.4352532,1134.249,824.7985,684.9817,828.8278,1067.7656,-0.09588623046875,6.103515625e-05,0.9873046875,2.8411865234375,-3.30474853515625,1.12152099609375,1.0,1.0,1.0,1.0,1.0,90.0,event
13:20:44.900,0.0,0.32125056,0.0,0.57378376,0.0,0.19662704,0.0,0.21290493,0.0,0.073599845,0.0,0.165431,0.0,-0.059543222,0.0,0.5449479,0.0,-0.26226354,0.0,0.4352532,1089.5238,820.3663,794.9817,812.71063,811.0989,-0.09588623046875,6.103515625e-05,0.9873046875,2.8411865234375,-3.30474853515625,1.12152099609375,1.0,1.0,1.0,1.0,1.0,90.0,event
13:20:44.936,0.0,0.32125056,0.0,0.57378376,0.0,0.19662704,0.0,0.21290493,0.0,0.073599845,0.0,0.165431,0.0,-0.059543222,0.0,0.5449479,0.0,-0.26226354,0.0,0.4352532,992.4176,819.9634,713.9927,792.96704,681.3553,-0.10064697265625,-0.00250244140625,0.97943115234375,1.637420654296875,-3.865509033203125,0.366363525390625,1.0,1.0,1.0,1.0,1.0,90.0,event
13:20:44.937,0.0,0.32125056,0.0,0.57378376,0.0,0.19662704,0.0,0.21290493,0.0,0.073599845,0.0,0.165431,0.0,-0.059543222,0.0,0.5449479,0.0,-0.26226354,0.0,0.4352532,1100.403,826.4103,738.97437,811.9048,726.08057,-0.10064697265625,-0.00250244140625,0.97943115234375,1.637420654296875,-3.865509033203125,0.366363525390625,1.0,1.0,1.0,1.0,1.0,90.0,event
13:20:44.937,0.0,0.32125056,0.0,0.57378376,0.0,0.19662704,0.0,0.21290493,0.0,0.073599845,0.0,0.165431,0.0,-0.059543222,0.0,0.5449479,0.0,-0.26226354,0.0,0.4352532,981.9414,819.5604,701.9048,793.7729,785.31134,-0.10064697265625,-0.00250244140625,0.97943115234375,1.637420654296875,-3.865509033203125,0.366363525390625,1.0,1.0,1.0,1.0,1.0,90.0,event
13:20:44.938,0.0,0.32125056,0.0,0.57378376,0.0,0.19662704,0.0,0.21290493,0.0,0.073599845,0.0,0.165431,0.0,-0.059543222,0.0,0.5449479,0.0,-0.26226354,0.0,0.4352532,1204.762,831.6484,733.3333,843.3333,666.04395,-0.10064697265625,-0.00250244140625,0.97943115234375,1.637420654296875,-3.865509033203125,0.366363525390625,1.0,1.0,1.0,1.0,1.0,90.0,event
13:20:44.939,0.0,0.32125056,0.0,0.57378376,0.0,0.19662704,0.0,0.21290493,0.0,0.073599845,0.0,0.165431,0.0,-0.059543222,0.0,0.5449479,0.0,-0.26226354,0.0,0.4352532,982.74725,830.84247,674.10254,772.01465,961.39197,-0.10064697265625,-0.00250244140625,0.97943115234375,1.637420654296875,-3.865509033203125,0.366363525390625,1.0,1.0,1.0,1.0,1.0,90.0,event
13:20:44.939,0.0,0.32125056,0.0,0.57378376,0.0,0.19662704,0.0,0.21290493,0.0,0.073599845,0.0,0.165431,0.0,-0.059543222,0.0,0.5449479,0.0,-0.26226354,0.0,0.4352532,1123.773,828.022,680.54944,811.50183,766.3736,-0.10064697265625,-0.00250244140625,0.97943115234375,1.637420654296875,-3.865509033203125,0.366363525390625,1.0,1.0,1.0,1.0,1.0,90.0,event
13:20:44.940,0.0,0.32125056,0.0,0.57378376,0.0,0.19662704,0.0,0.21290493,0.0,0.073599845,0.0,0.165431,0.0,-0.059543222,0.0,0.5449479,0.0,-0.26226354,0.0,0.4352532,962.1978,833.2601,731.7216,780.4762,897.326,-0.10064697265625,-0.00250244140625,0.97943115234375,1.637420654296875,-3.865509033203125,0.366363525390625,1.0,1.0,1.0,1.0,1.0,90.0,event
13:20:44.940,0.0,0.32125056,0.0,0.57378376,0.0,0.19662704,0.0,0.21290493,0.0,0.073599845,0.0,0.165431,0.0,-0.059543222,0.0,0.5449479,0.0,-0.26226354,0.0,0.4352532,1063.7362,829.6337,765.16486,802.6374,751.06226,-0.10064697265625,-0.00250244140625,0.97943115234375,1.637420654296875,-3.865509033203125,0.366363525390625,1.0,1.0,1.0,1.0,1.0,90.0,event
13:20:44.941,0.0,0.32125056,0.0,0.57378376,0.0,0.19662704,0.0,0.21290493,0.0,0.073599845,0.0,0.165431,0.0,-0.059543222,0.0,0.5449479,0.0,-0.26226354,0.0,0.4352532,1189.4506,823.5897,719.2308,818.3516,799.41394,-0.10064697265625,-0.00250244140625,0.97943115234375,1.637420654296875,-3.865509033203125,0.366363525390625,1.0,1.0,1.0,1.0,1.0,90.0,event
13:20:44.942,0.0,0.32125056,0.0,0.57378376,0.0,0.19662704,0.0,0.21290493,0.0,0.073599845,0.0,0.165431,0.0,-0.059543222,0.0,0.5449479,0.0,-0.26226354,0.0,0.4352532,1157.2161,818.7546,599.15753,815.5311,1134.249,-0.10064697265625,-0.00250244140625,0.97943115234375,1.637420654296875,-3.865509033203125,0.366363525390625,1.0,1.0,1.0,1.0,1.0,90.0,event
13:20:44.942,0.0,0.32125056,0.0,0.57378376,0.0,0.19662704,0.0,0.21290493,0.0,0.073599845,0.0,0.165431,0.0,-0.059543222,0.0,0.5449479,0.0,-0.26226354,0.0,0.4352532,1037.5458,817.9487,778.46155,786.1172,942.8571,-0.10064697265625,-0.00250244140625,0.97943115234375,1.637420654296875,-3.865509033203125,0.366363525390625,1.0,1.0,1.0,1.0,1.0,90.0,event
13:20:44.943,0.0,0.34090698,0.0,0.63621336,0.0,0.16909686,0.0,0.2139116,0.0,0.07855264,0.0,0.20059799,0.0,-0.041851748,0.0,0.5422794,0.0,-0.27779168,0.0,0.42176753,1008.93774,814.7253,817.5458,766.77655,656.3736,-0.10064697265625,-0.00250244140625,0.97943115234375,1.637420654296875,-3.865509033203125,0.366363525390625,1.0,1.0,1.0,1.0,1.0,90.0,event
13:20:44.974,0.0,0.34090698,0.0,0.63621336,0.0,0.16909686,0.0,0.2139116,0.0,0.07855264,0.0,0.20059799,0.0,-0.041851748,0.0,0.5422794,0.0,-0.27779168,0.0,0.42176753,1102.0146,813.5165,698.68134,802.6374,736.1539,-0.0928955078125,-0.002197265625,0.981689453125,2.459869384765625,-4.269256591796875,-1.263580322265625,1.0,1.0,1.0,1.0,1.0,90.0,event
13:20:44.977,0.0,0.34090698,0.0,0.63621336,0.0,0.16909686,0.0,0.2139116,0.0,0.07855264,0.0,0.20059799,0.0,-0.041851748,0.0,0.5422794,0.0,-0.27779168,0.0,0.42176753,1214.0293,812.3077,748.6447,837.28937,801.8315,-0.0928955078125,-0.002197265625,0.981689453125,2.459869384765625,-4.269256591796875,-1.263580322265625,1.0,1.0,1.0,1.0,1.0,90.0,event
13:20:44.978,0.0,0.34090698,0.0,0.63621336,0.0,0.16909686,0.0,0.2139116,0.0,0.07855264,0.0,0.20059799,0.0,-0.041851748,0.0,0.5422794,0.0,-0.27779168,0.0,0.42176753,1203.5531,815.12823,728.49817,815.5311,804.65204,-0.0928955078125,-0.002197265625,0.981689453125,2.459869384765625,-4.269256591796875,-1.263580322265625,1.0,1.0,1.0,1.0,1.0,90.0,event
13:20:44.979,0.0,0.34090698,0.0,0.63621336,0.0,0.16909686,0.0,0.2139116,0.0,0.07855264,0.0,0.20059799,0.0,-0.041851748,0.0,0.5422794,0.0,-0.27779168,0.0,0.42176753,1069.3773,820.3663,690.2198,785.31134,711.1722,-0.0928955078125,-0.002197265625,0.981689453125,2.459869384765625,-4.269256591796875,-1.263580322265625,1.0,1.0,1.0,1.0,1.0,90.0,event
13:20:44.980,0.0,0.34090698,0.0,0.63621336,0.0,0.16909686,0.0,0.2139116,0.0,0.07855264,0.0,0.20059799,0.0,-0.041851748,0.0,0.5422794,0.0,-0.27779168,0.0,0.42176753,1009.34064,820.7692,695.05493,782.8938,736.1539,-0.0928955078125,-0.002197265625,0.981689453125,2.459869384765625,-4.269256591796875,-1.263580322265625,1.0,1.0,1.0,1.0,1.0,90.0,event
13:20:44.980,0.0,0.34090698,0.0,0.63621336,0.0,0.16909686,0.0,0.2139116,0.0,0.07855264,0.0,0.20059799,0.0,-0.041851748,0.0,0.5422794,0.0,-0.27779168,0.0,0.42176753,1098.7913,818.3516,726.8865,794.9817,904.57874,-0.0928955078125,-0.002197265625,0.981689453125,2.459869384765625,-4.269256591796875,-1.263580322265625,1.0,1.0,1.0,1.0,1.0,90.0,event
13:20:44.982,0.0,0.34090698,0.0,0.63621336,0.0,0.16909686,0.0,0.2139116,0.0,0.07855264,0.0,0.20059799,0.0,-0.041851748,0.0,0.5422794,0.0,-0.27779168,0.0,0.42176753,1217.6556,809.0842,756.30035,819.9634,881.2088,-0.0928955078125,-0.002197265625,0.981689453125,2.459869384765625,-4.269256591796875,-1.263580322265625,1.0,1.0,1.0,1.0,1.0,90.0,event
13:20:44.983,0.0,0.34090698,0.0,0.63621336,0.0,0.16909686,0.0,0.2139116,0.0,0.07855264,0.0,0.20059799,0.0,-0.041851748,0.0,0.5422794,0.0,-0.27779168,0.0,0.42176753,1230.1465,812.3077,747.4359,813.5165,800.2198,-0.0928955078125,-0.002197265625,0.981689453125,2.459869384765625,-4.269256591796875,-1.263580322265625,1.0,1.0,1.0,1.0,1.0,90.0,event
13:20:44.984,0.0,0.34090698,0.0,0.63621336,0.0,0.16909686,0.0,0.2139116,0.0,0.07855264,0.0,0.20059799,0.0,-0.041851748,0.0,0.5422794,0.0,-0.27779168,0.0,0.42176753,1073.8096,818.7546,627.3626,783.2967,905.78754,-0.0928955078125,-0.002197265625,0.981689453125,2.459869384765625,-4.269256591796875,-1.263580322265625,1.0,1.0,1.0,1.0,1.0,90.0,event
13:20:44.985,0.0,0.34090698,0.0,0.63621336,0.0,0.16909686,0.0,0.2139116,0.0,0.07855264,0.0,0.20059799,0.0,-0.041851748,0.0,0.5422794,0.0,-0.27779168,0.0,0.42176753,948.49817,815.12823,717.2161,776.04395,994.83514,-0.0928955078125,-0.002197265625,0.981689453125,2.459869384765625,-4.269256591796875,-1.263580322265625,1.0,1.0,1.0,1.0,1.0,90.0,event
13:20:44.986,0.0,0.34090698,0.0,0.63621336,0.0,0.16909686,0.0,0.2139116,0.0,0.07855264,0.0,0.20059799,0.0,-0.041851748,0.0,0.5422794,0.0,-0.27779168,0.0,0.42176753,1043.9927,816.7399,827.2161,793.7729,725.2747,-0.0928955078125,-0.002197265625,0.981689453125,2.459869384765625,-4.269256591796875,-1.263580322265625,1.0,1.0,1.0,1.0,1.0,90.0,event
13:20:44.986,0.0,0.34090698,0.0,0.63621336,0.0,0.16909686,0.0,0.2139116,0.0,0.07855264,0.0,0.20059799,0.0,-0.041851748,0.0,0.5422794,0.0,-0.27779168,0.0,0.42176753,1175.751,817.9487,719.2308,827.2161,722.8571,-0.0928955078125,-0.002197265625,0.981689453125,2.459869384765625,-4.269256591796875,-1.263580322265625,1.0,1.0,1.0,1.0,1.0,90.0,event
13:20:45.009,0.0,0.34090698,0.0,0.63621336,0.0,0.16909686,0.0,0.2139116,0.0,0.07855264,0.0,0.20059799,0.0,-0.041851748,0.0,0.5422794,0.0,-0.27779168,0.0,0.42176753,1176.1538,819.15753,659.59705,835.6777,900.14655,-0.0802001953125,0.00433349609375,0.992431640625,3.372039794921875,-4.74029541015625,0.418701171875,1.0,1.0,1.0,1.0,1.0,90.0,event
13:20:45.010,0.0,0.34090698,0.0,0.63621336,0.0,0.16909686,0.0,0.2139116,0.0,0.07855264,0.0,0.20059799,0.0,-0.041851748,0.0,0.5422794,0.0,-0.27779168,0.0,0.42176753,1062.5275,823.1868,718.4249,802.6374,813.91943,-0.0802001953125,0.00433349609375,0.992431640625,3.372039794921875,-4.74029541015625,0.418701171875,1.0,1.0,1.0,1.0,1.0,90.0,event
13:20:45.011,0.0,0.34090698,0.0,0.63621336,0.0,0.16909686,0.0,0.2139116,0.0,0.07855264,0.0,0.20059799,0.0,-0.041851748,0.0,0.5422794,0.0,-0.27779168,0.0,0.42176753,987.5824,824.7985,738.97437,790.14655,702.71063,-0.0802001953125,0.00433349609375,0.992431640625,3.372039794921875,-4.74029541015625,0.418701171875,1.0,1.0,1.0,1.0,1.0,90.0,event
13:20:45.011,0.0,0.34090698,0.0,0.63621336,0.0,0.16909686,0.0,0.2139116,0.0,0.07855264,0.0,0.20059799,0.0,-0.041851748,0.0,0.5422794,0.0,-0.27779168,0.0,0.42176753,1040.3663,823.1868,708.7546,807.47253,697.47253,-0.0802001953125,0.00433349609375,0.992431640625,3.372039794921875,-4.74029541015625,0.418701171875,1.0,1.0,1.0,1.0,1.0,90.0,event
13:20:45.012,0.0,0.34090698,0.0,0.63621336,0.0,0.16909686,0.0,0.2139116,0.0,0.07855264,0.0,0.20059799,0.0,-0.041851748,0.0,0.5422794,0.0,-0.27779168,0.0,0.42176753,1139.8901,813.5165,702.3077,814.3223,796.99634,-0.0802001953125,0.00433349609375,0.992431640625,3.372039794921875,-4.74029541015625,0.418701171875,1.0,1.0,1.0,1.0,1.0,90.0,event
13:20:45.012,0.0,0.34090698,0.0,0.63621336,0.0,0.16909686,0.0,0.2139116,0.0,0.07855264,0.0,0.20059799,0.0,-0.041851748,0.0,0.5422794,0.0,-0.27779168,0.0,0.42176753,1195.8975,814.7253,703.91943,822.7839,888.86444,-0.0802001953125,0.00433349609375,0.992431640625,3.372039794921875,-4.74029541015625,0.418701171875,1.0,1.0,1.0,1.0,1.0,90.0,event
13:20:45.013,0.0,0.34090698,0.0,0.63621336,0.0,0.16909686,0.0,0.2139116,0.0,0.07855264,0.0,0.20059799,0.0,-0.041851748,0.0,0.5422794,0.0,-0.27779168,0.0,0.42176753,1089.1208,823.1868,715.6044,804.2491,817.9487,-0.0802001953125,0.00433349609375,0.992431640625,3.372039794921875,-4.74029541015625,0.418701171875,1.0,1.0,1.0,1.0,1.0,90.0,event
13:20:45.014,0.0,0.34090698,0.0,0.63621336,0.0,0.16909686,0.0,0.2139116,0.0,0.07855264,0.0,0.20059799,0.0,-0.041851748,0.0,0.5422794,0.0,-0.27779168,0.0,0.42176753,966.2271,824.7985,712.381,777.25275,723.2601,-0.0802001953125,0.00433349609375,0.992431640625,3.372039794921875,-4.74029541015625,0.418701171875,1.0,1.0,1.0,1.0,1.0,90.0,event
13:20:45.014,0.0,0.34090698,0.0,0.63621336,0.0,0.16909686,0.0,0.2139116,0.0,0.07855264,0.0,0.20059799,0.0,-0.041851748,0.0,0.5422794,0.0,-0.27779168,0.0,0.42176753,974.2857,816.337,654.7619,787.72894,917.8755,-0.0802001953125,0.00433349609375,0.992431640625,3.372039794921875,-4.74029541015625,0.418701171875,1.0,1.0,1.0,1.0,1.0,90.0,event
13:20:45.015,0.0,0.34090698,0.0,0.63621336,0.0,0.16909686,0.0,0.2139116,0.0,0.07855264,0.0,0.20059799,0.0,-0.041851748,0.0,0.5422794,0.0,-0.27779168,0.0,0.42176753,1182.1978,825.2015,760.32965,811.0989,689.81683,-0.0802001953125,0.00433349609375,0.992431640625,3.372039794921875,-4.74029541015625,0.418701171875,1.0,1.0,1.0,1.0,1.0,90.0,event
13:20:45.015,0.0,0.34090698,0.0,0.63621336,0.0,0.16909686,0.0,0.2139116,0.0,0.07855264,0.0,0.20059799,0.0,-0.041851748,0.0,0.5422794,0.0,-0.27779168,0.0,0.42176753,1098.3883,817.9487,792.96704,798.20514,911.02563,-0.0802001953125,0.00433349609375,0.992431640625,3.372039794921875,-4.74029541015625,0.418701171875,1.0,1.0,1.0,1.0,1.0,90.0,event
13:20:45.016,0.0,0.34090698,0.0,0.63621336,0.0,0.16909686,0.0,0.2139116,0.0,0.07855264,0.0,0.20059799,0.0,-0.041851748,0.0,0.5422794,0.0,-0.27779168,0.0,0.42176753,1064.5421,819.15753,666.8498,792.5641,736.1539,-0.0802001953125,0.00433349609375,0.992431640625,3.372039794921875,-4.74029541015625,0.418701171875,1.0,1.0,1.0,1.0,1.0,90.0,event
13:20:45.037,0.0,0.34090698,0.0,0.63621336,0.0,0.16909686,0.0,0.2139116,0.0,0.07855264,0.0,0.20059799,0.0,-0.041851748,0.0,0.5422794,0.0,-0.27779168,0.0,0.42176753,927.1429,819.9634,730.10986,775.2381,743.4066,-0.0802001953125,0.00433349609375,0.992431640625,3.372039794921875,-4.74029541015625,0.418701171875,1.0,1.0,1.0,1.0,1.0,90.0,event
13:20:45.038,0.0,0.37964642,0.0,0.6721754,0.0,0.15087768,0.0,0.22049783,0.0,0.07855264,0.0,0.22813861,0.0,-0.03592558,0.0,0.53924274,0.0,-0.289163,0.0,0.41460973,937.619,826.0073,748.6447,799.011,638.24176,-0.0802001953125,0.00433349609375,0.992431640625,3.372039794921875,-4.74029541015625,0.418701171875,1.0,1.0,1.0,1.0,1.0,90.0,event
13:20:45.042,0.0,0.37964642,0.0,0.6721754,0.0,0.15087768,0.0,0.22049783,0.0,0.07855264,0.0,0.22813861,0.0,-0.03592558,0.0,0.53924274,0.0,-0.289163,0.0,0.41460973,1049.6337,823.9927,710.7692,824.7985,707.9487,-0.0802001953125,0.00433349609375,0.992431640625,3.372039794921875,-4.74029541015625,0.418701171875,1.0,1.0,1.0,1.0,1.0,90.0,event
13:20:45.043,0.0,0.37964642,0.0,0.6721754,0.0,0.15087768,0.0,0.22049783,0.0,0.07855264,0.0,0.22813861,0.0,-0.03592558,0.0,0.53924274,0.0,-0.289163,0.0,0.41460973,1131.4286,818.3516,687.8022,823.5897,859.45056,-0.0802001953125,0.00433349609375,0.992431640625,3.372039794921875,-4.74029541015625,0.418701171875,1.0,1.0,1.0,1.0,1.0,90.0,event
13:20:45.043,0.0,0.37964642,0.0,0.6721754,0.0,0.15087768,0.0,0.22049783,0.0,0.07855264,0.0,0.22813861,0.0,-0.03592558,0.0,0.53924274,0.0,-0.289163,0.0,0.41460973,1056.0806,814.7253,736.55676,808.68134,858.6447,-0.0802001953125,0.00433349609375,0.992431640625,3.372039794921875,-4.74029541015625,0.418701171875,1.0,1.0,1.0,1.0,1.0,90.0,event
13:20:45.044,0.0,0.37964642,0.0,0.6721754,0.0,0.15087768,0.0,0.22049783,0.0,0.07855264,0.0,0.22813861,0.0,-0.03592558,0.0,0.53924274,0.0,-0.289163,0.0,0.41460973,944.4689,817.9487,701.9048,786.1172,802.23444,-0.0802001953125,0.00433349609375,0.992431640625,3.372039794921875,-4.74029541015625,0.418701171875,1.0,1.0,1.0,1.0,1.0,90.0,event
13:20:45.044,0.0,0.37964642,0.0,0.6721754,0.0,0.15087768,0.0,0.22049783,0.0,0.07855264,0.0,0.22813861,0.0,-0.03592558,0.0,0.53924274,0.0,-0.289163,0.0,0.41460973,919.89014,815.5311,703.91943,790.14655,840.5128,-0.0802001953125,0.00433349609375,0.992431640625,3.372039794921875,-4.74029541015625,0.418701171875,1.0,1.0,1.0,1.0,1.0,90.0,event
13:20:45.045,0.0,0.37964642,0.0,0.6721754,0.0,0.15087768,0.0,0.22049783,0.0,0.07855264,0.0,0.22813861,0.0,-0.03592558,0.0,0.53924274,0.0,-0.289163,0.0,0.41460973,1049.6337,818.3516,664.43225,813.1135,859.0476,-0.0802001953125,0.00433349609375,0.992431640625,3.372039794921875,-4.74029541015625,0.418701171875,1.0,1.0,1.0,1.0,1.0,90.0,event
13:20:45.046,0.0,0.37964642,0.0,0.6721754,0.0,0.15087768,0.0,0.22049783,0.0,0.07855264,0.0,0.22813861,0.0,-0.03592558,0.0,0.53924274,0.0,-0.289163,0.0,0.41460973,1078.2417,826.0073,769.19415,800.6227,824.7985,-0.0802001953125,0.00433349609375,0.992431640625,3.372039794921875,-4.74029541015625,0.418701171875,1.0,1.0,1.0,1.0,1.0,90.0,event
13:20:45.046,0.0,0.37964642,0.0,0.6721754,0.0,0.15087768,0.0,0.22049783,0.0,0.07855264,0.0,0.22813861,0.0,-0.03592558,0.0,0.53924274,0.0,-0.289163,0.0,0.41460973,1115.7142,824.3956,697.8755,830.84247,999.2674,-0.0802001953125,0.00433349609375,0.992431640625,3.372039794921875,-4.74029541015625,0.418701171875,1.0,1.0,1.0,1.0,1.0,90.0,event
13:20:45.047,0.0,0.37964642,0.0,0.6721754,0.0,0.15087768,0.0,0.22049783,0.0,0.07855264,0.0,0.22813861,0.0,-0.03592558,0.0,0.53924274,0.0,-0.289163,0.0,0.41460973,893.2967,822.381,655.56775,791.3553,785.31134,-0.0802001953125,0.00433349609375,0.992431640625,3.372039794921875,-4.74029541015625,0.418701171875,1.0,1.0,1.0,1.0,1.0,90.0,event
13:20:45.047,0.0,0.37964642,0.0,0.6721754,0.0,0.15087768,0.0,0.22049783,0.0,0.07855264,0.0,0.22813861,0.0,-0.03592558,0.0,0.53924274,0.0,-0.289163,0.0,0.41460973,932.7839,822.7839,688.20514,780.4762,755.4945,-0.0802001953125,0.00433349609375,0.992431640625,3.372039794921875,-4.74029541015625,0.418701171875,1.0,1.0,1.0,1.0,1.0,90.0,event
13:20:45.102,0.0,0.37964642,0.0,0.6721754,0.0,0.15087768,0.0,0.22049783,0.0,0.07855264,0.0,0.22813861,0.0,-0.03592558,0.0,0.53924274,0.0,-0.289163,0.0,0.41460973,994.0293,818.7546,707.9487,792.96704,718.8278,-0.08349609375,-0.0025634765625,0.9830322265625,1.80938720703125,-3.15521240234375,0.994415283203125,1.0,1.0,1.0,1.0,1.0,90.0,event
13:20:45.103,0.0,0.37964642,0.0,0.6721754,0.0,0.15087768,0.0,0.22049783,0.0,0.07855264,0.0,0.22813861,0.0,-0.03592558,0.0,0.53924274,0.0,-0.289163,0.0,0.41460973,1109.2675,819.9634,721.2454,815.5311,688.20514,-0.08349609375,-0.0025634765625,0.9830322265625,1.80938720703125,-3.15521240234375,0.994415283203125,1.0,1.0,1.0,1.0,1.0,90.0,event
13:20:45.103,0.0,0.37964642,0.0,0.6721754,0.0,0.15087768,0.0,0.22049783,0.0,0.07855264,0.0,0.22813861,0.0,-0.03592558,0.0,0.53924274,0.0,-0.289163,0.0,0.41460973,1076.227,822.7839,658.7912,828.4249,768.7912,-0.08349609375,-0.0025634765625,0.9830322265625,1.80938720703125,-3.15521240234375,0.994415283203125,1.0,1.0,1.0,1.0,1.0,90.0,event
13:20:45.104,0.0,0.37964642,0.0,0.6721754,0.0,0.15087768,0.0,0.22049783,0.0,0.07855264,0.0,0.22813861,0.0,-0.03592558,0.0,0.53924274,0.0,-0.289163,0.0,0.41460973,920.696,821.5751,662.01465,788.1319,840.10986,-0.08349609375,-0.0025634765625,0.9830322265625,1.80938720703125,-3.15521240234375,0.994415283203125,1.0,1.0,1.0,1.0,1.0,90.0,event
13:20:45.104,0.0,0.37964642,0.0,0.6721754,0.0,0.15087768,0.0,0.22049783,0.0,0.07855264,0.0,0.22813861,0.0,-0.03592558,0.0,0.53924274,0.0,-0.289163,0.0,0.41460973,867.1062,826.0073,720.0366,766.3736,759.92676,-0.08349609375,-0.0025634765625,0.9830322265625,1.80938720703125,-3.15521240234375,0.994415283203125,1.0,1.0,1.0,1.0,1.0,90.0,event
13:20:45.104,0.0,0.37964642,0.0,0.6721754,0.0,0.15087768,0.0,0.22049783,0.0,0.07855264,0.0,0.22813861,0.0,-0.03592558,0.0,0.53924274,0.0,-0.289163,0.0,0.41460973,968.6447,829.6337,697.8755,797.8022,804.65204,-0.08349609375,-0.0025634765625,0.9830322265625,1.80938720703125,-3.15521240234375,0.994415283203125,1.0,1.0,1.0,1.0,1.0,90.0,event
13:20:45.105,0.0,0.37964642,0.0,0.6721754,0.0,0.15087768,0.0,0.22049783,0.0,0.07855264,0.0,0.22813861,0.0,-0.03592558,0.0,0.53924274,0.0,-0.289163,0.0,0.41460973,1095.9707,830.84247,660.40295,826.4103,917.0696,-0.08349609375,-0.0025634765625,0.9830322265625,1.80938720703125,-3.15521240234375,0.994415283203125,1.0,1.0,1.0,1.0,1.0,90.0,event
13:20:45.105,0.0,0.37964642,0.0,0.6721754,0.0,0.15087768,0.0,0.22049783,0.0,0.07855264,0.0,0.22813861,0.0,-0.03592558,0.0,0.53924274,0.0,-0.289163,0.0,0.41460973,1060.1099,831.2454,579.81683,820.3663,1172.1245,-0.08349609375,-0.0025634765625,0.9830322265625,1.80938720703125,-3.15521240234375,0.994415283203125,1.0,1.0,1.0,1.0,1.0,90.0,event
13:20:45.105,0.0,0.37964642,0.0,0.6721754,0.0,0.15087768,0.0,0.22049783,0.0,0.07855264,0.0,0.22813861,0.0,-0.03592558,0.0,0.53924274,0.0,-0.289163,0.0,0.41460973,923.5165,832.4542,749.45056,794.9817,1101.2087,-0.08349609375,-0.0025634765625,0.9830322265625,1.80938720703125,-3.15521240234375,0.994415283203125,1.0,1.0,1.0,1.0,1.0,90.0,event
13:20:45.106,0.0,0.37964642,0.0,0.6721754,0.0,0.15087768,0.0,0.22049783,0.0,0.07855264,0.0,0.22813861,0.0,-0.03592558,0.0,0.53924274,0.0,-0.289163,0.0,0.41460973,1060.9158,827.2161,729.707,843.73627,755.89746,-0.08349609375,-0.0025634765625,0.9830322265625,1.80938720703125,-3.15521240234375,0.994415283203125,1.0,1.0,1.0,1.0,1.0,90.0,event
13:20:45.106,0.0,0.37964642,0.0,0.6721754,0.0,0.15087768,0.0,0.22049783,0.0,0.07855264,0.0,0.22813861,0.0,-0.03592558,0.0,0.53924274,0.0,-0.289163,0.0,0.41460973,882.4176,831.2454,793.7729,784.90845,708.7546,-0.08349609375,-0.0025634765625,0.9830322265625,1.80938720703125,-3.15521240234375,0.994415283203125,1.0,1.0,1.0,1.0,1.0,90.0,event
13:20:45.106,0.0,0.37964642,0.0,0.6721754,0.0,0.15087768,0.0,0.22049783,0.0,0.07855264,0.0,0.22813861,0.0,-0.03592558,0.0,0.53924274,0.0,-0.289163,0.0,0.41460973,944.87177,829.2308,674.5055,813.5165,686.5934,-0.08349609375,-0.0025634765625,0.9830322265625,1.80938720703125,-3.15521240234375,0.994415283203125,1.0,1.0,1.0,1.0,1.0,90.0,event
13:20:45.153,0.0,0.37964642,0.0,0.6721754,0.0,0.15087768,0.0,0.22049783,0.0,0.07855264,0.0,0.22813861,0.0,-0.03592558,0.0,0.53924274,0.0,-0.289163,0.0,0.41460973,1053.663,824.7985,709.5604,823.5897,674.5055,-0.08367919921875,0.006103515625,0.98968505859375,1.622467041015625,-1.9140625,0.88226318359375,1.0,1.0,1.0,1.0,1.0,90.0,event
13:20:45.154,0.0,0.37964642,0.0,0.6721754,0.0,0.15087768,0.0,0.22049783,0.0,0.07855264,0.0,0.22813861,0.0,-0.03592558,0.0,0.53924274,0.0,-0.289163,0.0,0.41460973,919.89014,825.2015,663.22345,791.3553,597.5458,-0.08367919921875,0.006103515625,0.98968505859375,1.622467041015625,-1.9140625,0.88226318359375,1.0,1.0,1.0,1.0,1.0,90.0,event
13:20:45.154,0.0,0.37964642,0.0,0.6721754,0.0,0.15087768,0.0,0.22049783,0.0,0.07855264,0.0,0.22813861,0.0,-0.03592558,0.0,0.53924274,0.0,-0.289163,0.0,0.41460973,818.7546,823.1868,667.25275,782.8938,666.8498,-0.08367919921875,0.006103515625,0.98968505859375,1.622467041015625,-1.9140625,0.88226318359375,1.0,1.0,1.0,1.0,1.0,90.0,event
13:20:45.154,0.0,0.44075525,0.0,0.68528044,0.0,0.1407072,0.0,0.23071167,0.0,0.08440252,0.0,0.23417054,0.0,-0.035785373,0.0,0.53481674,0.0,-0.29383656,0.0,0.41134992,869.12085,821.1722,718.022,788.1319,763.95605,-0.08367919921875,0.006103515625,0.98968505859375,1.622467041015625,-1.9140625,0.88226318359375,1.0,1.0,1.0,1.0,1.0,90.0,event
13:20:45.157,0.0,0.44075525,0.0,0.68528044,0.0,0.1407072,0.0,0.23071167,0.0,0.08440252,0.0,0.23417054,0.0,-0.035785373,0.0,0.53481674,0.0,-0.29383656,0.0,0.41134992,1004.90845,821.5751,710.3663,808.68134,704.3223,-0.08367919921875,0.006103515625,0.98968505859375,1.622467041015625,-1.9140625,0.88226318359375,1.0,1.0,1.0,1.0,1.0,90.0,event
13:20:45.158,0.0,0.44075525,0.0,0.68528044,0.0,0.1407072,0.0,0.23071167,0.0,0.08440252,0.0,0.23417054,0.0,-0.035785373,0.0,0.53481674,0.0,-0.29383656,0.0,0.41134992,991.6117,816.337,652.74725,817.5458,749.45056,-0.08367919921875,0.006103515625,0.98968505859375,1.622467041015625,-1.9140625,0.88226318359375,1.0,1.0,1.0,1.0,1.0,90.0,event
13:20:45.158,0.0,0.44075525,0.0,0.68528044,0.0,0.1407072,0.0,0.23071167,0.0,0.08440252,0.0,0.23417054,0.0,-0.035785373,0.0,0.53481674,0.0,-0.29383656,0.0,0.41134992,842.9304,814.7253,614.4689,806.6667,957.3626,-0.08367919921875,0.006103515625,0.98968505859375,1.622467041015625,-1.9140625,0.88226318359375,1.0,1.0,1.0,1.0,1.0,90.0,event
13:20:45.159,0.0,0.44075525,0.0,0.68528044,0.0,0.1407072,0.0,0.23071167,0.0,0.08440252,0.0,0.23417054,0.0,-0.035785373,0.0,0.53481674,0.0,-0.29383656,0.0,0.41134992,833.663,826.0073,763.5531,798.20514,758.71796,-0.08367919921875,0.006103515625,0.98968505859375,1.622467041015625,-1.9140625,0.88226318359375,1.0,1.0,1.0,1.0,1.0,90.0,event
13:20:45.159,0.0,0.44075525,0.0,0.68528044,0.0,0.1407072,0.0,0.23071167,0.0,0.08440252,0.0,0.23417054,0.0,-0.035785373,0.0,0.53481674,0.0,-0.29383656,0.0,0.41134992,752.674,818.7546,693.44324,794.57874,1030.6959,-0.08367919921875,0.006103515625,0.98968505859375,1.622467041015625,-1.9140625,0.88226318359375,1.0,1.0,1.0,1.0,1.0,90.0,event
13:20:45.160,0.0,0.44075525,0.0,0.68528044,0.0,0.1407072,0.0,0.23071167,0.0,0.08440252,0.0,0.23417054,0.0,-0.035785373,0.0,0.53481674,0.0,-0.29383656,0.0,0.41134992,979.5238,825.6044,677.72894,821.1722,729.304,-0.08367919921875,0.006103515625,0.98968505859375,1.622467041015625,-1.9140625,0.88226318359375,1.0,1.0,1.0,1.0,1.0,90.0,event
13:20:45.160,0.0,0.44075525,0.0,0.68528044,0.0,0.1407072,0.0,0.23071167,0.0,0.08440252,0.0,0.23417054,0.0,-0.035785373,0.0,0.53481674,0.0,-0.29383656,0.0,0.41134992,1030.2931,819.15753,625.7509,826.0073,913.8461,-0.08367919921875,0.006103515625,0.98968505859375,1.622467041015625,-1.9140625,0.88226318359375,1.0,1.0,1.0,1.0,1.0,90.0,event
13:20:45.161,0.0,0.44075525,0.0,0.68528044,0.0,0.1407072,0.0,0.23071167,0.0,0.08440252,0.0,0.23417054,0.0,-0.035785373,0.0,0.53481674,0.0,-0.29383656,0.0,0.41134992,921.50183,821.978,684.57874,807.8755,857.8388,-0.08367919921875,0.006103515625,0.98968505859375,1.622467041015625,-1.9140625,0.88226318359375,1.0,1.0,1.0,1.0,1.0,90.0,event
13:20:45.239,0.0,0.44075525,0.0,0.68528044,0.0,0.1407072,0.0,0.23071167,0.0,0.08440252,0.0,0.23417054,0.0,-0.035785373,0.0,0.53481674,0.0,-0.29383656,0.0,0.41134992,848.1685,826.0073,713.5897,790.9524,713.9927,-0.095947265625,0.00518798828125,0.98333740234375,-0.157012939453125,-2.093505859375,2.0037841796875,1.0,1.0,1.0,1.0,1.0,90.0,event
13:20:45.240,0.0,0.44075525,0.0,0.68528044,0.0,0.1407072,0.0,0.23071167,0.0,0.08440252,0.0,0.23417054,0.0,-0.035785373,0.0,0.53481674,0.0,-0.29383656,0.0,0.41134992,907.3993,826.0073,670.07324,803.8461,747.8388,-0.095947265625,0.00518798828125,0.98333740234375,-0.157012939453125,-2.093505859375,2.0037841796875,1.0,1.0,1.0,1.0,1.0,90.0,event
13:20:45.241,0.0,0.44075525,0.0,0.68528044,0.0,0.1407072,0.0,0.23071167,0.0,0.08440252,0.0,0.23417054,0.0,-0.035785373,0.0,0.53481674,0.0,-0.29383656,0.0,0.41134992,1022.23444,822.7839,669.67035,819.9634,841.31866,-0.095947265625,0.00518798828125,0.98333740234375,-0.157012939453125,-2.093505859375,2.0037841796875,1.0,1.0,1.0,1.0,1.0,90.0,event
13:20:45.242,0.0,0.44075525,0.0,0.68528044,0.0,0.1407072,0.0,0.23071167,0.0,0.08440252,0.0,0.23417054,0.0,-0.035785373,0.0,0.53481674,0.0,-0.29383656,0.0,0.41134992,1099.1941,822.7839,684.9817,816.337,808.2784,-0.095947265625,0.00518798828125,0.98333740234375,-0.157012939453125,-2.093505859375,2.0037841796875,1.0,1.0,1.0,1.0,1.0,90.0,event
13:20:45.242,0.0,0.44075525,0.0,0.68528044,0.0,0.1407072,0.0,0.23071167,0.0,0.08440252,0.0,0.23417054,0.0,-0.035785373,0.0,0.53481674,0.0,-0.29383656,0.0,0.41134992,1005.31134,824.7985,672.49084,790.9524,763.95605,-0.095947265625,0.00518798828125,0.98333740234375,-0.157012939453125,-2.093505859375,2.0037841796875,1.0,1.0,1.0,1.0,1.0,90.0,event
13:20:45.243,0.0,0.44075525,0.0,0.68528044,0.0,0.1407072,0.0,0.23071167,0.0,0.08440252,0.0,0.23417054,0.0,-0.035785373,0.0,0.53481674,0.0,-0.29383656,0.0,0.41134992,911.02563,819.15753,603.5897,795.38464,1108.8645,-0.095947265625,0.00518798828125,0.98333740234375,-0.157012939453125,-2.093505859375,2.0037841796875,1.0,1.0,1.0,1.0,1.0,90.0,event
13:20:45.243,0.0,0.44075525,0.0,0.68528044,0.0,0.1407072,0.0,0.23071167,0.0,0.08440252,0.0,0.23417054,0.0,-0.035785373,0.0,0.53481674,0.0,-0.29383656,0.0,0.41134992,888.46155,822.381,619.304,778.86444,885.64105,-0.095947265625,0.00518798828125,0.98333740234375,-0.157012939453125,-2.093505859375,2.0037841796875,1.0,1.0,1.0,1.0,1.0,90.0,event
13:20:45.244,0.0,0.44075525,0.0,0.68528044,0.0,0.1407072,0.0,0.23071167,0.0,0.08440252,0.0,0.23417054,0.0,-0.035785373,0.0,0.53481674,0.0,-0.29383656,0.0,0.41134992,1065.751,819.5604,780.07324,821.1722,974.68866,-0.095947265625,0.00518798828125,0.98333740234375,-0.157012939453125,-2.093505859375,2.0037841796875,1.0,1.0,1.0,1.0,1.0,90.0,event
13:20:45.244,0.0,0.44075525,0.0,0.68528044,0.0,0.1407072,0.0,0.23071167,0.0,0.08440252,0.0,0.23417054,0.0,-0.035785373,0.0,0.53481674,0.0,-0.29383656,0.0,0.41134992,1178.9744,818.3516,736.55676,821.978,701.9048,-0.095947265625,0.00518798828125,0.98333740234375,-0.157012939453125,-2.093505859375,2.0037841796875,1.0,1.0,1.0,1.0,1.0,90.0,event
13:20:45.245,0.0,0.44075525,0.0,0.68528044,0.0,0.1407072,0.0,0.23071167,0.0,0.08440252,0.0,0.23417054,0.0,-0.035785373,0.0,0.53481674,0.0,-0.29383656,0.0,0.41134992,1110.8792,816.7399,629.3773,793.36993,690.6227,-0.095947265625,0.00518798828125,0.98333740234375,-0.157012939453125,-2.093505859375,2.0037841796875,1.0,1.0,1.0,1.0,1.0,90.0,event
13:20:45.246,0.0,0.44075525,0.0,0.68528044,0.0,0.1407072,0.0,0.23071167,0.0,0.08440252,0.0,0.23417054,0.0,-0.035785373,0.0,0.53481674,0.0,-0.29383656,0.0,0.41134992,1004.10254,816.337,708.3516,775.2381,727.28937,-0.095947265625,0.00518798828125,0.98333740234375,-0.157012939453125,-2.093505859375,2.0037841796875,1.0,1.0,1.0,1.0,1.0,90.0,event
13:20:45.246,0.0,0.44075525,0.0,0.68528044,0.0,0.1407072,0.0,0.23071167,0.0,0.08440252,0.0,0.23417054,0.0,-0.035785373,0.0,0.53481674,0.0,-0.29383656,0.0,0.41134992,1004.10254,811.0989,712.7839,793.36993,735.34796,-0.095947265625,0.00518798828125,0.98333740234375,-0.157012939453125,-2.093505859375,2.0037841796875,1.0,1.0,1.0,1.0,1.0,90.0,event
13:20:45.274,0.0,0.44075525,0.0,0.68528044,0.0,0.1407072,0.0,0.23071167,0.0,0.08440252,0.0,0.23417054,0.0,-0.035785373,0.0,0.53481674,0.0,-0.29383656,0.0,0.41134992,1107.2528,816.7399,657.1795,824.7985,796.99634,-0.10089111328125,-0.0018310546875,0.98309326171875,0.59814453125,-5.084228515625,1.8243408203125,1.0,1.0,1.0,1.0,1.0,90.0,event
13:20:45.275,0.0,0.44075525,0.0,0.68528044,0.0,0.1407072,0.0,0.23071167,0.0,0.08440252,0.0,0.23417054,0.0,-0.035785373,0.0,0.53481674,0.0,-0.29383656,0.0,0.41134992,1178.1685,816.337,664.83514,834.4689,876.3736,-0.10089111328125,-0.0018310546875,0.98309326171875,0.59814453125,-5.084228515625,1.8243408203125,1.0,1.0,1.0,1.0,1.0,90.0,event
13:20:45.276,0.0,0.44075525,0.0,0.68528044,0.0,0.1407072,0.0,0.23071167,0.0,0.08440252,0.0,0.23417054,0.0,-0.035785373,0.0,0.53481674,0.0,-0.29383656,0.0,0.41134992,1116.9231,809.0842,715.6044,813.91943,843.73627,-0.10089111328125,-0.0018310546875,0.98309326171875,0.59814453125,-5.084228515625,1.8243408203125,1.0,1.0,1.0,1.0,1.0,90.0,event
13:20:45.277,0.0,0.44075525,0.0,0.68528044,0.0,0.1407072,0.0,0.23071167,0.0,0.08440252,0.0,0.23417054,0.0,-0.035785373,0.0,0.53481674,0.0,-0.29383656,0.0,0.41134992,1009.34064,815.9341,721.6484,791.75824,706.337,-0.10089111328125,-0.0018310546875,0.98309326171875,0.59814453125,-5.084228515625,1.8243408203125,1.0,1.0,1.0,1.0,1.0,90.0,event
13:20:45.278,0.0,0.50057256,0.0,0.6820733,0.0,0.13354991,0.0,0.23615812,0.0,0.09776747,0.0,0.2592174,0.0,-0.03254264,0.0,0.53011525,0.0,-0.29164398,0.0,0.4079184,1081.4652,827.619,665.64105,808.2784,891.685,-0.10089111328125,-0.0018310546875,0.98309326171875,0.59814453125,-5.084228515625,1.8243408203125,1.0,1.0,1.0,1.0,1.0,90.0,event
13:20:45.278,0.0,0.44075525,0.0,0.68528044,0.0,0.1407072,0.0,0.23071167,0.0,0.08440252,0.0,0.23417054,0.0,-0.035785373,0.0,0.53481674,0.0,-0.29383656,0.0,0.41134992,979.92676,821.1722,693.44324,794.17584,707.1429,-0.10089111328125,-0.0018310546875,0.98309326171875,0.59814453125,-5.084228515625,1.8243408203125,1.0,1.0,1.0,1.0,1.0,90.0,event
13:20:45.282,0.0,0.50057256,0.0,0.6820733,0.0,0.13354991,0.0,0.23615812,0.0,0.09776747,0.0,0.2592174,0.0,-0.03254264,0.0,0.53011525,0.0,-0.29164398,0.0,0.4079184,1201.1355,819.5604,707.9487,817.1429,1028.2784,-0.10089111328125,-0.0018310546875,0.98309326171875,0.59814453125,-5.084228515625,1.8243408203125,1.0,1.0,1.0,1.0,1.0,90.0,event
13:20:45.283,0.0,0.50057256,0.0,0.6820733,0.0,0.13354991,0.0,0.23615812,0.0,0.09776747,0.0,0.2592174,0.0,-0.03254264,0.0,0.53011525,0.0,-0.29164398,0.0,0.4079184,1152.7839,815.5311,728.49817,810.293,852.1978,-0.10089111328125,-0.0018310546875,0.98309326171875,0.59814453125,-5.084228515625,1.8243408203125,1.0,1.0,1.0,1.0,1.0,90.0,event
13:20:45.283,0.0,0.50057256,0.0,0.6820733,0.0,0.13354991,0.0,0.23615812,0.0,0.09776747,0.0,0.2592174,0.0,-0.03254264,0.0,0.53011525,0.0,-0.29164398,0.0,0.4079184,1002.8938,821.1722,682.96704,782.49084,742.1978,-0.10089111328125,-0.0018310546875,0.98309326171875,0.59814453125,-5.084228515625,1.8243408203125,1.0,1.0,1.0,1.0,1.0,90.0,event
13:20:45.284,0.0,0.50057256,0.0,0.6820733,0.0,0.13354991,0.0,0.23615812,0.0,0.09776747,0.0,0.2592174,0.0,-0.03254264,0.0,0.53011525,0.0,-0.29164398,0.0,0.4079184,925.12823,821.5751,641.8681,764.35895,913.0403,-0.10089111328125,-0.0018310546875,0.98309326171875,0.59814453125,-5.084228515625,1.8243408203125,1.0,1.0,1.0,1.0,1.0,90.0,event
13:20:45.284,0.0,0.50057256,0.0,0.6820733,0.0,0.13354991,0.0,0.23615812,0.0,0.09776747,0.0,0.2592174,0.0,-0.03254264,0.0,0.53011525,0.0,-0.29164398,0.0,0.4079184,1005.7143,824.7985,755.89746,800.6227,949.304,-0.10089111328125,-0.0018310546875,0.98309326171875,0.59814453125,-5.084228515625,1.8243408203125,1.0,1.0,1.0,1.0,1.0,90.0,event
13:20:45.285,0.0,0.50057256,0.0,0.6820733,0.0,0.13354991,0.0,0.23615812,0.0,0.09776747,0.0,0.2592174,0.0,-0.03254264,0.0,0.53011525,0.0,-0.29164398,0.0,0.4079184,1186.227,825.2015,763.5531,840.9158,803.8461,-0.10089111328125,-0.0018310546875,0.98309326171875,0.59814453125,-5.084228515625,1.8243408203125,1.0,1.0,1.0,1.0,1.0,90.0,event
13:20:45.306,0.0,0.50057256,0.0,0.6820733,0.0,0.13354991,0.0,0.23615812,0.0,0.09776747,0.0,0.2592174,0.0,-0.03254264,0.0,0.53011525,0.0,-0.29164398,0.0,0.4079184,1212.8206,822.7839,652.74725,826.0073,760.32965,-0.10089111328125,-0.0018310546875,0.98309326171875,0.59814453125,-5.084228515625,1.8243408203125,1.0,1.0,1.0,1.0,1.0,90.0,event
13:20:45.307,0.0,0.50057256,0.0,0.6820733,0.0,0.13354991,0.0,0.23615812,0.0,0.09776747,0.0,0.2592174,0.0,-0.03254264,0.0,0.53011525,0.0,-0.29164398,0.0,0.4079184,1079.0476,822.7839,654.35895,786.9231,826.8132,-0.10089111328125,-0.0018310546875,0.98309326171875,0.59814453125,-5.084228515625,1.8243408203125,1.0,1.0,1.0,1.0,1.0,90.0,event
13:20:45.308,0.0,0.50057256,0.0,0.6820733,0.0,0.13354991,0.0,0.23615812,0.0,0.09776747,0.0,0.2592174,0.0,-0.03254264,0.0,0.53011525,0.0,-0.29164398,0.0,0.4079184,1146.337,828.4249,713.5897,788.1319,712.381,-0.10089111328125,-0.0018310546875,0.98309326171875,0.59814453125,-5.084228515625,1.8243408203125,1.0,1.0,1.0,1.0,1.0,90.0,event
13:20:45.308,0.0,0.50057256,0.0,0.6820733,0.0,0.13354991,0.0,0.23615812,0.0,0.09776747,0.0,0.2592174,0.0,-0.03254264,0.0,0.53011525,0.0,-0.29164398,0.0,0.4079184,1072.1978,826.4103,697.8755,777.6557,770.0,-0.10089111328125,-0.0018310546875,0.98309326171875,0.59814453125,-5.084228515625,1.8243408203125,1.0,1.0,1.0,1.0,1.0,90.0,event
13:20:45.309,0.0,0.50057256,0.0,0.6820733,0.0,0.13354991,0.0,0.23615812,0.0,0.09776747,0.0,0.2592174,0.0,-0.03254264,0.0,0.53011525,0.0,-0.29164398,0.0,0.4079184,1260.3663,829.6337,707.9487,813.91943,769.59705,-0.10089111328125,-0.0018310546875,0.98309326171875,0.59814453125,-5.084228515625,1.8243408203125,1.0,1.0,1.0,1.0,1.0,90.0,event
13:20:45.310,0.0,0.50057256,0.0,0.6820733,0.0,0.13354991,0.0,0.23615812,0.0,0.09776747,0.0,0.2592174,0.0,-0.03254264,0.0,0.53011525,0.0,-0.29164398,0.0,0.4079184,1230.1465,827.619,587.8755,815.12823,1040.7693,-0.10089111328125,-0.0018310546875,0.98309326171875,0.59814453125,-5.084228515625,1.8243408203125,1.0,1.0,1.0,1.0,1.0,90.0,event
13:20:45.310,0.0,0.50057256,0.0,0.6820733,0.0,0.13354991,0.0,0.23615812,0.0,0.09776747,0.0,0.2592174,0.0,-0.03254264,0.0,0.53011525,0.0,-0.29164398,0.0,0.4079184,1036.337,831.2454,691.02563,795.38464,994.43225,-0.10089111328125,-0.0018310546875,0.98309326171875,0.59814453125,-5.084228515625,1.8243408203125,1.0,1.0,1.0,1.0,1.0,90.0,event
13:20:45.311,0.0,0.50057256,0.0,0.6820733,0.0,0.13354991,0.0,0.23615812,0.0,0.09776747,0.0,0.2592174,0.0,-0.03254264,0.0,0.53011525,0.0,-0.29164398,0.0,0.4079184,963.8095,839.304,789.7436,774.83514,752.27106,-0.10089111328125,-0.0018310546875,0.98309326171875,0.59814453125,-5.084228515625,1.8243408203125,1.0,1.0,1.0,1.0,1.0,90.0,event
13:20:45.311,0.0,0.50057256,0.0,0.6820733,0.0,0.13354991,0.0,0.23615812,0.0,0.09776747,0.0,0.2592174,0.0,-0.03254264,0.0,0.53011525,0.0,-0.29164398,0.0,0.4079184,1033.9194,836.8865,683.36993,784.10254,747.4359,-0.10089111328125,-0.0018310546875,0.98309326171875,0.59814453125,-5.084228515625,1.8243408203125,1.0,1.0,1.0,1.0,1.0,90.0,event
13:20:45.312,0.0,0.50057256,0.0,0.6820733,0.0,0.13354991,0.0,0.23615812,0.0,0.09776747,0.0,0.2592174,0.0,-0.03254264,0.0,0.53011525,0.0,-0.29164398,0.0,0.4079184,1143.5165,835.6777,645.89746,824.3956,872.3443,-0.10089111328125,-0.0018310546875,0.98309326171875,0.59814453125,-5.084228515625,1.8243408203125,1.0,1.0,1.0,1.0,1.0,90.0,event
13:20:45.313,0.0,0.50057256,0.0,0.6820733,0.0,0.13354991,0.0,0.23615812,0.0,0.09776747,0.0,0.2592174,0.0,-0.03254264,0.0,0.53011525,0.0,-0.29164398,0.0,0.4079184,1174.1392,838.9011,736.9597,816.337,802.6374,-0.10089111328125,-0.0018310546875,0.98309326171875,0.59814453125,-5.084228515625,1.8243408203125,1.0,1.0,1.0,1.0,1.0,90.0,event
13:20:45.313,0.0,0.50057256,0.0,0.6820733,0.0,0.13354991,0.0,0.23615812,0.0,0.09776747,0.0,0.2592174,0.0,-0.03254264,0.0,0.53011525,0.0,-0.29164398,0.0,0.4079184,1025.8608,839.707,689.81683,756.7033,665.64105,-0.10089111328125,-0.0018310546875,0.98309326171875,0.59814453125,-5.084228515625,1.8243408203125,1.0,1.0,1.0,1.0,1.0,90.0,event
13:20:45.340,0.0,0.50057256,0.0,0.6820733,0.0,0.13354991,0.0,0.23615812,0.0,0.09776747,0.0,0.2592174,0.0,-0.03254264,0.0,0.53011525,0.0,-0.29164398,0.0,0.4079184,925.5311,834.4689,681.75824,764.7619,713.9927,-0.07781982421875,-0.00799560546875,0.982421875,-0.25421142578125,-4.007568359375,2.684173583984375,1.0,1.0,1.0,1.0,1.0,90.0,event
13:20:45.341,0.0,0.50057256,0.0,0.6820733,0.0,0.13354991,0.0,0.23615812,0.0,0.09776747,0.0,0.2592174,0.0,-0.03254264,0.0,0.53011525,0.0,-0.29164398,0.0,0.4079184,1083.4799,829.6337,729.707,804.2491,858.6447,-0.07781982421875,-0.00799560546875,0.982421875,-0.25421142578125,-4.007568359375,2.684173583984375,1.0,1.0,1.0,1.0,1.0,90.0,event
13:20:45.341,0.0,0.50057256,0.0,0.6820733,0.0,0.13354991,0.0,0.23615812,0.0,0.09776747,0.0,0.2592174,0.0,-0.03254264,0.0,0.53011525,0.0,-0.29164398,0.0,0.4079184,985.16486,824.3956,755.89746,800.2198,850.58606,-0.07781982421875,-0.00799560546875,0.982421875,-0.25421142578125,-4.007568359375,2.684173583984375,1.0,1.0,1.0,1.0,1.0,90.0,event
13:20:45.342,0.0,0.50057256,0.0,0.6820733,0.0,0.13354991,0.0,0.23615812,0.0,0.09776747,0.0,0.2592174,0.0,-0.03254264,0.0,0.53011525,0.0,-0.29164398,0.0,0.4079184,1077.4359,840.10986,667.25275,804.2491,815.5311,-0.07781982421875,-0.00799560546875,0.982421875,-0.25421142578125,-4.007568359375,2.684173583984375,1.0,1.0,1.0,1.0,1.0,90.0,event
13:20:45.343,0.0,0.50057256,0.0,0.6820733,0.0,0.13354991,0.0,0.23615812,0.0,0.09776747,0.0,0.2592174,0.0,-0.03254264,0.0,0.53011525,0.0,-0.29164398,0.0,0.4079184,888.0586,838.9011,621.7216,768.7912,804.2491,-0.07781982421875,-0.00799560546875,0.982421875,-0.25421142578125,-4.007568359375,2.684173583984375,1.0,1.0,1.0,1.0,1.0,90.0,event
13:20:45.343,0.0,0.50057256,0.0,0.6820733,0.0,0.13354991,0.0,0.23615812,0.0,0.09776747,0.0,0.2592174,0.0,-0.03254264,0.0,0.53011525,0.0,-0.29164398,0.0,0.4079184,763.5531,837.28937,662.8205,766.3736,827.619,-0.07781982421875,-0.00799560546875,0.982421875,-0.25421142578125,-4.007568359375,2.684173583984375,1.0,1.0,1.0,1.0,1.0,90.0,event
13:20:45.344,0.0,0.50057256,0.0,0.6820733,0.0,0.13354991,0.0,0.23615812,0.0,0.09776747,0.0,0.2592174,0.0,-0.03254264,0.0,0.53011525,0.0,-0.29164398,0.0,0.4079184,779.67035,834.4689,706.7399,783.2967,838.9011,-0.07781982421875,-0.00799560546875,0.982421875,-0.25421142578125,-4.007568359375,2.684173583984375,1.0,1.0,1.0,1.0,1.0,90.0,event
13:20:45.345,0.0,0.5333022,0.0,0.6777645,0.0,0.12752905,0.0,0.19445272,0.0,0.14395191,0.0,0.25547227,0.0,-0.023475714,0.0,0.5274903,0.0,-0.28585213,0.0,0.404033,887.25275,832.8571,696.6667,793.7729,882.4176,-0.07781982421875,-0.00799560546875,0.982421875,-0.25421142578125,-4.007568359375,2.684173583984375,1.0,1.0,1.0,1.0,1.0,90.0,event
13:20:45.348,0.0,0.5333022,0.0,0.6777645,0.0,0.12752905,0.0,0.19445272,0.0,0.14395191,0.0,0.25547227,0.0,-0.023475714,0.0,0.5274903,0.0,-0.28585213,0.0,0.404033,928.7546,837.28937,604.3956,819.9634,948.49817,-0.07781982421875,-0.00799560546875,0.982421875,-0.25421142578125,-4.007568359375,2.684173583984375,1.0,1.0,1.0,1.0,1.0,90.0,event
13:20:45.349,0.0,0.5333022,0.0,0.6777645,0.0,0.12752905,0.0,0.19445272,0.0,0.14395191,0.0,0.25547227,0.0,-0.023475714,0.0,0.5274903,0.0,-0.28585213,0.0,0.404033,751.8681,830.0366,598.3516,811.0989,1124.1758,-0.07781982421875,-0.00799560546875,0.982421875,-0.25421142578125,-4.007568359375,2.684173583984375,1.0,1.0,1.0,1.0,1.0,90.0,event
13:20:45.350,0.0,0.5333022,0.0,0.6777645,0.0,0.12752905,0.0,0.19445272,0.0,0.14395191,0.0,0.25547227,0.0,-0.023475714,0.0,0.5274903,0.0,-0.28585213,0.0,0.404033,650.32965,829.6337,714.3956,755.4945,752.27106,-0.07781982421875,-0.00799560546875,0.982421875,-0.25421142578125,-4.007568359375,2.684173583984375,1.0,1.0,1.0,1.0,1.0,90.0,event
13:20:45.350,0.0,0.5333022,0.0,0.6777645,0.0,0.12752905,0.0,0.19445272,0.0,0.14395191,0.0,0.25547227,0.0,-0.023475714,0.0,0.5274903,0.0,-0.28585213,0.0,0.404033,628.1685,828.8278,764.35895,770.80585,961.39197,-0.07781982421875,-0.00799560546875,0.982421875,-0.25421142578125,-4.007568359375,2.684173583984375,1.0,1.0,1.0,1.0,1.0,90.0,event
13:20:45.373,0.0,0.5333022,0.0,0.6777645,0.0,0.12752905,0.0,0.19445272,0.0,0.14395191,0.0,0.25547227,0.0,-0.023475714,0.0,0.5274903,0.0,-0.28585213,0.0,0.404033,751.8681,828.4249,633.00366,785.7143,855.0183,-0.0928955078125,-0.01422119140625,0.996337890625,1.158905029296875,-1.79443359375,3.147735595703125,1.0,1.0,1.0,1.0,1.0,90.0,event
13:20:45.374,0.0,0.5333022,0.0,0.6777645,0.0,0.12752905,0.0,0.19445272,0.0,0.14395191,0.0,0.25547227,0.0,-0.023475714,0.0,0.5274903,0.0,-0.28585213,0.0,0.404033,858.24176,823.5897,657.5824,807.8755,815.9341,-0.0928955078125,-0.01422119140625,0.996337890625,1.158905029296875,-1.79443359375,3.147735595703125,1.0,1.0,1.0,1.0,1.0,90.0,event
13:20:45.375,0.0,0.5333022,0.0,0.6777645,0.0,0.12752905,0.0,0.19445272,0.0,0.14395191,0.0,0.25547227,0.0,-0.023475714,0.0,0.5274903,0.0,-0.28585213,0.0,0.404033,815.9341,821.978,631.79486,792.1612,699.89014,-0.0928955078125,-0.01422119140625,0.996337890625,1.158905029296875,-1.79443359375,3.147735595703125,1.0,1.0,1.0,1.0,1.0,90.0,event
13:20:45.376,0.0,0.5333022,0.0,0.6777645,0.0,0.12752905,0.0,0.19445272,0.0,0.14395191,0.0,0.25547227,0.0,-0.023475714,0.0,0.5274903,0.0,-0.28585213,0.0,0.404033,692.6374,823.9927,619.304,786.52014,713.9927,-0.0928955078125,-0.01422119140625,0.996337890625,1.158905029296875,-1.79443359375,3.147735595703125,1.0,1.0,1.0,1.0,1.0,90.0,event
13:20:45.376,0.0,0.5333022,0.0,0.6777645,0.0,0.12752905,0.0,0.19445272,0.0,0.14395191,0.0,0.25547227,0.0,-0.023475714,0.0,0.5274903,0.0,-0.28585213,0.0,0.404033,682.5641,819.9634,637.8388,799.81683,776.04395,-0.0928955078125,-0.01422119140625,0.996337890625,1.158905029296875,-1.79443359375,3.147735595703125,1.0,1.0,1.0,1.0,1.0,90.0,event
13:20:45.377,0.0,0.5333022,0.0,0.6777645,0.0,0.12752905,0.0,0.19445272,0.0,0.14395191,0.0,0.25547227,0.0,-0.023475714,0.0,0.5274903,0.0,-0.28585213,0.0,0.404033,749.0476,815.5311,634.21246,801.02563,808.2784,-0.0928955078125,-0.01422119140625,0.996337890625,1.158905029296875,-1.79443359375,3.147735595703125,1.0,1.0,1.0,1.0,1.0,90.0,event
13:20:45.377,0.0,0.5333022,0.0,0.6777645,0.0,0.12752905,0.0,0.19445272,0.0,0.14395191,0.0,0.25547227,0.0,-0.023475714,0.0,0.5274903,0.0,-0.28585213,0.0,0.404033,801.02563,821.5751,650.7326,813.1135,871.53845,-0.0928955078125,-0.01422119140625,0.996337890625,1.158905029296875,-1.79443359375,3.147735595703125,1.0,1.0,1.0,1.0,1.0,90.0,event
13:20:45.378,0.0,0.5333022,0.0,0.6777645,0.0,0.12752905,0.0,0.19445272,0.0,0.14395191,0.0,0.25547227,0.0,-0.023475714,0.0,0.5274903,0.0,-0.28585213,0.0,0.404033,723.663,828.4249,606.0073,795.78754,796.99634,-0.0928955078125,-0.01422119140625,0.996337890625,1.158905029296875,-1.79443359375,3.147735595703125,1.0,1.0,1.0,1.0,1.0,90.0,event
13:20:45.379,0.0,0.5333022,0.0,0.6777645,0.0,0.12752905,0.0,0.19445272,0.0,0.14395191,0.0,0.25547227,0.0,-0.023475714,0.0,0.5274903,0.0,-0.28585213,0.0,0.404033,610.4396,816.337,693.8461,798.60803,945.2747,-0.0928955078125,-0.01422119140625,0.996337890625,1.158905029296875,-1.79443359375,3.147735595703125,1.0,1.0,1.0,1.0,1.0,90.0,event
13:20:45.379,0.0,0.5333022,0.0,0.6777645,0.0,0.12752905,0.0,0.19445272,0.0,0.14395191,0.0,0.25547227,0.0,-0.023475714,0.0,0.5274903,0.0,-0.28585213,0.0,0.404033,588.68134,821.5751,547.5824,788.5348,921.0989,-0.0928955078125,-0.01422119140625,0.996337890625,1.158905029296875,-1.79443359375,3.147735595703125,1.0,1.0,1.0,1.0,1.0,90.0,event
13:20:45.380,0.0,0.5333022,0.0,0.6777645,0.0,0.12752905,0.0,0.19445272,0.0,0.14395191,0.0,0.25547227,0.0,-0.023475714,0.0,0.5274903,0.0,-0.28585213,0.0,0.404033,773.22345,809.4872,719.2308,805.4579,742.1978,-0.0928955078125,-0.01422119140625,0.996337890625,1.158905029296875,-1.79443359375,3.147735595703125,1.0,1.0,1.0,1.0,1.0,90.0,event
13:20:45.381,0.0,0.5333022,0.0,0.6777645,0.0,0.12752905,0.0,0.19445272,0.0,0.14395191,0.0,0.25547227,0.0,-0.023475714,0.0,0.5274903,0.0,-0.28585213,0.0,0.404033,891.28204,805.8608,600.7692,824.3956,772.01465,-0.0928955078125,-0.01422119140625,0.996337890625,1.158905029296875,-1.79443359375,3.147735595703125,1.0,1.0,1.0,1.0,1.0,90.0,event
13:20:45.441,0.0,0.5333022,0.0,0.6777645,0.0,0.12752905,0.0,0.19445272,0.0,0.14395191,0.0,0.25547227,0.0,-0.023475714,0.0,0.5274903,0.0,-0.28585213,0.0,0.404033,792.5641,814.3223,614.0659,827.2161,835.6777,-0.0819091796875,-0.0057373046875,0.98748779296875,2.213134765625,0.2392578125,0.740203857421875,1.0,1.0,1.0,1.0,1.0,90.0,event
13:20:45.442,0.0,0.5333022,0.0,0.6777645,0.0,0.12752905,0.0,0.19445272,0.0,0.14395191,0.0,0.25547227,0.0,-0.023475714,0.0,0.5274903,0.0,-0.28585213,0.0,0.404033,630.18317,811.50183,664.43225,793.7729,745.0183,-0.0819091796875,-0.0057373046875,0.98748779296875,2.213134765625,0.2392578125,0.740203857421875,1.0,1.0,1.0,1.0,1.0,90.0,event
