TimeStamp,Delta_TP9,Delta_AF7,Delta_AF8,Delta_TP10,Theta_TP9,Theta_AF7,Theta_AF8,Theta_TP10,Alpha_TP9,Alpha_AF7,Alpha_AF8,Alpha_TP10,Beta_TP9,Beta_AF7,Beta_AF8,Beta_TP10,Gamma_TP9,Gamma_AF7,Gamma_AF8,Gamma_TP10,RAW_TP9,RAW_AF7,RAW_AF8,RAW_TP10,AUX_RIGHT,Accelerometer_X,Accelerometer_Y,Accelerometer_Z,Gyro_X,Gyro_Y,Gyro_Z,HeadBandOn,HSI_TP9,HSI_AF7,HSI_AF8,HSI_TP10,Battery,Elements
15:35:57.025,1.2726071,0.8736412,-0.071143344,0.7593124,1.0480205,0.6085476,-0.0267327,0.26741758,0.7305667,0.9243921,0.6395183,0.40027976,0.60403675,0.37222803,0.46679464,0.6895451,0.5004055,0.029742604,0.19314763,0.3431603,736.9597,862.674,775.2381,684.57874,836.8865,-0.22515869140625,0.0843505859375,0.93963623046875,2.27294921875,-7.01324462890625,0.82244873046875,1.0,1.0,1.0,1.0,1.0,100.0,event
15:35:57.026,1.2726071,0.8736412,-0.071143344,0.7593124,1.0480205,0.6085476,-0.0267327,0.26741758,0.7305667,0.9243921,0.6395183,0.40027976,0.60403675,0.37222803,0.46679464,0.6895451,0.5004055,0.029742604,0.19314763,0.3431603,739.3773,855.0183,784.5055,684.9817,998.86444,-0.22515869140625,0.0843505859375,0.93963623046875,2.27294921875,-7.01324462890625,0.82244873046875,1.0,1.0,1.0,1.0,1.0,100.0,event
15:35:57.027,1.2726071,0.8736412,-0.071143344,0.7593124,1.0480205,0.6085476,-0.0267327,0.26741758,0.7305667,0.9243921,0.6395183,0.40027976,0.60403675,0.37222803,0.46679464,0.6895451,0.5004055,0.029742604,0.19314763,0.3431603,734.94507,852.6007,810.293,705.9341,810.293,-0.22515869140625,0.0843505859375,0.93963623046875,2.27294921875,-7.01324462890625,0.82244873046875,1.0,1.0,1.0,1.0,1.0,100.0,event
15:35:57.028,1.2726071,0.8736412,-0.071143344,0.7593124,1.0480205,0.6085476,-0.0267327,0.26741758,0.7305667,0.9243921,0.6395183,0.40027976,0.60403675,0.37222803,0.46679464,0.6895451,0.5004055,0.029742604,0.19314763,0.3431603,740.989,849.3773,794.17584,722.8571,677.326,-0.22515869140625,0.0843505859375,0.93963623046875,2.27294921875,-7.01324462890625,0.82244873046875,1.0,1.0,1.0,1.0,1.0,100.0,event
15:35:57.029,1.2726071,0.8736412,-0.071143344,0.7593124,1.0480205,0.6085476,-0.0267327,0.26741758,0.7305667,0.9243921,0.6395183,0.40027976,0.60403675,0.37222803,0.46679464,0.6895451,0.5004055,0.029742604,0.19314763,0.3431603,742.1978,842.9304,776.8498,721.6484,755.09155,-0.22515869140625,0.0843505859375,0.93963623046875,2.27294921875,-7.01324462890625,0.82244873046875,1.0,1.0,1.0,1.0,1.0,100.0,event
15:35:57.030,1.2726071,0.8736412,-0.071143344,0.7593124,1.0480205,0.6085476,-0.0267327,0.26741758,0.7305667,0.9243921,0.6395183,0.40027976,0.60403675,0.37222803,0.46679464,0.6895451,0.5004055,0.029742604,0.19314763,0.3431603,761.13556,842.1245,792.5641,734.94507,711.1722,-0.22515869140625,0.0843505859375,0.93963623046875,2.27294921875,-7.01324462890625,0.82244873046875,1.0,1.0,1.0,1.0,1.0,100.0,event
15:35:57.057,1.2726071,0.8736412,-0.071143344,0.7593124,1.0480205,0.6085476,-0.0267327,0.26741758,0.7305667,0.9243921,0.6395183,0.40027976,0.60403675,0.37222803,0.46679464,0.6895451,0.5004055,0.029742604,0.19314763,0.3431603,774.43225,833.663,796.5934,736.9597,699.4872,-0.22515869140625,0.0843505859375,0.93963623046875,2.27294921875,-7.01324462890625,0.82244873046875,1.0,1.0,1.0,1.0,1.0,100.0,event
15:35:57.058,1.2726071,0.8736412,-0.071143344,0.7593124,1.0480205,0.6085476,-0.0267327,0.26741758,0.7305667,0.9243921,0.6395183,0.40027976,0.60403675,0.37222803,0.46679464,0.6895451,0.5004055,0.029742604,0.19314763,0.3431603,779.2674,823.9927,777.6557,732.52747,760.32965,-0.22515869140625,0.0843505859375,0.93963623046875,2.27294921875,-7.01324462890625,0.82244873046875,1.0,1.0,1.0,1.0,1.0,100.0,event
15:35:57.059,1.2726071,0.8736412,-0.071143344,0.7593124,1.0480205,0.6085476,-0.0267327,0.26741758,0.7305667,0.9243921,0.6395183,0.40027976,0.60403675,0.37222803,0.46679464,0.6895451,0.5004055,0.029742604,0.19314763,0.3431603,792.5641,819.5604,765.56775,745.42126,821.978,-0.22515869140625,0.0843505859375,0.93963623046875,2.27294921875,-7.01324462890625,0.82244873046875,1.0,1.0,1.0,1.0,1.0,100.0,event
15:35:57.060,1.2726071,0.8736412,-0.071143344,0.7593124,1.0480205,0.6085476,-0.0267327,0.26741758,0.7305667,0.9243921,0.6395183,0.40027976,0.60403675,0.37222803,0.46679464,0.6895451,0.5004055,0.029742604,0.19314763,0.3431603,780.07324,817.1429,775.64105,753.8828,803.8461,-0.22515869140625,0.0843505859375,0.93963623046875,2.27294921875,-7.01324462890625,0.82244873046875,1.0,1.0,1.0,1.0,1.0,100.0,event
15:35:57.060,1.2726071,0.8736412,-0.071143344,0.7593124,1.0480205,0.6085476,-0.0267327,0.26741758,0.7305667,0.9243921,0.6395183,0.40027976,0.60403675,0.37222803,0.46679464,0.6895451,0.5004055,0.029742604,0.19314763,0.3431603,776.8498,818.3516,780.07324,765.9707,781.28204,-0.22515869140625,0.0843505859375,0.93963623046875,2.27294921875,-7.01324462890625,0.82244873046875,1.0,1.0,1.0,1.0,1.0,100.0,event
15:35:57.061,1.2726071,0.8736412,-0.071143344,0.7593124,1.0480205,0.6085476,-0.0267327,0.26741758,0.7305667,0.9243921,0.6395183,0.40027976,0.60403675,0.37222803,0.46679464,0.6895451,0.5004055,0.029742604,0.19314763,0.3431603,800.6227,823.1868,776.04395,778.46155,859.0476,-0.22515869140625,0.0843505859375,0.93963623046875,2.27294921875,-7.01324462890625,0.82244873046875,1.0,1.0,1.0,1.0,1.0,100.0,event
15:35:57.062,1.2726071,0.8736412,-0.071143344,0.7593124,1.0480205,0.6085476,-0.0267327,0.26741758,0.7305667,0.9243921,0.6395183,0.40027976,0.60403675,0.37222803,0.46679464,0.6895451,0.5004055,0.029742604,0.19314763,0.3431603,805.4579,817.9487,762.74725,776.8498,1098.3883,-0.22515869140625,0.0843505859375,0.93963623046875,2.27294921875,-7.01324462890625,0.82244873046875,1.0,1.0,1.0,1.0,1.0,100.0,event
15:35:57.063,1.2726071,0.8736412,-0.071143344,0.7593124,1.0480205,0.6085476,-0.0267327,0.26741758,0.7305667,0.9243921,0.6395183,0.40027976,0.60403675,0.37222803,0.46679464,0.6895451,0.5004055,0.029742604,0.19314763,0.3431603,808.2784,820.3663,798.20514,772.8205,760.7326,-0.22515869140625,0.0843505859375,0.93963623046875,2.27294921875,-7.01324462890625,0.82244873046875,1.0,1.0,1.0,1.0,1.0,100.0,event
15:35:57.063,1.2726071,0.8736412,-0.071143344,0.7593124,1.0480205,0.6085476,-0.0267327,0.26741758,0.7305667,0.9243921,0.6395183,0.40027976,0.60403675,0.37222803,0.46679464,0.6895451,0.5004055,0.029742604,0.19314763,0.3431603,798.20514,817.1429,788.93774,768.7912,1069.7803,-0.22515869140625,0.0843505859375,0.93963623046875,2.27294921875,-7.01324462890625,0.82244873046875,1.0,1.0,1.0,1.0,1.0,100.0,event
15:35:57.064,1.2726071,0.8736412,-0.04608287,0.7593124,1.0480205,0.6085476,-0.05497478,0.26741758,0.7305667,0.9243921,0.6395183,0.40027976,0.60403675,0.37222803,0.4434318,0.6895451,0.5004055,0.029742604,0.1727057,0.3431603,811.0989,817.1429,777.6557,770.0,736.9597,-0.22515869140625,0.0843505859375,0.93963623046875,2.27294921875,-7.01324462890625,0.82244873046875,1.0,1.0,1.0,1.0,1.0,100.0,event
15:35:57.068,1.2726071,0.8736412,-0.04608287,0.7593124,1.0480205,0.6085476,-0.05497478,0.26741758,0.7305667,0.9243921,0.6395183,0.40027976,0.60403675,0.37222803,0.4434318,0.6895451,0.5004055,0.029742604,0.1727057,0.3431603,812.71063,816.7399,785.7143,773.22345,786.1172,-0.22515869140625,0.0843505859375,0.93963623046875,2.27294921875,-7.01324462890625,0.82244873046875,1.0,1.0,1.0,1.0,1.0,100.0,event
15:35:57.069,1.2726071,0.8736412,-0.04608287,0.7593124,1.0480205,0.6085476,-0.05497478,0.26741758,0.7305667,0.9243921,0.6395183,0.40027976,0.60403675,0.37222803,0.4434318,0.6895451,0.5004055,0.029742604,0.1727057,0.3431603,820.7692,813.91943,796.5934,778.0586,782.0879,-0.22515869140625,0.0843505859375,0.93963623046875,2.27294921875,-7.01324462890625,0.82244873046875,1.0,1.0,1.0,1.0,1.0,100.0,event
15:35:57.099,1.2726071,0.8736412,-0.04608287,0.7593124,1.0480205,0.6085476,-0.05497478,0.26741758,0.7305667,0.9243921,0.6395183,0.40027976,0.60403675,0.37222803,0.4434318,0.6895451,0.5004055,0.029742604,0.1727057,0.3431603,826.4103,811.50183,784.5055,792.5641,767.5824,-0.1910400390625,0.09173583984375,0.9691162109375,2.97576904296875,-4.358978271484375,-2.908477783203125,1.0,1.0,1.0,1.0,1.0,100.0,event
15:35:57.100,1.2726071,0.8736412,-0.04608287,0.7593124,1.0480205,0.6085476,-0.05497478,0.26741758,0.7305667,0.9243921,0.6395183,0.40027976,0.60403675,0.37222803,0.4434318,0.6895451,0.5004055,0.029742604,0.1727057,0.3431603,817.5458,806.6667,774.0293,792.5641,716.0073,-0.1910400390625,0.09173583984375,0.9691162109375,2.97576904296875,-4.358978271484375,-2.908477783203125,1.0,1.0,1.0,1.0,1.0,100.0,event
15:35:57.101,1.2726071,0.8736412,-0.04608287,0.7593124,1.0480205,0.6085476,-0.05497478,0.26741758,0.7305667,0.9243921,0.6395183,0.40027976,0.60403675,0.37222803,0.4434318,0.6895451,0.5004055,0.029742604,0.1727057,0.3431603,803.0403,808.2784,786.9231,782.8938,733.73627,-0.1910400390625,0.09173583984375,0.9691162109375,2.97576904296875,-4.358978271484375,-2.908477783203125,1.0,1.0,1.0,1.0,1.0,100.0,event
15:35:57.101,1.2726071,0.8736412,-0.04608287,0.7593124,1.0480205,0.6085476,-0.05497478,0.26741758,0.7305667,0.9243921,0.6395183,0.40027976,0.60403675,0.37222803,0.4434318,0.6895451,0.5004055,0.029742604,0.1727057,0.3431603,809.89014,805.05493,789.7436,792.5641,730.10986,-0.1910400390625,0.09173583984375,0.9691162109375,2.97576904296875,-4.358978271484375,-2.908477783203125,1.0,1.0,1.0,1.0,1.0,100.0,event
15:35:57.102,1.2726071,0.8736412,-0.04608287,0.7593124,1.0480205,0.6085476,-0.05497478,0.26741758,0.7305667,0.9243921,0.6395183,0.40027976,0.60403675,0.37222803,0.4434318,0.6895451,0.5004055,0.029742604,0.1727057,0.3431603,823.1868,796.1905,782.0879,786.9231,707.9487,-0.1910400390625,0.09173583984375,0.9691162109375,2.97576904296875,-4.358978271484375,-2.908477783203125,1.0,1.0,1.0,1.0,1.0,100.0,event
15:35:57.103,1.2726071,0.8736412,-0.04608287,0.7593124,1.0480205,0.6085476,-0.05497478,0.26741758,0.7305667,0.9243921,0.6395183,0.40027976,0.60403675,0.37222803,0.4434318,0.6895451,0.5004055,0.029742604,0.1727057,0.3431603,830.0366,796.99634,773.22345,785.7143,989.59705,-0.1910400390625,0.09173583984375,0.9691162109375,2.97576904296875,-4.358978271484375,-2.908477783203125,1.0,1.0,1.0,1.0,1.0,100.0,event
15:35:57.103,1.2726071,0.8736412,-0.04608287,0.7593124,1.0480205,0.6085476,-0.05497478,0.26741758,0.7305667,0.9243921,0.6395183,0.40027976,0.60403675,0.37222803,0.4434318,0.6895451,0.5004055,0.029742604,0.1727057,0.3431603,833.2601,796.99634,765.16486,774.83514,900.9524,-0.1910400390625,0.09173583984375,0.9691162109375,2.97576904296875,-4.358978271484375,-2.908477783203125,1.0,1.0,1.0,1.0,1.0,100.0,event
15:35:57.104,1.2726071,0.8736412,-0.04608287,0.7593124,1.0480205,0.6085476,-0.05497478,0.26741758,0.7305667,0.9243921,0.6395183,0.40027976,0.60403675,0.37222803,0.4434318,0.6895451,0.5004055,0.029742604,0.1727057,0.3431603,829.2308,794.9817,794.9817,802.6374,863.8828,-0.1910400390625,0.09173583984375,0.9691162109375,2.97576904296875,-4.358978271484375,-2.908477783203125,1.0,1.0,1.0,1.0,1.0,100.0,event
15:35:57.105,1.2726071,0.8736412,-0.04608287,0.7593124,1.0480205,0.6085476,-0.05497478,0.26741758,0.7305667,0.9243921,0.6395183,0.40027976,0.60403675,0.37222803,0.4434318,0.6895451,0.5004055,0.029742604,0.1727057,0.3431603,828.022,800.6227,796.99634,807.47253,755.4945,-0.1910400390625,0.09173583984375,0.9691162109375,2.97576904296875,-4.358978271484375,-2.908477783203125,1.0,1.0,1.0,1.0,1.0,100.0,event
15:35:57.106,1.2726071,0.8736412,-0.04608287,0.7593124,1.0480205,0.6085476,-0.05497478,0.26741758,0.7305667,0.9243921,0.6395183,0.40027976,0.60403675,0.37222803,0.4434318,0.6895451,0.5004055,0.029742604,0.1727057,0.3431603,838.9011,800.6227,777.25275,811.0989,770.0,-0.1910400390625,0.09173583984375,0.9691162109375,2.97576904296875,-4.358978271484375,-2.908477783203125,1.0,1.0,1.0,1.0,1.0,100.0,event
15:35:57.108,1.2726071,0.8736412,-0.04608287,0.7593124,1.0480205,0.6085476,-0.05497478,0.26741758,0.7305667,0.9243921,0.6395183,0.40027976,0.60403675,0.37222803,0.4434318,0.6895451,0.5004055,0.029742604,0.1727057,0.3431603,840.9158,800.2198,781.28204,814.3223,835.6777,-0.1910400390625,0.09173583984375,0.9691162109375,2.97576904296875,-4.358978271484375,-2.908477783203125,1.0,1.0,1.0,1.0,1.0,100.0,event
15:35:57.109,1.2726071,0.8736412,-0.04608287,0.7593124,1.0480205,0.6085476,-0.05497478,0.26741758,0.7305667,0.9243921,0.6395183,0.40027976,0.60403675,0.37222803,0.4434318,0.6895451,0.5004055,0.029742604,0.1727057,0.3431603,830.84247,809.0842,788.93774,802.23444,676.9231,-0.1910400390625,0.09173583984375,0.9691162109375,2.97576904296875,-4.358978271484375,-2.908477783203125,1.0,1.0,1.0,1.0,1.0,100.0,event
15:35:57.160,1.2726071,0.8736412,-0.04608287,0.7593124,1.0480205,0.6085476,-0.05497478,0.26741758,0.7305667,0.9243921,0.6395183,0.40027976,0.60403675,0.37222803,0.4434318,0.6895451,0.5004055,0.029742604,0.1727057,0.3431603,827.2161,808.2784,783.69965,792.96704,650.32965,-0.18878173828125,0.0931396484375,0.96807861328125,2.73651123046875,-1.614990234375,-4.194488525390625,1.0,1.0,1.0,1.0,1.0,100.0,event
15:35:57.161,1.2726071,0.8736412,-0.04608287,0.7593124,1.0480205,0.6085476,-0.05497478,0.26741758,0.7305667,0.9243921,0.6395183,0.40027976,0.60403675,0.37222803,0.4434318,0.6895451,0.5004055,0.029742604,0.1727057,0.3431603,834.4689,796.99634,776.04395,800.6227,747.03296,-0.18878173828125,0.0931396484375,0.96807861328125,2.73651123046875,-1.614990234375,-4.194488525390625,1.0,1.0,1.0,1.0,1.0,100.0,event
15:35:57.162,1.2726071,0.8736412,-0.04608287,0.7593124,1.0480205,0.6085476,-0.05497478,0.26741758,0.7305667,0.9243921,0.6395183,0.40027976,0.60403675,0.37222803,0.4434318,0.6895451,0.5004055,0.029742604,0.1727057,0.3431603,829.6337,795.78754,787.326,796.99634,800.2198,-0.18878173828125,0.0931396484375,0.96807861328125,2.73651123046875,-1.614990234375,-4.194488525390625,1.0,1.0,1.0,1.0,1.0,100.0,event
15:35:57.162,1.2726071,0.8736412,-0.04608287,0.7593124,1.0480205,0.6085476,-0.05497478,0.26741758,0.7305667,0.9243921,0.6395183,0.40027976,0.60403675,0.37222803,0.4434318,0.6895451,0.5004055,0.029742604,0.1727057,0.3431603,821.1722,796.1905,793.7729,784.10254,752.27106,-0.18878173828125,0.0931396484375,0.96807861328125,2.73651123046875,-1.614990234375,-4.194488525390625,1.0,1.0,1.0,1.0,1.0,100.0,event
15:35:57.163,1.2726071,0.8736412,-0.04608287,0.7593124,1.0480205,0.6085476,-0.05497478,0.26741758,0.7305667,0.9243921,0.6395183,0.40027976,0.60403675,0.37222803,0.4434318,0.6895451,0.5004055,0.029742604,0.1727057,0.3431603,813.5165,788.5348,782.0879,794.17584,865.89746,-0.18878173828125,0.0931396484375,0.96807861328125,2.73651123046875,-1.614990234375,-4.194488525390625,1.0,1.0,1.0,1.0,1.0,100.0,event
15:35:57.163,1.2726071,0.8736412,-0.04608287,0.7593124,1.0480205,0.6085476,-0.05497478,0.26741758,0.7305667,0.9243921,0.6395183,0.40027976,0.60403675,0.37222803,0.4434318,0.6895451,0.5004055,0.029742604,0.1727057,0.3431603,821.1722,791.3553,783.2967,783.2967,759.5238,-0.18878173828125,0.0931396484375,0.96807861328125,2.73651123046875,-1.614990234375,-4.194488525390625,1.0,1.0,1.0,1.0,1.0,100.0,event
15:35:57.164,1.2726071,0.8736412,-0.04608287,0.7593124,1.0480205,0.6085476,-0.05497478,0.26741758,0.7305667,0.9243921,0.6395183,0.40027976,0.60403675,0.37222803,0.4434318,0.6895451,0.5004055,0.029742604,0.1727057,0.3431603,818.7546,790.14655,790.54944,803.44324,861.06226,-0.18878173828125,0.0931396484375,0.96807861328125,2.73651123046875,-1.614990234375,-4.194488525390625,1.0,1.0,1.0,1.0,1.0,100.0,event
15:35:57.164,1.2726071,0.8736412,-0.04608287,0.7593124,1.0480205,0.6085476,-0.05497478,0.26741758,0.7305667,0.9243921,0.6395183,0.40027976,0.60403675,0.37222803,0.4434318,0.6895451,0.5004055,0.029742604,0.1727057,0.3431603,826.8132,797.8022,802.23444,792.1612,811.9048,-0.18878173828125,0.0931396484375,0.96807861328125,2.73651123046875,-1.614990234375,-4.194488525390625,1.0,1.0,1.0,1.0,1.0,100.0,event
15:35:57.165,1.2726071,0.8736412,-0.04608287,0.7593124,1.0480205,0.6085476,-0.05497478,0.26741758,0.7305667,0.9243921,0.6395183,0.40027976,0.60403675,0.37222803,0.4434318,0.6895451,0.5004055,0.029742604,0.1727057,0.3431603,813.5165,793.36993,788.93774,787.72894,731.7216,-0.18878173828125,0.0931396484375,0.96807861328125,2.73651123046875,-1.614990234375,-4.194488525390625,1.0,1.0,1.0,1.0,1.0,100.0,event
15:35:57.166,1.2726071,0.8736412,-0.04608287,0.7593124,1.0480205,0.6085476,-0.05497478,0.26741758,0.7305667,0.9243921,0.6395183,0.40027976,0.60403675,0.37222803,0.4434318,0.6895451,0.5004055,0.029742604,0.1727057,0.3431603,820.3663,785.31134,763.95605,802.6374,935.2015,-0.18878173828125,0.0931396484375,0.96807861328125,2.73651123046875,-1.614990234375,-4.194488525390625,1.0,1.0,1.0,1.0,1.0,100.0,event
15:35:57.166,1.2726071,0.8736412,-0.04608287,0.7593124,1.0480205,0.6085476,-0.05497478,0.26741758,0.7305667,0.9243921,0.6395183,0.40027976,0.60403675,0.37222803,0.4434318,0.6895451,0.5004055,0.029742604,0.1727057,0.3431603,826.4103,795.38464,798.60803,791.75824,1033.9194,-0.18878173828125,0.0931396484375,0.96807861328125,2.73651123046875,-1.614990234375,-4.194488525390625,1.0,1.0,1.0,1.0,1.0,100.0,event
15:35:57.167,1.2726071,0.84621334,0.042359002,0.7593124,1.0480205,0.6064288,-0.07362233,0.26741758,0.7305667,0.9243921,0.6395183,0.40027976,0.60403675,0.36259094,0.42123672,0.6895451,0.5004055,0.041567754,0.15809429,0.3431603,818.3516,798.20514,812.3077,782.8938,798.60803,-0.18878173828125,0.0931396484375,0.96807861328125,2.73651123046875,-1.614990234375,-4.194488525390625,1.0,1.0,1.0,1.0,1.0,100.0,event
15:35:57.170,,,,,,,,,,,,,,,,,,,,,,,,,,,,,,,,,,,,,,blink
15:35:57.201,1.2726071,0.84621334,0.042359002,0.7593124,1.0480205,0.6064288,-0.07362233,0.26741758,0.7305667,0.9243921,0.6395183,0.40027976,0.60403675,0.36259094,0.42123672,0.6895451,0.5004055,0.041567754,0.15809429,0.3431603,823.9927,797.8022,793.36993,790.9524,722.8571,-0.18182373046875,0.09283447265625,0.9683837890625,2.145843505859375,-4.3963623046875,-1.57012939453125,1.0,1.0,1.0,1.0,1.0,100.0,event
15:35:57.202,1.2726071,0.84621334,0.042359002,0.7593124,1.0480205,0.6064288,-0.07362233,0.26741758,0.7305667,0.9243921,0.6395183,0.40027976,0.60403675,0.36259094,0.42123672,0.6895451,0.5004055,0.041567754,0.15809429,0.3431603,814.3223,797.3993,806.6667,792.5641,871.13556,-0.18182373046875,0.09283447265625,0.9683837890625,2.145843505859375,-4.3963623046875,-1.57012939453125,1.0,1.0,1.0,1.0,1.0,100.0,event
15:35:57.202,1.2726071,0.84621334,0.042359002,0.7593124,1.0480205,0.6064288,-0.07362233,0.26741758,0.7305667,0.9243921,0.6395183,0.40027976,0.60403675,0.36259094,0.42123672,0.6895451,0.5004055,0.041567754,0.15809429,0.3431603,822.381,799.41394,803.44324,795.38464,896.52014,-0.18182373046875,0.09283447265625,0.9683837890625,2.145843505859375,-4.3963623046875,-1.57012939453125,1.0,1.0,1.0,1.0,1.0,100.0,event
15:35:57.203,1.2726071,0.84621334,0.042359002,0.7593124,1.0480205,0.6064288,-0.07362233,0.26741758,0.7305667,0.9243921,0.6395183,0.40027976,0.60403675,0.36259094,0.42123672,0.6895451,0.5004055,0.041567754,0.15809429,0.3431603,802.6374,792.1612,798.20514,784.10254,718.4249,-0.18182373046875,0.09283447265625,0.9683837890625,2.145843505859375,-4.3963623046875,-1.57012939453125,1.0,1.0,1.0,1.0,1.0,100.0,event
15:35:57.203,1.2726071,0.84621334,0.042359002,0.7593124,1.0480205,0.6064288,-0.07362233,0.26741758,0.7305667,0.9243921,0.6395183,0.40027976,0.60403675,0.36259094,0.42123672,0.6895451,0.5004055,0.041567754,0.15809429,0.3431603,801.4286,787.72894,799.41394,784.5055,689.41394,-0.18182373046875,0.09283447265625,0.9683837890625,2.145843505859375,-4.3963623046875,-1.57012939453125,1.0,1.0,1.0,1.0,1.0,100.0,event
15:35:57.204,1.2726071,0.84621334,0.042359002,0.7593124,1.0480205,0.6064288,-0.07362233,0.26741758,0.7305667,0.9243921,0.6395183,0.40027976,0.60403675,0.36259094,0.42123672,0.6895451,0.5004055,0.041567754,0.15809429,0.3431603,823.1868,788.1319,811.0989,793.36993,836.8865,-0.18182373046875,0.09283447265625,0.9683837890625,2.145843505859375,-4.3963623046875,-1.57012939453125,1.0,1.0,1.0,1.0,1.0,100.0,event
15:35:57.204,1.2726071,0.84621334,0.042359002,0.7593124,1.0480205,0.6064288,-0.07362233,0.26741758,0.7305667,0.9243921,0.6395183,0.40027976,0.60403675,0.36259094,0.42123672,0.6895451,0.5004055,0.041567754,0.15809429,0.3431603,830.4396,798.60803,817.1429,797.3993,953.73627,-0.18182373046875,0.09283447265625,0.9683837890625,2.145843505859375,-4.3963623046875,-1.57012939453125,1.0,1.0,1.0,1.0,1.0,100.0,event
15:35:57.205,1.2726071,0.84621334,0.042359002,0.7593124,1.0480205,0.6064288,-0.07362233,0.26741758,0.7305667,0.9243921,0.6395183,0.40027976,0.60403675,0.36259094,0.42123672,0.6895451,0.5004055,0.041567754,0.15809429,0.3431603,828.022,804.2491,811.0989,790.9524,824.3956,-0.18182373046875,0.09283447265625,0.9683837890625,2.145843505859375,-4.3963623046875,-1.57012939453125,1.0,1.0,1.0,1.0,1.0,100.0,event
15:35:57.206,1.2726071,0.84621334,0.042359002,0.7593124,1.0480205,0.6064288,-0.07362233,0.26741758,0.7305667,0.9243921,0.6395183,0.40027976,0.60403675,0.36259094,0.42123672,0.6895451,0.5004055,0.041567754,0.15809429,0.3431603,828.8278,789.7436,795.38464,796.1905,820.3663,-0.18182373046875,0.09283447265625,0.9683837890625,2.145843505859375,-4.3963623046875,-1.57012939453125,1.0,1.0,1.0,1.0,1.0,100.0,event
15:35:57.206,1.2726071,0.84621334,0.042359002,0.7593124,1.0480205,0.6064288,-0.07362233,0.26741758,0.7305667,0.9243921,0.6395183,0.40027976,0.60403675,0.36259094,0.42123672,0.6895451,0.5004055,0.041567754,0.15809429,0.3431603,813.91943,787.326,801.8315,791.3553,977.50916,-0.18182373046875,0.09283447265625,0.9683837890625,2.145843505859375,-4.3963623046875,-1.57012939453125,1.0,1.0,1.0,1.0,1.0,100.0,event
15:35:57.207,1.2726071,0.84621334,0.042359002,0.7593124,1.0480205,0.6064288,-0.07362233,0.26741758,0.7305667,0.9243921,0.6395183,0.40027976,0.60403675,0.36259094,0.42123672,0.6895451,0.5004055,0.041567754,0.15809429,0.3431603,817.1429,799.41394,809.0842,785.31134,675.7143,-0.18182373046875,0.09283447265625,0.9683837890625,2.145843505859375,-4.3963623046875,-1.57012939453125,1.0,1.0,1.0,1.0,1.0,100.0,event
15:35:57.207,1.2726071,0.84621334,0.042359002,0.7593124,1.0480205,0.6064288,-0.07362233,0.26741758,0.7305667,0.9243921,0.6395183,0.40027976,0.60403675,0.36259094,0.42123672,0.6895451,0.5004055,0.041567754,0.15809429,0.3431603,811.50183,800.6227,819.5604,790.9524,787.72894,-0.18182373046875,0.09283447265625,0.9683837890625,2.145843505859375,-4.3963623046875,-1.57012939453125,1.0,1.0,1.0,1.0,1.0,100.0,event
15:35:57.235,1.2726071,0.84621334,0.042359002,0.7593124,1.0480205,0.6064288,-0.07362233,0.26741758,0.7305667,0.9243921,0.6395183,0.40027976,0.60403675,0.36259094,0.42123672,0.6895451,0.5004055,0.041567754,0.15809429,0.3431603,823.9927,792.96704,795.78754,774.83514,803.44324,-0.19488525390625,0.08831787109375,0.9549560546875,2.714080810546875,-6.542205810546875,0.426177978515625,1.0,1.0,1.0,1.0,1.0,100.0,event
15:35:57.236,1.2726071,0.84621334,0.042359002,0.7593124,1.0480205,0.6064288,-0.07362233,0.26741758,0.7305667,0.9243921,0.6395183,0.40027976,0.60403675,0.36259094,0.42123672,0.6895451,0.5004055,0.041567754,0.15809429,0.3431603,819.15753,799.011,799.41394,782.49084,878.3883,-0.19488525390625,0.08831787109375,0.9549560546875,2.714080810546875,-6.542205810546875,0.426177978515625,1.0,1.0,1.0,1.0,1.0,100.0,event
15:35:57.237,1.2726071,0.84621334,0.042359002,0.7593124,1.0480205,0.6064288,-0.07362233,0.26741758,0.7305667,0.9243921,0.6395183,0.40027976,0.60403675,0.36259094,0.42123672,0.6895451,0.5004055,0.041567754,0.15809429,0.3431603,811.9048,801.02563,813.5165,785.31134,759.92676,-0.19488525390625,0.08831787109375,0.9549560546875,2.714080810546875,-6.542205810546875,0.426177978515625,1.0,1.0,1.0,1.0,1.0,100.0,event
15:35:57.237,1.2726071,0.84621334,0.042359002,0.7593124,1.0480205,0.6064288,-0.07362233,0.26741758,0.7305667,0.9243921,0.6395183,0.40027976,0.60403675,0.36259094,0.42123672,0.6895451,0.5004055,0.041567754,0.15809429,0.3431603,814.7253,792.96704,809.4872,782.8938,665.2381,-0.19488525390625,0.08831787109375,0.9549560546875,2.714080810546875,-6.542205810546875,0.426177978515625,1.0,1.0,1.0,1.0,1.0,100.0,event
15:35:57.238,1.2726071,0.84621334,0.042359002,0.7593124,1.0480205,0.6064288,-0.07362233,0.26741758,0.7305667,0.9243921,0.6395183,0.40027976,0.60403675,0.36259094,0.42123672,0.6895451,0.5004055,0.041567754,0.15809429,0.3431603,819.9634,789.7436,790.9524,784.10254,854.61536,-0.19488525390625,0.08831787109375,0.9549560546875,2.714080810546875,-6.542205810546875,0.426177978515625,1.0,1.0,1.0,1.0,1.0,100.0,event
15:35:57.238,1.2726071,0.84621334,0.042359002,0.7593124,1.0480205,0.6064288,-0.07362233,0.26741758,0.7305667,0.9243921,0.6395183,0.40027976,0.60403675,0.36259094,0.42123672,0.6895451,0.5004055,0.041567754,0.15809429,0.3431603,819.5604,790.54944,803.0403,786.1172,904.9817,-0.19488525390625,0.08831787109375,0.9549560546875,2.714080810546875,-6.542205810546875,0.426177978515625,1.0,1.0,1.0,1.0,1.0,100.0,event
15:35:57.239,1.2726071,0.84621334,0.042359002,0.7593124,1.0480205,0.6064288,-0.07362233,0.26741758,0.7305667,0.9243921,0.6395183,0.40027976,0.60403675,0.36259094,0.42123672,0.6895451,0.5004055,0.041567754,0.15809429,0.3431603,807.8755,788.93774,809.89014,780.4762,726.4835,-0.19488525390625,0.08831787109375,0.9549560546875,2.714080810546875,-6.542205810546875,0.426177978515625,1.0,1.0,1.0,1.0,1.0,100.0,event
15:35:57.239,1.2726071,0.84621334,0.042359002,0.7593124,1.0480205,0.6064288,-0.07362233,0.26741758,0.7305667,0.9243921,0.6395183,0.40027976,0.60403675,0.36259094,0.42123672,0.6895451,0.5004055,0.041567754,0.15809429,0.3431603,811.50183,788.93774,817.1429,788.5348,730.10986,-0.19488525390625,0.08831787109375,0.9549560546875,2.714080810546875,-6.542205810546875,0.426177978515625,1.0,1.0,1.0,1.0,1.0,100.0,event
15:35:57.240,1.2726071,0.84621334,0.042359002,0.7593124,1.0480205,0.6064288,-0.07362233,0.26741758,0.7305667,0.9243921,0.6395183,0.40027976,0.60403675,0.36259094,0.42123672,0.6895451,0.5004055,0.041567754,0.15809429,0.3431603,800.2198,784.90845,800.2198,779.2674,987.98535,-0.19488525390625,0.08831787109375,0.9549560546875,2.714080810546875,-6.542205810546875,0.426177978515625,1.0,1.0,1.0,1.0,1.0,100.0,event
15:35:57.241,1.2726071,0.84621334,0.042359002,0.7593124,1.0480205,0.6064288,-0.07362233,0.26741758,0.7305667,0.9243921,0.6395183,0.40027976,0.60403675,0.36259094,0.42123672,0.6895451,0.5004055,0.041567754,0.15809429,0.3431603,803.44324,786.9231,810.696,779.2674,713.9927,-0.19488525390625,0.08831787109375,0.9549560546875,2.714080810546875,-6.542205810546875,0.426177978515625,1.0,1.0,1.0,1.0,1.0,100.0,event
15:35:57.241,1.2726071,0.84621334,0.042359002,0.7593124,1.0480205,0.6064288,-0.07362233,0.26741758,0.7305667,0.9243921,0.6395183,0.40027976,0.60403675,0.36259094,0.42123672,0.6895451,0.5004055,0.041567754,0.15809429,0.3431603,794.57874,786.9231,821.978,782.0879,927.9487,-0.19488525390625,0.08831787109375,0.9549560546875,2.714080810546875,-6.542205810546875,0.426177978515625,1.0,1.0,1.0,1.0,1.0,100.0,event
15:35:57.242,1.2726071,0.84621334,0.042359002,0.7593124,1.0480205,0.6064288,-0.07362233,0.26741758,0.7305667,0.9243921,0.6395183,0.40027976,0.60403675,0.36259094,0.42123672,0.6895451,0.5004055,0.041567754,0.15809429,0.3431603,815.12823,780.4762,793.7729,780.07324,718.4249,-0.19488525390625,0.08831787109375,0.9549560546875,2.714080810546875,-6.542205810546875,0.426177978515625,1.0,1.0,1.0,1.0,1.0,100.0,event
15:35:57.303,1.2726071,0.84621334,0.042359002,0.7593124,1.0480205,0.6064288,-0.07362233,0.26741758,0.7305667,0.9243921,0.6395183,0.40027976,0.60403675,0.36259094,0.42123672,0.6895451,0.5004055,0.041567754,0.15809429,0.3431603,813.91943,784.10254,806.6667,782.0879,708.7546,-0.19488525390625,0.08831787109375,0.9549560546875,2.714080810546875,-6.542205810546875,0.426177978515625,1.0,1.0,1.0,1.0,1.0,100.0,event
15:35:57.305,1.2726071,0.8420775,0.17229488,0.7593124,1.0480205,0.5891184,-0.07207614,0.26741758,0.7305667,0.9243921,0.6440925,0.40027976,0.60403675,0.36472425,0.4013699,0.6895451,0.5004055,0.05133174,0.14894338,0.3431603,808.2784,788.5348,813.91943,778.0586,684.17584,-0.19488525390625,0.08831787109375,0.9549560546875,2.714080810546875,-6.542205810546875,0.426177978515625,1.0,1.0,1.0,1.0,1.0,100.0,event
15:35:57.309,1.2726071,0.8420775,0.17229488,0.7593124,1.0480205,0.5891184,-0.07207614,0.26741758,0.7305667,0.9243921,0.6440925,0.40027976,0.60403675,0.36472425,0.4013699,0.6895451,0.5004055,0.05133174,0.14894338,0.3431603,805.8608,787.326,807.0696,776.04395,697.8755,-0.19488525390625,0.08831787109375,0.9549560546875,2.714080810546875,-6.542205810546875,0.426177978515625,1.0,1.0,1.0,1.0,1.0,100.0,event
15:35:57.310,1.2726071,0.8420775,0.17229488,0.7593124,1.0480205,0.5891184,-0.07207614,0.26741758,0.7305667,0.9243921,0.6440925,0.40027976,0.60403675,0.36472425,0.4013699,0.6895451,0.5004055,0.05133174,0.14894338,0.3431603,810.293,783.2967,798.60803,789.34064,742.1978,-0.19488525390625,0.08831787109375,0.9549560546875,2.714080810546875,-6.542205810546875,0.426177978515625,1.0,1.0,1.0,1.0,1.0,100.0,event
15:35:57.311,1.2726071,0.8420775,0.17229488,0.7593124,1.0480205,0.5891184,-0.07207614,0.26741758,0.7305667,0.9243921,0.6440925,0.40027976,0.60403675,0.36472425,0.4013699,0.6895451,0.5004055,0.05133174,0.14894338,0.3431603,811.50183,784.5055,794.57874,799.41394,799.011,-0.19488525390625,0.08831787109375,0.9549560546875,2.714080810546875,-6.542205810546875,0.426177978515625,1.0,1.0,1.0,1.0,1.0,100.0,event
15:35:57.312,1.2726071,0.8420775,0.17229488,0.7593124,1.0480205,0.5891184,-0.07207614,0.26741758,0.7305667,0.9243921,0.6440925,0.40027976,0.60403675,0.36472425,0.4013699,0.6895451,0.5004055,0.05133174,0.14894338,0.3431603,805.4579,778.46155,792.5641,794.9817,789.7436,-0.19488525390625,0.08831787109375,0.9549560546875,2.714080810546875,-6.542205810546875,0.426177978515625,1.0,1.0,1.0,1.0,1.0,100.0,event
15:35:57.312,1.2726071,0.8420775,0.17229488,0.7593124,1.0480205,0.5891184,-0.07207614,0.26741758,0.7305667,0.9243921,0.6440925,0.40027976,0.60403675,0.36472425,0.4013699,0.6895451,0.5004055,0.05133174,0.14894338,0.3431603,805.8608,772.4176,801.8315,791.75824,794.57874,-0.19488525390625,0.08831787109375,0.9549560546875,2.714080810546875,-6.542205810546875,0.426177978515625,1.0,1.0,1.0,1.0,1.0,100.0,event
15:35:57.313,1.2726071,0.8420775,0.17229488,0.7593124,1.0480205,0.5891184,-0.07207614,0.26741758,0.7305667,0.9243921,0.6440925,0.40027976,0.60403675,0.36472425,0.4013699,0.6895451,0.5004055,0.05133174,0.14894338,0.3431603,819.15753,759.5238,788.1319,804.65204,1047.2161,-0.19488525390625,0.08831787109375,0.9549560546875,2.714080810546875,-6.542205810546875,0.426177978515625,1.0,1.0,1.0,1.0,1.0,100.0,event
15:35:57.313,1.2726071,0.8420775,0.17229488,0.7593124,1.0480205,0.5891184,-0.07207614,0.26741758,0.7305667,0.9243921,0.6440925,0.40027976,0.60403675,0.36472425,0.4013699,0.6895451,0.5004055,0.05133174,0.14894338,0.3431603,815.9341,761.53845,799.81683,804.65204,888.86444,-0.19488525390625,0.08831787109375,0.9549560546875,2.714080810546875,-6.542205810546875,0.426177978515625,1.0,1.0,1.0,1.0,1.0,100.0,event
15:35:57.314,1.2726071,0.8420775,0.17229488,0.7593124,1.0480205,0.5891184,-0.07207614,0.26741758,0.7305667,0.9243921,0.6440925,0.40027976,0.60403675,0.36472425,0.4013699,0.6895451,0.5004055,0.05133174,0.14894338,0.3431603,815.12823,787.72894,807.8755,783.69965,861.4652,-0.19488525390625,0.08831787109375,0.9549560546875,2.714080810546875,-6.542205810546875,0.426177978515625,1.0,1.0,1.0,1.0,1.0,100.0,event
15:35:57.315,1.2726071,0.8420775,0.17229488,0.7593124,1.0480205,0.5891184,-0.07207614,0.26741758,0.7305667,0.9243921,0.6440925,0.40027976,0.60403675,0.36472425,0.4013699,0.6895451,0.5004055,0.05133174,0.14894338,0.3431603,802.23444,802.23444,809.0842,762.74725,619.304,-0.19488525390625,0.08831787109375,0.9549560546875,2.714080810546875,-6.542205810546875,0.426177978515625,1.0,1.0,1.0,1.0,1.0,100.0,event
15:35:57.315,1.2726071,0.8420775,0.17229488,0.7593124,1.0480205,0.5891184,-0.07207614,0.26741758,0.7305667,0.9243921,0.6440925,0.40027976,0.60403675,0.36472425,0.4013699,0.6895451,0.5004055,0.05133174,0.14894338,0.3431603,805.8608,794.57874,798.60803,767.5824,723.2601,-0.19488525390625,0.08831787109375,0.9549560546875,2.714080810546875,-6.542205810546875,0.426177978515625,1.0,1.0,1.0,1.0,1.0,100.0,event
15:35:57.343,1.2726071,0.8420775,0.17229488,0.7593124,1.0480205,0.5891184,-0.07207614,0.26741758,0.7305667,0.9243921,0.6440925,0.40027976,0.60403675,0.36472425,0.4013699,0.6895451,0.5004055,0.05133174,0.14894338,0.3431603,820.7692,796.1905,802.23444,773.6264,759.12085,-0.1768798828125,0.09307861328125,0.96258544921875,4.80010986328125,-8.03009033203125,-0.441131591796875,1.0,1.0,1.0,1.0,1.0,100.0,event
15:35:57.344,1.2726071,0.8420775,0.17229488,0.7593124,1.0480205,0.5891184,-0.07207614,0.26741758,0.7305667,0.9243921,0.6440925,0.40027976,0.60403675,0.36472425,0.4013699,0.6895451,0.5004055,0.05133174,0.14894338,0.3431603,809.4872,794.9817,802.6374,768.3883,720.0366,-0.1768798828125,0.09307861328125,0.96258544921875,4.80010986328125,-8.03009033203125,-0.441131591796875,1.0,1.0,1.0,1.0,1.0,100.0,event
15:35:57.345,1.2726071,0.8420775,0.17229488,0.7593124,1.0480205,0.5891184,-0.07207614,0.26741758,0.7305667,0.9243921,0.6440925,0.40027976,0.60403675,0.36472425,0.4013699,0.6895451,0.5004055,0.05133174,0.14894338,0.3431603,809.0842,790.14655,799.41394,768.3883,733.3333,-0.1768798828125,0.09307861328125,0.96258544921875,4.80010986328125,-8.03009033203125,-0.441131591796875,1.0,1.0,1.0,1.0,1.0,100.0,event
15:35:57.346,1.2726071,0.8420775,0.17229488,0.7593124,1.0480205,0.5891184,-0.07207614,0.26741758,0.7305667,0.9243921,0.6440925,0.40027976,0.60403675,0.36472425,0.4013699,0.6895451,0.5004055,0.05133174,0.14894338,0.3431603,807.0696,798.20514,802.6374,776.04395,801.8315,-0.1768798828125,0.09307861328125,0.96258544921875,4.80010986328125,-8.03009033203125,-0.441131591796875,1.0,1.0,1.0,1.0,1.0,100.0,event
15:35:57.347,1.2726071,0.8420775,0.17229488,0.7593124,1.0480205,0.5891184,-0.07207614,0.26741758,0.7305667,0.9243921,0.6440925,0.40027976,0.60403675,0.36472425,0.4013699,0.6895451,0.5004055,0.05133174,0.14894338,0.3431603,793.36993,809.0842,808.68134,778.0586,800.2198,-0.1768798828125,0.09307861328125,0.96258544921875,4.80010986328125,-8.03009033203125,-0.441131591796875,1.0,1.0,1.0,1.0,1.0,100.0,event
15:35:57.348,1.2726071,0.8420775,0.17229488,0.7593124,1.0480205,0.5891184,-0.07207614,0.26741758,0.7305667,0.9243921,0.6440925,0.40027976,0.60403675,0.36472425,0.4013699,0.6895451,0.5004055,0.05133174,0.14894338,0.3431603,799.011,813.5165,807.8755,781.685,848.1685,-0.1768798828125,0.09307861328125,0.96258544921875,4.80010986328125,-8.03009033203125,-0.441131591796875,1.0,1.0,1.0,1.0,1.0,100.0,event
15:35:57.349,1.2726071,0.8420775,0.17229488,0.7593124,1.0480205,0.5891184,-0.07207614,0.26741758,0.7305667,0.9243921,0.6440925,0.40027976,0.60403675,0.36472425,0.4013699,0.6895451,0.5004055,0.05133174,0.14894338,0.3431603,805.8608,815.12823,793.36993,792.5641,1058.0952,-0.1768798828125,0.09307861328125,0.96258544921875,4.80010986328125,-8.03009033203125,-0.441131591796875,1.0,1.0,1.0,1.0,1.0,100.0,event
15:35:57.349,1.2726071,0.8420775,0.17229488,0.7593124,1.0480205,0.5891184,-0.07207614,0.26741758,0.7305667,0.9243921,0.6440925,0.40027976,0.60403675,0.36472425,0.4013699,0.6895451,0.5004055,0.05133174,0.14894338,0.3431603,809.89014,817.5458,803.8461,787.72894,876.77655,-0.1768798828125,0.09307861328125,0.96258544921875,4.80010986328125,-8.03009033203125,-0.441131591796875,1.0,1.0,1.0,1.0,1.0,100.0,event
15:35:57.350,1.2726071,0.8420775,0.17229488,0.7593124,1.0480205,0.5891184,-0.07207614,0.26741758,0.7305667,0.9243921,0.6440925,0.40027976,0.60403675,0.36472425,0.4013699,0.6895451,0.5004055,0.05133174,0.14894338,0.3431603,798.60803,814.7253,811.9048,789.34064,1017.8022,-0.1768798828125,0.09307861328125,0.96258544921875,4.80010986328125,-8.03009033203125,-0.441131591796875,1.0,1.0,1.0,1.0,1.0,100.0,event
15:35:57.351,1.2726071,0.8420775,0.17229488,0.7593124,1.0480205,0.5891184,-0.07207614,0.26741758,0.7305667,0.9243921,0.6440925,0.40027976,0.60403675,0.36472425,0.4013699,0.6895451,0.5004055,0.05133174,0.14894338,0.3431603,794.57874,814.7253,813.91943,784.10254,713.1868,-0.1768798828125,0.09307861328125,0.96258544921875,4.80010986328125,-8.03009033203125,-0.441131591796875,1.0,1.0,1.0,1.0,1.0,100.0,event
15:35:57.352,1.2726071,0.8420775,0.17229488,0.7593124,1.0480205,0.5891184,-0.07207614,0.26741758,0.7305667,0.9243921,0.6440925,0.40027976,0.60403675,0.36472425,0.4013699,0.6895451,0.5004055,0.05133174,0.14894338,0.3431603,799.81683,820.7692,790.54944,782.0879,784.5055,-0.1768798828125,0.09307861328125,0.96258544921875,4.80010986328125,-8.03009033203125,-0.441131591796875,1.0,1.0,1.0,1.0,1.0,100.0,event
15:35:57.352,1.2726071,0.8420775,0.17229488,0.7593124,1.0480205,0.5891184,-0.07207614,0.26741758,0.7305667,0.9243921,0.6440925,0.40027976,0.60403675,0.36472425,0.4013699,0.6895451,0.5004055,0.05133174,0.14894338,0.3431603,804.65204,813.5165,784.5055,794.57874,1047.2161,-0.1768798828125,0.09307861328125,0.96258544921875,4.80010986328125,-8.03009033203125,-0.441131591796875,1.0,1.0,1.0,1.0,1.0,100.0,event
15:35:57.383,1.2726071,0.8420775,0.17229488,0.7593124,1.0480205,0.5891184,-0.07207614,0.26741758,0.7305667,0.9243921,0.6440925,0.40027976,0.60403675,0.36472425,0.4013699,0.6895451,0.5004055,0.05133174,0.14894338,0.3431603,809.4872,816.337,814.3223,793.36993,909.81683,-0.16741943359375,0.10528564453125,0.97308349609375,5.21881103515625,-8.86749267578125,-1.0467529296875,1.0,1.0,1.0,1.0,1.0,100.0,event
15:35:57.384,1.2726071,0.8420775,0.17229488,0.7593124,1.0480205,0.5891184,-0.07207614,0.26741758,0.7305667,0.9243921,0.6440925,0.40027976,0.60403675,0.36472425,0.4013699,0.6895451,0.5004055,0.05133174,0.14894338,0.3431603,810.696,825.2015,803.44324,773.22345,739.3773,-0.16741943359375,0.10528564453125,0.97308349609375,5.21881103515625,-8.86749267578125,-1.0467529296875,1.0,1.0,1.0,1.0,1.0,100.0,event
15:35:57.387,1.2726071,0.8420775,0.17229488,0.7593124,1.0480205,0.5891184,-0.07207614,0.26741758,0.7305667,0.9243921,0.6440925,0.40027976,0.60403675,0.36472425,0.4013699,0.6895451,0.5004055,0.05133174,0.14894338,0.3431603,805.4579,816.7399,788.93774,778.46155,733.73627,-0.16741943359375,0.10528564453125,0.97308349609375,5.21881103515625,-8.86749267578125,-1.0467529296875,1.0,1.0,1.0,1.0,1.0,100.0,event
15:35:57.388,1.2726071,0.84210056,0.17229488,0.7593124,1.0480205,0.5284874,-0.07207614,0.26741758,0.7305667,0.9243921,0.6440925,0.40027976,0.60403675,0.3820298,0.4013699,0.6895451,0.5004055,0.058548473,0.14894338,0.3431603,793.36993,820.3663,816.337,789.34064,749.85345,-0.16741943359375,0.10528564453125,0.97308349609375,5.21881103515625,-8.86749267578125,-1.0467529296875,1.0,1.0,1.0,1.0,1.0,100.0,event
15:35:57.392,1.2726071,0.84210056,0.17229488,0.7593124,1.0480205,0.5284874,-0.07207614,0.26741758,0.7305667,0.9243921,0.6440925,0.40027976,0.60403675,0.3820298,0.4013699,0.6895451,0.5004055,0.058548473,0.14894338,0.3431603,792.5641,819.9634,815.5311,781.28204,734.94507,-0.16741943359375,0.10528564453125,0.97308349609375,5.21881103515625,-8.86749267578125,-1.0467529296875,1.0,1.0,1.0,1.0,1.0,100.0,event
15:35:57.393,1.2726071,0.84210056,0.17229488,0.7593124,1.0480205,0.5284874,-0.07207614,0.26741758,0.7305667,0.9243921,0.6440925,0.40027976,0.60403675,0.3820298,0.4013699,0.6895451,0.5004055,0.058548473,0.14894338,0.3431603,799.011,814.7253,800.6227,777.6557,806.6667,-0.16741943359375,0.10528564453125,0.97308349609375,5.21881103515625,-8.86749267578125,-1.0467529296875,1.0,1.0,1.0,1.0,1.0,100.0,event
15:35:57.394,1.2726071,0.84210056,0.17229488,0.7593124,1.0480205,0.5284874,-0.07207614,0.26741758,0.7305667,0.9243921,0.6440925,0.40027976,0.60403675,0.3820298,0.4013699,0.6895451,0.5004055,0.058548473,0.14894338,0.3431603,793.7729,818.7546,793.36993,774.83514,969.45056,-0.16741943359375,0.10528564453125,0.97308349609375,5.21881103515625,-8.86749267578125,-1.0467529296875,1.0,1.0,1.0,1.0,1.0,100.0,event
15:35:57.395,1.2726071,0.84210056,0.17229488,0.7593124,1.0480205,0.5284874,-0.07207614,0.26741758,0.7305667,0.9243921,0.6440925,0.40027976,0.60403675,0.3820298,0.4013699,0.6895451,0.5004055,0.058548473,0.14894338,0.3431603,794.9817,824.7985,799.81683,774.0293,1089.1208,-0.16741943359375,0.10528564453125,0.97308349609375,5.21881103515625,-8.86749267578125,-1.0467529296875,1.0,1.0,1.0,1.0,1.0,100.0,event
15:35:57.396,1.2726071,0.84210056,0.17229488,0.7593124,1.0480205,0.5284874,-0.07207614,0.26741758,0.7305667,0.9243921,0.6440925,0.40027976,0.60403675,0.3820298,0.4013699,0.6895451,0.5004055,0.058548473,0.14894338,0.3431603,799.41394,835.6777,821.978,774.83514,869.92676,-0.16741943359375,0.10528564453125,0.97308349609375,5.21881103515625,-8.86749267578125,-1.0467529296875,1.0,1.0,1.0,1.0,1.0,100.0,event
15:35:57.396,1.2726071,0.84210056,0.17229488,0.7593124,1.0480205,0.5284874,-0.07207614,0.26741758,0.7305667,0.9243921,0.6440925,0.40027976,0.60403675,0.3820298,0.4013699,0.6895451,0.5004055,0.058548473,0.14894338,0.3431603,797.8022,831.2454,807.8755,771.6117,722.4542,-0.16741943359375,0.10528564453125,0.97308349609375,5.21881103515625,-8.86749267578125,-1.0467529296875,1.0,1.0,1.0,1.0,1.0,100.0,event
15:35:57.397,1.2726071,0.84210056,0.17229488,0.7593124,1.0480205,0.5284874,-0.07207614,0.26741758,0.7305667,0.9243921,0.6440925,0.40027976,0.60403675,0.3820298,0.4013699,0.6895451,0.5004055,0.058548473,0.14894338,0.3431603,801.8315,816.7399,788.1319,771.2088,835.6777,-0.16741943359375,0.10528564453125,0.97308349609375,5.21881103515625,-8.86749267578125,-1.0467529296875,1.0,1.0,1.0,1.0,1.0,100.0,event
15:35:57.397,1.2726071,0.84210056,0.17229488,0.7593124,1.0480205,0.5284874,-0.07207614,0.26741758,0.7305667,0.9243921,0.6440925,0.40027976,0.60403675,0.3820298,0.4013699,0.6895451,0.5004055,0.058548473,0.14894338,0.3431603,797.8022,815.9341,799.41394,777.6557,830.0366,-0.16741943359375,0.10528564453125,0.97308349609375,5.21881103515625,-8.86749267578125,-1.0467529296875,1.0,1.0,1.0,1.0,1.0,100.0,event
15:35:57.434,1.2726071,0.84210056,0.17229488,0.7593124,1.0480205,0.5284874,-0.07207614,0.26741758,0.7305667,0.9243921,0.6440925,0.40027976,0.60403675,0.3820298,0.4013699,0.6895451,0.5004055,0.058548473,0.14894338,0.3431603,806.26373,822.7839,815.9341,788.1319,691.4286,-0.15362548828125,0.113525390625,0.980712890625,1.921539306640625,-3.147735595703125,0.904693603515625,1.0,1.0,1.0,1.0,1.0,100.0,event
15:35:57.435,1.2726071,0.84210056,0.17229488,0.7593124,1.0480205,0.5284874,-0.07207614,0.26741758,0.7305667,0.9243921,0.6440925,0.40027976,0.60403675,0.3820298,0.4013699,0.6895451,0.5004055,0.058548473,0.14894338,0.3431603,811.9048,827.2161,811.0989,783.69965,731.31866,-0.15362548828125,0.113525390625,0.980712890625,1.921539306640625,-3.147735595703125,0.904693603515625,1.0,1.0,1.0,1.0,1.0,100.0,event
15:35:57.436,1.2726071,0.84210056,0.17229488,0.7593124,1.0480205,0.5284874,-0.07207614,0.26741758,0.7305667,0.9243921,0.6440925,0.40027976,0.60403675,0.3820298,0.4013699,0.6895451,0.5004055,0.058548473,0.14894338,0.3431603,817.9487,826.0073,797.8022,787.72894,821.978,-0.15362548828125,0.113525390625,0.980712890625,1.921539306640625,-3.147735595703125,0.904693603515625,1.0,1.0,1.0,1.0,1.0,100.0,event
15:35:57.437,1.2726071,0.84210056,0.17229488,0.7593124,1.0480205,0.5284874,-0.07207614,0.26741758,0.7305667,0.9243921,0.6440925,0.40027976,0.60403675,0.3820298,0.4013699,0.6895451,0.5004055,0.058548473,0.14894338,0.3431603,799.011,807.47253,817.9487,780.4762,701.9048,-0.15362548828125,0.113525390625,0.980712890625,1.921539306640625,-3.147735595703125,0.904693603515625,1.0,1.0,1.0,1.0,1.0,100.0,event
15:35:57.437,1.2726071,0.84210056,0.17229488,0.7593124,1.0480205,0.5284874,-0.07207614,0.26741758,0.7305667,0.9243921,0.6440925,0.40027976,0.60403675,0.3820298,0.4013699,0.6895451,0.5004055,0.058548473,0.14894338,0.3431603,814.7253,823.5897,816.337,795.38464,800.6227,-0.15362548828125,0.113525390625,0.980712890625,1.921539306640625,-3.147735595703125,0.904693603515625,1.0,1.0,1.0,1.0,1.0,100.0,event
15:35:57.438,1.2726071,0.84210056,0.17229488,0.7593124,1.0480205,0.5284874,-0.07207614,0.26741758,0.7305667,0.9243921,0.6440925,0.40027976,0.60403675,0.3820298,0.4013699,0.6895451,0.5004055,0.058548473,0.14894338,0.3431603,805.8608,789.7436,802.6374,787.72894,688.20514,-0.15362548828125,0.113525390625,0.980712890625,1.921539306640625,-3.147735595703125,0.904693603515625,1.0,1.0,1.0,1.0,1.0,100.0,event
15:35:57.438,1.2726071,0.84210056,0.17229488,0.7593124,1.0480205,0.5284874,-0.07207614,0.26741758,0.7305667,0.9243921,0.6440925,0.40027976,0.60403675,0.3820298,0.4013699,0.6895451,0.5004055,0.058548473,0.14894338,0.3431603,808.68134,785.7143,794.17584,790.14655,934.7985,-0.15362548828125,0.113525390625,0.980712890625,1.921539306640625,-3.147735595703125,0.904693603515625,1.0,1.0,1.0,1.0,1.0,100.0,event
15:35:57.439,1.2726071,0.84210056,0.17229488,0.7593124,1.0480205,0.5284874,-0.07207614,0.26741758,0.7305667,0.9243921,0.6440925,0.40027976,0.60403675,0.3820298,0.4013699,0.6895451,0.5004055,0.058548473,0.14894338,0.3431603,808.68134,796.1905,826.0073,780.87915,983.95605,-0.15362548828125,0.113525390625,0.980712890625,1.921539306640625,-3.147735595703125,0.904693603515625,1.0,1.0,1.0,1.0,1.0,100.0,event
15:35:57.440,1.2726071,0.84210056,0.17229488,0.7593124,1.0480205,0.5284874,-0.07207614,0.26741758,0.7305667,0.9243921,0.6440925,0.40027976,0.60403675,0.3820298,0.4013699,0.6895451,0.5004055,0.058548473,0.14894338,0.3431603,823.1868,813.5165,830.84247,792.1612,765.9707,-0.15362548828125,0.113525390625,0.980712890625,1.921539306640625,-3.147735595703125,0.904693603515625,1.0,1.0,1.0,1.0,1.0,100.0,event
15:35:57.440,1.2726071,0.84210056,0.17229488,0.7593124,1.0480205,0.5284874,-0.07207614,0.26741758,0.7305667,0.9243921,0.6440925,0.40027976,0.60403675,0.3820298,0.4013699,0.6895451,0.5004055,0.058548473,0.14894338,0.3431603,823.1868,799.011,803.44324,790.14655,774.83514,-0.15362548828125,0.113525390625,0.980712890625,1.921539306640625,-3.147735595703125,0.904693603515625,1.0,1.0,1.0,1.0,1.0,100.0,event
15:35:57.441,1.2726071,0.84210056,0.17229488,0.7593124,1.0480205,0.5284874,-0.07207614,0.26741758,0.7305667,0.9243921,0.6440925,0.40027976,0.60403675,0.3820298,0.4013699,0.6895451,0.5004055,0.058548473,0.14894338,0.3431603,814.7253,830.4396,799.81683,773.6264,753.8828,-0.15362548828125,0.113525390625,0.980712890625,1.921539306640625,-3.147735595703125,0.904693603515625,1.0,1.0,1.0,1.0,1.0,100.0,event
15:35:57.441,1.2726071,0.84210056,0.17229488,0.7593124,1.0480205,0.5284874,-0.07207614,0.26741758,0.7305667,0.9243921,0.6440925,0.40027976,0.60403675,0.3820298,0.4013699,0.6895451,0.5004055,0.058548473,0.14894338,0.3431603,817.9487,996.04395,802.23444,778.86444,649.92676,-0.15362548828125,0.113525390625,0.980712890625,1.921539306640625,-3.147735595703125,0.904693603515625,1.0,1.0,1.0,1.0,1.0,100.0,event
15:35:57.477,1.2726071,0.84210056,0.17229488,0.7593124,1.0480205,0.5284874,-0.07207614,0.26741758,0.7305667,0.9243921,0.6440925,0.40027976,0.60403675,0.3820298,0.4013699,0.6895451,0.5004055,0.058548473,0.14894338,0.3431603,808.68134,1080.2565,800.2198,784.90845,663.6264,-0.17547607421875,0.103515625,0.96875,1.256103515625,-3.5589599609375,1.577606201171875,1.0,1.0,1.0,1.0,1.0,100.0,event
15:35:57.477,1.2726071,0.84210056,0.17229488,0.7593124,1.0480205,0.5284874,-0.07207614,0.26741758,0.7305667,0.9243921,0.6440925,0.40027976,0.60403675,0.3820298,0.4013699,0.6895451,0.5004055,0.058548473,0.14894338,0.3431603,808.68134,1064.9451,794.9817,788.5348,761.13556,-0.17547607421875,0.103515625,0.96875,1.256103515625,-3.5589599609375,1.577606201171875,1.0,1.0,1.0,1.0,1.0,100.0,event
15:35:57.478,1.2726071,0.84210056,0.17229488,0.7593124,1.0480205,0.5284874,-0.07207614,0.26741758,0.7305667,0.9243921,0.6440925,0.40027976,0.60403675,0.3820298,0.4013699,0.6895451,0.5004055,0.058548473,0.14894338,0.3431603,801.4286,1041.1721,802.6374,796.99634,735.34796,-0.17547607421875,0.103515625,0.96875,1.256103515625,-3.5589599609375,1.577606201171875,1.0,1.0,1.0,1.0,1.0,100.0,event
15:35:57.478,1.2726071,0.84210056,0.17229488,0.7593124,1.0480205,0.5284874,-0.07207614,0.26741758,0.7305667,0.9243921,0.6440925,0.40027976,0.60403675,0.3820298,0.4013699,0.6895451,0.5004055,0.058548473,0.14894338,0.3431603,811.50183,1058.0952,802.23444,794.57874,853.00366,-0.17547607421875,0.103515625,0.96875,1.256103515625,-3.5589599609375,1.577606201171875,1.0,1.0,1.0,1.0,1.0,100.0,event
15:35:57.479,1.2726071,0.84210056,0.17229488,0.7593124,1.0480205,0.5284874,-0.07207614,0.26741758,0.7305667,0.9243921,0.6440925,0.40027976,0.60403675,0.3820298,0.4013699,0.6895451,0.5004055,0.058548473,0.14894338,0.3431603,799.41394,1021.02563,803.0403,795.38464,666.8498,-0.17547607421875,0.103515625,0.96875,1.256103515625,-3.5589599609375,1.577606201171875,1.0,1.0,1.0,1.0,1.0,100.0,event
15:35:57.479,1.2726071,0.77325445,0.17229488,0.7593124,1.0480205,0.3736897,-0.07207614,0.26741758,0.7305667,0.62099737,0.6440925,0.40027976,0.60403675,0.4142836,0.4013699,0.6895451,0.5004055,0.06766741,0.14894338,0.3431603,807.8755,1000.07324,790.9524,790.14655,866.30035,-0.17547607421875,0.103515625,0.96875,1.256103515625,-3.5589599609375,1.577606201171875,1.0,1.0,1.0,1.0,1.0,100.0,event
15:35:57.482,1.2726071,0.77325445,0.17229488,0.7593124,1.0480205,0.3736897,-0.07207614,0.26741758,0.7305667,0.62099737,0.6440925,0.40027976,0.60403675,0.4142836,0.4013699,0.6895451,0.5004055,0.06766741,0.14894338,0.3431603,809.89014,979.12085,782.0879,792.96704,1133.4432,-0.17547607421875,0.103515625,0.96875,1.256103515625,-3.5589599609375,1.577606201171875,1.0,1.0,1.0,1.0,1.0,100.0,event
15:35:57.483,1.2726071,0.77325445,0.17229488,0.7593124,1.0480205,0.3736897,-0.07207614,0.26741758,0.7305667,0.62099737,0.6440925,0.40027976,0.60403675,0.4142836,0.4013699,0.6895451,0.5004055,0.06766741,0.14894338,0.3431603,807.0696,976.30035,810.696,789.7436,900.14655,-0.17547607421875,0.103515625,0.96875,1.256103515625,-3.5589599609375,1.577606201171875,1.0,1.0,1.0,1.0,1.0,100.0,event
15:35:57.483,1.2726071,0.77325445,0.17229488,0.7593124,1.0480205,0.3736897,-0.07207614,0.26741758,0.7305667,0.62099737,0.6440925,0.40027976,0.60403675,0.4142836,0.4013699,0.6895451,0.5004055,0.06766741,0.14894338,0.3431603,804.65204,972.674,808.68134,784.90845,662.4176,-0.17547607421875,0.103515625,0.96875,1.256103515625,-3.5589599609375,1.577606201171875,1.0,1.0,1.0,1.0,1.0,100.0,event
15:35:57.483,1.2726071,0.77325445,0.17229488,0.7593124,1.0480205,0.3736897,-0.07207614,0.26741758,0.7305667,0.62099737,0.6440925,0.40027976,0.60403675,0.4142836,0.4013699,0.6895451,0.5004055,0.06766741,0.14894338,0.3431603,815.9341,957.3626,788.93774,788.1319,765.16486,-0.17547607421875,0.103515625,0.96875,1.256103515625,-3.5589599609375,1.577606201171875,1.0,1.0,1.0,1.0,1.0,100.0,event
15:35:57.484,1.2726071,0.77325445,0.17229488,0.7593124,1.0480205,0.3736897,-0.07207614,0.26741758,0.7305667,0.62099737,0.6440925,0.40027976,0.60403675,0.4142836,0.4013699,0.6895451,0.5004055,0.06766741,0.14894338,0.3431603,811.9048,951.31866,796.1905,777.25275,782.0879,-0.17547607421875,0.103515625,0.96875,1.256103515625,-3.5589599609375,1.577606201171875,1.0,1.0,1.0,1.0,1.0,100.0,event
15:35:57.484,1.2726071,0.77325445,0.17229488,0.7593124,1.0480205,0.3736897,-0.07207614,0.26741758,0.7305667,0.62099737,0.6440925,0.40027976,0.60403675,0.4142836,0.4013699,0.6895451,0.5004055,0.06766741,0.14894338,0.3431603,805.05493,954.5421,803.8461,778.0586,734.94507,-0.17547607421875,0.103515625,0.96875,1.256103515625,-3.5589599609375,1.577606201171875,1.0,1.0,1.0,1.0,1.0,100.0,event
15:35:57.527,1.2726071,0.77325445,0.17229488,0.7593124,1.0480205,0.3736897,-0.07207614,0.26741758,0.7305667,0.62099737,0.6440925,0.40027976,0.60403675,0.4142836,0.4013699,0.6895451,0.5004055,0.06766741,0.14894338,0.3431603,815.9341,945.6777,798.60803,784.90845,714.7985,-0.17547607421875,0.103515625,0.96875,1.256103515625,-3.5589599609375,1.577606201171875,1.0,1.0,1.0,1.0,1.0,100.0,event
15:35:57.528,1.2726071,0.77325445,0.17229488,0.7593124,1.0480205,0.3736897,-0.07207614,0.26741758,0.7305667,0.62099737,0.6440925,0.40027976,0.60403675,0.4142836,0.4013699,0.6895451,0.5004055,0.06766741,0.14894338,0.3431603,797.8022,927.5458,789.7436,781.685,776.8498,-0.17547607421875,0.103515625,0.96875,1.256103515625,-3.5589599609375,1.577606201171875,1.0,1.0,1.0,1.0,1.0,100.0,event
15:35:57.528,1.2726071,0.77325445,0.17229488,0.7593124,1.0480205,0.3736897,-0.07207614,0.26741758,0.7305667,0.62099737,0.6440925,0.40027976,0.60403675,0.4142836,0.4013699,0.6895451,0.5004055,0.06766741,0.14894338,0.3431603,784.10254,914.2491,798.60803,777.6557,723.663,-0.17547607421875,0.103515625,0.96875,1.256103515625,-3.5589599609375,1.577606201171875,1.0,1.0,1.0,1.0,1.0,100.0,event
15:35:57.529,1.2726071,0.77325445,0.17229488,0.7593124,1.0480205,0.3736897,-0.07207614,0.26741758,0.7305667,0.62099737,0.6440925,0.40027976,0.60403675,0.4142836,0.4013699,0.6895451,0.5004055,0.06766741,0.14894338,0.3431603,802.6374,909.011,804.2491,775.2381,681.75824,-0.17547607421875,0.103515625,0.96875,1.256103515625,-3.5589599609375,1.577606201171875,1.0,1.0,1.0,1.0,1.0,100.0,event
15:35:57.530,1.2726071,0.77325445,0.17229488,0.7593124,1.0480205,0.3736897,-0.07207614,0.26741758,0.7305667,0.62099737,0.6440925,0.40027976,0.60403675,0.4142836,0.4013699,0.6895451,0.5004055,0.06766741,0.14894338,0.3431603,803.44324,900.9524,789.7436,766.77655,736.1539,-0.17547607421875,0.103515625,0.96875,1.256103515625,-3.5589599609375,1.577606201171875,1.0,1.0,1.0,1.0,1.0,100.0,event
15:35:57.531,1.2726071,0.77325445,0.17229488,0.7593124,1.0480205,0.3736897,-0.07207614,0.26741758,0.7305667,0.62099737,0.6440925,0.40027976,0.60403675,0.4142836,0.4013699,0.6895451,0.5004055,0.06766741,0.14894338,0.3431603,801.4286,889.2674,780.87915,773.6264,940.84247,-0.17547607421875,0.103515625,0.96875,1.256103515625,-3.5589599609375,1.577606201171875,1.0,1.0,1.0,1.0,1.0,100.0,event
15:35:57.531,1.2726071,0.77325445,0.17229488,0.7593124,1.0480205,0.3736897,-0.07207614,0.26741758,0.7305667,0.62099737,0.6440925,0.40027976,0.60403675,0.4142836,0.4013699,0.6895451,0.5004055,0.06766741,0.14894338,0.3431603,807.47253,882.4176,788.1319,789.7436,992.4176,-0.17547607421875,0.103515625,0.96875,1.256103515625,-3.5589599609375,1.577606201171875,1.0,1.0,1.0,1.0,1.0,100.0,event
15:35:57.532,1.2726071,0.77325445,0.17229488,0.7593124,1.0480205,0.3736897,-0.07207614,0.26741758,0.7305667,0.62099737,0.6440925,0.40027976,0.60403675,0.4142836,0.4013699,0.6895451,0.5004055,0.06766741,0.14894338,0.3431603,811.0989,884.43225,795.78754,792.96704,828.022,-0.17547607421875,0.103515625,0.96875,1.256103515625,-3.5589599609375,1.577606201171875,1.0,1.0,1.0,1.0,1.0,100.0,event
15:35:57.533,1.2726071,0.77325445,0.17229488,0.7593124,1.0480205,0.3736897,-0.07207614,0.26741758,0.7305667,0.62099737,0.6440925,0.40027976,0.60403675,0.4142836,0.4013699,0.6895451,0.5004055,0.06766741,0.14894338,0.3431603,817.9487,880.0,795.78754,784.10254,759.12085,-0.17547607421875,0.103515625,0.96875,1.256103515625,-3.5589599609375,1.577606201171875,1.0,1.0,1.0,1.0,1.0,100.0,event
15:35:57.534,1.2726071,0.77325445,0.17229488,0.7593124,1.0480205,0.3736897,-0.07207614,0.26741758,0.7305667,0.62099737,0.6440925,0.40027976,0.60403675,0.4142836,0.4013699,0.6895451,0.5004055,0.06766741,0.14894338,0.3431603,815.12823,863.47986,779.67035,790.14655,993.22345,-0.17547607421875,0.103515625,0.96875,1.256103515625,-3.5589599609375,1.577606201171875,1.0,1.0,1.0,1.0,1.0,100.0,event
15:35:57.535,1.2726071,0.77325445,0.17229488,0.7593124,1.0480205,0.3736897,-0.07207614,0.26741758,0.7305667,0.62099737,0.6440925,0.40027976,0.60403675,0.4142836,0.4013699,0.6895451,0.5004055,0.06766741,0.14894338,0.3431603,814.3223,867.1062,817.5458,793.36993,723.663,-0.17547607421875,0.103515625,0.96875,1.256103515625,-3.5589599609375,1.577606201171875,1.0,1.0,1.0,1.0,1.0,100.0,event
15:35:57.535,1.2726071,0.77325445,0.17229488,0.7593124,1.0480205,0.3736897,-0.07207614,0.26741758,0.7305667,0.62099737,0.6440925,0.40027976,0.60403675,0.4142836,0.4013699,0.6895451,0.5004055,0.06766741,0.14894338,0.3431603,817.1429,866.30035,811.0989,797.3993,947.28937,-0.17547607421875,0.103515625,0.96875,1.256103515625,-3.5589599609375,1.577606201171875,1.0,1.0,1.0,1.0,1.0,100.0,event
15:35:57.560,1.2726071,0.77325445,0.17229488,0.7593124,1.0480205,0.3736897,-0.07207614,0.26741758,0.7305667,0.62099737,0.6440925,0.40027976,0.60403675,0.4142836,0.4013699,0.6895451,0.5004055,0.06766741,0.14894338,0.3431603,805.4579,856.2271,796.5934,786.9231,768.7912,-0.17291259765625,0.0997314453125,0.9664306640625,1.21124267578125,-2.6617431640625,0.007476806640625,1.0,1.0,1.0,1.0,1.0,100.0,event
15:35:57.561,1.2726071,0.77325445,0.17229488,0.7593124,1.0480205,0.3736897,-0.07207614,0.26741758,0.7305667,0.62099737,0.6440925,0.40027976,0.60403675,0.4142836,0.4013699,0.6895451,0.5004055,0.06766741,0.14894338,0.3431603,808.68134,855.0183,803.0403,789.34064,757.9121,-0.17291259765625,0.0997314453125,0.9664306640625,1.21124267578125,-2.6617431640625,0.007476806640625,1.0,1.0,1.0,1.0,1.0,100.0,event
15:35:57.562,1.2726071,0.77325445,0.17229488,0.7593124,1.0480205,0.3736897,-0.07207614,0.26741758,0.7305667,0.62099737,0.6440925,0.40027976,0.60403675,0.4142836,0.4013699,0.6895451,0.5004055,0.06766741,0.14894338,0.3431603,815.12823,849.7802,806.6667,790.54944,735.34796,-0.17291259765625,0.0997314453125,0.9664306640625,1.21124267578125,-2.6617431640625,0.007476806640625,1.0,1.0,1.0,1.0,1.0,100.0,event
15:35:57.563,1.2726071,0.77325445,0.17229488,0.7593124,1.0480205,0.3736897,-0.07207614,0.26741758,0.7305667,0.62099737,0.6440925,0.40027976,0.60403675,0.4142836,0.4013699,0.6895451,0.5004055,0.06766741,0.14894338,0.3431603,807.8755,844.94507,800.2198,792.96704,728.9011,-0.17291259765625,0.0997314453125,0.9664306640625,1.21124267578125,-2.6617431640625,0.007476806640625,1.0,1.0,1.0,1.0,1.0,100.0,event
15:35:57.563,1.2726071,0.77325445,0.17229488,0.7593124,1.0480205,0.3736897,-0.07207614,0.26741758,0.7305667,0.62099737,0.6440925,0.40027976,0.60403675,0.4142836,0.4013699,0.6895451,0.5004055,0.06766741,0.14894338,0.3431603,810.293,840.5128,801.8315,800.2198,887.25275,-0.17291259765625,0.0997314453125,0.9664306640625,1.21124267578125,-2.6617431640625,0.007476806640625,1.0,1.0,1.0,1.0,1.0,100.0,event
15:35:57.563,1.2726071,0.77325445,0.17229488,0.7593124,1.0480205,0.3736897,-0.07207614,0.26741758,0.7305667,0.62099737,0.6440925,0.40027976,0.60403675,0.4142836,0.4013699,0.6895451,0.5004055,0.06766741,0.14894338,0.3431603,813.1135,832.8571,806.26373,796.1905,985.56775,-0.17291259765625,0.0997314453125,0.9664306640625,1.21124267578125,-2.6617431640625,0.007476806640625,1.0,1.0,1.0,1.0,1.0,100.0,event
15:35:57.564,1.2726071,0.77325445,0.17229488,0.7593124,1.0480205,0.3736897,-0.07207614,0.26741758,0.7305667,0.62099737,0.6440925,0.40027976,0.60403675,0.4142836,0.4013699,0.6895451,0.5004055,0.06766741,0.14894338,0.3431603,805.4579,831.6484,788.93774,793.7729,938.8278,-0.17291259765625,0.0997314453125,0.9664306640625,1.21124267578125,-2.6617431640625,0.007476806640625,1.0,1.0,1.0,1.0,1.0,100.0,event
15:35:57.564,1.2726071,0.77325445,0.17229488,0.7593124,1.0480205,0.3736897,-0.07207614,0.26741758,0.7305667,0.62099737,0.6440925,0.40027976,0.60403675,0.4142836,0.4013699,0.6895451,0.5004055,0.06766741,0.14894338,0.3431603,803.0403,828.022,781.685,789.34064,1152.7839,-0.17291259765625,0.0997314453125,0.9664306640625,1.21124267578125,-2.6617431640625,0.007476806640625,1.0,1.0,1.0,1.0,1.0,100.0,event
15:35:57.567,1.2726071,0.77325445,0.17229488,0.7593124,1.0480205,0.3736897,-0.07207614,0.26741758,0.7305667,0.62099737,0.6440925,0.40027976,0.60403675,0.4142836,0.4013699,0.6895451,0.5004055,0.06766741,0.14894338,0.3431603,801.4286,838.49817,817.9487,790.9524,863.47986,-0.17291259765625,0.0997314453125,0.9664306640625,1.21124267578125,-2.6617431640625,0.007476806640625,1.0,1.0,1.0,1.0,1.0,100.0,event
15:35:57.568,1.2726071,0.77325445,0.17229488,0.7593124,1.0480205,0.3736897,-0.07207614,0.26741758,0.7305667,0.62099737,0.6440925,0.40027976,0.60403675,0.4142836,0.4013699,0.6895451,0.5004055,0.06766741,0.14894338,0.3431603,806.26373,829.6337,797.8022,783.2967,749.85345,-0.17291259765625,0.0997314453125,0.9664306640625,1.21124267578125,-2.6617431640625,0.007476806640625,1.0,1.0,1.0,1.0,1.0,100.0,event
15:35:57.568,1.2726071,0.77325445,0.17229488,0.7593124,1.0480205,0.3736897,-0.07207614,0.26741758,0.7305667,0.62099737,0.6440925,0.40027976,0.60403675,0.4142836,0.4013699,0.6895451,0.5004055,0.06766741,0.14894338,0.3431603,803.8461,840.9158,814.7253,790.54944,588.2784,-0.17291259765625,0.0997314453125,0.9664306640625,1.21124267578125,-2.6617431640625,0.007476806640625,1.0,1.0,1.0,1.0,1.0,100.0,event
15:35:57.569,1.2726071,0.77325445,0.17229488,0.7593124,1.0480205,0.3736897,-0.07207614,0.26741758,0.7305667,0.62099737,0.6440925,0.40027976,0.60403675,0.4142836,0.4013699,0.6895451,0.5004055,0.06766741,0.14894338,0.3431603,808.2784,826.8132,810.293,784.90845,762.3443,-0.17291259765625,0.0997314453125,0.9664306640625,1.21124267578125,-2.6617431640625,0.007476806640625,1.0,1.0,1.0,1.0,1.0,100.0,event
15:35:57.636,1.2726071,0.77325445,0.17229488,0.7593124,1.0480205,0.3736897,-0.07207614,0.26741758,0.7305667,0.62099737,0.6440925,0.40027976,0.60403675,0.4142836,0.4013699,0.6895451,0.5004055,0.06766741,0.14894338,0.3431603,805.05493,828.022,799.81683,777.25275,628.5714,-0.173583984375,0.0985107421875,0.96923828125,0.710296630859375,-2.729034423828125,0.246734619140625,1.0,1.0,1.0,1.0,1.0,100.0,event
15:35:57.637,1.2726071,0.77325445,0.17229488,0.7593124,1.0480205,0.3736897,-0.07207614,0.26741758,0.7305667,0.62099737,0.6440925,0.40027976,0.60403675,0.4142836,0.4013699,0.6895451,0.5004055,0.06766741,0.14894338,0.3431603,798.60803,819.15753,789.34064,771.2088,610.84247,-0.173583984375,0.0985107421875,0.96923828125,0.710296630859375,-2.729034423828125,0.246734619140625,1.0,1.0,1.0,1.0,1.0,100.0,event
15:35:57.637,1.2726071,0.77325445,0.17229488,0.7593124,1.0480205,0.3736897,-0.07207614,0.26741758,0.7305667,0.62099737,0.6440925,0.40027976,0.60403675,0.4142836,0.4013699,0.6895451,0.5004055,0.06766741,0.14894338,0.3431603,799.81683,815.9341,796.1905,778.86444,705.9341,-0.173583984375,0.0985107421875,0.96923828125,0.710296630859375,-2.729034423828125,0.246734619140625,1.0,1.0,1.0,1.0,1.0,100.0,event
15:35:57.638,1.2726071,0.77325445,0.17229488,0.7593124,1.0480205,0.3736897,-0.07207614,0.26741758,0.7305667,0.62099737,0.6440925,0.40027976,0.60403675,0.4142836,0.4013699,0.6895451,0.5004055,0.06766741,0.14894338,0.3431603,809.0842,827.619,803.8461,788.93774,715.6044,-0.173583984375,0.0985107421875,0.96923828125,0.710296630859375,-2.729034423828125,0.246734619140625,1.0,1.0,1.0,1.0,1.0,100.0,event
15:35:57.639,1.2726071,0.77325445,0.17229488,0.7593124,1.0480205,0.3736897,-0.07207614,0.26741758,0.7305667,0.62099737,0.6440925,0.40027976,0.60403675,0.4142836,0.4013699,0.6895451,0.5004055,0.06766741,0.14894338,0.3431603,805.4579,826.4103,805.05493,780.87915,676.52014,-0.173583984375,0.0985107421875,0.96923828125,0.710296630859375,-2.729034423828125,0.246734619140625,1.0,1.0,1.0,1.0,1.0,100.0,event
15:35:57.639,1.2726071,0.77325445,0.17229488,0.7593124,1.0480205,0.3736897,-0.07207614,0.26741758,0.7305667,0.62099737,0.6440925,0.40027976,0.60403675,0.4142836,0.4013699,0.6895451,0.5004055,0.06766741,0.14894338,0.3431603,794.9817,817.9487,784.90845,778.0586,784.5055,-0.173583984375,0.0985107421875,0.96923828125,0.710296630859375,-2.729034423828125,0.246734619140625,1.0,1.0,1.0,1.0,1.0,100.0,event
15:35:57.640,1.2726071,0.77325445,0.17229488,0.7593124,1.0480205,0.3736897,-0.07207614,0.26741758,0.7305667,0.62099737,0.6440925,0.40027976,0.60403675,0.4142836,0.4013699,0.6895451,0.5004055,0.06766741,0.14894338,0.3431603,800.2198,821.5751,773.22345,787.326,977.1062,-0.173583984375,0.0985107421875,0.96923828125,0.710296630859375,-2.729034423828125,0.246734619140625,1.0,1.0,1.0,1.0,1.0,100.0,event
15:35:57.640,1.2726071,0.77325445,0.17229488,0.7593124,1.0480205,0.3736897,-0.07207614,0.26741758,0.7305667,0.62099737,0.6440925,0.40027976,0.60403675,0.4142836,0.4013699,0.6895451,0.5004055,0.06766741,0.14894338,0.3431603,803.44324,830.84247,810.293,794.57874,860.2564,-0.173583984375,0.0985107421875,0.96923828125,0.710296630859375,-2.729034423828125,0.246734619140625,1.0,1.0,1.0,1.0,1.0,100.0,event
15:35:57.641,1.2726071,0.77325445,0.17229488,0.7593124,1.0480205,0.3736897,-0.07207614,0.26741758,0.7305667,0.62099737,0.6440925,0.40027976,0.60403675,0.4142836,0.4013699,0.6895451,0.5004055,0.06766741,0.14894338,0.3431603,800.2198,825.2015,785.31134,785.31134,761.53845,-0.173583984375,0.0985107421875,0.96923828125,0.710296630859375,-2.729034423828125,0.246734619140625,1.0,1.0,1.0,1.0,1.0,100.0,event
15:35:57.641,1.2726071,0.77325445,0.17229488,0.7593124,1.0480205,0.3736897,-0.07207614,0.26741758,0.7305667,0.62099737,0.6440925,0.40027976,0.60403675,0.4142836,0.4013699,0.6895451,0.5004055,0.06766741,0.14894338,0.3431603,801.4286,832.8571,807.0696,792.5641,670.87915,-0.173583984375,0.0985107421875,0.96923828125,0.710296630859375,-2.729034423828125,0.246734619140625,1.0,1.0,1.0,1.0,1.0,100.0,event
15:35:57.642,1.2726071,0.77325445,0.17229488,0.7593124,1.0480205,0.3736897,-0.07207614,0.26741758,0.7305667,0.62099737,0.6440925,0.40027976,0.60403675,0.4142836,0.4013699,0.6895451,0.5004055,0.06766741,0.14894338,0.3431603,803.0403,818.3516,797.3993,784.10254,835.2747,-0.173583984375,0.0985107421875,0.96923828125,0.710296630859375,-2.729034423828125,0.246734619140625,1.0,1.0,1.0,1.0,1.0,100.0,event
15:35:57.643,1.2726071,0.77325445,0.17229488,0.7593124,1.0480205,0.3736897,-0.07207614,0.26741758,0.7305667,0.62099737,0.6440925,0.40027976,0.60403675,0.4142836,0.4013699,0.6895451,0.5004055,0.06766741,0.14894338,0.3431603,791.3553,818.7546,804.2491,764.35895,713.5897,-0.173583984375,0.0985107421875,0.96923828125,0.710296630859375,-2.729034423828125,0.246734619140625,1.0,1.0,1.0,1.0,1.0,100.0,event
15:35:57.667,1.2726071,0.77325445,0.17229488,0.7593124,1.0480205,0.3736897,-0.07207614,0.26741758,0.7305667,0.62099737,0.6440925,0.40027976,0.60403675,0.4142836,0.4013699,0.6895451,0.5004055,0.06766741,0.14894338,0.3431603,780.87915,819.15753,799.41394,758.71796,705.9341,-0.177978515625,0.09954833984375,0.96923828125,1.42059326171875,-1.502838134765625,-0.530853271484375,1.0,1.0,1.0,1.0,1.0,100.0,event
15:35:57.668,1.2726071,0.77325445,0.17229488,0.7593124,1.0480205,0.3736897,-0.07207614,0.26741758,0.7305667,0.62099737,0.6440925,0.40027976,0.60403675,0.4142836,0.4013699,0.6895451,0.5004055,0.06766741,0.14894338,0.3431603,792.96704,819.15753,793.36993,774.83514,777.6557,-0.177978515625,0.09954833984375,0.96923828125,1.42059326171875,-1.502838134765625,-0.530853271484375,1.0,1.0,1.0,1.0,1.0,100.0,event
15:35:57.668,1.2726071,0.77325445,0.17229488,0.7593124,1.0480205,0.3736897,-0.07207614,0.26741758,0.7305667,0.62099737,0.6440925,0.40027976,0.60403675,0.4142836,0.4013699,0.6895451,0.5004055,0.06766741,0.14894338,0.3431603,801.02563,822.381,800.2198,780.4762,760.7326,-0.177978515625,0.09954833984375,0.96923828125,1.42059326171875,-1.502838134765625,-0.530853271484375,1.0,1.0,1.0,1.0,1.0,100.0,event
15:35:57.669,1.2726071,0.77325445,0.17229488,0.7593124,1.0480205,0.3736897,-0.07207614,0.26741758,0.7305667,0.62099737,0.6440925,0.40027976,0.60403675,0.4142836,0.4013699,0.6895451,0.5004055,0.06766741,0.14894338,0.3431603,796.5934,812.71063,803.44324,773.22345,690.6227,-0.177978515625,0.09954833984375,0.96923828125,1.42059326171875,-1.502838134765625,-0.530853271484375,1.0,1.0,1.0,1.0,1.0,100.0,event
15:35:57.669,1.2726071,0.77325445,0.17229488,0.7593124,1.0480205,0.3736897,-0.07207614,0.26741758,0.7305667,0.62099737,0.6440925,0.40027976,0.60403675,0.4142836,0.4013699,0.6895451,0.5004055,0.06766741,0.14894338,0.3431603,805.8608,806.6667,799.81683,774.0293,702.3077,-0.177978515625,0.09954833984375,0.96923828125,1.42059326171875,-1.502838134765625,-0.530853271484375,1.0,1.0,1.0,1.0,1.0,100.0,event
15:35:57.670,1.2726071,0.77325445,0.17229488,0.7593124,1.0480205,0.3736897,-0.07207614,0.26741758,0.7305667,0.62099737,0.6440925,0.40027976,0.60403675,0.4142836,0.4013699,0.6895451,0.5004055,0.06766741,0.14894338,0.3431603,793.7729,809.4872,801.4286,773.6264,998.46155,-0.177978515625,0.09954833984375,0.96923828125,1.42059326171875,-1.502838134765625,-0.530853271484375,1.0,1.0,1.0,1.0,1.0,100.0,event
15:35:57.670,1.2726071,0.77325445,0.17229488,0.7593124,1.0480205,0.3736897,-0.07207614,0.26741758,0.7305667,0.62099737,0.6440925,0.40027976,0.60403675,0.4142836,0.4013699,0.6895451,0.5004055,0.06766741,0.14894338,0.3431603,803.44324,807.47253,790.14655,779.2674,864.68866,-0.177978515625,0.09954833984375,0.96923828125,1.42059326171875,-1.502838134765625,-0.530853271484375,1.0,1.0,1.0,1.0,1.0,100.0,event
15:35:57.671,1.2726071,0.77325445,0.17229488,0.7593124,1.0480205,0.3736897,-0.07207614,0.26741758,0.7305667,0.62099737,0.6440925,0.40027976,0.60403675,0.4142836,0.4013699,0.6895451,0.5004055,0.06766741,0.14894338,0.3431603,797.3993,807.0696,821.1722,786.52014,814.3223,-0.177978515625,0.09954833984375,0.96923828125,1.42059326171875,-1.502838134765625,-0.530853271484375,1.0,1.0,1.0,1.0,1.0,100.0,event
15:35:57.671,1.2726071,0.77325445,0.17229488,0.7593124,1.0480205,0.3736897,-0.07207614,0.26741758,0.7305667,0.62099737,0.6440925,0.40027976,0.60403675,0.4142836,0.4013699,0.6895451,0.5004055,0.06766741,0.14894338,0.3431603,796.1905,802.23444,806.6667,783.69965,654.35895,-0.177978515625,0.09954833984375,0.96923828125,1.42059326171875,-1.502838134765625,-0.530853271484375,1.0,1.0,1.0,1.0,1.0,100.0,event
15:35:57.672,1.2726071,0.77325445,0.17229488,0.7593124,1.0480205,0.3736897,-0.07207614,0.26741758,0.7305667,0.62099737,0.6440925,0.40027976,0.60403675,0.4142836,0.4013699,0.6895451,0.5004055,0.06766741,0.14894338,0.3431603,790.9524,809.89014,785.31134,776.04395,777.6557,-0.177978515625,0.09954833984375,0.96923828125,1.42059326171875,-1.502838134765625,-0.530853271484375,1.0,1.0,1.0,1.0,1.0,100.0,event
15:35:57.676,1.2726071,0.77325445,0.17229488,0.7593124,1.0480205,0.3736897,-0.07207614,0.26741758,0.7305667,0.62099737,0.6440925,0.40027976,0.60403675,0.4142836,0.4013699,0.6895451,0.5004055,0.06766741,0.14894338,0.3431603,799.011,818.3516,807.8755,777.25275,824.3956,-0.177978515625,0.09954833984375,0.96923828125,1.42059326171875,-1.502838134765625,-0.530853271484375,1.0,1.0,1.0,1.0,1.0,100.0,event
15:35:57.676,1.2726071,0.77325445,0.17229488,0.7593124,1.0480205,0.3736897,-0.07207614,0.26741758,0.7305667,0.62099737,0.6440925,0.40027976,0.60403675,0.4142836,0.4013699,0.6895451,0.5004055,0.06766741,0.14894338,0.3431603,805.8608,819.9634,816.337,782.49084,763.95605,-0.177978515625,0.09954833984375,0.96923828125,1.42059326171875,-1.502838134765625,-0.530853271484375,1.0,1.0,1.0,1.0,1.0,100.0,event
15:35:57.737,1.2726071,0.77325445,0.17229488,0.7593124,1.0480205,0.3736897,-0.07207614,0.26741758,0.7305667,0.62099737,0.6440925,0.40027976,0.60403675,0.4142836,0.4013699,0.6895451,0.5004055,0.06766741,0.14894338,0.3431603,802.6374,816.337,797.8022,789.7436,852.1978,-0.1673583984375,0.0972900390625,0.96832275390625,1.375732421875,0.381317138671875,-0.530853271484375,1.0,1.0,1.0,1.0,1.0,100.0,event
15:35:57.739,1.2726071,0.77325445,0.17229488,0.7593124,1.0480205,0.3736897,-0.07207614,0.26741758,0.7305667,0.62099737,0.6440925,0.40027976,0.60403675,0.4142836,0.4013699,0.6895451,0.5004055,0.06766741,0.14894338,0.3431603,799.011,808.2784,792.1612,794.57874,950.9158,-0.1673583984375,0.0972900390625,0.96832275390625,1.375732421875,0.381317138671875,-0.530853271484375,1.0,1.0,1.0,1.0,1.0,100.0,event
15:35:57.740,1.2726071,0.77325445,0.17229488,0.7593124,1.0480205,0.3736897,-0.07207614,0.26741758,0.7305667,0.62099737,0.6440925,0.40027976,0.60403675,0.4142836,0.4013699,0.6895451,0.5004055,0.06766741,0.14894338,0.3431603,801.8315,812.3077,809.89014,788.5348,847.76556,-0.1673583984375,0.0972900390625,0.96832275390625,1.375732421875,0.381317138671875,-0.530853271484375,1.0,1.0,1.0,1.0,1.0,100.0,event
15:35:57.740,1.2726071,0.77325445,0.17229488,0.7593124,1.0480205,0.3736897,-0.07207614,0.26741758,0.7305667,0.62099737,0.6440925,0.40027976,0.60403675,0.4142836,0.4013699,0.6895451,0.5004055,0.06766741,0.14894338,0.3431603,810.293,823.5897,811.0989,774.83514,749.0476,-0.1673583984375,0.0972900390625,0.96832275390625,1.375732421875,0.381317138671875,-0.530853271484375,1.0,1.0,1.0,1.0,1.0,100.0,event
15:35:57.741,1.2726071,0.77325445,0.17229488,0.7593124,1.0480205,0.3736897,-0.07207614,0.26741758,0.7305667,0.62099737,0.6440925,0.40027976,0.60403675,0.4142836,0.4013699,0.6895451,0.5004055,0.06766741,0.14894338,0.3431603,807.0696,822.7839,799.41394,783.2967,783.69965,-0.1673583984375,0.0972900390625,0.96832275390625,1.375732421875,0.381317138671875,-0.530853271484375,1.0,1.0,1.0,1.0,1.0,100.0,event
15:35:57.742,1.2726071,0.77325445,0.17229488,0.7593124,1.0480205,0.3736897,-0.07207614,0.26741758,0.7305667,0.62099737,0.6440925,0.40027976,0.60403675,0.4142836,0.4013699,0.6895451,0.5004055,0.06766741,0.14894338,0.3431603,798.20514,814.7253,796.5934,791.3553,881.2088,-0.1673583984375,0.0972900390625,0.96832275390625,1.375732421875,0.381317138671875,-0.530853271484375,1.0,1.0,1.0,1.0,1.0,100.0,event
15:35:57.743,1.2726071,0.77325445,0.17229488,0.7593124,1.0480205,0.3736897,-0.07207614,0.26741758,0.7305667,0.62099737,0.6440925,0.40027976,0.60403675,0.4142836,0.4013699,0.6895451,0.5004055,0.06766741,0.14894338,0.3431603,792.5641,811.50183,795.78754,783.2967,865.89746,-0.1673583984375,0.0972900390625,0.96832275390625,1.375732421875,0.381317138671875,-0.530853271484375,1.0,1.0,1.0,1.0,1.0,100.0,event
15:35:57.743,1.2726071,0.77325445,0.17229488,0.7593124,1.0480205,0.3736897,-0.07207614,0.26741758,0.7305667,0.62099737,0.6440925,0.40027976,0.60403675,0.4142836,0.4013699,0.6895451,0.5004055,0.06766741,0.14894338,0.3431603,795.38464,816.7399,802.6374,786.52014,722.4542,-0.1673583984375,0.0972900390625,0.96832275390625,1.375732421875,0.381317138671875,-0.530853271484375,1.0,1.0,1.0,1.0,1.0,100.0,event
15:35:57.744,1.2726071,0.77325445,0.17229488,0.7593124,1.0480205,0.3736897,-0.07207614,0.26741758,0.7305667,0.62099737,0.6440925,0.40027976,0.60403675,0.4142836,0.4013699,0.6895451,0.5004055,0.06766741,0.14894338,0.3431603,794.57874,807.47253,790.54944,788.5348,730.10986,-0.1673583984375,0.0972900390625,0.96832275390625,1.375732421875,0.381317138671875,-0.530853271484375,1.0,1.0,1.0,1.0,1.0,100.0,event
15:35:57.744,1.2726071,0.77325445,0.17229488,0.7593124,1.0480205,0.3736897,-0.07207614,0.26741758,0.7305667,0.62099737,0.6440925,0.40027976,0.60403675,0.4142836,0.4013699,0.6895451,0.5004055,0.06766741,0.14894338,0.3431603,793.36993,792.96704,775.64105,781.28204,971.4652,-0.1673583984375,0.0972900390625,0.96832275390625,1.375732421875,0.381317138671875,-0.530853271484375,1.0,1.0,1.0,1.0,1.0,100.0,event
15:35:57.745,1.2726071,0.77325445,0.17229488,0.7593124,1.0480205,0.3736897,-0.07207614,0.26741758,0.7305667,0.62099737,0.6440925,0.40027976,0.60403675,0.4142836,0.4013699,0.6895451,0.5004055,0.06766741,0.14894338,0.3431603,802.6374,801.4286,805.05493,787.72894,849.3773,-0.1673583984375,0.0972900390625,0.96832275390625,1.375732421875,0.381317138671875,-0.530853271484375,1.0,1.0,1.0,1.0,1.0,100.0,event
15:35:57.745,1.2726071,0.77325445,0.17229488,0.7593124,1.0480205,0.3736897,-0.07207614,0.26741758,0.7305667,0.62099737,0.6440925,0.40027976,0.60403675,0.4142836,0.4013699,0.6895451,0.5004055,0.06766741,0.14894338,0.3431603,811.50183,809.89014,807.8755,799.81683,693.0403,-0.1673583984375,0.0972900390625,0.96832275390625,1.375732421875,0.381317138671875,-0.530853271484375,1.0,1.0,1.0,1.0,1.0,100.0,event
15:35:57.778,1.2726071,0.77325445,0.17229488,0.7593124,1.0480205,0.3736897,-0.07207614,0.26741758,0.7305667,0.62099737,0.6440925,0.40027976,0.60403675,0.4142836,0.4013699,0.6895451,0.5004055,0.06766741,0.14894338,0.3431603,816.7399,806.6667,792.96704,795.38464,771.2088,-0.1673583984375,0.0972900390625,0.96832275390625,1.375732421875,0.381317138671875,-0.530853271484375,1.0,1.0,1.0,1.0,1.0,100.0,event
15:35:57.780,1.2726071,0.77325445,0.17229488,0.7593124,1.0480205,0.3736897,-0.07207614,0.26741758,0.7305667,0.62099737,0.6440925,0.40027976,0.60403675,0.4142836,0.4013699,0.6895451,0.5004055,0.06766741,0.14894338,0.3431603,811.9048,804.2491,798.60803,785.31134,725.6777,-0.1673583984375,0.0972900390625,0.96832275390625,1.375732421875,0.381317138671875,-0.530853271484375,1.0,1.0,1.0,1.0,1.0,100.0,event
15:35:57.781,1.2726071,0.77325445,0.17229488,0.7593124,1.0480205,0.3736897,-0.07207614,0.26741758,0.7305667,0.62099737,0.6440925,0.40027976,0.60403675,0.4142836,0.4013699,0.6895451,0.5004055,0.06766741,0.14894338,0.3431603,811.0989,809.4872,803.0403,786.52014,672.49084,-0.1673583984375,0.0972900390625,0.96832275390625,1.375732421875,0.381317138671875,-0.530853271484375,1.0,1.0,1.0,1.0,1.0,100.0,event
15:35:57.782,1.2726071,0.77325445,0.17229488,0.7593124,1.0480205,0.3736897,-0.07207614,0.26741758,0.7305667,0.62099737,0.6440925,0.40027976,0.60403675,0.4142836,0.4013699,0.6895451,0.5004055,0.06766741,0.14894338,0.3431603,805.8608,810.696,791.75824,791.75824,743.8095,-0.1673583984375,0.0972900390625,0.96832275390625,1.375732421875,0.381317138671875,-0.530853271484375,1.0,1.0,1.0,1.0,1.0,100.0,event
15:35:57.784,1.2726071,0.77325445,0.17229488,0.7593124,1.0480205,0.3736897,-0.07207614,0.26741758,0.7305667,0.62099737,0.6440925,0.40027976,0.60403675,0.4142836,0.4013699,0.6895451,0.5004055,0.06766741,0.14894338,0.3431603,786.9231,805.05493,790.54944,790.14655,856.63007,-0.1673583984375,0.0972900390625,0.96832275390625,1.375732421875,0.381317138671875,-0.530853271484375,1.0,1.0,1.0,1.0,1.0,100.0,event
15:35:57.785,1.2726071,0.77325445,0.17229488,0.7593124,1.0480205,0.3736897,-0.07207614,0.26741758,0.7305667,0.62099737,0.6440925,0.40027976,0.60403675,0.4142836,0.4013699,0.6895451,0.5004055,0.06766741,0.14894338,0.3431603,795.78754,807.47253,800.6227,799.011,906.1905,-0.1673583984375,0.0972900390625,0.96832275390625,1.375732421875,0.381317138671875,-0.530853271484375,1.0,1.0,1.0,1.0,1.0,100.0,event
15:35:57.787,1.2726071,0.77325445,0.17229488,0.7593124,1.0480205,0.3736897,-0.07207614,0.26741758,0.7305667,0.62099737,0.6440925,0.40027976,0.60403675,0.4142836,0.4013699,0.6895451,0.5004055,0.06766741,0.14894338,0.3431603,808.68134,808.2784,802.23444,794.57874,796.5934,-0.1673583984375,0.0972900390625,0.96832275390625,1.375732421875,0.381317138671875,-0.530853271484375,1.0,1.0,1.0,1.0,1.0,100.0,event
15:35:57.788,1.2726071,0.77325445,0.17229488,0.7593124,1.0480205,0.3736897,-0.07207614,0.26741758,0.7305667,0.62099737,0.6440925,0.40027976,0.60403675,0.4142836,0.4013699,0.6895451,0.5004055,0.06766741,0.14894338,0.3431603,803.8461,805.4579,799.011,788.1319,755.09155,-0.1673583984375,0.0972900390625,0.96832275390625,1.375732421875,0.381317138671875,-0.530853271484375,1.0,1.0,1.0,1.0,1.0,100.0,event
15:35:57.789,1.2726071,0.77325445,0.17229488,0.7593124,1.0480205,0.3736897,-0.07207614,0.26741758,0.7305667,0.62099737,0.6440925,0.40027976,0.60403675,0.4142836,0.4013699,0.6895451,0.5004055,0.06766741,0.14894338,0.3431603,808.2784,805.8608,789.7436,799.011,869.12085,-0.1673583984375,0.0972900390625,0.96832275390625,1.375732421875,0.381317138671875,-0.530853271484375,1.0,1.0,1.0,1.0,1.0,100.0,event
15:35:57.790,1.2726071,0.77325445,0.17229488,0.7593124,1.0480205,0.3736897,-0.07207614,0.26741758,0.7305667,0.62099737,0.6440925,0.40027976,0.60403675,0.4142836,0.4013699,0.6895451,0.5004055,0.06766741,0.14894338,0.3431603,813.91943,807.47253,799.41394,805.8608,828.4249,-0.1673583984375,0.0972900390625,0.96832275390625,1.375732421875,0.381317138671875,-0.530853271484375,1.0,1.0,1.0,1.0,1.0,100.0,event
15:35:57.790,1.2726071,0.77325445,0.17229488,0.7593124,1.0480205,0.3736897,-0.07207614,0.26741758,0.7305667,0.62099737,0.6440925,0.40027976,0.60403675,0.4142836,0.4013699,0.6895451,0.5004055,0.06766741,0.14894338,0.3431603,815.12823,811.0989,805.05493,806.26373,690.2198,-0.1673583984375,0.0972900390625,0.96832275390625,1.375732421875,0.381317138671875,-0.530853271484375,1.0,1.0,1.0,1.0,1.0,100.0,event
15:35:57.791,1.2726071,0.77325445,0.17229488,0.7593124,1.0480205,0.3736897,-0.07207614,0.26741758,0.7305667,0.62099737,0.6440925,0.40027976,0.60403675,0.4142836,0.4013699,0.6895451,0.5004055,0.06766741,0.14894338,0.3431603,817.5458,813.1135,797.3993,799.41394,662.8205,-0.1673583984375,0.0972900390625,0.96832275390625,1.375732421875,0.381317138671875,-0.530853271484375,1.0,1.0,1.0,1.0,1.0,100.0,event
15:35:57.818,1.2726071,0.77325445,0.17229488,0.7593124,1.0480205,0.3736897,-0.07207614,0.26741758,0.7305667,0.62099737,0.6440925,0.40027976,0.60403675,0.4142836,0.4013699,0.6895451,0.5004055,0.06766741,0.14894338,0.3431603,819.15753,803.0403,777.25275,798.20514,840.9158,-0.1864013671875,0.0938720703125,0.9609375,1.31591796875,1.472930908203125,0.2093505859375,1.0,1.0,1.0,1.0,1.0,100.0,event
15:35:57.819,1.2726071,0.77325445,0.17229488,0.7593124,1.0480205,0.3736897,-0.07207614,0.26741758,0.7305667,0.62099737,0.6440925,0.40027976,0.60403675,0.4142836,0.4013699,0.6895451,0.5004055,0.06766741,0.14894338,0.3431603,822.7839,809.0842,803.0403,793.7729,959.3773,-0.1864013671875,0.0938720703125,0.9609375,1.31591796875,1.472930908203125,0.2093505859375,1.0,1.0,1.0,1.0,1.0,100.0,event
15:35:57.820,1.2726071,0.77325445,0.17229488,0.7593124,1.0480205,0.3736897,-0.07207614,0.26741758,0.7305667,0.62099737,0.6440925,0.40027976,0.60403675,0.4142836,0.4013699,0.6895451,0.5004055,0.06766741,0.14894338,0.3431603,809.0842,820.3663,816.337,787.72894,753.8828,-0.1864013671875,0.0938720703125,0.9609375,1.31591796875,1.472930908203125,0.2093505859375,1.0,1.0,1.0,1.0,1.0,100.0,event
15:35:57.820,1.2726071,0.77325445,0.17229488,0.7593124,1.0480205,0.3736897,-0.07207614,0.26741758,0.7305667,0.62099737,0.6440925,0.40027976,0.60403675,0.4142836,0.4013699,0.6895451,0.5004055,0.06766741,0.14894338,0.3431603,801.4286,813.1135,789.7436,796.1905,735.7509,-0.1864013671875,0.0938720703125,0.9609375,1.31591796875,1.472930908203125,0.2093505859375,1.0,1.0,1.0,1.0,1.0,100.0,event
15:35:57.820,1.2726071,0.77325445,0.17229488,0.7593124,1.0480205,0.3736897,-0.07207614,0.26741758,0.7305667,0.62099737,0.6440925,0.40027976,0.60403675,0.4142836,0.4013699,0.6895451,0.5004055,0.06766741,0.14894338,0.3431603,799.41394,804.65204,787.72894,795.38464,743.8095,-0.1864013671875,0.0938720703125,0.9609375,1.31591796875,1.472930908203125,0.2093505859375,1.0,1.0,1.0,1.0,1.0,100.0,event
15:35:57.821,1.2726071,0.77325445,0.17229488,0.7593124,1.0480205,0.3736897,-0.07207614,0.26741758,0.7305667,0.62099737,0.6440925,0.40027976,0.60403675,0.4142836,0.4013699,0.6895451,0.5004055,0.06766741,0.14894338,0.3431603,809.89014,799.41394,789.7436,790.14655,757.9121,-0.1864013671875,0.0938720703125,0.9609375,1.31591796875,1.472930908203125,0.2093505859375,1.0,1.0,1.0,1.0,1.0,100.0,event
15:35:57.821,1.2726071,0.77325445,0.17229488,0.7593124,1.0480205,0.3736897,-0.07207614,0.26741758,0.7305667,0.62099737,0.6440925,0.40027976,0.60403675,0.4142836,0.4013699,0.6895451,0.5004055,0.06766741,0.14894338,0.3431603,803.0403,800.2198,790.14655,799.011,822.381,-0.1864013671875,0.0938720703125,0.9609375,1.31591796875,1.472930908203125,0.2093505859375,1.0,1.0,1.0,1.0,1.0,100.0,event
15:35:57.822,1.2726071,0.77325445,0.17229488,0.7593124,1.0480205,0.3736897,-0.07207614,0.26741758,0.7305667,0.62099737,0.6440925,0.40027976,0.60403675,0.4142836,0.4013699,0.6895451,0.5004055,0.06766741,0.14894338,0.3431603,810.696,808.2784,790.14655,809.0842,807.47253,-0.1864013671875,0.0938720703125,0.9609375,1.31591796875,1.472930908203125,0.2093505859375,1.0,1.0,1.0,1.0,1.0,100.0,event
15:35:57.823,1.2726071,0.77325445,0.17229488,0.7593124,1.0480205,0.3736897,-0.07207614,0.26741758,0.7305667,0.62099737,0.6440925,0.40027976,0.60403675,0.4142836,0.4013699,0.6895451,0.5004055,0.06766741,0.14894338,0.3431603,831.2454,804.65204,777.25275,804.65204,1034.7252,-0.1864013671875,0.0938720703125,0.9609375,1.31591796875,1.472930908203125,0.2093505859375,1.0,1.0,1.0,1.0,1.0,100.0,event
15:35:57.823,1.2726071,0.77325445,0.17229488,0.7593124,1.0480205,0.3736897,-0.07207614,0.26741758,0.7305667,0.62099737,0.6440925,0.40027976,0.60403675,0.4142836,0.4013699,0.6895451,0.5004055,0.06766741,0.14894338,0.3431603,805.05493,802.6374,803.0403,792.5641,1024.249,-0.1864013671875,0.0938720703125,0.9609375,1.31591796875,1.472930908203125,0.2093505859375,1.0,1.0,1.0,1.0,1.0,100.0,event
15:35:57.824,1.2726071,0.77325445,0.17229488,0.7593124,1.0480205,0.3736897,-0.07207614,0.26741758,0.7305667,0.62099737,0.6440925,0.40027976,0.60403675,0.4142836,0.4013699,0.6895451,0.5004055,0.06766741,0.14894338,0.3431603,798.20514,804.2491,814.7253,787.72894,745.0183,-0.1864013671875,0.0938720703125,0.9609375,1.31591796875,1.472930908203125,0.2093505859375,1.0,1.0,1.0,1.0,1.0,100.0,event
15:35:57.824,1.2726071,0.77325445,0.17229488,0.7593124,1.0480205,0.3736897,-0.07207614,0.26741758,0.7305667,0.62099737,0.6440925,0.40027976,0.60403675,0.4142836,0.4013699,0.6895451,0.5004055,0.06766741,0.14894338,0.3431603,806.6667,799.41394,800.6227,786.52014,759.12085,-0.1864013671875,0.0938720703125,0.9609375,1.31591796875,1.472930908203125,0.2093505859375,1.0,1.0,1.0,1.0,1.0,100.0,event
15:35:57.853,1.2726071,0.77325445,0.17229488,0.7593124,1.0480205,0.3736897,-0.07207614,0.26741758,0.7305667,0.62099737,0.6440925,0.40027976,0.60403675,0.4142836,0.4013699,0.6895451,0.5004055,0.06766741,0.14894338,0.3431603,809.89014,803.44324,802.6374,790.54944,795.38464,-0.20233154296875,0.09161376953125,0.95849609375,1.532745361328125,2.04864501953125,0.01495361328125,1.0,1.0,1.0,1.0,1.0,100.0,event
15:35:57.854,1.2726071,0.77325445,0.17229488,0.7593124,1.0480205,0.3736897,-0.07207614,0.26741758,0.7305667,0.62099737,0.6440925,0.40027976,0.60403675,0.4142836,0.4013699,0.6895451,0.5004055,0.06766741,0.14894338,0.3431603,819.15753,812.3077,795.38464,792.5641,757.9121,-0.20233154296875,0.09161376953125,0.95849609375,1.532745361328125,2.04864501953125,0.01495361328125,1.0,1.0,1.0,1.0,1.0,100.0,event
15:35:57.855,1.2726071,0.77325445,0.17229488,0.7593124,1.0480205,0.3736897,-0.07207614,0.26741758,0.7305667,0.62099737,0.6440925,0.40027976,0.60403675,0.4142836,0.4013699,0.6895451,0.5004055,0.06766741,0.14894338,0.3431603,818.7546,803.8461,792.1612,784.90845,746.63007,-0.20233154296875,0.09161376953125,0.95849609375,1.532745361328125,2.04864501953125,0.01495361328125,1.0,1.0,1.0,1.0,1.0,100.0,event
15:35:57.855,1.2726071,0.77325445,0.17229488,0.7593124,1.0480205,0.3736897,-0.07207614,0.26741758,0.7305667,0.62099737,0.6440925,0.40027976,0.60403675,0.4142836,0.4013699,0.6895451,0.5004055,0.06766741,0.14894338,0.3431603,813.1135,792.1612,792.5641,801.02563,730.5128,-0.20233154296875,0.09161376953125,0.95849609375,1.532745361328125,2.04864501953125,0.01495361328125,1.0,1.0,1.0,1.0,1.0,100.0,event
15:35:57.856,1.2726071,0.77325445,0.17229488,0.7593124,1.0480205,0.3736897,-0.07207614,0.26741758,0.7305667,0.62099737,0.6440925,0.40027976,0.60403675,0.4142836,0.4013699,0.6895451,0.5004055,0.06766741,0.14894338,0.3431603,813.1135,801.02563,805.05493,807.47253,740.58606,-0.20233154296875,0.09161376953125,0.95849609375,1.532745361328125,2.04864501953125,0.01495361328125,1.0,1.0,1.0,1.0,1.0,100.0,event
15:35:57.856,1.2726071,0.77325445,0.17229488,0.7593124,1.0480205,0.3736897,-0.07207614,0.26741758,0.7305667,0.62099737,0.6440925,0.40027976,0.60403675,0.4142836,0.4013699,0.6895451,0.5004055,0.06766741,0.14894338,0.3431603,797.3993,790.9524,797.3993,793.36993,820.7692,-0.20233154296875,0.09161376953125,0.95849609375,1.532745361328125,2.04864501953125,0.01495361328125,1.0,1.0,1.0,1.0,1.0,100.0,event
15:35:57.857,1.2726071,0.77325445,0.17229488,0.7593124,1.0480205,0.3736897,-0.07207614,0.26741758,0.7305667,0.62099737,0.6440925,0.40027976,0.60403675,0.4142836,0.4013699,0.6895451,0.5004055,0.06766741,0.14894338,0.3431603,799.41394,786.1172,790.54944,786.52014,802.6374,-0.20233154296875,0.09161376953125,0.95849609375,1.532745361328125,2.04864501953125,0.01495361328125,1.0,1.0,1.0,1.0,1.0,100.0,event
15:35:57.858,1.2726071,0.77325445,0.17229488,0.7593124,1.0480205,0.3736897,-0.07207614,0.26741758,0.7305667,0.62099737,0.6440925,0.40027976,0.60403675,0.4142836,0.4013699,0.6895451,0.5004055,0.06766741,0.14894338,0.3431603,805.4579,788.93774,781.685,780.87915,870.7326,-0.20233154296875,0.09161376953125,0.95849609375,1.532745361328125,2.04864501953125,0.01495361328125,1.0,1.0,1.0,1.0,1.0,100.0,event
15:35:57.858,1.2726071,0.77325445,0.17229488,0.7593124,1.0480205,0.3736897,-0.07207614,0.26741758,0.7305667,0.62099737,0.6440925,0.40027976,0.60403675,0.4142836,0.4013699,0.6895451,0.5004055,0.06766741,0.14894338,0.3431603,807.47253,785.7143,790.9524,790.54944,999.2674,-0.20233154296875,0.09161376953125,0.95849609375,1.532745361328125,2.04864501953125,0.01495361328125,1.0,1.0,1.0,1.0,1.0,100.0,event
15:35:57.859,1.2726071,0.77325445,0.17229488,0.7593124,1.0480205,0.3736897,-0.07207614,0.26741758,0.7305667,0.62099737,0.6440925,0.40027976,0.60403675,0.4142836,0.4013699,0.6895451,0.5004055,0.06766741,0.14894338,0.3431603,796.5934,793.7729,803.8461,779.67035,776.04395,-0.20233154296875,0.09161376953125,0.95849609375,1.532745361328125,2.04864501953125,0.01495361328125,1.0,1.0,1.0,1.0,1.0,100.0,event
15:35:57.859,1.2726071,0.77325445,0.17229488,0.7593124,1.0480205,0.3736897,-0.07207614,0.26741758,0.7305667,0.62099737,0.6440925,0.40027976,0.60403675,0.4142836,0.4013699,0.6895451,0.5004055,0.06766741,0.14894338,0.3431603,801.02563,792.5641,815.9341,787.326,814.7253,-0.20233154296875,0.09161376953125,0.95849609375,1.532745361328125,2.04864501953125,0.01495361328125,1.0,1.0,1.0,1.0,1.0,100.0,event
15:35:57.860,1.2726071,0.77325445,0.17229488,0.7593124,1.0480205,0.3736897,-0.07207614,0.26741758,0.7305667,0.62099737,0.6440925,0.40027976,0.60403675,0.4142836,0.4013699,0.6895451,0.5004055,0.06766741,0.14894338,0.3431603,797.8022,794.57874,789.34064,776.8498,941.6484,-0.20233154296875,0.09161376953125,0.95849609375,1.532745361328125,2.04864501953125,0.01495361328125,1.0,1.0,1.0,1.0,1.0,100.0,event
15:35:57.887,1.2726071,0.77325445,0.17229488,0.7593124,1.0480205,0.3736897,-0.07207614,0.26741758,0.7305667,0.62099737,0.6440925,0.40027976,0.60403675,0.4142836,0.4013699,0.6895451,0.5004055,0.06766741,0.14894338,0.3431603,796.99634,801.8315,793.7729,780.07324,871.53845,-0.2086181640625,0.08721923828125,0.96099853515625,2.31781005859375,-2.609405517578125,-0.49346923828125,1.0,1.0,1.0,1.0,1.0,100.0,event
15:35:57.888,1.2726071,0.77325445,0.19078784,0.7593124,1.0480205,0.3736897,-0.114404276,0.26741758,0.7305667,0.62099737,0.59440976,0.40027976,0.60403675,0.4142836,0.37366,0.6895451,0.5004055,0.06766741,0.15791377,0.3431603,809.89014,809.4872,795.78754,801.02563,705.5311,-0.2086181640625,0.08721923828125,0.96099853515625,2.31781005859375,-2.609405517578125,-0.49346923828125,1.0,1.0,1.0,1.0,1.0,100.0,event
15:35:57.892,1.2726071,0.77325445,0.19078784,0.7593124,1.0480205,0.3736897,-0.114404276,0.26741758,0.7305667,0.62099737,0.59440976,0.40027976,0.60403675,0.4142836,0.37366,0.6895451,0.5004055,0.06766741,0.15791377,0.3431603,821.1722,807.47253,791.3553,794.9817,727.6923,-0.2086181640625,0.08721923828125,0.96099853515625,2.31781005859375,-2.609405517578125,-0.49346923828125,1.0,1.0,1.0,1.0,1.0,100.0,event
15:35:57.893,1.2726071,0.77325445,0.19078784,0.7593124,1.0480205,0.3736897,-0.114404276,0.26741758,0.7305667,0.62099737,0.59440976,0.40027976,0.60403675,0.4142836,0.37366,0.6895451,0.5004055,0.06766741,0.15791377,0.3431603,811.0989,796.99634,797.3993,787.72894,793.36993,-0.2086181640625,0.08721923828125,0.96099853515625,2.31781005859375,-2.609405517578125,-0.49346923828125,1.0,1.0,1.0,1.0,1.0,100.0,event
15:35:57.893,1.2726071,0.77325445,0.19078784,0.7593124,1.0480205,0.3736897,-0.114404276,0.26741758,0.7305667,0.62099737,0.59440976,0.40027976,0.60403675,0.4142836,0.37366,0.6895451,0.5004055,0.06766741,0.15791377,0.3431603,800.6227,792.5641,799.81683,784.5055,789.34064,-0.2086181640625,0.08721923828125,0.96099853515625,2.31781005859375,-2.609405517578125,-0.49346923828125,1.0,1.0,1.0,1.0,1.0,100.0,event
15:35:57.894,1.2726071,0.77325445,0.19078784,0.7593124,1.0480205,0.3736897,-0.114404276,0.26741758,0.7305667,0.62099737,0.59440976,0.40027976,0.60403675,0.4142836,0.37366,0.6895451,0.5004055,0.06766741,0.15791377,0.3431603,805.05493,792.1612,792.96704,788.1319,792.1612,-0.2086181640625,0.08721923828125,0.96099853515625,2.31781005859375,-2.609405517578125,-0.49346923828125,1.0,1.0,1.0,1.0,1.0,100.0,event
15:35:57.894,1.2726071,0.77325445,0.19078784,0.7593124,1.0480205,0.3736897,-0.114404276,0.26741758,0.7305667,0.62099737,0.59440976,0.40027976,0.60403675,0.4142836,0.37366,0.6895451,0.5004055,0.06766741,0.15791377,0.3431603,796.99634,792.5641,790.14655,785.7143,811.0989,-0.2086181640625,0.08721923828125,0.96099853515625,2.31781005859375,-2.609405517578125,-0.49346923828125,1.0,1.0,1.0,1.0,1.0,100.0,event
15:35:57.895,1.2726071,0.77325445,0.19078784,0.7593124,1.0480205,0.3736897,-0.114404276,0.26741758,0.7305667,0.62099737,0.59440976,0.40027976,0.60403675,0.4142836,0.37366,0.6895451,0.5004055,0.06766741,0.15791377,0.3431603,795.38464,796.1905,786.1172,778.86444,979.12085,-0.2086181640625,0.08721923828125,0.96099853515625,2.31781005859375,-2.609405517578125,-0.49346923828125,1.0,1.0,1.0,1.0,1.0,100.0,event
15:35:57.895,1.2726071,0.77325445,0.19078784,0.7593124,1.0480205,0.3736897,-0.114404276,0.26741758,0.7305667,0.62099737,0.59440976,0.40027976,0.60403675,0.4142836,0.37366,0.6895451,0.5004055,0.06766741,0.15791377,0.3431603,807.47253,802.23444,821.978,796.5934,933.9927,-0.2086181640625,0.08721923828125,0.96099853515625,2.31781005859375,-2.609405517578125,-0.49346923828125,1.0,1.0,1.0,1.0,1.0,100.0,event
15:35:57.896,1.2726071,0.77325445,0.19078784,0.7593124,1.0480205,0.3736897,-0.114404276,0.26741758,0.7305667,0.62099737,0.59440976,0.40027976,0.60403675,0.4142836,0.37366,0.6895451,0.5004055,0.06766741,0.15791377,0.3431603,801.4286,799.81683,821.1722,804.65204,725.6777,-0.2086181640625,0.08721923828125,0.96099853515625,2.31781005859375,-2.609405517578125,-0.49346923828125,1.0,1.0,1.0,1.0,1.0,100.0,event
15:35:57.897,1.2726071,0.77325445,0.19078784,0.7593124,1.0480205,0.3736897,-0.114404276,0.26741758,0.7305667,0.62099737,0.59440976,0.40027976,0.60403675,0.4142836,0.37366,0.6895451,0.5004055,0.06766741,0.15791377,0.3431603,791.75824,794.17584,796.5934,791.75824,713.5897,-0.2086181640625,0.08721923828125,0.96099853515625,2.31781005859375,-2.609405517578125,-0.49346923828125,1.0,1.0,1.0,1.0,1.0,100.0,event
15:35:57.897,1.2726071,0.77325445,0.19078784,0.7593124,1.0480205,0.3736897,-0.114404276,0.26741758,0.7305667,0.62099737,0.59440976,0.40027976,0.60403675,0.4142836,0.37366,0.6895451,0.5004055,0.06766741,0.15791377,0.3431603,796.5934,798.20514,807.0696,786.9231,750.2564,-0.2086181640625,0.08721923828125,0.96099853515625,2.31781005859375,-2.609405517578125,-0.49346923828125,1.0,1.0,1.0,1.0,1.0,100.0,event
15:35:57.953,1.2726071,0.77325445,0.19078784,0.7593124,1.0480205,0.3736897,-0.114404276,0.26741758,0.7305667,0.62099737,0.59440976,0.40027976,0.60403675,0.4142836,0.37366,0.6895451,0.5004055,0.06766741,0.15791377,0.3431603,791.75824,799.81683,798.60803,779.2674,732.52747,-0.197265625,0.09613037109375,0.955078125,3.0804443359375,-7.10296630859375,0.1495361328125,1.0,1.0,1.0,1.0,1.0,100.0,event
15:35:57.953,1.2726071,0.77325445,0.19078784,0.7593124,1.0480205,0.3736897,-0.114404276,0.26741758,0.7305667,0.62099737,0.59440976,0.40027976,0.60403675,0.4142836,0.37366,0.6895451,0.5004055,0.06766741,0.15791377,0.3431603,788.1319,797.3993,781.685,765.16486,763.1502,-0.197265625,0.09613037109375,0.955078125,3.0804443359375,-7.10296630859375,0.1495361328125,1.0,1.0,1.0,1.0,1.0,100.0,event
15:35:57.954,1.2726071,0.77325445,0.19078784,0.7593124,1.0480205,0.3736897,-0.114404276,0.26741758,0.7305667,0.62099737,0.59440976,0.40027976,0.60403675,0.4142836,0.37366,0.6895451,0.5004055,0.06766741,0.15791377,0.3431603,799.011,798.60803,782.0879,768.7912,825.6044,-0.197265625,0.09613037109375,0.955078125,3.0804443359375,-7.10296630859375,0.1495361328125,1.0,1.0,1.0,1.0,1.0,100.0,event
15:35:57.955,1.2726071,0.77325445,0.19078784,0.7593124,1.0480205,0.3736897,-0.114404276,0.26741758,0.7305667,0.62099737,0.59440976,0.40027976,0.60403675,0.4142836,0.37366,0.6895451,0.5004055,0.06766741,0.15791377,0.3431603,799.41394,796.1905,794.17584,769.19415,820.7692,-0.197265625,0.09613037109375,0.955078125,3.0804443359375,-7.10296630859375,0.1495361328125,1.0,1.0,1.0,1.0,1.0,100.0,event
15:35:57.955,1.2726071,0.77325445,0.19078784,0.7593124,1.0480205,0.3736897,-0.114404276,0.26741758,0.7305667,0.62099737,0.59440976,0.40027976,0.60403675,0.4142836,0.37366,0.6895451,0.5004055,0.06766741,0.15791377,0.3431603,790.14655,796.99634,797.3993,773.22345,720.84247,-0.197265625,0.09613037109375,0.955078125,3.0804443359375,-7.10296630859375,0.1495361328125,1.0,1.0,1.0,1.0,1.0,100.0,event
15:35:57.956,1.2726071,0.77325445,0.19078784,0.7593124,1.0480205,0.3736897,-0.114404276,0.26741758,0.7305667,0.62099737,0.59440976,0.40027976,0.60403675,0.4142836,0.37366,0.6895451,0.5004055,0.06766741,0.15791377,0.3431603,794.57874,808.2784,797.3993,782.49084,763.1502,-0.197265625,0.09613037109375,0.955078125,3.0804443359375,-7.10296630859375,0.1495361328125,1.0,1.0,1.0,1.0,1.0,100.0,event
15:35:57.956,1.2726071,0.77325445,0.19078784,0.7593124,1.0480205,0.3736897,-0.114404276,0.26741758,0.7305667,0.62099737,0.59440976,0.40027976,0.60403675,0.4142836,0.37366,0.6895451,0.5004055,0.06766741,0.15791377,0.3431603,798.20514,803.8461,786.9231,782.8938,970.2564,-0.197265625,0.09613037109375,0.955078125,3.0804443359375,-7.10296630859375,0.1495361328125,1.0,1.0,1.0,1.0,1.0,100.0,event
15:35:57.957,1.2726071,0.77325445,0.19078784,0.7593124,1.0480205,0.3736897,-0.114404276,0.26741758,0.7305667,0.62099737,0.59440976,0.40027976,0.60403675,0.4142836,0.37366,0.6895451,0.5004055,0.06766741,0.15791377,0.3431603,792.1612,808.68134,804.2491,783.69965,812.3077,-0.197265625,0.09613037109375,0.955078125,3.0804443359375,-7.10296630859375,0.1495361328125,1.0,1.0,1.0,1.0,1.0,100.0,event
15:35:57.957,1.2726071,0.77325445,0.19078784,0.7593124,1.0480205,0.3736897,-0.114404276,0.26741758,0.7305667,0.62099737,0.59440976,0.40027976,0.60403675,0.4142836,0.37366,0.6895451,0.5004055,0.06766741,0.15791377,0.3431603,791.3553,791.3553,787.326,790.54944,1091.1355,-0.197265625,0.09613037109375,0.955078125,3.0804443359375,-7.10296630859375,0.1495361328125,1.0,1.0,1.0,1.0,1.0,100.0,event
15:35:57.958,1.2726071,0.77325445,0.19078784,0.7593124,1.0480205,0.3736897,-0.114404276,0.26741758,0.7305667,0.62099737,0.59440976,0.40027976,0.60403675,0.4142836,0.37366,0.6895451,0.5004055,0.06766741,0.15791377,0.3431603,799.41394,807.0696,796.5934,781.28204,639.85345,-0.197265625,0.09613037109375,0.955078125,3.0804443359375,-7.10296630859375,0.1495361328125,1.0,1.0,1.0,1.0,1.0,100.0,event
15:35:57.958,1.2726071,0.77325445,0.19078784,0.7593124,1.0480205,0.3736897,-0.114404276,0.26741758,0.7305667,0.62099737,0.59440976,0.40027976,0.60403675,0.4142836,0.37366,0.6895451,0.5004055,0.06766741,0.15791377,0.3431603,787.72894,793.7729,790.14655,786.9231,728.9011,-0.197265625,0.09613037109375,0.955078125,3.0804443359375,-7.10296630859375,0.1495361328125,1.0,1.0,1.0,1.0,1.0,100.0,event
15:35:57.958,1.2726071,0.77325445,0.19078784,0.7593124,1.0480205,0.3736897,-0.114404276,0.26741758,0.7305667,0.62099737,0.59440976,0.40027976,0.60403675,0.4142836,0.37366,0.6895451,0.5004055,0.06766741,0.15791377,0.3431603,786.1172,800.6227,798.60803,780.87915,752.27106,-0.197265625,0.09613037109375,0.955078125,3.0804443359375,-7.10296630859375,0.1495361328125,1.0,1.0,1.0,1.0,1.0,100.0,event
15:35:58.014,1.2726071,0.77325445,0.19078784,0.7593124,1.0480205,0.3736897,-0.114404276,0.26741758,0.7305667,0.62099737,0.59440976,0.40027976,0.60403675,0.4142836,0.37366,0.6895451,0.5004055,0.06766741,0.15791377,0.3431603,797.3993,808.2784,800.6227,781.685,731.7216,-0.197265625,0.09613037109375,0.955078125,3.0804443359375,-7.10296630859375,0.1495361328125,1.0,1.0,1.0,1.0,1.0,100.0,event
15:35:58.015,1.2726071,0.77325445,0.19078784,0.7593124,1.0480205,0.3736897,-0.114404276,0.26741758,0.7305667,0.62099737,0.59440976,0.40027976,0.60403675,0.4142836,0.37366,0.6895451,0.5004055,0.06766741,0.15791377,0.3431603,796.5934,807.47253,786.1172,781.28204,772.01465,-0.197265625,0.09613037109375,0.955078125,3.0804443359375,-7.10296630859375,0.1495361328125,1.0,1.0,1.0,1.0,1.0,100.0,event
15:35:58.016,1.2726071,0.77325445,0.19078784,0.7593124,1.0480205,0.3736897,-0.114404276,0.26741758,0.7305667,0.62099737,0.59440976,0.40027976,0.60403675,0.4142836,0.37366,0.6895451,0.5004055,0.06766741,0.15791377,0.3431603,796.99634,803.0403,780.87915,784.90845,780.07324,-0.197265625,0.09613037109375,0.955078125,3.0804443359375,-7.10296630859375,0.1495361328125,1.0,1.0,1.0,1.0,1.0,100.0,event
15:35:58.016,1.2726071,0.77325445,0.22254992,0.7593124,1.0480205,0.3736897,-0.14698339,0.26741758,0.7305667,0.62099737,0.45869088,0.40027976,0.60403675,0.4142836,0.3376465,0.6895451,0.5004055,0.06766741,0.15090375,0.3431603,800.2198,809.0842,797.8022,789.7436,753.47986,-0.197265625,0.09613037109375,0.955078125,3.0804443359375,-7.10296630859375,0.1495361328125,1.0,1.0,1.0,1.0,1.0,100.0,event
15:35:58.020,1.2726071,0.77325445,0.22254992,0.7593124,1.0480205,0.3736897,-0.14698339,0.26741758,0.7305667,0.62099737,0.45869088,0.40027976,0.60403675,0.4142836,0.3376465,0.6895451,0.5004055,0.06766741,0.15090375,0.3431603,789.7436,813.1135,794.9817,778.0586,794.17584,-0.197265625,0.09613037109375,0.955078125,3.0804443359375,-7.10296630859375,0.1495361328125,1.0,1.0,1.0,1.0,1.0,100.0,event
15:35:58.021,1.2726071,0.77325445,0.22254992,0.7593124,1.0480205,0.3736897,-0.14698339,0.26741758,0.7305667,0.62099737,0.45869088,0.40027976,0.60403675,0.4142836,0.3376465,0.6895451,0.5004055,0.06766741,0.15090375,0.3431603,784.10254,803.0403,760.7326,764.7619,1138.2784,-0.197265625,0.09613037109375,0.955078125,3.0804443359375,-7.10296630859375,0.1495361328125,1.0,1.0,1.0,1.0,1.0,100.0,event
15:35:58.021,1.2726071,0.77325445,0.22254992,0.7593124,1.0480205,0.3736897,-0.14698339,0.26741758,0.7305667,0.62099737,0.45869088,0.40027976,0.60403675,0.4142836,0.3376465,0.6895451,0.5004055,0.06766741,0.15090375,0.3431603,782.0879,811.0989,784.5055,770.80585,828.4249,-0.197265625,0.09613037109375,0.955078125,3.0804443359375,-7.10296630859375,0.1495361328125,1.0,1.0,1.0,1.0,1.0,100.0,event
15:35:58.022,1.2726071,0.77325445,0.22254992,0.7593124,1.0480205,0.3736897,-0.14698339,0.26741758,0.7305667,0.62099737,0.45869088,0.40027976,0.60403675,0.4142836,0.3376465,0.6895451,0.5004055,0.06766741,0.15090375,0.3431603,792.5641,823.1868,781.28204,763.1502,1163.2601,-0.197265625,0.09613037109375,0.955078125,3.0804443359375,-7.10296630859375,0.1495361328125,1.0,1.0,1.0,1.0,1.0,100.0,event
15:35:58.023,1.2726071,0.77325445,0.22254992,0.7593124,1.0480205,0.3736897,-0.14698339,0.26741758,0.7305667,0.62099737,0.45869088,0.40027976,0.60403675,0.4142836,0.3376465,0.6895451,0.5004055,0.06766741,0.15090375,0.3431603,778.0586,844.94507,817.1429,755.89746,744.61536,-0.197265625,0.09613037109375,0.955078125,3.0804443359375,-7.10296630859375,0.1495361328125,1.0,1.0,1.0,1.0,1.0,100.0,event
15:35:58.023,1.2726071,0.77325445,0.22254992,0.7593124,1.0480205,0.3736897,-0.14698339,0.26741758,0.7305667,0.62099737,0.45869088,0.40027976,0.60403675,0.4142836,0.3376465,0.6895451,0.5004055,0.06766741,0.15090375,0.3431603,772.01465,836.8865,811.9048,753.8828,637.4359,-0.197265625,0.09613037109375,0.955078125,3.0804443359375,-7.10296630859375,0.1495361328125,1.0,1.0,1.0,1.0,1.0,100.0,event
15:35:58.024,1.2726071,0.77325445,0.22254992,0.7593124,1.0480205,0.3736897,-0.14698339,0.26741758,0.7305667,0.62099737,0.45869088,0.40027976,0.60403675,0.4142836,0.3376465,0.6895451,0.5004055,0.06766741,0.15090375,0.3431603,776.04395,838.0952,810.696,764.7619,714.3956,-0.197265625,0.09613037109375,0.955078125,3.0804443359375,-7.10296630859375,0.1495361328125,1.0,1.0,1.0,1.0,1.0,100.0,event
15:35:58.024,1.2726071,0.77325445,0.22254992,0.7593124,1.0480205,0.3736897,-0.14698339,0.26741758,0.7305667,0.62099737,0.45869088,0.40027976,0.60403675,0.4142836,0.3376465,0.6895451,0.5004055,0.06766741,0.15090375,0.3431603,751.06226,831.2454,804.65204,739.3773,684.57874,-0.197265625,0.09613037109375,0.955078125,3.0804443359375,-7.10296630859375,0.1495361328125,1.0,1.0,1.0,1.0,1.0,100.0,event
15:35:58.049,1.2726071,0.77325445,0.22254992,0.7593124,1.0480205,0.3736897,-0.14698339,0.26741758,0.7305667,0.62099737,0.45869088,0.40027976,0.60403675,0.4142836,0.3376465,0.6895451,0.5004055,0.06766741,0.15090375,0.3431603,736.55676,842.9304,798.20514,709.9634,690.6227,-0.1766357421875,0.09478759765625,0.97332763671875,2.6617431640625,-4.0374755859375,0.777587890625,1.0,1.0,1.0,1.0,1.0,100.0,event
15:35:58.050,1.2726071,0.77325445,0.22254992,0.7593124,1.0480205,0.3736897,-0.14698339,0.26741758,0.7305667,0.62099737,0.45869088,0.40027976,0.60403675,0.4142836,0.3376465,0.6895451,0.5004055,0.06766741,0.15090375,0.3431603,728.9011,863.0769,807.8755,703.91943,734.1392,-0.1766357421875,0.09478759765625,0.97332763671875,2.6617431640625,-4.0374755859375,0.777587890625,1.0,1.0,1.0,1.0,1.0,100.0,event
15:35:58.051,1.2726071,0.77325445,0.22254992,0.7593124,1.0480205,0.3736897,-0.14698339,0.26741758,0.7305667,0.62099737,0.45869088,0.40027976,0.60403675,0.4142836,0.3376465,0.6895451,0.5004055,0.06766741,0.15090375,0.3431603,698.2784,861.06226,829.2308,690.2198,689.011,-0.1766357421875,0.09478759765625,0.97332763671875,2.6617431640625,-4.0374755859375,0.777587890625,1.0,1.0,1.0,1.0,1.0,100.0,event
15:35:58.051,1.2726071,0.77325445,0.22254992,0.7593124,1.0480205,0.3736897,-0.14698339,0.26741758,0.7305667,0.62099737,0.45869088,0.40027976,0.60403675,0.4142836,0.3376465,0.6895451,0.5004055,0.06766741,0.15090375,0.3431603,667.25275,871.53845,846.1539,654.7619,628.1685,-0.1766357421875,0.09478759765625,0.97332763671875,2.6617431640625,-4.0374755859375,0.777587890625,1.0,1.0,1.0,1.0,1.0,100.0,event
15:35:58.052,1.2726071,0.77325445,0.22254992,0.7593124,1.0480205,0.3736897,-0.14698339,0.26741758,0.7305667,0.62099737,0.45869088,0.40027976,0.60403675,0.4142836,0.3376465,0.6895451,0.5004055,0.06766741,0.15090375,0.3431603,589.4872,898.5348,851.39197,575.38464,900.9524,-0.1766357421875,0.09478759765625,0.97332763671875,2.6617431640625,-4.0374755859375,0.777587890625,1.0,1.0,1.0,1.0,1.0,100.0,event
15:35:58.052,1.2726071,0.77325445,0.22254992,0.7593124,1.0480205,0.3736897,-0.14698339,0.26741758,0.7305667,0.62099737,0.45869088,0.40027976,0.60403675,0.4142836,0.3376465,0.6895451,0.5004055,0.06766741,0.15090375,0.3431603,625.7509,889.2674,851.39197,605.6044,678.93774,-0.1766357421875,0.09478759765625,0.97332763671875,2.6617431640625,-4.0374755859375,0.777587890625,1.0,1.0,1.0,1.0,1.0,100.0,event
15:35:58.053,1.2726071,0.77325445,0.22254992,0.7593124,1.0480205,0.3736897,-0.14698339,0.26741758,0.7305667,0.62099737,0.45869088,0.40027976,0.60403675,0.4142836,0.3376465,0.6895451,0.5004055,0.06766741,0.15090375,0.3431603,574.57874,907.8022,865.4945,558.46155,946.8865,-0.1766357421875,0.09478759765625,0.97332763671875,2.6617431640625,-4.0374755859375,0.777587890625,1.0,1.0,1.0,1.0,1.0,100.0,event
15:35:58.053,1.2726071,0.77325445,0.22254992,0.7593124,1.0480205,0.3736897,-0.14698339,0.26741758,0.7305667,0.62099737,0.45869088,0.40027976,0.60403675,0.4142836,0.3376465,0.6895451,0.5004055,0.06766741,0.15090375,0.3431603,550.40295,919.4872,877.98535,536.7033,785.31134,-0.1766357421875,0.09478759765625,0.97332763671875,2.6617431640625,-4.0374755859375,0.777587890625,1.0,1.0,1.0,1.0,1.0,100.0,event
15:35:58.054,1.2726071,0.77325445,0.22254992,0.7593124,1.0480205,0.3736897,-0.14698339,0.26741758,0.7305667,0.62099737,0.45869088,0.40027976,0.60403675,0.4142836,0.3376465,0.6895451,0.5004055,0.06766741,0.15090375,0.3431603,530.2564,930.3663,886.4469,516.1539,770.0,-0.1766357421875,0.09478759765625,0.97332763671875,2.6617431640625,-4.0374755859375,0.777587890625,1.0,1.0,1.0,1.0,1.0,100.0,event
15:35:58.055,1.2726071,0.77325445,0.22254992,0.7593124,1.0480205,0.3736897,-0.14698339,0.26741758,0.7305667,0.62099737,0.45869088,0.40027976,0.60403675,0.4142836,0.3376465,0.6895451,0.5004055,0.06766741,0.15090375,0.3431603,500.8425,932.381,881.6117,488.35165,757.50916,-0.1766357421875,0.09478759765625,0.97332763671875,2.6617431640625,-4.0374755859375,0.777587890625,1.0,1.0,1.0,1.0,1.0,100.0,event
15:35:58.055,1.2726071,0.77325445,0.22254992,0.7593124,1.0480205,0.3736897,-0.14698339,0.26741758,0.7305667,0.62099737,0.45869088,0.40027976,0.60403675,0.4142836,0.3376465,0.6895451,0.5004055,0.06766741,0.15090375,0.3431603,469.4139,940.84247,896.52014,464.57877,733.3333,-0.1766357421875,0.09478759765625,0.97332763671875,2.6617431640625,-4.0374755859375,0.777587890625,1.0,1.0,1.0,1.0,1.0,100.0,event
15:35:58.056,1.2726071,0.77325445,0.22254992,0.7593124,1.0480205,0.3736897,-0.14698339,0.26741758,0.7305667,0.62099737,0.45869088,0.40027976,0.60403675,0.4142836,0.3376465,0.6895451,0.5004055,0.06766741,0.15090375,0.3431603,457.32602,956.1539,905.78754,444.0293,731.31866,-0.1766357421875,0.09478759765625,0.97332763671875,2.6617431640625,-4.0374755859375,0.777587890625,1.0,1.0,1.0,1.0,1.0,100.0,event
15:35:58.083,1.2726071,0.77325445,0.22254992,0.7593124,1.0480205,0.3736897,-0.14698339,0.26741758,0.7305667,0.62099737,0.45869088,0.40027976,0.60403675,0.4142836,0.3376465,0.6895451,0.5004055,0.06766741,0.15090375,0.3431603,455.31134,965.0183,894.90845,444.43222,691.02563,-0.18682861328125,0.1021728515625,0.96661376953125,2.691650390625,1.024322509765625,0.695343017578125,1.0,1.0,1.0,1.0,1.0,100.0,event
15:35:58.084,1.2726071,0.77325445,0.22254992,0.7593124,1.0480205,0.3736897,-0.14698339,0.26741758,0.7305667,0.62099737,0.45869088,0.40027976,0.60403675,0.4142836,0.3376465,0.6895451,0.5004055,0.06766741,0.15090375,0.3431603,461.35532,963.00366,882.01465,462.56412,843.3333,-0.18682861328125,0.1021728515625,0.96661376953125,2.691650390625,1.024322509765625,0.695343017578125,1.0,1.0,1.0,1.0,1.0,100.0,event
15:35:58.085,1.2726071,0.77325445,0.22254992,0.7593124,1.0480205,0.3736897,-0.14698339,0.26741758,0.7305667,0.62099737,0.45869088,0.40027976,0.60403675,0.4142836,0.3376465,0.6895451,0.5004055,0.06766741,0.15090375,0.3431603,467.8022,955.7509,898.1319,465.78754,888.0586,-0.18682861328125,0.1021728515625,0.96661376953125,2.691650390625,1.024322509765625,0.695343017578125,1.0,1.0,1.0,1.0,1.0,100.0,event
15:35:58.086,1.2726071,0.77325445,0.22254992,0.7593124,1.0480205,0.3736897,-0.14698339,0.26741758,0.7305667,0.62099737,0.45869088,0.40027976,0.60403675,0.4142836,0.3376465,0.6895451,0.5004055,0.06766741,0.15090375,0.3431603,485.53113,942.4542,894.5055,471.42856,691.4286,-0.18682861328125,0.1021728515625,0.96661376953125,2.691650390625,1.024322509765625,0.695343017578125,1.0,1.0,1.0,1.0,1.0,100.0,event
15:35:58.086,1.2726071,0.77325445,0.22254992,0.7593124,1.0480205,0.3736897,-0.14698339,0.26741758,0.7305667,0.62099737,0.45869088,0.40027976,0.60403675,0.4142836,0.3376465,0.6895451,0.5004055,0.06766741,0.15090375,0.3431603,503.663,925.12823,867.9121,491.17215,694.2491,-0.18682861328125,0.1021728515625,0.96661376953125,2.691650390625,1.024322509765625,0.695343017578125,1.0,1.0,1.0,1.0,1.0,100.0,event
15:35:58.087,1.2726071,0.75948864,0.2604045,0.7593124,1.0480205,0.38636565,-0.17670526,0.26741758,0.7305667,0.62099737,0.2642037,0.40027976,0.60403675,0.40381876,0.30072966,0.6895451,0.5004055,0.08219696,0.12662823,0.3431603,532.27106,914.65204,858.24176,515.34796,886.04395,-0.18682861328125,0.1021728515625,0.96661376953125,2.691650390625,1.024322509765625,0.695343017578125,1.0,1.0,1.0,1.0,1.0,100.0,event
15:35:58.091,1.2726071,0.75948864,0.2604045,0.7593124,1.0480205,0.38636565,-0.17670526,0.26741758,0.7305667,0.62099737,0.2642037,0.40027976,0.60403675,0.40381876,0.30072966,0.6895451,0.5004055,0.08219696,0.12662823,0.3431603,570.54944,908.60803,861.8681,541.9414,896.52014,-0.18682861328125,0.1021728515625,0.96661376953125,2.691650390625,1.024322509765625,0.695343017578125,1.0,1.0,1.0,1.0,1.0,100.0,event
15:35:58.092,1.2726071,0.75948864,0.2604045,0.7593124,1.0480205,0.38636565,-0.17670526,0.26741758,0.7305667,0.62099737,0.2642037,0.40027976,0.60403675,0.40381876,0.30072966,0.6895451,0.5004055,0.08219696,0.12662823,0.3431603,587.0696,895.7143,867.1062,576.5934,719.2308,-0.18682861328125,0.1021728515625,0.96661376953125,2.691650390625,1.024322509765625,0.695343017578125,1.0,1.0,1.0,1.0,1.0,100.0,event
15:35:58.092,1.2726071,0.75948864,0.2604045,0.7593124,1.0480205,0.38636565,-0.17670526,0.26741758,0.7305667,0.62099737,0.2642037,0.40027976,0.60403675,0.40381876,0.30072966,0.6895451,0.5004055,0.08219696,0.12662823,0.3431603,604.3956,873.1502,840.9158,600.3663,696.26373,-0.18682861328125,0.1021728515625,0.96661376953125,2.691650390625,1.024322509765625,0.695343017578125,1.0,1.0,1.0,1.0,1.0,100.0,event
15:35:58.093,1.2726071,0.75948864,0.2604045,0.7593124,1.0480205,0.38636565,-0.17670526,0.26741758,0.7305667,0.62099737,0.2642037,0.40027976,0.60403675,0.40381876,0.30072966,0.6895451,0.5004055,0.08219696,0.12662823,0.3431603,640.65936,860.65936,813.91943,620.10986,946.4835,-0.18682861328125,0.1021728515625,0.96661376953125,2.691650390625,1.024322509765625,0.695343017578125,1.0,1.0,1.0,1.0,1.0,100.0,event
15:35:58.093,1.2726071,0.75948864,0.2604045,0.7593124,1.0480205,0.38636565,-0.17670526,0.26741758,0.7305667,0.62099737,0.2642037,0.40027976,0.60403675,0.40381876,0.30072966,0.6895451,0.5004055,0.08219696,0.12662823,0.3431603,670.07324,862.27106,831.2454,645.89746,954.1392,-0.18682861328125,0.1021728515625,0.96661376953125,2.691650390625,1.024322509765625,0.695343017578125,1.0,1.0,1.0,1.0,1.0,100.0,event
15:35:58.094,1.2726071,0.75948864,0.2604045,0.7593124,1.0480205,0.38636565,-0.17670526,0.26741758,0.7305667,0.62099737,0.2642037,0.40027976,0.60403675,0.40381876,0.30072966,0.6895451,0.5004055,0.08219696,0.12662823,0.3431603,692.6374,850.18317,826.0073,676.9231,750.65936,-0.18682861328125,0.1021728515625,0.96661376953125,2.691650390625,1.024322509765625,0.695343017578125,1.0,1.0,1.0,1.0,1.0,100.0,event
15:35:58.150,1.2726071,0.75948864,0.2604045,0.7593124,1.0480205,0.38636565,-0.17670526,0.26741758,0.7305667,0.62099737,0.2642037,0.40027976,0.60403675,0.40381876,0.30072966,0.6895451,0.5004055,0.08219696,0.12662823,0.3431603,712.7839,833.663,804.65204,693.44324,769.59705,-0.20880126953125,0.09844970703125,0.95330810546875,2.91595458984375,1.293487548828125,-0.0897216796875,1.0,1.0,1.0,1.0,1.0,100.0,event
15:35:58.151,1.2726071,0.75948864,0.2604045,0.7593124,1.0480205,0.38636565,-0.17670526,0.26741758,0.7305667,0.62099737,0.2642037,0.40027976,0.60403675,0.40381876,0.30072966,0.6895451,0.5004055,0.08219696,0.12662823,0.3431603,731.31866,819.9634,805.4579,702.3077,868.315,-0.20880126953125,0.09844970703125,0.95330810546875,2.91595458984375,1.293487548828125,-0.0897216796875,1.0,1.0,1.0,1.0,1.0,100.0,event
15:35:58.152,1.2726071,0.75948864,0.2604045,0.7593124,1.0480205,0.38636565,-0.17670526,0.26741758,0.7305667,0.62099737,0.2642037,0.40027976,0.60403675,0.40381876,0.30072966,0.6895451,0.5004055,0.08219696,0.12662823,0.3431603,751.4652,802.6374,799.81683,720.84247,748.6447,-0.20880126953125,0.09844970703125,0.95330810546875,2.91595458984375,1.293487548828125,-0.0897216796875,1.0,1.0,1.0,1.0,1.0,100.0,event
15:35:58.152,1.2726071,0.75948864,0.2604045,0.7593124,1.0480205,0.38636565,-0.17670526,0.26741758,0.7305667,0.62099737,0.2642037,0.40027976,0.60403675,0.40381876,0.30072966,0.6895451,0.5004055,0.08219696,0.12662823,0.3431603,767.98535,796.1905,791.75824,742.1978,666.8498,-0.20880126953125,0.09844970703125,0.95330810546875,2.91595458984375,1.293487548828125,-0.0897216796875,1.0,1.0,1.0,1.0,1.0,100.0,event
15:35:58.153,1.2726071,0.75948864,0.2604045,0.7593124,1.0480205,0.38636565,-0.17670526,0.26741758,0.7305667,0.62099737,0.2642037,0.40027976,0.60403675,0.40381876,0.30072966,0.6895451,0.5004055,0.08219696,0.12662823,0.3431603,775.64105,787.72894,779.2674,773.6264,741.79486,-0.20880126953125,0.09844970703125,0.95330810546875,2.91595458984375,1.293487548828125,-0.0897216796875,1.0,1.0,1.0,1.0,1.0,100.0,event
15:35:58.154,1.2726071,0.75948864,0.2604045,0.7593124,1.0480205,0.38636565,-0.17670526,0.26741758,0.7305667,0.62099737,0.2642037,0.40027976,0.60403675,0.40381876,0.30072966,0.6895451,0.5004055,0.08219696,0.12662823,0.3431603,794.57874,778.86444,769.59705,801.4286,849.3773,-0.20880126953125,0.09844970703125,0.95330810546875,2.91595458984375,1.293487548828125,-0.0897216796875,1.0,1.0,1.0,1.0,1.0,100.0,event
15:35:58.154,1.2726071,0.75948864,0.2604045,0.7593124,1.0480205,0.38636565,-0.17670526,0.26741758,0.7305667,0.62099737,0.2642037,0.40027976,0.60403675,0.40381876,0.30072966,0.6895451,0.5004055,0.08219696,0.12662823,0.3431603,815.12823,775.2381,772.01465,794.9817,849.3773,-0.20880126953125,0.09844970703125,0.95330810546875,2.91595458984375,1.293487548828125,-0.0897216796875,1.0,1.0,1.0,1.0,1.0,100.0,event
15:35:58.155,1.2726071,0.75948864,0.2604045,0.7593124,1.0480205,0.38636565,-0.17670526,0.26741758,0.7305667,0.62099737,0.2642037,0.40027976,0.60403675,0.40381876,0.30072966,0.6895451,0.5004055,0.08219696,0.12662823,0.3431603,828.022,773.22345,772.8205,807.0696,752.674,-0.20880126953125,0.09844970703125,0.95330810546875,2.91595458984375,1.293487548828125,-0.0897216796875,1.0,1.0,1.0,1.0,1.0,100.0,event
15:35:58.156,1.2726071,0.75948864,0.2604045,0.7593124,1.0480205,0.38636565,-0.17670526,0.26741758,0.7305667,0.62099737,0.2642037,0.40027976,0.60403675,0.40381876,0.30072966,0.6895451,0.5004055,0.08219696,0.12662823,0.3431603,847.3626,769.59705,757.50916,832.0513,826.4103,-0.20880126953125,0.09844970703125,0.95330810546875,2.91595458984375,1.293487548828125,-0.0897216796875,1.0,1.0,1.0,1.0,1.0,100.0,event
15:35:58.157,1.2726071,0.75948864,0.2604045,0.7593124,1.0480205,0.38636565,-0.17670526,0.26741758,0.7305667,0.62099737,0.2642037,0.40027976,0.60403675,0.40381876,0.30072966,0.6895451,0.5004055,0.08219696,0.12662823,0.3431603,851.79486,769.59705,767.5824,835.2747,956.55676,-0.20880126953125,0.09844970703125,0.95330810546875,2.91595458984375,1.293487548828125,-0.0897216796875,1.0,1.0,1.0,1.0,1.0,100.0,event
15:35:58.157,1.2726071,0.75948864,0.2604045,0.7593124,1.0480205,0.38636565,-0.17670526,0.26741758,0.7305667,0.62099737,0.2642037,0.40027976,0.60403675,0.40381876,0.30072966,0.6895451,0.5004055,0.08219696,0.12662823,0.3431603,853.00366,772.01465,782.0879,840.5128,729.304,-0.20880126953125,0.09844970703125,0.95330810546875,2.91595458984375,1.293487548828125,-0.0897216796875,1.0,1.0,1.0,1.0,1.0,100.0,event
15:35:58.158,1.2726071,0.75948864,0.2604045,0.7593124,1.0480205,0.38636565,-0.17670526,0.26741758,0.7305667,0.62099737,0.2642037,0.40027976,0.60403675,0.40381876,0.30072966,0.6895451,0.5004055,0.08219696,0.12662823,0.3431603,868.315,765.16486,760.7326,854.21246,666.8498,-0.20880126953125,0.09844970703125,0.95330810546875,2.91595458984375,1.293487548828125,-0.0897216796875,1.0,1.0,1.0,1.0,1.0,100.0,event
15:35:58.187,1.2726071,0.75948864,0.2604045,0.7593124,1.0480205,0.38636565,-0.17670526,0.26741758,0.7305667,0.62099737,0.2642037,0.40027976,0.60403675,0.40381876,0.30072966,0.6895451,0.5004055,0.08219696,0.12662823,0.3431603,878.3883,759.5238,744.61536,862.674,786.9231,-0.2032470703125,0.1011962890625,0.9559326171875,2.6019287109375,-3.33465576171875,0.231781005859375,1.0,1.0,1.0,1.0,1.0,100.0,event
15:35:58.188,1.2726071,0.75948864,0.2604045,0.7593124,1.0480205,0.38636565,-0.17670526,0.26741758,0.7305667,0.62099737,0.2642037,0.40027976,0.60403675,0.40381876,0.30072966,0.6895451,0.5004055,0.08219696,0.12662823,0.3431603,884.43225,760.7326,759.12085,869.92676,783.2967,-0.2032470703125,0.1011962890625,0.9559326171875,2.6019287109375,-3.33465576171875,0.231781005859375,1.0,1.0,1.0,1.0,1.0,100.0,event
