TimeStamp,Delta_TP9,Delta_AF7,Delta_AF8,Delta_TP10,Theta_TP9,Theta_AF7,Theta_AF8,Theta_TP10,Alpha_TP9,Alpha_AF7,Alpha_AF8,Alpha_TP10,Beta_TP9,Beta_AF7,Beta_AF8,Beta_TP10,Gamma_TP9,Gamma_AF7,Gamma_AF8,Gamma_TP10,RAW_TP9,RAW_AF7,RAW_AF8,RAW_TP10,AUX_RIGHT,Accelerometer_X,Accelerometer_Y,Accelerometer_Z,Gyro_X,Gyro_Y,Gyro_Z,HeadBandOn,HSI_TP9,HSI_AF7,HSI_AF8,HSI_TP10,Battery,Elements
14:39:14.274,0.8697132,0.6419324,0.9950113,0.69591874,1.2414544,0.04980929,-0.4472345,0.42998832,1.437801,0.30395815,-0.3371096,0.8764774,1.4522023,-0.07763376,-0.29105005,0.84487545,0.71324503,-0.28160655,-0.6116861,0.4917575,1293.4066,823.1868,1153.5897,833.2601,746.2271,-0.118408203125,-0.03509521484375,0.98150634765625,1.854248046875,-5.510406494140625,-0.157012939453125,1.0,4.0,1.0,4.0,1.0,100.0,event
14:39:14.275,0.8697132,0.6419324,0.9950113,0.69591874,1.2414544,0.04980929,-0.4472345,0.42998832,1.437801,0.30395815,-0.3371096,0.8764774,1.4522023,-0.07763376,-0.29105005,0.84487545,0.71324503,-0.28160655,-0.6116861,0.4917575,1406.63,828.8278,761.13556,845.34796,755.4945,-0.118408203125,-0.03509521484375,0.98150634765625,1.854248046875,-5.510406494140625,-0.157012939453125,1.0,4.0,1.0,4.0,1.0,100.0,event
14:39:14.276,0.8697132,0.6419324,0.9950113,0.69591874,1.2414544,0.04980929,-0.4472345,0.42998832,1.437801,0.30395815,-0.3371096,0.8764774,1.4522023,-0.07763376,-0.29105005,0.84487545,0.71324503,-0.28160655,-0.6116861,0.4917575,917.8755,831.2454,496.41025,809.4872,730.10986,-0.118408203125,-0.03509521484375,0.98150634765625,1.854248046875,-5.510406494140625,-0.157012939453125,1.0,4.0,1.0,4.0,1.0,100.0,event
14:39:14.276,0.8697132,0.6419324,0.9950113,0.69591874,1.2414544,0.04980929,-0.4472345,0.42998832,1.437801,0.30395815,-0.3371096,0.8764774,1.4522023,-0.07763376,-0.29105005,0.84487545,0.71324503,-0.28160655,-0.6116861,0.4917575,537.9121,830.0366,633.00366,776.04395,697.47253,-0.118408203125,-0.03509521484375,0.98150634765625,1.854248046875,-5.510406494140625,-0.157012939453125,1.0,4.0,1.0,4.0,1.0,100.0,event
14:39:14.277,0.8697132,0.6419324,0.9950113,0.69591874,1.2414544,0.04980929,-0.4472345,0.42998832,1.437801,0.30395815,-0.3371096,0.8764774,1.4522023,-0.07763376,-0.29105005,0.84487545,0.71324503,-0.28160655,-0.6116861,0.4917575,702.3077,831.2454,847.3626,780.87915,730.10986,-0.118408203125,-0.03509521484375,0.98150634765625,1.854248046875,-5.510406494140625,-0.157012939453125,1.0,4.0,1.0,4.0,1.0,100.0,event
14:39:14.277,0.8697132,0.6419324,0.9950113,0.69591874,1.2414544,0.04980929,-0.4472345,0.42998832,1.437801,0.30395815,-0.3371096,0.8764774,1.4522023,-0.07763376,-0.29105005,0.84487545,0.71324503,-0.28160655,-0.6116861,0.4917575,1047.619,826.4103,726.4835,828.022,917.8755,-0.118408203125,-0.03509521484375,0.98150634765625,1.854248046875,-5.510406494140625,-0.157012939453125,1.0,4.0,1.0,4.0,1.0,100.0,event
14:39:14.278,0.8697132,0.6419324,0.9950113,0.69591874,1.2414544,0.04980929,-0.4472345,0.42998832,1.437801,0.30395815,-0.3371096,0.8764774,1.4522023,-0.07763376,-0.29105005,0.84487545,0.71324503,-0.28160655,-0.6116861,0.4917575,1186.227,826.4103,527.4359,838.9011,924.7253,-0.118408203125,-0.03509521484375,0.98150634765625,1.854248046875,-5.510406494140625,-0.157012939453125,1.0,4.0,1.0,4.0,1.0,100.0,event
14:39:14.279,0.8697132,0.6419324,0.9950113,0.69591874,1.2414544,0.04980929,-0.4472345,0.42998832,1.437801,0.30395815,-0.3371096,0.8764774,1.4522023,-0.07763376,-0.29105005,0.84487545,0.71324503,-0.28160655,-0.6116861,0.4917575,517.3626,818.7546,581.8315,769.19415,779.2674,-0.118408203125,-0.03509521484375,0.98150634765625,1.854248046875,-5.510406494140625,-0.157012939453125,1.0,4.0,1.0,4.0,1.0,100.0,event
14:39:14.279,0.8697132,0.6419324,0.9950113,0.69591874,1.2414544,0.04980929,-0.4472345,0.42998832,1.437801,0.30395815,-0.3371096,0.8764774,1.4522023,-0.07763376,-0.29105005,0.84487545,0.71324503,-0.28160655,-0.6116861,0.4917575,852.6007,823.9927,510.1099,800.6227,734.94507,-0.118408203125,-0.03509521484375,0.98150634765625,1.854248046875,-5.510406494140625,-0.157012939453125,1.0,4.0,1.0,4.0,1.0,100.0,event
14:39:14.280,0.8697132,0.6419324,0.9950113,0.69591874,1.2414544,0.04980929,-0.4472345,0.42998832,1.437801,0.30395815,-0.3371096,0.8764774,1.4522023,-0.07763376,-0.29105005,0.84487545,0.71324503,-0.28160655,-0.6116861,0.4917575,559.67035,811.0989,300.18314,767.1795,1051.6483,-0.118408203125,-0.03509521484375,0.98150634765625,1.854248046875,-5.510406494140625,-0.157012939453125,1.0,4.0,1.0,4.0,1.0,100.0,event
14:39:14.281,0.8697132,0.6419324,0.9950113,0.69591874,1.2414544,0.04980929,-0.4472345,0.42998832,1.437801,0.30395815,-0.3371096,0.8764774,1.4522023,-0.07763376,-0.29105005,0.84487545,0.71324503,-0.28160655,-0.6116861,0.4917575,952.52747,815.5311,372.30768,815.12823,1074.2124,-0.118408203125,-0.03509521484375,0.98150634765625,1.854248046875,-5.510406494140625,-0.157012939453125,1.0,4.0,1.0,4.0,1.0,100.0,event
14:39:14.281,0.8697132,0.6419324,0.9950113,0.69591874,1.2414544,0.04980929,-0.4472345,0.42998832,1.437801,0.30395815,-0.3371096,0.8764774,1.4522023,-0.07763376,-0.29105005,0.84487545,0.71324503,-0.28160655,-0.6116861,0.4917575,1232.967,821.978,924.3223,832.4542,853.00366,-0.118408203125,-0.03509521484375,0.98150634765625,1.854248046875,-5.510406494140625,-0.157012939453125,1.0,4.0,1.0,4.0,1.0,100.0,event
14:39:14.308,0.8697132,0.6419324,0.9950113,0.69591874,1.2414544,0.04980929,-0.4472345,0.42998832,1.437801,0.30395815,-0.3371096,0.8764774,1.4522023,-0.07763376,-0.29105005,0.84487545,0.71324503,-0.28160655,-0.6116861,0.4917575,913.44324,824.3956,651.53845,801.8315,751.8681,-0.11529541015625,-0.03466796875,0.98095703125,2.25799560546875,-5.57769775390625,-0.5084228515625,1.0,4.0,1.0,4.0,1.0,100.0,event
14:39:14.309,0.8697132,0.6419324,0.9950113,0.69591874,1.2414544,0.04980929,-0.4472345,0.42998832,1.437801,0.30395815,-0.3371096,0.8764774,1.4522023,-0.07763376,-0.29105005,0.84487545,0.71324503,-0.28160655,-0.6116861,0.4917575,223.62637,824.7985,387.21613,791.3553,722.0513,-0.11529541015625,-0.03466796875,0.98095703125,2.25799560546875,-5.57769775390625,-0.5084228515625,1.0,4.0,1.0,4.0,1.0,100.0,event
14:39:14.310,0.8697132,0.6419324,0.9950113,0.69591874,1.2414544,0.04980929,-0.4472345,0.42998832,1.437801,0.30395815,-0.3371096,0.8764774,1.4522023,-0.07763376,-0.29105005,0.84487545,0.71324503,-0.28160655,-0.6116861,0.4917575,149.8901,819.9634,765.9707,796.5934,697.0696,-0.11529541015625,-0.03466796875,0.98095703125,2.25799560546875,-5.57769775390625,-0.5084228515625,1.0,4.0,1.0,4.0,1.0,100.0,event
14:39:14.311,0.8697132,0.6419324,0.9950113,0.69591874,1.2414544,0.04980929,-0.4472345,0.42998832,1.437801,0.30395815,-0.3371096,0.8764774,1.4522023,-0.07763376,-0.29105005,0.84487545,0.71324503,-0.28160655,-0.6116861,0.4917575,786.9231,823.9927,1008.5348,826.8132,670.87915,-0.11529541015625,-0.03466796875,0.98095703125,2.25799560546875,-5.57769775390625,-0.5084228515625,1.0,4.0,1.0,4.0,1.0,100.0,event
14:39:14.312,0.8697132,0.6419324,0.9950113,0.69591874,1.2414544,0.04980929,-0.4472345,0.42998832,1.437801,0.30395815,-0.3371096,0.8764774,1.4522023,-0.07763376,-0.29105005,0.84487545,0.71324503,-0.28160655,-0.6116861,0.4917575,1066.5568,817.1429,775.64105,861.06226,766.3736,-0.11529541015625,-0.03466796875,0.98095703125,2.25799560546875,-5.57769775390625,-0.5084228515625,1.0,4.0,1.0,4.0,1.0,100.0,event
14:39:14.312,0.8697132,0.6419324,0.9950113,0.69591874,1.2414544,0.04980929,-0.4472345,0.42998832,1.437801,0.30395815,-0.3371096,0.8764774,1.4522023,-0.07763376,-0.29105005,0.84487545,0.71324503,-0.28160655,-0.6116861,0.4917575,688.60803,812.3077,367.0696,830.84247,896.9231,-0.11529541015625,-0.03466796875,0.98095703125,2.25799560546875,-5.57769775390625,-0.5084228515625,1.0,4.0,1.0,4.0,1.0,100.0,event
14:39:14.313,0.8697132,0.6419324,0.9950113,0.69591874,1.2414544,0.04980929,-0.4472345,0.42998832,1.437801,0.30395815,-0.3371096,0.8764774,1.4522023,-0.07763376,-0.29105005,0.84487545,0.71324503,-0.28160655,-0.6116861,0.4917575,288.49817,819.5604,309.45056,783.2967,885.64105,-0.11529541015625,-0.03466796875,0.98095703125,2.25799560546875,-5.57769775390625,-0.5084228515625,1.0,4.0,1.0,4.0,1.0,100.0,event
14:39:14.314,0.8697132,0.6419324,0.9950113,0.69591874,1.2414544,0.04980929,-0.4472345,0.42998832,1.437801,0.30395815,-0.3371096,0.8764774,1.4522023,-0.07763376,-0.29105005,0.84487545,0.71324503,-0.28160655,-0.6116861,0.4917575,406.15384,817.1429,761.53845,779.67035,814.7253,-0.11529541015625,-0.03466796875,0.98095703125,2.25799560546875,-5.57769775390625,-0.5084228515625,1.0,4.0,1.0,4.0,1.0,100.0,event
14:39:14.315,0.8697132,0.6419324,0.9950113,0.69591874,1.2414544,0.04980929,-0.4472345,0.42998832,1.437801,0.30395815,-0.3371096,0.8764774,1.4522023,-0.07763376,-0.29105005,0.84487545,0.71324503,-0.28160655,-0.6116861,0.4917575,843.3333,811.0989,804.2491,826.0073,915.8608,-0.11529541015625,-0.03466796875,0.98095703125,2.25799560546875,-5.57769775390625,-0.5084228515625,1.0,4.0,1.0,4.0,1.0,100.0,event
14:39:14.316,0.8697132,0.6419324,0.9950113,0.69591874,1.2414544,0.04980929,-0.4472345,0.42998832,1.437801,0.30395815,-0.3371096,0.8764774,1.4522023,-0.07763376,-0.29105005,0.84487545,0.71324503,-0.28160655,-0.6116861,0.4917575,1114.9084,826.0073,584.2491,819.15753,861.8681,-0.11529541015625,-0.03466796875,0.98095703125,2.25799560546875,-5.57769775390625,-0.5084228515625,1.0,4.0,1.0,4.0,1.0,100.0,event
14:39:14.316,0.8697132,0.6419324,0.9950113,0.69591874,1.2414544,0.04980929,-0.4472345,0.42998832,1.437801,0.30395815,-0.3371096,0.8764774,1.4522023,-0.07763376,-0.29105005,0.84487545,0.71324503,-0.28160655,-0.6116861,0.4917575,1210.403,812.71063,361.02563,861.06226,1051.6483,-0.11529541015625,-0.03466796875,0.98095703125,2.25799560546875,-5.57769775390625,-0.5084228515625,1.0,4.0,1.0,4.0,1.0,100.0,event
14:39:14.317,0.8697132,0.6419324,0.9950113,0.69591874,1.2414544,0.04980929,-0.4472345,0.42998832,1.437801,0.30395815,-0.3371096,0.8764774,1.4522023,-0.07763376,-0.29105005,0.84487545,0.71324503,-0.28160655,-0.6116861,0.4917575,599.5604,826.4103,617.28937,769.19415,739.3773,-0.11529541015625,-0.03466796875,0.98095703125,2.25799560546875,-5.57769775390625,-0.5084228515625,1.0,4.0,1.0,4.0,1.0,100.0,event
14:39:14.379,0.8697132,0.6419324,0.9950113,0.69591874,1.2414544,0.04980929,-0.4472345,0.42998832,1.437801,0.30395815,-0.3371096,0.8764774,1.4522023,-0.07763376,-0.29105005,0.84487545,0.71324503,-0.28160655,-0.6116861,0.4917575,422.67398,815.9341,354.57877,772.4176,857.4359,-0.11041259765625,-0.03582763671875,0.97998046875,1.786956787109375,-5.66741943359375,-0.545806884765625,1.0,4.0,1.0,4.0,1.0,100.0,event
14:39:14.380,0.8697132,0.6124462,0.9950113,0.69591874,1.2414544,-0.020944513,-0.4472345,0.42998832,1.437801,0.14351277,-0.3371096,0.8764774,1.4522023,-0.063085146,-0.29105005,0.84487545,0.71324503,-0.28326496,-0.6116861,0.4917575,835.6777,821.978,606.4103,817.9487,815.9341,-0.11041259765625,-0.03582763671875,0.97998046875,1.786956787109375,-5.66741943359375,-0.545806884765625,1.0,4.0,1.0,2.0,1.0,100.0,event
14:39:14.386,0.8697132,0.6124462,0.9950113,0.69591874,1.2414544,-0.020944513,-0.4472345,0.42998832,1.437801,0.14351277,-0.3371096,0.8764774,1.4522023,-0.063085146,-0.29105005,0.84487545,0.71324503,-0.28326496,-0.6116861,0.4917575,1270.0366,832.4542,998.0586,852.1978,728.49817,-0.11041259765625,-0.03582763671875,0.97998046875,1.786956787109375,-5.66741943359375,-0.545806884765625,1.0,4.0,1.0,2.0,1.0,100.0,event
14:39:14.387,0.8697132,0.6124462,0.9950113,0.69591874,1.2414544,-0.020944513,-0.4472345,0.42998832,1.437801,0.14351277,-0.3371096,0.8764774,1.4522023,-0.063085146,-0.29105005,0.84487545,0.71324503,-0.28326496,-0.6116861,0.4917575,1136.2638,830.84247,778.0586,818.7546,745.0183,-0.11041259765625,-0.03582763671875,0.97998046875,1.786956787109375,-5.66741943359375,-0.545806884765625,1.0,4.0,1.0,2.0,1.0,100.0,event
14:39:14.387,0.8697132,0.6124462,0.9950113,0.69591874,1.2414544,-0.020944513,-0.4472345,0.42998832,1.437801,0.14351277,-0.3371096,0.8764774,1.4522023,-0.063085146,-0.29105005,0.84487545,0.71324503,-0.28326496,-0.6116861,0.4917575,660.40295,821.978,345.31134,774.43225,702.3077,-0.11041259765625,-0.03582763671875,0.97998046875,1.786956787109375,-5.66741943359375,-0.545806884765625,1.0,4.0,1.0,2.0,1.0,100.0,event
14:39:14.388,0.8697132,0.6124462,0.9950113,0.69591874,1.2414544,-0.020944513,-0.4472345,0.42998832,1.437801,0.14351277,-0.3371096,0.8764774,1.4522023,-0.063085146,-0.29105005,0.84487545,0.71324503,-0.28326496,-0.6116861,0.4917575,519.3773,813.5165,347.32602,776.04395,753.47986,-0.11041259765625,-0.03582763671875,0.97998046875,1.786956787109375,-5.66741943359375,-0.545806884765625,1.0,4.0,1.0,2.0,1.0,100.0,event
14:39:14.389,0.8697132,0.6124462,0.9950113,0.69591874,1.2414544,-0.020944513,-0.4472345,0.42998832,1.437801,0.14351277,-0.3371096,0.8764774,1.4522023,-0.063085146,-0.29105005,0.84487545,0.71324503,-0.28326496,-0.6116861,0.4917575,833.2601,812.71063,643.47986,811.50183,854.61536,-0.11041259765625,-0.03582763671875,0.97998046875,1.786956787109375,-5.66741943359375,-0.545806884765625,1.0,4.0,1.0,2.0,1.0,100.0,event
14:39:14.389,0.8697132,0.6124462,0.9950113,0.69591874,1.2414544,-0.020944513,-0.4472345,0.42998832,1.437801,0.14351277,-0.3371096,0.8764774,1.4522023,-0.063085146,-0.29105005,0.84487545,0.71324503,-0.28326496,-0.6116861,0.4917575,1271.6483,821.5751,871.13556,848.5714,788.5348,-0.11041259765625,-0.03582763671875,0.97998046875,1.786956787109375,-5.66741943359375,-0.545806884765625,1.0,4.0,1.0,2.0,1.0,100.0,event
14:39:14.390,0.8697132,0.6124462,0.9950113,0.69591874,1.2414544,-0.020944513,-0.4472345,0.42998832,1.437801,0.14351277,-0.3371096,0.8764774,1.4522023,-0.063085146,-0.29105005,0.84487545,0.71324503,-0.28326496,-0.6116861,0.4917575,1167.6923,823.5897,382.78387,827.619,944.87177,-0.11041259765625,-0.03582763671875,0.97998046875,1.786956787109375,-5.66741943359375,-0.545806884765625,1.0,4.0,1.0,2.0,1.0,100.0,event
14:39:14.391,0.8697132,0.6124462,0.9950113,0.69591874,1.2414544,-0.020944513,-0.4472345,0.42998832,1.437801,0.14351277,-0.3371096,0.8764774,1.4522023,-0.063085146,-0.29105005,0.84487545,0.71324503,-0.28326496,-0.6116861,0.4917575,663.6264,815.9341,161.57509,789.34064,1026.6666,-0.11041259765625,-0.03582763671875,0.97998046875,1.786956787109375,-5.66741943359375,-0.545806884765625,1.0,4.0,1.0,2.0,1.0,100.0,event
14:39:14.392,0.8697132,0.6124462,0.9950113,0.69591874,1.2414544,-0.020944513,-0.4472345,0.42998832,1.437801,0.14351277,-0.3371096,0.8764774,1.4522023,-0.063085146,-0.29105005,0.84487545,0.71324503,-0.28326496,-0.6116861,0.4917575,844.1392,825.6044,870.7326,799.41394,717.2161,-0.11041259765625,-0.03582763671875,0.97998046875,1.786956787109375,-5.66741943359375,-0.545806884765625,1.0,4.0,1.0,2.0,1.0,100.0,event
14:39:14.392,0.8697132,0.6124462,0.9950113,0.69591874,1.2414544,-0.020944513,-0.4472345,0.42998832,1.437801,0.14351277,-0.3371096,0.8764774,1.4522023,-0.063085146,-0.29105005,0.84487545,0.71324503,-0.28326496,-0.6116861,0.4917575,555.64105,823.5897,757.1062,787.72894,715.2015,-0.11041259765625,-0.03582763671875,0.97998046875,1.786956787109375,-5.66741943359375,-0.545806884765625,1.0,4.0,1.0,2.0,1.0,100.0,event
14:39:14.419,0.8697132,0.6124462,0.9950113,0.69591874,1.2414544,-0.020944513,-0.4472345,0.42998832,1.437801,0.14351277,-0.3371096,0.8764774,1.4522023,-0.063085146,-0.29105005,0.84487545,0.71324503,-0.28326496,-0.6116861,0.4917575,1241.8315,816.7399,777.25275,827.619,797.8022,-0.11041259765625,-0.03582763671875,0.97998046875,1.786956787109375,-5.66741943359375,-0.545806884765625,1.0,4.0,1.0,2.0,1.0,100.0,event
14:39:14.420,0.8697132,0.6124462,0.9950113,0.69591874,1.2414544,-0.020944513,-0.4472345,0.42998832,1.437801,0.14351277,-0.3371096,0.8764774,1.4522023,-0.063085146,-0.29105005,0.84487545,0.71324503,-0.28326496,-0.6116861,0.4917575,1210.0,815.12823,744.21246,843.73627,747.03296,-0.11041259765625,-0.03582763671875,0.97998046875,1.786956787109375,-5.66741943359375,-0.545806884765625,1.0,4.0,1.0,2.0,1.0,100.0,event
14:39:14.421,0.8697132,0.6124462,0.9950113,0.69591874,1.2414544,-0.020944513,-0.4472345,0.42998832,1.437801,0.14351277,-0.3371096,0.8764774,1.4522023,-0.063085146,-0.29105005,0.84487545,0.71324503,-0.28326496,-0.6116861,0.4917575,644.68866,812.3077,522.1978,808.2784,782.0879,-0.11041259765625,-0.03582763671875,0.97998046875,1.786956787109375,-5.66741943359375,-0.545806884765625,1.0,4.0,1.0,2.0,1.0,100.0,event
14:39:14.422,0.8697132,0.6124462,0.9950113,0.69591874,1.2414544,-0.020944513,-0.4472345,0.42998832,1.437801,0.14351277,-0.3371096,0.8764774,1.4522023,-0.063085146,-0.29105005,0.84487545,0.71324503,-0.28326496,-0.6116861,0.4917575,350.1465,805.8608,288.09525,772.4176,812.3077,-0.11041259765625,-0.03582763671875,0.97998046875,1.786956787109375,-5.66741943359375,-0.545806884765625,1.0,4.0,1.0,2.0,1.0,100.0,event
14:39:14.423,0.8697132,0.6124462,0.9950113,0.69591874,1.2414544,-0.020944513,-0.4472345,0.42998832,1.437801,0.14351277,-0.3371096,0.8764774,1.4522023,-0.063085146,-0.29105005,0.84487545,0.71324503,-0.28326496,-0.6116861,0.4917575,764.7619,812.71063,400.91574,798.20514,786.52014,-0.11041259765625,-0.03582763671875,0.97998046875,1.786956787109375,-5.66741943359375,-0.545806884765625,1.0,4.0,1.0,2.0,1.0,100.0,event
14:39:14.423,0.8697132,0.6124462,0.9950113,0.69591874,1.2414544,-0.020944513,-0.4472345,0.42998832,1.437801,0.14351277,-0.3371096,0.8764774,1.4522023,-0.063085146,-0.29105005,0.84487545,0.71324503,-0.28326496,-0.6116861,0.4917575,1351.8315,816.7399,660.80585,848.97437,803.0403,-0.11041259765625,-0.03582763671875,0.97998046875,1.786956787109375,-5.66741943359375,-0.545806884765625,1.0,4.0,1.0,2.0,1.0,100.0,event
14:39:14.424,0.8697132,0.6124462,0.9950113,0.69591874,1.2414544,-0.020944513,-0.4472345,0.42998832,1.437801,0.14351277,-0.3371096,0.8764774,1.4522023,-0.063085146,-0.29105005,0.84487545,0.71324503,-0.28326496,-0.6116861,0.4917575,1388.4982,809.4872,541.9414,842.52747,832.0513,-0.11041259765625,-0.03582763671875,0.97998046875,1.786956787109375,-5.66741943359375,-0.545806884765625,1.0,4.0,1.0,2.0,1.0,100.0,event
14:39:14.425,0.8697132,0.6124462,0.9950113,0.69591874,1.2414544,-0.020944513,-0.4472345,0.42998832,1.437801,0.14351277,-0.3371096,0.8764774,1.4522023,-0.063085146,-0.29105005,0.84487545,0.71324503,-0.28326496,-0.6116861,0.4917575,896.1172,819.5604,204.28572,788.5348,861.06226,-0.11041259765625,-0.03582763671875,0.97998046875,1.786956787109375,-5.66741943359375,-0.545806884765625,1.0,4.0,1.0,2.0,1.0,100.0,event
14:39:14.425,0.8697132,0.6124462,0.9950113,0.69591874,1.2414544,-0.020944513,-0.4472345,0.42998832,1.437801,0.14351277,-0.3371096,0.8764774,1.4522023,-0.063085146,-0.29105005,0.84487545,0.71324503,-0.28326496,-0.6116861,0.4917575,556.04395,824.7985,92.673996,770.40295,915.05493,-0.11041259765625,-0.03582763671875,0.97998046875,1.786956787109375,-5.66741943359375,-0.545806884765625,1.0,4.0,1.0,2.0,1.0,100.0,event
14:39:14.426,0.8697132,0.6124462,0.9950113,0.69591874,1.2414544,-0.020944513,-0.4472345,0.42998832,1.437801,0.14351277,-0.3371096,0.8764774,1.4522023,-0.063085146,-0.29105005,0.84487545,0.71324503,-0.28326496,-0.6116861,0.4917575,803.44324,821.1722,657.5824,786.9231,728.9011,-0.11041259765625,-0.03582763671875,0.97998046875,1.786956787109375,-5.66741943359375,-0.545806884765625,1.0,4.0,1.0,2.0,1.0,100.0,event
14:39:14.427,0.8697132,0.6124462,0.9950113,0.69591874,1.2414544,-0.020944513,-0.4472345,0.42998832,1.437801,0.14351277,-0.3371096,0.8764774,1.4522023,-0.063085146,-0.29105005,0.84487545,0.71324503,-0.28326496,-0.6116861,0.4917575,1364.7252,819.5604,776.04395,846.55676,810.293,-0.11041259765625,-0.03582763671875,0.97998046875,1.786956787109375,-5.66741943359375,-0.545806884765625,1.0,4.0,1.0,2.0,1.0,100.0,event
14:39:14.427,0.8697132,0.6124462,0.9950113,0.69591874,1.2414544,-0.020944513,-0.4472345,0.42998832,1.437801,0.14351277,-0.3371096,0.8764774,1.4522023,-0.063085146,-0.29105005,0.84487545,0.71324503,-0.28326496,-0.6116861,0.4917575,1258.7546,821.978,1063.7362,829.6337,675.31134,-0.11041259765625,-0.03582763671875,0.97998046875,1.786956787109375,-5.66741943359375,-0.545806884765625,1.0,4.0,1.0,2.0,1.0,100.0,event
14:39:14.460,0.8697132,0.6124462,0.9950113,0.69591874,1.2414544,-0.020944513,-0.4472345,0.42998832,1.437801,0.14351277,-0.3371096,0.8764774,1.4522023,-0.063085146,-0.29105005,0.84487545,0.71324503,-0.28326496,-0.6116861,0.4917575,922.71063,817.9487,494.79852,790.14655,780.4762,-0.109619140625,-0.03717041015625,0.9818115234375,1.697235107421875,-5.301055908203125,-0.1495361328125,1.0,4.0,1.0,2.0,1.0,100.0,event
14:39:14.462,0.8697132,0.6124462,0.9950113,0.69591874,1.2414544,-0.020944513,-0.4472345,0.42998832,1.437801,0.14351277,-0.3371096,0.8764774,1.4522023,-0.063085146,-0.29105005,0.84487545,0.71324503,-0.28326496,-0.6116861,0.4917575,564.90845,817.1429,619.707,764.7619,680.9524,-0.109619140625,-0.03717041015625,0.9818115234375,1.697235107421875,-5.301055908203125,-0.1495361328125,1.0,4.0,1.0,2.0,1.0,100.0,event
14:39:14.463,0.8697132,0.6124462,0.9950113,0.69591874,1.2414544,-0.020944513,-0.4472345,0.42998832,1.437801,0.14351277,-0.3371096,0.8764774,1.4522023,-0.063085146,-0.29105005,0.84487545,0.71324503,-0.28326496,-0.6116861,0.4917575,700.293,816.337,765.56775,796.5934,658.3883,-0.109619140625,-0.03717041015625,0.9818115234375,1.697235107421875,-5.301055908203125,-0.1495361328125,1.0,4.0,1.0,2.0,1.0,100.0,event
14:39:14.464,0.8697132,0.639509,0.9950113,0.69591874,1.2414544,0.073315255,-0.4472345,0.42998832,1.437801,0.14016555,-0.3371096,0.8764774,1.4522023,-0.049318187,-0.29105005,0.84487545,0.71324503,-0.2843702,-0.6116861,0.4917575,1141.0989,820.7692,731.7216,837.28937,718.4249,-0.109619140625,-0.03717041015625,0.9818115234375,1.697235107421875,-5.301055908203125,-0.1495361328125,1.0,4.0,1.0,4.0,1.0,100.0,event
14:39:14.468,0.8697132,0.639509,0.9950113,0.69591874,1.2414544,0.073315255,-0.4472345,0.42998832,1.437801,0.14016555,-0.3371096,0.8764774,1.4522023,-0.049318187,-0.29105005,0.84487545,0.71324503,-0.2843702,-0.6116861,0.4917575,1386.4835,820.3663,681.75824,852.1978,778.86444,-0.109619140625,-0.03717041015625,0.9818115234375,1.697235107421875,-5.301055908203125,-0.1495361328125,1.0,4.0,1.0,4.0,1.0,100.0,event
14:39:14.471,0.8697132,0.639509,0.9950113,0.69591874,1.2414544,0.073315255,-0.4472345,0.42998832,1.437801,0.14016555,-0.3371096,0.8764774,1.4522023,-0.049318187,-0.29105005,0.84487545,0.71324503,-0.2843702,-0.6116861,0.4917575,1070.989,819.15753,421.06226,834.0659,840.9158,-0.109619140625,-0.03717041015625,0.9818115234375,1.697235107421875,-5.301055908203125,-0.1495361328125,1.0,4.0,1.0,4.0,1.0,100.0,event
14:39:14.472,0.8697132,0.639509,0.9950113,0.69591874,1.2414544,0.073315255,-0.4472345,0.42998832,1.437801,0.14016555,-0.3371096,0.8764774,1.4522023,-0.049318187,-0.29105005,0.84487545,0.71324503,-0.2843702,-0.6116861,0.4917575,664.83514,821.1722,348.5348,796.5934,887.6557,-0.109619140625,-0.03717041015625,0.9818115234375,1.697235107421875,-5.301055908203125,-0.1495361328125,1.0,4.0,1.0,4.0,1.0,100.0,event
14:39:14.473,0.8697132,0.639509,0.9950113,0.69591874,1.2414544,0.073315255,-0.4472345,0.42998832,1.437801,0.14016555,-0.3371096,0.8764774,1.4522023,-0.049318187,-0.29105005,0.84487545,0.71324503,-0.2843702,-0.6116861,0.4917575,649.92676,813.5165,190.98901,801.02563,1023.0403,-0.109619140625,-0.03717041015625,0.9818115234375,1.697235107421875,-5.301055908203125,-0.1495361328125,1.0,4.0,1.0,4.0,1.0,100.0,event
14:39:14.474,0.8697132,0.639509,0.9950113,0.69591874,1.2414544,0.073315255,-0.4472345,0.42998832,1.437801,0.14016555,-0.3371096,0.8764774,1.4522023,-0.049318187,-0.29105005,0.84487545,0.71324503,-0.2843702,-0.6116861,0.4917575,1061.7216,811.9048,204.68864,850.989,1059.7069,-0.109619140625,-0.03717041015625,0.9818115234375,1.697235107421875,-5.301055908203125,-0.1495361328125,1.0,4.0,1.0,4.0,1.0,100.0,event
14:39:14.476,0.8697132,0.639509,0.9950113,0.69591874,1.2414544,0.073315255,-0.4472345,0.42998832,1.437801,0.14016555,-0.3371096,0.8764774,1.4522023,-0.049318187,-0.29105005,0.84487545,0.71324503,-0.2843702,-0.6116861,0.4917575,1434.0293,815.9341,794.57874,861.4652,753.0769,-0.109619140625,-0.03717041015625,0.9818115234375,1.697235107421875,-5.301055908203125,-0.1495361328125,1.0,4.0,1.0,4.0,1.0,100.0,event
14:39:14.477,0.8697132,0.639509,0.9950113,0.69591874,1.2414544,0.073315255,-0.4472345,0.42998832,1.437801,0.14016555,-0.3371096,0.8764774,1.4522023,-0.049318187,-0.29105005,0.84487545,0.71324503,-0.2843702,-0.6116861,0.4917575,1089.9268,822.381,655.16486,832.8571,690.2198,-0.109619140625,-0.03717041015625,0.9818115234375,1.697235107421875,-5.301055908203125,-0.1495361328125,1.0,4.0,1.0,4.0,1.0,100.0,event
14:39:14.478,0.8697132,0.639509,0.9950113,0.69591874,1.2414544,0.073315255,-0.4472345,0.42998832,1.437801,0.14016555,-0.3371096,0.8764774,1.4522023,-0.049318187,-0.29105005,0.84487545,0.71324503,-0.2843702,-0.6116861,0.4917575,625.34796,828.4249,467.8022,800.2198,784.90845,-0.109619140625,-0.03717041015625,0.9818115234375,1.697235107421875,-5.301055908203125,-0.1495361328125,1.0,4.0,1.0,4.0,1.0,100.0,event
14:39:14.524,0.8697132,0.639509,0.9950113,0.69591874,1.2414544,0.073315255,-0.4472345,0.42998832,1.437801,0.14016555,-0.3371096,0.8764774,1.4522023,-0.049318187,-0.29105005,0.84487545,0.71324503,-0.2843702,-0.6116861,0.4917575,691.02563,823.9927,806.26373,806.26373,755.89746,-0.10516357421875,-0.04046630859375,0.97808837890625,2.25799560546875,-5.061798095703125,0.216827392578125,1.0,4.0,1.0,4.0,1.0,100.0,event
14:39:14.525,0.8697132,0.639509,0.9950113,0.69591874,1.2414544,0.073315255,-0.4472345,0.42998832,1.437801,0.14016555,-0.3371096,0.8764774,1.4522023,-0.049318187,-0.29105005,0.84487545,0.71324503,-0.2843702,-0.6116861,0.4917575,1102.4176,822.7839,1027.4725,841.7216,741.79486,-0.10516357421875,-0.04046630859375,0.97808837890625,2.25799560546875,-5.061798095703125,0.216827392578125,1.0,4.0,1.0,4.0,1.0,100.0,event
14:39:14.526,0.8697132,0.639509,0.9950113,0.69591874,1.2414544,0.073315255,-0.4472345,0.42998832,1.437801,0.14016555,-0.3371096,0.8764774,1.4522023,-0.049318187,-0.29105005,0.84487545,0.71324503,-0.2843702,-0.6116861,0.4917575,1376.4103,818.7546,797.8022,850.58606,806.6667,-0.10516357421875,-0.04046630859375,0.97808837890625,2.25799560546875,-5.061798095703125,0.216827392578125,1.0,4.0,1.0,4.0,1.0,100.0,event
14:39:14.527,0.8697132,0.639509,0.9950113,0.69591874,1.2414544,0.073315255,-0.4472345,0.42998832,1.437801,0.14016555,-0.3371096,0.8764774,1.4522023,-0.049318187,-0.29105005,0.84487545,0.71324503,-0.2843702,-0.6116861,0.4917575,1167.2894,817.9487,410.18314,819.15753,762.74725,-0.10516357421875,-0.04046630859375,0.97808837890625,2.25799560546875,-5.061798095703125,0.216827392578125,1.0,4.0,1.0,4.0,1.0,100.0,event
14:39:14.528,0.8697132,0.639509,0.9950113,0.69591874,1.2414544,0.073315255,-0.4472345,0.42998832,1.437801,0.14016555,-0.3371096,0.8764774,1.4522023,-0.049318187,-0.29105005,0.84487545,0.71324503,-0.2843702,-0.6116861,0.4917575,728.9011,821.5751,402.12454,793.7729,659.59705,-0.10516357421875,-0.04046630859375,0.97808837890625,2.25799560546875,-5.061798095703125,0.216827392578125,1.0,4.0,1.0,4.0,1.0,100.0,event
14:39:14.528,0.8697132,0.639509,0.9950113,0.69591874,1.2414544,0.073315255,-0.4472345,0.42998832,1.437801,0.14016555,-0.3371096,0.8764774,1.4522023,-0.049318187,-0.29105005,0.84487545,0.71324503,-0.2843702,-0.6116861,0.4917575,663.22345,817.9487,519.7802,786.52014,740.18317,-0.10516357421875,-0.04046630859375,0.97808837890625,2.25799560546875,-5.061798095703125,0.216827392578125,1.0,4.0,1.0,4.0,1.0,100.0,event
14:39:14.529,0.8697132,0.639509,0.9950113,0.69591874,1.2414544,0.073315255,-0.4472345,0.42998832,1.437801,0.14016555,-0.3371096,0.8764774,1.4522023,-0.049318187,-0.29105005,0.84487545,0.71324503,-0.2843702,-0.6116861,0.4917575,1046.4103,817.5458,512.1245,811.9048,894.10254,-0.10516357421875,-0.04046630859375,0.97808837890625,2.25799560546875,-5.061798095703125,0.216827392578125,1.0,4.0,1.0,4.0,1.0,100.0,event
14:39:14.530,0.8697132,0.639509,0.9950113,0.69591874,1.2414544,0.073315255,-0.4472345,0.42998832,1.437801,0.14016555,-0.3371096,0.8764774,1.4522023,-0.049318187,-0.29105005,0.84487545,0.71324503,-0.2843702,-0.6116861,0.4917575,1372.381,819.15753,198.64468,852.1978,1086.7032,-0.10516357421875,-0.04046630859375,0.97808837890625,2.25799560546875,-5.061798095703125,0.216827392578125,1.0,4.0,1.0,4.0,1.0,100.0,event
14:39:14.531,0.8697132,0.639509,0.9950113,0.69591874,1.2414544,0.073315255,-0.4472345,0.42998832,1.437801,0.14016555,-0.3371096,0.8764774,1.4522023,-0.049318187,-0.29105005,0.84487545,0.71324503,-0.2843702,-0.6116861,0.4917575,1201.9414,817.9487,392.45422,833.663,966.2271,-0.10516357421875,-0.04046630859375,0.97808837890625,2.25799560546875,-5.061798095703125,0.216827392578125,1.0,4.0,1.0,4.0,1.0,100.0,event
14:39:14.531,0.8697132,0.639509,0.9950113,0.69591874,1.2414544,0.073315255,-0.4472345,0.42998832,1.437801,0.14016555,-0.3371096,0.8764774,1.4522023,-0.049318187,-0.29105005,0.84487545,0.71324503,-0.2843702,-0.6116861,0.4917575,774.83514,819.9634,617.28937,782.8938,848.1685,-0.10516357421875,-0.04046630859375,0.97808837890625,2.25799560546875,-5.061798095703125,0.216827392578125,1.0,4.0,1.0,4.0,1.0,100.0,event
14:39:14.532,0.8697132,0.639509,0.9950113,0.69591874,1.2414544,0.073315255,-0.4472345,0.42998832,1.437801,0.14016555,-0.3371096,0.8764774,1.4522023,-0.049318187,-0.29105005,0.84487545,0.71324503,-0.2843702,-0.6116861,0.4917575,670.4762,817.9487,407.76556,779.2674,919.0842,-0.10516357421875,-0.04046630859375,0.97808837890625,2.25799560546875,-5.061798095703125,0.216827392578125,1.0,4.0,1.0,4.0,1.0,100.0,event
14:39:14.533,0.8697132,0.639509,0.9950113,0.69591874,1.2414544,0.073315255,-0.4472345,0.42998832,1.437801,0.14016555,-0.3371096,0.8764774,1.4522023,-0.049318187,-0.29105005,0.84487545,0.71324503,-0.2843702,-0.6116861,0.4917575,981.13556,817.5458,649.5238,815.5311,885.2381,-0.10516357421875,-0.04046630859375,0.97808837890625,2.25799560546875,-5.061798095703125,0.216827392578125,1.0,4.0,1.0,4.0,1.0,100.0,event
14:39:14.559,0.8697132,0.639509,0.9950113,0.69591874,1.2414544,0.073315255,-0.4472345,0.42998832,1.437801,0.14016555,-0.3371096,0.8764774,1.4522023,-0.049318187,-0.29105005,0.84487545,0.71324503,-0.2843702,-0.6116861,0.4917575,1418.3151,817.1429,1025.0549,853.00366,736.55676,-0.10772705078125,-0.03582763671875,0.9881591796875,2.1234130859375,-4.964599609375,0.366363525390625,1.0,4.0,1.0,4.0,1.0,100.0,event
14:39:14.560,0.8697132,0.639509,0.9950113,0.69591874,1.2414544,0.073315255,-0.4472345,0.42998832,1.437801,0.14016555,-0.3371096,0.8764774,1.4522023,-0.049318187,-0.29105005,0.84487545,0.71324503,-0.2843702,-0.6116861,0.4917575,1263.9927,811.9048,784.90845,838.0952,691.4286,-0.10772705078125,-0.03582763671875,0.9881591796875,2.1234130859375,-4.964599609375,0.366363525390625,1.0,4.0,1.0,4.0,1.0,100.0,event
14:39:14.561,0.8697132,0.639509,0.9950113,0.69591874,1.2414544,0.073315255,-0.4472345,0.42998832,1.437801,0.14016555,-0.3371096,0.8764774,1.4522023,-0.049318187,-0.29105005,0.84487545,0.71324503,-0.2843702,-0.6116861,0.4917575,697.47253,813.91943,429.92673,793.7729,756.7033,-0.10772705078125,-0.03582763671875,0.9881591796875,2.1234130859375,-4.964599609375,0.366363525390625,1.0,4.0,1.0,4.0,1.0,100.0,event
14:39:14.562,0.8697132,0.639509,0.9950113,0.69591874,1.2414544,0.073315255,-0.4472345,0.42998832,1.437801,0.14016555,-0.3371096,0.8764774,1.4522023,-0.049318187,-0.29105005,0.84487545,0.71324503,-0.2843702,-0.6116861,0.4917575,603.5897,814.7253,602.381,792.1612,736.9597,-0.10772705078125,-0.03582763671875,0.9881591796875,2.1234130859375,-4.964599609375,0.366363525390625,1.0,4.0,1.0,4.0,1.0,100.0,event
14:39:14.562,0.8697132,0.639509,0.9950113,0.69591874,1.2414544,0.073315255,-0.4472345,0.42998832,1.437801,0.14016555,-0.3371096,0.8764774,1.4522023,-0.049318187,-0.29105005,0.84487545,0.71324503,-0.2843702,-0.6116861,0.4917575,912.6374,810.293,870.7326,815.9341,695.8608,-0.10772705078125,-0.03582763671875,0.9881591796875,2.1234130859375,-4.964599609375,0.366363525390625,1.0,4.0,1.0,4.0,1.0,100.0,event
14:39:14.563,0.8697132,0.6716473,0.9950113,0.69591874,1.2414544,0.1729269,-0.4472345,0.42998832,1.437801,0.14560543,-0.3371096,0.8764774,1.4522023,-0.036315966,-0.29105005,0.84487545,0.71324503,-0.27711517,-0.6116861,0.4917575,1292.6007,807.0696,780.87915,846.1539,807.47253,-0.10772705078125,-0.03582763671875,0.9881591796875,2.1234130859375,-4.964599609375,0.366363525390625,1.0,4.0,1.0,4.0,1.0,100.0,event
14:39:14.567,0.8697132,0.6716473,0.9950113,0.69591874,1.2414544,0.1729269,-0.4472345,0.42998832,1.437801,0.14560543,-0.3371096,0.8764774,1.4522023,-0.036315966,-0.29105005,0.84487545,0.71324503,-0.27711517,-0.6116861,0.4917575,1274.8718,811.9048,286.0806,841.7216,1084.2858,-0.10772705078125,-0.03582763671875,0.9881591796875,2.1234130859375,-4.964599609375,0.366363525390625,1.0,4.0,1.0,4.0,1.0,100.0,event
14:39:14.568,0.8697132,0.6716473,0.9950113,0.69591874,1.2414544,0.1729269,-0.4472345,0.42998832,1.437801,0.14560543,-0.3371096,0.8764774,1.4522023,-0.036315966,-0.29105005,0.84487545,0.71324503,-0.27711517,-0.6116861,0.4917575,812.3077,814.7253,187.36264,804.2491,1049.6337,-0.10772705078125,-0.03582763671875,0.9881591796875,2.1234130859375,-4.964599609375,0.366363525390625,1.0,4.0,1.0,4.0,1.0,100.0,event
14:39:14.569,0.8697132,0.6716473,0.9950113,0.69591874,1.2414544,0.1729269,-0.4472345,0.42998832,1.437801,0.14560543,-0.3371096,0.8764774,1.4522023,-0.036315966,-0.29105005,0.84487545,0.71324503,-0.27711517,-0.6116861,0.4917575,686.1905,813.1135,773.22345,784.10254,720.84247,-0.10772705078125,-0.03582763671875,0.9881591796875,2.1234130859375,-4.964599609375,0.366363525390625,1.0,4.0,1.0,4.0,1.0,100.0,event
14:39:14.569,0.8697132,0.6716473,0.9950113,0.69591874,1.2414544,0.1729269,-0.4472345,0.42998832,1.437801,0.14560543,-0.3371096,0.8764774,1.4522023,-0.036315966,-0.29105005,0.84487545,0.71324503,-0.27711517,-0.6116861,0.4917575,952.9304,809.4872,899.34064,796.1905,693.0403,-0.10772705078125,-0.03582763671875,0.9881591796875,2.1234130859375,-4.964599609375,0.366363525390625,1.0,4.0,1.0,4.0,1.0,100.0,event
14:39:14.570,0.8697132,0.6716473,0.9950113,0.69591874,1.2414544,0.1729269,-0.4472345,0.42998832,1.437801,0.14560543,-0.3371096,0.8764774,1.4522023,-0.036315966,-0.29105005,0.84487545,0.71324503,-0.27711517,-0.6116861,0.4917575,1340.1465,807.47253,824.3956,840.5128,770.80585,-0.10772705078125,-0.03582763671875,0.9881591796875,2.1234130859375,-4.964599609375,0.366363525390625,1.0,4.0,1.0,4.0,1.0,100.0,event
14:39:14.571,0.8697132,0.6716473,0.9950113,0.69591874,1.2414544,0.1729269,-0.4472345,0.42998832,1.437801,0.14560543,-0.3371096,0.8764774,1.4522023,-0.036315966,-0.29105005,0.84487545,0.71324503,-0.27711517,-0.6116861,0.4917575,1420.3297,816.337,761.13556,849.7802,747.03296,-0.10772705078125,-0.03582763671875,0.9881591796875,2.1234130859375,-4.964599609375,0.366363525390625,1.0,4.0,1.0,4.0,1.0,100.0,event
14:39:14.593,0.8697132,0.6716473,0.9950113,0.69591874,1.2414544,0.1729269,-0.4472345,0.42998832,1.437801,0.14560543,-0.3371096,0.8764774,1.4522023,-0.036315966,-0.29105005,0.84487545,0.71324503,-0.27711517,-0.6116861,0.4917575,944.87177,819.9634,509.70697,799.011,763.1502,-0.0968017578125,-0.037841796875,0.977783203125,2.1832275390625,-4.388885498046875,0.10467529296875,1.0,4.0,1.0,4.0,1.0,100.0,event
14:39:14.594,0.8697132,0.6716473,0.9950113,0.69591874,1.2414544,0.1729269,-0.4472345,0.42998832,1.437801,0.14560543,-0.3371096,0.8764774,1.4522023,-0.036315966,-0.29105005,0.84487545,0.71324503,-0.27711517,-0.6116861,0.4917575,616.8865,811.0989,469.4139,793.36993,789.7436,-0.0968017578125,-0.037841796875,0.977783203125,2.1832275390625,-4.388885498046875,0.10467529296875,1.0,4.0,1.0,4.0,1.0,100.0,event
14:39:14.595,0.8697132,0.6716473,0.9950113,0.69591874,1.2414544,0.1729269,-0.4472345,0.42998832,1.437801,0.14560543,-0.3371096,0.8764774,1.4522023,-0.036315966,-0.29105005,0.84487545,0.71324503,-0.27711517,-0.6116861,0.4917575,808.68134,807.8755,608.022,813.5165,857.4359,-0.0968017578125,-0.037841796875,0.977783203125,2.1832275390625,-4.388885498046875,0.10467529296875,1.0,4.0,1.0,4.0,1.0,100.0,event
14:39:14.596,0.8697132,0.6716473,0.9950113,0.69591874,1.2414544,0.1729269,-0.4472345,0.42998832,1.437801,0.14560543,-0.3371096,0.8764774,1.4522023,-0.036315966,-0.29105005,0.84487545,0.71324503,-0.27711517,-0.6116861,0.4917575,1271.6483,812.71063,870.7326,855.82416,770.0,-0.0968017578125,-0.037841796875,0.977783203125,2.1832275390625,-4.388885498046875,0.10467529296875,1.0,4.0,1.0,4.0,1.0,100.0,event
14:39:14.596,0.8697132,0.6716473,0.9950113,0.69591874,1.2414544,0.1729269,-0.4472345,0.42998832,1.437801,0.14560543,-0.3371096,0.8764774,1.4522023,-0.036315966,-0.29105005,0.84487545,0.71324503,-0.27711517,-0.6116861,0.4917575,1436.044,817.1429,906.5934,866.30035,684.17584,-0.0968017578125,-0.037841796875,0.977783203125,2.1832275390625,-4.388885498046875,0.10467529296875,1.0,4.0,1.0,4.0,1.0,100.0,event
14:39:14.597,0.8697132,0.6716473,0.9950113,0.69591874,1.2414544,0.1729269,-0.4472345,0.42998832,1.437801,0.14560543,-0.3371096,0.8764774,1.4522023,-0.036315966,-0.29105005,0.84487545,0.71324503,-0.27711517,-0.6116861,0.4917575,973.8828,819.15753,438.38828,822.381,899.34064,-0.0968017578125,-0.037841796875,0.977783203125,2.1832275390625,-4.388885498046875,0.10467529296875,1.0,4.0,1.0,4.0,1.0,100.0,event
14:39:14.598,0.8697132,0.6716473,0.9950113,0.69591874,1.2414544,0.1729269,-0.4472345,0.42998832,1.437801,0.14560543,-0.3371096,0.8764774,1.4522023,-0.036315966,-0.29105005,0.84487545,0.71324503,-0.27711517,-0.6116861,0.4917575,568.1319,813.91943,147.47253,789.7436,962.6007,-0.0968017578125,-0.037841796875,0.977783203125,2.1832275390625,-4.388885498046875,0.10467529296875,1.0,4.0,1.0,4.0,1.0,100.0,event
14:39:14.598,0.8697132,0.6716473,0.9950113,0.69591874,1.2414544,0.1729269,-0.4472345,0.42998832,1.437801,0.14560543,-0.3371096,0.8764774,1.4522023,-0.036315966,-0.29105005,0.84487545,0.71324503,-0.27711517,-0.6116861,0.4917575,804.2491,811.0989,610.4396,800.2198,705.5311,-0.0968017578125,-0.037841796875,0.977783203125,2.1832275390625,-4.388885498046875,0.10467529296875,1.0,4.0,1.0,4.0,1.0,100.0,event
14:39:14.599,0.8697132,0.6716473,0.9950113,0.69591874,1.2414544,0.1729269,-0.4472345,0.42998832,1.437801,0.14560543,-0.3371096,0.8764774,1.4522023,-0.036315966,-0.29105005,0.84487545,0.71324503,-0.27711517,-0.6116861,0.4917575,1339.3407,815.9341,1070.586,853.4066,639.0476,-0.0968017578125,-0.037841796875,0.977783203125,2.1832275390625,-4.388885498046875,0.10467529296875,1.0,4.0,1.0,4.0,1.0,100.0,event
14:39:14.599,0.8697132,0.6716473,0.9950113,0.69591874,1.2414544,0.1729269,-0.4472345,0.42998832,1.437801,0.14560543,-0.3371096,0.8764774,1.4522023,-0.036315966,-0.29105005,0.84487545,0.71324503,-0.27711517,-0.6116861,0.4917575,1440.8792,813.5165,697.8755,867.1062,860.65936,-0.0968017578125,-0.037841796875,0.977783203125,2.1832275390625,-4.388885498046875,0.10467529296875,1.0,4.0,1.0,4.0,1.0,100.0,event
14:39:14.600,0.8697132,0.6716473,0.9950113,0.69591874,1.2414544,0.1729269,-0.4472345,0.42998832,1.437801,0.14560543,-0.3371096,0.8764774,1.4522023,-0.036315966,-0.29105005,0.84487545,0.71324503,-0.27711517,-0.6116861,0.4917575,1005.31134,812.3077,239.74359,831.2454,916.26373,-0.0968017578125,-0.037841796875,0.977783203125,2.1832275390625,-4.388885498046875,0.10467529296875,1.0,4.0,1.0,4.0,1.0,100.0,event
14:39:14.600,0.8697132,0.6716473,0.9950113,0.69591874,1.2414544,0.1729269,-0.4472345,0.42998832,1.437801,0.14560543,-0.3371096,0.8764774,1.4522023,-0.036315966,-0.29105005,0.84487545,0.71324503,-0.27711517,-0.6116861,0.4917575,762.74725,818.7546,594.3223,795.78754,655.56775,-0.0968017578125,-0.037841796875,0.977783203125,2.1832275390625,-4.388885498046875,0.10467529296875,1.0,4.0,1.0,4.0,1.0,100.0,event
14:39:14.664,0.8697132,0.6716473,0.9950113,0.69591874,1.2414544,0.1729269,-0.4472345,0.42998832,1.437801,0.14560543,-0.3371096,0.8764774,1.4522023,-0.036315966,-0.29105005,0.84487545,0.71324503,-0.27711517,-0.6116861,0.4917575,845.34796,814.3223,866.7033,798.20514,639.45056,-0.0968017578125,-0.037841796875,0.977783203125,2.1832275390625,-4.388885498046875,0.10467529296875,1.0,4.0,1.0,4.0,1.0,100.0,event
14:39:14.666,0.8697132,0.6716473,0.9950113,0.69591874,1.2414544,0.1729269,-0.4472345,0.42998832,1.437801,0.14560543,-0.3371096,0.8764774,1.4522023,-0.036315966,-0.29105005,0.84487545,0.71324503,-0.27711517,-0.6116861,0.4917575,1131.4286,809.4872,836.4835,839.304,752.674,-0.0968017578125,-0.037841796875,0.977783203125,2.1832275390625,-4.388885498046875,0.10467529296875,1.0,4.0,1.0,4.0,1.0,100.0,event
14:39:14.667,0.8697132,0.6716473,0.9950113,0.69591874,1.2414544,0.1729269,-0.4472345,0.42998832,1.437801,0.14560543,-0.3371096,0.8764774,1.4522023,-0.036315966,-0.29105005,0.84487545,0.71324503,-0.27711517,-0.6116861,0.4917575,1490.4396,813.91943,812.71063,863.47986,800.6227,-0.0968017578125,-0.037841796875,0.977783203125,2.1832275390625,-4.388885498046875,0.10467529296875,1.0,4.0,1.0,4.0,1.0,100.0,event
14:39:14.668,0.8697132,0.6716473,0.9950113,0.69591874,1.2414544,0.1729269,-0.4472345,0.42998832,1.437801,0.14560543,-0.3371096,0.8764774,1.4522023,-0.036315966,-0.29105005,0.84487545,0.71324503,-0.27711517,-0.6116861,0.4917575,626.1539,811.50183,472.23444,776.8498,680.54944,-0.0968017578125,-0.037841796875,0.977783203125,2.1832275390625,-4.388885498046875,0.10467529296875,1.0,4.0,1.0,4.0,1.0,100.0,event
14:39:14.668,0.8697132,0.6716473,0.9950113,0.69591874,1.2414544,0.1729269,-0.4472345,0.42998832,1.437801,0.14560543,-0.3371096,0.8764774,1.4522023,-0.036315966,-0.29105005,0.84487545,0.71324503,-0.27711517,-0.6116861,0.4917575,1185.0183,816.337,552.8205,815.5311,807.47253,-0.0968017578125,-0.037841796875,0.977783203125,2.1832275390625,-4.388885498046875,0.10467529296875,1.0,4.0,1.0,4.0,1.0,100.0,event
14:39:14.669,0.8697132,0.6716473,0.9950113,0.69591874,1.2414544,0.1729269,-0.4472345,0.42998832,1.437801,0.14560543,-0.3371096,0.8764774,1.4522023,-0.036315966,-0.29105005,0.84487545,0.71324503,-0.27711517,-0.6116861,0.4917575,619.304,809.4872,352.96704,800.2198,925.12823,-0.0968017578125,-0.037841796875,0.977783203125,2.1832275390625,-4.388885498046875,0.10467529296875,1.0,4.0,1.0,4.0,1.0,100.0,event
14:39:14.670,0.8697132,0.6716473,0.9950113,0.69591874,1.2414544,0.1729269,-0.4472345,0.42998832,1.437801,0.14560543,-0.3371096,0.8764774,1.4522023,-0.036315966,-0.29105005,0.84487545,0.71324503,-0.27711517,-0.6116861,0.4917575,1054.8718,815.9341,284.8718,839.707,1123.37,-0.0968017578125,-0.037841796875,0.977783203125,2.1832275390625,-4.388885498046875,0.10467529296875,1.0,4.0,1.0,4.0,1.0,100.0,event
14:39:14.671,0.8697132,0.69692355,0.9950113,0.69591874,1.2414544,0.23095858,-0.4472345,0.42998832,1.437801,0.14560543,-0.3371096,0.8764774,1.4522023,-0.01759066,-0.29105005,0.84487545,0.71324503,-0.25880834,-0.6116861,0.4917575,1438.8645,822.7839,823.1868,850.58606,838.9011,-0.0968017578125,-0.037841796875,0.977783203125,2.1832275390625,-4.388885498046875,0.10467529296875,1.0,4.0,1.0,2.0,1.0,100.0,event
14:39:14.676,0.8697132,0.69692355,0.9950113,0.69591874,1.2414544,0.23095858,-0.4472345,0.42998832,1.437801,0.14560543,-0.3371096,0.8764774,1.4522023,-0.01759066,-0.29105005,0.84487545,0.71324503,-0.25880834,-0.6116861,0.4917575,1162.0513,819.9634,802.6374,823.9927,789.7436,-0.0968017578125,-0.037841796875,0.977783203125,2.1832275390625,-4.388885498046875,0.10467529296875,1.0,4.0,1.0,2.0,1.0,100.0,event
14:39:14.677,0.8697132,0.69692355,0.9950113,0.69591874,1.2414544,0.23095858,-0.4472345,0.42998832,1.437801,0.14560543,-0.3371096,0.8764774,1.4522023,-0.01759066,-0.29105005,0.84487545,0.71324503,-0.25880834,-0.6116861,0.4917575,700.696,821.5751,418.24176,784.5055,801.8315,-0.0968017578125,-0.037841796875,0.977783203125,2.1832275390625,-4.388885498046875,0.10467529296875,1.0,4.0,1.0,2.0,1.0,100.0,event
14:39:14.678,0.8697132,0.69692355,0.9950113,0.69591874,1.2414544,0.23095858,-0.4472345,0.42998832,1.437801,0.14560543,-0.3371096,0.8764774,1.4522023,-0.01759066,-0.29105005,0.84487545,0.71324503,-0.25880834,-0.6116861,0.4917575,709.9634,823.1868,641.06226,789.7436,732.1245,-0.0968017578125,-0.037841796875,0.977783203125,2.1832275390625,-4.388885498046875,0.10467529296875,1.0,4.0,1.0,2.0,1.0,100.0,event
14:39:14.679,0.8697132,0.69692355,0.9950113,0.69591874,1.2414544,0.23095858,-0.4472345,0.42998832,1.437801,0.14560543,-0.3371096,0.8764774,1.4522023,-0.01759066,-0.29105005,0.84487545,0.71324503,-0.25880834,-0.6116861,0.4917575,1087.9121,817.5458,1024.249,829.2308,641.06226,-0.0968017578125,-0.037841796875,0.977783203125,2.1832275390625,-4.388885498046875,0.10467529296875,1.0,4.0,1.0,2.0,1.0,100.0,event
14:39:14.704,0.8697132,0.69692355,0.9950113,0.69591874,1.2414544,0.23095858,-0.4472345,0.42998832,1.437801,0.14560543,-0.3371096,0.8764774,1.4522023,-0.01759066,-0.29105005,0.84487545,0.71324503,-0.25880834,-0.6116861,0.4917575,1389.7069,817.5458,863.8828,851.79486,690.2198,-0.101318359375,-0.034423828125,0.98345947265625,2.280426025390625,-3.865509033203125,0.3887939453125,1.0,4.0,1.0,2.0,1.0,100.0,event
14:39:14.705,0.8697132,0.69692355,0.9950113,0.69591874,1.2414544,0.23095858,-0.4472345,0.42998832,1.437801,0.14560543,-0.3371096,0.8764774,1.4522023,-0.01759066,-0.29105005,0.84487545,0.71324503,-0.25880834,-0.6116861,0.4917575,1182.1978,813.1135,561.685,832.8571,757.50916,-0.101318359375,-0.034423828125,0.98345947265625,2.280426025390625,-3.865509033203125,0.3887939453125,1.0,4.0,1.0,2.0,1.0,100.0,event
14:39:14.706,0.8697132,0.69692355,0.9950113,0.69591874,1.2414544,0.23095858,-0.4472345,0.42998832,1.437801,0.14560543,-0.3371096,0.8764774,1.4522023,-0.01759066,-0.29105005,0.84487545,0.71324503,-0.25880834,-0.6116861,0.4917575,695.8608,810.293,577.3993,794.9817,704.7253,-0.101318359375,-0.034423828125,0.98345947265625,2.280426025390625,-3.865509033203125,0.3887939453125,1.0,4.0,1.0,2.0,1.0,100.0,event
14:39:14.707,0.8697132,0.69692355,0.9950113,0.69591874,1.2414544,0.23095858,-0.4472345,0.42998832,1.437801,0.14560543,-0.3371096,0.8764774,1.4522023,-0.01759066,-0.29105005,0.84487545,0.71324503,-0.25880834,-0.6116861,0.4917575,637.03296,814.3223,789.7436,794.17584,686.1905,-0.101318359375,-0.034423828125,0.98345947265625,2.280426025390625,-3.865509033203125,0.3887939453125,1.0,4.0,1.0,2.0,1.0,100.0,event
14:39:14.707,0.8697132,0.69692355,0.9950113,0.69591874,1.2414544,0.23095858,-0.4472345,0.42998832,1.437801,0.14560543,-0.3371096,0.8764774,1.4522023,-0.01759066,-0.29105005,0.84487545,0.71324503,-0.25880834,-0.6116861,0.4917575,961.39197,812.71063,802.23444,818.3516,758.315,-0.101318359375,-0.034423828125,0.98345947265625,2.280426025390625,-3.865509033203125,0.3887939453125,1.0,4.0,1.0,2.0,1.0,100.0,event
14:39:14.708,0.8697132,0.69692355,0.9950113,0.69591874,1.2414544,0.23095858,-0.4472345,0.42998832,1.437801,0.14560543,-0.3371096,0.8764774,1.4522023,-0.01759066,-0.29105005,0.84487545,0.71324503,-0.25880834,-0.6116861,0.4917575,1339.7435,813.5165,572.1612,863.0769,850.989,-0.101318359375,-0.034423828125,0.98345947265625,2.280426025390625,-3.865509033203125,0.3887939453125,1.0,4.0,1.0,2.0,1.0,100.0,event
14:39:14.709,0.8697132,0.69692355,0.9950113,0.69591874,1.2414544,0.23095858,-0.4472345,0.42998832,1.437801,0.14560543,-0.3371096,0.8764774,1.4522023,-0.01759066,-0.29105005,0.84487545,0.71324503,-0.25880834,-0.6116861,0.4917575,1285.348,811.50183,467.39926,852.6007,865.4945,-0.101318359375,-0.034423828125,0.98345947265625,2.280426025390625,-3.865509033203125,0.3887939453125,1.0,4.0,1.0,2.0,1.0,100.0,event
14:39:14.709,0.8697132,0.69692355,0.9950113,0.69591874,1.2414544,0.23095858,-0.4472345,0.42998832,1.437801,0.14560543,-0.3371096,0.8764774,1.4522023,-0.01759066,-0.29105005,0.84487545,0.71324503,-0.25880834,-0.6116861,0.4917575,808.68134,816.337,423.88278,788.1319,828.8278,-0.101318359375,-0.034423828125,0.98345947265625,2.280426025390625,-3.865509033203125,0.3887939453125,1.0,4.0,1.0,2.0,1.0,100.0,event
14:39:14.710,0.8697132,0.69692355,0.9950113,0.69591874,1.2414544,0.23095858,-0.4472345,0.42998832,1.437801,0.14560543,-0.3371096,0.8764774,1.4522023,-0.01759066,-0.29105005,0.84487545,0.71324503,-0.25880834,-0.6116861,0.4917575,657.98535,817.9487,347.72894,784.90845,886.04395,-0.101318359375,-0.034423828125,0.98345947265625,2.280426025390625,-3.865509033203125,0.3887939453125,1.0,4.0,1.0,2.0,1.0,100.0,event
14:39:14.710,0.8697132,0.69692355,0.9950113,0.69591874,1.2414544,0.23095858,-0.4472345,0.42998832,1.437801,0.14560543,-0.3371096,0.8764774,1.4522023,-0.01759066,-0.29105005,0.84487545,0.71324503,-0.25880834,-0.6116861,0.4917575,928.3516,808.2784,594.3223,823.1868,944.4689,-0.101318359375,-0.034423828125,0.98345947265625,2.280426025390625,-3.865509033203125,0.3887939453125,1.0,4.0,1.0,2.0,1.0,100.0,event
14:39:14.711,0.8697132,0.69692355,0.9950113,0.69591874,1.2414544,0.23095858,-0.4472345,0.42998832,1.437801,0.14560543,-0.3371096,0.8764774,1.4522023,-0.01759066,-0.29105005,0.84487545,0.71324503,-0.25880834,-0.6116861,0.4917575,1359.4872,812.71063,966.2271,853.8095,836.4835,-0.101318359375,-0.034423828125,0.98345947265625,2.280426025390625,-3.865509033203125,0.3887939453125,1.0,4.0,1.0,2.0,1.0,100.0,event
14:39:14.711,0.8697132,0.69692355,0.9950113,0.69591874,1.2414544,0.23095858,-0.4472345,0.42998832,1.437801,0.14560543,-0.3371096,0.8764774,1.4522023,-0.01759066,-0.29105005,0.84487545,0.71324503,-0.25880834,-0.6116861,0.4917575,1328.8645,817.1429,854.21246,844.1392,795.78754,-0.101318359375,-0.034423828125,0.98345947265625,2.280426025390625,-3.865509033203125,0.3887939453125,1.0,4.0,1.0,2.0,1.0,100.0,event
14:39:14.752,0.8697132,0.69692355,0.9950113,0.69591874,1.2414544,0.23095858,-0.4472345,0.42998832,1.437801,0.14560543,-0.3371096,0.8764774,1.4522023,-0.01759066,-0.29105005,0.84487545,0.71324503,-0.25880834,-0.6116861,0.4917575,787.72894,809.0842,397.69232,802.23444,902.96704,-0.103271484375,-0.03887939453125,0.985107421875,1.757049560546875,-3.790740966796875,0.949554443359375,1.0,4.0,1.0,2.0,1.0,100.0,event
14:39:14.753,0.8697132,0.69692355,0.9950113,0.69591874,1.2414544,0.23095858,-0.4472345,0.42998832,1.437801,0.14560543,-0.3371096,0.8764774,1.4522023,-0.01759066,-0.29105005,0.84487545,0.71324503,-0.25880834,-0.6116861,0.4917575,591.9048,809.89014,125.311356,793.7729,1007.326,-0.103271484375,-0.03887939453125,0.985107421875,1.757049560546875,-3.790740966796875,0.949554443359375,1.0,4.0,1.0,2.0,1.0,100.0,event
14:39:14.753,0.8697132,0.69692355,0.9950113,0.69591874,1.2414544,0.23095858,-0.4472345,0.42998832,1.437801,0.14560543,-0.3371096,0.8764774,1.4522023,-0.01759066,-0.29105005,0.84487545,0.71324503,-0.25880834,-0.6116861,0.4917575,962.6007,816.337,786.9231,809.0842,803.44324,-0.103271484375,-0.03887939453125,0.985107421875,1.757049560546875,-3.790740966796875,0.949554443359375,1.0,4.0,1.0,2.0,1.0,100.0,event
14:39:14.754,0.8697132,0.69692355,0.9950113,0.69591874,1.2414544,0.23095858,-0.4472345,0.42998832,1.437801,0.14560543,-0.3371096,0.8764774,1.4522023,-0.01759066,-0.29105005,0.84487545,0.71324503,-0.25880834,-0.6116861,0.4917575,1405.0183,817.9487,1079.4506,850.18317,709.9634,-0.103271484375,-0.03887939453125,0.985107421875,1.757049560546875,-3.790740966796875,0.949554443359375,1.0,4.0,1.0,2.0,1.0,100.0,event
14:39:14.754,0.8697132,0.69692355,0.9950113,0.69591874,1.2414544,0.23095858,-0.4472345,0.42998832,1.437801,0.14560543,-0.3371096,0.8764774,1.4522023,-0.01759066,-0.29105005,0.84487545,0.71324503,-0.25880834,-0.6116861,0.4917575,1392.9304,821.1722,737.76556,841.7216,802.6374,-0.103271484375,-0.03887939453125,0.985107421875,1.757049560546875,-3.790740966796875,0.949554443359375,1.0,4.0,1.0,2.0,1.0,100.0,event
14:39:14.755,0.8697132,0.69692355,0.9950113,0.69591874,1.2414544,0.23095858,-0.4472345,0.42998832,1.437801,0.14560543,-0.3371096,0.8764774,1.4522023,-0.01759066,-0.29105005,0.84487545,0.71324503,-0.25880834,-0.6116861,0.4917575,541.53845,808.2784,456.92307,799.81683,829.2308,-0.103271484375,-0.03887939453125,0.985107421875,1.757049560546875,-3.790740966796875,0.949554443359375,1.0,4.0,1.0,2.0,1.0,100.0,event
14:39:14.755,0.8697132,0.69692355,0.9950113,0.69591874,1.2414544,0.23095858,-0.4472345,0.42998832,1.437801,0.14560543,-0.3371096,0.8764774,1.4522023,-0.01759066,-0.29105005,0.84487545,0.71324503,-0.25880834,-0.6116861,0.4917575,851.39197,814.3223,444.0293,820.3663,853.4066,-0.103271484375,-0.03887939453125,0.985107421875,1.757049560546875,-3.790740966796875,0.949554443359375,1.0,4.0,1.0,2.0,1.0,100.0,event
14:39:14.756,0.8697132,0.69692355,0.9950113,0.69591874,1.2414544,0.23095858,-0.4472345,0.42998832,1.437801,0.14560543,-0.3371096,0.8764774,1.4522023,-0.01759066,-0.29105005,0.84487545,0.71324503,-0.25880834,-0.6116861,0.4917575,797.3993,815.9341,888.86444,786.9231,803.8461,-0.103271484375,-0.03887939453125,0.985107421875,1.757049560546875,-3.790740966796875,0.949554443359375,1.0,4.0,1.0,2.0,1.0,100.0,event
14:39:14.756,0.8697132,0.69692355,0.9950113,0.69591874,1.2414544,0.23095858,-0.4472345,0.42998832,1.437801,0.14560543,-0.3371096,0.8764774,1.4522023,-0.01759066,-0.29105005,0.84487545,0.71324503,-0.25880834,-0.6116861,0.4917575,1200.3297,817.1429,639.0476,836.8865,953.73627,-0.103271484375,-0.03887939453125,0.985107421875,1.757049560546875,-3.790740966796875,0.949554443359375,1.0,4.0,1.0,2.0,1.0,100.0,event
14:39:14.757,0.8697132,0.7056463,0.9950113,0.69591874,1.2414544,0.25701198,-0.4472345,0.42998832,1.437801,0.14560543,-0.3371096,0.8764774,1.4522023,0.0089537725,-0.29105005,0.84487545,0.71324503,-0.23637496,-0.6116861,0.4917575,1315.1648,818.7546,301.39194,842.9304,1053.2601,-0.103271484375,-0.03887939453125,0.985107421875,1.757049560546875,-3.790740966796875,0.949554443359375,1.0,2.0,1.0,2.0,1.0,100.0,event
14:39:14.759,0.8697132,0.7056463,0.9950113,0.69591874,1.2414544,0.25701198,-0.4472345,0.42998832,1.437801,0.14560543,-0.3371096,0.8764774,1.4522023,0.0089537725,-0.29105005,0.84487545,0.71324503,-0.23637496,-0.6116861,0.4917575,979.12085,823.9927,628.5714,799.41394,768.7912,-0.103271484375,-0.03887939453125,0.985107421875,1.757049560546875,-3.790740966796875,0.949554443359375,1.0,2.0,1.0,2.0,1.0,100.0,event
14:39:14.760,0.8697132,0.7056463,0.9950113,0.69591874,1.2414544,0.25701198,-0.4472345,0.42998832,1.437801,0.14560543,-0.3371096,0.8764774,1.4522023,0.0089537725,-0.29105005,0.84487545,0.71324503,-0.23637496,-0.6116861,0.4917575,682.96704,816.337,709.9634,780.87915,694.65204,-0.103271484375,-0.03887939453125,0.985107421875,1.757049560546875,-3.790740966796875,0.949554443359375,1.0,2.0,1.0,2.0,1.0,100.0,event
14:39:14.804,0.8697132,0.7056463,0.9950113,0.69591874,1.2414544,0.25701198,-0.4472345,0.42998832,1.437801,0.14560543,-0.3371096,0.8764774,1.4522023,0.0089537725,-0.29105005,0.84487545,0.71324503,-0.23637496,-0.6116861,0.4917575,838.9011,813.5165,732.52747,803.44324,844.1392,-0.1068115234375,-0.033935546875,0.98638916015625,2.459869384765625,-3.431854248046875,0.859832763671875,1.0,2.0,1.0,2.0,1.0,100.0,event
14:39:14.805,0.8697132,0.7056463,0.9950113,0.69591874,1.2414544,0.25701198,-0.4472345,0.42998832,1.437801,0.14560543,-0.3371096,0.8764774,1.4522023,0.0089537725,-0.29105005,0.84487545,0.71324503,-0.23637496,-0.6116861,0.4917575,1268.022,812.3077,962.1978,839.707,811.50183,-0.1068115234375,-0.033935546875,0.98638916015625,2.459869384765625,-3.431854248046875,0.859832763671875,1.0,2.0,1.0,2.0,1.0,100.0,event
14:39:14.806,0.8697132,0.7056463,0.9950113,0.69591874,1.2414544,0.25701198,-0.4472345,0.42998832,1.437801,0.14560543,-0.3371096,0.8764774,1.4522023,0.0089537725,-0.29105005,0.84487545,0.71324503,-0.23637496,-0.6116861,0.4917575,1419.5238,813.1135,963.4066,848.5714,691.4286,-0.1068115234375,-0.033935546875,0.98638916015625,2.459869384765625,-3.431854248046875,0.859832763671875,1.0,2.0,1.0,2.0,1.0,100.0,event
14:39:14.806,0.8697132,0.7056463,0.9950113,0.69591874,1.2414544,0.25701198,-0.4472345,0.42998832,1.437801,0.14560543,-0.3371096,0.8764774,1.4522023,0.0089537725,-0.29105005,0.84487545,0.71324503,-0.23637496,-0.6116861,0.4917575,989.19415,817.5458,585.05493,807.8755,706.337,-0.1068115234375,-0.033935546875,0.98638916015625,2.459869384765625,-3.431854248046875,0.859832763671875,1.0,2.0,1.0,2.0,1.0,100.0,event
14:39:14.807,0.8697132,0.7056463,0.9950113,0.69591874,1.2414544,0.25701198,-0.4472345,0.42998832,1.437801,0.14560543,-0.3371096,0.8764774,1.4522023,0.0089537725,-0.29105005,0.84487545,0.71324503,-0.23637496,-0.6116861,0.4917575,837.6923,807.0696,709.15753,850.989,763.5531,-0.1068115234375,-0.033935546875,0.98638916015625,2.459869384765625,-3.431854248046875,0.859832763671875,1.0,2.0,1.0,2.0,1.0,100.0,event
14:39:14.807,0.8697132,0.7056463,0.9950113,0.69591874,1.2414544,0.25701198,-0.4472345,0.42998832,1.437801,0.14560543,-0.3371096,0.8764774,1.4522023,0.0089537725,-0.29105005,0.84487545,0.71324503,-0.23637496,-0.6116861,0.4917575,576.5934,817.5458,441.61172,778.86444,723.2601,-0.1068115234375,-0.033935546875,0.98638916015625,2.459869384765625,-3.431854248046875,0.859832763671875,1.0,2.0,1.0,2.0,1.0,100.0,event
14:39:14.807,0.8697132,0.7056463,0.9950113,0.69591874,1.2414544,0.25701198,-0.4472345,0.42998832,1.437801,0.14560543,-0.3371096,0.8764774,1.4522023,0.0089537725,-0.29105005,0.84487545,0.71324503,-0.23637496,-0.6116861,0.4917575,512.1245,811.0989,576.5934,802.6374,730.10986,-0.1068115234375,-0.033935546875,0.98638916015625,2.459869384765625,-3.431854248046875,0.859832763671875,1.0,2.0,1.0,2.0,1.0,100.0,event
14:39:14.808,0.8697132,0.7056463,0.9950113,0.69591874,1.2414544,0.25701198,-0.4472345,0.42998832,1.437801,0.14560543,-0.3371096,0.8764774,1.4522023,0.0089537725,-0.29105005,0.84487545,0.71324503,-0.23637496,-0.6116861,0.4917575,990.80585,817.1429,165.6044,832.0513,987.98535,-0.1068115234375,-0.033935546875,0.98638916015625,2.459869384765625,-3.431854248046875,0.859832763671875,1.0,2.0,1.0,2.0,1.0,100.0,event
14:39:14.808,0.8697132,0.7056463,0.9950113,0.69591874,1.2414544,0.25701198,-0.4472345,0.42998832,1.437801,0.14560543,-0.3371096,0.8764774,1.4522023,0.0089537725,-0.29105005,0.84487545,0.71324503,-0.23637496,-0.6116861,0.4917575,1220.8792,814.3223,572.1612,870.32965,832.4542,-0.1068115234375,-0.033935546875,0.98638916015625,2.459869384765625,-3.431854248046875,0.859832763671875,1.0,2.0,1.0,2.0,1.0,100.0,event
14:39:14.809,0.8697132,0.7056463,0.9950113,0.69591874,1.2414544,0.25701198,-0.4472345,0.42998832,1.437801,0.14560543,-0.3371096,0.8764774,1.4522023,0.0089537725,-0.29105005,0.84487545,0.71324503,-0.23637496,-0.6116861,0.4917575,602.381,813.91943,491.97803,784.10254,797.3993,-0.1068115234375,-0.033935546875,0.98638916015625,2.459869384765625,-3.431854248046875,0.859832763671875,1.0,2.0,1.0,2.0,1.0,100.0,event
14:39:14.809,0.8697132,0.7056463,0.9950113,0.69591874,1.2414544,0.25701198,-0.4472345,0.42998832,1.437801,0.14560543,-0.3371096,0.8764774,1.4522023,0.0089537725,-0.29105005,0.84487545,0.71324503,-0.23637496,-0.6116861,0.4917575,672.8938,810.293,954.5421,779.67035,656.3736,-0.1068115234375,-0.033935546875,0.98638916015625,2.459869384765625,-3.431854248046875,0.859832763671875,1.0,2.0,1.0,2.0,1.0,100.0,event
14:39:14.809,0.8697132,0.7056463,0.9950113,0.69591874,1.2414544,0.25701198,-0.4472345,0.42998832,1.437801,0.14560543,-0.3371096,0.8764774,1.4522023,0.0089537725,-0.29105005,0.84487545,0.71324503,-0.23637496,-0.6116861,0.4917575,1092.3444,813.1135,939.2308,831.6484,781.28204,-0.1068115234375,-0.033935546875,0.98638916015625,2.459869384765625,-3.431854248046875,0.859832763671875,1.0,2.0,1.0,2.0,1.0,100.0,event
14:39:14.844,0.8697132,0.7056463,0.9950113,0.69591874,1.2414544,0.25701198,-0.4472345,0.42998832,1.437801,0.14560543,-0.3371096,0.8764774,1.4522023,0.0089537725,-0.29105005,0.84487545,0.71324503,-0.23637496,-0.6116861,0.4917575,1373.5897,811.9048,770.0,867.1062,886.04395,-0.103759765625,-0.03631591796875,0.97869873046875,1.996307373046875,-3.252410888671875,-0.07476806640625,1.0,2.0,1.0,2.0,1.0,100.0,event
14:39:14.845,0.8697132,0.7056463,0.9950113,0.69591874,1.2414544,0.25701198,-0.4472345,0.42998832,1.437801,0.14560543,-0.3371096,0.8764774,1.4522023,0.0089537725,-0.29105005,0.84487545,0.71324503,-0.23637496,-0.6116861,0.4917575,1079.4506,815.12823,665.64105,825.2015,873.95605,-0.103759765625,-0.03631591796875,0.97869873046875,1.996307373046875,-3.252410888671875,-0.07476806640625,1.0,2.0,1.0,2.0,1.0,100.0,event
14:39:14.845,0.8697132,0.7056463,0.9950113,0.69591874,1.2414544,0.25701198,-0.4472345,0.42998832,1.437801,0.14560543,-0.3371096,0.8764774,1.4522023,0.0089537725,-0.29105005,0.84487545,0.71324503,-0.23637496,-0.6116861,0.4917575,622.52747,817.9487,708.7546,799.41394,740.58606,-0.103759765625,-0.03631591796875,0.97869873046875,1.996307373046875,-3.252410888671875,-0.07476806640625,1.0,2.0,1.0,2.0,1.0,100.0,event
14:39:14.846,0.8697132,0.7056463,0.9950113,0.69591874,1.2414544,0.25701198,-0.4472345,0.42998832,1.437801,0.14560543,-0.3371096,0.8764774,1.4522023,0.0089537725,-0.29105005,0.84487545,0.71324503,-0.23637496,-0.6116861,0.4917575,583.8461,802.6374,587.8755,807.0696,801.8315,-0.103759765625,-0.03631591796875,0.97869873046875,1.996307373046875,-3.252410888671875,-0.07476806640625,1.0,2.0,1.0,2.0,1.0,100.0,event
14:39:14.846,0.8697132,0.7056463,0.9950113,0.69591874,1.2414544,0.25701198,-0.4472345,0.42998832,1.437801,0.14560543,-0.3371096,0.8764774,1.4522023,0.0089537725,-0.29105005,0.84487545,0.71324503,-0.23637496,-0.6116861,0.4917575,985.56775,802.23444,740.18317,846.55676,839.707,-0.103759765625,-0.03631591796875,0.97869873046875,1.996307373046875,-3.252410888671875,-0.07476806640625,1.0,2.0,1.0,2.0,1.0,100.0,event
14:39:14.847,0.8697132,0.7056463,0.9950113,0.69591874,1.2414544,0.25701198,-0.4472345,0.42998832,1.437801,0.14560543,-0.3371096,0.8764774,1.4522023,0.0089537725,-0.29105005,0.84487545,0.71324503,-0.23637496,-0.6116861,0.4917575,1339.3407,819.9634,836.08057,867.50916,810.696,-0.103759765625,-0.03631591796875,0.97869873046875,1.996307373046875,-3.252410888671875,-0.07476806640625,1.0,2.0,1.0,2.0,1.0,100.0,event
14:39:14.848,0.8697132,0.7056463,0.9950113,0.69591874,1.2414544,0.25701198,-0.4472345,0.42998832,1.437801,0.14560543,-0.3371096,0.8764774,1.4522023,0.0089537725,-0.29105005,0.84487545,0.71324503,-0.23637496,-0.6116861,0.4917575,1118.9377,829.6337,562.49084,803.44324,828.4249,-0.103759765625,-0.03631591796875,0.97869873046875,1.996307373046875,-3.252410888671875,-0.07476806640625,1.0,2.0,1.0,2.0,1.0,100.0,event
14:39:14.848,0.8697132,0.7056463,0.9950113,0.69591874,1.2414544,0.25701198,-0.4472345,0.42998832,1.437801,0.14560543,-0.3371096,0.8764774,1.4522023,0.0089537725,-0.29105005,0.84487545,0.71324503,-0.23637496,-0.6116861,0.4917575,633.8095,819.9634,160.3663,771.6117,967.03296,-0.103759765625,-0.03631591796875,0.97869873046875,1.996307373046875,-3.252410888671875,-0.07476806640625,1.0,2.0,1.0,2.0,1.0,100.0,event
14:39:14.849,0.8697132,0.7056463,0.9950113,0.69591874,1.2414544,0.25701198,-0.4472345,0.42998832,1.437801,0.14560543,-0.3371096,0.8764774,1.4522023,0.0089537725,-0.29105005,0.84487545,0.71324503,-0.23637496,-0.6116861,0.4917575,1046.4103,829.2308,1031.5018,797.3993,706.7399,-0.103759765625,-0.03631591796875,0.97869873046875,1.996307373046875,-3.252410888671875,-0.07476806640625,1.0,2.0,1.0,2.0,1.0,100.0,event
14:39:14.849,0.8697132,0.7056463,0.9950113,0.69591874,1.2414544,0.25701198,-0.4472345,0.42998832,1.437801,0.14560543,-0.3371096,0.8764774,1.4522023,0.0089537725,-0.29105005,0.84487545,0.71324503,-0.23637496,-0.6116861,0.4917575,617.28937,820.3663,307.83884,781.685,954.5421,-0.103759765625,-0.03631591796875,0.97869873046875,1.996307373046875,-3.252410888671875,-0.07476806640625,1.0,2.0,1.0,2.0,1.0,100.0,event
14:39:14.850,0.8697132,0.7056463,0.9950113,0.69591874,1.2414544,0.25701198,-0.4472345,0.42998832,1.437801,0.14560543,-0.3371096,0.8764774,1.4522023,0.0089537725,-0.29105005,0.84487545,0.71324503,-0.23637496,-0.6116861,0.4917575,1338.5348,824.3956,997.25275,840.9158,731.31866,-0.103759765625,-0.03631591796875,0.97869873046875,1.996307373046875,-3.252410888671875,-0.07476806640625,1.0,2.0,1.0,2.0,1.0,100.0,event
14:39:14.850,0.8697132,0.70086986,0.9950113,0.64937794,1.2414544,0.26917022,-0.4472345,0.5052395,1.437801,0.15230866,-0.3371096,0.8698795,1.4522023,0.037535846,-0.29105005,0.85911703,0.71324503,-0.21800892,-0.6116861,0.4663723,1174.1392,826.4103,702.71063,811.0989,793.36993,-0.103759765625,-0.03631591796875,0.97869873046875,1.996307373046875,-3.252410888671875,-0.07476806640625,1.0,2.0,1.0,4.0,1.0,100.0,event
14:39:14.878,0.8697132,0.70086986,0.9950113,0.64937794,1.2414544,0.26917022,-0.4472345,0.5052395,1.437801,0.15230866,-0.3371096,0.8698795,1.4522023,0.037535846,-0.29105005,0.85911703,0.71324503,-0.21800892,-0.6116861,0.4663723,723.663,830.4396,718.8278,753.47986,756.7033,-0.103759765625,-0.03631591796875,0.97869873046875,1.996307373046875,-3.252410888671875,-0.07476806640625,1.0,2.0,1.0,4.0,1.0,100.0,event
14:39:14.879,0.8697132,0.70086986,0.9950113,0.64937794,1.2414544,0.26917022,-0.4472345,0.5052395,1.437801,0.15230866,-0.3371096,0.8698795,1.4522023,0.037535846,-0.29105005,0.85911703,0.71324503,-0.21800892,-0.6116861,0.4663723,603.5897,823.9927,902.1612,765.9707,734.1392,-0.103759765625,-0.03631591796875,0.97869873046875,1.996307373046875,-3.252410888671875,-0.07476806640625,1.0,2.0,1.0,4.0,1.0,100.0,event
14:39:14.880,0.8697132,0.70086986,0.9950113,0.64937794,1.2414544,0.26917022,-0.4472345,0.5052395,1.437801,0.15230866,-0.3371096,0.8698795,1.4522023,0.037535846,-0.29105005,0.85911703,0.71324503,-0.21800892,-0.6116861,0.4663723,938.8278,818.7546,906.99634,788.5348,769.19415,-0.103759765625,-0.03631591796875,0.97869873046875,1.996307373046875,-3.252410888671875,-0.07476806640625,1.0,2.0,1.0,4.0,1.0,100.0,event
14:39:14.880,0.8697132,0.70086986,0.9950113,0.64937794,1.2414544,0.26917022,-0.4472345,0.5052395,1.437801,0.15230866,-0.3371096,0.8698795,1.4522023,0.037535846,-0.29105005,0.85911703,0.71324503,-0.21800892,-0.6116861,0.4663723,1370.3663,822.381,708.3516,831.6484,800.2198,-0.103759765625,-0.03631591796875,0.97869873046875,1.996307373046875,-3.252410888671875,-0.07476806640625,1.0,2.0,1.0,4.0,1.0,100.0,event
14:39:14.881,0.8697132,0.70086986,0.9950113,0.64937794,1.2414544,0.26917022,-0.4472345,0.5052395,1.437801,0.15230866,-0.3371096,0.8698795,1.4522023,0.037535846,-0.29105005,0.85911703,0.71324503,-0.21800892,-0.6116861,0.4663723,1302.674,823.1868,625.34796,839.707,823.5897,-0.103759765625,-0.03631591796875,0.97869873046875,1.996307373046875,-3.252410888671875,-0.07476806640625,1.0,2.0,1.0,4.0,1.0,100.0,event
14:39:14.882,0.8697132,0.70086986,0.9950113,0.64937794,1.2414544,0.26917022,-0.4472345,0.5052395,1.437801,0.15230866,-0.3371096,0.8698795,1.4522023,0.037535846,-0.29105005,0.85911703,0.71324503,-0.21800892,-0.6116861,0.4663723,797.3993,819.15753,521.39197,788.5348,849.3773,-0.103759765625,-0.03631591796875,0.97869873046875,1.996307373046875,-3.252410888671875,-0.07476806640625,1.0,2.0,1.0,4.0,1.0,100.0,event
14:39:14.883,0.8697132,0.70086986,0.9950113,0.64937794,1.2414544,0.26917022,-0.4472345,0.5052395,1.437801,0.15230866,-0.3371096,0.8698795,1.4522023,0.037535846,-0.29105005,0.85911703,0.71324503,-0.21800892,-0.6116861,0.4663723,593.5165,815.5311,455.7143,784.5055,900.54944,-0.103759765625,-0.03631591796875,0.97869873046875,1.996307373046875,-3.252410888671875,-0.07476806640625,1.0,2.0,1.0,4.0,1.0,100.0,event
14:39:14.884,0.8697132,0.70086986,0.9950113,0.64937794,1.2414544,0.26917022,-0.4472345,0.5052395,1.437801,0.15230866,-0.3371096,0.8698795,1.4522023,0.037535846,-0.29105005,0.85911703,0.71324503,-0.21800892,-0.6116861,0.4663723,798.20514,813.5165,218.79121,797.8022,1098.7913,-0.103759765625,-0.03631591796875,0.97869873046875,1.996307373046875,-3.252410888671875,-0.07476806640625,1.0,2.0,1.0,4.0,1.0,100.0,event
14:39:14.885,0.8697132,0.70086986,0.9950113,0.64937794,1.2414544,0.26917022,-0.4472345,0.5052395,1.437801,0.15230866,-0.3371096,0.8698795,1.4522023,0.037535846,-0.29105005,0.85911703,0.71324503,-0.21800892,-0.6116861,0.4663723,1301.0623,820.3663,552.4176,836.08057,978.315,-0.103759765625,-0.03631591796875,0.97869873046875,1.996307373046875,-3.252410888671875,-0.07476806640625,1.0,2.0,1.0,4.0,1.0,100.0,event
14:39:14.885,0.8697132,0.70086986,0.9950113,0.64937794,1.2414544,0.26917022,-0.4472345,0.5052395,1.437801,0.15230866,-0.3371096,0.8698795,1.4522023,0.037535846,-0.29105005,0.85911703,0.71324503,-0.21800892,-0.6116861,0.4663723,1394.1392,822.381,1054.4689,844.1392,747.4359,-0.103759765625,-0.03631591796875,0.97869873046875,1.996307373046875,-3.252410888671875,-0.07476806640625,1.0,2.0,1.0,4.0,1.0,100.0,event
14:39:14.886,0.8697132,0.70086986,0.9950113,0.64937794,1.2414544,0.26917022,-0.4472345,0.5052395,1.437801,0.15230866,-0.3371096,0.8698795,1.4522023,0.037535846,-0.29105005,0.85911703,0.71324503,-0.21800892,-0.6116861,0.4663723,850.989,824.7985,712.7839,782.8938,791.75824,-0.103759765625,-0.03631591796875,0.97869873046875,1.996307373046875,-3.252410888671875,-0.07476806640625,1.0,2.0,1.0,4.0,1.0,100.0,event
14:39:14.887,0.8697132,0.70086986,0.9950113,0.64937794,1.2414544,0.26917022,-0.4472345,0.5052395,1.437801,0.15230866,-0.3371096,0.8698795,1.4522023,0.037535846,-0.29105005,0.85911703,0.71324503,-0.21800892,-0.6116861,0.4663723,592.71063,822.7839,696.26373,767.5824,761.9414,-0.103759765625,-0.03631591796875,0.97869873046875,1.996307373046875,-3.252410888671875,-0.07476806640625,1.0,2.0,1.0,4.0,1.0,100.0,event
14:39:14.909,0.8697132,0.70086986,0.9950113,0.64937794,1.2414544,0.26917022,-0.4472345,0.5052395,1.437801,0.15230866,-0.3371096,0.8698795,1.4522023,0.037535846,-0.29105005,0.85911703,0.71324503,-0.21800892,-0.6116861,0.4663723,824.3956,816.7399,1053.663,785.7143,721.6484,-0.10491943359375,-0.03631591796875,0.98187255859375,2.34771728515625,-3.596343994140625,0.478515625,1.0,2.0,1.0,4.0,1.0,100.0,event
14:39:14.910,0.8697132,0.70086986,0.9950113,0.64937794,1.2414544,0.26917022,-0.4472345,0.5052395,1.437801,0.15230866,-0.3371096,0.8698795,1.4522023,0.037535846,-0.29105005,0.85911703,0.71324503,-0.21800892,-0.6116861,0.4663723,1203.1501,822.7839,1086.7032,831.2454,766.77655,-0.10491943359375,-0.03631591796875,0.98187255859375,2.34771728515625,-3.596343994140625,0.478515625,1.0,2.0,1.0,4.0,1.0,100.0,event
14:39:14.911,0.8697132,0.70086986,0.9950113,0.64937794,1.2414544,0.26917022,-0.4472345,0.5052395,1.437801,0.15230866,-0.3371096,0.8698795,1.4522023,0.037535846,-0.29105005,0.85911703,0.71324503,-0.21800892,-0.6116861,0.4663723,1284.9451,822.7839,806.26373,840.5128,791.75824,-0.10491943359375,-0.03631591796875,0.98187255859375,2.34771728515625,-3.596343994140625,0.478515625,1.0,2.0,1.0,4.0,1.0,100.0,event
14:39:14.913,0.8697132,0.70086986,0.9950113,0.64937794,1.2414544,0.26917022,-0.4472345,0.5052395,1.437801,0.15230866,-0.3371096,0.8698795,1.4522023,0.037535846,-0.29105005,0.85911703,0.71324503,-0.21800892,-0.6116861,0.4663723,883.22345,819.9634,666.8498,794.17584,770.0,-0.10491943359375,-0.03631591796875,0.98187255859375,2.34771728515625,-3.596343994140625,0.478515625,1.0,2.0,1.0,4.0,1.0,100.0,event
14:39:14.913,0.8697132,0.70086986,0.9950113,0.64937794,1.2414544,0.26917022,-0.4472345,0.5052395,1.437801,0.15230866,-0.3371096,0.8698795,1.4522023,0.037535846,-0.29105005,0.85911703,0.71324503,-0.21800892,-0.6116861,0.4663723,581.02563,816.7399,747.8388,771.2088,756.7033,-0.10491943359375,-0.03631591796875,0.98187255859375,2.34771728515625,-3.596343994140625,0.478515625,1.0,2.0,1.0,4.0,1.0,100.0,event
14:39:14.914,0.8697132,0.70086986,0.9950113,0.64937794,1.2414544,0.26917022,-0.4472345,0.5052395,1.437801,0.15230866,-0.3371096,0.8698795,1.4522023,0.037535846,-0.29105005,0.85911703,0.71324503,-0.21800892,-0.6116861,0.4663723,757.1062,810.293,757.9121,789.7436,796.5934,-0.10491943359375,-0.03631591796875,0.98187255859375,2.34771728515625,-3.596343994140625,0.478515625,1.0,2.0,1.0,4.0,1.0,100.0,event
14:39:14.914,0.8697132,0.70086986,0.9950113,0.64937794,1.2414544,0.26917022,-0.4472345,0.5052395,1.437801,0.15230866,-0.3371096,0.8698795,1.4522023,0.037535846,-0.29105005,0.85911703,0.71324503,-0.21800892,-0.6116861,0.4663723,1149.5604,811.50183,473.44324,844.94507,1055.6776,-0.10491943359375,-0.03631591796875,0.98187255859375,2.34771728515625,-3.596343994140625,0.478515625,1.0,2.0,1.0,4.0,1.0,100.0,event
14:39:14.916,0.8697132,0.70086986,0.9950113,0.64937794,1.2414544,0.26917022,-0.4472345,0.5052395,1.437801,0.15230866,-0.3371096,0.8698795,1.4522023,0.037535846,-0.29105005,0.85911703,0.71324503,-0.21800892,-0.6116861,0.4663723,1281.3187,815.12823,278.4249,867.1062,1143.9194,-0.10491943359375,-0.03631591796875,0.98187255859375,2.34771728515625,-3.596343994140625,0.478515625,1.0,2.0,1.0,4.0,1.0,100.0,event
14:39:14.917,0.8697132,0.70086986,0.9950113,0.64937794,1.2414544,0.26917022,-0.4472345,0.5052395,1.437801,0.15230866,-0.3371096,0.8698795,1.4522023,0.037535846,-0.29105005,0.85911703,0.71324503,-0.21800892,-0.6116861,0.4663723,973.8828,820.3663,611.2454,820.3663,798.60803,-0.10491943359375,-0.03631591796875,0.98187255859375,2.34771728515625,-3.596343994140625,0.478515625,1.0,2.0,1.0,4.0,1.0,100.0,event
14:39:14.918,0.8697132,0.70086986,0.9950113,0.64937794,1.2414544,0.26917022,-0.4472345,0.5052395,1.437801,0.15230866,-0.3371096,0.8698795,1.4522023,0.037535846,-0.29105005,0.85911703,0.71324503,-0.21800892,-0.6116861,0.4663723,576.1905,815.12823,806.26373,778.46155,682.96704,-0.10491943359375,-0.03631591796875,0.98187255859375,2.34771728515625,-3.596343994140625,0.478515625,1.0,2.0,1.0,4.0,1.0,100.0,event
14:39:14.918,0.8697132,0.70086986,0.9950113,0.64937794,1.2414544,0.26917022,-0.4472345,0.5052395,1.437801,0.15230866,-0.3371096,0.8698795,1.4522023,0.037535846,-0.29105005,0.85911703,0.71324503,-0.21800892,-0.6116861,0.4663723,617.6923,801.4286,662.8205,777.6557,826.4103,-0.10491943359375,-0.03631591796875,0.98187255859375,2.34771728515625,-3.596343994140625,0.478515625,1.0,2.0,1.0,4.0,1.0,100.0,event
14:39:14.919,0.8697132,0.70086986,0.9950113,0.64937794,1.2414544,0.26917022,-0.4472345,0.5052395,1.437801,0.15230866,-0.3371096,0.8698795,1.4522023,0.037535846,-0.29105005,0.85911703,0.71324503,-0.21800892,-0.6116861,0.4663723,1115.3114,808.2784,854.61536,838.9011,826.8132,-0.10491943359375,-0.03631591796875,0.98187255859375,2.34771728515625,-3.596343994140625,0.478515625,1.0,2.0,1.0,4.0,1.0,100.0,event
14:39:14.981,0.8697132,0.70086986,0.9950113,0.64937794,1.2414544,0.26917022,-0.4472345,0.5052395,1.437801,0.15230866,-0.3371096,0.8698795,1.4522023,0.037535846,-0.29105005,0.85911703,0.71324503,-0.21800892,-0.6116861,0.4663723,1372.381,811.9048,1105.641,864.68866,678.1319,-0.1025390625,-0.03131103515625,0.98834228515625,2.654266357421875,-3.768310546875,0.7177734375,1.0,2.0,1.0,4.0,1.0,100.0,event
14:39:14.982,0.8697132,0.6909224,0.9950113,0.64937794,1.2414544,0.2784064,-0.4472345,0.5052395,1.437801,0.15659104,-0.3371096,0.8698795,1.4522023,0.060626548,-0.29105005,0.85911703,0.71324503,-0.20772517,-0.6116861,0.4663723,998.46155,808.2784,774.83514,833.2601,692.6374,-0.1025390625,-0.03131103515625,0.98834228515625,2.654266357421875,-3.768310546875,0.7177734375,1.0,2.0,1.0,4.0,1.0,100.0,event
14:39:14.986,0.8697132,0.6909224,0.9950113,0.64937794,1.2414544,0.2784064,-0.4472345,0.5052395,1.437801,0.15659104,-0.3371096,0.8698795,1.4522023,0.060626548,-0.29105005,0.85911703,0.71324503,-0.20772517,-0.6116861,0.4663723,621.7216,812.3077,577.3993,800.6227,721.6484,-0.1025390625,-0.03131103515625,0.98834228515625,2.654266357421875,-3.768310546875,0.7177734375,1.0,2.0,1.0,4.0,1.0,100.0,event
14:39:14.987,0.8697132,0.6909224,0.9950113,0.64937794,1.2414544,0.2784064,-0.4472345,0.5052395,1.437801,0.15659104,-0.3371096,0.8698795,1.4522023,0.060626548,-0.29105005,0.85911703,0.71324503,-0.20772517,-0.6116861,0.4663723,743.8095,807.8755,906.1905,809.4872,705.9341,-0.1025390625,-0.03131103515625,0.98834228515625,2.654266357421875,-3.768310546875,0.7177734375,1.0,2.0,1.0,4.0,1.0,100.0,event
14:39:14.988,0.8697132,0.6909224,0.9950113,0.64937794,1.2414544,0.2784064,-0.4472345,0.5052395,1.437801,0.15659104,-0.3371096,0.8698795,1.4522023,0.060626548,-0.29105005,0.85911703,0.71324503,-0.20772517,-0.6116861,0.4663723,1205.1648,804.65204,1087.1062,858.24176,696.6667,-0.1025390625,-0.03131103515625,0.98834228515625,2.654266357421875,-3.768310546875,0.7177734375,1.0,2.0,1.0,4.0,1.0,100.0,event
14:39:14.988,0.8697132,0.6909224,0.9950113,0.64937794,1.2414544,0.2784064,-0.4472345,0.5052395,1.437801,0.15659104,-0.3371096,0.8698795,1.4522023,0.060626548,-0.29105005,0.85911703,0.71324503,-0.20772517,-0.6116861,0.4663723,1465.0549,812.71063,793.36993,867.50916,914.65204,-0.1025390625,-0.03131103515625,0.98834228515625,2.654266357421875,-3.768310546875,0.7177734375,1.0,2.0,1.0,4.0,1.0,100.0,event
14:39:14.989,0.8697132,0.6909224,0.9950113,0.64937794,1.2414544,0.2784064,-0.4472345,0.5052395,1.437801,0.15659104,-0.3371096,0.8698795,1.4522023,0.060626548,-0.29105005,0.85911703,0.71324503,-0.20772517,-0.6116861,0.4663723,1151.1721,816.337,353.36996,827.619,1069.3773,-0.1025390625,-0.03131103515625,0.98834228515625,2.654266357421875,-3.768310546875,0.7177734375,1.0,2.0,1.0,4.0,1.0,100.0,event
14:39:14.989,0.8697132,0.6909224,0.9950113,0.64937794,1.2414544,0.2784064,-0.4472345,0.5052395,1.437801,0.15659104,-0.3371096,0.8698795,1.4522023,0.060626548,-0.29105005,0.85911703,0.71324503,-0.20772517,-0.6116861,0.4663723,724.0659,810.696,581.02563,800.2198,803.0403,-0.1025390625,-0.03131103515625,0.98834228515625,2.654266357421875,-3.768310546875,0.7177734375,1.0,2.0,1.0,4.0,1.0,100.0,event
14:39:14.990,0.8697132,0.6909224,0.9950113,0.64937794,1.2414544,0.2784064,-0.4472345,0.5052395,1.437801,0.15659104,-0.3371096,0.8698795,1.4522023,0.060626548,-0.29105005,0.85911703,0.71324503,-0.20772517,-0.6116861,0.4663723,707.5458,807.0696,1058.9011,808.2784,692.23444,-0.1025390625,-0.03131103515625,0.98834228515625,2.654266357421875,-3.768310546875,0.7177734375,1.0,2.0,1.0,4.0,1.0,100.0,event
14:39:14.991,0.8697132,0.6909224,0.9950113,0.64937794,1.2414544,0.2784064,-0.4472345,0.5052395,1.437801,0.15659104,-0.3371096,0.8698795,1.4522023,0.060626548,-0.29105005,0.85911703,0.71324503,-0.20772517,-0.6116861,0.4663723,1025.0549,807.8755,915.05493,842.1245,877.1795,-0.1025390625,-0.03131103515625,0.98834228515625,2.654266357421875,-3.768310546875,0.7177734375,1.0,2.0,1.0,4.0,1.0,100.0,event
14:39:14.991,0.8697132,0.6909224,0.9950113,0.64937794,1.2414544,0.2784064,-0.4472345,0.5052395,1.437801,0.15659104,-0.3371096,0.8698795,1.4522023,0.060626548,-0.29105005,0.85911703,0.71324503,-0.20772517,-0.6116861,0.4663723,1328.0586,811.9048,653.1502,866.7033,974.2857,-0.1025390625,-0.03131103515625,0.98834228515625,2.654266357421875,-3.768310546875,0.7177734375,1.0,2.0,1.0,4.0,1.0,100.0,event
14:39:14.992,0.8697132,0.6909224,0.9950113,0.64937794,1.2414544,0.2784064,-0.4472345,0.5052395,1.437801,0.15659104,-0.3371096,0.8698795,1.4522023,0.060626548,-0.29105005,0.85911703,0.71324503,-0.20772517,-0.6116861,0.4663723,1184.2124,817.9487,814.3223,834.0659,770.80585,-0.1025390625,-0.03131103515625,0.98834228515625,2.654266357421875,-3.768310546875,0.7177734375,1.0,2.0,1.0,4.0,1.0,100.0,event
14:39:15.018,0.8697132,0.6909224,0.9950113,0.64937794,1.2414544,0.2784064,-0.4472345,0.5052395,1.437801,0.15659104,-0.3371096,0.8698795,1.4522023,0.060626548,-0.29105005,0.85911703,0.71324503,-0.20772517,-0.6116861,0.4663723,757.50916,815.12823,830.0366,792.96704,604.7985,-0.10772705078125,-0.03607177734375,0.98297119140625,1.86920166015625,-3.51409912109375,0.7177734375,1.0,2.0,1.0,4.0,1.0,100.0,event
14:39:15.019,0.8697132,0.6909224,0.9950113,0.64937794,1.2414544,0.2784064,-0.4472345,0.5052395,1.437801,0.15659104,-0.3371096,0.8698795,1.4522023,0.060626548,-0.29105005,0.85911703,0.71324503,-0.20772517,-0.6116861,0.4663723,699.0842,808.68134,627.76556,799.011,733.3333,-0.10772705078125,-0.03607177734375,0.98297119140625,1.86920166015625,-3.51409912109375,0.7177734375,1.0,2.0,1.0,4.0,1.0,100.0,event
14:39:15.020,0.8697132,0.6909224,0.9950113,0.64937794,1.2414544,0.2784064,-0.4472345,0.5052395,1.437801,0.15659104,-0.3371096,0.8698795,1.4522023,0.060626548,-0.29105005,0.85911703,0.71324503,-0.20772517,-0.6116861,0.4663723,1043.5897,810.696,770.0,845.7509,868.315,-0.10772705078125,-0.03607177734375,0.98297119140625,1.86920166015625,-3.51409912109375,0.7177734375,1.0,2.0,1.0,4.0,1.0,100.0,event
14:39:15.021,0.8697132,0.6909224,0.9950113,0.64937794,1.2414544,0.2784064,-0.4472345,0.5052395,1.437801,0.15659104,-0.3371096,0.8698795,1.4522023,0.060626548,-0.29105005,0.85911703,0.71324503,-0.20772517,-0.6116861,0.4663723,1394.5421,812.3077,1119.7435,880.40295,776.04395,-0.10772705078125,-0.03607177734375,0.98297119140625,1.86920166015625,-3.51409912109375,0.7177734375,1.0,2.0,1.0,4.0,1.0,100.0,event
14:39:15.021,0.8697132,0.6909224,0.9950113,0.64937794,1.2414544,0.2784064,-0.4472345,0.5052395,1.437801,0.15659104,-0.3371096,0.8698795,1.4522023,0.060626548,-0.29105005,0.85911703,0.71324503,-0.20772517,-0.6116861,0.4663723,1210.8059,815.9341,957.76556,855.82416,745.0183,-0.10772705078125,-0.03607177734375,0.98297119140625,1.86920166015625,-3.51409912109375,0.7177734375,1.0,2.0,1.0,4.0,1.0,100.0,event
14:39:15.022,0.8697132,0.6909224,0.9950113,0.64937794,1.2414544,0.2784064,-0.4472345,0.5052395,1.437801,0.15659104,-0.3371096,0.8698795,1.4522023,0.060626548,-0.29105005,0.85911703,0.71324503,-0.20772517,-0.6116861,0.4663723,666.04395,816.7399,536.30035,803.44324,867.1062,-0.10772705078125,-0.03607177734375,0.98297119140625,1.86920166015625,-3.51409912109375,0.7177734375,1.0,2.0,1.0,4.0,1.0,100.0,event
14:39:15.023,0.8697132,0.6909224,0.9950113,0.64937794,1.2414544,0.2784064,-0.4472345,0.5052395,1.437801,0.15659104,-0.3371096,0.8698795,1.4522023,0.060626548,-0.29105005,0.85911703,0.71324503,-0.20772517,-0.6116861,0.4663723,552.01465,814.7253,532.27106,796.99634,914.65204,-0.10772705078125,-0.03607177734375,0.98297119140625,1.86920166015625,-3.51409912109375,0.7177734375,1.0,2.0,1.0,4.0,1.0,100.0,event
14:39:15.023,0.8697132,0.6909224,0.9950113,0.64937794,1.2414544,0.2784064,-0.4472345,0.5052395,1.437801,0.15659104,-0.3371096,0.8698795,1.4522023,0.060626548,-0.29105005,0.85911703,0.71324503,-0.20772517,-0.6116861,0.4663723,938.4249,817.5458,939.6337,828.022,805.8608,-0.10772705078125,-0.03607177734375,0.98297119140625,1.86920166015625,-3.51409912109375,0.7177734375,1.0,2.0,1.0,4.0,1.0,100.0,event
14:39:15.024,0.8697132,0.6909224,0.9950113,0.64937794,1.2414544,0.2784064,-0.4472345,0.5052395,1.437801,0.15659104,-0.3371096,0.8698795,1.4522023,0.060626548,-0.29105005,0.85911703,0.71324503,-0.20772517,-0.6116861,0.4663723,1387.2894,817.9487,1118.9377,863.47986,774.0293,-0.10772705078125,-0.03607177734375,0.98297119140625,1.86920166015625,-3.51409912109375,0.7177734375,1.0,2.0,1.0,4.0,1.0,100.0,event
14:39:15.024,0.8697132,0.6909224,0.9950113,0.64937794,1.2414544,0.2784064,-0.4472345,0.5052395,1.437801,0.15659104,-0.3371096,0.8698795,1.4522023,0.060626548,-0.29105005,0.85911703,0.71324503,-0.20772517,-0.6116861,0.4663723,1251.0989,817.1429,578.20514,848.1685,979.92676,-0.10772705078125,-0.03607177734375,0.98297119140625,1.86920166015625,-3.51409912109375,0.7177734375,1.0,2.0,1.0,4.0,1.0,100.0,event
14:39:15.025,0.8697132,0.6909224,0.9950113,0.64937794,1.2414544,0.2784064,-0.4472345,0.5052395,1.437801,0.15659104,-0.3371096,0.8698795,1.4522023,0.060626548,-0.29105005,0.85911703,0.71324503,-0.20772517,-0.6116861,0.4663723,792.5641,822.381,404.1392,802.23444,938.8278,-0.10772705078125,-0.03607177734375,0.98297119140625,1.86920166015625,-3.51409912109375,0.7177734375,1.0,2.0,1.0,4.0,1.0,100.0,event
14:39:15.026,0.8697132,0.6909224,0.9950113,0.64937794,1.2414544,0.2784064,-0.4472345,0.5052395,1.437801,0.15659104,-0.3371096,0.8698795,1.4522023,0.060626548,-0.29105005,0.85911703,0.71324503,-0.20772517,-0.6116861,0.4663723,689.41394,820.3663,939.6337,788.93774,703.91943,-0.10772705078125,-0.03607177734375,0.98297119140625,1.86920166015625,-3.51409912109375,0.7177734375,1.0,2.0,1.0,4.0,1.0,100.0,event
14:39:15.049,0.8697132,0.6909224,0.9950113,0.64937794,1.2414544,0.2784064,-0.4472345,0.5052395,1.437801,0.15659104,-0.3371096,0.8698795,1.4522023,0.060626548,-0.29105005,0.85911703,0.71324503,-0.20772517,-0.6116861,0.4663723,909.81683,813.1135,1000.4762,816.7399,762.74725,-0.10174560546875,-0.03515625,0.982421875,1.996307373046875,-3.24493408203125,0.22430419921875,1.0,2.0,1.0,4.0,1.0,100.0,event
14:39:15.051,0.8697132,0.6909224,0.9950113,0.64937794,1.2414544,0.2784064,-0.4472345,0.5052395,1.437801,0.15659104,-0.3371096,0.8698795,1.4522023,0.060626548,-0.29105005,0.85911703,0.71324503,-0.20772517,-0.6116861,0.4663723,1335.7142,820.7692,874.35895,860.65936,814.7253,-0.10174560546875,-0.03515625,0.982421875,1.996307373046875,-3.24493408203125,0.22430419921875,1.0,2.0,1.0,4.0,1.0,100.0,event
14:39:15.051,0.8697132,0.6909224,0.9950113,0.64937794,1.2414544,0.2784064,-0.4472345,0.5052395,1.437801,0.15659104,-0.3371096,0.8698795,1.4522023,0.060626548,-0.29105005,0.85911703,0.71324503,-0.20772517,-0.6116861,0.4663723,1309.1208,812.3077,835.6777,856.63007,854.61536,-0.10174560546875,-0.03515625,0.982421875,1.996307373046875,-3.24493408203125,0.22430419921875,1.0,2.0,1.0,4.0,1.0,100.0,event
14:39:15.052,0.8697132,0.68139404,0.9950113,0.64937794,1.2414544,0.28822613,-0.4472345,0.5052395,1.437801,0.1649442,-0.3371096,0.8698795,1.4522023,0.074094824,-0.29105005,0.85911703,0.71324503,-0.20544401,-0.6116861,0.4663723,862.27106,824.7985,848.97437,813.5165,651.53845,-0.10174560546875,-0.03515625,0.982421875,1.996307373046875,-3.24493408203125,0.22430419921875,1.0,2.0,1.0,2.0,1.0,100.0,event
14:39:15.054,,,,,,,,,,,,,,,,,,,,,,,,,,,,,,,,,,,,,,blink
14:39:15.056,0.8697132,0.68139404,0.9950113,0.64937794,1.2414544,0.28822613,-0.4472345,0.5052395,1.437801,0.1649442,-0.3371096,0.8698795,1.4522023,0.074094824,-0.29105005,0.85911703,0.71324503,-0.20544401,-0.6116861,0.4663723,625.7509,821.5751,673.69965,795.78754,695.4579,-0.10174560546875,-0.03515625,0.982421875,1.996307373046875,-3.24493408203125,0.22430419921875,1.0,2.0,1.0,2.0,1.0,100.0,event
14:39:15.057,0.8697132,0.68139404,0.9950113,0.64937794,1.2414544,0.28822613,-0.4472345,0.5052395,1.437801,0.1649442,-0.3371096,0.8698795,1.4522023,0.074094824,-0.29105005,0.85911703,0.71324503,-0.20544401,-0.6116861,0.4663723,890.87915,820.7692,622.1245,839.304,929.15753,-0.10174560546875,-0.03515625,0.982421875,1.996307373046875,-3.24493408203125,0.22430419921875,1.0,2.0,1.0,2.0,1.0,100.0,event
14:39:15.057,0.8697132,0.68139404,0.9950113,0.64937794,1.2414544,0.28822613,-0.4472345,0.5052395,1.437801,0.1649442,-0.3371096,0.8698795,1.4522023,0.074094824,-0.29105005,0.85911703,0.71324503,-0.20544401,-0.6116861,0.4663723,1339.7435,809.89014,788.1319,854.21246,913.8461,-0.10174560546875,-0.03515625,0.982421875,1.996307373046875,-3.24493408203125,0.22430419921875,1.0,2.0,1.0,2.0,1.0,100.0,event
14:39:15.058,0.8697132,0.68139404,0.9950113,0.64937794,1.2414544,0.28822613,-0.4472345,0.5052395,1.437801,0.1649442,-0.3371096,0.8698795,1.4522023,0.074094824,-0.29105005,0.85911703,0.71324503,-0.20544401,-0.6116861,0.4663723,1414.6886,809.89014,884.43225,841.7216,747.8388,-0.10174560546875,-0.03515625,0.982421875,1.996307373046875,-3.24493408203125,0.22430419921875,1.0,2.0,1.0,2.0,1.0,100.0,event
14:39:15.058,0.8697132,0.68139404,0.9950113,0.64937794,1.2414544,0.28822613,-0.4472345,0.5052395,1.437801,0.1649442,-0.3371096,0.8698795,1.4522023,0.074094824,-0.29105005,0.85911703,0.71324503,-0.20544401,-0.6116861,0.4663723,955.34796,811.50183,580.6227,814.3223,767.1795,-0.10174560546875,-0.03515625,0.982421875,1.996307373046875,-3.24493408203125,0.22430419921875,1.0,2.0,1.0,2.0,1.0,100.0,event
14:39:15.059,0.8697132,0.68139404,0.9950113,0.64937794,1.2414544,0.28822613,-0.4472345,0.5052395,1.437801,0.1649442,-0.3371096,0.8698795,1.4522023,0.074094824,-0.29105005,0.85911703,0.71324503,-0.20544401,-0.6116861,0.4663723,641.06226,800.6227,267.54578,794.57874,963.4066,-0.10174560546875,-0.03515625,0.982421875,1.996307373046875,-3.24493408203125,0.22430419921875,1.0,2.0,1.0,2.0,1.0,100.0,event
14:39:15.060,0.8697132,0.68139404,0.9950113,0.64937794,1.2414544,0.28822613,-0.4472345,0.5052395,1.437801,0.1649442,-0.3371096,0.8698795,1.4522023,0.074094824,-0.29105005,0.85911703,0.71324503,-0.20544401,-0.6116861,0.4663723,887.25275,807.0696,826.0073,799.41394,803.8461,-0.10174560546875,-0.03515625,0.982421875,1.996307373046875,-3.24493408203125,0.22430419921875,1.0,2.0,1.0,2.0,1.0,100.0,event
14:39:15.060,0.8697132,0.68139404,0.9950113,0.64937794,1.2414544,0.28822613,-0.4472345,0.5052395,1.437801,0.1649442,-0.3371096,0.8698795,1.4522023,0.074094824,-0.29105005,0.85911703,0.71324503,-0.20544401,-0.6116861,0.4663723,1323.6263,808.2784,1220.4762,832.0513,682.5641,-0.10174560546875,-0.03515625,0.982421875,1.996307373046875,-3.24493408203125,0.22430419921875,1.0,2.0,1.0,2.0,1.0,100.0,event
14:39:15.112,0.8697132,0.68139404,0.9950113,0.64937794,1.2414544,0.28822613,-0.4472345,0.5052395,1.437801,0.1649442,-0.3371096,0.8698795,1.4522023,0.074094824,-0.29105005,0.85911703,0.71324503,-0.20544401,-0.6116861,0.4663723,1431.6117,801.4286,972.674,851.79486,778.86444,-0.10174560546875,-0.03515625,0.982421875,1.996307373046875,-3.24493408203125,0.22430419921875,1.0,2.0,1.0,2.0,1.0,100.0,event
14:39:15.113,0.8697132,0.68139404,0.9950113,0.64937794,1.2414544,0.28822613,-0.4472345,0.5052395,1.437801,0.1649442,-0.3371096,0.8698795,1.4522023,0.074094824,-0.29105005,0.85911703,0.71324503,-0.20544401,-0.6116861,0.4663723,1052.4542,808.2784,747.8388,816.7399,735.34796,-0.10174560546875,-0.03515625,0.982421875,1.996307373046875,-3.24493408203125,0.22430419921875,1.0,2.0,1.0,2.0,1.0,100.0,event
14:39:15.114,0.8697132,0.68139404,0.9950113,0.64937794,1.2414544,0.28822613,-0.4472345,0.5052395,1.437801,0.1649442,-0.3371096,0.8698795,1.4522023,0.074094824,-0.29105005,0.85911703,0.71324503,-0.20544401,-0.6116861,0.4663723,721.2454,809.89014,898.5348,785.7143,694.65204,-0.10174560546875,-0.03515625,0.982421875,1.996307373046875,-3.24493408203125,0.22430419921875,1.0,2.0,1.0,2.0,1.0,100.0,event
14:39:15.115,0.8697132,0.68139404,0.9950113,0.64937794,1.2414544,0.28822613,-0.4472345,0.5052395,1.437801,0.1649442,-0.3371096,0.8698795,1.4522023,0.074094824,-0.29105005,0.85911703,0.71324503,-0.20544401,-0.6116861,0.4663723,819.15753,801.4286,1053.2601,803.44324,764.7619,-0.10174560546875,-0.03515625,0.982421875,1.996307373046875,-3.24493408203125,0.22430419921875,1.0,2.0,1.0,2.0,1.0,100.0,event
14:39:15.115,0.8697132,0.68139404,0.9950113,0.64937794,1.2414544,0.28822613,-0.4472345,0.5052395,1.437801,0.1649442,-0.3371096,0.8698795,1.4522023,0.074094824,-0.29105005,0.85911703,0.71324503,-0.20544401,-0.6116861,0.4663723,1215.641,802.23444,877.5824,847.3626,819.9634,-0.10174560546875,-0.03515625,0.982421875,1.996307373046875,-3.24493408203125,0.22430419921875,1.0,2.0,1.0,2.0,1.0,100.0,event
14:39:15.116,0.8697132,0.68139404,0.9950113,0.64937794,1.2414544,0.28822613,-0.4472345,0.5052395,1.437801,0.1649442,-0.3371096,0.8698795,1.4522023,0.074094824,-0.29105005,0.85911703,0.71324503,-0.20544401,-0.6116861,0.4663723,1403.0037,803.44324,703.1135,865.89746,919.89014,-0.10174560546875,-0.03515625,0.982421875,1.996307373046875,-3.24493408203125,0.22430419921875,1.0,2.0,1.0,2.0,1.0,100.0,event
14:39:15.117,0.8697132,0.68139404,0.9950113,0.64937794,1.2414544,0.28822613,-0.4472345,0.5052395,1.437801,0.1649442,-0.3371096,0.8698795,1.4522023,0.074094824,-0.29105005,0.85911703,0.71324503,-0.20544401,-0.6116861,0.4663723,1042.381,802.6374,587.8755,832.4542,911.02563,-0.10174560546875,-0.03515625,0.982421875,1.996307373046875,-3.24493408203125,0.22430419921875,1.0,2.0,1.0,2.0,1.0,100.0,event
14:39:15.117,0.8697132,0.68139404,0.9950113,0.64937794,1.2414544,0.28822613,-0.4472345,0.5052395,1.437801,0.1649442,-0.3371096,0.8698795,1.4522023,0.074094824,-0.29105005,0.85911703,0.71324503,-0.20544401,-0.6116861,0.4663723,677.326,811.0989,757.1062,787.72894,794.9817,-0.10174560546875,-0.03515625,0.982421875,1.996307373046875,-3.24493408203125,0.22430419921875,1.0,2.0,1.0,2.0,1.0,100.0,event
14:39:15.118,0.8697132,0.68139404,0.9950113,0.64937794,1.2414544,0.28822613,-0.4472345,0.5052395,1.437801,0.1649442,-0.3371096,0.8698795,1.4522023,0.074094824,-0.29105005,0.85911703,0.71324503,-0.20544401,-0.6116861,0.4663723,729.304,810.293,526.2271,789.34064,949.304,-0.10174560546875,-0.03515625,0.982421875,1.996307373046875,-3.24493408203125,0.22430419921875,1.0,2.0,1.0,2.0,1.0,100.0,event
14:39:15.118,0.8697132,0.68139404,0.9950113,0.64937794,1.2414544,0.28822613,-0.4472345,0.5052395,1.437801,0.1649442,-0.3371096,0.8698795,1.4522023,0.074094824,-0.29105005,0.85911703,0.71324503,-0.20544401,-0.6116861,0.4663723,1129.8169,806.26373,474.24908,841.31866,1013.36993,-0.10174560546875,-0.03515625,0.982421875,1.996307373046875,-3.24493408203125,0.22430419921875,1.0,2.0,1.0,2.0,1.0,100.0,event
14:39:15.119,0.8697132,0.68139404,0.9950113,0.64937794,1.2414544,0.28822613,-0.4472345,0.5052395,1.437801,0.1649442,-0.3371096,0.8698795,1.4522023,0.074094824,-0.29105005,0.85911703,0.71324503,-0.20544401,-0.6116861,0.4663723,1382.0513,811.0989,1069.7803,858.24176,782.0879,-0.10174560546875,-0.03515625,0.982421875,1.996307373046875,-3.24493408203125,0.22430419921875,1.0,2.0,1.0,2.0,1.0,100.0,event
14:39:15.119,0.8697132,0.68139404,0.9950113,0.64937794,1.2414544,0.28822613,-0.4472345,0.5052395,1.437801,0.1649442,-0.3371096,0.8698795,1.4522023,0.074094824,-0.29105005,0.85911703,0.71324503,-0.20544401,-0.6116861,0.4663723,1080.2565,811.50183,763.95605,820.7692,794.17584,-0.10174560546875,-0.03515625,0.982421875,1.996307373046875,-3.24493408203125,0.22430419921875,1.0,2.0,1.0,2.0,1.0,100.0,event
14:39:15.147,0.8697132,0.68139404,0.9950113,0.64937794,1.2414544,0.28822613,-0.4472345,0.5052395,1.437801,0.1649442,-0.3371096,0.8698795,1.4522023,0.074094824,-0.29105005,0.85911703,0.71324503,-0.20544401,-0.6116861,0.4663723,699.4872,809.4872,562.49084,797.8022,743.8095,-0.102783203125,-0.03717041015625,0.978759765625,2.519683837890625,-3.18511962890625,0.31402587890625,1.0,2.0,1.0,2.0,1.0,100.0,event
14:39:15.148,0.8697132,0.68139404,0.9950113,0.64937794,1.2414544,0.28822613,-0.4472345,0.5052395,1.437801,0.1649442,-0.3371096,0.8698795,1.4522023,0.074094824,-0.29105005,0.85911703,0.71324503,-0.20544401,-0.6116861,0.4663723,1157.2161,811.50183,1152.7839,841.7216,727.6923,-0.102783203125,-0.03717041015625,0.978759765625,2.519683837890625,-3.18511962890625,0.31402587890625,1.0,2.0,1.0,2.0,1.0,100.0,event
14:39:15.148,0.8697132,0.68139404,0.9950113,0.64937794,1.2414544,0.28822613,-0.4472345,0.5052395,1.437801,0.1649442,-0.3371096,0.8698795,1.4522023,0.074094824,-0.29105005,0.85911703,0.71324503,-0.20544401,-0.6116861,0.4663723,724.0659,807.47253,913.8461,808.2784,695.8608,-0.102783203125,-0.03717041015625,0.978759765625,2.519683837890625,-3.18511962890625,0.31402587890625,1.0,2.0,1.0,2.0,1.0,100.0,event
14:39:15.149,0.8697132,0.68139404,0.9950113,0.64937794,1.2414544,0.28822613,-0.4472345,0.5052395,1.437801,0.1649442,-0.3371096,0.8698795,1.4522023,0.074094824,-0.29105005,0.85911703,0.71324503,-0.20544401,-0.6116861,0.4663723,1440.8792,815.12823,1003.69965,872.3443,786.9231,-0.102783203125,-0.03717041015625,0.978759765625,2.519683837890625,-3.18511962890625,0.31402587890625,1.0,2.0,1.0,2.0,1.0,100.0,event
14:39:15.149,0.8697132,0.68139404,0.9950113,0.64937794,1.2414544,0.28822613,-0.4472345,0.5052395,1.437801,0.1649442,-0.3371096,0.8698795,1.4522023,0.074094824,-0.29105005,0.85911703,0.71324503,-0.20544401,-0.6116861,0.4663723,1155.6044,817.9487,680.9524,859.85345,832.4542,-0.102783203125,-0.03717041015625,0.978759765625,2.519683837890625,-3.18511962890625,0.31402587890625,1.0,2.0,1.0,2.0,1.0,100.0,event
14:39:15.150,0.8697132,0.6729693,0.9950113,0.64937794,1.2414544,0.30099094,-0.4472345,0.5052395,1.437801,0.16723539,-0.3371096,0.8698795,1.4522023,0.07939794,-0.29105005,0.85911703,0.71324503,-0.20899682,-0.6116861,0.4663723,704.3223,816.337,541.9414,804.65204,837.6923,-0.102783203125,-0.03717041015625,0.978759765625,2.519683837890625,-3.18511962890625,0.31402587890625,1.0,2.0,1.0,4.0,1.0,100.0,event
14:39:15.153,0.8697132,0.6729693,0.9950113,0.64937794,1.2414544,0.30099094,-0.4472345,0.5052395,1.437801,0.16723539,-0.3371096,0.8698795,1.4522023,0.07939794,-0.29105005,0.85911703,0.71324503,-0.20899682,-0.6116861,0.4663723,672.8938,816.337,599.9634,794.9817,819.15753,-0.102783203125,-0.03717041015625,0.978759765625,2.519683837890625,-3.18511962890625,0.31402587890625,1.0,2.0,1.0,4.0,1.0,100.0,event
14:39:15.153,0.8697132,0.6729693,0.9950113,0.64937794,1.2414544,0.30099094,-0.4472345,0.5052395,1.437801,0.16723539,-0.3371096,0.8698795,1.4522023,0.07939794,-0.29105005,0.85911703,0.71324503,-0.20899682,-0.6116861,0.4663723,998.0586,816.7399,656.3736,834.87177,816.7399,-0.102783203125,-0.03717041015625,0.978759765625,2.519683837890625,-3.18511962890625,0.31402587890625,1.0,2.0,1.0,4.0,1.0,100.0,event
14:39:15.154,0.8697132,0.6729693,0.9950113,0.64937794,1.2414544,0.30099094,-0.4472345,0.5052395,1.437801,0.16723539,-0.3371096,0.8698795,1.4522023,0.07939794,-0.29105005,0.85911703,0.71324503,-0.20899682,-0.6116861,0.4663723,1280.5128,815.12823,300.989,871.13556,1075.0183,-0.102783203125,-0.03717041015625,0.978759765625,2.519683837890625,-3.18511962890625,0.31402587890625,1.0,2.0,1.0,4.0,1.0,100.0,event
14:39:15.155,0.8697132,0.6729693,0.9950113,0.64937794,1.2414544,0.30099094,-0.4472345,0.5052395,1.437801,0.16723539,-0.3371096,0.8698795,1.4522023,0.07939794,-0.29105005,0.85911703,0.71324503,-0.20899682,-0.6116861,0.4663723,1202.7472,819.9634,453.2967,855.0183,944.87177,-0.102783203125,-0.03717041015625,0.978759765625,2.519683837890625,-3.18511962890625,0.31402587890625,1.0,2.0,1.0,4.0,1.0,100.0,event
14:39:15.156,0.8697132,0.6729693,0.9950113,0.64937794,1.2414544,0.30099094,-0.4472345,0.5052395,1.437801,0.16723539,-0.3371096,0.8698795,1.4522023,0.07939794,-0.29105005,0.85911703,0.71324503,-0.20899682,-0.6116861,0.4663723,772.4176,820.7692,910.6227,790.9524,671.685,-0.102783203125,-0.03717041015625,0.978759765625,2.519683837890625,-3.18511962890625,0.31402587890625,1.0,2.0,1.0,4.0,1.0,100.0,event
14:39:15.157,0.8697132,0.6729693,0.9950113,0.64937794,1.2414544,0.30099094,-0.4472345,0.5052395,1.437801,0.16723539,-0.3371096,0.8698795,1.4522023,0.07939794,-0.29105005,0.85911703,0.71324503,-0.20899682,-0.6116861,0.4663723,614.87177,815.12823,834.4689,787.326,752.27106,-0.102783203125,-0.03717041015625,0.978759765625,2.519683837890625,-3.18511962890625,0.31402587890625,1.0,2.0,1.0,4.0,1.0,100.0,event
14:39:15.178,0.8697132,0.6729693,0.9950113,0.64937794,1.2414544,0.30099094,-0.4472345,0.5052395,1.437801,0.16723539,-0.3371096,0.8698795,1.4522023,0.07939794,-0.29105005,0.85911703,0.71324503,-0.20899682,-0.6116861,0.4663723,924.3223,813.1135,906.99634,813.91943,723.2601,-0.10955810546875,-0.03125,0.9886474609375,3.06549072265625,-2.79632568359375,0.934600830078125,1.0,2.0,1.0,4.0,1.0,100.0,event
14:39:15.179,0.8697132,0.6729693,0.9950113,0.64937794,1.2414544,0.30099094,-0.4472345,0.5052395,1.437801,0.16723539,-0.3371096,0.8698795,1.4522023,0.07939794,-0.29105005,0.85911703,0.71324503,-0.20899682,-0.6116861,0.4663723,1334.1025,815.12823,1133.8462,840.5128,694.65204,-0.10955810546875,-0.03125,0.9886474609375,3.06549072265625,-2.79632568359375,0.934600830078125,1.0,2.0,1.0,4.0,1.0,100.0,event
14:39:15.180,0.8697132,0.6729693,0.9950113,0.64937794,1.2414544,0.30099094,-0.4472345,0.5052395,1.437801,0.16723539,-0.3371096,0.8698795,1.4522023,0.07939794,-0.29105005,0.85911703,0.71324503,-0.20899682,-0.6116861,0.4663723,1229.7435,813.5165,975.89746,835.6777,743.8095,-0.10955810546875,-0.03125,0.9886474609375,3.06549072265625,-2.79632568359375,0.934600830078125,1.0,2.0,1.0,4.0,1.0,100.0,event
14:39:15.181,0.8697132,0.6729693,0.9950113,0.64937794,1.2414544,0.30099094,-0.4472345,0.5052395,1.437801,0.16723539,-0.3371096,0.8698795,1.4522023,0.07939794,-0.29105005,0.85911703,0.71324503,-0.20899682,-0.6116861,0.4663723,737.3626,813.5165,629.7802,801.8315,726.4835,-0.10955810546875,-0.03125,0.9886474609375,3.06549072265625,-2.79632568359375,0.934600830078125,1.0,2.0,1.0,4.0,1.0,100.0,event
14:39:15.182,0.8697132,0.6729693,0.9950113,0.64937794,1.2414544,0.30099094,-0.4472345,0.5052395,1.437801,0.16723539,-0.3371096,0.8698795,1.4522023,0.07939794,-0.29105005,0.85911703,0.71324503,-0.20899682,-0.6116861,0.4663723,612.0513,817.9487,635.82416,795.38464,674.90845,-0.10955810546875,-0.03125,0.9886474609375,3.06549072265625,-2.79632568359375,0.934600830078125,1.0,2.0,1.0,4.0,1.0,100.0,event
14:39:15.183,0.8697132,0.6729693,0.9950113,0.64937794,1.2414544,0.30099094,-0.4472345,0.5052395,1.437801,0.16723539,-0.3371096,0.8698795,1.4522023,0.07939794,-0.29105005,0.85911703,0.71324503,-0.20899682,-0.6116861,0.4663723,917.47253,811.50183,765.16486,818.7546,742.1978,-0.10955810546875,-0.03125,0.9886474609375,3.06549072265625,-2.79632568359375,0.934600830078125,1.0,2.0,1.0,4.0,1.0,100.0,event
14:39:15.183,0.8697132,0.6729693,0.9950113,0.64937794,1.2414544,0.30099094,-0.4472345,0.5052395,1.437801,0.16723539,-0.3371096,0.8698795,1.4522023,0.07939794,-0.29105005,0.85911703,0.71324503,-0.20899682,-0.6116861,0.4663723,1342.967,814.7253,802.6374,847.76556,820.7692,-0.10955810546875,-0.03125,0.9886474609375,3.06549072265625,-2.79632568359375,0.934600830078125,1.0,2.0,1.0,4.0,1.0,100.0,event
14:39:15.184,0.8697132,0.6729693,0.9950113,0.64937794,1.2414544,0.30099094,-0.4472345,0.5052395,1.437801,0.16723539,-0.3371096,0.8698795,1.4522023,0.07939794,-0.29105005,0.85911703,0.71324503,-0.20899682,-0.6116861,0.4663723,1246.2638,818.3516,375.93405,848.97437,995.64105,-0.10955810546875,-0.03125,0.9886474609375,3.06549072265625,-2.79632568359375,0.934600830078125,1.0,2.0,1.0,4.0,1.0,100.0,event
14:39:15.185,0.8697132,0.6729693,0.9950113,0.64937794,1.2414544,0.30099094,-0.4472345,0.5052395,1.437801,0.16723539,-0.3371096,0.8698795,1.4522023,0.07939794,-0.29105005,0.85911703,0.71324503,-0.20899682,-0.6116861,0.4663723,805.4579,819.9634,232.89377,801.02563,985.56775,-0.10955810546875,-0.03125,0.9886474609375,3.06549072265625,-2.79632568359375,0.934600830078125,1.0,2.0,1.0,4.0,1.0,100.0,event
14:39:15.186,0.8697132,0.6729693,0.9950113,0.64937794,1.2414544,0.30099094,-0.4472345,0.5052395,1.437801,0.16723539,-0.3371096,0.8698795,1.4522023,0.07939794,-0.29105005,0.85911703,0.71324503,-0.20899682,-0.6116861,0.4663723,714.7985,823.9927,847.76556,780.07324,703.1135,-0.10955810546875,-0.03125,0.9886474609375,3.06549072265625,-2.79632568359375,0.934600830078125,1.0,2.0,1.0,4.0,1.0,100.0,event
14:39:15.187,0.8697132,0.6729693,0.9950113,0.64937794,1.2414544,0.30099094,-0.4472345,0.5052395,1.437801,0.16723539,-0.3371096,0.8698795,1.4522023,0.07939794,-0.29105005,0.85911703,0.71324503,-0.20899682,-0.6116861,0.4663723,922.71063,818.7546,956.55676,810.293,770.0,-0.10955810546875,-0.03125,0.9886474609375,3.06549072265625,-2.79632568359375,0.934600830078125,1.0,2.0,1.0,4.0,1.0,100.0,event
14:39:15.187,0.8697132,0.6729693,0.9950113,0.64937794,1.2414544,0.30099094,-0.4472345,0.5052395,1.437801,0.16723539,-0.3371096,0.8698795,1.4522023,0.07939794,-0.29105005,0.85911703,0.71324503,-0.20899682,-0.6116861,0.4663723,1278.9011,821.978,781.685,853.4066,862.27106,-0.10955810546875,-0.03125,0.9886474609375,3.06549072265625,-2.79632568359375,0.934600830078125,1.0,2.0,1.0,4.0,1.0,100.0,event
14:39:15.274,0.8697132,0.6729693,0.9950113,0.64937794,1.2414544,0.30099094,-0.4472345,0.5052395,1.437801,0.16723539,-0.3371096,0.8698795,1.4522023,0.07939794,-0.29105005,0.85911703,0.71324503,-0.20899682,-0.6116861,0.4663723,1326.4469,824.7985,833.2601,848.1685,713.9927,-0.107666015625,-0.034423828125,0.97918701171875,2.041168212890625,-3.21502685546875,0.112152099609375,1.0,2.0,1.0,4.0,1.0,100.0,event
14:39:15.275,0.8697132,0.6729693,0.9950113,0.64937794,1.2414544,0.30099094,-0.4472345,0.5052395,1.437801,0.16723539,-0.3371096,0.8698795,1.4522023,0.07939794,-0.29105005,0.85911703,0.71324503,-0.20899682,-0.6116861,0.4663723,859.45056,820.3663,854.61536,777.6557,618.49817,-0.107666015625,-0.034423828125,0.97918701171875,2.041168212890625,-3.21502685546875,0.112152099609375,1.0,2.0,1.0,4.0,1.0,100.0,event
14:39:15.276,0.8697132,0.6729693,0.9950113,0.64937794,1.2414544,0.30099094,-0.4472345,0.5052395,1.437801,0.16723539,-0.3371096,0.8698795,1.4522023,0.07939794,-0.29105005,0.85911703,0.71324503,-0.20899682,-0.6116861,0.4663723,539.12085,816.337,736.9597,775.2381,723.663,-0.107666015625,-0.034423828125,0.97918701171875,2.041168212890625,-3.21502685546875,0.112152099609375,1.0,2.0,1.0,4.0,1.0,100.0,event
14:39:15.276,0.8697132,0.6729693,0.9950113,0.64937794,1.2414544,0.30099094,-0.4472345,0.5052395,1.437801,0.16723539,-0.3371096,0.8698795,1.4522023,0.07939794,-0.29105005,0.85911703,0.71324503,-0.20899682,-0.6116861,0.4663723,730.9158,812.3077,786.1172,809.4872,740.58606,-0.107666015625,-0.034423828125,0.97918701171875,2.041168212890625,-3.21502685546875,0.112152099609375,1.0,2.0,1.0,4.0,1.0,100.0,event
14:39:15.278,0.8697132,0.6729693,0.9950113,0.64937794,1.2414544,0.30099094,-0.4472345,0.5052395,1.437801,0.16723539,-0.3371096,0.8698795,1.4522023,0.07939794,-0.29105005,0.85911703,0.71324503,-0.20899682,-0.6116861,0.4663723,1174.1392,819.9634,1006.1172,839.304,695.4579,-0.107666015625,-0.034423828125,0.97918701171875,2.041168212890625,-3.21502685546875,0.112152099609375,1.0,2.0,1.0,4.0,1.0,100.0,event
14:39:15.279,0.8697132,0.6729693,0.9950113,0.64937794,1.2414544,0.30099094,-0.4472345,0.5052395,1.437801,0.16723539,-0.3371096,0.8698795,1.4522023,0.07939794,-0.29105005,0.85911703,0.71324503,-0.20899682,-0.6116861,0.4663723,1319.597,825.6044,804.2491,857.4359,737.76556,-0.107666015625,-0.034423828125,0.97918701171875,2.041168212890625,-3.21502685546875,0.112152099609375,1.0,2.0,1.0,4.0,1.0,100.0,event
14:39:15.279,0.8697132,0.6729693,0.9950113,0.64937794,1.2414544,0.30099094,-0.4472345,0.5052395,1.437801,0.16723539,-0.3371096,0.8698795,1.4522023,0.07939794,-0.29105005,0.85911703,0.71324503,-0.20899682,-0.6116861,0.4663723,933.9927,824.7985,406.15384,820.7692,823.5897,-0.107666015625,-0.034423828125,0.97918701171875,2.041168212890625,-3.21502685546875,0.112152099609375,1.0,2.0,1.0,4.0,1.0,100.0,event
14:39:15.280,0.8697132,0.6634592,0.9950113,0.64937794,1.2414544,0.32021347,-0.4472345,0.5052395,1.437801,0.16723539,-0.3371096,0.8698795,1.4522023,0.08010408,-0.29105005,0.85911703,0.71324503,-0.21498683,-0.6116861,0.4663723,606.0073,820.3663,126.92308,788.93774,913.8461,-0.107666015625,-0.034423828125,0.97918701171875,2.041168212890625,-3.21502685546875,0.112152099609375,1.0,2.0,1.0,4.0,1.0,100.0,event
14:39:15.283,0.8697132,0.6634592,0.9950113,0.64937794,1.2414544,0.32021347,-0.4472345,0.5052395,1.437801,0.16723539,-0.3371096,0.8698795,1.4522023,0.08010408,-0.29105005,0.85911703,0.71324503,-0.21498683,-0.6116861,0.4663723,839.304,822.381,637.03296,803.0403,776.8498,-0.107666015625,-0.034423828125,0.97918701171875,2.041168212890625,-3.21502685546875,0.112152099609375,1.0,2.0,1.0,4.0,1.0,100.0,event
14:39:15.284,0.8697132,0.6634592,0.9950113,0.64937794,1.2414544,0.32021347,-0.4472345,0.5052395,1.437801,0.16723539,-0.3371096,0.8698795,1.4522023,0.08010408,-0.29105005,0.85911703,0.71324503,-0.21498683,-0.6116861,0.4663723,1249.8901,823.5897,1175.348,834.0659,700.696,-0.107666015625,-0.034423828125,0.97918701171875,2.041168212890625,-3.21502685546875,0.112152099609375,1.0,2.0,1.0,4.0,1.0,100.0,event
14:39:15.284,0.8697132,0.6634592,0.9950113,0.64937794,1.2414544,0.32021347,-0.4472345,0.5052395,1.437801,0.16723539,-0.3371096,0.8698795,1.4522023,0.08010408,-0.29105005,0.85911703,0.71324503,-0.21498683,-0.6116861,0.4663723,1333.2968,817.5458,902.96704,857.4359,766.77655,-0.107666015625,-0.034423828125,0.97918701171875,2.041168212890625,-3.21502685546875,0.112152099609375,1.0,2.0,1.0,4.0,1.0,100.0,event
14:39:15.285,0.8697132,0.6634592,0.9950113,0.64937794,1.2414544,0.32021347,-0.4472345,0.5052395,1.437801,0.16723539,-0.3371096,0.8698795,1.4522023,0.08010408,-0.29105005,0.85911703,0.71324503,-0.21498683,-0.6116861,0.4663723,954.94507,814.3223,669.67035,837.28937,736.1539,-0.107666015625,-0.034423828125,0.97918701171875,2.041168212890625,-3.21502685546875,0.112152099609375,1.0,2.0,1.0,4.0,1.0,100.0,event
14:39:15.306,0.8697132,0.6634592,0.9950113,0.64937794,1.2414544,0.32021347,-0.4472345,0.5052395,1.437801,0.16723539,-0.3371096,0.8698795,1.4522023,0.08010408,-0.29105005,0.85911703,0.71324503,-0.21498683,-0.6116861,0.4663723,606.0073,817.9487,787.326,815.9341,673.2967,-0.1082763671875,-0.0291748046875,0.98724365234375,2.833709716796875,-3.536529541015625,0.665435791015625,1.0,2.0,1.0,4.0,1.0,100.0,event
14:39:15.307,0.8697132,0.6634592,0.9950113,0.64937794,1.2414544,0.32021347,-0.4472345,0.5052395,1.437801,0.16723539,-0.3371096,0.8698795,1.4522023,0.08010408,-0.29105005,0.85911703,0.71324503,-0.21498683,-0.6116861,0.4663723,647.1062,820.7692,824.3956,803.44324,720.84247,-0.1082763671875,-0.0291748046875,0.98724365234375,2.833709716796875,-3.536529541015625,0.665435791015625,1.0,2.0,1.0,4.0,1.0,100.0,event
14:39:15.307,0.8697132,0.6634592,0.9950113,0.64937794,1.2414544,0.32021347,-0.4472345,0.5052395,1.437801,0.16723539,-0.3371096,0.8698795,1.4522023,0.08010408,-0.29105005,0.85911703,0.71324503,-0.21498683,-0.6116861,0.4663723,953.3333,816.337,618.49817,807.47253,879.19415,-0.1082763671875,-0.0291748046875,0.98724365234375,2.833709716796875,-3.536529541015625,0.665435791015625,1.0,2.0,1.0,4.0,1.0,100.0,event
14:39:15.308,0.8697132,0.6634592,0.9950113,0.64937794,1.2414544,0.32021347,-0.4472345,0.5052395,1.437801,0.16723539,-0.3371096,0.8698795,1.4522023,0.08010408,-0.29105005,0.85911703,0.71324503,-0.21498683,-0.6116861,0.4663723,1241.4286,815.5311,725.2747,840.10986,852.1978,-0.1082763671875,-0.0291748046875,0.98724365234375,2.833709716796875,-3.536529541015625,0.665435791015625,1.0,2.0,1.0,4.0,1.0,100.0,event
14:39:15.308,0.8697132,0.6634592,0.9950113,0.64937794,1.2414544,0.32021347,-0.4472345,0.5052395,1.437801,0.16723539,-0.3371096,0.8698795,1.4522023,0.08010408,-0.29105005,0.85911703,0.71324503,-0.21498683,-0.6116861,0.4663723,1042.7839,819.15753,857.03296,799.41394,739.7802,-0.1082763671875,-0.0291748046875,0.98724365234375,2.833709716796875,-3.536529541015625,0.665435791015625,1.0,2.0,1.0,4.0,1.0,100.0,event
14:39:15.309,0.8697132,0.6634592,0.9950113,0.64937794,1.2414544,0.32021347,-0.4472345,0.5052395,1.437801,0.16723539,-0.3371096,0.8698795,1.4522023,0.08010408,-0.29105005,0.85911703,0.71324503,-0.21498683,-0.6116861,0.4663723,676.9231,809.89014,374.72528,773.22345,1035.5311,-0.1082763671875,-0.0291748046875,0.98724365234375,2.833709716796875,-3.536529541015625,0.665435791015625,1.0,2.0,1.0,4.0,1.0,100.0,event
14:39:15.309,0.8697132,0.6634592,0.9950113,0.64937794,1.2414544,0.32021347,-0.4472345,0.5052395,1.437801,0.16723539,-0.3371096,0.8698795,1.4522023,0.08010408,-0.29105005,0.85911703,0.71324503,-0.21498683,-0.6116861,0.4663723,664.83514,819.5604,687.3993,751.06226,768.3883,-0.1082763671875,-0.0291748046875,0.98724365234375,2.833709716796875,-3.536529541015625,0.665435791015625,1.0,2.0,1.0,4.0,1.0,100.0,event
14:39:15.310,0.8697132,0.6634592,0.9950113,0.64937794,1.2414544,0.32021347,-0.4472345,0.5052395,1.437801,0.16723539,-0.3371096,0.8698795,1.4522023,0.08010408,-0.29105005,0.85911703,0.71324503,-0.21498683,-0.6116861,0.4663723,1174.5421,811.50183,498.4249,812.71063,1083.8828,-0.1082763671875,-0.0291748046875,0.98724365234375,2.833709716796875,-3.536529541015625,0.665435791015625,1.0,2.0,1.0,4.0,1.0,100.0,event
14:39:15.310,0.8697132,0.6634592,0.9950113,0.64937794,1.2414544,0.32021347,-0.4472345,0.5052395,1.437801,0.16723539,-0.3371096,0.8698795,1.4522023,0.08010408,-0.29105005,0.85911703,0.71324503,-0.21498683,-0.6116861,0.4663723,1559.7435,819.5604,1053.663,813.5165,743.8095,-0.1082763671875,-0.0291748046875,0.98724365234375,2.833709716796875,-3.536529541015625,0.665435791015625,1.0,2.0,1.0,4.0,1.0,100.0,event
14:39:15.311,0.8697132,0.6634592,0.9950113,0.64937794,1.2414544,0.32021347,-0.4472345,0.5052395,1.437801,0.16723539,-0.3371096,0.8698795,1.4522023,0.08010408,-0.29105005,0.85911703,0.71324503,-0.21498683,-0.6116861,0.4663723,1199.5238,811.0989,861.4652,786.1172,697.47253,-0.1082763671875,-0.0291748046875,0.98724365234375,2.833709716796875,-3.536529541015625,0.665435791015625,1.0,2.0,1.0,4.0,1.0,100.0,event
14:39:15.311,0.8697132,0.6634592,0.9950113,0.64937794,1.2414544,0.32021347,-0.4472345,0.5052395,1.437801,0.16723539,-0.3371096,0.8698795,1.4522023,0.08010408,-0.29105005,0.85911703,0.71324503,-0.21498683,-0.6116861,0.4663723,737.76556,805.05493,616.08057,760.7326,763.5531,-0.1082763671875,-0.0291748046875,0.98724365234375,2.833709716796875,-3.536529541015625,0.665435791015625,1.0,2.0,1.0,4.0,1.0,100.0,event
14:39:15.312,0.8697132,0.6634592,0.9950113,0.64937794,1.2414544,0.32021347,-0.4472345,0.5052395,1.437801,0.16723539,-0.3371096,0.8698795,1.4522023,0.08010408,-0.29105005,0.85911703,0.71324503,-0.21498683,-0.6116861,0.4663723,705.5311,813.5165,806.26373,759.5238,710.7692,-0.1082763671875,-0.0291748046875,0.98724365234375,2.833709716796875,-3.536529541015625,0.665435791015625,1.0,2.0,1.0,4.0,1.0,100.0,event
14:39:15.340,0.8697132,0.6634592,0.9950113,0.64937794,1.2414544,0.32021347,-0.4472345,0.5052395,1.437801,0.16723539,-0.3371096,0.8698795,1.4522023,0.08010408,-0.29105005,0.85911703,0.71324503,-0.21498683,-0.6116861,0.4663723,1041.5751,819.9634,1072.1978,794.9817,682.5641,-0.1082763671875,-0.0291748046875,0.98724365234375,2.833709716796875,-3.536529541015625,0.665435791015625,1.0,2.0,1.0,4.0,1.0,100.0,event
14:39:15.341,0.8697132,0.6634592,0.9950113,0.64937794,1.2414544,0.32021347,-0.4472345,0.5052395,1.437801,0.16723539,-0.3371096,0.8698795,1.4522023,0.08010408,-0.29105005,0.85911703,0.71324503,-0.21498683,-0.6116861,0.4663723,1327.6556,817.1429,970.2564,827.619,759.92676,-0.1082763671875,-0.0291748046875,0.98724365234375,2.833709716796875,-3.536529541015625,0.665435791015625,1.0,2.0,1.0,4.0,1.0,100.0,event
14:39:15.342,0.8697132,0.6634592,0.9950113,0.64937794,1.2414544,0.32021347,-0.4472345,0.5052395,1.437801,0.16723539,-0.3371096,0.8698795,1.4522023,0.08010408,-0.29105005,0.85911703,0.71324503,-0.21498683,-0.6116861,0.4663723,1066.9597,817.9487,654.7619,808.2784,774.0293,-0.1082763671875,-0.0291748046875,0.98724365234375,2.833709716796875,-3.536529541015625,0.665435791015625,1.0,2.0,1.0,4.0,1.0,100.0,event
14:39:15.342,0.8697132,0.6634592,0.9950113,0.64937794,1.2414544,0.32021347,-0.4472345,0.5052395,1.437801,0.16723539,-0.3371096,0.8698795,1.4522023,0.08010408,-0.29105005,0.85911703,0.71324503,-0.21498683,-0.6116861,0.4663723,699.4872,819.5604,669.67035,765.16486,693.0403,-0.1082763671875,-0.0291748046875,0.98724365234375,2.833709716796875,-3.536529541015625,0.665435791015625,1.0,2.0,1.0,4.0,1.0,100.0,event
14:39:15.343,0.8697132,0.6634592,0.9950113,0.64937794,1.2414544,0.32021347,-0.4472345,0.5052395,1.437801,0.16723539,-0.3371096,0.8698795,1.4522023,0.08010408,-0.29105005,0.85911703,0.71324503,-0.21498683,-0.6116861,0.4663723,726.4835,813.91943,808.2784,761.9414,739.3773,-0.1082763671875,-0.0291748046875,0.98724365234375,2.833709716796875,-3.536529541015625,0.665435791015625,1.0,2.0,1.0,4.0,1.0,100.0,event
14:39:15.343,0.8697132,0.6634592,0.9950113,0.64937794,1.2414544,0.32021347,-0.4472345,0.5052395,1.437801,0.16723539,-0.3371096,0.8698795,1.4522023,0.08010408,-0.29105005,0.85911703,0.71324503,-0.21498683,-0.6116861,0.4663723,1079.4506,808.2784,740.989,797.3993,968.24176,-0.1082763671875,-0.0291748046875,0.98724365234375,2.833709716796875,-3.536529541015625,0.665435791015625,1.0,2.0,1.0,4.0,1.0,100.0,event
14:39:15.344,0.8697132,0.6634592,0.9950113,0.64937794,1.2414544,0.32021347,-0.4472345,0.5052395,1.437801,0.16723539,-0.3371096,0.8698795,1.4522023,0.08010408,-0.29105005,0.85911703,0.71324503,-0.21498683,-0.6116861,0.4663723,1484.3956,814.7253,497.21613,825.6044,1013.36993,-0.1082763671875,-0.0291748046875,0.98724365234375,2.833709716796875,-3.536529541015625,0.665435791015625,1.0,2.0,1.0,4.0,1.0,100.0,event
14:39:15.344,0.8697132,0.6634592,0.9950113,0.64937794,1.2414544,0.32021347,-0.4472345,0.5052395,1.437801,0.16723539,-0.3371096,0.8698795,1.4522023,0.08010408,-0.29105005,0.85911703,0.71324503,-0.21498683,-0.6116861,0.4663723,1386.4835,807.47253,464.1758,832.0513,1159.6337,-0.1082763671875,-0.0291748046875,0.98724365234375,2.833709716796875,-3.536529541015625,0.665435791015625,1.0,2.0,1.0,4.0,1.0,100.0,event
14:39:15.345,0.8697132,0.6634592,0.9950113,0.64937794,1.2414544,0.32021347,-0.4472345,0.5052395,1.437801,0.16723539,-0.3371096,0.8698795,1.4522023,0.08010408,-0.29105005,0.85911703,0.71324503,-0.21498683,-0.6116861,0.4663723,1113.2968,817.5458,747.4359,777.6557,729.707,-0.1082763671875,-0.0291748046875,0.98724365234375,2.833709716796875,-3.536529541015625,0.665435791015625,1.0,2.0,1.0,4.0,1.0,100.0,event
14:39:15.345,0.8697132,0.6514113,0.9950113,0.64937794,1.2414544,0.34718636,-0.4472345,0.5052395,1.437801,0.16897106,-0.3371096,0.8698795,1.4522023,0.077823624,-0.29105005,0.85911703,0.71324503,-0.2214423,-0.6116861,0.4663723,863.8828,807.8755,668.46155,765.9707,835.2747,-0.1082763671875,-0.0291748046875,0.98724365234375,2.833709716796875,-3.536529541015625,0.665435791015625,1.0,2.0,1.0,4.0,1.0,100.0,event
14:39:15.349,0.8697132,0.6514113,0.9950113,0.64937794,1.2414544,0.34718636,-0.4472345,0.5052395,1.437801,0.16897106,-0.3371096,0.8698795,1.4522023,0.077823624,-0.29105005,0.85911703,0.71324503,-0.2214423,-0.6116861,0.4663723,1200.7325,802.6374,600.7692,801.02563,1006.52014,-0.1082763671875,-0.0291748046875,0.98724365234375,2.833709716796875,-3.536529541015625,0.665435791015625,1.0,2.0,1.0,4.0,1.0,100.0,event
14:39:15.349,0.8697132,0.6514113,0.9950113,0.64937794,1.2414544,0.34718636,-0.4472345,0.5052395,1.437801,0.16897106,-0.3371096,0.8698795,1.4522023,0.077823624,-0.29105005,0.85911703,0.71324503,-0.2214423,-0.6116861,0.4663723,1486.0073,807.8755,1041.1721,841.7216,791.75824,-0.1082763671875,-0.0291748046875,0.98724365234375,2.833709716796875,-3.536529541015625,0.665435791015625,1.0,2.0,1.0,4.0,1.0,100.0,event
14:39:15.373,0.8697132,0.6514113,0.9950113,0.64937794,1.2414544,0.34718636,-0.4472345,0.5052395,1.437801,0.16897106,-0.3371096,0.8698795,1.4522023,0.077823624,-0.29105005,0.85911703,0.71324503,-0.2214423,-0.6116861,0.4663723,1387.6923,814.7253,1094.359,831.6484,724.4689,-0.10357666015625,-0.0364990234375,0.97833251953125,1.6748046875,-4.329071044921875,-0.0897216796875,1.0,2.0,1.0,4.0,1.0,100.0,event
14:39:15.374,0.8697132,0.6514113,0.9950113,0.64937794,1.2414544,0.34718636,-0.4472345,0.5052395,1.437801,0.16897106,-0.3371096,0.8698795,1.4522023,0.077823624,-0.29105005,0.85911703,0.71324503,-0.2214423,-0.6116861,0.4663723,886.4469,815.12823,674.10254,790.9524,735.34796,-0.10357666015625,-0.0364990234375,0.97833251953125,1.6748046875,-4.329071044921875,-0.0897216796875,1.0,2.0,1.0,4.0,1.0,100.0,event
14:39:15.375,0.8697132,0.6514113,0.9950113,0.64937794,1.2414544,0.34718636,-0.4472345,0.5052395,1.437801,0.16897106,-0.3371096,0.8698795,1.4522023,0.077823624,-0.29105005,0.85911703,0.71324503,-0.2214423,-0.6116861,0.4663723,714.7985,815.9341,736.1539,784.10254,761.9414,-0.10357666015625,-0.0364990234375,0.97833251953125,1.6748046875,-4.329071044921875,-0.0897216796875,1.0,2.0,1.0,4.0,1.0,100.0,event
14:39:15.375,0.8697132,0.6514113,0.9950113,0.64937794,1.2414544,0.34718636,-0.4472345,0.5052395,1.437801,0.16897106,-0.3371096,0.8698795,1.4522023,0.077823624,-0.29105005,0.85911703,0.71324503,-0.2214423,-0.6116861,0.4663723,1011.75824,820.3663,1130.6227,809.4872,776.04395,-0.10357666015625,-0.0364990234375,0.97833251953125,1.6748046875,-4.329071044921875,-0.0897216796875,1.0,2.0,1.0,4.0,1.0,100.0,event
14:39:15.376,0.8697132,0.6514113,0.9950113,0.64937794,1.2414544,0.34718636,-0.4472345,0.5052395,1.437801,0.16897106,-0.3371096,0.8698795,1.4522023,0.077823624,-0.29105005,0.85911703,0.71324503,-0.2214423,-0.6116861,0.4663723,1377.2161,810.293,1147.9487,846.55676,795.78754,-0.10357666015625,-0.0364990234375,0.97833251953125,1.6748046875,-4.329071044921875,-0.0897216796875,1.0,2.0,1.0,4.0,1.0,100.0,event
