TimeStamp,Delta_TP9,Delta_AF7,Delta_AF8,Delta_TP10,Theta_TP9,Theta_AF7,Theta_AF8,Theta_TP10,Alpha_TP9,Alpha_AF7,Alpha_AF8,Alpha_TP10,Beta_TP9,Beta_AF7,Beta_AF8,Beta_TP10,Gamma_TP9,Gamma_AF7,Gamma_AF8,Gamma_TP10,RAW_TP9,RAW_AF7,RAW_AF8,RAW_TP10,AUX_RIGHT,Accelerometer_X,Accelerometer_Y,Accelerometer_Z,Gyro_X,Gyro_Y,Gyro_Z,HeadBandOn,HSI_TP9,HSI_AF7,HSI_AF8,HSI_TP10,Battery,Elements
13:29:47.405,1.4709929,0.6887135,1.433264,1.1654491,1.1786646,-0.25241026,0.38887545,0.9936233,0.91129756,0.018393148,0.12058453,0.60844886,1.047943,0.2989442,-0.26973772,0.6758433,0.7298363,-0.13335586,-0.704428,0.66375434,783.69965,691.02563,824.7985,798.20514,860.65936,-0.21533203125,0.0794677734375,0.9609375,4.433746337890625,-3.289794921875,1.786956787109375,1.0,1.0,4.0,1.0,1.0,100.0,event
13:29:47.406,1.4709929,0.6887135,1.433264,1.1654491,1.1786646,-0.25241026,0.38887545,0.9936233,0.91129756,0.018393148,0.12058453,0.60844886,1.047943,0.2989442,-0.26973772,0.6758433,0.7298363,-0.13335586,-0.704428,0.66375434,769.59705,1094.762,819.15753,781.685,698.2784,-0.21533203125,0.0794677734375,0.9609375,4.433746337890625,-3.289794921875,1.786956787109375,1.0,1.0,4.0,1.0,1.0,100.0,event
13:29:47.406,1.4709929,0.6887135,1.433264,1.1654491,1.1786646,-0.25241026,0.38887545,0.9936233,0.91129756,0.018393148,0.12058453,0.60844886,1.047943,0.2989442,-0.26973772,0.6758433,0.7298363,-0.13335586,-0.704428,0.66375434,778.46155,1194.2858,821.1722,788.1319,726.8865,-0.21533203125,0.0794677734375,0.9609375,4.433746337890625,-3.289794921875,1.786956787109375,1.0,1.0,4.0,1.0,1.0,100.0,event
13:29:47.407,1.4709929,0.6887135,1.433264,1.1654491,1.1786646,-0.25241026,0.38887545,0.9936233,0.91129756,0.018393148,0.12058453,0.60844886,1.047943,0.2989442,-0.26973772,0.6758433,0.7298363,-0.13335586,-0.704428,0.66375434,802.23444,965.0183,822.7839,799.81683,853.00366,-0.21533203125,0.0794677734375,0.9609375,4.433746337890625,-3.289794921875,1.786956787109375,1.0,1.0,4.0,1.0,1.0,100.0,event
13:29:47.408,1.4709929,0.6887135,1.433264,1.1654491,1.1786646,-0.25241026,0.38887545,0.9936233,0.91129756,0.018393148,0.12058453,0.60844886,1.047943,0.2989442,-0.26973772,0.6758433,0.7298363,-0.13335586,-0.704428,0.66375434,804.65204,863.47986,819.9634,793.36993,818.7546,-0.21533203125,0.0794677734375,0.9609375,4.433746337890625,-3.289794921875,1.786956787109375,1.0,1.0,4.0,1.0,1.0,100.0,event
13:29:47.408,1.4709929,0.6887135,1.403144,1.1654491,1.1786646,-0.25241026,0.57204676,0.9936233,0.91129756,0.018393148,0.20339257,0.60844886,1.047943,0.2989442,-0.24216111,0.6758433,0.7298363,-0.13335586,-0.7005041,0.66375434,783.69965,801.4286,821.1722,794.9817,785.7143,-0.21533203125,0.0794677734375,0.9609375,4.433746337890625,-3.289794921875,1.786956787109375,1.0,1.0,4.0,1.0,1.0,100.0,event
13:29:47.412,1.4709929,0.6887135,1.403144,1.1654491,1.1786646,-0.25241026,0.57204676,0.9936233,0.91129756,0.018393148,0.20339257,0.60844886,1.047943,0.2989442,-0.24216111,0.6758433,0.7298363,-0.13335586,-0.7005041,0.66375434,770.40295,821.978,818.3516,795.78754,790.9524,-0.21533203125,0.0794677734375,0.9609375,4.433746337890625,-3.289794921875,1.786956787109375,1.0,1.0,4.0,1.0,1.0,100.0,event
13:29:47.413,1.4709929,0.6887135,1.403144,1.1654491,1.1786646,-0.25241026,0.57204676,0.9936233,0.91129756,0.018393148,0.20339257,0.60844886,1.047943,0.2989442,-0.24216111,0.6758433,0.7298363,-0.13335586,-0.7005041,0.66375434,784.5055,497.61905,816.337,799.41394,974.68866,-0.21533203125,0.0794677734375,0.9609375,4.433746337890625,-3.289794921875,1.786956787109375,1.0,1.0,4.0,1.0,1.0,100.0,event
13:29:47.413,1.4709929,0.6887135,1.403144,1.1654491,1.1786646,-0.25241026,0.57204676,0.9936233,0.91129756,0.018393148,0.20339257,0.60844886,1.047943,0.2989442,-0.24216111,0.6758433,0.7298363,-0.13335586,-0.7005041,0.66375434,806.26373,361.02563,811.9048,803.44324,1004.10254,-0.21533203125,0.0794677734375,0.9609375,4.433746337890625,-3.289794921875,1.786956787109375,1.0,1.0,4.0,1.0,1.0,100.0,event
13:29:47.414,1.4709929,0.6887135,1.403144,1.1654491,1.1786646,-0.25241026,0.57204676,0.9936233,0.91129756,0.018393148,0.20339257,0.60844886,1.047943,0.2989442,-0.24216111,0.6758433,0.7298363,-0.13335586,-0.7005041,0.66375434,813.5165,1012.5641,804.65204,790.9524,738.5714,-0.21533203125,0.0794677734375,0.9609375,4.433746337890625,-3.289794921875,1.786956787109375,1.0,1.0,4.0,1.0,1.0,100.0,event
13:29:47.414,1.4709929,0.6887135,1.403144,1.1654491,1.1786646,-0.25241026,0.57204676,0.9936233,0.91129756,0.018393148,0.20339257,0.60844886,1.047943,0.2989442,-0.24216111,0.6758433,0.7298363,-0.13335586,-0.7005041,0.66375434,800.6227,1023.44324,810.293,799.011,721.6484,-0.21533203125,0.0794677734375,0.9609375,4.433746337890625,-3.289794921875,1.786956787109375,1.0,1.0,4.0,1.0,1.0,100.0,event
13:29:47.415,1.4709929,0.6887135,1.403144,1.1654491,1.1786646,-0.25241026,0.57204676,0.9936233,0.91129756,0.018393148,0.20339257,0.60844886,1.047943,0.2989442,-0.24216111,0.6758433,0.7298363,-0.13335586,-0.7005041,0.66375434,788.93774,890.87915,811.9048,795.38464,761.13556,-0.21533203125,0.0794677734375,0.9609375,4.433746337890625,-3.289794921875,1.786956787109375,1.0,1.0,4.0,1.0,1.0,100.0,event
13:29:47.438,1.4709929,0.6887135,1.403144,1.1654491,1.1786646,-0.25241026,0.57204676,0.9936233,0.91129756,0.018393148,0.20339257,0.60844886,1.047943,0.2989442,-0.24216111,0.6758433,0.7298363,-0.13335586,-0.7005041,0.66375434,793.36993,1083.8828,809.4872,795.78754,740.58606,-0.21533203125,0.0794677734375,0.9609375,4.433746337890625,-3.289794921875,1.786956787109375,1.0,1.0,4.0,1.0,1.0,100.0,event
13:29:47.439,1.4709929,0.6887135,1.403144,1.1654491,1.1786646,-0.25241026,0.57204676,0.9936233,0.91129756,0.018393148,0.20339257,0.60844886,1.047943,0.2989442,-0.24216111,0.6758433,0.7298363,-0.13335586,-0.7005041,0.66375434,818.7546,1177.3627,809.0842,806.26373,665.64105,-0.21533203125,0.0794677734375,0.9609375,4.433746337890625,-3.289794921875,1.786956787109375,1.0,1.0,4.0,1.0,1.0,100.0,event
13:29:47.440,1.4709929,0.6887135,1.403144,1.1654491,1.1786646,-0.25241026,0.57204676,0.9936233,0.91129756,0.018393148,0.20339257,0.60844886,1.047943,0.2989442,-0.24216111,0.6758433,0.7298363,-0.13335586,-0.7005041,0.66375434,818.7546,905.78754,807.0696,796.1905,809.4872,-0.21533203125,0.0794677734375,0.9609375,4.433746337890625,-3.289794921875,1.786956787109375,1.0,1.0,4.0,1.0,1.0,100.0,event
13:29:47.441,1.4709929,0.6887135,1.403144,1.1654491,1.1786646,-0.25241026,0.57204676,0.9936233,0.91129756,0.018393148,0.20339257,0.60844886,1.047943,0.2989442,-0.24216111,0.6758433,0.7298363,-0.13335586,-0.7005041,0.66375434,799.81683,689.011,809.0842,793.7729,881.6117,-0.21533203125,0.0794677734375,0.9609375,4.433746337890625,-3.289794921875,1.786956787109375,1.0,1.0,4.0,1.0,1.0,100.0,event
13:29:47.441,1.4709929,0.6887135,1.403144,1.1654491,1.1786646,-0.25241026,0.57204676,0.9936233,0.91129756,0.018393148,0.20339257,0.60844886,1.047943,0.2989442,-0.24216111,0.6758433,0.7298363,-0.13335586,-0.7005041,0.66375434,782.49084,892.49084,805.4579,780.4762,690.2198,-0.21533203125,0.0794677734375,0.9609375,4.433746337890625,-3.289794921875,1.786956787109375,1.0,1.0,4.0,1.0,1.0,100.0,event
13:29:47.442,1.4709929,0.6887135,1.403144,1.1654491,1.1786646,-0.25241026,0.57204676,0.9936233,0.91129756,0.018393148,0.20339257,0.60844886,1.047943,0.2989442,-0.24216111,0.6758433,0.7298363,-0.13335586,-0.7005041,0.66375434,773.6264,890.4762,805.05493,789.7436,728.49817,-0.21533203125,0.0794677734375,0.9609375,4.433746337890625,-3.289794921875,1.786956787109375,1.0,1.0,4.0,1.0,1.0,100.0,event
13:29:47.443,1.4709929,0.6887135,1.403144,1.1654491,1.1786646,-0.25241026,0.57204676,0.9936233,0.91129756,0.018393148,0.20339257,0.60844886,1.047943,0.2989442,-0.24216111,0.6758433,0.7298363,-0.13335586,-0.7005041,0.66375434,794.57874,645.09155,808.2784,817.9487,898.93774,-0.21533203125,0.0794677734375,0.9609375,4.433746337890625,-3.289794921875,1.786956787109375,1.0,1.0,4.0,1.0,1.0,100.0,event
13:29:47.443,1.4709929,0.6887135,1.403144,1.1654491,1.1786646,-0.25241026,0.57204676,0.9936233,0.91129756,0.018393148,0.20339257,0.60844886,1.047943,0.2989442,-0.24216111,0.6758433,0.7298363,-0.13335586,-0.7005041,0.66375434,805.4579,126.11722,806.26373,833.663,1018.20514,-0.21533203125,0.0794677734375,0.9609375,4.433746337890625,-3.289794921875,1.786956787109375,1.0,1.0,4.0,1.0,1.0,100.0,event
13:29:47.444,1.4709929,0.6887135,1.403144,1.1654491,1.1786646,-0.25241026,0.57204676,0.9936233,0.91129756,0.018393148,0.20339257,0.60844886,1.047943,0.2989442,-0.24216111,0.6758433,0.7298363,-0.13335586,-0.7005041,0.66375434,796.1905,454.90842,802.6374,821.5751,802.6374,-0.21533203125,0.0794677734375,0.9609375,4.433746337890625,-3.289794921875,1.786956787109375,1.0,1.0,4.0,1.0,1.0,100.0,event
13:29:47.444,1.4709929,0.6887135,1.403144,1.1654491,1.1786646,-0.25241026,0.57204676,0.9936233,0.91129756,0.018393148,0.20339257,0.60844886,1.047943,0.2989442,-0.24216111,0.6758433,0.7298363,-0.13335586,-0.7005041,0.66375434,790.54944,1089.5238,802.6374,797.8022,592.71063,-0.21533203125,0.0794677734375,0.9609375,4.433746337890625,-3.289794921875,1.786956787109375,1.0,1.0,4.0,1.0,1.0,100.0,event
13:29:47.445,1.4709929,0.6887135,1.403144,1.1654491,1.1786646,-0.25241026,0.57204676,0.9936233,0.91129756,0.018393148,0.20339257,0.60844886,1.047943,0.2989442,-0.24216111,0.6758433,0.7298363,-0.13335586,-0.7005041,0.66375434,814.3223,888.86444,801.4286,802.6374,699.89014,-0.21533203125,0.0794677734375,0.9609375,4.433746337890625,-3.289794921875,1.786956787109375,1.0,1.0,4.0,1.0,1.0,100.0,event
13:29:47.446,1.4709929,0.6887135,1.403144,1.1654491,1.1786646,-0.25241026,0.57204676,0.9936233,0.91129756,0.018393148,0.20339257,0.60844886,1.047943,0.2989442,-0.24216111,0.6758433,0.7298363,-0.13335586,-0.7005041,0.66375434,803.8461,797.3993,802.23444,818.7546,747.8388,-0.21533203125,0.0794677734375,0.9609375,4.433746337890625,-3.289794921875,1.786956787109375,1.0,1.0,4.0,1.0,1.0,100.0,event
13:29:47.471,1.4709929,0.6887135,1.403144,1.1654491,1.1786646,-0.25241026,0.57204676,0.9936233,0.91129756,0.018393148,0.20339257,0.60844886,1.047943,0.2989442,-0.24216111,0.6758433,0.7298363,-0.13335586,-0.7005041,0.66375434,781.28204,1077.033,804.2491,819.5604,742.6007,-0.2646484375,0.082763671875,0.9559326171875,4.433746337890625,-1.39068603515625,2.564544677734375,1.0,1.0,4.0,1.0,1.0,100.0,event
13:29:47.472,1.4709929,0.6887135,1.403144,1.1654491,1.1786646,-0.25241026,0.57204676,0.9936233,0.91129756,0.018393148,0.20339257,0.60844886,1.047943,0.2989442,-0.24216111,0.6758433,0.7298363,-0.13335586,-0.7005041,0.66375434,779.2674,1106.8499,802.6374,789.7436,747.03296,-0.2646484375,0.082763671875,0.9559326171875,4.433746337890625,-1.39068603515625,2.564544677734375,1.0,1.0,4.0,1.0,1.0,100.0,event
13:29:47.473,1.4709929,0.6887135,1.403144,1.1654491,1.1786646,-0.25241026,0.57204676,0.9936233,0.91129756,0.018393148,0.20339257,0.60844886,1.047943,0.2989442,-0.24216111,0.6758433,0.7298363,-0.13335586,-0.7005041,0.66375434,793.36993,865.89746,805.4579,806.6667,790.9524,-0.2646484375,0.082763671875,0.9559326171875,4.433746337890625,-1.39068603515625,2.564544677734375,1.0,1.0,4.0,1.0,1.0,100.0,event
13:29:47.474,1.4709929,0.6887135,1.403144,1.1654491,1.1786646,-0.25241026,0.57204676,0.9936233,0.91129756,0.018393148,0.20339257,0.60844886,1.047943,0.2989442,-0.24216111,0.6758433,0.7298363,-0.13335586,-0.7005041,0.66375434,803.8461,941.6484,810.293,834.0659,809.89014,-0.2646484375,0.082763671875,0.9559326171875,4.433746337890625,-1.39068603515625,2.564544677734375,1.0,1.0,4.0,1.0,1.0,100.0,event
13:29:47.474,1.4709929,0.6887135,1.403144,1.1654491,1.1786646,-0.25241026,0.57204676,0.9936233,0.91129756,0.018393148,0.20339257,0.60844886,1.047943,0.2989442,-0.24216111,0.6758433,0.7298363,-0.13335586,-0.7005041,0.66375434,786.1172,1119.7435,808.2784,805.4579,740.58606,-0.2646484375,0.082763671875,0.9559326171875,4.433746337890625,-1.39068603515625,2.564544677734375,1.0,1.0,4.0,1.0,1.0,100.0,event
13:29:47.475,1.4709929,0.6887135,1.403144,1.1654491,1.1786646,-0.25241026,0.57204676,0.9936233,0.91129756,0.018393148,0.20339257,0.60844886,1.047943,0.2989442,-0.24216111,0.6758433,0.7298363,-0.13335586,-0.7005041,0.66375434,777.6557,951.7216,809.0842,802.6374,809.0842,-0.2646484375,0.082763671875,0.9559326171875,4.433746337890625,-1.39068603515625,2.564544677734375,1.0,1.0,4.0,1.0,1.0,100.0,event
13:29:47.476,1.4709929,0.6887135,1.403144,1.1654491,1.1786646,-0.25241026,0.57204676,0.9936233,0.91129756,0.018393148,0.20339257,0.60844886,1.047943,0.2989442,-0.24216111,0.6758433,0.7298363,-0.13335586,-0.7005041,0.66375434,780.87915,394.06595,809.0842,800.6227,1061.3187,-0.2646484375,0.082763671875,0.9559326171875,4.433746337890625,-1.39068603515625,2.564544677734375,1.0,1.0,4.0,1.0,1.0,100.0,event
13:29:47.476,1.4709929,0.6887135,1.3855035,1.1654491,1.1786646,-0.25241026,0.78712726,0.9936233,0.91129756,0.018393148,0.32994503,0.60844886,1.047943,0.2989442,-0.21495833,0.6758433,0.7298363,-0.13335586,-0.6827805,0.66375434,775.64105,180.91576,805.8608,788.1319,1041.1721,-0.2646484375,0.082763671875,0.9559326171875,4.433746337890625,-1.39068603515625,2.564544677734375,1.0,1.0,4.0,1.0,1.0,100.0,event
13:29:47.480,1.4709929,0.6887135,1.3855035,1.1654491,1.1786646,-0.25241026,0.78712726,0.9936233,0.91129756,0.018393148,0.32994503,0.60844886,1.047943,0.2989442,-0.21495833,0.6758433,0.7298363,-0.13335586,-0.6827805,0.66375434,772.4176,917.8755,813.1135,786.9231,724.4689,-0.2646484375,0.082763671875,0.9559326171875,4.433746337890625,-1.39068603515625,2.564544677734375,1.0,1.0,4.0,1.0,1.0,100.0,event
13:29:47.481,1.4709929,0.6887135,1.3855035,1.1654491,1.1786646,-0.25241026,0.78712726,0.9936233,0.91129756,0.018393148,0.32994503,0.60844886,1.047943,0.2989442,-0.21495833,0.6758433,0.7298363,-0.13335586,-0.6827805,0.66375434,791.75824,1146.7399,813.91943,790.14655,703.91943,-0.2646484375,0.082763671875,0.9559326171875,4.433746337890625,-1.39068603515625,2.564544677734375,1.0,1.0,4.0,1.0,1.0,100.0,event
13:29:47.482,1.4709929,0.6887135,1.3855035,1.1654491,1.1786646,-0.25241026,0.78712726,0.9936233,0.91129756,0.018393148,0.32994503,0.60844886,1.047943,0.2989442,-0.21495833,0.6758433,0.7298363,-0.13335586,-0.6827805,0.66375434,814.7253,780.07324,807.47253,789.7436,831.6484,-0.2646484375,0.082763671875,0.9559326171875,4.433746337890625,-1.39068603515625,2.564544677734375,1.0,1.0,4.0,1.0,1.0,100.0,event
13:29:47.482,1.4709929,0.6887135,1.3855035,1.1654491,1.1786646,-0.25241026,0.78712726,0.9936233,0.91129756,0.018393148,0.32994503,0.60844886,1.047943,0.2989442,-0.21495833,0.6758433,0.7298363,-0.13335586,-0.6827805,0.66375434,812.71063,862.674,808.68134,786.52014,799.011,-0.2646484375,0.082763671875,0.9559326171875,4.433746337890625,-1.39068603515625,2.564544677734375,1.0,1.0,4.0,1.0,1.0,100.0,event
13:29:47.506,1.4709929,0.6887135,1.3855035,1.1654491,1.1786646,-0.25241026,0.78712726,0.9936233,0.91129756,0.018393148,0.32994503,0.60844886,1.047943,0.2989442,-0.21495833,0.6758433,0.7298363,-0.13335586,-0.6827805,0.66375434,800.2198,1136.6666,811.9048,788.5348,672.8938,-0.22882080078125,0.08984375,0.95703125,4.867401123046875,-3.22998046875,1.2860107421875,1.0,1.0,4.0,1.0,1.0,100.0,event
13:29:47.507,1.4709929,0.6887135,1.3855035,1.1654491,1.1786646,-0.25241026,0.78712726,0.9936233,0.91129756,0.018393148,0.32994503,0.60844886,1.047943,0.2989442,-0.21495833,0.6758433,0.7298363,-0.13335586,-0.6827805,0.66375434,801.8315,997.25275,813.5165,795.78754,683.7729,-0.22882080078125,0.08984375,0.95703125,4.867401123046875,-3.22998046875,1.2860107421875,1.0,1.0,4.0,1.0,1.0,100.0,event
13:29:47.508,1.4709929,0.6887135,1.3855035,1.1654491,1.1786646,-0.25241026,0.78712726,0.9936233,0.91129756,0.018393148,0.32994503,0.60844886,1.047943,0.2989442,-0.21495833,0.6758433,0.7298363,-0.13335586,-0.6827805,0.66375434,798.20514,924.3223,811.0989,801.02563,796.5934,-0.22882080078125,0.08984375,0.95703125,4.867401123046875,-3.22998046875,1.2860107421875,1.0,1.0,4.0,1.0,1.0,100.0,event
13:29:47.509,1.4709929,0.6887135,1.3855035,1.1654491,1.1786646,-0.25241026,0.78712726,0.9936233,0.91129756,0.018393148,0.32994503,0.60844886,1.047943,0.2989442,-0.21495833,0.6758433,0.7298363,-0.13335586,-0.6827805,0.66375434,791.75824,1066.9597,809.89014,794.17584,795.78754,-0.22882080078125,0.08984375,0.95703125,4.867401123046875,-3.22998046875,1.2860107421875,1.0,1.0,4.0,1.0,1.0,100.0,event
13:29:47.510,1.4709929,0.6887135,1.3855035,1.1654491,1.1786646,-0.25241026,0.78712726,0.9936233,0.91129756,0.018393148,0.32994503,0.60844886,1.047943,0.2989442,-0.21495833,0.6758433,0.7298363,-0.13335586,-0.6827805,0.66375434,799.81683,1088.3151,805.05493,792.1612,717.619,-0.22882080078125,0.08984375,0.95703125,4.867401123046875,-3.22998046875,1.2860107421875,1.0,1.0,4.0,1.0,1.0,100.0,event
13:29:47.510,1.4709929,0.6887135,1.3855035,1.1654491,1.1786646,-0.25241026,0.78712726,0.9936233,0.91129756,0.018393148,0.32994503,0.60844886,1.047943,0.2989442,-0.21495833,0.6758433,0.7298363,-0.13335586,-0.6827805,0.66375434,811.0989,701.9048,799.81683,802.23444,830.84247,-0.22882080078125,0.08984375,0.95703125,4.867401123046875,-3.22998046875,1.2860107421875,1.0,1.0,4.0,1.0,1.0,100.0,event
13:29:47.511,1.4709929,0.6887135,1.3855035,1.1654491,1.1786646,-0.25241026,0.78712726,0.9936233,0.91129756,0.018393148,0.32994503,0.60844886,1.047943,0.2989442,-0.21495833,0.6758433,0.7298363,-0.13335586,-0.6827805,0.66375434,815.9341,338.86447,799.81683,804.2491,1035.5311,-0.22882080078125,0.08984375,0.95703125,4.867401123046875,-3.22998046875,1.2860107421875,1.0,1.0,4.0,1.0,1.0,100.0,event
13:29:47.512,1.4709929,0.6887135,1.3855035,1.1654491,1.1786646,-0.25241026,0.78712726,0.9936233,0.91129756,0.018393148,0.32994503,0.60844886,1.047943,0.2989442,-0.21495833,0.6758433,0.7298363,-0.13335586,-0.6827805,0.66375434,806.26373,827.2161,800.6227,809.89014,855.0183,-0.22882080078125,0.08984375,0.95703125,4.867401123046875,-3.22998046875,1.2860107421875,1.0,1.0,4.0,1.0,1.0,100.0,event
13:29:47.513,1.4709929,0.6887135,1.3855035,1.1654491,1.1786646,-0.25241026,0.78712726,0.9936233,0.91129756,0.018393148,0.32994503,0.60844886,1.047943,0.2989442,-0.21495833,0.6758433,0.7298363,-0.13335586,-0.6827805,0.66375434,803.44324,1176.1538,803.0403,796.5934,703.1135,-0.22882080078125,0.08984375,0.95703125,4.867401123046875,-3.22998046875,1.2860107421875,1.0,1.0,4.0,1.0,1.0,100.0,event
13:29:47.514,1.4709929,0.6887135,1.3855035,1.1654491,1.1786646,-0.25241026,0.78712726,0.9936233,0.91129756,0.018393148,0.32994503,0.60844886,1.047943,0.2989442,-0.21495833,0.6758433,0.7298363,-0.13335586,-0.6827805,0.66375434,785.31134,636.63007,802.23444,776.04395,845.7509,-0.22882080078125,0.08984375,0.95703125,4.867401123046875,-3.22998046875,1.2860107421875,1.0,1.0,4.0,1.0,1.0,100.0,event
13:29:47.514,1.4709929,0.6887135,1.3855035,1.1654491,1.1786646,-0.25241026,0.78712726,0.9936233,0.91129756,0.018393148,0.32994503,0.60844886,1.047943,0.2989442,-0.21495833,0.6758433,0.7298363,-0.13335586,-0.6827805,0.66375434,768.3883,284.46887,801.02563,781.685,929.9634,-0.22882080078125,0.08984375,0.95703125,4.867401123046875,-3.22998046875,1.2860107421875,1.0,1.0,4.0,1.0,1.0,100.0,event
13:29:47.516,1.4709929,0.6887135,1.3855035,1.1654491,1.1786646,-0.25241026,0.78712726,0.9936233,0.91129756,0.018393148,0.32994503,0.60844886,1.047943,0.2989442,-0.21495833,0.6758433,0.7298363,-0.13335586,-0.6827805,0.66375434,763.5531,894.5055,799.81683,789.34064,740.989,-0.22882080078125,0.08984375,0.95703125,4.867401123046875,-3.22998046875,1.2860107421875,1.0,1.0,4.0,1.0,1.0,100.0,event
13:29:47.582,1.4709929,0.6887135,1.3855035,1.1654491,1.1786646,-0.25241026,0.78712726,0.9936233,0.91129756,0.018393148,0.32994503,0.60844886,1.047943,0.2989442,-0.21495833,0.6758433,0.7298363,-0.13335586,-0.6827805,0.66375434,781.685,1159.6337,798.60803,799.41394,658.7912,-0.239990234375,0.09051513671875,0.9609375,3.192596435546875,-0.321502685546875,1.323394775390625,1.0,1.0,4.0,1.0,1.0,100.0,event
13:29:47.583,1.4709929,0.6887135,1.3855035,1.1654491,1.1786646,-0.25241026,0.78712726,0.9936233,0.91129756,0.018393148,0.32994503,0.60844886,1.047943,0.2989442,-0.21495833,0.6758433,0.7298363,-0.13335586,-0.6827805,0.66375434,789.7436,913.8461,794.9817,802.6374,756.7033,-0.239990234375,0.09051513671875,0.9609375,3.192596435546875,-0.321502685546875,1.323394775390625,1.0,1.0,4.0,1.0,1.0,100.0,event
13:29:47.585,1.4709929,0.6887135,1.3855035,1.1654491,1.1786646,-0.25241026,0.78712726,0.9936233,0.91129756,0.018393148,0.32994503,0.60844886,1.047943,0.2989442,-0.21495833,0.6758433,0.7298363,-0.13335586,-0.6827805,0.66375434,779.2674,897.326,792.1612,790.54944,801.8315,-0.239990234375,0.09051513671875,0.9609375,3.192596435546875,-0.321502685546875,1.323394775390625,1.0,1.0,4.0,1.0,1.0,100.0,event
13:29:47.585,1.4709929,0.6887135,1.3855035,1.1654491,1.1786646,-0.25241026,0.78712726,0.9936233,0.91129756,0.018393148,0.32994503,0.60844886,1.047943,0.2989442,-0.21495833,0.6758433,0.7298363,-0.13335586,-0.6827805,0.66375434,794.17584,1083.8828,792.1612,788.93774,772.01465,-0.239990234375,0.09051513671875,0.9609375,3.192596435546875,-0.321502685546875,1.323394775390625,1.0,1.0,4.0,1.0,1.0,100.0,event
13:29:47.586,1.4709929,0.6887135,1.3855035,1.1654491,1.1786646,-0.25241026,0.78712726,0.9936233,0.91129756,0.018393148,0.32994503,0.60844886,1.047943,0.2989442,-0.21495833,0.6758433,0.7298363,-0.13335586,-0.6827805,0.66375434,794.9817,1073.4066,794.57874,796.1905,738.1685,-0.239990234375,0.09051513671875,0.9609375,3.192596435546875,-0.321502685546875,1.323394775390625,1.0,1.0,4.0,1.0,1.0,100.0,event
13:29:47.587,1.4709929,0.6887135,1.3855035,1.1654491,1.1786646,-0.25241026,0.78712726,0.9936233,0.91129756,0.018393148,0.32994503,0.60844886,1.047943,0.2989442,-0.21495833,0.6758433,0.7298363,-0.13335586,-0.6827805,0.66375434,787.326,821.978,795.38464,801.8315,919.89014,-0.239990234375,0.09051513671875,0.9609375,3.192596435546875,-0.321502685546875,1.323394775390625,1.0,1.0,4.0,1.0,1.0,100.0,event
13:29:47.588,1.4709929,0.6887135,1.3855035,1.1654491,1.1786646,-0.25241026,0.78712726,0.9936233,0.91129756,0.018393148,0.32994503,0.60844886,1.047943,0.2989442,-0.21495833,0.6758433,0.7298363,-0.13335586,-0.6827805,0.66375434,785.7143,651.53845,792.96704,799.41394,985.9707,-0.239990234375,0.09051513671875,0.9609375,3.192596435546875,-0.321502685546875,1.323394775390625,1.0,1.0,4.0,1.0,1.0,100.0,event
13:29:47.589,1.4709929,0.6887135,1.3855035,1.1654491,1.1786646,-0.25241026,0.78712726,0.9936233,0.91129756,0.018393148,0.32994503,0.60844886,1.047943,0.2989442,-0.21495833,0.6758433,0.7298363,-0.13335586,-0.6827805,0.66375434,783.2967,842.52747,792.5641,802.23444,761.9414,-0.239990234375,0.09051513671875,0.9609375,3.192596435546875,-0.321502685546875,1.323394775390625,1.0,1.0,4.0,1.0,1.0,100.0,event
13:29:47.590,1.4709929,0.6887135,1.3855035,1.1654491,1.1786646,-0.25241026,0.78712726,0.9936233,0.91129756,0.018393148,0.32994503,0.60844886,1.047943,0.2989442,-0.21495833,0.6758433,0.7298363,-0.13335586,-0.6827805,0.66375434,784.90845,1028.2784,792.96704,790.9524,694.2491,-0.239990234375,0.09051513671875,0.9609375,3.192596435546875,-0.321502685546875,1.323394775390625,1.0,1.0,4.0,1.0,1.0,100.0,event
13:29:47.591,1.4709929,0.6887135,1.3869777,1.1654491,1.1786646,-0.25241026,1.0051208,0.9936233,0.91129756,0.018393148,0.46351737,0.60844886,1.047943,0.2989442,-0.19837639,0.6758433,0.7298363,-0.13335586,-0.65085614,0.66375434,801.02563,488.75458,792.1612,785.31134,904.9817,-0.239990234375,0.09051513671875,0.9609375,3.192596435546875,-0.321502685546875,1.323394775390625,1.0,1.0,4.0,1.0,1.0,100.0,event
13:29:47.596,1.4709929,0.6887135,1.3869777,1.1654491,1.1786646,-0.25241026,1.0051208,0.9936233,0.91129756,0.018393148,0.46351737,0.60844886,1.047943,0.2989442,-0.19837639,0.6758433,0.7298363,-0.13335586,-0.65085614,0.66375434,804.2491,492.78387,792.5641,789.7436,877.5824,-0.239990234375,0.09051513671875,0.9609375,3.192596435546875,-0.321502685546875,1.323394775390625,1.0,1.0,4.0,1.0,1.0,100.0,event
13:29:47.597,1.4709929,0.6887135,1.3869777,1.1654491,1.1786646,-0.25241026,1.0051208,0.9936233,0.91129756,0.018393148,0.46351737,0.60844886,1.047943,0.2989442,-0.19837639,0.6758433,0.7298363,-0.13335586,-0.65085614,0.66375434,788.93774,1107.2528,795.38464,800.2198,737.76556,-0.239990234375,0.09051513671875,0.9609375,3.192596435546875,-0.321502685546875,1.323394775390625,1.0,1.0,4.0,1.0,1.0,100.0,event
13:29:47.625,1.4709929,0.6887135,1.3869777,1.1654491,1.1786646,-0.25241026,1.0051208,0.9936233,0.91129756,0.018393148,0.46351737,0.60844886,1.047943,0.2989442,-0.19837639,0.6758433,0.7298363,-0.13335586,-0.65085614,0.66375434,791.3553,856.2271,794.17584,806.26373,854.21246,-0.23394775390625,0.09173583984375,0.95550537109375,3.54400634765625,0.7177734375,2.385101318359375,1.0,1.0,4.0,1.0,1.0,100.0,event
13:29:47.626,1.4709929,0.6887135,1.3869777,1.1654491,1.1786646,-0.25241026,1.0051208,0.9936233,0.91129756,0.018393148,0.46351737,0.60844886,1.047943,0.2989442,-0.19837639,0.6758433,0.7298363,-0.13335586,-0.65085614,0.66375434,794.57874,564.5055,792.1612,800.6227,842.52747,-0.23394775390625,0.09173583984375,0.95550537109375,3.54400634765625,0.7177734375,2.385101318359375,1.0,1.0,4.0,1.0,1.0,100.0,event
13:29:47.627,1.4709929,0.6887135,1.3869777,1.1654491,1.1786646,-0.25241026,1.0051208,0.9936233,0.91129756,0.018393148,0.46351737,0.60844886,1.047943,0.2989442,-0.19837639,0.6758433,0.7298363,-0.13335586,-0.65085614,0.66375434,777.6557,854.21246,793.7729,803.8461,729.707,-0.23394775390625,0.09173583984375,0.95550537109375,3.54400634765625,0.7177734375,2.385101318359375,1.0,1.0,4.0,1.0,1.0,100.0,event
13:29:47.628,1.4709929,0.6887135,1.3869777,1.1654491,1.1786646,-0.25241026,1.0051208,0.9936233,0.91129756,0.018393148,0.46351737,0.60844886,1.047943,0.2989442,-0.19837639,0.6758433,0.7298363,-0.13335586,-0.65085614,0.66375434,800.2198,1170.9158,792.96704,806.26373,710.3663,-0.23394775390625,0.09173583984375,0.95550537109375,3.54400634765625,0.7177734375,2.385101318359375,1.0,1.0,4.0,1.0,1.0,100.0,event
13:29:47.629,1.4709929,0.6887135,1.3869777,1.1654491,1.1786646,-0.25241026,1.0051208,0.9936233,0.91129756,0.018393148,0.46351737,0.60844886,1.047943,0.2989442,-0.19837639,0.6758433,0.7298363,-0.13335586,-0.65085614,0.66375434,812.3077,647.9121,794.9817,787.326,844.1392,-0.23394775390625,0.09173583984375,0.95550537109375,3.54400634765625,0.7177734375,2.385101318359375,1.0,1.0,4.0,1.0,1.0,100.0,event
13:29:47.629,1.4709929,0.6887135,1.3869777,1.1654491,1.1786646,-0.25241026,1.0051208,0.9936233,0.91129756,0.018393148,0.46351737,0.60844886,1.047943,0.2989442,-0.19837639,0.6758433,0.7298363,-0.13335586,-0.65085614,0.66375434,811.0989,992.8205,792.5641,791.75824,796.99634,-0.23394775390625,0.09173583984375,0.95550537109375,3.54400634765625,0.7177734375,2.385101318359375,1.0,1.0,4.0,1.0,1.0,100.0,event
13:29:47.630,1.4709929,0.6887135,1.3869777,1.1654491,1.1786646,-0.25241026,1.0051208,0.9936233,0.91129756,0.018393148,0.46351737,0.60844886,1.047943,0.2989442,-0.19837639,0.6758433,0.7298363,-0.13335586,-0.65085614,0.66375434,801.4286,664.0293,793.36993,783.2967,891.685,-0.23394775390625,0.09173583984375,0.95550537109375,3.54400634765625,0.7177734375,2.385101318359375,1.0,1.0,4.0,1.0,1.0,100.0,event
13:29:47.631,1.4709929,0.6887135,1.3869777,1.1654491,1.1786646,-0.25241026,1.0051208,0.9936233,0.91129756,0.018393148,0.46351737,0.60844886,1.047943,0.2989442,-0.19837639,0.6758433,0.7298363,-0.13335586,-0.65085614,0.66375434,774.43225,1011.75824,794.9817,790.14655,826.0073,-0.23394775390625,0.09173583984375,0.95550537109375,3.54400634765625,0.7177734375,2.385101318359375,1.0,1.0,4.0,1.0,1.0,100.0,event
13:29:47.632,1.4709929,0.6887135,1.3869777,1.1654491,1.1786646,-0.25241026,1.0051208,0.9936233,0.91129756,0.018393148,0.46351737,0.60844886,1.047943,0.2989442,-0.19837639,0.6758433,0.7298363,-0.13335586,-0.65085614,0.66375434,799.011,918.68134,801.02563,810.293,866.30035,-0.23394775390625,0.09173583984375,0.95550537109375,3.54400634765625,0.7177734375,2.385101318359375,1.0,1.0,4.0,1.0,1.0,100.0,event
13:29:47.633,1.4709929,0.6887135,1.3869777,1.1654491,1.1786646,-0.25241026,1.0051208,0.9936233,0.91129756,0.018393148,0.46351737,0.60844886,1.047943,0.2989442,-0.19837639,0.6758433,0.7298363,-0.13335586,-0.65085614,0.66375434,807.8755,349.7436,801.02563,805.8608,1063.3334,-0.23394775390625,0.09173583984375,0.95550537109375,3.54400634765625,0.7177734375,2.385101318359375,1.0,1.0,4.0,1.0,1.0,100.0,event
13:29:47.634,1.4709929,0.6887135,1.3869777,1.1654491,1.1786646,-0.25241026,1.0051208,0.9936233,0.91129756,0.018393148,0.46351737,0.60844886,1.047943,0.2989442,-0.19837639,0.6758433,0.7298363,-0.13335586,-0.65085614,0.66375434,807.8755,738.5714,796.99634,804.65204,861.06226,-0.23394775390625,0.09173583984375,0.95550537109375,3.54400634765625,0.7177734375,2.385101318359375,1.0,1.0,4.0,1.0,1.0,100.0,event
13:29:47.635,1.4709929,0.6887135,1.3869777,1.1654491,1.1786646,-0.25241026,1.0051208,0.9936233,0.91129756,0.018393148,0.46351737,0.60844886,1.047943,0.2989442,-0.19837639,0.6758433,0.7298363,-0.13335586,-0.65085614,0.66375434,812.71063,1064.9451,798.60803,805.8608,655.9707,-0.23394775390625,0.09173583984375,0.95550537109375,3.54400634765625,0.7177734375,2.385101318359375,1.0,1.0,4.0,1.0,1.0,100.0,event
13:29:47.660,1.4709929,0.6887135,1.3869777,1.1654491,1.1786646,-0.25241026,1.0051208,0.9936233,0.91129756,0.018393148,0.46351737,0.60844886,1.047943,0.2989442,-0.19837639,0.6758433,0.7298363,-0.13335586,-0.65085614,0.66375434,802.23444,809.4872,799.41394,800.2198,684.57874,-0.23394775390625,0.09173583984375,0.95550537109375,3.54400634765625,0.7177734375,2.385101318359375,1.0,1.0,4.0,1.0,1.0,100.0,event
13:29:47.661,1.4709929,0.6887135,1.3869777,1.1654491,1.1786646,-0.25241026,1.0051208,0.9936233,0.91129756,0.018393148,0.46351737,0.60844886,1.047943,0.2989442,-0.19837639,0.6758433,0.7298363,-0.13335586,-0.65085614,0.66375434,805.8608,892.8938,800.6227,794.9817,712.381,-0.23394775390625,0.09173583984375,0.95550537109375,3.54400634765625,0.7177734375,2.385101318359375,1.0,1.0,4.0,1.0,1.0,100.0,event
13:29:47.662,1.4709929,0.6887135,1.3869777,1.1654491,1.1786646,-0.25241026,1.0051208,0.9936233,0.91129756,0.018393148,0.46351737,0.60844886,1.047943,0.2989442,-0.19837639,0.6758433,0.7298363,-0.13335586,-0.65085614,0.66375434,815.5311,1160.4396,803.0403,802.23444,768.7912,-0.23394775390625,0.09173583984375,0.95550537109375,3.54400634765625,0.7177734375,2.385101318359375,1.0,1.0,4.0,1.0,1.0,100.0,event
13:29:47.663,1.4709929,0.6887135,1.3869777,1.1654491,1.1786646,-0.25241026,1.0051208,0.9936233,0.91129756,0.018393148,0.46351737,0.60844886,1.047943,0.2989442,-0.19837639,0.6758433,0.7298363,-0.13335586,-0.65085614,0.66375434,808.68134,970.65936,804.2491,812.3077,846.55676,-0.23394775390625,0.09173583984375,0.95550537109375,3.54400634765625,0.7177734375,2.385101318359375,1.0,1.0,4.0,1.0,1.0,100.0,event
13:29:47.664,1.4709929,0.6887135,1.3869777,1.1654491,1.1786646,-0.25241026,1.0051208,0.9936233,0.91129756,0.018393148,0.46351737,0.60844886,1.047943,0.2989442,-0.19837639,0.6758433,0.7298363,-0.13335586,-0.65085614,0.66375434,785.31134,534.2857,803.44324,800.6227,888.46155,-0.23394775390625,0.09173583984375,0.95550537109375,3.54400634765625,0.7177734375,2.385101318359375,1.0,1.0,4.0,1.0,1.0,100.0,event
13:29:47.664,1.4709929,0.6887135,1.3869777,1.1654491,1.1786646,-0.25241026,1.0051208,0.9936233,0.91129756,0.018393148,0.46351737,0.60844886,1.047943,0.2989442,-0.19837639,0.6758433,0.7298363,-0.13335586,-0.65085614,0.66375434,778.0586,516.9597,801.4286,789.34064,855.42126,-0.23394775390625,0.09173583984375,0.95550537109375,3.54400634765625,0.7177734375,2.385101318359375,1.0,1.0,4.0,1.0,1.0,100.0,event
13:29:47.665,1.4709929,0.6887135,1.3869777,1.1654491,1.1786646,-0.25241026,1.0051208,0.9936233,0.91129756,0.018393148,0.46351737,0.60844886,1.047943,0.2989442,-0.19837639,0.6758433,0.7298363,-0.13335586,-0.65085614,0.66375434,791.75824,696.6667,803.8461,813.91943,778.0586,-0.23394775390625,0.09173583984375,0.95550537109375,3.54400634765625,0.7177734375,2.385101318359375,1.0,1.0,4.0,1.0,1.0,100.0,event
13:29:47.666,1.4709929,0.6887135,1.3869777,1.1654491,1.1786646,-0.25241026,1.0051208,0.9936233,0.91129756,0.018393148,0.46351737,0.60844886,1.047943,0.2989442,-0.19837639,0.6758433,0.7298363,-0.13335586,-0.65085614,0.66375434,793.7729,838.9011,805.8608,832.0513,772.01465,-0.23394775390625,0.09173583984375,0.95550537109375,3.54400634765625,0.7177734375,2.385101318359375,1.0,1.0,4.0,1.0,1.0,100.0,event
13:29:47.667,1.4709929,0.6887135,1.3869777,1.1654491,1.1786646,-0.25241026,1.0051208,0.9936233,0.91129756,0.018393148,0.46351737,0.60844886,1.047943,0.2989442,-0.19837639,0.6758433,0.7298363,-0.13335586,-0.65085614,0.66375434,801.8315,467.8022,804.65204,813.5165,1023.44324,-0.23394775390625,0.09173583984375,0.95550537109375,3.54400634765625,0.7177734375,2.385101318359375,1.0,1.0,4.0,1.0,1.0,100.0,event
13:29:47.667,1.4709929,0.6887135,1.3869777,1.1654491,1.1786646,-0.25241026,1.0051208,0.9936233,0.91129756,0.018393148,0.46351737,0.60844886,1.047943,0.2989442,-0.19837639,0.6758433,0.7298363,-0.13335586,-0.65085614,0.66375434,810.293,237.72894,806.6667,807.0696,1051.6483,-0.23394775390625,0.09173583984375,0.95550537109375,3.54400634765625,0.7177734375,2.385101318359375,1.0,1.0,4.0,1.0,1.0,100.0,event
13:29:47.668,1.4709929,0.6887135,1.3869777,1.1654491,1.1786646,-0.25241026,1.0051208,0.9936233,0.91129756,0.018393148,0.46351737,0.60844886,1.047943,0.2989442,-0.19837639,0.6758433,0.7298363,-0.13335586,-0.65085614,0.66375434,815.9341,953.73627,806.6667,814.3223,700.696,-0.23394775390625,0.09173583984375,0.95550537109375,3.54400634765625,0.7177734375,2.385101318359375,1.0,1.0,4.0,1.0,1.0,100.0,event
13:29:47.669,1.4709929,0.6887135,1.3792297,1.1654491,1.1786646,-0.25241026,1.1087584,0.9936233,0.91129756,0.018393148,0.4995451,0.60844886,1.047943,0.2989442,-0.19725172,0.6758433,0.7298363,-0.13335586,-0.61116046,0.66375434,813.5165,1052.4542,805.8608,807.0696,635.42126,-0.23394775390625,0.09173583984375,0.95550537109375,3.54400634765625,0.7177734375,2.385101318359375,1.0,1.0,4.0,1.0,1.0,100.0,event
13:29:47.696,1.4709929,0.6887135,1.3792297,1.1654491,1.1786646,-0.25241026,1.1087584,0.9936233,0.91129756,0.018393148,0.4995451,0.60844886,1.047943,0.2989442,-0.19725172,0.6758433,0.7298363,-0.13335586,-0.61116046,0.66375434,807.8755,877.5824,807.0696,799.81683,693.8461,-0.2618408203125,0.09375,0.95281982421875,2.983245849609375,-0.276641845703125,1.21124267578125,1.0,1.0,4.0,1.0,1.0,100.0,event
13:29:47.697,1.4709929,0.6887135,1.3792297,1.1654491,1.1786646,-0.25241026,1.1087584,0.9936233,0.91129756,0.018393148,0.4995451,0.60844886,1.047943,0.2989442,-0.19725172,0.6758433,0.7298363,-0.13335586,-0.61116046,0.66375434,807.8755,1025.4579,807.8755,809.89014,684.17584,-0.2618408203125,0.09375,0.95281982421875,2.983245849609375,-0.276641845703125,1.21124267578125,1.0,1.0,4.0,1.0,1.0,100.0,event
13:29:47.698,1.4709929,0.6887135,1.3792297,1.1654491,1.1786646,-0.25241026,1.1087584,0.9936233,0.91129756,0.018393148,0.4995451,0.60844886,1.047943,0.2989442,-0.19725172,0.6758433,0.7298363,-0.13335586,-0.61116046,0.66375434,796.99634,1079.0476,806.26373,809.0842,620.10986,-0.2618408203125,0.09375,0.95281982421875,2.983245849609375,-0.276641845703125,1.21124267578125,1.0,1.0,4.0,1.0,1.0,100.0,event
13:29:47.699,1.4709929,0.6887135,1.3792297,1.1654491,1.1786646,-0.25241026,1.1087584,0.9936233,0.91129756,0.018393148,0.4995451,0.60844886,1.047943,0.2989442,-0.19725172,0.6758433,0.7298363,-0.13335586,-0.61116046,0.66375434,793.7729,889.67035,805.05493,797.8022,669.67035,-0.2618408203125,0.09375,0.95281982421875,2.983245849609375,-0.276641845703125,1.21124267578125,1.0,1.0,4.0,1.0,1.0,100.0,event
13:29:47.700,1.4709929,0.6887135,1.3792297,1.1654491,1.1786646,-0.25241026,1.1087584,0.9936233,0.91129756,0.018393148,0.4995451,0.60844886,1.047943,0.2989442,-0.19725172,0.6758433,0.7298363,-0.13335586,-0.61116046,0.66375434,799.011,831.6484,806.26373,801.02563,749.85345,-0.2618408203125,0.09375,0.95281982421875,2.983245849609375,-0.276641845703125,1.21124267578125,1.0,1.0,4.0,1.0,1.0,100.0,event
13:29:47.701,1.4709929,0.6887135,1.3792297,1.1654491,1.1786646,-0.25241026,1.1087584,0.9936233,0.91129756,0.018393148,0.4995451,0.60844886,1.047943,0.2989442,-0.19725172,0.6758433,0.7298363,-0.13335586,-0.61116046,0.66375434,793.7729,864.2857,809.0842,800.6227,790.9524,-0.2618408203125,0.09375,0.95281982421875,2.983245849609375,-0.276641845703125,1.21124267578125,1.0,1.0,4.0,1.0,1.0,100.0,event
13:29:47.702,1.4709929,0.6887135,1.3792297,1.1654491,1.1786646,-0.25241026,1.1087584,0.9936233,0.91129756,0.018393148,0.4995451,0.60844886,1.047943,0.2989442,-0.19725172,0.6758433,0.7298363,-0.13335586,-0.61116046,0.66375434,799.011,834.0659,813.5165,800.6227,861.06226,-0.2618408203125,0.09375,0.95281982421875,2.983245849609375,-0.276641845703125,1.21124267578125,1.0,1.0,4.0,1.0,1.0,100.0,event
13:29:47.703,1.4709929,0.6887135,1.3792297,1.1654491,1.1786646,-0.25241026,1.1087584,0.9936233,0.91129756,0.018393148,0.4995451,0.60844886,1.047943,0.2989442,-0.19725172,0.6758433,0.7298363,-0.13335586,-0.61116046,0.66375434,807.0696,691.02563,812.71063,802.23444,910.2198,-0.2618408203125,0.09375,0.95281982421875,2.983245849609375,-0.276641845703125,1.21124267578125,1.0,1.0,4.0,1.0,1.0,100.0,event
13:29:47.704,1.4709929,0.6887135,1.3792297,1.1654491,1.1786646,-0.25241026,1.1087584,0.9936233,0.91129756,0.018393148,0.4995451,0.60844886,1.047943,0.2989442,-0.19725172,0.6758433,0.7298363,-0.13335586,-0.61116046,0.66375434,803.44324,66.886444,809.4872,805.4579,1076.63,-0.2618408203125,0.09375,0.95281982421875,2.983245849609375,-0.276641845703125,1.21124267578125,1.0,1.0,4.0,1.0,1.0,100.0,event
13:29:47.705,1.4709929,0.6887135,1.3792297,1.1654491,1.1786646,-0.25241026,1.1087584,0.9936233,0.91129756,0.018393148,0.4995451,0.60844886,1.047943,0.2989442,-0.19725172,0.6758433,0.7298363,-0.13335586,-0.61116046,0.66375434,806.6667,375.53113,807.8755,797.3993,946.8865,-0.2618408203125,0.09375,0.95281982421875,2.983245849609375,-0.276641845703125,1.21124267578125,1.0,1.0,4.0,1.0,1.0,100.0,event
13:29:47.706,1.4709929,0.6887135,1.3792297,1.1654491,1.1786646,-0.25241026,1.1087584,0.9936233,0.91129756,0.018393148,0.4995451,0.60844886,1.047943,0.2989442,-0.19725172,0.6758433,0.7298363,-0.13335586,-0.61116046,0.66375434,798.20514,1163.2601,810.293,796.99634,702.71063,-0.2618408203125,0.09375,0.95281982421875,2.983245849609375,-0.276641845703125,1.21124267578125,1.0,1.0,4.0,1.0,1.0,100.0,event
13:29:47.707,1.4709929,0.6887135,1.3792297,1.1654491,1.1786646,-0.25241026,1.1087584,0.9936233,0.91129756,0.018393148,0.4995451,0.60844886,1.047943,0.2989442,-0.19725172,0.6758433,0.7298363,-0.13335586,-0.61116046,0.66375434,809.0842,1031.9048,812.3077,810.293,785.7143,-0.2618408203125,0.09375,0.95281982421875,2.983245849609375,-0.276641845703125,1.21124267578125,1.0,1.0,4.0,1.0,1.0,100.0,event
13:29:47.729,1.4709929,0.6887135,1.3792297,1.1654491,1.1786646,-0.25241026,1.1087584,0.9936233,0.91129756,0.018393148,0.4995451,0.60844886,1.047943,0.2989442,-0.19725172,0.6758433,0.7298363,-0.13335586,-0.61116046,0.66375434,813.1135,983.5531,810.293,805.4579,799.011,-0.2633056640625,0.0960693359375,0.9549560546875,2.908477783203125,-1.278533935546875,0.25421142578125,1.0,1.0,4.0,1.0,1.0,100.0,event
13:29:47.730,1.4709929,0.6887135,1.3792297,1.1654491,1.1786646,-0.25241026,1.1087584,0.9936233,0.91129756,0.018393148,0.4995451,0.60844886,1.047943,0.2989442,-0.19725172,0.6758433,0.7298363,-0.13335586,-0.61116046,0.66375434,801.02563,1136.2638,807.8755,800.6227,700.293,-0.2633056640625,0.0960693359375,0.9549560546875,2.908477783203125,-1.278533935546875,0.25421142578125,1.0,1.0,4.0,1.0,1.0,100.0,event
13:29:47.731,1.4709929,0.6887135,1.3792297,1.1654491,1.1786646,-0.25241026,1.1087584,0.9936233,0.91129756,0.018393148,0.4995451,0.60844886,1.047943,0.2989442,-0.19725172,0.6758433,0.7298363,-0.13335586,-0.61116046,0.66375434,805.4579,1148.7546,808.68134,796.99634,712.381,-0.2633056640625,0.0960693359375,0.9549560546875,2.908477783203125,-1.278533935546875,0.25421142578125,1.0,1.0,4.0,1.0,1.0,100.0,event
13:29:47.732,1.4709929,0.6887135,1.3792297,1.1654491,1.1786646,-0.25241026,1.1087584,0.9936233,0.91129756,0.018393148,0.4995451,0.60844886,1.047943,0.2989442,-0.19725172,0.6758433,0.7298363,-0.13335586,-0.61116046,0.66375434,803.8461,1009.7436,809.4872,792.1612,799.81683,-0.2633056640625,0.0960693359375,0.9549560546875,2.908477783203125,-1.278533935546875,0.25421142578125,1.0,1.0,4.0,1.0,1.0,100.0,event
13:29:47.733,1.4709929,0.6887135,1.3792297,1.1654491,1.1786646,-0.25241026,1.1087584,0.9936233,0.91129756,0.018393148,0.4995451,0.60844886,1.047943,0.2989442,-0.19725172,0.6758433,0.7298363,-0.13335586,-0.61116046,0.66375434,804.2491,1013.36993,814.3223,812.3077,833.2601,-0.2633056640625,0.0960693359375,0.9549560546875,2.908477783203125,-1.278533935546875,0.25421142578125,1.0,1.0,4.0,1.0,1.0,100.0,event
13:29:47.734,1.4709929,0.6887135,1.3792297,1.1654491,1.1786646,-0.25241026,1.1087584,0.9936233,0.91129756,0.018393148,0.4995451,0.60844886,1.047943,0.2989442,-0.19725172,0.6758433,0.7298363,-0.13335586,-0.61116046,0.66375434,799.41394,960.18317,814.7253,823.5897,900.9524,-0.2633056640625,0.0960693359375,0.9549560546875,2.908477783203125,-1.278533935546875,0.25421142578125,1.0,1.0,4.0,1.0,1.0,100.0,event
13:29:47.735,1.4709929,0.6887135,1.3792297,1.1654491,1.1786646,-0.25241026,1.1087584,0.9936233,0.91129756,0.018393148,0.4995451,0.60844886,1.047943,0.2989442,-0.19725172,0.6758433,0.7298363,-0.13335586,-0.61116046,0.66375434,784.5055,841.31866,811.0989,810.293,857.4359,-0.2633056640625,0.0960693359375,0.9549560546875,2.908477783203125,-1.278533935546875,0.25421142578125,1.0,1.0,4.0,1.0,1.0,100.0,event
13:29:47.736,1.4709929,0.6887135,1.3792297,1.1654491,1.1786646,-0.25241026,1.1087584,0.9936233,0.91129756,0.018393148,0.4995451,0.60844886,1.047943,0.2989442,-0.19725172,0.6758433,0.7298363,-0.13335586,-0.61116046,0.66375434,779.67035,401.72162,813.5165,804.65204,899.7436,-0.2633056640625,0.0960693359375,0.9549560546875,2.908477783203125,-1.278533935546875,0.25421142578125,1.0,1.0,4.0,1.0,1.0,100.0,event
13:29:47.737,1.4709929,0.6887135,1.3792297,1.1654491,1.1786646,-0.25241026,1.1087584,0.9936233,0.91129756,0.018393148,0.4995451,0.60844886,1.047943,0.2989442,-0.19725172,0.6758433,0.7298363,-0.13335586,-0.61116046,0.66375434,780.07324,404.94507,814.3223,798.60803,907.3993,-0.2633056640625,0.0960693359375,0.9549560546875,2.908477783203125,-1.278533935546875,0.25421142578125,1.0,1.0,4.0,1.0,1.0,100.0,event
13:29:47.738,1.4709929,0.6887135,1.3792297,1.1654491,1.1786646,-0.25241026,1.1087584,0.9936233,0.91129756,0.018393148,0.4995451,0.60844886,1.047943,0.2989442,-0.19725172,0.6758433,0.7298363,-0.13335586,-0.61116046,0.66375434,805.8608,994.83514,811.9048,801.02563,790.9524,-0.2633056640625,0.0960693359375,0.9549560546875,2.908477783203125,-1.278533935546875,0.25421142578125,1.0,1.0,4.0,1.0,1.0,100.0,event
13:29:47.739,1.4709929,0.6887135,1.3792297,1.1654491,1.1786646,-0.25241026,1.1087584,0.9936233,0.91129756,0.018393148,0.4995451,0.60844886,1.047943,0.2989442,-0.19725172,0.6758433,0.7298363,-0.13335586,-0.61116046,0.66375434,800.6227,886.8498,810.293,794.17584,791.75824,-0.2633056640625,0.0960693359375,0.9549560546875,2.908477783203125,-1.278533935546875,0.25421142578125,1.0,1.0,4.0,1.0,1.0,100.0,event
13:29:47.740,1.4709929,0.6887135,1.3792297,1.1654491,1.1786646,-0.25241026,1.1087584,0.9936233,0.91129756,0.018393148,0.4995451,0.60844886,1.047943,0.2989442,-0.19725172,0.6758433,0.7298363,-0.13335586,-0.61116046,0.66375434,783.2967,551.2088,805.4579,791.75824,829.6337,-0.2633056640625,0.0960693359375,0.9549560546875,2.908477783203125,-1.278533935546875,0.25421142578125,1.0,1.0,4.0,1.0,1.0,100.0,event
13:29:47.789,1.4709929,0.6887135,1.3792297,1.1654491,1.1786646,-0.25241026,1.1087584,0.9936233,0.91129756,0.018393148,0.4995451,0.60844886,1.047943,0.2989442,-0.19725172,0.6758433,0.7298363,-0.13335586,-0.61116046,0.66375434,792.5641,811.50183,809.0842,789.7436,840.9158,-0.258544921875,0.0845947265625,0.95562744140625,3.072967529296875,-2.250518798828125,1.188812255859375,1.0,1.0,4.0,1.0,1.0,100.0,event
13:29:47.790,1.4709929,0.6887135,1.368967,1.1654491,1.1786646,-0.25241026,1.1519427,0.9936233,0.91129756,0.018393148,0.50200176,0.60844886,1.047943,0.2989442,-0.20789005,0.6758433,0.7298363,-0.13335586,-0.57427233,0.66375434,787.72894,1261.978,813.5165,788.93774,746.2271,-0.258544921875,0.0845947265625,0.95562744140625,3.072967529296875,-2.250518798828125,1.188812255859375,1.0,1.0,4.0,1.0,1.0,100.0,event
13:29:47.794,1.4709929,0.6887135,1.368967,1.1654491,1.1786646,-0.25241026,1.1519427,0.9936233,0.91129756,0.018393148,0.50200176,0.60844886,1.047943,0.2989442,-0.20789005,0.6758433,0.7298363,-0.13335586,-0.57427233,0.66375434,778.86444,1079.0476,814.7253,804.65204,800.2198,-0.258544921875,0.0845947265625,0.95562744140625,3.072967529296875,-2.250518798828125,1.188812255859375,1.0,1.0,4.0,1.0,1.0,100.0,event
13:29:47.795,1.4709929,0.6887135,1.368967,1.1654491,1.1786646,-0.25241026,1.1519427,0.9936233,0.91129756,0.018393148,0.50200176,0.60844886,1.047943,0.2989442,-0.20789005,0.6758433,0.7298363,-0.13335586,-0.57427233,0.66375434,809.89014,986.77655,815.9341,813.5165,868.71796,-0.258544921875,0.0845947265625,0.95562744140625,3.072967529296875,-2.250518798828125,1.188812255859375,1.0,1.0,4.0,1.0,1.0,100.0,event
13:29:47.795,1.4709929,0.6887135,1.368967,1.1654491,1.1786646,-0.25241026,1.1519427,0.9936233,0.91129756,0.018393148,0.50200176,0.60844886,1.047943,0.2989442,-0.20789005,0.6758433,0.7298363,-0.13335586,-0.57427233,0.66375434,821.978,1062.1245,814.7253,816.7399,809.0842,-0.258544921875,0.0845947265625,0.95562744140625,3.072967529296875,-2.250518798828125,1.188812255859375,1.0,1.0,4.0,1.0,1.0,100.0,event
13:29:47.796,1.4709929,0.6887135,1.368967,1.1654491,1.1786646,-0.25241026,1.1519427,0.9936233,0.91129756,0.018393148,0.50200176,0.60844886,1.047943,0.2989442,-0.20789005,0.6758433,0.7298363,-0.13335586,-0.57427233,0.66375434,790.54944,897.72894,819.5604,808.68134,768.3883,-0.258544921875,0.0845947265625,0.95562744140625,3.072967529296875,-2.250518798828125,1.188812255859375,1.0,1.0,4.0,1.0,1.0,100.0,event
13:29:47.797,1.4709929,0.6887135,1.368967,1.1654491,1.1786646,-0.25241026,1.1519427,0.9936233,0.91129756,0.018393148,0.50200176,0.60844886,1.047943,0.2989442,-0.20789005,0.6758433,0.7298363,-0.13335586,-0.57427233,0.66375434,794.57874,657.1795,821.5751,799.41394,871.9414,-0.258544921875,0.0845947265625,0.95562744140625,3.072967529296875,-2.250518798828125,1.188812255859375,1.0,1.0,4.0,1.0,1.0,100.0,event
13:29:47.797,1.4709929,0.6887135,1.368967,1.1654491,1.1786646,-0.25241026,1.1519427,0.9936233,0.91129756,0.018393148,0.50200176,0.60844886,1.047943,0.2989442,-0.20789005,0.6758433,0.7298363,-0.13335586,-0.57427233,0.66375434,805.8608,298.1685,818.3516,802.23444,1000.4762,-0.258544921875,0.0845947265625,0.95562744140625,3.072967529296875,-2.250518798828125,1.188812255859375,1.0,1.0,4.0,1.0,1.0,100.0,event
13:29:47.798,1.4709929,0.6887135,1.368967,1.1654491,1.1786646,-0.25241026,1.1519427,0.9936233,0.91129756,0.018393148,0.50200176,0.60844886,1.047943,0.2989442,-0.20789005,0.6758433,0.7298363,-0.13335586,-0.57427233,0.66375434,812.71063,688.60803,810.696,797.3993,780.07324,-0.258544921875,0.0845947265625,0.95562744140625,3.072967529296875,-2.250518798828125,1.188812255859375,1.0,1.0,4.0,1.0,1.0,100.0,event
13:29:47.798,1.4709929,0.6887135,1.368967,1.1654491,1.1786646,-0.25241026,1.1519427,0.9936233,0.91129756,0.018393148,0.50200176,0.60844886,1.047943,0.2989442,-0.20789005,0.6758433,0.7298363,-0.13335586,-0.57427233,0.66375434,822.7839,1096.7766,811.9048,790.9524,597.1429,-0.258544921875,0.0845947265625,0.95562744140625,3.072967529296875,-2.250518798828125,1.188812255859375,1.0,1.0,4.0,1.0,1.0,100.0,event
13:29:47.799,1.4709929,0.6887135,1.368967,1.1654491,1.1786646,-0.25241026,1.1519427,0.9936233,0.91129756,0.018393148,0.50200176,0.60844886,1.047943,0.2989442,-0.20789005,0.6758433,0.7298363,-0.13335586,-0.57427233,0.66375434,794.9817,863.8828,815.9341,797.8022,668.86444,-0.258544921875,0.0845947265625,0.95562744140625,3.072967529296875,-2.250518798828125,1.188812255859375,1.0,1.0,4.0,1.0,1.0,100.0,event
13:29:47.800,1.4709929,0.6887135,1.368967,1.1654491,1.1786646,-0.25241026,1.1519427,0.9936233,0.91129756,0.018393148,0.50200176,0.60844886,1.047943,0.2989442,-0.20789005,0.6758433,0.7298363,-0.13335586,-0.57427233,0.66375434,772.4176,963.00366,812.71063,799.81683,748.6447,-0.258544921875,0.0845947265625,0.95562744140625,3.072967529296875,-2.250518798828125,1.188812255859375,1.0,1.0,4.0,1.0,1.0,100.0,event
13:29:47.863,1.4709929,0.6887135,1.368967,1.1654491,1.1786646,-0.25241026,1.1519427,0.9936233,0.91129756,0.018393148,0.50200176,0.60844886,1.047943,0.2989442,-0.20789005,0.6758433,0.7298363,-0.13335586,-0.57427233,0.66375434,782.8938,1082.674,812.3077,796.1905,819.15753,-0.25518798828125,0.08599853515625,0.94171142578125,5.42816162109375,-2.056121826171875,-1.33087158203125,1.0,1.0,4.0,1.0,1.0,100.0,event
13:29:47.864,1.4709929,0.6887135,1.368967,1.1654491,1.1786646,-0.25241026,1.1519427,0.9936233,0.91129756,0.018393148,0.50200176,0.60844886,1.047943,0.2989442,-0.20789005,0.6758433,0.7298363,-0.13335586,-0.57427233,0.66375434,788.93774,1025.8608,817.5458,805.4579,840.5128,-0.25518798828125,0.08599853515625,0.94171142578125,5.42816162109375,-2.056121826171875,-1.33087158203125,1.0,1.0,4.0,1.0,1.0,100.0,event
13:29:47.865,1.4709929,0.6887135,1.368967,1.1654491,1.1786646,-0.25241026,1.1519427,0.9936233,0.91129756,0.018393148,0.50200176,0.60844886,1.047943,0.2989442,-0.20789005,0.6758433,0.7298363,-0.13335586,-0.57427233,0.66375434,800.6227,703.91943,816.337,812.3077,816.337,-0.25518798828125,0.08599853515625,0.94171142578125,5.42816162109375,-2.056121826171875,-1.33087158203125,1.0,1.0,4.0,1.0,1.0,100.0,event
13:29:47.866,1.4709929,0.6887135,1.368967,1.1654491,1.1786646,-0.25241026,1.1519427,0.9936233,0.91129756,0.018393148,0.50200176,0.60844886,1.047943,0.2989442,-0.20789005,0.6758433,0.7298363,-0.13335586,-0.57427233,0.66375434,796.1905,668.0586,814.3223,814.7253,776.04395,-0.25518798828125,0.08599853515625,0.94171142578125,5.42816162109375,-2.056121826171875,-1.33087158203125,1.0,1.0,4.0,1.0,1.0,100.0,event
13:29:47.866,1.4709929,0.6887135,1.368967,1.1654491,1.1786646,-0.25241026,1.1519427,0.9936233,0.91129756,0.018393148,0.50200176,0.60844886,1.047943,0.2989442,-0.20789005,0.6758433,0.7298363,-0.13335586,-0.57427233,0.66375434,782.0879,1024.652,814.3223,811.0989,682.96704,-0.25518798828125,0.08599853515625,0.94171142578125,5.42816162109375,-2.056121826171875,-1.33087158203125,1.0,1.0,4.0,1.0,1.0,100.0,event
13:29:47.867,1.4709929,0.6887135,1.368967,1.1654491,1.1786646,-0.25241026,1.1519427,0.9936233,0.91129756,0.018393148,0.50200176,0.60844886,1.047943,0.2989442,-0.20789005,0.6758433,0.7298363,-0.13335586,-0.57427233,0.66375434,786.9231,975.09155,811.50183,803.8461,775.64105,-0.25518798828125,0.08599853515625,0.94171142578125,5.42816162109375,-2.056121826171875,-1.33087158203125,1.0,1.0,4.0,1.0,1.0,100.0,event
13:29:47.868,1.4709929,0.6887135,1.368967,1.1654491,1.1786646,-0.25241026,1.1519427,0.9936233,0.91129756,0.018393148,0.50200176,0.60844886,1.047943,0.2989442,-0.20789005,0.6758433,0.7298363,-0.13335586,-0.57427233,0.66375434,793.36993,448.0586,810.696,787.326,1019.81683,-0.25518798828125,0.08599853515625,0.94171142578125,5.42816162109375,-2.056121826171875,-1.33087158203125,1.0,1.0,4.0,1.0,1.0,100.0,event
13:29:47.869,1.4709929,0.6887135,1.368967,1.1654491,1.1786646,-0.25241026,1.1519427,0.9936233,0.91129756,0.018393148,0.50200176,0.60844886,1.047943,0.2989442,-0.20789005,0.6758433,0.7298363,-0.13335586,-0.57427233,0.66375434,797.3993,259.48718,807.47253,781.28204,969.85345,-0.25518798828125,0.08599853515625,0.94171142578125,5.42816162109375,-2.056121826171875,-1.33087158203125,1.0,1.0,4.0,1.0,1.0,100.0,event
13:29:47.869,1.4709929,0.6887135,1.368967,1.1654491,1.1786646,-0.25241026,1.1519427,0.9936233,0.91129756,0.018393148,0.50200176,0.60844886,1.047943,0.2989442,-0.20789005,0.6758433,0.7298363,-0.13335586,-0.57427233,0.66375434,802.23444,974.68866,811.50183,792.96704,680.14655,-0.25518798828125,0.08599853515625,0.94171142578125,5.42816162109375,-2.056121826171875,-1.33087158203125,1.0,1.0,4.0,1.0,1.0,100.0,event
13:29:47.870,1.4709929,0.6887135,1.368967,1.1654491,1.1786646,-0.25241026,1.1519427,0.9936233,0.91129756,0.018393148,0.50200176,0.60844886,1.047943,0.2989442,-0.20789005,0.6758433,0.7298363,-0.13335586,-0.57427233,0.66375434,790.54944,1083.8828,816.337,807.8755,670.4762,-0.25518798828125,0.08599853515625,0.94171142578125,5.42816162109375,-2.056121826171875,-1.33087158203125,1.0,1.0,4.0,1.0,1.0,100.0,event
13:29:47.871,1.4709929,0.6887135,1.368967,1.1654491,1.1786646,-0.25241026,1.1519427,0.9936233,0.91129756,0.018393148,0.50200176,0.60844886,1.047943,0.2989442,-0.20789005,0.6758433,0.7298363,-0.13335586,-0.57427233,0.66375434,794.17584,875.9707,816.7399,809.89014,758.71796,-0.25518798828125,0.08599853515625,0.94171142578125,5.42816162109375,-2.056121826171875,-1.33087158203125,1.0,1.0,4.0,1.0,1.0,100.0,event
13:29:47.872,1.4709929,0.6887135,1.368967,1.1654491,1.1786646,-0.25241026,1.1519427,0.9936233,0.91129756,0.018393148,0.50200176,0.60844886,1.047943,0.2989442,-0.20789005,0.6758433,0.7298363,-0.13335586,-0.57427233,0.66375434,808.2784,975.89746,814.3223,788.93774,825.6044,-0.25518798828125,0.08599853515625,0.94171142578125,5.42816162109375,-2.056121826171875,-1.33087158203125,1.0,1.0,4.0,1.0,1.0,100.0,event
13:29:47.894,1.4709929,0.6887135,1.368967,1.1654491,1.1786646,-0.25241026,1.1519427,0.9936233,0.91129756,0.018393148,0.50200176,0.60844886,1.047943,0.2989442,-0.20789005,0.6758433,0.7298363,-0.13335586,-0.57427233,0.66375434,823.9927,1156.0073,811.50183,779.67035,763.5531,-0.25518798828125,0.08599853515625,0.94171142578125,5.42816162109375,-2.056121826171875,-1.33087158203125,1.0,1.0,4.0,1.0,1.0,100.0,event
13:29:47.895,1.4709929,0.6887135,1.368967,1.1654491,1.1786646,-0.25241026,1.1519427,0.9936233,0.91129756,0.018393148,0.50200176,0.60844886,1.047943,0.2989442,-0.20789005,0.6758433,0.7298363,-0.13335586,-0.57427233,0.66375434,819.5604,975.09155,810.696,788.5348,745.0183,-0.25518798828125,0.08599853515625,0.94171142578125,5.42816162109375,-2.056121826171875,-1.33087158203125,1.0,1.0,4.0,1.0,1.0,100.0,event
13:29:47.896,1.4709929,0.6887135,1.368967,1.1654491,1.1786646,-0.25241026,1.1519427,0.9936233,0.91129756,0.018393148,0.50200176,0.60844886,1.047943,0.2989442,-0.20789005,0.6758433,0.7298363,-0.13335586,-0.57427233,0.66375434,799.41394,847.76556,813.1135,794.57874,832.8571,-0.25518798828125,0.08599853515625,0.94171142578125,5.42816162109375,-2.056121826171875,-1.33087158203125,1.0,1.0,4.0,1.0,1.0,100.0,event
13:29:47.897,1.4709929,0.6887135,1.3561747,1.1654491,1.1786646,-0.25241026,1.1532521,0.9936233,0.91129756,0.018393148,0.50200176,0.60844886,1.047943,0.2989442,-0.22322689,0.6758433,0.7298363,-0.13335586,-0.54876965,0.66375434,809.4872,982.74725,812.71063,790.54944,856.63007,-0.25518798828125,0.08599853515625,0.94171142578125,5.42816162109375,-2.056121826171875,-1.33087158203125,1.0,1.0,4.0,1.0,1.0,100.0,event
13:29:47.902,1.4709929,0.6887135,1.3561747,1.1654491,1.1786646,-0.25241026,1.1532521,0.9936233,0.91129756,0.018393148,0.50200176,0.60844886,1.047943,0.2989442,-0.22322689,0.6758433,0.7298363,-0.13335586,-0.54876965,0.66375434,812.71063,992.01465,811.0989,784.90845,846.1539,-0.25518798828125,0.08599853515625,0.94171142578125,5.42816162109375,-2.056121826171875,-1.33087158203125,1.0,1.0,4.0,1.0,1.0,100.0,event
13:29:47.903,1.4709929,0.6887135,1.3561747,1.1654491,1.1786646,-0.25241026,1.1532521,0.9936233,0.91129756,0.018393148,0.50200176,0.60844886,1.047943,0.2989442,-0.22322689,0.6758433,0.7298363,-0.13335586,-0.54876965,0.66375434,805.4579,805.4579,810.696,801.02563,889.67035,-0.25518798828125,0.08599853515625,0.94171142578125,5.42816162109375,-2.056121826171875,-1.33087158203125,1.0,1.0,4.0,1.0,1.0,100.0,event
13:29:47.903,1.4709929,0.6887135,1.3561747,1.1654491,1.1786646,-0.25241026,1.1532521,0.9936233,0.91129756,0.018393148,0.50200176,0.60844886,1.047943,0.2989442,-0.22322689,0.6758433,0.7298363,-0.13335586,-0.54876965,0.66375434,789.7436,126.52015,813.5165,801.8315,1124.1758,-0.25518798828125,0.08599853515625,0.94171142578125,5.42816162109375,-2.056121826171875,-1.33087158203125,1.0,1.0,4.0,1.0,1.0,100.0,event
13:29:47.904,1.4709929,0.6887135,1.3561747,1.1654491,1.1786646,-0.25241026,1.1532521,0.9936233,0.91129756,0.018393148,0.50200176,0.60844886,1.047943,0.2989442,-0.22322689,0.6758433,0.7298363,-0.13335586,-0.54876965,0.66375434,789.7436,338.86447,814.3223,790.54944,960.18317,-0.25518798828125,0.08599853515625,0.94171142578125,5.42816162109375,-2.056121826171875,-1.33087158203125,1.0,1.0,4.0,1.0,1.0,100.0,event
13:29:47.905,1.4709929,0.6887135,1.3561747,1.1654491,1.1786646,-0.25241026,1.1532521,0.9936233,0.91129756,0.018393148,0.50200176,0.60844886,1.047943,0.2989442,-0.22322689,0.6758433,0.7298363,-0.13335586,-0.54876965,0.66375434,806.26373,1000.87915,811.50183,791.75824,759.12085,-0.25518798828125,0.08599853515625,0.94171142578125,5.42816162109375,-2.056121826171875,-1.33087158203125,1.0,1.0,4.0,1.0,1.0,100.0,event
13:29:47.905,1.4709929,0.6887135,1.3561747,1.1654491,1.1786646,-0.25241026,1.1532521,0.9936233,0.91129756,0.018393148,0.50200176,0.60844886,1.047943,0.2989442,-0.22322689,0.6758433,0.7298363,-0.13335586,-0.54876965,0.66375434,804.65204,1095.1648,810.696,780.4762,648.315,-0.25518798828125,0.08599853515625,0.94171142578125,5.42816162109375,-2.056121826171875,-1.33087158203125,1.0,1.0,4.0,1.0,1.0,100.0,event
13:29:47.906,1.4709929,0.6887135,1.3561747,1.1654491,1.1786646,-0.25241026,1.1532521,0.9936233,0.91129756,0.018393148,0.50200176,0.60844886,1.047943,0.2989442,-0.22322689,0.6758433,0.7298363,-0.13335586,-0.54876965,0.66375434,793.36993,900.54944,811.0989,805.4579,786.9231,-0.25518798828125,0.08599853515625,0.94171142578125,5.42816162109375,-2.056121826171875,-1.33087158203125,1.0,1.0,4.0,1.0,1.0,100.0,event
13:29:47.907,1.4709929,0.6887135,1.3561747,1.1654491,1.1786646,-0.25241026,1.1532521,0.9936233,0.91129756,0.018393148,0.50200176,0.60844886,1.047943,0.2989442,-0.22322689,0.6758433,0.7298363,-0.13335586,-0.54876965,0.66375434,790.54944,1078.6447,807.47253,786.52014,703.5165,-0.25518798828125,0.08599853515625,0.94171142578125,5.42816162109375,-2.056121826171875,-1.33087158203125,1.0,1.0,4.0,1.0,1.0,100.0,event
13:29:47.929,1.4709929,0.6887135,1.3561747,1.1654491,1.1786646,-0.25241026,1.1532521,0.9936233,0.91129756,0.018393148,0.50200176,0.60844886,1.047943,0.2989442,-0.22322689,0.6758433,0.7298363,-0.13335586,-0.54876965,0.66375434,799.81683,1124.9817,807.47253,783.69965,723.663,-0.25323486328125,0.11163330078125,0.9527587890625,7.185211181640625,-3.820648193359375,-0.874786376953125,1.0,1.0,4.0,1.0,1.0,100.0,event
13:29:47.930,1.4709929,0.6887135,1.3561747,1.1654491,1.1786646,-0.25241026,1.1532521,0.9936233,0.91129756,0.018393148,0.50200176,0.60844886,1.047943,0.2989442,-0.22322689,0.6758433,0.7298363,-0.13335586,-0.54876965,0.66375434,812.3077,931.5751,806.6667,797.3993,758.315,-0.25323486328125,0.11163330078125,0.9527587890625,7.185211181640625,-3.820648193359375,-0.874786376953125,1.0,1.0,4.0,1.0,1.0,100.0,event
13:29:47.931,1.4709929,0.6887135,1.3561747,1.1654491,1.1786646,-0.25241026,1.1532521,0.9936233,0.91129756,0.018393148,0.50200176,0.60844886,1.047943,0.2989442,-0.22322689,0.6758433,0.7298363,-0.13335586,-0.54876965,0.66375434,813.91943,966.2271,807.8755,800.2198,789.34064,-0.25323486328125,0.11163330078125,0.9527587890625,7.185211181640625,-3.820648193359375,-0.874786376953125,1.0,1.0,4.0,1.0,1.0,100.0,event
13:29:47.932,1.4709929,0.6887135,1.3561747,1.1654491,1.1786646,-0.25241026,1.1532521,0.9936233,0.91129756,0.018393148,0.50200176,0.60844886,1.047943,0.2989442,-0.22322689,0.6758433,0.7298363,-0.13335586,-0.54876965,0.66375434,796.5934,1102.4176,812.71063,813.5165,751.06226,-0.25323486328125,0.11163330078125,0.9527587890625,7.185211181640625,-3.820648193359375,-0.874786376953125,1.0,1.0,4.0,1.0,1.0,100.0,event
13:29:47.933,1.4709929,0.6887135,1.3561747,1.1654491,1.1786646,-0.25241026,1.1532521,0.9936233,0.91129756,0.018393148,0.50200176,0.60844886,1.047943,0.2989442,-0.22322689,0.6758433,0.7298363,-0.13335586,-0.54876965,0.66375434,787.326,1008.5348,812.3077,821.5751,705.5311,-0.25323486328125,0.11163330078125,0.9527587890625,7.185211181640625,-3.820648193359375,-0.874786376953125,1.0,1.0,4.0,1.0,1.0,100.0,event
13:29:47.934,1.4709929,0.6887135,1.3561747,1.1654491,1.1786646,-0.25241026,1.1532521,0.9936233,0.91129756,0.018393148,0.50200176,0.60844886,1.047943,0.2989442,-0.22322689,0.6758433,0.7298363,-0.13335586,-0.54876965,0.66375434,789.7436,776.04395,809.4872,813.91943,838.0952,-0.25323486328125,0.11163330078125,0.9527587890625,7.185211181640625,-3.820648193359375,-0.874786376953125,1.0,1.0,4.0,1.0,1.0,100.0,event
13:29:47.935,1.4709929,0.6887135,1.3561747,1.1654491,1.1786646,-0.25241026,1.1532521,0.9936233,0.91129756,0.018393148,0.50200176,0.60844886,1.047943,0.2989442,-0.22322689,0.6758433,0.7298363,-0.13335586,-0.54876965,0.66375434,784.10254,778.86444,811.9048,821.978,876.3736,-0.25323486328125,0.11163330078125,0.9527587890625,7.185211181640625,-3.820648193359375,-0.874786376953125,1.0,1.0,4.0,1.0,1.0,100.0,event
13:29:47.935,1.4709929,0.6887135,1.3561747,1.1654491,1.1786646,-0.25241026,1.1532521,0.9936233,0.91129756,0.018393148,0.50200176,0.60844886,1.047943,0.2989442,-0.22322689,0.6758433,0.7298363,-0.13335586,-0.54876965,0.66375434,790.9524,663.22345,813.91943,823.9927,892.0879,-0.25323486328125,0.11163330078125,0.9527587890625,7.185211181640625,-3.820648193359375,-0.874786376953125,1.0,1.0,4.0,1.0,1.0,100.0,event
13:29:47.936,1.4709929,0.6887135,1.3561747,1.1654491,1.1786646,-0.25241026,1.1532521,0.9936233,0.91129756,0.018393148,0.50200176,0.60844886,1.047943,0.2989442,-0.22322689,0.6758433,0.7298363,-0.13335586,-0.54876965,0.66375434,804.65204,970.2564,812.3077,794.17584,828.8278,-0.25323486328125,0.11163330078125,0.9527587890625,7.185211181640625,-3.820648193359375,-0.874786376953125,1.0,1.0,4.0,1.0,1.0,100.0,event
13:29:47.937,1.4709929,0.6887135,1.3561747,1.1654491,1.1786646,-0.25241026,1.1532521,0.9936233,0.91129756,0.018393148,0.50200176,0.60844886,1.047943,0.2989442,-0.22322689,0.6758433,0.7298363,-0.13335586,-0.54876965,0.66375434,803.44324,444.43222,817.5458,798.60803,898.5348,-0.25323486328125,0.11163330078125,0.9527587890625,7.185211181640625,-3.820648193359375,-0.874786376953125,1.0,1.0,4.0,1.0,1.0,100.0,event
13:29:47.937,1.4709929,0.6887135,1.3561747,1.1654491,1.1786646,-0.25241026,1.1532521,0.9936233,0.91129756,0.018393148,0.50200176,0.60844886,1.047943,0.2989442,-0.22322689,0.6758433,0.7298363,-0.13335586,-0.54876965,0.66375434,765.16486,211.94139,816.7399,811.50183,944.4689,-0.25323486328125,0.11163330078125,0.9527587890625,7.185211181640625,-3.820648193359375,-0.874786376953125,1.0,1.0,4.0,1.0,1.0,100.0,event
13:29:47.938,1.4709929,0.6887135,1.3561747,1.1654491,1.1786646,-0.25241026,1.1532521,0.9936233,0.91129756,0.018393148,0.50200176,0.60844886,1.047943,0.2989442,-0.22322689,0.6758433,0.7298363,-0.13335586,-0.54876965,0.66375434,763.5531,981.53845,815.5311,804.65204,711.978,-0.25323486328125,0.11163330078125,0.9527587890625,7.185211181640625,-3.820648193359375,-0.874786376953125,1.0,1.0,4.0,1.0,1.0,100.0,event
13:29:47.996,1.4709929,0.6887135,1.3561747,1.1654491,1.1786646,-0.25241026,1.1532521,0.9936233,0.91129756,0.018393148,0.50200176,0.60844886,1.047943,0.2989442,-0.22322689,0.6758433,0.7298363,-0.13335586,-0.54876965,0.66375434,781.685,1077.033,809.89014,808.2784,743.8095,-0.249755859375,0.1181640625,0.95538330078125,4.314117431640625,-3.581390380859375,-0.366363525390625,1.0,1.0,4.0,1.0,1.0,100.0,event
13:29:47.998,1.4709929,0.6887135,1.3561747,1.1654491,1.1786646,-0.25241026,1.1532521,0.9936233,0.91129756,0.018393148,0.50200176,0.60844886,1.047943,0.2989442,-0.22322689,0.6758433,0.7298363,-0.13335586,-0.54876965,0.66375434,804.2491,917.8755,801.4286,791.3553,841.7216,-0.249755859375,0.1181640625,0.95538330078125,4.314117431640625,-3.581390380859375,-0.366363525390625,1.0,1.0,4.0,1.0,1.0,100.0,event
13:29:47.998,1.4709929,0.6887135,1.3561747,1.1654491,1.1786646,-0.25241026,1.1532521,0.9936233,0.91129756,0.018393148,0.50200176,0.60844886,1.047943,0.2989442,-0.22322689,0.6758433,0.7298363,-0.13335586,-0.54876965,0.66375434,797.3993,1020.2198,805.05493,789.34064,795.78754,-0.249755859375,0.1181640625,0.95538330078125,4.314117431640625,-3.581390380859375,-0.366363525390625,1.0,1.0,4.0,1.0,1.0,100.0,event
13:29:47.999,1.4709929,0.6887135,1.3561747,1.1654491,1.1786646,-0.25241026,1.1532521,0.9936233,0.91129756,0.018393148,0.50200176,0.60844886,1.047943,0.2989442,-0.22322689,0.6758433,0.7298363,-0.13335586,-0.54876965,0.66375434,786.1172,1091.9414,807.8755,794.57874,705.9341,-0.249755859375,0.1181640625,0.95538330078125,4.314117431640625,-3.581390380859375,-0.366363525390625,1.0,1.0,4.0,1.0,1.0,100.0,event
13:29:48.000,1.4709929,0.6887135,1.3427517,1.1654491,1.1786646,-0.25241026,1.1336974,0.9936233,0.91129756,0.018393148,0.50200176,0.60844886,1.047943,0.2989442,-0.23774986,0.6758433,0.7298363,-0.13335586,-0.538525,0.66375434,809.89014,721.2454,802.23444,794.57874,926.337,-0.249755859375,0.1181640625,0.95538330078125,4.314117431640625,-3.581390380859375,-0.366363525390625,1.0,1.0,4.0,1.0,1.0,100.0,event
13:29:48.000,1.4709929,0.6887135,1.3561747,1.1654491,1.1786646,-0.25241026,1.1532521,0.9936233,0.91129756,0.018393148,0.50200176,0.60844886,1.047943,0.2989442,-0.22322689,0.6758433,0.7298363,-0.13335586,-0.54876965,0.66375434,808.2784,928.7546,804.65204,791.3553,756.30035,-0.249755859375,0.1181640625,0.95538330078125,4.314117431640625,-3.581390380859375,-0.366363525390625,1.0,1.0,4.0,1.0,1.0,100.0,event
13:29:48.005,1.4709929,0.6887135,1.3427517,1.1654491,1.1786646,-0.25241026,1.1336974,0.9936233,0.91129756,0.018393148,0.50200176,0.60844886,1.047943,0.2989442,-0.23774986,0.6758433,0.7298363,-0.13335586,-0.538525,0.66375434,788.1319,745.42126,804.65204,802.6374,952.1245,-0.249755859375,0.1181640625,0.95538330078125,4.314117431640625,-3.581390380859375,-0.366363525390625,1.0,1.0,4.0,1.0,1.0,100.0,event
13:29:48.006,1.4709929,0.6887135,1.3427517,1.1654491,1.1786646,-0.25241026,1.1336974,0.9936233,0.91129756,0.018393148,0.50200176,0.60844886,1.047943,0.2989442,-0.23774986,0.6758433,0.7298363,-0.13335586,-0.538525,0.66375434,781.685,955.34796,805.05493,805.8608,786.9231,-0.249755859375,0.1181640625,0.95538330078125,4.314117431640625,-3.581390380859375,-0.366363525390625,1.0,1.0,4.0,1.0,1.0,100.0,event
13:29:48.007,1.4709929,0.6887135,1.3427517,1.1654491,1.1786646,-0.25241026,1.1336974,0.9936233,0.91129756,0.018393148,0.50200176,0.60844886,1.047943,0.2989442,-0.23774986,0.6758433,0.7298363,-0.13335586,-0.538525,0.66375434,790.54944,817.1429,804.2491,790.54944,822.381,-0.249755859375,0.1181640625,0.95538330078125,4.314117431640625,-3.581390380859375,-0.366363525390625,1.0,1.0,4.0,1.0,1.0,100.0,event
13:29:48.008,1.4709929,0.6887135,1.3427517,1.1654491,1.1786646,-0.25241026,1.1336974,0.9936233,0.91129756,0.018393148,0.50200176,0.60844886,1.047943,0.2989442,-0.23774986,0.6758433,0.7298363,-0.13335586,-0.538525,0.66375434,801.02563,236.11722,809.0842,792.1612,1108.0586,-0.249755859375,0.1181640625,0.95538330078125,4.314117431640625,-3.581390380859375,-0.366363525390625,1.0,1.0,4.0,1.0,1.0,100.0,event
13:29:48.009,1.4709929,0.6887135,1.3427517,1.1654491,1.1786646,-0.25241026,1.1336974,0.9936233,0.91129756,0.018393148,0.50200176,0.60844886,1.047943,0.2989442,-0.23774986,0.6758433,0.7298363,-0.13335586,-0.538525,0.66375434,824.3956,600.3663,808.68134,813.91943,979.92676,-0.249755859375,0.1181640625,0.95538330078125,4.314117431640625,-3.581390380859375,-0.366363525390625,1.0,1.0,4.0,1.0,1.0,100.0,event
13:29:48.010,1.4709929,0.6887135,1.3427517,1.1654491,1.1786646,-0.25241026,1.1336974,0.9936233,0.91129756,0.018393148,0.50200176,0.60844886,1.047943,0.2989442,-0.23774986,0.6758433,0.7298363,-0.13335586,-0.538525,0.66375434,809.4872,1147.5458,802.23444,813.91943,734.94507,-0.249755859375,0.1181640625,0.95538330078125,4.314117431640625,-3.581390380859375,-0.366363525390625,1.0,1.0,4.0,1.0,1.0,100.0,event
13:29:48.034,1.4709929,0.6887135,1.3427517,1.1654491,1.1786646,-0.25241026,1.1336974,0.9936233,0.91129756,0.018393148,0.50200176,0.60844886,1.047943,0.2989442,-0.23774986,0.6758433,0.7298363,-0.13335586,-0.538525,0.66375434,786.1172,712.7839,798.20514,818.3516,810.696,-0.25994873046875,0.11767578125,0.958740234375,3.3795166015625,-3.925323486328125,2.97576904296875,1.0,1.0,4.0,1.0,1.0,100.0,event
13:29:48.035,1.4709929,0.6887135,1.3427517,1.1654491,1.1786646,-0.25241026,1.1336974,0.9936233,0.91129756,0.018393148,0.50200176,0.60844886,1.047943,0.2989442,-0.23774986,0.6758433,0.7298363,-0.13335586,-0.538525,0.66375434,791.75824,599.15753,798.60803,805.8608,867.1062,-0.25994873046875,0.11767578125,0.958740234375,3.3795166015625,-3.925323486328125,2.97576904296875,1.0,1.0,4.0,1.0,1.0,100.0,event
13:29:48.036,1.4709929,0.6887135,1.3427517,1.1654491,1.1786646,-0.25241026,1.1336974,0.9936233,0.91129756,0.018393148,0.50200176,0.60844886,1.047943,0.2989442,-0.23774986,0.6758433,0.7298363,-0.13335586,-0.538525,0.66375434,793.36993,1088.7179,797.8022,779.67035,772.01465,-0.25994873046875,0.11767578125,0.958740234375,3.3795166015625,-3.925323486328125,2.97576904296875,1.0,1.0,4.0,1.0,1.0,100.0,event
13:29:48.037,1.4709929,0.6887135,1.3427517,1.1654491,1.1786646,-0.25241026,1.1336974,0.9936233,0.91129756,0.018393148,0.50200176,0.60844886,1.047943,0.2989442,-0.23774986,0.6758433,0.7298363,-0.13335586,-0.538525,0.66375434,810.696,1160.8425,801.02563,786.9231,772.01465,-0.25994873046875,0.11767578125,0.958740234375,3.3795166015625,-3.925323486328125,2.97576904296875,1.0,1.0,4.0,1.0,1.0,100.0,event
13:29:48.037,1.4709929,0.6887135,1.3427517,1.1654491,1.1786646,-0.25241026,1.1336974,0.9936233,0.91129756,0.018393148,0.50200176,0.60844886,1.047943,0.2989442,-0.23774986,0.6758433,0.7298363,-0.13335586,-0.538525,0.66375434,801.8315,944.4689,801.8315,790.14655,795.38464,-0.25994873046875,0.11767578125,0.958740234375,3.3795166015625,-3.925323486328125,2.97576904296875,1.0,1.0,4.0,1.0,1.0,100.0,event
13:29:48.038,1.4709929,0.6887135,1.3427517,1.1654491,1.1786646,-0.25241026,1.1336974,0.9936233,0.91129756,0.018393148,0.50200176,0.60844886,1.047943,0.2989442,-0.23774986,0.6758433,0.7298363,-0.13335586,-0.538525,0.66375434,782.8938,689.81683,799.011,782.49084,870.7326,-0.25994873046875,0.11767578125,0.958740234375,3.3795166015625,-3.925323486328125,2.97576904296875,1.0,1.0,4.0,1.0,1.0,100.0,event
13:29:48.039,1.4709929,0.6887135,1.3427517,1.1654491,1.1786646,-0.25241026,1.1336974,0.9936233,0.91129756,0.018393148,0.50200176,0.60844886,1.047943,0.2989442,-0.23774986,0.6758433,0.7298363,-0.13335586,-0.538525,0.66375434,764.35895,657.1795,797.3993,773.6264,840.9158,-0.25994873046875,0.11767578125,0.958740234375,3.3795166015625,-3.925323486328125,2.97576904296875,1.0,1.0,4.0,1.0,1.0,100.0,event
13:29:48.040,1.4709929,0.6887135,1.3427517,1.1654491,1.1786646,-0.25241026,1.1336974,0.9936233,0.91129756,0.018393148,0.50200176,0.60844886,1.047943,0.2989442,-0.23774986,0.6758433,0.7298363,-0.13335586,-0.538525,0.66375434,765.9707,928.3516,795.78754,784.5055,712.7839,-0.25994873046875,0.11767578125,0.958740234375,3.3795166015625,-3.925323486328125,2.97576904296875,1.0,1.0,4.0,1.0,1.0,100.0,event
13:29:48.041,1.4709929,0.6887135,1.3427517,1.1654491,1.1786646,-0.25241026,1.1336974,0.9936233,0.91129756,0.018393148,0.50200176,0.60844886,1.047943,0.2989442,-0.23774986,0.6758433,0.7298363,-0.13335586,-0.538525,0.66375434,795.38464,535.89746,798.20514,813.1135,936.8132,-0.25994873046875,0.11767578125,0.958740234375,3.3795166015625,-3.925323486328125,2.97576904296875,1.0,1.0,4.0,1.0,1.0,100.0,event
13:29:48.042,1.4709929,0.6887135,1.3427517,1.1654491,1.1786646,-0.25241026,1.1336974,0.9936233,0.91129756,0.018393148,0.50200176,0.60844886,1.047943,0.2989442,-0.23774986,0.6758433,0.7298363,-0.13335586,-0.538525,0.66375434,793.7729,336.4469,796.5934,814.3223,1006.9231,-0.25994873046875,0.11767578125,0.958740234375,3.3795166015625,-3.925323486328125,2.97576904296875,1.0,1.0,4.0,1.0,1.0,100.0,event
13:29:48.043,1.4709929,0.6887135,1.3427517,1.1654491,1.1786646,-0.25241026,1.1336974,0.9936233,0.91129756,0.018393148,0.50200176,0.60844886,1.047943,0.2989442,-0.23774986,0.6758433,0.7298363,-0.13335586,-0.538525,0.66375434,794.9817,999.2674,797.3993,794.9817,716.4103,-0.25994873046875,0.11767578125,0.958740234375,3.3795166015625,-3.925323486328125,2.97576904296875,1.0,1.0,4.0,1.0,1.0,100.0,event
13:29:48.044,1.4709929,0.6887135,1.3427517,1.1654491,1.1786646,-0.25241026,1.1336974,0.9936233,0.91129756,0.018393148,0.50200176,0.60844886,1.047943,0.2989442,-0.23774986,0.6758433,0.7298363,-0.13335586,-0.538525,0.66375434,787.326,960.58606,799.81683,772.8205,689.81683,-0.25994873046875,0.11767578125,0.958740234375,3.3795166015625,-3.925323486328125,2.97576904296875,1.0,1.0,4.0,1.0,1.0,100.0,event
13:29:48.065,1.4709929,0.6887135,1.3427517,1.1654491,1.1786646,-0.25241026,1.1336974,0.9936233,0.91129756,0.018393148,0.50200176,0.60844886,1.047943,0.2989442,-0.23774986,0.6758433,0.7298363,-0.13335586,-0.538525,0.66375434,776.8498,779.2674,799.81683,788.5348,744.61536,-0.2529296875,0.103759765625,0.9544677734375,1.607513427734375,-2.46734619140625,2.10845947265625,1.0,1.0,4.0,1.0,1.0,100.0,event
13:29:48.066,1.4709929,0.6887135,1.3427517,1.1654491,1.1786646,-0.25241026,1.1336974,0.9936233,0.91129756,0.018393148,0.50200176,0.60844886,1.047943,0.2989442,-0.23774986,0.6758433,0.7298363,-0.13335586,-0.538525,0.66375434,797.8022,831.2454,799.011,809.4872,774.0293,-0.2529296875,0.103759765625,0.9544677734375,1.607513427734375,-2.46734619140625,2.10845947265625,1.0,1.0,4.0,1.0,1.0,100.0,event
13:29:48.067,1.4709929,0.6887135,1.3427517,1.1654491,1.1786646,-0.25241026,1.1336974,0.9936233,0.91129756,0.018393148,0.50200176,0.60844886,1.047943,0.2989442,-0.23774986,0.6758433,0.7298363,-0.13335586,-0.538525,0.66375434,807.0696,1073.4066,798.60803,802.23444,778.0586,-0.2529296875,0.103759765625,0.9544677734375,1.607513427734375,-2.46734619140625,2.10845947265625,1.0,1.0,4.0,1.0,1.0,100.0,event
13:29:48.068,1.4709929,0.6887135,1.3427517,1.1654491,1.1786646,-0.25241026,1.1336974,0.9936233,0.91129756,0.018393148,0.50200176,0.60844886,1.047943,0.2989442,-0.23774986,0.6758433,0.7298363,-0.13335586,-0.538525,0.66375434,795.78754,959.3773,799.011,803.8461,816.337,-0.2529296875,0.103759765625,0.9544677734375,1.607513427734375,-2.46734619140625,2.10845947265625,1.0,1.0,4.0,1.0,1.0,100.0,event
13:29:48.069,1.4709929,0.6887135,1.3427517,1.1654491,1.1786646,-0.25241026,1.1336974,0.9936233,0.91129756,0.018393148,0.50200176,0.60844886,1.047943,0.2989442,-0.23774986,0.6758433,0.7298363,-0.13335586,-0.538525,0.66375434,796.1905,577.8022,804.65204,804.65204,883.6264,-0.2529296875,0.103759765625,0.9544677734375,1.607513427734375,-2.46734619140625,2.10845947265625,1.0,1.0,4.0,1.0,1.0,100.0,event
13:29:48.070,1.4709929,0.6887135,1.3427517,1.1654491,1.1786646,-0.25241026,1.1336974,0.9936233,0.91129756,0.018393148,0.50200176,0.60844886,1.047943,0.2989442,-0.23774986,0.6758433,0.7298363,-0.13335586,-0.538525,0.66375434,786.1172,622.52747,806.6667,801.8315,816.337,-0.2529296875,0.103759765625,0.9544677734375,1.607513427734375,-2.46734619140625,2.10845947265625,1.0,1.0,4.0,1.0,1.0,100.0,event
13:29:48.070,1.4709929,0.6887135,1.3427517,1.1654491,1.1786646,-0.25241026,1.1336974,0.9936233,0.91129756,0.018393148,0.50200176,0.60844886,1.047943,0.2989442,-0.23774986,0.6758433,0.7298363,-0.13335586,-0.538525,0.66375434,774.43225,818.3516,800.2198,802.6374,811.0989,-0.2529296875,0.103759765625,0.9544677734375,1.607513427734375,-2.46734619140625,2.10845947265625,1.0,1.0,4.0,1.0,1.0,100.0,event
13:29:48.071,1.4709929,0.6887135,1.3272848,1.1654491,1.1786646,-0.25241026,1.1072448,0.9936233,0.91129756,0.018393148,0.50200176,0.60844886,1.047943,0.2989442,-0.24748908,0.6758433,0.7298363,-0.13335586,-0.54050696,0.66375434,803.0403,722.4542,795.78754,797.8022,901.75824,-0.2529296875,0.103759765625,0.9544677734375,1.607513427734375,-2.46734619140625,2.10845947265625,1.0,1.0,4.0,1.0,1.0,100.0,event
13:29:48.075,1.4709929,0.6887135,1.3272848,1.1654491,1.1786646,-0.25241026,1.1072448,0.9936233,0.91129756,0.018393148,0.50200176,0.60844886,1.047943,0.2989442,-0.24748908,0.6758433,0.7298363,-0.13335586,-0.54050696,0.66375434,826.0073,168.42491,797.3993,802.6374,1063.7362,-0.2529296875,0.103759765625,0.9544677734375,1.607513427734375,-2.46734619140625,2.10845947265625,1.0,1.0,4.0,1.0,1.0,100.0,event
13:29:48.076,1.4709929,0.6887135,1.3272848,1.1654491,1.1786646,-0.25241026,1.1072448,0.9936233,0.91129756,0.018393148,0.50200176,0.60844886,1.047943,0.2989442,-0.24748908,0.6758433,0.7298363,-0.13335586,-0.54050696,0.66375434,807.47253,556.04395,802.6374,797.8022,946.8865,-0.2529296875,0.103759765625,0.9544677734375,1.607513427734375,-2.46734619140625,2.10845947265625,1.0,1.0,4.0,1.0,1.0,100.0,event
13:29:48.078,1.4709929,0.6887135,1.3272848,1.1654491,1.1786646,-0.25241026,1.1072448,0.9936233,0.91129756,0.018393148,0.50200176,0.60844886,1.047943,0.2989442,-0.24748908,0.6758433,0.7298363,-0.13335586,-0.54050696,0.66375434,788.1319,1128.2051,802.23444,784.90845,728.9011,-0.2529296875,0.103759765625,0.9544677734375,1.607513427734375,-2.46734619140625,2.10845947265625,1.0,1.0,4.0,1.0,1.0,100.0,event
13:29:48.079,1.4709929,0.6887135,1.3272848,1.1654491,1.1786646,-0.25241026,1.1072448,0.9936233,0.91129756,0.018393148,0.50200176,0.60844886,1.047943,0.2989442,-0.24748908,0.6758433,0.7298363,-0.13335586,-0.54050696,0.66375434,800.2198,927.9487,801.8315,807.47253,747.4359,-0.2529296875,0.103759765625,0.9544677734375,1.607513427734375,-2.46734619140625,2.10845947265625,1.0,1.0,4.0,1.0,1.0,100.0,event
13:29:48.116,1.4709929,0.6887135,1.3272848,1.1654491,1.1786646,-0.25241026,1.1072448,0.9936233,0.91129756,0.018393148,0.50200176,0.60844886,1.047943,0.2989442,-0.24748908,0.6758433,0.7298363,-0.13335586,-0.54050696,0.66375434,806.6667,947.6923,801.8315,817.1429,760.7326,-0.2529296875,0.103759765625,0.9544677734375,1.607513427734375,-2.46734619140625,2.10845947265625,1.0,1.0,4.0,1.0,1.0,100.0,event
13:29:48.118,1.4709929,0.6887135,1.3272848,1.1654491,1.1786646,-0.25241026,1.1072448,0.9936233,0.91129756,0.018393148,0.50200176,0.60844886,1.047943,0.2989442,-0.24748908,0.6758433,0.7298363,-0.13335586,-0.54050696,0.66375434,816.337,1100.0,796.5934,803.8461,728.0952,-0.2529296875,0.103759765625,0.9544677734375,1.607513427734375,-2.46734619140625,2.10845947265625,1.0,1.0,4.0,1.0,1.0,100.0,event
13:29:48.119,1.4709929,0.6887135,1.3272848,1.1654491,1.1786646,-0.25241026,1.1072448,0.9936233,0.91129756,0.018393148,0.50200176,0.60844886,1.047943,0.2989442,-0.24748908,0.6758433,0.7298363,-0.13335586,-0.54050696,0.66375434,802.23444,844.1392,804.65204,796.99634,771.6117,-0.2529296875,0.103759765625,0.9544677734375,1.607513427734375,-2.46734619140625,2.10845947265625,1.0,1.0,4.0,1.0,1.0,100.0,event
13:29:48.119,1.4709929,0.6887135,1.3272848,1.1654491,1.1786646,-0.25241026,1.1072448,0.9936233,0.91129756,0.018393148,0.50200176,0.60844886,1.047943,0.2989442,-0.24748908,0.6758433,0.7298363,-0.13335586,-0.54050696,0.66375434,818.3516,1038.7546,797.3993,803.0403,717.619,-0.2529296875,0.103759765625,0.9544677734375,1.607513427734375,-2.46734619140625,2.10845947265625,1.0,1.0,4.0,1.0,1.0,100.0,event
13:29:48.120,1.4709929,0.6887135,1.3272848,1.1654491,1.1786646,-0.25241026,1.1072448,0.9936233,0.91129756,0.018393148,0.50200176,0.60844886,1.047943,0.2989442,-0.24748908,0.6758433,0.7298363,-0.13335586,-0.54050696,0.66375434,790.54944,765.56775,807.8755,801.4286,855.82416,-0.2529296875,0.103759765625,0.9544677734375,1.607513427734375,-2.46734619140625,2.10845947265625,1.0,1.0,4.0,1.0,1.0,100.0,event
13:29:48.121,1.4709929,0.6887135,1.3272848,1.1654491,1.1786646,-0.25241026,1.1072448,0.9936233,0.91129756,0.018393148,0.50200176,0.60844886,1.047943,0.2989442,-0.24748908,0.6758433,0.7298363,-0.13335586,-0.54050696,0.66375434,783.69965,767.1795,806.6667,808.68134,853.4066,-0.2529296875,0.103759765625,0.9544677734375,1.607513427734375,-2.46734619140625,2.10845947265625,1.0,1.0,4.0,1.0,1.0,100.0,event
13:29:48.121,1.4709929,0.6887135,1.3272848,1.1654491,1.1786646,-0.25241026,1.1072448,0.9936233,0.91129756,0.018393148,0.50200176,0.60844886,1.047943,0.2989442,-0.24748908,0.6758433,0.7298363,-0.13335586,-0.54050696,0.66375434,794.17584,743.00366,806.6667,809.0842,786.52014,-0.2529296875,0.103759765625,0.9544677734375,1.607513427734375,-2.46734619140625,2.10845947265625,1.0,1.0,4.0,1.0,1.0,100.0,event
13:29:48.122,1.4709929,0.6887135,1.3272848,1.1654491,1.1786646,-0.25241026,1.1072448,0.9936233,0.91129756,0.018393148,0.50200176,0.60844886,1.047943,0.2989442,-0.24748908,0.6758433,0.7298363,-0.13335586,-0.54050696,0.66375434,807.8755,346.92307,806.6667,814.7253,907.8022,-0.2529296875,0.103759765625,0.9544677734375,1.607513427734375,-2.46734619140625,2.10845947265625,1.0,1.0,4.0,1.0,1.0,100.0,event
13:29:48.122,1.4709929,0.6887135,1.3272848,1.1654491,1.1786646,-0.25241026,1.1072448,0.9936233,0.91129756,0.018393148,0.50200176,0.60844886,1.047943,0.2989442,-0.24748908,0.6758433,0.7298363,-0.13335586,-0.54050696,0.66375434,809.89014,96.7033,807.47253,804.2491,952.1245,-0.2529296875,0.103759765625,0.9544677734375,1.607513427734375,-2.46734619140625,2.10845947265625,1.0,1.0,4.0,1.0,1.0,100.0,event
13:29:48.123,1.4709929,0.6887135,1.3272848,1.1654491,1.1786646,-0.25241026,1.1072448,0.9936233,0.91129756,0.018393148,0.50200176,0.60844886,1.047943,0.2989442,-0.24748908,0.6758433,0.7298363,-0.13335586,-0.54050696,0.66375434,809.4872,826.0073,809.4872,792.5641,714.7985,-0.2529296875,0.103759765625,0.9544677734375,1.607513427734375,-2.46734619140625,2.10845947265625,1.0,1.0,4.0,1.0,1.0,100.0,event
13:29:48.124,1.4709929,0.6887135,1.3272848,1.1654491,1.1786646,-0.25241026,1.1072448,0.9936233,0.91129756,0.018393148,0.50200176,0.60844886,1.047943,0.2989442,-0.24748908,0.6758433,0.7298363,-0.13335586,-0.54050696,0.66375434,817.9487,1116.1172,806.26373,804.2491,720.84247,-0.2529296875,0.103759765625,0.9544677734375,1.607513427734375,-2.46734619140625,2.10845947265625,1.0,1.0,4.0,1.0,1.0,100.0,event
13:29:48.124,1.4709929,0.6887135,1.3272848,1.1654491,1.1786646,-0.25241026,1.1072448,0.9936233,0.91129756,0.018393148,0.50200176,0.60844886,1.047943,0.2989442,-0.24748908,0.6758433,0.7298363,-0.13335586,-0.54050696,0.66375434,821.1722,857.4359,801.02563,808.68134,727.28937,-0.2529296875,0.103759765625,0.9544677734375,1.607513427734375,-2.46734619140625,2.10845947265625,1.0,1.0,4.0,1.0,1.0,100.0,event
13:29:48.198,1.4709929,0.6887135,1.3272848,1.1654491,1.1786646,-0.25241026,1.1072448,0.9936233,0.91129756,0.018393148,0.50200176,0.60844886,1.047943,0.2989442,-0.24748908,0.6758433,0.7298363,-0.13335586,-0.54050696,0.66375434,800.6227,885.2381,803.8461,795.38464,632.1978,-0.2503662109375,0.104736328125,0.95025634765625,2.220611572265625,-4.194488525390625,0.40374755859375,1.0,1.0,4.0,1.0,1.0,100.0,event
13:29:48.200,1.4709929,0.6887135,1.3272848,1.1654491,1.1786646,-0.25241026,1.1072448,0.9936233,0.91129756,0.018393148,0.50200176,0.60844886,1.047943,0.2989442,-0.24748908,0.6758433,0.7298363,-0.13335586,-0.54050696,0.66375434,787.326,983.1502,807.47253,793.7729,594.7253,-0.2503662109375,0.104736328125,0.95025634765625,2.220611572265625,-4.194488525390625,0.40374755859375,1.0,1.0,4.0,1.0,1.0,100.0,event
13:29:48.201,1.4709929,0.6887135,1.3272848,1.1654491,1.1786646,-0.25241026,1.1072448,0.9936233,0.91129756,0.018393148,0.50200176,0.60844886,1.047943,0.2989442,-0.24748908,0.6758433,0.7298363,-0.13335586,-0.54050696,0.66375434,800.6227,876.3736,805.4579,799.41394,668.46155,-0.2503662109375,0.104736328125,0.95025634765625,2.220611572265625,-4.194488525390625,0.40374755859375,1.0,1.0,4.0,1.0,1.0,100.0,event
13:29:48.201,1.4709929,0.6887135,1.3272848,1.1654491,1.1786646,-0.25241026,1.1072448,0.9936233,0.91129756,0.018393148,0.50200176,0.60844886,1.047943,0.2989442,-0.24748908,0.6758433,0.7298363,-0.13335586,-0.54050696,0.66375434,808.68134,801.4286,807.47253,812.3077,701.0989,-0.2503662109375,0.104736328125,0.95025634765625,2.220611572265625,-4.194488525390625,0.40374755859375,1.0,1.0,4.0,1.0,1.0,100.0,event
13:29:48.202,1.4709929,0.6887135,1.3272848,1.1654491,1.1786646,-0.25241026,1.1072448,0.9936233,0.91129756,0.018393148,0.50200176,0.60844886,1.047943,0.2989442,-0.24748908,0.6758433,0.7298363,-0.13335586,-0.54050696,0.66375434,814.3223,947.28937,807.8755,825.6044,709.5604,-0.2503662109375,0.104736328125,0.95025634765625,2.220611572265625,-4.194488525390625,0.40374755859375,1.0,1.0,4.0,1.0,1.0,100.0,event
13:29:48.203,1.4709929,0.6887135,1.3272848,1.1654491,1.1786646,-0.25241026,1.1072448,0.9936233,0.91129756,0.018393148,0.50200176,0.60844886,1.047943,0.2989442,-0.24748908,0.6758433,0.7298363,-0.13335586,-0.54050696,0.66375434,813.91943,810.293,804.65204,818.3516,785.31134,-0.2503662109375,0.104736328125,0.95025634765625,2.220611572265625,-4.194488525390625,0.40374755859375,1.0,1.0,4.0,1.0,1.0,100.0,event
13:29:48.204,1.4709929,0.6887135,1.3272848,1.1654491,1.1786646,-0.25241026,1.1072448,0.9936233,0.91129756,0.018393148,0.50200176,0.60844886,1.047943,0.2989442,-0.24748908,0.6758433,0.7298363,-0.13335586,-0.54050696,0.66375434,802.23444,542.3443,808.68134,805.8608,871.53845,-0.2503662109375,0.104736328125,0.95025634765625,2.220611572265625,-4.194488525390625,0.40374755859375,1.0,1.0,4.0,1.0,1.0,100.0,event
13:29:48.205,1.4709929,0.6887135,1.3272848,1.1654491,1.1786646,-0.25241026,1.1072448,0.9936233,0.91129756,0.018393148,0.50200176,0.60844886,1.047943,0.2989442,-0.24748908,0.6758433,0.7298363,-0.13335586,-0.54050696,0.66375434,810.293,62.454212,809.4872,796.99634,1144.7252,-0.2503662109375,0.104736328125,0.95025634765625,2.220611572265625,-4.194488525390625,0.40374755859375,1.0,1.0,4.0,1.0,1.0,100.0,event
13:29:48.206,1.4709929,0.6887135,1.3272848,1.1654491,1.1786646,-0.25241026,1.1072448,0.9936233,0.91129756,0.018393148,0.50200176,0.60844886,1.047943,0.2989442,-0.24748908,0.6758433,0.7298363,-0.13335586,-0.54050696,0.66375434,810.696,405.75092,808.68134,797.8022,1038.7546,-0.2503662109375,0.104736328125,0.95025634765625,2.220611572265625,-4.194488525390625,0.40374755859375,1.0,1.0,4.0,1.0,1.0,100.0,event
13:29:48.207,1.4709929,0.6887135,1.3088788,1.1654491,1.1786646,-0.25241026,1.0791322,0.9936233,0.91129756,0.018393148,0.50200176,0.60844886,1.047943,0.2989442,-0.25091043,0.6758433,0.7298363,-0.13335586,-0.54720515,0.66375434,806.6667,1125.7876,806.6667,804.2491,745.0183,-0.2503662109375,0.104736328125,0.95025634765625,2.220611572265625,-4.194488525390625,0.40374755859375,1.0,1.0,4.0,1.0,1.0,100.0,event
13:29:48.211,1.4709929,0.6887135,1.3088788,1.1654491,1.1786646,-0.25241026,1.0791322,0.9936233,0.91129756,0.018393148,0.50200176,0.60844886,1.047943,0.2989442,-0.25091043,0.6758433,0.7298363,-0.13335586,-0.54720515,0.66375434,803.0403,884.43225,803.44324,807.8755,779.67035,-0.2503662109375,0.104736328125,0.95025634765625,2.220611572265625,-4.194488525390625,0.40374755859375,1.0,1.0,4.0,1.0,1.0,100.0,event
13:29:48.212,1.4709929,0.6887135,1.3088788,1.1654491,1.1786646,-0.25241026,1.0791322,0.9936233,0.91129756,0.018393148,0.50200176,0.60844886,1.047943,0.2989442,-0.25091043,0.6758433,0.7298363,-0.13335586,-0.54720515,0.66375434,801.8315,786.9231,805.4579,801.02563,779.67035,-0.2503662109375,0.104736328125,0.95025634765625,2.220611572265625,-4.194488525390625,0.40374755859375,1.0,1.0,4.0,1.0,1.0,100.0,event
13:29:48.243,1.4709929,0.6887135,1.3088788,1.1654491,1.1786646,-0.25241026,1.0791322,0.9936233,0.91129756,0.018393148,0.50200176,0.60844886,1.047943,0.2989442,-0.25091043,0.6758433,0.7298363,-0.13335586,-0.54720515,0.66375434,808.2784,1049.6337,807.47253,794.17584,722.8571,-0.2542724609375,0.10406494140625,0.95867919921875,2.82623291015625,-2.011260986328125,1.084136962890625,1.0,1.0,4.0,1.0,1.0,100.0,event
13:29:48.245,1.4709929,0.6887135,1.3088788,1.1654491,1.1786646,-0.25241026,1.0791322,0.9936233,0.91129756,0.018393148,0.50200176,0.60844886,1.047943,0.2989442,-0.25091043,0.6758433,0.7298363,-0.13335586,-0.54720515,0.66375434,819.9634,1112.8938,807.47253,795.38464,699.89014,-0.2542724609375,0.10406494140625,0.95867919921875,2.82623291015625,-2.011260986328125,1.084136962890625,1.0,1.0,4.0,1.0,1.0,100.0,event
13:29:48.246,1.4709929,0.6887135,1.3088788,1.1654491,1.1786646,-0.25241026,1.0791322,0.9936233,0.91129756,0.018393148,0.50200176,0.60844886,1.047943,0.2989442,-0.25091043,0.6758433,0.7298363,-0.13335586,-0.54720515,0.66375434,826.8132,901.75824,805.8608,797.3993,763.5531,-0.2542724609375,0.10406494140625,0.95867919921875,2.82623291015625,-2.011260986328125,1.084136962890625,1.0,1.0,4.0,1.0,1.0,100.0,event
13:29:48.247,1.4709929,0.6887135,1.3088788,1.1654491,1.1786646,-0.25241026,1.0791322,0.9936233,0.91129756,0.018393148,0.50200176,0.60844886,1.047943,0.2989442,-0.25091043,0.6758433,0.7298363,-0.13335586,-0.54720515,0.66375434,819.9634,838.9011,805.05493,805.4579,745.0183,-0.2542724609375,0.10406494140625,0.95867919921875,2.82623291015625,-2.011260986328125,1.084136962890625,1.0,1.0,4.0,1.0,1.0,100.0,event
13:29:48.248,1.4709929,0.6887135,1.3088788,1.1654491,1.1786646,-0.25241026,1.0791322,0.9936233,0.91129756,0.018393148,0.50200176,0.60844886,1.047943,0.2989442,-0.25091043,0.6758433,0.7298363,-0.13335586,-0.54720515,0.66375434,805.05493,840.10986,807.47253,798.60803,646.7033,-0.2542724609375,0.10406494140625,0.95867919921875,2.82623291015625,-2.011260986328125,1.084136962890625,1.0,1.0,4.0,1.0,1.0,100.0,event
13:29:48.249,1.4709929,0.6887135,1.3088788,1.1654491,1.1786646,-0.25241026,1.0791322,0.9936233,0.91129756,0.018393148,0.50200176,0.60844886,1.047943,0.2989442,-0.25091043,0.6758433,0.7298363,-0.13335586,-0.54720515,0.66375434,793.7729,753.47986,807.8755,780.87915,659.59705,-0.2542724609375,0.10406494140625,0.95867919921875,2.82623291015625,-2.011260986328125,1.084136962890625,1.0,1.0,4.0,1.0,1.0,100.0,event
13:29:48.249,1.4709929,0.6887135,1.3088788,1.1654491,1.1786646,-0.25241026,1.0791322,0.9936233,0.91129756,0.018393148,0.50200176,0.60844886,1.047943,0.2989442,-0.25091043,0.6758433,0.7298363,-0.13335586,-0.54720515,0.66375434,796.1905,348.13187,809.0842,794.9817,970.2564,-0.2542724609375,0.10406494140625,0.95867919921875,2.82623291015625,-2.011260986328125,1.084136962890625,1.0,1.0,4.0,1.0,1.0,100.0,event
13:29:48.250,1.4709929,0.6887135,1.3088788,1.1654491,1.1786646,-0.25241026,1.0791322,0.9936233,0.91129756,0.018393148,0.50200176,0.60844886,1.047943,0.2989442,-0.25091043,0.6758433,0.7298363,-0.13335586,-0.54720515,0.66375434,790.9524,249.41393,807.0696,808.2784,1027.0696,-0.2542724609375,0.10406494140625,0.95867919921875,2.82623291015625,-2.011260986328125,1.084136962890625,1.0,1.0,4.0,1.0,1.0,100.0,event
13:29:48.251,1.4709929,0.6887135,1.3088788,1.1654491,1.1786646,-0.25241026,1.0791322,0.9936233,0.91129756,0.018393148,0.50200176,0.60844886,1.047943,0.2989442,-0.25091043,0.6758433,0.7298363,-0.13335586,-0.54720515,0.66375434,795.78754,853.4066,803.44324,801.8315,660.80585,-0.2542724609375,0.10406494140625,0.95867919921875,2.82623291015625,-2.011260986328125,1.084136962890625,1.0,1.0,4.0,1.0,1.0,100.0,event
13:29:48.251,1.4709929,0.6887135,1.3088788,1.1654491,1.1786646,-0.25241026,1.0791322,0.9936233,0.91129756,0.018393148,0.50200176,0.60844886,1.047943,0.2989442,-0.25091043,0.6758433,0.7298363,-0.13335586,-0.54720515,0.66375434,791.3553,870.32965,802.6374,776.04395,633.4066,-0.2542724609375,0.10406494140625,0.95867919921875,2.82623291015625,-2.011260986328125,1.084136962890625,1.0,1.0,4.0,1.0,1.0,100.0,event
13:29:48.252,1.4709929,0.6887135,1.3088788,1.1654491,1.1786646,-0.25241026,1.0791322,0.9936233,0.91129756,0.018393148,0.50200176,0.60844886,1.047943,0.2989442,-0.25091043,0.6758433,0.7298363,-0.13335586,-0.54720515,0.66375434,796.1905,612.8571,803.44324,772.4176,799.011,-0.2542724609375,0.10406494140625,0.95867919921875,2.82623291015625,-2.011260986328125,1.084136962890625,1.0,1.0,4.0,1.0,1.0,100.0,event
13:29:48.253,1.4709929,0.6887135,1.3088788,1.1654491,1.1786646,-0.25241026,1.0791322,0.9936233,0.91129756,0.018393148,0.50200176,0.60844886,1.047943,0.2989442,-0.25091043,0.6758433,0.7298363,-0.13335586,-0.54720515,0.66375434,804.65204,797.8022,805.4579,790.54944,801.02563,-0.2542724609375,0.10406494140625,0.95867919921875,2.82623291015625,-2.011260986328125,1.084136962890625,1.0,1.0,4.0,1.0,1.0,100.0,event
13:29:48.278,1.4709929,0.6887135,1.3088788,1.1654491,1.1786646,-0.25241026,1.0791322,0.9936233,0.91129756,0.018393148,0.50200176,0.60844886,1.047943,0.2989442,-0.25091043,0.6758433,0.7298363,-0.13335586,-0.54720515,0.66375434,815.12823,1093.1501,804.65204,805.05493,707.5458,-0.25958251953125,0.1148681640625,0.962646484375,2.52716064453125,-1.973876953125,1.016845703125,1.0,1.0,4.0,1.0,1.0,100.0,event
13:29:48.279,1.4709929,0.6887135,1.3088788,1.1654491,1.1786646,-0.25241026,1.0791322,0.9936233,0.91129756,0.018393148,0.50200176,0.60844886,1.047943,0.2989442,-0.25091043,0.6758433,0.7298363,-0.13335586,-0.54720515,0.66375434,809.0842,946.08057,807.8755,810.696,787.326,-0.25958251953125,0.1148681640625,0.962646484375,2.52716064453125,-1.973876953125,1.016845703125,1.0,1.0,4.0,1.0,1.0,100.0,event
13:29:48.280,1.4709929,0.6887135,1.3088788,1.1654491,1.1786646,-0.25241026,1.0791322,0.9936233,0.91129756,0.018393148,0.50200176,0.60844886,1.047943,0.2989442,-0.25091043,0.6758433,0.7298363,-0.13335586,-0.54720515,0.66375434,780.07324,506.48352,811.0989,801.8315,887.25275,-0.25958251953125,0.1148681640625,0.962646484375,2.52716064453125,-1.973876953125,1.016845703125,1.0,1.0,4.0,1.0,1.0,100.0,event
13:29:48.281,1.4709929,0.6887135,1.3088788,1.1654491,1.1786646,-0.25241026,1.0791322,0.9936233,0.91129756,0.018393148,0.50200176,0.60844886,1.047943,0.2989442,-0.25091043,0.6758433,0.7298363,-0.13335586,-0.54720515,0.66375434,782.8938,693.44324,807.8755,796.5934,805.4579,-0.25958251953125,0.1148681640625,0.962646484375,2.52716064453125,-1.973876953125,1.016845703125,1.0,1.0,4.0,1.0,1.0,100.0,event
13:29:48.282,1.4709929,0.6887135,1.3088788,1.1654491,1.1786646,-0.25241026,1.0791322,0.9936233,0.91129756,0.018393148,0.50200176,0.60844886,1.047943,0.2989442,-0.25091043,0.6758433,0.7298363,-0.13335586,-0.54720515,0.66375434,785.31134,1108.8645,807.8755,795.38464,745.82416,-0.25958251953125,0.1148681640625,0.962646484375,2.52716064453125,-1.973876953125,1.016845703125,1.0,1.0,4.0,1.0,1.0,100.0,event
13:29:48.282,1.4709929,0.6887135,1.3088788,1.1654491,1.1786646,-0.25241026,1.0791322,0.9936233,0.91129756,0.018393148,0.50200176,0.60844886,1.047943,0.2989442,-0.25091043,0.6758433,0.7298363,-0.13335586,-0.54720515,0.66375434,794.57874,825.6044,809.0842,808.2784,993.22345,-0.25958251953125,0.1148681640625,0.962646484375,2.52716064453125,-1.973876953125,1.016845703125,1.0,1.0,4.0,1.0,1.0,100.0,event
13:29:48.283,1.4709929,0.6887135,1.3088788,1.1654491,1.1786646,-0.25241026,1.0791322,0.9936233,0.91129756,0.018393148,0.50200176,0.60844886,1.047943,0.2989442,-0.25091043,0.6758433,0.7298363,-0.13335586,-0.54720515,0.66375434,810.293,301.79486,804.65204,811.0989,1124.9817,-0.25958251953125,0.1148681640625,0.962646484375,2.52716064453125,-1.973876953125,1.016845703125,1.0,1.0,4.0,1.0,1.0,100.0,event
13:29:48.284,1.4709929,0.6887135,1.3088788,1.1654491,1.1786646,-0.25241026,1.0791322,0.9936233,0.91129756,0.018393148,0.50200176,0.60844886,1.047943,0.2989442,-0.25091043,0.6758433,0.7298363,-0.13335586,-0.54720515,0.66375434,788.5348,582.23444,799.81683,795.78754,841.7216,-0.25958251953125,0.1148681640625,0.962646484375,2.52716064453125,-1.973876953125,1.016845703125,1.0,1.0,4.0,1.0,1.0,100.0,event
13:29:48.285,1.4709929,0.6887135,1.3088788,1.1654491,1.1786646,-0.25241026,1.0791322,0.9936233,0.91129756,0.018393148,0.50200176,0.60844886,1.047943,0.2989442,-0.25091043,0.6758433,0.7298363,-0.13335586,-0.54720515,0.66375434,776.4469,1010.9524,805.4579,802.23444,635.0183,-0.25958251953125,0.1148681640625,0.962646484375,2.52716064453125,-1.973876953125,1.016845703125,1.0,1.0,4.0,1.0,1.0,100.0,event
13:29:48.287,1.4709929,0.6887135,1.3088788,1.1654491,1.1786646,-0.25241026,1.0791322,0.9936233,0.91129756,0.018393148,0.50200176,0.60844886,1.047943,0.2989442,-0.25091043,0.6758433,0.7298363,-0.13335586,-0.54720515,0.66375434,802.23444,691.8315,809.89014,811.50183,684.9817,-0.25958251953125,0.1148681640625,0.962646484375,2.52716064453125,-1.973876953125,1.016845703125,1.0,1.0,4.0,1.0,1.0,100.0,event
13:29:48.289,1.4709929,0.6887135,1.3088788,1.1654491,1.1786646,-0.25241026,1.0791322,0.9936233,0.91129756,0.018393148,0.50200176,0.60844886,1.047943,0.2989442,-0.25091043,0.6758433,0.7298363,-0.13335586,-0.54720515,0.66375434,813.5165,525.42126,807.0696,809.89014,828.8278,-0.25958251953125,0.1148681640625,0.962646484375,2.52716064453125,-1.973876953125,1.016845703125,1.0,1.0,4.0,1.0,1.0,100.0,event
13:29:48.290,1.4709929,0.6887135,1.2893684,1.1654491,1.1786646,-0.25241026,1.0515072,0.9936233,0.91129756,0.018393148,0.50200176,0.60844886,1.047943,0.2989442,-0.24648218,0.6758433,0.7298363,-0.13335586,-0.5489876,0.66375434,811.0989,851.39197,801.8315,805.05493,768.7912,-0.25958251953125,0.1148681640625,0.962646484375,2.52716064453125,-1.973876953125,1.016845703125,1.0,1.0,4.0,1.0,1.0,100.0,event
13:29:48.332,1.4709929,0.6887135,1.2893684,1.1654491,1.1786646,-0.25241026,1.0515072,0.9936233,0.91129756,0.018393148,0.50200176,0.60844886,1.047943,0.2989442,-0.24648218,0.6758433,0.7298363,-0.13335586,-0.5489876,0.66375434,814.3223,979.5238,801.4286,814.3223,683.36993,-0.2669677734375,0.11065673828125,0.94573974609375,2.011260986328125,-3.7982177734375,1.15142822265625,1.0,1.0,4.0,1.0,1.0,100.0,event
13:29:48.333,1.4709929,0.6887135,1.2893684,1.1654491,1.1786646,-0.25241026,1.0515072,0.9936233,0.91129756,0.018393148,0.50200176,0.60844886,1.047943,0.2989442,-0.24648218,0.6758433,0.7298363,-0.13335586,-0.5489876,0.66375434,808.68134,578.20514,806.26373,812.3077,811.50183,-0.2669677734375,0.11065673828125,0.94573974609375,2.011260986328125,-3.7982177734375,1.15142822265625,1.0,1.0,4.0,1.0,1.0,100.0,event
13:29:48.334,1.4709929,0.6887135,1.2893684,1.1654491,1.1786646,-0.25241026,1.0515072,0.9936233,0.91129756,0.018393148,0.50200176,0.60844886,1.047943,0.2989442,-0.24648218,0.6758433,0.7298363,-0.13335586,-0.5489876,0.66375434,800.6227,511.3187,805.05493,796.99634,801.8315,-0.2669677734375,0.11065673828125,0.94573974609375,2.011260986328125,-3.7982177734375,1.15142822265625,1.0,1.0,4.0,1.0,1.0,100.0,event
13:29:48.334,1.4709929,0.6887135,1.2893684,1.1654491,1.1786646,-0.25241026,1.0515072,0.9936233,0.91129756,0.018393148,0.50200176,0.60844886,1.047943,0.2989442,-0.24648218,0.6758433,0.7298363,-0.13335586,-0.5489876,0.66375434,801.8315,1033.5165,807.8755,786.52014,709.5604,-0.2669677734375,0.11065673828125,0.94573974609375,2.011260986328125,-3.7982177734375,1.15142822265625,1.0,1.0,4.0,1.0,1.0,100.0,event
13:29:48.335,1.4709929,0.6887135,1.2893684,1.1654491,1.1786646,-0.25241026,1.0515072,0.9936233,0.91129756,0.018393148,0.50200176,0.60844886,1.047943,0.2989442,-0.24648218,0.6758433,0.7298363,-0.13335586,-0.5489876,0.66375434,814.3223,1082.674,812.3077,803.0403,734.5421,-0.2669677734375,0.11065673828125,0.94573974609375,2.011260986328125,-3.7982177734375,1.15142822265625,1.0,1.0,4.0,1.0,1.0,100.0,event
13:29:48.335,1.4709929,0.6887135,1.2893684,1.1654491,1.1786646,-0.25241026,1.0515072,0.9936233,0.91129756,0.018393148,0.50200176,0.60844886,1.047943,0.2989442,-0.24648218,0.6758433,0.7298363,-0.13335586,-0.5489876,0.66375434,815.5311,514.5421,810.696,828.4249,952.9304,-0.2669677734375,0.11065673828125,0.94573974609375,2.011260986328125,-3.7982177734375,1.15142822265625,1.0,1.0,4.0,1.0,1.0,100.0,event
13:29:48.336,1.4709929,0.6887135,1.2893684,1.1654491,1.1786646,-0.25241026,1.0515072,0.9936233,0.91129756,0.018393148,0.50200176,0.60844886,1.047943,0.2989442,-0.24648218,0.6758433,0.7298363,-0.13335586,-0.5489876,0.66375434,804.2491,271.97803,808.2784,817.9487,1017.8022,-0.2669677734375,0.11065673828125,0.94573974609375,2.011260986328125,-3.7982177734375,1.15142822265625,1.0,1.0,4.0,1.0,1.0,100.0,event
13:29:48.336,1.4709929,0.6887135,1.2893684,1.1654491,1.1786646,-0.25241026,1.0515072,0.9936233,0.91129756,0.018393148,0.50200176,0.60844886,1.047943,0.2989442,-0.24648218,0.6758433,0.7298363,-0.13335586,-0.5489876,0.66375434,813.1135,814.7253,803.44324,809.0842,730.5128,-0.2669677734375,0.11065673828125,0.94573974609375,2.011260986328125,-3.7982177734375,1.15142822265625,1.0,1.0,4.0,1.0,1.0,100.0,event
13:29:48.337,1.4709929,0.6887135,1.2893684,1.1654491,1.1786646,-0.25241026,1.0515072,0.9936233,0.91129756,0.018393148,0.50200176,0.60844886,1.047943,0.2989442,-0.24648218,0.6758433,0.7298363,-0.13335586,-0.5489876,0.66375434,828.022,1116.5201,803.0403,815.12823,715.2015,-0.2669677734375,0.11065673828125,0.94573974609375,2.011260986328125,-3.7982177734375,1.15142822265625,1.0,1.0,4.0,1.0,1.0,100.0,event
13:29:48.337,1.4709929,0.6887135,1.2893684,1.1654491,1.1786646,-0.25241026,1.0515072,0.9936233,0.91129756,0.018393148,0.50200176,0.60844886,1.047943,0.2989442,-0.24648218,0.6758433,0.7298363,-0.13335586,-0.5489876,0.66375434,823.9927,527.8388,805.8608,821.1722,926.337,-0.2669677734375,0.11065673828125,0.94573974609375,2.011260986328125,-3.7982177734375,1.15142822265625,1.0,1.0,4.0,1.0,1.0,100.0,event
13:29:48.338,1.4709929,0.6887135,1.2893684,1.1654491,1.1786646,-0.25241026,1.0515072,0.9936233,0.91129756,0.018393148,0.50200176,0.60844886,1.047943,0.2989442,-0.24648218,0.6758433,0.7298363,-0.13335586,-0.5489876,0.66375434,811.0989,359.81686,813.5165,823.9927,890.4762,-0.2669677734375,0.11065673828125,0.94573974609375,2.011260986328125,-3.7982177734375,1.15142822265625,1.0,1.0,4.0,1.0,1.0,100.0,event
13:29:48.339,1.4709929,0.6887135,1.2893684,1.1654491,1.1786646,-0.25241026,1.0515072,0.9936233,0.91129756,0.018393148,0.50200176,0.60844886,1.047943,0.2989442,-0.24648218,0.6758433,0.7298363,-0.13335586,-0.5489876,0.66375434,807.47253,934.7985,811.9048,819.5604,647.50916,-0.2669677734375,0.11065673828125,0.94573974609375,2.011260986328125,-3.7982177734375,1.15142822265625,1.0,1.0,4.0,1.0,1.0,100.0,event
13:29:48.380,1.4709929,0.6887135,1.2893684,1.1654491,1.1786646,-0.25241026,1.0515072,0.9936233,0.91129756,0.018393148,0.50200176,0.60844886,1.047943,0.2989442,-0.24648218,0.6758433,0.7298363,-0.13335586,-0.5489876,0.66375434,799.011,923.5165,805.8608,808.2784,672.0879,-0.2669677734375,0.11065673828125,0.94573974609375,2.011260986328125,-3.7982177734375,1.15142822265625,1.0,1.0,4.0,1.0,1.0,100.0,event
13:29:48.381,1.4709929,0.6887135,1.2893684,1.1654491,1.1786646,-0.25241026,1.0515072,0.9936233,0.91129756,0.018393148,0.50200176,0.60844886,1.047943,0.2989442,-0.24648218,0.6758433,0.7298363,-0.13335586,-0.5489876,0.66375434,805.05493,851.79486,811.9048,809.4872,766.77655,-0.2669677734375,0.11065673828125,0.94573974609375,2.011260986328125,-3.7982177734375,1.15142822265625,1.0,1.0,4.0,1.0,1.0,100.0,event
13:29:48.382,1.4709929,0.6887135,1.2893684,1.1654491,1.1786646,-0.25241026,1.0515072,0.9936233,0.91129756,0.018393148,0.50200176,0.60844886,1.047943,0.2989442,-0.24648218,0.6758433,0.7298363,-0.13335586,-0.5489876,0.66375434,821.1722,985.9707,810.696,815.9341,743.4066,-0.2669677734375,0.11065673828125,0.94573974609375,2.011260986328125,-3.7982177734375,1.15142822265625,1.0,1.0,4.0,1.0,1.0,100.0,event
13:29:48.383,1.4709929,0.6887135,1.2893684,1.1654491,1.1786646,-0.25241026,1.0515072,0.9936233,0.91129756,0.018393148,0.50200176,0.60844886,1.047943,0.2989442,-0.24648218,0.6758433,0.7298363,-0.13335586,-0.5489876,0.66375434,810.696,1003.69965,805.4579,798.20514,673.2967,-0.2669677734375,0.11065673828125,0.94573974609375,2.011260986328125,-3.7982177734375,1.15142822265625,1.0,1.0,4.0,1.0,1.0,100.0,event
13:29:48.384,1.4709929,0.6887135,1.2893684,1.1654491,1.1786646,-0.25241026,1.0515072,0.9936233,0.91129756,0.018393148,0.50200176,0.60844886,1.047943,0.2989442,-0.24648218,0.6758433,0.7298363,-0.13335586,-0.5489876,0.66375434,794.9817,743.8095,807.0696,803.0403,735.34796,-0.2669677734375,0.11065673828125,0.94573974609375,2.011260986328125,-3.7982177734375,1.15142822265625,1.0,1.0,4.0,1.0,1.0,100.0,event
13:29:48.384,1.4709929,0.6887135,1.2893684,1.1654491,1.1786646,-0.25241026,1.0515072,0.9936233,0.91129756,0.018393148,0.50200176,0.60844886,1.047943,0.2989442,-0.24648218,0.6758433,0.7298363,-0.13335586,-0.5489876,0.66375434,791.75824,528.24176,810.696,806.6667,868.71796,-0.2669677734375,0.11065673828125,0.94573974609375,2.011260986328125,-3.7982177734375,1.15142822265625,1.0,1.0,4.0,1.0,1.0,100.0,event
13:29:48.385,1.4709929,0.6887135,1.2893684,1.1654491,1.1786646,-0.25241026,1.0515072,0.9936233,0.91129756,0.018393148,0.50200176,0.60844886,1.047943,0.2989442,-0.24648218,0.6758433,0.7298363,-0.13335586,-0.5489876,0.66375434,803.44324,659.19415,809.4872,795.78754,899.7436,-0.2669677734375,0.11065673828125,0.94573974609375,2.011260986328125,-3.7982177734375,1.15142822265625,1.0,1.0,4.0,1.0,1.0,100.0,event
13:29:48.386,1.4709929,0.6887135,1.2893684,1.1654491,1.1786646,-0.25241026,1.0515072,0.9936233,0.91129756,0.018393148,0.50200176,0.60844886,1.047943,0.2989442,-0.24648218,0.6758433,0.7298363,-0.13335586,-0.5489876,0.66375434,801.02563,916.6667,807.8755,813.5165,849.3773,-0.2669677734375,0.11065673828125,0.94573974609375,2.011260986328125,-3.7982177734375,1.15142822265625,1.0,1.0,4.0,1.0,1.0,100.0,event
13:29:48.386,1.4709929,0.6887135,1.2893684,1.1654491,1.1786646,-0.25241026,1.0515072,0.9936233,0.91129756,0.018393148,0.50200176,0.60844886,1.047943,0.2989442,-0.24648218,0.6758433,0.7298363,-0.13335586,-0.5489876,0.66375434,775.2381,736.55676,807.0696,816.7399,828.4249,-0.2669677734375,0.11065673828125,0.94573974609375,2.011260986328125,-3.7982177734375,1.15142822265625,1.0,1.0,4.0,1.0,1.0,100.0,event
13:29:48.387,1.4709929,0.6887135,1.2893684,1.1654491,1.1786646,-0.25241026,1.0515072,0.9936233,0.91129756,0.018393148,0.50200176,0.60844886,1.047943,0.2989442,-0.24648218,0.6758433,0.7298363,-0.13335586,-0.5489876,0.66375434,787.326,91.4652,808.2784,808.68134,987.98535,-0.2669677734375,0.11065673828125,0.94573974609375,2.011260986328125,-3.7982177734375,1.15142822265625,1.0,1.0,4.0,1.0,1.0,100.0,event
13:29:48.388,1.4709929,0.6887135,1.2893684,1.1654491,1.1786646,-0.25241026,1.0515072,0.9936233,0.91129756,0.018393148,0.50200176,0.60844886,1.047943,0.2989442,-0.24648218,0.6758433,0.7298363,-0.13335586,-0.5489876,0.66375434,791.75824,542.74725,806.26373,798.60803,826.8132,-0.2669677734375,0.11065673828125,0.94573974609375,2.011260986328125,-3.7982177734375,1.15142822265625,1.0,1.0,4.0,1.0,1.0,100.0,event
13:29:48.388,1.4709929,0.6887135,1.2893684,1.1654491,1.1786646,-0.25241026,1.0515072,0.9936233,0.91129756,0.018393148,0.50200176,0.60844886,1.047943,0.2989442,-0.24648218,0.6758433,0.7298363,-0.13335586,-0.5489876,0.66375434,800.2198,1092.7472,805.8608,797.3993,618.49817,-0.2669677734375,0.11065673828125,0.94573974609375,2.011260986328125,-3.7982177734375,1.15142822265625,1.0,1.0,4.0,1.0,1.0,100.0,event
13:29:48.411,1.4709929,0.6887135,1.2893684,1.1654491,1.1786646,-0.25241026,1.0515072,0.9936233,0.91129756,0.018393148,0.50200176,0.60844886,1.047943,0.2989442,-0.24648218,0.6758433,0.7298363,-0.13335586,-0.5489876,0.66375434,824.7985,900.9524,805.05493,804.2491,739.7802,-0.2493896484375,0.1107177734375,0.94964599609375,2.415008544921875,-2.893524169921875,-0.844879150390625,1.0,1.0,4.0,1.0,1.0,100.0,event
13:29:48.413,0.331053,0.6887135,1.2263519,0.27770653,0.3138404,-0.25241026,1.0492904,0.42737556,0.6699793,0.018393148,0.500224,0.4295937,0.8431677,0.2989442,-0.23004253,0.7766585,0.76794106,-0.13335586,-0.53035104,0.50187254,816.7399,894.5055,805.05493,802.23444,837.28937,-0.2493896484375,0.1107177734375,0.94964599609375,2.415008544921875,-2.893524169921875,-0.844879150390625,1.0,1.0,4.0,1.0,1.0,100.0,event
13:29:48.418,0.331053,0.6887135,1.2263519,0.27770653,0.3138404,-0.25241026,1.0492904,0.42737556,0.6699793,0.018393148,0.500224,0.4295937,0.8431677,0.2989442,-0.23004253,0.7766585,0.76794106,-0.13335586,-0.53035104,0.50187254,805.05493,1020.6227,811.50183,793.36993,776.4469,-0.2493896484375,0.1107177734375,0.94964599609375,2.415008544921875,-2.893524169921875,-0.844879150390625,1.0,1.0,4.0,1.0,1.0,100.0,event
13:29:48.419,0.331053,0.6887135,1.2263519,0.27770653,0.3138404,-0.25241026,1.0492904,0.42737556,0.6699793,0.018393148,0.500224,0.4295937,0.8431677,0.2989442,-0.23004253,0.7766585,0.76794106,-0.13335586,-0.53035104,0.50187254,788.1319,1006.52014,813.1135,789.34064,686.5934,-0.2493896484375,0.1107177734375,0.94964599609375,2.415008544921875,-2.893524169921875,-0.844879150390625,1.0,1.0,4.0,1.0,1.0,100.0,event
13:29:48.420,0.331053,0.6887135,1.2263519,0.27770653,0.3138404,-0.25241026,1.0492904,0.42737556,0.6699793,0.018393148,0.500224,0.4295937,0.8431677,0.2989442,-0.23004253,0.7766585,0.76794106,-0.13335586,-0.53035104,0.50187254,799.81683,864.2857,812.3077,801.4286,723.663,-0.2493896484375,0.1107177734375,0.94964599609375,2.415008544921875,-2.893524169921875,-0.844879150390625,1.0,1.0,4.0,1.0,1.0,100.0,event
13:29:48.420,0.331053,0.6887135,1.2263519,0.27770653,0.3138404,-0.25241026,1.0492904,0.42737556,0.6699793,0.018393148,0.500224,0.4295937,0.8431677,0.2989442,-0.23004253,0.7766585,0.76794106,-0.13335586,-0.53035104,0.50187254,835.6777,718.022,812.71063,810.293,841.31866,-0.2493896484375,0.1107177734375,0.94964599609375,2.415008544921875,-2.893524169921875,-0.844879150390625,1.0,1.0,4.0,1.0,1.0,100.0,event
13:29:48.421,0.331053,0.6887135,1.2263519,0.27770653,0.3138404,-0.25241026,1.0492904,0.42737556,0.6699793,0.018393148,0.500224,0.4295937,0.8431677,0.2989442,-0.23004253,0.7766585,0.76794106,-0.13335586,-0.53035104,0.50187254,832.0513,657.5824,811.50183,807.0696,840.5128,-0.2493896484375,0.1107177734375,0.94964599609375,2.415008544921875,-2.893524169921875,-0.844879150390625,1.0,1.0,4.0,1.0,1.0,100.0,event
13:29:48.421,0.331053,0.6887135,1.2263519,0.27770653,0.3138404,-0.25241026,1.0492904,0.42737556,0.6699793,0.018393148,0.500224,0.4295937,0.8431677,0.2989442,-0.23004253,0.7766585,0.76794106,-0.13335586,-0.53035104,0.50187254,799.41394,793.36993,811.50183,800.6227,816.337,-0.2493896484375,0.1107177734375,0.94964599609375,2.415008544921875,-2.893524169921875,-0.844879150390625,1.0,1.0,4.0,1.0,1.0,100.0,event
13:29:48.422,0.331053,0.6887135,1.2263519,0.27770653,0.3138404,-0.25241026,1.0492904,0.42737556,0.6699793,0.018393148,0.500224,0.4295937,0.8431677,0.2989442,-0.23004253,0.7766585,0.76794106,-0.13335586,-0.53035104,0.50187254,788.93774,402.52747,813.5165,800.6227,1011.75824,-0.2493896484375,0.1107177734375,0.94964599609375,2.415008544921875,-2.893524169921875,-0.844879150390625,1.0,1.0,4.0,1.0,1.0,100.0,event
13:29:48.423,0.331053,0.6887135,1.2263519,0.27770653,0.3138404,-0.25241026,1.0492904,0.42737556,0.6699793,0.018393148,0.500224,0.4295937,0.8431677,0.2989442,-0.23004253,0.7766585,0.76794106,-0.13335586,-0.53035104,0.50187254,818.3516,159.15752,812.3077,816.7399,1051.2454,-0.2493896484375,0.1107177734375,0.94964599609375,2.415008544921875,-2.893524169921875,-0.844879150390625,1.0,1.0,4.0,1.0,1.0,100.0,event
13:29:48.424,0.331053,0.6887135,1.2263519,0.27770653,0.3138404,-0.25241026,1.0492904,0.42737556,0.6699793,0.018393148,0.500224,0.4295937,0.8431677,0.2989442,-0.23004253,0.7766585,0.76794106,-0.13335586,-0.53035104,0.50187254,838.0952,950.10986,808.68134,810.696,803.44324,-0.2493896484375,0.1107177734375,0.94964599609375,2.415008544921875,-2.893524169921875,-0.844879150390625,1.0,1.0,4.0,1.0,1.0,100.0,event
13:29:48.424,0.331053,0.6887135,1.2263519,0.27770653,0.3138404,-0.25241026,1.0492904,0.42737556,0.6699793,0.018393148,0.500224,0.4295937,0.8431677,0.2989442,-0.23004253,0.7766585,0.76794106,-0.13335586,-0.53035104,0.50187254,835.6777,1078.2417,810.696,800.6227,784.5055,-0.2493896484375,0.1107177734375,0.94964599609375,2.415008544921875,-2.893524169921875,-0.844879150390625,1.0,1.0,4.0,1.0,1.0,100.0,event
13:29:48.447,0.331053,0.6887135,1.2263519,0.27770653,0.3138404,-0.25241026,1.0492904,0.42737556,0.6699793,0.018393148,0.500224,0.4295937,0.8431677,0.2989442,-0.23004253,0.7766585,0.76794106,-0.13335586,-0.53035104,0.50187254,821.1722,795.38464,813.5165,811.9048,788.1319,-0.26116943359375,0.10821533203125,0.94921875,1.33087158203125,-3.102874755859375,1.278533935546875,1.0,1.0,4.0,1.0,1.0,100.0,event
13:29:48.448,0.331053,0.6887135,1.2263519,0.27770653,0.3138404,-0.25241026,1.0492904,0.42737556,0.6699793,0.018393148,0.500224,0.4295937,0.8431677,0.2989442,-0.23004253,0.7766585,0.76794106,-0.13335586,-0.53035104,0.50187254,805.05493,959.7802,811.50183,810.293,710.7692,-0.26116943359375,0.10821533203125,0.94921875,1.33087158203125,-3.102874755859375,1.278533935546875,1.0,1.0,4.0,1.0,1.0,100.0,event
13:29:48.449,0.331053,0.6887135,1.2263519,0.27770653,0.3138404,-0.25241026,1.0492904,0.42737556,0.6699793,0.018393148,0.500224,0.4295937,0.8431677,0.2989442,-0.23004253,0.7766585,0.76794106,-0.13335586,-0.53035104,0.50187254,816.337,1150.3663,808.2784,814.7253,707.1429,-0.26116943359375,0.10821533203125,0.94921875,1.33087158203125,-3.102874755859375,1.278533935546875,1.0,1.0,4.0,1.0,1.0,100.0,event
13:29:48.450,0.331053,0.6887135,1.2263519,0.27770653,0.3138404,-0.25241026,1.0492904,0.42737556,0.6699793,0.018393148,0.500224,0.4295937,0.8431677,0.2989442,-0.23004253,0.7766585,0.76794106,-0.13335586,-0.53035104,0.50187254,829.2308,1011.3553,808.2784,825.6044,766.3736,-0.26116943359375,0.10821533203125,0.94921875,1.33087158203125,-3.102874755859375,1.278533935546875,1.0,1.0,4.0,1.0,1.0,100.0,event
13:29:48.450,0.331053,0.6887135,1.2263519,0.27770653,0.3138404,-0.25241026,1.0492904,0.42737556,0.6699793,0.018393148,0.500224,0.4295937,0.8431677,0.2989442,-0.23004253,0.7766585,0.76794106,-0.13335586,-0.53035104,0.50187254,825.6044,776.04395,809.4872,823.1868,818.7546,-0.26116943359375,0.10821533203125,0.94921875,1.33087158203125,-3.102874755859375,1.278533935546875,1.0,1.0,4.0,1.0,1.0,100.0,event
13:29:48.451,0.331053,0.6887135,1.2263519,0.27770653,0.3138404,-0.25241026,1.0492904,0.42737556,0.6699793,0.018393148,0.500224,0.4295937,0.8431677,0.2989442,-0.23004253,0.7766585,0.76794106,-0.13335586,-0.53035104,0.50187254,803.0403,681.3553,808.2784,810.293,836.8865,-0.26116943359375,0.10821533203125,0.94921875,1.33087158203125,-3.102874755859375,1.278533935546875,1.0,1.0,4.0,1.0,1.0,100.0,event
13:29:48.451,0.331053,0.6887135,1.2263519,0.27770653,0.3138404,-0.25241026,1.0492904,0.42737556,0.6699793,0.018393148,0.500224,0.4295937,0.8431677,0.2989442,-0.23004253,0.7766585,0.76794106,-0.13335586,-0.53035104,0.50187254,788.93774,740.989,810.696,801.02563,825.2015,-0.26116943359375,0.10821533203125,0.94921875,1.33087158203125,-3.102874755859375,1.278533935546875,1.0,1.0,4.0,1.0,1.0,100.0,event
13:29:48.452,0.331053,0.6887135,1.2263519,0.27770653,0.3138404,-0.25241026,1.0492904,0.42737556,0.6699793,0.018393148,0.500224,0.4295937,0.8431677,0.2989442,-0.23004253,0.7766585,0.76794106,-0.13335586,-0.53035104,0.50187254,803.8461,666.8498,813.1135,807.8755,870.32965,-0.26116943359375,0.10821533203125,0.94921875,1.33087158203125,-3.102874755859375,1.278533935546875,1.0,1.0,4.0,1.0,1.0,100.0,event
13:29:48.453,0.331053,0.6887135,1.2263519,0.27770653,0.3138404,-0.25241026,1.0492904,0.42737556,0.6699793,0.018393148,0.500224,0.4295937,0.8431677,0.2989442,-0.23004253,0.7766585,0.76794106,-0.13335586,-0.53035104,0.50187254,810.293,292.52747,811.9048,810.293,994.0293,-0.26116943359375,0.10821533203125,0.94921875,1.33087158203125,-3.102874755859375,1.278533935546875,1.0,1.0,4.0,1.0,1.0,100.0,event
13:29:48.453,0.331053,0.6887135,1.2263519,0.27770653,0.3138404,-0.25241026,1.0492904,0.42737556,0.6699793,0.018393148,0.500224,0.4295937,0.8431677,0.2989442,-0.23004253,0.7766585,0.76794106,-0.13335586,-0.53035104,0.50187254,798.60803,690.2198,809.89014,800.2198,869.5238,-0.26116943359375,0.10821533203125,0.94921875,1.33087158203125,-3.102874755859375,1.278533935546875,1.0,1.0,4.0,1.0,1.0,100.0,event
13:29:48.454,0.331053,0.6887135,1.2263519,0.27770653,0.3138404,-0.25241026,1.0492904,0.42737556,0.6699793,0.018393148,0.500224,0.4295937,0.8431677,0.2989442,-0.23004253,0.7766585,0.76794106,-0.13335586,-0.53035104,0.50187254,804.65204,996.04395,808.2784,802.23444,712.381,-0.26116943359375,0.10821533203125,0.94921875,1.33087158203125,-3.102874755859375,1.278533935546875,1.0,1.0,4.0,1.0,1.0,100.0,event
13:29:48.454,0.331053,0.6887135,1.2263519,0.27770653,0.3138404,-0.25241026,1.0492904,0.42737556,0.6699793,0.018393148,0.500224,0.4295937,0.8431677,0.2989442,-0.23004253,0.7766585,0.76794106,-0.13335586,-0.53035104,0.50187254,812.3077,484.32236,806.6667,805.8608,774.0293,-0.26116943359375,0.10821533203125,0.94921875,1.33087158203125,-3.102874755859375,1.278533935546875,1.0,1.0,4.0,1.0,1.0,100.0,event
13:29:48.478,0.331053,0.6887135,1.2263519,0.27770653,0.3138404,-0.25241026,1.0492904,0.42737556,0.6699793,0.018393148,0.500224,0.4295937,0.8431677,0.2989442,-0.23004253,0.7766585,0.76794106,-0.13335586,-0.53035104,0.50187254,809.4872,543.95605,805.8608,790.54944,767.1795,-0.2454833984375,0.11224365234375,0.96026611328125,1.891632080078125,-3.147735595703125,1.323394775390625,1.0,1.0,4.0,1.0,1.0,100.0,event
13:29:48.479,0.331053,0.6887135,1.2263519,0.27770653,0.3138404,-0.25241026,1.0492904,0.42737556,0.6699793,0.018393148,0.500224,0.4295937,0.8431677,0.2989442,-0.23004253,0.7766585,0.76794106,-0.13335586,-0.53035104,0.50187254,805.4579,1108.4615,805.05493,779.67035,700.293,-0.2454833984375,0.11224365234375,0.96026611328125,1.891632080078125,-3.147735595703125,1.323394775390625,1.0,1.0,4.0,1.0,1.0,100.0,event
13:29:48.480,0.331053,0.6887135,1.2263519,0.27770653,0.3138404,-0.25241026,1.0492904,0.42737556,0.6699793,0.018393148,0.500224,0.4295937,0.8431677,0.2989442,-0.23004253,0.7766585,0.76794106,-0.13335586,-0.53035104,0.50187254,804.65204,1094.359,806.6667,794.9817,707.9487,-0.2454833984375,0.11224365234375,0.96026611328125,1.891632080078125,-3.147735595703125,1.323394775390625,1.0,1.0,4.0,1.0,1.0,100.0,event
13:29:48.481,0.4046411,0.6887135,1.1633012,0.22689709,0.3274564,-0.25241026,1.0465404,0.44894195,0.67745835,0.018393148,0.48311135,0.4571941,0.83145064,0.2989442,-0.21796757,0.7834564,0.77801454,-0.13335586,-0.50971943,0.51393664,794.57874,842.9304,808.68134,804.2491,765.16486,-0.2454833984375,0.11224365234375,0.96026611328125,1.891632080078125,-3.147735595703125,1.323394775390625,1.0,1.0,4.0,1.0,1.0,100.0,event
13:29:48.485,0.4046411,0.6887135,1.1633012,0.22689709,0.3274564,-0.25241026,1.0465404,0.44894195,0.67745835,0.018393148,0.48311135,0.4571941,0.83145064,0.2989442,-0.21796757,0.7834564,0.77801454,-0.13335586,-0.50971943,0.51393664,790.9524,854.21246,809.0842,801.02563,780.87915,-0.2454833984375,0.11224365234375,0.96026611328125,1.891632080078125,-3.147735595703125,1.323394775390625,1.0,1.0,4.0,1.0,1.0,100.0,event
13:29:48.486,0.4046411,0.6887135,1.1633012,0.22689709,0.3274564,-0.25241026,1.0465404,0.44894195,0.67745835,0.018393148,0.48311135,0.4571941,0.83145064,0.2989442,-0.21796757,0.7834564,0.77801454,-0.13335586,-0.50971943,0.51393664,816.7399,844.5421,812.71063,798.60803,822.7839,-0.2454833984375,0.11224365234375,0.96026611328125,1.891632080078125,-3.147735595703125,1.323394775390625,1.0,1.0,4.0,1.0,1.0,100.0,event
13:29:48.486,0.4046411,0.6887135,1.1633012,0.22689709,0.3274564,-0.25241026,1.0465404,0.44894195,0.67745835,0.018393148,0.48311135,0.4571941,0.83145064,0.2989442,-0.21796757,0.7834564,0.77801454,-0.13335586,-0.50971943,0.51393664,802.6374,819.9634,813.5165,799.41394,766.3736,-0.2454833984375,0.11224365234375,0.96026611328125,1.891632080078125,-3.147735595703125,1.323394775390625,1.0,1.0,4.0,1.0,1.0,100.0,event
