TimeStamp,Delta_TP9,Delta_AF7,Delta_AF8,Delta_TP10,Theta_TP9,Theta_AF7,Theta_AF8,Theta_TP10,Alpha_TP9,Alpha_AF7,Alpha_AF8,Alpha_TP10,Beta_TP9,Beta_AF7,Beta_AF8,Beta_TP10,Gamma_TP9,Gamma_AF7,Gamma_AF8,Gamma_TP10,RAW_TP9,RAW_AF7,RAW_AF8,RAW_TP10,AUX_RIGHT,Accelerometer_X,Accelerometer_Y,Accelerometer_Z,Gyro_X,Gyro_Y,Gyro_Z,HeadBandOn,HSI_TP9,HSI_AF7,HSI_AF8,HSI_TP10,Battery,Elements
11:58:35.739,0.60057545,-0.63302,0.12738672,0.7504304,0.22675362,-0.33711123,-0.52095985,0.123513326,0.79263455,0.13315561,0.18394488,0.8439783,1.1789786,1.2642564,0.945617,1.174862,1.3842157,1.1901654,0.95445305,1.5437958,778.0586,805.4579,772.01465,775.64105,652.74725,-0.1429443359375,0.1885986328125,0.97930908203125,3.072967529296875,6.916046142578125,-1.42059326171875,1.0,2.0,1.0,1.0,2.0,100.0,event
11:58:35.740,0.60057545,-0.63302,0.12738672,0.7504304,0.22675362,-0.33711123,-0.52095985,0.123513326,0.79263455,0.13315561,0.18394488,0.8439783,1.1789786,1.2642564,0.945617,1.174862,1.3842157,1.1901654,0.95445305,1.5437958,773.6264,790.9524,821.1722,796.99634,732.1245,-0.1429443359375,0.1885986328125,0.97930908203125,3.072967529296875,6.916046142578125,-1.42059326171875,1.0,2.0,1.0,1.0,2.0,100.0,event
11:58:35.740,0.60057545,-0.63302,0.12738672,0.7504304,0.22675362,-0.33711123,-0.52095985,0.123513326,0.79263455,0.13315561,0.18394488,0.8439783,1.1789786,1.2642564,0.945617,1.174862,1.3842157,1.1901654,0.95445305,1.5437958,829.2308,824.3956,828.8278,838.9011,737.76556,-0.1429443359375,0.1885986328125,0.97930908203125,3.072967529296875,6.916046142578125,-1.42059326171875,1.0,2.0,1.0,1.0,2.0,100.0,event
11:58:35.741,0.60057545,-0.63302,0.12738672,0.7504304,0.22675362,-0.33711123,-0.52095985,0.123513326,0.79263455,0.13315561,0.18394488,0.8439783,1.1789786,1.2642564,0.945617,1.174862,1.3842157,1.1901654,0.95445305,1.5437958,828.8278,822.7839,824.3956,819.5604,740.989,-0.1429443359375,0.1885986328125,0.97930908203125,3.072967529296875,6.916046142578125,-1.42059326171875,1.0,2.0,1.0,1.0,2.0,100.0,event
11:58:35.742,0.60057545,-0.63302,0.12738672,0.7504304,0.22675362,-0.33711123,-0.52095985,0.123513326,0.79263455,0.13315561,0.18394488,0.8439783,1.1789786,1.2642564,0.945617,1.174862,1.3842157,1.1901654,0.95445305,1.5437958,794.17584,794.57874,838.9011,826.0073,808.68134,-0.1429443359375,0.1885986328125,0.97930908203125,3.072967529296875,6.916046142578125,-1.42059326171875,1.0,2.0,1.0,1.0,2.0,100.0,event
11:58:35.742,0.60057545,-0.63302,0.12738672,0.7504304,0.22675362,-0.33711123,-0.52095985,0.123513326,0.79263455,0.13315561,0.18394488,0.8439783,1.1789786,1.2642564,0.945617,1.174862,1.3842157,1.1901654,0.95445305,1.5437958,823.5897,780.4762,829.6337,844.94507,867.50916,-0.1429443359375,0.1885986328125,0.97930908203125,3.072967529296875,6.916046142578125,-1.42059326171875,1.0,2.0,1.0,1.0,2.0,100.0,event
11:58:35.743,0.60057545,-0.63302,0.12738672,0.7504304,0.22675362,-0.33711123,-0.52095985,0.123513326,0.79263455,0.13315561,0.18394488,0.8439783,1.1789786,1.2642564,0.945617,1.174862,1.3842157,1.1901654,0.95445305,1.5437958,857.8388,796.99634,823.1868,846.55676,797.3993,-0.1429443359375,0.1885986328125,0.97930908203125,3.072967529296875,6.916046142578125,-1.42059326171875,1.0,2.0,1.0,1.0,2.0,100.0,event
11:58:35.744,0.60057545,-0.63302,0.12738672,0.7504304,0.22675362,-0.33711123,-0.52095985,0.123513326,0.79263455,0.13315561,0.18394488,0.8439783,1.1789786,1.2642564,0.945617,1.174862,1.3842157,1.1901654,0.95445305,1.5437958,886.04395,794.9817,801.8315,885.2381,732.1245,-0.1429443359375,0.1885986328125,0.97930908203125,3.072967529296875,6.916046142578125,-1.42059326171875,1.0,2.0,1.0,1.0,2.0,100.0,event
11:58:35.744,0.60057545,-0.63302,0.12738672,0.7504304,0.22675362,-0.33711123,-0.52095985,0.123513326,0.79263455,0.13315561,0.18394488,0.8439783,1.1789786,1.2642564,0.945617,1.174862,1.3842157,1.1901654,0.95445305,1.5437958,867.50916,795.78754,797.8022,884.83514,765.9707,-0.1429443359375,0.1885986328125,0.97930908203125,3.072967529296875,6.916046142578125,-1.42059326171875,1.0,2.0,1.0,1.0,2.0,100.0,event
11:58:35.745,0.60057545,-0.63302,0.12738672,0.7504304,0.22675362,-0.33711123,-0.52095985,0.123513326,0.79263455,0.13315561,0.18394488,0.8439783,1.1789786,1.2642564,0.945617,1.174862,1.3842157,1.1901654,0.95445305,1.5437958,817.5458,836.8865,806.6667,836.8865,906.99634,-0.1429443359375,0.1885986328125,0.97930908203125,3.072967529296875,6.916046142578125,-1.42059326171875,1.0,2.0,1.0,1.0,2.0,100.0,event
11:58:35.746,0.60057545,-0.63302,0.12738672,0.7504304,0.22675362,-0.33711123,-0.52095985,0.123513326,0.79263455,0.13315561,0.18394488,0.8439783,1.1789786,1.2642564,0.945617,1.174862,1.3842157,1.1901654,0.95445305,1.5437958,804.2491,825.2015,794.17584,806.6667,883.6264,-0.1429443359375,0.1885986328125,0.97930908203125,3.072967529296875,6.916046142578125,-1.42059326171875,1.0,2.0,1.0,1.0,2.0,100.0,event
11:58:35.746,0.60057545,-0.63302,0.12738672,0.7504304,0.22675362,-0.33711123,-0.52095985,0.123513326,0.79263455,0.13315561,0.18394488,0.8439783,1.1789786,1.2642564,0.945617,1.174862,1.3842157,1.1901654,0.95445305,1.5437958,811.50183,800.6227,813.91943,811.50183,828.8278,-0.1429443359375,0.1885986328125,0.97930908203125,3.072967529296875,6.916046142578125,-1.42059326171875,1.0,2.0,1.0,1.0,2.0,100.0,event
11:58:35.773,0.60057545,-0.63302,0.12738672,0.7504304,0.22675362,-0.33711123,-0.52095985,0.123513326,0.79263455,0.13315561,0.18394488,0.8439783,1.1789786,1.2642564,0.945617,1.174862,1.3842157,1.1901654,0.95445305,1.5437958,834.4689,812.3077,803.0403,837.6923,890.87915,-0.1612548828125,0.17938232421875,0.96197509765625,0.740203857421875,-0.49346923828125,-1.734619140625,1.0,2.0,1.0,1.0,2.0,100.0,event
11:58:35.774,0.60057545,-0.6409856,0.12738672,0.7504304,0.22675362,-0.34423643,-0.52095985,0.123513326,0.79263455,0.1035813,0.18394488,0.8439783,1.1789786,1.2615083,0.945617,1.174862,1.3842157,1.1740726,0.95445305,1.5437958,812.71063,823.9927,803.8461,827.2161,906.99634,-0.1612548828125,0.17938232421875,0.96197509765625,0.740203857421875,-0.49346923828125,-1.734619140625,1.0,2.0,1.0,1.0,2.0,100.0,event
11:58:35.777,0.60057545,-0.6409856,0.12738672,0.7504304,0.22675362,-0.34423643,-0.52095985,0.123513326,0.79263455,0.1035813,0.18394488,0.8439783,1.1789786,1.2615083,0.945617,1.174862,1.3842157,1.1740726,0.95445305,1.5437958,796.1905,802.6374,836.8865,788.93774,813.91943,-0.1612548828125,0.17938232421875,0.96197509765625,0.740203857421875,-0.49346923828125,-1.734619140625,1.0,2.0,1.0,1.0,2.0,100.0,event
11:58:35.778,0.60057545,-0.6409856,0.12738672,0.7504304,0.22675362,-0.34423643,-0.52095985,0.123513326,0.79263455,0.1035813,0.18394488,0.8439783,1.1789786,1.2615083,0.945617,1.174862,1.3842157,1.1740726,0.95445305,1.5437958,849.7802,804.65204,821.1722,830.84247,780.07324,-0.1612548828125,0.17938232421875,0.96197509765625,0.740203857421875,-0.49346923828125,-1.734619140625,1.0,2.0,1.0,1.0,2.0,100.0,event
11:58:35.778,0.60057545,-0.6409856,0.12738672,0.7504304,0.22675362,-0.34423643,-0.52095985,0.123513326,0.79263455,0.1035813,0.18394488,0.8439783,1.1789786,1.2615083,0.945617,1.174862,1.3842157,1.1740726,0.95445305,1.5437958,847.76556,807.8755,799.011,834.87177,722.4542,-0.1612548828125,0.17938232421875,0.96197509765625,0.740203857421875,-0.49346923828125,-1.734619140625,1.0,2.0,1.0,1.0,2.0,100.0,event
11:58:35.779,0.60057545,-0.6409856,0.12738672,0.7504304,0.22675362,-0.34423643,-0.52095985,0.123513326,0.79263455,0.1035813,0.18394488,0.8439783,1.1789786,1.2615083,0.945617,1.174862,1.3842157,1.1740726,0.95445305,1.5437958,807.47253,807.47253,811.50183,793.36993,746.63007,-0.1612548828125,0.17938232421875,0.96197509765625,0.740203857421875,-0.49346923828125,-1.734619140625,1.0,2.0,1.0,1.0,2.0,100.0,event
11:58:35.780,0.60057545,-0.6409856,0.12738672,0.7504304,0.22675362,-0.34423643,-0.52095985,0.123513326,0.79263455,0.1035813,0.18394488,0.8439783,1.1789786,1.2615083,0.945617,1.174862,1.3842157,1.1740726,0.95445305,1.5437958,798.20514,819.9634,827.2161,810.696,861.4652,-0.1612548828125,0.17938232421875,0.96197509765625,0.740203857421875,-0.49346923828125,-1.734619140625,1.0,2.0,1.0,1.0,2.0,100.0,event
11:58:35.780,0.60057545,-0.6409856,0.12738672,0.7504304,0.22675362,-0.34423643,-0.52095985,0.123513326,0.79263455,0.1035813,0.18394488,0.8439783,1.1789786,1.2615083,0.945617,1.174862,1.3842157,1.1740726,0.95445305,1.5437958,806.6667,812.3077,793.36993,810.293,786.1172,-0.1612548828125,0.17938232421875,0.96197509765625,0.740203857421875,-0.49346923828125,-1.734619140625,1.0,2.0,1.0,1.0,2.0,100.0,event
11:58:35.781,0.60057545,-0.6409856,0.12738672,0.7504304,0.22675362,-0.34423643,-0.52095985,0.123513326,0.79263455,0.1035813,0.18394488,0.8439783,1.1789786,1.2615083,0.945617,1.174862,1.3842157,1.1740726,0.95445305,1.5437958,792.96704,769.19415,820.3663,769.59705,953.3333,-0.1612548828125,0.17938232421875,0.96197509765625,0.740203857421875,-0.49346923828125,-1.734619140625,1.0,2.0,1.0,1.0,2.0,100.0,event
11:58:35.781,0.60057545,-0.6409856,0.12738672,0.7504304,0.22675362,-0.34423643,-0.52095985,0.123513326,0.79263455,0.1035813,0.18394488,0.8439783,1.1789786,1.2615083,0.945617,1.174862,1.3842157,1.1740726,0.95445305,1.5437958,810.293,766.77655,790.54944,788.1319,828.022,-0.1612548828125,0.17938232421875,0.96197509765625,0.740203857421875,-0.49346923828125,-1.734619140625,1.0,2.0,1.0,1.0,2.0,100.0,event
11:58:35.782,0.60057545,-0.6409856,0.12738672,0.7504304,0.22675362,-0.34423643,-0.52095985,0.123513326,0.79263455,0.1035813,0.18394488,0.8439783,1.1789786,1.2615083,0.945617,1.174862,1.3842157,1.1740726,0.95445305,1.5437958,811.0989,846.9597,809.89014,798.20514,749.0476,-0.1612548828125,0.17938232421875,0.96197509765625,0.740203857421875,-0.49346923828125,-1.734619140625,1.0,2.0,1.0,1.0,2.0,100.0,event
11:58:35.783,0.60057545,-0.6409856,0.12738672,0.7504304,0.22675362,-0.34423643,-0.52095985,0.123513326,0.79263455,0.1035813,0.18394488,0.8439783,1.1789786,1.2615083,0.945617,1.174862,1.3842157,1.1740726,0.95445305,1.5437958,827.619,841.7216,795.78754,817.1429,659.19415,-0.1612548828125,0.17938232421875,0.96197509765625,0.740203857421875,-0.49346923828125,-1.734619140625,1.0,2.0,1.0,1.0,2.0,100.0,event
11:58:35.841,0.60057545,-0.6409856,0.12738672,0.7504304,0.22675362,-0.34423643,-0.52095985,0.123513326,0.79263455,0.1035813,0.18394488,0.8439783,1.1789786,1.2615083,0.945617,1.174862,1.3842157,1.1740726,0.95445305,1.5437958,826.4103,794.57874,787.326,819.15753,711.978,-0.16412353515625,0.1671142578125,0.966064453125,0.70281982421875,-2.714080810546875,-1.697235107421875,1.0,2.0,1.0,1.0,2.0,100.0,event
11:58:35.842,0.60057545,-0.6409856,0.12738672,0.7504304,0.22675362,-0.34423643,-0.52095985,0.123513326,0.79263455,0.1035813,0.18394488,0.8439783,1.1789786,1.2615083,0.945617,1.174862,1.3842157,1.1740726,0.95445305,1.5437958,815.9341,792.96704,785.31134,826.0073,786.1172,-0.16412353515625,0.1671142578125,0.966064453125,0.70281982421875,-2.714080810546875,-1.697235107421875,1.0,2.0,1.0,1.0,2.0,100.0,event
11:58:35.843,0.60057545,-0.6409856,0.12738672,0.7504304,0.22675362,-0.34423643,-0.52095985,0.123513326,0.79263455,0.1035813,0.18394488,0.8439783,1.1789786,1.2615083,0.945617,1.174862,1.3842157,1.1740726,0.95445305,1.5437958,794.17584,822.381,823.1868,802.6374,801.8315,-0.16412353515625,0.1671142578125,0.966064453125,0.70281982421875,-2.714080810546875,-1.697235107421875,1.0,2.0,1.0,1.0,2.0,100.0,event
11:58:35.843,0.60057545,-0.6409856,0.12738672,0.7504304,0.22675362,-0.34423643,-0.52095985,0.123513326,0.79263455,0.1035813,0.18394488,0.8439783,1.1789786,1.2615083,0.945617,1.174862,1.3842157,1.1740726,0.95445305,1.5437958,789.7436,786.9231,816.7399,788.5348,788.1319,-0.16412353515625,0.1671142578125,0.966064453125,0.70281982421875,-2.714080810546875,-1.697235107421875,1.0,2.0,1.0,1.0,2.0,100.0,event
11:58:35.844,0.60057545,-0.6409856,0.12738672,0.7504304,0.22675362,-0.34423643,-0.52095985,0.123513326,0.79263455,0.1035813,0.18394488,0.8439783,1.1789786,1.2615083,0.945617,1.174862,1.3842157,1.1740726,0.95445305,1.5437958,806.26373,770.80585,786.52014,799.81683,846.1539,-0.16412353515625,0.1671142578125,0.966064453125,0.70281982421875,-2.714080810546875,-1.697235107421875,1.0,2.0,1.0,1.0,2.0,100.0,event
11:58:35.845,0.60057545,-0.6409856,0.12738672,0.7504304,0.22675362,-0.34423643,-0.52095985,0.123513326,0.79263455,0.1035813,0.18394488,0.8439783,1.1789786,1.2615083,0.945617,1.174862,1.3842157,1.1740726,0.95445305,1.5437958,803.8461,818.3516,809.89014,799.011,910.6227,-0.16412353515625,0.1671142578125,0.966064453125,0.70281982421875,-2.714080810546875,-1.697235107421875,1.0,2.0,1.0,1.0,2.0,100.0,event
11:58:35.845,0.60057545,-0.6409856,0.12738672,0.7504304,0.22675362,-0.34423643,-0.52095985,0.123513326,0.79263455,0.1035813,0.18394488,0.8439783,1.1789786,1.2615083,0.945617,1.174862,1.3842157,1.1740726,0.95445305,1.5437958,788.93774,836.8865,834.0659,782.8938,908.60803,-0.16412353515625,0.1671142578125,0.966064453125,0.70281982421875,-2.714080810546875,-1.697235107421875,1.0,2.0,1.0,1.0,2.0,100.0,event
11:58:35.846,0.60057545,-0.6409856,0.12738672,0.7504304,0.22675362,-0.34423643,-0.52095985,0.123513326,0.79263455,0.1035813,0.18394488,0.8439783,1.1789786,1.2615083,0.945617,1.174862,1.3842157,1.1740726,0.95445305,1.5437958,800.2198,827.619,817.1429,784.5055,905.78754,-0.16412353515625,0.1671142578125,0.966064453125,0.70281982421875,-2.714080810546875,-1.697235107421875,1.0,2.0,1.0,1.0,2.0,100.0,event
11:58:35.847,0.60057545,-0.6409856,0.12738672,0.7504304,0.22675362,-0.34423643,-0.52095985,0.123513326,0.79263455,0.1035813,0.18394488,0.8439783,1.1789786,1.2615083,0.945617,1.174862,1.3842157,1.1740726,0.95445305,1.5437958,760.7326,789.7436,820.7692,767.5824,931.1722,-0.16412353515625,0.1671142578125,0.966064453125,0.70281982421875,-2.714080810546875,-1.697235107421875,1.0,2.0,1.0,1.0,2.0,100.0,event
11:58:35.847,0.60057545,-0.6409856,0.12738672,0.7504304,0.22675362,-0.34423643,-0.52095985,0.123513326,0.79263455,0.1035813,0.18394488,0.8439783,1.1789786,1.2615083,0.945617,1.174862,1.3842157,1.1740726,0.95445305,1.5437958,791.3553,807.8755,795.78754,798.20514,1048.022,-0.16412353515625,0.1671142578125,0.966064453125,0.70281982421875,-2.714080810546875,-1.697235107421875,1.0,2.0,1.0,1.0,2.0,100.0,event
11:58:35.848,0.60057545,-0.6409856,0.12738672,0.7504304,0.22675362,-0.34423643,-0.52095985,0.123513326,0.79263455,0.1035813,0.18394488,0.8439783,1.1789786,1.2615083,0.945617,1.174862,1.3842157,1.1740726,0.95445305,1.5437958,750.65936,787.326,832.8571,746.2271,707.1429,-0.16412353515625,0.1671142578125,0.966064453125,0.70281982421875,-2.714080810546875,-1.697235107421875,1.0,2.0,1.0,1.0,2.0,100.0,event
11:58:35.849,0.60057545,-0.6409856,0.12738672,0.7504304,0.22675362,-0.34423643,-0.52095985,0.123513326,0.79263455,0.1035813,0.18394488,0.8439783,1.1789786,1.2615083,0.945617,1.174862,1.3842157,1.1740726,0.95445305,1.5437958,760.32965,812.3077,816.7399,759.12085,711.978,-0.16412353515625,0.1671142578125,0.966064453125,0.70281982421875,-2.714080810546875,-1.697235107421875,1.0,2.0,1.0,1.0,2.0,100.0,event
11:58:35.873,0.60057545,-0.6409856,0.12738672,0.7504304,0.22675362,-0.34423643,-0.52095985,0.123513326,0.79263455,0.1035813,0.18394488,0.8439783,1.1789786,1.2615083,0.945617,1.174862,1.3842157,1.1740726,0.95445305,1.5437958,768.7912,796.1905,811.9048,764.35895,754.68866,-0.16412353515625,0.1671142578125,0.966064453125,0.70281982421875,-2.714080810546875,-1.697235107421875,1.0,2.0,1.0,1.0,2.0,100.0,event
11:58:35.875,0.60057545,-0.6409856,0.12738672,0.7504304,0.22675362,-0.34423643,-0.52095985,0.123513326,0.79263455,0.1035813,0.18394488,0.8439783,1.1789786,1.2615083,0.945617,1.174862,1.3842157,1.1740726,0.95445305,1.5437958,762.3443,796.5934,800.2198,772.4176,709.9634,-0.16412353515625,0.1671142578125,0.966064453125,0.70281982421875,-2.714080810546875,-1.697235107421875,1.0,2.0,1.0,1.0,2.0,100.0,event
11:58:35.877,0.60057545,-0.6409856,0.12738672,0.7504304,0.22675362,-0.34423643,-0.52095985,0.123513326,0.79263455,0.1035813,0.18394488,0.8439783,1.1789786,1.2615083,0.945617,1.174862,1.3842157,1.1740726,0.95445305,1.5437958,808.2784,809.0842,784.90845,786.9231,733.73627,-0.16412353515625,0.1671142578125,0.966064453125,0.70281982421875,-2.714080810546875,-1.697235107421875,1.0,2.0,1.0,1.0,2.0,100.0,event
11:58:35.878,0.60057545,-0.63930076,0.12738672,0.7504304,0.22675362,-0.32966793,-0.52095985,0.123513326,0.79263455,0.1035813,0.18394488,0.8439783,1.1789786,1.2500594,0.945617,1.174862,1.3842157,1.1645509,0.95445305,1.5437958,839.707,800.6227,795.38464,799.81683,754.68866,-0.16412353515625,0.1671142578125,0.966064453125,0.70281982421875,-2.714080810546875,-1.697235107421875,1.0,2.0,1.0,1.0,2.0,100.0,event
11:58:35.882,0.60057545,-0.63930076,0.12738672,0.7504304,0.22675362,-0.32966793,-0.52095985,0.123513326,0.79263455,0.1035813,0.18394488,0.8439783,1.1789786,1.2500594,0.945617,1.174862,1.3842157,1.1645509,0.95445305,1.5437958,823.1868,792.1612,816.7399,808.2784,714.3956,-0.16412353515625,0.1671142578125,0.966064453125,0.70281982421875,-2.714080810546875,-1.697235107421875,1.0,2.0,1.0,1.0,2.0,100.0,event
11:58:35.883,0.60057545,-0.63930076,0.12738672,0.7504304,0.22675362,-0.32966793,-0.52095985,0.123513326,0.79263455,0.1035813,0.18394488,0.8439783,1.1789786,1.2500594,0.945617,1.174862,1.3842157,1.1645509,0.95445305,1.5437958,807.47253,761.13556,813.1135,820.7692,789.7436,-0.16412353515625,0.1671142578125,0.966064453125,0.70281982421875,-2.714080810546875,-1.697235107421875,1.0,2.0,1.0,1.0,2.0,100.0,event
11:58:35.884,0.60057545,-0.63930076,0.12738672,0.7504304,0.22675362,-0.32966793,-0.52095985,0.123513326,0.79263455,0.1035813,0.18394488,0.8439783,1.1789786,1.2500594,0.945617,1.174862,1.3842157,1.1645509,0.95445305,1.5437958,825.6044,785.31134,784.10254,825.2015,849.7802,-0.16412353515625,0.1671142578125,0.966064453125,0.70281982421875,-2.714080810546875,-1.697235107421875,1.0,2.0,1.0,1.0,2.0,100.0,event
11:58:35.885,0.60057545,-0.63930076,0.12738672,0.7504304,0.22675362,-0.32966793,-0.52095985,0.123513326,0.79263455,0.1035813,0.18394488,0.8439783,1.1789786,1.2500594,0.945617,1.174862,1.3842157,1.1645509,0.95445305,1.5437958,840.10986,808.2784,770.80585,832.8571,1016.99634,-0.16412353515625,0.1671142578125,0.966064453125,0.70281982421875,-2.714080810546875,-1.697235107421875,1.0,2.0,1.0,1.0,2.0,100.0,event
11:58:35.886,0.60057545,-0.63930076,0.12738672,0.7504304,0.22675362,-0.32966793,-0.52095985,0.123513326,0.79263455,0.1035813,0.18394488,0.8439783,1.1789786,1.2500594,0.945617,1.174862,1.3842157,1.1645509,0.95445305,1.5437958,828.4249,798.60803,787.326,836.8865,1129.414,-0.16412353515625,0.1671142578125,0.966064453125,0.70281982421875,-2.714080810546875,-1.697235107421875,1.0,2.0,1.0,1.0,2.0,100.0,event
11:58:35.887,0.60057545,-0.63930076,0.12738672,0.7504304,0.22675362,-0.32966793,-0.52095985,0.123513326,0.79263455,0.1035813,0.18394488,0.8439783,1.1789786,1.2500594,0.945617,1.174862,1.3842157,1.1645509,0.95445305,1.5437958,768.7912,808.2784,794.9817,790.54944,788.5348,-0.16412353515625,0.1671142578125,0.966064453125,0.70281982421875,-2.714080810546875,-1.697235107421875,1.0,2.0,1.0,1.0,2.0,100.0,event
11:58:35.888,0.60057545,-0.63930076,0.12738672,0.7504304,0.22675362,-0.32966793,-0.52095985,0.123513326,0.79263455,0.1035813,0.18394488,0.8439783,1.1789786,1.2500594,0.945617,1.174862,1.3842157,1.1645509,0.95445305,1.5437958,735.7509,809.0842,816.7399,743.00366,668.0586,-0.16412353515625,0.1671142578125,0.966064453125,0.70281982421875,-2.714080810546875,-1.697235107421875,1.0,2.0,1.0,1.0,2.0,100.0,event
11:58:35.889,0.60057545,-0.63930076,0.12738672,0.7504304,0.22675362,-0.32966793,-0.52095985,0.123513326,0.79263455,0.1035813,0.18394488,0.8439783,1.1789786,1.2500594,0.945617,1.174862,1.3842157,1.1645509,0.95445305,1.5437958,725.2747,824.3956,836.08057,760.32965,798.20514,-0.16412353515625,0.1671142578125,0.966064453125,0.70281982421875,-2.714080810546875,-1.697235107421875,1.0,2.0,1.0,1.0,2.0,100.0,event
11:58:35.912,0.60057545,-0.63930076,0.12738672,0.7504304,0.22675362,-0.32966793,-0.52095985,0.123513326,0.79263455,0.1035813,0.18394488,0.8439783,1.1789786,1.2500594,0.945617,1.174862,1.3842157,1.1645509,0.95445305,1.5437958,745.82416,811.9048,824.3956,779.67035,787.326,-0.161376953125,0.17083740234375,0.95343017578125,2.392578125,-11.432037353515623,-2.46734619140625,1.0,2.0,1.0,1.0,2.0,100.0,event
11:58:35.913,0.60057545,-0.63930076,0.12738672,0.7504304,0.22675362,-0.32966793,-0.52095985,0.123513326,0.79263455,0.1035813,0.18394488,0.8439783,1.1789786,1.2500594,0.945617,1.174862,1.3842157,1.1645509,0.95445305,1.5437958,850.58606,795.38464,813.91943,781.28204,806.26373,-0.161376953125,0.17083740234375,0.95343017578125,2.392578125,-11.432037353515623,-2.46734619140625,1.0,2.0,1.0,1.0,2.0,100.0,event
11:58:35.913,0.60057545,-0.63930076,0.12738672,0.7504304,0.22675362,-0.32966793,-0.52095985,0.123513326,0.79263455,0.1035813,0.18394488,0.8439783,1.1789786,1.2500594,0.945617,1.174862,1.3842157,1.1645509,0.95445305,1.5437958,832.4542,804.65204,799.011,789.7436,862.674,-0.161376953125,0.17083740234375,0.95343017578125,2.392578125,-11.432037353515623,-2.46734619140625,1.0,2.0,1.0,1.0,2.0,100.0,event
11:58:35.914,0.60057545,-0.63930076,0.12738672,0.7504304,0.22675362,-0.32966793,-0.52095985,0.123513326,0.79263455,0.1035813,0.18394488,0.8439783,1.1789786,1.2500594,0.945617,1.174862,1.3842157,1.1645509,0.95445305,1.5437958,835.6777,790.54944,792.1612,816.7399,826.8132,-0.161376953125,0.17083740234375,0.95343017578125,2.392578125,-11.432037353515623,-2.46734619140625,1.0,2.0,1.0,1.0,2.0,100.0,event
11:58:35.914,0.60057545,-0.63930076,0.12738672,0.7504304,0.22675362,-0.32966793,-0.52095985,0.123513326,0.79263455,0.1035813,0.18394488,0.8439783,1.1789786,1.2500594,0.945617,1.174862,1.3842157,1.1645509,0.95445305,1.5437958,874.35895,788.5348,793.7729,851.39197,746.2271,-0.161376953125,0.17083740234375,0.95343017578125,2.392578125,-11.432037353515623,-2.46734619140625,1.0,2.0,1.0,1.0,2.0,100.0,event
11:58:35.915,0.60057545,-0.63930076,0.12738672,0.7504304,0.22675362,-0.32966793,-0.52095985,0.123513326,0.79263455,0.1035813,0.18394488,0.8439783,1.1789786,1.2500594,0.945617,1.174862,1.3842157,1.1645509,0.95445305,1.5437958,853.00366,796.1905,761.9414,848.97437,804.2491,-0.161376953125,0.17083740234375,0.95343017578125,2.392578125,-11.432037353515623,-2.46734619140625,1.0,2.0,1.0,1.0,2.0,100.0,event
11:58:35.915,0.60057545,-0.63930076,0.12738672,0.7504304,0.22675362,-0.32966793,-0.52095985,0.123513326,0.79263455,0.1035813,0.18394488,0.8439783,1.1789786,1.2500594,0.945617,1.174862,1.3842157,1.1645509,0.95445305,1.5437958,804.65204,780.07324,778.0586,812.71063,843.3333,-0.161376953125,0.17083740234375,0.95343017578125,2.392578125,-11.432037353515623,-2.46734619140625,1.0,2.0,1.0,1.0,2.0,100.0,event
11:58:35.916,0.60057545,-0.63930076,0.12738672,0.7504304,0.22675362,-0.32966793,-0.52095985,0.123513326,0.79263455,0.1035813,0.18394488,0.8439783,1.1789786,1.2500594,0.945617,1.174862,1.3842157,1.1645509,0.95445305,1.5437958,743.8095,784.5055,852.1978,773.22345,982.3443,-0.161376953125,0.17083740234375,0.95343017578125,2.392578125,-11.432037353515623,-2.46734619140625,1.0,2.0,1.0,1.0,2.0,100.0,event
11:58:35.917,0.60057545,-0.63930076,0.12738672,0.7504304,0.22675362,-0.32966793,-0.52095985,0.123513326,0.79263455,0.1035813,0.18394488,0.8439783,1.1789786,1.2500594,0.945617,1.174862,1.3842157,1.1645509,0.95445305,1.5437958,751.8681,826.0073,848.1685,761.13556,944.87177,-0.161376953125,0.17083740234375,0.95343017578125,2.392578125,-11.432037353515623,-2.46734619140625,1.0,2.0,1.0,1.0,2.0,100.0,event
11:58:35.917,0.60057545,-0.63930076,0.12738672,0.7504304,0.22675362,-0.32966793,-0.52095985,0.123513326,0.79263455,0.1035813,0.18394488,0.8439783,1.1789786,1.2500594,0.945617,1.174862,1.3842157,1.1645509,0.95445305,1.5437958,784.10254,834.4689,809.4872,770.0,721.6484,-0.161376953125,0.17083740234375,0.95343017578125,2.392578125,-11.432037353515623,-2.46734619140625,1.0,2.0,1.0,1.0,2.0,100.0,event
11:58:35.918,0.60057545,-0.63930076,0.12738672,0.7504304,0.22675362,-0.32966793,-0.52095985,0.123513326,0.79263455,0.1035813,0.18394488,0.8439783,1.1789786,1.2500594,0.945617,1.174862,1.3842157,1.1645509,0.95445305,1.5437958,777.25275,801.4286,794.9817,782.8938,789.7436,-0.161376953125,0.17083740234375,0.95343017578125,2.392578125,-11.432037353515623,-2.46734619140625,1.0,2.0,1.0,1.0,2.0,100.0,event
11:58:35.919,0.60057545,-0.63930076,0.12738672,0.7504304,0.22675362,-0.32966793,-0.52095985,0.123513326,0.79263455,0.1035813,0.18394488,0.8439783,1.1789786,1.2500594,0.945617,1.174862,1.3842157,1.1645509,0.95445305,1.5437958,774.83514,788.5348,802.23444,790.54944,856.63007,-0.161376953125,0.17083740234375,0.95343017578125,2.392578125,-11.432037353515623,-2.46734619140625,1.0,2.0,1.0,1.0,2.0,100.0,event
11:58:36.004,0.60057545,-0.63930076,0.12738672,0.7504304,0.22675362,-0.32966793,-0.52095985,0.123513326,0.79263455,0.1035813,0.18394488,0.8439783,1.1789786,1.2500594,0.945617,1.174862,1.3842157,1.1645509,0.95445305,1.5437958,818.3516,794.17584,788.93774,819.9634,701.0989,-0.1456298828125,0.17230224609375,0.97491455078125,1.173858642578125,-9.04693603515625,0.01495361328125,1.0,2.0,1.0,1.0,2.0,100.0,event
11:58:36.005,0.60057545,-0.63930076,0.12738672,0.7504304,0.22675362,-0.32966793,-0.52095985,0.123513326,0.79263455,0.1035813,0.18394488,0.8439783,1.1789786,1.2500594,0.945617,1.174862,1.3842157,1.1645509,0.95445305,1.5437958,842.52747,802.23444,778.86444,845.34796,651.53845,-0.1456298828125,0.17230224609375,0.97491455078125,1.173858642578125,-9.04693603515625,0.01495361328125,1.0,2.0,1.0,1.0,2.0,100.0,event
11:58:36.005,0.60057545,-0.63930076,0.12738672,0.7504304,0.22675362,-0.32966793,-0.52095985,0.123513326,0.79263455,0.1035813,0.18394488,0.8439783,1.1789786,1.2500594,0.945617,1.174862,1.3842157,1.1645509,0.95445305,1.5437958,805.05493,788.1319,790.9524,819.5604,685.38464,-0.1456298828125,0.17230224609375,0.97491455078125,1.173858642578125,-9.04693603515625,0.01495361328125,1.0,2.0,1.0,1.0,2.0,100.0,event
11:58:36.006,0.60057545,-0.63930076,0.12738672,0.7504304,0.22675362,-0.32966793,-0.52095985,0.123513326,0.79263455,0.1035813,0.18394488,0.8439783,1.1789786,1.2500594,0.945617,1.174862,1.3842157,1.1645509,0.95445305,1.5437958,828.8278,784.10254,803.8461,830.4396,711.5751,-0.1456298828125,0.17230224609375,0.97491455078125,1.173858642578125,-9.04693603515625,0.01495361328125,1.0,2.0,1.0,1.0,2.0,100.0,event
11:58:36.007,0.60057545,-0.63930076,0.12738672,0.7504304,0.22675362,-0.32966793,-0.52095985,0.123513326,0.79263455,0.1035813,0.18394488,0.8439783,1.1789786,1.2500594,0.945617,1.174862,1.3842157,1.1645509,0.95445305,1.5437958,827.2161,801.02563,834.4689,819.15753,733.73627,-0.1456298828125,0.17230224609375,0.97491455078125,1.173858642578125,-9.04693603515625,0.01495361328125,1.0,2.0,1.0,1.0,2.0,100.0,event
11:58:36.007,0.60057545,-0.6267157,0.12738672,0.7504304,0.22675362,-0.30233055,-0.52095985,0.123513326,0.79263455,0.1035813,0.18394488,0.8439783,1.1789786,1.232845,0.945617,1.174862,1.3842157,1.1710889,0.95445305,1.5437958,773.6264,824.3956,845.34796,768.3883,798.20514,-0.1456298828125,0.17230224609375,0.97491455078125,1.173858642578125,-9.04693603515625,0.01495361328125,1.0,2.0,1.0,1.0,2.0,100.0,event
11:58:36.011,0.60057545,-0.6267157,0.12738672,0.7504304,0.22675362,-0.30233055,-0.52095985,0.123513326,0.79263455,0.1035813,0.18394488,0.8439783,1.1789786,1.232845,0.945617,1.174862,1.3842157,1.1710889,0.95445305,1.5437958,768.7912,846.55676,823.1868,777.6557,998.46155,-0.1456298828125,0.17230224609375,0.97491455078125,1.173858642578125,-9.04693603515625,0.01495361328125,1.0,2.0,1.0,1.0,2.0,100.0,event
11:58:36.012,0.60057545,-0.6267157,0.12738672,0.7504304,0.22675362,-0.30233055,-0.52095985,0.123513326,0.79263455,0.1035813,0.18394488,0.8439783,1.1789786,1.232845,0.945617,1.174862,1.3842157,1.1710889,0.95445305,1.5437958,767.5824,823.5897,793.36993,774.0293,983.95605,-0.1456298828125,0.17230224609375,0.97491455078125,1.173858642578125,-9.04693603515625,0.01495361328125,1.0,2.0,1.0,1.0,2.0,100.0,event
11:58:36.012,0.60057545,-0.6267157,0.12738672,0.7504304,0.22675362,-0.30233055,-0.52095985,0.123513326,0.79263455,0.1035813,0.18394488,0.8439783,1.1789786,1.232845,0.945617,1.174862,1.3842157,1.1710889,0.95445305,1.5437958,770.0,796.5934,801.4286,761.53845,722.0513,-0.1456298828125,0.17230224609375,0.97491455078125,1.173858642578125,-9.04693603515625,0.01495361328125,1.0,2.0,1.0,1.0,2.0,100.0,event
11:58:36.013,0.60057545,-0.6267157,0.12738672,0.7504304,0.22675362,-0.30233055,-0.52095985,0.123513326,0.79263455,0.1035813,0.18394488,0.8439783,1.1789786,1.232845,0.945617,1.174862,1.3842157,1.1710889,0.95445305,1.5437958,800.6227,773.6264,824.3956,780.4762,748.6447,-0.1456298828125,0.17230224609375,0.97491455078125,1.173858642578125,-9.04693603515625,0.01495361328125,1.0,2.0,1.0,1.0,2.0,100.0,event
11:58:36.014,0.60057545,-0.6267157,0.12738672,0.7504304,0.22675362,-0.30233055,-0.52095985,0.123513326,0.79263455,0.1035813,0.18394488,0.8439783,1.1789786,1.232845,0.945617,1.174862,1.3842157,1.1710889,0.95445305,1.5437958,842.52747,803.8461,755.09155,831.6484,865.09155,-0.1456298828125,0.17230224609375,0.97491455078125,1.173858642578125,-9.04693603515625,0.01495361328125,1.0,2.0,1.0,1.0,2.0,100.0,event
11:58:36.014,0.60057545,-0.6267157,0.12738672,0.7504304,0.22675362,-0.30233055,-0.52095985,0.123513326,0.79263455,0.1035813,0.18394488,0.8439783,1.1789786,1.232845,0.945617,1.174862,1.3842157,1.1710889,0.95445305,1.5437958,845.34796,797.8022,762.3443,828.4249,846.55676,-0.1456298828125,0.17230224609375,0.97491455078125,1.173858642578125,-9.04693603515625,0.01495361328125,1.0,2.0,1.0,1.0,2.0,100.0,event
11:58:36.037,0.60057545,-0.6267157,0.12738672,0.7504304,0.22675362,-0.30233055,-0.52095985,0.123513326,0.79263455,0.1035813,0.18394488,0.8439783,1.1789786,1.232845,0.945617,1.174862,1.3842157,1.1710889,0.95445305,1.5437958,802.6374,820.3663,837.28937,803.0403,757.50916,-0.1568603515625,0.16473388671875,0.95361328125,2.624359130859375,-2.19818115234375,-2.325286865234375,1.0,2.0,1.0,1.0,2.0,100.0,event
11:58:36.038,0.60057545,-0.6267157,0.12738672,0.7504304,0.22675362,-0.30233055,-0.52095985,0.123513326,0.79263455,0.1035813,0.18394488,0.8439783,1.1789786,1.232845,0.945617,1.174862,1.3842157,1.1710889,0.95445305,1.5437958,781.28204,866.30035,863.47986,792.1612,681.75824,-0.1568603515625,0.16473388671875,0.95361328125,2.624359130859375,-2.19818115234375,-2.325286865234375,1.0,2.0,1.0,1.0,2.0,100.0,event
11:58:36.038,0.60057545,-0.6267157,0.12738672,0.7504304,0.22675362,-0.30233055,-0.52095985,0.123513326,0.79263455,0.1035813,0.18394488,0.8439783,1.1789786,1.232845,0.945617,1.174862,1.3842157,1.1710889,0.95445305,1.5437958,780.07324,826.8132,830.84247,770.40295,763.5531,-0.1568603515625,0.16473388671875,0.95361328125,2.624359130859375,-2.19818115234375,-2.325286865234375,1.0,2.0,1.0,1.0,2.0,100.0,event
11:58:36.039,0.60057545,-0.6267157,0.12738672,0.7504304,0.22675362,-0.30233055,-0.52095985,0.123513326,0.79263455,0.1035813,0.18394488,0.8439783,1.1789786,1.232845,0.945617,1.174862,1.3842157,1.1710889,0.95445305,1.5437958,779.67035,786.1172,804.65204,759.12085,759.12085,-0.1568603515625,0.16473388671875,0.95361328125,2.624359130859375,-2.19818115234375,-2.325286865234375,1.0,2.0,1.0,1.0,2.0,100.0,event
11:58:36.040,0.60057545,-0.6267157,0.12738672,0.7504304,0.22675362,-0.30233055,-0.52095985,0.123513326,0.79263455,0.1035813,0.18394488,0.8439783,1.1789786,1.232845,0.945617,1.174862,1.3842157,1.1710889,0.95445305,1.5437958,777.25275,788.93774,785.31134,762.3443,710.3663,-0.1568603515625,0.16473388671875,0.95361328125,2.624359130859375,-2.19818115234375,-2.325286865234375,1.0,2.0,1.0,1.0,2.0,100.0,event
11:58:36.040,0.60057545,-0.6267157,0.12738672,0.7504304,0.22675362,-0.30233055,-0.52095985,0.123513326,0.79263455,0.1035813,0.18394488,0.8439783,1.1789786,1.232845,0.945617,1.174862,1.3842157,1.1710889,0.95445305,1.5437958,791.3553,790.54944,783.69965,783.69965,792.96704,-0.1568603515625,0.16473388671875,0.95361328125,2.624359130859375,-2.19818115234375,-2.325286865234375,1.0,2.0,1.0,1.0,2.0,100.0,event
11:58:36.041,0.60057545,-0.6267157,0.12738672,0.7504304,0.22675362,-0.30233055,-0.52095985,0.123513326,0.79263455,0.1035813,0.18394488,0.8439783,1.1789786,1.232845,0.945617,1.174862,1.3842157,1.1710889,0.95445305,1.5437958,801.8315,784.90845,799.81683,804.65204,1001.685,-0.1568603515625,0.16473388671875,0.95361328125,2.624359130859375,-2.19818115234375,-2.325286865234375,1.0,2.0,1.0,1.0,2.0,100.0,event
11:58:36.042,0.60057545,-0.6267157,0.12738672,0.7504304,0.22675362,-0.30233055,-0.52095985,0.123513326,0.79263455,0.1035813,0.18394488,0.8439783,1.1789786,1.232845,0.945617,1.174862,1.3842157,1.1710889,0.95445305,1.5437958,790.9524,799.41394,786.9231,801.02563,890.4762,-0.1568603515625,0.16473388671875,0.95361328125,2.624359130859375,-2.19818115234375,-2.325286865234375,1.0,2.0,1.0,1.0,2.0,100.0,event
11:58:36.042,0.60057545,-0.6267157,0.12738672,0.7504304,0.22675362,-0.30233055,-0.52095985,0.123513326,0.79263455,0.1035813,0.18394488,0.8439783,1.1789786,1.232845,0.945617,1.174862,1.3842157,1.1710889,0.95445305,1.5437958,796.1905,819.9634,799.011,786.52014,668.86444,-0.1568603515625,0.16473388671875,0.95361328125,2.624359130859375,-2.19818115234375,-2.325286865234375,1.0,2.0,1.0,1.0,2.0,100.0,event
11:58:36.043,0.60057545,-0.6267157,0.12738672,0.7504304,0.22675362,-0.30233055,-0.52095985,0.123513326,0.79263455,0.1035813,0.18394488,0.8439783,1.1789786,1.232845,0.945617,1.174862,1.3842157,1.1710889,0.95445305,1.5437958,824.7985,809.0842,800.6227,815.12823,729.707,-0.1568603515625,0.16473388671875,0.95361328125,2.624359130859375,-2.19818115234375,-2.325286865234375,1.0,2.0,1.0,1.0,2.0,100.0,event
11:58:36.044,0.60057545,-0.6267157,0.12738672,0.7504304,0.22675362,-0.30233055,-0.52095985,0.123513326,0.79263455,0.1035813,0.18394488,0.8439783,1.1789786,1.232845,0.945617,1.174862,1.3842157,1.1710889,0.95445305,1.5437958,816.7399,837.28937,819.5604,817.1429,746.63007,-0.1568603515625,0.16473388671875,0.95361328125,2.624359130859375,-2.19818115234375,-2.325286865234375,1.0,2.0,1.0,1.0,2.0,100.0,event
11:58:36.044,0.60057545,-0.6267157,0.12738672,0.7504304,0.22675362,-0.30233055,-0.52095985,0.123513326,0.79263455,0.1035813,0.18394488,0.8439783,1.1789786,1.232845,0.945617,1.174862,1.3842157,1.1710889,0.95445305,1.5437958,840.10986,827.619,806.6667,840.5128,758.71796,-0.1568603515625,0.16473388671875,0.95361328125,2.624359130859375,-2.19818115234375,-2.325286865234375,1.0,2.0,1.0,1.0,2.0,100.0,event
11:58:36.071,0.60057545,-0.6267157,0.12738672,0.7504304,0.22675362,-0.30233055,-0.52095985,0.123513326,0.79263455,0.1035813,0.18394488,0.8439783,1.1789786,1.232845,0.945617,1.174862,1.3842157,1.1710889,0.95445305,1.5437958,803.44324,819.15753,807.0696,796.5934,712.381,-0.1568603515625,0.16473388671875,0.95361328125,2.624359130859375,-2.19818115234375,-2.325286865234375,1.0,2.0,1.0,1.0,2.0,100.0,event
11:58:36.072,0.60057545,-0.6267157,0.12738672,0.7504304,0.22675362,-0.30233055,-0.52095985,0.123513326,0.79263455,0.1035813,0.18394488,0.8439783,1.1789786,1.232845,0.945617,1.174862,1.3842157,1.1710889,0.95445305,1.5437958,803.0403,789.7436,819.15753,777.6557,745.0183,-0.1568603515625,0.16473388671875,0.95361328125,2.624359130859375,-2.19818115234375,-2.325286865234375,1.0,2.0,1.0,1.0,2.0,100.0,event
11:58:36.072,0.60057545,-0.6267157,0.12738672,0.7504304,0.22675362,-0.30233055,-0.52095985,0.123513326,0.79263455,0.1035813,0.18394488,0.8439783,1.1789786,1.232845,0.945617,1.174862,1.3842157,1.1710889,0.95445305,1.5437958,807.8755,736.1539,819.5604,772.01465,859.0476,-0.1568603515625,0.16473388671875,0.95361328125,2.624359130859375,-2.19818115234375,-2.325286865234375,1.0,2.0,1.0,1.0,2.0,100.0,event
11:58:36.073,0.60057545,-0.6267157,0.12738672,0.7504304,0.22675362,-0.30233055,-0.52095985,0.123513326,0.79263455,0.1035813,0.18394488,0.8439783,1.1789786,1.232845,0.945617,1.174862,1.3842157,1.1710889,0.95445305,1.5437958,781.28204,795.78754,805.4579,760.32965,814.3223,-0.1568603515625,0.16473388671875,0.95361328125,2.624359130859375,-2.19818115234375,-2.325286865234375,1.0,2.0,1.0,1.0,2.0,100.0,event
11:58:36.074,0.60057545,-0.6267157,0.12738672,0.7504304,0.22675362,-0.30233055,-0.52095985,0.123513326,0.79263455,0.1035813,0.18394488,0.8439783,1.1789786,1.232845,0.945617,1.174862,1.3842157,1.1710889,0.95445305,1.5437958,772.4176,861.4652,794.9817,770.0,727.28937,-0.1568603515625,0.16473388671875,0.95361328125,2.624359130859375,-2.19818115234375,-2.325286865234375,1.0,2.0,1.0,1.0,2.0,100.0,event
11:58:36.074,0.60057545,-0.6267157,0.12738672,0.7504304,0.22675362,-0.30233055,-0.52095985,0.123513326,0.79263455,0.1035813,0.18394488,0.8439783,1.1789786,1.232845,0.945617,1.174862,1.3842157,1.1710889,0.95445305,1.5437958,801.8315,799.011,801.02563,799.81683,948.0952,-0.1568603515625,0.16473388671875,0.95361328125,2.624359130859375,-2.19818115234375,-2.325286865234375,1.0,2.0,1.0,1.0,2.0,100.0,event
11:58:36.075,0.60057545,-0.6267157,0.12738672,0.7504304,0.22675362,-0.30233055,-0.52095985,0.123513326,0.79263455,0.1035813,0.18394488,0.8439783,1.1789786,1.232845,0.945617,1.174862,1.3842157,1.1710889,0.95445305,1.5437958,813.1135,798.20514,788.1319,797.3993,1102.8206,-0.1568603515625,0.16473388671875,0.95361328125,2.624359130859375,-2.19818115234375,-2.325286865234375,1.0,2.0,1.0,1.0,2.0,100.0,event
11:58:36.076,0.60057545,-0.6025521,0.12738672,0.7504304,0.22675362,-0.2713543,-0.52095985,0.123513326,0.79263455,0.1035813,0.18394488,0.8439783,1.1789786,1.2161074,0.945617,1.174862,1.3842157,1.1935561,0.95445305,1.5437958,808.68134,808.68134,802.23444,784.10254,792.1612,-0.1568603515625,0.16473388671875,0.95361328125,2.624359130859375,-2.19818115234375,-2.325286865234375,1.0,2.0,1.0,1.0,2.0,100.0,event
11:58:36.079,0.60057545,-0.6025521,0.12738672,0.7504304,0.22675362,-0.2713543,-0.52095985,0.123513326,0.79263455,0.1035813,0.18394488,0.8439783,1.1789786,1.2161074,0.945617,1.174862,1.3842157,1.1935561,0.95445305,1.5437958,809.4872,805.05493,822.381,779.67035,616.4835,-0.1568603515625,0.16473388671875,0.95361328125,2.624359130859375,-2.19818115234375,-2.325286865234375,1.0,2.0,1.0,1.0,2.0,100.0,event
11:58:36.080,0.60057545,-0.6025521,0.12738672,0.7504304,0.22675362,-0.2713543,-0.52095985,0.123513326,0.79263455,0.1035813,0.18394488,0.8439783,1.1789786,1.2161074,0.945617,1.174862,1.3842157,1.1935561,0.95445305,1.5437958,788.5348,807.0696,799.011,765.16486,765.16486,-0.1568603515625,0.16473388671875,0.95361328125,2.624359130859375,-2.19818115234375,-2.325286865234375,1.0,2.0,1.0,1.0,2.0,100.0,event
11:58:36.081,0.60057545,-0.6025521,0.12738672,0.7504304,0.22675362,-0.2713543,-0.52095985,0.123513326,0.79263455,0.1035813,0.18394488,0.8439783,1.1789786,1.2161074,0.945617,1.174862,1.3842157,1.1935561,0.95445305,1.5437958,781.685,805.05493,783.69965,766.77655,768.7912,-0.1568603515625,0.16473388671875,0.95361328125,2.624359130859375,-2.19818115234375,-2.325286865234375,1.0,2.0,1.0,1.0,2.0,100.0,event
11:58:36.082,0.60057545,-0.6025521,0.12738672,0.7504304,0.22675362,-0.2713543,-0.52095985,0.123513326,0.79263455,0.1035813,0.18394488,0.8439783,1.1789786,1.2161074,0.945617,1.174862,1.3842157,1.1935561,0.95445305,1.5437958,835.6777,793.7729,796.1905,828.022,653.1502,-0.1568603515625,0.16473388671875,0.95361328125,2.624359130859375,-2.19818115234375,-2.325286865234375,1.0,2.0,1.0,1.0,2.0,100.0,event
11:58:36.103,0.60057545,-0.6025521,0.12738672,0.7504304,0.22675362,-0.2713543,-0.52095985,0.123513326,0.79263455,0.1035813,0.18394488,0.8439783,1.1789786,1.2161074,0.945617,1.174862,1.3842157,1.1935561,0.95445305,1.5437958,847.76556,777.25275,801.4286,842.1245,730.10986,-0.13653564453125,0.1739501953125,0.97039794921875,1.891632080078125,-2.093505859375,-0.83740234375,1.0,2.0,1.0,1.0,2.0,100.0,event
11:58:36.104,0.60057545,-0.6025521,0.12738672,0.7504304,0.22675362,-0.2713543,-0.52095985,0.123513326,0.79263455,0.1035813,0.18394488,0.8439783,1.1789786,1.2161074,0.945617,1.174862,1.3842157,1.1935561,0.95445305,1.5437958,797.3993,811.0989,796.99634,771.2088,774.43225,-0.13653564453125,0.1739501953125,0.97039794921875,1.891632080078125,-2.093505859375,-0.83740234375,1.0,2.0,1.0,1.0,2.0,100.0,event
11:58:36.105,0.60057545,-0.6025521,0.12738672,0.7504304,0.22675362,-0.2713543,-0.52095985,0.123513326,0.79263455,0.1035813,0.18394488,0.8439783,1.1789786,1.2161074,0.945617,1.174862,1.3842157,1.1935561,0.95445305,1.5437958,781.28204,843.73627,808.68134,746.2271,758.315,-0.13653564453125,0.1739501953125,0.97039794921875,1.891632080078125,-2.093505859375,-0.83740234375,1.0,2.0,1.0,1.0,2.0,100.0,event
11:58:36.105,0.60057545,-0.6025521,0.12738672,0.7504304,0.22675362,-0.2713543,-0.52095985,0.123513326,0.79263455,0.1035813,0.18394488,0.8439783,1.1789786,1.2161074,0.945617,1.174862,1.3842157,1.1935561,0.95445305,1.5437958,778.0586,832.4542,800.6227,760.7326,740.58606,-0.13653564453125,0.1739501953125,0.97039794921875,1.891632080078125,-2.093505859375,-0.83740234375,1.0,2.0,1.0,1.0,2.0,100.0,event
11:58:36.106,0.60057545,-0.6025521,0.12738672,0.7504304,0.22675362,-0.2713543,-0.52095985,0.123513326,0.79263455,0.1035813,0.18394488,0.8439783,1.1789786,1.2161074,0.945617,1.174862,1.3842157,1.1935561,0.95445305,1.5437958,779.67035,807.0696,787.72894,770.80585,785.31134,-0.13653564453125,0.1739501953125,0.97039794921875,1.891632080078125,-2.093505859375,-0.83740234375,1.0,2.0,1.0,1.0,2.0,100.0,event
11:58:36.107,0.60057545,-0.6025521,0.12738672,0.7504304,0.22675362,-0.2713543,-0.52095985,0.123513326,0.79263455,0.1035813,0.18394488,0.8439783,1.1789786,1.2161074,0.945617,1.174862,1.3842157,1.1935561,0.95445305,1.5437958,794.57874,828.4249,777.25275,782.0879,882.4176,-0.13653564453125,0.1739501953125,0.97039794921875,1.891632080078125,-2.093505859375,-0.83740234375,1.0,2.0,1.0,1.0,2.0,100.0,event
11:58:36.107,0.60057545,-0.6025521,0.12738672,0.7504304,0.22675362,-0.2713543,-0.52095985,0.123513326,0.79263455,0.1035813,0.18394488,0.8439783,1.1789786,1.2161074,0.945617,1.174862,1.3842157,1.1935561,0.95445305,1.5437958,805.4579,786.9231,794.9817,796.5934,854.21246,-0.13653564453125,0.1739501953125,0.97039794921875,1.891632080078125,-2.093505859375,-0.83740234375,1.0,2.0,1.0,1.0,2.0,100.0,event
11:58:36.108,0.60057545,-0.6025521,0.12738672,0.7504304,0.22675362,-0.2713543,-0.52095985,0.123513326,0.79263455,0.1035813,0.18394488,0.8439783,1.1789786,1.2161074,0.945617,1.174862,1.3842157,1.1935561,0.95445305,1.5437958,823.5897,778.46155,817.1429,814.7253,850.58606,-0.13653564453125,0.1739501953125,0.97039794921875,1.891632080078125,-2.093505859375,-0.83740234375,1.0,2.0,1.0,1.0,2.0,100.0,event
11:58:36.108,0.60057545,-0.6025521,0.12738672,0.7504304,0.22675362,-0.2713543,-0.52095985,0.123513326,0.79263455,0.1035813,0.18394488,0.8439783,1.1789786,1.2161074,0.945617,1.174862,1.3842157,1.1935561,0.95445305,1.5437958,821.5751,786.52014,799.41394,790.54944,890.07324,-0.13653564453125,0.1739501953125,0.97039794921875,1.891632080078125,-2.093505859375,-0.83740234375,1.0,2.0,1.0,1.0,2.0,100.0,event
11:58:36.109,0.60057545,-0.6025521,0.12738672,0.7504304,0.22675362,-0.2713543,-0.52095985,0.123513326,0.79263455,0.1035813,0.18394488,0.8439783,1.1789786,1.2161074,0.945617,1.174862,1.3842157,1.1935561,0.95445305,1.5437958,798.60803,815.12823,771.6117,790.14655,942.4542,-0.13653564453125,0.1739501953125,0.97039794921875,1.891632080078125,-2.093505859375,-0.83740234375,1.0,2.0,1.0,1.0,2.0,100.0,event
11:58:36.109,0.60057545,-0.6025521,0.12738672,0.7504304,0.22675362,-0.2713543,-0.52095985,0.123513326,0.79263455,0.1035813,0.18394488,0.8439783,1.1789786,1.2161074,0.945617,1.174862,1.3842157,1.1935561,0.95445305,1.5437958,798.60803,780.07324,773.22345,772.4176,1053.663,-0.13653564453125,0.1739501953125,0.97039794921875,1.891632080078125,-2.093505859375,-0.83740234375,1.0,2.0,1.0,1.0,2.0,100.0,event
11:58:36.110,0.60057545,-0.6025521,0.12738672,0.7504304,0.22675362,-0.2713543,-0.52095985,0.123513326,0.79263455,0.1035813,0.18394488,0.8439783,1.1789786,1.2161074,0.945617,1.174862,1.3842157,1.1935561,0.95445305,1.5437958,808.68134,828.4249,802.23444,794.9817,731.31866,-0.13653564453125,0.1739501953125,0.97039794921875,1.891632080078125,-2.093505859375,-0.83740234375,1.0,2.0,1.0,1.0,2.0,100.0,event
11:58:36.169,0.60057545,-0.6025521,0.12738672,0.7504304,0.22675362,-0.2713543,-0.52095985,0.123513326,0.79263455,0.1035813,0.18394488,0.8439783,1.1789786,1.2161074,0.945617,1.174862,1.3842157,1.1935561,0.95445305,1.5437958,788.1319,824.7985,812.71063,783.69965,766.3736,-0.14990234375,0.17059326171875,0.96502685546875,0.695343017578125,-5.121612548828125,-0.04486083984375,1.0,2.0,1.0,1.0,2.0,100.0,event
11:58:36.170,0.60057545,-0.6025521,0.12738672,0.7504304,0.22675362,-0.2713543,-0.52095985,0.123513326,0.79263455,0.1035813,0.18394488,0.8439783,1.1789786,1.2161074,0.945617,1.174862,1.3842157,1.1935561,0.95445305,1.5437958,749.45056,782.8938,792.5641,755.89746,737.3626,-0.14990234375,0.17059326171875,0.96502685546875,0.695343017578125,-5.121612548828125,-0.04486083984375,1.0,2.0,1.0,1.0,2.0,100.0,event
11:58:36.170,0.60057545,-0.6025521,0.12738672,0.7504304,0.22675362,-0.2713543,-0.52095985,0.123513326,0.79263455,0.1035813,0.18394488,0.8439783,1.1789786,1.2161074,0.945617,1.174862,1.3842157,1.1935561,0.95445305,1.5437958,766.77655,782.0879,781.685,745.82416,680.54944,-0.14990234375,0.17059326171875,0.96502685546875,0.695343017578125,-5.121612548828125,-0.04486083984375,1.0,2.0,1.0,1.0,2.0,100.0,event
11:58:36.171,0.60057545,-0.6025521,0.12738672,0.7504304,0.22675362,-0.2713543,-0.52095985,0.123513326,0.79263455,0.1035813,0.18394488,0.8439783,1.1789786,1.2161074,0.945617,1.174862,1.3842157,1.1935561,0.95445305,1.5437958,806.6667,816.337,767.98535,771.6117,709.5604,-0.14990234375,0.17059326171875,0.96502685546875,0.695343017578125,-5.121612548828125,-0.04486083984375,1.0,2.0,1.0,1.0,2.0,100.0,event
11:58:36.171,0.60057545,-0.6025521,0.12738672,0.7504304,0.22675362,-0.2713543,-0.52095985,0.123513326,0.79263455,0.1035813,0.18394488,0.8439783,1.1789786,1.2161074,0.945617,1.174862,1.3842157,1.1935561,0.95445305,1.5437958,786.52014,802.23444,793.7729,772.4176,774.0293,-0.14990234375,0.17059326171875,0.96502685546875,0.695343017578125,-5.121612548828125,-0.04486083984375,1.0,2.0,1.0,1.0,2.0,100.0,event
11:58:36.172,0.60057545,-0.6025521,0.12738672,0.7504304,0.22675362,-0.2713543,-0.52095985,0.123513326,0.79263455,0.1035813,0.18394488,0.8439783,1.1789786,1.2161074,0.945617,1.174862,1.3842157,1.1935561,0.95445305,1.5437958,771.6117,773.6264,823.1868,758.315,865.89746,-0.14990234375,0.17059326171875,0.96502685546875,0.695343017578125,-5.121612548828125,-0.04486083984375,1.0,2.0,1.0,1.0,2.0,100.0,event
11:58:36.173,0.60057545,-0.6025521,0.12738672,0.7504304,0.22675362,-0.2713543,-0.52095985,0.123513326,0.79263455,0.1035813,0.18394488,0.8439783,1.1789786,1.2161074,0.945617,1.174862,1.3842157,1.1935561,0.95445305,1.5437958,785.31134,790.14655,819.9634,757.9121,873.95605,-0.14990234375,0.17059326171875,0.96502685546875,0.695343017578125,-5.121612548828125,-0.04486083984375,1.0,2.0,1.0,1.0,2.0,100.0,event
11:58:36.173,0.60057545,-0.6025521,0.12738672,0.7504304,0.22675362,-0.2713543,-0.52095985,0.123513326,0.79263455,0.1035813,0.18394488,0.8439783,1.1789786,1.2161074,0.945617,1.174862,1.3842157,1.1935561,0.95445305,1.5437958,780.4762,822.7839,804.2491,755.09155,736.1539,-0.14990234375,0.17059326171875,0.96502685546875,0.695343017578125,-5.121612548828125,-0.04486083984375,1.0,2.0,1.0,1.0,2.0,100.0,event
11:58:36.174,0.60057545,-0.6025521,0.12738672,0.7504304,0.22675362,-0.2713543,-0.52095985,0.123513326,0.79263455,0.1035813,0.18394488,0.8439783,1.1789786,1.2161074,0.945617,1.174862,1.3842157,1.1935561,0.95445305,1.5437958,771.2088,820.3663,783.69965,767.98535,924.3223,-0.14990234375,0.17059326171875,0.96502685546875,0.695343017578125,-5.121612548828125,-0.04486083984375,1.0,2.0,1.0,1.0,2.0,100.0,event
11:58:36.174,0.60057545,-0.58426857,0.12738672,0.7504304,0.22675362,-0.24010445,-0.52095985,0.123513326,0.79263455,0.09856593,0.18394488,0.8439783,1.1789786,1.210116,0.945617,1.174862,1.3842157,1.2238932,0.95445305,1.5437958,776.04395,773.22345,789.7436,791.3553,1110.0732,-0.14990234375,0.17059326171875,0.96502685546875,0.695343017578125,-5.121612548828125,-0.04486083984375,1.0,2.0,1.0,1.0,2.0,100.0,event
11:58:36.178,0.60057545,-0.58426857,0.12738672,0.7504304,0.22675362,-0.24010445,-0.52095985,0.123513326,0.79263455,0.09856593,0.18394488,0.8439783,1.1789786,1.210116,0.945617,1.174862,1.3842157,1.2238932,0.95445305,1.5437958,802.23444,773.6264,781.28204,804.65204,788.93774,-0.14990234375,0.17059326171875,0.96502685546875,0.695343017578125,-5.121612548828125,-0.04486083984375,1.0,2.0,1.0,1.0,2.0,100.0,event
11:58:36.179,0.60057545,-0.58426857,0.12738672,0.7504304,0.22675362,-0.24010445,-0.52095985,0.123513326,0.79263455,0.09856593,0.18394488,0.8439783,1.1789786,1.210116,0.945617,1.174862,1.3842157,1.2238932,0.95445305,1.5437958,805.4579,834.87177,772.01465,810.696,703.91943,-0.14990234375,0.17059326171875,0.96502685546875,0.695343017578125,-5.121612548828125,-0.04486083984375,1.0,2.0,1.0,1.0,2.0,100.0,event
11:58:36.207,0.60057545,-0.58426857,0.12738672,0.7504304,0.22675362,-0.24010445,-0.52095985,0.123513326,0.79263455,0.09856593,0.18394488,0.8439783,1.1789786,1.210116,0.945617,1.174862,1.3842157,1.2238932,0.95445305,1.5437958,767.98535,836.4835,815.12823,772.8205,775.2381,-0.14739990234375,0.165283203125,0.97259521484375,0.7177734375,-5.809478759765625,0.441131591796875,1.0,2.0,1.0,1.0,2.0,100.0,event
11:58:36.208,0.60057545,-0.58426857,0.12738672,0.7504304,0.22675362,-0.24010445,-0.52095985,0.123513326,0.79263455,0.09856593,0.18394488,0.8439783,1.1789786,1.210116,0.945617,1.174862,1.3842157,1.2238932,0.95445305,1.5437958,757.50916,809.4872,815.9341,745.0183,788.93774,-0.14739990234375,0.165283203125,0.97259521484375,0.7177734375,-5.809478759765625,0.441131591796875,1.0,2.0,1.0,1.0,2.0,100.0,event
11:58:36.208,0.60057545,-0.58426857,0.12738672,0.7504304,0.22675362,-0.24010445,-0.52095985,0.123513326,0.79263455,0.09856593,0.18394488,0.8439783,1.1789786,1.210116,0.945617,1.174862,1.3842157,1.2238932,0.95445305,1.5437958,795.38464,805.8608,800.6227,774.0293,737.3626,-0.14739990234375,0.165283203125,0.97259521484375,0.7177734375,-5.809478759765625,0.441131591796875,1.0,2.0,1.0,1.0,2.0,100.0,event
11:58:36.209,0.60057545,-0.58426857,0.12738672,0.7504304,0.22675362,-0.24010445,-0.52095985,0.123513326,0.79263455,0.09856593,0.18394488,0.8439783,1.1789786,1.210116,0.945617,1.174862,1.3842157,1.2238932,0.95445305,1.5437958,801.8315,786.1172,811.9048,798.60803,693.8461,-0.14739990234375,0.165283203125,0.97259521484375,0.7177734375,-5.809478759765625,0.441131591796875,1.0,2.0,1.0,1.0,2.0,100.0,event
11:58:36.210,0.60057545,-0.58426857,0.12738672,0.7504304,0.22675362,-0.24010445,-0.52095985,0.123513326,0.79263455,0.09856593,0.18394488,0.8439783,1.1789786,1.210116,0.945617,1.174862,1.3842157,1.2238932,0.95445305,1.5437958,783.2967,771.2088,801.4286,789.34064,760.7326,-0.14739990234375,0.165283203125,0.97259521484375,0.7177734375,-5.809478759765625,0.441131591796875,1.0,2.0,1.0,1.0,2.0,100.0,event
11:58:36.211,0.60057545,-0.58426857,0.12738672,0.7504304,0.22675362,-0.24010445,-0.52095985,0.123513326,0.79263455,0.09856593,0.18394488,0.8439783,1.1789786,1.210116,0.945617,1.174862,1.3842157,1.2238932,0.95445305,1.5437958,790.9524,783.69965,792.96704,767.5824,833.2601,-0.14739990234375,0.165283203125,0.97259521484375,0.7177734375,-5.809478759765625,0.441131591796875,1.0,2.0,1.0,1.0,2.0,100.0,event
11:58:36.211,0.60057545,-0.58426857,0.12738672,0.7504304,0.22675362,-0.24010445,-0.52095985,0.123513326,0.79263455,0.09856593,0.18394488,0.8439783,1.1789786,1.210116,0.945617,1.174862,1.3842157,1.2238932,0.95445305,1.5437958,786.1172,782.0879,793.7729,799.41394,866.30035,-0.14739990234375,0.165283203125,0.97259521484375,0.7177734375,-5.809478759765625,0.441131591796875,1.0,2.0,1.0,1.0,2.0,100.0,event
11:58:36.212,0.60057545,-0.58426857,0.12738672,0.7504304,0.22675362,-0.24010445,-0.52095985,0.123513326,0.79263455,0.09856593,0.18394488,0.8439783,1.1789786,1.210116,0.945617,1.174862,1.3842157,1.2238932,0.95445305,1.5437958,803.44324,787.72894,763.95605,821.1722,850.989,-0.14739990234375,0.165283203125,0.97259521484375,0.7177734375,-5.809478759765625,0.441131591796875,1.0,2.0,1.0,1.0,2.0,100.0,event
11:58:36.213,0.60057545,-0.58426857,0.12738672,0.7504304,0.22675362,-0.24010445,-0.52095985,0.123513326,0.79263455,0.09856593,0.18394488,0.8439783,1.1789786,1.210116,0.945617,1.174862,1.3842157,1.2238932,0.95445305,1.5437958,813.91943,827.2161,760.7326,765.16486,956.1539,-0.14739990234375,0.165283203125,0.97259521484375,0.7177734375,-5.809478759765625,0.441131591796875,1.0,2.0,1.0,1.0,2.0,100.0,event
11:58:36.214,0.60057545,-0.58426857,0.12738672,0.7504304,0.22675362,-0.24010445,-0.52095985,0.123513326,0.79263455,0.09856593,0.18394488,0.8439783,1.1789786,1.210116,0.945617,1.174862,1.3842157,1.2238932,0.95445305,1.5437958,774.43225,855.82416,829.6337,728.49817,890.87915,-0.14739990234375,0.165283203125,0.97259521484375,0.7177734375,-5.809478759765625,0.441131591796875,1.0,2.0,1.0,1.0,2.0,100.0,event
11:58:36.215,0.60057545,-0.58426857,0.12738672,0.7504304,0.22675362,-0.24010445,-0.52095985,0.123513326,0.79263455,0.09856593,0.18394488,0.8439783,1.1789786,1.210116,0.945617,1.174862,1.3842157,1.2238932,0.95445305,1.5437958,778.86444,811.50183,805.8608,754.68866,803.8461,-0.14739990234375,0.165283203125,0.97259521484375,0.7177734375,-5.809478759765625,0.441131591796875,1.0,2.0,1.0,1.0,2.0,100.0,event
11:58:36.215,0.60057545,-0.58426857,0.12738672,0.7504304,0.22675362,-0.24010445,-0.52095985,0.123513326,0.79263455,0.09856593,0.18394488,0.8439783,1.1789786,1.210116,0.945617,1.174862,1.3842157,1.2238932,0.95445305,1.5437958,776.04395,828.8278,825.6044,747.8388,671.28204,-0.14739990234375,0.165283203125,0.97259521484375,0.7177734375,-5.809478759765625,0.441131591796875,1.0,2.0,1.0,1.0,2.0,100.0,event
11:58:36.238,0.60057545,-0.58426857,0.12738672,0.7504304,0.22675362,-0.24010445,-0.52095985,0.123513326,0.79263455,0.09856593,0.18394488,0.8439783,1.1789786,1.210116,0.945617,1.174862,1.3842157,1.2238932,0.95445305,1.5437958,796.1905,798.20514,799.011,775.2381,903.36993,-0.14166259765625,0.16387939453125,0.95953369140625,1.921539306640625,-5.659942626953125,-1.966400146484375,1.0,2.0,1.0,1.0,2.0,100.0,event
11:58:36.239,0.60057545,-0.58426857,0.12738672,0.7504304,0.22675362,-0.24010445,-0.52095985,0.123513326,0.79263455,0.09856593,0.18394488,0.8439783,1.1789786,1.210116,0.945617,1.174862,1.3842157,1.2238932,0.95445305,1.5437958,808.2784,799.011,781.685,784.5055,671.28204,-0.14166259765625,0.16387939453125,0.95953369140625,1.921539306640625,-5.659942626953125,-1.966400146484375,1.0,2.0,1.0,1.0,2.0,100.0,event
11:58:36.240,0.60057545,-0.58426857,0.12738672,0.7504304,0.22675362,-0.24010445,-0.52095985,0.123513326,0.79263455,0.09856593,0.18394488,0.8439783,1.1789786,1.210116,0.945617,1.174862,1.3842157,1.2238932,0.95445305,1.5437958,792.96704,804.2491,798.20514,767.5824,614.4689,-0.14166259765625,0.16387939453125,0.95953369140625,1.921539306640625,-5.659942626953125,-1.966400146484375,1.0,2.0,1.0,1.0,2.0,100.0,event
11:58:36.241,0.60057545,-0.58426857,0.12738672,0.7504304,0.22675362,-0.24010445,-0.52095985,0.123513326,0.79263455,0.09856593,0.18394488,0.8439783,1.1789786,1.210116,0.945617,1.174862,1.3842157,1.2238932,0.95445305,1.5437958,840.5128,793.7729,788.93774,818.7546,750.65936,-0.14166259765625,0.16387939453125,0.95953369140625,1.921539306640625,-5.659942626953125,-1.966400146484375,1.0,2.0,1.0,1.0,2.0,100.0,event
11:58:36.241,0.60057545,-0.58426857,0.12738672,0.7504304,0.22675362,-0.24010445,-0.52095985,0.123513326,0.79263455,0.09856593,0.18394488,0.8439783,1.1789786,1.210116,0.945617,1.174862,1.3842157,1.2238932,0.95445305,1.5437958,863.0769,809.4872,767.5824,834.4689,812.3077,-0.14166259765625,0.16387939453125,0.95953369140625,1.921539306640625,-5.659942626953125,-1.966400146484375,1.0,2.0,1.0,1.0,2.0,100.0,event
11:58:36.242,0.60057545,-0.58426857,0.12738672,0.7504304,0.22675362,-0.24010445,-0.52095985,0.123513326,0.79263455,0.09856593,0.18394488,0.8439783,1.1789786,1.210116,0.945617,1.174862,1.3842157,1.2238932,0.95445305,1.5437958,806.6667,807.8755,785.31134,778.0586,847.3626,-0.14166259765625,0.16387939453125,0.95953369140625,1.921539306640625,-5.659942626953125,-1.966400146484375,1.0,2.0,1.0,1.0,2.0,100.0,event
11:58:36.242,0.60057545,-0.58426857,0.12738672,0.7504304,0.22675362,-0.24010445,-0.52095985,0.123513326,0.79263455,0.09856593,0.18394488,0.8439783,1.1789786,1.210116,0.945617,1.174862,1.3842157,1.2238932,0.95445305,1.5437958,778.86444,807.47253,813.5165,765.16486,841.7216,-0.14166259765625,0.16387939453125,0.95953369140625,1.921539306640625,-5.659942626953125,-1.966400146484375,1.0,2.0,1.0,1.0,2.0,100.0,event
11:58:36.243,0.60057545,-0.58426857,0.12738672,0.7504304,0.22675362,-0.24010445,-0.52095985,0.123513326,0.79263455,0.09856593,0.18394488,0.8439783,1.1789786,1.210116,0.945617,1.174862,1.3842157,1.2238932,0.95445305,1.5437958,778.46155,808.2784,812.3077,767.98535,983.5531,-0.14166259765625,0.16387939453125,0.95953369140625,1.921539306640625,-5.659942626953125,-1.966400146484375,1.0,2.0,1.0,1.0,2.0,100.0,event
11:58:36.244,0.60057545,-0.58426857,0.12738672,0.7504304,0.22675362,-0.24010445,-0.52095985,0.123513326,0.79263455,0.09856593,0.18394488,0.8439783,1.1789786,1.210116,0.945617,1.174862,1.3842157,1.2238932,0.95445305,1.5437958,760.32965,803.8461,806.26373,747.03296,1089.1208,-0.14166259765625,0.16387939453125,0.95953369140625,1.921539306640625,-5.659942626953125,-1.966400146484375,1.0,2.0,1.0,1.0,2.0,100.0,event
11:58:36.245,0.60057545,-0.58426857,0.12738672,0.7504304,0.22675362,-0.24010445,-0.52095985,0.123513326,0.79263455,0.09856593,0.18394488,0.8439783,1.1789786,1.210116,0.945617,1.174862,1.3842157,1.2238932,0.95445305,1.5437958,760.7326,776.8498,805.4579,747.4359,832.0513,-0.14166259765625,0.16387939453125,0.95953369140625,1.921539306640625,-5.659942626953125,-1.966400146484375,1.0,2.0,1.0,1.0,2.0,100.0,event
11:58:36.246,0.60057545,-0.5861022,0.12738672,0.7504304,0.22675362,-0.2178763,-0.52095985,0.123513326,0.79263455,0.08382025,0.18394488,0.8439783,1.1789786,1.2280678,0.945617,1.174862,1.3842157,1.2517337,0.95445305,1.5437958,802.6374,802.6374,792.1612,810.696,773.6264,-0.14166259765625,0.16387939453125,0.95953369140625,1.921539306640625,-5.659942626953125,-1.966400146484375,1.0,2.0,1.0,1.0,2.0,100.0,event
11:58:36.246,0.60057545,-0.58426857,0.12738672,0.7504304,0.22675362,-0.24010445,-0.52095985,0.123513326,0.79263455,0.09856593,0.18394488,0.8439783,1.1789786,1.210116,0.945617,1.174862,1.3842157,1.2238932,0.95445305,1.5437958,778.86444,772.4176,798.60803,772.8205,746.2271,-0.14166259765625,0.16387939453125,0.95953369140625,1.921539306640625,-5.659942626953125,-1.966400146484375,1.0,2.0,1.0,1.0,2.0,100.0,event
11:58:36.339,0.60057545,-0.5861022,0.12738672,0.7504304,0.22675362,-0.2178763,-0.52095985,0.123513326,0.79263455,0.08382025,0.18394488,0.8439783,1.1789786,1.2280678,0.945617,1.174862,1.3842157,1.2517337,0.95445305,1.5437958,811.9048,809.0842,784.10254,822.381,739.7802,-0.14166259765625,0.16387939453125,0.95953369140625,1.921539306640625,-5.659942626953125,-1.966400146484375,1.0,2.0,1.0,1.0,2.0,100.0,event
11:58:36.340,0.60057545,-0.5861022,0.12738672,0.7504304,0.22675362,-0.2178763,-0.52095985,0.123513326,0.79263455,0.08382025,0.18394488,0.8439783,1.1789786,1.2280678,0.945617,1.174862,1.3842157,1.2517337,0.95445305,1.5437958,829.6337,803.8461,792.1612,825.6044,688.20514,-0.14166259765625,0.16387939453125,0.95953369140625,1.921539306640625,-5.659942626953125,-1.966400146484375,1.0,2.0,1.0,1.0,2.0,100.0,event
11:58:36.341,0.60057545,-0.5861022,0.12738672,0.7504304,0.22675362,-0.2178763,-0.52095985,0.123513326,0.79263455,0.08382025,0.18394488,0.8439783,1.1789786,1.2280678,0.945617,1.174862,1.3842157,1.2517337,0.95445305,1.5437958,833.663,790.14655,811.9048,823.5897,759.92676,-0.14166259765625,0.16387939453125,0.95953369140625,1.921539306640625,-5.659942626953125,-1.966400146484375,1.0,2.0,1.0,1.0,2.0,100.0,event
11:58:36.342,0.60057545,-0.5861022,0.12738672,0.7504304,0.22675362,-0.2178763,-0.52095985,0.123513326,0.79263455,0.08382025,0.18394488,0.8439783,1.1789786,1.2280678,0.945617,1.174862,1.3842157,1.2517337,0.95445305,1.5437958,790.54944,800.2198,819.5604,784.5055,831.6484,-0.14166259765625,0.16387939453125,0.95953369140625,1.921539306640625,-5.659942626953125,-1.966400146484375,1.0,2.0,1.0,1.0,2.0,100.0,event
11:58:36.343,0.60057545,-0.5861022,0.12738672,0.7504304,0.22675362,-0.2178763,-0.52095985,0.123513326,0.79263455,0.08382025,0.18394488,0.8439783,1.1789786,1.2280678,0.945617,1.174862,1.3842157,1.2517337,0.95445305,1.5437958,799.011,795.38464,813.1135,798.60803,740.989,-0.14166259765625,0.16387939453125,0.95953369140625,1.921539306640625,-5.659942626953125,-1.966400146484375,1.0,2.0,1.0,1.0,2.0,100.0,event
11:58:36.344,0.60057545,-0.5861022,0.12738672,0.7504304,0.22675362,-0.2178763,-0.52095985,0.123513326,0.79263455,0.08382025,0.18394488,0.8439783,1.1789786,1.2280678,0.945617,1.174862,1.3842157,1.2517337,0.95445305,1.5437958,830.0366,765.16486,808.68134,827.2161,763.5531,-0.14166259765625,0.16387939453125,0.95953369140625,1.921539306640625,-5.659942626953125,-1.966400146484375,1.0,2.0,1.0,1.0,2.0,100.0,event
11:58:36.346,0.60057545,-0.5861022,0.12738672,0.7504304,0.22675362,-0.2178763,-0.52095985,0.123513326,0.79263455,0.08382025,0.18394488,0.8439783,1.1789786,1.2280678,0.945617,1.174862,1.3842157,1.2517337,0.95445305,1.5437958,794.9817,783.2967,792.96704,814.3223,770.40295,-0.14166259765625,0.16387939453125,0.95953369140625,1.921539306640625,-5.659942626953125,-1.966400146484375,1.0,2.0,1.0,1.0,2.0,100.0,event
11:58:36.347,0.60057545,-0.5861022,0.12738672,0.7504304,0.22675362,-0.2178763,-0.52095985,0.123513326,0.79263455,0.08382025,0.18394488,0.8439783,1.1789786,1.2280678,0.945617,1.174862,1.3842157,1.2517337,0.95445305,1.5437958,810.293,848.1685,792.1612,819.5604,945.6777,-0.14166259765625,0.16387939453125,0.95953369140625,1.921539306640625,-5.659942626953125,-1.966400146484375,1.0,2.0,1.0,1.0,2.0,100.0,event
11:58:36.349,0.60057545,-0.5861022,0.12738672,0.7504304,0.22675362,-0.2178763,-0.52095985,0.123513326,0.79263455,0.08382025,0.18394488,0.8439783,1.1789786,1.2280678,0.945617,1.174862,1.3842157,1.2517337,0.95445305,1.5437958,817.1429,847.3626,813.91943,811.50183,923.91943,-0.14166259765625,0.16387939453125,0.95953369140625,1.921539306640625,-5.659942626953125,-1.966400146484375,1.0,2.0,1.0,1.0,2.0,100.0,event
11:58:36.350,0.60057545,-0.5861022,0.12738672,0.7504304,0.22675362,-0.2178763,-0.52095985,0.123513326,0.79263455,0.08382025,0.18394488,0.8439783,1.1789786,1.2280678,0.945617,1.174862,1.3842157,1.2517337,0.95445305,1.5437958,781.685,815.5311,780.4762,782.8938,645.09155,-0.14166259765625,0.16387939453125,0.95953369140625,1.921539306640625,-5.659942626953125,-1.966400146484375,1.0,2.0,1.0,1.0,2.0,100.0,event
11:58:36.351,0.60057545,-0.5861022,0.12738672,0.7504304,0.22675362,-0.2178763,-0.52095985,0.123513326,0.79263455,0.08382025,0.18394488,0.8439783,1.1789786,1.2280678,0.945617,1.174862,1.3842157,1.2517337,0.95445305,1.5437958,817.1429,801.8315,763.5531,805.8608,710.7692,-0.14166259765625,0.16387939453125,0.95953369140625,1.921539306640625,-5.659942626953125,-1.966400146484375,1.0,2.0,1.0,1.0,2.0,100.0,event
11:58:36.352,0.60057545,-0.5861022,0.12738672,0.7504304,0.22675362,-0.2178763,-0.52095985,0.123513326,0.79263455,0.08382025,0.18394488,0.8439783,1.1789786,1.2280678,0.945617,1.174862,1.3842157,1.2517337,0.95445305,1.5437958,841.31866,789.34064,784.5055,836.8865,807.8755,-0.14166259765625,0.16387939453125,0.95953369140625,1.921539306640625,-5.659942626953125,-1.966400146484375,1.0,2.0,1.0,1.0,2.0,100.0,event
11:58:36.378,0.60057545,-0.5861022,0.12738672,0.7504304,0.22675362,-0.2178763,-0.52095985,0.123513326,0.79263455,0.08382025,0.18394488,0.8439783,1.1789786,1.2280678,0.945617,1.174862,1.3842157,1.2517337,0.95445305,1.5437958,831.2454,778.0586,796.1905,828.022,715.2015,-0.13043212890625,0.16192626953125,0.9765625,1.016845703125,-4.71038818359375,-2.848663330078125,1.0,2.0,1.0,1.0,2.0,100.0,event
11:58:36.379,0.60057545,-0.5861022,0.12738672,0.7504304,0.22675362,-0.2178763,-0.52095985,0.123513326,0.79263455,0.08382025,0.18394488,0.8439783,1.1789786,1.2280678,0.945617,1.174862,1.3842157,1.2517337,0.95445305,1.5437958,821.1722,790.54944,819.15753,831.2454,697.47253,-0.13043212890625,0.16192626953125,0.9765625,1.016845703125,-4.71038818359375,-2.848663330078125,1.0,2.0,1.0,1.0,2.0,100.0,event
11:58:36.380,0.60057545,-0.5861022,0.12738672,0.7504304,0.22675362,-0.2178763,-0.52095985,0.123513326,0.79263455,0.08382025,0.18394488,0.8439783,1.1789786,1.2280678,0.945617,1.174862,1.3842157,1.2517337,0.95445305,1.5437958,809.89014,813.91943,815.12823,813.5165,803.0403,-0.13043212890625,0.16192626953125,0.9765625,1.016845703125,-4.71038818359375,-2.848663330078125,1.0,2.0,1.0,1.0,2.0,100.0,event
11:58:36.381,0.60057545,-0.5861022,0.12738672,0.7504304,0.22675362,-0.2178763,-0.52095985,0.123513326,0.79263455,0.08382025,0.18394488,0.8439783,1.1789786,1.2280678,0.945617,1.174862,1.3842157,1.2517337,0.95445305,1.5437958,791.3553,815.12823,800.2198,788.5348,763.5531,-0.13043212890625,0.16192626953125,0.9765625,1.016845703125,-4.71038818359375,-2.848663330078125,1.0,2.0,1.0,1.0,2.0,100.0,event
11:58:36.381,0.60057545,-0.5861022,0.12738672,0.7504304,0.22675362,-0.2178763,-0.52095985,0.123513326,0.79263455,0.08382025,0.18394488,0.8439783,1.1789786,1.2280678,0.945617,1.174862,1.3842157,1.2517337,0.95445305,1.5437958,799.011,826.4103,788.1319,804.2491,725.2747,-0.13043212890625,0.16192626953125,0.9765625,1.016845703125,-4.71038818359375,-2.848663330078125,1.0,2.0,1.0,1.0,2.0,100.0,event
11:58:36.382,0.60057545,-0.5861022,0.12738672,0.7504304,0.22675362,-0.2178763,-0.52095985,0.123513326,0.79263455,0.08382025,0.18394488,0.8439783,1.1789786,1.2280678,0.945617,1.174862,1.3842157,1.2517337,0.95445305,1.5437958,819.9634,805.8608,800.2198,813.91943,830.4396,-0.13043212890625,0.16192626953125,0.9765625,1.016845703125,-4.71038818359375,-2.848663330078125,1.0,2.0,1.0,1.0,2.0,100.0,event
11:58:36.383,0.60057545,-0.5861022,0.12738672,0.7504304,0.22675362,-0.2178763,-0.52095985,0.123513326,0.79263455,0.08382025,0.18394488,0.8439783,1.1789786,1.2280678,0.945617,1.174862,1.3842157,1.2517337,0.95445305,1.5437958,844.94507,805.8608,792.1612,843.73627,1060.5128,-0.13043212890625,0.16192626953125,0.9765625,1.016845703125,-4.71038818359375,-2.848663330078125,1.0,2.0,1.0,1.0,2.0,100.0,event
11:58:36.384,0.60057545,-0.5861022,0.12738672,0.7504304,0.22675362,-0.2178763,-0.52095985,0.123513326,0.79263455,0.08382025,0.18394488,0.8439783,1.1789786,1.2280678,0.945617,1.174862,1.3842157,1.2517337,0.95445305,1.5437958,861.4652,796.5934,779.67035,879.19415,1123.37,-0.13043212890625,0.16192626953125,0.9765625,1.016845703125,-4.71038818359375,-2.848663330078125,1.0,2.0,1.0,1.0,2.0,100.0,event
11:58:36.384,0.60057545,-0.5861022,0.12738672,0.7504304,0.22675362,-0.2178763,-0.52095985,0.123513326,0.79263455,0.08382025,0.18394488,0.8439783,1.1789786,1.2280678,0.945617,1.174862,1.3842157,1.2517337,0.95445305,1.5437958,818.7546,790.9524,809.0842,812.71063,803.44324,-0.13043212890625,0.16192626953125,0.9765625,1.016845703125,-4.71038818359375,-2.848663330078125,1.0,2.0,1.0,1.0,2.0,100.0,event
11:58:36.385,0.60057545,-0.5861022,0.12738672,0.7504304,0.22675362,-0.2178763,-0.52095985,0.123513326,0.79263455,0.08382025,0.18394488,0.8439783,1.1789786,1.2280678,0.945617,1.174862,1.3842157,1.2517337,0.95445305,1.5437958,787.72894,787.72894,817.9487,772.8205,707.1429,-0.13043212890625,0.16192626953125,0.9765625,1.016845703125,-4.71038818359375,-2.848663330078125,1.0,2.0,1.0,1.0,2.0,100.0,event
11:58:36.386,0.60057545,-0.5861022,0.12738672,0.7504304,0.22675362,-0.2178763,-0.52095985,0.123513326,0.79263455,0.08382025,0.18394488,0.8439783,1.1789786,1.2280678,0.945617,1.174862,1.3842157,1.2517337,0.95445305,1.5437958,786.1172,781.28204,805.05493,797.3993,793.36993,-0.13043212890625,0.16192626953125,0.9765625,1.016845703125,-4.71038818359375,-2.848663330078125,1.0,2.0,1.0,1.0,2.0,100.0,event
11:58:36.386,0.60057545,-0.5861022,0.12738672,0.7504304,0.22675362,-0.2178763,-0.52095985,0.123513326,0.79263455,0.08382025,0.18394488,0.8439783,1.1789786,1.2280678,0.945617,1.174862,1.3842157,1.2517337,0.95445305,1.5437958,778.46155,817.1429,788.93774,799.81683,848.97437,-0.13043212890625,0.16192626953125,0.9765625,1.016845703125,-4.71038818359375,-2.848663330078125,1.0,2.0,1.0,1.0,2.0,100.0,event
11:58:36.408,0.60057545,-0.5861022,0.12738672,0.7504304,0.22675362,-0.2178763,-0.52095985,0.123513326,0.79263455,0.08382025,0.18394488,0.8439783,1.1789786,1.2280678,0.945617,1.174862,1.3842157,1.2517337,0.95445305,1.5437958,796.1905,819.15753,787.326,803.8461,720.84247,-0.12152099609375,0.16796875,0.960693359375,1.772003173828125,-4.418792724609375,-1.607513427734375,1.0,2.0,1.0,1.0,2.0,100.0,event
11:58:36.410,0.60057545,-0.5861022,0.12738672,0.7504304,0.22675362,-0.2178763,-0.52095985,0.123513326,0.79263455,0.08382025,0.18394488,0.8439783,1.1789786,1.2280678,0.945617,1.174862,1.3842157,1.2517337,0.95445305,1.5437958,828.022,813.1135,778.0586,840.5128,635.42126,-0.12152099609375,0.16796875,0.960693359375,1.772003173828125,-4.418792724609375,-1.607513427734375,1.0,2.0,1.0,1.0,2.0,100.0,event
11:58:36.413,0.60057545,-0.5861022,0.12738672,0.7504304,0.22675362,-0.2178763,-0.52095985,0.123513326,0.79263455,0.08382025,0.18394488,0.8439783,1.1789786,1.2280678,0.945617,1.174862,1.3842157,1.2517337,0.95445305,1.5437958,838.0952,826.4103,790.9524,858.24176,701.9048,-0.12152099609375,0.16796875,0.960693359375,1.772003173828125,-4.418792724609375,-1.607513427734375,1.0,2.0,1.0,1.0,2.0,100.0,event
11:58:36.414,0.60057545,-0.5861022,0.12738672,0.7504304,0.22675362,-0.2178763,-0.52095985,0.123513326,0.79263455,0.08382025,0.18394488,0.8439783,1.1789786,1.2280678,0.945617,1.174862,1.3842157,1.2517337,0.95445305,1.5437958,842.1245,790.9524,823.1868,834.4689,754.68866,-0.12152099609375,0.16796875,0.960693359375,1.772003173828125,-4.418792724609375,-1.607513427734375,1.0,2.0,1.0,1.0,2.0,100.0,event
11:58:36.415,0.60057545,-0.5861022,0.12738672,0.7504304,0.22675362,-0.2178763,-0.52095985,0.123513326,0.79263455,0.08382025,0.18394488,0.8439783,1.1789786,1.2280678,0.945617,1.174862,1.3842157,1.2517337,0.95445305,1.5437958,838.0952,780.4762,810.293,828.8278,799.011,-0.12152099609375,0.16796875,0.960693359375,1.772003173828125,-4.418792724609375,-1.607513427734375,1.0,2.0,1.0,1.0,2.0,100.0,event
11:58:36.416,0.60057545,-0.5861022,0.12738672,0.7504304,0.22675362,-0.2178763,-0.52095985,0.123513326,0.79263455,0.08382025,0.18394488,0.8439783,1.1789786,1.2280678,0.945617,1.174862,1.3842157,1.2517337,0.95445305,1.5437958,809.0842,809.0842,796.5934,808.2784,827.2161,-0.12152099609375,0.16796875,0.960693359375,1.772003173828125,-4.418792724609375,-1.607513427734375,1.0,2.0,1.0,1.0,2.0,100.0,event
11:58:36.416,0.60057545,-0.5861022,0.12738672,0.7504304,0.22675362,-0.2178763,-0.52095985,0.123513326,0.79263455,0.08382025,0.18394488,0.8439783,1.1789786,1.2280678,0.945617,1.174862,1.3842157,1.2517337,0.95445305,1.5437958,785.7143,809.4872,793.7729,797.3993,965.0183,-0.12152099609375,0.16796875,0.960693359375,1.772003173828125,-4.418792724609375,-1.607513427734375,1.0,2.0,1.0,1.0,2.0,100.0,event
11:58:36.417,0.60057545,-0.5861022,0.12738672,0.7504304,0.22675362,-0.2178763,-0.52095985,0.123513326,0.79263455,0.08382025,0.18394488,0.8439783,1.1789786,1.2280678,0.945617,1.174862,1.3842157,1.2517337,0.95445305,1.5437958,794.17584,801.4286,800.2198,824.7985,863.8828,-0.12152099609375,0.16796875,0.960693359375,1.772003173828125,-4.418792724609375,-1.607513427734375,1.0,2.0,1.0,1.0,2.0,100.0,event
11:58:36.418,0.60057545,-0.5861022,0.12738672,0.7504304,0.22675362,-0.2178763,-0.52095985,0.123513326,0.79263455,0.08382025,0.18394488,0.8439783,1.1789786,1.2280678,0.945617,1.174862,1.3842157,1.2517337,0.95445305,1.5437958,789.34064,797.8022,817.5458,796.1905,666.04395,-0.12152099609375,0.16796875,0.960693359375,1.772003173828125,-4.418792724609375,-1.607513427734375,1.0,2.0,1.0,1.0,2.0,100.0,event
11:58:36.419,0.60057545,-0.5861022,0.12738672,0.7504304,0.22675362,-0.2178763,-0.52095985,0.123513326,0.79263455,0.08382025,0.18394488,0.8439783,1.1789786,1.2280678,0.945617,1.174862,1.3842157,1.2517337,0.95445305,1.5437958,785.31134,818.7546,804.65204,779.2674,812.71063,-0.12152099609375,0.16796875,0.960693359375,1.772003173828125,-4.418792724609375,-1.607513427734375,1.0,2.0,1.0,1.0,2.0,100.0,event
11:58:36.419,0.60057545,-0.5861022,0.12738672,0.7504304,0.22675362,-0.2178763,-0.52095985,0.123513326,0.79263455,0.08382025,0.18394488,0.8439783,1.1789786,1.2280678,0.945617,1.174862,1.3842157,1.2517337,0.95445305,1.5437958,798.60803,806.6667,790.54944,810.696,915.05493,-0.12152099609375,0.16796875,0.960693359375,1.772003173828125,-4.418792724609375,-1.607513427734375,1.0,2.0,1.0,1.0,2.0,100.0,event
11:58:36.420,0.60057545,-0.5861022,0.12738672,0.7504304,0.22675362,-0.2178763,-0.52095985,0.123513326,0.79263455,0.08382025,0.18394488,0.8439783,1.1789786,1.2280678,0.945617,1.174862,1.3842157,1.2517337,0.95445305,1.5437958,808.2784,796.5934,774.43225,822.7839,744.61536,-0.12152099609375,0.16796875,0.960693359375,1.772003173828125,-4.418792724609375,-1.607513427734375,1.0,2.0,1.0,1.0,2.0,100.0,event
11:58:36.442,0.60057545,-0.5861022,0.12738672,0.7504304,0.22675362,-0.2178763,-0.52095985,0.123513326,0.79263455,0.08382025,0.18394488,0.8439783,1.1789786,1.2280678,0.945617,1.174862,1.3842157,1.2517337,0.95445305,1.5437958,836.8865,782.49084,789.34064,844.94507,636.2271,-0.1502685546875,0.1641845703125,0.9620361328125,0.0299072265625,-5.63751220703125,0.157012939453125,1.0,2.0,1.0,1.0,2.0,100.0,event
11:58:36.443,0.60057545,-0.5861022,0.12738672,0.7504304,0.22675362,-0.2178763,-0.52095985,0.123513326,0.79263455,0.08382025,0.18394488,0.8439783,1.1789786,1.2280678,0.945617,1.174862,1.3842157,1.2517337,0.95445305,1.5437958,830.84247,822.7839,789.7436,837.28937,741.79486,-0.1502685546875,0.1641845703125,0.9620361328125,0.0299072265625,-5.63751220703125,0.157012939453125,1.0,2.0,1.0,1.0,2.0,100.0,event
11:58:36.443,0.60057545,-0.5861022,0.12738672,0.7504304,0.22675362,-0.2178763,-0.52095985,0.123513326,0.79263455,0.08382025,0.18394488,0.8439783,1.1789786,1.2280678,0.945617,1.174862,1.3842157,1.2517337,0.95445305,1.5437958,865.89746,773.22345,811.50183,863.8828,702.71063,-0.1502685546875,0.1641845703125,0.9620361328125,0.0299072265625,-5.63751220703125,0.157012939453125,1.0,2.0,1.0,1.0,2.0,100.0,event
11:58:36.444,0.60057545,-0.5861022,0.12738672,0.7504304,0.22675362,-0.2178763,-0.52095985,0.123513326,0.79263455,0.08382025,0.18394488,0.8439783,1.1789786,1.2280678,0.945617,1.174862,1.3842157,1.2517337,0.95445305,1.5437958,767.5824,816.7399,800.6227,787.72894,742.1978,-0.1502685546875,0.1641845703125,0.9620361328125,0.0299072265625,-5.63751220703125,0.157012939453125,1.0,2.0,1.0,1.0,2.0,100.0,event
11:58:36.444,0.60057545,-0.5861022,0.12738672,0.7504304,0.22675362,-0.2178763,-0.52095985,0.123513326,0.79263455,0.08382025,0.18394488,0.8439783,1.1789786,1.2280678,0.945617,1.174862,1.3842157,1.2517337,0.95445305,1.5437958,756.30035,809.0842,807.0696,767.5824,693.8461,-0.1502685546875,0.1641845703125,0.9620361328125,0.0299072265625,-5.63751220703125,0.157012939453125,1.0,2.0,1.0,1.0,2.0,100.0,event
11:58:36.445,0.60057545,-0.5861022,0.12738672,0.7504304,0.22675362,-0.2178763,-0.52095985,0.123513326,0.79263455,0.08382025,0.18394488,0.8439783,1.1789786,1.2280678,0.945617,1.174862,1.3842157,1.2517337,0.95445305,1.5437958,766.77655,802.6374,796.5934,777.6557,747.03296,-0.1502685546875,0.1641845703125,0.9620361328125,0.0299072265625,-5.63751220703125,0.157012939453125,1.0,2.0,1.0,1.0,2.0,100.0,event
11:58:36.445,0.60057545,-0.5861022,0.12738672,0.7504304,0.22675362,-0.2178763,-0.52095985,0.123513326,0.79263455,0.08382025,0.18394488,0.8439783,1.1789786,1.2280678,0.945617,1.174862,1.3842157,1.2517337,0.95445305,1.5437958,785.7143,790.14655,793.7729,785.7143,863.0769,-0.1502685546875,0.1641845703125,0.9620361328125,0.0299072265625,-5.63751220703125,0.157012939453125,1.0,2.0,1.0,1.0,2.0,100.0,event
11:58:36.446,0.60057545,-0.5861022,0.12738672,0.7504304,0.22675362,-0.2178763,-0.52095985,0.123513326,0.79263455,0.08382025,0.18394488,0.8439783,1.1789786,1.2280678,0.945617,1.174862,1.3842157,1.2517337,0.95445305,1.5437958,808.2784,811.50183,801.4286,796.99634,790.9524,-0.1502685546875,0.1641845703125,0.9620361328125,0.0299072265625,-5.63751220703125,0.157012939453125,1.0,2.0,1.0,1.0,2.0,100.0,event
11:58:36.447,0.60057545,-0.5861022,0.12738672,0.7504304,0.22675362,-0.2178763,-0.52095985,0.123513326,0.79263455,0.08382025,0.18394488,0.8439783,1.1789786,1.2280678,0.945617,1.174862,1.3842157,1.2517337,0.95445305,1.5437958,801.4286,805.05493,801.02563,797.3993,678.1319,-0.1502685546875,0.1641845703125,0.9620361328125,0.0299072265625,-5.63751220703125,0.157012939453125,1.0,2.0,1.0,1.0,2.0,100.0,event
11:58:36.447,0.60057545,-0.5861022,0.12738672,0.7504304,0.22675362,-0.2178763,-0.52095985,0.123513326,0.79263455,0.08382025,0.18394488,0.8439783,1.1789786,1.2280678,0.945617,1.174862,1.3842157,1.2517337,0.95445305,1.5437958,803.44324,774.0293,800.2198,805.8608,862.27106,-0.1502685546875,0.1641845703125,0.9620361328125,0.0299072265625,-5.63751220703125,0.157012939453125,1.0,2.0,1.0,1.0,2.0,100.0,event
11:58:36.448,0.60057545,-0.5861022,0.12738672,0.7504304,0.22675362,-0.2178763,-0.52095985,0.123513326,0.79263455,0.08382025,0.18394488,0.8439783,1.1789786,1.2280678,0.945617,1.174862,1.3842157,1.2517337,0.95445305,1.5437958,812.3077,782.0879,794.9817,815.12823,938.022,-0.1502685546875,0.1641845703125,0.9620361328125,0.0299072265625,-5.63751220703125,0.157012939453125,1.0,2.0,1.0,1.0,2.0,100.0,event
11:58:36.448,0.60057545,-0.5861022,0.12738672,0.7504304,0.22675362,-0.2178763,-0.52095985,0.123513326,0.79263455,0.08382025,0.18394488,0.8439783,1.1789786,1.2280678,0.945617,1.174862,1.3842157,1.2517337,0.95445305,1.5437958,799.41394,786.9231,775.64105,799.81683,803.0403,-0.1502685546875,0.1641845703125,0.9620361328125,0.0299072265625,-5.63751220703125,0.157012939453125,1.0,2.0,1.0,1.0,2.0,100.0,event
11:58:36.491,0.60057545,-0.5861022,0.12738672,0.7504304,0.22675362,-0.2178763,-0.52095985,0.123513326,0.79263455,0.08382025,0.18394488,0.8439783,1.1789786,1.2280678,0.945617,1.174862,1.3842157,1.2517337,0.95445305,1.5437958,782.49084,809.0842,799.41394,780.07324,815.9341,-0.135498046875,0.166748046875,0.942138671875,2.190704345703125,-5.38330078125,-1.39068603515625,1.0,2.0,1.0,1.0,2.0,100.0,event
11:58:36.492,0.60057545,-0.5861022,0.12738672,0.7504304,0.22675362,-0.2178763,-0.52095985,0.123513326,0.79263455,0.08382025,0.18394488,0.8439783,1.1789786,1.2280678,0.945617,1.174862,1.3842157,1.2517337,0.95445305,1.5437958,790.9524,810.293,798.20514,808.68134,757.50916,-0.135498046875,0.166748046875,0.942138671875,2.190704345703125,-5.38330078125,-1.39068603515625,1.0,2.0,1.0,1.0,2.0,100.0,event
11:58:36.492,0.60057545,-0.5861022,0.12738672,0.7504304,0.22675362,-0.2178763,-0.52095985,0.123513326,0.79263455,0.08382025,0.18394488,0.8439783,1.1789786,1.2280678,0.945617,1.174862,1.3842157,1.2517337,0.95445305,1.5437958,782.8938,838.49817,809.0842,793.36993,835.2747,-0.135498046875,0.166748046875,0.942138671875,2.190704345703125,-5.38330078125,-1.39068603515625,1.0,2.0,1.0,1.0,2.0,100.0,event
11:58:36.493,0.60057545,-0.5861022,0.12738672,0.7504304,0.22675362,-0.2178763,-0.52095985,0.123513326,0.79263455,0.08382025,0.18394488,0.8439783,1.1789786,1.2280678,0.945617,1.174862,1.3842157,1.2517337,0.95445305,1.5437958,791.75824,789.7436,799.81683,799.41394,633.8095,-0.135498046875,0.166748046875,0.942138671875,2.190704345703125,-5.38330078125,-1.39068603515625,1.0,2.0,1.0,1.0,2.0,100.0,event
11:58:36.496,0.60057545,-0.5861022,0.12738672,0.7504304,0.22675362,-0.2178763,-0.52095985,0.123513326,0.79263455,0.08382025,0.18394488,0.8439783,1.1789786,1.2280678,0.945617,1.174862,1.3842157,1.2517337,0.95445305,1.5437958,800.2198,783.69965,795.78754,802.6374,740.989,-0.135498046875,0.166748046875,0.942138671875,2.190704345703125,-5.38330078125,-1.39068603515625,1.0,2.0,1.0,1.0,2.0,100.0,event
11:58:36.496,0.60057545,-0.5861022,0.12738672,0.7504304,0.22675362,-0.2178763,-0.52095985,0.123513326,0.79263455,0.08382025,0.18394488,0.8439783,1.1789786,1.2280678,0.945617,1.174862,1.3842157,1.2517337,0.95445305,1.5437958,812.3077,794.17584,802.23444,821.5751,890.87915,-0.135498046875,0.166748046875,0.942138671875,2.190704345703125,-5.38330078125,-1.39068603515625,1.0,2.0,1.0,1.0,2.0,100.0,event
11:58:36.497,0.60057545,-0.5861022,0.12738672,0.7504304,0.22675362,-0.2178763,-0.52095985,0.123513326,0.79263455,0.08382025,0.18394488,0.8439783,1.1789786,1.2280678,0.945617,1.174862,1.3842157,1.2517337,0.95445305,1.5437958,818.3516,817.9487,769.59705,808.68134,895.7143,-0.135498046875,0.166748046875,0.942138671875,2.190704345703125,-5.38330078125,-1.39068603515625,1.0,2.0,1.0,1.0,2.0,100.0,event
11:58:36.498,0.60057545,-0.5861022,0.12738672,0.7504304,0.22675362,-0.2178763,-0.52095985,0.123513326,0.79263455,0.08382025,0.18394488,0.8439783,1.1789786,1.2280678,0.945617,1.174862,1.3842157,1.2517337,0.95445305,1.5437958,794.17584,789.34064,763.5531,776.4469,764.7619,-0.135498046875,0.166748046875,0.942138671875,2.190704345703125,-5.38330078125,-1.39068603515625,1.0,2.0,1.0,1.0,2.0,100.0,event
11:58:36.498,0.60057545,-0.5861022,0.12738672,0.7504304,0.22675362,-0.2178763,-0.52095985,0.123513326,0.79263455,0.08382025,0.18394488,0.8439783,1.1789786,1.2280678,0.945617,1.174862,1.3842157,1.2517337,0.95445305,1.5437958,777.6557,797.3993,804.65204,770.0,765.9707,-0.135498046875,0.166748046875,0.942138671875,2.190704345703125,-5.38330078125,-1.39068603515625,1.0,2.0,1.0,1.0,2.0,100.0,event
11:58:36.499,0.60057545,-0.5861022,0.12738672,0.7504304,0.22675362,-0.2178763,-0.52095985,0.123513326,0.79263455,0.08382025,0.18394488,0.8439783,1.1789786,1.2280678,0.945617,1.174862,1.3842157,1.2517337,0.95445305,1.5437958,782.0879,811.50183,830.0366,785.31134,1016.99634,-0.135498046875,0.166748046875,0.942138671875,2.190704345703125,-5.38330078125,-1.39068603515625,1.0,2.0,1.0,1.0,2.0,100.0,event
11:58:36.499,0.60057545,-0.5861022,0.12738672,0.7504304,0.22675362,-0.2178763,-0.52095985,0.123513326,0.79263455,0.08382025,0.18394488,0.8439783,1.1789786,1.2280678,0.945617,1.174862,1.3842157,1.2517337,0.95445305,1.5437958,790.54944,784.5055,821.1722,796.5934,889.67035,-0.135498046875,0.166748046875,0.942138671875,2.190704345703125,-5.38330078125,-1.39068603515625,1.0,2.0,1.0,1.0,2.0,100.0,event
11:58:36.500,0.60057545,-0.5861022,0.12738672,0.7504304,0.22675362,-0.2178763,-0.52095985,0.123513326,0.79263455,0.08382025,0.18394488,0.8439783,1.1789786,1.2280678,0.945617,1.174862,1.3842157,1.2517337,0.95445305,1.5437958,776.8498,796.1905,792.1612,765.9707,674.90845,-0.135498046875,0.166748046875,0.942138671875,2.190704345703125,-5.38330078125,-1.39068603515625,1.0,2.0,1.0,1.0,2.0,100.0,event
11:58:36.541,0.60057545,-0.5861022,0.12738672,0.7504304,0.22675362,-0.2178763,-0.52095985,0.123513326,0.79263455,0.08382025,0.18394488,0.8439783,1.1789786,1.2280678,0.945617,1.174862,1.3842157,1.2517337,0.95445305,1.5437958,764.35895,795.38464,785.31134,748.24176,794.9817,-0.135498046875,0.166748046875,0.942138671875,2.190704345703125,-5.38330078125,-1.39068603515625,1.0,2.0,1.0,1.0,2.0,100.0,event
11:58:36.542,0.60057545,-0.5861022,0.12738672,0.7504304,0.22675362,-0.2178763,-0.52095985,0.123513326,0.79263455,0.08382025,0.18394488,0.8439783,1.1789786,1.2280678,0.945617,1.174862,1.3842157,1.2517337,0.95445305,1.5437958,782.0879,796.5934,791.75824,787.326,708.7546,-0.135498046875,0.166748046875,0.942138671875,2.190704345703125,-5.38330078125,-1.39068603515625,1.0,2.0,1.0,1.0,2.0,100.0,event
11:58:36.542,0.60057545,-0.5861022,0.12738672,0.7504304,0.22675362,-0.2178763,-0.52095985,0.123513326,0.79263455,0.08382025,0.18394488,0.8439783,1.1789786,1.2280678,0.945617,1.174862,1.3842157,1.2517337,0.95445305,1.5437958,770.80585,794.17584,791.3553,766.3736,816.7399,-0.135498046875,0.166748046875,0.942138671875,2.190704345703125,-5.38330078125,-1.39068603515625,1.0,2.0,1.0,1.0,2.0,100.0,event
11:58:36.543,0.60057545,-0.5861022,0.12738672,0.7504304,0.22675362,-0.2178763,-0.52095985,0.123513326,0.79263455,0.08382025,0.18394488,0.8439783,1.1789786,1.2280678,0.945617,1.174862,1.3842157,1.2517337,0.95445305,1.5437958,784.90845,789.7436,796.5934,781.685,734.94507,-0.135498046875,0.166748046875,0.942138671875,2.190704345703125,-5.38330078125,-1.39068603515625,1.0,2.0,1.0,1.0,2.0,100.0,event
11:58:36.543,0.60057545,-0.5861022,0.12738672,0.7504304,0.22675362,-0.2178763,-0.52095985,0.123513326,0.79263455,0.08382025,0.18394488,0.8439783,1.1789786,1.2280678,0.945617,1.174862,1.3842157,1.2517337,0.95445305,1.5437958,768.7912,783.69965,800.2198,757.50916,894.90845,-0.135498046875,0.166748046875,0.942138671875,2.190704345703125,-5.38330078125,-1.39068603515625,1.0,2.0,1.0,1.0,2.0,100.0,event
11:58:36.544,0.60057545,-0.5861022,0.12738672,0.7504304,0.22675362,-0.2178763,-0.52095985,0.123513326,0.79263455,0.08382025,0.18394488,0.8439783,1.1789786,1.2280678,0.945617,1.174862,1.3842157,1.2517337,0.95445305,1.5437958,752.674,781.28204,795.38464,749.0476,933.1868,-0.135498046875,0.166748046875,0.942138671875,2.190704345703125,-5.38330078125,-1.39068603515625,1.0,2.0,1.0,1.0,2.0,100.0,event
11:58:36.544,0.60057545,-0.5861022,0.12738672,0.7504304,0.22675362,-0.2178763,-0.52095985,0.123513326,0.79263455,0.08382025,0.18394488,0.8439783,1.1789786,1.2280678,0.945617,1.174862,1.3842157,1.2517337,0.95445305,1.5437958,770.80585,801.02563,745.42126,776.04395,794.17584,-0.135498046875,0.166748046875,0.942138671875,2.190704345703125,-5.38330078125,-1.39068603515625,1.0,2.0,1.0,1.0,2.0,100.0,event
11:58:36.545,0.60057545,-0.5861022,0.12738672,0.7504304,0.22675362,-0.2178763,-0.52095985,0.123513326,0.79263455,0.08382025,0.18394488,0.8439783,1.1789786,1.2280678,0.945617,1.174862,1.3842157,1.2517337,0.95445305,1.5437958,751.4652,809.0842,738.97437,747.4359,695.05493,-0.135498046875,0.166748046875,0.942138671875,2.190704345703125,-5.38330078125,-1.39068603515625,1.0,2.0,1.0,1.0,2.0,100.0,event
11:58:36.545,0.60057545,-0.5861022,0.12738672,0.7504304,0.22675362,-0.2178763,-0.52095985,0.123513326,0.79263455,0.08382025,0.18394488,0.8439783,1.1789786,1.2280678,0.945617,1.174862,1.3842157,1.2517337,0.95445305,1.5437958,715.6044,790.14655,808.68134,712.381,888.46155,-0.135498046875,0.166748046875,0.942138671875,2.190704345703125,-5.38330078125,-1.39068603515625,1.0,2.0,1.0,1.0,2.0,100.0,event
11:58:36.546,0.60057545,-0.5861022,0.12738672,0.7504304,0.22675362,-0.2178763,-0.52095985,0.123513326,0.79263455,0.08382025,0.18394488,0.8439783,1.1789786,1.2280678,0.945617,1.174862,1.3842157,1.2517337,0.95445305,1.5437958,714.7985,778.0586,814.7253,723.663,1036.7399,-0.135498046875,0.166748046875,0.942138671875,2.190704345703125,-5.38330078125,-1.39068603515625,1.0,2.0,1.0,1.0,2.0,100.0,event
11:58:36.546,0.60057545,-0.5861022,0.12738672,0.7504304,0.22675362,-0.2178763,-0.52095985,0.123513326,0.79263455,0.08382025,0.18394488,0.8439783,1.1789786,1.2280678,0.945617,1.174862,1.3842157,1.2517337,0.95445305,1.5437958,704.7253,805.05493,797.3993,705.9341,748.24176,-0.135498046875,0.166748046875,0.942138671875,2.190704345703125,-5.38330078125,-1.39068603515625,1.0,2.0,1.0,1.0,2.0,100.0,event
11:58:36.547,0.60057545,-0.5861022,0.12738672,0.7504304,0.22675362,-0.2178763,-0.52095985,0.123513326,0.79263455,0.08382025,0.18394488,0.8439783,1.1789786,1.2280678,0.945617,1.174862,1.3842157,1.2517337,0.95445305,1.5437958,698.2784,793.7729,780.07324,696.6667,680.54944,-0.135498046875,0.166748046875,0.942138671875,2.190704345703125,-5.38330078125,-1.39068603515625,1.0,2.0,1.0,1.0,2.0,100.0,event
11:58:36.570,0.60057545,-0.5861022,0.12738672,0.7504304,0.22675362,-0.2178763,-0.52095985,0.123513326,0.79263455,0.08382025,0.18394488,0.8439783,1.1789786,1.2280678,0.945617,1.174862,1.3842157,1.2517337,0.95445305,1.5437958,723.663,749.45056,750.65936,721.6484,767.5824,-0.1280517578125,0.1644287109375,0.98126220703125,0.814971923828125,-6.572113037109375,-1.592559814453125,1.0,2.0,1.0,1.0,2.0,100.0,event
11:58:36.571,0.60057545,-0.5861022,0.12738672,0.7504304,0.22675362,-0.2178763,-0.52095985,0.123513326,0.79263455,0.08382025,0.18394488,0.8439783,1.1789786,1.2280678,0.945617,1.174862,1.3842157,1.2517337,0.95445305,1.5437958,677.326,803.0403,778.86444,664.43225,751.06226,-0.1280517578125,0.1644287109375,0.98126220703125,0.814971923828125,-6.572113037109375,-1.592559814453125,1.0,2.0,1.0,1.0,2.0,100.0,event
11:58:36.571,0.60057545,-0.5861022,0.12738672,0.7504304,0.22675362,-0.2178763,-0.52095985,0.123513326,0.79263455,0.08382025,0.18394488,0.8439783,1.1789786,1.2280678,0.945617,1.174862,1.3842157,1.2517337,0.95445305,1.5437958,728.49817,758.71796,757.9121,713.5897,774.43225,-0.1280517578125,0.1644287109375,0.98126220703125,0.814971923828125,-6.572113037109375,-1.592559814453125,1.0,2.0,1.0,1.0,2.0,100.0,event
11:58:36.572,0.60057545,-0.5861022,0.12738672,0.7504304,0.22675362,-0.2178763,-0.52095985,0.123513326,0.79263455,0.08382025,0.18394488,0.8439783,1.1789786,1.2280678,0.945617,1.174862,1.3842157,1.2517337,0.95445305,1.5437958,651.13556,840.10986,777.6557,664.43225,765.56775,-0.1280517578125,0.1644287109375,0.98126220703125,0.814971923828125,-6.572113037109375,-1.592559814453125,1.0,2.0,1.0,1.0,2.0,100.0,event
11:58:36.573,0.60057545,-0.5861022,0.12738672,0.7504304,0.22675362,-0.2178763,-0.52095985,0.123513326,0.79263455,0.08382025,0.18394488,0.8439783,1.1789786,1.2280678,0.945617,1.174862,1.3842157,1.2517337,0.95445305,1.5437958,646.7033,831.6484,768.3883,661.6117,811.0989,-0.1280517578125,0.1644287109375,0.98126220703125,0.814971923828125,-6.572113037109375,-1.592559814453125,1.0,2.0,1.0,1.0,2.0,100.0,event
11:58:36.574,0.60057545,-0.5861022,0.12738672,0.7504304,0.22675362,-0.2178763,-0.52095985,0.123513326,0.79263455,0.08382025,0.18394488,0.8439783,1.1789786,1.2280678,0.945617,1.174862,1.3842157,1.2517337,0.95445305,1.5437958,633.8095,817.9487,781.685,631.39197,897.72894,-0.1280517578125,0.1644287109375,0.98126220703125,0.814971923828125,-6.572113037109375,-1.592559814453125,1.0,2.0,1.0,1.0,2.0,100.0,event
11:58:36.577,0.60057545,-0.5861022,0.12738672,0.7504304,0.22675362,-0.2178763,-0.52095985,0.123513326,0.79263455,0.08382025,0.18394488,0.8439783,1.1789786,1.2280678,0.945617,1.174862,1.3842157,1.2517337,0.95445305,1.5437958,644.2857,827.619,775.2381,632.1978,891.685,-0.1280517578125,0.1644287109375,0.98126220703125,0.814971923828125,-6.572113037109375,-1.592559814453125,1.0,2.0,1.0,1.0,2.0,100.0,event
11:58:36.578,0.60057545,-0.5861022,0.12738672,0.7504304,0.22675362,-0.2178763,-0.52095985,0.123513326,0.79263455,0.08382025,0.18394488,0.8439783,1.1789786,1.2280678,0.945617,1.174862,1.3842157,1.2517337,0.95445305,1.5437958,682.1612,812.3077,757.1062,666.8498,913.8461,-0.1280517578125,0.1644287109375,0.98126220703125,0.814971923828125,-6.572113037109375,-1.592559814453125,1.0,2.0,1.0,1.0,2.0,100.0,event
11:58:36.578,0.60057545,-0.5861022,0.12738672,0.7504304,0.22675362,-0.2178763,-0.52095985,0.123513326,0.79263455,0.08382025,0.18394488,0.8439783,1.1789786,1.2280678,0.945617,1.174862,1.3842157,1.2517337,0.95445305,1.5437958,703.1135,772.4176,762.74725,709.15753,1147.9487,-0.1280517578125,0.1644287109375,0.98126220703125,0.814971923828125,-6.572113037109375,-1.592559814453125,1.0,2.0,1.0,1.0,2.0,100.0,event
11:58:36.579,0.60057545,-0.5861022,0.12738672,0.7504304,0.22675362,-0.2178763,-0.52095985,0.123513326,0.79263455,0.08382025,0.18394488,0.8439783,1.1789786,1.2280678,0.945617,1.174862,1.3842157,1.2517337,0.95445305,1.5437958,716.4103,767.98535,777.6557,734.5421,973.8828,-0.1280517578125,0.1644287109375,0.98126220703125,0.814971923828125,-6.572113037109375,-1.592559814453125,1.0,2.0,1.0,1.0,2.0,100.0,event
11:58:36.580,0.60057545,-0.5861022,0.12738672,0.7504304,0.22675362,-0.2178763,-0.52095985,0.123513326,0.79263455,0.08382025,0.18394488,0.8439783,1.1789786,1.2280678,0.945617,1.174862,1.3842157,1.2517337,0.95445305,1.5437958,706.7399,794.17584,807.8755,717.2161,622.1245,-0.1280517578125,0.1644287109375,0.98126220703125,0.814971923828125,-6.572113037109375,-1.592559814453125,1.0,2.0,1.0,1.0,2.0,100.0,event
11:58:36.580,0.60057545,-0.5861022,0.12738672,0.7504304,0.22675362,-0.2178763,-0.52095985,0.123513326,0.79263455,0.08382025,0.18394488,0.8439783,1.1789786,1.2280678,0.945617,1.174862,1.3842157,1.2517337,0.95445305,1.5437958,728.49817,793.7729,817.5458,727.28937,701.9048,-0.1280517578125,0.1644287109375,0.98126220703125,0.814971923828125,-6.572113037109375,-1.592559814453125,1.0,2.0,1.0,1.0,2.0,100.0,event
11:58:36.634,0.60057545,-0.5861022,0.12738672,0.7504304,0.22675362,-0.2178763,-0.52095985,0.123513326,0.79263455,0.08382025,0.18394488,0.8439783,1.1789786,1.2280678,0.945617,1.174862,1.3842157,1.2517337,0.95445305,1.5437958,773.22345,784.5055,805.05493,755.89746,732.9304,-0.11383056640625,0.16070556640625,0.96575927734375,1.472930908203125,-1.697235107421875,-0.142059326171875,1.0,2.0,1.0,1.0,2.0,100.0,event
11:58:36.635,0.60057545,-0.5861022,0.12738672,0.7504304,0.22675362,-0.2178763,-0.52095985,0.123513326,0.79263455,0.08382025,0.18394488,0.8439783,1.1789786,1.2280678,0.945617,1.174862,1.3842157,1.2517337,0.95445305,1.5437958,762.74725,840.5128,776.04395,752.27106,657.5824,-0.11383056640625,0.16070556640625,0.96575927734375,1.472930908203125,-1.697235107421875,-0.142059326171875,1.0,2.0,1.0,1.0,2.0,100.0,event
11:58:36.635,0.60057545,-0.5861022,0.12738672,0.7504304,0.22675362,-0.2178763,-0.52095985,0.123513326,0.79263455,0.08382025,0.18394488,0.8439783,1.1789786,1.2280678,0.945617,1.174862,1.3842157,1.2517337,0.95445305,1.5437958,766.3736,825.2015,784.90845,745.42126,635.0183,-0.11383056640625,0.16070556640625,0.96575927734375,1.472930908203125,-1.697235107421875,-0.142059326171875,1.0,2.0,1.0,1.0,2.0,100.0,event
11:58:36.636,0.60057545,-0.5861022,0.12738672,0.7504304,0.22675362,-0.2178763,-0.52095985,0.123513326,0.79263455,0.08382025,0.18394488,0.8439783,1.1789786,1.2280678,0.945617,1.174862,1.3842157,1.2517337,0.95445305,1.5437958,763.1502,822.7839,788.1319,762.3443,775.2381,-0.11383056640625,0.16070556640625,0.96575927734375,1.472930908203125,-1.697235107421875,-0.142059326171875,1.0,2.0,1.0,1.0,2.0,100.0,event
11:58:36.636,0.60057545,-0.5861022,0.12738672,0.7504304,0.22675362,-0.2178763,-0.52095985,0.123513326,0.79263455,0.08382025,0.18394488,0.8439783,1.1789786,1.2280678,0.945617,1.174862,1.3842157,1.2517337,0.95445305,1.5437958,759.5238,790.54944,799.41394,773.22345,789.7436,-0.11383056640625,0.16070556640625,0.96575927734375,1.472930908203125,-1.697235107421875,-0.142059326171875,1.0,2.0,1.0,1.0,2.0,100.0,event
11:58:36.637,0.60057545,-0.5861022,0.12738672,0.7504304,0.22675362,-0.2178763,-0.52095985,0.123513326,0.79263455,0.08382025,0.18394488,0.8439783,1.1789786,1.2280678,0.945617,1.174862,1.3842157,1.2517337,0.95445305,1.5437958,767.1795,799.81683,805.8608,771.6117,838.9011,-0.11383056640625,0.16070556640625,0.96575927734375,1.472930908203125,-1.697235107421875,-0.142059326171875,1.0,2.0,1.0,1.0,2.0,100.0,event
11:58:36.637,0.60057545,-0.5861022,0.12738672,0.7504304,0.22675362,-0.2178763,-0.52095985,0.123513326,0.79263455,0.08382025,0.18394488,0.8439783,1.1789786,1.2280678,0.945617,1.174862,1.3842157,1.2517337,0.95445305,1.5437958,754.68866,815.12823,808.2784,753.8828,805.4579,-0.11383056640625,0.16070556640625,0.96575927734375,1.472930908203125,-1.697235107421875,-0.142059326171875,1.0,2.0,1.0,1.0,2.0,100.0,event
11:58:36.638,0.60057545,-0.5861022,0.12738672,0.7504304,0.22675362,-0.2178763,-0.52095985,0.123513326,0.79263455,0.08382025,0.18394488,0.8439783,1.1789786,1.2280678,0.945617,1.174862,1.3842157,1.2517337,0.95445305,1.5437958,764.7619,790.14655,796.5934,776.4469,907.3993,-0.11383056640625,0.16070556640625,0.96575927734375,1.472930908203125,-1.697235107421875,-0.142059326171875,1.0,2.0,1.0,1.0,2.0,100.0,event
11:58:36.638,0.60057545,-0.5861022,0.12738672,0.7504304,0.22675362,-0.2178763,-0.52095985,0.123513326,0.79263455,0.08382025,0.18394488,0.8439783,1.1789786,1.2280678,0.945617,1.174862,1.3842157,1.2517337,0.95445305,1.5437958,802.6374,782.0879,782.0879,826.0073,982.3443,-0.11383056640625,0.16070556640625,0.96575927734375,1.472930908203125,-1.697235107421875,-0.142059326171875,1.0,2.0,1.0,1.0,2.0,100.0,event
11:58:36.639,0.60057545,-0.5861022,0.12738672,0.7504304,0.22675362,-0.2178763,-0.52095985,0.123513326,0.79263455,0.08382025,0.18394488,0.8439783,1.1789786,1.2280678,0.945617,1.174862,1.3842157,1.2517337,0.95445305,1.5437958,818.3516,786.9231,791.3553,828.022,782.49084,-0.11383056640625,0.16070556640625,0.96575927734375,1.472930908203125,-1.697235107421875,-0.142059326171875,1.0,2.0,1.0,1.0,2.0,100.0,event
11:58:36.639,0.60057545,-0.5861022,0.12738672,0.7504304,0.22675362,-0.2178763,-0.52095985,0.123513326,0.79263455,0.08382025,0.18394488,0.8439783,1.1789786,1.2280678,0.945617,1.174862,1.3842157,1.2517337,0.95445305,1.5437958,821.1722,769.59705,805.4579,812.71063,794.57874,-0.11383056640625,0.16070556640625,0.96575927734375,1.472930908203125,-1.697235107421875,-0.142059326171875,1.0,2.0,1.0,1.0,2.0,100.0,event
11:58:36.639,0.60057545,-0.5861022,0.12738672,0.7504304,0.22675362,-0.2178763,-0.52095985,0.123513326,0.79263455,0.08382025,0.18394488,0.8439783,1.1789786,1.2280678,0.945617,1.174862,1.3842157,1.2517337,0.95445305,1.5437958,827.2161,780.4762,807.0696,824.7985,844.1392,-0.11383056640625,0.16070556640625,0.96575927734375,1.472930908203125,-1.697235107421875,-0.142059326171875,1.0,2.0,1.0,1.0,2.0,100.0,event
11:58:36.675,0.60057545,-0.5861022,0.12738672,0.7504304,0.22675362,-0.2178763,-0.52095985,0.123513326,0.79263455,0.08382025,0.18394488,0.8439783,1.1789786,1.2280678,0.945617,1.174862,1.3842157,1.2517337,0.95445305,1.5437958,845.7509,825.2015,786.1172,845.34796,816.337,-0.142333984375,0.15966796875,0.96343994140625,1.27105712890625,-3.386993408203125,-0.40374755859375,1.0,2.0,1.0,1.0,2.0,100.0,event
11:58:36.676,0.60057545,-0.5861022,0.12738672,0.7504304,0.22675362,-0.2178763,-0.52095985,0.123513326,0.79263455,0.08382025,0.18394488,0.8439783,1.1789786,1.2280678,0.945617,1.174862,1.3842157,1.2517337,0.95445305,1.5437958,840.9158,838.9011,777.25275,834.0659,752.674,-0.142333984375,0.15966796875,0.96343994140625,1.27105712890625,-3.386993408203125,-0.40374755859375,1.0,2.0,1.0,1.0,2.0,100.0,event
11:58:36.677,0.60057545,-0.5861022,0.12738672,0.7504304,0.22675362,-0.2178763,-0.52095985,0.123513326,0.79263455,0.08382025,0.18394488,0.8439783,1.1789786,1.2280678,0.945617,1.174862,1.3842157,1.2517337,0.95445305,1.5437958,823.1868,811.0989,803.8461,812.3077,757.50916,-0.142333984375,0.15966796875,0.96343994140625,1.27105712890625,-3.386993408203125,-0.40374755859375,1.0,2.0,1.0,1.0,2.0,100.0,event
11:58:36.679,0.60057545,-0.5861022,0.12738672,0.7504304,0.22675362,-0.2178763,-0.52095985,0.123513326,0.79263455,0.08382025,0.18394488,0.8439783,1.1789786,1.2280678,0.945617,1.174862,1.3842157,1.2517337,0.95445305,1.5437958,818.3516,782.0879,811.50183,792.5641,739.7802,-0.142333984375,0.15966796875,0.96343994140625,1.27105712890625,-3.386993408203125,-0.40374755859375,1.0,2.0,1.0,1.0,2.0,100.0,event
11:58:36.680,0.60057545,-0.5861022,0.12738672,0.7504304,0.22675362,-0.2178763,-0.52095985,0.123513326,0.79263455,0.08382025,0.18394488,0.8439783,1.1789786,1.2280678,0.945617,1.174862,1.3842157,1.2517337,0.95445305,1.5437958,806.26373,789.34064,801.4286,785.7143,743.8095,-0.142333984375,0.15966796875,0.96343994140625,1.27105712890625,-3.386993408203125,-0.40374755859375,1.0,2.0,1.0,1.0,2.0,100.0,event
11:58:36.681,0.60057545,-0.5861022,0.12738672,0.7504304,0.22675362,-0.2178763,-0.52095985,0.123513326,0.79263455,0.08382025,0.18394488,0.8439783,1.1789786,1.2280678,0.945617,1.174862,1.3842157,1.2517337,0.95445305,1.5437958,817.9487,786.1172,792.1612,811.9048,817.1429,-0.142333984375,0.15966796875,0.96343994140625,1.27105712890625,-3.386993408203125,-0.40374755859375,1.0,2.0,1.0,1.0,2.0,100.0,event
11:58:36.682,0.60057545,-0.5861022,0.12738672,0.7504304,0.22675362,-0.2178763,-0.52095985,0.123513326,0.79263455,0.08382025,0.18394488,0.8439783,1.1789786,1.2280678,0.945617,1.174862,1.3842157,1.2517337,0.95445305,1.5437958,853.8095,778.46155,785.31134,853.00366,887.6557,-0.142333984375,0.15966796875,0.96343994140625,1.27105712890625,-3.386993408203125,-0.40374755859375,1.0,2.0,1.0,1.0,2.0,100.0,event
11:58:36.682,0.60057545,-0.5861022,0.12738672,0.7504304,0.22675362,-0.2178763,-0.52095985,0.123513326,0.79263455,0.08382025,0.18394488,0.8439783,1.1789786,1.2280678,0.945617,1.174862,1.3842157,1.2517337,0.95445305,1.5437958,846.1539,790.14655,796.5934,848.97437,1019.81683,-0.142333984375,0.15966796875,0.96343994140625,1.27105712890625,-3.386993408203125,-0.40374755859375,1.0,2.0,1.0,1.0,2.0,100.0,event
11:58:36.686,0.60057545,-0.5861022,0.12738672,0.7504304,0.22675362,-0.2178763,-0.52095985,0.123513326,0.79263455,0.08382025,0.18394488,0.8439783,1.1789786,1.2280678,0.945617,1.174862,1.3842157,1.2517337,0.95445305,1.5437958,817.9487,817.1429,797.8022,815.9341,905.38464,-0.142333984375,0.15966796875,0.96343994140625,1.27105712890625,-3.386993408203125,-0.40374755859375,1.0,2.0,1.0,1.0,2.0,100.0,event
11:58:36.687,0.60057545,-0.5861022,0.12738672,0.7504304,0.22675362,-0.2178763,-0.52095985,0.123513326,0.79263455,0.08382025,0.18394488,0.8439783,1.1789786,1.2280678,0.945617,1.174862,1.3842157,1.2517337,0.95445305,1.5437958,817.9487,801.02563,788.1319,815.12823,695.05493,-0.142333984375,0.15966796875,0.96343994140625,1.27105712890625,-3.386993408203125,-0.40374755859375,1.0,2.0,1.0,1.0,2.0,100.0,event
11:58:36.687,0.60057545,-0.5861022,0.12738672,0.7504304,0.22675362,-0.2178763,-0.52095985,0.123513326,0.79263455,0.08382025,0.18394488,0.8439783,1.1789786,1.2280678,0.945617,1.174862,1.3842157,1.2517337,0.95445305,1.5437958,833.2601,796.5934,774.83514,841.7216,745.42126,-0.142333984375,0.15966796875,0.96343994140625,1.27105712890625,-3.386993408203125,-0.40374755859375,1.0,2.0,1.0,1.0,2.0,100.0,event
11:58:36.688,0.60057545,-0.5861022,0.12738672,0.7504304,0.22675362,-0.2178763,-0.52095985,0.123513326,0.79263455,0.08382025,0.18394488,0.8439783,1.1789786,1.2280678,0.945617,1.174862,1.3842157,1.2517337,0.95445305,1.5437958,846.55676,799.011,750.2564,876.3736,682.1612,-0.142333984375,0.15966796875,0.96343994140625,1.27105712890625,-3.386993408203125,-0.40374755859375,1.0,2.0,1.0,1.0,2.0,100.0,event
11:58:36.710,0.60057545,-0.5861022,0.12738672,0.7504304,0.22675362,-0.2178763,-0.52095985,0.123513326,0.79263455,0.08382025,0.18394488,0.8439783,1.1789786,1.2280678,0.945617,1.174862,1.3842157,1.2517337,0.95445305,1.5437958,853.4066,747.4359,786.1172,878.7912,663.6264,-0.11798095703125,0.15631103515625,0.96112060546875,1.592559814453125,-3.715972900390625,-1.203765869140625,1.0,2.0,1.0,1.0,2.0,100.0,event
11:58:36.711,0.60057545,-0.5861022,0.12738672,0.7504304,0.22675362,-0.2178763,-0.52095985,0.123513326,0.79263455,0.08382025,0.18394488,0.8439783,1.1789786,1.2280678,0.945617,1.174862,1.3842157,1.2517337,0.95445305,1.5437958,868.315,791.75824,799.81683,851.39197,718.4249,-0.11798095703125,0.15631103515625,0.96112060546875,1.592559814453125,-3.715972900390625,-1.203765869140625,1.0,2.0,1.0,1.0,2.0,100.0,event
11:58:36.712,0.60057545,-0.5861022,0.12738672,0.7504304,0.22675362,-0.2178763,-0.52095985,0.123513326,0.79263455,0.08382025,0.18394488,0.8439783,1.1789786,1.2280678,0.945617,1.174862,1.3842157,1.2517337,0.95445305,1.5437958,834.4689,830.84247,803.0403,804.2491,803.44324,-0.11798095703125,0.15631103515625,0.96112060546875,1.592559814453125,-3.715972900390625,-1.203765869140625,1.0,2.0,1.0,1.0,2.0,100.0,event
11:58:36.712,0.60057545,-0.5861022,0.12738672,0.7504304,0.22675362,-0.2178763,-0.52095985,0.123513326,0.79263455,0.08382025,0.18394488,0.8439783,1.1789786,1.2280678,0.945617,1.174862,1.3842157,1.2517337,0.95445305,1.5437958,800.2198,810.293,821.1722,785.31134,830.4396,-0.11798095703125,0.15631103515625,0.96112060546875,1.592559814453125,-3.715972900390625,-1.203765869140625,1.0,2.0,1.0,1.0,2.0,100.0,event
11:58:36.713,0.60057545,-0.5861022,0.12738672,0.7504304,0.22675362,-0.2178763,-0.52095985,0.123513326,0.79263455,0.08382025,0.18394488,0.8439783,1.1789786,1.2280678,0.945617,1.174862,1.3842157,1.2517337,0.95445305,1.5437958,816.337,794.9817,790.54944,806.6667,707.9487,-0.11798095703125,0.15631103515625,0.96112060546875,1.592559814453125,-3.715972900390625,-1.203765869140625,1.0,2.0,1.0,1.0,2.0,100.0,event
11:58:36.713,0.60057545,-0.5861022,0.12738672,0.7504304,0.22675362,-0.2178763,-0.52095985,0.123513326,0.79263455,0.08382025,0.18394488,0.8439783,1.1789786,1.2280678,0.945617,1.174862,1.3842157,1.2517337,0.95445305,1.5437958,809.0842,798.60803,812.71063,793.7729,668.0586,-0.11798095703125,0.15631103515625,0.96112060546875,1.592559814453125,-3.715972900390625,-1.203765869140625,1.0,2.0,1.0,1.0,2.0,100.0,event
11:58:36.714,0.60057545,-0.5861022,0.12738672,0.7504304,0.22675362,-0.2178763,-0.52095985,0.123513326,0.79263455,0.08382025,0.18394488,0.8439783,1.1789786,1.2280678,0.945617,1.174862,1.3842157,1.2517337,0.95445305,1.5437958,833.663,809.4872,786.52014,819.5604,1008.5348,-0.11798095703125,0.15631103515625,0.96112060546875,1.592559814453125,-3.715972900390625,-1.203765869140625,1.0,2.0,1.0,1.0,2.0,100.0,event
11:58:36.715,0.60057545,-0.5861022,0.12738672,0.7504304,0.22675362,-0.2178763,-0.52095985,0.123513326,0.79263455,0.08382025,0.18394488,0.8439783,1.1789786,1.2280678,0.945617,1.174862,1.3842157,1.2517337,0.95445305,1.5437958,864.2857,798.20514,786.1172,842.9304,1072.1978,-0.11798095703125,0.15631103515625,0.96112060546875,1.592559814453125,-3.715972900390625,-1.203765869140625,1.0,2.0,1.0,1.0,2.0,100.0,event
11:58:36.715,0.60057545,-0.5861022,0.12738672,0.7504304,0.22675362,-0.2178763,-0.52095985,0.123513326,0.79263455,0.08382025,0.18394488,0.8439783,1.1789786,1.2280678,0.945617,1.174862,1.3842157,1.2517337,0.95445305,1.5437958,840.9158,783.69965,781.685,823.9927,787.72894,-0.11798095703125,0.15631103515625,0.96112060546875,1.592559814453125,-3.715972900390625,-1.203765869140625,1.0,2.0,1.0,1.0,2.0,100.0,event
11:58:36.716,0.60057545,-0.5861022,0.12738672,0.7504304,0.22675362,-0.2178763,-0.52095985,0.123513326,0.79263455,0.08382025,0.18394488,0.8439783,1.1789786,1.2280678,0.945617,1.174862,1.3842157,1.2517337,0.95445305,1.5437958,808.68134,793.7729,794.57874,809.4872,721.6484,-0.11798095703125,0.15631103515625,0.96112060546875,1.592559814453125,-3.715972900390625,-1.203765869140625,1.0,2.0,1.0,1.0,2.0,100.0,event
11:58:36.716,0.60057545,-0.5861022,0.12738672,0.7504304,0.22675362,-0.2178763,-0.52095985,0.123513326,0.79263455,0.08382025,0.18394488,0.8439783,1.1789786,1.2280678,0.945617,1.174862,1.3842157,1.2517337,0.95445305,1.5437958,811.0989,785.31134,799.41394,813.91943,738.1685,-0.11798095703125,0.15631103515625,0.96112060546875,1.592559814453125,-3.715972900390625,-1.203765869140625,1.0,2.0,1.0,1.0,2.0,100.0,event
11:58:36.717,0.60057545,-0.5861022,0.12738672,0.7504304,0.22675362,-0.2178763,-0.52095985,0.123513326,0.79263455,0.08382025,0.18394488,0.8439783,1.1789786,1.2280678,0.945617,1.174862,1.3842157,1.2517337,0.95445305,1.5437958,824.3956,781.685,805.4579,809.4872,781.685,-0.11798095703125,0.15631103515625,0.96112060546875,1.592559814453125,-3.715972900390625,-1.203765869140625,1.0,2.0,1.0,1.0,2.0,100.0,event
11:58:36.774,0.60057545,-0.5861022,0.12738672,0.7504304,0.22675362,-0.2178763,-0.52095985,0.123513326,0.79263455,0.08382025,0.18394488,0.8439783,1.1789786,1.2280678,0.945617,1.174862,1.3842157,1.2517337,0.95445305,1.5437958,827.619,803.44324,794.17584,815.9341,758.71796,-0.11798095703125,0.15631103515625,0.96112060546875,1.592559814453125,-3.715972900390625,-1.203765869140625,1.0,2.0,1.0,1.0,2.0,100.0,event
11:58:36.775,0.60057545,-0.5861022,0.12738672,0.7504304,0.22675362,-0.2178763,-0.52095985,0.123513326,0.79263455,0.08382025,0.18394488,0.8439783,1.1789786,1.2280678,0.945617,1.174862,1.3842157,1.2517337,0.95445305,1.5437958,821.1722,816.7399,772.01465,815.12823,750.2564,-0.11798095703125,0.15631103515625,0.96112060546875,1.592559814453125,-3.715972900390625,-1.203765869140625,1.0,2.0,1.0,1.0,2.0,100.0,event
11:58:36.776,0.60057545,-0.5861022,0.12738672,0.7504304,0.22675362,-0.2178763,-0.52095985,0.123513326,0.79263455,0.08382025,0.18394488,0.8439783,1.1789786,1.2280678,0.945617,1.174862,1.3842157,1.2517337,0.95445305,1.5437958,835.6777,809.0842,768.3883,825.2015,788.1319,-0.11798095703125,0.15631103515625,0.96112060546875,1.592559814453125,-3.715972900390625,-1.203765869140625,1.0,2.0,1.0,1.0,2.0,100.0,event
11:58:36.776,0.60057545,-0.5861022,0.12738672,0.7504304,0.22675362,-0.2178763,-0.52095985,0.123513326,0.79263455,0.08382025,0.18394488,0.8439783,1.1789786,1.2280678,0.945617,1.174862,1.3842157,1.2517337,0.95445305,1.5437958,863.8828,815.12823,803.0403,859.85345,830.4396,-0.11798095703125,0.15631103515625,0.96112060546875,1.592559814453125,-3.715972900390625,-1.203765869140625,1.0,2.0,1.0,1.0,2.0,100.0,event
11:58:36.777,0.60057545,-0.5861022,0.12738672,0.7504304,0.22675362,-0.2178763,-0.52095985,0.123513326,0.79263455,0.08382025,0.18394488,0.8439783,1.1789786,1.2280678,0.945617,1.174862,1.3842157,1.2517337,0.95445305,1.5437958,857.8388,809.0842,808.68134,852.1978,874.7619,-0.11798095703125,0.15631103515625,0.96112060546875,1.592559814453125,-3.715972900390625,-1.203765869140625,1.0,2.0,1.0,1.0,2.0,100.0,event
11:58:36.779,0.60057545,-0.5861022,0.12738672,0.7504304,0.22675362,-0.2178763,-0.52095985,0.123513326,0.79263455,0.08382025,0.18394488,0.8439783,1.1789786,1.2280678,0.945617,1.174862,1.3842157,1.2517337,0.95445305,1.5437958,822.381,795.78754,807.8755,819.15753,905.78754,-0.11798095703125,0.15631103515625,0.96112060546875,1.592559814453125,-3.715972900390625,-1.203765869140625,1.0,2.0,1.0,1.0,2.0,100.0,event
11:58:36.780,0.60057545,-0.5861022,0.12738672,0.7504304,0.22675362,-0.2178763,-0.52095985,0.123513326,0.79263455,0.08382025,0.18394488,0.8439783,1.1789786,1.2280678,0.945617,1.174862,1.3842157,1.2517337,0.95445305,1.5437958,794.9817,787.72894,819.15753,815.5311,1151.5751,-0.11798095703125,0.15631103515625,0.96112060546875,1.592559814453125,-3.715972900390625,-1.203765869140625,1.0,2.0,1.0,1.0,2.0,100.0,event
11:58:36.781,0.60057545,-0.5861022,0.12738672,0.7504304,0.22675362,-0.2178763,-0.52095985,0.123513326,0.79263455,0.08382025,0.18394488,0.8439783,1.1789786,1.2280678,0.945617,1.174862,1.3842157,1.2517337,0.95445305,1.5437958,799.011,790.9524,801.4286,808.2784,1080.6593,-0.11798095703125,0.15631103515625,0.96112060546875,1.592559814453125,-3.715972900390625,-1.203765869140625,1.0,2.0,1.0,1.0,2.0,100.0,event
11:58:36.782,0.60057545,-0.5861022,0.12738672,0.7504304,0.22675362,-0.2178763,-0.52095985,0.123513326,0.79263455,0.08382025,0.18394488,0.8439783,1.1789786,1.2280678,0.945617,1.174862,1.3842157,1.2517337,0.95445305,1.5437958,811.0989,804.2491,780.4762,807.8755,738.5714,-0.11798095703125,0.15631103515625,0.96112060546875,1.592559814453125,-3.715972900390625,-1.203765869140625,1.0,2.0,1.0,1.0,2.0,100.0,event
11:58:36.782,0.60057545,-0.020636925,0.12738672,0.7504304,0.22675362,0.03362107,-0.52095985,0.123513326,0.79263455,0.38925016,0.18394488,0.8439783,1.1789786,1.2584125,0.945617,1.174862,1.3842157,1.4253588,0.95445305,1.5437958,824.3956,792.96704,769.59705,825.2015,774.83514,-0.11798095703125,0.15631103515625,0.96112060546875,1.592559814453125,-3.715972900390625,-1.203765869140625,1.0,2.0,1.0,1.0,2.0,100.0,event
11:58:36.785,,,,,,,,,,,,,,,,,,,,,,,,,,,,,,,,,,,,,,blink
11:58:36.787,0.60057545,-0.020636925,0.12738672,0.7504304,0.22675362,0.03362107,-0.52095985,0.123513326,0.79263455,0.38925016,0.18394488,0.8439783,1.1789786,1.2584125,0.945617,1.174862,1.3842157,1.4253588,0.95445305,1.5437958,858.6447,791.3553,776.8498,845.7509,832.0513,-0.11798095703125,0.15631103515625,0.96112060546875,1.592559814453125,-3.715972900390625,-1.203765869140625,1.0,2.0,1.0,1.0,2.0,100.0,event
11:58:36.788,0.60057545,-0.020636925,0.12738672,0.7504304,0.22675362,0.03362107,-0.52095985,0.123513326,0.79263455,0.38925016,0.18394488,0.8439783,1.1789786,1.2584125,0.945617,1.174862,1.3842157,1.4253588,0.95445305,1.5437958,830.84247,818.3516,803.8461,825.2015,728.0952,-0.11798095703125,0.15631103515625,0.96112060546875,1.592559814453125,-3.715972900390625,-1.203765869140625,1.0,2.0,1.0,1.0,2.0,100.0,event
11:58:36.841,0.60057545,-0.020636925,0.12738672,0.7504304,0.22675362,0.03362107,-0.52095985,0.123513326,0.79263455,0.38925016,0.18394488,0.8439783,1.1789786,1.2584125,0.945617,1.174862,1.3842157,1.4253588,0.95445305,1.5437958,801.4286,807.47253,787.326,798.60803,635.82416,-0.140625,0.158447265625,0.95941162109375,2.37762451171875,-3.4991455078125,0.381317138671875,1.0,2.0,1.0,1.0,2.0,100.0,event
11:58:36.842,0.60057545,-0.020636925,0.12738672,0.7504304,0.22675362,0.03362107,-0.52095985,0.123513326,0.79263455,0.38925016,0.18394488,0.8439783,1.1789786,1.2584125,0.945617,1.174862,1.3842157,1.4253588,0.95445305,1.5437958,819.15753,779.67035,772.4176,810.293,673.69965,-0.140625,0.158447265625,0.95941162109375,2.37762451171875,-3.4991455078125,0.381317138671875,1.0,2.0,1.0,1.0,2.0,100.0,event
11:58:36.842,0.60057545,-0.020636925,0.12738672,0.7504304,0.22675362,0.03362107,-0.52095985,0.123513326,0.79263455,0.38925016,0.18394488,0.8439783,1.1789786,1.2584125,0.945617,1.174862,1.3842157,1.4253588,0.95445305,1.5437958,807.0696,790.9524,809.0842,796.99634,722.8571,-0.140625,0.158447265625,0.95941162109375,2.37762451171875,-3.4991455078125,0.381317138671875,1.0,2.0,1.0,1.0,2.0,100.0,event
11:58:36.843,0.60057545,-0.020636925,0.12738672,0.7504304,0.22675362,0.03362107,-0.52095985,0.123513326,0.79263455,0.38925016,0.18394488,0.8439783,1.1789786,1.2584125,0.945617,1.174862,1.3842157,1.4253588,0.95445305,1.5437958,798.60803,814.3223,817.5458,774.83514,691.4286,-0.140625,0.158447265625,0.95941162109375,2.37762451171875,-3.4991455078125,0.381317138671875,1.0,2.0,1.0,1.0,2.0,100.0,event
11:58:36.844,0.60057545,-0.020636925,0.12738672,0.7504304,0.22675362,0.03362107,-0.52095985,0.123513326,0.79263455,0.38925016,0.18394488,0.8439783,1.1789786,1.2584125,0.945617,1.174862,1.3842157,1.4253588,0.95445305,1.5437958,823.1868,808.2784,799.011,811.0989,879.19415,-0.140625,0.158447265625,0.95941162109375,2.37762451171875,-3.4991455078125,0.381317138671875,1.0,2.0,1.0,1.0,2.0,100.0,event
11:58:36.844,0.60057545,-0.020636925,0.12738672,0.7504304,0.22675362,0.03362107,-0.52095985,0.123513326,0.79263455,0.38925016,0.18394488,0.8439783,1.1789786,1.2584125,0.945617,1.174862,1.3842157,1.4253588,0.95445305,1.5437958,812.71063,819.9634,802.6374,786.52014,691.02563,-0.140625,0.158447265625,0.95941162109375,2.37762451171875,-3.4991455078125,0.381317138671875,1.0,2.0,1.0,1.0,2.0,100.0,event
11:58:36.845,0.60057545,-0.020636925,0.12738672,0.7504304,0.22675362,0.03362107,-0.52095985,0.123513326,0.79263455,0.38925016,0.18394488,0.8439783,1.1789786,1.2584125,0.945617,1.174862,1.3842157,1.4253588,0.95445305,1.5437958,832.0513,787.326,796.1905,830.84247,919.0842,-0.140625,0.158447265625,0.95941162109375,2.37762451171875,-3.4991455078125,0.381317138671875,1.0,2.0,1.0,1.0,2.0,100.0,event
11:58:36.846,0.60057545,-0.020636925,0.12738672,0.7504304,0.22675362,0.03362107,-0.52095985,0.123513326,0.79263455,0.38925016,0.18394488,0.8439783,1.1789786,1.2584125,0.945617,1.174862,1.3842157,1.4253588,0.95445305,1.5437958,831.2454,801.8315,766.77655,831.2454,825.6044,-0.140625,0.158447265625,0.95941162109375,2.37762451171875,-3.4991455078125,0.381317138671875,1.0,2.0,1.0,1.0,2.0,100.0,event
11:58:36.846,0.60057545,-0.020636925,0.12738672,0.7504304,0.22675362,0.03362107,-0.52095985,0.123513326,0.79263455,0.38925016,0.18394488,0.8439783,1.1789786,1.2584125,0.945617,1.174862,1.3842157,1.4253588,0.95445305,1.5437958,837.28937,818.3516,782.0879,838.0952,752.27106,-0.140625,0.158447265625,0.95941162109375,2.37762451171875,-3.4991455078125,0.381317138671875,1.0,2.0,1.0,1.0,2.0,100.0,event
11:58:36.847,0.60057545,-0.020636925,0.12738672,0.7504304,0.22675362,0.03362107,-0.52095985,0.123513326,0.79263455,0.38925016,0.18394488,0.8439783,1.1789786,1.2584125,0.945617,1.174862,1.3842157,1.4253588,0.95445305,1.5437958,833.2601,797.8022,809.4872,838.9011,885.2381,-0.140625,0.158447265625,0.95941162109375,2.37762451171875,-3.4991455078125,0.381317138671875,1.0,2.0,1.0,1.0,2.0,100.0,event
11:58:36.847,0.60057545,-0.020636925,0.12738672,0.7504304,0.22675362,0.03362107,-0.52095985,0.123513326,0.79263455,0.38925016,0.18394488,0.8439783,1.1789786,1.2584125,0.945617,1.174862,1.3842157,1.4253588,0.95445305,1.5437958,801.4286,770.0,811.9048,807.8755,974.2857,-0.140625,0.158447265625,0.95941162109375,2.37762451171875,-3.4991455078125,0.381317138671875,1.0,2.0,1.0,1.0,2.0,100.0,event
11:58:36.848,0.60057545,-0.020636925,0.12738672,0.7504304,0.22675362,0.03362107,-0.52095985,0.123513326,0.79263455,0.38925016,0.18394488,0.8439783,1.1789786,1.2584125,0.945617,1.174862,1.3842157,1.4253588,0.95445305,1.5437958,790.9524,783.69965,808.68134,789.7436,677.326,-0.140625,0.158447265625,0.95941162109375,2.37762451171875,-3.4991455078125,0.381317138671875,1.0,2.0,1.0,1.0,2.0,100.0,event
11:58:36.874,0.60057545,-0.020636925,0.12738672,0.7504304,0.22675362,0.03362107,-0.52095985,0.123513326,0.79263455,0.38925016,0.18394488,0.8439783,1.1789786,1.2584125,0.945617,1.174862,1.3842157,1.4253588,0.95445305,1.5437958,794.57874,819.15753,794.9817,796.5934,692.23444,-0.1297607421875,0.15374755859375,0.9615478515625,2.579498291015625,-5.959014892578125,-1.502838134765625,1.0,2.0,1.0,1.0,2.0,100.0,event
11:58:36.875,0.60057545,-0.020636925,0.12738672,0.7504304,0.22675362,0.03362107,-0.52095985,0.123513326,0.79263455,0.38925016,0.18394488,0.8439783,1.1789786,1.2584125,0.945617,1.174862,1.3842157,1.4253588,0.95445305,1.5437958,804.65204,806.6667,783.69965,793.36993,757.1062,-0.1297607421875,0.15374755859375,0.9615478515625,2.579498291015625,-5.959014892578125,-1.502838134765625,1.0,2.0,1.0,1.0,2.0,100.0,event
11:58:36.875,0.60057545,-0.020636925,0.12738672,0.7504304,0.22675362,0.03362107,-0.52095985,0.123513326,0.79263455,0.38925016,0.18394488,0.8439783,1.1789786,1.2584125,0.945617,1.174862,1.3842157,1.4253588,0.95445305,1.5437958,824.7985,795.78754,792.96704,803.0403,713.9927,-0.1297607421875,0.15374755859375,0.9615478515625,2.579498291015625,-5.959014892578125,-1.502838134765625,1.0,2.0,1.0,1.0,2.0,100.0,event
11:58:36.876,0.60057545,-0.020636925,0.12738672,0.7504304,0.22675362,0.03362107,-0.52095985,0.123513326,0.79263455,0.38925016,0.18394488,0.8439783,1.1789786,1.2584125,0.945617,1.174862,1.3842157,1.4253588,0.95445305,1.5437958,837.28937,770.40295,791.3553,830.84247,759.92676,-0.1297607421875,0.15374755859375,0.9615478515625,2.579498291015625,-5.959014892578125,-1.502838134765625,1.0,2.0,1.0,1.0,2.0,100.0,event
11:58:36.877,0.60057545,-0.020636925,0.12738672,0.7504304,0.22675362,0.03362107,-0.52095985,0.123513326,0.79263455,0.38925016,0.18394488,0.8439783,1.1789786,1.2584125,0.945617,1.174862,1.3842157,1.4253588,0.95445305,1.5437958,813.1135,846.9597,787.72894,791.75824,840.9158,-0.1297607421875,0.15374755859375,0.9615478515625,2.579498291015625,-5.959014892578125,-1.502838134765625,1.0,2.0,1.0,1.0,2.0,100.0,event
11:58:36.877,0.60057545,-0.020636925,0.12738672,0.7504304,0.22675362,0.03362107,-0.52095985,0.123513326,0.79263455,0.38925016,0.18394488,0.8439783,1.1789786,1.2584125,0.945617,1.174862,1.3842157,1.4253588,0.95445305,1.5437958,832.8571,782.8938,770.0,825.6044,737.3626,-0.1297607421875,0.15374755859375,0.9615478515625,2.579498291015625,-5.959014892578125,-1.502838134765625,1.0,2.0,1.0,1.0,2.0,100.0,event
