TimeStamp,Delta_TP9,Delta_AF7,Delta_AF8,Delta_TP10,Theta_TP9,Theta_AF7,Theta_AF8,Theta_TP10,Alpha_TP9,Alpha_AF7,Alpha_AF8,Alpha_TP10,Beta_TP9,Beta_AF7,Beta_AF8,Beta_TP10,Gamma_TP9,Gamma_AF7,Gamma_AF8,Gamma_TP10,RAW_TP9,RAW_AF7,RAW_AF8,RAW_TP10,AUX_RIGHT,Accelerometer_X,Accelerometer_Y,Accelerometer_Z,Gyro_X,Gyro_Y,Gyro_Z,HeadBandOn,HSI_TP9,HSI_AF7,HSI_AF8,HSI_TP10,Battery,Elements
13:27:39.802,0.0,0.0,0.0,0.0,0.0,0.0,0.0,0.0,0.0,0.0,0.0,0.0,0.0,0.0,0.0,0.0,0.0,0.0,0.0,0.0,785.7143,786.1172,811.50183,793.36993,762.3443,-0.101318359375,0.00323486328125,0.98150634765625,2.056121826171875,-3.289794921875,0.3289794921875,0.0,4.0,4.0,4.0,4.0,95.0,event
13:27:39.803,0.0,0.0,0.0,0.0,0.0,0.0,0.0,0.0,0.0,0.0,0.0,0.0,0.0,0.0,0.0,0.0,0.0,0.0,0.0,0.0,793.36993,772.01465,796.5934,796.99634,844.5421,-0.101318359375,0.00323486328125,0.98150634765625,2.056121826171875,-3.289794921875,0.3289794921875,0.0,4.0,4.0,4.0,4.0,95.0,event
13:27:39.804,0.0,0.0,0.0,0.0,0.0,0.0,0.0,0.0,0.0,0.0,0.0,0.0,0.0,0.0,0.0,0.0,0.0,0.0,0.0,0.0,846.1539,811.50183,813.91943,824.7985,656.77655,-0.101318359375,0.00323486328125,0.98150634765625,2.056121826171875,-3.289794921875,0.3289794921875,0.0,4.0,4.0,4.0,4.0,95.0,event
13:27:39.804,0.0,0.0,0.0,0.0,0.0,0.0,0.0,0.0,0.0,0.0,0.0,0.0,0.0,0.0,0.0,0.0,0.0,0.0,0.0,0.0,832.0513,801.4286,801.4286,817.9487,798.60803,-0.101318359375,0.00323486328125,0.98150634765625,2.056121826171875,-3.289794921875,0.3289794921875,0.0,4.0,4.0,4.0,4.0,95.0,event
13:27:39.805,0.0,0.0,0.0,0.0,0.0,0.0,0.0,0.0,0.0,0.0,0.0,0.0,0.0,0.0,0.0,0.0,0.0,0.0,0.0,0.0,809.0842,784.10254,796.5934,806.26373,743.4066,-0.101318359375,0.00323486328125,0.98150634765625,2.056121826171875,-3.289794921875,0.3289794921875,0.0,4.0,4.0,4.0,4.0,95.0,event
13:27:39.806,0.0,0.0,0.0,0.0,0.0,0.0,0.0,0.0,0.0,0.0,0.0,0.0,0.0,0.0,0.0,0.0,0.0,0.0,0.0,0.0,784.90845,776.04395,796.5934,798.60803,980.7326,-0.101318359375,0.00323486328125,0.98150634765625,2.056121826171875,-3.289794921875,0.3289794921875,0.0,4.0,4.0,4.0,4.0,95.0,event
13:27:39.807,0.0,0.0,0.0,0.0,0.0,0.0,0.0,0.0,0.0,0.0,0.0,0.0,0.0,0.0,0.0,0.0,0.0,0.0,0.0,0.0,777.6557,794.9817,819.5604,796.99634,952.52747,-0.101318359375,0.00323486328125,0.98150634765625,2.056121826171875,-3.289794921875,0.3289794921875,0.0,4.0,4.0,4.0,4.0,95.0,event
13:27:39.808,0.0,0.0,0.0,0.0,0.0,0.0,0.0,0.0,0.0,0.0,0.0,0.0,0.0,0.0,0.0,0.0,0.0,0.0,0.0,0.0,804.2491,811.0989,808.2784,795.78754,732.1245,-0.101318359375,0.00323486328125,0.98150634765625,2.056121826171875,-3.289794921875,0.3289794921875,0.0,4.0,4.0,4.0,4.0,95.0,event
13:27:39.808,0.0,0.0,0.0,0.0,0.0,0.0,0.0,0.0,0.0,0.0,0.0,0.0,0.0,0.0,0.0,0.0,0.0,0.0,0.0,0.0,832.4542,792.96704,827.2161,800.2198,748.6447,-0.101318359375,0.00323486328125,0.98150634765625,2.056121826171875,-3.289794921875,0.3289794921875,0.0,4.0,4.0,4.0,4.0,95.0,event
13:27:39.809,0.0,0.0,0.0,0.0,0.0,0.0,0.0,0.0,0.0,0.0,0.0,0.0,0.0,0.0,0.0,0.0,0.0,0.0,0.0,0.0,820.7692,774.43225,819.15753,814.7253,951.31866,-0.101318359375,0.00323486328125,0.98150634765625,2.056121826171875,-3.289794921875,0.3289794921875,0.0,4.0,4.0,4.0,4.0,95.0,event
13:27:39.810,0.0,0.0,0.0,0.0,0.0,0.0,0.0,0.0,0.0,0.0,0.0,0.0,0.0,0.0,0.0,0.0,0.0,0.0,0.0,0.0,806.6667,792.96704,782.49084,816.7399,823.1868,-0.101318359375,0.00323486328125,0.98150634765625,2.056121826171875,-3.289794921875,0.3289794921875,0.0,4.0,4.0,4.0,4.0,95.0,event
13:27:39.810,0.0,0.0,0.0,0.0,0.0,0.0,0.0,0.0,0.0,0.0,0.0,0.0,0.0,0.0,0.0,0.0,0.0,0.0,0.0,0.0,807.8755,792.1612,791.75824,801.8315,685.78754,-0.101318359375,0.00323486328125,0.98150634765625,2.056121826171875,-3.289794921875,0.3289794921875,0.0,4.0,4.0,4.0,4.0,95.0,event
13:27:39.856,0.0,0.0,0.0,0.0,0.0,0.0,0.0,0.0,0.0,0.0,0.0,0.0,0.0,0.0,0.0,0.0,0.0,0.0,0.0,0.0,814.3223,792.5641,816.7399,805.4579,751.06226,-0.101318359375,0.00323486328125,0.98150634765625,2.056121826171875,-3.289794921875,0.3289794921875,0.0,4.0,4.0,4.0,4.0,95.0,event
13:27:39.857,0.0,0.0,0.0,0.0,0.0,0.0,0.0,0.0,0.0,0.0,0.0,0.0,0.0,0.0,0.0,0.0,0.0,0.0,0.0,0.0,824.7985,800.2198,826.8132,806.26373,726.4835,-0.101318359375,0.00323486328125,0.98150634765625,2.056121826171875,-3.289794921875,0.3289794921875,0.0,4.0,4.0,4.0,4.0,95.0,event
13:27:39.858,0.0,0.0,0.0,0.0,0.0,0.0,0.0,0.0,0.0,0.0,0.0,0.0,0.0,0.0,0.0,0.0,0.0,0.0,0.0,0.0,810.293,786.9231,830.0366,789.34064,745.82416,-0.101318359375,0.00323486328125,0.98150634765625,2.056121826171875,-3.289794921875,0.3289794921875,0.0,4.0,4.0,4.0,4.0,95.0,event
13:27:39.859,0.0,0.0,0.0,0.0,0.0,0.0,0.0,0.0,0.0,0.0,0.0,0.0,0.0,0.0,0.0,0.0,0.0,0.0,0.0,0.0,765.16486,790.9524,823.9927,774.0293,772.01465,-0.101318359375,0.00323486328125,0.98150634765625,2.056121826171875,-3.289794921875,0.3289794921875,0.0,4.0,4.0,4.0,4.0,95.0,event
13:27:39.860,0.0,0.0,0.0,0.0,0.0,0.0,0.0,0.0,0.0,0.0,0.0,0.0,0.0,0.0,0.0,0.0,0.0,0.0,0.0,0.0,757.9121,794.57874,807.0696,773.6264,861.8681,-0.101318359375,0.00323486328125,0.98150634765625,2.056121826171875,-3.289794921875,0.3289794921875,0.0,4.0,4.0,4.0,4.0,95.0,event
13:27:39.862,0.0,0.0,0.0,0.0,0.0,0.0,0.0,0.0,0.0,0.0,0.0,0.0,0.0,0.0,0.0,0.0,0.0,0.0,0.0,0.0,796.99634,800.2198,791.75824,790.54944,1071.392,-0.101318359375,0.00323486328125,0.98150634765625,2.056121826171875,-3.289794921875,0.3289794921875,0.0,4.0,4.0,4.0,4.0,95.0,event
13:27:39.863,0.0,0.0,0.0,0.0,0.0,0.0,0.0,0.0,0.0,0.0,0.0,0.0,0.0,0.0,0.0,0.0,0.0,0.0,0.0,0.0,838.49817,813.5165,779.2674,810.696,913.44324,-0.101318359375,0.00323486328125,0.98150634765625,2.056121826171875,-3.289794921875,0.3289794921875,0.0,4.0,4.0,4.0,4.0,95.0,event
13:27:39.864,0.0,0.0,0.0,0.0,0.0,0.0,0.0,0.0,0.0,0.0,0.0,0.0,0.0,0.0,0.0,0.0,0.0,0.0,0.0,0.0,854.21246,802.6374,797.3993,828.8278,743.4066,-0.101318359375,0.00323486328125,0.98150634765625,2.056121826171875,-3.289794921875,0.3289794921875,0.0,4.0,4.0,4.0,4.0,95.0,event
13:27:39.866,0.0,0.0,0.0,0.0,0.0,0.0,0.0,0.0,0.0,0.0,0.0,0.0,0.0,0.0,0.0,0.0,0.0,0.0,0.0,0.0,841.31866,774.83514,821.978,844.5421,859.0476,-0.101318359375,0.00323486328125,0.98150634765625,2.056121826171875,-3.289794921875,0.3289794921875,0.0,4.0,4.0,4.0,4.0,95.0,event
13:27:39.867,0.0,0.0,0.0,0.0,0.0,0.0,0.0,0.0,0.0,0.0,0.0,0.0,0.0,0.0,0.0,0.0,0.0,0.0,0.0,0.0,805.8608,805.05493,845.34796,815.9341,915.8608,-0.101318359375,0.00323486328125,0.98150634765625,2.056121826171875,-3.289794921875,0.3289794921875,0.0,4.0,4.0,4.0,4.0,95.0,event
13:27:39.868,0.0,0.0,0.0,0.0,0.0,0.0,0.0,0.0,0.0,0.0,0.0,0.0,0.0,0.0,0.0,0.0,0.0,0.0,0.0,0.0,782.8938,823.1868,834.87177,764.7619,704.3223,-0.101318359375,0.00323486328125,0.98150634765625,2.056121826171875,-3.289794921875,0.3289794921875,0.0,4.0,4.0,4.0,4.0,95.0,event
13:27:39.869,0.0,0.0,0.0,0.0,0.0,0.0,0.0,0.0,0.0,0.0,0.0,0.0,0.0,0.0,0.0,0.0,0.0,0.0,0.0,0.0,782.0879,794.9817,800.6227,760.7326,708.3516,-0.101318359375,0.00323486328125,0.98150634765625,2.056121826171875,-3.289794921875,0.3289794921875,0.0,4.0,4.0,4.0,4.0,95.0,event
13:27:39.902,0.0,0.0,0.0,0.0,0.0,0.0,0.0,0.0,0.0,0.0,0.0,0.0,0.0,0.0,0.0,0.0,0.0,0.0,0.0,0.0,796.5934,787.326,806.26373,785.31134,844.1392,-0.10345458984375,0.00762939453125,0.98822021484375,2.1832275390625,-3.327178955078125,0.61309814453125,0.0,4.0,4.0,4.0,4.0,95.0,event
13:27:39.903,0.0,0.0,0.0,0.0,0.0,0.0,0.0,0.0,0.0,0.0,0.0,0.0,0.0,0.0,0.0,0.0,0.0,0.0,0.0,0.0,791.3553,792.5641,813.91943,781.685,820.3663,-0.10345458984375,0.00762939453125,0.98822021484375,2.1832275390625,-3.327178955078125,0.61309814453125,0.0,4.0,4.0,4.0,4.0,95.0,event
13:27:39.907,0.0,0.0,0.0,0.0,0.0,0.0,0.0,0.0,0.0,0.0,0.0,0.0,0.0,0.0,0.0,0.0,0.0,0.0,0.0,0.0,811.50183,786.1172,782.0879,804.65204,648.315,-0.10345458984375,0.00762939453125,0.98822021484375,2.1832275390625,-3.327178955078125,0.61309814453125,0.0,4.0,4.0,4.0,4.0,95.0,event
13:27:39.907,0.0,0.0,0.0,0.0,0.0,0.0,0.0,0.0,0.0,0.0,0.0,0.0,0.0,0.0,0.0,0.0,0.0,0.0,0.0,0.0,780.87915,787.326,792.96704,779.67035,691.8315,-0.10345458984375,0.00762939453125,0.98822021484375,2.1832275390625,-3.327178955078125,0.61309814453125,0.0,4.0,4.0,4.0,4.0,95.0,event
13:27:39.908,0.0,0.0,0.0,0.0,0.0,0.0,0.0,0.0,0.0,0.0,0.0,0.0,0.0,0.0,0.0,0.0,0.0,0.0,0.0,0.0,843.3333,797.3993,798.60803,816.7399,759.92676,-0.10345458984375,0.00762939453125,0.98822021484375,2.1832275390625,-3.327178955078125,0.61309814453125,0.0,4.0,4.0,4.0,4.0,95.0,event
13:27:39.909,0.0,0.0,0.0,0.0,0.0,0.0,0.0,0.0,0.0,0.0,0.0,0.0,0.0,0.0,0.0,0.0,0.0,0.0,0.0,0.0,829.6337,797.8022,816.337,811.0989,856.2271,-0.10345458984375,0.00762939453125,0.98822021484375,2.1832275390625,-3.327178955078125,0.61309814453125,0.0,4.0,4.0,4.0,4.0,95.0,event
13:27:39.909,0.0,0.0,0.0,0.0,0.0,0.0,0.0,0.0,0.0,0.0,0.0,0.0,0.0,0.0,0.0,0.0,0.0,0.0,0.0,0.0,785.7143,789.34064,820.7692,793.7729,869.92676,-0.10345458984375,0.00762939453125,0.98822021484375,2.1832275390625,-3.327178955078125,0.61309814453125,0.0,4.0,4.0,4.0,4.0,95.0,event
13:27:39.910,0.0,0.0,0.0,0.0,0.0,0.0,0.0,0.0,0.0,0.0,0.0,0.0,0.0,0.0,0.0,0.0,0.0,0.0,0.0,0.0,756.30035,774.0293,802.23444,772.01465,808.68134,-0.10345458984375,0.00762939453125,0.98822021484375,2.1832275390625,-3.327178955078125,0.61309814453125,0.0,4.0,4.0,4.0,4.0,95.0,event
13:27:39.910,0.0,0.0,0.0,0.0,0.0,0.0,0.0,0.0,0.0,0.0,0.0,0.0,0.0,0.0,0.0,0.0,0.0,0.0,0.0,0.0,779.67035,762.3443,788.93774,782.8938,983.1502,-0.10345458984375,0.00762939453125,0.98822021484375,2.1832275390625,-3.327178955078125,0.61309814453125,0.0,4.0,4.0,4.0,4.0,95.0,event
13:27:39.911,0.0,0.0,0.0,0.0,0.0,0.0,0.0,0.0,0.0,0.0,0.0,0.0,0.0,0.0,0.0,0.0,0.0,0.0,0.0,0.0,810.293,819.5604,809.89014,802.6374,1000.87915,-0.10345458984375,0.00762939453125,0.98822021484375,2.1832275390625,-3.327178955078125,0.61309814453125,0.0,4.0,4.0,4.0,4.0,95.0,event
13:27:39.912,0.0,0.0,0.0,0.0,0.0,0.0,0.0,0.0,0.0,0.0,0.0,0.0,0.0,0.0,0.0,0.0,0.0,0.0,0.0,0.0,829.6337,821.1722,813.5165,814.7253,763.95605,-0.10345458984375,0.00762939453125,0.98822021484375,2.1832275390625,-3.327178955078125,0.61309814453125,0.0,4.0,4.0,4.0,4.0,95.0,event
13:27:39.912,0.0,0.0,0.0,0.0,0.0,0.0,0.0,0.0,0.0,0.0,0.0,0.0,0.0,0.0,0.0,0.0,0.0,0.0,0.0,0.0,820.3663,788.93774,795.78754,819.15753,760.32965,-0.10345458984375,0.00762939453125,0.98822021484375,2.1832275390625,-3.327178955078125,0.61309814453125,0.0,4.0,4.0,4.0,4.0,95.0,event
13:27:39.955,0.0,0.0,0.0,0.0,0.0,0.0,0.0,0.0,0.0,0.0,0.0,0.0,0.0,0.0,0.0,0.0,0.0,0.0,0.0,0.0,802.6374,802.23444,801.4286,805.8608,780.87915,-0.100830078125,0.004150390625,0.9803466796875,2.03369140625,-3.45428466796875,-0.04486083984375,0.0,4.0,4.0,4.0,4.0,95.0,event
13:27:39.956,0.0,0.0,0.0,0.0,0.0,0.0,0.0,0.0,0.0,0.0,0.0,0.0,0.0,0.0,0.0,0.0,0.0,0.0,0.0,0.0,810.293,805.8608,829.6337,798.60803,701.0989,-0.100830078125,0.004150390625,0.9803466796875,2.03369140625,-3.45428466796875,-0.04486083984375,0.0,4.0,4.0,4.0,4.0,95.0,event
13:27:39.958,0.0,0.0,0.0,0.0,0.0,0.0,0.0,0.0,0.0,0.0,0.0,0.0,0.0,0.0,0.0,0.0,0.0,0.0,0.0,0.0,830.84247,796.5934,830.4396,790.54944,668.86444,-0.100830078125,0.004150390625,0.9803466796875,2.03369140625,-3.45428466796875,-0.04486083984375,0.0,4.0,4.0,4.0,4.0,95.0,event
13:27:39.959,0.0,0.0,0.0,0.0,0.0,0.0,0.0,0.0,0.0,0.0,0.0,0.0,0.0,0.0,0.0,0.0,0.0,0.0,0.0,0.0,821.1722,787.326,807.47253,788.93774,784.90845,-0.100830078125,0.004150390625,0.9803466796875,2.03369140625,-3.45428466796875,-0.04486083984375,0.0,4.0,4.0,4.0,4.0,95.0,event
13:27:39.960,0.0,0.0,0.0,0.0,0.0,0.0,0.0,0.0,0.0,0.0,0.0,0.0,0.0,0.0,0.0,0.0,0.0,0.0,0.0,0.0,803.44324,788.93774,785.31134,795.78754,827.2161,-0.100830078125,0.004150390625,0.9803466796875,2.03369140625,-3.45428466796875,-0.04486083984375,0.0,4.0,4.0,4.0,4.0,95.0,event
13:27:39.961,0.0,0.0,0.0,0.0,0.0,0.0,0.0,0.0,0.0,0.0,0.0,0.0,0.0,0.0,0.0,0.0,0.0,0.0,0.0,0.0,794.9817,785.31134,775.2381,803.0403,838.49817,-0.100830078125,0.004150390625,0.9803466796875,2.03369140625,-3.45428466796875,-0.04486083984375,0.0,4.0,4.0,4.0,4.0,95.0,event
13:27:39.963,0.0,0.0,0.0,0.0,0.0,0.0,0.0,0.0,0.0,0.0,0.0,0.0,0.0,0.0,0.0,0.0,0.0,0.0,0.0,0.0,780.4762,795.78754,805.8608,775.64105,817.5458,-0.100830078125,0.004150390625,0.9803466796875,2.03369140625,-3.45428466796875,-0.04486083984375,0.0,4.0,4.0,4.0,4.0,95.0,event
13:27:39.964,0.0,0.0,0.0,0.0,0.0,0.0,0.0,0.0,0.0,0.0,0.0,0.0,0.0,0.0,0.0,0.0,0.0,0.0,0.0,0.0,784.5055,794.17584,824.7985,767.98535,869.92676,-0.100830078125,0.004150390625,0.9803466796875,2.03369140625,-3.45428466796875,-0.04486083984375,0.0,4.0,4.0,4.0,4.0,95.0,event
13:27:39.964,0.0,0.0,0.0,0.0,0.0,0.0,0.0,0.0,0.0,0.0,0.0,0.0,0.0,0.0,0.0,0.0,0.0,0.0,0.0,0.0,816.337,799.41394,815.5311,808.68134,1026.6666,-0.100830078125,0.004150390625,0.9803466796875,2.03369140625,-3.45428466796875,-0.04486083984375,0.0,4.0,4.0,4.0,4.0,95.0,event
13:27:39.965,0.0,0.0,0.0,0.0,0.0,0.0,0.0,0.0,0.0,0.0,0.0,0.0,0.0,0.0,0.0,0.0,0.0,0.0,0.0,0.0,822.381,820.3663,829.2308,828.022,872.74725,-0.100830078125,0.004150390625,0.9803466796875,2.03369140625,-3.45428466796875,-0.04486083984375,0.0,4.0,4.0,4.0,4.0,95.0,event
13:27:39.966,0.0,0.0,0.0,0.0,0.0,0.0,0.0,0.0,0.0,0.0,0.0,0.0,0.0,0.0,0.0,0.0,0.0,0.0,0.0,0.0,801.8315,788.93774,819.5604,823.5897,718.022,-0.100830078125,0.004150390625,0.9803466796875,2.03369140625,-3.45428466796875,-0.04486083984375,0.0,4.0,4.0,4.0,4.0,95.0,event
13:27:39.966,0.0,0.0,0.0,0.0,0.0,0.0,0.0,0.0,0.0,0.0,0.0,0.0,0.0,0.0,0.0,0.0,0.0,0.0,0.0,0.0,804.65204,765.9707,783.2967,809.0842,820.7692,-0.100830078125,0.004150390625,0.9803466796875,2.03369140625,-3.45428466796875,-0.04486083984375,0.0,4.0,4.0,4.0,4.0,95.0,event
13:27:40.003,0.0,0.0,0.0,0.0,0.0,0.0,0.0,0.0,0.0,0.0,0.0,0.0,0.0,0.0,0.0,0.0,0.0,0.0,0.0,0.0,803.44324,791.75824,780.07324,791.3553,815.12823,-0.1002197265625,0.0091552734375,0.986083984375,2.2430419921875,-3.87298583984375,-0.127105712890625,0.0,4.0,4.0,4.0,4.0,95.0,event
13:27:40.004,0.0,0.0,0.0,0.0,0.0,0.0,0.0,0.0,0.0,0.0,0.0,0.0,0.0,0.0,0.0,0.0,0.0,0.0,0.0,0.0,813.5165,796.1905,790.54944,793.36993,674.90845,-0.1002197265625,0.0091552734375,0.986083984375,2.2430419921875,-3.87298583984375,-0.127105712890625,0.0,4.0,4.0,4.0,4.0,95.0,event
13:27:40.005,0.0,0.0,0.0,0.0,0.0,0.0,0.0,0.0,0.0,0.0,0.0,0.0,0.0,0.0,0.0,0.0,0.0,0.0,0.0,0.0,828.4249,783.69965,803.44324,805.8608,733.3333,-0.1002197265625,0.0091552734375,0.986083984375,2.2430419921875,-3.87298583984375,-0.127105712890625,0.0,4.0,4.0,4.0,4.0,95.0,event
13:27:40.006,0.0,0.0,0.0,0.0,0.0,0.0,0.0,0.0,0.0,0.0,0.0,0.0,0.0,0.0,0.0,0.0,0.0,0.0,0.0,0.0,780.87915,781.28204,818.3516,789.7436,831.2454,-0.1002197265625,0.0091552734375,0.986083984375,2.2430419921875,-3.87298583984375,-0.127105712890625,0.0,4.0,4.0,4.0,4.0,95.0,event
13:27:40.010,0.0,0.0,0.0,0.0,0.0,0.0,0.0,0.0,0.0,0.0,0.0,0.0,0.0,0.0,0.0,0.0,0.0,0.0,0.0,0.0,767.98535,796.5934,834.0659,776.4469,747.4359,-0.1002197265625,0.0091552734375,0.986083984375,2.2430419921875,-3.87298583984375,-0.127105712890625,0.0,4.0,4.0,4.0,4.0,95.0,event
13:27:40.011,0.0,0.0,0.0,0.0,0.0,0.0,0.0,0.0,0.0,0.0,0.0,0.0,0.0,0.0,0.0,0.0,0.0,0.0,0.0,0.0,817.9487,800.2198,819.9634,789.34064,761.53845,-0.1002197265625,0.0091552734375,0.986083984375,2.2430419921875,-3.87298583984375,-0.127105712890625,0.0,4.0,4.0,4.0,4.0,95.0,event
13:27:40.012,0.0,0.0,0.0,0.0,0.0,0.0,0.0,0.0,0.0,0.0,0.0,0.0,0.0,0.0,0.0,0.0,0.0,0.0,0.0,0.0,849.7802,783.2967,790.14655,820.7692,913.44324,-0.1002197265625,0.0091552734375,0.986083984375,2.2430419921875,-3.87298583984375,-0.127105712890625,0.0,4.0,4.0,4.0,4.0,95.0,event
13:27:40.015,0.0,0.0,0.0,0.0,0.0,0.0,0.0,0.0,0.0,0.0,0.0,0.0,0.0,0.0,0.0,0.0,0.0,0.0,0.0,0.0,841.7216,764.7619,794.9817,844.94507,1104.0293,-0.1002197265625,0.0091552734375,0.986083984375,2.2430419921875,-3.87298583984375,-0.127105712890625,0.0,4.0,4.0,4.0,4.0,95.0,event
13:27:40.016,0.0,0.0,0.0,0.0,0.0,0.0,0.0,0.0,0.0,0.0,0.0,0.0,0.0,0.0,0.0,0.0,0.0,0.0,0.0,0.0,780.4762,791.3553,799.81683,801.02563,950.9158,-0.1002197265625,0.0091552734375,0.986083984375,2.2430419921875,-3.87298583984375,-0.127105712890625,0.0,4.0,4.0,4.0,4.0,95.0,event
13:27:40.017,0.0,0.0,0.0,0.0,0.0,0.0,0.0,0.0,0.0,0.0,0.0,0.0,0.0,0.0,0.0,0.0,0.0,0.0,0.0,0.0,767.1795,794.17584,797.8022,777.6557,665.64105,-0.1002197265625,0.0091552734375,0.986083984375,2.2430419921875,-3.87298583984375,-0.127105712890625,0.0,4.0,4.0,4.0,4.0,95.0,event
13:27:40.019,0.0,0.0,0.0,0.0,0.0,0.0,0.0,0.0,0.0,0.0,0.0,0.0,0.0,0.0,0.0,0.0,0.0,0.0,0.0,0.0,792.96704,786.1172,805.8608,775.64105,627.3626,-0.1002197265625,0.0091552734375,0.986083984375,2.2430419921875,-3.87298583984375,-0.127105712890625,0.0,4.0,4.0,4.0,4.0,95.0,event
13:27:40.020,0.0,0.0,0.0,0.0,0.0,0.0,0.0,0.0,0.0,0.0,0.0,0.0,0.0,0.0,0.0,0.0,0.0,0.0,0.0,0.0,812.71063,802.6374,808.2784,778.86444,701.9048,-0.1002197265625,0.0091552734375,0.986083984375,2.2430419921875,-3.87298583984375,-0.127105712890625,0.0,4.0,4.0,4.0,4.0,95.0,event
13:27:40.052,0.0,0.0,0.0,0.0,0.0,0.0,0.0,0.0,0.0,0.0,0.0,0.0,0.0,0.0,0.0,0.0,0.0,0.0,0.0,0.0,828.8278,799.011,805.8608,802.6374,801.02563,-0.10296630859375,0.003173828125,0.98193359375,1.682281494140625,-3.90289306640625,0.19439697265625,0.0,4.0,4.0,4.0,4.0,95.0,event
13:27:40.053,0.0,0.0,0.0,0.0,0.0,0.0,0.0,0.0,0.0,0.0,0.0,0.0,0.0,0.0,0.0,0.0,0.0,0.0,0.0,0.0,790.9524,788.1319,808.2784,788.1319,708.3516,-0.10296630859375,0.003173828125,0.98193359375,1.682281494140625,-3.90289306640625,0.19439697265625,0.0,4.0,4.0,4.0,4.0,95.0,event
13:27:40.054,0.0,0.0,0.0,0.0,0.0,0.0,0.0,0.0,0.0,0.0,0.0,0.0,0.0,0.0,0.0,0.0,0.0,0.0,0.0,0.0,774.83514,790.14655,823.1868,783.69965,686.99634,-0.10296630859375,0.003173828125,0.98193359375,1.682281494140625,-3.90289306640625,0.19439697265625,0.0,4.0,4.0,4.0,4.0,95.0,event
13:27:40.055,0.0,0.0,0.0,0.0,0.0,0.0,0.0,0.0,0.0,0.0,0.0,0.0,0.0,0.0,0.0,0.0,0.0,0.0,0.0,0.0,830.84247,802.6374,810.293,821.5751,800.6227,-0.10296630859375,0.003173828125,0.98193359375,1.682281494140625,-3.90289306640625,0.19439697265625,0.0,4.0,4.0,4.0,4.0,95.0,event
13:27:40.055,0.0,0.0,0.0,0.0,0.0,0.0,0.0,0.0,0.0,0.0,0.0,0.0,0.0,0.0,0.0,0.0,0.0,0.0,0.0,0.0,803.0403,809.4872,815.9341,805.05493,783.2967,-0.10296630859375,0.003173828125,0.98193359375,1.682281494140625,-3.90289306640625,0.19439697265625,0.0,4.0,4.0,4.0,4.0,95.0,event
13:27:40.056,0.0,0.0,0.0,0.0,0.0,0.0,0.0,0.0,0.0,0.0,0.0,0.0,0.0,0.0,0.0,0.0,0.0,0.0,0.0,0.0,823.9927,790.14655,801.8315,807.8755,863.8828,-0.10296630859375,0.003173828125,0.98193359375,1.682281494140625,-3.90289306640625,0.19439697265625,0.0,4.0,4.0,4.0,4.0,95.0,event
13:27:40.056,0.0,0.0,0.0,0.0,0.0,0.0,0.0,0.0,0.0,0.0,0.0,0.0,0.0,0.0,0.0,0.0,0.0,0.0,0.0,0.0,797.8022,768.3883,782.49084,811.0989,993.6264,-0.10296630859375,0.003173828125,0.98193359375,1.682281494140625,-3.90289306640625,0.19439697265625,0.0,4.0,4.0,4.0,4.0,95.0,event
13:27:40.057,0.0,0.0,0.0,0.0,0.0,0.0,0.0,0.0,0.0,0.0,0.0,0.0,0.0,0.0,0.0,0.0,0.0,0.0,0.0,0.0,803.0403,774.83514,772.8205,834.87177,1131.0256,-0.10296630859375,0.003173828125,0.98193359375,1.682281494140625,-3.90289306640625,0.19439697265625,0.0,4.0,4.0,4.0,4.0,95.0,event
13:27:40.058,0.0,0.0,0.0,0.0,0.0,0.0,0.0,0.0,0.0,0.0,0.0,0.0,0.0,0.0,0.0,0.0,0.0,0.0,0.0,0.0,807.0696,806.6667,788.5348,809.89014,893.2967,-0.10296630859375,0.003173828125,0.98193359375,1.682281494140625,-3.90289306640625,0.19439697265625,0.0,4.0,4.0,4.0,4.0,95.0,event
13:27:40.058,0.0,0.0,0.0,0.0,0.0,0.0,0.0,0.0,0.0,0.0,0.0,0.0,0.0,0.0,0.0,0.0,0.0,0.0,0.0,0.0,807.47253,807.0696,831.2454,797.3993,698.2784,-0.10296630859375,0.003173828125,0.98193359375,1.682281494140625,-3.90289306640625,0.19439697265625,0.0,4.0,4.0,4.0,4.0,95.0,event
13:27:40.059,0.0,0.0,0.0,0.0,0.0,0.0,0.0,0.0,0.0,0.0,0.0,0.0,0.0,0.0,0.0,0.0,0.0,0.0,0.0,0.0,820.7692,790.54944,847.76556,807.0696,774.0293,-0.10296630859375,0.003173828125,0.98193359375,1.682281494140625,-3.90289306640625,0.19439697265625,0.0,4.0,4.0,4.0,4.0,95.0,event
13:27:40.060,0.0,0.0,0.0,0.0,0.0,0.0,0.0,0.0,0.0,0.0,0.0,0.0,0.0,0.0,0.0,0.0,0.0,0.0,0.0,0.0,809.4872,791.3553,834.0659,811.0989,778.0586,-0.10296630859375,0.003173828125,0.98193359375,1.682281494140625,-3.90289306640625,0.19439697265625,0.0,4.0,4.0,4.0,4.0,95.0,event
13:27:40.105,0.0,0.0,0.0,0.0,0.0,0.0,0.0,0.0,0.0,0.0,0.0,0.0,0.0,0.0,0.0,0.0,0.0,0.0,0.0,0.0,787.72894,800.6227,817.5458,800.6227,725.6777,-0.10296630859375,0.003173828125,0.98193359375,1.682281494140625,-3.90289306640625,0.19439697265625,0.0,4.0,4.0,4.0,4.0,95.0,event
13:27:40.106,0.0,0.0,0.0,0.0,0.0,0.0,0.0,0.0,0.0,0.0,0.0,0.0,0.0,0.0,0.0,0.0,0.0,0.0,0.0,0.0,785.31134,789.7436,797.8022,782.8938,710.7692,-0.10296630859375,0.003173828125,0.98193359375,1.682281494140625,-3.90289306640625,0.19439697265625,0.0,4.0,4.0,4.0,4.0,95.0,event
13:27:40.107,0.0,0.0,0.0,0.0,0.0,0.0,0.0,0.0,0.0,0.0,0.0,0.0,0.0,0.0,0.0,0.0,0.0,0.0,0.0,0.0,815.9341,780.87915,786.1172,807.0696,817.5458,-0.10296630859375,0.003173828125,0.98193359375,1.682281494140625,-3.90289306640625,0.19439697265625,0.0,4.0,4.0,4.0,4.0,95.0,event
13:27:40.109,0.0,0.0,0.0,0.0,0.0,0.0,0.0,0.0,0.0,0.0,0.0,0.0,0.0,0.0,0.0,0.0,0.0,0.0,0.0,0.0,859.45056,788.1319,791.75824,850.18317,867.50916,-0.10296630859375,0.003173828125,0.98193359375,1.682281494140625,-3.90289306640625,0.19439697265625,0.0,4.0,4.0,4.0,4.0,95.0,event
13:27:40.110,0.0,0.0,0.0,0.0,0.0,0.0,0.0,0.0,0.0,0.0,0.0,0.0,0.0,0.0,0.0,0.0,0.0,0.0,0.0,0.0,862.674,790.54944,787.326,855.42126,821.1722,-0.10296630859375,0.003173828125,0.98193359375,1.682281494140625,-3.90289306640625,0.19439697265625,0.0,4.0,4.0,4.0,4.0,95.0,event
13:27:40.111,0.0,0.0,0.0,0.0,0.0,0.0,0.0,0.0,0.0,0.0,0.0,0.0,0.0,0.0,0.0,0.0,0.0,0.0,0.0,0.0,800.2198,769.59705,781.28204,804.65204,867.1062,-0.10296630859375,0.003173828125,0.98193359375,1.682281494140625,-3.90289306640625,0.19439697265625,0.0,4.0,4.0,4.0,4.0,95.0,event
13:27:40.115,0.0,0.0,0.0,0.0,0.0,0.0,0.0,0.0,0.0,0.0,0.0,0.0,0.0,0.0,0.0,0.0,0.0,0.0,0.0,0.0,771.2088,756.30035,813.1135,773.22345,1068.5714,-0.10296630859375,0.003173828125,0.98193359375,1.682281494140625,-3.90289306640625,0.19439697265625,0.0,4.0,4.0,4.0,4.0,95.0,event
13:27:40.116,0.0,0.0,0.0,0.0,0.0,0.0,0.0,0.0,0.0,0.0,0.0,0.0,0.0,0.0,0.0,0.0,0.0,0.0,0.0,0.0,814.3223,807.0696,830.0366,798.20514,1173.3334,-0.10296630859375,0.003173828125,0.98193359375,1.682281494140625,-3.90289306640625,0.19439697265625,0.0,4.0,4.0,4.0,4.0,95.0,event
13:27:40.117,0.0,0.0,0.0,0.0,0.0,0.0,0.0,0.0,0.0,0.0,0.0,0.0,0.0,0.0,0.0,0.0,0.0,0.0,0.0,0.0,842.1245,827.619,816.337,799.81683,893.69965,-0.10296630859375,0.003173828125,0.98193359375,1.682281494140625,-3.90289306640625,0.19439697265625,0.0,4.0,4.0,4.0,4.0,95.0,event
13:27:40.118,0.0,0.0,0.0,0.0,0.0,0.0,0.0,0.0,0.0,0.0,0.0,0.0,0.0,0.0,0.0,0.0,0.0,0.0,0.0,0.0,812.71063,790.9524,816.337,785.31134,732.1245,-0.10296630859375,0.003173828125,0.98193359375,1.682281494140625,-3.90289306640625,0.19439697265625,0.0,4.0,4.0,4.0,4.0,95.0,event
13:27:40.119,0.0,0.0,0.0,0.0,0.0,0.0,0.0,0.0,0.0,0.0,0.0,0.0,0.0,0.0,0.0,0.0,0.0,0.0,0.0,0.0,799.81683,785.31134,807.0696,793.7729,708.7546,-0.10296630859375,0.003173828125,0.98193359375,1.682281494140625,-3.90289306640625,0.19439697265625,0.0,4.0,4.0,4.0,4.0,95.0,event
13:27:40.120,0.0,0.0,0.0,0.0,0.0,0.0,0.0,0.0,0.0,0.0,0.0,0.0,0.0,0.0,0.0,0.0,0.0,0.0,0.0,0.0,794.57874,789.34064,797.3993,784.10254,633.8095,-0.10296630859375,0.003173828125,0.98193359375,1.682281494140625,-3.90289306640625,0.19439697265625,0.0,4.0,4.0,4.0,4.0,95.0,event
13:27:40.153,0.0,0.0,0.0,0.0,0.0,0.0,0.0,0.0,0.0,0.0,0.0,0.0,0.0,0.0,0.0,0.0,0.0,0.0,0.0,0.0,797.3993,790.54944,794.9817,770.40295,643.0769,-0.102783203125,0.00274658203125,0.98443603515625,1.861724853515625,-3.386993408203125,0.0299072265625,0.0,4.0,4.0,4.0,4.0,95.0,event
13:27:40.154,0.0,0.0,0.0,0.0,0.0,0.0,0.0,0.0,0.0,0.0,0.0,0.0,0.0,0.0,0.0,0.0,0.0,0.0,0.0,0.0,827.2161,792.1612,787.72894,792.1612,741.39197,-0.102783203125,0.00274658203125,0.98443603515625,1.861724853515625,-3.386993408203125,0.0299072265625,0.0,4.0,4.0,4.0,4.0,95.0,event
13:27:40.154,0.0,0.0,0.0,0.0,0.0,0.0,0.0,0.0,0.0,0.0,0.0,0.0,0.0,0.0,0.0,0.0,0.0,0.0,0.0,0.0,812.3077,793.36993,794.17584,793.7729,761.9414,-0.102783203125,0.00274658203125,0.98443603515625,1.861724853515625,-3.386993408203125,0.0299072265625,0.0,4.0,4.0,4.0,4.0,95.0,event
13:27:40.155,0.0,0.0,0.0,0.0,0.0,0.0,0.0,0.0,0.0,0.0,0.0,0.0,0.0,0.0,0.0,0.0,0.0,0.0,0.0,0.0,799.81683,790.9524,799.81683,788.1319,747.4359,-0.102783203125,0.00274658203125,0.98443603515625,1.861724853515625,-3.386993408203125,0.0299072265625,0.0,4.0,4.0,4.0,4.0,95.0,event
13:27:40.156,0.0,0.0,0.0,0.0,0.0,0.0,0.0,0.0,0.0,0.0,0.0,0.0,0.0,0.0,0.0,0.0,0.0,0.0,0.0,0.0,827.619,773.6264,776.8498,800.2198,825.6044,-0.102783203125,0.00274658203125,0.98443603515625,1.861724853515625,-3.386993408203125,0.0299072265625,0.0,4.0,4.0,4.0,4.0,95.0,event
13:27:40.156,0.0,0.0,0.0,0.0,0.0,0.0,0.0,0.0,0.0,0.0,0.0,0.0,0.0,0.0,0.0,0.0,0.0,0.0,0.0,0.0,823.1868,786.9231,787.72894,805.05493,725.6777,-0.102783203125,0.00274658203125,0.98443603515625,1.861724853515625,-3.386993408203125,0.0299072265625,0.0,4.0,4.0,4.0,4.0,95.0,event
13:27:40.157,0.0,0.0,0.0,0.0,0.0,0.0,0.0,0.0,0.0,0.0,0.0,0.0,0.0,0.0,0.0,0.0,0.0,0.0,0.0,0.0,826.4103,780.4762,782.49084,796.99634,950.5128,-0.102783203125,0.00274658203125,0.98443603515625,1.861724853515625,-3.386993408203125,0.0299072265625,0.0,4.0,4.0,4.0,4.0,95.0,event
13:27:40.158,0.0,0.0,0.0,0.0,0.0,0.0,0.0,0.0,0.0,0.0,0.0,0.0,0.0,0.0,0.0,0.0,0.0,0.0,0.0,0.0,813.1135,786.52014,815.12823,806.26373,884.83514,-0.102783203125,0.00274658203125,0.98443603515625,1.861724853515625,-3.386993408203125,0.0299072265625,0.0,4.0,4.0,4.0,4.0,95.0,event
13:27:40.158,0.0,0.0,0.0,0.0,0.0,0.0,0.0,0.0,0.0,0.0,0.0,0.0,0.0,0.0,0.0,0.0,0.0,0.0,0.0,0.0,789.7436,784.10254,814.3223,784.10254,721.6484,-0.102783203125,0.00274658203125,0.98443603515625,1.861724853515625,-3.386993408203125,0.0299072265625,0.0,4.0,4.0,4.0,4.0,95.0,event
13:27:40.159,0.0,0.0,0.0,0.0,0.0,0.0,0.0,0.0,0.0,0.0,0.0,0.0,0.0,0.0,0.0,0.0,0.0,0.0,0.0,0.0,792.96704,757.1062,795.78754,780.4762,775.64105,-0.102783203125,0.00274658203125,0.98443603515625,1.861724853515625,-3.386993408203125,0.0299072265625,0.0,4.0,4.0,4.0,4.0,95.0,event
13:27:40.160,0.0,0.0,0.0,0.0,0.0,0.0,0.0,0.0,0.0,0.0,0.0,0.0,0.0,0.0,0.0,0.0,0.0,0.0,0.0,0.0,808.68134,792.1612,812.3077,809.4872,939.6337,-0.102783203125,0.00274658203125,0.98443603515625,1.861724853515625,-3.386993408203125,0.0299072265625,0.0,4.0,4.0,4.0,4.0,95.0,event
13:27:40.160,0.0,0.0,0.0,0.0,0.0,0.0,0.0,0.0,0.0,0.0,0.0,0.0,0.0,0.0,0.0,0.0,0.0,0.0,0.0,0.0,835.6777,823.5897,805.8608,817.5458,746.2271,-0.102783203125,0.00274658203125,0.98443603515625,1.861724853515625,-3.386993408203125,0.0299072265625,0.0,4.0,4.0,4.0,4.0,95.0,event
13:27:40.161,0.0,0.0,0.0,0.0,0.0,0.0,0.0,0.0,0.0,0.0,0.0,0.0,0.0,0.0,0.0,0.0,0.0,0.0,0.0,0.0,834.0659,793.36993,794.9817,822.7839,732.9304,-0.0994873046875,0.0008544921875,0.979736328125,2.093505859375,-3.491668701171875,0.171966552734375,0.0,4.0,4.0,4.0,4.0,95.0,event
13:27:40.162,0.0,0.0,0.0,0.0,0.0,0.0,0.0,0.0,0.0,0.0,0.0,0.0,0.0,0.0,0.0,0.0,0.0,0.0,0.0,0.0,799.011,780.87915,804.2491,807.0696,839.707,-0.0994873046875,0.0008544921875,0.979736328125,2.093505859375,-3.491668701171875,0.171966552734375,0.0,4.0,4.0,4.0,4.0,95.0,event
13:27:40.162,0.0,0.0,0.0,0.0,0.0,0.0,0.0,0.0,0.0,0.0,0.0,0.0,0.0,0.0,0.0,0.0,0.0,0.0,0.0,0.0,790.54944,780.87915,783.2967,787.326,727.28937,-0.0994873046875,0.0008544921875,0.979736328125,2.093505859375,-3.491668701171875,0.171966552734375,0.0,4.0,4.0,4.0,4.0,95.0,event
13:27:40.163,0.0,0.0,0.0,0.0,0.0,0.0,0.0,0.0,0.0,0.0,0.0,0.0,0.0,0.0,0.0,0.0,0.0,0.0,0.0,0.0,817.9487,793.36993,797.3993,792.5641,595.12823,-0.0994873046875,0.0008544921875,0.979736328125,2.093505859375,-3.491668701171875,0.171966552734375,0.0,4.0,4.0,4.0,4.0,95.0,event
13:27:40.164,0.0,0.0,0.0,0.0,0.0,0.0,0.0,0.0,0.0,0.0,0.0,0.0,0.0,0.0,0.0,0.0,0.0,0.0,0.0,0.0,832.4542,795.78754,840.5128,791.75824,670.4762,-0.0994873046875,0.0008544921875,0.979736328125,2.093505859375,-3.491668701171875,0.171966552734375,0.0,4.0,4.0,4.0,4.0,95.0,event
13:27:40.164,0.0,0.0,0.0,0.0,0.0,0.0,0.0,0.0,0.0,0.0,0.0,0.0,0.0,0.0,0.0,0.0,0.0,0.0,0.0,0.0,832.4542,785.7143,832.4542,805.4579,914.2491,-0.0994873046875,0.0008544921875,0.979736328125,2.093505859375,-3.491668701171875,0.171966552734375,0.0,4.0,4.0,4.0,4.0,95.0,event
13:27:40.165,0.0,0.0,0.0,0.0,0.0,0.0,0.0,0.0,0.0,0.0,0.0,0.0,0.0,0.0,0.0,0.0,0.0,0.0,0.0,0.0,783.69965,793.36993,796.5934,796.99634,731.31866,-0.0994873046875,0.0008544921875,0.979736328125,2.093505859375,-3.491668701171875,0.171966552734375,0.0,4.0,4.0,4.0,4.0,95.0,event
13:27:40.165,0.0,0.0,0.0,0.0,0.0,0.0,0.0,0.0,0.0,0.0,0.0,0.0,0.0,0.0,0.0,0.0,0.0,0.0,0.0,0.0,793.7729,786.9231,804.2491,803.44324,890.07324,-0.0994873046875,0.0008544921875,0.979736328125,2.093505859375,-3.491668701171875,0.171966552734375,0.0,4.0,4.0,4.0,4.0,95.0,event
13:27:40.169,0.0,0.0,0.0,0.0,0.0,0.0,0.0,0.0,0.0,0.0,0.0,0.0,0.0,0.0,0.0,0.0,0.0,0.0,0.0,0.0,824.7985,783.69965,803.44324,817.5458,698.2784,-0.0994873046875,0.0008544921875,0.979736328125,2.093505859375,-3.491668701171875,0.171966552734375,0.0,4.0,4.0,4.0,4.0,95.0,event
13:27:40.169,0.0,0.0,0.0,0.0,0.0,0.0,0.0,0.0,0.0,0.0,0.0,0.0,0.0,0.0,0.0,0.0,0.0,0.0,0.0,0.0,838.49817,765.56775,791.75824,832.0513,976.30035,-0.0994873046875,0.0008544921875,0.979736328125,2.093505859375,-3.491668701171875,0.171966552734375,0.0,4.0,4.0,4.0,4.0,95.0,event
13:27:40.170,0.0,0.0,0.0,0.0,0.0,0.0,0.0,0.0,0.0,0.0,0.0,0.0,0.0,0.0,0.0,0.0,0.0,0.0,0.0,0.0,822.7839,803.44324,777.25275,822.7839,938.8278,-0.0994873046875,0.0008544921875,0.979736328125,2.093505859375,-3.491668701171875,0.171966552734375,0.0,4.0,4.0,4.0,4.0,95.0,event
13:27:40.171,0.0,0.0,0.0,0.0,0.0,0.0,0.0,0.0,0.0,0.0,0.0,0.0,0.0,0.0,0.0,0.0,0.0,0.0,0.0,0.0,797.8022,794.57874,796.99634,806.6667,682.1612,-0.0994873046875,0.0008544921875,0.979736328125,2.093505859375,-3.491668701171875,0.171966552734375,0.0,4.0,4.0,4.0,4.0,95.0,event
13:27:40.202,0.0,0.0,0.0,0.0,0.0,0.0,0.0,0.0,0.0,0.0,0.0,0.0,0.0,0.0,0.0,0.0,0.0,0.0,0.0,0.0,789.34064,782.0879,837.28937,797.8022,721.2454,-0.1048583984375,0.0018310546875,0.98455810546875,1.98883056640625,-3.775787353515625,0.351409912109375,0.0,4.0,4.0,4.0,4.0,95.0,event
13:27:40.203,0.0,0.0,0.0,0.0,0.0,0.0,0.0,0.0,0.0,0.0,0.0,0.0,0.0,0.0,0.0,0.0,0.0,0.0,0.0,0.0,803.0403,808.68134,849.3773,791.75824,753.0769,-0.1048583984375,0.0018310546875,0.98455810546875,1.98883056640625,-3.775787353515625,0.351409912109375,0.0,4.0,4.0,4.0,4.0,95.0,event
13:27:40.203,0.0,0.0,0.0,0.0,0.0,0.0,0.0,0.0,0.0,0.0,0.0,0.0,0.0,0.0,0.0,0.0,0.0,0.0,0.0,0.0,828.022,808.68134,808.2784,806.6667,728.0952,-0.1048583984375,0.0018310546875,0.98455810546875,1.98883056640625,-3.775787353515625,0.351409912109375,0.0,4.0,4.0,4.0,4.0,95.0,event
13:27:40.204,0.0,0.0,0.0,0.0,0.0,0.0,0.0,0.0,0.0,0.0,0.0,0.0,0.0,0.0,0.0,0.0,0.0,0.0,0.0,0.0,835.6777,788.93774,788.1319,812.3077,719.2308,-0.1048583984375,0.0018310546875,0.98455810546875,1.98883056640625,-3.775787353515625,0.351409912109375,0.0,4.0,4.0,4.0,4.0,95.0,event
13:27:40.204,0.0,0.0,0.0,0.0,0.0,0.0,0.0,0.0,0.0,0.0,0.0,0.0,0.0,0.0,0.0,0.0,0.0,0.0,0.0,0.0,800.2198,774.43225,810.696,809.4872,796.99634,-0.1048583984375,0.0018310546875,0.98455810546875,1.98883056640625,-3.775787353515625,0.351409912109375,0.0,4.0,4.0,4.0,4.0,95.0,event
13:27:40.205,0.0,0.0,0.0,0.0,0.0,0.0,0.0,0.0,0.0,0.0,0.0,0.0,0.0,0.0,0.0,0.0,0.0,0.0,0.0,0.0,781.685,786.1172,809.89014,807.47253,853.4066,-0.1048583984375,0.0018310546875,0.98455810546875,1.98883056640625,-3.775787353515625,0.351409912109375,0.0,4.0,4.0,4.0,4.0,95.0,event
13:27:40.206,0.0,0.0,0.0,0.0,0.0,0.0,0.0,0.0,0.0,0.0,0.0,0.0,0.0,0.0,0.0,0.0,0.0,0.0,0.0,0.0,809.0842,799.81683,780.87915,804.65204,777.6557,-0.1048583984375,0.0018310546875,0.98455810546875,1.98883056640625,-3.775787353515625,0.351409912109375,0.0,4.0,4.0,4.0,4.0,95.0,event
13:27:40.207,0.0,0.0,0.0,0.0,0.0,0.0,0.0,0.0,0.0,0.0,0.0,0.0,0.0,0.0,0.0,0.0,0.0,0.0,0.0,0.0,840.5128,800.2198,773.6264,813.91943,693.44324,-0.1048583984375,0.0018310546875,0.98455810546875,1.98883056640625,-3.775787353515625,0.351409912109375,0.0,4.0,4.0,4.0,4.0,95.0,event
13:27:40.207,0.0,0.0,0.0,0.0,0.0,0.0,0.0,0.0,0.0,0.0,0.0,0.0,0.0,0.0,0.0,0.0,0.0,0.0,0.0,0.0,833.663,778.86444,817.5458,815.9341,801.4286,-0.1048583984375,0.0018310546875,0.98455810546875,1.98883056640625,-3.775787353515625,0.351409912109375,0.0,4.0,4.0,4.0,4.0,95.0,event
13:27:40.208,0.0,0.0,0.0,0.0,0.0,0.0,0.0,0.0,0.0,0.0,0.0,0.0,0.0,0.0,0.0,0.0,0.0,0.0,0.0,0.0,797.8022,797.3993,845.7509,801.8315,983.1502,-0.1048583984375,0.0018310546875,0.98455810546875,1.98883056640625,-3.775787353515625,0.351409912109375,0.0,4.0,4.0,4.0,4.0,95.0,event
13:27:40.209,0.0,0.0,0.0,0.0,0.0,0.0,0.0,0.0,0.0,0.0,0.0,0.0,0.0,0.0,0.0,0.0,0.0,0.0,0.0,0.0,779.2674,810.696,817.9487,791.3553,738.1685,-0.1048583984375,0.0018310546875,0.98455810546875,1.98883056640625,-3.775787353515625,0.351409912109375,0.0,4.0,4.0,4.0,4.0,95.0,event
13:27:40.210,0.0,0.0,0.0,0.0,0.0,0.0,0.0,0.0,0.0,0.0,0.0,0.0,0.0,0.0,0.0,0.0,0.0,0.0,0.0,0.0,791.3553,786.1172,817.5458,792.5641,655.16486,-0.1048583984375,0.0018310546875,0.98455810546875,1.98883056640625,-3.775787353515625,0.351409912109375,0.0,4.0,4.0,4.0,4.0,95.0,event
13:27:40.256,0.0,0.0,0.0,0.0,0.0,0.0,0.0,0.0,0.0,0.0,0.0,0.0,0.0,0.0,0.0,0.0,0.0,0.0,0.0,0.0,811.50183,779.2674,811.50183,801.8315,903.36993,-0.10296630859375,0.00738525390625,0.99072265625,2.46734619140625,-4.299163818359375,0.979461669921875,0.0,4.0,4.0,4.0,4.0,95.0,event
13:27:40.257,0.0,0.0,0.0,0.0,0.0,0.0,0.0,0.0,0.0,0.0,0.0,0.0,0.0,0.0,0.0,0.0,0.0,0.0,0.0,0.0,817.5458,792.1612,785.7143,803.8461,896.9231,-0.10296630859375,0.00738525390625,0.99072265625,2.46734619140625,-4.299163818359375,0.979461669921875,0.0,4.0,4.0,4.0,4.0,95.0,event
13:27:40.259,0.0,0.0,0.0,0.0,0.0,0.0,0.0,0.0,0.0,0.0,0.0,0.0,0.0,0.0,0.0,0.0,0.0,0.0,0.0,0.0,815.5311,783.2967,787.326,817.9487,784.10254,-0.10296630859375,0.00738525390625,0.99072265625,2.46734619140625,-4.299163818359375,0.979461669921875,0.0,4.0,4.0,4.0,4.0,95.0,event
13:27:40.260,0.0,0.0,0.0,0.0,0.0,0.0,0.0,0.0,0.0,0.0,0.0,0.0,0.0,0.0,0.0,0.0,0.0,0.0,0.0,0.0,815.12823,775.64105,810.696,828.022,726.8865,-0.10296630859375,0.00738525390625,0.99072265625,2.46734619140625,-4.299163818359375,0.979461669921875,0.0,4.0,4.0,4.0,4.0,95.0,event
13:27:40.262,0.0,0.0,0.0,0.0,0.0,0.0,0.0,0.0,0.0,0.0,0.0,0.0,0.0,0.0,0.0,0.0,0.0,0.0,0.0,0.0,815.12823,780.07324,806.6667,811.50183,811.9048,-0.10296630859375,0.00738525390625,0.99072265625,2.46734619140625,-4.299163818359375,0.979461669921875,0.0,4.0,4.0,4.0,4.0,95.0,event
13:27:40.263,0.0,0.0,0.0,0.0,0.0,0.0,0.0,0.0,0.0,0.0,0.0,0.0,0.0,0.0,0.0,0.0,0.0,0.0,0.0,0.0,808.68134,803.8461,812.3077,792.1612,873.95605,-0.10296630859375,0.00738525390625,0.99072265625,2.46734619140625,-4.299163818359375,0.979461669921875,0.0,4.0,4.0,4.0,4.0,95.0,event
13:27:40.264,0.0,0.0,0.0,0.0,0.0,0.0,0.0,0.0,0.0,0.0,0.0,0.0,0.0,0.0,0.0,0.0,0.0,0.0,0.0,0.0,817.9487,804.65204,828.022,792.5641,790.54944,-0.10296630859375,0.00738525390625,0.99072265625,2.46734619140625,-4.299163818359375,0.979461669921875,0.0,4.0,4.0,4.0,4.0,95.0,event
13:27:40.266,0.0,0.0,0.0,0.0,0.0,0.0,0.0,0.0,0.0,0.0,0.0,0.0,0.0,0.0,0.0,0.0,0.0,0.0,0.0,0.0,821.5751,783.2967,811.0989,806.26373,757.1062,-0.10296630859375,0.00738525390625,0.99072265625,2.46734619140625,-4.299163818359375,0.979461669921875,0.0,4.0,4.0,4.0,4.0,95.0,event
13:27:40.267,0.0,0.0,0.0,0.0,0.0,0.0,0.0,0.0,0.0,0.0,0.0,0.0,0.0,0.0,0.0,0.0,0.0,0.0,0.0,0.0,779.67035,763.5531,799.41394,802.6374,912.6374,-0.10296630859375,0.00738525390625,0.99072265625,2.46734619140625,-4.299163818359375,0.979461669921875,0.0,4.0,4.0,4.0,4.0,95.0,event
13:27:40.268,0.0,0.0,0.0,0.0,0.0,0.0,0.0,0.0,0.0,0.0,0.0,0.0,0.0,0.0,0.0,0.0,0.0,0.0,0.0,0.0,784.10254,802.6374,801.4286,802.6374,822.381,-0.10296630859375,0.00738525390625,0.99072265625,2.46734619140625,-4.299163818359375,0.979461669921875,0.0,4.0,4.0,4.0,4.0,95.0,event
13:27:40.271,0.0,0.0,0.0,0.0,0.0,0.0,0.0,0.0,0.0,0.0,0.0,0.0,0.0,0.0,0.0,0.0,0.0,0.0,0.0,0.0,821.5751,811.50183,818.3516,809.89014,651.9414,-0.10296630859375,0.00738525390625,0.99072265625,2.46734619140625,-4.299163818359375,0.979461669921875,0.0,4.0,4.0,4.0,4.0,95.0,event
13:27:40.272,0.0,0.0,0.0,0.0,0.0,0.0,0.0,0.0,0.0,0.0,0.0,0.0,0.0,0.0,0.0,0.0,0.0,0.0,0.0,0.0,851.39197,798.60803,822.7839,834.87177,787.72894,-0.10296630859375,0.00738525390625,0.99072265625,2.46734619140625,-4.299163818359375,0.979461669921875,0.0,4.0,4.0,4.0,4.0,95.0,event
13:27:40.303,0.0,0.0,0.0,0.0,0.0,0.0,0.0,0.0,0.0,0.0,0.0,0.0,0.0,0.0,0.0,0.0,0.0,0.0,0.0,0.0,840.9158,793.36993,787.72894,840.10986,868.71796,-0.10296630859375,0.00738525390625,0.99072265625,2.46734619140625,-4.299163818359375,0.979461669921875,0.0,4.0,4.0,4.0,4.0,95.0,event
13:27:40.304,0.0,0.0,0.0,0.0,0.0,0.0,0.0,0.0,0.0,0.0,0.0,0.0,0.0,0.0,0.0,0.0,0.0,0.0,0.0,0.0,798.20514,784.5055,784.90845,817.9487,819.15753,-0.10296630859375,0.00738525390625,0.99072265625,2.46734619140625,-4.299163818359375,0.979461669921875,0.0,4.0,4.0,4.0,4.0,95.0,event
13:27:40.304,0.0,0.0,0.0,0.0,0.0,0.0,0.0,0.0,0.0,0.0,0.0,0.0,0.0,0.0,0.0,0.0,0.0,0.0,0.0,0.0,788.1319,782.0879,798.20514,795.78754,718.4249,-0.10296630859375,0.00738525390625,0.99072265625,2.46734619140625,-4.299163818359375,0.979461669921875,0.0,4.0,4.0,4.0,4.0,95.0,event
13:27:40.305,0.0,0.0,0.0,0.0,0.0,0.0,0.0,0.0,0.0,0.0,0.0,0.0,0.0,0.0,0.0,0.0,0.0,0.0,0.0,0.0,797.3993,789.34064,825.2015,786.52014,755.89746,-0.10296630859375,0.00738525390625,0.99072265625,2.46734619140625,-4.299163818359375,0.979461669921875,0.0,4.0,4.0,4.0,4.0,95.0,event
13:27:40.306,0.0,0.0,0.0,0.0,0.0,0.0,0.0,0.0,0.0,0.0,0.0,0.0,0.0,0.0,0.0,0.0,0.0,0.0,0.0,0.0,801.4286,815.5311,852.6007,791.75824,829.6337,-0.10296630859375,0.00738525390625,0.99072265625,2.46734619140625,-4.299163818359375,0.979461669921875,0.0,4.0,4.0,4.0,4.0,95.0,event
13:27:40.306,0.0,0.0,0.0,0.0,0.0,0.0,0.0,0.0,0.0,0.0,0.0,0.0,0.0,0.0,0.0,0.0,0.0,0.0,0.0,0.0,804.65204,799.81683,827.2161,797.8022,828.8278,-0.10296630859375,0.00738525390625,0.99072265625,2.46734619140625,-4.299163818359375,0.979461669921875,0.0,4.0,4.0,4.0,4.0,95.0,event
13:27:40.307,0.0,0.0,0.0,0.0,0.0,0.0,0.0,0.0,0.0,0.0,0.0,0.0,0.0,0.0,0.0,0.0,0.0,0.0,0.0,0.0,796.5934,790.54944,814.7253,805.05493,795.38464,-0.10296630859375,0.00738525390625,0.99072265625,2.46734619140625,-4.299163818359375,0.979461669921875,0.0,4.0,4.0,4.0,4.0,95.0,event
13:27:40.308,0.0,0.0,0.0,0.0,0.0,0.0,0.0,0.0,0.0,0.0,0.0,0.0,0.0,0.0,0.0,0.0,0.0,0.0,0.0,0.0,821.5751,786.9231,795.78754,811.50183,1021.4286,-0.10296630859375,0.00738525390625,0.99072265625,2.46734619140625,-4.299163818359375,0.979461669921875,0.0,4.0,4.0,4.0,4.0,95.0,event
13:27:40.308,0.0,0.0,0.0,0.0,0.0,0.0,0.0,0.0,0.0,0.0,0.0,0.0,0.0,0.0,0.0,0.0,0.0,0.0,0.0,0.0,804.2491,783.69965,814.3223,811.9048,834.87177,-0.10296630859375,0.00738525390625,0.99072265625,2.46734619140625,-4.299163818359375,0.979461669921875,0.0,4.0,4.0,4.0,4.0,95.0,event
13:27:40.309,0.0,0.0,0.0,0.0,0.0,0.0,0.0,0.0,0.0,0.0,0.0,0.0,0.0,0.0,0.0,0.0,0.0,0.0,0.0,0.0,838.49817,824.3956,795.78754,811.50183,809.89014,-0.10296630859375,0.00738525390625,0.99072265625,2.46734619140625,-4.299163818359375,0.979461669921875,0.0,4.0,4.0,4.0,4.0,95.0,event
13:27:40.309,0.0,0.0,0.0,0.0,0.0,0.0,0.0,0.0,0.0,0.0,0.0,0.0,0.0,0.0,0.0,0.0,0.0,0.0,0.0,0.0,838.0952,793.36993,792.5641,822.381,621.7216,-0.10296630859375,0.00738525390625,0.99072265625,2.46734619140625,-4.299163818359375,0.979461669921875,0.0,4.0,4.0,4.0,4.0,95.0,event
13:27:40.310,0.0,0.0,0.0,0.0,0.0,0.0,0.0,0.0,0.0,0.0,0.0,0.0,0.0,0.0,0.0,0.0,0.0,0.0,0.0,0.0,806.26373,773.6264,795.78754,810.696,713.1868,-0.10296630859375,0.00738525390625,0.99072265625,2.46734619140625,-4.299163818359375,0.979461669921875,0.0,4.0,4.0,4.0,4.0,95.0,event
13:27:40.357,0.0,0.0,0.0,0.0,0.0,0.0,0.0,0.0,0.0,0.0,0.0,0.0,0.0,0.0,0.0,0.0,0.0,0.0,0.0,0.0,769.59705,801.02563,806.6667,776.8498,708.3516,-0.09912109375,0.00439453125,0.98468017578125,2.1234130859375,-3.66363525390625,0.171966552734375,0.0,4.0,4.0,4.0,4.0,95.0,event
13:27:40.359,0.0,0.0,0.0,0.0,0.0,0.0,0.0,0.0,0.0,0.0,0.0,0.0,0.0,0.0,0.0,0.0,0.0,0.0,0.0,0.0,779.2674,801.02563,797.8022,768.3883,712.381,-0.09912109375,0.00439453125,0.98468017578125,2.1234130859375,-3.66363525390625,0.171966552734375,0.0,4.0,4.0,4.0,4.0,95.0,event
13:27:40.360,0.0,0.0,0.0,0.0,0.0,0.0,0.0,0.0,0.0,0.0,0.0,0.0,0.0,0.0,0.0,0.0,0.0,0.0,0.0,0.0,820.7692,786.9231,817.5458,793.36993,778.0586,-0.09912109375,0.00439453125,0.98468017578125,2.1234130859375,-3.66363525390625,0.171966552734375,0.0,4.0,4.0,4.0,4.0,95.0,event
13:27:40.361,0.0,0.0,0.0,0.0,0.0,0.0,0.0,0.0,0.0,0.0,0.0,0.0,0.0,0.0,0.0,0.0,0.0,0.0,0.0,0.0,843.73627,792.96704,821.978,822.381,836.08057,-0.09912109375,0.00439453125,0.98468017578125,2.1234130859375,-3.66363525390625,0.171966552734375,0.0,4.0,4.0,4.0,4.0,95.0,event
13:27:40.362,0.0,0.0,0.0,0.0,0.0,0.0,0.0,0.0,0.0,0.0,0.0,0.0,0.0,0.0,0.0,0.0,0.0,0.0,0.0,0.0,819.9634,792.5641,800.6227,819.15753,830.0366,-0.09912109375,0.00439453125,0.98468017578125,2.1234130859375,-3.66363525390625,0.171966552734375,0.0,4.0,4.0,4.0,4.0,95.0,event
13:27:40.364,0.0,0.0,0.0,0.0,0.0,0.0,0.0,0.0,0.0,0.0,0.0,0.0,0.0,0.0,0.0,0.0,0.0,0.0,0.0,0.0,794.17584,787.72894,820.3663,809.0842,859.45056,-0.09912109375,0.00439453125,0.98468017578125,2.1234130859375,-3.66363525390625,0.171966552734375,0.0,4.0,4.0,4.0,4.0,95.0,event
13:27:40.365,0.0,0.0,0.0,0.0,0.0,0.0,0.0,0.0,0.0,0.0,0.0,0.0,0.0,0.0,0.0,0.0,0.0,0.0,0.0,0.0,811.0989,792.96704,823.9927,801.02563,888.46155,-0.09912109375,0.00439453125,0.98468017578125,2.1234130859375,-3.66363525390625,0.171966552734375,0.0,4.0,4.0,4.0,4.0,95.0,event
13:27:40.367,0.0,0.0,0.0,0.0,0.0,0.0,0.0,0.0,0.0,0.0,0.0,0.0,0.0,0.0,0.0,0.0,0.0,0.0,0.0,0.0,813.5165,763.95605,799.011,786.1172,1096.7766,-0.09912109375,0.00439453125,0.98468017578125,2.1234130859375,-3.66363525390625,0.171966552734375,0.0,4.0,4.0,4.0,4.0,95.0,event
13:27:40.368,0.0,0.0,0.0,0.0,0.0,0.0,0.0,0.0,0.0,0.0,0.0,0.0,0.0,0.0,0.0,0.0,0.0,0.0,0.0,0.0,815.5311,807.47253,798.60803,797.3993,1119.7435,-0.09912109375,0.00439453125,0.98468017578125,2.1234130859375,-3.66363525390625,0.171966552734375,0.0,4.0,4.0,4.0,4.0,95.0,event
13:27:40.369,0.0,0.0,0.0,0.0,0.0,0.0,0.0,0.0,0.0,0.0,0.0,0.0,0.0,0.0,0.0,0.0,0.0,0.0,0.0,0.0,814.3223,816.7399,791.75824,807.0696,775.2381,-0.09912109375,0.00439453125,0.98468017578125,2.1234130859375,-3.66363525390625,0.171966552734375,0.0,4.0,4.0,4.0,4.0,95.0,event
13:27:40.371,0.0,0.0,0.0,0.0,0.0,0.0,0.0,0.0,0.0,0.0,0.0,0.0,0.0,0.0,0.0,0.0,0.0,0.0,0.0,0.0,779.67035,783.69965,796.99634,795.38464,691.8315,-0.09912109375,0.00439453125,0.98468017578125,2.1234130859375,-3.66363525390625,0.171966552734375,0.0,4.0,4.0,4.0,4.0,95.0,event
13:27:40.372,0.0,0.0,0.0,0.0,0.0,0.0,0.0,0.0,0.0,0.0,0.0,0.0,0.0,0.0,0.0,0.0,0.0,0.0,0.0,0.0,797.8022,801.4286,823.5897,784.5055,676.9231,-0.09912109375,0.00439453125,0.98468017578125,2.1234130859375,-3.66363525390625,0.171966552734375,0.0,4.0,4.0,4.0,4.0,95.0,event
13:27:40.425,0.0,0.0,0.0,0.0,0.0,0.0,0.0,0.0,0.0,0.0,0.0,0.0,0.0,0.0,0.0,0.0,0.0,0.0,0.0,0.0,826.4103,805.4579,810.293,795.78754,633.4066,-0.09906005859375,0.003173828125,0.98687744140625,1.98883056640625,-3.63372802734375,0.059814453125,0.0,4.0,4.0,4.0,4.0,95.0,event
13:27:40.426,0.0,0.0,0.0,0.0,0.0,0.0,0.0,0.0,0.0,0.0,0.0,0.0,0.0,0.0,0.0,0.0,0.0,0.0,0.0,0.0,828.4249,792.96704,799.41394,809.4872,689.41394,-0.09906005859375,0.003173828125,0.98687744140625,1.98883056640625,-3.63372802734375,0.059814453125,0.0,4.0,4.0,4.0,4.0,95.0,event
13:27:40.428,0.0,0.0,0.0,0.0,0.0,0.0,0.0,0.0,0.0,0.0,0.0,0.0,0.0,0.0,0.0,0.0,0.0,0.0,0.0,0.0,819.5604,785.31134,829.2308,805.4579,767.1795,-0.09906005859375,0.003173828125,0.98687744140625,1.98883056640625,-3.63372802734375,0.059814453125,0.0,4.0,4.0,4.0,4.0,95.0,event
13:27:40.429,0.0,0.0,0.0,0.0,0.0,0.0,0.0,0.0,0.0,0.0,0.0,0.0,0.0,0.0,0.0,0.0,0.0,0.0,0.0,0.0,800.6227,791.3553,811.50183,807.47253,762.3443,-0.09906005859375,0.003173828125,0.98687744140625,1.98883056640625,-3.63372802734375,0.059814453125,0.0,4.0,4.0,4.0,4.0,95.0,event
13:27:40.430,0.0,0.0,0.0,0.0,0.0,0.0,0.0,0.0,0.0,0.0,0.0,0.0,0.0,0.0,0.0,0.0,0.0,0.0,0.0,0.0,794.9817,789.34064,774.0293,803.44324,730.9158,-0.09906005859375,0.003173828125,0.98687744140625,1.98883056640625,-3.63372802734375,0.059814453125,0.0,4.0,4.0,4.0,4.0,95.0,event
13:27:40.431,0.0,0.0,0.0,0.0,0.0,0.0,0.0,0.0,0.0,0.0,0.0,0.0,0.0,0.0,0.0,0.0,0.0,0.0,0.0,0.0,811.0989,793.7729,810.696,811.50183,796.99634,-0.09906005859375,0.003173828125,0.98687744140625,1.98883056640625,-3.63372802734375,0.059814453125,0.0,4.0,4.0,4.0,4.0,95.0,event
13:27:40.433,0.0,0.0,0.0,0.0,0.0,0.0,0.0,0.0,0.0,0.0,0.0,0.0,0.0,0.0,0.0,0.0,0.0,0.0,0.0,0.0,818.3516,790.54944,844.94507,817.1429,927.1429,-0.09906005859375,0.003173828125,0.98687744140625,1.98883056640625,-3.63372802734375,0.059814453125,0.0,4.0,4.0,4.0,4.0,95.0,event
13:27:40.434,0.0,0.0,0.0,0.0,0.0,0.0,0.0,0.0,0.0,0.0,0.0,0.0,0.0,0.0,0.0,0.0,0.0,0.0,0.0,0.0,797.8022,792.1612,810.293,803.0403,1054.4689,-0.09906005859375,0.003173828125,0.98687744140625,1.98883056640625,-3.63372802734375,0.059814453125,0.0,4.0,4.0,4.0,4.0,95.0,event
13:27:40.435,0.0,0.0,0.0,0.0,0.0,0.0,0.0,0.0,0.0,0.0,0.0,0.0,0.0,0.0,0.0,0.0,0.0,0.0,0.0,0.0,793.7729,804.2491,788.5348,810.293,854.61536,-0.09906005859375,0.003173828125,0.98687744140625,1.98883056640625,-3.63372802734375,0.059814453125,0.0,4.0,4.0,4.0,4.0,95.0,event
13:27:40.436,0.0,0.0,0.0,0.0,0.0,0.0,0.0,0.0,0.0,0.0,0.0,0.0,0.0,0.0,0.0,0.0,0.0,0.0,0.0,0.0,825.2015,793.7729,804.2491,822.381,715.6044,-0.09906005859375,0.003173828125,0.98687744140625,1.98883056640625,-3.63372802734375,0.059814453125,0.0,4.0,4.0,4.0,4.0,95.0,event
13:27:40.437,0.0,0.0,0.0,0.0,0.0,0.0,0.0,0.0,0.0,0.0,0.0,0.0,0.0,0.0,0.0,0.0,0.0,0.0,0.0,0.0,821.5751,786.9231,817.5458,792.5641,842.9304,-0.09906005859375,0.003173828125,0.98687744140625,1.98883056640625,-3.63372802734375,0.059814453125,0.0,4.0,4.0,4.0,4.0,95.0,event
13:27:40.438,0.0,0.0,0.0,0.0,0.0,0.0,0.0,0.0,0.0,0.0,0.0,0.0,0.0,0.0,0.0,0.0,0.0,0.0,0.0,0.0,809.0842,803.44324,834.0659,777.6557,818.3516,-0.09906005859375,0.003173828125,0.98687744140625,1.98883056640625,-3.63372802734375,0.059814453125,0.0,4.0,4.0,4.0,4.0,95.0,event
13:27:40.488,0.0,0.0,0.0,0.0,0.0,0.0,0.0,0.0,0.0,0.0,0.0,0.0,0.0,0.0,0.0,0.0,0.0,0.0,0.0,0.0,809.4872,800.2198,822.7839,797.3993,779.2674,-0.10028076171875,0.00341796875,0.9794921875,2.2430419921875,-3.3795166015625,0.897216796875,0.0,4.0,4.0,4.0,4.0,95.0,event
13:27:40.489,0.0,0.0,0.0,0.0,0.0,0.0,0.0,0.0,0.0,0.0,0.0,0.0,0.0,0.0,0.0,0.0,0.0,0.0,0.0,0.0,798.20514,775.2381,785.7143,803.44324,783.2967,-0.10028076171875,0.00341796875,0.9794921875,2.2430419921875,-3.3795166015625,0.897216796875,0.0,4.0,4.0,4.0,4.0,95.0,event
13:27:40.491,0.0,0.0,0.0,0.0,0.0,0.0,0.0,0.0,0.0,0.0,0.0,0.0,0.0,0.0,0.0,0.0,0.0,0.0,0.0,0.0,801.8315,780.87915,797.8022,795.78754,808.2784,-0.10028076171875,0.00341796875,0.9794921875,2.2430419921875,-3.3795166015625,0.897216796875,0.0,4.0,4.0,4.0,4.0,95.0,event
13:27:40.492,0.0,0.0,0.0,0.0,0.0,0.0,0.0,0.0,0.0,0.0,0.0,0.0,0.0,0.0,0.0,0.0,0.0,0.0,0.0,0.0,822.381,805.8608,832.8571,807.47253,771.6117,-0.10028076171875,0.00341796875,0.9794921875,2.2430419921875,-3.3795166015625,0.897216796875,0.0,4.0,4.0,4.0,4.0,95.0,event
13:27:40.494,0.0,0.0,0.0,0.0,0.0,0.0,0.0,0.0,0.0,0.0,0.0,0.0,0.0,0.0,0.0,0.0,0.0,0.0,0.0,0.0,836.8865,807.8755,820.7692,817.1429,709.5604,-0.10028076171875,0.00341796875,0.9794921875,2.2430419921875,-3.3795166015625,0.897216796875,0.0,4.0,4.0,4.0,4.0,95.0,event
13:27:40.495,0.0,0.0,0.0,0.0,0.0,0.0,0.0,0.0,0.0,0.0,0.0,0.0,0.0,0.0,0.0,0.0,0.0,0.0,0.0,0.0,832.4542,776.4469,803.44324,822.381,812.71063,-0.10028076171875,0.00341796875,0.9794921875,2.2430419921875,-3.3795166015625,0.897216796875,0.0,4.0,4.0,4.0,4.0,95.0,event
13:27:40.496,0.0,0.0,0.0,0.0,0.0,0.0,0.0,0.0,0.0,0.0,0.0,0.0,0.0,0.0,0.0,0.0,0.0,0.0,0.0,0.0,812.71063,753.8828,802.6374,828.022,1027.8755,-0.10028076171875,0.00341796875,0.9794921875,2.2430419921875,-3.3795166015625,0.897216796875,0.0,4.0,4.0,4.0,4.0,95.0,event
13:27:40.498,0.0,0.0,0.0,0.0,0.0,0.0,0.0,0.0,0.0,0.0,0.0,0.0,0.0,0.0,0.0,0.0,0.0,0.0,0.0,0.0,819.9634,801.8315,788.93774,835.6777,907.3993,-0.10028076171875,0.00341796875,0.9794921875,2.2430419921875,-3.3795166015625,0.897216796875,0.0,4.0,4.0,4.0,4.0,95.0,event
13:27:40.499,0.0,0.0,0.0,0.0,0.0,0.0,0.0,0.0,0.0,0.0,0.0,0.0,0.0,0.0,0.0,0.0,0.0,0.0,0.0,0.0,835.6777,797.8022,773.22345,823.9927,695.8608,-0.10028076171875,0.00341796875,0.9794921875,2.2430419921875,-3.3795166015625,0.897216796875,0.0,4.0,4.0,4.0,4.0,95.0,event
13:27:40.500,0.0,0.0,0.0,0.0,0.0,0.0,0.0,0.0,0.0,0.0,0.0,0.0,0.0,0.0,0.0,0.0,0.0,0.0,0.0,0.0,822.7839,775.2381,787.326,803.0403,772.4176,-0.10028076171875,0.00341796875,0.9794921875,2.2430419921875,-3.3795166015625,0.897216796875,0.0,4.0,4.0,4.0,4.0,95.0,event
13:27:40.501,0.0,0.0,0.0,0.0,0.0,0.0,0.0,0.0,0.0,0.0,0.0,0.0,0.0,0.0,0.0,0.0,0.0,0.0,0.0,0.0,805.05493,792.96704,807.8755,802.6374,853.00366,-0.10028076171875,0.00341796875,0.9794921875,2.2430419921875,-3.3795166015625,0.897216796875,0.0,4.0,4.0,4.0,4.0,95.0,event
13:27:40.503,0.0,0.0,0.0,0.0,0.0,0.0,0.0,0.0,0.0,0.0,0.0,0.0,0.0,0.0,0.0,0.0,0.0,0.0,0.0,0.0,788.93774,790.9524,805.8608,805.05493,736.1539,-0.10028076171875,0.00341796875,0.9794921875,2.2430419921875,-3.3795166015625,0.897216796875,0.0,4.0,4.0,4.0,4.0,95.0,event
13:27:40.537,0.0,0.0,0.0,0.0,0.0,0.0,0.0,0.0,0.0,0.0,0.0,0.0,0.0,0.0,0.0,0.0,0.0,0.0,0.0,0.0,798.20514,779.2674,808.68134,810.293,664.43225,-0.109375,0.00567626953125,0.98016357421875,2.071075439453125,-2.968292236328125,-0.082244873046875,0.0,4.0,4.0,4.0,4.0,95.0,event
13:27:40.538,0.0,0.0,0.0,0.0,0.0,0.0,0.0,0.0,0.0,0.0,0.0,0.0,0.0,0.0,0.0,0.0,0.0,0.0,0.0,0.0,821.5751,786.52014,816.7399,819.15753,809.0842,-0.109375,0.00567626953125,0.98016357421875,2.071075439453125,-2.968292236328125,-0.082244873046875,0.0,4.0,4.0,4.0,4.0,95.0,event
13:27:40.542,0.0,0.0,0.0,0.0,0.0,0.0,0.0,0.0,0.0,0.0,0.0,0.0,0.0,0.0,0.0,0.0,0.0,0.0,0.0,0.0,829.6337,810.696,815.5311,827.619,884.0293,-0.109375,0.00567626953125,0.98016357421875,2.071075439453125,-2.968292236328125,-0.082244873046875,0.0,4.0,4.0,4.0,4.0,95.0,event
13:27:40.543,0.0,0.0,0.0,0.0,0.0,0.0,0.0,0.0,0.0,0.0,0.0,0.0,0.0,0.0,0.0,0.0,0.0,0.0,0.0,0.0,813.1135,804.65204,802.6374,820.3663,782.0879,-0.109375,0.00567626953125,0.98016357421875,2.071075439453125,-2.968292236328125,-0.082244873046875,0.0,4.0,4.0,4.0,4.0,95.0,event
13:27:40.544,0.0,0.0,0.0,0.0,0.0,0.0,0.0,0.0,0.0,0.0,0.0,0.0,0.0,0.0,0.0,0.0,0.0,0.0,0.0,0.0,778.86444,780.4762,780.07324,789.7436,679.7436,-0.109375,0.00567626953125,0.98016357421875,2.071075439453125,-2.968292236328125,-0.082244873046875,0.0,4.0,4.0,4.0,4.0,95.0,event
13:27:40.545,0.0,0.0,0.0,0.0,0.0,0.0,0.0,0.0,0.0,0.0,0.0,0.0,0.0,0.0,0.0,0.0,0.0,0.0,0.0,0.0,769.19415,774.83514,799.81683,781.685,789.34064,-0.109375,0.00567626953125,0.98016357421875,2.071075439453125,-2.968292236328125,-0.082244873046875,0.0,4.0,4.0,4.0,4.0,95.0,event
13:27:40.545,0.0,0.0,0.0,0.0,0.0,0.0,0.0,0.0,0.0,0.0,0.0,0.0,0.0,0.0,0.0,0.0,0.0,0.0,0.0,0.0,796.5934,793.36993,813.1135,789.7436,979.12085,-0.109375,0.00567626953125,0.98016357421875,2.071075439453125,-2.968292236328125,-0.082244873046875,0.0,4.0,4.0,4.0,4.0,95.0,event
13:27:40.546,0.0,0.0,0.0,0.0,0.0,0.0,0.0,0.0,0.0,0.0,0.0,0.0,0.0,0.0,0.0,0.0,0.0,0.0,0.0,0.0,825.6044,804.2491,803.8461,801.8315,821.5751,-0.109375,0.00567626953125,0.98016357421875,2.071075439453125,-2.968292236328125,-0.082244873046875,0.0,4.0,4.0,4.0,4.0,95.0,event
13:27:40.546,0.0,0.0,0.0,0.0,0.0,0.0,0.0,0.0,0.0,0.0,0.0,0.0,0.0,0.0,0.0,0.0,0.0,0.0,0.0,0.0,825.2015,797.8022,816.7399,827.2161,717.2161,-0.109375,0.00567626953125,0.98016357421875,2.071075439453125,-2.968292236328125,-0.082244873046875,0.0,4.0,4.0,4.0,4.0,95.0,event
13:27:40.547,0.0,0.0,0.0,0.0,0.0,0.0,0.0,0.0,0.0,0.0,0.0,0.0,0.0,0.0,0.0,0.0,0.0,0.0,0.0,0.0,798.60803,776.4469,817.5458,820.3663,828.8278,-0.109375,0.00567626953125,0.98016357421875,2.071075439453125,-2.968292236328125,-0.082244873046875,0.0,4.0,4.0,4.0,4.0,95.0,event
13:27:40.548,0.0,0.0,0.0,0.0,0.0,0.0,0.0,0.0,0.0,0.0,0.0,0.0,0.0,0.0,0.0,0.0,0.0,0.0,0.0,0.0,786.1172,782.0879,805.8608,805.8608,830.0366,-0.109375,0.00567626953125,0.98016357421875,2.071075439453125,-2.968292236328125,-0.082244873046875,0.0,4.0,4.0,4.0,4.0,95.0,event
13:27:40.548,0.0,0.0,0.0,0.0,0.0,0.0,0.0,0.0,0.0,0.0,0.0,0.0,0.0,0.0,0.0,0.0,0.0,0.0,0.0,0.0,811.9048,796.99634,803.8461,825.2015,738.5714,-0.109375,0.00567626953125,0.98016357421875,2.071075439453125,-2.968292236328125,-0.082244873046875,0.0,4.0,4.0,4.0,4.0,95.0,event
13:27:40.549,0.0,0.0,0.0,0.0,0.0,0.0,0.0,0.0,0.0,0.0,0.0,0.0,0.0,0.0,0.0,0.0,0.0,0.0,0.0,0.0,834.4689,792.1612,775.64105,838.9011,738.1685,-0.109375,0.00567626953125,0.98016357421875,2.071075439453125,-2.968292236328125,-0.082244873046875,0.0,4.0,4.0,4.0,4.0,95.0,event
13:27:40.550,0.0,0.0,0.0,0.0,0.0,0.0,0.0,0.0,0.0,0.0,0.0,0.0,0.0,0.0,0.0,0.0,0.0,0.0,0.0,0.0,827.2161,782.0879,765.16486,837.28937,821.978,-0.109375,0.00567626953125,0.98016357421875,2.071075439453125,-2.968292236328125,-0.082244873046875,0.0,4.0,4.0,4.0,4.0,95.0,event
13:27:40.550,0.0,0.0,0.0,0.0,0.0,0.0,0.0,0.0,0.0,0.0,0.0,0.0,0.0,0.0,0.0,0.0,0.0,0.0,0.0,0.0,794.57874,785.31134,809.0842,815.9341,765.9707,-0.109375,0.00567626953125,0.98016357421875,2.071075439453125,-2.968292236328125,-0.082244873046875,0.0,4.0,4.0,4.0,4.0,95.0,event
13:27:40.551,0.0,0.0,0.0,0.0,0.0,0.0,0.0,0.0,0.0,0.0,0.0,0.0,0.0,0.0,0.0,0.0,0.0,0.0,0.0,0.0,783.2967,792.96704,829.6337,803.44324,717.619,-0.109375,0.00567626953125,0.98016357421875,2.071075439453125,-2.968292236328125,-0.082244873046875,0.0,4.0,4.0,4.0,4.0,95.0,event
13:27:40.551,0.0,0.0,0.0,0.0,0.0,0.0,0.0,0.0,0.0,0.0,0.0,0.0,0.0,0.0,0.0,0.0,0.0,0.0,0.0,0.0,801.4286,784.10254,824.7985,804.65204,794.17584,-0.109375,0.00567626953125,0.98016357421875,2.071075439453125,-2.968292236328125,-0.082244873046875,0.0,4.0,4.0,4.0,4.0,95.0,event
13:27:40.552,0.0,0.0,0.0,0.0,0.0,0.0,0.0,0.0,0.0,0.0,0.0,0.0,0.0,0.0,0.0,0.0,0.0,0.0,0.0,0.0,796.5934,776.8498,821.978,799.41394,1016.99634,-0.109375,0.00567626953125,0.98016357421875,2.071075439453125,-2.968292236328125,-0.082244873046875,0.0,4.0,4.0,4.0,4.0,95.0,event
13:27:40.553,0.0,0.0,0.0,0.0,0.0,0.0,0.0,0.0,0.0,0.0,0.0,0.0,0.0,0.0,0.0,0.0,0.0,0.0,0.0,0.0,800.2198,813.5165,821.1722,811.9048,1060.1099,-0.109375,0.00567626953125,0.98016357421875,2.071075439453125,-2.968292236328125,-0.082244873046875,0.0,4.0,4.0,4.0,4.0,95.0,event
13:27:40.553,0.0,0.0,0.0,0.0,0.0,0.0,0.0,0.0,0.0,0.0,0.0,0.0,0.0,0.0,0.0,0.0,0.0,0.0,0.0,0.0,809.0842,805.8608,821.1722,815.12823,784.5055,-0.109375,0.00567626953125,0.98016357421875,2.071075439453125,-2.968292236328125,-0.082244873046875,0.0,4.0,4.0,4.0,4.0,95.0,event
13:27:40.554,0.0,0.0,0.0,0.0,0.0,0.0,0.0,0.0,0.0,0.0,0.0,0.0,0.0,0.0,0.0,0.0,0.0,0.0,0.0,0.0,783.69965,764.7619,800.6227,798.60803,736.9597,-0.109375,0.00567626953125,0.98016357421875,2.071075439453125,-2.968292236328125,-0.082244873046875,0.0,4.0,4.0,4.0,4.0,95.0,event
13:27:40.555,0.0,0.0,0.0,0.0,0.0,0.0,0.0,0.0,0.0,0.0,0.0,0.0,0.0,0.0,0.0,0.0,0.0,0.0,0.0,0.0,805.05493,780.4762,784.90845,815.12823,828.8278,-0.109375,0.00567626953125,0.98016357421875,2.071075439453125,-2.968292236328125,-0.082244873046875,0.0,4.0,4.0,4.0,4.0,95.0,event
13:27:40.556,0.0,0.0,0.0,0.0,0.0,0.0,0.0,0.0,0.0,0.0,0.0,0.0,0.0,0.0,0.0,0.0,0.0,0.0,0.0,0.0,857.8388,811.50183,779.67035,843.3333,739.7802,-0.109375,0.00567626953125,0.98016357421875,2.071075439453125,-2.968292236328125,-0.082244873046875,0.0,4.0,4.0,4.0,4.0,95.0,event
13:27:40.557,0.0,0.0,0.0,0.0,0.0,0.0,0.0,0.0,0.0,0.0,0.0,0.0,0.0,0.0,0.0,0.0,0.0,0.0,0.0,0.0,859.0476,797.3993,775.2381,849.7802,772.8205,-0.109375,0.00567626953125,0.98016357421875,2.071075439453125,-2.968292236328125,-0.082244873046875,0.0,4.0,4.0,4.0,4.0,95.0,event
13:27:40.604,0.0,0.0,0.0,0.0,0.0,0.0,0.0,0.0,0.0,0.0,0.0,0.0,0.0,0.0,0.0,0.0,0.0,0.0,0.0,0.0,857.4359,782.8938,801.4286,854.21246,861.06226,-0.105224609375,0.00384521484375,0.98577880859375,1.951446533203125,-3.536529541015625,-0.07476806640625,0.0,4.0,4.0,4.0,4.0,95.0,event
13:27:40.605,0.0,0.0,0.0,0.0,0.0,0.0,0.0,0.0,0.0,0.0,0.0,0.0,0.0,0.0,0.0,0.0,0.0,0.0,0.0,0.0,824.3956,795.78754,828.022,826.8132,819.9634,-0.105224609375,0.00384521484375,0.98577880859375,1.951446533203125,-3.536529541015625,-0.07476806640625,0.0,4.0,4.0,4.0,4.0,95.0,event
13:27:40.605,0.0,0.0,0.0,0.0,0.0,0.0,0.0,0.0,0.0,0.0,0.0,0.0,0.0,0.0,0.0,0.0,0.0,0.0,0.0,0.0,793.7729,807.0696,836.4835,787.72894,732.9304,-0.105224609375,0.00384521484375,0.98577880859375,1.951446533203125,-3.536529541015625,-0.07476806640625,0.0,4.0,4.0,4.0,4.0,95.0,event
13:27:40.606,0.0,0.0,0.0,0.0,0.0,0.0,0.0,0.0,0.0,0.0,0.0,0.0,0.0,0.0,0.0,0.0,0.0,0.0,0.0,0.0,814.7253,792.5641,819.15753,788.1319,665.2381,-0.105224609375,0.00384521484375,0.98577880859375,1.951446533203125,-3.536529541015625,-0.07476806640625,0.0,4.0,4.0,4.0,4.0,95.0,event
13:27:40.609,0.0,0.0,0.0,0.0,0.0,0.0,0.0,0.0,0.0,0.0,0.0,0.0,0.0,0.0,0.0,0.0,0.0,0.0,0.0,0.0,816.337,784.10254,790.54944,811.50183,839.707,-0.105224609375,0.00384521484375,0.98577880859375,1.951446533203125,-3.536529541015625,-0.07476806640625,0.0,4.0,4.0,4.0,4.0,95.0,event
13:27:40.609,0.0,0.0,0.0,0.0,0.0,0.0,0.0,0.0,0.0,0.0,0.0,0.0,0.0,0.0,0.0,0.0,0.0,0.0,0.0,0.0,823.1868,786.52014,771.2088,830.0366,1010.14655,-0.105224609375,0.00384521484375,0.98577880859375,1.951446533203125,-3.536529541015625,-0.07476806640625,0.0,4.0,4.0,4.0,4.0,95.0,event
13:27:40.610,0.0,0.0,0.0,0.0,0.0,0.0,0.0,0.0,0.0,0.0,0.0,0.0,0.0,0.0,0.0,0.0,0.0,0.0,0.0,0.0,855.42126,776.04395,804.65204,834.87177,922.71063,-0.105224609375,0.00384521484375,0.98577880859375,1.951446533203125,-3.536529541015625,-0.07476806640625,0.0,4.0,4.0,4.0,4.0,95.0,event
13:27:40.611,0.0,0.0,0.0,0.0,0.0,0.0,0.0,0.0,0.0,0.0,0.0,0.0,0.0,0.0,0.0,0.0,0.0,0.0,0.0,0.0,861.8681,797.8022,831.6484,855.42126,1096.3737,-0.105224609375,0.00384521484375,0.98577880859375,1.951446533203125,-3.536529541015625,-0.07476806640625,0.0,4.0,4.0,4.0,4.0,95.0,event
13:27:40.611,0.0,0.0,0.0,0.0,0.0,0.0,0.0,0.0,0.0,0.0,0.0,0.0,0.0,0.0,0.0,0.0,0.0,0.0,0.0,0.0,853.4066,821.1722,823.5897,855.42126,933.5897,-0.105224609375,0.00384521484375,0.98577880859375,1.951446533203125,-3.536529541015625,-0.07476806640625,0.0,4.0,4.0,4.0,4.0,95.0,event
13:27:40.612,0.0,0.0,0.0,0.0,0.0,0.0,0.0,0.0,0.0,0.0,0.0,0.0,0.0,0.0,0.0,0.0,0.0,0.0,0.0,0.0,786.9231,771.6117,791.3553,784.90845,846.9597,-0.105224609375,0.00384521484375,0.98577880859375,1.951446533203125,-3.536529541015625,-0.07476806640625,0.0,4.0,4.0,4.0,4.0,95.0,event
13:27:40.612,0.0,0.0,0.0,0.0,0.0,0.0,0.0,0.0,0.0,0.0,0.0,0.0,0.0,0.0,0.0,0.0,0.0,0.0,0.0,0.0,825.2015,785.7143,813.5165,814.3223,733.73627,-0.105224609375,0.00384521484375,0.98577880859375,1.951446533203125,-3.536529541015625,-0.07476806640625,0.0,4.0,4.0,4.0,4.0,95.0,event
13:27:40.613,0.0,0.0,0.0,0.0,0.0,0.0,0.0,0.0,0.0,0.0,0.0,0.0,0.0,0.0,0.0,0.0,0.0,0.0,0.0,0.0,820.7692,794.17584,786.9231,807.47253,780.07324,-0.105224609375,0.00384521484375,0.98577880859375,1.951446533203125,-3.536529541015625,-0.07476806640625,0.0,4.0,4.0,4.0,4.0,95.0,event
13:27:40.655,0.0,0.0,0.0,0.0,0.0,0.0,0.0,0.0,0.0,0.0,0.0,0.0,0.0,0.0,0.0,0.0,0.0,0.0,0.0,0.0,851.79486,801.4286,808.2784,826.0073,716.4103,-0.10357666015625,0.000732421875,0.9783935546875,1.996307373046875,-4.14215087890625,0.25421142578125,0.0,4.0,4.0,4.0,4.0,95.0,event
13:27:40.656,0.0,0.0,0.0,0.0,0.0,0.0,0.0,0.0,0.0,0.0,0.0,0.0,0.0,0.0,0.0,0.0,0.0,0.0,0.0,0.0,827.2161,790.14655,817.5458,820.3663,796.1905,-0.10357666015625,0.000732421875,0.9783935546875,1.996307373046875,-4.14215087890625,0.25421142578125,0.0,4.0,4.0,4.0,4.0,95.0,event
13:27:40.657,0.0,0.0,0.0,0.0,0.0,0.0,0.0,0.0,0.0,0.0,0.0,0.0,0.0,0.0,0.0,0.0,0.0,0.0,0.0,0.0,824.7985,783.69965,811.0989,834.87177,796.5934,-0.10357666015625,0.000732421875,0.9783935546875,1.996307373046875,-4.14215087890625,0.25421142578125,0.0,4.0,4.0,4.0,4.0,95.0,event
13:27:40.658,0.0,0.0,0.0,0.0,0.0,0.0,0.0,0.0,0.0,0.0,0.0,0.0,0.0,0.0,0.0,0.0,0.0,0.0,0.0,0.0,843.3333,796.99634,805.4579,852.6007,711.978,-0.10357666015625,0.000732421875,0.9783935546875,1.996307373046875,-4.14215087890625,0.25421142578125,0.0,4.0,4.0,4.0,4.0,95.0,event
13:27:40.659,0.0,0.0,0.0,0.0,0.0,0.0,0.0,0.0,0.0,0.0,0.0,0.0,0.0,0.0,0.0,0.0,0.0,0.0,0.0,0.0,858.6447,804.2491,803.0403,846.1539,662.4176,-0.10357666015625,0.000732421875,0.9783935546875,1.996307373046875,-4.14215087890625,0.25421142578125,0.0,4.0,4.0,4.0,4.0,95.0,event
13:27:40.661,0.0,0.0,0.0,0.0,0.0,0.0,0.0,0.0,0.0,0.0,0.0,0.0,0.0,0.0,0.0,0.0,0.0,0.0,0.0,0.0,872.74725,778.0586,783.69965,849.3773,819.15753,-0.10357666015625,0.000732421875,0.9783935546875,1.996307373046875,-4.14215087890625,0.25421142578125,0.0,4.0,4.0,4.0,4.0,95.0,event
13:27:40.662,0.0,0.0,0.0,0.0,0.0,0.0,0.0,0.0,0.0,0.0,0.0,0.0,0.0,0.0,0.0,0.0,0.0,0.0,0.0,0.0,879.59705,758.315,772.8205,877.5824,1082.2711,-0.10357666015625,0.000732421875,0.9783935546875,1.996307373046875,-4.14215087890625,0.25421142578125,0.0,4.0,4.0,4.0,4.0,95.0,event
13:27:40.663,0.0,0.0,0.0,0.0,0.0,0.0,0.0,0.0,0.0,0.0,0.0,0.0,0.0,0.0,0.0,0.0,0.0,0.0,0.0,0.0,826.0073,795.78754,800.6227,842.52747,934.7985,-0.10357666015625,0.000732421875,0.9783935546875,1.996307373046875,-4.14215087890625,0.25421142578125,0.0,4.0,4.0,4.0,4.0,95.0,event
13:27:40.664,0.0,0.0,0.0,0.0,0.0,0.0,0.0,0.0,0.0,0.0,0.0,0.0,0.0,0.0,0.0,0.0,0.0,0.0,0.0,0.0,791.75824,801.4286,826.8132,802.23444,735.34796,-0.10357666015625,0.000732421875,0.9783935546875,1.996307373046875,-4.14215087890625,0.25421142578125,0.0,4.0,4.0,4.0,4.0,95.0,event
13:27:40.665,0.0,0.0,0.0,0.0,0.0,0.0,0.0,0.0,0.0,0.0,0.0,0.0,0.0,0.0,0.0,0.0,0.0,0.0,0.0,0.0,813.5165,806.6667,819.15753,793.36993,866.7033,-0.10357666015625,0.000732421875,0.9783935546875,1.996307373046875,-4.14215087890625,0.25421142578125,0.0,4.0,4.0,4.0,4.0,95.0,event
13:27:40.665,0.0,0.0,0.0,0.0,0.0,0.0,0.0,0.0,0.0,0.0,0.0,0.0,0.0,0.0,0.0,0.0,0.0,0.0,0.0,0.0,809.4872,796.5934,828.4249,799.011,780.07324,-0.10357666015625,0.000732421875,0.9783935546875,1.996307373046875,-4.14215087890625,0.25421142578125,0.0,4.0,4.0,4.0,4.0,95.0,event
13:27:40.666,0.0,0.0,0.0,0.0,0.0,0.0,0.0,0.0,0.0,0.0,0.0,0.0,0.0,0.0,0.0,0.0,0.0,0.0,0.0,0.0,823.9927,799.41394,827.2161,819.9634,770.0,-0.10357666015625,0.000732421875,0.9783935546875,1.996307373046875,-4.14215087890625,0.25421142578125,0.0,4.0,4.0,4.0,4.0,95.0,event
13:27:40.703,0.0,0.0,0.0,0.0,0.0,0.0,0.0,0.0,0.0,0.0,0.0,0.0,0.0,0.0,0.0,0.0,0.0,0.0,0.0,0.0,804.65204,784.5055,826.8132,821.978,659.19415,-0.09918212890625,0.0078125,0.98553466796875,2.19818115234375,-4.5758056640625,0.007476806640625,0.0,4.0,4.0,4.0,4.0,95.0,event
13:27:40.704,0.0,0.0,0.0,0.0,0.0,0.0,0.0,0.0,0.0,0.0,0.0,0.0,0.0,0.0,0.0,0.0,0.0,0.0,0.0,0.0,791.3553,772.4176,800.2198,803.8461,649.92676,-0.09918212890625,0.0078125,0.98553466796875,2.19818115234375,-4.5758056640625,0.007476806640625,0.0,4.0,4.0,4.0,4.0,95.0,event
13:27:40.704,0.0,0.0,0.0,0.0,0.0,0.0,0.0,0.0,0.0,0.0,0.0,0.0,0.0,0.0,0.0,0.0,0.0,0.0,0.0,0.0,821.978,781.685,799.011,818.3516,703.5165,-0.09918212890625,0.0078125,0.98553466796875,2.19818115234375,-4.5758056640625,0.007476806640625,0.0,4.0,4.0,4.0,4.0,95.0,event
13:27:40.705,0.0,0.0,0.0,0.0,0.0,0.0,0.0,0.0,0.0,0.0,0.0,0.0,0.0,0.0,0.0,0.0,0.0,0.0,0.0,0.0,839.304,800.6227,809.0842,828.022,718.4249,-0.09918212890625,0.0078125,0.98553466796875,2.19818115234375,-4.5758056640625,0.007476806640625,0.0,4.0,4.0,4.0,4.0,95.0,event
13:27:40.706,0.0,0.0,0.0,0.0,0.0,0.0,0.0,0.0,0.0,0.0,0.0,0.0,0.0,0.0,0.0,0.0,0.0,0.0,0.0,0.0,852.6007,792.1612,811.0989,850.989,674.10254,-0.09918212890625,0.0078125,0.98553466796875,2.19818115234375,-4.5758056640625,0.007476806640625,0.0,4.0,4.0,4.0,4.0,95.0,event
13:27:40.706,0.0,0.0,0.0,0.0,0.0,0.0,0.0,0.0,0.0,0.0,0.0,0.0,0.0,0.0,0.0,0.0,0.0,0.0,0.0,0.0,837.6923,759.5238,809.0842,845.34796,901.75824,-0.09918212890625,0.0078125,0.98553466796875,2.19818115234375,-4.5758056640625,0.007476806640625,0.0,4.0,4.0,4.0,4.0,95.0,event
13:27:40.710,0.0,0.0,0.0,0.0,0.0,0.0,0.0,0.0,0.0,0.0,0.0,0.0,0.0,0.0,0.0,0.0,0.0,0.0,0.0,0.0,786.52014,781.28204,795.38464,806.6667,1050.0366,-0.09918212890625,0.0078125,0.98553466796875,2.19818115234375,-4.5758056640625,0.007476806640625,0.0,4.0,4.0,4.0,4.0,95.0,event
13:27:40.710,0.0,0.0,0.0,0.0,0.0,0.0,0.0,0.0,0.0,0.0,0.0,0.0,0.0,0.0,0.0,0.0,0.0,0.0,0.0,0.0,807.47253,809.89014,803.0403,813.1135,782.0879,-0.09918212890625,0.0078125,0.98553466796875,2.19818115234375,-4.5758056640625,0.007476806640625,0.0,4.0,4.0,4.0,4.0,95.0,event
13:27:40.711,0.0,0.0,0.0,0.0,0.0,0.0,0.0,0.0,0.0,0.0,0.0,0.0,0.0,0.0,0.0,0.0,0.0,0.0,0.0,0.0,832.0513,787.72894,808.68134,826.8132,668.86444,-0.09918212890625,0.0078125,0.98553466796875,2.19818115234375,-4.5758056640625,0.007476806640625,0.0,4.0,4.0,4.0,4.0,95.0,event
13:27:40.712,0.0,0.0,0.0,0.0,0.0,0.0,0.0,0.0,0.0,0.0,0.0,0.0,0.0,0.0,0.0,0.0,0.0,0.0,0.0,0.0,800.6227,779.67035,805.4579,819.9634,792.5641,-0.09918212890625,0.0078125,0.98553466796875,2.19818115234375,-4.5758056640625,0.007476806640625,0.0,4.0,4.0,4.0,4.0,95.0,event
13:27:40.712,0.0,0.0,0.0,0.0,0.0,0.0,0.0,0.0,0.0,0.0,0.0,0.0,0.0,0.0,0.0,0.0,0.0,0.0,0.0,0.0,824.3956,764.35895,790.14655,828.8278,796.99634,-0.09918212890625,0.0078125,0.98553466796875,2.19818115234375,-4.5758056640625,0.007476806640625,0.0,4.0,4.0,4.0,4.0,95.0,event
13:27:40.713,0.0,0.0,0.0,0.0,0.0,0.0,0.0,0.0,0.0,0.0,0.0,0.0,0.0,0.0,0.0,0.0,0.0,0.0,0.0,0.0,791.3553,783.2967,821.5751,807.47253,771.2088,-0.09918212890625,0.0078125,0.98553466796875,2.19818115234375,-4.5758056640625,0.007476806640625,0.0,4.0,4.0,4.0,4.0,95.0,event
13:27:40.755,0.0,0.0,0.0,0.0,0.0,0.0,0.0,0.0,0.0,0.0,0.0,0.0,0.0,0.0,0.0,0.0,0.0,0.0,0.0,0.0,819.5604,788.93774,832.4542,816.337,763.5531,-0.09735107421875,0.00372314453125,0.98345947265625,2.03369140625,-4.224395751953125,0.16448974609375,0.0,4.0,4.0,4.0,4.0,95.0,event
13:27:40.757,0.0,0.0,0.0,0.0,0.0,0.0,0.0,0.0,0.0,0.0,0.0,0.0,0.0,0.0,0.0,0.0,0.0,0.0,0.0,0.0,848.97437,786.1172,842.1245,838.49817,805.4579,-0.09735107421875,0.00372314453125,0.98345947265625,2.03369140625,-4.224395751953125,0.16448974609375,0.0,4.0,4.0,4.0,4.0,95.0,event
13:27:40.758,0.0,0.0,0.0,0.0,0.0,0.0,0.0,0.0,0.0,0.0,0.0,0.0,0.0,0.0,0.0,0.0,0.0,0.0,0.0,0.0,863.47986,797.8022,829.2308,858.24176,835.2747,-0.09735107421875,0.00372314453125,0.98345947265625,2.03369140625,-4.224395751953125,0.16448974609375,0.0,4.0,4.0,4.0,4.0,95.0,event
13:27:40.759,0.0,0.0,0.0,0.0,0.0,0.0,0.0,0.0,0.0,0.0,0.0,0.0,0.0,0.0,0.0,0.0,0.0,0.0,0.0,0.0,830.84247,792.1612,819.9634,843.3333,771.2088,-0.09735107421875,0.00372314453125,0.98345947265625,2.03369140625,-4.224395751953125,0.16448974609375,0.0,4.0,4.0,4.0,4.0,95.0,event
13:27:40.760,0.0,0.0,0.0,0.0,0.0,0.0,0.0,0.0,0.0,0.0,0.0,0.0,0.0,0.0,0.0,0.0,0.0,0.0,0.0,0.0,784.90845,772.8205,804.65204,808.2784,766.3736,-0.09735107421875,0.00372314453125,0.98345947265625,2.03369140625,-4.224395751953125,0.16448974609375,0.0,4.0,4.0,4.0,4.0,95.0,event
13:27:40.761,0.0,0.0,0.0,0.0,0.0,0.0,0.0,0.0,0.0,0.0,0.0,0.0,0.0,0.0,0.0,0.0,0.0,0.0,0.0,0.0,791.3553,778.46155,793.36993,792.1612,858.24176,-0.09735107421875,0.00372314453125,0.98345947265625,2.03369140625,-4.224395751953125,0.16448974609375,0.0,4.0,4.0,4.0,4.0,95.0,event
13:27:40.763,0.0,0.0,0.0,0.0,0.0,0.0,0.0,0.0,0.0,0.0,0.0,0.0,0.0,0.0,0.0,0.0,0.0,0.0,0.0,0.0,821.978,794.9817,782.0879,806.6667,844.94507,-0.09735107421875,0.00372314453125,0.98345947265625,2.03369140625,-4.224395751953125,0.16448974609375,0.0,4.0,4.0,4.0,4.0,95.0,event
13:27:40.764,0.0,0.0,0.0,0.0,0.0,0.0,0.0,0.0,0.0,0.0,0.0,0.0,0.0,0.0,0.0,0.0,0.0,0.0,0.0,0.0,851.79486,772.01465,796.1905,845.7509,797.8022,-0.09735107421875,0.00372314453125,0.98345947265625,2.03369140625,-4.224395751953125,0.16448974609375,0.0,4.0,4.0,4.0,4.0,95.0,event
13:27:40.764,0.0,0.0,0.0,0.0,0.0,0.0,0.0,0.0,0.0,0.0,0.0,0.0,0.0,0.0,0.0,0.0,0.0,0.0,0.0,0.0,857.03296,808.68134,790.54944,838.0952,772.01465,-0.09735107421875,0.00372314453125,0.98345947265625,2.03369140625,-4.224395751953125,0.16448974609375,0.0,4.0,4.0,4.0,4.0,95.0,event
13:27:40.765,0.0,0.0,0.0,0.0,0.0,0.0,0.0,0.0,0.0,0.0,0.0,0.0,0.0,0.0,0.0,0.0,0.0,0.0,0.0,0.0,803.44324,761.9414,799.41394,830.4396,952.9304,-0.09735107421875,0.00372314453125,0.98345947265625,2.03369140625,-4.224395751953125,0.16448974609375,0.0,4.0,4.0,4.0,4.0,95.0,event
13:27:40.766,0.0,0.0,0.0,0.0,0.0,0.0,0.0,0.0,0.0,0.0,0.0,0.0,0.0,0.0,0.0,0.0,0.0,0.0,0.0,0.0,813.5165,794.57874,809.0842,797.3993,670.07324,-0.09735107421875,0.00372314453125,0.98345947265625,2.03369140625,-4.224395751953125,0.16448974609375,0.0,4.0,4.0,4.0,4.0,95.0,event
13:27:40.766,0.0,0.0,0.0,0.0,0.0,0.0,0.0,0.0,0.0,0.0,0.0,0.0,0.0,0.0,0.0,0.0,0.0,0.0,0.0,0.0,794.17584,806.26373,809.89014,804.65204,799.41394,-0.09735107421875,0.00372314453125,0.98345947265625,2.03369140625,-4.224395751953125,0.16448974609375,0.0,4.0,4.0,4.0,4.0,95.0,event
13:27:40.806,0.0,0.0,0.0,0.0,0.0,0.0,0.0,0.0,0.0,0.0,0.0,0.0,0.0,0.0,0.0,0.0,0.0,0.0,0.0,0.0,825.6044,780.4762,817.9487,813.1135,761.9414,-0.09735107421875,0.00372314453125,0.98345947265625,2.03369140625,-4.224395751953125,0.16448974609375,0.0,4.0,4.0,4.0,4.0,95.0,event
13:27:40.808,0.0,0.0,0.0,0.0,0.0,0.0,0.0,0.0,0.0,0.0,0.0,0.0,0.0,0.0,0.0,0.0,0.0,0.0,0.0,0.0,818.7546,782.49084,810.696,830.4396,745.42126,-0.09735107421875,0.00372314453125,0.98345947265625,2.03369140625,-4.224395751953125,0.16448974609375,0.0,4.0,4.0,4.0,4.0,95.0,event
13:27:40.809,0.0,0.0,0.0,0.0,0.0,0.0,0.0,0.0,0.0,0.0,0.0,0.0,0.0,0.0,0.0,0.0,0.0,0.0,0.0,0.0,800.6227,777.6557,784.5055,818.7546,723.663,-0.09735107421875,0.00372314453125,0.98345947265625,2.03369140625,-4.224395751953125,0.16448974609375,0.0,4.0,4.0,4.0,4.0,95.0,event
13:27:40.810,0.0,0.0,0.0,0.0,0.0,0.0,0.0,0.0,0.0,0.0,0.0,0.0,0.0,0.0,0.0,0.0,0.0,0.0,0.0,0.0,792.5641,792.96704,792.1612,790.9524,740.18317,-0.09735107421875,0.00372314453125,0.98345947265625,2.03369140625,-4.224395751953125,0.16448974609375,0.0,4.0,4.0,4.0,4.0,95.0,event
13:27:40.811,0.0,0.0,0.0,0.0,0.0,0.0,0.0,0.0,0.0,0.0,0.0,0.0,0.0,0.0,0.0,0.0,0.0,0.0,0.0,0.0,815.9341,786.1172,810.696,798.60803,825.6044,-0.09735107421875,0.00372314453125,0.98345947265625,2.03369140625,-4.224395751953125,0.16448974609375,0.0,4.0,4.0,4.0,4.0,95.0,event
13:27:40.812,0.0,0.0,0.0,0.0,0.0,0.0,0.0,0.0,0.0,0.0,0.0,0.0,0.0,0.0,0.0,0.0,0.0,0.0,0.0,0.0,821.1722,786.52014,803.0403,805.05493,906.5934,-0.09735107421875,0.00372314453125,0.98345947265625,2.03369140625,-4.224395751953125,0.16448974609375,0.0,4.0,4.0,4.0,4.0,95.0,event
13:27:40.814,0.0,0.0,0.0,0.0,0.0,0.0,0.0,0.0,0.0,0.0,0.0,0.0,0.0,0.0,0.0,0.0,0.0,0.0,0.0,0.0,809.89014,799.41394,803.44324,805.8608,875.56775,-0.09735107421875,0.00372314453125,0.98345947265625,2.03369140625,-4.224395751953125,0.16448974609375,0.0,4.0,4.0,4.0,4.0,95.0,event
13:27:40.815,0.0,0.0,0.0,0.0,0.0,0.0,0.0,0.0,0.0,0.0,0.0,0.0,0.0,0.0,0.0,0.0,0.0,0.0,0.0,0.0,781.685,785.7143,794.57874,786.52014,788.1319,-0.09735107421875,0.00372314453125,0.98345947265625,2.03369140625,-4.224395751953125,0.16448974609375,0.0,4.0,4.0,4.0,4.0,95.0,event
13:27:40.818,0.0,0.0,0.0,0.0,0.0,0.0,0.0,0.0,0.0,0.0,0.0,0.0,0.0,0.0,0.0,0.0,0.0,0.0,0.0,0.0,757.1062,759.92676,785.31134,761.53845,849.3773,-0.09735107421875,0.00372314453125,0.98345947265625,2.03369140625,-4.224395751953125,0.16448974609375,0.0,4.0,4.0,4.0,4.0,95.0,event
13:27:40.819,0.0,0.0,0.0,0.0,0.0,0.0,0.0,0.0,0.0,0.0,0.0,0.0,0.0,0.0,0.0,0.0,0.0,0.0,0.0,0.0,790.9524,794.9817,793.36993,777.6557,992.4176,-0.09735107421875,0.00372314453125,0.98345947265625,2.03369140625,-4.224395751953125,0.16448974609375,0.0,4.0,4.0,4.0,4.0,95.0,event
13:27:40.820,0.0,0.0,0.0,0.0,0.0,0.0,0.0,0.0,0.0,0.0,0.0,0.0,0.0,0.0,0.0,0.0,0.0,0.0,0.0,0.0,814.3223,780.07324,812.71063,817.1429,796.99634,-0.09735107421875,0.00372314453125,0.98345947265625,2.03369140625,-4.224395751953125,0.16448974609375,0.0,4.0,4.0,4.0,4.0,95.0,event
13:27:40.820,0.0,0.0,0.0,0.0,0.0,0.0,0.0,0.0,0.0,0.0,0.0,0.0,0.0,0.0,0.0,0.0,0.0,0.0,0.0,0.0,830.84247,813.1135,799.011,801.4286,866.7033,-0.09735107421875,0.00372314453125,0.98345947265625,2.03369140625,-4.224395751953125,0.16448974609375,0.0,4.0,4.0,4.0,4.0,95.0,event
13:27:40.853,0.0,0.0,0.0,0.0,0.0,0.0,0.0,0.0,0.0,0.0,0.0,0.0,0.0,0.0,0.0,0.0,0.0,0.0,0.0,0.0,780.07324,768.3883,810.696,804.65204,813.91943,-0.09930419921875,0.00311279296875,0.9830322265625,2.086029052734375,-3.611297607421875,0.231781005859375,0.0,4.0,4.0,4.0,4.0,95.0,event
13:27:40.854,0.0,0.0,0.0,0.0,0.0,0.0,0.0,0.0,0.0,0.0,0.0,0.0,0.0,0.0,0.0,0.0,0.0,0.0,0.0,0.0,774.0293,780.07324,795.78754,790.14655,757.50916,-0.09930419921875,0.00311279296875,0.9830322265625,2.086029052734375,-3.611297607421875,0.231781005859375,0.0,4.0,4.0,4.0,4.0,95.0,event
13:27:40.855,0.0,0.0,0.0,0.0,0.0,0.0,0.0,0.0,0.0,0.0,0.0,0.0,0.0,0.0,0.0,0.0,0.0,0.0,0.0,0.0,803.44324,790.54944,787.72894,797.3993,674.90845,-0.09930419921875,0.00311279296875,0.9830322265625,2.086029052734375,-3.611297607421875,0.231781005859375,0.0,4.0,4.0,4.0,4.0,95.0,event
13:27:40.856,0.0,0.0,0.0,0.0,0.0,0.0,0.0,0.0,0.0,0.0,0.0,0.0,0.0,0.0,0.0,0.0,0.0,0.0,0.0,0.0,816.7399,785.7143,800.2198,809.4872,733.73627,-0.09930419921875,0.00311279296875,0.9830322265625,2.086029052734375,-3.611297607421875,0.231781005859375,0.0,4.0,4.0,4.0,4.0,95.0,event
13:27:40.856,0.0,0.0,0.0,0.0,0.0,0.0,0.0,0.0,0.0,0.0,0.0,0.0,0.0,0.0,0.0,0.0,0.0,0.0,0.0,0.0,799.81683,784.10254,811.0989,809.89014,826.4103,-0.09930419921875,0.00311279296875,0.9830322265625,2.086029052734375,-3.611297607421875,0.231781005859375,0.0,4.0,4.0,4.0,4.0,95.0,event
13:27:40.857,0.0,0.0,0.0,0.0,0.0,0.0,0.0,0.0,0.0,0.0,0.0,0.0,0.0,0.0,0.0,0.0,0.0,0.0,0.0,0.0,769.19415,778.86444,787.326,795.78754,820.3663,-0.09930419921875,0.00311279296875,0.9830322265625,2.086029052734375,-3.611297607421875,0.231781005859375,0.0,4.0,4.0,4.0,4.0,95.0,event
13:27:40.857,0.0,0.0,0.0,0.0,0.0,0.0,0.0,0.0,0.0,0.0,0.0,0.0,0.0,0.0,0.0,0.0,0.0,0.0,0.0,0.0,774.83514,790.54944,802.6374,786.9231,796.5934,-0.09930419921875,0.00311279296875,0.9830322265625,2.086029052734375,-3.611297607421875,0.231781005859375,0.0,4.0,4.0,4.0,4.0,95.0,event
13:27:40.858,0.0,0.0,0.0,0.0,0.0,0.0,0.0,0.0,0.0,0.0,0.0,0.0,0.0,0.0,0.0,0.0,0.0,0.0,0.0,0.0,793.36993,791.75824,808.68134,789.7436,772.01465,-0.09930419921875,0.00311279296875,0.9830322265625,2.086029052734375,-3.611297607421875,0.231781005859375,0.0,4.0,4.0,4.0,4.0,95.0,event
13:27:40.859,0.0,0.0,0.0,0.0,0.0,0.0,0.0,0.0,0.0,0.0,0.0,0.0,0.0,0.0,0.0,0.0,0.0,0.0,0.0,0.0,811.9048,768.7912,804.2491,809.4872,1002.8938,-0.09930419921875,0.00311279296875,0.9830322265625,2.086029052734375,-3.611297607421875,0.231781005859375,0.0,4.0,4.0,4.0,4.0,95.0,event
13:27:40.859,0.0,0.0,0.0,0.0,0.0,0.0,0.0,0.0,0.0,0.0,0.0,0.0,0.0,0.0,0.0,0.0,0.0,0.0,0.0,0.0,834.0659,811.9048,810.293,838.49817,1066.5568,-0.09930419921875,0.00311279296875,0.9830322265625,2.086029052734375,-3.611297607421875,0.231781005859375,0.0,4.0,4.0,4.0,4.0,95.0,event
13:27:40.860,0.0,0.0,0.0,0.0,0.0,0.0,0.0,0.0,0.0,0.0,0.0,0.0,0.0,0.0,0.0,0.0,0.0,0.0,0.0,0.0,823.1868,802.23444,813.5165,850.58606,850.989,-0.09930419921875,0.00311279296875,0.9830322265625,2.086029052734375,-3.611297607421875,0.231781005859375,0.0,4.0,4.0,4.0,4.0,95.0,event
13:27:40.861,0.0,0.0,0.0,0.0,0.0,0.0,0.0,0.0,0.0,0.0,0.0,0.0,0.0,0.0,0.0,0.0,0.0,0.0,0.0,0.0,813.5165,770.0,796.5934,842.52747,765.16486,-0.09930419921875,0.00311279296875,0.9830322265625,2.086029052734375,-3.611297607421875,0.231781005859375,0.0,4.0,4.0,4.0,4.0,95.0,event
13:27:40.906,0.0,0.0,0.0,0.0,0.0,0.0,0.0,0.0,0.0,0.0,0.0,0.0,0.0,0.0,0.0,0.0,0.0,0.0,0.0,0.0,812.3077,793.7729,781.28204,813.91943,757.1062,-0.0977783203125,0.0032958984375,0.9825439453125,1.981353759765625,-3.828125,0.3289794921875,0.0,4.0,4.0,4.0,4.0,95.0,event
13:27:40.907,0.0,0.0,0.0,0.0,0.0,0.0,0.0,0.0,0.0,0.0,0.0,0.0,0.0,0.0,0.0,0.0,0.0,0.0,0.0,0.0,794.57874,800.6227,800.6227,790.9524,722.4542,-0.0977783203125,0.0032958984375,0.9825439453125,1.981353759765625,-3.828125,0.3289794921875,0.0,4.0,4.0,4.0,4.0,95.0,event
13:27:40.909,0.0,0.0,0.0,0.0,0.0,0.0,0.0,0.0,0.0,0.0,0.0,0.0,0.0,0.0,0.0,0.0,0.0,0.0,0.0,0.0,784.10254,797.3993,813.91943,791.75824,736.55676,-0.0977783203125,0.0032958984375,0.9825439453125,1.981353759765625,-3.828125,0.3289794921875,0.0,4.0,4.0,4.0,4.0,95.0,event
13:27:40.910,0.0,0.0,0.0,0.0,0.0,0.0,0.0,0.0,0.0,0.0,0.0,0.0,0.0,0.0,0.0,0.0,0.0,0.0,0.0,0.0,777.6557,780.07324,830.0366,792.1612,763.95605,-0.0977783203125,0.0032958984375,0.9825439453125,1.981353759765625,-3.828125,0.3289794921875,0.0,4.0,4.0,4.0,4.0,95.0,event
13:27:40.911,0.0,0.0,0.0,0.0,0.0,0.0,0.0,0.0,0.0,0.0,0.0,0.0,0.0,0.0,0.0,0.0,0.0,0.0,0.0,0.0,772.01465,785.7143,827.619,791.75824,720.0366,-0.0977783203125,0.0032958984375,0.9825439453125,1.981353759765625,-3.828125,0.3289794921875,0.0,4.0,4.0,4.0,4.0,95.0,event
13:27:40.912,0.0,0.0,0.0,0.0,0.0,0.0,0.0,0.0,0.0,0.0,0.0,0.0,0.0,0.0,0.0,0.0,0.0,0.0,0.0,0.0,795.78754,784.5055,795.78754,796.5934,829.2308,-0.0977783203125,0.0032958984375,0.9825439453125,1.981353759765625,-3.828125,0.3289794921875,0.0,4.0,4.0,4.0,4.0,95.0,event
13:27:40.914,0.0,0.0,0.0,0.0,0.0,0.0,0.0,0.0,0.0,0.0,0.0,0.0,0.0,0.0,0.0,0.0,0.0,0.0,0.0,0.0,832.0513,781.685,794.17584,811.0989,823.1868,-0.0977783203125,0.0032958984375,0.9825439453125,1.981353759765625,-3.828125,0.3289794921875,0.0,4.0,4.0,4.0,4.0,95.0,event
13:27:40.915,0.0,0.0,0.0,0.0,0.0,0.0,0.0,0.0,0.0,0.0,0.0,0.0,0.0,0.0,0.0,0.0,0.0,0.0,0.0,0.0,864.68866,765.16486,822.381,844.5421,811.0989,-0.0977783203125,0.0032958984375,0.9825439453125,1.981353759765625,-3.828125,0.3289794921875,0.0,4.0,4.0,4.0,4.0,95.0,event
13:27:40.916,0.0,0.0,0.0,0.0,0.0,0.0,0.0,0.0,0.0,0.0,0.0,0.0,0.0,0.0,0.0,0.0,0.0,0.0,0.0,0.0,836.4835,772.01465,808.68134,854.61536,1006.1172,-0.0977783203125,0.0032958984375,0.9825439453125,1.981353759765625,-3.828125,0.3289794921875,0.0,4.0,4.0,4.0,4.0,95.0,event
13:27:40.918,0.0,0.0,0.0,0.0,0.0,0.0,0.0,0.0,0.0,0.0,0.0,0.0,0.0,0.0,0.0,0.0,0.0,0.0,0.0,0.0,784.90845,802.6374,791.75824,805.4579,823.5897,-0.0977783203125,0.0032958984375,0.9825439453125,1.981353759765625,-3.828125,0.3289794921875,0.0,4.0,4.0,4.0,4.0,95.0,event
13:27:40.921,0.0,0.0,0.0,0.0,0.0,0.0,0.0,0.0,0.0,0.0,0.0,0.0,0.0,0.0,0.0,0.0,0.0,0.0,0.0,0.0,754.68866,793.36993,807.8755,758.71796,659.19415,-0.0977783203125,0.0032958984375,0.9825439453125,1.981353759765625,-3.828125,0.3289794921875,0.0,4.0,4.0,4.0,4.0,95.0,event
13:27:40.922,0.0,0.0,0.0,0.0,0.0,0.0,0.0,0.0,0.0,0.0,0.0,0.0,0.0,0.0,0.0,0.0,0.0,0.0,0.0,0.0,779.67035,767.98535,811.0989,773.22345,806.26373,-0.0977783203125,0.0032958984375,0.9825439453125,1.981353759765625,-3.828125,0.3289794921875,0.0,4.0,4.0,4.0,4.0,95.0,event
13:27:40.952,0.0,0.0,0.0,0.0,0.0,0.0,0.0,0.0,0.0,0.0,0.0,0.0,0.0,0.0,0.0,0.0,0.0,0.0,0.0,0.0,823.5897,789.7436,809.89014,807.8755,862.674,-0.09881591796875,0.00018310546875,0.980224609375,1.9439697265625,-3.820648193359375,0.575714111328125,0.0,4.0,4.0,4.0,4.0,95.0,event
13:27:40.953,0.0,0.0,0.0,0.0,0.0,0.0,0.0,0.0,0.0,0.0,0.0,0.0,0.0,0.0,0.0,0.0,0.0,0.0,0.0,0.0,813.1135,793.7729,797.3993,814.3223,763.5531,-0.09881591796875,0.00018310546875,0.980224609375,1.9439697265625,-3.820648193359375,0.575714111328125,0.0,4.0,4.0,4.0,4.0,95.0,event
13:27:40.956,0.0,0.0,0.0,0.0,0.0,0.0,0.0,0.0,0.0,0.0,0.0,0.0,0.0,0.0,0.0,0.0,0.0,0.0,0.0,0.0,789.34064,772.01465,780.4762,803.0403,733.73627,-0.09881591796875,0.00018310546875,0.980224609375,1.9439697265625,-3.820648193359375,0.575714111328125,0.0,4.0,4.0,4.0,4.0,95.0,event
13:27:40.957,0.0,0.0,0.0,0.0,0.0,0.0,0.0,0.0,0.0,0.0,0.0,0.0,0.0,0.0,0.0,0.0,0.0,0.0,0.0,0.0,813.5165,793.36993,793.7729,813.1135,771.6117,-0.09881591796875,0.00018310546875,0.980224609375,1.9439697265625,-3.820648193359375,0.575714111328125,0.0,4.0,4.0,4.0,4.0,95.0,event
13:27:40.957,0.0,0.0,0.0,0.0,0.0,0.0,0.0,0.0,0.0,0.0,0.0,0.0,0.0,0.0,0.0,0.0,0.0,0.0,0.0,0.0,848.5714,803.8461,819.5604,823.9927,804.2491,-0.09881591796875,0.00018310546875,0.980224609375,1.9439697265625,-3.820648193359375,0.575714111328125,0.0,4.0,4.0,4.0,4.0,95.0,event
13:27:40.958,0.0,0.0,0.0,0.0,0.0,0.0,0.0,0.0,0.0,0.0,0.0,0.0,0.0,0.0,0.0,0.0,0.0,0.0,0.0,0.0,842.9304,789.7436,826.0073,828.4249,893.69965,-0.09881591796875,0.00018310546875,0.980224609375,1.9439697265625,-3.820648193359375,0.575714111328125,0.0,4.0,4.0,4.0,4.0,95.0,event
13:27:40.959,0.0,0.0,0.0,0.0,0.0,0.0,0.0,0.0,0.0,0.0,0.0,0.0,0.0,0.0,0.0,0.0,0.0,0.0,0.0,0.0,825.2015,774.0293,818.7546,836.08057,927.9487,-0.09881591796875,0.00018310546875,0.980224609375,1.9439697265625,-3.820648193359375,0.575714111328125,0.0,4.0,4.0,4.0,4.0,95.0,event
13:27:40.959,0.0,0.0,0.0,0.0,0.0,0.0,0.0,0.0,0.0,0.0,0.0,0.0,0.0,0.0,0.0,0.0,0.0,0.0,0.0,0.0,797.3993,760.32965,801.02563,818.3516,982.74725,-0.09881591796875,0.00018310546875,0.980224609375,1.9439697265625,-3.820648193359375,0.575714111328125,0.0,4.0,4.0,4.0,4.0,95.0,event
13:27:40.960,0.0,0.0,0.0,0.0,0.0,0.0,0.0,0.0,0.0,0.0,0.0,0.0,0.0,0.0,0.0,0.0,0.0,0.0,0.0,0.0,799.011,803.44324,805.4579,800.2198,797.3993,-0.09881591796875,0.00018310546875,0.980224609375,1.9439697265625,-3.820648193359375,0.575714111328125,0.0,4.0,4.0,4.0,4.0,95.0,event
13:27:40.962,0.0,0.0,0.0,0.0,0.0,0.0,0.0,0.0,0.0,0.0,0.0,0.0,0.0,0.0,0.0,0.0,0.0,0.0,0.0,0.0,813.91943,799.81683,811.9048,797.8022,624.1392,-0.09881591796875,0.00018310546875,0.980224609375,1.9439697265625,-3.820648193359375,0.575714111328125,0.0,4.0,4.0,4.0,4.0,95.0,event
13:27:40.963,0.0,0.0,0.0,0.0,0.0,0.0,0.0,0.0,0.0,0.0,0.0,0.0,0.0,0.0,0.0,0.0,0.0,0.0,0.0,0.0,826.0073,781.28204,819.15753,809.4872,661.2088,-0.09881591796875,0.00018310546875,0.980224609375,1.9439697265625,-3.820648193359375,0.575714111328125,0.0,4.0,4.0,4.0,4.0,95.0,event
13:27:40.964,0.0,0.0,0.0,0.0,0.0,0.0,0.0,0.0,0.0,0.0,0.0,0.0,0.0,0.0,0.0,0.0,0.0,0.0,0.0,0.0,826.4103,788.1319,822.7839,821.5751,717.2161,-0.09881591796875,0.00018310546875,0.980224609375,1.9439697265625,-3.820648193359375,0.575714111328125,0.0,4.0,4.0,4.0,4.0,95.0,event
13:27:40.965,0.0,0.0,0.0,0.0,0.0,0.0,0.0,0.0,0.0,0.0,0.0,0.0,0.0,0.0,0.0,0.0,0.0,0.0,0.0,0.0,797.3993,787.72894,782.8938,800.6227,639.0476,-0.09930419921875,0.00830078125,0.991943359375,2.983245849609375,-4.29168701171875,0.814971923828125,0.0,4.0,4.0,4.0,4.0,95.0,event
13:27:40.965,0.0,0.0,0.0,0.0,0.0,0.0,0.0,0.0,0.0,0.0,0.0,0.0,0.0,0.0,0.0,0.0,0.0,0.0,0.0,0.0,793.7729,786.52014,805.8608,806.26373,754.2857,-0.09930419921875,0.00830078125,0.991943359375,2.983245849609375,-4.29168701171875,0.814971923828125,0.0,4.0,4.0,4.0,4.0,95.0,event
13:27:40.966,0.0,0.0,0.0,0.0,0.0,0.0,0.0,0.0,0.0,0.0,0.0,0.0,0.0,0.0,0.0,0.0,0.0,0.0,0.0,0.0,864.68866,808.2784,809.0842,851.39197,857.4359,-0.09930419921875,0.00830078125,0.991943359375,2.983245849609375,-4.29168701171875,0.814971923828125,0.0,4.0,4.0,4.0,4.0,95.0,event
13:27:40.966,0.0,0.0,0.0,0.0,0.0,0.0,0.0,0.0,0.0,0.0,0.0,0.0,0.0,0.0,0.0,0.0,0.0,0.0,0.0,0.0,842.9304,782.49084,782.49084,823.1868,693.44324,-0.09930419921875,0.00830078125,0.991943359375,2.983245849609375,-4.29168701171875,0.814971923828125,0.0,4.0,4.0,4.0,4.0,95.0,event
13:27:40.967,0.0,0.0,0.0,0.0,0.0,0.0,0.0,0.0,0.0,0.0,0.0,0.0,0.0,0.0,0.0,0.0,0.0,0.0,0.0,0.0,830.84247,793.36993,823.1868,830.0366,768.3883,-0.09930419921875,0.00830078125,0.991943359375,2.983245849609375,-4.29168701171875,0.814971923828125,0.0,4.0,4.0,4.0,4.0,95.0,event
13:27:40.967,0.0,0.0,0.0,0.0,0.0,0.0,0.0,0.0,0.0,0.0,0.0,0.0,0.0,0.0,0.0,0.0,0.0,0.0,0.0,0.0,784.5055,774.0293,807.0696,777.25275,731.7216,-0.09930419921875,0.00830078125,0.991943359375,2.983245849609375,-4.29168701171875,0.814971923828125,0.0,4.0,4.0,4.0,4.0,95.0,event
13:27:40.968,0.0,0.0,0.0,0.0,0.0,0.0,0.0,0.0,0.0,0.0,0.0,0.0,0.0,0.0,0.0,0.0,0.0,0.0,0.0,0.0,783.69965,771.2088,794.9817,772.01465,859.85345,-0.09930419921875,0.00830078125,0.991943359375,2.983245849609375,-4.29168701171875,0.814971923828125,0.0,4.0,4.0,4.0,4.0,95.0,event
13:27:40.968,0.0,0.0,0.0,0.0,0.0,0.0,0.0,0.0,0.0,0.0,0.0,0.0,0.0,0.0,0.0,0.0,0.0,0.0,0.0,0.0,797.3993,792.5641,818.7546,796.1905,966.2271,-0.09930419921875,0.00830078125,0.991943359375,2.983245849609375,-4.29168701171875,0.814971923828125,0.0,4.0,4.0,4.0,4.0,95.0,event
13:27:40.969,0.0,0.0,0.0,0.0,0.0,0.0,0.0,0.0,0.0,0.0,0.0,0.0,0.0,0.0,0.0,0.0,0.0,0.0,0.0,0.0,823.9927,813.91943,830.4396,811.9048,751.8681,-0.09930419921875,0.00830078125,0.991943359375,2.983245849609375,-4.29168701171875,0.814971923828125,0.0,4.0,4.0,4.0,4.0,95.0,event
13:27:40.969,0.0,0.0,0.0,0.0,0.0,0.0,0.0,0.0,0.0,0.0,0.0,0.0,0.0,0.0,0.0,0.0,0.0,0.0,0.0,0.0,831.2454,786.9231,820.7692,825.6044,673.69965,-0.09930419921875,0.00830078125,0.991943359375,2.983245849609375,-4.29168701171875,0.814971923828125,0.0,4.0,4.0,4.0,4.0,95.0,event
13:27:40.969,0.0,0.0,0.0,0.0,0.0,0.0,0.0,0.0,0.0,0.0,0.0,0.0,0.0,0.0,0.0,0.0,0.0,0.0,0.0,0.0,805.05493,773.22345,799.81683,830.4396,799.41394,-0.09930419921875,0.00830078125,0.991943359375,2.983245849609375,-4.29168701171875,0.814971923828125,0.0,4.0,4.0,4.0,4.0,95.0,event
13:27:40.970,0.0,0.0,0.0,0.0,0.0,0.0,0.0,0.0,0.0,0.0,0.0,0.0,0.0,0.0,0.0,0.0,0.0,0.0,0.0,0.0,791.75824,789.7436,796.1905,810.696,778.0586,-0.09930419921875,0.00830078125,0.991943359375,2.983245849609375,-4.29168701171875,0.814971923828125,0.0,4.0,4.0,4.0,4.0,95.0,event
13:27:41.005,0.0,0.0,0.0,0.0,0.0,0.0,0.0,0.0,0.0,0.0,0.0,0.0,0.0,0.0,0.0,0.0,0.0,0.0,0.0,0.0,805.05493,798.60803,811.9048,801.8315,693.8461,-0.09930419921875,0.00830078125,0.991943359375,2.983245849609375,-4.29168701171875,0.814971923828125,0.0,4.0,4.0,4.0,4.0,95.0,event
13:27:41.006,0.0,0.0,0.0,0.0,0.0,0.0,0.0,0.0,0.0,0.0,0.0,0.0,0.0,0.0,0.0,0.0,0.0,0.0,0.0,0.0,813.91943,791.3553,811.0989,795.78754,682.1612,-0.09930419921875,0.00830078125,0.991943359375,2.983245849609375,-4.29168701171875,0.814971923828125,0.0,4.0,4.0,4.0,4.0,95.0,event
13:27:41.007,0.0,0.0,0.0,0.0,0.0,0.0,0.0,0.0,0.0,0.0,0.0,0.0,0.0,0.0,0.0,0.0,0.0,0.0,0.0,0.0,807.8755,784.90845,792.96704,808.68134,883.22345,-0.09930419921875,0.00830078125,0.991943359375,2.983245849609375,-4.29168701171875,0.814971923828125,0.0,4.0,4.0,4.0,4.0,95.0,event
13:27:41.007,0.0,0.0,0.0,0.0,0.0,0.0,0.0,0.0,0.0,0.0,0.0,0.0,0.0,0.0,0.0,0.0,0.0,0.0,0.0,0.0,818.7546,790.14655,811.50183,803.8461,838.0952,-0.09930419921875,0.00830078125,0.991943359375,2.983245849609375,-4.29168701171875,0.814971923828125,0.0,4.0,4.0,4.0,4.0,95.0,event
13:27:41.008,0.0,0.0,0.0,0.0,0.0,0.0,0.0,0.0,0.0,0.0,0.0,0.0,0.0,0.0,0.0,0.0,0.0,0.0,0.0,0.0,792.1612,778.86444,783.2967,790.14655,695.8608,-0.09930419921875,0.00830078125,0.991943359375,2.983245849609375,-4.29168701171875,0.814971923828125,0.0,4.0,4.0,4.0,4.0,95.0,event
13:27:41.009,0.0,0.0,0.0,0.0,0.0,0.0,0.0,0.0,0.0,0.0,0.0,0.0,0.0,0.0,0.0,0.0,0.0,0.0,0.0,0.0,804.65204,780.07324,813.91943,786.9231,690.2198,-0.09930419921875,0.00830078125,0.991943359375,2.983245849609375,-4.29168701171875,0.814971923828125,0.0,4.0,4.0,4.0,4.0,95.0,event
13:27:41.009,0.0,0.0,0.0,0.0,0.0,0.0,0.0,0.0,0.0,0.0,0.0,0.0,0.0,0.0,0.0,0.0,0.0,0.0,0.0,0.0,826.8132,777.6557,838.9011,810.293,985.56775,-0.09930419921875,0.00830078125,0.991943359375,2.983245849609375,-4.29168701171875,0.814971923828125,0.0,4.0,4.0,4.0,4.0,95.0,event
13:27:41.010,0.0,0.0,0.0,0.0,0.0,0.0,0.0,0.0,0.0,0.0,0.0,0.0,0.0,0.0,0.0,0.0,0.0,0.0,0.0,0.0,815.9341,815.5311,806.26373,811.9048,1039.5604,-0.09930419921875,0.00830078125,0.991943359375,2.983245849609375,-4.29168701171875,0.814971923828125,0.0,4.0,4.0,4.0,4.0,95.0,event
13:27:41.010,0.0,0.0,0.0,0.0,0.0,0.0,0.0,0.0,0.0,0.0,0.0,0.0,0.0,0.0,0.0,0.0,0.0,0.0,0.0,0.0,783.2967,804.2491,791.75824,796.1905,709.15753,-0.09930419921875,0.00830078125,0.991943359375,2.983245849609375,-4.29168701171875,0.814971923828125,0.0,4.0,4.0,4.0,4.0,95.0,event
13:27:41.011,0.0,0.0,0.0,0.0,0.0,0.0,0.0,0.0,0.0,0.0,0.0,0.0,0.0,0.0,0.0,0.0,0.0,0.0,0.0,0.0,777.25275,782.0879,803.0403,790.14655,644.2857,-0.09930419921875,0.00830078125,0.991943359375,2.983245849609375,-4.29168701171875,0.814971923828125,0.0,4.0,4.0,4.0,4.0,95.0,event
13:27:41.011,0.0,0.0,0.0,0.0,0.0,0.0,0.0,0.0,0.0,0.0,0.0,0.0,0.0,0.0,0.0,0.0,0.0,0.0,0.0,0.0,807.0696,800.2198,787.72894,786.1172,738.1685,-0.09930419921875,0.00830078125,0.991943359375,2.983245849609375,-4.29168701171875,0.814971923828125,0.0,4.0,4.0,4.0,4.0,95.0,event
13:27:41.012,0.0,0.0,0.0,0.0,0.0,0.0,0.0,0.0,0.0,0.0,0.0,0.0,0.0,0.0,0.0,0.0,0.0,0.0,0.0,0.0,821.1722,793.7729,771.6117,795.38464,755.89746,-0.09930419921875,0.00830078125,0.991943359375,2.983245849609375,-4.29168701171875,0.814971923828125,0.0,4.0,4.0,4.0,4.0,95.0,event
13:27:41.074,0.0,0.0,0.0,0.0,0.0,0.0,0.0,0.0,0.0,0.0,0.0,0.0,0.0,0.0,0.0,0.0,0.0,0.0,0.0,0.0,828.4249,783.2967,792.96704,813.5165,729.304,-0.10015869140625,0.003173828125,0.98065185546875,2.19818115234375,-3.820648193359375,0.231781005859375,0.0,4.0,4.0,4.0,4.0,95.0,event
13:27:41.076,0.0,0.0,0.0,0.0,0.0,0.0,0.0,0.0,0.0,0.0,0.0,0.0,0.0,0.0,0.0,0.0,0.0,0.0,0.0,0.0,819.9634,779.67035,826.0073,824.3956,769.59705,-0.10015869140625,0.003173828125,0.98065185546875,2.19818115234375,-3.820648193359375,0.231781005859375,0.0,4.0,4.0,4.0,4.0,95.0,event
13:27:41.077,0.0,0.0,0.0,0.0,0.0,0.0,0.0,0.0,0.0,0.0,0.0,0.0,0.0,0.0,0.0,0.0,0.0,0.0,0.0,0.0,796.1905,795.78754,842.9304,801.4286,787.72894,-0.10015869140625,0.003173828125,0.98065185546875,2.19818115234375,-3.820648193359375,0.231781005859375,0.0,4.0,4.0,4.0,4.0,95.0,event
13:27:41.079,0.0,0.0,0.0,0.0,0.0,0.0,0.0,0.0,0.0,0.0,0.0,0.0,0.0,0.0,0.0,0.0,0.0,0.0,0.0,0.0,805.05493,804.2491,831.6484,780.07324,705.9341,-0.10015869140625,0.003173828125,0.98065185546875,2.19818115234375,-3.820648193359375,0.231781005859375,0.0,4.0,4.0,4.0,4.0,95.0,event
13:27:41.080,0.0,0.0,0.0,0.0,0.0,0.0,0.0,0.0,0.0,0.0,0.0,0.0,0.0,0.0,0.0,0.0,0.0,0.0,0.0,0.0,836.08057,792.96704,799.011,801.4286,681.75824,-0.10015869140625,0.003173828125,0.98065185546875,2.19818115234375,-3.820648193359375,0.231781005859375,0.0,4.0,4.0,4.0,4.0,95.0,event
13:27:41.081,0.0,0.0,0.0,0.0,0.0,0.0,0.0,0.0,0.0,0.0,0.0,0.0,0.0,0.0,0.0,0.0,0.0,0.0,0.0,0.0,824.7985,778.0586,791.3553,813.5165,890.07324,-0.10015869140625,0.003173828125,0.98065185546875,2.19818115234375,-3.820648193359375,0.231781005859375,0.0,4.0,4.0,4.0,4.0,95.0,event
13:27:41.083,0.0,0.0,0.0,0.0,0.0,0.0,0.0,0.0,0.0,0.0,0.0,0.0,0.0,0.0,0.0,0.0,0.0,0.0,0.0,0.0,782.8938,790.54944,810.696,801.4286,1022.6374,-0.10015869140625,0.003173828125,0.98065185546875,2.19818115234375,-3.820648193359375,0.231781005859375,0.0,4.0,4.0,4.0,4.0,95.0,event
13:27:41.084,0.0,0.0,0.0,0.0,0.0,0.0,0.0,0.0,0.0,0.0,0.0,0.0,0.0,0.0,0.0,0.0,0.0,0.0,0.0,0.0,772.8205,796.99634,807.47253,795.38464,884.0293,-0.10015869140625,0.003173828125,0.98065185546875,2.19818115234375,-3.820648193359375,0.231781005859375,0.0,4.0,4.0,4.0,4.0,95.0,event
13:27:41.084,0.0,0.0,0.0,0.0,0.0,0.0,0.0,0.0,0.0,0.0,0.0,0.0,0.0,0.0,0.0,0.0,0.0,0.0,0.0,0.0,786.52014,792.1612,803.44324,805.4579,732.1245,-0.10015869140625,0.003173828125,0.98065185546875,2.19818115234375,-3.820648193359375,0.231781005859375,0.0,4.0,4.0,4.0,4.0,95.0,event
13:27:41.085,0.0,0.0,0.0,0.0,0.0,0.0,0.0,0.0,0.0,0.0,0.0,0.0,0.0,0.0,0.0,0.0,0.0,0.0,0.0,0.0,806.26373,778.46155,812.3077,821.978,765.16486,-0.10015869140625,0.003173828125,0.98065185546875,2.19818115234375,-3.820648193359375,0.231781005859375,0.0,4.0,4.0,4.0,4.0,95.0,event
13:27:41.085,0.0,0.0,0.0,0.0,0.0,0.0,0.0,0.0,0.0,0.0,0.0,0.0,0.0,0.0,0.0,0.0,0.0,0.0,0.0,0.0,826.8132,802.23444,807.47253,831.6484,906.5934,-0.10015869140625,0.003173828125,0.98065185546875,2.19818115234375,-3.820648193359375,0.231781005859375,0.0,4.0,4.0,4.0,4.0,95.0,event
13:27:41.086,0.0,0.0,0.0,0.0,0.0,0.0,0.0,0.0,0.0,0.0,0.0,0.0,0.0,0.0,0.0,0.0,0.0,0.0,0.0,0.0,800.2198,803.44324,806.6667,813.1135,755.89746,-0.10015869140625,0.003173828125,0.98065185546875,2.19818115234375,-3.820648193359375,0.231781005859375,0.0,4.0,4.0,4.0,4.0,95.0,event
13:27:41.120,0.0,0.0,0.0,0.0,0.0,0.0,0.0,0.0,0.0,0.0,0.0,0.0,0.0,0.0,0.0,0.0,0.0,0.0,0.0,0.0,781.685,780.4762,814.7253,815.5311,719.2308,-0.0963134765625,0.00732421875,0.9822998046875,1.95892333984375,-3.7982177734375,-0.1495361328125,0.0,4.0,4.0,4.0,4.0,95.0,event
13:27:41.121,0.0,0.0,0.0,0.0,0.0,0.0,0.0,0.0,0.0,0.0,0.0,0.0,0.0,0.0,0.0,0.0,0.0,0.0,0.0,0.0,786.1172,779.2674,793.7729,801.02563,774.0293,-0.0963134765625,0.00732421875,0.9822998046875,1.95892333984375,-3.7982177734375,-0.1495361328125,0.0,4.0,4.0,4.0,4.0,95.0,event
13:27:41.125,0.0,0.0,0.0,0.0,0.0,0.0,0.0,0.0,0.0,0.0,0.0,0.0,0.0,0.0,0.0,0.0,0.0,0.0,0.0,0.0,788.93774,774.0293,773.22345,785.7143,770.40295,-0.0963134765625,0.00732421875,0.9822998046875,1.95892333984375,-3.7982177734375,-0.1495361328125,0.0,4.0,4.0,4.0,4.0,95.0,event
13:27:41.126,0.0,0.0,0.0,0.0,0.0,0.0,0.0,0.0,0.0,0.0,0.0,0.0,0.0,0.0,0.0,0.0,0.0,0.0,0.0,0.0,823.9927,786.9231,788.5348,822.381,766.77655,-0.0963134765625,0.00732421875,0.9822998046875,1.95892333984375,-3.7982177734375,-0.1495361328125,0.0,4.0,4.0,4.0,4.0,95.0,event
13:27:41.127,0.0,0.0,0.0,0.0,0.0,0.0,0.0,0.0,0.0,0.0,0.0,0.0,0.0,0.0,0.0,0.0,0.0,0.0,0.0,0.0,821.1722,785.31134,814.3223,836.08057,744.61536,-0.0963134765625,0.00732421875,0.9822998046875,1.95892333984375,-3.7982177734375,-0.1495361328125,0.0,4.0,4.0,4.0,4.0,95.0,event
13:27:41.127,0.0,0.0,0.0,0.0,0.0,0.0,0.0,0.0,0.0,0.0,0.0,0.0,0.0,0.0,0.0,0.0,0.0,0.0,0.0,0.0,785.7143,763.95605,823.9927,817.5458,917.0696,-0.0963134765625,0.00732421875,0.9822998046875,1.95892333984375,-3.7982177734375,-0.1495361328125,0.0,4.0,4.0,4.0,4.0,95.0,event
13:27:41.128,0.0,0.0,0.0,0.0,0.0,0.0,0.0,0.0,0.0,0.0,0.0,0.0,0.0,0.0,0.0,0.0,0.0,0.0,0.0,0.0,790.14655,788.5348,803.0403,815.12823,877.5824,-0.0963134765625,0.00732421875,0.9822998046875,1.95892333984375,-3.7982177734375,-0.1495361328125,0.0,4.0,4.0,4.0,4.0,95.0,event
13:27:41.129,0.0,0.0,0.0,0.0,0.0,0.0,0.0,0.0,0.0,0.0,0.0,0.0,0.0,0.0,0.0,0.0,0.0,0.0,0.0,0.0,830.84247,797.8022,794.9817,834.4689,676.9231,-0.0963134765625,0.00732421875,0.9822998046875,1.95892333984375,-3.7982177734375,-0.1495361328125,0.0,4.0,4.0,4.0,4.0,95.0,event
13:27:41.129,0.0,0.0,0.0,0.0,0.0,0.0,0.0,0.0,0.0,0.0,0.0,0.0,0.0,0.0,0.0,0.0,0.0,0.0,0.0,0.0,862.674,782.8938,830.84247,857.8388,703.5165,-0.0963134765625,0.00732421875,0.9822998046875,1.95892333984375,-3.7982177734375,-0.1495361328125,0.0,4.0,4.0,4.0,4.0,95.0,event
13:27:41.130,0.0,0.0,0.0,0.0,0.0,0.0,0.0,0.0,0.0,0.0,0.0,0.0,0.0,0.0,0.0,0.0,0.0,0.0,0.0,0.0,821.1722,771.6117,827.619,842.52747,1004.90845,-0.0963134765625,0.00732421875,0.9822998046875,1.95892333984375,-3.7982177734375,-0.1495361328125,0.0,4.0,4.0,4.0,4.0,95.0,event
13:27:41.130,0.0,0.0,0.0,0.0,0.0,0.0,0.0,0.0,0.0,0.0,0.0,0.0,0.0,0.0,0.0,0.0,0.0,0.0,0.0,0.0,769.59705,795.38464,798.20514,810.293,944.0659,-0.0963134765625,0.00732421875,0.9822998046875,1.95892333984375,-3.7982177734375,-0.1495361328125,0.0,4.0,4.0,4.0,4.0,95.0,event
13:27:41.131,0.0,0.0,0.0,0.0,0.0,0.0,0.0,0.0,0.0,0.0,0.0,0.0,0.0,0.0,0.0,0.0,0.0,0.0,0.0,0.0,791.75824,790.54944,811.50183,800.2198,654.7619,-0.0963134765625,0.00732421875,0.9822998046875,1.95892333984375,-3.7982177734375,-0.1495361328125,0.0,4.0,4.0,4.0,4.0,95.0,event
13:27:41.175,0.0,0.0,0.0,0.0,0.0,0.0,0.0,0.0,0.0,0.0,0.0,0.0,0.0,0.0,0.0,0.0,0.0,0.0,0.0,0.0,819.15753,782.0879,799.011,813.1135,706.337,-0.0972900390625,0.00665283203125,0.983642578125,1.9140625,-3.46923828125,0.426177978515625,0.0,4.0,4.0,4.0,4.0,95.0,event
13:27:41.176,0.0,0.0,0.0,0.0,0.0,0.0,0.0,0.0,0.0,0.0,0.0,0.0,0.0,0.0,0.0,0.0,0.0,0.0,0.0,0.0,824.3956,791.3553,776.4469,824.3956,824.3956,-0.0972900390625,0.00665283203125,0.983642578125,1.9140625,-3.46923828125,0.426177978515625,0.0,4.0,4.0,4.0,4.0,95.0,event
13:27:41.177,0.0,0.0,0.0,0.0,0.0,0.0,0.0,0.0,0.0,0.0,0.0,0.0,0.0,0.0,0.0,0.0,0.0,0.0,0.0,0.0,822.7839,789.34064,808.2784,821.1722,798.60803,-0.0972900390625,0.00665283203125,0.983642578125,1.9140625,-3.46923828125,0.426177978515625,0.0,4.0,4.0,4.0,4.0,95.0,event
13:27:41.179,0.0,0.0,0.0,0.0,0.0,0.0,0.0,0.0,0.0,0.0,0.0,0.0,0.0,0.0,0.0,0.0,0.0,0.0,0.0,0.0,787.72894,780.87915,825.6044,801.4286,733.73627,-0.0972900390625,0.00665283203125,0.983642578125,1.9140625,-3.46923828125,0.426177978515625,0.0,4.0,4.0,4.0,4.0,95.0,event
13:27:41.180,0.0,0.0,0.0,0.0,0.0,0.0,0.0,0.0,0.0,0.0,0.0,0.0,0.0,0.0,0.0,0.0,0.0,0.0,0.0,0.0,790.14655,772.01465,811.0989,799.81683,820.7692,-0.0972900390625,0.00665283203125,0.983642578125,1.9140625,-3.46923828125,0.426177978515625,0.0,4.0,4.0,4.0,4.0,95.0,event
13:27:41.181,0.0,0.0,0.0,0.0,0.0,0.0,0.0,0.0,0.0,0.0,0.0,0.0,0.0,0.0,0.0,0.0,0.0,0.0,0.0,0.0,828.022,784.90845,819.9634,816.7399,881.2088,-0.0972900390625,0.00665283203125,0.983642578125,1.9140625,-3.46923828125,0.426177978515625,0.0,4.0,4.0,4.0,4.0,95.0,event
13:27:41.182,0.0,0.0,0.0,0.0,0.0,0.0,0.0,0.0,0.0,0.0,0.0,0.0,0.0,0.0,0.0,0.0,0.0,0.0,0.0,0.0,823.5897,797.3993,814.7253,812.3077,850.989,-0.0972900390625,0.00665283203125,0.983642578125,1.9140625,-3.46923828125,0.426177978515625,0.0,4.0,4.0,4.0,4.0,95.0,event
13:27:41.183,0.0,0.0,0.0,0.0,0.0,0.0,0.0,0.0,0.0,0.0,0.0,0.0,0.0,0.0,0.0,0.0,0.0,0.0,0.0,0.0,811.9048,791.75824,806.6667,811.0989,737.3626,-0.0972900390625,0.00665283203125,0.983642578125,1.9140625,-3.46923828125,0.426177978515625,0.0,4.0,4.0,4.0,4.0,95.0,event
13:27:41.184,0.0,0.0,0.0,0.0,0.0,0.0,0.0,0.0,0.0,0.0,0.0,0.0,0.0,0.0,0.0,0.0,0.0,0.0,0.0,0.0,802.23444,764.7619,809.4872,813.5165,823.5897,-0.0972900390625,0.00665283203125,0.983642578125,1.9140625,-3.46923828125,0.426177978515625,0.0,4.0,4.0,4.0,4.0,95.0,event
13:27:41.185,0.0,0.0,0.0,0.0,0.0,0.0,0.0,0.0,0.0,0.0,0.0,0.0,0.0,0.0,0.0,0.0,0.0,0.0,0.0,0.0,792.5641,792.5641,809.89014,809.89014,988.3883,-0.0972900390625,0.00665283203125,0.983642578125,1.9140625,-3.46923828125,0.426177978515625,0.0,4.0,4.0,4.0,4.0,95.0,event
13:27:41.185,0.0,0.0,0.0,0.0,0.0,0.0,0.0,0.0,0.0,0.0,0.0,0.0,0.0,0.0,0.0,0.0,0.0,0.0,0.0,0.0,814.3223,813.1135,813.91943,811.9048,786.1172,-0.0972900390625,0.00665283203125,0.983642578125,1.9140625,-3.46923828125,0.426177978515625,0.0,4.0,4.0,4.0,4.0,95.0,event
13:27:41.186,0.0,0.0,0.0,0.0,0.0,0.0,0.0,0.0,0.0,0.0,0.0,0.0,0.0,0.0,0.0,0.0,0.0,0.0,0.0,0.0,838.9011,779.2674,807.8755,825.2015,727.28937,-0.0972900390625,0.00665283203125,0.983642578125,1.9140625,-3.46923828125,0.426177978515625,0.0,4.0,4.0,4.0,4.0,95.0,event
13:27:41.222,0.0,0.0,0.0,0.0,0.0,0.0,0.0,0.0,0.0,0.0,0.0,0.0,0.0,0.0,0.0,0.0,0.0,0.0,0.0,0.0,837.6923,767.1795,787.326,840.9158,922.3077,-0.09991455078125,-6.103515625e-05,0.98291015625,1.6448974609375,-3.2000732421875,0.1495361328125,0.0,4.0,4.0,4.0,4.0,95.0,event
13:27:41.222,0.0,0.0,0.0,0.0,0.0,0.0,0.0,0.0,0.0,0.0,0.0,0.0,0.0,0.0,0.0,0.0,0.0,0.0,0.0,0.0,817.1429,786.1172,781.28204,832.4542,865.89746,-0.09991455078125,-6.103515625e-05,0.98291015625,1.6448974609375,-3.2000732421875,0.1495361328125,0.0,4.0,4.0,4.0,4.0,95.0,event
13:27:41.223,0.0,0.0,0.0,0.0,0.0,0.0,0.0,0.0,0.0,0.0,0.0,0.0,0.0,0.0,0.0,0.0,0.0,0.0,0.0,0.0,802.6374,786.52014,808.68134,803.0403,707.5458,-0.09991455078125,-6.103515625e-05,0.98291015625,1.6448974609375,-3.2000732421875,0.1495361328125,0.0,4.0,4.0,4.0,4.0,95.0,event
13:27:41.223,0.0,0.0,0.0,0.0,0.0,0.0,0.0,0.0,0.0,0.0,0.0,0.0,0.0,0.0,0.0,0.0,0.0,0.0,0.0,0.0,800.6227,780.07324,829.6337,784.10254,731.7216,-0.09991455078125,-6.103515625e-05,0.98291015625,1.6448974609375,-3.2000732421875,0.1495361328125,0.0,4.0,4.0,4.0,4.0,95.0,event
13:27:41.226,0.0,0.0,0.0,0.0,0.0,0.0,0.0,0.0,0.0,0.0,0.0,0.0,0.0,0.0,0.0,0.0,0.0,0.0,0.0,0.0,817.5458,788.93774,836.08057,801.8315,845.7509,-0.09991455078125,-6.103515625e-05,0.98291015625,1.6448974609375,-3.2000732421875,0.1495361328125,0.0,4.0,4.0,4.0,4.0,95.0,event
13:27:41.227,0.0,0.0,0.0,0.0,0.0,0.0,0.0,0.0,0.0,0.0,0.0,0.0,0.0,0.0,0.0,0.0,0.0,0.0,0.0,0.0,838.49817,798.20514,837.28937,834.4689,842.1245,-0.09991455078125,-6.103515625e-05,0.98291015625,1.6448974609375,-3.2000732421875,0.1495361328125,0.0,4.0,4.0,4.0,4.0,95.0,event
13:27:41.227,0.0,0.0,0.0,0.0,0.0,0.0,0.0,0.0,0.0,0.0,0.0,0.0,0.0,0.0,0.0,0.0,0.0,0.0,0.0,0.0,803.0403,789.34064,812.71063,818.3516,821.978,-0.09991455078125,-6.103515625e-05,0.98291015625,1.6448974609375,-3.2000732421875,0.1495361328125,0.0,4.0,4.0,4.0,4.0,95.0,event
13:27:41.228,0.0,0.0,0.0,0.0,0.0,0.0,0.0,0.0,0.0,0.0,0.0,0.0,0.0,0.0,0.0,0.0,0.0,0.0,0.0,0.0,778.0586,779.2674,801.8315,795.38464,835.6777,-0.09991455078125,-6.103515625e-05,0.98291015625,1.6448974609375,-3.2000732421875,0.1495361328125,0.0,4.0,4.0,4.0,4.0,95.0,event
13:27:41.228,0.0,0.0,0.0,0.0,0.0,0.0,0.0,0.0,0.0,0.0,0.0,0.0,0.0,0.0,0.0,0.0,0.0,0.0,0.0,0.0,814.3223,771.2088,806.26373,811.50183,931.1722,-0.09991455078125,-6.103515625e-05,0.98291015625,1.6448974609375,-3.2000732421875,0.1495361328125,0.0,4.0,4.0,4.0,4.0,95.0,event
13:27:41.228,0.0,0.0,0.0,0.0,0.0,0.0,0.0,0.0,0.0,0.0,0.0,0.0,0.0,0.0,0.0,0.0,0.0,0.0,0.0,0.0,841.31866,796.99634,802.6374,826.4103,862.27106,-0.09991455078125,-6.103515625e-05,0.98291015625,1.6448974609375,-3.2000732421875,0.1495361328125,0.0,4.0,4.0,4.0,4.0,95.0,event
13:27:41.229,0.0,0.0,0.0,0.0,0.0,0.0,0.0,0.0,0.0,0.0,0.0,0.0,0.0,0.0,0.0,0.0,0.0,0.0,0.0,0.0,840.10986,790.54944,790.54944,825.2015,761.13556,-0.09991455078125,-6.103515625e-05,0.98291015625,1.6448974609375,-3.2000732421875,0.1495361328125,0.0,4.0,4.0,4.0,4.0,95.0,event
13:27:41.229,0.0,0.0,0.0,0.0,0.0,0.0,0.0,0.0,0.0,0.0,0.0,0.0,0.0,0.0,0.0,0.0,0.0,0.0,0.0,0.0,818.7546,765.16486,782.49084,811.50183,749.45056,-0.09991455078125,-6.103515625e-05,0.98291015625,1.6448974609375,-3.2000732421875,0.1495361328125,0.0,4.0,4.0,4.0,4.0,95.0,event
13:27:41.271,0.0,0.0,0.0,0.0,0.0,0.0,0.0,0.0,0.0,0.0,0.0,0.0,0.0,0.0,0.0,0.0,0.0,0.0,0.0,0.0,791.75824,781.28204,797.8022,801.8315,718.022,-0.09991455078125,-6.103515625e-05,0.98291015625,1.6448974609375,-3.2000732421875,0.1495361328125,0.0,4.0,4.0,4.0,4.0,95.0,event
13:27:41.272,0.0,0.0,0.0,0.0,0.0,0.0,0.0,0.0,0.0,0.0,0.0,0.0,0.0,0.0,0.0,0.0,0.0,0.0,0.0,0.0,789.34064,787.326,792.1612,785.7143,663.6264,-0.09991455078125,-6.103515625e-05,0.98291015625,1.6448974609375,-3.2000732421875,0.1495361328125,0.0,4.0,4.0,4.0,4.0,95.0,event
13:27:41.272,0.0,0.0,0.0,0.0,0.0,0.0,0.0,0.0,0.0,0.0,0.0,0.0,0.0,0.0,0.0,0.0,0.0,0.0,0.0,0.0,819.5604,782.49084,808.68134,791.75824,720.84247,-0.09991455078125,-6.103515625e-05,0.98291015625,1.6448974609375,-3.2000732421875,0.1495361328125,0.0,4.0,4.0,4.0,4.0,95.0,event
13:27:41.273,0.0,0.0,0.0,0.0,0.0,0.0,0.0,0.0,0.0,0.0,0.0,0.0,0.0,0.0,0.0,0.0,0.0,0.0,0.0,0.0,838.0952,785.7143,828.022,811.9048,851.79486,-0.09991455078125,-6.103515625e-05,0.98291015625,1.6448974609375,-3.2000732421875,0.1495361328125,0.0,4.0,4.0,4.0,4.0,95.0,event
13:27:41.274,0.0,0.0,0.0,0.0,0.0,0.0,0.0,0.0,0.0,0.0,0.0,0.0,0.0,0.0,0.0,0.0,0.0,0.0,0.0,0.0,782.0879,786.1172,808.68134,785.7143,716.4103,-0.09991455078125,-6.103515625e-05,0.98291015625,1.6448974609375,-3.2000732421875,0.1495361328125,0.0,4.0,4.0,4.0,4.0,95.0,event
13:27:41.274,0.0,0.0,0.0,0.0,0.0,0.0,0.0,0.0,0.0,0.0,0.0,0.0,0.0,0.0,0.0,0.0,0.0,0.0,0.0,0.0,817.1429,794.57874,822.381,810.293,816.7399,-0.09991455078125,-6.103515625e-05,0.98291015625,1.6448974609375,-3.2000732421875,0.1495361328125,0.0,4.0,4.0,4.0,4.0,95.0,event
13:27:41.275,0.0,0.0,0.0,0.0,0.0,0.0,0.0,0.0,0.0,0.0,0.0,0.0,0.0,0.0,0.0,0.0,0.0,0.0,0.0,0.0,792.1612,783.2967,792.96704,776.04395,721.6484,-0.09991455078125,-6.103515625e-05,0.98291015625,1.6448974609375,-3.2000732421875,0.1495361328125,0.0,4.0,4.0,4.0,4.0,95.0,event
13:27:41.276,0.0,0.0,0.0,0.0,0.0,0.0,0.0,0.0,0.0,0.0,0.0,0.0,0.0,0.0,0.0,0.0,0.0,0.0,0.0,0.0,824.7985,770.0,802.23444,803.44324,828.022,-0.09991455078125,-6.103515625e-05,0.98291015625,1.6448974609375,-3.2000732421875,0.1495361328125,0.0,4.0,4.0,4.0,4.0,95.0,event
13:27:41.276,0.0,0.0,0.0,0.0,0.0,0.0,0.0,0.0,0.0,0.0,0.0,0.0,0.0,0.0,0.0,0.0,0.0,0.0,0.0,0.0,823.1868,774.83514,798.20514,821.978,1029.8901,-0.09991455078125,-6.103515625e-05,0.98291015625,1.6448974609375,-3.2000732421875,0.1495361328125,0.0,4.0,4.0,4.0,4.0,95.0,event
13:27:41.277,0.0,0.0,0.0,0.0,0.0,0.0,0.0,0.0,0.0,0.0,0.0,0.0,0.0,0.0,0.0,0.0,0.0,0.0,0.0,0.0,798.20514,790.14655,771.2088,815.12823,867.1062,-0.09991455078125,-6.103515625e-05,0.98291015625,1.6448974609375,-3.2000732421875,0.1495361328125,0.0,4.0,4.0,4.0,4.0,95.0,event
13:27:41.278,0.0,0.0,0.0,0.0,0.0,0.0,0.0,0.0,0.0,0.0,0.0,0.0,0.0,0.0,0.0,0.0,0.0,0.0,0.0,0.0,781.685,774.43225,785.31134,807.0696,711.5751,-0.09991455078125,-6.103515625e-05,0.98291015625,1.6448974609375,-3.2000732421875,0.1495361328125,0.0,4.0,4.0,4.0,4.0,95.0,event
13:27:41.278,0.0,0.0,0.0,0.0,0.0,0.0,0.0,0.0,0.0,0.0,0.0,0.0,0.0,0.0,0.0,0.0,0.0,0.0,0.0,0.0,802.23444,777.6557,808.2784,801.02563,749.45056,-0.09991455078125,-6.103515625e-05,0.98291015625,1.6448974609375,-3.2000732421875,0.1495361328125,0.0,4.0,4.0,4.0,4.0,95.0,event
13:27:41.324,0.0,0.0,0.0,0.0,0.0,0.0,0.0,0.0,0.0,0.0,0.0,0.0,0.0,0.0,0.0,0.0,0.0,0.0,0.0,0.0,793.36993,798.60803,807.0696,774.43225,702.3077,-0.10205078125,0.00836181640625,0.98974609375,2.03369140625,-3.050537109375,0.61309814453125,0.0,4.0,4.0,4.0,4.0,95.0,event
13:27:41.325,0.0,0.0,0.0,0.0,0.0,0.0,0.0,0.0,0.0,0.0,0.0,0.0,0.0,0.0,0.0,0.0,0.0,0.0,0.0,0.0,798.20514,797.3993,807.8755,779.2674,764.35895,-0.10205078125,0.00836181640625,0.98974609375,2.03369140625,-3.050537109375,0.61309814453125,0.0,4.0,4.0,4.0,4.0,95.0,event
13:27:41.327,0.0,0.0,0.0,0.0,0.0,0.0,0.0,0.0,0.0,0.0,0.0,0.0,0.0,0.0,0.0,0.0,0.0,0.0,0.0,0.0,814.3223,776.4469,820.3663,798.60803,851.39197,-0.10205078125,0.00836181640625,0.98974609375,2.03369140625,-3.050537109375,0.61309814453125,0.0,4.0,4.0,4.0,4.0,95.0,event
13:27:41.328,0.0,0.0,0.0,0.0,0.0,0.0,0.0,0.0,0.0,0.0,0.0,0.0,0.0,0.0,0.0,0.0,0.0,0.0,0.0,0.0,778.86444,781.685,818.7546,786.52014,838.0952,-0.10205078125,0.00836181640625,0.98974609375,2.03369140625,-3.050537109375,0.61309814453125,0.0,4.0,4.0,4.0,4.0,95.0,event
13:27:41.329,0.0,0.0,0.0,0.0,0.0,0.0,0.0,0.0,0.0,0.0,0.0,0.0,0.0,0.0,0.0,0.0,0.0,0.0,0.0,0.0,767.98535,793.7729,808.68134,775.2381,741.39197,-0.10205078125,0.00836181640625,0.98974609375,2.03369140625,-3.050537109375,0.61309814453125,0.0,4.0,4.0,4.0,4.0,95.0,event
13:27:41.330,0.0,0.0,0.0,0.0,0.0,0.0,0.0,0.0,0.0,0.0,0.0,0.0,0.0,0.0,0.0,0.0,0.0,0.0,0.0,0.0,809.89014,792.1612,804.2491,790.54944,744.61536,-0.10205078125,0.00836181640625,0.98974609375,2.03369140625,-3.050537109375,0.61309814453125,0.0,4.0,4.0,4.0,4.0,95.0,event
13:27:41.334,0.0,0.0,0.0,0.0,0.0,0.0,0.0,0.0,0.0,0.0,0.0,0.0,0.0,0.0,0.0,0.0,0.0,0.0,0.0,0.0,818.3516,783.69965,798.20514,801.02563,793.36993,-0.10205078125,0.00836181640625,0.98974609375,2.03369140625,-3.050537109375,0.61309814453125,0.0,4.0,4.0,4.0,4.0,95.0,event
13:27:41.335,0.0,0.0,0.0,0.0,0.0,0.0,0.0,0.0,0.0,0.0,0.0,0.0,0.0,0.0,0.0,0.0,0.0,0.0,0.0,0.0,771.6117,752.674,790.54944,773.6264,1045.2014,-0.10205078125,0.00836181640625,0.98974609375,2.03369140625,-3.050537109375,0.61309814453125,0.0,4.0,4.0,4.0,4.0,95.0,event
13:27:41.336,0.0,0.0,0.0,0.0,0.0,0.0,0.0,0.0,0.0,0.0,0.0,0.0,0.0,0.0,0.0,0.0,0.0,0.0,0.0,0.0,734.5421,792.5641,784.90845,757.9121,1141.0989,-0.10205078125,0.00836181640625,0.98974609375,2.03369140625,-3.050537109375,0.61309814453125,0.0,4.0,4.0,4.0,4.0,95.0,event
13:27:41.337,0.0,0.0,0.0,0.0,0.0,0.0,0.0,0.0,0.0,0.0,0.0,0.0,0.0,0.0,0.0,0.0,0.0,0.0,0.0,0.0,752.27106,807.47253,798.20514,755.09155,754.2857,-0.10205078125,0.00836181640625,0.98974609375,2.03369140625,-3.050537109375,0.61309814453125,0.0,4.0,4.0,4.0,4.0,95.0,event
13:27:41.337,0.0,0.0,0.0,0.0,0.0,0.0,0.0,0.0,0.0,0.0,0.0,0.0,0.0,0.0,0.0,0.0,0.0,0.0,0.0,0.0,778.86444,782.0879,793.36993,761.13556,652.74725,-0.10205078125,0.00836181640625,0.98974609375,2.03369140625,-3.050537109375,0.61309814453125,0.0,4.0,4.0,4.0,4.0,95.0,event
13:27:41.338,0.0,0.0,0.0,0.0,0.0,0.0,0.0,0.0,0.0,0.0,0.0,0.0,0.0,0.0,0.0,0.0,0.0,0.0,0.0,0.0,799.011,801.02563,769.19415,786.52014,792.96704,-0.10205078125,0.00836181640625,0.98974609375,2.03369140625,-3.050537109375,0.61309814453125,0.0,4.0,4.0,4.0,4.0,95.0,event
13:27:41.372,0.0,0.0,0.0,0.0,0.0,0.0,0.0,0.0,0.0,0.0,0.0,0.0,0.0,0.0,0.0,0.0,0.0,0.0,0.0,0.0,809.4872,792.1612,784.10254,800.2198,739.7802,-0.1024169921875,0.00250244140625,0.9776611328125,1.981353759765625,-3.648681640625,0.2093505859375,0.0,4.0,4.0,4.0,4.0,95.0,event
13:27:41.373,0.0,0.0,0.0,0.0,0.0,0.0,0.0,0.0,0.0,0.0,0.0,0.0,0.0,0.0,0.0,0.0,0.0,0.0,0.0,0.0,767.1795,776.8498,811.0989,780.4762,654.7619,-0.1024169921875,0.00250244140625,0.9776611328125,1.981353759765625,-3.648681640625,0.2093505859375,0.0,4.0,4.0,4.0,4.0,95.0,event
13:27:41.374,0.0,0.0,0.0,0.0,0.0,0.0,0.0,0.0,0.0,0.0,0.0,0.0,0.0,0.0,0.0,0.0,0.0,0.0,0.0,0.0,766.3736,785.31134,817.1429,782.49084,730.5128,-0.1024169921875,0.00250244140625,0.9776611328125,1.981353759765625,-3.648681640625,0.2093505859375,0.0,4.0,4.0,4.0,4.0,95.0,event
13:27:41.374,0.0,0.0,0.0,0.0,0.0,0.0,0.0,0.0,0.0,0.0,0.0,0.0,0.0,0.0,0.0,0.0,0.0,0.0,0.0,0.0,816.337,806.6667,831.6484,806.6667,790.9524,-0.1024169921875,0.00250244140625,0.9776611328125,1.981353759765625,-3.648681640625,0.2093505859375,0.0,4.0,4.0,4.0,4.0,95.0,event
13:27:41.375,0.0,0.0,0.0,0.0,0.0,0.0,0.0,0.0,0.0,0.0,0.0,0.0,0.0,0.0,0.0,0.0,0.0,0.0,0.0,0.0,824.7985,796.99634,833.663,807.8755,794.17584,-0.1024169921875,0.00250244140625,0.9776611328125,1.981353759765625,-3.648681640625,0.2093505859375,0.0,4.0,4.0,4.0,4.0,95.0,event
13:27:41.376,0.0,0.0,0.0,0.0,0.0,0.0,0.0,0.0,0.0,0.0,0.0,0.0,0.0,0.0,0.0,0.0,0.0,0.0,0.0,0.0,771.2088,757.1062,793.36993,790.9524,960.989,-0.1024169921875,0.00250244140625,0.9776611328125,1.981353759765625,-3.648681640625,0.2093505859375,0.0,4.0,4.0,4.0,4.0,95.0,event
13:27:41.376,0.0,0.0,0.0,0.0,0.0,0.0,0.0,0.0,0.0,0.0,0.0,0.0,0.0,0.0,0.0,0.0,0.0,0.0,0.0,0.0,802.23444,774.0293,799.81683,794.9817,853.00366,-0.1024169921875,0.00250244140625,0.9776611328125,1.981353759765625,-3.648681640625,0.2093505859375,0.0,4.0,4.0,4.0,4.0,95.0,event
13:27:41.377,0.0,0.0,0.0,0.0,0.0,0.0,0.0,0.0,0.0,0.0,0.0,0.0,0.0,0.0,0.0,0.0,0.0,0.0,0.0,0.0,780.4762,788.5348,798.20514,803.44324,1018.60803,-0.1024169921875,0.00250244140625,0.9776611328125,1.981353759765625,-3.648681640625,0.2093505859375,0.0,4.0,4.0,4.0,4.0,95.0,event
13:27:41.377,0.0,0.0,0.0,0.0,0.0,0.0,0.0,0.0,0.0,0.0,0.0,0.0,0.0,0.0,0.0,0.0,0.0,0.0,0.0,0.0,816.7399,805.4579,778.0586,802.23444,782.49084,-0.1024169921875,0.00250244140625,0.9776611328125,1.981353759765625,-3.648681640625,0.2093505859375,0.0,4.0,4.0,4.0,4.0,95.0,event
13:27:41.378,0.0,0.0,0.0,0.0,0.0,0.0,0.0,0.0,0.0,0.0,0.0,0.0,0.0,0.0,0.0,0.0,0.0,0.0,0.0,0.0,822.381,774.0293,788.1319,800.6227,755.89746,-0.1024169921875,0.00250244140625,0.9776611328125,1.981353759765625,-3.648681640625,0.2093505859375,0.0,4.0,4.0,4.0,4.0,95.0,event
13:27:41.379,0.0,0.0,0.0,0.0,0.0,0.0,0.0,0.0,0.0,0.0,0.0,0.0,0.0,0.0,0.0,0.0,0.0,0.0,0.0,0.0,802.6374,770.80585,821.1722,814.3223,914.65204,-0.1024169921875,0.00250244140625,0.9776611328125,1.981353759765625,-3.648681640625,0.2093505859375,0.0,4.0,4.0,4.0,4.0,95.0,event
13:27:41.379,0.0,0.0,0.0,0.0,0.0,0.0,0.0,0.0,0.0,0.0,0.0,0.0,0.0,0.0,0.0,0.0,0.0,0.0,0.0,0.0,770.0,793.36993,830.0366,798.20514,823.9927,-0.1024169921875,0.00250244140625,0.9776611328125,1.981353759765625,-3.648681640625,0.2093505859375,0.0,4.0,4.0,4.0,4.0,95.0,event
13:27:41.426,0.0,0.0,0.0,0.0,0.0,0.0,0.0,0.0,0.0,0.0,0.0,0.0,0.0,0.0,0.0,0.0,0.0,0.0,0.0,0.0,765.9707,790.9524,814.7253,791.3553,686.1905,-0.09869384765625,0.00537109375,0.98590087890625,2.31781005859375,-3.57391357421875,0.216827392578125,0.0,4.0,4.0,4.0,4.0,95.0,event
13:27:41.427,0.0,0.0,0.0,0.0,0.0,0.0,0.0,0.0,0.0,0.0,0.0,0.0,0.0,0.0,0.0,0.0,0.0,0.0,0.0,0.0,783.69965,775.64105,807.0696,795.38464,728.49817,-0.09869384765625,0.00537109375,0.98590087890625,2.31781005859375,-3.57391357421875,0.216827392578125,0.0,4.0,4.0,4.0,4.0,95.0,event
13:27:41.428,0.0,0.0,0.0,0.0,0.0,0.0,0.0,0.0,0.0,0.0,0.0,0.0,0.0,0.0,0.0,0.0,0.0,0.0,0.0,0.0,805.05493,784.90845,802.6374,809.4872,831.2454,-0.09869384765625,0.00537109375,0.98590087890625,2.31781005859375,-3.57391357421875,0.216827392578125,0.0,4.0,4.0,4.0,4.0,95.0,event
13:27:41.429,0.0,0.0,0.0,0.0,0.0,0.0,0.0,0.0,0.0,0.0,0.0,0.0,0.0,0.0,0.0,0.0,0.0,0.0,0.0,0.0,820.3663,787.326,797.3993,830.0366,800.2198,-0.09869384765625,0.00537109375,0.98590087890625,2.31781005859375,-3.57391357421875,0.216827392578125,0.0,4.0,4.0,4.0,4.0,95.0,event
13:27:41.431,0.0,0.0,0.0,0.0,0.0,0.0,0.0,0.0,0.0,0.0,0.0,0.0,0.0,0.0,0.0,0.0,0.0,0.0,0.0,0.0,797.8022,778.86444,798.60803,823.1868,752.674,-0.09869384765625,0.00537109375,0.98590087890625,2.31781005859375,-3.57391357421875,0.216827392578125,0.0,4.0,4.0,4.0,4.0,95.0,event
13:27:41.432,0.0,0.0,0.0,0.0,0.0,0.0,0.0,0.0,0.0,0.0,0.0,0.0,0.0,0.0,0.0,0.0,0.0,0.0,0.0,0.0,770.40295,761.9414,798.20514,792.5641,823.1868,-0.09869384765625,0.00537109375,0.98590087890625,2.31781005859375,-3.57391357421875,0.216827392578125,0.0,4.0,4.0,4.0,4.0,95.0,event
13:27:41.434,0.0,0.0,0.0,0.0,0.0,0.0,0.0,0.0,0.0,0.0,0.0,0.0,0.0,0.0,0.0,0.0,0.0,0.0,0.0,0.0,780.87915,762.3443,806.26373,784.90845,1037.9487,-0.09869384765625,0.00537109375,0.98590087890625,2.31781005859375,-3.57391357421875,0.216827392578125,0.0,4.0,4.0,4.0,4.0,95.0,event
13:27:41.435,0.0,0.0,0.0,0.0,0.0,0.0,0.0,0.0,0.0,0.0,0.0,0.0,0.0,0.0,0.0,0.0,0.0,0.0,0.0,0.0,803.0403,814.7253,820.3663,795.78754,942.8571,-0.09869384765625,0.00537109375,0.98590087890625,2.31781005859375,-3.57391357421875,0.216827392578125,0.0,4.0,4.0,4.0,4.0,95.0,event
13:27:41.440,0.0,0.0,0.0,0.0,0.0,0.0,0.0,0.0,0.0,0.0,0.0,0.0,0.0,0.0,0.0,0.0,0.0,0.0,0.0,0.0,823.1868,794.9817,818.7546,809.0842,729.304,-0.09869384765625,0.00537109375,0.98590087890625,2.31781005859375,-3.57391357421875,0.216827392578125,0.0,4.0,4.0,4.0,4.0,95.0,event
13:27:41.441,0.0,0.0,0.0,0.0,0.0,0.0,0.0,0.0,0.0,0.0,0.0,0.0,0.0,0.0,0.0,0.0,0.0,0.0,0.0,0.0,795.38464,770.0,830.0366,809.4872,757.9121,-0.09869384765625,0.00537109375,0.98590087890625,2.31781005859375,-3.57391357421875,0.216827392578125,0.0,4.0,4.0,4.0,4.0,95.0,event
13:27:41.442,0.0,0.0,0.0,0.0,0.0,0.0,0.0,0.0,0.0,0.0,0.0,0.0,0.0,0.0,0.0,0.0,0.0,0.0,0.0,0.0,765.56775,790.9524,822.381,778.46155,745.82416,-0.09869384765625,0.00537109375,0.98590087890625,2.31781005859375,-3.57391357421875,0.216827392578125,0.0,4.0,4.0,4.0,4.0,95.0,event
13:27:41.443,0.0,0.0,0.0,0.0,0.0,0.0,0.0,0.0,0.0,0.0,0.0,0.0,0.0,0.0,0.0,0.0,0.0,0.0,0.0,0.0,795.78754,795.78754,791.75824,784.5055,653.95605,-0.09869384765625,0.00537109375,0.98590087890625,2.31781005859375,-3.57391357421875,0.216827392578125,0.0,4.0,4.0,4.0,4.0,95.0,event
13:27:41.492,0.0,0.0,0.0,0.0,0.0,0.0,0.0,0.0,0.0,0.0,0.0,0.0,0.0,0.0,0.0,0.0,0.0,0.0,0.0,0.0,823.1868,785.31134,782.8938,802.6374,689.41394,-0.10162353515625,0.0067138671875,0.98828125,1.95892333984375,-3.521575927734375,0.485992431640625,0.0,4.0,4.0,4.0,4.0,95.0,event
13:27:41.493,0.0,0.0,0.0,0.0,0.0,0.0,0.0,0.0,0.0,0.0,0.0,0.0,0.0,0.0,0.0,0.0,0.0,0.0,0.0,0.0,809.89014,769.19415,790.54944,802.6374,833.663,-0.10162353515625,0.0067138671875,0.98828125,1.95892333984375,-3.521575927734375,0.485992431640625,0.0,4.0,4.0,4.0,4.0,95.0,event
13:27:41.494,0.0,0.0,0.0,0.0,0.0,0.0,0.0,0.0,0.0,0.0,0.0,0.0,0.0,0.0,0.0,0.0,0.0,0.0,0.0,0.0,788.93774,791.3553,809.89014,795.38464,921.50183,-0.10162353515625,0.0067138671875,0.98828125,1.95892333984375,-3.521575927734375,0.485992431640625,0.0,4.0,4.0,4.0,4.0,95.0,event
13:27:41.495,0.0,0.0,0.0,0.0,0.0,0.0,0.0,0.0,0.0,0.0,0.0,0.0,0.0,0.0,0.0,0.0,0.0,0.0,0.0,0.0,775.64105,795.38464,818.3516,782.49084,774.0293,-0.10162353515625,0.0067138671875,0.98828125,1.95892333984375,-3.521575927734375,0.485992431640625,0.0,4.0,4.0,4.0,4.0,95.0,event
13:27:41.496,0.0,0.0,0.0,0.0,0.0,0.0,0.0,0.0,0.0,0.0,0.0,0.0,0.0,0.0,0.0,0.0,0.0,0.0,0.0,0.0,779.67035,777.6557,824.3956,777.25275,690.2198,-0.10162353515625,0.0067138671875,0.98828125,1.95892333984375,-3.521575927734375,0.485992431640625,0.0,4.0,4.0,4.0,4.0,95.0,event
13:27:41.498,0.0,0.0,0.0,0.0,0.0,0.0,0.0,0.0,0.0,0.0,0.0,0.0,0.0,0.0,0.0,0.0,0.0,0.0,0.0,0.0,812.3077,784.5055,828.8278,794.57874,868.315,-0.10162353515625,0.0067138671875,0.98828125,1.95892333984375,-3.521575927734375,0.485992431640625,0.0,4.0,4.0,4.0,4.0,95.0,event
13:27:41.499,0.0,0.0,0.0,0.0,0.0,0.0,0.0,0.0,0.0,0.0,0.0,0.0,0.0,0.0,0.0,0.0,0.0,0.0,0.0,0.0,832.8571,796.1905,816.337,806.26373,995.64105,-0.10162353515625,0.0067138671875,0.98828125,1.95892333984375,-3.521575927734375,0.485992431640625,0.0,4.0,4.0,4.0,4.0,95.0,event
13:27:41.500,0.0,0.0,0.0,0.0,0.0,0.0,0.0,0.0,0.0,0.0,0.0,0.0,0.0,0.0,0.0,0.0,0.0,0.0,0.0,0.0,804.2491,796.5934,792.5641,801.02563,849.7802,-0.10162353515625,0.0067138671875,0.98828125,1.95892333984375,-3.521575927734375,0.485992431640625,0.0,4.0,4.0,4.0,4.0,95.0,event
13:27:41.501,0.0,0.0,0.0,0.0,0.0,0.0,0.0,0.0,0.0,0.0,0.0,0.0,0.0,0.0,0.0,0.0,0.0,0.0,0.0,0.0,775.2381,779.67035,792.5641,787.72894,755.4945,-0.10162353515625,0.0067138671875,0.98828125,1.95892333984375,-3.521575927734375,0.485992431640625,0.0,4.0,4.0,4.0,4.0,95.0,event
13:27:41.503,0.0,0.0,0.0,0.0,0.0,0.0,0.0,0.0,0.0,0.0,0.0,0.0,0.0,0.0,0.0,0.0,0.0,0.0,0.0,0.0,789.34064,759.5238,810.696,790.9524,875.9707,-0.10162353515625,0.0067138671875,0.98828125,1.95892333984375,-3.521575927734375,0.485992431640625,0.0,4.0,4.0,4.0,4.0,95.0,event
13:27:41.504,0.0,0.0,0.0,0.0,0.0,0.0,0.0,0.0,0.0,0.0,0.0,0.0,0.0,0.0,0.0,0.0,0.0,0.0,0.0,0.0,817.5458,792.96704,818.3516,813.1135,875.16486,-0.10162353515625,0.0067138671875,0.98828125,1.95892333984375,-3.521575927734375,0.485992431640625,0.0,4.0,4.0,4.0,4.0,95.0,event
13:27:41.505,0.0,0.0,0.0,0.0,0.0,0.0,0.0,0.0,0.0,0.0,0.0,0.0,0.0,0.0,0.0,0.0,0.0,0.0,0.0,0.0,811.50183,807.0696,823.5897,807.8755,759.12085,-0.10162353515625,0.0067138671875,0.98828125,1.95892333984375,-3.521575927734375,0.485992431640625,0.0,4.0,4.0,4.0,4.0,95.0,event
13:27:41.507,0.0,0.0,0.0,0.0,0.0,0.0,0.0,0.0,0.0,0.0,0.0,0.0,0.0,0.0,0.0,0.0,0.0,0.0,0.0,0.0,780.07324,774.83514,808.2784,790.54944,772.4176,-0.10162353515625,0.0067138671875,0.98828125,1.95892333984375,-3.521575927734375,0.485992431640625,0.0,4.0,4.0,4.0,4.0,95.0,event
13:27:41.508,0.0,0.0,0.0,0.0,0.0,0.0,0.0,0.0,0.0,0.0,0.0,0.0,0.0,0.0,0.0,0.0,0.0,0.0,0.0,0.0,770.80585,769.19415,778.0586,786.9231,828.022,-0.10162353515625,0.0067138671875,0.98828125,1.95892333984375,-3.521575927734375,0.485992431640625,0.0,4.0,4.0,4.0,4.0,95.0,event
13:27:41.509,0.0,0.0,0.0,0.0,0.0,0.0,0.0,0.0,0.0,0.0,0.0,0.0,0.0,0.0,0.0,0.0,0.0,0.0,0.0,0.0,792.5641,790.54944,808.68134,798.20514,784.90845,-0.10162353515625,0.0067138671875,0.98828125,1.95892333984375,-3.521575927734375,0.485992431640625,0.0,4.0,4.0,4.0,4.0,95.0,event
13:27:41.511,0.0,0.0,0.0,0.0,0.0,0.0,0.0,0.0,0.0,0.0,0.0,0.0,0.0,0.0,0.0,0.0,0.0,0.0,0.0,0.0,814.7253,795.38464,809.0842,800.2198,778.46155,-0.10162353515625,0.0067138671875,0.98828125,1.95892333984375,-3.521575927734375,0.485992431640625,0.0,4.0,4.0,4.0,4.0,95.0,event
13:27:41.512,0.0,0.0,0.0,0.0,0.0,0.0,0.0,0.0,0.0,0.0,0.0,0.0,0.0,0.0,0.0,0.0,0.0,0.0,0.0,0.0,812.71063,776.04395,786.52014,798.60803,815.12823,-0.10162353515625,0.0067138671875,0.98828125,1.95892333984375,-3.521575927734375,0.485992431640625,0.0,4.0,4.0,4.0,4.0,95.0,event
13:27:41.512,0.0,0.0,0.0,0.0,0.0,0.0,0.0,0.0,0.0,0.0,0.0,0.0,0.0,0.0,0.0,0.0,0.0,0.0,0.0,0.0,794.9817,763.5531,811.9048,809.89014,1015.78754,-0.10162353515625,0.0067138671875,0.98828125,1.95892333984375,-3.521575927734375,0.485992431640625,0.0,4.0,4.0,4.0,4.0,95.0,event
13:27:41.513,0.0,0.0,0.0,0.0,0.0,0.0,0.0,0.0,0.0,0.0,0.0,0.0,0.0,0.0,0.0,0.0,0.0,0.0,0.0,0.0,786.9231,806.26373,833.663,798.60803,690.2198,-0.10162353515625,0.0067138671875,0.98828125,1.95892333984375,-3.521575927734375,0.485992431640625,0.0,4.0,4.0,4.0,4.0,95.0,event
13:27:41.513,0.0,0.0,0.0,0.0,0.0,0.0,0.0,0.0,0.0,0.0,0.0,0.0,0.0,0.0,0.0,0.0,0.0,0.0,0.0,0.0,771.2088,801.02563,828.8278,800.2198,1024.652,-0.10162353515625,0.0067138671875,0.98828125,1.95892333984375,-3.521575927734375,0.485992431640625,0.0,4.0,4.0,4.0,4.0,95.0,event
13:27:41.514,0.0,0.0,0.0,0.0,0.0,0.0,0.0,0.0,0.0,0.0,0.0,0.0,0.0,0.0,0.0,0.0,0.0,0.0,0.0,0.0,806.26373,775.64105,822.7839,808.68134,614.0659,-0.10162353515625,0.0067138671875,0.98828125,1.95892333984375,-3.521575927734375,0.485992431640625,0.0,4.0,4.0,4.0,4.0,95.0,event
