TimeStamp,Delta_TP9,Delta_AF7,Delta_AF8,Delta_TP10,Theta_TP9,Theta_AF7,Theta_AF8,Theta_TP10,Alpha_TP9,Alpha_AF7,Alpha_AF8,Alpha_TP10,Beta_TP9,Beta_AF7,Beta_AF8,Beta_TP10,Gamma_TP9,Gamma_AF7,Gamma_AF8,Gamma_TP10,RAW_TP9,RAW_AF7,RAW_AF8,RAW_TP10,AUX_RIGHT,Accelerometer_X,Accelerometer_Y,Accelerometer_Z,Gyro_X,Gyro_Y,Gyro_Z,HeadBandOn,HSI_TP9,HSI_AF7,HSI_AF8,HSI_TP10,Battery,Elements
11:31:31.133,0.76651406,0.36084607,0.06488239,1.2836338,0.24217194,0.01694652,-0.09241184,0.6148711,0.55572397,0.43225133,0.23836054,0.58813244,1.1242439,0.45814568,0.14276257,1.0645013,0.9127642,0.6183993,0.33791435,0.9627876,802.23444,810.293,803.8461,817.5458,700.696,-0.081298828125,0.0634765625,0.98193359375,2.071075439453125,-3.701019287109375,-0.366363525390625,1.0,1.0,1.0,1.0,1.0,100.0,event
11:31:31.135,0.76651406,0.36084607,0.06488239,1.2836338,0.24217194,0.01694652,-0.09241184,0.6148711,0.55572397,0.43225133,0.23836054,0.58813244,1.1242439,0.45814568,0.14276257,1.0645013,0.9127642,0.6183993,0.33791435,0.9627876,816.7399,807.47253,811.50183,822.7839,812.3077,-0.081298828125,0.0634765625,0.98193359375,2.071075439453125,-3.701019287109375,-0.366363525390625,1.0,1.0,1.0,1.0,1.0,100.0,event
11:31:31.135,0.76651406,0.36084607,0.06488239,1.2836338,0.24217194,0.01694652,-0.09241184,0.6148711,0.55572397,0.43225133,0.23836054,0.58813244,1.1242439,0.45814568,0.14276257,1.0645013,0.9127642,0.6183993,0.33791435,0.9627876,801.02563,805.05493,807.0696,812.3077,846.9597,-0.081298828125,0.0634765625,0.98193359375,2.071075439453125,-3.701019287109375,-0.366363525390625,1.0,1.0,1.0,1.0,1.0,100.0,event
11:31:31.136,0.76651406,0.36084607,0.06488239,1.2836338,0.24217194,0.01694652,-0.09241184,0.6148711,0.55572397,0.43225133,0.23836054,0.58813244,1.1242439,0.45814568,0.14276257,1.0645013,0.9127642,0.6183993,0.33791435,0.9627876,802.6374,806.26373,795.78754,805.8608,766.3736,-0.081298828125,0.0634765625,0.98193359375,2.071075439453125,-3.701019287109375,-0.366363525390625,1.0,1.0,1.0,1.0,1.0,100.0,event
11:31:31.137,0.76651406,0.36084607,0.06488239,1.2836338,0.24217194,0.01694652,-0.09241184,0.6148711,0.55572397,0.43225133,0.23836054,0.58813244,1.1242439,0.45814568,0.14276257,1.0645013,0.9127642,0.6183993,0.33791435,0.9627876,790.9524,800.2198,809.0842,768.3883,935.2015,-0.081298828125,0.0634765625,0.98193359375,2.071075439453125,-3.701019287109375,-0.366363525390625,1.0,1.0,1.0,1.0,1.0,100.0,event
11:31:31.137,0.76651406,0.36084607,0.06488239,1.2836338,0.24217194,0.01694652,-0.09241184,0.6148711,0.55572397,0.43225133,0.23836054,0.58813244,1.1242439,0.45814568,0.14276257,1.0645013,0.9127642,0.6183993,0.33791435,0.9627876,796.99634,807.47253,794.9817,774.83514,715.2015,-0.081298828125,0.0634765625,0.98193359375,2.071075439453125,-3.701019287109375,-0.366363525390625,1.0,1.0,1.0,1.0,1.0,100.0,event
11:31:31.138,0.76651406,0.36084607,0.06488239,1.2836338,0.24217194,0.01694652,-0.09241184,0.6148711,0.55572397,0.43225133,0.23836054,0.58813244,1.1242439,0.45814568,0.14276257,1.0645013,0.9127642,0.6183993,0.33791435,0.9627876,809.89014,801.02563,816.7399,815.12823,968.24176,-0.081298828125,0.0634765625,0.98193359375,2.071075439453125,-3.701019287109375,-0.366363525390625,1.0,1.0,1.0,1.0,1.0,100.0,event
11:31:31.138,0.76651406,0.36084607,0.06488239,1.2836338,0.24217194,0.01694652,-0.09241184,0.6148711,0.55572397,0.43225133,0.23836054,0.58813244,1.1242439,0.45814568,0.14276257,1.0645013,0.9127642,0.6183993,0.33791435,0.9627876,822.381,806.26373,810.293,834.4689,783.2967,-0.081298828125,0.0634765625,0.98193359375,2.071075439453125,-3.701019287109375,-0.366363525390625,1.0,1.0,1.0,1.0,1.0,100.0,event
11:31:31.139,0.76651406,0.36084607,0.06488239,1.2836338,0.24217194,0.01694652,-0.09241184,0.6148711,0.55572397,0.43225133,0.23836054,0.58813244,1.1242439,0.45814568,0.14276257,1.0645013,0.9127642,0.6183993,0.33791435,0.9627876,784.5055,807.0696,801.8315,807.47253,735.7509,-0.081298828125,0.0634765625,0.98193359375,2.071075439453125,-3.701019287109375,-0.366363525390625,1.0,1.0,1.0,1.0,1.0,100.0,event
11:31:31.140,0.76651406,0.32456577,0.030394753,1.2836338,0.24217194,0.017243132,-0.082284175,0.6148711,0.55572397,0.43005455,0.23831752,0.58813244,1.1242439,0.44951814,0.15170078,1.0645013,0.9127642,0.6118399,0.3297506,0.9627876,780.87915,813.1135,794.9817,791.75824,886.04395,-0.081298828125,0.0634765625,0.98193359375,2.071075439453125,-3.701019287109375,-0.366363525390625,1.0,1.0,1.0,1.0,1.0,100.0,event
11:31:31.144,0.76651406,0.32456577,0.030394753,1.2836338,0.24217194,0.017243132,-0.082284175,0.6148711,0.55572397,0.43005455,0.23831752,0.58813244,1.1242439,0.44951814,0.15170078,1.0645013,0.9127642,0.6118399,0.3297506,0.9627876,790.54944,804.2491,807.47253,810.696,830.4396,-0.081298828125,0.0634765625,0.98193359375,2.071075439453125,-3.701019287109375,-0.366363525390625,1.0,1.0,1.0,1.0,1.0,100.0,event
11:31:31.145,0.76651406,0.32456577,0.030394753,1.2836338,0.24217194,0.017243132,-0.082284175,0.6148711,0.55572397,0.43005455,0.23831752,0.58813244,1.1242439,0.44951814,0.15170078,1.0645013,0.9127642,0.6118399,0.3297506,0.9627876,769.59705,791.75824,820.7692,826.0073,717.2161,-0.081298828125,0.0634765625,0.98193359375,2.071075439453125,-3.701019287109375,-0.366363525390625,1.0,1.0,1.0,1.0,1.0,100.0,event
11:31:31.146,0.76651406,0.32456577,0.030394753,1.2836338,0.24217194,0.017243132,-0.082284175,0.6148711,0.55572397,0.43005455,0.23831752,0.58813244,1.1242439,0.44951814,0.15170078,1.0645013,0.9127642,0.6118399,0.3297506,0.9627876,782.8938,800.2198,813.1135,806.26373,761.13556,-0.08282470703125,0.06671142578125,0.986328125,1.8841552734375,-3.461761474609375,0.052337646484375,1.0,1.0,1.0,1.0,1.0,100.0,event
11:31:31.147,0.76651406,0.32456577,0.030394753,1.2836338,0.24217194,0.017243132,-0.082284175,0.6148711,0.55572397,0.43005455,0.23831752,0.58813244,1.1242439,0.44951814,0.15170078,1.0645013,0.9127642,0.6118399,0.3297506,0.9627876,809.4872,819.15753,800.2198,790.14655,716.8132,-0.08282470703125,0.06671142578125,0.986328125,1.8841552734375,-3.461761474609375,0.052337646484375,1.0,1.0,1.0,1.0,1.0,100.0,event
11:31:31.147,0.76651406,0.32456577,0.030394753,1.2836338,0.24217194,0.017243132,-0.082284175,0.6148711,0.55572397,0.43005455,0.23831752,0.58813244,1.1242439,0.44951814,0.15170078,1.0645013,0.9127642,0.6118399,0.3297506,0.9627876,787.326,818.7546,798.20514,763.95605,609.2308,-0.08282470703125,0.06671142578125,0.986328125,1.8841552734375,-3.461761474609375,0.052337646484375,1.0,1.0,1.0,1.0,1.0,100.0,event
11:31:31.148,0.76651406,0.32456577,0.030394753,1.2836338,0.24217194,0.017243132,-0.082284175,0.6148711,0.55572397,0.43005455,0.23831752,0.58813244,1.1242439,0.44951814,0.15170078,1.0645013,0.9127642,0.6118399,0.3297506,0.9627876,776.8498,804.2491,803.8461,772.01465,655.9707,-0.08282470703125,0.06671142578125,0.986328125,1.8841552734375,-3.461761474609375,0.052337646484375,1.0,1.0,1.0,1.0,1.0,100.0,event
11:31:31.149,0.76651406,0.32456577,0.030394753,1.2836338,0.24217194,0.017243132,-0.082284175,0.6148711,0.55572397,0.43005455,0.23831752,0.58813244,1.1242439,0.44951814,0.15170078,1.0645013,0.9127642,0.6118399,0.3297506,0.9627876,790.54944,799.81683,806.6667,814.7253,832.4542,-0.08282470703125,0.06671142578125,0.986328125,1.8841552734375,-3.461761474609375,0.052337646484375,1.0,1.0,1.0,1.0,1.0,100.0,event
11:31:31.149,0.76651406,0.32456577,0.030394753,1.2836338,0.24217194,0.017243132,-0.082284175,0.6148711,0.55572397,0.43005455,0.23831752,0.58813244,1.1242439,0.44951814,0.15170078,1.0645013,0.9127642,0.6118399,0.3297506,0.9627876,816.7399,800.6227,807.47253,833.2601,880.40295,-0.08282470703125,0.06671142578125,0.986328125,1.8841552734375,-3.461761474609375,0.052337646484375,1.0,1.0,1.0,1.0,1.0,100.0,event
11:31:31.150,0.76651406,0.32456577,0.030394753,1.2836338,0.24217194,0.017243132,-0.082284175,0.6148711,0.55572397,0.43005455,0.23831752,0.58813244,1.1242439,0.44951814,0.15170078,1.0645013,0.9127642,0.6118399,0.3297506,0.9627876,806.6667,805.05493,803.8461,787.326,819.9634,-0.08282470703125,0.06671142578125,0.986328125,1.8841552734375,-3.461761474609375,0.052337646484375,1.0,1.0,1.0,1.0,1.0,100.0,event
11:31:31.150,0.76651406,0.32456577,0.030394753,1.2836338,0.24217194,0.017243132,-0.082284175,0.6148711,0.55572397,0.43005455,0.23831752,0.58813244,1.1242439,0.44951814,0.15170078,1.0645013,0.9127642,0.6118399,0.3297506,0.9627876,788.1319,810.696,799.41394,786.1172,748.24176,-0.08282470703125,0.06671142578125,0.986328125,1.8841552734375,-3.461761474609375,0.052337646484375,1.0,1.0,1.0,1.0,1.0,100.0,event
11:31:31.151,0.76651406,0.32456577,0.030394753,1.2836338,0.24217194,0.017243132,-0.082284175,0.6148711,0.55572397,0.43005455,0.23831752,0.58813244,1.1242439,0.44951814,0.15170078,1.0645013,0.9127642,0.6118399,0.3297506,0.9627876,836.08057,809.4872,796.99634,815.9341,839.304,-0.08282470703125,0.06671142578125,0.986328125,1.8841552734375,-3.461761474609375,0.052337646484375,1.0,1.0,1.0,1.0,1.0,100.0,event
11:31:31.152,0.76651406,0.32456577,0.030394753,1.2836338,0.24217194,0.017243132,-0.082284175,0.6148711,0.55572397,0.43005455,0.23831752,0.58813244,1.1242439,0.44951814,0.15170078,1.0645013,0.9127642,0.6118399,0.3297506,0.9627876,806.26373,803.8461,801.4286,828.8278,930.3663,-0.08282470703125,0.06671142578125,0.986328125,1.8841552734375,-3.461761474609375,0.052337646484375,1.0,1.0,1.0,1.0,1.0,100.0,event
11:31:31.152,0.76651406,0.32456577,0.030394753,1.2836338,0.24217194,0.017243132,-0.082284175,0.6148711,0.55572397,0.43005455,0.23831752,0.58813244,1.1242439,0.44951814,0.15170078,1.0645013,0.9127642,0.6118399,0.3297506,0.9627876,786.1172,801.4286,810.696,810.293,752.27106,-0.08282470703125,0.06671142578125,0.986328125,1.8841552734375,-3.461761474609375,0.052337646484375,1.0,1.0,1.0,1.0,1.0,100.0,event
11:31:31.153,0.76651406,0.32456577,0.030394753,1.2836338,0.24217194,0.017243132,-0.082284175,0.6148711,0.55572397,0.43005455,0.23831752,0.58813244,1.1242439,0.44951814,0.15170078,1.0645013,0.9127642,0.6118399,0.3297506,0.9627876,811.9048,797.8022,811.9048,776.8498,648.71796,-0.08282470703125,0.06671142578125,0.986328125,1.8841552734375,-3.461761474609375,0.052337646484375,1.0,1.0,1.0,1.0,1.0,100.0,event
11:31:31.179,0.76651406,0.32456577,0.030394753,1.2836338,0.24217194,0.017243132,-0.082284175,0.6148711,0.55572397,0.43005455,0.23831752,0.58813244,1.1242439,0.44951814,0.15170078,1.0645013,0.9127642,0.6118399,0.3297506,0.9627876,789.34064,800.6227,798.60803,786.1172,820.7692,-0.0863037109375,0.0634765625,0.9788818359375,1.55517578125,-3.24493408203125,0.04486083984375,1.0,1.0,1.0,1.0,1.0,100.0,event
11:31:31.180,0.76651406,0.32456577,0.030394753,1.2836338,0.24217194,0.017243132,-0.082284175,0.6148711,0.55572397,0.43005455,0.23831752,0.58813244,1.1242439,0.44951814,0.15170078,1.0645013,0.9127642,0.6118399,0.3297506,0.9627876,782.0879,795.38464,811.9048,805.8608,672.8938,-0.0863037109375,0.0634765625,0.9788818359375,1.55517578125,-3.24493408203125,0.04486083984375,1.0,1.0,1.0,1.0,1.0,100.0,event
11:31:31.180,0.76651406,0.32456577,0.030394753,1.2836338,0.24217194,0.017243132,-0.082284175,0.6148711,0.55572397,0.43005455,0.23831752,0.58813244,1.1242439,0.44951814,0.15170078,1.0645013,0.9127642,0.6118399,0.3297506,0.9627876,788.93774,803.44324,801.02563,812.3077,856.2271,-0.0863037109375,0.0634765625,0.9788818359375,1.55517578125,-3.24493408203125,0.04486083984375,1.0,1.0,1.0,1.0,1.0,100.0,event
11:31:31.181,0.76651406,0.32456577,0.030394753,1.2836338,0.24217194,0.017243132,-0.082284175,0.6148711,0.55572397,0.43005455,0.23831752,0.58813244,1.1242439,0.44951814,0.15170078,1.0645013,0.9127642,0.6118399,0.3297506,0.9627876,799.81683,805.8608,809.89014,784.5055,720.4396,-0.0863037109375,0.0634765625,0.9788818359375,1.55517578125,-3.24493408203125,0.04486083984375,1.0,1.0,1.0,1.0,1.0,100.0,event
11:31:31.181,0.76651406,0.32456577,0.030394753,1.2836338,0.24217194,0.017243132,-0.082284175,0.6148711,0.55572397,0.43005455,0.23831752,0.58813244,1.1242439,0.44951814,0.15170078,1.0645013,0.9127642,0.6118399,0.3297506,0.9627876,811.50183,820.3663,807.8755,824.3956,728.49817,-0.0863037109375,0.0634765625,0.9788818359375,1.55517578125,-3.24493408203125,0.04486083984375,1.0,1.0,1.0,1.0,1.0,100.0,event
11:31:31.182,0.76651406,0.32456577,0.030394753,1.2836338,0.24217194,0.017243132,-0.082284175,0.6148711,0.55572397,0.43005455,0.23831752,0.58813244,1.1242439,0.44951814,0.15170078,1.0645013,0.9127642,0.6118399,0.3297506,0.9627876,775.64105,813.1135,797.3993,786.52014,751.8681,-0.0863037109375,0.0634765625,0.9788818359375,1.55517578125,-3.24493408203125,0.04486083984375,1.0,1.0,1.0,1.0,1.0,100.0,event
11:31:31.183,0.76651406,0.32456577,0.030394753,1.2836338,0.24217194,0.017243132,-0.082284175,0.6148711,0.55572397,0.43005455,0.23831752,0.58813244,1.1242439,0.44951814,0.15170078,1.0645013,0.9127642,0.6118399,0.3297506,0.9627876,798.60803,802.6374,804.2491,767.1795,776.8498,-0.0863037109375,0.0634765625,0.9788818359375,1.55517578125,-3.24493408203125,0.04486083984375,1.0,1.0,1.0,1.0,1.0,100.0,event
11:31:31.183,0.76651406,0.32456577,0.030394753,1.2836338,0.24217194,0.017243132,-0.082284175,0.6148711,0.55572397,0.43005455,0.23831752,0.58813244,1.1242439,0.44951814,0.15170078,1.0645013,0.9127642,0.6118399,0.3297506,0.9627876,803.8461,809.89014,809.89014,778.46155,735.34796,-0.0863037109375,0.0634765625,0.9788818359375,1.55517578125,-3.24493408203125,0.04486083984375,1.0,1.0,1.0,1.0,1.0,100.0,event
11:31:31.184,0.76651406,0.32456577,0.030394753,1.2836338,0.24217194,0.017243132,-0.082284175,0.6148711,0.55572397,0.43005455,0.23831752,0.58813244,1.1242439,0.44951814,0.15170078,1.0645013,0.9127642,0.6118399,0.3297506,0.9627876,792.96704,809.0842,804.65204,777.6557,1001.685,-0.0863037109375,0.0634765625,0.9788818359375,1.55517578125,-3.24493408203125,0.04486083984375,1.0,1.0,1.0,1.0,1.0,100.0,event
11:31:31.184,0.76651406,0.32456577,0.030394753,1.2836338,0.24217194,0.017243132,-0.082284175,0.6148711,0.55572397,0.43005455,0.23831752,0.58813244,1.1242439,0.44951814,0.15170078,1.0645013,0.9127642,0.6118399,0.3297506,0.9627876,792.1612,799.81683,811.0989,801.02563,1008.5348,-0.0863037109375,0.0634765625,0.9788818359375,1.55517578125,-3.24493408203125,0.04486083984375,1.0,1.0,1.0,1.0,1.0,100.0,event
11:31:31.185,0.76651406,0.2955761,-0.004812507,1.2836338,0.24217194,-0.011867192,-0.06911179,0.6148711,0.55572397,0.4230426,0.23683494,0.58813244,1.1242439,0.43448132,0.161313,1.0645013,0.9127642,0.5851676,0.31798628,0.9627876,799.011,817.1429,798.20514,769.19415,728.49817,-0.0863037109375,0.0634765625,0.9788818359375,1.55517578125,-3.24493408203125,0.04486083984375,1.0,1.0,1.0,1.0,1.0,100.0,event
11:31:31.185,0.76651406,0.32456577,0.030394753,1.2836338,0.24217194,0.017243132,-0.082284175,0.6148711,0.55572397,0.43005455,0.23831752,0.58813244,1.1242439,0.44951814,0.15170078,1.0645013,0.9127642,0.6118399,0.3297506,0.9627876,793.36993,810.293,805.8608,796.1905,688.20514,-0.0863037109375,0.0634765625,0.9788818359375,1.55517578125,-3.24493408203125,0.04486083984375,1.0,1.0,1.0,1.0,1.0,100.0,event
11:31:31.215,0.76651406,0.2955761,-0.004812507,1.2836338,0.24217194,-0.011867192,-0.06911179,0.6148711,0.55572397,0.4230426,0.23683494,0.58813244,1.1242439,0.43448132,0.161313,1.0645013,0.9127642,0.5851676,0.31798628,0.9627876,782.0879,812.3077,813.1135,820.7692,771.6117,-0.08380126953125,0.068115234375,0.97979736328125,2.370147705078125,-3.267364501953125,1.33087158203125,1.0,1.0,1.0,1.0,1.0,100.0,event
11:31:31.216,0.76651406,0.2955761,-0.004812507,1.2836338,0.24217194,-0.011867192,-0.06911179,0.6148711,0.55572397,0.4230426,0.23683494,0.58813244,1.1242439,0.43448132,0.161313,1.0645013,0.9127642,0.5851676,0.31798628,0.9627876,790.9524,806.26373,807.8755,836.4835,680.54944,-0.08380126953125,0.068115234375,0.97979736328125,2.370147705078125,-3.267364501953125,1.33087158203125,1.0,1.0,1.0,1.0,1.0,100.0,event
11:31:31.216,0.76651406,0.2955761,-0.004812507,1.2836338,0.24217194,-0.011867192,-0.06911179,0.6148711,0.55572397,0.4230426,0.23683494,0.58813244,1.1242439,0.43448132,0.161313,1.0645013,0.9127642,0.5851676,0.31798628,0.9627876,792.1612,801.4286,796.5934,766.3736,742.1978,-0.08380126953125,0.068115234375,0.97979736328125,2.370147705078125,-3.267364501953125,1.33087158203125,1.0,1.0,1.0,1.0,1.0,100.0,event
11:31:31.217,0.76651406,0.2955761,-0.004812507,1.2836338,0.24217194,-0.011867192,-0.06911179,0.6148711,0.55572397,0.4230426,0.23683494,0.58813244,1.1242439,0.43448132,0.161313,1.0645013,0.9127642,0.5851676,0.31798628,0.9627876,779.67035,807.0696,803.0403,772.8205,753.0769,-0.08380126953125,0.068115234375,0.97979736328125,2.370147705078125,-3.267364501953125,1.33087158203125,1.0,1.0,1.0,1.0,1.0,100.0,event
11:31:31.217,0.76651406,0.2955761,-0.004812507,1.2836338,0.24217194,-0.011867192,-0.06911179,0.6148711,0.55572397,0.4230426,0.23683494,0.58813244,1.1242439,0.43448132,0.161313,1.0645013,0.9127642,0.5851676,0.31798628,0.9627876,767.98535,805.8608,808.2784,800.6227,663.6264,-0.08380126953125,0.068115234375,0.97979736328125,2.370147705078125,-3.267364501953125,1.33087158203125,1.0,1.0,1.0,1.0,1.0,100.0,event
11:31:31.218,0.76651406,0.2955761,-0.004812507,1.2836338,0.24217194,-0.011867192,-0.06911179,0.6148711,0.55572397,0.4230426,0.23683494,0.58813244,1.1242439,0.43448132,0.161313,1.0645013,0.9127642,0.5851676,0.31798628,0.9627876,773.22345,795.38464,810.696,790.9524,738.1685,-0.08380126953125,0.068115234375,0.97979736328125,2.370147705078125,-3.267364501953125,1.33087158203125,1.0,1.0,1.0,1.0,1.0,100.0,event
11:31:31.218,0.76651406,0.2955761,-0.004812507,1.2836338,0.24217194,-0.011867192,-0.06911179,0.6148711,0.55572397,0.4230426,0.23683494,0.58813244,1.1242439,0.43448132,0.161313,1.0645013,0.9127642,0.5851676,0.31798628,0.9627876,810.293,817.1429,796.5934,770.40295,819.9634,-0.08380126953125,0.068115234375,0.97979736328125,2.370147705078125,-3.267364501953125,1.33087158203125,1.0,1.0,1.0,1.0,1.0,100.0,event
11:31:31.219,0.76651406,0.2955761,-0.004812507,1.2836338,0.24217194,-0.011867192,-0.06911179,0.6148711,0.55572397,0.4230426,0.23683494,0.58813244,1.1242439,0.43448132,0.161313,1.0645013,0.9127642,0.5851676,0.31798628,0.9627876,827.619,825.2015,790.9524,788.5348,904.9817,-0.08380126953125,0.068115234375,0.97979736328125,2.370147705078125,-3.267364501953125,1.33087158203125,1.0,1.0,1.0,1.0,1.0,100.0,event
11:31:31.220,0.76651406,0.2955761,-0.004812507,1.2836338,0.24217194,-0.011867192,-0.06911179,0.6148711,0.55572397,0.4230426,0.23683494,0.58813244,1.1242439,0.43448132,0.161313,1.0645013,0.9127642,0.5851676,0.31798628,0.9627876,811.0989,815.9341,804.65204,813.91943,983.1502,-0.08380126953125,0.068115234375,0.97979736328125,2.370147705078125,-3.267364501953125,1.33087158203125,1.0,1.0,1.0,1.0,1.0,100.0,event
11:31:31.221,0.76651406,0.2955761,-0.004812507,1.2836338,0.24217194,-0.011867192,-0.06911179,0.6148711,0.55572397,0.4230426,0.23683494,0.58813244,1.1242439,0.43448132,0.161313,1.0645013,0.9127642,0.5851676,0.31798628,0.9627876,809.0842,817.9487,805.4579,823.1868,809.89014,-0.08380126953125,0.068115234375,0.97979736328125,2.370147705078125,-3.267364501953125,1.33087158203125,1.0,1.0,1.0,1.0,1.0,100.0,event
11:31:31.222,0.76651406,0.2955761,-0.004812507,1.2836338,0.24217194,-0.011867192,-0.06911179,0.6148711,0.55572397,0.4230426,0.23683494,0.58813244,1.1242439,0.43448132,0.161313,1.0645013,0.9127642,0.5851676,0.31798628,0.9627876,807.47253,813.5165,796.5934,789.34064,734.1392,-0.08380126953125,0.068115234375,0.97979736328125,2.370147705078125,-3.267364501953125,1.33087158203125,1.0,1.0,1.0,1.0,1.0,100.0,event
11:31:31.223,0.76651406,0.2955761,-0.004812507,1.2836338,0.24217194,-0.011867192,-0.06911179,0.6148711,0.55572397,0.4230426,0.23683494,0.58813244,1.1242439,0.43448132,0.161313,1.0645013,0.9127642,0.5851676,0.31798628,0.9627876,796.5934,805.8608,810.696,809.89014,786.9231,-0.08380126953125,0.068115234375,0.97979736328125,2.370147705078125,-3.267364501953125,1.33087158203125,1.0,1.0,1.0,1.0,1.0,100.0,event
11:31:31.251,0.76651406,0.2955761,-0.004812507,1.2836338,0.24217194,-0.011867192,-0.06911179,0.6148711,0.55572397,0.4230426,0.23683494,0.58813244,1.1242439,0.43448132,0.161313,1.0645013,0.9127642,0.5851676,0.31798628,0.9627876,795.78754,804.2491,811.50183,835.6777,805.4579,-0.0955810546875,0.0665283203125,0.98272705078125,2.026214599609375,-2.52716064453125,0.560760498046875,1.0,1.0,1.0,1.0,1.0,100.0,event
11:31:31.252,0.76651406,0.2955761,-0.004812507,1.2836338,0.24217194,-0.011867192,-0.06911179,0.6148711,0.55572397,0.4230426,0.23683494,0.58813244,1.1242439,0.43448132,0.161313,1.0645013,0.9127642,0.5851676,0.31798628,0.9627876,785.31134,811.0989,798.60803,770.40295,712.7839,-0.0955810546875,0.0665283203125,0.98272705078125,2.026214599609375,-2.52716064453125,0.560760498046875,1.0,1.0,1.0,1.0,1.0,100.0,event
11:31:31.253,0.76651406,0.2955761,-0.004812507,1.2836338,0.24217194,-0.011867192,-0.06911179,0.6148711,0.55572397,0.4230426,0.23683494,0.58813244,1.1242439,0.43448132,0.161313,1.0645013,0.9127642,0.5851676,0.31798628,0.9627876,773.6264,814.7253,799.81683,756.30035,744.61536,-0.0955810546875,0.0665283203125,0.98272705078125,2.026214599609375,-2.52716064453125,0.560760498046875,1.0,1.0,1.0,1.0,1.0,100.0,event
11:31:31.254,0.76651406,0.2955761,-0.004812507,1.2836338,0.24217194,-0.011867192,-0.06911179,0.6148711,0.55572397,0.4230426,0.23683494,0.58813244,1.1242439,0.43448132,0.161313,1.0645013,0.9127642,0.5851676,0.31798628,0.9627876,778.46155,813.5165,801.02563,782.0879,827.2161,-0.0955810546875,0.0665283203125,0.98272705078125,2.026214599609375,-2.52716064453125,0.560760498046875,1.0,1.0,1.0,1.0,1.0,100.0,event
11:31:31.254,0.76651406,0.2955761,-0.004812507,1.2836338,0.24217194,-0.011867192,-0.06911179,0.6148711,0.55572397,0.4230426,0.23683494,0.58813244,1.1242439,0.43448132,0.161313,1.0645013,0.9127642,0.5851676,0.31798628,0.9627876,809.0842,808.68134,809.4872,826.0073,788.1319,-0.0955810546875,0.0665283203125,0.98272705078125,2.026214599609375,-2.52716064453125,0.560760498046875,1.0,1.0,1.0,1.0,1.0,100.0,event
11:31:31.255,0.76651406,0.2955761,-0.004812507,1.2836338,0.24217194,-0.011867192,-0.06911179,0.6148711,0.55572397,0.4230426,0.23683494,0.58813244,1.1242439,0.43448132,0.161313,1.0645013,0.9127642,0.5851676,0.31798628,0.9627876,844.94507,813.5165,804.2491,841.7216,792.96704,-0.0955810546875,0.0665283203125,0.98272705078125,2.026214599609375,-2.52716064453125,0.560760498046875,1.0,1.0,1.0,1.0,1.0,100.0,event
11:31:31.255,0.76651406,0.2955761,-0.004812507,1.2836338,0.24217194,-0.011867192,-0.06911179,0.6148711,0.55572397,0.4230426,0.23683494,0.58813244,1.1242439,0.43448132,0.161313,1.0645013,0.9127642,0.5851676,0.31798628,0.9627876,804.2491,809.4872,796.99634,811.0989,909.81683,-0.0955810546875,0.0665283203125,0.98272705078125,2.026214599609375,-2.52716064453125,0.560760498046875,1.0,1.0,1.0,1.0,1.0,100.0,event
11:31:31.256,0.76651406,0.2955761,-0.004812507,1.2836338,0.24217194,-0.011867192,-0.06911179,0.6148711,0.55572397,0.4230426,0.23683494,0.58813244,1.1242439,0.43448132,0.161313,1.0645013,0.9127642,0.5851676,0.31798628,0.9627876,809.0842,813.91943,811.0989,793.7729,925.12823,-0.0955810546875,0.0665283203125,0.98272705078125,2.026214599609375,-2.52716064453125,0.560760498046875,1.0,1.0,1.0,1.0,1.0,100.0,event
11:31:31.256,0.76651406,0.2955761,-0.004812507,1.2836338,0.24217194,-0.011867192,-0.06911179,0.6148711,0.55572397,0.4230426,0.23683494,0.58813244,1.1242439,0.43448132,0.161313,1.0645013,0.9127642,0.5851676,0.31798628,0.9627876,758.71796,795.38464,810.293,787.72894,1063.7362,-0.0955810546875,0.0665283203125,0.98272705078125,2.026214599609375,-2.52716064453125,0.560760498046875,1.0,1.0,1.0,1.0,1.0,100.0,event
11:31:31.257,0.76651406,0.2955761,-0.004812507,1.2836338,0.24217194,-0.011867192,-0.06911179,0.6148711,0.55572397,0.4230426,0.23683494,0.58813244,1.1242439,0.43448132,0.161313,1.0645013,0.9127642,0.5851676,0.31798628,0.9627876,839.707,835.6777,799.011,813.1135,710.3663,-0.0955810546875,0.0665283203125,0.98272705078125,2.026214599609375,-2.52716064453125,0.560760498046875,1.0,1.0,1.0,1.0,1.0,100.0,event
11:31:31.258,0.76651406,0.2955761,-0.004812507,1.2836338,0.24217194,-0.011867192,-0.06911179,0.6148711,0.55572397,0.4230426,0.23683494,0.58813244,1.1242439,0.43448132,0.161313,1.0645013,0.9127642,0.5851676,0.31798628,0.9627876,824.3956,823.9927,804.2491,827.2161,815.5311,-0.0955810546875,0.0665283203125,0.98272705078125,2.026214599609375,-2.52716064453125,0.560760498046875,1.0,1.0,1.0,1.0,1.0,100.0,event
11:31:31.258,0.76651406,0.2955761,-0.004812507,1.2836338,0.24217194,-0.011867192,-0.06911179,0.6148711,0.55572397,0.4230426,0.23683494,0.58813244,1.1242439,0.43448132,0.161313,1.0645013,0.9127642,0.5851676,0.31798628,0.9627876,809.89014,811.0989,812.71063,821.978,875.9707,-0.0955810546875,0.0665283203125,0.98272705078125,2.026214599609375,-2.52716064453125,0.560760498046875,1.0,1.0,1.0,1.0,1.0,100.0,event
11:31:31.319,0.76651406,0.2955761,-0.004812507,1.2836338,0.24217194,-0.011867192,-0.06911179,0.6148711,0.55572397,0.4230426,0.23683494,0.58813244,1.1242439,0.43448132,0.161313,1.0645013,0.9127642,0.5851676,0.31798628,0.9627876,811.9048,809.0842,812.3077,812.3077,803.44324,-0.0955810546875,0.0665283203125,0.98272705078125,2.026214599609375,-2.52716064453125,0.560760498046875,1.0,1.0,1.0,1.0,1.0,100.0,event
11:31:31.320,0.76651406,0.25145164,-0.018424006,1.2836338,0.24217194,-0.06498782,-0.06133186,0.6148711,0.55572397,0.37759775,0.23213705,0.58813244,1.1242439,0.41584963,0.16756158,1.0645013,0.9127642,0.53014606,0.28787327,0.9627876,822.7839,806.6667,812.3077,853.4066,707.5458,-0.0955810546875,0.0665283203125,0.98272705078125,2.026214599609375,-2.52716064453125,0.560760498046875,1.0,1.0,1.0,1.0,1.0,100.0,event
11:31:31.323,0.76651406,0.25145164,-0.018424006,1.2836338,0.24217194,-0.06498782,-0.06133186,0.6148711,0.55572397,0.37759775,0.23213705,0.58813244,1.1242439,0.41584963,0.16756158,1.0645013,0.9127642,0.53014606,0.28787327,0.9627876,817.5458,815.5311,805.05493,857.03296,754.68866,-0.0955810546875,0.0665283203125,0.98272705078125,2.026214599609375,-2.52716064453125,0.560760498046875,1.0,1.0,1.0,1.0,1.0,100.0,event
11:31:31.324,0.76651406,0.25145164,-0.018424006,1.2836338,0.24217194,-0.06498782,-0.06133186,0.6148711,0.55572397,0.37759775,0.23213705,0.58813244,1.1242439,0.41584963,0.16756158,1.0645013,0.9127642,0.53014606,0.28787327,0.9627876,815.9341,819.9634,803.0403,795.78754,875.56775,-0.0955810546875,0.0665283203125,0.98272705078125,2.026214599609375,-2.52716064453125,0.560760498046875,1.0,1.0,1.0,1.0,1.0,100.0,event
11:31:31.325,0.76651406,0.25145164,-0.018424006,1.2836338,0.24217194,-0.06498782,-0.06133186,0.6148711,0.55572397,0.37759775,0.23213705,0.58813244,1.1242439,0.41584963,0.16756158,1.0645013,0.9127642,0.53014606,0.28787327,0.9627876,807.8755,811.50183,808.68134,794.9817,732.52747,-0.0955810546875,0.0665283203125,0.98272705078125,2.026214599609375,-2.52716064453125,0.560760498046875,1.0,1.0,1.0,1.0,1.0,100.0,event
11:31:31.325,0.76651406,0.25145164,-0.018424006,1.2836338,0.24217194,-0.06498782,-0.06133186,0.6148711,0.55572397,0.37759775,0.23213705,0.58813244,1.1242439,0.41584963,0.16756158,1.0645013,0.9127642,0.53014606,0.28787327,0.9627876,803.0403,801.8315,811.50183,798.20514,699.0842,-0.0955810546875,0.0665283203125,0.98272705078125,2.026214599609375,-2.52716064453125,0.560760498046875,1.0,1.0,1.0,1.0,1.0,100.0,event
11:31:31.326,0.76651406,0.25145164,-0.018424006,1.2836338,0.24217194,-0.06498782,-0.06133186,0.6148711,0.55572397,0.37759775,0.23213705,0.58813244,1.1242439,0.41584963,0.16756158,1.0645013,0.9127642,0.53014606,0.28787327,0.9627876,801.02563,799.41394,807.47253,801.8315,914.65204,-0.0955810546875,0.0665283203125,0.98272705078125,2.026214599609375,-2.52716064453125,0.560760498046875,1.0,1.0,1.0,1.0,1.0,100.0,event
11:31:31.326,0.76651406,0.25145164,-0.018424006,1.2836338,0.24217194,-0.06498782,-0.06133186,0.6148711,0.55572397,0.37759775,0.23213705,0.58813244,1.1242439,0.41584963,0.16756158,1.0645013,0.9127642,0.53014606,0.28787327,0.9627876,819.15753,810.293,809.0842,849.3773,1075.4213,-0.0955810546875,0.0665283203125,0.98272705078125,2.026214599609375,-2.52716064453125,0.560760498046875,1.0,1.0,1.0,1.0,1.0,100.0,event
11:31:31.327,0.76651406,0.25145164,-0.018424006,1.2836338,0.24217194,-0.06498782,-0.06133186,0.6148711,0.55572397,0.37759775,0.23213705,0.58813244,1.1242439,0.41584963,0.16756158,1.0645013,0.9127642,0.53014606,0.28787327,0.9627876,809.89014,811.9048,809.4872,845.34796,886.8498,-0.0955810546875,0.0665283203125,0.98272705078125,2.026214599609375,-2.52716064453125,0.560760498046875,1.0,1.0,1.0,1.0,1.0,100.0,event
11:31:31.328,0.76651406,0.25145164,-0.018424006,1.2836338,0.24217194,-0.06498782,-0.06133186,0.6148711,0.55572397,0.37759775,0.23213705,0.58813244,1.1242439,0.41584963,0.16756158,1.0645013,0.9127642,0.53014606,0.28787327,0.9627876,811.9048,809.89014,804.65204,797.8022,755.4945,-0.0955810546875,0.0665283203125,0.98272705078125,2.026214599609375,-2.52716064453125,0.560760498046875,1.0,1.0,1.0,1.0,1.0,100.0,event
11:31:31.328,0.76651406,0.25145164,-0.018424006,1.2836338,0.24217194,-0.06498782,-0.06133186,0.6148711,0.55572397,0.37759775,0.23213705,0.58813244,1.1242439,0.41584963,0.16756158,1.0645013,0.9127642,0.53014606,0.28787327,0.9627876,818.7546,819.5604,805.4579,792.5641,772.4176,-0.0955810546875,0.0665283203125,0.98272705078125,2.026214599609375,-2.52716064453125,0.560760498046875,1.0,1.0,1.0,1.0,1.0,100.0,event
11:31:31.329,0.76651406,0.25145164,-0.018424006,1.2836338,0.24217194,-0.06498782,-0.06133186,0.6148711,0.55572397,0.37759775,0.23213705,0.58813244,1.1242439,0.41584963,0.16756158,1.0645013,0.9127642,0.53014606,0.28787327,0.9627876,792.96704,815.5311,810.696,811.50183,721.6484,-0.0955810546875,0.0665283203125,0.98272705078125,2.026214599609375,-2.52716064453125,0.560760498046875,1.0,1.0,1.0,1.0,1.0,100.0,event
11:31:31.350,0.76651406,0.25145164,-0.018424006,1.2836338,0.24217194,-0.06498782,-0.06133186,0.6148711,0.55572397,0.37759775,0.23213705,0.58813244,1.1242439,0.41584963,0.16756158,1.0645013,0.9127642,0.53014606,0.28787327,0.9627876,806.26373,813.5165,809.89014,824.3956,690.6227,-0.08306884765625,0.0660400390625,0.98846435546875,1.906585693359375,-3.237457275390625,0.01495361328125,1.0,1.0,1.0,1.0,1.0,100.0,event
11:31:31.351,0.76651406,0.25145164,-0.018424006,1.2836338,0.24217194,-0.06498782,-0.06133186,0.6148711,0.55572397,0.37759775,0.23213705,0.58813244,1.1242439,0.41584963,0.16756158,1.0645013,0.9127642,0.53014606,0.28787327,0.9627876,833.663,815.9341,810.293,815.5311,740.18317,-0.08306884765625,0.0660400390625,0.98846435546875,1.906585693359375,-3.237457275390625,0.01495361328125,1.0,1.0,1.0,1.0,1.0,100.0,event
11:31:31.352,0.76651406,0.25145164,-0.018424006,1.2836338,0.24217194,-0.06498782,-0.06133186,0.6148711,0.55572397,0.37759775,0.23213705,0.58813244,1.1242439,0.41584963,0.16756158,1.0645013,0.9127642,0.53014606,0.28787327,0.9627876,834.87177,816.7399,809.0842,828.8278,764.7619,-0.08306884765625,0.0660400390625,0.98846435546875,1.906585693359375,-3.237457275390625,0.01495361328125,1.0,1.0,1.0,1.0,1.0,100.0,event
11:31:31.353,0.76651406,0.25145164,-0.018424006,1.2836338,0.24217194,-0.06498782,-0.06133186,0.6148711,0.55572397,0.37759775,0.23213705,0.58813244,1.1242439,0.41584963,0.16756158,1.0645013,0.9127642,0.53014606,0.28787327,0.9627876,802.23444,811.50183,811.0989,813.5165,724.4689,-0.08306884765625,0.0660400390625,0.98846435546875,1.906585693359375,-3.237457275390625,0.01495361328125,1.0,1.0,1.0,1.0,1.0,100.0,event
11:31:31.353,0.76651406,0.25145164,-0.018424006,1.2836338,0.24217194,-0.06498782,-0.06133186,0.6148711,0.55572397,0.37759775,0.23213705,0.58813244,1.1242439,0.41584963,0.16756158,1.0645013,0.9127642,0.53014606,0.28787327,0.9627876,803.44324,808.2784,807.8755,795.78754,670.07324,-0.08306884765625,0.0660400390625,0.98846435546875,1.906585693359375,-3.237457275390625,0.01495361328125,1.0,1.0,1.0,1.0,1.0,100.0,event
11:31:31.354,0.76651406,0.25145164,-0.018424006,1.2836338,0.24217194,-0.06498782,-0.06133186,0.6148711,0.55572397,0.37759775,0.23213705,0.58813244,1.1242439,0.41584963,0.16756158,1.0645013,0.9127642,0.53014606,0.28787327,0.9627876,812.71063,810.696,797.8022,807.0696,694.65204,-0.08306884765625,0.0660400390625,0.98846435546875,1.906585693359375,-3.237457275390625,0.01495361328125,1.0,1.0,1.0,1.0,1.0,100.0,event
11:31:31.355,0.76651406,0.25145164,-0.018424006,1.2836338,0.24217194,-0.06498782,-0.06133186,0.6148711,0.55572397,0.37759775,0.23213705,0.58813244,1.1242439,0.41584963,0.16756158,1.0645013,0.9127642,0.53014606,0.28787327,0.9627876,819.15753,809.0842,806.26373,809.4872,985.16486,-0.08306884765625,0.0660400390625,0.98846435546875,1.906585693359375,-3.237457275390625,0.01495361328125,1.0,1.0,1.0,1.0,1.0,100.0,event
11:31:31.355,0.76651406,0.25145164,-0.018424006,1.2836338,0.24217194,-0.06498782,-0.06133186,0.6148711,0.55572397,0.37759775,0.23213705,0.58813244,1.1242439,0.41584963,0.16756158,1.0645013,0.9127642,0.53014606,0.28787327,0.9627876,823.9927,807.0696,803.44324,823.9927,894.10254,-0.08306884765625,0.0660400390625,0.98846435546875,1.906585693359375,-3.237457275390625,0.01495361328125,1.0,1.0,1.0,1.0,1.0,100.0,event
11:31:31.356,0.76651406,0.25145164,-0.018424006,1.2836338,0.24217194,-0.06498782,-0.06133186,0.6148711,0.55572397,0.37759775,0.23213705,0.58813244,1.1242439,0.41584963,0.16756158,1.0645013,0.9127642,0.53014606,0.28787327,0.9627876,805.8608,809.0842,807.8755,803.44324,767.98535,-0.08306884765625,0.0660400390625,0.98846435546875,1.906585693359375,-3.237457275390625,0.01495361328125,1.0,1.0,1.0,1.0,1.0,100.0,event
11:31:31.356,0.76651406,0.25145164,-0.018424006,1.2836338,0.24217194,-0.06498782,-0.06133186,0.6148711,0.55572397,0.37759775,0.23213705,0.58813244,1.1242439,0.41584963,0.16756158,1.0645013,0.9127642,0.53014606,0.28787327,0.9627876,812.71063,804.2491,809.4872,817.1429,679.34064,-0.08306884765625,0.0660400390625,0.98846435546875,1.906585693359375,-3.237457275390625,0.01495361328125,1.0,1.0,1.0,1.0,1.0,100.0,event
11:31:31.357,0.76651406,0.25145164,-0.018424006,1.2836338,0.24217194,-0.06498782,-0.06133186,0.6148711,0.55572397,0.37759775,0.23213705,0.58813244,1.1242439,0.41584963,0.16756158,1.0645013,0.9127642,0.53014606,0.28787327,0.9627876,804.2491,805.05493,804.65204,840.10986,862.674,-0.08306884765625,0.0660400390625,0.98846435546875,1.906585693359375,-3.237457275390625,0.01495361328125,1.0,1.0,1.0,1.0,1.0,100.0,event
11:31:31.358,0.76651406,0.25145164,-0.018424006,1.2836338,0.24217194,-0.06498782,-0.06133186,0.6148711,0.55572397,0.37759775,0.23213705,0.58813244,1.1242439,0.41584963,0.16756158,1.0645013,0.9127642,0.53014606,0.28787327,0.9627876,823.1868,810.293,803.0403,839.304,804.2491,-0.08306884765625,0.0660400390625,0.98846435546875,1.906585693359375,-3.237457275390625,0.01495361328125,1.0,1.0,1.0,1.0,1.0,100.0,event
11:31:31.447,0.76651406,0.25145164,-0.018424006,1.2836338,0.24217194,-0.06498782,-0.06133186,0.6148711,0.55572397,0.37759775,0.23213705,0.58813244,1.1242439,0.41584963,0.16756158,1.0645013,0.9127642,0.53014606,0.28787327,0.9627876,834.4689,812.71063,800.6227,807.0696,728.49817,-0.08795166015625,0.069091796875,0.98358154296875,2.340240478515625,-3.70849609375,0.82244873046875,1.0,1.0,1.0,1.0,1.0,100.0,event
11:31:31.449,0.76651406,0.25145164,-0.018424006,1.2836338,0.24217194,-0.06498782,-0.06133186,0.6148711,0.55572397,0.37759775,0.23213705,0.58813244,1.1242439,0.41584963,0.16756158,1.0645013,0.9127642,0.53014606,0.28787327,0.9627876,796.1905,806.6667,803.44324,818.7546,809.4872,-0.08795166015625,0.069091796875,0.98358154296875,2.340240478515625,-3.70849609375,0.82244873046875,1.0,1.0,1.0,1.0,1.0,100.0,event
11:31:31.449,0.76651406,0.25145164,-0.018424006,1.2836338,0.24217194,-0.06498782,-0.06133186,0.6148711,0.55572397,0.37759775,0.23213705,0.58813244,1.1242439,0.41584963,0.16756158,1.0645013,0.9127642,0.53014606,0.28787327,0.9627876,789.7436,813.1135,800.2198,814.7253,783.69965,-0.08795166015625,0.069091796875,0.98358154296875,2.340240478515625,-3.70849609375,0.82244873046875,1.0,1.0,1.0,1.0,1.0,100.0,event
11:31:31.450,0.76651406,0.20919266,-0.004799155,1.2836338,0.24217194,-0.112882994,-0.06236889,0.6148711,0.55572397,0.26739693,0.22372355,0.58813244,1.1242439,0.39241683,0.16654249,1.0645013,0.9127642,0.44408628,0.23169406,0.9627876,822.7839,826.0073,798.60803,801.02563,695.8608,-0.08795166015625,0.069091796875,0.98358154296875,2.340240478515625,-3.70849609375,0.82244873046875,1.0,1.0,1.0,1.0,1.0,100.0,event
11:31:31.455,0.76651406,0.20919266,-0.004799155,1.2836338,0.24217194,-0.112882994,-0.06236889,0.6148711,0.55572397,0.26739693,0.22372355,0.58813244,1.1242439,0.39241683,0.16654249,1.0645013,0.9127642,0.44408628,0.23169406,0.9627876,816.7399,806.6667,808.68134,819.9634,853.00366,-0.08795166015625,0.069091796875,0.98358154296875,2.340240478515625,-3.70849609375,0.82244873046875,1.0,1.0,1.0,1.0,1.0,100.0,event
11:31:31.455,0.76651406,0.20919266,-0.004799155,1.2836338,0.24217194,-0.112882994,-0.06236889,0.6148711,0.55572397,0.26739693,0.22372355,0.58813244,1.1242439,0.39241683,0.16654249,1.0645013,0.9127642,0.44408628,0.23169406,0.9627876,831.2454,817.9487,806.6667,828.022,634.61536,-0.08795166015625,0.069091796875,0.98358154296875,2.340240478515625,-3.70849609375,0.82244873046875,1.0,1.0,1.0,1.0,1.0,100.0,event
11:31:31.456,0.76651406,0.20919266,-0.004799155,1.2836338,0.24217194,-0.112882994,-0.06236889,0.6148711,0.55572397,0.26739693,0.22372355,0.58813244,1.1242439,0.39241683,0.16654249,1.0645013,0.9127642,0.44408628,0.23169406,0.9627876,776.4469,804.65204,803.44324,772.8205,971.8681,-0.08795166015625,0.069091796875,0.98358154296875,2.340240478515625,-3.70849609375,0.82244873046875,1.0,1.0,1.0,1.0,1.0,100.0,event
11:31:31.457,0.76651406,0.20919266,-0.004799155,1.2836338,0.24217194,-0.112882994,-0.06236889,0.6148711,0.55572397,0.26739693,0.22372355,0.58813244,1.1242439,0.39241683,0.16654249,1.0645013,0.9127642,0.44408628,0.23169406,0.9627876,780.87915,809.89014,803.8461,784.90845,755.89746,-0.08795166015625,0.069091796875,0.98358154296875,2.340240478515625,-3.70849609375,0.82244873046875,1.0,1.0,1.0,1.0,1.0,100.0,event
11:31:31.458,0.76651406,0.20919266,-0.004799155,1.2836338,0.24217194,-0.112882994,-0.06236889,0.6148711,0.55572397,0.26739693,0.22372355,0.58813244,1.1242439,0.39241683,0.16654249,1.0645013,0.9127642,0.44408628,0.23169406,0.9627876,793.7729,807.8755,809.0842,813.91943,666.4469,-0.08795166015625,0.069091796875,0.98358154296875,2.340240478515625,-3.70849609375,0.82244873046875,1.0,1.0,1.0,1.0,1.0,100.0,event
11:31:31.458,0.76651406,0.20919266,-0.004799155,1.2836338,0.24217194,-0.112882994,-0.06236889,0.6148711,0.55572397,0.26739693,0.22372355,0.58813244,1.1242439,0.39241683,0.16654249,1.0645013,0.9127642,0.44408628,0.23169406,0.9627876,811.0989,809.89014,807.0696,799.011,920.293,-0.08795166015625,0.069091796875,0.98358154296875,2.340240478515625,-3.70849609375,0.82244873046875,1.0,1.0,1.0,1.0,1.0,100.0,event
11:31:31.459,0.76651406,0.20919266,-0.004799155,1.2836338,0.24217194,-0.112882994,-0.06236889,0.6148711,0.55572397,0.26739693,0.22372355,0.58813244,1.1242439,0.39241683,0.16654249,1.0645013,0.9127642,0.44408628,0.23169406,0.9627876,836.08057,822.381,802.6374,817.9487,1043.1868,-0.08795166015625,0.069091796875,0.98358154296875,2.340240478515625,-3.70849609375,0.82244873046875,1.0,1.0,1.0,1.0,1.0,100.0,event
11:31:31.460,0.76651406,0.20919266,-0.004799155,1.2836338,0.24217194,-0.112882994,-0.06236889,0.6148711,0.55572397,0.26739693,0.22372355,0.58813244,1.1242439,0.39241683,0.16654249,1.0645013,0.9127642,0.44408628,0.23169406,0.9627876,813.5165,819.5604,805.4579,817.5458,799.81683,-0.08795166015625,0.069091796875,0.98358154296875,2.340240478515625,-3.70849609375,0.82244873046875,1.0,1.0,1.0,1.0,1.0,100.0,event
11:31:31.484,0.76651406,0.20919266,-0.004799155,1.2836338,0.24217194,-0.112882994,-0.06236889,0.6148711,0.55572397,0.26739693,0.22372355,0.58813244,1.1242439,0.39241683,0.16654249,1.0645013,0.9127642,0.44408628,0.23169406,0.9627876,787.326,804.65204,809.89014,795.78754,758.71796,-0.095458984375,0.0648193359375,0.9771728515625,2.579498291015625,-2.355194091796875,0.725250244140625,1.0,1.0,1.0,1.0,1.0,100.0,event
11:31:31.486,0.76651406,0.20919266,-0.004799155,1.2836338,0.24217194,-0.112882994,-0.06236889,0.6148711,0.55572397,0.26739693,0.22372355,0.58813244,1.1242439,0.39241683,0.16654249,1.0645013,0.9127642,0.44408628,0.23169406,0.9627876,784.5055,801.8315,807.47253,820.7692,731.7216,-0.095458984375,0.0648193359375,0.9771728515625,2.579498291015625,-2.355194091796875,0.725250244140625,1.0,1.0,1.0,1.0,1.0,100.0,event
11:31:31.486,0.76651406,0.20919266,-0.004799155,1.2836338,0.24217194,-0.112882994,-0.06236889,0.6148711,0.55572397,0.26739693,0.22372355,0.58813244,1.1242439,0.39241683,0.16654249,1.0645013,0.9127642,0.44408628,0.23169406,0.9627876,818.3516,820.3663,797.3993,831.2454,738.97437,-0.095458984375,0.0648193359375,0.9771728515625,2.579498291015625,-2.355194091796875,0.725250244140625,1.0,1.0,1.0,1.0,1.0,100.0,event
11:31:31.487,0.76651406,0.20919266,-0.004799155,1.2836338,0.24217194,-0.112882994,-0.06236889,0.6148711,0.55572397,0.26739693,0.22372355,0.58813244,1.1242439,0.39241683,0.16654249,1.0645013,0.9127642,0.44408628,0.23169406,0.9627876,834.0659,828.8278,799.011,778.86444,785.31134,-0.095458984375,0.0648193359375,0.9771728515625,2.579498291015625,-2.355194091796875,0.725250244140625,1.0,1.0,1.0,1.0,1.0,100.0,event
11:31:31.488,0.76651406,0.20919266,-0.004799155,1.2836338,0.24217194,-0.112882994,-0.06236889,0.6148711,0.55572397,0.26739693,0.22372355,0.58813244,1.1242439,0.39241683,0.16654249,1.0645013,0.9127642,0.44408628,0.23169406,0.9627876,813.5165,807.47253,807.0696,778.86444,796.1905,-0.095458984375,0.0648193359375,0.9771728515625,2.579498291015625,-2.355194091796875,0.725250244140625,1.0,1.0,1.0,1.0,1.0,100.0,event
11:31:31.489,0.76651406,0.20919266,-0.004799155,1.2836338,0.24217194,-0.112882994,-0.06236889,0.6148711,0.55572397,0.26739693,0.22372355,0.58813244,1.1242439,0.39241683,0.16654249,1.0645013,0.9127642,0.44408628,0.23169406,0.9627876,799.011,798.20514,811.0989,794.17584,900.9524,-0.095458984375,0.0648193359375,0.9771728515625,2.579498291015625,-2.355194091796875,0.725250244140625,1.0,1.0,1.0,1.0,1.0,100.0,event
11:31:31.490,0.76651406,0.20919266,-0.004799155,1.2836338,0.24217194,-0.112882994,-0.06236889,0.6148711,0.55572397,0.26739693,0.22372355,0.58813244,1.1242439,0.39241683,0.16654249,1.0645013,0.9127642,0.44408628,0.23169406,0.9627876,781.28204,801.4286,811.9048,811.0989,891.685,-0.095458984375,0.0648193359375,0.9771728515625,2.579498291015625,-2.355194091796875,0.725250244140625,1.0,1.0,1.0,1.0,1.0,100.0,event
11:31:31.491,0.76651406,0.20919266,-0.004799155,1.2836338,0.24217194,-0.112882994,-0.06236889,0.6148711,0.55572397,0.26739693,0.22372355,0.58813244,1.1242439,0.39241683,0.16654249,1.0645013,0.9127642,0.44408628,0.23169406,0.9627876,787.72894,811.0989,805.05493,805.05493,759.12085,-0.095458984375,0.0648193359375,0.9771728515625,2.579498291015625,-2.355194091796875,0.725250244140625,1.0,1.0,1.0,1.0,1.0,100.0,event
11:31:31.492,0.76651406,0.20919266,-0.004799155,1.2836338,0.24217194,-0.112882994,-0.06236889,0.6148711,0.55572397,0.26739693,0.22372355,0.58813244,1.1242439,0.39241683,0.16654249,1.0645013,0.9127642,0.44408628,0.23169406,0.9627876,807.8755,817.9487,802.23444,800.2198,751.8681,-0.095458984375,0.0648193359375,0.9771728515625,2.579498291015625,-2.355194091796875,0.725250244140625,1.0,1.0,1.0,1.0,1.0,100.0,event
11:31:31.493,0.76651406,0.20919266,-0.004799155,1.2836338,0.24217194,-0.112882994,-0.06236889,0.6148711,0.55572397,0.26739693,0.22372355,0.58813244,1.1242439,0.39241683,0.16654249,1.0645013,0.9127642,0.44408628,0.23169406,0.9627876,807.47253,811.0989,805.8608,815.9341,954.94507,-0.095458984375,0.0648193359375,0.9771728515625,2.579498291015625,-2.355194091796875,0.725250244140625,1.0,1.0,1.0,1.0,1.0,100.0,event
11:31:31.494,0.76651406,0.20919266,-0.004799155,1.2836338,0.24217194,-0.112882994,-0.06236889,0.6148711,0.55572397,0.26739693,0.22372355,0.58813244,1.1242439,0.39241683,0.16654249,1.0645013,0.9127642,0.44408628,0.23169406,0.9627876,788.93774,812.3077,807.47253,775.64105,867.1062,-0.095458984375,0.0648193359375,0.9771728515625,2.579498291015625,-2.355194091796875,0.725250244140625,1.0,1.0,1.0,1.0,1.0,100.0,event
11:31:31.495,0.76651406,0.20919266,-0.004799155,1.2836338,0.24217194,-0.112882994,-0.06236889,0.6148711,0.55572397,0.26739693,0.22372355,0.58813244,1.1242439,0.39241683,0.16654249,1.0645013,0.9127642,0.44408628,0.23169406,0.9627876,805.05493,815.5311,795.38464,793.36993,679.34064,-0.095458984375,0.0648193359375,0.9771728515625,2.579498291015625,-2.355194091796875,0.725250244140625,1.0,1.0,1.0,1.0,1.0,100.0,event
11:31:31.496,0.76651406,0.20919266,-0.004799155,1.2836338,0.24217194,-0.112882994,-0.06236889,0.6148711,0.55572397,0.26739693,0.22372355,0.58813244,1.1242439,0.39241683,0.16654249,1.0645013,0.9127642,0.44408628,0.23169406,0.9627876,842.52747,817.5458,800.2198,857.8388,826.8132,-0.0904541015625,0.070556640625,0.97991943359375,2.28790283203125,-3.24493408203125,0.52337646484375,1.0,1.0,1.0,1.0,1.0,100.0,event
11:31:31.497,0.76651406,0.20919266,-0.004799155,1.2836338,0.24217194,-0.112882994,-0.06236889,0.6148711,0.55572397,0.26739693,0.22372355,0.58813244,1.1242439,0.39241683,0.16654249,1.0645013,0.9127642,0.44408628,0.23169406,0.9627876,838.49817,811.9048,820.7692,840.10986,897.72894,-0.0904541015625,0.070556640625,0.97991943359375,2.28790283203125,-3.24493408203125,0.52337646484375,1.0,1.0,1.0,1.0,1.0,100.0,event
11:31:31.498,0.76651406,0.20919266,-0.004799155,1.2836338,0.24217194,-0.112882994,-0.06236889,0.6148711,0.55572397,0.26739693,0.22372355,0.58813244,1.1242439,0.39241683,0.16654249,1.0645013,0.9127642,0.44408628,0.23169406,0.9627876,796.1905,809.4872,811.0989,799.41394,725.2747,-0.0904541015625,0.070556640625,0.97991943359375,2.28790283203125,-3.24493408203125,0.52337646484375,1.0,1.0,1.0,1.0,1.0,100.0,event
11:31:31.499,0.76651406,0.20919266,-0.004799155,1.2836338,0.24217194,-0.112882994,-0.06236889,0.6148711,0.55572397,0.26739693,0.22372355,0.58813244,1.1242439,0.39241683,0.16654249,1.0645013,0.9127642,0.44408628,0.23169406,0.9627876,786.9231,807.47253,802.23444,799.81683,666.4469,-0.0904541015625,0.070556640625,0.97991943359375,2.28790283203125,-3.24493408203125,0.52337646484375,1.0,1.0,1.0,1.0,1.0,100.0,event
11:31:31.500,0.76651406,0.20919266,-0.004799155,1.2836338,0.24217194,-0.112882994,-0.06236889,0.6148711,0.55572397,0.26739693,0.22372355,0.58813244,1.1242439,0.39241683,0.16654249,1.0645013,0.9127642,0.44408628,0.23169406,0.9627876,796.5934,805.05493,802.6374,807.0696,778.0586,-0.0904541015625,0.070556640625,0.97991943359375,2.28790283203125,-3.24493408203125,0.52337646484375,1.0,1.0,1.0,1.0,1.0,100.0,event
11:31:31.501,0.76651406,0.1740914,0.028013764,1.2836338,0.24217194,-0.1284583,-0.07095935,0.6148711,0.55572397,0.11995059,0.18978687,0.58813244,1.1242439,0.36270684,0.15401879,1.0645013,0.9127642,0.33260265,0.1576749,0.9627876,808.2784,809.0842,800.2198,814.7253,872.74725,-0.0904541015625,0.070556640625,0.97991943359375,2.28790283203125,-3.24493408203125,0.52337646484375,1.0,1.0,1.0,1.0,1.0,100.0,event
11:31:31.505,0.76651406,0.1740914,0.028013764,1.2836338,0.24217194,-0.1284583,-0.07095935,0.6148711,0.55572397,0.11995059,0.18978687,0.58813244,1.1242439,0.36270684,0.15401879,1.0645013,0.9127642,0.33260265,0.1576749,0.9627876,831.6484,813.5165,804.2491,806.26373,805.05493,-0.0904541015625,0.070556640625,0.97991943359375,2.28790283203125,-3.24493408203125,0.52337646484375,1.0,1.0,1.0,1.0,1.0,100.0,event
11:31:31.509,0.76651406,0.1740914,0.028013764,1.2836338,0.24217194,-0.1284583,-0.07095935,0.6148711,0.55572397,0.11995059,0.18978687,0.58813244,1.1242439,0.36270684,0.15401879,1.0645013,0.9127642,0.33260265,0.1576749,0.9627876,823.1868,808.2784,810.293,806.6667,720.0366,-0.0904541015625,0.070556640625,0.97991943359375,2.28790283203125,-3.24493408203125,0.52337646484375,1.0,1.0,1.0,1.0,1.0,100.0,event
11:31:31.510,0.76651406,0.1740914,0.028013764,1.2836338,0.24217194,-0.1284583,-0.07095935,0.6148711,0.55572397,0.11995059,0.18978687,0.58813244,1.1242439,0.36270684,0.15401879,1.0645013,0.9127642,0.33260265,0.1576749,0.9627876,796.5934,803.0403,809.4872,811.0989,866.30035,-0.0904541015625,0.070556640625,0.97991943359375,2.28790283203125,-3.24493408203125,0.52337646484375,1.0,1.0,1.0,1.0,1.0,100.0,event
11:31:31.511,0.76651406,0.1740914,0.028013764,1.2836338,0.24217194,-0.1284583,-0.07095935,0.6148711,0.55572397,0.11995059,0.18978687,0.58813244,1.1242439,0.36270684,0.15401879,1.0645013,0.9127642,0.33260265,0.1576749,0.9627876,796.5934,805.05493,806.26373,779.67035,979.5238,-0.0904541015625,0.070556640625,0.97991943359375,2.28790283203125,-3.24493408203125,0.52337646484375,1.0,1.0,1.0,1.0,1.0,100.0,event
11:31:31.512,0.76651406,0.1740914,0.028013764,1.2836338,0.24217194,-0.1284583,-0.07095935,0.6148711,0.55572397,0.11995059,0.18978687,0.58813244,1.1242439,0.36270684,0.15401879,1.0645013,0.9127642,0.33260265,0.1576749,0.9627876,811.9048,814.3223,800.6227,772.8205,773.6264,-0.0904541015625,0.070556640625,0.97991943359375,2.28790283203125,-3.24493408203125,0.52337646484375,1.0,1.0,1.0,1.0,1.0,100.0,event
11:31:31.512,0.76651406,0.1740914,0.028013764,1.2836338,0.24217194,-0.1284583,-0.07095935,0.6148711,0.55572397,0.11995059,0.18978687,0.58813244,1.1242439,0.36270684,0.15401879,1.0645013,0.9127642,0.33260265,0.1576749,0.9627876,812.3077,814.3223,803.0403,805.4579,724.87177,-0.0904541015625,0.070556640625,0.97991943359375,2.28790283203125,-3.24493408203125,0.52337646484375,1.0,1.0,1.0,1.0,1.0,100.0,event
11:31:31.542,0.76651406,0.1740914,0.028013764,1.2836338,0.24217194,-0.1284583,-0.07095935,0.6148711,0.55572397,0.11995059,0.18978687,0.58813244,1.1242439,0.36270684,0.15401879,1.0645013,0.9127642,0.33260265,0.1576749,0.9627876,794.9817,809.4872,805.4579,821.1722,786.52014,-0.0904541015625,0.070556640625,0.97991943359375,2.28790283203125,-3.24493408203125,0.52337646484375,1.0,1.0,1.0,1.0,1.0,100.0,event
11:31:31.543,0.76651406,0.1740914,0.028013764,1.2836338,0.24217194,-0.1284583,-0.07095935,0.6148711,0.55572397,0.11995059,0.18978687,0.58813244,1.1242439,0.36270684,0.15401879,1.0645013,0.9127642,0.33260265,0.1576749,0.9627876,783.69965,803.8461,808.68134,787.72894,764.35895,-0.0904541015625,0.070556640625,0.97991943359375,2.28790283203125,-3.24493408203125,0.52337646484375,1.0,1.0,1.0,1.0,1.0,100.0,event
11:31:31.543,0.76651406,0.1740914,0.028013764,1.2836338,0.24217194,-0.1284583,-0.07095935,0.6148711,0.55572397,0.11995059,0.18978687,0.58813244,1.1242439,0.36270684,0.15401879,1.0645013,0.9127642,0.33260265,0.1576749,0.9627876,780.87915,796.99634,812.71063,794.57874,703.91943,-0.0904541015625,0.070556640625,0.97991943359375,2.28790283203125,-3.24493408203125,0.52337646484375,1.0,1.0,1.0,1.0,1.0,100.0,event
11:31:31.544,0.76651406,0.1740914,0.028013764,1.2836338,0.24217194,-0.1284583,-0.07095935,0.6148711,0.55572397,0.11995059,0.18978687,0.58813244,1.1242439,0.36270684,0.15401879,1.0645013,0.9127642,0.33260265,0.1576749,0.9627876,801.8315,807.47253,800.6227,801.02563,807.47253,-0.0904541015625,0.070556640625,0.97991943359375,2.28790283203125,-3.24493408203125,0.52337646484375,1.0,1.0,1.0,1.0,1.0,100.0,event
11:31:31.544,0.76651406,0.1740914,0.028013764,1.2836338,0.24217194,-0.1284583,-0.07095935,0.6148711,0.55572397,0.11995059,0.18978687,0.58813244,1.1242439,0.36270684,0.15401879,1.0645013,0.9127642,0.33260265,0.1576749,0.9627876,828.4249,817.1429,799.41394,779.67035,976.30035,-0.0904541015625,0.070556640625,0.97991943359375,2.28790283203125,-3.24493408203125,0.52337646484375,1.0,1.0,1.0,1.0,1.0,100.0,event
11:31:31.545,0.76651406,0.1740914,0.028013764,1.2836338,0.24217194,-0.1284583,-0.07095935,0.6148711,0.55572397,0.11995059,0.18978687,0.58813244,1.1242439,0.36270684,0.15401879,1.0645013,0.9127642,0.33260265,0.1576749,0.9627876,802.6374,808.68134,804.65204,782.0879,935.2015,-0.0904541015625,0.070556640625,0.97991943359375,2.28790283203125,-3.24493408203125,0.52337646484375,1.0,1.0,1.0,1.0,1.0,100.0,event
11:31:31.546,0.76651406,0.1740914,0.028013764,1.2836338,0.24217194,-0.1284583,-0.07095935,0.6148711,0.55572397,0.11995059,0.18978687,0.58813244,1.1242439,0.36270684,0.15401879,1.0645013,0.9127642,0.33260265,0.1576749,0.9627876,798.20514,801.02563,808.2784,804.2491,861.06226,-0.0904541015625,0.070556640625,0.97991943359375,2.28790283203125,-3.24493408203125,0.52337646484375,1.0,1.0,1.0,1.0,1.0,100.0,event
11:31:31.546,0.76651406,0.1740914,0.028013764,1.2836338,0.24217194,-0.1284583,-0.07095935,0.6148711,0.55572397,0.11995059,0.18978687,0.58813244,1.1242439,0.36270684,0.15401879,1.0645013,0.9127642,0.33260265,0.1576749,0.9627876,803.0403,802.23444,806.6667,792.96704,823.9927,-0.0904541015625,0.070556640625,0.97991943359375,2.28790283203125,-3.24493408203125,0.52337646484375,1.0,1.0,1.0,1.0,1.0,100.0,event
11:31:31.547,0.76651406,0.1740914,0.028013764,1.2836338,0.24217194,-0.1284583,-0.07095935,0.6148711,0.55572397,0.11995059,0.18978687,0.58813244,1.1242439,0.36270684,0.15401879,1.0645013,0.9127642,0.33260265,0.1576749,0.9627876,806.26373,806.6667,802.23444,795.38464,905.38464,-0.0904541015625,0.070556640625,0.97991943359375,2.28790283203125,-3.24493408203125,0.52337646484375,1.0,1.0,1.0,1.0,1.0,100.0,event
11:31:31.547,0.76651406,0.1740914,0.028013764,1.2836338,0.24217194,-0.1284583,-0.07095935,0.6148711,0.55572397,0.11995059,0.18978687,0.58813244,1.1242439,0.36270684,0.15401879,1.0645013,0.9127642,0.33260265,0.1576749,0.9627876,821.5751,810.696,801.4286,804.65204,859.0476,-0.0904541015625,0.070556640625,0.97991943359375,2.28790283203125,-3.24493408203125,0.52337646484375,1.0,1.0,1.0,1.0,1.0,100.0,event
11:31:31.548,0.76651406,0.1740914,0.028013764,1.2836338,0.24217194,-0.1284583,-0.07095935,0.6148711,0.55572397,0.11995059,0.18978687,0.58813244,1.1242439,0.36270684,0.15401879,1.0645013,0.9127642,0.33260265,0.1576749,0.9627876,810.696,805.05493,813.1135,833.663,717.2161,-0.0904541015625,0.070556640625,0.97991943359375,2.28790283203125,-3.24493408203125,0.52337646484375,1.0,1.0,1.0,1.0,1.0,100.0,event
11:31:31.548,0.76651406,0.1740914,0.028013764,1.2836338,0.24217194,-0.1284583,-0.07095935,0.6148711,0.55572397,0.11995059,0.18978687,0.58813244,1.1242439,0.36270684,0.15401879,1.0645013,0.9127642,0.33260265,0.1576749,0.9627876,824.3956,809.89014,805.05493,818.3516,652.74725,-0.0904541015625,0.070556640625,0.97991943359375,2.28790283203125,-3.24493408203125,0.52337646484375,1.0,1.0,1.0,1.0,1.0,100.0,event
11:31:31.620,0.76651406,0.1740914,0.028013764,1.2836338,0.24217194,-0.1284583,-0.07095935,0.6148711,0.55572397,0.11995059,0.18978687,0.58813244,1.1242439,0.36270684,0.15401879,1.0645013,0.9127642,0.33260265,0.1576749,0.9627876,797.3993,804.2491,813.5165,795.78754,782.8938,-0.0960693359375,0.0684814453125,0.9794921875,2.908477783203125,-3.312225341796875,1.07666015625,1.0,1.0,1.0,1.0,1.0,100.0,event
11:31:31.621,0.76651406,0.1740914,0.028013764,1.2836338,0.24217194,-0.1284583,-0.07095935,0.6148711,0.55572397,0.11995059,0.18978687,0.58813244,1.1242439,0.36270684,0.15401879,1.0645013,0.9127642,0.33260265,0.1576749,0.9627876,809.0842,814.7253,809.89014,796.1905,738.97437,-0.0960693359375,0.0684814453125,0.9794921875,2.908477783203125,-3.312225341796875,1.07666015625,1.0,1.0,1.0,1.0,1.0,100.0,event
11:31:31.622,0.76651406,0.1740914,0.028013764,1.2836338,0.24217194,-0.1284583,-0.07095935,0.6148711,0.55572397,0.11995059,0.18978687,0.58813244,1.1242439,0.36270684,0.15401879,1.0645013,0.9127642,0.33260265,0.1576749,0.9627876,826.8132,821.1722,806.6667,807.0696,709.5604,-0.0960693359375,0.0684814453125,0.9794921875,2.908477783203125,-3.312225341796875,1.07666015625,1.0,1.0,1.0,1.0,1.0,100.0,event
11:31:31.622,0.76651406,0.1740914,0.028013764,1.2836338,0.24217194,-0.1284583,-0.07095935,0.6148711,0.55572397,0.11995059,0.18978687,0.58813244,1.1242439,0.36270684,0.15401879,1.0645013,0.9127642,0.33260265,0.1576749,0.9627876,819.9634,821.5751,802.6374,809.0842,735.7509,-0.0960693359375,0.0684814453125,0.9794921875,2.908477783203125,-3.312225341796875,1.07666015625,1.0,1.0,1.0,1.0,1.0,100.0,event
11:31:31.623,0.76651406,0.1740914,0.028013764,1.2836338,0.24217194,-0.1284583,-0.07095935,0.6148711,0.55572397,0.11995059,0.18978687,0.58813244,1.1242439,0.36270684,0.15401879,1.0645013,0.9127642,0.33260265,0.1576749,0.9627876,798.20514,808.68134,808.2784,813.5165,763.1502,-0.0960693359375,0.0684814453125,0.9794921875,2.908477783203125,-3.312225341796875,1.07666015625,1.0,1.0,1.0,1.0,1.0,100.0,event
11:31:31.624,0.76651406,0.1740914,0.028013764,1.2836338,0.24217194,-0.1284583,-0.07095935,0.6148711,0.55572397,0.11995059,0.18978687,0.58813244,1.1242439,0.36270684,0.15401879,1.0645013,0.9127642,0.33260265,0.1576749,0.9627876,782.49084,799.81683,812.3077,809.0842,790.54944,-0.0960693359375,0.0684814453125,0.9794921875,2.908477783203125,-3.312225341796875,1.07666015625,1.0,1.0,1.0,1.0,1.0,100.0,event
11:31:31.624,0.76651406,0.1740914,0.028013764,1.2836338,0.24217194,-0.1284583,-0.07095935,0.6148711,0.55572397,0.11995059,0.18978687,0.58813244,1.1242439,0.36270684,0.15401879,1.0645013,0.9127642,0.33260265,0.1576749,0.9627876,803.8461,820.3663,806.26373,796.1905,768.7912,-0.0960693359375,0.0684814453125,0.9794921875,2.908477783203125,-3.312225341796875,1.07666015625,1.0,1.0,1.0,1.0,1.0,100.0,event
11:31:31.625,0.76651406,0.15318511,0.06848637,1.2836338,0.24217194,-0.11494113,-0.082080185,0.6148711,0.55572397,0.06270541,0.103792,0.58813244,1.1242439,0.33080134,0.12413196,1.0645013,0.9127642,0.2161133,0.09100717,0.9627876,815.9341,822.381,807.0696,814.7253,843.73627,-0.0960693359375,0.0684814453125,0.9794921875,2.908477783203125,-3.312225341796875,1.07666015625,1.0,1.0,1.0,1.0,1.0,100.0,event
11:31:31.630,0.76651406,0.15318511,0.06848637,1.2836338,0.24217194,-0.11494113,-0.082080185,0.6148711,0.55572397,0.06270541,0.103792,0.58813244,1.1242439,0.33080134,0.12413196,1.0645013,0.9127642,0.2161133,0.09100717,0.9627876,829.6337,815.5311,812.71063,840.5128,1037.5458,-0.0960693359375,0.0684814453125,0.9794921875,2.908477783203125,-3.312225341796875,1.07666015625,1.0,1.0,1.0,1.0,1.0,100.0,event
11:31:31.631,0.76651406,0.15318511,0.06848637,1.2836338,0.24217194,-0.11494113,-0.082080185,0.6148711,0.55572397,0.06270541,0.103792,0.58813244,1.1242439,0.33080134,0.12413196,1.0645013,0.9127642,0.2161133,0.09100717,0.9627876,820.7692,821.978,811.0989,823.9927,819.5604,-0.0960693359375,0.0684814453125,0.9794921875,2.908477783203125,-3.312225341796875,1.07666015625,1.0,1.0,1.0,1.0,1.0,100.0,event
11:31:31.632,0.76651406,0.15318511,0.06848637,1.2836338,0.24217194,-0.11494113,-0.082080185,0.6148711,0.55572397,0.06270541,0.103792,0.58813244,1.1242439,0.33080134,0.12413196,1.0645013,0.9127642,0.2161133,0.09100717,0.9627876,800.2198,807.0696,813.1135,811.9048,671.685,-0.0960693359375,0.0684814453125,0.9794921875,2.908477783203125,-3.312225341796875,1.07666015625,1.0,1.0,1.0,1.0,1.0,100.0,event
11:31:31.633,0.76651406,0.15318511,0.06848637,1.2836338,0.24217194,-0.11494113,-0.082080185,0.6148711,0.55572397,0.06270541,0.103792,0.58813244,1.1242439,0.33080134,0.12413196,1.0645013,0.9127642,0.2161133,0.09100717,0.9627876,829.2308,801.4286,812.3077,839.304,763.1502,-0.0960693359375,0.0684814453125,0.9794921875,2.908477783203125,-3.312225341796875,1.07666015625,1.0,1.0,1.0,1.0,1.0,100.0,event
11:31:31.663,0.76651406,0.15318511,0.06848637,1.2836338,0.24217194,-0.11494113,-0.082080185,0.6148711,0.55572397,0.06270541,0.103792,0.58813244,1.1242439,0.33080134,0.12413196,1.0645013,0.9127642,0.2161133,0.09100717,0.9627876,830.84247,826.0073,807.8755,842.52747,761.53845,-0.093505859375,0.07476806640625,0.98626708984375,2.6318359375,-2.908477783203125,-0.04486083984375,1.0,1.0,1.0,1.0,1.0,100.0,event
11:31:31.664,0.76651406,0.15318511,0.06848637,1.2836338,0.24217194,-0.11494113,-0.082080185,0.6148711,0.55572397,0.06270541,0.103792,0.58813244,1.1242439,0.33080134,0.12413196,1.0645013,0.9127642,0.2161133,0.09100717,0.9627876,787.326,830.0366,812.71063,786.9231,745.82416,-0.093505859375,0.07476806640625,0.98626708984375,2.6318359375,-2.908477783203125,-0.04486083984375,1.0,1.0,1.0,1.0,1.0,100.0,event
11:31:31.665,0.76651406,0.15318511,0.06848637,1.2836338,0.24217194,-0.11494113,-0.082080185,0.6148711,0.55572397,0.06270541,0.103792,0.58813244,1.1242439,0.33080134,0.12413196,1.0645013,0.9127642,0.2161133,0.09100717,0.9627876,758.315,819.5604,814.7253,738.5714,757.50916,-0.093505859375,0.07476806640625,0.98626708984375,2.6318359375,-2.908477783203125,-0.04486083984375,1.0,1.0,1.0,1.0,1.0,100.0,event
11:31:31.666,0.76651406,0.15318511,0.06848637,1.2836338,0.24217194,-0.11494113,-0.082080185,0.6148711,0.55572397,0.06270541,0.103792,0.58813244,1.1242439,0.33080134,0.12413196,1.0645013,0.9127642,0.2161133,0.09100717,0.9627876,749.0476,816.337,811.50183,733.73627,746.2271,-0.093505859375,0.07476806640625,0.98626708984375,2.6318359375,-2.908477783203125,-0.04486083984375,1.0,1.0,1.0,1.0,1.0,100.0,event
11:31:31.666,0.76651406,0.15318511,0.06848637,1.2836338,0.24217194,-0.11494113,-0.082080185,0.6148711,0.55572397,0.06270541,0.103792,0.58813244,1.1242439,0.33080134,0.12413196,1.0645013,0.9127642,0.2161133,0.09100717,0.9627876,757.1062,813.91943,813.1135,760.7326,680.54944,-0.093505859375,0.07476806640625,0.98626708984375,2.6318359375,-2.908477783203125,-0.04486083984375,1.0,1.0,1.0,1.0,1.0,100.0,event
11:31:31.667,0.76651406,0.15318511,0.06848637,1.2836338,0.24217194,-0.11494113,-0.082080185,0.6148711,0.55572397,0.06270541,0.103792,0.58813244,1.1242439,0.33080134,0.12413196,1.0645013,0.9127642,0.2161133,0.09100717,0.9627876,776.04395,825.6044,809.89014,793.7729,727.28937,-0.093505859375,0.07476806640625,0.98626708984375,2.6318359375,-2.908477783203125,-0.04486083984375,1.0,1.0,1.0,1.0,1.0,100.0,event
11:31:31.667,0.76651406,0.15318511,0.06848637,1.2836338,0.24217194,-0.11494113,-0.082080185,0.6148711,0.55572397,0.06270541,0.103792,0.58813244,1.1242439,0.33080134,0.12413196,1.0645013,0.9127642,0.2161133,0.09100717,0.9627876,799.41394,822.7839,809.0842,787.72894,811.9048,-0.093505859375,0.07476806640625,0.98626708984375,2.6318359375,-2.908477783203125,-0.04486083984375,1.0,1.0,1.0,1.0,1.0,100.0,event
11:31:31.668,0.76651406,0.15318511,0.06848637,1.2836338,0.24217194,-0.11494113,-0.082080185,0.6148711,0.55572397,0.06270541,0.103792,0.58813244,1.1242439,0.33080134,0.12413196,1.0645013,0.9127642,0.2161133,0.09100717,0.9627876,780.87915,810.696,817.1429,767.5824,970.2564,-0.093505859375,0.07476806640625,0.98626708984375,2.6318359375,-2.908477783203125,-0.04486083984375,1.0,1.0,1.0,1.0,1.0,100.0,event
11:31:31.669,0.76651406,0.15318511,0.06848637,1.2836338,0.24217194,-0.11494113,-0.082080185,0.6148711,0.55572397,0.06270541,0.103792,0.58813244,1.1242439,0.33080134,0.12413196,1.0645013,0.9127642,0.2161133,0.09100717,0.9627876,755.89746,817.9487,807.0696,741.79486,916.26373,-0.093505859375,0.07476806640625,0.98626708984375,2.6318359375,-2.908477783203125,-0.04486083984375,1.0,1.0,1.0,1.0,1.0,100.0,event
11:31:31.670,0.76651406,0.15318511,0.06848637,1.2836338,0.24217194,-0.11494113,-0.082080185,0.6148711,0.55572397,0.06270541,0.103792,0.58813244,1.1242439,0.33080134,0.12413196,1.0645013,0.9127642,0.2161133,0.09100717,0.9627876,768.3883,818.7546,794.9817,740.989,786.1172,-0.093505859375,0.07476806640625,0.98626708984375,2.6318359375,-2.908477783203125,-0.04486083984375,1.0,1.0,1.0,1.0,1.0,100.0,event
11:31:31.670,0.76651406,0.15318511,0.06848637,1.2836338,0.24217194,-0.11494113,-0.082080185,0.6148711,0.55572397,0.06270541,0.103792,0.58813244,1.1242439,0.33080134,0.12413196,1.0645013,0.9127642,0.2161133,0.09100717,0.9627876,780.4762,809.89014,806.6667,770.40295,884.83514,-0.093505859375,0.07476806640625,0.98626708984375,2.6318359375,-2.908477783203125,-0.04486083984375,1.0,1.0,1.0,1.0,1.0,100.0,event
11:31:31.671,0.76651406,0.15318511,0.06848637,1.2836338,0.24217194,-0.11494113,-0.082080185,0.6148711,0.55572397,0.06270541,0.103792,0.58813244,1.1242439,0.33080134,0.12413196,1.0645013,0.9127642,0.2161133,0.09100717,0.9627876,795.78754,809.89014,814.7253,797.3993,922.3077,-0.093505859375,0.07476806640625,0.98626708984375,2.6318359375,-2.908477783203125,-0.04486083984375,1.0,1.0,1.0,1.0,1.0,100.0,event
11:31:31.700,0.76651406,0.15318511,0.06848637,1.2836338,0.24217194,-0.11494113,-0.082080185,0.6148711,0.55572397,0.06270541,0.103792,0.58813244,1.1242439,0.33080134,0.12413196,1.0645013,0.9127642,0.2161133,0.09100717,0.9627876,794.57874,815.9341,807.47253,792.1612,808.2784,-0.09326171875,0.0731201171875,0.98211669921875,2.3028564453125,-3.36456298828125,0.157012939453125,1.0,1.0,1.0,1.0,1.0,100.0,event
11:31:31.701,0.76651406,0.15318511,0.06848637,1.2836338,0.24217194,-0.11494113,-0.082080185,0.6148711,0.55572397,0.06270541,0.103792,0.58813244,1.1242439,0.33080134,0.12413196,1.0645013,0.9127642,0.2161133,0.09100717,0.9627876,782.8938,815.9341,803.0403,775.2381,752.674,-0.09326171875,0.0731201171875,0.98211669921875,2.3028564453125,-3.36456298828125,0.157012939453125,1.0,1.0,1.0,1.0,1.0,100.0,event
11:31:31.702,0.76651406,0.15318511,0.06848637,1.2836338,0.24217194,-0.11494113,-0.082080185,0.6148711,0.55572397,0.06270541,0.103792,0.58813244,1.1242439,0.33080134,0.12413196,1.0645013,0.9127642,0.2161133,0.09100717,0.9627876,789.7436,815.12823,800.6227,779.67035,850.18317,-0.09326171875,0.0731201171875,0.98211669921875,2.3028564453125,-3.36456298828125,0.157012939453125,1.0,1.0,1.0,1.0,1.0,100.0,event
11:31:31.702,0.76651406,0.15318511,0.06848637,1.2836338,0.24217194,-0.11494113,-0.082080185,0.6148711,0.55572397,0.06270541,0.103792,0.58813244,1.1242439,0.33080134,0.12413196,1.0645013,0.9127642,0.2161133,0.09100717,0.9627876,805.8608,810.293,806.26373,797.8022,855.82416,-0.09326171875,0.0731201171875,0.98211669921875,2.3028564453125,-3.36456298828125,0.157012939453125,1.0,1.0,1.0,1.0,1.0,100.0,event
11:31:31.703,0.76651406,0.15318511,0.06848637,1.2836338,0.24217194,-0.11494113,-0.082080185,0.6148711,0.55572397,0.06270541,0.103792,0.58813244,1.1242439,0.33080134,0.12413196,1.0645013,0.9127642,0.2161133,0.09100717,0.9627876,774.0293,800.6227,811.50183,776.04395,827.2161,-0.09326171875,0.0731201171875,0.98211669921875,2.3028564453125,-3.36456298828125,0.157012939453125,1.0,1.0,1.0,1.0,1.0,100.0,event
11:31:31.703,0.76651406,0.15318511,0.06848637,1.2836338,0.24217194,-0.11494113,-0.082080185,0.6148711,0.55572397,0.06270541,0.103792,0.58813244,1.1242439,0.33080134,0.12413196,1.0645013,0.9127642,0.2161133,0.09100717,0.9627876,791.75824,794.57874,815.9341,805.4579,794.17584,-0.09326171875,0.0731201171875,0.98211669921875,2.3028564453125,-3.36456298828125,0.157012939453125,1.0,1.0,1.0,1.0,1.0,100.0,event
11:31:31.704,0.76651406,0.15318511,0.06848637,1.2836338,0.24217194,-0.11494113,-0.082080185,0.6148711,0.55572397,0.06270541,0.103792,0.58813244,1.1242439,0.33080134,0.12413196,1.0645013,0.9127642,0.2161133,0.09100717,0.9627876,781.28204,815.12823,801.02563,769.59705,967.4359,-0.09326171875,0.0731201171875,0.98211669921875,2.3028564453125,-3.36456298828125,0.157012939453125,1.0,1.0,1.0,1.0,1.0,100.0,event
11:31:31.705,0.76651406,0.15318511,0.06848637,1.2836338,0.24217194,-0.11494113,-0.082080185,0.6148711,0.55572397,0.06270541,0.103792,0.58813244,1.1242439,0.33080134,0.12413196,1.0645013,0.9127642,0.2161133,0.09100717,0.9627876,786.1172,819.15753,794.17584,774.43225,942.8571,-0.09326171875,0.0731201171875,0.98211669921875,2.3028564453125,-3.36456298828125,0.157012939453125,1.0,1.0,1.0,1.0,1.0,100.0,event
11:31:31.705,0.76651406,0.15318511,0.06848637,1.2836338,0.24217194,-0.11494113,-0.082080185,0.6148711,0.55572397,0.06270541,0.103792,0.58813244,1.1242439,0.33080134,0.12413196,1.0645013,0.9127642,0.2161133,0.09100717,0.9627876,793.7729,818.3516,799.81683,780.07324,708.7546,-0.09326171875,0.0731201171875,0.98211669921875,2.3028564453125,-3.36456298828125,0.157012939453125,1.0,1.0,1.0,1.0,1.0,100.0,event
11:31:31.706,0.76651406,0.15318511,0.112082,1.2836338,0.24217194,-0.11494113,-0.084750205,0.6148711,0.55572397,0.06270541,0.007975195,0.58813244,1.1242439,0.33080134,0.07097352,1.0645013,0.9127642,0.2161133,0.056423634,0.9627876,803.0403,805.4579,809.0842,790.9524,694.2491,-0.09326171875,0.0731201171875,0.98211669921875,2.3028564453125,-3.36456298828125,0.157012939453125,1.0,1.0,1.0,1.0,1.0,100.0,event
11:31:31.709,0.76651406,0.15318511,0.112082,1.2836338,0.24217194,-0.11494113,-0.084750205,0.6148711,0.55572397,0.06270541,0.007975195,0.58813244,1.1242439,0.33080134,0.07097352,1.0645013,0.9127642,0.2161133,0.056423634,0.9627876,791.3553,801.02563,808.2784,802.6374,723.2601,-0.09326171875,0.0731201171875,0.98211669921875,2.3028564453125,-3.36456298828125,0.157012939453125,1.0,1.0,1.0,1.0,1.0,100.0,event
11:31:31.710,0.76651406,0.15318511,0.112082,1.2836338,0.24217194,-0.11494113,-0.084750205,0.6148711,0.55572397,0.06270541,0.007975195,0.58813244,1.1242439,0.33080134,0.07097352,1.0645013,0.9127642,0.2161133,0.056423634,0.9627876,779.67035,811.9048,803.44324,790.14655,708.3516,-0.09326171875,0.0731201171875,0.98211669921875,2.3028564453125,-3.36456298828125,0.157012939453125,1.0,1.0,1.0,1.0,1.0,100.0,event
11:31:31.733,0.76651406,0.15318511,0.112082,1.2836338,0.24217194,-0.11494113,-0.084750205,0.6148711,0.55572397,0.06270541,0.007975195,0.58813244,1.1242439,0.33080134,0.07097352,1.0645013,0.9127642,0.2161133,0.056423634,0.9627876,782.49084,816.337,804.65204,768.3883,730.9158,-0.09222412109375,0.07110595703125,0.98114013671875,2.026214599609375,-3.641204833984375,0.321502685546875,1.0,1.0,1.0,1.0,1.0,100.0,event
11:31:31.734,0.76651406,0.15318511,0.112082,1.2836338,0.24217194,-0.11494113,-0.084750205,0.6148711,0.55572397,0.06270541,0.007975195,0.58813244,1.1242439,0.33080134,0.07097352,1.0645013,0.9127642,0.2161133,0.056423634,0.9627876,790.14655,811.50183,807.0696,765.56775,734.1392,-0.09222412109375,0.07110595703125,0.98114013671875,2.026214599609375,-3.641204833984375,0.321502685546875,1.0,1.0,1.0,1.0,1.0,100.0,event
11:31:31.734,0.76651406,0.15318511,0.112082,1.2836338,0.24217194,-0.11494113,-0.084750205,0.6148711,0.55572397,0.06270541,0.007975195,0.58813244,1.1242439,0.33080134,0.07097352,1.0645013,0.9127642,0.2161133,0.056423634,0.9627876,807.47253,814.3223,808.2784,826.0073,807.8755,-0.09222412109375,0.07110595703125,0.98114013671875,2.026214599609375,-3.641204833984375,0.321502685546875,1.0,1.0,1.0,1.0,1.0,100.0,event
11:31:31.736,0.76651406,0.15318511,0.112082,1.2836338,0.24217194,-0.11494113,-0.084750205,0.6148711,0.55572397,0.06270541,0.007975195,0.58813244,1.1242439,0.33080134,0.07097352,1.0645013,0.9127642,0.2161133,0.056423634,0.9627876,818.7546,815.9341,807.47253,825.6044,883.22345,-0.09222412109375,0.07110595703125,0.98114013671875,2.026214599609375,-3.641204833984375,0.321502685546875,1.0,1.0,1.0,1.0,1.0,100.0,event
11:31:31.737,0.76651406,0.15318511,0.112082,1.2836338,0.24217194,-0.11494113,-0.084750205,0.6148711,0.55572397,0.06270541,0.007975195,0.58813244,1.1242439,0.33080134,0.07097352,1.0645013,0.9127642,0.2161133,0.056423634,0.9627876,799.011,808.2784,800.2198,754.68866,732.1245,-0.09222412109375,0.07110595703125,0.98114013671875,2.026214599609375,-3.641204833984375,0.321502685546875,1.0,1.0,1.0,1.0,1.0,100.0,event
11:31:31.738,0.76651406,0.15318511,0.112082,1.2836338,0.24217194,-0.11494113,-0.084750205,0.6148711,0.55572397,0.06270541,0.007975195,0.58813244,1.1242439,0.33080134,0.07097352,1.0645013,0.9127642,0.2161133,0.056423634,0.9627876,784.10254,805.4579,802.6374,773.22345,706.337,-0.09222412109375,0.07110595703125,0.98114013671875,2.026214599609375,-3.641204833984375,0.321502685546875,1.0,1.0,1.0,1.0,1.0,100.0,event
11:31:31.738,0.76651406,0.15318511,0.112082,1.2836338,0.24217194,-0.11494113,-0.084750205,0.6148711,0.55572397,0.06270541,0.007975195,0.58813244,1.1242439,0.33080134,0.07097352,1.0645013,0.9127642,0.2161133,0.056423634,0.9627876,808.68134,814.7253,805.4579,807.8755,938.022,-0.09222412109375,0.07110595703125,0.98114013671875,2.026214599609375,-3.641204833984375,0.321502685546875,1.0,1.0,1.0,1.0,1.0,100.0,event
11:31:31.739,0.76651406,0.15318511,0.112082,1.2836338,0.24217194,-0.11494113,-0.084750205,0.6148711,0.55572397,0.06270541,0.007975195,0.58813244,1.1242439,0.33080134,0.07097352,1.0645013,0.9127642,0.2161133,0.056423634,0.9627876,812.71063,819.5604,798.20514,808.68134,932.7839,-0.09222412109375,0.07110595703125,0.98114013671875,2.026214599609375,-3.641204833984375,0.321502685546875,1.0,1.0,1.0,1.0,1.0,100.0,event
11:31:31.739,0.76651406,0.15318511,0.112082,1.2836338,0.24217194,-0.11494113,-0.084750205,0.6148711,0.55572397,0.06270541,0.007975195,0.58813244,1.1242439,0.33080134,0.07097352,1.0645013,0.9127642,0.2161133,0.056423634,0.9627876,806.26373,816.7399,799.81683,812.3077,745.82416,-0.09222412109375,0.07110595703125,0.98114013671875,2.026214599609375,-3.641204833984375,0.321502685546875,1.0,1.0,1.0,1.0,1.0,100.0,event
11:31:31.740,0.76651406,0.15318511,0.112082,1.2836338,0.24217194,-0.11494113,-0.084750205,0.6148711,0.55572397,0.06270541,0.007975195,0.58813244,1.1242439,0.33080134,0.07097352,1.0645013,0.9127642,0.2161133,0.056423634,0.9627876,811.0989,810.293,807.47253,822.381,780.4762,-0.09222412109375,0.07110595703125,0.98114013671875,2.026214599609375,-3.641204833984375,0.321502685546875,1.0,1.0,1.0,1.0,1.0,100.0,event
11:31:31.741,0.76651406,0.15318511,0.112082,1.2836338,0.24217194,-0.11494113,-0.084750205,0.6148711,0.55572397,0.06270541,0.007975195,0.58813244,1.1242439,0.33080134,0.07097352,1.0645013,0.9127642,0.2161133,0.056423634,0.9627876,828.022,809.4872,808.68134,825.6044,863.8828,-0.09222412109375,0.07110595703125,0.98114013671875,2.026214599609375,-3.641204833984375,0.321502685546875,1.0,1.0,1.0,1.0,1.0,100.0,event
11:31:31.741,0.76651406,0.15318511,0.112082,1.2836338,0.24217194,-0.11494113,-0.084750205,0.6148711,0.55572397,0.06270541,0.007975195,0.58813244,1.1242439,0.33080134,0.07097352,1.0645013,0.9127642,0.2161133,0.056423634,0.9627876,828.4249,822.381,807.0696,815.12823,782.49084,-0.09222412109375,0.07110595703125,0.98114013671875,2.026214599609375,-3.641204833984375,0.321502685546875,1.0,1.0,1.0,1.0,1.0,100.0,event
11:31:31.766,0.76651406,0.15318511,0.112082,1.2836338,0.24217194,-0.11494113,-0.084750205,0.6148711,0.55572397,0.06270541,0.007975195,0.58813244,1.1242439,0.33080134,0.07097352,1.0645013,0.9127642,0.2161133,0.056423634,0.9627876,813.1135,825.6044,803.44324,798.20514,714.3956,-0.09222412109375,0.07110595703125,0.98114013671875,2.026214599609375,-3.641204833984375,0.321502685546875,1.0,1.0,1.0,1.0,1.0,100.0,event
11:31:31.767,0.76651406,0.15318511,0.112082,1.2836338,0.24217194,-0.11494113,-0.084750205,0.6148711,0.55572397,0.06270541,0.007975195,0.58813244,1.1242439,0.33080134,0.07097352,1.0645013,0.9127642,0.2161133,0.056423634,0.9627876,808.2784,811.9048,807.0696,807.47253,781.685,-0.09222412109375,0.07110595703125,0.98114013671875,2.026214599609375,-3.641204833984375,0.321502685546875,1.0,1.0,1.0,1.0,1.0,100.0,event
11:31:31.768,0.76651406,0.15318511,0.112082,1.2836338,0.24217194,-0.11494113,-0.084750205,0.6148711,0.55572397,0.06270541,0.007975195,0.58813244,1.1242439,0.33080134,0.07097352,1.0645013,0.9127642,0.2161133,0.056423634,0.9627876,790.54944,806.6667,805.05493,802.23444,755.09155,-0.09222412109375,0.07110595703125,0.98114013671875,2.026214599609375,-3.641204833984375,0.321502685546875,1.0,1.0,1.0,1.0,1.0,100.0,event
11:31:31.769,0.76651406,0.15318511,0.112082,1.2836338,0.24217194,-0.11494113,-0.084750205,0.6148711,0.55572397,0.06270541,0.007975195,0.58813244,1.1242439,0.33080134,0.07097352,1.0645013,0.9127642,0.2161133,0.056423634,0.9627876,784.10254,807.47253,802.23444,783.2967,712.381,-0.09222412109375,0.07110595703125,0.98114013671875,2.026214599609375,-3.641204833984375,0.321502685546875,1.0,1.0,1.0,1.0,1.0,100.0,event
11:31:31.770,0.76651406,0.15318511,0.112082,1.2836338,0.24217194,-0.11494113,-0.084750205,0.6148711,0.55572397,0.06270541,0.007975195,0.58813244,1.1242439,0.33080134,0.07097352,1.0645013,0.9127642,0.2161133,0.056423634,0.9627876,809.89014,804.65204,808.68134,812.71063,733.3333,-0.09222412109375,0.07110595703125,0.98114013671875,2.026214599609375,-3.641204833984375,0.321502685546875,1.0,1.0,1.0,1.0,1.0,100.0,event
11:31:31.773,0.76651406,0.15318511,0.112082,1.2836338,0.24217194,-0.11494113,-0.084750205,0.6148711,0.55572397,0.06270541,0.007975195,0.58813244,1.1242439,0.33080134,0.07097352,1.0645013,0.9127642,0.2161133,0.056423634,0.9627876,835.6777,804.65204,805.05493,849.7802,901.75824,-0.09222412109375,0.07110595703125,0.98114013671875,2.026214599609375,-3.641204833984375,0.321502685546875,1.0,1.0,1.0,1.0,1.0,100.0,event
11:31:31.773,0.76651406,0.15318511,0.112082,1.2836338,0.24217194,-0.11494113,-0.084750205,0.6148711,0.55572397,0.06270541,0.007975195,0.58813244,1.1242439,0.33080134,0.07097352,1.0645013,0.9127642,0.2161133,0.056423634,0.9627876,821.1722,818.3516,796.5934,816.7399,1079.0476,-0.09222412109375,0.07110595703125,0.98114013671875,2.026214599609375,-3.641204833984375,0.321502685546875,1.0,1.0,1.0,1.0,1.0,100.0,event
11:31:31.774,0.76651406,0.15318511,0.112082,1.2836338,0.24217194,-0.11494113,-0.084750205,0.6148711,0.55572397,0.06270541,0.007975195,0.58813244,1.1242439,0.33080134,0.07097352,1.0645013,0.9127642,0.2161133,0.056423634,0.9627876,810.293,830.4396,801.8315,781.685,766.77655,-0.09222412109375,0.07110595703125,0.98114013671875,2.026214599609375,-3.641204833984375,0.321502685546875,1.0,1.0,1.0,1.0,1.0,100.0,event
11:31:31.774,0.76651406,0.15318511,0.112082,1.2836338,0.24217194,-0.11494113,-0.084750205,0.6148711,0.55572397,0.06270541,0.007975195,0.58813244,1.1242439,0.33080134,0.07097352,1.0645013,0.9127642,0.2161133,0.056423634,0.9627876,795.38464,821.5751,807.47253,785.7143,601.978,-0.09222412109375,0.07110595703125,0.98114013671875,2.026214599609375,-3.641204833984375,0.321502685546875,1.0,1.0,1.0,1.0,1.0,100.0,event
11:31:31.775,0.76651406,0.15318511,0.112082,1.2836338,0.24217194,-0.11494113,-0.084750205,0.6148711,0.55572397,0.06270541,0.007975195,0.58813244,1.1242439,0.33080134,0.07097352,1.0645013,0.9127642,0.2161133,0.056423634,0.9627876,788.1319,810.293,804.65204,792.1612,704.3223,-0.09222412109375,0.07110595703125,0.98114013671875,2.026214599609375,-3.641204833984375,0.321502685546875,1.0,1.0,1.0,1.0,1.0,100.0,event
11:31:31.775,0.76651406,0.15318511,0.112082,1.2836338,0.24217194,-0.11494113,-0.084750205,0.6148711,0.55572397,0.06270541,0.007975195,0.58813244,1.1242439,0.33080134,0.07097352,1.0645013,0.9127642,0.2161133,0.056423634,0.9627876,806.26373,802.23444,803.8461,806.26373,732.9304,-0.09222412109375,0.07110595703125,0.98114013671875,2.026214599609375,-3.641204833984375,0.321502685546875,1.0,1.0,1.0,1.0,1.0,100.0,event
11:31:31.776,0.76651406,0.15318511,0.07925719,1.2836338,0.24217194,-0.11494113,-0.105701946,0.6148711,0.55572397,0.06270541,-0.009532168,0.58813244,1.1242439,0.33080134,-0.069608405,1.0645013,0.9127642,0.2161133,0.024613673,0.9627876,817.9487,813.1135,803.44324,817.9487,740.989,-0.09222412109375,0.07110595703125,0.98114013671875,2.026214599609375,-3.641204833984375,0.321502685546875,1.0,1.0,1.0,1.0,1.0,100.0,event
11:31:31.835,0.76651406,0.15318511,0.07925719,1.2836338,0.24217194,-0.11494113,-0.105701946,0.6148711,0.55572397,0.06270541,-0.009532168,0.58813244,1.1242439,0.33080134,-0.069608405,1.0645013,0.9127642,0.2161133,0.024613673,0.9627876,823.1868,826.0073,803.8461,823.5897,738.97437,-0.09503173828125,0.0684814453125,0.983154296875,1.973876953125,-3.147735595703125,-0.478515625,1.0,1.0,1.0,1.0,1.0,100.0,event
11:31:31.836,0.76651406,0.15318511,0.07925719,1.2836338,0.24217194,-0.11494113,-0.105701946,0.6148711,0.55572397,0.06270541,-0.009532168,0.58813244,1.1242439,0.33080134,-0.069608405,1.0645013,0.9127642,0.2161133,0.024613673,0.9627876,800.6227,817.9487,803.8461,785.31134,796.5934,-0.09503173828125,0.0684814453125,0.983154296875,1.973876953125,-3.147735595703125,-0.478515625,1.0,1.0,1.0,1.0,1.0,100.0,event
11:31:31.836,0.76651406,0.15318511,0.07925719,1.2836338,0.24217194,-0.11494113,-0.105701946,0.6148711,0.55572397,0.06270541,-0.009532168,0.58813244,1.1242439,0.33080134,-0.069608405,1.0645013,0.9127642,0.2161133,0.024613673,0.9627876,805.4579,817.1429,799.41394,772.8205,786.52014,-0.09503173828125,0.0684814453125,0.983154296875,1.973876953125,-3.147735595703125,-0.478515625,1.0,1.0,1.0,1.0,1.0,100.0,event
11:31:31.837,0.76651406,0.15318511,0.07925719,1.2836338,0.24217194,-0.11494113,-0.105701946,0.6148711,0.55572397,0.06270541,-0.009532168,0.58813244,1.1242439,0.33080134,-0.069608405,1.0645013,0.9127642,0.2161133,0.024613673,0.9627876,835.2747,816.7399,802.6374,802.6374,667.6557,-0.09503173828125,0.0684814453125,0.983154296875,1.973876953125,-3.147735595703125,-0.478515625,1.0,1.0,1.0,1.0,1.0,100.0,event
11:31:31.838,0.76651406,0.15318511,0.07925719,1.2836338,0.24217194,-0.11494113,-0.105701946,0.6148711,0.55572397,0.06270541,-0.009532168,0.58813244,1.1242439,0.33080134,-0.069608405,1.0645013,0.9127642,0.2161133,0.024613673,0.9627876,839.304,806.6667,803.44324,812.3077,677.326,-0.09503173828125,0.0684814453125,0.983154296875,1.973876953125,-3.147735595703125,-0.478515625,1.0,1.0,1.0,1.0,1.0,100.0,event
11:31:31.838,0.76651406,0.15318511,0.07925719,1.2836338,0.24217194,-0.11494113,-0.105701946,0.6148711,0.55572397,0.06270541,-0.009532168,0.58813244,1.1242439,0.33080134,-0.069608405,1.0645013,0.9127642,0.2161133,0.024613673,0.9627876,817.1429,806.26373,801.4286,828.4249,827.2161,-0.09503173828125,0.0684814453125,0.983154296875,1.973876953125,-3.147735595703125,-0.478515625,1.0,1.0,1.0,1.0,1.0,100.0,event
11:31:31.839,0.76651406,0.15318511,0.07925719,1.2836338,0.24217194,-0.11494113,-0.105701946,0.6148711,0.55572397,0.06270541,-0.009532168,0.58813244,1.1242439,0.33080134,-0.069608405,1.0645013,0.9127642,0.2161133,0.024613673,0.9627876,807.0696,811.0989,802.6374,815.9341,844.5421,-0.09503173828125,0.0684814453125,0.983154296875,1.973876953125,-3.147735595703125,-0.478515625,1.0,1.0,1.0,1.0,1.0,100.0,event
11:31:31.839,0.76651406,0.15318511,0.07925719,1.2836338,0.24217194,-0.11494113,-0.105701946,0.6148711,0.55572397,0.06270541,-0.009532168,0.58813244,1.1242439,0.33080134,-0.069608405,1.0645013,0.9127642,0.2161133,0.024613673,0.9627876,796.1905,811.50183,799.41394,801.8315,802.23444,-0.09503173828125,0.0684814453125,0.983154296875,1.973876953125,-3.147735595703125,-0.478515625,1.0,1.0,1.0,1.0,1.0,100.0,event
11:31:31.840,0.76651406,0.15318511,0.07925719,1.2836338,0.24217194,-0.11494113,-0.105701946,0.6148711,0.55572397,0.06270541,-0.009532168,0.58813244,1.1242439,0.33080134,-0.069608405,1.0645013,0.9127642,0.2161133,0.024613673,0.9627876,794.9817,806.6667,802.6374,837.6923,750.65936,-0.09503173828125,0.0684814453125,0.983154296875,1.973876953125,-3.147735595703125,-0.478515625,1.0,1.0,1.0,1.0,1.0,100.0,event
11:31:31.840,0.76651406,0.15318511,0.07925719,1.2836338,0.24217194,-0.11494113,-0.105701946,0.6148711,0.55572397,0.06270541,-0.009532168,0.58813244,1.1242439,0.33080134,-0.069608405,1.0645013,0.9127642,0.2161133,0.024613673,0.9627876,827.619,802.6374,801.8315,830.84247,1000.4762,-0.09503173828125,0.0684814453125,0.983154296875,1.973876953125,-3.147735595703125,-0.478515625,1.0,1.0,1.0,1.0,1.0,100.0,event
11:31:31.841,0.76651406,0.15318511,0.07925719,1.2836338,0.24217194,-0.11494113,-0.105701946,0.6148711,0.55572397,0.06270541,-0.009532168,0.58813244,1.1242439,0.33080134,-0.069608405,1.0645013,0.9127642,0.2161133,0.024613673,0.9627876,821.978,810.293,799.81683,813.91943,971.06226,-0.09503173828125,0.0684814453125,0.983154296875,1.973876953125,-3.147735595703125,-0.478515625,1.0,1.0,1.0,1.0,1.0,100.0,event
11:31:31.842,0.76651406,0.15318511,0.07925719,1.2836338,0.24217194,-0.11494113,-0.105701946,0.6148711,0.55572397,0.06270541,-0.009532168,0.58813244,1.1242439,0.33080134,-0.069608405,1.0645013,0.9127642,0.2161133,0.024613673,0.9627876,809.4872,814.3223,799.41394,824.7985,655.16486,-0.09503173828125,0.0684814453125,0.983154296875,1.973876953125,-3.147735595703125,-0.478515625,1.0,1.0,1.0,1.0,1.0,100.0,event
11:31:31.867,0.76651406,0.15318511,0.07925719,1.2836338,0.24217194,-0.11494113,-0.105701946,0.6148711,0.55572397,0.06270541,-0.009532168,0.58813244,1.1242439,0.33080134,-0.069608405,1.0645013,0.9127642,0.2161133,0.024613673,0.9627876,835.2747,809.4872,796.1905,810.696,699.4872,-0.08953857421875,0.06585693359375,0.97991943359375,2.22808837890625,-2.61688232421875,0.276641845703125,1.0,1.0,1.0,1.0,1.0,100.0,event
11:31:31.868,0.76651406,0.15318511,0.07925719,1.2836338,0.24217194,-0.11494113,-0.105701946,0.6148711,0.55572397,0.06270541,-0.009532168,0.58813244,1.1242439,0.33080134,-0.069608405,1.0645013,0.9127642,0.2161133,0.024613673,0.9627876,837.6923,809.4872,796.99634,806.26373,759.92676,-0.08953857421875,0.06585693359375,0.97991943359375,2.22808837890625,-2.61688232421875,0.276641845703125,1.0,1.0,1.0,1.0,1.0,100.0,event
11:31:31.868,0.76651406,0.15318511,0.07925719,1.2836338,0.24217194,-0.11494113,-0.105701946,0.6148711,0.55572397,0.06270541,-0.009532168,0.58813244,1.1242439,0.33080134,-0.069608405,1.0645013,0.9127642,0.2161133,0.024613673,0.9627876,823.5897,807.0696,808.68134,826.4103,747.4359,-0.08953857421875,0.06585693359375,0.97991943359375,2.22808837890625,-2.61688232421875,0.276641845703125,1.0,1.0,1.0,1.0,1.0,100.0,event
11:31:31.869,0.76651406,0.15318511,0.07925719,1.2836338,0.24217194,-0.11494113,-0.105701946,0.6148711,0.55572397,0.06270541,-0.009532168,0.58813244,1.1242439,0.33080134,-0.069608405,1.0645013,0.9127642,0.2161133,0.024613673,0.9627876,810.696,797.3993,815.12823,840.9158,742.6007,-0.08953857421875,0.06585693359375,0.97991943359375,2.22808837890625,-2.61688232421875,0.276641845703125,1.0,1.0,1.0,1.0,1.0,100.0,event
11:31:31.869,0.76651406,0.15318511,0.07925719,1.2836338,0.24217194,-0.11494113,-0.105701946,0.6148711,0.55572397,0.06270541,-0.009532168,0.58813244,1.1242439,0.33080134,-0.069608405,1.0645013,0.9127642,0.2161133,0.024613673,0.9627876,788.1319,797.8022,810.293,840.5128,808.2784,-0.08953857421875,0.06585693359375,0.97991943359375,2.22808837890625,-2.61688232421875,0.276641845703125,1.0,1.0,1.0,1.0,1.0,100.0,event
11:31:31.870,0.76651406,0.15318511,0.07925719,1.2836338,0.24217194,-0.11494113,-0.105701946,0.6148711,0.55572397,0.06270541,-0.009532168,0.58813244,1.1242439,0.33080134,-0.069608405,1.0645013,0.9127642,0.2161133,0.024613673,0.9627876,792.1612,811.50183,804.2491,830.84247,913.0403,-0.08953857421875,0.06585693359375,0.97991943359375,2.22808837890625,-2.61688232421875,0.276641845703125,1.0,1.0,1.0,1.0,1.0,100.0,event
11:31:31.870,0.76651406,0.15318511,0.07925719,1.2836338,0.24217194,-0.11494113,-0.105701946,0.6148711,0.55572397,0.06270541,-0.009532168,0.58813244,1.1242439,0.33080134,-0.069608405,1.0645013,0.9127642,0.2161133,0.024613673,0.9627876,819.15753,819.15753,806.26373,818.7546,832.4542,-0.08953857421875,0.06585693359375,0.97991943359375,2.22808837890625,-2.61688232421875,0.276641845703125,1.0,1.0,1.0,1.0,1.0,100.0,event
11:31:31.871,0.76651406,0.15318511,0.07925719,1.2836338,0.24217194,-0.11494113,-0.105701946,0.6148711,0.55572397,0.06270541,-0.009532168,0.58813244,1.1242439,0.33080134,-0.069608405,1.0645013,0.9127642,0.2161133,0.024613673,0.9627876,840.10986,817.5458,808.2784,813.91943,725.2747,-0.08953857421875,0.06585693359375,0.97991943359375,2.22808837890625,-2.61688232421875,0.276641845703125,1.0,1.0,1.0,1.0,1.0,100.0,event
11:31:31.872,0.76651406,0.15318511,0.07925719,1.2836338,0.24217194,-0.11494113,-0.105701946,0.6148711,0.55572397,0.06270541,-0.009532168,0.58813244,1.1242439,0.33080134,-0.069608405,1.0645013,0.9127642,0.2161133,0.024613673,0.9627876,810.696,813.5165,809.0842,819.5604,879.59705,-0.08953857421875,0.06585693359375,0.97991943359375,2.22808837890625,-2.61688232421875,0.276641845703125,1.0,1.0,1.0,1.0,1.0,100.0,event
11:31:31.872,0.76651406,0.15318511,0.07925719,1.2836338,0.24217194,-0.11494113,-0.105701946,0.6148711,0.55572397,0.06270541,-0.009532168,0.58813244,1.1242439,0.33080134,-0.069608405,1.0645013,0.9127642,0.2161133,0.024613673,0.9627876,827.2161,812.71063,810.293,823.9927,858.6447,-0.08953857421875,0.06585693359375,0.97991943359375,2.22808837890625,-2.61688232421875,0.276641845703125,1.0,1.0,1.0,1.0,1.0,100.0,event
11:31:31.873,0.76651406,0.15318511,0.07925719,1.2836338,0.24217194,-0.11494113,-0.105701946,0.6148711,0.55572397,0.06270541,-0.009532168,0.58813244,1.1242439,0.33080134,-0.069608405,1.0645013,0.9127642,0.2161133,0.024613673,0.9627876,800.6227,813.91943,807.47253,799.41394,843.73627,-0.08953857421875,0.06585693359375,0.97991943359375,2.22808837890625,-2.61688232421875,0.276641845703125,1.0,1.0,1.0,1.0,1.0,100.0,event
11:31:31.873,0.76651406,0.15318511,0.07925719,1.2836338,0.24217194,-0.11494113,-0.105701946,0.6148711,0.55572397,0.06270541,-0.009532168,0.58813244,1.1242439,0.33080134,-0.069608405,1.0645013,0.9127642,0.2161133,0.024613673,0.9627876,810.696,818.3516,814.7253,805.8608,761.53845,-0.08953857421875,0.06585693359375,0.97991943359375,2.22808837890625,-2.61688232421875,0.276641845703125,1.0,1.0,1.0,1.0,1.0,100.0,event
11:31:31.929,0.76651406,0.15318511,0.07925719,1.2836338,0.24217194,-0.11494113,-0.105701946,0.6148711,0.55572397,0.06270541,-0.009532168,0.58813244,1.1242439,0.33080134,-0.069608405,1.0645013,0.9127642,0.2161133,0.024613673,0.9627876,826.0073,813.91943,812.3077,817.1429,930.3663,-0.09674072265625,0.0726318359375,0.978271484375,2.624359130859375,-2.7215576171875,1.099090576171875,1.0,1.0,1.0,1.0,1.0,100.0,event
11:31:31.930,0.76651406,0.15318511,0.047683906,1.2836338,0.24217194,-0.11494113,-0.10579482,0.6148711,0.55572397,0.06270541,-0.009532168,0.58813244,1.1242439,0.33080134,-0.21708658,1.0645013,0.9127642,0.2161133,-0.0029760366,0.9627876,828.4249,811.50183,804.2491,823.9927,1096.3737,-0.09674072265625,0.0726318359375,0.978271484375,2.624359130859375,-2.7215576171875,1.099090576171875,1.0,2.0,1.0,1.0,2.0,100.0,event
11:31:31.932,,,,,,,,,,,,,,,,,,,,,,,,,,,,,,,,,,,,,,blink
11:31:31.934,0.76651406,0.15318511,0.047683906,1.2836338,0.24217194,-0.11494113,-0.10579482,0.6148711,0.55572397,0.06270541,-0.009532168,0.58813244,1.1242439,0.33080134,-0.21708658,1.0645013,0.9127642,0.2161133,-0.0029760366,0.9627876,817.9487,818.7546,806.26373,832.0513,801.02563,-0.09674072265625,0.0726318359375,0.978271484375,2.624359130859375,-2.7215576171875,1.099090576171875,1.0,2.0,1.0,1.0,2.0,100.0,event
11:31:31.934,0.76651406,0.15318511,0.047683906,1.2836338,0.24217194,-0.11494113,-0.10579482,0.6148711,0.55572397,0.06270541,-0.009532168,0.58813244,1.1242439,0.33080134,-0.21708658,1.0645013,0.9127642,0.2161133,-0.0029760366,0.9627876,792.1612,814.3223,809.0842,821.978,703.1135,-0.09674072265625,0.0726318359375,0.978271484375,2.624359130859375,-2.7215576171875,1.099090576171875,1.0,2.0,1.0,1.0,2.0,100.0,event
11:31:31.935,0.76651406,0.15318511,0.047683906,1.2836338,0.24217194,-0.11494113,-0.10579482,0.6148711,0.55572397,0.06270541,-0.009532168,0.58813244,1.1242439,0.33080134,-0.21708658,1.0645013,0.9127642,0.2161133,-0.0029760366,0.9627876,816.337,815.9341,809.89014,815.9341,781.28204,-0.09674072265625,0.0726318359375,0.978271484375,2.624359130859375,-2.7215576171875,1.099090576171875,1.0,2.0,1.0,1.0,2.0,100.0,event
11:31:31.936,0.76651406,0.15318511,0.047683906,1.2836338,0.24217194,-0.11494113,-0.10579482,0.6148711,0.55572397,0.06270541,-0.009532168,0.58813244,1.1242439,0.33080134,-0.21708658,1.0645013,0.9127642,0.2161133,-0.0029760366,0.9627876,798.20514,799.81683,810.696,827.2161,848.5714,-0.09674072265625,0.0726318359375,0.978271484375,2.624359130859375,-2.7215576171875,1.099090576171875,1.0,2.0,1.0,1.0,2.0,100.0,event
11:31:31.936,0.76651406,0.15318511,0.047683906,1.2836338,0.24217194,-0.11494113,-0.10579482,0.6148711,0.55572397,0.06270541,-0.009532168,0.58813244,1.1242439,0.33080134,-0.21708658,1.0645013,0.9127642,0.2161133,-0.0029760366,0.9627876,834.4689,815.12823,811.0989,842.1245,800.2198,-0.09674072265625,0.0726318359375,0.978271484375,2.624359130859375,-2.7215576171875,1.099090576171875,1.0,2.0,1.0,1.0,2.0,100.0,event
11:31:31.937,0.76651406,0.15318511,0.047683906,1.2836338,0.24217194,-0.11494113,-0.10579482,0.6148711,0.55572397,0.06270541,-0.009532168,0.58813244,1.1242439,0.33080134,-0.21708658,1.0645013,0.9127642,0.2161133,-0.0029760366,0.9627876,771.2088,794.17584,804.2491,787.72894,819.9634,-0.09674072265625,0.0726318359375,0.978271484375,2.624359130859375,-2.7215576171875,1.099090576171875,1.0,2.0,1.0,1.0,2.0,100.0,event
11:31:31.937,0.76651406,0.15318511,0.047683906,1.2836338,0.24217194,-0.11494113,-0.10579482,0.6148711,0.55572397,0.06270541,-0.009532168,0.58813244,1.1242439,0.33080134,-0.21708658,1.0645013,0.9127642,0.2161133,-0.0029760366,0.9627876,785.7143,804.2491,797.8022,780.87915,923.1135,-0.09674072265625,0.0726318359375,0.978271484375,2.624359130859375,-2.7215576171875,1.099090576171875,1.0,2.0,1.0,1.0,2.0,100.0,event
11:31:31.938,0.76651406,0.15318511,0.047683906,1.2836338,0.24217194,-0.11494113,-0.10579482,0.6148711,0.55572397,0.06270541,-0.009532168,0.58813244,1.1242439,0.33080134,-0.21708658,1.0645013,0.9127642,0.2161133,-0.0029760366,0.9627876,808.68134,810.293,799.41394,798.60803,904.9817,-0.09674072265625,0.0726318359375,0.978271484375,2.624359130859375,-2.7215576171875,1.099090576171875,1.0,2.0,1.0,1.0,2.0,100.0,event
11:31:31.938,0.76651406,0.15318511,0.047683906,1.2836338,0.24217194,-0.11494113,-0.10579482,0.6148711,0.55572397,0.06270541,-0.009532168,0.58813244,1.1242439,0.33080134,-0.21708658,1.0645013,0.9127642,0.2161133,-0.0029760366,0.9627876,809.89014,808.68134,804.65204,809.89014,683.7729,-0.09674072265625,0.0726318359375,0.978271484375,2.624359130859375,-2.7215576171875,1.099090576171875,1.0,2.0,1.0,1.0,2.0,100.0,event
11:31:31.939,0.76651406,0.15318511,0.047683906,1.2836338,0.24217194,-0.11494113,-0.10579482,0.6148711,0.55572397,0.06270541,-0.009532168,0.58813244,1.1242439,0.33080134,-0.21708658,1.0645013,0.9127642,0.2161133,-0.0029760366,0.9627876,811.50183,808.68134,801.4286,818.7546,762.3443,-0.09674072265625,0.0726318359375,0.978271484375,2.624359130859375,-2.7215576171875,1.099090576171875,1.0,2.0,1.0,1.0,2.0,100.0,event
11:31:31.963,0.76651406,0.15318511,0.047683906,1.2836338,0.24217194,-0.11494113,-0.10579482,0.6148711,0.55572397,0.06270541,-0.009532168,0.58813244,1.1242439,0.33080134,-0.21708658,1.0645013,0.9127642,0.2161133,-0.0029760366,0.9627876,804.65204,810.293,799.41394,827.2161,836.4835,-0.10040283203125,0.06597900390625,0.98095703125,2.75146484375,-2.73651123046875,-0.171966552734375,1.0,2.0,1.0,1.0,2.0,100.0,event
11:31:31.964,0.76651406,0.15318511,0.047683906,1.2836338,0.24217194,-0.11494113,-0.10579482,0.6148711,0.55572397,0.06270541,-0.009532168,0.58813244,1.1242439,0.33080134,-0.21708658,1.0645013,0.9127642,0.2161133,-0.0029760366,0.9627876,785.31134,811.9048,805.8608,781.685,841.31866,-0.10040283203125,0.06597900390625,0.98095703125,2.75146484375,-2.73651123046875,-0.171966552734375,1.0,2.0,1.0,1.0,2.0,100.0,event
11:31:31.965,0.76651406,0.15318511,0.047683906,1.2836338,0.24217194,-0.11494113,-0.10579482,0.6148711,0.55572397,0.06270541,-0.009532168,0.58813244,1.1242439,0.33080134,-0.21708658,1.0645013,0.9127642,0.2161133,-0.0029760366,0.9627876,796.5934,812.71063,801.4286,772.4176,713.1868,-0.10040283203125,0.06597900390625,0.98095703125,2.75146484375,-2.73651123046875,-0.171966552734375,1.0,2.0,1.0,1.0,2.0,100.0,event
11:31:31.966,0.76651406,0.15318511,0.047683906,1.2836338,0.24217194,-0.11494113,-0.10579482,0.6148711,0.55572397,0.06270541,-0.009532168,0.58813244,1.1242439,0.33080134,-0.21708658,1.0645013,0.9127642,0.2161133,-0.0029760366,0.9627876,807.47253,809.89014,802.23444,805.4579,744.61536,-0.10040283203125,0.06597900390625,0.98095703125,2.75146484375,-2.73651123046875,-0.171966552734375,1.0,2.0,1.0,1.0,2.0,100.0,event
11:31:31.966,0.76651406,0.15318511,0.047683906,1.2836338,0.24217194,-0.11494113,-0.10579482,0.6148711,0.55572397,0.06270541,-0.009532168,0.58813244,1.1242439,0.33080134,-0.21708658,1.0645013,0.9127642,0.2161133,-0.0029760366,0.9627876,799.81683,808.68134,813.91943,803.8461,905.38464,-0.10040283203125,0.06597900390625,0.98095703125,2.75146484375,-2.73651123046875,-0.171966552734375,1.0,2.0,1.0,1.0,2.0,100.0,event
11:31:31.967,0.76651406,0.15318511,0.047683906,1.2836338,0.24217194,-0.11494113,-0.10579482,0.6148711,0.55572397,0.06270541,-0.009532168,0.58813244,1.1242439,0.33080134,-0.21708658,1.0645013,0.9127642,0.2161133,-0.0029760366,0.9627876,772.4176,812.71063,802.6374,781.28204,756.30035,-0.10040283203125,0.06597900390625,0.98095703125,2.75146484375,-2.73651123046875,-0.171966552734375,1.0,2.0,1.0,1.0,2.0,100.0,event
11:31:31.967,0.76651406,0.15318511,0.047683906,1.2836338,0.24217194,-0.11494113,-0.10579482,0.6148711,0.55572397,0.06270541,-0.009532168,0.58813244,1.1242439,0.33080134,-0.21708658,1.0645013,0.9127642,0.2161133,-0.0029760366,0.9627876,787.326,811.9048,811.9048,803.0403,841.7216,-0.10040283203125,0.06597900390625,0.98095703125,2.75146484375,-2.73651123046875,-0.171966552734375,1.0,2.0,1.0,1.0,2.0,100.0,event
11:31:31.968,0.76651406,0.15318511,0.047683906,1.2836338,0.24217194,-0.11494113,-0.10579482,0.6148711,0.55572397,0.06270541,-0.009532168,0.58813244,1.1242439,0.33080134,-0.21708658,1.0645013,0.9127642,0.2161133,-0.0029760366,0.9627876,792.5641,815.12823,799.011,782.0879,801.8315,-0.10040283203125,0.06597900390625,0.98095703125,2.75146484375,-2.73651123046875,-0.171966552734375,1.0,2.0,1.0,1.0,2.0,100.0,event
11:31:31.969,0.76651406,0.15318511,0.047683906,1.2836338,0.24217194,-0.11494113,-0.10579482,0.6148711,0.55572397,0.06270541,-0.009532168,0.58813244,1.1242439,0.33080134,-0.21708658,1.0645013,0.9127642,0.2161133,-0.0029760366,0.9627876,813.91943,814.7253,805.8608,825.2015,865.89746,-0.10040283203125,0.06597900390625,0.98095703125,2.75146484375,-2.73651123046875,-0.171966552734375,1.0,2.0,1.0,1.0,2.0,100.0,event
11:31:31.969,0.76651406,0.15318511,0.047683906,1.2836338,0.24217194,-0.11494113,-0.10579482,0.6148711,0.55572397,0.06270541,-0.009532168,0.58813244,1.1242439,0.33080134,-0.21708658,1.0645013,0.9127642,0.2161133,-0.0029760366,0.9627876,809.89014,807.8755,811.9048,819.15753,726.08057,-0.10040283203125,0.06597900390625,0.98095703125,2.75146484375,-2.73651123046875,-0.171966552734375,1.0,2.0,1.0,1.0,2.0,100.0,event
11:31:31.970,0.76651406,0.15318511,0.047683906,1.2836338,0.24217194,-0.11494113,-0.10579482,0.6148711,0.55572397,0.06270541,-0.009532168,0.58813244,1.1242439,0.33080134,-0.21708658,1.0645013,0.9127642,0.2161133,-0.0029760366,0.9627876,788.1319,802.6374,804.2491,790.14655,708.3516,-0.10040283203125,0.06597900390625,0.98095703125,2.75146484375,-2.73651123046875,-0.171966552734375,1.0,2.0,1.0,1.0,2.0,100.0,event
11:31:31.971,0.76651406,0.15318511,0.047683906,1.2836338,0.24217194,-0.11494113,-0.10579482,0.6148711,0.55572397,0.06270541,-0.009532168,0.58813244,1.1242439,0.33080134,-0.21708658,1.0645013,0.9127642,0.2161133,-0.0029760366,0.9627876,778.0586,809.0842,794.57874,783.2967,718.022,-0.10040283203125,0.06597900390625,0.98095703125,2.75146484375,-2.73651123046875,-0.171966552734375,1.0,2.0,1.0,1.0,2.0,100.0,event
11:31:31.998,0.76651406,0.15318511,0.047683906,1.2836338,0.24217194,-0.11494113,-0.10579482,0.6148711,0.55572397,0.06270541,-0.009532168,0.58813244,1.1242439,0.33080134,-0.21708658,1.0645013,0.9127642,0.2161133,-0.0029760366,0.9627876,784.90845,814.3223,796.5934,771.2088,686.99634,-0.10040283203125,0.06597900390625,0.98095703125,2.75146484375,-2.73651123046875,-0.171966552734375,1.0,2.0,1.0,1.0,2.0,100.0,event
11:31:31.999,0.76651406,0.15318511,0.047683906,1.2836338,0.24217194,-0.11494113,-0.10579482,0.6148711,0.55572397,0.06270541,-0.009532168,0.58813244,1.1242439,0.33080134,-0.21708658,1.0645013,0.9127642,0.2161133,-0.0029760366,0.9627876,799.81683,810.696,803.44324,782.49084,654.35895,-0.10040283203125,0.06597900390625,0.98095703125,2.75146484375,-2.73651123046875,-0.171966552734375,1.0,2.0,1.0,1.0,2.0,100.0,event
11:31:32.000,0.76651406,0.15318511,0.047683906,1.2836338,0.24217194,-0.11494113,-0.10579482,0.6148711,0.55572397,0.06270541,-0.009532168,0.58813244,1.1242439,0.33080134,-0.21708658,1.0645013,0.9127642,0.2161133,-0.0029760366,0.9627876,800.2198,807.47253,810.293,823.5897,704.3223,-0.10040283203125,0.06597900390625,0.98095703125,2.75146484375,-2.73651123046875,-0.171966552734375,1.0,2.0,1.0,1.0,2.0,100.0,event
11:31:32.000,0.76651406,0.15318511,0.038432263,1.2836338,0.24217194,-0.11494113,-0.10363436,0.6148711,0.55572397,0.06270541,-0.009532168,0.58813244,1.1242439,0.33080134,-0.33213687,1.0645013,0.9127642,0.2161133,-0.04104226,0.9627876,801.8315,806.26373,808.68134,829.6337,795.78754,-0.10040283203125,0.06597900390625,0.98095703125,2.75146484375,-2.73651123046875,-0.171966552734375,1.0,2.0,1.0,1.0,2.0,100.0,event
11:31:32.005,0.76651406,0.15318511,0.038432263,1.2836338,0.24217194,-0.11494113,-0.10363436,0.6148711,0.55572397,0.06270541,-0.009532168,0.58813244,1.1242439,0.33080134,-0.33213687,1.0645013,0.9127642,0.2161133,-0.04104226,0.9627876,810.293,813.1135,798.60803,809.0842,819.5604,-0.10040283203125,0.06597900390625,0.98095703125,2.75146484375,-2.73651123046875,-0.171966552734375,1.0,2.0,1.0,1.0,2.0,100.0,event
11:31:32.006,0.76651406,0.15318511,0.038432263,1.2836338,0.24217194,-0.11494113,-0.10363436,0.6148711,0.55572397,0.06270541,-0.009532168,0.58813244,1.1242439,0.33080134,-0.33213687,1.0645013,0.9127642,0.2161133,-0.04104226,0.9627876,815.9341,819.9634,804.2491,798.60803,830.0366,-0.10040283203125,0.06597900390625,0.98095703125,2.75146484375,-2.73651123046875,-0.171966552734375,1.0,2.0,1.0,1.0,2.0,100.0,event
11:31:32.007,0.76651406,0.15318511,0.038432263,1.2836338,0.24217194,-0.11494113,-0.10363436,0.6148711,0.55572397,0.06270541,-0.009532168,0.58813244,1.1242439,0.33080134,-0.33213687,1.0645013,0.9127642,0.2161133,-0.04104226,0.9627876,844.1392,821.1722,811.9048,815.12823,830.4396,-0.10040283203125,0.06597900390625,0.98095703125,2.75146484375,-2.73651123046875,-0.171966552734375,1.0,2.0,1.0,1.0,2.0,100.0,event
11:31:32.008,0.76651406,0.15318511,0.038432263,1.2836338,0.24217194,-0.11494113,-0.10363436,0.6148711,0.55572397,0.06270541,-0.009532168,0.58813244,1.1242439,0.33080134,-0.33213687,1.0645013,0.9127642,0.2161133,-0.04104226,0.9627876,832.4542,816.337,805.4579,828.4249,1023.0403,-0.10040283203125,0.06597900390625,0.98095703125,2.75146484375,-2.73651123046875,-0.171966552734375,1.0,2.0,1.0,1.0,2.0,100.0,event
11:31:32.009,0.76651406,0.15318511,0.038432263,1.2836338,0.24217194,-0.11494113,-0.10363436,0.6148711,0.55572397,0.06270541,-0.009532168,0.58813244,1.1242439,0.33080134,-0.33213687,1.0645013,0.9127642,0.2161133,-0.04104226,0.9627876,819.9634,817.9487,799.41394,819.9634,1027.0696,-0.10040283203125,0.06597900390625,0.98095703125,2.75146484375,-2.73651123046875,-0.171966552734375,1.0,2.0,1.0,1.0,2.0,100.0,event
11:31:32.010,0.76651406,0.15318511,0.038432263,1.2836338,0.24217194,-0.11494113,-0.10363436,0.6148711,0.55572397,0.06270541,-0.009532168,0.58813244,1.1242439,0.33080134,-0.33213687,1.0645013,0.9127642,0.2161133,-0.04104226,0.9627876,807.8755,815.5311,801.8315,802.23444,714.3956,-0.10040283203125,0.06597900390625,0.98095703125,2.75146484375,-2.73651123046875,-0.171966552734375,1.0,2.0,1.0,1.0,2.0,100.0,event
11:31:32.011,0.76651406,0.15318511,0.038432263,1.2836338,0.24217194,-0.11494113,-0.10363436,0.6148711,0.55572397,0.06270541,-0.009532168,0.58813244,1.1242439,0.33080134,-0.33213687,1.0645013,0.9127642,0.2161133,-0.04104226,0.9627876,783.69965,803.0403,814.3223,811.50183,742.6007,-0.10040283203125,0.06597900390625,0.98095703125,2.75146484375,-2.73651123046875,-0.171966552734375,1.0,2.0,1.0,1.0,2.0,100.0,event
11:31:32.012,0.76651406,0.15318511,0.038432263,1.2836338,0.24217194,-0.11494113,-0.10363436,0.6148711,0.55572397,0.06270541,-0.009532168,0.58813244,1.1242439,0.33080134,-0.33213687,1.0645013,0.9127642,0.2161133,-0.04104226,0.9627876,807.0696,807.8755,809.4872,816.337,779.2674,-0.10040283203125,0.06597900390625,0.98095703125,2.75146484375,-2.73651123046875,-0.171966552734375,1.0,2.0,1.0,1.0,2.0,100.0,event
11:31:32.104,0.76651406,0.15318511,0.038432263,1.2836338,0.24217194,-0.11494113,-0.10363436,0.6148711,0.55572397,0.06270541,-0.009532168,0.58813244,1.1242439,0.33080134,-0.33213687,1.0645013,0.9127642,0.2161133,-0.04104226,0.9627876,825.6044,814.7253,803.0403,801.8315,717.2161,-0.0936279296875,0.07421875,0.9814453125,2.70660400390625,-2.848663330078125,-0.994415283203125,1.0,2.0,1.0,1.0,2.0,100.0,event
11:31:32.105,0.76651406,0.15318511,0.038432263,1.2836338,0.24217194,-0.11494113,-0.10363436,0.6148711,0.55572397,0.06270541,-0.009532168,0.58813244,1.1242439,0.33080134,-0.33213687,1.0645013,0.9127642,0.2161133,-0.04104226,0.9627876,807.47253,815.12823,805.8608,802.6374,684.57874,-0.0936279296875,0.07421875,0.9814453125,2.70660400390625,-2.848663330078125,-0.994415283203125,1.0,2.0,1.0,1.0,2.0,100.0,event
11:31:32.106,0.76651406,0.15318511,0.038432263,1.2836338,0.24217194,-0.11494113,-0.10363436,0.6148711,0.55572397,0.06270541,-0.009532168,0.58813244,1.1242439,0.33080134,-0.33213687,1.0645013,0.9127642,0.2161133,-0.04104226,0.9627876,814.3223,811.9048,800.2198,804.65204,766.77655,-0.0936279296875,0.07421875,0.9814453125,2.70660400390625,-2.848663330078125,-0.994415283203125,1.0,2.0,1.0,1.0,2.0,100.0,event
11:31:32.106,0.76651406,0.15318511,0.038432263,1.2836338,0.24217194,-0.11494113,-0.10363436,0.6148711,0.55572397,0.06270541,-0.009532168,0.58813244,1.1242439,0.33080134,-0.33213687,1.0645013,0.9127642,0.2161133,-0.04104226,0.9627876,803.0403,809.4872,806.26373,809.89014,743.00366,-0.0936279296875,0.07421875,0.9814453125,2.70660400390625,-2.848663330078125,-0.994415283203125,1.0,2.0,1.0,1.0,2.0,100.0,event
11:31:32.107,0.76651406,0.15318511,0.038432263,1.2836338,0.24217194,-0.11494113,-0.10363436,0.6148711,0.55572397,0.06270541,-0.009532168,0.58813244,1.1242439,0.33080134,-0.33213687,1.0645013,0.9127642,0.2161133,-0.04104226,0.9627876,821.5751,815.12823,797.3993,801.02563,692.6374,-0.0936279296875,0.07421875,0.9814453125,2.70660400390625,-2.848663330078125,-0.994415283203125,1.0,2.0,1.0,1.0,2.0,100.0,event
11:31:32.108,0.76651406,0.15318511,0.038432263,1.2836338,0.24217194,-0.11494113,-0.10363436,0.6148711,0.55572397,0.06270541,-0.009532168,0.58813244,1.1242439,0.33080134,-0.33213687,1.0645013,0.9127642,0.2161133,-0.04104226,0.9627876,811.9048,804.2491,806.26373,817.9487,805.05493,-0.0936279296875,0.07421875,0.9814453125,2.70660400390625,-2.848663330078125,-0.994415283203125,1.0,2.0,1.0,1.0,2.0,100.0,event
11:31:32.109,0.76651406,0.15318511,0.038432263,1.2836338,0.24217194,-0.11494113,-0.10363436,0.6148711,0.55572397,0.06270541,-0.009532168,0.58813244,1.1242439,0.33080134,-0.33213687,1.0645013,0.9127642,0.2161133,-0.04104226,0.9627876,784.90845,796.99634,812.3077,813.1135,1024.249,-0.0936279296875,0.07421875,0.9814453125,2.70660400390625,-2.848663330078125,-0.994415283203125,1.0,2.0,1.0,1.0,2.0,100.0,event
11:31:32.109,0.76651406,0.15318511,0.038432263,1.2836338,0.24217194,-0.11494113,-0.10363436,0.6148711,0.55572397,0.06270541,-0.009532168,0.58813244,1.1242439,0.33080134,-0.33213687,1.0645013,0.9127642,0.2161133,-0.04104226,0.9627876,775.64105,803.0403,809.0842,808.68134,1114.1025,-0.0936279296875,0.07421875,0.9814453125,2.70660400390625,-2.848663330078125,-0.994415283203125,1.0,2.0,1.0,1.0,2.0,100.0,event
11:31:32.110,0.76651406,0.15318511,0.038432263,1.2836338,0.24217194,-0.11494113,-0.10363436,0.6148711,0.55572397,0.06270541,-0.009532168,0.58813244,1.1242439,0.33080134,-0.33213687,1.0645013,0.9127642,0.2161133,-0.04104226,0.9627876,780.87915,811.9048,807.0696,812.71063,848.1685,-0.0936279296875,0.07421875,0.9814453125,2.70660400390625,-2.848663330078125,-0.994415283203125,1.0,2.0,1.0,1.0,2.0,100.0,event
11:31:32.111,0.76651406,0.15318511,0.038432263,1.2836338,0.24217194,-0.11494113,-0.10363436,0.6148711,0.55572397,0.06270541,-0.009532168,0.58813244,1.1242439,0.33080134,-0.33213687,1.0645013,0.9127642,0.2161133,-0.04104226,0.9627876,791.3553,806.26373,804.65204,806.6667,685.38464,-0.0936279296875,0.07421875,0.9814453125,2.70660400390625,-2.848663330078125,-0.994415283203125,1.0,2.0,1.0,1.0,2.0,100.0,event
11:31:32.112,0.76651406,0.15318511,0.038432263,1.2836338,0.24217194,-0.11494113,-0.10363436,0.6148711,0.55572397,0.06270541,-0.009532168,0.58813244,1.1242439,0.33080134,-0.33213687,1.0645013,0.9127642,0.2161133,-0.04104226,0.9627876,825.2015,807.8755,803.44324,825.2015,717.619,-0.0936279296875,0.07421875,0.9814453125,2.70660400390625,-2.848663330078125,-0.994415283203125,1.0,2.0,1.0,1.0,2.0,100.0,event
11:31:32.112,0.76651406,0.15318511,0.038432263,1.2836338,0.24217194,-0.11494113,-0.10363436,0.6148711,0.55572397,0.06270541,-0.009532168,0.58813244,1.1242439,0.33080134,-0.33213687,1.0645013,0.9127642,0.2161133,-0.04104226,0.9627876,837.28937,816.337,800.6227,835.6777,718.4249,-0.0936279296875,0.07421875,0.9814453125,2.70660400390625,-2.848663330078125,-0.994415283203125,1.0,2.0,1.0,1.0,2.0,100.0,event
11:31:32.144,0.76651406,0.15318511,0.038432263,1.2836338,0.24217194,-0.11494113,-0.10363436,0.6148711,0.55572397,0.06270541,-0.009532168,0.58813244,1.1242439,0.33080134,-0.33213687,1.0645013,0.9127642,0.2161133,-0.04104226,0.9627876,797.3993,804.2491,803.0403,811.50183,682.5641,-0.10491943359375,0.0653076171875,0.98199462890625,2.8411865234375,-3.147735595703125,-1.55517578125,1.0,2.0,1.0,1.0,2.0,100.0,event
11:31:32.145,0.76651406,0.15318511,0.038432263,1.2836338,0.24217194,-0.11494113,-0.10363436,0.6148711,0.55572397,0.06270541,-0.009532168,0.58813244,1.1242439,0.33080134,-0.33213687,1.0645013,0.9127642,0.2161133,-0.04104226,0.9627876,793.7729,794.57874,803.0403,802.6374,715.6044,-0.10491943359375,0.0653076171875,0.98199462890625,2.8411865234375,-3.147735595703125,-1.55517578125,1.0,2.0,1.0,1.0,2.0,100.0,event
11:31:32.146,0.76651406,0.15318511,0.038432263,1.2836338,0.24217194,-0.11494113,-0.10363436,0.6148711,0.55572397,0.06270541,-0.009532168,0.58813244,1.1242439,0.33080134,-0.33213687,1.0645013,0.9127642,0.2161133,-0.04104226,0.9627876,821.978,795.38464,807.0696,821.978,754.68866,-0.10491943359375,0.0653076171875,0.98199462890625,2.8411865234375,-3.147735595703125,-1.55517578125,1.0,2.0,1.0,1.0,2.0,100.0,event
11:31:32.146,0.76651406,0.15318511,0.038432263,1.2836338,0.24217194,-0.11494113,-0.10363436,0.6148711,0.55572397,0.06270541,-0.009532168,0.58813244,1.1242439,0.33080134,-0.33213687,1.0645013,0.9127642,0.2161133,-0.04104226,0.9627876,828.8278,799.011,811.0989,829.6337,776.4469,-0.10491943359375,0.0653076171875,0.98199462890625,2.8411865234375,-3.147735595703125,-1.55517578125,1.0,2.0,1.0,1.0,2.0,100.0,event
11:31:32.147,0.76651406,0.15318511,0.038432263,1.2836338,0.24217194,-0.11494113,-0.10363436,0.6148711,0.55572397,0.06270541,-0.009532168,0.58813244,1.1242439,0.33080134,-0.33213687,1.0645013,0.9127642,0.2161133,-0.04104226,0.9627876,816.337,807.8755,802.6374,811.9048,828.022,-0.10491943359375,0.0653076171875,0.98199462890625,2.8411865234375,-3.147735595703125,-1.55517578125,1.0,2.0,1.0,1.0,2.0,100.0,event
11:31:32.148,0.76651406,0.15318511,0.019232739,1.2836338,0.24217194,-0.11494113,-0.13598357,0.6148711,0.55572397,0.06270541,-0.019054847,0.58813244,1.1242439,0.33080134,-0.39575517,1.0645013,0.9127642,0.2161133,-0.09228615,0.9627876,813.1135,806.26373,802.6374,803.8461,843.3333,-0.10491943359375,0.0653076171875,0.98199462890625,2.8411865234375,-3.147735595703125,-1.55517578125,1.0,2.0,1.0,1.0,2.0,100.0,event
11:31:32.152,0.76651406,0.15318511,0.019232739,1.2836338,0.24217194,-0.11494113,-0.13598357,0.6148711,0.55572397,0.06270541,-0.019054847,0.58813244,1.1242439,0.33080134,-0.39575517,1.0645013,0.9127642,0.2161133,-0.09228615,0.9627876,806.26373,804.2491,805.05493,818.3516,921.0989,-0.10491943359375,0.0653076171875,0.98199462890625,2.8411865234375,-3.147735595703125,-1.55517578125,1.0,2.0,1.0,1.0,2.0,100.0,event
11:31:32.153,0.76651406,0.15318511,0.019232739,1.2836338,0.24217194,-0.11494113,-0.13598357,0.6148711,0.55572397,0.06270541,-0.019054847,0.58813244,1.1242439,0.33080134,-0.39575517,1.0645013,0.9127642,0.2161133,-0.09228615,0.9627876,805.8608,807.47253,809.0842,814.3223,843.3333,-0.10491943359375,0.0653076171875,0.98199462890625,2.8411865234375,-3.147735595703125,-1.55517578125,1.0,2.0,1.0,1.0,2.0,100.0,event
11:31:32.153,0.76651406,0.15318511,0.019232739,1.2836338,0.24217194,-0.11494113,-0.13598357,0.6148711,0.55572397,0.06270541,-0.019054847,0.58813244,1.1242439,0.33080134,-0.39575517,1.0645013,0.9127642,0.2161133,-0.09228615,0.9627876,821.978,802.6374,807.8755,823.5897,704.7253,-0.10491943359375,0.0653076171875,0.98199462890625,2.8411865234375,-3.147735595703125,-1.55517578125,1.0,2.0,1.0,1.0,2.0,100.0,event
11:31:32.154,0.76651406,0.15318511,0.019232739,1.2836338,0.24217194,-0.11494113,-0.13598357,0.6148711,0.55572397,0.06270541,-0.019054847,0.58813244,1.1242439,0.33080134,-0.39575517,1.0645013,0.9127642,0.2161133,-0.09228615,0.9627876,834.4689,800.2198,799.81683,849.7802,798.20514,-0.10491943359375,0.0653076171875,0.98199462890625,2.8411865234375,-3.147735595703125,-1.55517578125,1.0,2.0,1.0,1.0,2.0,100.0,event
11:31:32.154,0.76651406,0.15318511,0.019232739,1.2836338,0.24217194,-0.11494113,-0.13598357,0.6148711,0.55572397,0.06270541,-0.019054847,0.58813244,1.1242439,0.33080134,-0.39575517,1.0645013,0.9127642,0.2161133,-0.09228615,0.9627876,817.9487,799.41394,801.8315,816.337,924.3223,-0.10491943359375,0.0653076171875,0.98199462890625,2.8411865234375,-3.147735595703125,-1.55517578125,1.0,2.0,1.0,1.0,2.0,100.0,event
11:31:32.155,0.76651406,0.15318511,0.019232739,1.2836338,0.24217194,-0.11494113,-0.13598357,0.6148711,0.55572397,0.06270541,-0.019054847,0.58813244,1.1242439,0.33080134,-0.39575517,1.0645013,0.9127642,0.2161133,-0.09228615,0.9627876,794.57874,805.4579,803.0403,785.7143,820.7692,-0.10491943359375,0.0653076171875,0.98199462890625,2.8411865234375,-3.147735595703125,-1.55517578125,1.0,2.0,1.0,1.0,2.0,100.0,event
11:31:32.188,0.76651406,0.15318511,0.019232739,1.2836338,0.24217194,-0.11494113,-0.13598357,0.6148711,0.55572397,0.06270541,-0.019054847,0.58813244,1.1242439,0.33080134,-0.39575517,1.0645013,0.9127642,0.2161133,-0.09228615,0.9627876,811.9048,813.5165,806.26373,798.60803,654.35895,-0.10125732421875,0.0718994140625,0.983154296875,4.486083984375,-2.43743896484375,-3.70849609375,1.0,2.0,1.0,1.0,2.0,100.0,event
11:31:32.189,0.76651406,0.15318511,0.019232739,1.2836338,0.24217194,-0.11494113,-0.13598357,0.6148711,0.55572397,0.06270541,-0.019054847,0.58813244,1.1242439,0.33080134,-0.39575517,1.0645013,0.9127642,0.2161133,-0.09228615,0.9627876,819.15753,806.6667,809.4872,806.26373,710.7692,-0.10125732421875,0.0718994140625,0.983154296875,4.486083984375,-2.43743896484375,-3.70849609375,1.0,2.0,1.0,1.0,2.0,100.0,event
11:31:32.190,0.76651406,0.15318511,0.019232739,1.2836338,0.24217194,-0.11494113,-0.13598357,0.6148711,0.55572397,0.06270541,-0.019054847,0.58813244,1.1242439,0.33080134,-0.39575517,1.0645013,0.9127642,0.2161133,-0.09228615,0.9627876,828.8278,804.2491,811.9048,822.7839,798.60803,-0.10125732421875,0.0718994140625,0.983154296875,4.486083984375,-2.43743896484375,-3.70849609375,1.0,2.0,1.0,1.0,2.0,100.0,event
11:31:32.191,0.76651406,0.15318511,0.019232739,1.2836338,0.24217194,-0.11494113,-0.13598357,0.6148711,0.55572397,0.06270541,-0.019054847,0.58813244,1.1242439,0.33080134,-0.39575517,1.0645013,0.9127642,0.2161133,-0.09228615,0.9627876,826.4103,805.8608,812.3077,833.2601,708.7546,-0.10125732421875,0.0718994140625,0.983154296875,4.486083984375,-2.43743896484375,-3.70849609375,1.0,2.0,1.0,1.0,2.0,100.0,event
11:31:32.192,0.76651406,0.15318511,0.019232739,1.2836338,0.24217194,-0.11494113,-0.13598357,0.6148711,0.55572397,0.06270541,-0.019054847,0.58813244,1.1242439,0.33080134,-0.39575517,1.0645013,0.9127642,0.2161133,-0.09228615,0.9627876,811.50183,809.4872,807.0696,820.7692,640.65936,-0.10125732421875,0.0718994140625,0.983154296875,4.486083984375,-2.43743896484375,-3.70849609375,1.0,2.0,1.0,1.0,2.0,100.0,event
11:31:32.192,0.76651406,0.15318511,0.019232739,1.2836338,0.24217194,-0.11494113,-0.13598357,0.6148711,0.55572397,0.06270541,-0.019054847,0.58813244,1.1242439,0.33080134,-0.39575517,1.0645013,0.9127642,0.2161133,-0.09228615,0.9627876,814.7253,814.7253,801.02563,822.7839,784.5055,-0.10125732421875,0.0718994140625,0.983154296875,4.486083984375,-2.43743896484375,-3.70849609375,1.0,2.0,1.0,1.0,2.0,100.0,event
11:31:32.193,0.76651406,0.15318511,0.019232739,1.2836338,0.24217194,-0.11494113,-0.13598357,0.6148711,0.55572397,0.06270541,-0.019054847,0.58813244,1.1242439,0.33080134,-0.39575517,1.0645013,0.9127642,0.2161133,-0.09228615,0.9627876,825.6044,816.7399,794.17584,828.8278,927.9487,-0.10125732421875,0.0718994140625,0.983154296875,4.486083984375,-2.43743896484375,-3.70849609375,1.0,2.0,1.0,1.0,2.0,100.0,event
11:31:32.194,0.76651406,0.15318511,0.019232739,1.2836338,0.24217194,-0.11494113,-0.13598357,0.6148711,0.55572397,0.06270541,-0.019054847,0.58813244,1.1242439,0.33080134,-0.39575517,1.0645013,0.9127642,0.2161133,-0.09228615,0.9627876,824.3956,818.3516,796.99634,817.1429,793.36993,-0.10125732421875,0.0718994140625,0.983154296875,4.486083984375,-2.43743896484375,-3.70849609375,1.0,2.0,1.0,1.0,2.0,100.0,event
11:31:32.195,0.76651406,0.15318511,0.019232739,1.2836338,0.24217194,-0.11494113,-0.13598357,0.6148711,0.55572397,0.06270541,-0.019054847,0.58813244,1.1242439,0.33080134,-0.39575517,1.0645013,0.9127642,0.2161133,-0.09228615,0.9627876,832.0513,811.9048,812.3077,817.5458,873.5531,-0.10125732421875,0.0718994140625,0.983154296875,4.486083984375,-2.43743896484375,-3.70849609375,1.0,2.0,1.0,1.0,2.0,100.0,event
11:31:32.195,0.76651406,0.15318511,0.019232739,1.2836338,0.24217194,-0.11494113,-0.13598357,0.6148711,0.55572397,0.06270541,-0.019054847,0.58813244,1.1242439,0.33080134,-0.39575517,1.0645013,0.9127642,0.2161133,-0.09228615,0.9627876,817.1429,817.9487,804.2491,814.3223,712.7839,-0.10125732421875,0.0718994140625,0.983154296875,4.486083984375,-2.43743896484375,-3.70849609375,1.0,2.0,1.0,1.0,2.0,100.0,event
11:31:32.196,0.76651406,0.15318511,0.019232739,1.2836338,0.24217194,-0.11494113,-0.13598357,0.6148711,0.55572397,0.06270541,-0.019054847,0.58813244,1.1242439,0.33080134,-0.39575517,1.0645013,0.9127642,0.2161133,-0.09228615,0.9627876,824.7985,806.6667,811.9048,823.1868,909.81683,-0.10125732421875,0.0718994140625,0.983154296875,4.486083984375,-2.43743896484375,-3.70849609375,1.0,2.0,1.0,1.0,2.0,100.0,event
11:31:32.197,0.76651406,0.15318511,0.019232739,1.2836338,0.24217194,-0.11494113,-0.13598357,0.6148711,0.55572397,0.06270541,-0.019054847,0.58813244,1.1242439,0.33080134,-0.39575517,1.0645013,0.9127642,0.2161133,-0.09228615,0.9627876,814.7253,812.3077,809.89014,829.6337,682.5641,-0.10125732421875,0.0718994140625,0.983154296875,4.486083984375,-2.43743896484375,-3.70849609375,1.0,2.0,1.0,1.0,2.0,100.0,event
11:31:32.225,0.76651406,0.15318511,0.019232739,1.2836338,0.24217194,-0.11494113,-0.13598357,0.6148711,0.55572397,0.06270541,-0.019054847,0.58813244,1.1242439,0.33080134,-0.39575517,1.0645013,0.9127642,0.2161133,-0.09228615,0.9627876,840.5128,813.91943,811.50183,832.8571,652.74725,-0.09490966796875,0.0792236328125,0.97802734375,3.4393310546875,-2.893524169921875,-3.289794921875,1.0,2.0,1.0,1.0,2.0,100.0,event
11:31:32.226,0.76651406,0.15318511,0.019232739,1.2836338,0.24217194,-0.11494113,-0.13598357,0.6148711,0.55572397,0.06270541,-0.019054847,0.58813244,1.1242439,0.33080134,-0.39575517,1.0645013,0.9127642,0.2161133,-0.09228615,0.9627876,838.9011,813.5165,809.89014,835.6777,786.1172,-0.09490966796875,0.0792236328125,0.97802734375,3.4393310546875,-2.893524169921875,-3.289794921875,1.0,2.0,1.0,1.0,2.0,100.0,event
11:31:32.227,0.76651406,0.15318511,0.019232739,1.2836338,0.24217194,-0.11494113,-0.13598357,0.6148711,0.55572397,0.06270541,-0.019054847,0.58813244,1.1242439,0.33080134,-0.39575517,1.0645013,0.9127642,0.2161133,-0.09228615,0.9627876,821.1722,819.5604,811.0989,820.7692,794.9817,-0.09490966796875,0.0792236328125,0.97802734375,3.4393310546875,-2.893524169921875,-3.289794921875,1.0,2.0,1.0,1.0,2.0,100.0,event
