TimeStamp,Delta_TP9,Delta_AF7,Delta_AF8,Delta_TP10,Theta_TP9,Theta_AF7,Theta_AF8,Theta_TP10,Alpha_TP9,Alpha_AF7,Alpha_AF8,Alpha_TP10,Beta_TP9,Beta_AF7,Beta_AF8,Beta_TP10,Gamma_TP9,Gamma_AF7,Gamma_AF8,Gamma_TP10,RAW_TP9,RAW_AF7,RAW_AF8,RAW_TP10,AUX_RIGHT,Accelerometer_X,Accelerometer_Y,Accelerometer_Z,Gyro_X,Gyro_Y,Gyro_Z,HeadBandOn,HSI_TP9,HSI_AF7,HSI_AF8,HSI_TP10,Battery,Elements
14:12:18.091,1.225499,0.5695595,0.595086,1.2684127,1.1066071,0.6933442,0.35373327,1.1724442,0.7299876,1.1708794,0.3446011,1.0308672,0.7771315,0.93985915,0.5780834,0.84199786,0.5005034,0.6780635,0.32132128,0.29294068,786.52014,827.2161,802.23444,793.7729,692.23444,-0.4151611328125,0.12030029296875,0.8956298828125,2.474822998046875,-4.05242919921875,0.575714111328125,1.0,1.0,1.0,1.0,1.0,100.0,event
14:12:18.092,1.225499,0.5695595,0.595086,1.2684127,1.1066071,0.6933442,0.35373327,1.1724442,0.7299876,1.1708794,0.3446011,1.0308672,0.7771315,0.93985915,0.5780834,0.84199786,0.5005034,0.6780635,0.32132128,0.29294068,799.011,817.5458,806.6667,805.8608,720.0366,-0.4151611328125,0.12030029296875,0.8956298828125,2.474822998046875,-4.05242919921875,0.575714111328125,1.0,1.0,1.0,1.0,1.0,100.0,event
14:12:18.093,1.225499,0.5695595,0.595086,1.2684127,1.1066071,0.6933442,0.35373327,1.1724442,0.7299876,1.1708794,0.3446011,1.0308672,0.7771315,0.93985915,0.5780834,0.84199786,0.5005034,0.6780635,0.32132128,0.29294068,803.8461,793.36993,798.60803,805.8608,779.67035,-0.4151611328125,0.12030029296875,0.8956298828125,2.474822998046875,-4.05242919921875,0.575714111328125,1.0,1.0,1.0,1.0,1.0,100.0,event
14:12:18.094,1.225499,0.5695595,0.595086,1.2684127,1.1066071,0.6933442,0.35373327,1.1724442,0.7299876,1.1708794,0.3446011,1.0308672,0.7771315,0.93985915,0.5780834,0.84199786,0.5005034,0.6780635,0.32132128,0.29294068,784.90845,797.3993,804.2491,803.44324,759.12085,-0.4151611328125,0.12030029296875,0.8956298828125,2.474822998046875,-4.05242919921875,0.575714111328125,1.0,1.0,1.0,1.0,1.0,100.0,event
14:12:18.094,1.225499,0.5695595,0.595086,1.2684127,1.1066071,0.6933442,0.35373327,1.1724442,0.7299876,1.1708794,0.3446011,1.0308672,0.7771315,0.93985915,0.5780834,0.84199786,0.5005034,0.6780635,0.32132128,0.29294068,788.5348,817.5458,808.68134,808.68134,665.2381,-0.4151611328125,0.12030029296875,0.8956298828125,2.474822998046875,-4.05242919921875,0.575714111328125,1.0,1.0,1.0,1.0,1.0,100.0,event
14:12:18.095,1.225499,0.5695595,0.595086,1.2684127,1.1066071,0.6933442,0.35373327,1.1724442,0.7299876,1.1708794,0.3446011,1.0308672,0.7771315,0.93985915,0.5780834,0.84199786,0.5005034,0.6780635,0.32132128,0.29294068,802.6374,811.9048,801.02563,818.3516,810.696,-0.4151611328125,0.12030029296875,0.8956298828125,2.474822998046875,-4.05242919921875,0.575714111328125,1.0,1.0,1.0,1.0,1.0,100.0,event
14:12:18.096,1.225499,0.5695595,0.595086,1.2684127,1.1066071,0.6933442,0.35373327,1.1724442,0.7299876,1.1708794,0.3446011,1.0308672,0.7771315,0.93985915,0.5780834,0.84199786,0.5005034,0.6780635,0.32132128,0.29294068,798.60803,813.5165,801.4286,807.0696,895.7143,-0.4151611328125,0.12030029296875,0.8956298828125,2.474822998046875,-4.05242919921875,0.575714111328125,1.0,1.0,1.0,1.0,1.0,100.0,event
14:12:18.096,1.225499,0.5897231,0.60756856,1.2684127,1.1066071,0.765778,0.3867026,1.1724442,0.7299876,1.1708794,0.3446011,1.0308672,0.7771315,0.94574374,0.5804105,0.84199786,0.5005034,0.69410783,0.33412972,0.29294068,791.3553,809.89014,799.81683,794.9817,791.75824,-0.4151611328125,0.12030029296875,0.8956298828125,2.474822998046875,-4.05242919921875,0.575714111328125,1.0,1.0,1.0,1.0,1.0,100.0,event
14:12:18.101,1.225499,0.5897231,0.60756856,1.2684127,1.1066071,0.765778,0.3867026,1.1724442,0.7299876,1.1708794,0.3446011,1.0308672,0.7771315,0.94574374,0.5804105,0.84199786,0.5005034,0.69410783,0.33412972,0.29294068,796.1905,807.47253,791.75824,796.99634,761.13556,-0.4151611328125,0.12030029296875,0.8956298828125,2.474822998046875,-4.05242919921875,0.575714111328125,1.0,1.0,1.0,1.0,1.0,100.0,event
14:12:18.101,1.225499,0.5897231,0.60756856,1.2684127,1.1066071,0.765778,0.3867026,1.1724442,0.7299876,1.1708794,0.3446011,1.0308672,0.7771315,0.94574374,0.5804105,0.84199786,0.5005034,0.69410783,0.33412972,0.29294068,801.02563,807.47253,799.41394,807.8755,912.6374,-0.4151611328125,0.12030029296875,0.8956298828125,2.474822998046875,-4.05242919921875,0.575714111328125,1.0,1.0,1.0,1.0,1.0,100.0,event
14:12:18.102,1.225499,0.5897231,0.60756856,1.2684127,1.1066071,0.765778,0.3867026,1.1724442,0.7299876,1.1708794,0.3446011,1.0308672,0.7771315,0.94574374,0.5804105,0.84199786,0.5005034,0.69410783,0.33412972,0.29294068,795.78754,803.44324,803.0403,807.8755,977.1062,-0.4151611328125,0.12030029296875,0.8956298828125,2.474822998046875,-4.05242919921875,0.575714111328125,1.0,1.0,1.0,1.0,1.0,100.0,event
14:12:18.103,1.225499,0.5897231,0.60756856,1.2684127,1.1066071,0.765778,0.3867026,1.1724442,0.7299876,1.1708794,0.3446011,1.0308672,0.7771315,0.94574374,0.5804105,0.84199786,0.5005034,0.69410783,0.33412972,0.29294068,784.10254,805.05493,799.41394,798.20514,778.0586,-0.4151611328125,0.12030029296875,0.8956298828125,2.474822998046875,-4.05242919921875,0.575714111328125,1.0,1.0,1.0,1.0,1.0,100.0,event
14:12:18.157,1.225499,0.5897231,0.60756856,1.2684127,1.1066071,0.765778,0.3867026,1.1724442,0.7299876,1.1708794,0.3446011,1.0308672,0.7771315,0.94574374,0.5804105,0.84199786,0.5005034,0.69410783,0.33412972,0.29294068,787.72894,811.0989,801.4286,803.44324,756.7033,-0.41339111328125,0.11944580078125,0.89501953125,1.2261962890625,-2.669219970703125,-0.411224365234375,1.0,1.0,1.0,1.0,1.0,100.0,event
14:12:18.160,1.225499,0.5897231,0.60756856,1.2684127,1.1066071,0.765778,0.3867026,1.1724442,0.7299876,1.1708794,0.3446011,1.0308672,0.7771315,0.94574374,0.5804105,0.84199786,0.5005034,0.69410783,0.33412972,0.29294068,805.4579,822.381,804.65204,816.7399,917.47253,-0.41339111328125,0.11944580078125,0.89501953125,1.2261962890625,-2.669219970703125,-0.411224365234375,1.0,1.0,1.0,1.0,1.0,100.0,event
14:12:18.161,1.225499,0.5897231,0.60756856,1.2684127,1.1066071,0.765778,0.3867026,1.1724442,0.7299876,1.1708794,0.3446011,1.0308672,0.7771315,0.94574374,0.5804105,0.84199786,0.5005034,0.69410783,0.33412972,0.29294068,816.7399,826.0073,802.6374,815.9341,791.75824,-0.41339111328125,0.11944580078125,0.89501953125,1.2261962890625,-2.669219970703125,-0.411224365234375,1.0,1.0,1.0,1.0,1.0,100.0,event
14:12:18.162,1.225499,0.5897231,0.60756856,1.2684127,1.1066071,0.765778,0.3867026,1.1724442,0.7299876,1.1708794,0.3446011,1.0308672,0.7771315,0.94574374,0.5804105,0.84199786,0.5005034,0.69410783,0.33412972,0.29294068,817.5458,815.9341,792.1612,818.7546,650.32965,-0.41339111328125,0.11944580078125,0.89501953125,1.2261962890625,-2.669219970703125,-0.411224365234375,1.0,1.0,1.0,1.0,1.0,100.0,event
14:12:18.163,1.225499,0.5897231,0.60756856,1.2684127,1.1066071,0.765778,0.3867026,1.1724442,0.7299876,1.1708794,0.3446011,1.0308672,0.7771315,0.94574374,0.5804105,0.84199786,0.5005034,0.69410783,0.33412972,0.29294068,814.3223,812.3077,790.54944,833.2601,750.2564,-0.41339111328125,0.11944580078125,0.89501953125,1.2261962890625,-2.669219970703125,-0.411224365234375,1.0,1.0,1.0,1.0,1.0,100.0,event
14:12:18.164,1.225499,0.5897231,0.60756856,1.2684127,1.1066071,0.765778,0.3867026,1.1724442,0.7299876,1.1708794,0.3446011,1.0308672,0.7771315,0.94574374,0.5804105,0.84199786,0.5005034,0.69410783,0.33412972,0.29294068,786.52014,816.7399,801.4286,806.6667,831.2454,-0.41339111328125,0.11944580078125,0.89501953125,1.2261962890625,-2.669219970703125,-0.411224365234375,1.0,1.0,1.0,1.0,1.0,100.0,event
14:12:18.165,1.225499,0.5897231,0.60756856,1.2684127,1.1066071,0.765778,0.3867026,1.1724442,0.7299876,1.1708794,0.3446011,1.0308672,0.7771315,0.94574374,0.5804105,0.84199786,0.5005034,0.69410783,0.33412972,0.29294068,770.80585,824.7985,799.41394,777.25275,819.15753,-0.41339111328125,0.11944580078125,0.89501953125,1.2261962890625,-2.669219970703125,-0.411224365234375,1.0,1.0,1.0,1.0,1.0,100.0,event
14:12:18.165,1.225499,0.5897231,0.60756856,1.2684127,1.1066071,0.765778,0.3867026,1.1724442,0.7299876,1.1708794,0.3446011,1.0308672,0.7771315,0.94574374,0.5804105,0.84199786,0.5005034,0.69410783,0.33412972,0.29294068,791.3553,831.2454,801.8315,790.54944,734.5421,-0.41339111328125,0.11944580078125,0.89501953125,1.2261962890625,-2.669219970703125,-0.411224365234375,1.0,1.0,1.0,1.0,1.0,100.0,event
14:12:18.166,1.225499,0.5897231,0.60756856,1.2684127,1.1066071,0.765778,0.3867026,1.1724442,0.7299876,1.1708794,0.3446011,1.0308672,0.7771315,0.94574374,0.5804105,0.84199786,0.5005034,0.69410783,0.33412972,0.29294068,799.41394,829.6337,809.4872,796.1905,742.6007,-0.41339111328125,0.11944580078125,0.89501953125,1.2261962890625,-2.669219970703125,-0.411224365234375,1.0,1.0,1.0,1.0,1.0,100.0,event
14:12:18.167,1.225499,0.5897231,0.60756856,1.2684127,1.1066071,0.765778,0.3867026,1.1724442,0.7299876,1.1708794,0.3446011,1.0308672,0.7771315,0.94574374,0.5804105,0.84199786,0.5005034,0.69410783,0.33412972,0.29294068,779.67035,822.381,794.9817,802.6374,975.89746,-0.41339111328125,0.11944580078125,0.89501953125,1.2261962890625,-2.669219970703125,-0.411224365234375,1.0,1.0,1.0,1.0,1.0,100.0,event
14:12:18.167,1.225499,0.5897231,0.60756856,1.2684127,1.1066071,0.765778,0.3867026,1.1724442,0.7299876,1.1708794,0.3446011,1.0308672,0.7771315,0.94574374,0.5804105,0.84199786,0.5005034,0.69410783,0.33412972,0.29294068,790.54944,813.91943,792.1612,805.4579,858.6447,-0.41339111328125,0.11944580078125,0.89501953125,1.2261962890625,-2.669219970703125,-0.411224365234375,1.0,1.0,1.0,1.0,1.0,100.0,event
14:12:18.168,1.225499,0.5897231,0.60756856,1.2684127,1.1066071,0.765778,0.3867026,1.1724442,0.7299876,1.1708794,0.3446011,1.0308672,0.7771315,0.94574374,0.5804105,0.84199786,0.5005034,0.69410783,0.33412972,0.29294068,811.0989,804.65204,790.54944,791.3553,724.0659,-0.41339111328125,0.11944580078125,0.89501953125,1.2261962890625,-2.669219970703125,-0.411224365234375,1.0,1.0,1.0,1.0,1.0,100.0,event
14:12:18.208,1.225499,0.5897231,0.60756856,1.2684127,1.1066071,0.765778,0.3867026,1.1724442,0.7299876,1.1708794,0.3446011,1.0308672,0.7771315,0.94574374,0.5804105,0.84199786,0.5005034,0.69410783,0.33412972,0.29294068,811.50183,801.4286,786.1172,790.54944,788.5348,-0.4239501953125,0.1114501953125,0.8909912109375,1.697235107421875,-2.220611572265625,-1.024322509765625,1.0,1.0,1.0,1.0,1.0,100.0,event
14:12:18.209,1.225499,0.5897231,0.60756856,1.2684127,1.1066071,0.765778,0.3867026,1.1724442,0.7299876,1.1708794,0.3446011,1.0308672,0.7771315,0.94574374,0.5804105,0.84199786,0.5005034,0.69410783,0.33412972,0.29294068,823.9927,811.0989,804.2491,808.68134,828.8278,-0.4239501953125,0.1114501953125,0.8909912109375,1.697235107421875,-2.220611572265625,-1.024322509765625,1.0,1.0,1.0,1.0,1.0,100.0,event
14:12:18.210,1.225499,0.5897231,0.60756856,1.2684127,1.1066071,0.765778,0.3867026,1.1724442,0.7299876,1.1708794,0.3446011,1.0308672,0.7771315,0.94574374,0.5804105,0.84199786,0.5005034,0.69410783,0.33412972,0.29294068,823.9927,821.1722,808.2784,813.1135,773.6264,-0.4239501953125,0.1114501953125,0.8909912109375,1.697235107421875,-2.220611572265625,-1.024322509765625,1.0,1.0,1.0,1.0,1.0,100.0,event
14:12:18.211,1.225499,0.5897231,0.60756856,1.2684127,1.1066071,0.765778,0.3867026,1.1724442,0.7299876,1.1708794,0.3446011,1.0308672,0.7771315,0.94574374,0.5804105,0.84199786,0.5005034,0.69410783,0.33412972,0.29294068,810.293,826.4103,804.2491,809.0842,699.89014,-0.4239501953125,0.1114501953125,0.8909912109375,1.697235107421875,-2.220611572265625,-1.024322509765625,1.0,1.0,1.0,1.0,1.0,100.0,event
14:12:18.212,1.225499,0.5897231,0.60756856,1.2684127,1.1066071,0.765778,0.3867026,1.1724442,0.7299876,1.1708794,0.3446011,1.0308672,0.7771315,0.94574374,0.5804105,0.84199786,0.5005034,0.69410783,0.33412972,0.29294068,804.2491,829.6337,807.0696,809.0842,817.9487,-0.4239501953125,0.1114501953125,0.8909912109375,1.697235107421875,-2.220611572265625,-1.024322509765625,1.0,1.0,1.0,1.0,1.0,100.0,event
14:12:18.212,1.225499,0.5897231,0.60756856,1.2684127,1.1066071,0.765778,0.3867026,1.1724442,0.7299876,1.1708794,0.3446011,1.0308672,0.7771315,0.94574374,0.5804105,0.84199786,0.5005034,0.69410783,0.33412972,0.29294068,809.0842,828.4249,804.65204,804.2491,826.4103,-0.4239501953125,0.1114501953125,0.8909912109375,1.697235107421875,-2.220611572265625,-1.024322509765625,1.0,1.0,1.0,1.0,1.0,100.0,event
14:12:18.213,1.225499,0.5897231,0.60756856,1.2684127,1.1066071,0.765778,0.3867026,1.1724442,0.7299876,1.1708794,0.3446011,1.0308672,0.7771315,0.94574374,0.5804105,0.84199786,0.5005034,0.69410783,0.33412972,0.29294068,815.5311,819.5604,803.8461,808.68134,809.4872,-0.4239501953125,0.1114501953125,0.8909912109375,1.697235107421875,-2.220611572265625,-1.024322509765625,1.0,1.0,1.0,1.0,1.0,100.0,event
14:12:18.214,1.225499,0.5897231,0.60756856,1.2684127,1.1066071,0.765778,0.3867026,1.1724442,0.7299876,1.1708794,0.3446011,1.0308672,0.7771315,0.94574374,0.5804105,0.84199786,0.5005034,0.69410783,0.33412972,0.29294068,815.12823,817.1429,804.2491,811.9048,873.95605,-0.4239501953125,0.1114501953125,0.8909912109375,1.697235107421875,-2.220611572265625,-1.024322509765625,1.0,1.0,1.0,1.0,1.0,100.0,event
14:12:18.215,1.225499,0.5897231,0.60756856,1.2684127,1.1066071,0.765778,0.3867026,1.1724442,0.7299876,1.1708794,0.3446011,1.0308672,0.7771315,0.94574374,0.5804105,0.84199786,0.5005034,0.69410783,0.33412972,0.29294068,814.7253,817.9487,811.0989,814.3223,1011.75824,-0.4239501953125,0.1114501953125,0.8909912109375,1.697235107421875,-2.220611572265625,-1.024322509765625,1.0,1.0,1.0,1.0,1.0,100.0,event
14:12:18.215,1.225499,0.5904086,0.62301683,1.2684127,1.1066071,0.7906502,0.39920622,1.1724442,0.7299876,1.1651342,0.3446011,1.0308672,0.7771315,0.95524216,0.58320165,0.84199786,0.5005034,0.7096236,0.34636012,0.29294068,804.65204,817.9487,804.2491,806.6667,1038.3517,-0.4239501953125,0.1114501953125,0.8909912109375,1.697235107421875,-2.220611572265625,-1.024322509765625,1.0,1.0,1.0,1.0,1.0,100.0,event
14:12:18.220,1.225499,0.5904086,0.62301683,1.2684127,1.1066071,0.7906502,0.39920622,1.1724442,0.7299876,1.1651342,0.3446011,1.0308672,0.7771315,0.95524216,0.58320165,0.84199786,0.5005034,0.7096236,0.34636012,0.29294068,794.57874,820.7692,786.9231,800.2198,757.50916,-0.4239501953125,0.1114501953125,0.8909912109375,1.697235107421875,-2.220611572265625,-1.024322509765625,1.0,1.0,1.0,1.0,1.0,100.0,event
14:12:18.220,1.225499,0.5904086,0.62301683,1.2684127,1.1066071,0.7906502,0.39920622,1.1724442,0.7299876,1.1651342,0.3446011,1.0308672,0.7771315,0.95524216,0.58320165,0.84199786,0.5005034,0.7096236,0.34636012,0.29294068,784.10254,820.3663,786.9231,810.696,722.4542,-0.4239501953125,0.1114501953125,0.8909912109375,1.697235107421875,-2.220611572265625,-1.024322509765625,1.0,1.0,1.0,1.0,1.0,100.0,event
14:12:18.221,1.225499,0.5904086,0.62301683,1.2684127,1.1066071,0.7906502,0.39920622,1.1724442,0.7299876,1.1651342,0.3446011,1.0308672,0.7771315,0.95524216,0.58320165,0.84199786,0.5005034,0.7096236,0.34636012,0.29294068,781.685,815.9341,794.57874,804.65204,768.7912,-0.4239501953125,0.1114501953125,0.8909912109375,1.697235107421875,-2.220611572265625,-1.024322509765625,1.0,1.0,1.0,1.0,1.0,100.0,event
14:12:18.222,1.225499,0.5904086,0.62301683,1.2684127,1.1066071,0.7906502,0.39920622,1.1724442,0.7299876,1.1651342,0.3446011,1.0308672,0.7771315,0.95524216,0.58320165,0.84199786,0.5005034,0.7096236,0.34636012,0.29294068,786.9231,802.6374,796.1905,790.9524,730.10986,-0.4239501953125,0.1114501953125,0.8909912109375,1.697235107421875,-2.220611572265625,-1.024322509765625,1.0,1.0,1.0,1.0,1.0,100.0,event
14:12:18.223,1.225499,0.5904086,0.62301683,1.2684127,1.1066071,0.7906502,0.39920622,1.1724442,0.7299876,1.1651342,0.3446011,1.0308672,0.7771315,0.95524216,0.58320165,0.84199786,0.5005034,0.7096236,0.34636012,0.29294068,782.8938,790.9524,794.9817,792.96704,728.0952,-0.4239501953125,0.1114501953125,0.8909912109375,1.697235107421875,-2.220611572265625,-1.024322509765625,1.0,1.0,1.0,1.0,1.0,100.0,event
14:12:18.224,1.225499,0.5904086,0.62301683,1.2684127,1.1066071,0.7906502,0.39920622,1.1724442,0.7299876,1.1651342,0.3446011,1.0308672,0.7771315,0.95524216,0.58320165,0.84199786,0.5005034,0.7096236,0.34636012,0.29294068,780.87915,792.1612,792.5641,791.3553,738.1685,-0.4239501953125,0.1114501953125,0.8909912109375,1.697235107421875,-2.220611572265625,-1.024322509765625,1.0,1.0,1.0,1.0,1.0,100.0,event
14:12:18.224,1.225499,0.5904086,0.62301683,1.2684127,1.1066071,0.7906502,0.39920622,1.1724442,0.7299876,1.1651342,0.3446011,1.0308672,0.7771315,0.95524216,0.58320165,0.84199786,0.5005034,0.7096236,0.34636012,0.29294068,785.31134,798.60803,798.20514,784.90845,767.1795,-0.4239501953125,0.1114501953125,0.8909912109375,1.697235107421875,-2.220611572265625,-1.024322509765625,1.0,1.0,1.0,1.0,1.0,100.0,event
14:12:18.225,1.225499,0.5904086,0.62301683,1.2684127,1.1066071,0.7906502,0.39920622,1.1724442,0.7299876,1.1651342,0.3446011,1.0308672,0.7771315,0.95524216,0.58320165,0.84199786,0.5005034,0.7096236,0.34636012,0.29294068,796.5934,814.3223,807.0696,789.7436,823.1868,-0.4239501953125,0.1114501953125,0.8909912109375,1.697235107421875,-2.220611572265625,-1.024322509765625,1.0,1.0,1.0,1.0,1.0,100.0,event
14:12:18.226,1.225499,0.5904086,0.62301683,1.2684127,1.1066071,0.7906502,0.39920622,1.1724442,0.7299876,1.1651342,0.3446011,1.0308672,0.7771315,0.95524216,0.58320165,0.84199786,0.5005034,0.7096236,0.34636012,0.29294068,800.2198,823.5897,802.23444,786.9231,865.09155,-0.4239501953125,0.1114501953125,0.8909912109375,1.697235107421875,-2.220611572265625,-1.024322509765625,1.0,1.0,1.0,1.0,1.0,100.0,event
14:12:18.227,1.225499,0.5904086,0.62301683,1.2684127,1.1066071,0.7906502,0.39920622,1.1724442,0.7299876,1.1651342,0.3446011,1.0308672,0.7771315,0.95524216,0.58320165,0.84199786,0.5005034,0.7096236,0.34636012,0.29294068,782.0879,818.7546,805.8608,790.9524,852.1978,-0.4239501953125,0.1114501953125,0.8909912109375,1.697235107421875,-2.220611572265625,-1.024322509765625,1.0,1.0,1.0,1.0,1.0,100.0,event
14:12:18.227,1.225499,0.5904086,0.62301683,1.2684127,1.1066071,0.7906502,0.39920622,1.1724442,0.7299876,1.1651342,0.3446011,1.0308672,0.7771315,0.95524216,0.58320165,0.84199786,0.5005034,0.7096236,0.34636012,0.29294068,780.87915,811.50183,804.2491,792.96704,1052.0513,-0.4239501953125,0.1114501953125,0.8909912109375,1.697235107421875,-2.220611572265625,-1.024322509765625,1.0,1.0,1.0,1.0,1.0,100.0,event
14:12:18.228,1.225499,0.5904086,0.62301683,1.2684127,1.1066071,0.7906502,0.39920622,1.1724442,0.7299876,1.1651342,0.3446011,1.0308672,0.7771315,0.95524216,0.58320165,0.84199786,0.5005034,0.7096236,0.34636012,0.29294068,794.57874,814.7253,794.57874,792.5641,935.2015,-0.4239501953125,0.1114501953125,0.8909912109375,1.697235107421875,-2.220611572265625,-1.024322509765625,1.0,1.0,1.0,1.0,1.0,100.0,event
14:12:18.229,1.225499,0.5904086,0.62301683,1.2684127,1.1066071,0.7906502,0.39920622,1.1724442,0.7299876,1.1651342,0.3446011,1.0308672,0.7771315,0.95524216,0.58320165,0.84199786,0.5005034,0.7096236,0.34636012,0.29294068,788.93774,813.91943,801.4286,795.78754,694.2491,-0.4239501953125,0.1114501953125,0.8909912109375,1.697235107421875,-2.220611572265625,-1.024322509765625,1.0,1.0,1.0,1.0,1.0,100.0,event
14:12:18.229,1.225499,0.5904086,0.62301683,1.2684127,1.1066071,0.7906502,0.39920622,1.1724442,0.7299876,1.1651342,0.3446011,1.0308672,0.7771315,0.95524216,0.58320165,0.84199786,0.5005034,0.7096236,0.34636012,0.29294068,778.46155,809.89014,805.8608,791.75824,769.19415,-0.4239501953125,0.1114501953125,0.8909912109375,1.697235107421875,-2.220611572265625,-1.024322509765625,1.0,1.0,1.0,1.0,1.0,100.0,event
14:12:18.275,1.225499,0.5904086,0.62301683,1.2684127,1.1066071,0.7906502,0.39920622,1.1724442,0.7299876,1.1651342,0.3446011,1.0308672,0.7771315,0.95524216,0.58320165,0.84199786,0.5005034,0.7096236,0.34636012,0.29294068,788.5348,813.1135,794.9817,798.60803,769.59705,-0.42279052734375,0.10986328125,0.89202880859375,2.325286865234375,-2.64678955078125,-1.27105712890625,1.0,1.0,1.0,1.0,1.0,100.0,event
14:12:18.276,1.225499,0.5904086,0.62301683,1.2684127,1.1066071,0.7906502,0.39920622,1.1724442,0.7299876,1.1651342,0.3446011,1.0308672,0.7771315,0.95524216,0.58320165,0.84199786,0.5005034,0.7096236,0.34636012,0.29294068,786.1172,807.47253,787.326,803.0403,710.7692,-0.42279052734375,0.10986328125,0.89202880859375,2.325286865234375,-2.64678955078125,-1.27105712890625,1.0,1.0,1.0,1.0,1.0,100.0,event
14:12:18.277,1.225499,0.5904086,0.62301683,1.2684127,1.1066071,0.7906502,0.39920622,1.1724442,0.7299876,1.1651342,0.3446011,1.0308672,0.7771315,0.95524216,0.58320165,0.84199786,0.5005034,0.7096236,0.34636012,0.29294068,768.3883,791.3553,793.7729,799.011,649.12085,-0.42279052734375,0.10986328125,0.89202880859375,2.325286865234375,-2.64678955078125,-1.27105712890625,1.0,1.0,1.0,1.0,1.0,100.0,event
14:12:18.278,1.225499,0.5904086,0.62301683,1.2684127,1.1066071,0.7906502,0.39920622,1.1724442,0.7299876,1.1651342,0.3446011,1.0308672,0.7771315,0.95524216,0.58320165,0.84199786,0.5005034,0.7096236,0.34636012,0.29294068,767.5824,788.93774,796.5934,787.72894,705.9341,-0.42279052734375,0.10986328125,0.89202880859375,2.325286865234375,-2.64678955078125,-1.27105712890625,1.0,1.0,1.0,1.0,1.0,100.0,event
14:12:18.278,1.225499,0.5904086,0.62301683,1.2684127,1.1066071,0.7906502,0.39920622,1.1724442,0.7299876,1.1651342,0.3446011,1.0308672,0.7771315,0.95524216,0.58320165,0.84199786,0.5005034,0.7096236,0.34636012,0.29294068,783.69965,801.8315,800.2198,801.4286,793.36993,-0.42279052734375,0.10986328125,0.89202880859375,2.325286865234375,-2.64678955078125,-1.27105712890625,1.0,1.0,1.0,1.0,1.0,100.0,event
14:12:18.279,1.225499,0.5904086,0.62301683,1.2684127,1.1066071,0.7906502,0.39920622,1.1724442,0.7299876,1.1651342,0.3446011,1.0308672,0.7771315,0.95524216,0.58320165,0.84199786,0.5005034,0.7096236,0.34636012,0.29294068,791.75824,813.5165,806.26373,812.3077,865.4945,-0.42279052734375,0.10986328125,0.89202880859375,2.325286865234375,-2.64678955078125,-1.27105712890625,1.0,1.0,1.0,1.0,1.0,100.0,event
14:12:18.280,1.225499,0.5904086,0.62301683,1.2684127,1.1066071,0.7906502,0.39920622,1.1724442,0.7299876,1.1651342,0.3446011,1.0308672,0.7771315,0.95524216,0.58320165,0.84199786,0.5005034,0.7096236,0.34636012,0.29294068,793.36993,823.1868,800.6227,785.7143,841.31866,-0.42279052734375,0.10986328125,0.89202880859375,2.325286865234375,-2.64678955078125,-1.27105712890625,1.0,1.0,1.0,1.0,1.0,100.0,event
14:12:18.281,1.225499,0.5904086,0.62301683,1.2684127,1.1066071,0.7906502,0.39920622,1.1724442,0.7299876,1.1651342,0.3446011,1.0308672,0.7771315,0.95524216,0.58320165,0.84199786,0.5005034,0.7096236,0.34636012,0.29294068,783.2967,834.0659,800.6227,779.2674,990.40295,-0.42279052734375,0.10986328125,0.89202880859375,2.325286865234375,-2.64678955078125,-1.27105712890625,1.0,1.0,1.0,1.0,1.0,100.0,event
14:12:18.281,1.225499,0.5904086,0.62301683,1.2684127,1.1066071,0.7906502,0.39920622,1.1724442,0.7299876,1.1651342,0.3446011,1.0308672,0.7771315,0.95524216,0.58320165,0.84199786,0.5005034,0.7096236,0.34636012,0.29294068,785.31134,834.4689,809.89014,793.36993,1123.773,-0.42279052734375,0.10986328125,0.89202880859375,2.325286865234375,-2.64678955078125,-1.27105712890625,1.0,1.0,1.0,1.0,1.0,100.0,event
14:12:18.282,1.225499,0.5904086,0.62301683,1.2684127,1.1066071,0.7906502,0.39920622,1.1724442,0.7299876,1.1651342,0.3446011,1.0308672,0.7771315,0.95524216,0.58320165,0.84199786,0.5005034,0.7096236,0.34636012,0.29294068,793.7729,822.7839,796.1905,802.6374,805.05493,-0.42279052734375,0.10986328125,0.89202880859375,2.325286865234375,-2.64678955078125,-1.27105712890625,1.0,1.0,1.0,1.0,1.0,100.0,event
14:12:18.284,1.225499,0.5904086,0.62301683,1.2684127,1.1066071,0.7906502,0.39920622,1.1724442,0.7299876,1.1651342,0.3446011,1.0308672,0.7771315,0.95524216,0.58320165,0.84199786,0.5005034,0.7096236,0.34636012,0.29294068,805.4579,819.5604,787.72894,823.5897,716.0073,-0.42279052734375,0.10986328125,0.89202880859375,2.325286865234375,-2.64678955078125,-1.27105712890625,1.0,1.0,1.0,1.0,1.0,100.0,event
14:12:18.286,1.225499,0.5782482,0.6380806,1.2684127,1.1066071,0.7961066,0.4048733,1.1724442,0.7299876,1.1513163,0.3446011,1.0308672,0.7771315,0.95715094,0.58583444,0.84199786,0.5005034,0.72405505,0.35901865,0.29294068,811.50183,817.5458,801.02563,828.022,782.8938,-0.42279052734375,0.10986328125,0.89202880859375,2.325286865234375,-2.64678955078125,-1.27105712890625,1.0,1.0,1.0,1.0,1.0,100.0,event
14:12:18.315,1.225499,0.5782482,0.6380806,1.2684127,1.1066071,0.7961066,0.4048733,1.1724442,0.7299876,1.1513163,0.3446011,1.0308672,0.7771315,0.95715094,0.58583444,0.84199786,0.5005034,0.72405505,0.35901865,0.29294068,779.67035,807.8755,807.8755,796.1905,695.4579,-0.42364501953125,0.11767578125,0.8909912109375,2.55706787109375,-2.669219970703125,0.418701171875,1.0,1.0,1.0,1.0,1.0,100.0,event
14:12:18.316,1.225499,0.5782482,0.6380806,1.2684127,1.1066071,0.7961066,0.4048733,1.1724442,0.7299876,1.1513163,0.3446011,1.0308672,0.7771315,0.95715094,0.58583444,0.84199786,0.5005034,0.72405505,0.35901865,0.29294068,772.8205,796.5934,814.3223,798.60803,655.56775,-0.42364501953125,0.11767578125,0.8909912109375,2.55706787109375,-2.669219970703125,0.418701171875,1.0,1.0,1.0,1.0,1.0,100.0,event
14:12:18.317,1.225499,0.5782482,0.6380806,1.2684127,1.1066071,0.7961066,0.4048733,1.1724442,0.7299876,1.1513163,0.3446011,1.0308672,0.7771315,0.95715094,0.58583444,0.84199786,0.5005034,0.72405505,0.35901865,0.29294068,796.1905,791.3553,809.89014,810.293,697.0696,-0.42364501953125,0.11767578125,0.8909912109375,2.55706787109375,-2.669219970703125,0.418701171875,1.0,1.0,1.0,1.0,1.0,100.0,event
14:12:18.318,1.225499,0.5782482,0.6380806,1.2684127,1.1066071,0.7961066,0.4048733,1.1724442,0.7299876,1.1513163,0.3446011,1.0308672,0.7771315,0.95715094,0.58583444,0.84199786,0.5005034,0.72405505,0.35901865,0.29294068,803.44324,804.2491,807.47253,811.9048,753.8828,-0.42364501953125,0.11767578125,0.8909912109375,2.55706787109375,-2.669219970703125,0.418701171875,1.0,1.0,1.0,1.0,1.0,100.0,event
14:12:18.319,1.225499,0.5782482,0.6380806,1.2684127,1.1066071,0.7961066,0.4048733,1.1724442,0.7299876,1.1513163,0.3446011,1.0308672,0.7771315,0.95715094,0.58583444,0.84199786,0.5005034,0.72405505,0.35901865,0.29294068,788.5348,803.0403,810.293,807.47253,755.89746,-0.42364501953125,0.11767578125,0.8909912109375,2.55706787109375,-2.669219970703125,0.418701171875,1.0,1.0,1.0,1.0,1.0,100.0,event
14:12:18.320,1.225499,0.5782482,0.6380806,1.2684127,1.1066071,0.7961066,0.4048733,1.1724442,0.7299876,1.1513163,0.3446011,1.0308672,0.7771315,0.95715094,0.58583444,0.84199786,0.5005034,0.72405505,0.35901865,0.29294068,781.685,802.23444,796.99634,797.8022,745.42126,-0.42364501953125,0.11767578125,0.8909912109375,2.55706787109375,-2.669219970703125,0.418701171875,1.0,1.0,1.0,1.0,1.0,100.0,event
14:12:18.320,1.225499,0.5782482,0.6380806,1.2684127,1.1066071,0.7961066,0.4048733,1.1724442,0.7299876,1.1513163,0.3446011,1.0308672,0.7771315,0.95715094,0.58583444,0.84199786,0.5005034,0.72405505,0.35901865,0.29294068,778.46155,808.68134,787.326,789.34064,846.9597,-0.42364501953125,0.11767578125,0.8909912109375,2.55706787109375,-2.669219970703125,0.418701171875,1.0,1.0,1.0,1.0,1.0,100.0,event
14:12:18.321,1.225499,0.5782482,0.6380806,1.2684127,1.1066071,0.7961066,0.4048733,1.1724442,0.7299876,1.1513163,0.3446011,1.0308672,0.7771315,0.95715094,0.58583444,0.84199786,0.5005034,0.72405505,0.35901865,0.29294068,782.49084,794.57874,801.4286,791.75824,1080.2565,-0.42364501953125,0.11767578125,0.8909912109375,2.55706787109375,-2.669219970703125,0.418701171875,1.0,1.0,1.0,1.0,1.0,100.0,event
14:12:18.322,1.225499,0.5782482,0.6380806,1.2684127,1.1066071,0.7961066,0.4048733,1.1724442,0.7299876,1.1513163,0.3446011,1.0308672,0.7771315,0.95715094,0.58583444,0.84199786,0.5005034,0.72405505,0.35901865,0.29294068,786.52014,792.5641,805.8608,804.2491,880.80585,-0.42364501953125,0.11767578125,0.8909912109375,2.55706787109375,-2.669219970703125,0.418701171875,1.0,1.0,1.0,1.0,1.0,100.0,event
14:12:18.322,1.225499,0.5782482,0.6380806,1.2684127,1.1066071,0.7961066,0.4048733,1.1724442,0.7299876,1.1513163,0.3446011,1.0308672,0.7771315,0.95715094,0.58583444,0.84199786,0.5005034,0.72405505,0.35901865,0.29294068,780.87915,805.8608,794.9817,796.1905,684.17584,-0.42364501953125,0.11767578125,0.8909912109375,2.55706787109375,-2.669219970703125,0.418701171875,1.0,1.0,1.0,1.0,1.0,100.0,event
14:12:18.323,1.225499,0.5782482,0.6380806,1.2684127,1.1066071,0.7961066,0.4048733,1.1724442,0.7299876,1.1513163,0.3446011,1.0308672,0.7771315,0.95715094,0.58583444,0.84199786,0.5005034,0.72405505,0.35901865,0.29294068,776.8498,817.5458,799.81683,790.14655,739.3773,-0.42364501953125,0.11767578125,0.8909912109375,2.55706787109375,-2.669219970703125,0.418701171875,1.0,1.0,1.0,1.0,1.0,100.0,event
14:12:18.324,1.225499,0.5782482,0.6380806,1.2684127,1.1066071,0.7961066,0.4048733,1.1724442,0.7299876,1.1513163,0.3446011,1.0308672,0.7771315,0.95715094,0.58583444,0.84199786,0.5005034,0.72405505,0.35901865,0.29294068,767.5824,815.12823,794.9817,791.75824,696.6667,-0.42364501953125,0.11767578125,0.8909912109375,2.55706787109375,-2.669219970703125,0.418701171875,1.0,1.0,1.0,1.0,1.0,100.0,event
14:12:18.347,1.225499,0.5782482,0.6380806,1.2684127,1.1066071,0.7961066,0.4048733,1.1724442,0.7299876,1.1513163,0.3446011,1.0308672,0.7771315,0.95715094,0.58583444,0.84199786,0.5005034,0.72405505,0.35901865,0.29294068,774.43225,802.6374,800.6227,795.78754,639.45056,-0.42510986328125,0.11248779296875,0.88507080078125,2.16827392578125,-3.102874755859375,0.299072265625,1.0,1.0,1.0,1.0,1.0,100.0,event
14:12:18.348,1.225499,0.5782482,0.6380806,1.2684127,1.1066071,0.7961066,0.4048733,1.1724442,0.7299876,1.1513163,0.3446011,1.0308672,0.7771315,0.95715094,0.58583444,0.84199786,0.5005034,0.72405505,0.35901865,0.29294068,774.83514,804.65204,802.23444,809.0842,728.0952,-0.42510986328125,0.11248779296875,0.88507080078125,2.16827392578125,-3.102874755859375,0.299072265625,1.0,1.0,1.0,1.0,1.0,100.0,event
14:12:18.348,1.225499,0.5782482,0.6380806,1.2684127,1.1066071,0.7961066,0.4048733,1.1724442,0.7299876,1.1513163,0.3446011,1.0308672,0.7771315,0.95715094,0.58583444,0.84199786,0.5005034,0.72405505,0.35901865,0.29294068,778.0586,793.7729,809.89014,803.44324,637.4359,-0.42510986328125,0.11248779296875,0.88507080078125,2.16827392578125,-3.102874755859375,0.299072265625,1.0,1.0,1.0,1.0,1.0,100.0,event
14:12:18.349,1.225499,0.5782482,0.6380806,1.2684127,1.1066071,0.7961066,0.4048733,1.1724442,0.7299876,1.1513163,0.3446011,1.0308672,0.7771315,0.95715094,0.58583444,0.84199786,0.5005034,0.72405505,0.35901865,0.29294068,782.0879,812.3077,803.0403,804.65204,800.2198,-0.42510986328125,0.11248779296875,0.88507080078125,2.16827392578125,-3.102874755859375,0.299072265625,1.0,1.0,1.0,1.0,1.0,100.0,event
14:12:18.349,1.225499,0.5782482,0.6380806,1.2684127,1.1066071,0.7961066,0.4048733,1.1724442,0.7299876,1.1513163,0.3446011,1.0308672,0.7771315,0.95715094,0.58583444,0.84199786,0.5005034,0.72405505,0.35901865,0.29294068,782.8938,816.7399,808.2784,792.5641,779.67035,-0.42510986328125,0.11248779296875,0.88507080078125,2.16827392578125,-3.102874755859375,0.299072265625,1.0,1.0,1.0,1.0,1.0,100.0,event
14:12:18.350,1.225499,0.5782482,0.6380806,1.2684127,1.1066071,0.7961066,0.4048733,1.1724442,0.7299876,1.1513163,0.3446011,1.0308672,0.7771315,0.95715094,0.58583444,0.84199786,0.5005034,0.72405505,0.35901865,0.29294068,781.685,807.0696,806.6667,792.96704,873.5531,-0.42510986328125,0.11248779296875,0.88507080078125,2.16827392578125,-3.102874755859375,0.299072265625,1.0,1.0,1.0,1.0,1.0,100.0,event
14:12:18.351,1.225499,0.5782482,0.6380806,1.2684127,1.1066071,0.7961066,0.4048733,1.1724442,0.7299876,1.1513163,0.3446011,1.0308672,0.7771315,0.95715094,0.58583444,0.84199786,0.5005034,0.72405505,0.35901865,0.29294068,779.67035,791.75824,802.23444,799.011,1022.6374,-0.42510986328125,0.11248779296875,0.88507080078125,2.16827392578125,-3.102874755859375,0.299072265625,1.0,1.0,1.0,1.0,1.0,100.0,event
14:12:18.351,1.225499,0.5782482,0.6380806,1.2684127,1.1066071,0.7961066,0.4048733,1.1724442,0.7299876,1.1513163,0.3446011,1.0308672,0.7771315,0.95715094,0.58583444,0.84199786,0.5005034,0.72405505,0.35901865,0.29294068,776.4469,812.3077,803.0403,796.99634,879.59705,-0.42510986328125,0.11248779296875,0.88507080078125,2.16827392578125,-3.102874755859375,0.299072265625,1.0,1.0,1.0,1.0,1.0,100.0,event
14:12:18.352,1.225499,0.5782482,0.6380806,1.2684127,1.1066071,0.7961066,0.4048733,1.1724442,0.7299876,1.1513163,0.3446011,1.0308672,0.7771315,0.95715094,0.58583444,0.84199786,0.5005034,0.72405505,0.35901865,0.29294068,776.4469,819.5604,796.99634,796.99634,653.5531,-0.42510986328125,0.11248779296875,0.88507080078125,2.16827392578125,-3.102874755859375,0.299072265625,1.0,1.0,1.0,1.0,1.0,100.0,event
14:12:18.352,1.225499,0.5782482,0.6380806,1.2684127,1.1066071,0.7961066,0.4048733,1.1724442,0.7299876,1.1513163,0.3446011,1.0308672,0.7771315,0.95715094,0.58583444,0.84199786,0.5005034,0.72405505,0.35901865,0.29294068,785.31134,804.65204,794.17584,819.5604,660.40295,-0.42510986328125,0.11248779296875,0.88507080078125,2.16827392578125,-3.102874755859375,0.299072265625,1.0,1.0,1.0,1.0,1.0,100.0,event
14:12:18.353,1.225499,0.5782482,0.6380806,1.2684127,1.1066071,0.7961066,0.4048733,1.1724442,0.7299876,1.1513163,0.3446011,1.0308672,0.7771315,0.95715094,0.58583444,0.84199786,0.5005034,0.72405505,0.35901865,0.29294068,792.96704,807.0696,808.68134,827.619,896.1172,-0.42510986328125,0.11248779296875,0.88507080078125,2.16827392578125,-3.102874755859375,0.299072265625,1.0,1.0,1.0,1.0,1.0,100.0,event
14:12:18.353,1.225499,0.5782482,0.6380806,1.2684127,1.1066071,0.7961066,0.4048733,1.1724442,0.7299876,1.1513163,0.3446011,1.0308672,0.7771315,0.95715094,0.58583444,0.84199786,0.5005034,0.72405505,0.35901865,0.29294068,786.52014,809.89014,816.337,819.9634,900.14655,-0.42510986328125,0.11248779296875,0.88507080078125,2.16827392578125,-3.102874755859375,0.299072265625,1.0,1.0,1.0,1.0,1.0,100.0,event
14:12:18.376,1.225499,0.5782482,0.6380806,1.2684127,1.1066071,0.7961066,0.4048733,1.1724442,0.7299876,1.1513163,0.3446011,1.0308672,0.7771315,0.95715094,0.58583444,0.84199786,0.5005034,0.72405505,0.35901865,0.29294068,786.1172,814.3223,810.293,828.022,738.97437,-0.4287109375,0.1143798828125,0.88909912109375,2.459869384765625,-3.3197021484375,-0.082244873046875,1.0,1.0,1.0,1.0,1.0,100.0,event
14:12:18.377,1.225499,0.54587036,0.6499726,1.2684127,1.1066071,0.79925495,0.40909123,1.1724442,0.7299876,1.0878408,0.3450912,1.0308672,0.7771315,0.94321567,0.5861086,0.84199786,0.5005034,0.7442898,0.376144,0.29294068,799.011,816.7399,814.7253,821.5751,783.2967,-0.4287109375,0.1143798828125,0.88909912109375,2.459869384765625,-3.3197021484375,-0.082244873046875,1.0,1.0,1.0,1.0,1.0,100.0,event
14:12:18.381,1.225499,0.54587036,0.6499726,1.2684127,1.1066071,0.79925495,0.40909123,1.1724442,0.7299876,1.0878408,0.3450912,1.0308672,0.7771315,0.94321567,0.5861086,0.84199786,0.5005034,0.7442898,0.376144,0.29294068,790.9524,795.78754,813.1135,803.0403,908.60803,-0.4287109375,0.1143798828125,0.88909912109375,2.459869384765625,-3.3197021484375,-0.082244873046875,1.0,1.0,1.0,1.0,1.0,100.0,event
14:12:18.382,1.225499,0.54587036,0.6499726,1.2684127,1.1066071,0.79925495,0.40909123,1.1724442,0.7299876,1.0878408,0.3450912,1.0308672,0.7771315,0.94321567,0.5861086,0.84199786,0.5005034,0.7442898,0.376144,0.29294068,779.67035,797.8022,801.8315,809.0842,803.44324,-0.4287109375,0.1143798828125,0.88909912109375,2.459869384765625,-3.3197021484375,-0.082244873046875,1.0,1.0,1.0,1.0,1.0,100.0,event
14:12:18.382,1.225499,0.54587036,0.6499726,1.2684127,1.1066071,0.79925495,0.40909123,1.1724442,0.7299876,1.0878408,0.3450912,1.0308672,0.7771315,0.94321567,0.5861086,0.84199786,0.5005034,0.7442898,0.376144,0.29294068,786.9231,826.8132,799.81683,807.0696,734.5421,-0.4287109375,0.1143798828125,0.88909912109375,2.459869384765625,-3.3197021484375,-0.082244873046875,1.0,1.0,1.0,1.0,1.0,100.0,event
14:12:18.383,1.225499,0.54587036,0.6499726,1.2684127,1.1066071,0.79925495,0.40909123,1.1724442,0.7299876,1.0878408,0.3450912,1.0308672,0.7771315,0.94321567,0.5861086,0.84199786,0.5005034,0.7442898,0.376144,0.29294068,772.4176,809.4872,797.3993,799.011,1126.9963,-0.4287109375,0.1143798828125,0.88909912109375,2.459869384765625,-3.3197021484375,-0.082244873046875,1.0,1.0,1.0,1.0,1.0,100.0,event
14:12:18.383,1.225499,0.54587036,0.6499726,1.2684127,1.1066071,0.79925495,0.40909123,1.1724442,0.7299876,1.0878408,0.3450912,1.0308672,0.7771315,0.94321567,0.5861086,0.84199786,0.5005034,0.7442898,0.376144,0.29294068,786.1172,827.619,801.4286,796.5934,937.2161,-0.4287109375,0.1143798828125,0.88909912109375,2.459869384765625,-3.3197021484375,-0.082244873046875,1.0,1.0,1.0,1.0,1.0,100.0,event
14:12:18.384,1.225499,0.54587036,0.6499726,1.2684127,1.1066071,0.79925495,0.40909123,1.1724442,0.7299876,1.0878408,0.3450912,1.0308672,0.7771315,0.94321567,0.5861086,0.84199786,0.5005034,0.7442898,0.376144,0.29294068,778.86444,815.9341,790.14655,815.12823,899.34064,-0.4287109375,0.1143798828125,0.88909912109375,2.459869384765625,-3.3197021484375,-0.082244873046875,1.0,1.0,1.0,1.0,1.0,100.0,event
14:12:18.384,1.225499,0.54587036,0.6499726,1.2684127,1.1066071,0.79925495,0.40909123,1.1724442,0.7299876,1.0878408,0.3450912,1.0308672,0.7771315,0.94321567,0.5861086,0.84199786,0.5005034,0.7442898,0.376144,0.29294068,801.4286,830.4396,788.5348,813.91943,663.22345,-0.4287109375,0.1143798828125,0.88909912109375,2.459869384765625,-3.3197021484375,-0.082244873046875,1.0,1.0,1.0,1.0,1.0,100.0,event
14:12:18.385,1.225499,0.54587036,0.6499726,1.2684127,1.1066071,0.79925495,0.40909123,1.1724442,0.7299876,1.0878408,0.3450912,1.0308672,0.7771315,0.94321567,0.5861086,0.84199786,0.5005034,0.7442898,0.376144,0.29294068,795.78754,813.1135,803.44324,807.8755,730.9158,-0.4287109375,0.1143798828125,0.88909912109375,2.459869384765625,-3.3197021484375,-0.082244873046875,1.0,1.0,1.0,1.0,1.0,100.0,event
14:12:18.386,1.225499,0.54587036,0.6499726,1.2684127,1.1066071,0.79925495,0.40909123,1.1724442,0.7299876,1.0878408,0.3450912,1.0308672,0.7771315,0.94321567,0.5861086,0.84199786,0.5005034,0.7442898,0.376144,0.29294068,792.1612,805.05493,808.2784,821.1722,845.7509,-0.4287109375,0.1143798828125,0.88909912109375,2.459869384765625,-3.3197021484375,-0.082244873046875,1.0,1.0,1.0,1.0,1.0,100.0,event
14:12:18.386,1.225499,0.54587036,0.6499726,1.2684127,1.1066071,0.79925495,0.40909123,1.1724442,0.7299876,1.0878408,0.3450912,1.0308672,0.7771315,0.94321567,0.5861086,0.84199786,0.5005034,0.7442898,0.376144,0.29294068,808.2784,828.4249,797.8022,823.1868,801.4286,-0.4287109375,0.1143798828125,0.88909912109375,2.459869384765625,-3.3197021484375,-0.082244873046875,1.0,1.0,1.0,1.0,1.0,100.0,event
14:12:18.481,1.225499,0.54587036,0.6499726,1.2684127,1.1066071,0.79925495,0.40909123,1.1724442,0.7299876,1.0878408,0.3450912,1.0308672,0.7771315,0.94321567,0.5861086,0.84199786,0.5005034,0.7442898,0.376144,0.29294068,799.41394,830.0366,807.0696,817.9487,693.44324,-0.4287109375,0.1143798828125,0.88909912109375,2.459869384765625,-3.3197021484375,-0.082244873046875,1.0,1.0,1.0,1.0,1.0,100.0,event
14:12:18.483,1.225499,0.54587036,0.6499726,1.2684127,1.1066071,0.79925495,0.40909123,1.1724442,0.7299876,1.0878408,0.3450912,1.0308672,0.7771315,0.94321567,0.5861086,0.84199786,0.5005034,0.7442898,0.376144,0.29294068,786.52014,811.9048,811.0989,813.5165,726.08057,-0.4287109375,0.1143798828125,0.88909912109375,2.459869384765625,-3.3197021484375,-0.082244873046875,1.0,1.0,1.0,1.0,1.0,100.0,event
14:12:18.483,1.225499,0.54587036,0.6499726,1.2684127,1.1066071,0.79925495,0.40909123,1.1724442,0.7299876,1.0878408,0.3450912,1.0308672,0.7771315,0.94321567,0.5861086,0.84199786,0.5005034,0.7442898,0.376144,0.29294068,791.75824,802.6374,804.65204,806.26373,761.53845,-0.4287109375,0.1143798828125,0.88909912109375,2.459869384765625,-3.3197021484375,-0.082244873046875,1.0,1.0,1.0,1.0,1.0,100.0,event
14:12:18.484,1.225499,0.54587036,0.6499726,1.2684127,1.1066071,0.79925495,0.40909123,1.1724442,0.7299876,1.0878408,0.3450912,1.0308672,0.7771315,0.94321567,0.5861086,0.84199786,0.5005034,0.7442898,0.376144,0.29294068,785.31134,812.3077,804.65204,788.5348,690.2198,-0.4287109375,0.1143798828125,0.88909912109375,2.459869384765625,-3.3197021484375,-0.082244873046875,1.0,1.0,1.0,1.0,1.0,100.0,event
14:12:18.485,1.225499,0.54587036,0.6499726,1.2684127,1.1066071,0.79925495,0.40909123,1.1724442,0.7299876,1.0878408,0.3450912,1.0308672,0.7771315,0.94321567,0.5861086,0.84199786,0.5005034,0.7442898,0.376144,0.29294068,776.04395,823.1868,800.2198,773.6264,683.7729,-0.4287109375,0.1143798828125,0.88909912109375,2.459869384765625,-3.3197021484375,-0.082244873046875,1.0,1.0,1.0,1.0,1.0,100.0,event
14:12:18.486,1.225499,0.54587036,0.6499726,1.2684127,1.1066071,0.79925495,0.40909123,1.1724442,0.7299876,1.0878408,0.3450912,1.0308672,0.7771315,0.94321567,0.5861086,0.84199786,0.5005034,0.7442898,0.376144,0.29294068,781.685,823.5897,798.60803,788.5348,913.8461,-0.4287109375,0.1143798828125,0.88909912109375,2.459869384765625,-3.3197021484375,-0.082244873046875,1.0,1.0,1.0,1.0,1.0,100.0,event
14:12:18.487,1.225499,0.54587036,0.6499726,1.2684127,1.1066071,0.79925495,0.40909123,1.1724442,0.7299876,1.0878408,0.3450912,1.0308672,0.7771315,0.94321567,0.5861086,0.84199786,0.5005034,0.7442898,0.376144,0.29294068,798.60803,817.1429,802.23444,796.1905,900.14655,-0.4287109375,0.1143798828125,0.88909912109375,2.459869384765625,-3.3197021484375,-0.082244873046875,1.0,1.0,1.0,1.0,1.0,100.0,event
14:12:18.488,1.225499,0.54587036,0.6499726,1.2684127,1.1066071,0.79925495,0.40909123,1.1724442,0.7299876,1.0878408,0.3450912,1.0308672,0.7771315,0.94321567,0.5861086,0.84199786,0.5005034,0.7442898,0.376144,0.29294068,796.5934,811.50183,798.20514,801.02563,792.5641,-0.4287109375,0.1143798828125,0.88909912109375,2.459869384765625,-3.3197021484375,-0.082244873046875,1.0,1.0,1.0,1.0,1.0,100.0,event
14:12:18.489,1.225499,0.54587036,0.6499726,1.2684127,1.1066071,0.79925495,0.40909123,1.1724442,0.7299876,1.0878408,0.3450912,1.0308672,0.7771315,0.94321567,0.5861086,0.84199786,0.5005034,0.7442898,0.376144,0.29294068,784.10254,811.0989,801.02563,808.68134,818.7546,-0.4287109375,0.1143798828125,0.88909912109375,2.459869384765625,-3.3197021484375,-0.082244873046875,1.0,1.0,1.0,1.0,1.0,100.0,event
14:12:18.490,1.225499,0.54587036,0.6499726,1.2684127,1.1066071,0.79925495,0.40909123,1.1724442,0.7299876,1.0878408,0.3450912,1.0308672,0.7771315,0.94321567,0.5861086,0.84199786,0.5005034,0.7442898,0.376144,0.29294068,783.2967,825.6044,800.2198,801.4286,916.26373,-0.4287109375,0.1143798828125,0.88909912109375,2.459869384765625,-3.3197021484375,-0.082244873046875,1.0,1.0,1.0,1.0,1.0,100.0,event
14:12:18.490,1.225499,0.54587036,0.6499726,1.2684127,1.1066071,0.79925495,0.40909123,1.1724442,0.7299876,1.0878408,0.3450912,1.0308672,0.7771315,0.94321567,0.5861086,0.84199786,0.5005034,0.7442898,0.376144,0.29294068,786.1172,836.8865,780.87915,792.5641,1021.02563,-0.4287109375,0.1143798828125,0.88909912109375,2.459869384765625,-3.3197021484375,-0.082244873046875,1.0,1.0,1.0,1.0,1.0,100.0,event
14:12:18.491,1.225499,0.54587036,0.6499726,1.2684127,1.1066071,0.79925495,0.40909123,1.1724442,0.7299876,1.0878408,0.3450912,1.0308672,0.7771315,0.94321567,0.5861086,0.84199786,0.5005034,0.7442898,0.376144,0.29294068,784.10254,827.2161,788.93774,782.8938,785.31134,-0.4287109375,0.1143798828125,0.88909912109375,2.459869384765625,-3.3197021484375,-0.082244873046875,1.0,1.0,1.0,1.0,1.0,100.0,event
14:12:18.521,1.225499,0.54587036,0.6499726,1.2684127,1.1066071,0.79925495,0.40909123,1.1724442,0.7299876,1.0878408,0.3450912,1.0308672,0.7771315,0.94321567,0.5861086,0.84199786,0.5005034,0.7442898,0.376144,0.29294068,780.07324,813.1135,808.68134,780.4762,683.36993,-0.423828125,0.11578369140625,0.89404296875,2.46734619140625,-3.33465576171875,-0.35888671875,1.0,1.0,1.0,1.0,1.0,100.0,event
14:12:18.522,1.225499,0.54587036,0.6499726,1.2684127,1.1066071,0.79925495,0.40909123,1.1724442,0.7299876,1.0878408,0.3450912,1.0308672,0.7771315,0.94321567,0.5861086,0.84199786,0.5005034,0.7442898,0.376144,0.29294068,784.5055,808.2784,813.91943,802.23444,750.65936,-0.423828125,0.11578369140625,0.89404296875,2.46734619140625,-3.33465576171875,-0.35888671875,1.0,1.0,1.0,1.0,1.0,100.0,event
14:12:18.523,1.225499,0.54587036,0.6499726,1.2684127,1.1066071,0.79925495,0.40909123,1.1724442,0.7299876,1.0878408,0.3450912,1.0308672,0.7771315,0.94321567,0.5861086,0.84199786,0.5005034,0.7442898,0.376144,0.29294068,795.38464,804.2491,801.8315,801.02563,749.45056,-0.423828125,0.11578369140625,0.89404296875,2.46734619140625,-3.33465576171875,-0.35888671875,1.0,1.0,1.0,1.0,1.0,100.0,event
14:12:18.524,1.225499,0.5066653,0.6562395,1.2684127,1.1066071,0.7547806,0.41087383,1.1724442,0.7299876,1.0878408,0.34507424,1.0308672,0.7771315,0.9343717,0.5828587,0.84199786,0.5005034,0.757454,0.39758268,0.29294068,791.3553,797.8022,807.47253,792.5641,706.337,-0.423828125,0.11578369140625,0.89404296875,2.46734619140625,-3.33465576171875,-0.35888671875,1.0,1.0,1.0,1.0,1.0,100.0,event
14:12:18.530,1.225499,0.5066653,0.6562395,1.2684127,1.1066071,0.7547806,0.41087383,1.1724442,0.7299876,1.0878408,0.34507424,1.0308672,0.7771315,0.9343717,0.5828587,0.84199786,0.5005034,0.757454,0.39758268,0.29294068,787.72894,799.011,812.71063,786.52014,754.68866,-0.423828125,0.11578369140625,0.89404296875,2.46734619140625,-3.33465576171875,-0.35888671875,1.0,1.0,1.0,1.0,1.0,100.0,event
14:12:18.531,1.225499,0.5066653,0.6562395,1.2684127,1.1066071,0.7547806,0.41087383,1.1724442,0.7299876,1.0878408,0.34507424,1.0308672,0.7771315,0.9343717,0.5828587,0.84199786,0.5005034,0.757454,0.39758268,0.29294068,784.90845,818.3516,799.41394,778.86444,894.5055,-0.423828125,0.11578369140625,0.89404296875,2.46734619140625,-3.33465576171875,-0.35888671875,1.0,1.0,1.0,1.0,1.0,100.0,event
14:12:18.532,1.225499,0.5066653,0.6562395,1.2684127,1.1066071,0.7547806,0.41087383,1.1724442,0.7299876,1.0878408,0.34507424,1.0308672,0.7771315,0.9343717,0.5828587,0.84199786,0.5005034,0.757454,0.39758268,0.29294068,784.10254,826.4103,792.96704,785.31134,918.68134,-0.423828125,0.11578369140625,0.89404296875,2.46734619140625,-3.33465576171875,-0.35888671875,1.0,1.0,1.0,1.0,1.0,100.0,event
14:12:18.533,1.225499,0.5066653,0.6562395,1.2684127,1.1066071,0.7547806,0.41087383,1.1724442,0.7299876,1.0878408,0.34507424,1.0308672,0.7771315,0.9343717,0.5828587,0.84199786,0.5005034,0.757454,0.39758268,0.29294068,763.1502,820.7692,790.14655,782.49084,782.0879,-0.423828125,0.11578369140625,0.89404296875,2.46734619140625,-3.33465576171875,-0.35888671875,1.0,1.0,1.0,1.0,1.0,100.0,event
14:12:18.536,1.225499,0.5066653,0.6562395,1.2684127,1.1066071,0.7547806,0.41087383,1.1724442,0.7299876,1.0878408,0.34507424,1.0308672,0.7771315,0.9343717,0.5828587,0.84199786,0.5005034,0.757454,0.39758268,0.29294068,753.0769,816.7399,801.02563,785.31134,747.8388,-0.423828125,0.11578369140625,0.89404296875,2.46734619140625,-3.33465576171875,-0.35888671875,1.0,1.0,1.0,1.0,1.0,100.0,event
14:12:18.538,1.225499,0.5066653,0.6562395,1.2684127,1.1066071,0.7547806,0.41087383,1.1724442,0.7299876,1.0878408,0.34507424,1.0308672,0.7771315,0.9343717,0.5828587,0.84199786,0.5005034,0.757454,0.39758268,0.29294068,756.7033,809.0842,811.50183,788.5348,1035.5311,-0.423828125,0.11578369140625,0.89404296875,2.46734619140625,-3.33465576171875,-0.35888671875,1.0,1.0,1.0,1.0,1.0,100.0,event
14:12:18.540,1.225499,0.5066653,0.6562395,1.2684127,1.1066071,0.7547806,0.41087383,1.1724442,0.7299876,1.0878408,0.34507424,1.0308672,0.7771315,0.9343717,0.5828587,0.84199786,0.5005034,0.757454,0.39758268,0.29294068,746.63007,800.6227,817.5458,786.9231,913.8461,-0.423828125,0.11578369140625,0.89404296875,2.46734619140625,-3.33465576171875,-0.35888671875,1.0,1.0,1.0,1.0,1.0,100.0,event
14:12:18.541,1.225499,0.5066653,0.6562395,1.2684127,1.1066071,0.7547806,0.41087383,1.1724442,0.7299876,1.0878408,0.34507424,1.0308672,0.7771315,0.9343717,0.5828587,0.84199786,0.5005034,0.757454,0.39758268,0.29294068,751.8681,799.81683,824.3956,799.81683,706.7399,-0.423828125,0.11578369140625,0.89404296875,2.46734619140625,-3.33465576171875,-0.35888671875,1.0,1.0,1.0,1.0,1.0,100.0,event
14:12:18.565,1.225499,0.5066653,0.6562395,1.2684127,1.1066071,0.7547806,0.41087383,1.1724442,0.7299876,1.0878408,0.34507424,1.0308672,0.7771315,0.9343717,0.5828587,0.84199786,0.5005034,0.757454,0.39758268,0.29294068,757.1062,802.23444,806.26373,785.7143,771.2088,-0.42822265625,0.1142578125,0.88629150390625,1.936492919921875,-3.27484130859375,0.3289794921875,1.0,1.0,1.0,1.0,1.0,100.0,event
14:12:18.566,1.225499,0.5066653,0.6562395,1.2684127,1.1066071,0.7547806,0.41087383,1.1724442,0.7299876,1.0878408,0.34507424,1.0308672,0.7771315,0.9343717,0.5828587,0.84199786,0.5005034,0.757454,0.39758268,0.29294068,760.32965,822.381,802.6374,776.4469,717.619,-0.42822265625,0.1142578125,0.88629150390625,1.936492919921875,-3.27484130859375,0.3289794921875,1.0,1.0,1.0,1.0,1.0,100.0,event
14:12:18.566,1.225499,0.5066653,0.6562395,1.2684127,1.1066071,0.7547806,0.41087383,1.1724442,0.7299876,1.0878408,0.34507424,1.0308672,0.7771315,0.9343717,0.5828587,0.84199786,0.5005034,0.757454,0.39758268,0.29294068,758.71796,825.2015,812.71063,785.31134,691.02563,-0.42822265625,0.1142578125,0.88629150390625,1.936492919921875,-3.27484130859375,0.3289794921875,1.0,1.0,1.0,1.0,1.0,100.0,event
14:12:18.567,1.225499,0.5066653,0.6562395,1.2684127,1.1066071,0.7547806,0.41087383,1.1724442,0.7299876,1.0878408,0.34507424,1.0308672,0.7771315,0.9343717,0.5828587,0.84199786,0.5005034,0.757454,0.39758268,0.29294068,749.0476,811.0989,807.8755,786.52014,734.1392,-0.42822265625,0.1142578125,0.88629150390625,1.936492919921875,-3.27484130859375,0.3289794921875,1.0,1.0,1.0,1.0,1.0,100.0,event
14:12:18.567,1.225499,0.5066653,0.6562395,1.2684127,1.1066071,0.7547806,0.41087383,1.1724442,0.7299876,1.0878408,0.34507424,1.0308672,0.7771315,0.9343717,0.5828587,0.84199786,0.5005034,0.757454,0.39758268,0.29294068,741.39197,802.23444,803.8461,771.6117,816.337,-0.42822265625,0.1142578125,0.88629150390625,1.936492919921875,-3.27484130859375,0.3289794921875,1.0,1.0,1.0,1.0,1.0,100.0,event
14:12:18.568,1.225499,0.5066653,0.6562395,1.2684127,1.1066071,0.7547806,0.41087383,1.1724442,0.7299876,1.0878408,0.34507424,1.0308672,0.7771315,0.9343717,0.5828587,0.84199786,0.5005034,0.757454,0.39758268,0.29294068,737.76556,805.4579,807.0696,764.35895,891.685,-0.42822265625,0.1142578125,0.88629150390625,1.936492919921875,-3.27484130859375,0.3289794921875,1.0,1.0,1.0,1.0,1.0,100.0,event
14:12:18.569,1.225499,0.5066653,0.6562395,1.2684127,1.1066071,0.7547806,0.41087383,1.1724442,0.7299876,1.0878408,0.34507424,1.0308672,0.7771315,0.9343717,0.5828587,0.84199786,0.5005034,0.757454,0.39758268,0.29294068,742.6007,815.5311,809.4872,761.53845,885.2381,-0.42822265625,0.1142578125,0.88629150390625,1.936492919921875,-3.27484130859375,0.3289794921875,1.0,1.0,1.0,1.0,1.0,100.0,event
14:12:18.569,1.225499,0.5066653,0.6562395,1.2684127,1.1066071,0.7547806,0.41087383,1.1724442,0.7299876,1.0878408,0.34507424,1.0308672,0.7771315,0.9343717,0.5828587,0.84199786,0.5005034,0.757454,0.39758268,0.29294068,744.61536,818.3516,806.26373,751.4652,783.2967,-0.42822265625,0.1142578125,0.88629150390625,1.936492919921875,-3.27484130859375,0.3289794921875,1.0,1.0,1.0,1.0,1.0,100.0,event
14:12:18.570,1.225499,0.5066653,0.6562395,1.2684127,1.1066071,0.7547806,0.41087383,1.1724442,0.7299876,1.0878408,0.34507424,1.0308672,0.7771315,0.9343717,0.5828587,0.84199786,0.5005034,0.757454,0.39758268,0.29294068,736.9597,817.1429,797.3993,736.9597,912.23444,-0.42822265625,0.1142578125,0.88629150390625,1.936492919921875,-3.27484130859375,0.3289794921875,1.0,1.0,1.0,1.0,1.0,100.0,event
14:12:18.570,1.225499,0.5066653,0.6562395,1.2684127,1.1066071,0.7547806,0.41087383,1.1724442,0.7299876,1.0878408,0.34507424,1.0308672,0.7771315,0.9343717,0.5828587,0.84199786,0.5005034,0.757454,0.39758268,0.29294068,715.6044,806.6667,796.99634,726.8865,922.3077,-0.42822265625,0.1142578125,0.88629150390625,1.936492919921875,-3.27484130859375,0.3289794921875,1.0,1.0,1.0,1.0,1.0,100.0,event
14:12:18.571,1.225499,0.5066653,0.6562395,1.2684127,1.1066071,0.7547806,0.41087383,1.1724442,0.7299876,1.0878408,0.34507424,1.0308672,0.7771315,0.9343717,0.5828587,0.84199786,0.5005034,0.757454,0.39758268,0.29294068,703.91943,798.20514,803.0403,718.022,706.337,-0.42822265625,0.1142578125,0.88629150390625,1.936492919921875,-3.27484130859375,0.3289794921875,1.0,1.0,1.0,1.0,1.0,100.0,event
14:12:18.572,1.225499,0.5066653,0.6562395,1.2684127,1.1066071,0.7547806,0.41087383,1.1724442,0.7299876,1.0878408,0.34507424,1.0308672,0.7771315,0.9343717,0.5828587,0.84199786,0.5005034,0.757454,0.39758268,0.29294068,693.0403,803.44324,806.26373,709.15753,757.50916,-0.42822265625,0.1142578125,0.88629150390625,1.936492919921875,-3.27484130859375,0.3289794921875,1.0,1.0,1.0,1.0,1.0,100.0,event
14:12:18.572,1.225499,0.5066653,0.6562395,1.2684127,1.1066071,0.7547806,0.41087383,1.1724442,0.7299876,1.0878408,0.34507424,1.0308672,0.7771315,0.9343717,0.5828587,0.84199786,0.5005034,0.757454,0.39758268,0.29294068,695.8608,801.8315,808.68134,719.6337,873.5531,-0.43084716796875,0.1092529296875,0.88336181640625,1.502838134765625,-4.553375244140625,0.037384033203125,1.0,1.0,1.0,1.0,1.0,100.0,event
14:12:18.573,1.225499,0.5066653,0.6562395,1.2684127,1.1066071,0.7547806,0.41087383,1.1724442,0.7299876,1.0878408,0.34507424,1.0308672,0.7771315,0.9343717,0.5828587,0.84199786,0.5005034,0.757454,0.39758268,0.29294068,692.23444,797.3993,808.2784,714.7985,788.1319,-0.43084716796875,0.1092529296875,0.88336181640625,1.502838134765625,-4.553375244140625,0.037384033203125,1.0,1.0,1.0,1.0,1.0,100.0,event
14:12:18.574,1.225499,0.5066653,0.6562395,1.2684127,1.1066071,0.7547806,0.41087383,1.1724442,0.7299876,1.0878408,0.34507424,1.0308672,0.7771315,0.9343717,0.5828587,0.84199786,0.5005034,0.757454,0.39758268,0.29294068,663.6264,818.7546,809.4872,679.34064,780.07324,-0.43084716796875,0.1092529296875,0.88336181640625,1.502838134765625,-4.553375244140625,0.037384033203125,1.0,1.0,1.0,1.0,1.0,100.0,event
14:12:18.574,1.225499,0.5066653,0.6562395,1.2684127,1.1066071,0.7547806,0.41087383,1.1724442,0.7299876,1.0878408,0.34507424,1.0308672,0.7771315,0.9343717,0.5828587,0.84199786,0.5005034,0.757454,0.39758268,0.29294068,673.69965,807.47253,807.8755,684.9817,728.49817,-0.43084716796875,0.1092529296875,0.88336181640625,1.502838134765625,-4.553375244140625,0.037384033203125,1.0,1.0,1.0,1.0,1.0,100.0,event
14:12:18.575,1.225499,0.5066653,0.6562395,1.2684127,1.1066071,0.7547806,0.41087383,1.1724442,0.7299876,1.0878408,0.34507424,1.0308672,0.7771315,0.9343717,0.5828587,0.84199786,0.5005034,0.757454,0.39758268,0.29294068,651.13556,809.4872,814.3223,668.0586,818.3516,-0.43084716796875,0.1092529296875,0.88336181640625,1.502838134765625,-4.553375244140625,0.037384033203125,1.0,1.0,1.0,1.0,1.0,100.0,event
14:12:18.575,1.225499,0.48091093,0.6536199,1.2684127,1.1066071,0.71711606,0.40999743,1.1724442,0.7299876,1.0878408,0.34176674,1.0308672,0.7771315,0.93149716,0.5769042,0.84199786,0.5005034,0.76920575,0.41692403,0.29294068,647.9121,801.4286,822.7839,670.07324,888.46155,-0.43084716796875,0.1092529296875,0.88336181640625,1.502838134765625,-4.553375244140625,0.037384033203125,1.0,1.0,1.0,1.0,1.0,100.0,event
14:12:18.580,1.225499,0.48091093,0.6536199,1.2684127,1.1066071,0.71711606,0.40999743,1.1724442,0.7299876,1.0878408,0.34176674,1.0308672,0.7771315,0.93149716,0.5769042,0.84199786,0.5005034,0.76920575,0.41692403,0.29294068,640.65936,801.8315,820.3663,660.80585,829.2308,-0.43084716796875,0.1092529296875,0.88336181640625,1.502838134765625,-4.553375244140625,0.037384033203125,1.0,1.0,1.0,1.0,1.0,100.0,event
14:12:18.581,1.225499,0.48091093,0.6536199,1.2684127,1.1066071,0.71711606,0.40999743,1.1724442,0.7299876,1.0878408,0.34176674,1.0308672,0.7771315,0.93149716,0.5769042,0.84199786,0.5005034,0.76920575,0.41692403,0.29294068,642.27106,804.2491,818.3516,642.27106,811.0989,-0.43084716796875,0.1092529296875,0.88336181640625,1.502838134765625,-4.553375244140625,0.037384033203125,1.0,1.0,1.0,1.0,1.0,100.0,event
14:12:18.581,1.225499,0.48091093,0.6536199,1.2684127,1.1066071,0.71711606,0.40999743,1.1724442,0.7299876,1.0878408,0.34176674,1.0308672,0.7771315,0.93149716,0.5769042,0.84199786,0.5005034,0.76920575,0.41692403,0.29294068,643.8828,800.6227,819.5604,639.45056,1025.4579,-0.43084716796875,0.1092529296875,0.88336181640625,1.502838134765625,-4.553375244140625,0.037384033203125,1.0,1.0,1.0,1.0,1.0,100.0,event
14:12:18.582,1.225499,0.48091093,0.6536199,1.2684127,1.1066071,0.71711606,0.40999743,1.1724442,0.7299876,1.0878408,0.34176674,1.0308672,0.7771315,0.93149716,0.5769042,0.84199786,0.5005034,0.76920575,0.41692403,0.29294068,631.39197,807.47253,807.47253,626.9597,864.2857,-0.43084716796875,0.1092529296875,0.88336181640625,1.502838134765625,-4.553375244140625,0.037384033203125,1.0,1.0,1.0,1.0,1.0,100.0,event
14:12:18.583,1.225499,0.48091093,0.6536199,1.2684127,1.1066071,0.71711606,0.40999743,1.1724442,0.7299876,1.0878408,0.34176674,1.0308672,0.7771315,0.93149716,0.5769042,0.84199786,0.5005034,0.76920575,0.41692403,0.29294068,627.76556,816.7399,803.0403,625.7509,717.619,-0.43084716796875,0.1092529296875,0.88336181640625,1.502838134765625,-4.553375244140625,0.037384033203125,1.0,1.0,1.0,1.0,1.0,100.0,event
14:12:18.583,1.225499,0.48091093,0.6536199,1.2684127,1.1066071,0.71711606,0.40999743,1.1724442,0.7299876,1.0878408,0.34176674,1.0308672,0.7771315,0.93149716,0.5769042,0.84199786,0.5005034,0.76920575,0.41692403,0.29294068,630.18317,822.7839,803.8461,636.2271,767.1795,-0.43084716796875,0.1092529296875,0.88336181640625,1.502838134765625,-4.553375244140625,0.037384033203125,1.0,1.0,1.0,1.0,1.0,100.0,event
14:12:18.608,1.225499,0.48091093,0.6536199,1.2684127,1.1066071,0.71711606,0.40999743,1.1724442,0.7299876,1.0878408,0.34176674,1.0308672,0.7771315,0.93149716,0.5769042,0.84199786,0.5005034,0.76920575,0.41692403,0.29294068,634.61536,836.4835,806.6667,625.34796,775.64105,-0.43084716796875,0.1092529296875,0.88336181640625,1.502838134765625,-4.553375244140625,0.037384033203125,1.0,1.0,1.0,1.0,1.0,100.0,event
14:12:18.609,1.225499,0.48091093,0.6536199,1.2684127,1.1066071,0.71711606,0.40999743,1.1724442,0.7299876,1.0878408,0.34176674,1.0308672,0.7771315,0.93149716,0.5769042,0.84199786,0.5005034,0.76920575,0.41692403,0.29294068,637.8388,825.2015,813.91943,614.4689,738.5714,-0.43084716796875,0.1092529296875,0.88336181640625,1.502838134765625,-4.553375244140625,0.037384033203125,1.0,1.0,1.0,1.0,1.0,100.0,event
14:12:18.610,1.225499,0.48091093,0.6536199,1.2684127,1.1066071,0.71711606,0.40999743,1.1724442,0.7299876,1.0878408,0.34176674,1.0308672,0.7771315,0.93149716,0.5769042,0.84199786,0.5005034,0.76920575,0.41692403,0.29294068,639.85345,813.1135,814.3223,629.3773,795.38464,-0.43084716796875,0.1092529296875,0.88336181640625,1.502838134765625,-4.553375244140625,0.037384033203125,1.0,1.0,1.0,1.0,1.0,100.0,event
14:12:18.610,1.225499,0.48091093,0.6536199,1.2684127,1.1066071,0.71711606,0.40999743,1.1724442,0.7299876,1.0878408,0.34176674,1.0308672,0.7771315,0.93149716,0.5769042,0.84199786,0.5005034,0.76920575,0.41692403,0.29294068,653.5531,827.619,799.41394,652.3443,859.85345,-0.43084716796875,0.1092529296875,0.88336181640625,1.502838134765625,-4.553375244140625,0.037384033203125,1.0,1.0,1.0,1.0,1.0,100.0,event
14:12:18.611,1.225499,0.48091093,0.6536199,1.2684127,1.1066071,0.71711606,0.40999743,1.1724442,0.7299876,1.0878408,0.34176674,1.0308672,0.7771315,0.93149716,0.5769042,0.84199786,0.5005034,0.76920575,0.41692403,0.29294068,651.9414,825.2015,802.23444,660.40295,806.6667,-0.43084716796875,0.1092529296875,0.88336181640625,1.502838134765625,-4.553375244140625,0.037384033203125,1.0,1.0,1.0,1.0,1.0,100.0,event
14:12:18.612,1.225499,0.48091093,0.6536199,1.2684127,1.1066071,0.71711606,0.40999743,1.1724442,0.7299876,1.0878408,0.34176674,1.0308672,0.7771315,0.93149716,0.5769042,0.84199786,0.5005034,0.76920575,0.41692403,0.29294068,660.80585,807.0696,792.96704,666.4469,794.9817,-0.43084716796875,0.1092529296875,0.88336181640625,1.502838134765625,-4.553375244140625,0.037384033203125,1.0,1.0,1.0,1.0,1.0,100.0,event
14:12:18.612,1.225499,0.48091093,0.6536199,1.2684127,1.1066071,0.71711606,0.40999743,1.1724442,0.7299876,1.0878408,0.34176674,1.0308672,0.7771315,0.93149716,0.5769042,0.84199786,0.5005034,0.76920575,0.41692403,0.29294068,656.77655,816.7399,803.44324,671.685,816.337,-0.43084716796875,0.1092529296875,0.88336181640625,1.502838134765625,-4.553375244140625,0.037384033203125,1.0,1.0,1.0,1.0,1.0,100.0,event
14:12:18.613,1.225499,0.48091093,0.6536199,1.2684127,1.1066071,0.71711606,0.40999743,1.1724442,0.7299876,1.0878408,0.34176674,1.0308672,0.7771315,0.93149716,0.5769042,0.84199786,0.5005034,0.76920575,0.41692403,0.29294068,669.2674,796.5934,795.78754,653.95605,873.5531,-0.43084716796875,0.1092529296875,0.88336181640625,1.502838134765625,-4.553375244140625,0.037384033203125,1.0,1.0,1.0,1.0,1.0,100.0,event
14:12:18.614,1.225499,0.48091093,0.6536199,1.2684127,1.1066071,0.71711606,0.40999743,1.1724442,0.7299876,1.0878408,0.34176674,1.0308672,0.7771315,0.93149716,0.5769042,0.84199786,0.5005034,0.76920575,0.41692403,0.29294068,676.9231,803.8461,802.6374,674.90845,917.47253,-0.43084716796875,0.1092529296875,0.88336181640625,1.502838134765625,-4.553375244140625,0.037384033203125,1.0,1.0,1.0,1.0,1.0,100.0,event
14:12:18.615,1.225499,0.48091093,0.6536199,1.2684127,1.1066071,0.71711606,0.40999743,1.1724442,0.7299876,1.0878408,0.34176674,1.0308672,0.7771315,0.93149716,0.5769042,0.84199786,0.5005034,0.76920575,0.41692403,0.29294068,676.9231,816.7399,800.6227,694.65204,699.4872,-0.43084716796875,0.1092529296875,0.88336181640625,1.502838134765625,-4.553375244140625,0.037384033203125,1.0,1.0,1.0,1.0,1.0,100.0,event
14:12:18.615,1.225499,0.48091093,0.6536199,1.2684127,1.1066071,0.71711606,0.40999743,1.1724442,0.7299876,1.0878408,0.34176674,1.0308672,0.7771315,0.93149716,0.5769042,0.84199786,0.5005034,0.76920575,0.41692403,0.29294068,678.93774,828.8278,785.7143,690.2198,730.5128,-0.43084716796875,0.1092529296875,0.88336181640625,1.502838134765625,-4.553375244140625,0.037384033203125,1.0,1.0,1.0,1.0,1.0,100.0,event
14:12:18.616,1.225499,0.48091093,0.6536199,1.2684127,1.1066071,0.71711606,0.40999743,1.1724442,0.7299876,1.0878408,0.34176674,1.0308672,0.7771315,0.93149716,0.5769042,0.84199786,0.5005034,0.76920575,0.41692403,0.29294068,684.57874,836.08057,792.96704,680.9524,849.3773,-0.43084716796875,0.1092529296875,0.88336181640625,1.502838134765625,-4.553375244140625,0.037384033203125,1.0,1.0,1.0,1.0,1.0,100.0,event
14:12:18.711,1.225499,0.48091093,0.6536199,1.2684127,1.1066071,0.71711606,0.40999743,1.1724442,0.7299876,1.0878408,0.34176674,1.0308672,0.7771315,0.93149716,0.5769042,0.84199786,0.5005034,0.76920575,0.41692403,0.29294068,709.5604,835.6777,803.8461,683.7729,742.1978,-0.4283447265625,0.11260986328125,0.89215087890625,2.459869384765625,-5.8319091796875,0.2691650390625,1.0,1.0,1.0,1.0,1.0,100.0,event
14:12:18.712,1.225499,0.48091093,0.6536199,1.2684127,1.1066071,0.71711606,0.40999743,1.1724442,0.7299876,1.0878408,0.34176674,1.0308672,0.7771315,0.93149716,0.5769042,0.84199786,0.5005034,0.76920575,0.41692403,0.29294068,726.08057,829.6337,805.4579,710.7692,709.5604,-0.4283447265625,0.11260986328125,0.89215087890625,2.459869384765625,-5.8319091796875,0.2691650390625,1.0,1.0,1.0,1.0,1.0,100.0,event
14:12:18.713,1.225499,0.48091093,0.6536199,1.2684127,1.1066071,0.71711606,0.40999743,1.1724442,0.7299876,1.0878408,0.34176674,1.0308672,0.7771315,0.93149716,0.5769042,0.84199786,0.5005034,0.76920575,0.41692403,0.29294068,732.52747,826.8132,805.8608,730.10986,752.674,-0.4283447265625,0.11260986328125,0.89215087890625,2.459869384765625,-5.8319091796875,0.2691650390625,1.0,1.0,1.0,1.0,1.0,100.0,event
14:12:18.714,1.225499,0.48091093,0.6536199,1.2684127,1.1066071,0.71711606,0.40999743,1.1724442,0.7299876,1.0878408,0.34176674,1.0308672,0.7771315,0.93149716,0.5769042,0.84199786,0.5005034,0.76920575,0.41692403,0.29294068,736.55676,826.0073,792.1612,737.76556,762.3443,-0.4283447265625,0.11260986328125,0.89215087890625,2.459869384765625,-5.8319091796875,0.2691650390625,1.0,1.0,1.0,1.0,1.0,100.0,event
14:12:18.715,1.225499,0.48091093,0.6536199,1.2684127,1.1066071,0.71711606,0.40999743,1.1724442,0.7299876,1.0878408,0.34176674,1.0308672,0.7771315,0.93149716,0.5769042,0.84199786,0.5005034,0.76920575,0.41692403,0.29294068,741.39197,814.3223,793.36993,754.2857,775.2381,-0.4283447265625,0.11260986328125,0.89215087890625,2.459869384765625,-5.8319091796875,0.2691650390625,1.0,1.0,1.0,1.0,1.0,100.0,event
14:12:18.717,1.225499,0.48091093,0.6536199,1.2684127,1.1066071,0.71711606,0.40999743,1.1724442,0.7299876,1.0878408,0.34176674,1.0308672,0.7771315,0.93149716,0.5769042,0.84199786,0.5005034,0.76920575,0.41692403,0.29294068,760.32965,815.12823,788.1319,776.4469,835.6777,-0.4283447265625,0.11260986328125,0.89215087890625,2.459869384765625,-5.8319091796875,0.2691650390625,1.0,1.0,1.0,1.0,1.0,100.0,event
14:12:18.718,1.225499,0.48091093,0.6536199,1.2684127,1.1066071,0.71711606,0.40999743,1.1724442,0.7299876,1.0878408,0.34176674,1.0308672,0.7771315,0.93149716,0.5769042,0.84199786,0.5005034,0.76920575,0.41692403,0.29294068,781.28204,829.2308,789.7436,804.65204,921.9048,-0.4283447265625,0.11260986328125,0.89215087890625,2.459869384765625,-5.8319091796875,0.2691650390625,1.0,1.0,1.0,1.0,1.0,100.0,event
14:12:18.718,1.225499,0.46559462,0.64959323,1.2684127,1.1066071,0.68674093,0.4080863,1.1724442,0.7299876,1.0878408,0.33926588,1.0308672,0.7771315,0.9321103,0.5704438,0.84199786,0.5005034,0.7735707,0.42776647,0.29294068,786.9231,816.7399,807.8755,819.9634,1127.3993,-0.4283447265625,0.11260986328125,0.89215087890625,2.459869384765625,-5.8319091796875,0.2691650390625,1.0,1.0,1.0,1.0,1.0,100.0,event
14:12:18.723,1.225499,0.46559462,0.64959323,1.2684127,1.1066071,0.68674093,0.4080863,1.1724442,0.7299876,1.0878408,0.33926588,1.0308672,0.7771315,0.9321103,0.5704438,0.84199786,0.5005034,0.7735707,0.42776647,0.29294068,784.90845,813.1135,802.6374,810.696,1004.90845,-0.4283447265625,0.11260986328125,0.89215087890625,2.459869384765625,-5.8319091796875,0.2691650390625,1.0,1.0,1.0,1.0,1.0,100.0,event
14:12:18.724,1.225499,0.46559462,0.64959323,1.2684127,1.1066071,0.68674093,0.4080863,1.1724442,0.7299876,1.0878408,0.33926588,1.0308672,0.7771315,0.9321103,0.5704438,0.84199786,0.5005034,0.7735707,0.42776647,0.29294068,761.53845,811.0989,795.78754,785.7143,796.99634,-0.4283447265625,0.11260986328125,0.89215087890625,2.459869384765625,-5.8319091796875,0.2691650390625,1.0,1.0,1.0,1.0,1.0,100.0,event
14:12:18.725,1.225499,0.46559462,0.64959323,1.2684127,1.1066071,0.68674093,0.4080863,1.1724442,0.7299876,1.0878408,0.33926588,1.0308672,0.7771315,0.9321103,0.5704438,0.84199786,0.5005034,0.7735707,0.42776647,0.29294068,776.4469,792.96704,807.0696,803.8461,819.5604,-0.4283447265625,0.11260986328125,0.89215087890625,2.459869384765625,-5.8319091796875,0.2691650390625,1.0,1.0,1.0,1.0,1.0,100.0,event
14:12:18.726,1.225499,0.46559462,0.64959323,1.2684127,1.1066071,0.68674093,0.4080863,1.1724442,0.7299876,1.0878408,0.33926588,1.0308672,0.7771315,0.9321103,0.5704438,0.84199786,0.5005034,0.7735707,0.42776647,0.29294068,799.81683,788.5348,810.696,825.6044,815.5311,-0.4283447265625,0.11260986328125,0.89215087890625,2.459869384765625,-5.8319091796875,0.2691650390625,1.0,1.0,1.0,1.0,1.0,100.0,event
14:12:18.751,1.225499,0.46559462,0.64959323,1.2684127,1.1066071,0.68674093,0.4080863,1.1724442,0.7299876,1.0878408,0.33926588,1.0308672,0.7771315,0.9321103,0.5704438,0.84199786,0.5005034,0.7735707,0.42776647,0.29294068,793.36993,799.011,799.41394,818.7546,737.3626,-0.41802978515625,0.1090087890625,0.88916015625,1.2860107421875,-6.482391357421875,0.34393310546875,1.0,1.0,1.0,1.0,1.0,100.0,event
14:12:18.752,1.225499,0.46559462,0.64959323,1.2684127,1.1066071,0.68674093,0.4080863,1.1724442,0.7299876,1.0878408,0.33926588,1.0308672,0.7771315,0.9321103,0.5704438,0.84199786,0.5005034,0.7735707,0.42776647,0.29294068,799.81683,803.44324,804.65204,825.2015,647.1062,-0.41802978515625,0.1090087890625,0.88916015625,1.2860107421875,-6.482391357421875,0.34393310546875,1.0,1.0,1.0,1.0,1.0,100.0,event
14:12:18.753,1.225499,0.46559462,0.64959323,1.2684127,1.1066071,0.68674093,0.4080863,1.1724442,0.7299876,1.0878408,0.33926588,1.0308672,0.7771315,0.9321103,0.5704438,0.84199786,0.5005034,0.7735707,0.42776647,0.29294068,814.3223,793.7729,811.0989,848.1685,720.84247,-0.41802978515625,0.1090087890625,0.88916015625,1.2860107421875,-6.482391357421875,0.34393310546875,1.0,1.0,1.0,1.0,1.0,100.0,event
14:12:18.753,1.225499,0.46559462,0.64959323,1.2684127,1.1066071,0.68674093,0.4080863,1.1724442,0.7299876,1.0878408,0.33926588,1.0308672,0.7771315,0.9321103,0.5704438,0.84199786,0.5005034,0.7735707,0.42776647,0.29294068,825.6044,774.0293,801.8315,857.03296,801.8315,-0.41802978515625,0.1090087890625,0.88916015625,1.2860107421875,-6.482391357421875,0.34393310546875,1.0,1.0,1.0,1.0,1.0,100.0,event
14:12:18.754,1.225499,0.46559462,0.64959323,1.2684127,1.1066071,0.68674093,0.4080863,1.1724442,0.7299876,1.0878408,0.33926588,1.0308672,0.7771315,0.9321103,0.5704438,0.84199786,0.5005034,0.7735707,0.42776647,0.29294068,840.9158,792.5641,797.8022,855.82416,767.1795,-0.41802978515625,0.1090087890625,0.88916015625,1.2860107421875,-6.482391357421875,0.34393310546875,1.0,1.0,1.0,1.0,1.0,100.0,event
14:12:18.755,1.225499,0.46559462,0.64959323,1.2684127,1.1066071,0.68674093,0.4080863,1.1724442,0.7299876,1.0878408,0.33926588,1.0308672,0.7771315,0.9321103,0.5704438,0.84199786,0.5005034,0.7735707,0.42776647,0.29294068,835.2747,803.44324,803.8461,865.89746,810.293,-0.41802978515625,0.1090087890625,0.88916015625,1.2860107421875,-6.482391357421875,0.34393310546875,1.0,1.0,1.0,1.0,1.0,100.0,event
14:12:18.755,1.225499,0.46559462,0.64959323,1.2684127,1.1066071,0.68674093,0.4080863,1.1724442,0.7299876,1.0878408,0.33926588,1.0308672,0.7771315,0.9321103,0.5704438,0.84199786,0.5005034,0.7735707,0.42776647,0.29294068,829.2308,800.2198,803.44324,888.46155,1022.23444,-0.41802978515625,0.1090087890625,0.88916015625,1.2860107421875,-6.482391357421875,0.34393310546875,1.0,1.0,1.0,1.0,1.0,100.0,event
14:12:18.756,1.225499,0.46559462,0.64959323,1.2684127,1.1066071,0.68674093,0.4080863,1.1724442,0.7299876,1.0878408,0.33926588,1.0308672,0.7771315,0.9321103,0.5704438,0.84199786,0.5005034,0.7735707,0.42776647,0.29294068,844.1392,812.71063,802.23444,894.10254,1008.93774,-0.41802978515625,0.1090087890625,0.88916015625,1.2860107421875,-6.482391357421875,0.34393310546875,1.0,1.0,1.0,1.0,1.0,100.0,event
14:12:18.757,1.225499,0.46559462,0.64959323,1.2684127,1.1066071,0.68674093,0.4080863,1.1724442,0.7299876,1.0878408,0.33926588,1.0308672,0.7771315,0.9321103,0.5704438,0.84199786,0.5005034,0.7735707,0.42776647,0.29294068,860.2564,818.3516,803.44324,883.22345,801.02563,-0.41802978515625,0.1090087890625,0.88916015625,1.2860107421875,-6.482391357421875,0.34393310546875,1.0,1.0,1.0,1.0,1.0,100.0,event
14:12:18.757,1.225499,0.46559462,0.64959323,1.2684127,1.1066071,0.68674093,0.4080863,1.1724442,0.7299876,1.0878408,0.33926588,1.0308672,0.7771315,0.9321103,0.5704438,0.84199786,0.5005034,0.7735707,0.42776647,0.29294068,860.2564,808.68134,798.60803,892.49084,795.78754,-0.41802978515625,0.1090087890625,0.88916015625,1.2860107421875,-6.482391357421875,0.34393310546875,1.0,1.0,1.0,1.0,1.0,100.0,event
14:12:18.758,1.225499,0.46559462,0.64959323,1.2684127,1.1066071,0.68674093,0.4080863,1.1724442,0.7299876,1.0878408,0.33926588,1.0308672,0.7771315,0.9321103,0.5704438,0.84199786,0.5005034,0.7735707,0.42776647,0.29294068,863.0769,800.6227,794.57874,888.86444,780.07324,-0.41802978515625,0.1090087890625,0.88916015625,1.2860107421875,-6.482391357421875,0.34393310546875,1.0,1.0,1.0,1.0,1.0,100.0,event
14:12:18.758,1.225499,0.46559462,0.64959323,1.2684127,1.1066071,0.68674093,0.4080863,1.1724442,0.7299876,1.0878408,0.33926588,1.0308672,0.7771315,0.9321103,0.5704438,0.84199786,0.5005034,0.7735707,0.42776647,0.29294068,854.21246,795.78754,796.5934,889.67035,869.5238,-0.41802978515625,0.1090087890625,0.88916015625,1.2860107421875,-6.482391357421875,0.34393310546875,1.0,1.0,1.0,1.0,1.0,100.0,event
14:12:18.783,1.225499,0.46559462,0.64959323,1.2684127,1.1066071,0.68674093,0.4080863,1.1724442,0.7299876,1.0878408,0.33926588,1.0308672,0.7771315,0.9321103,0.5704438,0.84199786,0.5005034,0.7735707,0.42776647,0.29294068,870.32965,798.20514,799.81683,904.57874,679.34064,-0.4129638671875,0.10443115234375,0.89447021484375,1.951446533203125,-6.392669677734375,0.560760498046875,1.0,1.0,1.0,1.0,1.0,100.0,event
14:12:18.784,1.225499,0.46559462,0.64959323,1.2684127,1.1066071,0.68674093,0.4080863,1.1724442,0.7299876,1.0878408,0.33926588,1.0308672,0.7771315,0.9321103,0.5704438,0.84199786,0.5005034,0.7735707,0.42776647,0.29294068,866.7033,787.72894,807.8755,898.1319,728.49817,-0.4129638671875,0.10443115234375,0.89447021484375,1.951446533203125,-6.392669677734375,0.560760498046875,1.0,1.0,1.0,1.0,1.0,100.0,event
14:12:18.785,1.225499,0.46559462,0.64959323,1.2684127,1.1066071,0.68674093,0.4080863,1.1724442,0.7299876,1.0878408,0.33926588,1.0308672,0.7771315,0.9321103,0.5704438,0.84199786,0.5005034,0.7735707,0.42776647,0.29294068,859.85345,803.44324,797.3993,881.2088,746.63007,-0.4129638671875,0.10443115234375,0.89447021484375,1.951446533203125,-6.392669677734375,0.560760498046875,1.0,1.0,1.0,1.0,1.0,100.0,event
14:12:18.786,1.225499,0.46559462,0.64959323,1.2684127,1.1066071,0.68674093,0.4080863,1.1724442,0.7299876,1.0878408,0.33926588,1.0308672,0.7771315,0.9321103,0.5704438,0.84199786,0.5005034,0.7735707,0.42776647,0.29294068,860.65936,815.5311,791.3553,886.04395,693.8461,-0.4129638671875,0.10443115234375,0.89447021484375,1.951446533203125,-6.392669677734375,0.560760498046875,1.0,1.0,1.0,1.0,1.0,100.0,event
14:12:18.786,1.225499,0.46559462,0.64959323,1.2684127,1.1066071,0.68674093,0.4080863,1.1724442,0.7299876,1.0878408,0.33926588,1.0308672,0.7771315,0.9321103,0.5704438,0.84199786,0.5005034,0.7735707,0.42776647,0.29294068,860.65936,806.6667,796.99634,883.22345,646.7033,-0.4129638671875,0.10443115234375,0.89447021484375,1.951446533203125,-6.392669677734375,0.560760498046875,1.0,1.0,1.0,1.0,1.0,100.0,event
14:12:18.787,1.225499,0.46559462,0.64959323,1.2684127,1.1066071,0.68674093,0.4080863,1.1724442,0.7299876,1.0878408,0.33926588,1.0308672,0.7771315,0.9321103,0.5704438,0.84199786,0.5005034,0.7735707,0.42776647,0.29294068,859.85345,802.6374,802.23444,873.95605,780.4762,-0.4129638671875,0.10443115234375,0.89447021484375,1.951446533203125,-6.392669677734375,0.560760498046875,1.0,1.0,1.0,1.0,1.0,100.0,event
14:12:18.788,1.225499,0.46559462,0.64959323,1.2684127,1.1066071,0.68674093,0.4080863,1.1724442,0.7299876,1.0878408,0.33926588,1.0308672,0.7771315,0.9321103,0.5704438,0.84199786,0.5005034,0.7735707,0.42776647,0.29294068,869.92676,810.696,811.0989,875.16486,984.7619,-0.4129638671875,0.10443115234375,0.89447021484375,1.951446533203125,-6.392669677734375,0.560760498046875,1.0,1.0,1.0,1.0,1.0,100.0,event
14:12:18.788,1.225499,0.46559462,0.64959323,1.2684127,1.1066071,0.68674093,0.4080863,1.1724442,0.7299876,1.0878408,0.33926588,1.0308672,0.7771315,0.9321103,0.5704438,0.84199786,0.5005034,0.7735707,0.42776647,0.29294068,867.1062,811.0989,810.696,872.3443,837.6923,-0.4129638671875,0.10443115234375,0.89447021484375,1.951446533203125,-6.392669677734375,0.560760498046875,1.0,1.0,1.0,1.0,1.0,100.0,event
14:12:18.789,1.225499,0.46559462,0.64959323,1.2684127,1.1066071,0.68674093,0.4080863,1.1724442,0.7299876,1.0878408,0.33926588,1.0308672,0.7771315,0.9321103,0.5704438,0.84199786,0.5005034,0.7735707,0.42776647,0.29294068,846.1539,811.9048,806.26373,877.5824,715.2015,-0.4129638671875,0.10443115234375,0.89447021484375,1.951446533203125,-6.392669677734375,0.560760498046875,1.0,1.0,1.0,1.0,1.0,100.0,event
14:12:18.790,1.225499,0.45530868,0.6409979,1.2684127,1.1066071,0.66525465,0.4044856,1.1724442,0.7299876,1.0878408,0.34350052,1.0308672,0.7771315,0.9303966,0.5655388,0.84199786,0.5005034,0.7708388,0.4304658,0.29294068,848.1685,806.26373,795.38464,869.12085,757.50916,-0.4129638671875,0.10443115234375,0.89447021484375,1.951446533203125,-6.392669677734375,0.560760498046875,1.0,1.0,1.0,1.0,1.0,100.0,event
14:12:18.793,,,,,,,,,,,,,,,,,,,,,,,,,,,,,,,,,,,,,,blink
14:12:18.794,1.225499,0.45530868,0.6409979,1.2684127,1.1066071,0.66525465,0.4044856,1.1724442,0.7299876,1.0878408,0.34350052,1.0308672,0.7771315,0.9303966,0.5655388,0.84199786,0.5005034,0.7708388,0.4304658,0.29294068,855.82416,801.8315,787.72894,856.2271,824.7985,-0.4129638671875,0.10443115234375,0.89447021484375,1.951446533203125,-6.392669677734375,0.560760498046875,1.0,1.0,1.0,1.0,1.0,100.0,event
14:12:18.795,1.225499,0.45530868,0.6409979,1.2684127,1.1066071,0.66525465,0.4044856,1.1724442,0.7299876,1.0878408,0.34350052,1.0308672,0.7771315,0.9303966,0.5655388,0.84199786,0.5005034,0.7708388,0.4304658,0.29294068,866.7033,808.68134,790.9524,863.8828,821.978,-0.4129638671875,0.10443115234375,0.89447021484375,1.951446533203125,-6.392669677734375,0.560760498046875,1.0,1.0,1.0,1.0,1.0,100.0,event
14:12:18.819,1.225499,0.45530868,0.6409979,1.2684127,1.1066071,0.66525465,0.4044856,1.1724442,0.7299876,1.0878408,0.34350052,1.0308672,0.7771315,0.9303966,0.5655388,0.84199786,0.5005034,0.7708388,0.4304658,0.29294068,879.59705,815.12823,781.685,878.3883,841.31866,-0.40191650390625,0.113037109375,0.90283203125,2.250518798828125,-4.85992431640625,1.203765869140625,1.0,1.0,1.0,1.0,1.0,100.0,event
14:12:18.820,1.225499,0.45530868,0.6409979,1.2684127,1.1066071,0.66525465,0.4044856,1.1724442,0.7299876,1.0878408,0.34350052,1.0308672,0.7771315,0.9303966,0.5655388,0.84199786,0.5005034,0.7708388,0.4304658,0.29294068,869.92676,816.337,791.75824,864.68866,878.7912,-0.40191650390625,0.113037109375,0.90283203125,2.250518798828125,-4.85992431640625,1.203765869140625,1.0,1.0,1.0,1.0,1.0,100.0,event
14:12:18.820,1.225499,0.45530868,0.6409979,1.2684127,1.1066071,0.66525465,0.4044856,1.1724442,0.7299876,1.0878408,0.34350052,1.0308672,0.7771315,0.9303966,0.5655388,0.84199786,0.5005034,0.7708388,0.4304658,0.29294068,877.98535,819.9634,803.44324,865.4945,869.92676,-0.40191650390625,0.113037109375,0.90283203125,2.250518798828125,-4.85992431640625,1.203765869140625,1.0,1.0,1.0,1.0,1.0,100.0,event
14:12:18.821,1.225499,0.45530868,0.6409979,1.2684127,1.1066071,0.66525465,0.4044856,1.1724442,0.7299876,1.0878408,0.34350052,1.0308672,0.7771315,0.9303966,0.5655388,0.84199786,0.5005034,0.7708388,0.4304658,0.29294068,880.0,812.71063,806.26373,879.19415,759.5238,-0.40191650390625,0.113037109375,0.90283203125,2.250518798828125,-4.85992431640625,1.203765869140625,1.0,1.0,1.0,1.0,1.0,100.0,event
14:12:18.821,1.225499,0.45530868,0.6409979,1.2684127,1.1066071,0.66525465,0.4044856,1.1724442,0.7299876,1.0878408,0.34350052,1.0308672,0.7771315,0.9303966,0.5655388,0.84199786,0.5005034,0.7708388,0.4304658,0.29294068,868.315,802.6374,804.65204,868.71796,761.13556,-0.40191650390625,0.113037109375,0.90283203125,2.250518798828125,-4.85992431640625,1.203765869140625,1.0,1.0,1.0,1.0,1.0,100.0,event
14:12:18.822,1.225499,0.45530868,0.6409979,1.2684127,1.1066071,0.66525465,0.4044856,1.1724442,0.7299876,1.0878408,0.34350052,1.0308672,0.7771315,0.9303966,0.5655388,0.84199786,0.5005034,0.7708388,0.4304658,0.29294068,877.98535,815.12823,801.4286,859.45056,956.1539,-0.40191650390625,0.113037109375,0.90283203125,2.250518798828125,-4.85992431640625,1.203765869140625,1.0,1.0,1.0,1.0,1.0,100.0,event
14:12:18.822,1.225499,0.45530868,0.6409979,1.2684127,1.1066071,0.66525465,0.4044856,1.1724442,0.7299876,1.0878408,0.34350052,1.0308672,0.7771315,0.9303966,0.5655388,0.84199786,0.5005034,0.7708388,0.4304658,0.29294068,888.46155,829.2308,811.9048,858.24176,952.1245,-0.40191650390625,0.113037109375,0.90283203125,2.250518798828125,-4.85992431640625,1.203765869140625,1.0,1.0,1.0,1.0,1.0,100.0,event
14:12:18.823,1.225499,0.45530868,0.6409979,1.2684127,1.1066071,0.66525465,0.4044856,1.1724442,0.7299876,1.0878408,0.34350052,1.0308672,0.7771315,0.9303966,0.5655388,0.84199786,0.5005034,0.7708388,0.4304658,0.29294068,874.35895,829.6337,813.5165,862.674,781.685,-0.40191650390625,0.113037109375,0.90283203125,2.250518798828125,-4.85992431640625,1.203765869140625,1.0,1.0,1.0,1.0,1.0,100.0,event
14:12:18.823,1.225499,0.45530868,0.6409979,1.2684127,1.1066071,0.66525465,0.4044856,1.1724442,0.7299876,1.0878408,0.34350052,1.0308672,0.7771315,0.9303966,0.5655388,0.84199786,0.5005034,0.7708388,0.4304658,0.29294068,874.7619,827.619,807.8755,873.95605,753.8828,-0.40191650390625,0.113037109375,0.90283203125,2.250518798828125,-4.85992431640625,1.203765869140625,1.0,1.0,1.0,1.0,1.0,100.0,event
14:12:18.824,1.225499,0.45530868,0.6409979,1.2684127,1.1066071,0.66525465,0.4044856,1.1724442,0.7299876,1.0878408,0.34350052,1.0308672,0.7771315,0.9303966,0.5655388,0.84199786,0.5005034,0.7708388,0.4304658,0.29294068,882.8205,821.5751,807.8755,887.6557,937.2161,-0.40191650390625,0.113037109375,0.90283203125,2.250518798828125,-4.85992431640625,1.203765869140625,1.0,1.0,1.0,1.0,1.0,100.0,event
14:12:18.825,1.225499,0.45530868,0.6409979,1.2684127,1.1066071,0.66525465,0.4044856,1.1724442,0.7299876,1.0878408,0.34350052,1.0308672,0.7771315,0.9303966,0.5655388,0.84199786,0.5005034,0.7708388,0.4304658,0.29294068,881.6117,814.7253,815.9341,880.80585,905.78754,-0.40191650390625,0.113037109375,0.90283203125,2.250518798828125,-4.85992431640625,1.203765869140625,1.0,1.0,1.0,1.0,1.0,100.0,event
14:12:18.825,1.225499,0.45530868,0.6409979,1.2684127,1.1066071,0.66525465,0.4044856,1.1724442,0.7299876,1.0878408,0.34350052,1.0308672,0.7771315,0.9303966,0.5655388,0.84199786,0.5005034,0.7708388,0.4304658,0.29294068,877.1795,805.8608,814.3223,871.53845,737.3626,-0.40191650390625,0.113037109375,0.90283203125,2.250518798828125,-4.85992431640625,1.203765869140625,1.0,1.0,1.0,1.0,1.0,100.0,event
14:12:18.863,1.225499,0.45530868,0.6409979,1.2684127,1.1066071,0.66525465,0.4044856,1.1724442,0.7299876,1.0878408,0.34350052,1.0308672,0.7771315,0.9303966,0.5655388,0.84199786,0.5005034,0.7708388,0.4304658,0.29294068,865.09155,810.696,794.9817,869.5238,767.98535,-0.40191650390625,0.113037109375,0.90283203125,2.250518798828125,-4.85992431640625,1.203765869140625,1.0,1.0,1.0,1.0,1.0,100.0,event
14:12:18.864,1.225499,0.45530868,0.6409979,1.2684127,1.1066071,0.66525465,0.4044856,1.1724442,0.7299876,1.0878408,0.34350052,1.0308672,0.7771315,0.9303966,0.5655388,0.84199786,0.5005034,0.7708388,0.4304658,0.29294068,866.30035,813.91943,790.54944,864.2857,753.0769,-0.40191650390625,0.113037109375,0.90283203125,2.250518798828125,-4.85992431640625,1.203765869140625,1.0,1.0,1.0,1.0,1.0,100.0,event
14:12:18.865,1.225499,0.45530868,0.6409979,1.2684127,1.1066071,0.66525465,0.4044856,1.1724442,0.7299876,1.0878408,0.34350052,1.0308672,0.7771315,0.9303966,0.5655388,0.84199786,0.5005034,0.7708388,0.4304658,0.29294068,879.59705,812.3077,805.8608,845.34796,734.1392,-0.40191650390625,0.113037109375,0.90283203125,2.250518798828125,-4.85992431640625,1.203765869140625,1.0,1.0,1.0,1.0,1.0,100.0,event
14:12:18.865,1.225499,0.45530868,0.6409979,1.2684127,1.1066071,0.66525465,0.4044856,1.1724442,0.7299876,1.0878408,0.34350052,1.0308672,0.7771315,0.9303966,0.5655388,0.84199786,0.5005034,0.7708388,0.4304658,0.29294068,878.7912,814.3223,802.6374,847.76556,747.4359,-0.40191650390625,0.113037109375,0.90283203125,2.250518798828125,-4.85992431640625,1.203765869140625,1.0,1.0,1.0,1.0,1.0,100.0,event
14:12:18.866,1.225499,0.45530868,0.6409979,1.2684127,1.1066071,0.66525465,0.4044856,1.1724442,0.7299876,1.0878408,0.34350052,1.0308672,0.7771315,0.9303966,0.5655388,0.84199786,0.5005034,0.7708388,0.4304658,0.29294068,865.09155,796.5934,810.293,856.2271,714.7985,-0.40191650390625,0.113037109375,0.90283203125,2.250518798828125,-4.85992431640625,1.203765869140625,1.0,1.0,1.0,1.0,1.0,100.0,event
14:12:18.867,1.225499,0.45530868,0.6409979,1.2684127,1.1066071,0.66525465,0.4044856,1.1724442,0.7299876,1.0878408,0.34350052,1.0308672,0.7771315,0.9303966,0.5655388,0.84199786,0.5005034,0.7708388,0.4304658,0.29294068,859.0476,799.81683,814.3223,856.63007,893.69965,-0.40191650390625,0.113037109375,0.90283203125,2.250518798828125,-4.85992431640625,1.203765869140625,1.0,1.0,1.0,1.0,1.0,100.0,event
14:12:18.867,1.225499,0.45530868,0.6409979,1.2684127,1.1066071,0.66525465,0.4044856,1.1724442,0.7299876,1.0878408,0.34350052,1.0308672,0.7771315,0.9303966,0.5655388,0.84199786,0.5005034,0.7708388,0.4304658,0.29294068,845.7509,818.3516,800.6227,835.2747,866.30035,-0.40191650390625,0.113037109375,0.90283203125,2.250518798828125,-4.85992431640625,1.203765869140625,1.0,1.0,1.0,1.0,1.0,100.0,event
14:12:18.868,1.225499,0.45530868,0.6409979,1.2684127,1.1066071,0.66525465,0.4044856,1.1724442,0.7299876,1.0878408,0.34350052,1.0308672,0.7771315,0.9303966,0.5655388,0.84199786,0.5005034,0.7708388,0.4304658,0.29294068,845.7509,831.2454,807.47253,828.022,728.0952,-0.40191650390625,0.113037109375,0.90283203125,2.250518798828125,-4.85992431640625,1.203765869140625,1.0,1.0,1.0,1.0,1.0,100.0,event
14:12:18.869,1.225499,0.45530868,0.6409979,1.2684127,1.1066071,0.66525465,0.4044856,1.1724442,0.7299876,1.0878408,0.34350052,1.0308672,0.7771315,0.9303966,0.5655388,0.84199786,0.5005034,0.7708388,0.4304658,0.29294068,847.76556,828.022,814.7253,827.2161,728.9011,-0.40191650390625,0.113037109375,0.90283203125,2.250518798828125,-4.85992431640625,1.203765869140625,1.0,1.0,1.0,1.0,1.0,100.0,event
14:12:18.869,1.225499,0.45530868,0.6409979,1.2684127,1.1066071,0.66525465,0.4044856,1.1724442,0.7299876,1.0878408,0.34350052,1.0308672,0.7771315,0.9303966,0.5655388,0.84199786,0.5005034,0.7708388,0.4304658,0.29294068,846.1539,821.1722,803.0403,818.3516,988.3883,-0.40191650390625,0.113037109375,0.90283203125,2.250518798828125,-4.85992431640625,1.203765869140625,1.0,1.0,1.0,1.0,1.0,100.0,event
14:12:18.870,1.225499,0.45530868,0.6409979,1.2684127,1.1066071,0.66525465,0.4044856,1.1724442,0.7299876,1.0878408,0.34350052,1.0308672,0.7771315,0.9303966,0.5655388,0.84199786,0.5005034,0.7708388,0.4304658,0.29294068,845.7509,816.337,799.41394,828.022,919.0842,-0.40191650390625,0.113037109375,0.90283203125,2.250518798828125,-4.85992431640625,1.203765869140625,1.0,1.0,1.0,1.0,1.0,100.0,event
14:12:18.870,1.225499,0.44291663,0.6193496,1.2684127,1.1066071,0.65602607,0.39462054,1.1724442,0.7299876,1.0878408,0.36929417,1.0308672,0.7771315,0.92495245,0.5618763,0.84199786,0.5005034,0.7657586,0.42955408,0.29294068,817.9487,799.41394,803.8461,821.1722,702.71063,-0.40191650390625,0.113037109375,0.90283203125,2.250518798828125,-4.85992431640625,1.203765869140625,1.0,1.0,1.0,1.0,1.0,100.0,event
14:12:18.899,1.225499,0.44291663,0.6193496,1.2684127,1.1066071,0.65602607,0.39462054,1.1724442,0.7299876,1.0878408,0.36929417,1.0308672,0.7771315,0.92495245,0.5618763,0.84199786,0.5005034,0.7657586,0.42955408,0.29294068,817.1429,799.81683,799.41394,815.12823,782.8938,-0.40313720703125,0.1182861328125,0.90374755859375,1.966400146484375,-2.265472412109375,3.237457275390625,1.0,1.0,1.0,1.0,1.0,100.0,event
14:12:18.900,1.225499,0.44291663,0.6193496,1.2684127,1.1066071,0.65602607,0.39462054,1.1724442,0.7299876,1.0878408,0.36929417,1.0308672,0.7771315,0.92495245,0.5618763,0.84199786,0.5005034,0.7657586,0.42955408,0.29294068,830.4396,813.5165,788.5348,818.7546,793.36993,-0.40313720703125,0.1182861328125,0.90374755859375,1.966400146484375,-2.265472412109375,3.237457275390625,1.0,1.0,1.0,1.0,1.0,100.0,event
14:12:18.901,1.225499,0.44291663,0.6193496,1.2684127,1.1066071,0.65602607,0.39462054,1.1724442,0.7299876,1.0878408,0.36929417,1.0308672,0.7771315,0.92495245,0.5618763,0.84199786,0.5005034,0.7657586,0.42955408,0.29294068,828.8278,804.65204,789.7436,813.5165,727.28937,-0.40313720703125,0.1182861328125,0.90374755859375,1.966400146484375,-2.265472412109375,3.237457275390625,1.0,1.0,1.0,1.0,1.0,100.0,event
14:12:18.903,1.225499,0.44291663,0.6193496,1.2684127,1.1066071,0.65602607,0.39462054,1.1724442,0.7299876,1.0878408,0.36929417,1.0308672,0.7771315,0.92495245,0.5618763,0.84199786,0.5005034,0.7657586,0.42955408,0.29294068,831.2454,796.1905,799.41394,810.293,668.0586,-0.40313720703125,0.1182861328125,0.90374755859375,1.966400146484375,-2.265472412109375,3.237457275390625,1.0,1.0,1.0,1.0,1.0,100.0,event
14:12:18.904,1.225499,0.44291663,0.6193496,1.2684127,1.1066071,0.65602607,0.39462054,1.1724442,0.7299876,1.0878408,0.36929417,1.0308672,0.7771315,0.92495245,0.5618763,0.84199786,0.5005034,0.7657586,0.42955408,0.29294068,819.9634,798.60803,804.65204,813.5165,725.2747,-0.40313720703125,0.1182861328125,0.90374755859375,1.966400146484375,-2.265472412109375,3.237457275390625,1.0,1.0,1.0,1.0,1.0,100.0,event
14:12:18.905,1.225499,0.44291663,0.6193496,1.2684127,1.1066071,0.65602607,0.39462054,1.1724442,0.7299876,1.0878408,0.36929417,1.0308672,0.7771315,0.92495245,0.5618763,0.84199786,0.5005034,0.7657586,0.42955408,0.29294068,815.12823,804.2491,801.4286,817.1429,863.0769,-0.40313720703125,0.1182861328125,0.90374755859375,1.966400146484375,-2.265472412109375,3.237457275390625,1.0,1.0,1.0,1.0,1.0,100.0,event
14:12:18.906,1.225499,0.44291663,0.6193496,1.2684127,1.1066071,0.65602607,0.39462054,1.1724442,0.7299876,1.0878408,0.36929417,1.0308672,0.7771315,0.92495245,0.5618763,0.84199786,0.5005034,0.7657586,0.42955408,0.29294068,817.1429,815.5311,800.2198,807.47253,834.0659,-0.40313720703125,0.1182861328125,0.90374755859375,1.966400146484375,-2.265472412109375,3.237457275390625,1.0,1.0,1.0,1.0,1.0,100.0,event
14:12:18.906,1.225499,0.44291663,0.6193496,1.2684127,1.1066071,0.65602607,0.39462054,1.1724442,0.7299876,1.0878408,0.36929417,1.0308672,0.7771315,0.92495245,0.5618763,0.84199786,0.5005034,0.7657586,0.42955408,0.29294068,802.23444,814.3223,795.38464,788.1319,772.8205,-0.40313720703125,0.1182861328125,0.90374755859375,1.966400146484375,-2.265472412109375,3.237457275390625,1.0,1.0,1.0,1.0,1.0,100.0,event
14:12:18.907,1.225499,0.44291663,0.6193496,1.2684127,1.1066071,0.65602607,0.39462054,1.1724442,0.7299876,1.0878408,0.36929417,1.0308672,0.7771315,0.92495245,0.5618763,0.84199786,0.5005034,0.7657586,0.42955408,0.29294068,796.1905,794.57874,789.7436,788.93774,974.2857,-0.40313720703125,0.1182861328125,0.90374755859375,1.966400146484375,-2.265472412109375,3.237457275390625,1.0,1.0,1.0,1.0,1.0,100.0,event
14:12:18.908,1.225499,0.44291663,0.6193496,1.2684127,1.1066071,0.65602607,0.39462054,1.1724442,0.7299876,1.0878408,0.36929417,1.0308672,0.7771315,0.92495245,0.5618763,0.84199786,0.5005034,0.7657586,0.42955408,0.29294068,806.26373,801.8315,794.17584,799.011,1110.4762,-0.40313720703125,0.1182861328125,0.90374755859375,1.966400146484375,-2.265472412109375,3.237457275390625,1.0,1.0,1.0,1.0,1.0,100.0,event
14:12:18.909,1.225499,0.44291663,0.6193496,1.2684127,1.1066071,0.65602607,0.39462054,1.1724442,0.7299876,1.0878408,0.36929417,1.0308672,0.7771315,0.92495245,0.5618763,0.84199786,0.5005034,0.7657586,0.42955408,0.29294068,819.15753,823.5897,803.0403,801.4286,809.89014,-0.40313720703125,0.1182861328125,0.90374755859375,1.966400146484375,-2.265472412109375,3.237457275390625,1.0,1.0,1.0,1.0,1.0,100.0,event
14:12:18.910,1.225499,0.44291663,0.6193496,1.2684127,1.1066071,0.65602607,0.39462054,1.1724442,0.7299876,1.0878408,0.36929417,1.0308672,0.7771315,0.92495245,0.5618763,0.84199786,0.5005034,0.7657586,0.42955408,0.29294068,799.41394,820.3663,803.44324,801.4286,719.6337,-0.40313720703125,0.1182861328125,0.90374755859375,1.966400146484375,-2.265472412109375,3.237457275390625,1.0,1.0,1.0,1.0,1.0,100.0,event
14:12:18.980,1.225499,0.44291663,0.6193496,1.2684127,1.1066071,0.65602607,0.39462054,1.1724442,0.7299876,1.0878408,0.36929417,1.0308672,0.7771315,0.92495245,0.5618763,0.84199786,0.5005034,0.7657586,0.42955408,0.29294068,785.7143,811.9048,799.81683,791.75824,770.40295,-0.41461181640625,0.11810302734375,0.8941650390625,1.457977294921875,-1.09161376953125,2.392578125,1.0,1.0,1.0,1.0,1.0,100.0,event
14:12:18.981,1.225499,0.44291663,0.6193496,1.2684127,1.1066071,0.65602607,0.39462054,1.1724442,0.7299876,1.0878408,0.36929417,1.0308672,0.7771315,0.92495245,0.5618763,0.84199786,0.5005034,0.7657586,0.42955408,0.29294068,795.38464,809.4872,788.1319,788.5348,710.7692,-0.41461181640625,0.11810302734375,0.8941650390625,1.457977294921875,-1.09161376953125,2.392578125,1.0,1.0,1.0,1.0,1.0,100.0,event
14:12:18.982,1.225499,0.44291663,0.6193496,1.2684127,1.1066071,0.65602607,0.39462054,1.1724442,0.7299876,1.0878408,0.36929417,1.0308672,0.7771315,0.92495245,0.5618763,0.84199786,0.5005034,0.7657586,0.42955408,0.29294068,803.0403,794.57874,773.6264,798.20514,693.8461,-0.41461181640625,0.11810302734375,0.8941650390625,1.457977294921875,-1.09161376953125,2.392578125,1.0,1.0,1.0,1.0,1.0,100.0,event
14:12:18.982,1.225499,0.44291663,0.6193496,1.2684127,1.1066071,0.65602607,0.39462054,1.1724442,0.7299876,1.0878408,0.36929417,1.0308672,0.7771315,0.92495245,0.5618763,0.84199786,0.5005034,0.7657586,0.42955408,0.29294068,809.4872,788.1319,786.9231,800.2198,691.02563,-0.41461181640625,0.11810302734375,0.8941650390625,1.457977294921875,-1.09161376953125,2.392578125,1.0,1.0,1.0,1.0,1.0,100.0,event
14:12:18.983,1.225499,0.44291663,0.6193496,1.2684127,1.1066071,0.65602607,0.39462054,1.1724442,0.7299876,1.0878408,0.36929417,1.0308672,0.7771315,0.92495245,0.5618763,0.84199786,0.5005034,0.7657586,0.42955408,0.29294068,811.50183,799.011,799.81683,799.011,752.27106,-0.41461181640625,0.11810302734375,0.8941650390625,1.457977294921875,-1.09161376953125,2.392578125,1.0,1.0,1.0,1.0,1.0,100.0,event
14:12:18.984,1.225499,0.44291663,0.6193496,1.2684127,1.1066071,0.65602607,0.39462054,1.1724442,0.7299876,1.0878408,0.36929417,1.0308672,0.7771315,0.92495245,0.5618763,0.84199786,0.5005034,0.7657586,0.42955408,0.29294068,812.3077,806.6667,803.8461,797.3993,858.6447,-0.41461181640625,0.11810302734375,0.8941650390625,1.457977294921875,-1.09161376953125,2.392578125,1.0,1.0,1.0,1.0,1.0,100.0,event
14:12:18.984,1.225499,0.44291663,0.6193496,1.2684127,1.1066071,0.65602607,0.39462054,1.1724442,0.7299876,1.0878408,0.36929417,1.0308672,0.7771315,0.92495245,0.5618763,0.84199786,0.5005034,0.7657586,0.42955408,0.29294068,808.2784,814.7253,811.50183,796.5934,813.1135,-0.41461181640625,0.11810302734375,0.8941650390625,1.457977294921875,-1.09161376953125,2.392578125,1.0,1.0,1.0,1.0,1.0,100.0,event
14:12:18.985,1.225499,0.44291663,0.6193496,1.2684127,1.1066071,0.65602607,0.39462054,1.1724442,0.7299876,1.0878408,0.36929417,1.0308672,0.7771315,0.92495245,0.5618763,0.84199786,0.5005034,0.7657586,0.42955408,0.29294068,809.4872,810.696,800.2198,794.57874,792.1612,-0.41461181640625,0.11810302734375,0.8941650390625,1.457977294921875,-1.09161376953125,2.392578125,1.0,1.0,1.0,1.0,1.0,100.0,event
14:12:18.986,1.225499,0.44291663,0.6193496,1.2684127,1.1066071,0.65602607,0.39462054,1.1724442,0.7299876,1.0878408,0.36929417,1.0308672,0.7771315,0.92495245,0.5618763,0.84199786,0.5005034,0.7657586,0.42955408,0.29294068,813.91943,810.293,798.60803,802.6374,994.43225,-0.41461181640625,0.11810302734375,0.8941650390625,1.457977294921875,-1.09161376953125,2.392578125,1.0,1.0,1.0,1.0,1.0,100.0,event
14:12:18.986,1.225499,0.44291663,0.6193496,1.2684127,1.1066071,0.65602607,0.39462054,1.1724442,0.7299876,1.0878408,0.36929417,1.0308672,0.7771315,0.92495245,0.5618763,0.84199786,0.5005034,0.7657586,0.42955408,0.29294068,821.5751,817.5458,800.6227,801.8315,923.91943,-0.41461181640625,0.11810302734375,0.8941650390625,1.457977294921875,-1.09161376953125,2.392578125,1.0,1.0,1.0,1.0,1.0,100.0,event
14:12:18.987,1.225499,0.44291663,0.6193496,1.2684127,1.1066071,0.65602607,0.39462054,1.1724442,0.7299876,1.0878408,0.36929417,1.0308672,0.7771315,0.92495245,0.5618763,0.84199786,0.5005034,0.7657586,0.42955408,0.29294068,829.6337,811.9048,800.2198,803.44324,732.52747,-0.41461181640625,0.11810302734375,0.8941650390625,1.457977294921875,-1.09161376953125,2.392578125,1.0,1.0,1.0,1.0,1.0,100.0,event
14:12:18.988,1.225499,0.44291663,0.6193496,1.2684127,1.1066071,0.65602607,0.39462054,1.1724442,0.7299876,1.0878408,0.36929417,1.0308672,0.7771315,0.92495245,0.5618763,0.84199786,0.5005034,0.7657586,0.42955408,0.29294068,818.7546,807.8755,804.65204,808.2784,762.3443,-0.41461181640625,0.11810302734375,0.8941650390625,1.457977294921875,-1.09161376953125,2.392578125,1.0,1.0,1.0,1.0,1.0,100.0,event
14:12:19.026,1.225499,0.44291663,0.6193496,1.2684127,1.1066071,0.65602607,0.39462054,1.1724442,0.7299876,1.0878408,0.36929417,1.0308672,0.7771315,0.92495245,0.5618763,0.84199786,0.5005034,0.7657586,0.42955408,0.29294068,798.20514,811.9048,799.41394,805.8608,807.47253,-0.4168701171875,0.1134033203125,0.8902587890625,2.3626708984375,-0.59814453125,-0.49346923828125,1.0,1.0,1.0,1.0,1.0,100.0,event
14:12:19.027,1.225499,0.42662752,0.58334637,1.2684127,1.1066071,0.6619568,0.3770077,1.1724442,0.7299876,1.0878408,0.38487068,1.0308672,0.7771315,0.9193047,0.557059,0.84199786,0.5005034,0.76124483,0.43028712,0.29294068,788.93774,813.91943,796.5934,796.1905,728.9011,-0.4168701171875,0.1134033203125,0.8902587890625,2.3626708984375,-0.59814453125,-0.49346923828125,1.0,1.0,1.0,1.0,1.0,100.0,event
14:12:19.031,1.225499,0.42662752,0.58334637,1.2684127,1.1066071,0.6619568,0.3770077,1.1724442,0.7299876,1.0878408,0.38487068,1.0308672,0.7771315,0.9193047,0.557059,0.84199786,0.5005034,0.76124483,0.43028712,0.29294068,792.1612,808.68134,791.75824,789.34064,730.9158,-0.4168701171875,0.1134033203125,0.8902587890625,2.3626708984375,-0.59814453125,-0.49346923828125,1.0,1.0,1.0,1.0,1.0,100.0,event
14:12:19.032,1.225499,0.42662752,0.58334637,1.2684127,1.1066071,0.6619568,0.3770077,1.1724442,0.7299876,1.0878408,0.38487068,1.0308672,0.7771315,0.9193047,0.557059,0.84199786,0.5005034,0.76124483,0.43028712,0.29294068,806.26373,813.91943,786.9231,795.38464,776.04395,-0.4168701171875,0.1134033203125,0.8902587890625,2.3626708984375,-0.59814453125,-0.49346923828125,1.0,1.0,1.0,1.0,1.0,100.0,event
14:12:19.033,1.225499,0.42662752,0.58334637,1.2684127,1.1066071,0.6619568,0.3770077,1.1724442,0.7299876,1.0878408,0.38487068,1.0308672,0.7771315,0.9193047,0.557059,0.84199786,0.5005034,0.76124483,0.43028712,0.29294068,807.47253,817.5458,800.2198,795.38464,753.0769,-0.4168701171875,0.1134033203125,0.8902587890625,2.3626708984375,-0.59814453125,-0.49346923828125,1.0,1.0,1.0,1.0,1.0,100.0,event
14:12:19.034,1.225499,0.42662752,0.58334637,1.2684127,1.1066071,0.6619568,0.3770077,1.1724442,0.7299876,1.0878408,0.38487068,1.0308672,0.7771315,0.9193047,0.557059,0.84199786,0.5005034,0.76124483,0.43028712,0.29294068,801.4286,801.02563,809.0842,799.41394,811.0989,-0.4168701171875,0.1134033203125,0.8902587890625,2.3626708984375,-0.59814453125,-0.49346923828125,1.0,1.0,1.0,1.0,1.0,100.0,event
14:12:19.034,1.225499,0.42662752,0.58334637,1.2684127,1.1066071,0.6619568,0.3770077,1.1724442,0.7299876,1.0878408,0.38487068,1.0308672,0.7771315,0.9193047,0.557059,0.84199786,0.5005034,0.76124483,0.43028712,0.29294068,803.0403,794.57874,804.65204,796.1905,893.2967,-0.4168701171875,0.1134033203125,0.8902587890625,2.3626708984375,-0.59814453125,-0.49346923828125,1.0,1.0,1.0,1.0,1.0,100.0,event
14:12:19.035,1.225499,0.42662752,0.58334637,1.2684127,1.1066071,0.6619568,0.3770077,1.1724442,0.7299876,1.0878408,0.38487068,1.0308672,0.7771315,0.9193047,0.557059,0.84199786,0.5005034,0.76124483,0.43028712,0.29294068,810.696,803.44324,799.41394,795.38464,975.4945,-0.4168701171875,0.1134033203125,0.8902587890625,2.3626708984375,-0.59814453125,-0.49346923828125,1.0,1.0,1.0,1.0,1.0,100.0,event
14:12:19.036,1.225499,0.42662752,0.58334637,1.2684127,1.1066071,0.6619568,0.3770077,1.1724442,0.7299876,1.0878408,0.38487068,1.0308672,0.7771315,0.9193047,0.557059,0.84199786,0.5005034,0.76124483,0.43028712,0.29294068,815.9341,817.5458,788.5348,794.57874,909.41394,-0.4168701171875,0.1134033203125,0.8902587890625,2.3626708984375,-0.59814453125,-0.49346923828125,1.0,1.0,1.0,1.0,1.0,100.0,event
14:12:19.036,1.225499,0.42662752,0.58334637,1.2684127,1.1066071,0.6619568,0.3770077,1.1724442,0.7299876,1.0878408,0.38487068,1.0308672,0.7771315,0.9193047,0.557059,0.84199786,0.5005034,0.76124483,0.43028712,0.29294068,811.0989,809.4872,797.8022,786.9231,745.82416,-0.4168701171875,0.1134033203125,0.8902587890625,2.3626708984375,-0.59814453125,-0.49346923828125,1.0,1.0,1.0,1.0,1.0,100.0,event
14:12:19.037,1.225499,0.42662752,0.58334637,1.2684127,1.1066071,0.6619568,0.3770077,1.1724442,0.7299876,1.0878408,0.38487068,1.0308672,0.7771315,0.9193047,0.557059,0.84199786,0.5005034,0.76124483,0.43028712,0.29294068,799.011,792.5641,808.68134,788.1319,734.94507,-0.4168701171875,0.1134033203125,0.8902587890625,2.3626708984375,-0.59814453125,-0.49346923828125,1.0,1.0,1.0,1.0,1.0,100.0,event
14:12:19.038,1.225499,0.42662752,0.58334637,1.2684127,1.1066071,0.6619568,0.3770077,1.1724442,0.7299876,1.0878408,0.38487068,1.0308672,0.7771315,0.9193047,0.557059,0.84199786,0.5005034,0.76124483,0.43028712,0.29294068,804.65204,801.8315,801.02563,801.4286,863.8828,-0.4168701171875,0.1134033203125,0.8902587890625,2.3626708984375,-0.59814453125,-0.49346923828125,1.0,1.0,1.0,1.0,1.0,100.0,event
14:12:19.093,1.225499,0.42662752,0.58334637,1.2684127,1.1066071,0.6619568,0.3770077,1.1724442,0.7299876,1.0878408,0.38487068,1.0308672,0.7771315,0.9193047,0.557059,0.84199786,0.5005034,0.76124483,0.43028712,0.29294068,811.50183,817.5458,796.99634,808.2784,872.3443,-0.41656494140625,0.118408203125,0.89453125,2.938385009765625,-0.6280517578125,-1.622467041015625,1.0,1.0,1.0,1.0,1.0,100.0,event
14:12:19.094,1.225499,0.42662752,0.58334637,1.2684127,1.1066071,0.6619568,0.3770077,1.1724442,0.7299876,1.0878408,0.38487068,1.0308672,0.7771315,0.9193047,0.557059,0.84199786,0.5005034,0.76124483,0.43028712,0.29294068,784.5055,820.7692,794.57874,778.46155,737.3626,-0.41656494140625,0.118408203125,0.89453125,2.938385009765625,-0.6280517578125,-1.622467041015625,1.0,1.0,1.0,1.0,1.0,100.0,event
14:12:19.096,1.225499,0.42662752,0.58334637,1.2684127,1.1066071,0.6619568,0.3770077,1.1724442,0.7299876,1.0878408,0.38487068,1.0308672,0.7771315,0.9193047,0.557059,0.84199786,0.5005034,0.76124483,0.43028712,0.29294068,769.59705,814.3223,801.02563,761.53845,794.9817,-0.41656494140625,0.118408203125,0.89453125,2.938385009765625,-0.6280517578125,-1.622467041015625,1.0,1.0,1.0,1.0,1.0,100.0,event
14:12:19.097,1.225499,0.42662752,0.58334637,1.2684127,1.1066071,0.6619568,0.3770077,1.1724442,0.7299876,1.0878408,0.38487068,1.0308672,0.7771315,0.9193047,0.557059,0.84199786,0.5005034,0.76124483,0.43028712,0.29294068,793.36993,812.3077,807.47253,782.8938,888.0586,-0.41656494140625,0.118408203125,0.89453125,2.938385009765625,-0.6280517578125,-1.622467041015625,1.0,1.0,1.0,1.0,1.0,100.0,event
14:12:19.097,1.225499,0.42662752,0.58334637,1.2684127,1.1066071,0.6619568,0.3770077,1.1724442,0.7299876,1.0878408,0.38487068,1.0308672,0.7771315,0.9193047,0.557059,0.84199786,0.5005034,0.76124483,0.43028712,0.29294068,803.8461,812.3077,797.3993,793.7729,785.31134,-0.41656494140625,0.118408203125,0.89453125,2.938385009765625,-0.6280517578125,-1.622467041015625,1.0,1.0,1.0,1.0,1.0,100.0,event
14:12:19.098,1.225499,0.42662752,0.58334637,1.2684127,1.1066071,0.6619568,0.3770077,1.1724442,0.7299876,1.0878408,0.38487068,1.0308672,0.7771315,0.9193047,0.557059,0.84199786,0.5005034,0.76124483,0.43028712,0.29294068,795.78754,811.50183,788.93774,790.54944,796.99634,-0.41656494140625,0.118408203125,0.89453125,2.938385009765625,-0.6280517578125,-1.622467041015625,1.0,1.0,1.0,1.0,1.0,100.0,event
14:12:19.099,1.225499,0.42662752,0.58334637,1.2684127,1.1066071,0.6619568,0.3770077,1.1724442,0.7299876,1.0878408,0.38487068,1.0308672,0.7771315,0.9193047,0.557059,0.84199786,0.5005034,0.76124483,0.43028712,0.29294068,788.93774,803.8461,795.38464,780.07324,861.8681,-0.41656494140625,0.118408203125,0.89453125,2.938385009765625,-0.6280517578125,-1.622467041015625,1.0,1.0,1.0,1.0,1.0,100.0,event
14:12:19.099,1.225499,0.42662752,0.58334637,1.2684127,1.1066071,0.6619568,0.3770077,1.1724442,0.7299876,1.0878408,0.38487068,1.0308672,0.7771315,0.9193047,0.557059,0.84199786,0.5005034,0.76124483,0.43028712,0.29294068,800.2198,807.47253,810.293,786.9231,807.47253,-0.41656494140625,0.118408203125,0.89453125,2.938385009765625,-0.6280517578125,-1.622467041015625,1.0,1.0,1.0,1.0,1.0,100.0,event
14:12:19.100,1.225499,0.42662752,0.58334637,1.2684127,1.1066071,0.6619568,0.3770077,1.1724442,0.7299876,1.0878408,0.38487068,1.0308672,0.7771315,0.9193047,0.557059,0.84199786,0.5005034,0.76124483,0.43028712,0.29294068,807.8755,814.7253,809.89014,794.9817,673.2967,-0.41656494140625,0.118408203125,0.89453125,2.938385009765625,-0.6280517578125,-1.622467041015625,1.0,1.0,1.0,1.0,1.0,100.0,event
14:12:19.101,1.225499,0.42662752,0.58334637,1.2684127,1.1066071,0.6619568,0.3770077,1.1724442,0.7299876,1.0878408,0.38487068,1.0308672,0.7771315,0.9193047,0.557059,0.84199786,0.5005034,0.76124483,0.43028712,0.29294068,808.68134,802.23444,799.41394,786.9231,614.87177,-0.41656494140625,0.118408203125,0.89453125,2.938385009765625,-0.6280517578125,-1.622467041015625,1.0,1.0,1.0,1.0,1.0,100.0,event
14:12:19.102,1.225499,0.42662752,0.58334637,1.2684127,1.1066071,0.6619568,0.3770077,1.1724442,0.7299876,1.0878408,0.38487068,1.0308672,0.7771315,0.9193047,0.557059,0.84199786,0.5005034,0.76124483,0.43028712,0.29294068,819.9634,805.05493,794.57874,794.9817,759.5238,-0.41656494140625,0.118408203125,0.89453125,2.938385009765625,-0.6280517578125,-1.622467041015625,1.0,1.0,1.0,1.0,1.0,100.0,event
14:12:19.102,1.225499,0.42662752,0.58334637,1.2684127,1.1066071,0.6619568,0.3770077,1.1724442,0.7299876,1.0878408,0.38487068,1.0308672,0.7771315,0.9193047,0.557059,0.84199786,0.5005034,0.76124483,0.43028712,0.29294068,813.5165,815.9341,791.3553,800.6227,1072.6007,-0.41656494140625,0.118408203125,0.89453125,2.938385009765625,-0.6280517578125,-1.622467041015625,1.0,1.0,1.0,1.0,1.0,100.0,event
14:12:19.125,1.225499,0.42662752,0.58334637,1.2684127,1.1066071,0.6619568,0.3770077,1.1724442,0.7299876,1.0878408,0.38487068,1.0308672,0.7771315,0.9193047,0.557059,0.84199786,0.5005034,0.76124483,0.43028712,0.29294068,811.0989,805.8608,803.44324,797.3993,847.76556,-0.41656494140625,0.118408203125,0.89453125,2.938385009765625,-0.6280517578125,-1.622467041015625,1.0,1.0,1.0,1.0,1.0,100.0,event
14:12:19.126,1.225499,0.42662752,0.58334637,1.2684127,1.1066071,0.6619568,0.3770077,1.1724442,0.7299876,1.0878408,0.38487068,1.0308672,0.7771315,0.9193047,0.557059,0.84199786,0.5005034,0.76124483,0.43028712,0.29294068,819.15753,803.8461,797.3993,796.99634,658.3883,-0.41656494140625,0.118408203125,0.89453125,2.938385009765625,-0.6280517578125,-1.622467041015625,1.0,1.0,1.0,1.0,1.0,100.0,event
14:12:19.126,1.225499,0.42662752,0.58334637,1.2684127,1.1066071,0.6619568,0.3770077,1.1724442,0.7299876,1.0878408,0.38487068,1.0308672,0.7771315,0.9193047,0.557059,0.84199786,0.5005034,0.76124483,0.43028712,0.29294068,821.1722,809.89014,793.7729,796.99634,861.8681,-0.41656494140625,0.118408203125,0.89453125,2.938385009765625,-0.6280517578125,-1.622467041015625,1.0,1.0,1.0,1.0,1.0,100.0,event
14:12:19.127,1.225499,0.4107077,0.5343224,1.2684127,1.1066071,0.6795374,0.3538677,1.1724442,0.7299876,1.0878408,0.3855929,1.0308672,0.7771315,0.9166841,0.5495201,0.84199786,0.5005034,0.7565853,0.43620628,0.29294068,818.3516,804.2491,806.26373,799.011,937.619,-0.41656494140625,0.118408203125,0.89453125,2.938385009765625,-0.6280517578125,-1.622467041015625,1.0,1.0,1.0,1.0,1.0,100.0,event
14:12:19.132,1.225499,0.4107077,0.5343224,1.2684127,1.1066071,0.6795374,0.3538677,1.1724442,0.7299876,1.0878408,0.3855929,1.0308672,0.7771315,0.9166841,0.5495201,0.84199786,0.5005034,0.7565853,0.43620628,0.29294068,816.337,819.9634,798.60803,794.9817,857.8388,-0.41656494140625,0.118408203125,0.89453125,2.938385009765625,-0.6280517578125,-1.622467041015625,1.0,1.0,1.0,1.0,1.0,100.0,event
14:12:19.132,1.225499,0.4107077,0.5343224,1.2684127,1.1066071,0.6795374,0.3538677,1.1724442,0.7299876,1.0878408,0.3855929,1.0308672,0.7771315,0.9166841,0.5495201,0.84199786,0.5005034,0.7565853,0.43620628,0.29294068,811.9048,832.4542,808.68134,794.57874,821.5751,-0.41656494140625,0.118408203125,0.89453125,2.938385009765625,-0.6280517578125,-1.622467041015625,1.0,1.0,1.0,1.0,1.0,100.0,event
14:12:19.133,1.225499,0.4107077,0.5343224,1.2684127,1.1066071,0.6795374,0.3538677,1.1724442,0.7299876,1.0878408,0.3855929,1.0308672,0.7771315,0.9166841,0.5495201,0.84199786,0.5005034,0.7565853,0.43620628,0.29294068,798.20514,816.7399,818.3516,794.9817,1011.75824,-0.41656494140625,0.118408203125,0.89453125,2.938385009765625,-0.6280517578125,-1.622467041015625,1.0,1.0,1.0,1.0,1.0,100.0,event
14:12:19.133,1.225499,0.4107077,0.5343224,1.2684127,1.1066071,0.6795374,0.3538677,1.1724442,0.7299876,1.0878408,0.3855929,1.0308672,0.7771315,0.9166841,0.5495201,0.84199786,0.5005034,0.7565853,0.43620628,0.29294068,794.17584,814.7253,802.6374,800.2198,1125.7876,-0.41656494140625,0.118408203125,0.89453125,2.938385009765625,-0.6280517578125,-1.622467041015625,1.0,1.0,1.0,1.0,1.0,100.0,event
14:12:19.134,1.225499,0.4107077,0.5343224,1.2684127,1.1066071,0.6795374,0.3538677,1.1724442,0.7299876,1.0878408,0.3855929,1.0308672,0.7771315,0.9166841,0.5495201,0.84199786,0.5005034,0.7565853,0.43620628,0.29294068,806.6667,822.7839,793.36993,810.293,813.5165,-0.41656494140625,0.118408203125,0.89453125,2.938385009765625,-0.6280517578125,-1.622467041015625,1.0,1.0,1.0,1.0,1.0,100.0,event
14:12:19.135,1.225499,0.4107077,0.5343224,1.2684127,1.1066071,0.6795374,0.3538677,1.1724442,0.7299876,1.0878408,0.3855929,1.0308672,0.7771315,0.9166841,0.5495201,0.84199786,0.5005034,0.7565853,0.43620628,0.29294068,802.23444,824.7985,788.93774,806.6667,722.8571,-0.41656494140625,0.118408203125,0.89453125,2.938385009765625,-0.6280517578125,-1.622467041015625,1.0,1.0,1.0,1.0,1.0,100.0,event
14:12:19.136,1.225499,0.4107077,0.5343224,1.2684127,1.1066071,0.6795374,0.3538677,1.1724442,0.7299876,1.0878408,0.3855929,1.0308672,0.7771315,0.9166841,0.5495201,0.84199786,0.5005034,0.7565853,0.43620628,0.29294068,822.7839,833.2601,806.6667,812.3077,801.8315,-0.41656494140625,0.118408203125,0.89453125,2.938385009765625,-0.6280517578125,-1.622467041015625,1.0,1.0,1.0,1.0,1.0,100.0,event
14:12:19.137,1.225499,0.4107077,0.5343224,1.2684127,1.1066071,0.6795374,0.3538677,1.1724442,0.7299876,1.0878408,0.3855929,1.0308672,0.7771315,0.9166841,0.5495201,0.84199786,0.5005034,0.7565853,0.43620628,0.29294068,846.55676,825.2015,821.1722,828.022,696.6667,-0.41656494140625,0.118408203125,0.89453125,2.938385009765625,-0.6280517578125,-1.622467041015625,1.0,1.0,1.0,1.0,1.0,100.0,event
14:12:19.138,1.225499,0.4107077,0.5343224,1.2684127,1.1066071,0.6795374,0.3538677,1.1724442,0.7299876,1.0878408,0.3855929,1.0308672,0.7771315,0.9166841,0.5495201,0.84199786,0.5005034,0.7565853,0.43620628,0.29294068,816.7399,797.3993,801.4286,819.15753,622.1245,-0.41790771484375,0.11822509765625,0.8873291015625,1.443023681640625,-1.2261962890625,-0.441131591796875,1.0,1.0,1.0,1.0,1.0,100.0,event
14:12:19.139,1.225499,0.4107077,0.5343224,1.2684127,1.1066071,0.6795374,0.3538677,1.1724442,0.7299876,1.0878408,0.3855929,1.0308672,0.7771315,0.9166841,0.5495201,0.84199786,0.5005034,0.7565853,0.43620628,0.29294068,804.65204,794.9817,794.57874,801.8315,668.46155,-0.41790771484375,0.11822509765625,0.8873291015625,1.443023681640625,-1.2261962890625,-0.441131591796875,1.0,1.0,1.0,1.0,1.0,100.0,event
14:12:19.140,1.225499,0.4107077,0.5343224,1.2684127,1.1066071,0.6795374,0.3538677,1.1724442,0.7299876,1.0878408,0.3855929,1.0308672,0.7771315,0.9166841,0.5495201,0.84199786,0.5005034,0.7565853,0.43620628,0.29294068,803.44324,804.65204,796.5934,790.9524,798.20514,-0.41790771484375,0.11822509765625,0.8873291015625,1.443023681640625,-1.2261962890625,-0.441131591796875,1.0,1.0,1.0,1.0,1.0,100.0,event
14:12:19.141,1.225499,0.4107077,0.5343224,1.2684127,1.1066071,0.6795374,0.3538677,1.1724442,0.7299876,1.0878408,0.3855929,1.0308672,0.7771315,0.9166841,0.5495201,0.84199786,0.5005034,0.7565853,0.43620628,0.29294068,803.0403,803.0403,784.5055,795.38464,811.0989,-0.41790771484375,0.11822509765625,0.8873291015625,1.443023681640625,-1.2261962890625,-0.441131591796875,1.0,1.0,1.0,1.0,1.0,100.0,event
14:12:19.142,1.225499,0.4107077,0.5343224,1.2684127,1.1066071,0.6795374,0.3538677,1.1724442,0.7299876,1.0878408,0.3855929,1.0308672,0.7771315,0.9166841,0.5495201,0.84199786,0.5005034,0.7565853,0.43620628,0.29294068,811.50183,801.8315,792.5641,806.6667,706.7399,-0.41790771484375,0.11822509765625,0.8873291015625,1.443023681640625,-1.2261962890625,-0.441131591796875,1.0,1.0,1.0,1.0,1.0,100.0,event
14:12:19.143,1.225499,0.4107077,0.5343224,1.2684127,1.1066071,0.6795374,0.3538677,1.1724442,0.7299876,1.0878408,0.3855929,1.0308672,0.7771315,0.9166841,0.5495201,0.84199786,0.5005034,0.7565853,0.43620628,0.29294068,817.1429,827.2161,796.1905,816.337,1085.0916,-0.41790771484375,0.11822509765625,0.8873291015625,1.443023681640625,-1.2261962890625,-0.441131591796875,1.0,1.0,1.0,1.0,1.0,100.0,event
14:12:19.143,1.225499,0.4107077,0.5343224,1.2684127,1.1066071,0.6795374,0.3538677,1.1724442,0.7299876,1.0878408,0.3855929,1.0308672,0.7771315,0.9166841,0.5495201,0.84199786,0.5005034,0.7565853,0.43620628,0.29294068,815.12823,815.5311,809.0842,811.50183,836.8865,-0.41790771484375,0.11822509765625,0.8873291015625,1.443023681640625,-1.2261962890625,-0.441131591796875,1.0,1.0,1.0,1.0,1.0,100.0,event
14:12:19.144,1.225499,0.4107077,0.5343224,1.2684127,1.1066071,0.6795374,0.3538677,1.1724442,0.7299876,1.0878408,0.3855929,1.0308672,0.7771315,0.9166841,0.5495201,0.84199786,0.5005034,0.7565853,0.43620628,0.29294068,823.5897,823.9927,787.326,815.5311,961.79486,-0.41790771484375,0.11822509765625,0.8873291015625,1.443023681640625,-1.2261962890625,-0.441131591796875,1.0,1.0,1.0,1.0,1.0,100.0,event
14:12:19.145,1.225499,0.4107077,0.5343224,1.2684127,1.1066071,0.6795374,0.3538677,1.1724442,0.7299876,1.0878408,0.3855929,1.0308672,0.7771315,0.9166841,0.5495201,0.84199786,0.5005034,0.7565853,0.43620628,0.29294068,826.8132,820.3663,808.68134,814.7253,694.2491,-0.41790771484375,0.11822509765625,0.8873291015625,1.443023681640625,-1.2261962890625,-0.441131591796875,1.0,1.0,1.0,1.0,1.0,100.0,event
14:12:19.146,1.225499,0.4107077,0.5343224,1.2684127,1.1066071,0.6795374,0.3538677,1.1724442,0.7299876,1.0878408,0.3855929,1.0308672,0.7771315,0.9166841,0.5495201,0.84199786,0.5005034,0.7565853,0.43620628,0.29294068,817.5458,817.5458,818.7546,816.7399,758.71796,-0.41790771484375,0.11822509765625,0.8873291015625,1.443023681640625,-1.2261962890625,-0.441131591796875,1.0,1.0,1.0,1.0,1.0,100.0,event
14:12:19.146,1.225499,0.4107077,0.5343224,1.2684127,1.1066071,0.6795374,0.3538677,1.1724442,0.7299876,1.0878408,0.3855929,1.0308672,0.7771315,0.9166841,0.5495201,0.84199786,0.5005034,0.7565853,0.43620628,0.29294068,813.91943,814.7253,801.02563,809.89014,953.73627,-0.41790771484375,0.11822509765625,0.8873291015625,1.443023681640625,-1.2261962890625,-0.441131591796875,1.0,1.0,1.0,1.0,1.0,100.0,event
14:12:19.147,1.225499,0.4107077,0.5343224,1.2684127,1.1066071,0.6795374,0.3538677,1.1724442,0.7299876,1.0878408,0.3855929,1.0308672,0.7771315,0.9166841,0.5495201,0.84199786,0.5005034,0.7565853,0.43620628,0.29294068,816.337,821.1722,796.5934,808.68134,769.59705,-0.41790771484375,0.11822509765625,0.8873291015625,1.443023681640625,-1.2261962890625,-0.441131591796875,1.0,1.0,1.0,1.0,1.0,100.0,event
14:12:19.214,1.225499,0.4107077,0.5343224,1.2684127,1.1066071,0.6795374,0.3538677,1.1724442,0.7299876,1.0878408,0.3855929,1.0308672,0.7771315,0.9166841,0.5495201,0.84199786,0.5005034,0.7565853,0.43620628,0.29294068,819.9634,818.7546,805.8608,808.68134,657.5824,-0.43048095703125,0.11279296875,0.88568115234375,1.502838134765625,-1.4654541015625,-0.13458251953125,1.0,1.0,1.0,1.0,1.0,100.0,event
14:12:19.215,1.225499,0.4107077,0.5343224,1.2684127,1.1066071,0.6795374,0.3538677,1.1724442,0.7299876,1.0878408,0.3855929,1.0308672,0.7771315,0.9166841,0.5495201,0.84199786,0.5005034,0.7565853,0.43620628,0.29294068,819.5604,799.41394,800.6227,798.20514,779.67035,-0.43048095703125,0.11279296875,0.88568115234375,1.502838134765625,-1.4654541015625,-0.13458251953125,1.0,1.0,1.0,1.0,1.0,100.0,event
14:12:19.216,1.225499,0.4107077,0.5343224,1.2684127,1.1066071,0.6795374,0.3538677,1.1724442,0.7299876,1.0878408,0.3855929,1.0308672,0.7771315,0.9166841,0.5495201,0.84199786,0.5005034,0.7565853,0.43620628,0.29294068,811.50183,794.57874,789.34064,796.1905,792.5641,-0.43048095703125,0.11279296875,0.88568115234375,1.502838134765625,-1.4654541015625,-0.13458251953125,1.0,1.0,1.0,1.0,1.0,100.0,event
14:12:19.217,1.225499,0.4107077,0.5343224,1.2684127,1.1066071,0.6795374,0.3538677,1.1724442,0.7299876,1.0878408,0.3855929,1.0308672,0.7771315,0.9166841,0.5495201,0.84199786,0.5005034,0.7565853,0.43620628,0.29294068,808.2784,804.2491,792.1612,802.23444,689.81683,-0.43048095703125,0.11279296875,0.88568115234375,1.502838134765625,-1.4654541015625,-0.13458251953125,1.0,1.0,1.0,1.0,1.0,100.0,event
14:12:19.217,1.225499,0.4107077,0.5343224,1.2684127,1.1066071,0.6795374,0.3538677,1.1724442,0.7299876,1.0878408,0.3855929,1.0308672,0.7771315,0.9166841,0.5495201,0.84199786,0.5005034,0.7565853,0.43620628,0.29294068,813.91943,806.6667,808.2784,815.12823,690.6227,-0.43048095703125,0.11279296875,0.88568115234375,1.502838134765625,-1.4654541015625,-0.13458251953125,1.0,1.0,1.0,1.0,1.0,100.0,event
14:12:19.218,1.225499,0.39740655,0.47869673,1.2684127,1.1066071,0.6981194,0.32458675,1.1724442,0.7299876,1.0881073,0.38831186,1.0308672,0.7771315,0.91580707,0.5406567,0.84199786,0.5005034,0.7506609,0.44808573,0.29294068,822.7839,812.71063,809.89014,821.1722,859.0476,-0.43048095703125,0.11279296875,0.88568115234375,1.502838134765625,-1.4654541015625,-0.13458251953125,1.0,1.0,1.0,1.0,1.0,100.0,event
14:12:19.223,1.225499,0.39740655,0.47869673,1.2684127,1.1066071,0.6981194,0.32458675,1.1724442,0.7299876,1.0881073,0.38831186,1.0308672,0.7771315,0.91580707,0.5406567,0.84199786,0.5005034,0.7506609,0.44808573,0.29294068,831.6484,814.7253,805.8608,824.7985,815.9341,-0.43048095703125,0.11279296875,0.88568115234375,1.502838134765625,-1.4654541015625,-0.13458251953125,1.0,1.0,1.0,1.0,1.0,100.0,event
14:12:19.224,1.225499,0.39740655,0.47869673,1.2684127,1.1066071,0.6981194,0.32458675,1.1724442,0.7299876,1.0881073,0.38831186,1.0308672,0.7771315,0.91580707,0.5406567,0.84199786,0.5005034,0.7506609,0.44808573,0.29294068,834.4689,822.381,803.8461,826.4103,713.5897,-0.43048095703125,0.11279296875,0.88568115234375,1.502838134765625,-1.4654541015625,-0.13458251953125,1.0,1.0,1.0,1.0,1.0,100.0,event
14:12:19.225,1.225499,0.39740655,0.47869673,1.2684127,1.1066071,0.6981194,0.32458675,1.1724442,0.7299876,1.0881073,0.38831186,1.0308672,0.7771315,0.91580707,0.5406567,0.84199786,0.5005034,0.7506609,0.44808573,0.29294068,830.4396,823.5897,786.1172,823.9927,717.2161,-0.43048095703125,0.11279296875,0.88568115234375,1.502838134765625,-1.4654541015625,-0.13458251953125,1.0,1.0,1.0,1.0,1.0,100.0,event
14:12:19.226,1.225499,0.39740655,0.47869673,1.2684127,1.1066071,0.6981194,0.32458675,1.1724442,0.7299876,1.0881073,0.38831186,1.0308672,0.7771315,0.91580707,0.5406567,0.84199786,0.5005034,0.7506609,0.44808573,0.29294068,809.4872,799.41394,813.1135,815.5311,982.74725,-0.43048095703125,0.11279296875,0.88568115234375,1.502838134765625,-1.4654541015625,-0.13458251953125,1.0,1.0,1.0,1.0,1.0,100.0,event
14:12:19.226,1.225499,0.39740655,0.47869673,1.2684127,1.1066071,0.6981194,0.32458675,1.1724442,0.7299876,1.0881073,0.38831186,1.0308672,0.7771315,0.91580707,0.5406567,0.84199786,0.5005034,0.7506609,0.44808573,0.29294068,823.5897,799.011,795.38464,824.3956,919.4872,-0.43048095703125,0.11279296875,0.88568115234375,1.502838134765625,-1.4654541015625,-0.13458251953125,1.0,1.0,1.0,1.0,1.0,100.0,event
14:12:19.227,1.225499,0.39740655,0.47869673,1.2684127,1.1066071,0.6981194,0.32458675,1.1724442,0.7299876,1.0881073,0.38831186,1.0308672,0.7771315,0.91580707,0.5406567,0.84199786,0.5005034,0.7506609,0.44808573,0.29294068,798.60803,819.15753,812.71063,807.47253,678.93774,-0.43048095703125,0.11279296875,0.88568115234375,1.502838134765625,-1.4654541015625,-0.13458251953125,1.0,1.0,1.0,1.0,1.0,100.0,event
