TimeStamp,Delta_TP9,Delta_AF7,Delta_AF8,Delta_TP10,Theta_TP9,Theta_AF7,Theta_AF8,Theta_TP10,Alpha_TP9,Alpha_AF7,Alpha_AF8,Alpha_TP10,Beta_TP9,Beta_AF7,Beta_AF8,Beta_TP10,Gamma_TP9,Gamma_AF7,Gamma_AF8,Gamma_TP10,RAW_TP9,RAW_AF7,RAW_AF8,RAW_TP10,AUX_RIGHT,Accelerometer_X,Accelerometer_Y,Accelerometer_Z,Gyro_X,Gyro_Y,Gyro_Z,HeadBandOn,HSI_TP9,HSI_AF7,HSI_AF8,HSI_TP10,Battery,Elements
09:16:56.569,0.9193356,0.7805801,0.6452235,0.9246507,0.25445223,0.7025522,0.45830083,0.22685397,0.29473695,0.062038466,0.30731043,0.2908747,0.48356643,-0.046524815,0.09907656,0.5000475,0.35514748,-0.22771892,-0.08920894,0.28954294,761.53845,796.99634,799.81683,788.1319,907.8022,-0.04486083984375,0.068115234375,0.98736572265625,2.7813720703125,-2.250518798828125,1.577606201171875,1.0,1.0,1.0,1.0,1.0,85.0,event
09:16:56.569,0.9193356,0.7805801,0.6452235,0.9246507,0.25445223,0.7025522,0.45830083,0.22685397,0.29473695,0.062038466,0.30731043,0.2908747,0.48356643,-0.046524815,0.09907656,0.5000475,0.35514748,-0.22771892,-0.08920894,0.28954294,765.9707,794.57874,804.2491,792.5641,753.47986,-0.04486083984375,0.068115234375,0.98736572265625,2.7813720703125,-2.250518798828125,1.577606201171875,1.0,1.0,1.0,1.0,1.0,85.0,event
09:16:56.595,0.9193356,0.7805801,0.6452235,0.9246507,0.25445223,0.7025522,0.45830083,0.22685397,0.29473695,0.062038466,0.30731043,0.2908747,0.48356643,-0.046524815,0.09907656,0.5000475,0.35514748,-0.22771892,-0.08920894,0.28954294,761.13556,797.3993,811.50183,788.5348,676.9231,-0.03643798828125,0.0726318359375,0.98992919921875,2.9010009765625,-3.581390380859375,1.084136962890625,1.0,1.0,1.0,1.0,1.0,85.0,event
09:16:56.596,0.9193356,0.7805801,0.6452235,0.9246507,0.25445223,0.7025522,0.45830083,0.22685397,0.29473695,0.062038466,0.30731043,0.2908747,0.48356643,-0.046524815,0.09907656,0.5000475,0.35514748,-0.22771892,-0.08920894,0.28954294,753.0769,794.57874,807.47253,786.1172,799.011,-0.03643798828125,0.0726318359375,0.98992919921875,2.9010009765625,-3.581390380859375,1.084136962890625,1.0,1.0,1.0,1.0,1.0,85.0,event
09:16:56.597,0.9193356,0.7805801,0.6452235,0.9246507,0.25445223,0.7025522,0.45830083,0.22685397,0.29473695,0.062038466,0.30731043,0.2908747,0.48356643,-0.046524815,0.09907656,0.5000475,0.35514748,-0.22771892,-0.08920894,0.28954294,767.98535,796.99634,804.65204,807.0696,764.7619,-0.03643798828125,0.0726318359375,0.98992919921875,2.9010009765625,-3.581390380859375,1.084136962890625,1.0,1.0,1.0,1.0,1.0,85.0,event
09:16:56.598,0.9193356,0.7805801,0.6452235,0.9246507,0.25445223,0.7025522,0.45830083,0.22685397,0.29473695,0.062038466,0.30731043,0.2908747,0.48356643,-0.046524815,0.09907656,0.5000475,0.35514748,-0.22771892,-0.08920894,0.28954294,777.25275,801.02563,803.8461,809.0842,710.7692,-0.03643798828125,0.0726318359375,0.98992919921875,2.9010009765625,-3.581390380859375,1.084136962890625,1.0,1.0,1.0,1.0,1.0,85.0,event
09:16:56.600,0.9193356,0.7805801,0.6452235,0.9246507,0.25445223,0.7025522,0.45830083,0.22685397,0.29473695,0.062038466,0.30731043,0.2908747,0.48356643,-0.046524815,0.09907656,0.5000475,0.35514748,-0.22771892,-0.08920894,0.28954294,768.7912,798.60803,808.2784,792.96704,697.8755,-0.03643798828125,0.0726318359375,0.98992919921875,2.9010009765625,-3.581390380859375,1.084136962890625,1.0,1.0,1.0,1.0,1.0,85.0,event
09:16:56.600,0.9193356,0.7805801,0.6452235,0.9246507,0.25445223,0.7025522,0.45830083,0.22685397,0.29473695,0.062038466,0.30731043,0.2908747,0.48356643,-0.046524815,0.09907656,0.5000475,0.35514748,-0.22771892,-0.08920894,0.28954294,763.1502,793.7729,814.7253,786.52014,841.7216,-0.03643798828125,0.0726318359375,0.98992919921875,2.9010009765625,-3.581390380859375,1.084136962890625,1.0,1.0,1.0,1.0,1.0,85.0,event
09:16:56.601,0.9193356,0.7805801,0.6452235,0.9246507,0.25445223,0.7025522,0.45830083,0.22685397,0.29473695,0.062038466,0.30731043,0.2908747,0.48356643,-0.046524815,0.09907656,0.5000475,0.35514748,-0.22771892,-0.08920894,0.28954294,769.59705,794.17584,814.3223,789.34064,887.25275,-0.03643798828125,0.0726318359375,0.98992919921875,2.9010009765625,-3.581390380859375,1.084136962890625,1.0,1.0,1.0,1.0,1.0,85.0,event
09:16:56.602,0.9193356,0.7805801,0.6452235,0.9246507,0.25445223,0.7025522,0.45830083,0.22685397,0.29473695,0.062038466,0.30731043,0.2908747,0.48356643,-0.046524815,0.09907656,0.5000475,0.35514748,-0.22771892,-0.08920894,0.28954294,768.3883,797.3993,807.8755,789.7436,718.4249,-0.03643798828125,0.0726318359375,0.98992919921875,2.9010009765625,-3.581390380859375,1.084136962890625,1.0,1.0,1.0,1.0,1.0,85.0,event
09:16:56.602,0.9193356,0.7805801,0.6452235,0.9246507,0.25445223,0.7025522,0.45830083,0.22685397,0.29473695,0.062038466,0.30731043,0.2908747,0.48356643,-0.046524815,0.09907656,0.5000475,0.35514748,-0.22771892,-0.08920894,0.28954294,759.92676,795.78754,809.4872,776.04395,670.07324,-0.03643798828125,0.0726318359375,0.98992919921875,2.9010009765625,-3.581390380859375,1.084136962890625,1.0,1.0,1.0,1.0,1.0,85.0,event
09:16:56.603,0.9193356,0.7805801,0.6452235,0.9246507,0.25445223,0.7025522,0.45830083,0.22685397,0.29473695,0.062038466,0.30731043,0.2908747,0.48356643,-0.046524815,0.09907656,0.5000475,0.35514748,-0.22771892,-0.08920894,0.28954294,757.9121,801.4286,813.91943,788.5348,904.17584,-0.03643798828125,0.0726318359375,0.98992919921875,2.9010009765625,-3.581390380859375,1.084136962890625,1.0,1.0,1.0,1.0,1.0,85.0,event
09:16:56.604,0.9193356,0.7805801,0.6452235,0.9246507,0.25445223,0.7025522,0.45830083,0.22685397,0.29473695,0.062038466,0.30731043,0.2908747,0.48356643,-0.046524815,0.09907656,0.5000475,0.35514748,-0.22771892,-0.08920894,0.28954294,767.5824,805.8608,818.7546,796.1905,1122.967,-0.03643798828125,0.0726318359375,0.98992919921875,2.9010009765625,-3.581390380859375,1.084136962890625,1.0,1.0,1.0,1.0,1.0,85.0,event
09:16:56.604,0.9193356,0.7805801,0.6452235,0.9246507,0.25445223,0.7025522,0.45830083,0.22685397,0.29473695,0.062038466,0.30731043,0.2908747,0.48356643,-0.046524815,0.09907656,0.5000475,0.35514748,-0.22771892,-0.08920894,0.28954294,767.98535,802.6374,818.7546,788.93774,839.707,-0.03643798828125,0.0726318359375,0.98992919921875,2.9010009765625,-3.581390380859375,1.084136962890625,1.0,1.0,1.0,1.0,1.0,85.0,event
09:16:56.676,0.9193356,0.7805801,0.6452235,0.9246507,0.25445223,0.7025522,0.45830083,0.22685397,0.29473695,0.062038466,0.30731043,0.2908747,0.48356643,-0.046524815,0.09907656,0.5000475,0.35514748,-0.22771892,-0.08920894,0.28954294,754.68866,796.5934,810.293,789.34064,700.293,-0.0487060546875,0.07281494140625,0.9818115234375,1.981353759765625,-2.444915771484375,1.57012939453125,1.0,1.0,1.0,1.0,1.0,85.0,event
09:16:56.677,0.9193356,0.7805801,0.6452235,0.9246507,0.25445223,0.7025522,0.45830083,0.22685397,0.29473695,0.062038466,0.30731043,0.2908747,0.48356643,-0.046524815,0.09907656,0.5000475,0.35514748,-0.22771892,-0.08920894,0.28954294,748.24176,797.3993,808.68134,784.90845,822.381,-0.0487060546875,0.07281494140625,0.9818115234375,1.981353759765625,-2.444915771484375,1.57012939453125,1.0,1.0,1.0,1.0,1.0,85.0,event
09:16:56.677,0.9193356,0.7805801,0.6452235,0.9246507,0.25445223,0.7025522,0.45830083,0.22685397,0.29473695,0.062038466,0.30731043,0.2908747,0.48356643,-0.046524815,0.09907656,0.5000475,0.35514748,-0.22771892,-0.08920894,0.28954294,753.0769,802.6374,811.0989,788.5348,752.27106,-0.0487060546875,0.07281494140625,0.9818115234375,1.981353759765625,-2.444915771484375,1.57012939453125,1.0,1.0,1.0,1.0,1.0,85.0,event
09:16:56.678,0.9193356,0.7805801,0.6452235,0.9246507,0.25445223,0.7025522,0.45830083,0.22685397,0.29473695,0.062038466,0.30731043,0.2908747,0.48356643,-0.046524815,0.09907656,0.5000475,0.35514748,-0.22771892,-0.08920894,0.28954294,748.6447,800.6227,808.2784,783.2967,667.25275,-0.0487060546875,0.07281494140625,0.9818115234375,1.981353759765625,-2.444915771484375,1.57012939453125,1.0,1.0,1.0,1.0,1.0,85.0,event
09:16:56.679,0.9193356,0.7805801,0.6452235,0.9246507,0.25445223,0.7025522,0.45830083,0.22685397,0.29473695,0.062038466,0.30731043,0.2908747,0.48356643,-0.046524815,0.09907656,0.5000475,0.35514748,-0.22771892,-0.08920894,0.28954294,747.8388,800.2198,805.8608,784.10254,739.7802,-0.0487060546875,0.07281494140625,0.9818115234375,1.981353759765625,-2.444915771484375,1.57012939453125,1.0,1.0,1.0,1.0,1.0,85.0,event
09:16:56.679,0.9193356,0.7805801,0.6452235,0.9246507,0.25445223,0.7025522,0.45830083,0.22685397,0.29473695,0.062038466,0.30731043,0.2908747,0.48356643,-0.046524815,0.09907656,0.5000475,0.35514748,-0.22771892,-0.08920894,0.28954294,754.68866,803.0403,814.7253,778.86444,739.7802,-0.0487060546875,0.07281494140625,0.9818115234375,1.981353759765625,-2.444915771484375,1.57012939453125,1.0,1.0,1.0,1.0,1.0,85.0,event
09:16:56.680,0.9193356,0.7805801,0.6452235,0.9246507,0.25445223,0.7025522,0.45830083,0.22685397,0.29473695,0.062038466,0.30731043,0.2908747,0.48356643,-0.046524815,0.09907656,0.5000475,0.35514748,-0.22771892,-0.08920894,0.28954294,747.03296,803.44324,819.5604,763.5531,921.50183,-0.0487060546875,0.07281494140625,0.9818115234375,1.981353759765625,-2.444915771484375,1.57012939453125,1.0,1.0,1.0,1.0,1.0,85.0,event
09:16:56.681,0.9193356,0.7437523,0.6282613,0.9246507,0.25445223,0.662834,0.42880702,0.22685397,0.29473695,0.07498941,0.30731043,0.2908747,0.48356643,-0.046453316,0.08993128,0.5000475,0.35514748,-0.23056214,-0.1013736,0.28954294,739.3773,803.44324,809.0842,763.1502,967.4359,-0.0487060546875,0.07281494140625,0.9818115234375,1.981353759765625,-2.444915771484375,1.57012939453125,1.0,2.0,1.0,1.0,2.0,85.0,event
09:16:56.685,0.9193356,0.7437523,0.6282613,0.9246507,0.25445223,0.662834,0.42880702,0.22685397,0.29473695,0.07498941,0.30731043,0.2908747,0.48356643,-0.046453316,0.08993128,0.5000475,0.35514748,-0.23056214,-0.1013736,0.28954294,737.76556,805.4579,809.0842,755.89746,763.95605,-0.0487060546875,0.07281494140625,0.9818115234375,1.981353759765625,-2.444915771484375,1.57012939453125,1.0,2.0,1.0,1.0,2.0,85.0,event
09:16:56.686,0.9193356,0.7437523,0.6282613,0.9246507,0.25445223,0.662834,0.42880702,0.22685397,0.29473695,0.07498941,0.30731043,0.2908747,0.48356643,-0.046453316,0.08993128,0.5000475,0.35514748,-0.23056214,-0.1013736,0.28954294,735.7509,806.26373,814.3223,757.9121,794.57874,-0.0487060546875,0.07281494140625,0.9818115234375,1.981353759765625,-2.444915771484375,1.57012939453125,1.0,2.0,1.0,1.0,2.0,85.0,event
09:16:56.686,0.9193356,0.7437523,0.6282613,0.9246507,0.25445223,0.662834,0.42880702,0.22685397,0.29473695,0.07498941,0.30731043,0.2908747,0.48356643,-0.046453316,0.08993128,0.5000475,0.35514748,-0.23056214,-0.1013736,0.28954294,727.28937,805.8608,807.47253,763.95605,851.39197,-0.0487060546875,0.07281494140625,0.9818115234375,1.981353759765625,-2.444915771484375,1.57012939453125,1.0,2.0,1.0,1.0,2.0,85.0,event
09:16:56.687,0.9193356,0.7437523,0.6282613,0.9246507,0.25445223,0.662834,0.42880702,0.22685397,0.29473695,0.07498941,0.30731043,0.2908747,0.48356643,-0.046453316,0.08993128,0.5000475,0.35514748,-0.23056214,-0.1013736,0.28954294,709.15753,809.0842,801.02563,741.39197,763.1502,-0.0487060546875,0.07281494140625,0.9818115234375,1.981353759765625,-2.444915771484375,1.57012939453125,1.0,2.0,1.0,1.0,2.0,85.0,event
09:16:56.715,0.9193356,0.7437523,0.6282613,0.9246507,0.25445223,0.662834,0.42880702,0.22685397,0.29473695,0.07498941,0.30731043,0.2908747,0.48356643,-0.046453316,0.08993128,0.5000475,0.35514748,-0.23056214,-0.1013736,0.28954294,696.6667,814.3223,804.65204,716.4103,658.3883,-0.050537109375,0.06878662109375,0.9912109375,1.981353759765625,-3.48419189453125,0.777587890625,1.0,2.0,1.0,1.0,2.0,85.0,event
09:16:56.716,0.9193356,0.7437523,0.6282613,0.9246507,0.25445223,0.662834,0.42880702,0.22685397,0.29473695,0.07498941,0.30731043,0.2908747,0.48356643,-0.046453316,0.08993128,0.5000475,0.35514748,-0.23056214,-0.1013736,0.28954294,684.57874,818.3516,804.65204,704.7253,705.9341,-0.050537109375,0.06878662109375,0.9912109375,1.981353759765625,-3.48419189453125,0.777587890625,1.0,2.0,1.0,1.0,2.0,85.0,event
09:16:56.717,0.9193356,0.7437523,0.6282613,0.9246507,0.25445223,0.662834,0.42880702,0.22685397,0.29473695,0.07498941,0.30731043,0.2908747,0.48356643,-0.046453316,0.08993128,0.5000475,0.35514748,-0.23056214,-0.1013736,0.28954294,664.43225,820.3663,799.81683,691.8315,842.9304,-0.050537109375,0.06878662109375,0.9912109375,1.981353759765625,-3.48419189453125,0.777587890625,1.0,2.0,1.0,1.0,2.0,85.0,event
09:16:56.717,0.9193356,0.7437523,0.6282613,0.9246507,0.25445223,0.662834,0.42880702,0.22685397,0.29473695,0.07498941,0.30731043,0.2908747,0.48356643,-0.046453316,0.08993128,0.5000475,0.35514748,-0.23056214,-0.1013736,0.28954294,650.32965,824.3956,805.8608,681.75824,865.09155,-0.050537109375,0.06878662109375,0.9912109375,1.981353759765625,-3.48419189453125,0.777587890625,1.0,2.0,1.0,1.0,2.0,85.0,event
09:16:56.718,0.9193356,0.7437523,0.6282613,0.9246507,0.25445223,0.662834,0.42880702,0.22685397,0.29473695,0.07498941,0.30731043,0.2908747,0.48356643,-0.046453316,0.08993128,0.5000475,0.35514748,-0.23056214,-0.1013736,0.28954294,640.65936,824.3956,805.8608,666.04395,765.16486,-0.050537109375,0.06878662109375,0.9912109375,1.981353759765625,-3.48419189453125,0.777587890625,1.0,2.0,1.0,1.0,2.0,85.0,event
09:16:56.719,0.9193356,0.7437523,0.6282613,0.9246507,0.25445223,0.662834,0.42880702,0.22685397,0.29473695,0.07498941,0.30731043,0.2908747,0.48356643,-0.046453316,0.08993128,0.5000475,0.35514748,-0.23056214,-0.1013736,0.28954294,633.4066,823.5897,799.41394,656.3736,792.96704,-0.050537109375,0.06878662109375,0.9912109375,1.981353759765625,-3.48419189453125,0.777587890625,1.0,2.0,1.0,1.0,2.0,85.0,event
09:16:56.719,0.9193356,0.7437523,0.6282613,0.9246507,0.25445223,0.662834,0.42880702,0.22685397,0.29473695,0.07498941,0.30731043,0.2908747,0.48356643,-0.046453316,0.08993128,0.5000475,0.35514748,-0.23056214,-0.1013736,0.28954294,630.18317,819.15753,805.4579,652.3443,855.82416,-0.050537109375,0.06878662109375,0.9912109375,1.981353759765625,-3.48419189453125,0.777587890625,1.0,2.0,1.0,1.0,2.0,85.0,event
09:16:56.720,0.9193356,0.7437523,0.6282613,0.9246507,0.25445223,0.662834,0.42880702,0.22685397,0.29473695,0.07498941,0.30731043,0.2908747,0.48356643,-0.046453316,0.08993128,0.5000475,0.35514748,-0.23056214,-0.1013736,0.28954294,628.5714,817.1429,811.50183,649.5238,777.25275,-0.050537109375,0.06878662109375,0.9912109375,1.981353759765625,-3.48419189453125,0.777587890625,1.0,2.0,1.0,1.0,2.0,85.0,event
09:16:56.721,0.9193356,0.7437523,0.6282613,0.9246507,0.25445223,0.662834,0.42880702,0.22685397,0.29473695,0.07498941,0.30731043,0.2908747,0.48356643,-0.046453316,0.08993128,0.5000475,0.35514748,-0.23056214,-0.1013736,0.28954294,628.5714,820.7692,809.0842,665.64105,697.8755,-0.050537109375,0.06878662109375,0.9912109375,1.981353759765625,-3.48419189453125,0.777587890625,1.0,2.0,1.0,1.0,2.0,85.0,event
09:16:56.722,0.9193356,0.7437523,0.6282613,0.9246507,0.25445223,0.662834,0.42880702,0.22685397,0.29473695,0.07498941,0.30731043,0.2908747,0.48356643,-0.046453316,0.08993128,0.5000475,0.35514748,-0.23056214,-0.1013736,0.28954294,647.50916,821.1722,811.9048,680.14655,789.34064,-0.050537109375,0.06878662109375,0.9912109375,1.981353759765625,-3.48419189453125,0.777587890625,1.0,2.0,1.0,1.0,2.0,85.0,event
09:16:56.722,0.9193356,0.7437523,0.6282613,0.9246507,0.25445223,0.662834,0.42880702,0.22685397,0.29473695,0.07498941,0.30731043,0.2908747,0.48356643,-0.046453316,0.08993128,0.5000475,0.35514748,-0.23056214,-0.1013736,0.28954294,652.3443,815.5311,813.91943,686.1905,970.65936,-0.050537109375,0.06878662109375,0.9912109375,1.981353759765625,-3.48419189453125,0.777587890625,1.0,2.0,1.0,1.0,2.0,85.0,event
09:16:56.723,0.9193356,0.7437523,0.6282613,0.9246507,0.25445223,0.662834,0.42880702,0.22685397,0.29473695,0.07498941,0.30731043,0.2908747,0.48356643,-0.046453316,0.08993128,0.5000475,0.35514748,-0.23056214,-0.1013736,0.28954294,664.83514,814.3223,813.1135,697.0696,829.6337,-0.050537109375,0.06878662109375,0.9912109375,1.981353759765625,-3.48419189453125,0.777587890625,1.0,2.0,1.0,1.0,2.0,85.0,event
09:16:56.752,0.9193356,0.7437523,0.6282613,0.9246507,0.25445223,0.662834,0.42880702,0.22685397,0.29473695,0.07498941,0.30731043,0.2908747,0.48356643,-0.046453316,0.08993128,0.5000475,0.35514748,-0.23056214,-0.1013736,0.28954294,693.0403,814.3223,813.91943,728.9011,695.8608,-0.03521728515625,0.07110595703125,0.97845458984375,2.332763671875,-3.96270751953125,0.6878662109375,1.0,2.0,1.0,1.0,2.0,85.0,event
09:16:56.754,0.9193356,0.7437523,0.6282613,0.9246507,0.25445223,0.662834,0.42880702,0.22685397,0.29473695,0.07498941,0.30731043,0.2908747,0.48356643,-0.046453316,0.08993128,0.5000475,0.35514748,-0.23056214,-0.1013736,0.28954294,714.7985,812.3077,813.1135,746.2271,847.76556,-0.03521728515625,0.07110595703125,0.97845458984375,2.332763671875,-3.96270751953125,0.6878662109375,1.0,2.0,1.0,1.0,2.0,85.0,event
09:16:56.754,0.9193356,0.7437523,0.6282613,0.9246507,0.25445223,0.662834,0.42880702,0.22685397,0.29473695,0.07498941,0.30731043,0.2908747,0.48356643,-0.046453316,0.08993128,0.5000475,0.35514748,-0.23056214,-0.1013736,0.28954294,724.0659,812.71063,811.0989,745.0183,887.6557,-0.03521728515625,0.07110595703125,0.97845458984375,2.332763671875,-3.96270751953125,0.6878662109375,1.0,2.0,1.0,1.0,2.0,85.0,event
09:16:56.755,0.9193356,0.7437523,0.6282613,0.9246507,0.25445223,0.662834,0.42880702,0.22685397,0.29473695,0.07498941,0.30731043,0.2908747,0.48356643,-0.046453316,0.08993128,0.5000475,0.35514748,-0.23056214,-0.1013736,0.28954294,722.4542,803.8461,812.71063,746.63007,727.6923,-0.03521728515625,0.07110595703125,0.97845458984375,2.332763671875,-3.96270751953125,0.6878662109375,1.0,2.0,1.0,1.0,2.0,85.0,event
09:16:56.756,0.9193356,0.7437523,0.6282613,0.9246507,0.25445223,0.662834,0.42880702,0.22685397,0.29473695,0.07498941,0.30731043,0.2908747,0.48356643,-0.046453316,0.08993128,0.5000475,0.35514748,-0.23056214,-0.1013736,0.28954294,738.5714,805.4579,813.1135,757.9121,674.5055,-0.03521728515625,0.07110595703125,0.97845458984375,2.332763671875,-3.96270751953125,0.6878662109375,1.0,2.0,1.0,1.0,2.0,85.0,event
09:16:56.757,0.9193356,0.7437523,0.6282613,0.9246507,0.25445223,0.662834,0.42880702,0.22685397,0.29473695,0.07498941,0.30731043,0.2908747,0.48356643,-0.046453316,0.08993128,0.5000475,0.35514748,-0.23056214,-0.1013736,0.28954294,748.6447,815.12823,813.1135,780.87915,827.619,-0.03521728515625,0.07110595703125,0.97845458984375,2.332763671875,-3.96270751953125,0.6878662109375,1.0,2.0,1.0,1.0,2.0,85.0,event
09:16:56.758,0.9193356,0.7437523,0.6282613,0.9246507,0.25445223,0.662834,0.42880702,0.22685397,0.29473695,0.07498941,0.30731043,0.2908747,0.48356643,-0.046453316,0.08993128,0.5000475,0.35514748,-0.23056214,-0.1013736,0.28954294,758.315,807.8755,811.0989,794.57874,954.1392,-0.03521728515625,0.07110595703125,0.97845458984375,2.332763671875,-3.96270751953125,0.6878662109375,1.0,2.0,1.0,1.0,2.0,85.0,event
09:16:56.759,0.9193356,0.7437523,0.6282613,0.9246507,0.25445223,0.662834,0.42880702,0.22685397,0.29473695,0.07498941,0.30731043,0.2908747,0.48356643,-0.046453316,0.08993128,0.5000475,0.35514748,-0.23056214,-0.1013736,0.28954294,767.5824,805.8608,807.8755,792.1612,763.95605,-0.03521728515625,0.07110595703125,0.97845458984375,2.332763671875,-3.96270751953125,0.6878662109375,1.0,2.0,1.0,1.0,2.0,85.0,event
09:16:56.760,0.9193356,0.7437523,0.6282613,0.9246507,0.25445223,0.662834,0.42880702,0.22685397,0.29473695,0.07498941,0.30731043,0.2908747,0.48356643,-0.046453316,0.08993128,0.5000475,0.35514748,-0.23056214,-0.1013736,0.28954294,773.6264,808.68134,807.0696,787.72894,645.89746,-0.03521728515625,0.07110595703125,0.97845458984375,2.332763671875,-3.96270751953125,0.6878662109375,1.0,2.0,1.0,1.0,2.0,85.0,event
09:16:56.760,0.9193356,0.7132176,0.6068404,0.9246507,0.25445223,0.6250436,0.40107,0.22685397,0.29473695,0.08821958,0.31315732,0.2908747,0.48356643,-0.039766226,0.08166159,0.5000475,0.35514748,-0.23427731,-0.10808865,0.28954294,778.86444,803.0403,807.0696,794.17584,821.1722,-0.03521728515625,0.07110595703125,0.97845458984375,2.332763671875,-3.96270751953125,0.6878662109375,1.0,2.0,1.0,1.0,2.0,85.0,event
09:16:56.764,0.9193356,0.7132176,0.6068404,0.9246507,0.25445223,0.6250436,0.40107,0.22685397,0.29473695,0.08821958,0.31315732,0.2908747,0.48356643,-0.039766226,0.08166159,0.5000475,0.35514748,-0.23427731,-0.10808865,0.28954294,790.14655,803.8461,809.4872,818.3516,902.96704,-0.03521728515625,0.07110595703125,0.97845458984375,2.332763671875,-3.96270751953125,0.6878662109375,1.0,2.0,1.0,1.0,2.0,85.0,event
09:16:56.768,0.9193356,0.7132176,0.6068404,0.9246507,0.25445223,0.6250436,0.40107,0.22685397,0.29473695,0.08821958,0.31315732,0.2908747,0.48356643,-0.039766226,0.08166159,0.5000475,0.35514748,-0.23427731,-0.10808865,0.28954294,799.81683,808.2784,809.4872,829.6337,795.38464,-0.03521728515625,0.07110595703125,0.97845458984375,2.332763671875,-3.96270751953125,0.6878662109375,1.0,2.0,1.0,1.0,2.0,85.0,event
09:16:56.819,0.9193356,0.7132176,0.6068404,0.9246507,0.25445223,0.6250436,0.40107,0.22685397,0.29473695,0.08821958,0.31315732,0.2908747,0.48356643,-0.039766226,0.08166159,0.5000475,0.35514748,-0.23427731,-0.10808865,0.28954294,793.7729,803.8461,811.0989,819.9634,776.4469,-0.03521728515625,0.07110595703125,0.97845458984375,2.332763671875,-3.96270751953125,0.6878662109375,1.0,2.0,1.0,1.0,2.0,85.0,event
09:16:56.820,0.9193356,0.7132176,0.6068404,0.9246507,0.25445223,0.6250436,0.40107,0.22685397,0.29473695,0.08821958,0.31315732,0.2908747,0.48356643,-0.039766226,0.08166159,0.5000475,0.35514748,-0.23427731,-0.10808865,0.28954294,795.38464,798.20514,816.337,816.7399,749.45056,-0.03521728515625,0.07110595703125,0.97845458984375,2.332763671875,-3.96270751953125,0.6878662109375,1.0,2.0,1.0,1.0,2.0,85.0,event
09:16:56.821,0.9193356,0.7132176,0.6068404,0.9246507,0.25445223,0.6250436,0.40107,0.22685397,0.29473695,0.08821958,0.31315732,0.2908747,0.48356643,-0.039766226,0.08166159,0.5000475,0.35514748,-0.23427731,-0.10808865,0.28954294,794.17584,804.2491,815.5311,815.9341,718.8278,-0.03521728515625,0.07110595703125,0.97845458984375,2.332763671875,-3.96270751953125,0.6878662109375,1.0,2.0,1.0,1.0,2.0,85.0,event
09:16:56.821,0.9193356,0.7132176,0.6068404,0.9246507,0.25445223,0.6250436,0.40107,0.22685397,0.29473695,0.08821958,0.31315732,0.2908747,0.48356643,-0.039766226,0.08166159,0.5000475,0.35514748,-0.23427731,-0.10808865,0.28954294,804.2491,809.4872,806.6667,818.7546,712.381,-0.03521728515625,0.07110595703125,0.97845458984375,2.332763671875,-3.96270751953125,0.6878662109375,1.0,2.0,1.0,1.0,2.0,85.0,event
09:16:56.822,0.9193356,0.7132176,0.6068404,0.9246507,0.25445223,0.6250436,0.40107,0.22685397,0.29473695,0.08821958,0.31315732,0.2908747,0.48356643,-0.039766226,0.08166159,0.5000475,0.35514748,-0.23427731,-0.10808865,0.28954294,813.5165,802.6374,807.47253,842.9304,763.1502,-0.03521728515625,0.07110595703125,0.97845458984375,2.332763671875,-3.96270751953125,0.6878662109375,1.0,2.0,1.0,1.0,2.0,85.0,event
09:16:56.822,0.9193356,0.7132176,0.6068404,0.9246507,0.25445223,0.6250436,0.40107,0.22685397,0.29473695,0.08821958,0.31315732,0.2908747,0.48356643,-0.039766226,0.08166159,0.5000475,0.35514748,-0.23427731,-0.10808865,0.28954294,805.8608,798.20514,811.9048,843.73627,921.50183,-0.03521728515625,0.07110595703125,0.97845458984375,2.332763671875,-3.96270751953125,0.6878662109375,1.0,2.0,1.0,1.0,2.0,85.0,event
09:16:56.823,0.9193356,0.7132176,0.6068404,0.9246507,0.25445223,0.6250436,0.40107,0.22685397,0.29473695,0.08821958,0.31315732,0.2908747,0.48356643,-0.039766226,0.08166159,0.5000475,0.35514748,-0.23427731,-0.10808865,0.28954294,799.41394,797.8022,803.0403,823.9927,942.4542,-0.03521728515625,0.07110595703125,0.97845458984375,2.332763671875,-3.96270751953125,0.6878662109375,1.0,2.0,1.0,1.0,2.0,85.0,event
09:16:56.824,0.9193356,0.7132176,0.6068404,0.9246507,0.25445223,0.6250436,0.40107,0.22685397,0.29473695,0.08821958,0.31315732,0.2908747,0.48356643,-0.039766226,0.08166159,0.5000475,0.35514748,-0.23427731,-0.10808865,0.28954294,793.7729,792.5641,809.0842,811.50183,770.40295,-0.03521728515625,0.07110595703125,0.97845458984375,2.332763671875,-3.96270751953125,0.6878662109375,1.0,2.0,1.0,1.0,2.0,85.0,event
09:16:56.824,0.9193356,0.7132176,0.6068404,0.9246507,0.25445223,0.6250436,0.40107,0.22685397,0.29473695,0.08821958,0.31315732,0.2908747,0.48356643,-0.039766226,0.08166159,0.5000475,0.35514748,-0.23427731,-0.10808865,0.28954294,801.4286,795.38464,816.337,827.2161,745.82416,-0.03521728515625,0.07110595703125,0.97845458984375,2.332763671875,-3.96270751953125,0.6878662109375,1.0,2.0,1.0,1.0,2.0,85.0,event
09:16:56.825,0.9193356,0.7132176,0.6068404,0.9246507,0.25445223,0.6250436,0.40107,0.22685397,0.29473695,0.08821958,0.31315732,0.2908747,0.48356643,-0.039766226,0.08166159,0.5000475,0.35514748,-0.23427731,-0.10808865,0.28954294,797.8022,795.38464,810.696,836.4835,946.8865,-0.03521728515625,0.07110595703125,0.97845458984375,2.332763671875,-3.96270751953125,0.6878662109375,1.0,2.0,1.0,1.0,2.0,85.0,event
09:16:56.825,0.9193356,0.7132176,0.6068404,0.9246507,0.25445223,0.6250436,0.40107,0.22685397,0.29473695,0.08821958,0.31315732,0.2908747,0.48356643,-0.039766226,0.08166159,0.5000475,0.35514748,-0.23427731,-0.10808865,0.28954294,799.41394,799.81683,815.9341,848.97437,1027.0696,-0.03521728515625,0.07110595703125,0.97845458984375,2.332763671875,-3.96270751953125,0.6878662109375,1.0,2.0,1.0,1.0,2.0,85.0,event
09:16:56.826,0.9193356,0.7132176,0.6068404,0.9246507,0.25445223,0.6250436,0.40107,0.22685397,0.29473695,0.08821958,0.31315732,0.2908747,0.48356643,-0.039766226,0.08166159,0.5000475,0.35514748,-0.23427731,-0.10808865,0.28954294,799.011,794.9817,802.23444,803.8461,759.92676,-0.03521728515625,0.07110595703125,0.97845458984375,2.332763671875,-3.96270751953125,0.6878662109375,1.0,2.0,1.0,1.0,2.0,85.0,event
09:16:56.853,0.9193356,0.7132176,0.6068404,0.9246507,0.25445223,0.6250436,0.40107,0.22685397,0.29473695,0.08821958,0.31315732,0.2908747,0.48356643,-0.039766226,0.08166159,0.5000475,0.35514748,-0.23427731,-0.10808865,0.28954294,785.7143,795.38464,804.65204,805.8608,821.978,-0.0399169921875,0.06781005859375,0.9884033203125,2.011260986328125,-4.246826171875,0.25421142578125,1.0,2.0,1.0,1.0,2.0,85.0,event
09:16:56.854,0.9193356,0.7132176,0.6068404,0.9246507,0.25445223,0.6250436,0.40107,0.22685397,0.29473695,0.08821958,0.31315732,0.2908747,0.48356643,-0.039766226,0.08166159,0.5000475,0.35514748,-0.23427731,-0.10808865,0.28954294,784.10254,793.7729,811.9048,813.5165,834.0659,-0.0399169921875,0.06781005859375,0.9884033203125,2.011260986328125,-4.246826171875,0.25421142578125,1.0,2.0,1.0,1.0,2.0,85.0,event
09:16:56.855,0.9193356,0.7132176,0.6068404,0.9246507,0.25445223,0.6250436,0.40107,0.22685397,0.29473695,0.08821958,0.31315732,0.2908747,0.48356643,-0.039766226,0.08166159,0.5000475,0.35514748,-0.23427731,-0.10808865,0.28954294,790.54944,794.57874,811.50183,815.12823,809.0842,-0.0399169921875,0.06781005859375,0.9884033203125,2.011260986328125,-4.246826171875,0.25421142578125,1.0,2.0,1.0,1.0,2.0,85.0,event
09:16:56.855,0.9193356,0.7132176,0.6068404,0.9246507,0.25445223,0.6250436,0.40107,0.22685397,0.29473695,0.08821958,0.31315732,0.2908747,0.48356643,-0.039766226,0.08166159,0.5000475,0.35514748,-0.23427731,-0.10808865,0.28954294,791.3553,793.36993,807.8755,810.293,774.0293,-0.0399169921875,0.06781005859375,0.9884033203125,2.011260986328125,-4.246826171875,0.25421142578125,1.0,2.0,1.0,1.0,2.0,85.0,event
09:16:56.856,0.9193356,0.7132176,0.6068404,0.9246507,0.25445223,0.6250436,0.40107,0.22685397,0.29473695,0.08821958,0.31315732,0.2908747,0.48356643,-0.039766226,0.08166159,0.5000475,0.35514748,-0.23427731,-0.10808865,0.28954294,783.69965,790.54944,808.2784,803.0403,784.90845,-0.0399169921875,0.06781005859375,0.9884033203125,2.011260986328125,-4.246826171875,0.25421142578125,1.0,2.0,1.0,1.0,2.0,85.0,event
09:16:56.857,0.9193356,0.7132176,0.6068404,0.9246507,0.25445223,0.6250436,0.40107,0.22685397,0.29473695,0.08821958,0.31315732,0.2908747,0.48356643,-0.039766226,0.08166159,0.5000475,0.35514748,-0.23427731,-0.10808865,0.28954294,790.9524,788.1319,807.0696,805.8608,875.56775,-0.0399169921875,0.06781005859375,0.9884033203125,2.011260986328125,-4.246826171875,0.25421142578125,1.0,2.0,1.0,1.0,2.0,85.0,event
09:16:56.857,0.9193356,0.7132176,0.6068404,0.9246507,0.25445223,0.6250436,0.40107,0.22685397,0.29473695,0.08821958,0.31315732,0.2908747,0.48356643,-0.039766226,0.08166159,0.5000475,0.35514748,-0.23427731,-0.10808865,0.28954294,798.60803,788.1319,808.68134,804.2491,894.90845,-0.0399169921875,0.06781005859375,0.9884033203125,2.011260986328125,-4.246826171875,0.25421142578125,1.0,2.0,1.0,1.0,2.0,85.0,event
09:16:56.858,0.9193356,0.7132176,0.6068404,0.9246507,0.25445223,0.6250436,0.40107,0.22685397,0.29473695,0.08821958,0.31315732,0.2908747,0.48356643,-0.039766226,0.08166159,0.5000475,0.35514748,-0.23427731,-0.10808865,0.28954294,795.78754,794.17584,809.0842,814.3223,826.8132,-0.0399169921875,0.06781005859375,0.9884033203125,2.011260986328125,-4.246826171875,0.25421142578125,1.0,2.0,1.0,1.0,2.0,85.0,event
09:16:56.858,0.9193356,0.7132176,0.6068404,0.9246507,0.25445223,0.6250436,0.40107,0.22685397,0.29473695,0.08821958,0.31315732,0.2908747,0.48356643,-0.039766226,0.08166159,0.5000475,0.35514748,-0.23427731,-0.10808865,0.28954294,795.38464,798.20514,805.4579,826.0073,995.64105,-0.0399169921875,0.06781005859375,0.9884033203125,2.011260986328125,-4.246826171875,0.25421142578125,1.0,2.0,1.0,1.0,2.0,85.0,event
09:16:56.859,0.9193356,0.7132176,0.6068404,0.9246507,0.25445223,0.6250436,0.40107,0.22685397,0.29473695,0.08821958,0.31315732,0.2908747,0.48356643,-0.039766226,0.08166159,0.5000475,0.35514748,-0.23427731,-0.10808865,0.28954294,795.38464,801.4286,811.0989,822.381,1119.3407,-0.0399169921875,0.06781005859375,0.9884033203125,2.011260986328125,-4.246826171875,0.25421142578125,1.0,2.0,1.0,1.0,2.0,85.0,event
09:16:56.860,0.9193356,0.7132176,0.6068404,0.9246507,0.25445223,0.6250436,0.40107,0.22685397,0.29473695,0.08821958,0.31315732,0.2908747,0.48356643,-0.039766226,0.08166159,0.5000475,0.35514748,-0.23427731,-0.10808865,0.28954294,794.9817,809.0842,815.9341,818.3516,828.022,-0.0399169921875,0.06781005859375,0.9884033203125,2.011260986328125,-4.246826171875,0.25421142578125,1.0,2.0,1.0,1.0,2.0,85.0,event
09:16:56.860,0.9193356,0.6895856,0.58187705,0.9246507,0.25445223,0.5941063,0.37713012,0.22685397,0.29473695,0.09190128,0.3218946,0.2908747,0.48356643,-0.034194823,0.07512182,0.5000475,0.35514748,-0.2392205,-0.11274383,0.28954294,785.7143,799.41394,809.89014,805.05493,673.69965,-0.0399169921875,0.06781005859375,0.9884033203125,2.011260986328125,-4.246826171875,0.25421142578125,1.0,2.0,1.0,1.0,2.0,85.0,event
09:16:56.863,,,,,,,,,,,,,,,,,,,,,,,,,,,,,,,,,,,,,,blink
09:16:56.885,0.9193356,0.6895856,0.58187705,0.9246507,0.25445223,0.5941063,0.37713012,0.22685397,0.29473695,0.09190128,0.3218946,0.2908747,0.48356643,-0.034194823,0.07512182,0.5000475,0.35514748,-0.2392205,-0.11274383,0.28954294,788.1319,793.7729,803.44324,810.696,736.55676,-0.03594970703125,0.0699462890625,0.98358154296875,1.57012939453125,-4.32159423828125,-0.5682373046875,1.0,2.0,1.0,1.0,2.0,85.0,event
09:16:56.886,0.9193356,0.6895856,0.58187705,0.9246507,0.25445223,0.5941063,0.37713012,0.22685397,0.29473695,0.09190128,0.3218946,0.2908747,0.48356643,-0.034194823,0.07512182,0.5000475,0.35514748,-0.2392205,-0.11274383,0.28954294,789.7436,796.99634,813.1135,816.337,734.1392,-0.03594970703125,0.0699462890625,0.98358154296875,1.57012939453125,-4.32159423828125,-0.5682373046875,1.0,2.0,1.0,1.0,2.0,85.0,event
09:16:56.886,0.9193356,0.6895856,0.58187705,0.9246507,0.25445223,0.5941063,0.37713012,0.22685397,0.29473695,0.09190128,0.3218946,0.2908747,0.48356643,-0.034194823,0.07512182,0.5000475,0.35514748,-0.2392205,-0.11274383,0.28954294,788.1319,795.38464,809.4872,822.381,745.82416,-0.03594970703125,0.0699462890625,0.98358154296875,1.57012939453125,-4.32159423828125,-0.5682373046875,1.0,2.0,1.0,1.0,2.0,85.0,event
09:16:56.887,0.9193356,0.6895856,0.58187705,0.9246507,0.25445223,0.5941063,0.37713012,0.22685397,0.29473695,0.09190128,0.3218946,0.2908747,0.48356643,-0.034194823,0.07512182,0.5000475,0.35514748,-0.2392205,-0.11274383,0.28954294,795.78754,801.4286,802.23444,804.65204,778.46155,-0.03594970703125,0.0699462890625,0.98358154296875,1.57012939453125,-4.32159423828125,-0.5682373046875,1.0,2.0,1.0,1.0,2.0,85.0,event
09:16:56.887,0.9193356,0.6895856,0.58187705,0.9246507,0.25445223,0.5941063,0.37713012,0.22685397,0.29473695,0.09190128,0.3218946,0.2908747,0.48356643,-0.034194823,0.07512182,0.5000475,0.35514748,-0.2392205,-0.11274383,0.28954294,784.5055,798.20514,803.0403,795.78754,741.79486,-0.03594970703125,0.0699462890625,0.98358154296875,1.57012939453125,-4.32159423828125,-0.5682373046875,1.0,2.0,1.0,1.0,2.0,85.0,event
09:16:56.888,0.9193356,0.6895856,0.58187705,0.9246507,0.25445223,0.5941063,0.37713012,0.22685397,0.29473695,0.09190128,0.3218946,0.2908747,0.48356643,-0.034194823,0.07512182,0.5000475,0.35514748,-0.2392205,-0.11274383,0.28954294,781.28204,797.8022,808.2784,810.293,743.8095,-0.03594970703125,0.0699462890625,0.98358154296875,1.57012939453125,-4.32159423828125,-0.5682373046875,1.0,2.0,1.0,1.0,2.0,85.0,event
09:16:56.888,0.9193356,0.6895856,0.58187705,0.9246507,0.25445223,0.5941063,0.37713012,0.22685397,0.29473695,0.09190128,0.3218946,0.2908747,0.48356643,-0.034194823,0.07512182,0.5000475,0.35514748,-0.2392205,-0.11274383,0.28954294,783.2967,795.38464,801.4286,819.5604,774.0293,-0.03594970703125,0.0699462890625,0.98358154296875,1.57012939453125,-4.32159423828125,-0.5682373046875,1.0,2.0,1.0,1.0,2.0,85.0,event
09:16:56.889,0.9193356,0.6895856,0.58187705,0.9246507,0.25445223,0.5941063,0.37713012,0.22685397,0.29473695,0.09190128,0.3218946,0.2908747,0.48356643,-0.034194823,0.07512182,0.5000475,0.35514748,-0.2392205,-0.11274383,0.28954294,786.1172,794.17584,801.02563,813.1135,816.7399,-0.03594970703125,0.0699462890625,0.98358154296875,1.57012939453125,-4.32159423828125,-0.5682373046875,1.0,2.0,1.0,1.0,2.0,85.0,event
09:16:56.890,0.9193356,0.6895856,0.58187705,0.9246507,0.25445223,0.5941063,0.37713012,0.22685397,0.29473695,0.09190128,0.3218946,0.2908747,0.48356643,-0.034194823,0.07512182,0.5000475,0.35514748,-0.2392205,-0.11274383,0.28954294,782.0879,797.3993,803.0403,799.81683,928.7546,-0.03594970703125,0.0699462890625,0.98358154296875,1.57012939453125,-4.32159423828125,-0.5682373046875,1.0,2.0,1.0,1.0,2.0,85.0,event
09:16:56.890,0.9193356,0.6895856,0.58187705,0.9246507,0.25445223,0.5941063,0.37713012,0.22685397,0.29473695,0.09190128,0.3218946,0.2908747,0.48356643,-0.034194823,0.07512182,0.5000475,0.35514748,-0.2392205,-0.11274383,0.28954294,783.2967,799.41394,809.4872,796.5934,807.0696,-0.03594970703125,0.0699462890625,0.98358154296875,1.57012939453125,-4.32159423828125,-0.5682373046875,1.0,2.0,1.0,1.0,2.0,85.0,event
09:16:56.891,0.9193356,0.6895856,0.58187705,0.9246507,0.25445223,0.5941063,0.37713012,0.22685397,0.29473695,0.09190128,0.3218946,0.2908747,0.48356643,-0.034194823,0.07512182,0.5000475,0.35514748,-0.2392205,-0.11274383,0.28954294,788.93774,794.17584,813.5165,811.9048,724.87177,-0.03594970703125,0.0699462890625,0.98358154296875,1.57012939453125,-4.32159423828125,-0.5682373046875,1.0,2.0,1.0,1.0,2.0,85.0,event
09:16:56.891,0.9193356,0.6895856,0.58187705,0.9246507,0.25445223,0.5941063,0.37713012,0.22685397,0.29473695,0.09190128,0.3218946,0.2908747,0.48356643,-0.034194823,0.07512182,0.5000475,0.35514748,-0.2392205,-0.11274383,0.28954294,783.2967,792.5641,806.6667,821.978,942.4542,-0.03594970703125,0.0699462890625,0.98358154296875,1.57012939453125,-4.32159423828125,-0.5682373046875,1.0,2.0,1.0,1.0,2.0,85.0,event
09:16:56.963,0.9193356,0.6895856,0.58187705,0.9246507,0.25445223,0.5941063,0.37713012,0.22685397,0.29473695,0.09190128,0.3218946,0.2908747,0.48356643,-0.034194823,0.07512182,0.5000475,0.35514748,-0.2392205,-0.11274383,0.28954294,782.49084,799.41394,805.05493,809.89014,944.4689,-0.04840087890625,0.065185546875,0.98297119140625,0.85235595703125,-2.52716064453125,-0.8673095703125,1.0,2.0,1.0,1.0,2.0,85.0,event
09:16:56.964,0.9193356,0.6895856,0.58187705,0.9246507,0.25445223,0.5941063,0.37713012,0.22685397,0.29473695,0.09190128,0.3218946,0.2908747,0.48356643,-0.034194823,0.07512182,0.5000475,0.35514748,-0.2392205,-0.11274383,0.28954294,782.8938,805.05493,807.47253,787.72894,723.2601,-0.04840087890625,0.065185546875,0.98297119140625,0.85235595703125,-2.52716064453125,-0.8673095703125,1.0,2.0,1.0,1.0,2.0,85.0,event
09:16:56.965,0.9193356,0.6895856,0.58187705,0.9246507,0.25445223,0.5941063,0.37713012,0.22685397,0.29473695,0.09190128,0.3218946,0.2908747,0.48356643,-0.034194823,0.07512182,0.5000475,0.35514748,-0.2392205,-0.11274383,0.28954294,774.83514,800.2198,806.6667,780.4762,718.022,-0.04840087890625,0.065185546875,0.98297119140625,0.85235595703125,-2.52716064453125,-0.8673095703125,1.0,2.0,1.0,1.0,2.0,85.0,event
09:16:56.966,0.9193356,0.6895856,0.58187705,0.9246507,0.25445223,0.5941063,0.37713012,0.22685397,0.29473695,0.09190128,0.3218946,0.2908747,0.48356643,-0.034194823,0.07512182,0.5000475,0.35514748,-0.2392205,-0.11274383,0.28954294,772.01465,797.8022,807.47253,784.90845,791.3553,-0.04840087890625,0.065185546875,0.98297119140625,0.85235595703125,-2.52716064453125,-0.8673095703125,1.0,2.0,1.0,1.0,2.0,85.0,event
09:16:56.967,0.9193356,0.6895856,0.58187705,0.9246507,0.25445223,0.5941063,0.37713012,0.22685397,0.29473695,0.09190128,0.3218946,0.2908747,0.48356643,-0.034194823,0.07512182,0.5000475,0.35514748,-0.2392205,-0.11274383,0.28954294,779.67035,802.6374,807.0696,799.41394,827.619,-0.04840087890625,0.065185546875,0.98297119140625,0.85235595703125,-2.52716064453125,-0.8673095703125,1.0,2.0,1.0,1.0,2.0,85.0,event
09:16:56.968,0.9193356,0.6895856,0.58187705,0.9246507,0.25445223,0.5941063,0.37713012,0.22685397,0.29473695,0.09190128,0.3218946,0.2908747,0.48356643,-0.034194823,0.07512182,0.5000475,0.35514748,-0.2392205,-0.11274383,0.28954294,786.1172,805.4579,805.05493,806.6667,820.3663,-0.04840087890625,0.065185546875,0.98297119140625,0.85235595703125,-2.52716064453125,-0.8673095703125,1.0,2.0,1.0,1.0,2.0,85.0,event
09:16:56.969,0.9193356,0.6895856,0.58187705,0.9246507,0.25445223,0.5941063,0.37713012,0.22685397,0.29473695,0.09190128,0.3218946,0.2908747,0.48356643,-0.034194823,0.07512182,0.5000475,0.35514748,-0.2392205,-0.11274383,0.28954294,781.685,800.6227,807.8755,799.81683,813.91943,-0.04840087890625,0.065185546875,0.98297119140625,0.85235595703125,-2.52716064453125,-0.8673095703125,1.0,2.0,1.0,1.0,2.0,85.0,event
09:16:56.970,0.9193356,0.6895856,0.58187705,0.9246507,0.25445223,0.5941063,0.37713012,0.22685397,0.29473695,0.09190128,0.3218946,0.2908747,0.48356643,-0.034194823,0.07512182,0.5000475,0.35514748,-0.2392205,-0.11274383,0.28954294,769.19415,801.02563,811.0989,788.93774,1019.011,-0.04840087890625,0.065185546875,0.98297119140625,0.85235595703125,-2.52716064453125,-0.8673095703125,1.0,2.0,1.0,1.0,2.0,85.0,event
09:16:56.970,0.9193356,0.6895856,0.58187705,0.9246507,0.25445223,0.5941063,0.37713012,0.22685397,0.29473695,0.09190128,0.3218946,0.2908747,0.48356643,-0.034194823,0.07512182,0.5000475,0.35514748,-0.2392205,-0.11274383,0.28954294,774.0293,795.38464,810.293,794.9817,942.0513,-0.04840087890625,0.065185546875,0.98297119140625,0.85235595703125,-2.52716064453125,-0.8673095703125,1.0,2.0,1.0,1.0,2.0,85.0,event
09:16:56.971,0.9193356,0.6895856,0.58187705,0.9246507,0.25445223,0.5941063,0.37713012,0.22685397,0.29473695,0.09190128,0.3218946,0.2908747,0.48356643,-0.034194823,0.07512182,0.5000475,0.35514748,-0.2392205,-0.11274383,0.28954294,784.90845,805.8608,809.89014,795.78754,806.26373,-0.04840087890625,0.065185546875,0.98297119140625,0.85235595703125,-2.52716064453125,-0.8673095703125,1.0,2.0,1.0,1.0,2.0,85.0,event
09:16:56.973,0.9193356,0.6895856,0.58187705,0.9246507,0.25445223,0.5941063,0.37713012,0.22685397,0.29473695,0.09190128,0.3218946,0.2908747,0.48356643,-0.034194823,0.07512182,0.5000475,0.35514748,-0.2392205,-0.11274383,0.28954294,789.34064,800.2198,808.2784,794.57874,743.4066,-0.04840087890625,0.065185546875,0.98297119140625,0.85235595703125,-2.52716064453125,-0.8673095703125,1.0,2.0,1.0,1.0,2.0,85.0,event
09:16:56.973,0.9193356,0.6895856,0.58187705,0.9246507,0.25445223,0.5941063,0.37713012,0.22685397,0.29473695,0.09190128,0.3218946,0.2908747,0.48356643,-0.034194823,0.07512182,0.5000475,0.35514748,-0.2392205,-0.11274383,0.28954294,761.53845,798.20514,807.0696,782.49084,749.85345,-0.04840087890625,0.065185546875,0.98297119140625,0.85235595703125,-2.52716064453125,-0.8673095703125,1.0,2.0,1.0,1.0,2.0,85.0,event
09:16:56.995,0.9193356,0.6895856,0.58187705,0.9246507,0.25445223,0.5941063,0.37713012,0.22685397,0.29473695,0.09190128,0.3218946,0.2908747,0.48356643,-0.034194823,0.07512182,0.5000475,0.35514748,-0.2392205,-0.11274383,0.28954294,758.315,801.4286,803.8461,778.86444,705.5311,-0.04840087890625,0.065185546875,0.98297119140625,0.85235595703125,-2.52716064453125,-0.8673095703125,1.0,2.0,1.0,1.0,2.0,85.0,event
09:16:56.996,0.9193356,0.6723405,0.5699939,0.9246507,0.25445223,0.57565755,0.3688712,0.22685397,0.29473695,0.12271395,0.3297196,0.2908747,0.48356643,-0.032469954,0.06255678,0.5000475,0.35514748,-0.24443787,-0.11748267,0.28954294,763.5531,804.2491,803.8461,774.0293,663.6264,-0.04840087890625,0.065185546875,0.98297119140625,0.85235595703125,-2.52716064453125,-0.8673095703125,1.0,2.0,1.0,1.0,2.0,85.0,event
09:16:57.000,0.9193356,0.6723405,0.5699939,0.9246507,0.25445223,0.57565755,0.3688712,0.22685397,0.29473695,0.12271395,0.3297196,0.2908747,0.48356643,-0.032469954,0.06255678,0.5000475,0.35514748,-0.24443787,-0.11748267,0.28954294,757.1062,797.8022,811.0989,787.72894,808.2784,-0.04840087890625,0.065185546875,0.98297119140625,0.85235595703125,-2.52716064453125,-0.8673095703125,1.0,2.0,1.0,1.0,2.0,85.0,event
09:16:57.000,0.9193356,0.6723405,0.5699939,0.9246507,0.25445223,0.57565755,0.3688712,0.22685397,0.29473695,0.12271395,0.3297196,0.2908747,0.48356643,-0.032469954,0.06255678,0.5000475,0.35514748,-0.24443787,-0.11748267,0.28954294,762.3443,794.17584,813.1135,793.7729,902.96704,-0.04840087890625,0.065185546875,0.98297119140625,0.85235595703125,-2.52716064453125,-0.8673095703125,1.0,2.0,1.0,1.0,2.0,85.0,event
09:16:57.001,0.9193356,0.6723405,0.5699939,0.9246507,0.25445223,0.57565755,0.3688712,0.22685397,0.29473695,0.12271395,0.3297196,0.2908747,0.48356643,-0.032469954,0.06255678,0.5000475,0.35514748,-0.24443787,-0.11748267,0.28954294,755.4945,796.1905,802.6374,777.6557,746.2271,-0.04840087890625,0.065185546875,0.98297119140625,0.85235595703125,-2.52716064453125,-0.8673095703125,1.0,2.0,1.0,1.0,2.0,85.0,event
09:16:57.001,0.9193356,0.6723405,0.5699939,0.9246507,0.25445223,0.57565755,0.3688712,0.22685397,0.29473695,0.12271395,0.3297196,0.2908747,0.48356643,-0.032469954,0.06255678,0.5000475,0.35514748,-0.24443787,-0.11748267,0.28954294,757.1062,801.02563,798.60803,777.6557,753.0769,-0.04840087890625,0.065185546875,0.98297119140625,0.85235595703125,-2.52716064453125,-0.8673095703125,1.0,2.0,1.0,1.0,2.0,85.0,event
09:16:57.002,0.9193356,0.6723405,0.5699939,0.9246507,0.25445223,0.57565755,0.3688712,0.22685397,0.29473695,0.12271395,0.3297196,0.2908747,0.48356643,-0.032469954,0.06255678,0.5000475,0.35514748,-0.24443787,-0.11748267,0.28954294,769.59705,799.011,800.6227,791.3553,943.2601,-0.04840087890625,0.065185546875,0.98297119140625,0.85235595703125,-2.52716064453125,-0.8673095703125,1.0,2.0,1.0,1.0,2.0,85.0,event
09:16:57.002,0.9193356,0.6723405,0.5699939,0.9246507,0.25445223,0.57565755,0.3688712,0.22685397,0.29473695,0.12271395,0.3297196,0.2908747,0.48356643,-0.032469954,0.06255678,0.5000475,0.35514748,-0.24443787,-0.11748267,0.28954294,775.64105,794.9817,802.6374,805.8608,1074.6154,-0.04840087890625,0.065185546875,0.98297119140625,0.85235595703125,-2.52716064453125,-0.8673095703125,1.0,2.0,1.0,1.0,2.0,85.0,event
09:16:57.003,0.9193356,0.6723405,0.5699939,0.9246507,0.25445223,0.57565755,0.3688712,0.22685397,0.29473695,0.12271395,0.3297196,0.2908747,0.48356643,-0.032469954,0.06255678,0.5000475,0.35514748,-0.24443787,-0.11748267,0.28954294,778.86444,803.0403,809.4872,803.44324,865.4945,-0.04840087890625,0.065185546875,0.98297119140625,0.85235595703125,-2.52716064453125,-0.8673095703125,1.0,2.0,1.0,1.0,2.0,85.0,event
09:16:57.003,0.9193356,0.6723405,0.5699939,0.9246507,0.25445223,0.57565755,0.3688712,0.22685397,0.29473695,0.12271395,0.3297196,0.2908747,0.48356643,-0.032469954,0.06255678,0.5000475,0.35514748,-0.24443787,-0.11748267,0.28954294,771.2088,801.02563,813.1135,791.75824,677.326,-0.04840087890625,0.065185546875,0.98297119140625,0.85235595703125,-2.52716064453125,-0.8673095703125,1.0,2.0,1.0,1.0,2.0,85.0,event
09:16:57.004,0.9193356,0.6723405,0.5699939,0.9246507,0.25445223,0.57565755,0.3688712,0.22685397,0.29473695,0.12271395,0.3297196,0.2908747,0.48356643,-0.032469954,0.06255678,0.5000475,0.35514748,-0.24443787,-0.11748267,0.28954294,755.4945,793.7729,806.6667,781.685,736.9597,-0.04840087890625,0.065185546875,0.98297119140625,0.85235595703125,-2.52716064453125,-0.8673095703125,1.0,2.0,1.0,1.0,2.0,85.0,event
09:16:57.005,0.9193356,0.6723405,0.5699939,0.9246507,0.25445223,0.57565755,0.3688712,0.22685397,0.29473695,0.12271395,0.3297196,0.2908747,0.48356643,-0.032469954,0.06255678,0.5000475,0.35514748,-0.24443787,-0.11748267,0.28954294,759.5238,794.9817,808.2784,787.72894,749.45056,-0.04840087890625,0.065185546875,0.98297119140625,0.85235595703125,-2.52716064453125,-0.8673095703125,1.0,2.0,1.0,1.0,2.0,85.0,event
09:16:57.039,0.9193356,0.6723405,0.5699939,0.9246507,0.25445223,0.57565755,0.3688712,0.22685397,0.29473695,0.12271395,0.3297196,0.2908747,0.48356643,-0.032469954,0.06255678,0.5000475,0.35514748,-0.24443787,-0.11748267,0.28954294,768.3883,796.99634,807.0696,795.78754,726.8865,-0.041259765625,0.06292724609375,0.978515625,2.340240478515625,-4.388885498046875,-1.906585693359375,1.0,2.0,1.0,1.0,2.0,85.0,event
09:16:57.040,0.9193356,0.6723405,0.5699939,0.9246507,0.25445223,0.57565755,0.3688712,0.22685397,0.29473695,0.12271395,0.3297196,0.2908747,0.48356643,-0.032469954,0.06255678,0.5000475,0.35514748,-0.24443787,-0.11748267,0.28954294,763.1502,803.8461,807.8755,787.326,750.2564,-0.041259765625,0.06292724609375,0.978515625,2.340240478515625,-4.388885498046875,-1.906585693359375,1.0,2.0,1.0,1.0,2.0,85.0,event
09:16:57.041,0.9193356,0.6723405,0.5699939,0.9246507,0.25445223,0.57565755,0.3688712,0.22685397,0.29473695,0.12271395,0.3297196,0.2908747,0.48356643,-0.032469954,0.06255678,0.5000475,0.35514748,-0.24443787,-0.11748267,0.28954294,763.5531,805.05493,807.47253,788.93774,748.24176,-0.041259765625,0.06292724609375,0.978515625,2.340240478515625,-4.388885498046875,-1.906585693359375,1.0,2.0,1.0,1.0,2.0,85.0,event
09:16:57.042,0.9193356,0.6723405,0.5699939,0.9246507,0.25445223,0.57565755,0.3688712,0.22685397,0.29473695,0.12271395,0.3297196,0.2908747,0.48356643,-0.032469954,0.06255678,0.5000475,0.35514748,-0.24443787,-0.11748267,0.28954294,767.5824,795.78754,799.81683,786.9231,736.9597,-0.041259765625,0.06292724609375,0.978515625,2.340240478515625,-4.388885498046875,-1.906585693359375,1.0,2.0,1.0,1.0,2.0,85.0,event
09:16:57.042,0.9193356,0.6723405,0.5699939,0.9246507,0.25445223,0.57565755,0.3688712,0.22685397,0.29473695,0.12271395,0.3297196,0.2908747,0.48356643,-0.032469954,0.06255678,0.5000475,0.35514748,-0.24443787,-0.11748267,0.28954294,770.40295,794.9817,804.2491,785.7143,760.32965,-0.041259765625,0.06292724609375,0.978515625,2.340240478515625,-4.388885498046875,-1.906585693359375,1.0,2.0,1.0,1.0,2.0,85.0,event
09:16:57.043,0.9193356,0.6723405,0.5699939,0.9246507,0.25445223,0.57565755,0.3688712,0.22685397,0.29473695,0.12271395,0.3297196,0.2908747,0.48356643,-0.032469954,0.06255678,0.5000475,0.35514748,-0.24443787,-0.11748267,0.28954294,764.7619,787.326,807.0696,800.2198,828.4249,-0.041259765625,0.06292724609375,0.978515625,2.340240478515625,-4.388885498046875,-1.906585693359375,1.0,2.0,1.0,1.0,2.0,85.0,event
09:16:57.044,0.9193356,0.6723405,0.5699939,0.9246507,0.25445223,0.57565755,0.3688712,0.22685397,0.29473695,0.12271395,0.3297196,0.2908747,0.48356643,-0.032469954,0.06255678,0.5000475,0.35514748,-0.24443787,-0.11748267,0.28954294,768.7912,787.326,802.6374,805.4579,935.6044,-0.041259765625,0.06292724609375,0.978515625,2.340240478515625,-4.388885498046875,-1.906585693359375,1.0,2.0,1.0,1.0,2.0,85.0,event
09:16:57.045,0.9193356,0.6723405,0.5699939,0.9246507,0.25445223,0.57565755,0.3688712,0.22685397,0.29473695,0.12271395,0.3297196,0.2908747,0.48356643,-0.032469954,0.06255678,0.5000475,0.35514748,-0.24443787,-0.11748267,0.28954294,770.0,796.5934,799.81683,797.3993,946.08057,-0.041259765625,0.06292724609375,0.978515625,2.340240478515625,-4.388885498046875,-1.906585693359375,1.0,2.0,1.0,1.0,2.0,85.0,event
09:16:57.045,0.9193356,0.6723405,0.5699939,0.9246507,0.25445223,0.57565755,0.3688712,0.22685397,0.29473695,0.12271395,0.3297196,0.2908747,0.48356643,-0.032469954,0.06255678,0.5000475,0.35514748,-0.24443787,-0.11748267,0.28954294,774.43225,790.9524,808.68134,795.38464,832.0513,-0.041259765625,0.06292724609375,0.978515625,2.340240478515625,-4.388885498046875,-1.906585693359375,1.0,2.0,1.0,1.0,2.0,85.0,event
09:16:57.046,0.9193356,0.6723405,0.5699939,0.9246507,0.25445223,0.57565755,0.3688712,0.22685397,0.29473695,0.12271395,0.3297196,0.2908747,0.48356643,-0.032469954,0.06255678,0.5000475,0.35514748,-0.24443787,-0.11748267,0.28954294,785.31134,794.57874,817.9487,793.7729,741.79486,-0.041259765625,0.06292724609375,0.978515625,2.340240478515625,-4.388885498046875,-1.906585693359375,1.0,2.0,1.0,1.0,2.0,85.0,event
09:16:57.046,0.9193356,0.6723405,0.5699939,0.9246507,0.25445223,0.57565755,0.3688712,0.22685397,0.29473695,0.12271395,0.3297196,0.2908747,0.48356643,-0.032469954,0.06255678,0.5000475,0.35514748,-0.24443787,-0.11748267,0.28954294,762.3443,798.20514,813.91943,797.8022,966.2271,-0.041259765625,0.06292724609375,0.978515625,2.340240478515625,-4.388885498046875,-1.906585693359375,1.0,2.0,1.0,1.0,2.0,85.0,event
09:16:57.047,0.9193356,0.6723405,0.5699939,0.9246507,0.25445223,0.57565755,0.3688712,0.22685397,0.29473695,0.12271395,0.3297196,0.2908747,0.48356643,-0.032469954,0.06255678,0.5000475,0.35514748,-0.24443787,-0.11748267,0.28954294,752.674,797.8022,809.89014,803.44324,1200.3297,-0.041259765625,0.06292724609375,0.978515625,2.340240478515625,-4.388885498046875,-1.906585693359375,1.0,2.0,1.0,1.0,2.0,85.0,event
09:16:57.087,0.9193356,0.6723405,0.5699939,0.9246507,0.25445223,0.57565755,0.3688712,0.22685397,0.29473695,0.12271395,0.3297196,0.2908747,0.48356643,-0.032469954,0.06255678,0.5000475,0.35514748,-0.24443787,-0.11748267,0.28954294,759.92676,798.20514,813.1135,791.3553,848.97437,-0.04901123046875,0.06146240234375,0.98760986328125,1.79443359375,-3.401947021484375,-1.7047119140625,1.0,2.0,1.0,1.0,2.0,85.0,event
09:16:57.088,0.9193356,0.6723405,0.5699939,0.9246507,0.25445223,0.57565755,0.3688712,0.22685397,0.29473695,0.12271395,0.3297196,0.2908747,0.48356643,-0.032469954,0.06255678,0.5000475,0.35514748,-0.24443787,-0.11748267,0.28954294,766.3736,797.3993,811.9048,792.5641,710.7692,-0.04901123046875,0.06146240234375,0.98760986328125,1.79443359375,-3.401947021484375,-1.7047119140625,1.0,2.0,1.0,1.0,2.0,85.0,event
09:16:57.088,0.9193356,0.6723405,0.5699939,0.9246507,0.25445223,0.57565755,0.3688712,0.22685397,0.29473695,0.12271395,0.3297196,0.2908747,0.48356643,-0.032469954,0.06255678,0.5000475,0.35514748,-0.24443787,-0.11748267,0.28954294,777.25275,796.99634,806.26373,790.14655,798.60803,-0.04901123046875,0.06146240234375,0.98760986328125,1.79443359375,-3.401947021484375,-1.7047119140625,1.0,2.0,1.0,1.0,2.0,85.0,event
09:16:57.089,0.9193356,0.66541487,0.55389744,0.9246507,0.25445223,0.5729651,0.36454758,0.22685397,0.29473695,0.18127322,0.3279097,0.2908747,0.48356643,-0.033995066,0.055966288,0.5000475,0.35514748,-0.24865313,-0.1286842,0.28954294,776.8498,797.3993,801.4286,790.9524,712.381,-0.04901123046875,0.06146240234375,0.98760986328125,1.79443359375,-3.401947021484375,-1.7047119140625,1.0,2.0,1.0,1.0,2.0,85.0,event
09:16:57.093,0.9193356,0.66541487,0.55389744,0.9246507,0.25445223,0.5729651,0.36454758,0.22685397,0.29473695,0.18127322,0.3279097,0.2908747,0.48356643,-0.033995066,0.055966288,0.5000475,0.35514748,-0.24865313,-0.1286842,0.28954294,781.28204,799.41394,802.6374,810.696,829.6337,-0.04901123046875,0.06146240234375,0.98760986328125,1.79443359375,-3.401947021484375,-1.7047119140625,1.0,2.0,1.0,1.0,2.0,85.0,event
09:16:57.093,0.9193356,0.66541487,0.55389744,0.9246507,0.25445223,0.5729651,0.36454758,0.22685397,0.29473695,0.18127322,0.3279097,0.2908747,0.48356643,-0.033995066,0.055966288,0.5000475,0.35514748,-0.24865313,-0.1286842,0.28954294,776.04395,799.41394,801.4286,809.4872,690.6227,-0.04901123046875,0.06146240234375,0.98760986328125,1.79443359375,-3.401947021484375,-1.7047119140625,1.0,2.0,1.0,1.0,2.0,85.0,event
09:16:57.094,0.9193356,0.66541487,0.55389744,0.9246507,0.25445223,0.5729651,0.36454758,0.22685397,0.29473695,0.18127322,0.3279097,0.2908747,0.48356643,-0.033995066,0.055966288,0.5000475,0.35514748,-0.24865313,-0.1286842,0.28954294,779.67035,798.60803,805.4579,797.3993,991.2088,-0.04901123046875,0.06146240234375,0.98760986328125,1.79443359375,-3.401947021484375,-1.7047119140625,1.0,2.0,1.0,1.0,2.0,85.0,event
09:16:57.094,0.9193356,0.66541487,0.55389744,0.9246507,0.25445223,0.5729651,0.36454758,0.22685397,0.29473695,0.18127322,0.3279097,0.2908747,0.48356643,-0.033995066,0.055966288,0.5000475,0.35514748,-0.24865313,-0.1286842,0.28954294,774.83514,799.41394,807.47253,788.5348,796.5934,-0.04901123046875,0.06146240234375,0.98760986328125,1.79443359375,-3.401947021484375,-1.7047119140625,1.0,2.0,1.0,1.0,2.0,85.0,event
09:16:57.095,0.9193356,0.66541487,0.55389744,0.9246507,0.25445223,0.5729651,0.36454758,0.22685397,0.29473695,0.18127322,0.3279097,0.2908747,0.48356643,-0.033995066,0.055966288,0.5000475,0.35514748,-0.24865313,-0.1286842,0.28954294,763.95605,799.41394,807.8755,792.1612,743.8095,-0.04901123046875,0.06146240234375,0.98760986328125,1.79443359375,-3.401947021484375,-1.7047119140625,1.0,2.0,1.0,1.0,2.0,85.0,event
09:16:57.096,0.9193356,0.66541487,0.55389744,0.9246507,0.25445223,0.5729651,0.36454758,0.22685397,0.29473695,0.18127322,0.3279097,0.2908747,0.48356643,-0.033995066,0.055966288,0.5000475,0.35514748,-0.24865313,-0.1286842,0.28954294,761.13556,798.20514,802.23444,798.20514,962.1978,-0.04901123046875,0.06146240234375,0.98760986328125,1.79443359375,-3.401947021484375,-1.7047119140625,1.0,2.0,1.0,1.0,2.0,85.0,event
09:16:57.096,0.9193356,0.66541487,0.55389744,0.9246507,0.25445223,0.5729651,0.36454758,0.22685397,0.29473695,0.18127322,0.3279097,0.2908747,0.48356643,-0.033995066,0.055966288,0.5000475,0.35514748,-0.24865313,-0.1286842,0.28954294,771.2088,794.9817,805.05493,799.81683,997.6557,-0.04901123046875,0.06146240234375,0.98760986328125,1.79443359375,-3.401947021484375,-1.7047119140625,1.0,2.0,1.0,1.0,2.0,85.0,event
09:16:57.097,0.9193356,0.66541487,0.55389744,0.9246507,0.25445223,0.5729651,0.36454758,0.22685397,0.29473695,0.18127322,0.3279097,0.2908747,0.48356643,-0.033995066,0.055966288,0.5000475,0.35514748,-0.24865313,-0.1286842,0.28954294,762.3443,790.9524,811.50183,790.54944,754.2857,-0.04901123046875,0.06146240234375,0.98760986328125,1.79443359375,-3.401947021484375,-1.7047119140625,1.0,2.0,1.0,1.0,2.0,85.0,event
09:16:57.121,0.9193356,0.66541487,0.55389744,0.9246507,0.25445223,0.5729651,0.36454758,0.22685397,0.29473695,0.18127322,0.3279097,0.2908747,0.48356643,-0.033995066,0.055966288,0.5000475,0.35514748,-0.24865313,-0.1286842,0.28954294,767.98535,796.5934,815.5311,796.1905,819.15753,-0.047119140625,0.06414794921875,0.98406982421875,2.549591064453125,-4.254302978515625,-3.222503662109375,1.0,2.0,1.0,1.0,2.0,85.0,event
09:16:57.121,0.9193356,0.66541487,0.55389744,0.9246507,0.25445223,0.5729651,0.36454758,0.22685397,0.29473695,0.18127322,0.3279097,0.2908747,0.48356643,-0.033995066,0.055966288,0.5000475,0.35514748,-0.24865313,-0.1286842,0.28954294,760.32965,792.5641,811.9048,788.5348,673.2967,-0.047119140625,0.06414794921875,0.98406982421875,2.549591064453125,-4.254302978515625,-3.222503662109375,1.0,2.0,1.0,1.0,2.0,85.0,event
09:16:57.122,0.9193356,0.66541487,0.55389744,0.9246507,0.25445223,0.5729651,0.36454758,0.22685397,0.29473695,0.18127322,0.3279097,0.2908747,0.48356643,-0.033995066,0.055966288,0.5000475,0.35514748,-0.24865313,-0.1286842,0.28954294,769.19415,799.81683,815.5311,799.011,808.2784,-0.047119140625,0.06414794921875,0.98406982421875,2.549591064453125,-4.254302978515625,-3.222503662109375,1.0,2.0,1.0,1.0,2.0,85.0,event
09:16:57.123,0.9193356,0.66541487,0.55389744,0.9246507,0.25445223,0.5729651,0.36454758,0.22685397,0.29473695,0.18127322,0.3279097,0.2908747,0.48356643,-0.033995066,0.055966288,0.5000475,0.35514748,-0.24865313,-0.1286842,0.28954294,777.6557,795.38464,815.12823,807.8755,702.3077,-0.047119140625,0.06414794921875,0.98406982421875,2.549591064453125,-4.254302978515625,-3.222503662109375,1.0,2.0,1.0,1.0,2.0,85.0,event
09:16:57.123,0.9193356,0.66541487,0.55389744,0.9246507,0.25445223,0.5729651,0.36454758,0.22685397,0.29473695,0.18127322,0.3279097,0.2908747,0.48356643,-0.033995066,0.055966288,0.5000475,0.35514748,-0.24865313,-0.1286842,0.28954294,771.6117,786.9231,814.3223,807.8755,699.89014,-0.047119140625,0.06414794921875,0.98406982421875,2.549591064453125,-4.254302978515625,-3.222503662109375,1.0,2.0,1.0,1.0,2.0,85.0,event
09:16:57.124,0.9193356,0.66541487,0.55389744,0.9246507,0.25445223,0.5729651,0.36454758,0.22685397,0.29473695,0.18127322,0.3279097,0.2908747,0.48356643,-0.033995066,0.055966288,0.5000475,0.35514748,-0.24865313,-0.1286842,0.28954294,759.92676,793.36993,808.2784,783.69965,847.3626,-0.047119140625,0.06414794921875,0.98406982421875,2.549591064453125,-4.254302978515625,-3.222503662109375,1.0,2.0,1.0,1.0,2.0,85.0,event
09:16:57.124,0.9193356,0.66541487,0.55389744,0.9246507,0.25445223,0.5729651,0.36454758,0.22685397,0.29473695,0.18127322,0.3279097,0.2908747,0.48356643,-0.033995066,0.055966288,0.5000475,0.35514748,-0.24865313,-0.1286842,0.28954294,766.77655,797.3993,809.0842,784.90845,944.87177,-0.047119140625,0.06414794921875,0.98406982421875,2.549591064453125,-4.254302978515625,-3.222503662109375,1.0,2.0,1.0,1.0,2.0,85.0,event
09:16:57.125,0.9193356,0.66541487,0.55389744,0.9246507,0.25445223,0.5729651,0.36454758,0.22685397,0.29473695,0.18127322,0.3279097,0.2908747,0.48356643,-0.033995066,0.055966288,0.5000475,0.35514748,-0.24865313,-0.1286842,0.28954294,764.35895,794.17584,812.3077,798.20514,894.10254,-0.047119140625,0.06414794921875,0.98406982421875,2.549591064453125,-4.254302978515625,-3.222503662109375,1.0,2.0,1.0,1.0,2.0,85.0,event
09:16:57.126,0.9193356,0.66541487,0.55389744,0.9246507,0.25445223,0.5729651,0.36454758,0.22685397,0.29473695,0.18127322,0.3279097,0.2908747,0.48356643,-0.033995066,0.055966288,0.5000475,0.35514748,-0.24865313,-0.1286842,0.28954294,768.3883,798.20514,810.293,794.9817,784.5055,-0.047119140625,0.06414794921875,0.98406982421875,2.549591064453125,-4.254302978515625,-3.222503662109375,1.0,2.0,1.0,1.0,2.0,85.0,event
09:16:57.126,0.9193356,0.66541487,0.55389744,0.9246507,0.25445223,0.5729651,0.36454758,0.22685397,0.29473695,0.18127322,0.3279097,0.2908747,0.48356643,-0.033995066,0.055966288,0.5000475,0.35514748,-0.24865313,-0.1286842,0.28954294,770.80585,799.011,810.293,790.54944,888.46155,-0.047119140625,0.06414794921875,0.98406982421875,2.549591064453125,-4.254302978515625,-3.222503662109375,1.0,2.0,1.0,1.0,2.0,85.0,event
09:16:57.127,0.9193356,0.66541487,0.55389744,0.9246507,0.25445223,0.5729651,0.36454758,0.22685397,0.29473695,0.18127322,0.3279097,0.2908747,0.48356643,-0.033995066,0.055966288,0.5000475,0.35514748,-0.24865313,-0.1286842,0.28954294,765.9707,801.02563,807.47253,794.57874,906.1905,-0.047119140625,0.06414794921875,0.98406982421875,2.549591064453125,-4.254302978515625,-3.222503662109375,1.0,2.0,1.0,1.0,2.0,85.0,event
09:16:57.128,0.9193356,0.66541487,0.55389744,0.9246507,0.25445223,0.5729651,0.36454758,0.22685397,0.29473695,0.18127322,0.3279097,0.2908747,0.48356643,-0.033995066,0.055966288,0.5000475,0.35514748,-0.24865313,-0.1286842,0.28954294,780.87915,802.6374,807.0696,802.6374,764.7619,-0.047119140625,0.06414794921875,0.98406982421875,2.549591064453125,-4.254302978515625,-3.222503662109375,1.0,2.0,1.0,1.0,2.0,85.0,event
09:16:57.198,0.9193356,0.66541487,0.55389744,0.9246507,0.25445223,0.5729651,0.36454758,0.22685397,0.29473695,0.18127322,0.3279097,0.2908747,0.48356643,-0.033995066,0.055966288,0.5000475,0.35514748,-0.24865313,-0.1286842,0.28954294,776.4469,794.9817,808.68134,802.6374,817.5458,-0.03692626953125,0.0643310546875,0.986572265625,2.429962158203125,-4.388885498046875,-3.3197021484375,1.0,2.0,1.0,1.0,2.0,85.0,event
09:16:57.199,0.9193356,0.66541487,0.55389744,0.9246507,0.25445223,0.5729651,0.36454758,0.22685397,0.29473695,0.18127322,0.3279097,0.2908747,0.48356643,-0.033995066,0.055966288,0.5000475,0.35514748,-0.24865313,-0.1286842,0.28954294,764.7619,793.7729,803.8461,802.6374,903.36993,-0.03692626953125,0.0643310546875,0.986572265625,2.429962158203125,-4.388885498046875,-3.3197021484375,1.0,2.0,1.0,1.0,2.0,85.0,event
09:16:57.200,0.9193356,0.66541487,0.55389744,0.9246507,0.25445223,0.5729651,0.36454758,0.22685397,0.29473695,0.18127322,0.3279097,0.2908747,0.48356643,-0.033995066,0.055966288,0.5000475,0.35514748,-0.24865313,-0.1286842,0.28954294,768.3883,795.78754,804.2491,796.1905,822.7839,-0.03692626953125,0.0643310546875,0.986572265625,2.429962158203125,-4.388885498046875,-3.3197021484375,1.0,2.0,1.0,1.0,2.0,85.0,event
09:16:57.201,0.9193356,0.66541487,0.55389744,0.9246507,0.25445223,0.5729651,0.36454758,0.22685397,0.29473695,0.18127322,0.3279097,0.2908747,0.48356643,-0.033995066,0.055966288,0.5000475,0.35514748,-0.24865313,-0.1286842,0.28954294,770.40295,797.8022,808.68134,784.10254,649.92676,-0.03692626953125,0.0643310546875,0.986572265625,2.429962158203125,-4.388885498046875,-3.3197021484375,1.0,2.0,1.0,1.0,2.0,85.0,event
09:16:57.201,0.9193356,0.66541487,0.55389744,0.9246507,0.25445223,0.5729651,0.36454758,0.22685397,0.29473695,0.18127322,0.3279097,0.2908747,0.48356643,-0.033995066,0.055966288,0.5000475,0.35514748,-0.24865313,-0.1286842,0.28954294,767.98535,797.3993,814.3223,786.9231,679.34064,-0.03692626953125,0.0643310546875,0.986572265625,2.429962158203125,-4.388885498046875,-3.3197021484375,1.0,2.0,1.0,1.0,2.0,85.0,event
09:16:57.202,0.9193356,0.6714265,0.53640175,0.9246507,0.25445223,0.5796304,0.35809025,0.22685397,0.29473695,0.20804238,0.32384795,0.2908747,0.48356643,-0.036947984,0.054324847,0.5000475,0.35514748,-0.25026947,-0.13925673,0.28954294,766.3736,794.57874,813.5165,803.8461,825.2015,-0.03692626953125,0.0643310546875,0.986572265625,2.429962158203125,-4.388885498046875,-3.3197021484375,1.0,2.0,1.0,1.0,2.0,85.0,event
09:16:57.207,0.9193356,0.6714265,0.53640175,0.9246507,0.25445223,0.5796304,0.35809025,0.22685397,0.29473695,0.20804238,0.32384795,0.2908747,0.48356643,-0.036947984,0.054324847,0.5000475,0.35514748,-0.25026947,-0.13925673,0.28954294,775.64105,799.41394,805.8608,800.2198,830.0366,-0.03692626953125,0.0643310546875,0.986572265625,2.429962158203125,-4.388885498046875,-3.3197021484375,1.0,2.0,1.0,1.0,2.0,85.0,event
09:16:57.208,0.9193356,0.6714265,0.53640175,0.9246507,0.25445223,0.5796304,0.35809025,0.22685397,0.29473695,0.20804238,0.32384795,0.2908747,0.48356643,-0.036947984,0.054324847,0.5000475,0.35514748,-0.25026947,-0.13925673,0.28954294,778.86444,803.44324,807.8755,793.7729,718.8278,-0.03692626953125,0.0643310546875,0.986572265625,2.429962158203125,-4.388885498046875,-3.3197021484375,1.0,2.0,1.0,1.0,2.0,85.0,event
09:16:57.210,0.9193356,0.6714265,0.53640175,0.9246507,0.25445223,0.5796304,0.35809025,0.22685397,0.29473695,0.20804238,0.32384795,0.2908747,0.48356643,-0.036947984,0.054324847,0.5000475,0.35514748,-0.25026947,-0.13925673,0.28954294,774.0293,803.0403,808.2784,796.1905,765.9707,-0.03692626953125,0.0643310546875,0.986572265625,2.429962158203125,-4.388885498046875,-3.3197021484375,1.0,2.0,1.0,1.0,2.0,85.0,event
09:16:57.211,0.9193356,0.6714265,0.53640175,0.9246507,0.25445223,0.5796304,0.35809025,0.22685397,0.29473695,0.20804238,0.32384795,0.2908747,0.48356643,-0.036947984,0.054324847,0.5000475,0.35514748,-0.25026947,-0.13925673,0.28954294,773.22345,801.4286,804.65204,793.36993,958.5714,-0.03692626953125,0.0643310546875,0.986572265625,2.429962158203125,-4.388885498046875,-3.3197021484375,1.0,2.0,1.0,1.0,2.0,85.0,event
09:16:57.212,0.9193356,0.6714265,0.53640175,0.9246507,0.25445223,0.5796304,0.35809025,0.22685397,0.29473695,0.20804238,0.32384795,0.2908747,0.48356643,-0.036947984,0.054324847,0.5000475,0.35514748,-0.25026947,-0.13925673,0.28954294,770.40295,802.6374,803.8461,796.1905,863.47986,-0.03692626953125,0.0643310546875,0.986572265625,2.429962158203125,-4.388885498046875,-3.3197021484375,1.0,2.0,1.0,1.0,2.0,85.0,event
09:16:57.213,0.9193356,0.6714265,0.53640175,0.9246507,0.25445223,0.5796304,0.35809025,0.22685397,0.29473695,0.20804238,0.32384795,0.2908747,0.48356643,-0.036947984,0.054324847,0.5000475,0.35514748,-0.25026947,-0.13925673,0.28954294,770.80585,804.2491,806.26373,799.011,780.07324,-0.03692626953125,0.0643310546875,0.986572265625,2.429962158203125,-4.388885498046875,-3.3197021484375,1.0,2.0,1.0,1.0,2.0,85.0,event
09:16:57.243,0.9193356,0.6714265,0.53640175,0.9246507,0.25445223,0.5796304,0.35809025,0.22685397,0.29473695,0.20804238,0.32384795,0.2908747,0.48356643,-0.036947984,0.054324847,0.5000475,0.35514748,-0.25026947,-0.13925673,0.28954294,774.0293,806.26373,803.44324,800.2198,859.45056,-0.03692626953125,0.0643310546875,0.986572265625,2.429962158203125,-4.388885498046875,-3.3197021484375,1.0,2.0,1.0,1.0,2.0,85.0,event
09:16:57.245,0.9193356,0.6714265,0.53640175,0.9246507,0.25445223,0.5796304,0.35809025,0.22685397,0.29473695,0.20804238,0.32384795,0.2908747,0.48356643,-0.036947984,0.054324847,0.5000475,0.35514748,-0.25026947,-0.13925673,0.28954294,758.315,798.20514,799.011,788.1319,788.1319,-0.03692626953125,0.0643310546875,0.986572265625,2.429962158203125,-4.388885498046875,-3.3197021484375,1.0,2.0,1.0,1.0,2.0,85.0,event
09:16:57.245,0.9193356,0.6714265,0.53640175,0.9246507,0.25445223,0.5796304,0.35809025,0.22685397,0.29473695,0.20804238,0.32384795,0.2908747,0.48356643,-0.036947984,0.054324847,0.5000475,0.35514748,-0.25026947,-0.13925673,0.28954294,770.80585,801.8315,803.44324,792.96704,799.81683,-0.03692626953125,0.0643310546875,0.986572265625,2.429962158203125,-4.388885498046875,-3.3197021484375,1.0,2.0,1.0,1.0,2.0,85.0,event
09:16:57.246,0.9193356,0.6714265,0.53640175,0.9246507,0.25445223,0.5796304,0.35809025,0.22685397,0.29473695,0.20804238,0.32384795,0.2908747,0.48356643,-0.036947984,0.054324847,0.5000475,0.35514748,-0.25026947,-0.13925673,0.28954294,762.74725,800.2198,801.02563,803.0403,843.3333,-0.03692626953125,0.0643310546875,0.986572265625,2.429962158203125,-4.388885498046875,-3.3197021484375,1.0,2.0,1.0,1.0,2.0,85.0,event
09:16:57.247,0.9193356,0.6714265,0.53640175,0.9246507,0.25445223,0.5796304,0.35809025,0.22685397,0.29473695,0.20804238,0.32384795,0.2908747,0.48356643,-0.036947984,0.054324847,0.5000475,0.35514748,-0.25026947,-0.13925673,0.28954294,783.2967,794.17584,805.8608,827.2161,915.8608,-0.03692626953125,0.0643310546875,0.986572265625,2.429962158203125,-4.388885498046875,-3.3197021484375,1.0,2.0,1.0,1.0,2.0,85.0,event
09:16:57.248,0.9193356,0.6714265,0.53640175,0.9246507,0.25445223,0.5796304,0.35809025,0.22685397,0.29473695,0.20804238,0.32384795,0.2908747,0.48356643,-0.036947984,0.054324847,0.5000475,0.35514748,-0.25026947,-0.13925673,0.28954294,772.01465,794.17584,800.2198,804.65204,1026.2638,-0.03692626953125,0.0643310546875,0.986572265625,2.429962158203125,-4.388885498046875,-3.3197021484375,1.0,2.0,1.0,1.0,2.0,85.0,event
09:16:57.248,0.9193356,0.6714265,0.53640175,0.9246507,0.25445223,0.5796304,0.35809025,0.22685397,0.29473695,0.20804238,0.32384795,0.2908747,0.48356643,-0.036947984,0.054324847,0.5000475,0.35514748,-0.25026947,-0.13925673,0.28954294,755.89746,796.99634,798.60803,772.4176,960.18317,-0.03692626953125,0.0643310546875,0.986572265625,2.429962158203125,-4.388885498046875,-3.3197021484375,1.0,2.0,1.0,1.0,2.0,85.0,event
09:16:57.249,0.9193356,0.6714265,0.53640175,0.9246507,0.25445223,0.5796304,0.35809025,0.22685397,0.29473695,0.20804238,0.32384795,0.2908747,0.48356643,-0.036947984,0.054324847,0.5000475,0.35514748,-0.25026947,-0.13925673,0.28954294,765.9707,801.02563,799.81683,769.19415,765.9707,-0.03692626953125,0.0643310546875,0.986572265625,2.429962158203125,-4.388885498046875,-3.3197021484375,1.0,2.0,1.0,1.0,2.0,85.0,event
09:16:57.250,0.9193356,0.6714265,0.53640175,0.9246507,0.25445223,0.5796304,0.35809025,0.22685397,0.29473695,0.20804238,0.32384795,0.2908747,0.48356643,-0.036947984,0.054324847,0.5000475,0.35514748,-0.25026947,-0.13925673,0.28954294,776.8498,799.011,801.8315,785.7143,903.7729,-0.03692626953125,0.0643310546875,0.986572265625,2.429962158203125,-4.388885498046875,-3.3197021484375,1.0,2.0,1.0,1.0,2.0,85.0,event
09:16:57.250,0.9193356,0.6714265,0.53640175,0.9246507,0.25445223,0.5796304,0.35809025,0.22685397,0.29473695,0.20804238,0.32384795,0.2908747,0.48356643,-0.036947984,0.054324847,0.5000475,0.35514748,-0.25026947,-0.13925673,0.28954294,768.7912,796.99634,803.0403,799.011,1027.4725,-0.03692626953125,0.0643310546875,0.986572265625,2.429962158203125,-4.388885498046875,-3.3197021484375,1.0,2.0,1.0,1.0,2.0,85.0,event
09:16:57.251,0.9193356,0.6714265,0.53640175,0.9246507,0.25445223,0.5796304,0.35809025,0.22685397,0.29473695,0.20804238,0.32384795,0.2908747,0.48356643,-0.036947984,0.054324847,0.5000475,0.35514748,-0.25026947,-0.13925673,0.28954294,765.16486,803.8461,805.8608,794.17584,719.2308,-0.03692626953125,0.0643310546875,0.986572265625,2.429962158203125,-4.388885498046875,-3.3197021484375,1.0,2.0,1.0,1.0,2.0,85.0,event
09:16:57.252,0.9193356,0.6714265,0.53640175,0.9246507,0.25445223,0.5796304,0.35809025,0.22685397,0.29473695,0.20804238,0.32384795,0.2908747,0.48356643,-0.036947984,0.054324847,0.5000475,0.35514748,-0.25026947,-0.13925673,0.28954294,770.40295,803.0403,806.26373,794.9817,669.67035,-0.03692626953125,0.0643310546875,0.986572265625,2.429962158203125,-4.388885498046875,-3.3197021484375,1.0,2.0,1.0,1.0,2.0,85.0,event
09:16:57.277,0.9193356,0.6714265,0.53640175,0.9246507,0.25445223,0.5796304,0.35809025,0.22685397,0.29473695,0.20804238,0.32384795,0.2908747,0.48356643,-0.036947984,0.054324847,0.5000475,0.35514748,-0.25026947,-0.13925673,0.28954294,774.0293,799.41394,803.44324,792.1612,767.98535,-0.048828125,0.06005859375,0.98199462890625,3.12530517578125,-3.5589599609375,-2.086029052734375,1.0,2.0,1.0,1.0,2.0,85.0,event
09:16:57.278,0.9193356,0.6714265,0.53640175,0.9246507,0.25445223,0.5796304,0.35809025,0.22685397,0.29473695,0.20804238,0.32384795,0.2908747,0.48356643,-0.036947984,0.054324847,0.5000475,0.35514748,-0.25026947,-0.13925673,0.28954294,782.8938,798.60803,806.26373,799.41394,714.3956,-0.048828125,0.06005859375,0.98199462890625,3.12530517578125,-3.5589599609375,-2.086029052734375,1.0,2.0,1.0,1.0,2.0,85.0,event
09:16:57.279,0.9193356,0.6714265,0.53640175,0.9246507,0.25445223,0.5796304,0.35809025,0.22685397,0.29473695,0.20804238,0.32384795,0.2908747,0.48356643,-0.036947984,0.054324847,0.5000475,0.35514748,-0.25026947,-0.13925673,0.28954294,788.93774,801.02563,803.8461,809.89014,663.22345,-0.048828125,0.06005859375,0.98199462890625,3.12530517578125,-3.5589599609375,-2.086029052734375,1.0,2.0,1.0,1.0,2.0,85.0,event
09:16:57.280,0.9193356,0.6714265,0.53640175,0.9246507,0.25445223,0.5796304,0.35809025,0.22685397,0.29473695,0.20804238,0.32384795,0.2908747,0.48356643,-0.036947984,0.054324847,0.5000475,0.35514748,-0.25026947,-0.13925673,0.28954294,780.87915,804.65204,806.26373,804.2491,734.5421,-0.048828125,0.06005859375,0.98199462890625,3.12530517578125,-3.5589599609375,-2.086029052734375,1.0,2.0,1.0,1.0,2.0,85.0,event
09:16:57.281,0.9193356,0.6714265,0.53640175,0.9246507,0.25445223,0.5796304,0.35809025,0.22685397,0.29473695,0.20804238,0.32384795,0.2908747,0.48356643,-0.036947984,0.054324847,0.5000475,0.35514748,-0.25026947,-0.13925673,0.28954294,771.6117,804.65204,806.6667,780.07324,806.6667,-0.048828125,0.06005859375,0.98199462890625,3.12530517578125,-3.5589599609375,-2.086029052734375,1.0,2.0,1.0,1.0,2.0,85.0,event
09:16:57.281,0.9193356,0.6714265,0.53640175,0.9246507,0.25445223,0.5796304,0.35809025,0.22685397,0.29473695,0.20804238,0.32384795,0.2908747,0.48356643,-0.036947984,0.054324847,0.5000475,0.35514748,-0.25026947,-0.13925673,0.28954294,767.1795,801.8315,799.81683,768.3883,846.1539,-0.048828125,0.06005859375,0.98199462890625,3.12530517578125,-3.5589599609375,-2.086029052734375,1.0,2.0,1.0,1.0,2.0,85.0,event
09:16:57.282,0.9193356,0.6714265,0.53640175,0.9246507,0.25445223,0.5796304,0.35809025,0.22685397,0.29473695,0.20804238,0.32384795,0.2908747,0.48356643,-0.036947984,0.054324847,0.5000475,0.35514748,-0.25026947,-0.13925673,0.28954294,769.59705,802.6374,801.4286,784.10254,829.2308,-0.048828125,0.06005859375,0.98199462890625,3.12530517578125,-3.5589599609375,-2.086029052734375,1.0,2.0,1.0,1.0,2.0,85.0,event
09:16:57.283,0.9193356,0.67641586,0.5243985,0.9246507,0.25445223,0.6029206,0.34509826,0.22685397,0.29473695,0.20998015,0.32384795,0.2908747,0.48356643,-0.04131094,0.05306978,0.5000475,0.35514748,-0.25467983,-0.14546828,0.28954294,774.83514,801.02563,800.6227,797.8022,939.2308,-0.048828125,0.06005859375,0.98199462890625,3.12530517578125,-3.5589599609375,-2.086029052734375,1.0,2.0,1.0,1.0,2.0,85.0,event
09:16:57.287,0.9193356,0.67641586,0.5243985,0.9246507,0.25445223,0.6029206,0.34509826,0.22685397,0.29473695,0.20998015,0.32384795,0.2908747,0.48356643,-0.04131094,0.05306978,0.5000475,0.35514748,-0.25467983,-0.14546828,0.28954294,776.4469,799.81683,800.6227,800.6227,1188.6447,-0.048828125,0.06005859375,0.98199462890625,3.12530517578125,-3.5589599609375,-2.086029052734375,1.0,2.0,1.0,1.0,2.0,85.0,event
09:16:57.288,0.9193356,0.67641586,0.5243985,0.9246507,0.25445223,0.6029206,0.34509826,0.22685397,0.29473695,0.20998015,0.32384795,0.2908747,0.48356643,-0.04131094,0.05306978,0.5000475,0.35514748,-0.25467983,-0.14546828,0.28954294,774.83514,799.41394,798.60803,779.2674,670.07324,-0.048828125,0.06005859375,0.98199462890625,3.12530517578125,-3.5589599609375,-2.086029052734375,1.0,2.0,1.0,1.0,2.0,85.0,event
09:16:57.288,0.9193356,0.67641586,0.5243985,0.9246507,0.25445223,0.6029206,0.34509826,0.22685397,0.29473695,0.20998015,0.32384795,0.2908747,0.48356643,-0.04131094,0.05306978,0.5000475,0.35514748,-0.25467983,-0.14546828,0.28954294,777.25275,801.8315,803.8461,787.72894,1005.31134,-0.048828125,0.06005859375,0.98199462890625,3.12530517578125,-3.5589599609375,-2.086029052734375,1.0,2.0,1.0,1.0,2.0,85.0,event
09:16:57.289,0.9193356,0.67641586,0.5243985,0.9246507,0.25445223,0.6029206,0.34509826,0.22685397,0.29473695,0.20998015,0.32384795,0.2908747,0.48356643,-0.04131094,0.05306978,0.5000475,0.35514748,-0.25467983,-0.14546828,0.28954294,766.77655,799.41394,799.41394,779.2674,688.60803,-0.048828125,0.06005859375,0.98199462890625,3.12530517578125,-3.5589599609375,-2.086029052734375,1.0,2.0,1.0,1.0,2.0,85.0,event
09:16:57.311,0.9193356,0.67641586,0.5243985,0.9246507,0.25445223,0.6029206,0.34509826,0.22685397,0.29473695,0.20998015,0.32384795,0.2908747,0.48356643,-0.04131094,0.05306978,0.5000475,0.35514748,-0.25467983,-0.14546828,0.28954294,765.16486,796.1905,806.6667,782.8938,747.8388,-0.0380859375,0.07244873046875,0.99072265625,5.106658935546875,-4.209442138671875,-2.086029052734375,1.0,2.0,1.0,1.0,2.0,85.0,event
09:16:57.312,0.9193356,0.67641586,0.5243985,0.9246507,0.25445223,0.6029206,0.34509826,0.22685397,0.29473695,0.20998015,0.32384795,0.2908747,0.48356643,-0.04131094,0.05306978,0.5000475,0.35514748,-0.25467983,-0.14546828,0.28954294,764.7619,797.8022,806.26373,792.1612,697.47253,-0.0380859375,0.07244873046875,0.99072265625,5.106658935546875,-4.209442138671875,-2.086029052734375,1.0,2.0,1.0,1.0,2.0,85.0,event
09:16:57.313,0.9193356,0.67641586,0.5243985,0.9246507,0.25445223,0.6029206,0.34509826,0.22685397,0.29473695,0.20998015,0.32384795,0.2908747,0.48356643,-0.04131094,0.05306978,0.5000475,0.35514748,-0.25467983,-0.14546828,0.28954294,763.1502,800.2198,804.2491,783.2967,660.80585,-0.0380859375,0.07244873046875,0.99072265625,5.106658935546875,-4.209442138671875,-2.086029052734375,1.0,2.0,1.0,1.0,2.0,85.0,event
09:16:57.314,0.9193356,0.67641586,0.5243985,0.9246507,0.25445223,0.6029206,0.34509826,0.22685397,0.29473695,0.20998015,0.32384795,0.2908747,0.48356643,-0.04131094,0.05306978,0.5000475,0.35514748,-0.25467983,-0.14546828,0.28954294,760.7326,800.6227,809.0842,780.4762,709.9634,-0.0380859375,0.07244873046875,0.99072265625,5.106658935546875,-4.209442138671875,-2.086029052734375,1.0,2.0,1.0,1.0,2.0,85.0,event
09:16:57.314,0.9193356,0.67641586,0.5243985,0.9246507,0.25445223,0.6029206,0.34509826,0.22685397,0.29473695,0.20998015,0.32384795,0.2908747,0.48356643,-0.04131094,0.05306978,0.5000475,0.35514748,-0.25467983,-0.14546828,0.28954294,763.5531,799.41394,808.2784,786.52014,763.1502,-0.0380859375,0.07244873046875,0.99072265625,5.106658935546875,-4.209442138671875,-2.086029052734375,1.0,2.0,1.0,1.0,2.0,85.0,event
09:16:57.315,0.9193356,0.67641586,0.5243985,0.9246507,0.25445223,0.6029206,0.34509826,0.22685397,0.29473695,0.20998015,0.32384795,0.2908747,0.48356643,-0.04131094,0.05306978,0.5000475,0.35514748,-0.25467983,-0.14546828,0.28954294,773.6264,799.011,803.8461,801.02563,846.9597,-0.0380859375,0.07244873046875,0.99072265625,5.106658935546875,-4.209442138671875,-2.086029052734375,1.0,2.0,1.0,1.0,2.0,85.0,event
09:16:57.316,0.9193356,0.67641586,0.5243985,0.9246507,0.25445223,0.6029206,0.34509826,0.22685397,0.29473695,0.20998015,0.32384795,0.2908747,0.48356643,-0.04131094,0.05306978,0.5000475,0.35514748,-0.25467983,-0.14546828,0.28954294,770.40295,791.3553,805.4579,810.293,879.59705,-0.0380859375,0.07244873046875,0.99072265625,5.106658935546875,-4.209442138671875,-2.086029052734375,1.0,2.0,1.0,1.0,2.0,85.0,event
09:16:57.317,0.9193356,0.67641586,0.5243985,0.9246507,0.25445223,0.6029206,0.34509826,0.22685397,0.29473695,0.20998015,0.32384795,0.2908747,0.48356643,-0.04131094,0.05306978,0.5000475,0.35514748,-0.25467983,-0.14546828,0.28954294,770.80585,793.7729,800.6227,800.2198,938.022,-0.0380859375,0.07244873046875,0.99072265625,5.106658935546875,-4.209442138671875,-2.086029052734375,1.0,2.0,1.0,1.0,2.0,85.0,event
09:16:57.317,0.9193356,0.67641586,0.5243985,0.9246507,0.25445223,0.6029206,0.34509826,0.22685397,0.29473695,0.20998015,0.32384795,0.2908747,0.48356643,-0.04131094,0.05306978,0.5000475,0.35514748,-0.25467983,-0.14546828,0.28954294,770.80585,805.4579,799.81683,794.17584,952.9304,-0.0380859375,0.07244873046875,0.99072265625,5.106658935546875,-4.209442138671875,-2.086029052734375,1.0,2.0,1.0,1.0,2.0,85.0,event
09:16:57.318,0.9193356,0.67641586,0.5243985,0.9246507,0.25445223,0.6029206,0.34509826,0.22685397,0.29473695,0.20998015,0.32384795,0.2908747,0.48356643,-0.04131094,0.05306978,0.5000475,0.35514748,-0.25467983,-0.14546828,0.28954294,773.6264,805.4579,804.2491,792.1612,762.3443,-0.0380859375,0.07244873046875,0.99072265625,5.106658935546875,-4.209442138671875,-2.086029052734375,1.0,2.0,1.0,1.0,2.0,85.0,event
09:16:57.319,0.9193356,0.67641586,0.5243985,0.9246507,0.25445223,0.6029206,0.34509826,0.22685397,0.29473695,0.20998015,0.32384795,0.2908747,0.48356643,-0.04131094,0.05306978,0.5000475,0.35514748,-0.25467983,-0.14546828,0.28954294,774.0293,799.011,805.05493,815.9341,719.6337,-0.0380859375,0.07244873046875,0.99072265625,5.106658935546875,-4.209442138671875,-2.086029052734375,1.0,2.0,1.0,1.0,2.0,85.0,event
09:16:57.320,0.9193356,0.67641586,0.5243985,0.9246507,0.25445223,0.6029206,0.34509826,0.22685397,0.29473695,0.20998015,0.32384795,0.2908747,0.48356643,-0.04131094,0.05306978,0.5000475,0.35514748,-0.25467983,-0.14546828,0.28954294,767.1795,797.8022,816.7399,822.7839,772.01465,-0.0380859375,0.07244873046875,0.99072265625,5.106658935546875,-4.209442138671875,-2.086029052734375,1.0,2.0,1.0,1.0,2.0,85.0,event
09:16:57.360,0.9193356,0.67641586,0.5243985,0.9246507,0.25445223,0.6029206,0.34509826,0.22685397,0.29473695,0.20998015,0.32384795,0.2908747,0.48356643,-0.04131094,0.05306978,0.5000475,0.35514748,-0.25467983,-0.14546828,0.28954294,761.53845,799.81683,818.3516,793.36993,762.74725,-0.03662109375,0.07550048828125,0.98822021484375,3.48419189453125,-3.102874755859375,0.31402587890625,1.0,2.0,1.0,1.0,2.0,85.0,event
09:16:57.361,0.9193356,0.67641586,0.5243985,0.9246507,0.25445223,0.6029206,0.34509826,0.22685397,0.29473695,0.20998015,0.32384795,0.2908747,0.48356643,-0.04131094,0.05306978,0.5000475,0.35514748,-0.25467983,-0.14546828,0.28954294,766.3736,800.6227,812.3077,785.7143,667.6557,-0.03662109375,0.07550048828125,0.98822021484375,3.48419189453125,-3.102874755859375,0.31402587890625,1.0,2.0,1.0,1.0,2.0,85.0,event
09:16:57.362,0.9193356,0.67641586,0.5243985,0.9246507,0.25445223,0.6029206,0.34509826,0.22685397,0.29473695,0.20998015,0.32384795,0.2908747,0.48356643,-0.04131094,0.05306978,0.5000475,0.35514748,-0.25467983,-0.14546828,0.28954294,770.0,794.9817,804.65204,803.44324,755.09155,-0.03662109375,0.07550048828125,0.98822021484375,3.48419189453125,-3.102874755859375,0.31402587890625,1.0,2.0,1.0,1.0,2.0,85.0,event
09:16:57.362,0.9193356,0.67641586,0.5243985,0.9246507,0.25445223,0.6029206,0.34509826,0.22685397,0.29473695,0.20998015,0.32384795,0.2908747,0.48356643,-0.04131094,0.05306978,0.5000475,0.35514748,-0.25467983,-0.14546828,0.28954294,765.16486,799.41394,806.6667,792.1612,668.0586,-0.03662109375,0.07550048828125,0.98822021484375,3.48419189453125,-3.102874755859375,0.31402587890625,1.0,2.0,1.0,1.0,2.0,85.0,event
09:16:57.363,0.9193356,0.67641586,0.5243985,0.9246507,0.25445223,0.6029206,0.34509826,0.22685397,0.29473695,0.20998015,0.32384795,0.2908747,0.48356643,-0.04131094,0.05306978,0.5000475,0.35514748,-0.25467983,-0.14546828,0.28954294,779.67035,798.60803,799.011,811.50183,729.707,-0.03662109375,0.07550048828125,0.98822021484375,3.48419189453125,-3.102874755859375,0.31402587890625,1.0,2.0,1.0,1.0,2.0,85.0,event
09:16:57.364,0.9193356,0.67641586,0.5243985,0.9246507,0.25445223,0.6029206,0.34509826,0.22685397,0.29473695,0.20998015,0.32384795,0.2908747,0.48356643,-0.04131094,0.05306978,0.5000475,0.35514748,-0.25467983,-0.14546828,0.28954294,781.685,804.2491,795.38464,793.36993,765.56775,-0.03662109375,0.07550048828125,0.98822021484375,3.48419189453125,-3.102874755859375,0.31402587890625,1.0,2.0,1.0,1.0,2.0,85.0,event
09:16:57.365,0.9193356,0.67641586,0.5243985,0.9246507,0.25445223,0.6029206,0.34509826,0.22685397,0.29473695,0.20998015,0.32384795,0.2908747,0.48356643,-0.04131094,0.05306978,0.5000475,0.35514748,-0.25467983,-0.14546828,0.28954294,767.98535,798.60803,801.02563,788.5348,880.40295,-0.03662109375,0.07550048828125,0.98822021484375,3.48419189453125,-3.102874755859375,0.31402587890625,1.0,2.0,1.0,1.0,2.0,85.0,event
09:16:57.365,0.9193356,0.67641586,0.5243985,0.9246507,0.25445223,0.6029206,0.34509826,0.22685397,0.29473695,0.20998015,0.32384795,0.2908747,0.48356643,-0.04131094,0.05306978,0.5000475,0.35514748,-0.25467983,-0.14546828,0.28954294,760.32965,799.41394,798.60803,782.0879,950.5128,-0.03662109375,0.07550048828125,0.98822021484375,3.48419189453125,-3.102874755859375,0.31402587890625,1.0,2.0,1.0,1.0,2.0,85.0,event
09:16:57.366,0.9193356,0.67641586,0.5243985,0.9246507,0.25445223,0.6029206,0.34509826,0.22685397,0.29473695,0.20998015,0.32384795,0.2908747,0.48356643,-0.04131094,0.05306978,0.5000475,0.35514748,-0.25467983,-0.14546828,0.28954294,768.3883,803.0403,796.5934,785.7143,828.4249,-0.03662109375,0.07550048828125,0.98822021484375,3.48419189453125,-3.102874755859375,0.31402587890625,1.0,2.0,1.0,1.0,2.0,85.0,event
09:16:57.367,0.9193356,0.6804148,0.5119463,0.9246507,0.25445223,0.6127032,0.32418877,0.22685397,0.29473695,0.20998015,0.32384795,0.2908747,0.48356643,-0.050743617,0.04957331,0.5000475,0.35514748,-0.25468397,-0.15185088,0.28954294,775.64105,805.05493,805.05493,802.23444,749.85345,-0.03662109375,0.07550048828125,0.98822021484375,3.48419189453125,-3.102874755859375,0.31402587890625,1.0,2.0,1.0,1.0,2.0,85.0,event
09:16:57.371,0.9193356,0.6804148,0.5119463,0.9246507,0.25445223,0.6127032,0.32418877,0.22685397,0.29473695,0.20998015,0.32384795,0.2908747,0.48356643,-0.050743617,0.04957331,0.5000475,0.35514748,-0.25468397,-0.15185088,0.28954294,777.25275,804.65204,810.293,790.54944,812.71063,-0.03662109375,0.07550048828125,0.98822021484375,3.48419189453125,-3.102874755859375,0.31402587890625,1.0,2.0,1.0,1.0,2.0,85.0,event
09:16:57.372,0.9193356,0.6804148,0.5119463,0.9246507,0.25445223,0.6127032,0.32418877,0.22685397,0.29473695,0.20998015,0.32384795,0.2908747,0.48356643,-0.050743617,0.04957331,0.5000475,0.35514748,-0.25468397,-0.15185088,0.28954294,767.5824,795.38464,809.4872,778.46155,751.8681,-0.03662109375,0.07550048828125,0.98822021484375,3.48419189453125,-3.102874755859375,0.31402587890625,1.0,2.0,1.0,1.0,2.0,85.0,event
09:16:57.426,0.9193356,0.6804148,0.5119463,0.9246507,0.25445223,0.6127032,0.32418877,0.22685397,0.29473695,0.20998015,0.32384795,0.2908747,0.48356643,-0.050743617,0.04957331,0.5000475,0.35514748,-0.25468397,-0.15185088,0.28954294,763.5531,799.81683,810.293,794.57874,688.60803,-0.0390625,0.070068359375,0.9859619140625,2.85614013671875,-4.119720458984375,1.83929443359375,1.0,2.0,1.0,1.0,2.0,85.0,event
09:16:57.428,0.9193356,0.6804148,0.5119463,0.9246507,0.25445223,0.6127032,0.32418877,0.22685397,0.29473695,0.20998015,0.32384795,0.2908747,0.48356643,-0.050743617,0.04957331,0.5000475,0.35514748,-0.25468397,-0.15185088,0.28954294,772.8205,807.47253,817.9487,808.2784,688.20514,-0.0390625,0.070068359375,0.9859619140625,2.85614013671875,-4.119720458984375,1.83929443359375,1.0,2.0,1.0,1.0,2.0,85.0,event
09:16:57.428,0.9193356,0.6804148,0.5119463,0.9246507,0.25445223,0.6127032,0.32418877,0.22685397,0.29473695,0.20998015,0.32384795,0.2908747,0.48356643,-0.050743617,0.04957331,0.5000475,0.35514748,-0.25468397,-0.15185088,0.28954294,767.1795,796.99634,816.337,802.6374,844.1392,-0.0390625,0.070068359375,0.9859619140625,2.85614013671875,-4.119720458984375,1.83929443359375,1.0,2.0,1.0,1.0,2.0,85.0,event
09:16:57.429,0.9193356,0.6804148,0.5119463,0.9246507,0.25445223,0.6127032,0.32418877,0.22685397,0.29473695,0.20998015,0.32384795,0.2908747,0.48356643,-0.050743617,0.04957331,0.5000475,0.35514748,-0.25468397,-0.15185088,0.28954294,760.7326,800.2198,809.0842,804.2491,870.7326,-0.0390625,0.070068359375,0.9859619140625,2.85614013671875,-4.119720458984375,1.83929443359375,1.0,2.0,1.0,1.0,2.0,85.0,event
09:16:57.430,0.9193356,0.6804148,0.5119463,0.9246507,0.25445223,0.6127032,0.32418877,0.22685397,0.29473695,0.20998015,0.32384795,0.2908747,0.48356643,-0.050743617,0.04957331,0.5000475,0.35514748,-0.25468397,-0.15185088,0.28954294,770.40295,804.2491,808.68134,802.23444,757.9121,-0.0390625,0.070068359375,0.9859619140625,2.85614013671875,-4.119720458984375,1.83929443359375,1.0,2.0,1.0,1.0,2.0,85.0,event
09:16:57.431,0.9193356,0.6804148,0.5119463,0.9246507,0.25445223,0.6127032,0.32418877,0.22685397,0.29473695,0.20998015,0.32384795,0.2908747,0.48356643,-0.050743617,0.04957331,0.5000475,0.35514748,-0.25468397,-0.15185088,0.28954294,767.98535,799.41394,814.3223,792.5641,833.2601,-0.0390625,0.070068359375,0.9859619140625,2.85614013671875,-4.119720458984375,1.83929443359375,1.0,2.0,1.0,1.0,2.0,85.0,event
09:16:57.432,0.9193356,0.6804148,0.5119463,0.9246507,0.25445223,0.6127032,0.32418877,0.22685397,0.29473695,0.20998015,0.32384795,0.2908747,0.48356643,-0.050743617,0.04957331,0.5000475,0.35514748,-0.25468397,-0.15185088,0.28954294,756.7033,795.38464,812.71063,793.36993,1032.7106,-0.0390625,0.070068359375,0.9859619140625,2.85614013671875,-4.119720458984375,1.83929443359375,1.0,2.0,1.0,1.0,2.0,85.0,event
09:16:57.433,0.9193356,0.6804148,0.5119463,0.9246507,0.25445223,0.6127032,0.32418877,0.22685397,0.29473695,0.20998015,0.32384795,0.2908747,0.48356643,-0.050743617,0.04957331,0.5000475,0.35514748,-0.25468397,-0.15185088,0.28954294,780.87915,801.02563,807.47253,798.20514,750.65936,-0.0390625,0.070068359375,0.9859619140625,2.85614013671875,-4.119720458984375,1.83929443359375,1.0,2.0,1.0,1.0,2.0,85.0,event
09:16:57.433,0.9193356,0.6804148,0.5119463,0.9246507,0.25445223,0.6127032,0.32418877,0.22685397,0.29473695,0.20998015,0.32384795,0.2908747,0.48356643,-0.050743617,0.04957331,0.5000475,0.35514748,-0.25468397,-0.15185088,0.28954294,767.5824,799.41394,803.8461,811.50183,1023.0403,-0.0390625,0.070068359375,0.9859619140625,2.85614013671875,-4.119720458984375,1.83929443359375,1.0,2.0,1.0,1.0,2.0,85.0,event
09:16:57.434,0.9193356,0.6804148,0.5119463,0.9246507,0.25445223,0.6127032,0.32418877,0.22685397,0.29473695,0.20998015,0.32384795,0.2908747,0.48356643,-0.050743617,0.04957331,0.5000475,0.35514748,-0.25468397,-0.15185088,0.28954294,776.8498,798.20514,807.0696,784.90845,724.87177,-0.0390625,0.070068359375,0.9859619140625,2.85614013671875,-4.119720458984375,1.83929443359375,1.0,2.0,1.0,1.0,2.0,85.0,event
09:16:57.435,0.9193356,0.6804148,0.5119463,0.9246507,0.25445223,0.6127032,0.32418877,0.22685397,0.29473695,0.20998015,0.32384795,0.2908747,0.48356643,-0.050743617,0.04957331,0.5000475,0.35514748,-0.25468397,-0.15185088,0.28954294,775.2381,808.68134,798.60803,789.7436,765.16486,-0.0390625,0.070068359375,0.9859619140625,2.85614013671875,-4.119720458984375,1.83929443359375,1.0,2.0,1.0,1.0,2.0,85.0,event
09:16:57.436,0.9193356,0.6804148,0.5119463,0.9246507,0.25445223,0.6127032,0.32418877,0.22685397,0.29473695,0.20998015,0.32384795,0.2908747,0.48356643,-0.050743617,0.04957331,0.5000475,0.35514748,-0.25468397,-0.15185088,0.28954294,775.2381,809.0842,790.9524,790.9524,708.3516,-0.0390625,0.070068359375,0.9859619140625,2.85614013671875,-4.119720458984375,1.83929443359375,1.0,2.0,1.0,1.0,2.0,85.0,event
09:16:57.462,0.9193356,0.6804148,0.5119463,0.9246507,0.25445223,0.6127032,0.32418877,0.22685397,0.29473695,0.20998015,0.32384795,0.2908747,0.48356643,-0.050743617,0.04957331,0.5000475,0.35514748,-0.25468397,-0.15185088,0.28954294,763.5531,800.6227,796.1905,795.38464,697.8755,-0.0390625,0.070068359375,0.9859619140625,2.85614013671875,-4.119720458984375,1.83929443359375,1.0,2.0,1.0,1.0,2.0,85.0,event
09:16:57.464,0.9193356,0.6804148,0.5119463,0.9246507,0.25445223,0.6127032,0.32418877,0.22685397,0.29473695,0.20998015,0.32384795,0.2908747,0.48356643,-0.050743617,0.04957331,0.5000475,0.35514748,-0.25468397,-0.15185088,0.28954294,757.9121,796.1905,805.4579,785.7143,762.74725,-0.0390625,0.070068359375,0.9859619140625,2.85614013671875,-4.119720458984375,1.83929443359375,1.0,2.0,1.0,1.0,2.0,85.0,event
09:16:57.465,0.9193356,0.6804148,0.5119463,0.9246507,0.25445223,0.6127032,0.32418877,0.22685397,0.29473695,0.20998015,0.32384795,0.2908747,0.48356643,-0.050743617,0.04957331,0.5000475,0.35514748,-0.25468397,-0.15185088,0.28954294,761.53845,797.8022,807.8755,769.59705,797.8022,-0.0390625,0.070068359375,0.9859619140625,2.85614013671875,-4.119720458984375,1.83929443359375,1.0,2.0,1.0,1.0,2.0,85.0,event
09:16:57.466,0.9193356,0.6804148,0.5119463,0.9246507,0.25445223,0.6127032,0.32418877,0.22685397,0.29473695,0.20998015,0.32384795,0.2908747,0.48356643,-0.050743617,0.04957331,0.5000475,0.35514748,-0.25468397,-0.15185088,0.28954294,752.674,795.78754,809.89014,763.95605,803.0403,-0.0390625,0.070068359375,0.9859619140625,2.85614013671875,-4.119720458984375,1.83929443359375,1.0,2.0,1.0,1.0,2.0,85.0,event
09:16:57.467,0.9193356,0.6804148,0.5119463,0.9246507,0.25445223,0.6127032,0.32418877,0.22685397,0.29473695,0.20998015,0.32384795,0.2908747,0.48356643,-0.050743617,0.04957331,0.5000475,0.35514748,-0.25468397,-0.15185088,0.28954294,753.0769,791.75824,811.50183,775.64105,725.2747,-0.0390625,0.070068359375,0.9859619140625,2.85614013671875,-4.119720458984375,1.83929443359375,1.0,2.0,1.0,1.0,2.0,85.0,event
09:16:57.468,0.9193356,0.6804148,0.5119463,0.9246507,0.25445223,0.6127032,0.32418877,0.22685397,0.29473695,0.20998015,0.32384795,0.2908747,0.48356643,-0.050743617,0.04957331,0.5000475,0.35514748,-0.25468397,-0.15185088,0.28954294,761.13556,793.36993,813.5165,789.7436,805.4579,-0.0390625,0.070068359375,0.9859619140625,2.85614013671875,-4.119720458984375,1.83929443359375,1.0,2.0,1.0,1.0,2.0,85.0,event
09:16:57.469,0.9193356,0.6804148,0.5119463,0.9246507,0.25445223,0.6127032,0.32418877,0.22685397,0.29473695,0.20998015,0.32384795,0.2908747,0.48356643,-0.050743617,0.04957331,0.5000475,0.35514748,-0.25468397,-0.15185088,0.28954294,764.35895,791.3553,811.0989,794.57874,1104.4323,-0.0390625,0.070068359375,0.9859619140625,2.85614013671875,-4.119720458984375,1.83929443359375,1.0,2.0,1.0,1.0,2.0,85.0,event
09:16:57.470,0.9193356,0.6804148,0.5119463,0.9246507,0.25445223,0.6127032,0.32418877,0.22685397,0.29473695,0.20998015,0.32384795,0.2908747,0.48356643,-0.050743617,0.04957331,0.5000475,0.35514748,-0.25468397,-0.15185088,0.28954294,767.1795,791.75824,813.5165,796.99634,992.4176,-0.0390625,0.070068359375,0.9859619140625,2.85614013671875,-4.119720458984375,1.83929443359375,1.0,2.0,1.0,1.0,2.0,85.0,event
09:16:57.472,0.9193356,0.6804148,0.5119463,0.9246507,0.25445223,0.6127032,0.32418877,0.22685397,0.29473695,0.20998015,0.32384795,0.2908747,0.48356643,-0.050743617,0.04957331,0.5000475,0.35514748,-0.25468397,-0.15185088,0.28954294,776.8498,799.81683,817.9487,796.99634,705.12823,-0.0390625,0.070068359375,0.9859619140625,2.85614013671875,-4.119720458984375,1.83929443359375,1.0,2.0,1.0,1.0,2.0,85.0,event
09:16:57.473,0.9193356,0.6804148,0.5119463,0.9246507,0.25445223,0.6127032,0.32418877,0.22685397,0.29473695,0.20998015,0.32384795,0.2908747,0.48356643,-0.050743617,0.04957331,0.5000475,0.35514748,-0.25468397,-0.15185088,0.28954294,768.3883,801.8315,811.0989,796.99634,723.2601,-0.0390625,0.070068359375,0.9859619140625,2.85614013671875,-4.119720458984375,1.83929443359375,1.0,2.0,1.0,1.0,2.0,85.0,event
09:16:57.474,0.9193356,0.6804148,0.5119463,0.9246507,0.25445223,0.6127032,0.32418877,0.22685397,0.29473695,0.20998015,0.32384795,0.2908747,0.48356643,-0.050743617,0.04957331,0.5000475,0.35514748,-0.25468397,-0.15185088,0.28954294,762.74725,800.6227,803.0403,798.20514,786.1172,-0.0390625,0.070068359375,0.9859619140625,2.85614013671875,-4.119720458984375,1.83929443359375,1.0,2.0,1.0,1.0,2.0,85.0,event
09:16:57.475,0.9193356,0.6696649,0.49549833,0.9246507,0.25445223,0.602226,0.29181707,0.22685397,0.29473695,0.20998015,0.32416704,0.2908747,0.48356643,-0.063108794,0.044924255,0.5000475,0.35514748,-0.25289023,-0.16670042,0.28954294,778.0586,805.4579,801.02563,791.75824,826.4103,-0.0390625,0.070068359375,0.9859619140625,2.85614013671875,-4.119720458984375,1.83929443359375,1.0,2.0,1.0,1.0,2.0,85.0,event
09:16:57.505,0.9193356,0.6696649,0.49549833,0.9246507,0.25445223,0.602226,0.29181707,0.22685397,0.29473695,0.20998015,0.32416704,0.2908747,0.48356643,-0.063108794,0.044924255,0.5000475,0.35514748,-0.25289023,-0.16670042,0.28954294,767.98535,799.41394,801.8315,787.326,806.6667,-0.031005859375,0.0828857421875,0.982666015625,3.6187744140625,-4.65057373046875,1.951446533203125,1.0,2.0,1.0,1.0,2.0,85.0,event
09:16:57.506,0.9193356,0.6696649,0.49549833,0.9246507,0.25445223,0.602226,0.29181707,0.22685397,0.29473695,0.20998015,0.32416704,0.2908747,0.48356643,-0.063108794,0.044924255,0.5000475,0.35514748,-0.25289023,-0.16670042,0.28954294,766.3736,801.4286,800.6227,794.9817,780.4762,-0.031005859375,0.0828857421875,0.982666015625,3.6187744140625,-4.65057373046875,1.951446533203125,1.0,2.0,1.0,1.0,2.0,85.0,event
09:16:57.506,0.9193356,0.6696649,0.49549833,0.9246507,0.25445223,0.602226,0.29181707,0.22685397,0.29473695,0.20998015,0.32416704,0.2908747,0.48356643,-0.063108794,0.044924255,0.5000475,0.35514748,-0.25289023,-0.16670042,0.28954294,765.56775,796.99634,801.8315,789.34064,798.60803,-0.031005859375,0.0828857421875,0.982666015625,3.6187744140625,-4.65057373046875,1.951446533203125,1.0,2.0,1.0,1.0,2.0,85.0,event
09:16:57.507,0.9193356,0.6696649,0.49549833,0.9246507,0.25445223,0.602226,0.29181707,0.22685397,0.29473695,0.20998015,0.32416704,0.2908747,0.48356643,-0.063108794,0.044924255,0.5000475,0.35514748,-0.25289023,-0.16670042,0.28954294,765.16486,797.3993,798.60803,801.02563,720.4396,-0.031005859375,0.0828857421875,0.982666015625,3.6187744140625,-4.65057373046875,1.951446533203125,1.0,2.0,1.0,1.0,2.0,85.0,event
09:16:57.507,0.9193356,0.6696649,0.49549833,0.9246507,0.25445223,0.602226,0.29181707,0.22685397,0.29473695,0.20998015,0.32416704,0.2908747,0.48356643,-0.063108794,0.044924255,0.5000475,0.35514748,-0.25289023,-0.16670042,0.28954294,767.1795,796.1905,800.2198,789.7436,696.26373,-0.031005859375,0.0828857421875,0.982666015625,3.6187744140625,-4.65057373046875,1.951446533203125,1.0,2.0,1.0,1.0,2.0,85.0,event
09:16:57.508,0.9193356,0.6696649,0.49549833,0.9246507,0.25445223,0.602226,0.29181707,0.22685397,0.29473695,0.20998015,0.32416704,0.2908747,0.48356643,-0.063108794,0.044924255,0.5000475,0.35514748,-0.25289023,-0.16670042,0.28954294,758.71796,799.011,807.0696,775.2381,842.9304,-0.031005859375,0.0828857421875,0.982666015625,3.6187744140625,-4.65057373046875,1.951446533203125,1.0,2.0,1.0,1.0,2.0,85.0,event
09:16:57.508,0.9193356,0.6696649,0.49549833,0.9246507,0.25445223,0.602226,0.29181707,0.22685397,0.29473695,0.20998015,0.32416704,0.2908747,0.48356643,-0.063108794,0.044924255,0.5000475,0.35514748,-0.25289023,-0.16670042,0.28954294,762.74725,805.8608,799.011,775.2381,928.7546,-0.031005859375,0.0828857421875,0.982666015625,3.6187744140625,-4.65057373046875,1.951446533203125,1.0,2.0,1.0,1.0,2.0,85.0,event
09:16:57.509,0.9193356,0.6696649,0.49549833,0.9246507,0.25445223,0.602226,0.29181707,0.22685397,0.29473695,0.20998015,0.32416704,0.2908747,0.48356643,-0.063108794,0.044924255,0.5000475,0.35514748,-0.25289023,-0.16670042,0.28954294,761.13556,803.44324,795.78754,779.2674,843.73627,-0.031005859375,0.0828857421875,0.982666015625,3.6187744140625,-4.65057373046875,1.951446533203125,1.0,2.0,1.0,1.0,2.0,85.0,event
09:16:57.509,0.9193356,0.6696649,0.49549833,0.9246507,0.25445223,0.602226,0.29181707,0.22685397,0.29473695,0.20998015,0.32416704,0.2908747,0.48356643,-0.063108794,0.044924255,0.5000475,0.35514748,-0.25289023,-0.16670042,0.28954294,759.5238,798.60803,815.12823,780.4762,715.2015,-0.031005859375,0.0828857421875,0.982666015625,3.6187744140625,-4.65057373046875,1.951446533203125,1.0,2.0,1.0,1.0,2.0,85.0,event
09:16:57.510,0.9193356,0.6696649,0.49549833,0.9246507,0.25445223,0.602226,0.29181707,0.22685397,0.29473695,0.20998015,0.32416704,0.2908747,0.48356643,-0.063108794,0.044924255,0.5000475,0.35514748,-0.25289023,-0.16670042,0.28954294,764.7619,798.20514,808.2784,784.10254,921.0989,-0.031005859375,0.0828857421875,0.982666015625,3.6187744140625,-4.65057373046875,1.951446533203125,1.0,2.0,1.0,1.0,2.0,85.0,event
09:16:57.510,0.9193356,0.6696649,0.49549833,0.9246507,0.25445223,0.602226,0.29181707,0.22685397,0.29473695,0.20998015,0.32416704,0.2908747,0.48356643,-0.063108794,0.044924255,0.5000475,0.35514748,-0.25289023,-0.16670042,0.28954294,762.3443,796.1905,801.4286,781.685,1118.1318,-0.031005859375,0.0828857421875,0.982666015625,3.6187744140625,-4.65057373046875,1.951446533203125,1.0,2.0,1.0,1.0,2.0,85.0,event
09:16:57.511,0.9193356,0.6696649,0.49549833,0.9246507,0.25445223,0.602226,0.29181707,0.22685397,0.29473695,0.20998015,0.32416704,0.2908747,0.48356643,-0.063108794,0.044924255,0.5000475,0.35514748,-0.25289023,-0.16670042,0.28954294,757.9121,792.96704,809.89014,788.5348,804.65204,-0.031005859375,0.0828857421875,0.982666015625,3.6187744140625,-4.65057373046875,1.951446533203125,1.0,2.0,1.0,1.0,2.0,85.0,event
09:16:57.542,0.9193356,0.6696649,0.49549833,0.9246507,0.25445223,0.602226,0.29181707,0.22685397,0.29473695,0.20998015,0.32416704,0.2908747,0.48356643,-0.063108794,0.044924255,0.5000475,0.35514748,-0.25289023,-0.16670042,0.28954294,756.7033,802.23444,805.4579,785.7143,697.8755,-0.0467529296875,0.08544921875,0.98663330078125,2.4822998046875,-2.691650390625,1.27105712890625,1.0,2.0,1.0,1.0,2.0,85.0,event
09:16:57.543,0.9193356,0.6696649,0.49549833,0.9246507,0.25445223,0.602226,0.29181707,0.22685397,0.29473695,0.20998015,0.32416704,0.2908747,0.48356643,-0.063108794,0.044924255,0.5000475,0.35514748,-0.25289023,-0.16670042,0.28954294,765.56775,807.47253,803.0403,784.10254,770.40295,-0.0467529296875,0.08544921875,0.98663330078125,2.4822998046875,-2.691650390625,1.27105712890625,1.0,2.0,1.0,1.0,2.0,85.0,event
09:16:57.544,0.9193356,0.6696649,0.49549833,0.9246507,0.25445223,0.602226,0.29181707,0.22685397,0.29473695,0.20998015,0.32416704,0.2908747,0.48356643,-0.063108794,0.044924255,0.5000475,0.35514748,-0.25289023,-0.16670042,0.28954294,768.7912,799.41394,809.0842,788.5348,739.7802,-0.0467529296875,0.08544921875,0.98663330078125,2.4822998046875,-2.691650390625,1.27105712890625,1.0,2.0,1.0,1.0,2.0,85.0,event
09:16:57.545,0.9193356,0.6696649,0.49549833,0.9246507,0.25445223,0.602226,0.29181707,0.22685397,0.29473695,0.20998015,0.32416704,0.2908747,0.48356643,-0.063108794,0.044924255,0.5000475,0.35514748,-0.25289023,-0.16670042,0.28954294,763.1502,796.99634,807.0696,778.46155,729.707,-0.0467529296875,0.08544921875,0.98663330078125,2.4822998046875,-2.691650390625,1.27105712890625,1.0,2.0,1.0,1.0,2.0,85.0,event
09:16:57.545,0.9193356,0.6696649,0.49549833,0.9246507,0.25445223,0.602226,0.29181707,0.22685397,0.29473695,0.20998015,0.32416704,0.2908747,0.48356643,-0.063108794,0.044924255,0.5000475,0.35514748,-0.25289023,-0.16670042,0.28954294,758.71796,794.17584,807.0696,774.43225,784.5055,-0.0467529296875,0.08544921875,0.98663330078125,2.4822998046875,-2.691650390625,1.27105712890625,1.0,2.0,1.0,1.0,2.0,85.0,event
09:16:57.546,0.9193356,0.6696649,0.49549833,0.9246507,0.25445223,0.602226,0.29181707,0.22685397,0.29473695,0.20998015,0.32416704,0.2908747,0.48356643,-0.063108794,0.044924255,0.5000475,0.35514748,-0.25289023,-0.16670042,0.28954294,762.74725,793.7729,807.0696,770.0,873.1502,-0.0467529296875,0.08544921875,0.98663330078125,2.4822998046875,-2.691650390625,1.27105712890625,1.0,2.0,1.0,1.0,2.0,85.0,event
09:16:57.546,0.9193356,0.6696649,0.49549833,0.9246507,0.25445223,0.602226,0.29181707,0.22685397,0.29473695,0.20998015,0.32416704,0.2908747,0.48356643,-0.063108794,0.044924255,0.5000475,0.35514748,-0.25289023,-0.16670042,0.28954294,765.9707,801.8315,803.0403,776.4469,860.65936,-0.0467529296875,0.08544921875,0.98663330078125,2.4822998046875,-2.691650390625,1.27105712890625,1.0,2.0,1.0,1.0,2.0,85.0,event
09:16:57.547,0.9193356,0.6696649,0.49549833,0.9246507,0.25445223,0.602226,0.29181707,0.22685397,0.29473695,0.20998015,0.32416704,0.2908747,0.48356643,-0.063108794,0.044924255,0.5000475,0.35514748,-0.25289023,-0.16670042,0.28954294,755.09155,801.8315,799.011,785.7143,809.89014,-0.0467529296875,0.08544921875,0.98663330078125,2.4822998046875,-2.691650390625,1.27105712890625,1.0,2.0,1.0,1.0,2.0,85.0,event
09:16:57.547,0.9193356,0.6696649,0.49549833,0.9246507,0.25445223,0.602226,0.29181707,0.22685397,0.29473695,0.20998015,0.32416704,0.2908747,0.48356643,-0.063108794,0.044924255,0.5000475,0.35514748,-0.25289023,-0.16670042,0.28954294,757.1062,801.8315,801.02563,785.7143,789.34064,-0.0467529296875,0.08544921875,0.98663330078125,2.4822998046875,-2.691650390625,1.27105712890625,1.0,2.0,1.0,1.0,2.0,85.0,event
09:16:57.548,0.9193356,0.6696649,0.49549833,0.9246507,0.25445223,0.602226,0.29181707,0.22685397,0.29473695,0.20998015,0.32416704,0.2908747,0.48356643,-0.063108794,0.044924255,0.5000475,0.35514748,-0.25289023,-0.16670042,0.28954294,749.0476,799.81683,803.44324,787.326,1116.1172,-0.0467529296875,0.08544921875,0.98663330078125,2.4822998046875,-2.691650390625,1.27105712890625,1.0,2.0,1.0,1.0,2.0,85.0,event
09:16:57.548,0.9193356,0.6696649,0.49549833,0.9246507,0.25445223,0.602226,0.29181707,0.22685397,0.29473695,0.20998015,0.32416704,0.2908747,0.48356643,-0.063108794,0.044924255,0.5000475,0.35514748,-0.25289023,-0.16670042,0.28954294,746.63007,801.8315,810.293,781.685,968.6447,-0.0467529296875,0.08544921875,0.98663330078125,2.4822998046875,-2.691650390625,1.27105712890625,1.0,2.0,1.0,1.0,2.0,85.0,event
09:16:57.549,0.9193356,0.6696649,0.49549833,0.9246507,0.25445223,0.602226,0.29181707,0.22685397,0.29473695,0.20998015,0.32416704,0.2908747,0.48356643,-0.063108794,0.044924255,0.5000475,0.35514748,-0.25289023,-0.16670042,0.28954294,755.89746,803.0403,813.91943,788.5348,684.17584,-0.0467529296875,0.08544921875,0.98663330078125,2.4822998046875,-2.691650390625,1.27105712890625,1.0,2.0,1.0,1.0,2.0,85.0,event
09:16:57.610,0.9193356,0.6696649,0.49549833,0.9246507,0.25445223,0.602226,0.29181707,0.22685397,0.29473695,0.20998015,0.32416704,0.2908747,0.48356643,-0.063108794,0.044924255,0.5000475,0.35514748,-0.25289023,-0.16670042,0.28954294,765.9707,802.23444,809.0842,806.26373,744.21246,-0.046875,0.0826416015625,0.98931884765625,2.340240478515625,-3.372039794921875,-0.478515625,1.0,2.0,1.0,1.0,2.0,85.0,event
09:16:57.611,0.9193356,0.640294,0.46483693,0.9246507,0.25445223,0.5630963,0.2350018,0.22685397,0.29473695,0.20998015,0.32454273,0.2908747,0.48356643,-0.075934485,0.045422062,0.5000475,0.35514748,-0.25462592,-0.19248486,0.28954294,766.77655,805.4579,803.8461,797.3993,734.5421,-0.046875,0.0826416015625,0.98931884765625,2.340240478515625,-3.372039794921875,-0.478515625,1.0,2.0,1.0,1.0,2.0,85.0,event
09:16:57.616,0.9193356,0.640294,0.46483693,0.9246507,0.25445223,0.5630963,0.2350018,0.22685397,0.29473695,0.20998015,0.32454273,0.2908747,0.48356643,-0.075934485,0.045422062,0.5000475,0.35514748,-0.25462592,-0.19248486,0.28954294,763.95605,799.011,809.89014,780.87915,671.28204,-0.046875,0.0826416015625,0.98931884765625,2.340240478515625,-3.372039794921875,-0.478515625,1.0,2.0,1.0,1.0,2.0,85.0,event
09:16:57.617,0.9193356,0.640294,0.46483693,0.9246507,0.25445223,0.5630963,0.2350018,0.22685397,0.29473695,0.20998015,0.32454273,0.2908747,0.48356643,-0.075934485,0.045422062,0.5000475,0.35514748,-0.25462592,-0.19248486,0.28954294,754.2857,790.54944,809.4872,766.77655,664.0293,-0.046875,0.0826416015625,0.98931884765625,2.340240478515625,-3.372039794921875,-0.478515625,1.0,2.0,1.0,1.0,2.0,85.0,event
09:16:57.617,0.9193356,0.640294,0.46483693,0.9246507,0.25445223,0.5630963,0.2350018,0.22685397,0.29473695,0.20998015,0.32454273,0.2908747,0.48356643,-0.075934485,0.045422062,0.5000475,0.35514748,-0.25462592,-0.19248486,0.28954294,751.06226,788.93774,803.8461,786.9231,774.43225,-0.046875,0.0826416015625,0.98931884765625,2.340240478515625,-3.372039794921875,-0.478515625,1.0,2.0,1.0,1.0,2.0,85.0,event
09:16:57.618,0.9193356,0.640294,0.46483693,0.9246507,0.25445223,0.5630963,0.2350018,0.22685397,0.29473695,0.20998015,0.32454273,0.2908747,0.48356643,-0.075934485,0.045422062,0.5000475,0.35514748,-0.25462592,-0.19248486,0.28954294,760.32965,797.8022,803.8461,804.65204,828.8278,-0.046875,0.0826416015625,0.98931884765625,2.340240478515625,-3.372039794921875,-0.478515625,1.0,2.0,1.0,1.0,2.0,85.0,event
09:16:57.619,0.9193356,0.640294,0.46483693,0.9246507,0.25445223,0.5630963,0.2350018,0.22685397,0.29473695,0.20998015,0.32454273,0.2908747,0.48356643,-0.075934485,0.045422062,0.5000475,0.35514748,-0.25462592,-0.19248486,0.28954294,767.98535,802.23444,803.44324,785.31134,840.5128,-0.046875,0.0826416015625,0.98931884765625,2.340240478515625,-3.372039794921875,-0.478515625,1.0,2.0,1.0,1.0,2.0,85.0,event
09:16:57.619,0.9193356,0.640294,0.46483693,0.9246507,0.25445223,0.5630963,0.2350018,0.22685397,0.29473695,0.20998015,0.32454273,0.2908747,0.48356643,-0.075934485,0.045422062,0.5000475,0.35514748,-0.25462592,-0.19248486,0.28954294,771.6117,804.65204,803.8461,780.4762,738.97437,-0.046875,0.0826416015625,0.98931884765625,2.340240478515625,-3.372039794921875,-0.478515625,1.0,2.0,1.0,1.0,2.0,85.0,event
09:16:57.620,0.9193356,0.640294,0.46483693,0.9246507,0.25445223,0.5630963,0.2350018,0.22685397,0.29473695,0.20998015,0.32454273,0.2908747,0.48356643,-0.075934485,0.045422062,0.5000475,0.35514748,-0.25462592,-0.19248486,0.28954294,767.1795,803.0403,805.8608,790.9524,866.7033,-0.046875,0.0826416015625,0.98931884765625,2.340240478515625,-3.372039794921875,-0.478515625,1.0,2.0,1.0,1.0,2.0,85.0,event
09:16:57.620,0.9193356,0.640294,0.46483693,0.9246507,0.25445223,0.5630963,0.2350018,0.22685397,0.29473695,0.20998015,0.32454273,0.2908747,0.48356643,-0.075934485,0.045422062,0.5000475,0.35514748,-0.25462592,-0.19248486,0.28954294,767.5824,799.41394,801.8315,794.57874,957.76556,-0.046875,0.0826416015625,0.98931884765625,2.340240478515625,-3.372039794921875,-0.478515625,1.0,2.0,1.0,1.0,2.0,85.0,event
09:16:57.621,0.9193356,0.640294,0.46483693,0.9246507,0.25445223,0.5630963,0.2350018,0.22685397,0.29473695,0.20998015,0.32454273,0.2908747,0.48356643,-0.075934485,0.045422062,0.5000475,0.35514748,-0.25462592,-0.19248486,0.28954294,772.01465,801.8315,798.60803,795.78754,740.58606,-0.046875,0.0826416015625,0.98931884765625,2.340240478515625,-3.372039794921875,-0.478515625,1.0,2.0,1.0,1.0,2.0,85.0,event
09:16:57.622,0.9193356,0.640294,0.46483693,0.9246507,0.25445223,0.5630963,0.2350018,0.22685397,0.29473695,0.20998015,0.32454273,0.2908747,0.48356643,-0.075934485,0.045422062,0.5000475,0.35514748,-0.25462592,-0.19248486,0.28954294,774.0293,803.44324,803.0403,794.9817,718.022,-0.046875,0.0826416015625,0.98931884765625,2.340240478515625,-3.372039794921875,-0.478515625,1.0,2.0,1.0,1.0,2.0,85.0,event
09:16:57.650,0.9193356,0.640294,0.46483693,0.9246507,0.25445223,0.5630963,0.2350018,0.22685397,0.29473695,0.20998015,0.32454273,0.2908747,0.48356643,-0.075934485,0.045422062,0.5000475,0.35514748,-0.25462592,-0.19248486,0.28954294,776.4469,797.3993,805.8608,789.7436,797.8022,-0.0401611328125,0.07415771484375,0.9814453125,1.443023681640625,-4.05242919921875,-0.31402587890625,1.0,2.0,1.0,1.0,2.0,85.0,event
09:16:57.651,0.9193356,0.640294,0.46483693,0.9246507,0.25445223,0.5630963,0.2350018,0.22685397,0.29473695,0.20998015,0.32454273,0.2908747,0.48356643,-0.075934485,0.045422062,0.5000475,0.35514748,-0.25462592,-0.19248486,0.28954294,770.0,793.7729,797.8022,786.1172,783.69965,-0.0401611328125,0.07415771484375,0.9814453125,1.443023681640625,-4.05242919921875,-0.31402587890625,1.0,2.0,1.0,1.0,2.0,85.0,event
09:16:57.652,0.9193356,0.640294,0.46483693,0.9246507,0.25445223,0.5630963,0.2350018,0.22685397,0.29473695,0.20998015,0.32454273,0.2908747,0.48356643,-0.075934485,0.045422062,0.5000475,0.35514748,-0.25462592,-0.19248486,0.28954294,766.77655,801.8315,799.011,789.34064,676.9231,-0.0401611328125,0.07415771484375,0.9814453125,1.443023681640625,-4.05242919921875,-0.31402587890625,1.0,2.0,1.0,1.0,2.0,85.0,event
09:16:57.652,0.9193356,0.640294,0.46483693,0.9246507,0.25445223,0.5630963,0.2350018,0.22685397,0.29473695,0.20998015,0.32454273,0.2908747,0.48356643,-0.075934485,0.045422062,0.5000475,0.35514748,-0.25462592,-0.19248486,0.28954294,770.0,803.0403,806.6667,794.9817,755.89746,-0.0401611328125,0.07415771484375,0.9814453125,1.443023681640625,-4.05242919921875,-0.31402587890625,1.0,2.0,1.0,1.0,2.0,85.0,event
09:16:57.653,0.9193356,0.640294,0.46483693,0.9246507,0.25445223,0.5630963,0.2350018,0.22685397,0.29473695,0.20998015,0.32454273,0.2908747,0.48356643,-0.075934485,0.045422062,0.5000475,0.35514748,-0.25462592,-0.19248486,0.28954294,770.80585,800.2198,813.1135,805.05493,875.56775,-0.0401611328125,0.07415771484375,0.9814453125,1.443023681640625,-4.05242919921875,-0.31402587890625,1.0,2.0,1.0,1.0,2.0,85.0,event
09:16:57.653,0.9193356,0.640294,0.46483693,0.9246507,0.25445223,0.5630963,0.2350018,0.22685397,0.29473695,0.20998015,0.32454273,0.2908747,0.48356643,-0.075934485,0.045422062,0.5000475,0.35514748,-0.25462592,-0.19248486,0.28954294,765.9707,801.02563,818.3516,788.1319,859.85345,-0.0401611328125,0.07415771484375,0.9814453125,1.443023681640625,-4.05242919921875,-0.31402587890625,1.0,2.0,1.0,1.0,2.0,85.0,event
09:16:57.654,0.9193356,0.640294,0.46483693,0.9246507,0.25445223,0.5630963,0.2350018,0.22685397,0.29473695,0.20998015,0.32454273,0.2908747,0.48356643,-0.075934485,0.045422062,0.5000475,0.35514748,-0.25462592,-0.19248486,0.28954294,770.40295,801.02563,813.1135,787.72894,797.3993,-0.0401611328125,0.07415771484375,0.9814453125,1.443023681640625,-4.05242919921875,-0.31402587890625,1.0,2.0,1.0,1.0,2.0,85.0,event
09:16:57.655,0.9193356,0.640294,0.46483693,0.9246507,0.25445223,0.5630963,0.2350018,0.22685397,0.29473695,0.20998015,0.32454273,0.2908747,0.48356643,-0.075934485,0.045422062,0.5000475,0.35514748,-0.25462592,-0.19248486,0.28954294,773.22345,796.5934,809.89014,796.5934,823.5897,-0.0401611328125,0.07415771484375,0.9814453125,1.443023681640625,-4.05242919921875,-0.31402587890625,1.0,2.0,1.0,1.0,2.0,85.0,event
09:16:57.656,0.9193356,0.640294,0.46483693,0.9246507,0.25445223,0.5630963,0.2350018,0.22685397,0.29473695,0.20998015,0.32454273,0.2908747,0.48356643,-0.075934485,0.045422062,0.5000475,0.35514748,-0.25462592,-0.19248486,0.28954294,763.1502,794.17584,813.1135,788.93774,979.12085,-0.0401611328125,0.07415771484375,0.9814453125,1.443023681640625,-4.05242919921875,-0.31402587890625,1.0,2.0,1.0,1.0,2.0,85.0,event
09:16:57.657,0.9193356,0.640294,0.46483693,0.9246507,0.25445223,0.5630963,0.2350018,0.22685397,0.29473695,0.20998015,0.32454273,0.2908747,0.48356643,-0.075934485,0.045422062,0.5000475,0.35514748,-0.25462592,-0.19248486,0.28954294,771.6117,807.0696,813.1135,798.60803,822.381,-0.0401611328125,0.07415771484375,0.9814453125,1.443023681640625,-4.05242919921875,-0.31402587890625,1.0,2.0,1.0,1.0,2.0,85.0,event
09:16:57.658,0.9193356,0.640294,0.46483693,0.9246507,0.25445223,0.5630963,0.2350018,0.22685397,0.29473695,0.20998015,0.32454273,0.2908747,0.48356643,-0.075934485,0.045422062,0.5000475,0.35514748,-0.25462592,-0.19248486,0.28954294,778.86444,809.0842,813.5165,796.99634,681.3553,-0.0401611328125,0.07415771484375,0.9814453125,1.443023681640625,-4.05242919921875,-0.31402587890625,1.0,2.0,1.0,1.0,2.0,85.0,event
09:16:57.660,0.9193356,0.640294,0.46483693,0.9246507,0.25445223,0.5630963,0.2350018,0.22685397,0.29473695,0.20998015,0.32454273,0.2908747,0.48356643,-0.075934485,0.045422062,0.5000475,0.35514748,-0.25462592,-0.19248486,0.28954294,776.8498,804.65204,812.3077,793.36993,786.52014,-0.0401611328125,0.07415771484375,0.9814453125,1.443023681640625,-4.05242919921875,-0.31402587890625,1.0,2.0,1.0,1.0,2.0,85.0,event
09:16:57.685,0.9193356,0.640294,0.46483693,0.9246507,0.25445223,0.5630963,0.2350018,0.22685397,0.29473695,0.20998015,0.32454273,0.2908747,0.48356643,-0.075934485,0.045422062,0.5000475,0.35514748,-0.25462592,-0.19248486,0.28954294,774.43225,803.44324,813.5165,794.57874,795.38464,-0.0401611328125,0.07415771484375,0.9814453125,1.443023681640625,-4.05242919921875,-0.31402587890625,1.0,2.0,1.0,1.0,2.0,85.0,event
09:16:57.686,0.9193356,0.640294,0.46483693,0.9246507,0.25445223,0.5630963,0.2350018,0.22685397,0.29473695,0.20998015,0.32454273,0.2908747,0.48356643,-0.075934485,0.045422062,0.5000475,0.35514748,-0.25462592,-0.19248486,0.28954294,761.53845,799.41394,812.71063,800.6227,786.9231,-0.0401611328125,0.07415771484375,0.9814453125,1.443023681640625,-4.05242919921875,-0.31402587890625,1.0,2.0,1.0,1.0,2.0,85.0,event
09:16:57.687,0.9193356,0.640294,0.46483693,0.9246507,0.25445223,0.5630963,0.2350018,0.22685397,0.29473695,0.20998015,0.32454273,0.2908747,0.48356643,-0.075934485,0.045422062,0.5000475,0.35514748,-0.25462592,-0.19248486,0.28954294,765.16486,801.02563,803.0403,803.0403,792.5641,-0.0401611328125,0.07415771484375,0.9814453125,1.443023681640625,-4.05242919921875,-0.31402587890625,1.0,2.0,1.0,1.0,2.0,85.0,event
09:16:57.689,0.9193356,0.59164333,0.4050916,0.9246507,0.25445223,0.4883373,0.13429311,0.22685397,0.29473695,0.20998015,0.3250185,0.2908747,0.48356643,-0.085146606,0.06061604,0.5000475,0.35514748,-0.26109064,-0.22270821,0.28954294,772.4176,809.0842,801.4286,786.9231,813.5165,-0.0401611328125,0.07415771484375,0.9814453125,1.443023681640625,-4.05242919921875,-0.31402587890625,1.0,2.0,1.0,1.0,2.0,85.0,event
09:16:57.693,0.9193356,0.59164333,0.4050916,0.9246507,0.25445223,0.4883373,0.13429311,0.22685397,0.29473695,0.20998015,0.3250185,0.2908747,0.48356643,-0.085146606,0.06061604,0.5000475,0.35514748,-0.26109064,-0.22270821,0.28954294,765.56775,804.65204,808.2784,782.8938,840.9158,-0.0401611328125,0.07415771484375,0.9814453125,1.443023681640625,-4.05242919921875,-0.31402587890625,1.0,2.0,1.0,1.0,2.0,85.0,event
09:16:57.694,0.9193356,0.59164333,0.4050916,0.9246507,0.25445223,0.4883373,0.13429311,0.22685397,0.29473695,0.20998015,0.3250185,0.2908747,0.48356643,-0.085146606,0.06061604,0.5000475,0.35514748,-0.26109064,-0.22270821,0.28954294,763.5531,799.41394,811.50183,785.7143,844.1392,-0.0401611328125,0.07415771484375,0.9814453125,1.443023681640625,-4.05242919921875,-0.31402587890625,1.0,2.0,1.0,1.0,2.0,85.0,event
09:16:57.695,0.9193356,0.59164333,0.4050916,0.9246507,0.25445223,0.4883373,0.13429311,0.22685397,0.29473695,0.20998015,0.3250185,0.2908747,0.48356643,-0.085146606,0.06061604,0.5000475,0.35514748,-0.26109064,-0.22270821,0.28954294,761.53845,803.8461,806.26373,790.9524,852.1978,-0.0401611328125,0.07415771484375,0.9814453125,1.443023681640625,-4.05242919921875,-0.31402587890625,1.0,2.0,1.0,1.0,2.0,85.0,event
09:16:57.695,0.9193356,0.59164333,0.4050916,0.9246507,0.25445223,0.4883373,0.13429311,0.22685397,0.29473695,0.20998015,0.3250185,0.2908747,0.48356643,-0.085146606,0.06061604,0.5000475,0.35514748,-0.26109064,-0.22270821,0.28954294,764.35895,808.68134,801.4286,808.68134,1030.2931,-0.0401611328125,0.07415771484375,0.9814453125,1.443023681640625,-4.05242919921875,-0.31402587890625,1.0,2.0,1.0,1.0,2.0,85.0,event
09:16:57.696,0.9193356,0.59164333,0.4050916,0.9246507,0.25445223,0.4883373,0.13429311,0.22685397,0.29473695,0.20998015,0.3250185,0.2908747,0.48356643,-0.085146606,0.06061604,0.5000475,0.35514748,-0.26109064,-0.22270821,0.28954294,765.56775,813.5165,806.26373,807.47253,1084.6886,-0.0401611328125,0.07415771484375,0.9814453125,1.443023681640625,-4.05242919921875,-0.31402587890625,1.0,2.0,1.0,1.0,2.0,85.0,event
09:16:57.696,0.9193356,0.59164333,0.4050916,0.9246507,0.25445223,0.4883373,0.13429311,0.22685397,0.29473695,0.20998015,0.3250185,0.2908747,0.48356643,-0.085146606,0.06061604,0.5000475,0.35514748,-0.26109064,-0.22270821,0.28954294,761.13556,809.4872,809.4872,790.9524,775.64105,-0.0401611328125,0.07415771484375,0.9814453125,1.443023681640625,-4.05242919921875,-0.31402587890625,1.0,2.0,1.0,1.0,2.0,85.0,event
09:16:57.697,0.9193356,0.59164333,0.4050916,0.9246507,0.25445223,0.4883373,0.13429311,0.22685397,0.29473695,0.20998015,0.3250185,0.2908747,0.48356643,-0.085146606,0.06061604,0.5000475,0.35514748,-0.26109064,-0.22270821,0.28954294,764.7619,810.293,807.47253,786.9231,686.99634,-0.0401611328125,0.07415771484375,0.9814453125,1.443023681640625,-4.05242919921875,-0.31402587890625,1.0,2.0,1.0,1.0,2.0,85.0,event
09:16:57.697,0.9193356,0.59164333,0.4050916,0.9246507,0.25445223,0.4883373,0.13429311,0.22685397,0.29473695,0.20998015,0.3250185,0.2908747,0.48356643,-0.085146606,0.06061604,0.5000475,0.35514748,-0.26109064,-0.22270821,0.28954294,765.9707,809.4872,809.4872,800.2198,732.52747,-0.0401611328125,0.07415771484375,0.9814453125,1.443023681640625,-4.05242919921875,-0.31402587890625,1.0,2.0,1.0,1.0,2.0,85.0,event
09:16:57.728,0.9193356,0.59164333,0.4050916,0.9246507,0.25445223,0.4883373,0.13429311,0.22685397,0.29473695,0.20998015,0.3250185,0.2908747,0.48356643,-0.085146606,0.06061604,0.5000475,0.35514748,-0.26109064,-0.22270821,0.28954294,763.5531,807.0696,813.1135,811.50183,729.304,-0.0362548828125,0.06829833984375,0.98382568359375,1.92901611328125,-4.104766845703125,-0.142059326171875,1.0,2.0,1.0,1.0,2.0,85.0,event
09:16:57.729,0.9193356,0.59164333,0.4050916,0.9246507,0.25445223,0.4883373,0.13429311,0.22685397,0.29473695,0.20998015,0.3250185,0.2908747,0.48356643,-0.085146606,0.06061604,0.5000475,0.35514748,-0.26109064,-0.22270821,0.28954294,766.77655,811.50183,809.89014,802.23444,688.20514,-0.0362548828125,0.06829833984375,0.98382568359375,1.92901611328125,-4.104766845703125,-0.142059326171875,1.0,2.0,1.0,1.0,2.0,85.0,event
