TimeStamp,Delta_TP9,Delta_AF7,Delta_AF8,Delta_TP10,Theta_TP9,Theta_AF7,Theta_AF8,Theta_TP10,Alpha_TP9,Alpha_AF7,Alpha_AF8,Alpha_TP10,Beta_TP9,Beta_AF7,Beta_AF8,Beta_TP10,Gamma_TP9,Gamma_AF7,Gamma_AF8,Gamma_TP10,RAW_TP9,RAW_AF7,RAW_AF8,RAW_TP10,AUX_RIGHT,Accelerometer_X,Accelerometer_Y,Accelerometer_Z,Gyro_X,Gyro_Y,Gyro_Z,HeadBandOn,HSI_TP9,HSI_AF7,HSI_AF8,HSI_TP10,Battery,Elements
11:38:36.211,0.4979982,0.44596356,0.93043804,0.35358387,0.2790962,-0.04211812,0.45979702,0.24319172,0.47522676,0.08183881,0.41848785,0.5761361,0.6656678,0.3044513,-0.16463774,0.30764645,0.22646686,-0.16861604,-0.59538,-0.15199326,687.3993,802.6374,531.06226,813.5165,823.5897,-0.0107421875,-0.01153564453125,0.9912109375,2.459869384765625,-2.818756103515625,0.7476806640625,1.0,2.0,1.0,4.0,2.0,85.0,event
11:38:36.212,0.4979982,0.44596356,0.93043804,0.35358387,0.2790962,-0.04211812,0.45979702,0.24319172,0.47522676,0.08183881,0.41848785,0.5761361,0.6656678,0.3044513,-0.16463774,0.30764645,0.22646686,-0.16861604,-0.59538,-0.15199326,760.32965,811.50183,885.2381,813.91943,703.91943,-0.0107421875,-0.01153564453125,0.9912109375,2.459869384765625,-2.818756103515625,0.7476806640625,1.0,2.0,1.0,4.0,2.0,85.0,event
11:38:36.214,0.4979982,0.44596356,0.93043804,0.35358387,0.2790962,-0.04211812,0.45979702,0.24319172,0.47522676,0.08183881,0.41848785,0.5761361,0.6656678,0.3044513,-0.16463774,0.30764645,0.22646686,-0.16861604,-0.59538,-0.15199326,909.011,804.65204,993.22345,827.2161,796.99634,-0.0107421875,-0.01153564453125,0.9912109375,2.459869384765625,-2.818756103515625,0.7476806640625,1.0,2.0,1.0,4.0,2.0,85.0,event
11:38:36.215,0.4979982,0.44596356,0.93043804,0.35358387,0.2790962,-0.04211812,0.45979702,0.24319172,0.47522676,0.08183881,0.41848785,0.5761361,0.6656678,0.3044513,-0.16463774,0.30764645,0.22646686,-0.16861604,-0.59538,-0.15199326,928.3516,796.5934,720.84247,823.1868,937.2161,-0.0107421875,-0.01153564453125,0.9912109375,2.459869384765625,-2.818756103515625,0.7476806640625,1.0,2.0,1.0,4.0,2.0,85.0,event
11:38:36.216,0.4979982,0.44596356,0.93043804,0.35358387,0.2790962,-0.04211812,0.45979702,0.24319172,0.47522676,0.08183881,0.41848785,0.5761361,0.6656678,0.3044513,-0.16463774,0.30764645,0.22646686,-0.16861604,-0.59538,-0.15199326,790.9524,808.2784,651.9414,803.8461,830.4396,-0.0107421875,-0.01153564453125,0.9912109375,2.459869384765625,-2.818756103515625,0.7476806640625,1.0,2.0,1.0,4.0,2.0,85.0,event
11:38:36.217,0.4979982,0.44596356,0.93043804,0.35358387,0.2790962,-0.04211812,0.45979702,0.24319172,0.47522676,0.08183881,0.41848785,0.5761361,0.6656678,0.3044513,-0.16463774,0.30764645,0.22646686,-0.16861604,-0.59538,-0.15199326,676.9231,808.68134,642.674,794.17584,785.7143,-0.0107421875,-0.01153564453125,0.9912109375,2.459869384765625,-2.818756103515625,0.7476806640625,1.0,2.0,1.0,4.0,2.0,85.0,event
11:38:36.218,0.4979982,0.44596356,0.93043804,0.35358387,0.2790962,-0.04211812,0.45979702,0.24319172,0.47522676,0.08183881,0.41848785,0.5761361,0.6656678,0.3044513,-0.16463774,0.30764645,0.22646686,-0.16861604,-0.59538,-0.15199326,727.6923,803.8461,578.60803,801.4286,881.6117,-0.0107421875,-0.01153564453125,0.9912109375,2.459869384765625,-2.818756103515625,0.7476806640625,1.0,2.0,1.0,4.0,2.0,85.0,event
11:38:36.219,0.4979982,0.44596356,0.93043804,0.35358387,0.2790962,-0.04211812,0.45979702,0.24319172,0.47522676,0.08183881,0.41848785,0.5761361,0.6656678,0.3044513,-0.16463774,0.30764645,0.22646686,-0.16861604,-0.59538,-0.15199326,871.13556,797.8022,373.9194,821.978,1066.9597,-0.0107421875,-0.01153564453125,0.9912109375,2.459869384765625,-2.818756103515625,0.7476806640625,1.0,2.0,1.0,4.0,2.0,85.0,event
11:38:36.219,0.4979982,0.44596356,0.93043804,0.35358387,0.2790962,-0.04211812,0.45979702,0.24319172,0.47522676,0.08183881,0.41848785,0.5761361,0.6656678,0.3044513,-0.16463774,0.30764645,0.22646686,-0.16861604,-0.59538,-0.15199326,927.1429,809.0842,420.2564,824.3956,989.19415,-0.0107421875,-0.01153564453125,0.9912109375,2.459869384765625,-2.818756103515625,0.7476806640625,1.0,2.0,1.0,4.0,2.0,85.0,event
11:38:36.220,0.4979982,0.44596356,0.93043804,0.35358387,0.2790962,-0.04211812,0.45979702,0.24319172,0.47522676,0.08183881,0.41848785,0.5761361,0.6656678,0.3044513,-0.16463774,0.30764645,0.22646686,-0.16861604,-0.59538,-0.15199326,819.5604,817.1429,768.7912,799.81683,707.1429,-0.0107421875,-0.01153564453125,0.9912109375,2.459869384765625,-2.818756103515625,0.7476806640625,1.0,2.0,1.0,4.0,2.0,85.0,event
11:38:36.221,0.4979982,0.44596356,0.93043804,0.35358387,0.2790962,-0.04211812,0.45979702,0.24319172,0.47522676,0.08183881,0.41848785,0.5761361,0.6656678,0.3044513,-0.16463774,0.30764645,0.22646686,-0.16861604,-0.59538,-0.15199326,691.02563,807.47253,760.32965,795.78754,715.6044,-0.0107421875,-0.01153564453125,0.9912109375,2.459869384765625,-2.818756103515625,0.7476806640625,1.0,2.0,1.0,4.0,2.0,85.0,event
11:38:36.222,0.4979982,0.44596356,0.93043804,0.35358387,0.2790962,-0.04211812,0.45979702,0.24319172,0.47522676,0.08183881,0.41848785,0.5761361,0.6656678,0.3044513,-0.16463774,0.30764645,0.22646686,-0.16861604,-0.59538,-0.15199326,719.2308,807.47253,649.92676,815.5311,724.87177,-0.0107421875,-0.01153564453125,0.9912109375,2.459869384765625,-2.818756103515625,0.7476806640625,1.0,2.0,1.0,4.0,2.0,85.0,event
11:38:36.258,0.4979982,0.44596356,0.93043804,0.35358387,0.2790962,-0.04211812,0.45979702,0.24319172,0.47522676,0.08183881,0.41848785,0.5761361,0.6656678,0.3044513,-0.16463774,0.30764645,0.22646686,-0.16861604,-0.59538,-0.15199326,870.32965,809.89014,857.8388,824.7985,712.381,-0.0107421875,-0.01153564453125,0.9912109375,2.459869384765625,-2.818756103515625,0.7476806640625,1.0,2.0,1.0,4.0,2.0,85.0,event
11:38:36.260,0.4979982,0.44596356,0.93043804,0.35358387,0.2790962,-0.04211812,0.45979702,0.24319172,0.47522676,0.08183881,0.41848785,0.5761361,0.6656678,0.3044513,-0.16463774,0.30764645,0.22646686,-0.16861604,-0.59538,-0.15199326,948.0952,807.0696,1023.44324,817.9487,790.14655,-0.0107421875,-0.01153564453125,0.9912109375,2.459869384765625,-2.818756103515625,0.7476806640625,1.0,2.0,1.0,4.0,2.0,85.0,event
11:38:36.261,0.4979982,0.44596356,0.93043804,0.35358387,0.2790962,-0.04211812,0.45979702,0.24319172,0.47522676,0.08183881,0.41848785,0.5761361,0.6656678,0.3044513,-0.16463774,0.30764645,0.22646686,-0.16861604,-0.59538,-0.15199326,831.2454,798.20514,709.15753,801.02563,784.10254,-0.0107421875,-0.01153564453125,0.9912109375,2.459869384765625,-2.818756103515625,0.7476806640625,1.0,2.0,1.0,4.0,2.0,85.0,event
11:38:36.262,0.4979982,0.44596356,0.93043804,0.35358387,0.2790962,-0.04211812,0.45979702,0.24319172,0.47522676,0.08183881,0.41848785,0.5761361,0.6656678,0.3044513,-0.16463774,0.30764645,0.22646686,-0.16861604,-0.59538,-0.15199326,695.4579,803.0403,475.4579,790.14655,767.98535,-0.0107421875,-0.01153564453125,0.9912109375,2.459869384765625,-2.818756103515625,0.7476806640625,1.0,2.0,1.0,4.0,2.0,85.0,event
11:38:36.263,0.4979982,0.44596356,0.93043804,0.35358387,0.2790962,-0.04211812,0.45979702,0.24319172,0.47522676,0.08183881,0.41848785,0.5761361,0.6656678,0.3044513,-0.16463774,0.30764645,0.22646686,-0.16861604,-0.59538,-0.15199326,707.5458,812.3077,720.4396,796.99634,711.1722,-0.0107421875,-0.01153564453125,0.9912109375,2.459869384765625,-2.818756103515625,0.7476806640625,1.0,2.0,1.0,4.0,2.0,85.0,event
11:38:36.264,0.4979982,0.44596356,0.93043804,0.35358387,0.2790962,-0.04211812,0.45979702,0.24319172,0.47522676,0.08183881,0.41848785,0.5761361,0.6656678,0.3044513,-0.16463774,0.30764645,0.22646686,-0.16861604,-0.59538,-0.15199326,839.304,807.47253,738.1685,811.0989,737.3626,-0.0107421875,-0.01153564453125,0.9912109375,2.459869384765625,-2.818756103515625,0.7476806640625,1.0,2.0,1.0,4.0,2.0,85.0,event
11:38:36.268,0.4979982,0.44596356,0.93043804,0.35358387,0.2790962,-0.04211812,0.45979702,0.24319172,0.47522676,0.08183881,0.41848785,0.5761361,0.6656678,0.3044513,-0.16463774,0.30764645,0.22646686,-0.16861604,-0.59538,-0.15199326,931.5751,800.6227,531.8681,813.91943,919.89014,-0.0107421875,-0.01153564453125,0.9912109375,2.459869384765625,-2.818756103515625,0.7476806640625,1.0,2.0,1.0,4.0,2.0,85.0,event
11:38:36.269,0.4979982,0.44596356,0.93043804,0.35358387,0.2790962,-0.04211812,0.45979702,0.24319172,0.47522676,0.08183881,0.41848785,0.5761361,0.6656678,0.3044513,-0.16463774,0.30764645,0.22646686,-0.16861604,-0.59538,-0.15199326,827.619,796.99634,122.893776,793.7729,1118.5348,-0.0107421875,-0.01153564453125,0.9912109375,2.459869384765625,-2.818756103515625,0.7476806640625,1.0,2.0,1.0,4.0,2.0,85.0,event
11:38:36.269,0.4979982,0.44596356,0.93043804,0.35358387,0.2790962,-0.04211812,0.45979702,0.24319172,0.47522676,0.08183881,0.41848785,0.5761361,0.6656678,0.3044513,-0.16463774,0.30764645,0.22646686,-0.16861604,-0.59538,-0.15199326,697.8755,815.5311,399.30402,773.22345,842.1245,-0.0107421875,-0.01153564453125,0.9912109375,2.459869384765625,-2.818756103515625,0.7476806640625,1.0,2.0,1.0,4.0,2.0,85.0,event
11:38:36.270,0.4979982,0.44596356,0.93043804,0.35358387,0.2790962,-0.04211812,0.45979702,0.24319172,0.47522676,0.08183881,0.41848785,0.5761361,0.6656678,0.3044513,-0.16463774,0.30764645,0.22646686,-0.16861604,-0.59538,-0.15199326,703.1135,820.3663,857.03296,779.67035,649.5238,-0.0107421875,-0.01153564453125,0.9912109375,2.459869384765625,-2.818756103515625,0.7476806640625,1.0,2.0,1.0,4.0,2.0,85.0,event
11:38:36.271,0.4979982,0.44596356,0.93043804,0.35358387,0.2790962,-0.04211812,0.45979702,0.24319172,0.47522676,0.08183881,0.41848785,0.5761361,0.6656678,0.3044513,-0.16463774,0.30764645,0.22646686,-0.16861604,-0.59538,-0.15199326,820.3663,806.26373,790.9524,794.57874,770.0,-0.0107421875,-0.01153564453125,0.9912109375,2.459869384765625,-2.818756103515625,0.7476806640625,1.0,2.0,1.0,4.0,2.0,85.0,event
11:38:36.271,0.4979982,0.44596356,0.93043804,0.35358387,0.2790962,-0.04211812,0.45979702,0.24319172,0.47522676,0.08183881,0.41848785,0.5761361,0.6656678,0.3044513,-0.16463774,0.30764645,0.22646686,-0.16861604,-0.59538,-0.15199326,938.4249,808.2784,806.26373,796.1905,757.1062,-0.0107421875,-0.01153564453125,0.9912109375,2.459869384765625,-2.818756103515625,0.7476806640625,1.0,2.0,1.0,4.0,2.0,85.0,event
11:38:36.293,0.4979982,0.44596356,0.93043804,0.35358387,0.2790962,-0.04211812,0.45979702,0.24319172,0.47522676,0.08183881,0.41848785,0.5761361,0.6656678,0.3044513,-0.16463774,0.30764645,0.22646686,-0.16861604,-0.59538,-0.15199326,873.5531,807.0696,798.20514,783.2967,656.77655,-0.00823974609375,-0.01788330078125,0.9822998046875,1.95892333984375,-3.648681640625,-0.01495361328125,1.0,2.0,1.0,4.0,2.0,85.0,event
11:38:36.295,0.4979982,0.44596356,0.93043804,0.35358387,0.2790962,-0.04211812,0.45979702,0.24319172,0.47522676,0.08183881,0.41848785,0.5761361,0.6656678,0.3044513,-0.16463774,0.30764645,0.22646686,-0.16861604,-0.59538,-0.15199326,720.4396,801.8315,707.5458,770.80585,658.7912,-0.00823974609375,-0.01788330078125,0.9822998046875,1.95892333984375,-3.648681640625,-0.01495361328125,1.0,2.0,1.0,4.0,2.0,85.0,event
11:38:36.295,0.4979982,0.44596356,0.93043804,0.35358387,0.2790962,-0.04211812,0.45979702,0.24319172,0.47522676,0.08183881,0.41848785,0.5761361,0.6656678,0.3044513,-0.16463774,0.30764645,0.22646686,-0.16861604,-0.59538,-0.15199326,684.9817,798.20514,596.7399,772.4176,793.7729,-0.00823974609375,-0.01788330078125,0.9822998046875,1.95892333984375,-3.648681640625,-0.01495361328125,1.0,2.0,1.0,4.0,2.0,85.0,event
11:38:36.296,0.4979982,0.44596356,0.93043804,0.35358387,0.2790962,-0.04211812,0.45979702,0.24319172,0.47522676,0.08183881,0.41848785,0.5761361,0.6656678,0.3044513,-0.16463774,0.30764645,0.22646686,-0.16861604,-0.59538,-0.15199326,800.2198,802.6374,760.7326,788.1319,765.9707,-0.00823974609375,-0.01788330078125,0.9822998046875,1.95892333984375,-3.648681640625,-0.01495361328125,1.0,2.0,1.0,4.0,2.0,85.0,event
11:38:36.297,0.4979982,0.44596356,0.93043804,0.35358387,0.2790962,-0.04211812,0.45979702,0.24319172,0.47522676,0.08183881,0.41848785,0.5761361,0.6656678,0.3044513,-0.16463774,0.30764645,0.22646686,-0.16861604,-0.59538,-0.15199326,931.978,804.65204,945.6777,803.44324,772.01465,-0.00823974609375,-0.01788330078125,0.9822998046875,1.95892333984375,-3.648681640625,-0.01495361328125,1.0,2.0,1.0,4.0,2.0,85.0,event
11:38:36.298,0.4979982,0.44596356,0.93043804,0.35358387,0.2790962,-0.04211812,0.45979702,0.24319172,0.47522676,0.08183881,0.41848785,0.5761361,0.6656678,0.3044513,-0.16463774,0.30764645,0.22646686,-0.16861604,-0.59538,-0.15199326,877.98535,795.78754,691.8315,786.52014,892.8938,-0.00823974609375,-0.01788330078125,0.9822998046875,1.95892333984375,-3.648681640625,-0.01495361328125,1.0,2.0,1.0,4.0,2.0,85.0,event
11:38:36.298,0.4979982,0.44596356,0.93043804,0.35358387,0.2790962,-0.04211812,0.45979702,0.24319172,0.47522676,0.08183881,0.41848785,0.5761361,0.6656678,0.3044513,-0.16463774,0.30764645,0.22646686,-0.16861604,-0.59538,-0.15199326,723.2601,791.3553,208.71794,776.04395,1070.989,-0.00823974609375,-0.01788330078125,0.9822998046875,1.95892333984375,-3.648681640625,-0.01495361328125,1.0,2.0,1.0,4.0,2.0,85.0,event
11:38:36.299,0.4979982,0.44596356,0.93043804,0.35358387,0.2790962,-0.04211812,0.45979702,0.24319172,0.47522676,0.08183881,0.41848785,0.5761361,0.6656678,0.3044513,-0.16463774,0.30764645,0.22646686,-0.16861604,-0.59538,-0.15199326,679.34064,801.4286,145.45787,786.9231,1004.90845,-0.00823974609375,-0.01788330078125,0.9822998046875,1.95892333984375,-3.648681640625,-0.01495361328125,1.0,2.0,1.0,4.0,2.0,85.0,event
11:38:36.300,0.4979982,0.44596356,0.93043804,0.35358387,0.2790962,-0.04211812,0.45979702,0.24319172,0.47522676,0.08183881,0.41848785,0.5761361,0.6656678,0.3044513,-0.16463774,0.30764645,0.22646686,-0.16861604,-0.59538,-0.15199326,792.1612,812.71063,755.89746,798.60803,724.87177,-0.00823974609375,-0.01788330078125,0.9822998046875,1.95892333984375,-3.648681640625,-0.01495361328125,1.0,2.0,1.0,4.0,2.0,85.0,event
11:38:36.300,0.4979982,0.44596356,0.93043804,0.35358387,0.2790962,-0.04211812,0.45979702,0.24319172,0.47522676,0.08183881,0.41848785,0.5761361,0.6656678,0.3044513,-0.16463774,0.30764645,0.22646686,-0.16861604,-0.59538,-0.15199326,925.9341,796.99634,938.4249,809.4872,768.7912,-0.00823974609375,-0.01788330078125,0.9822998046875,1.95892333984375,-3.648681640625,-0.01495361328125,1.0,2.0,1.0,4.0,2.0,85.0,event
11:38:36.301,0.4979982,0.44596356,0.93043804,0.35358387,0.2790962,-0.04211812,0.45979702,0.24319172,0.47522676,0.08183881,0.41848785,0.5761361,0.6656678,0.3044513,-0.16463774,0.30764645,0.22646686,-0.16861604,-0.59538,-0.15199326,894.90845,789.34064,431.13553,803.44324,886.8498,-0.00823974609375,-0.01788330078125,0.9822998046875,1.95892333984375,-3.648681640625,-0.01495361328125,1.0,2.0,1.0,4.0,2.0,85.0,event
11:38:36.302,0.4979982,0.44596356,0.93043804,0.35358387,0.2790962,-0.04211812,0.45979702,0.24319172,0.47522676,0.08183881,0.41848785,0.5761361,0.6656678,0.3044513,-0.16463774,0.30764645,0.22646686,-0.16861604,-0.59538,-0.15199326,751.8681,810.293,499.6337,783.2967,807.8755,-0.00823974609375,-0.01788330078125,0.9822998046875,1.95892333984375,-3.648681640625,-0.01495361328125,1.0,2.0,1.0,4.0,2.0,85.0,event
11:38:36.336,0.4979982,0.44596356,0.93043804,0.35358387,0.2790962,-0.04211812,0.45979702,0.24319172,0.47522676,0.08183881,0.41848785,0.5761361,0.6656678,0.3044513,-0.16463774,0.30764645,0.22646686,-0.16861604,-0.59538,-0.15199326,684.57874,809.89014,842.1245,776.4469,695.05493,-0.011474609375,-0.01605224609375,0.99005126953125,1.786956787109375,-3.342132568359375,-0.515899658203125,1.0,2.0,1.0,4.0,2.0,85.0,event
11:38:36.337,0.4979982,0.44596356,0.93043804,0.35358387,0.2790962,-0.04211812,0.45979702,0.24319172,0.47522676,0.08183881,0.41848785,0.5761361,0.6656678,0.3044513,-0.16463774,0.30764645,0.22646686,-0.16861604,-0.59538,-0.15199326,771.2088,800.6227,804.65204,794.9817,722.0513,-0.011474609375,-0.01605224609375,0.99005126953125,1.786956787109375,-3.342132568359375,-0.515899658203125,1.0,2.0,1.0,4.0,2.0,85.0,event
11:38:36.337,0.4979982,0.44596356,0.93043804,0.35358387,0.2790962,-0.04211812,0.45979702,0.24319172,0.47522676,0.08183881,0.41848785,0.5761361,0.6656678,0.3044513,-0.16463774,0.30764645,0.22646686,-0.16861604,-0.59538,-0.15199326,914.2491,806.6667,763.95605,809.89014,869.5238,-0.011474609375,-0.01605224609375,0.99005126953125,1.786956787109375,-3.342132568359375,-0.515899658203125,1.0,2.0,1.0,4.0,2.0,85.0,event
11:38:36.338,0.4979982,0.44596356,0.93043804,0.35358387,0.2790962,-0.04211812,0.45979702,0.24319172,0.47522676,0.08183881,0.41848785,0.5761361,0.6656678,0.3044513,-0.16463774,0.30764645,0.22646686,-0.16861604,-0.59538,-0.15199326,918.2784,808.68134,855.42126,799.41394,881.6117,-0.011474609375,-0.01605224609375,0.99005126953125,1.786956787109375,-3.342132568359375,-0.515899658203125,1.0,2.0,1.0,4.0,2.0,85.0,event
11:38:36.339,0.4979982,0.44596356,0.93043804,0.35358387,0.2790962,-0.04211812,0.45979702,0.24319172,0.47522676,0.08183881,0.41848785,0.5761361,0.6656678,0.3044513,-0.16463774,0.30764645,0.22646686,-0.16861604,-0.59538,-0.15199326,771.2088,807.47253,806.6667,784.90845,685.78754,-0.011474609375,-0.01605224609375,0.99005126953125,1.786956787109375,-3.342132568359375,-0.515899658203125,1.0,2.0,1.0,4.0,2.0,85.0,event
11:38:36.340,0.4979982,0.44596356,0.93043804,0.35358387,0.2790962,-0.04211812,0.45979702,0.24319172,0.47522676,0.08183881,0.41848785,0.5761361,0.6656678,0.3044513,-0.16463774,0.30764645,0.22646686,-0.16861604,-0.59538,-0.15199326,745.0183,805.4579,240.95238,814.7253,961.79486,-0.011474609375,-0.01605224609375,0.99005126953125,1.786956787109375,-3.342132568359375,-0.515899658203125,1.0,2.0,1.0,4.0,2.0,85.0,event
11:38:36.340,0.4979982,0.44596356,0.93043804,0.35358387,0.2790962,-0.04211812,0.45979702,0.24319172,0.47522676,0.08183881,0.41848785,0.5761361,0.6656678,0.3044513,-0.16463774,0.30764645,0.22646686,-0.16861604,-0.59538,-0.15199326,672.8938,801.8315,496.00732,793.36993,757.1062,-0.011474609375,-0.01605224609375,0.99005126953125,1.786956787109375,-3.342132568359375,-0.515899658203125,1.0,2.0,1.0,4.0,2.0,85.0,event
11:38:36.341,0.4979982,0.44596356,0.93043804,0.35358387,0.2790962,-0.04211812,0.45979702,0.24319172,0.47522676,0.08183881,0.41848785,0.5761361,0.6656678,0.3044513,-0.16463774,0.30764645,0.22646686,-0.16861604,-0.59538,-0.15199326,907.3993,815.5311,678.1319,826.4103,805.8608,-0.011474609375,-0.01605224609375,0.99005126953125,1.786956787109375,-3.342132568359375,-0.515899658203125,1.0,2.0,1.0,4.0,2.0,85.0,event
11:38:36.345,0.4979982,0.44596356,0.93043804,0.35358387,0.2790962,-0.04211812,0.45979702,0.24319172,0.47522676,0.08183881,0.41848785,0.5761361,0.6656678,0.3044513,-0.16463774,0.30764645,0.22646686,-0.16861604,-0.59538,-0.15199326,933.9927,810.293,905.38464,819.15753,696.26373,-0.011474609375,-0.01605224609375,0.99005126953125,1.786956787109375,-3.342132568359375,-0.515899658203125,1.0,2.0,1.0,4.0,2.0,85.0,event
11:38:36.345,0.4979982,0.44596356,0.93043804,0.35358387,0.2790962,-0.04211812,0.45979702,0.24319172,0.47522676,0.08183881,0.41848785,0.5761361,0.6656678,0.3044513,-0.16463774,0.30764645,0.22646686,-0.16861604,-0.59538,-0.15199326,768.7912,799.011,435.9707,786.9231,840.9158,-0.011474609375,-0.01605224609375,0.99005126953125,1.786956787109375,-3.342132568359375,-0.515899658203125,1.0,2.0,1.0,4.0,2.0,85.0,event
11:38:36.346,0.4979982,0.44596356,0.93043804,0.35358387,0.2790962,-0.04211812,0.45979702,0.24319172,0.47522676,0.08183881,0.41848785,0.5761361,0.6656678,0.3044513,-0.16463774,0.30764645,0.22646686,-0.16861604,-0.59538,-0.15199326,654.35895,801.8315,187.36264,774.43225,916.6667,-0.011474609375,-0.01605224609375,0.99005126953125,1.786956787109375,-3.342132568359375,-0.515899658203125,1.0,2.0,1.0,4.0,2.0,85.0,event
11:38:36.347,0.4979982,0.44596356,0.93043804,0.35358387,0.2790962,-0.04211812,0.45979702,0.24319172,0.47522676,0.08183881,0.41848785,0.5761361,0.6656678,0.3044513,-0.16463774,0.30764645,0.22646686,-0.16861604,-0.59538,-0.15199326,735.7509,809.0842,717.619,791.75824,719.6337,-0.011474609375,-0.01605224609375,0.99005126953125,1.786956787109375,-3.342132568359375,-0.515899658203125,1.0,2.0,1.0,4.0,2.0,85.0,event
11:38:36.386,0.4979982,0.44596356,0.93043804,0.35358387,0.2790962,-0.04211812,0.45979702,0.24319172,0.47522676,0.08183881,0.41848785,0.5761361,0.6656678,0.3044513,-0.16463774,0.30764645,0.22646686,-0.16861604,-0.59538,-0.15199326,888.46155,799.011,962.6007,810.696,689.011,-0.00701904296875,-0.0247802734375,0.98736572265625,2.011260986328125,-4.403839111328125,-0.1495361328125,1.0,2.0,1.0,4.0,2.0,85.0,event
11:38:36.387,0.4979982,0.44596356,0.93043804,0.35358387,0.2790962,-0.04211812,0.45979702,0.24319172,0.47522676,0.08183881,0.41848785,0.5761361,0.6656678,0.3044513,-0.16463774,0.30764645,0.22646686,-0.16861604,-0.59538,-0.15199326,928.3516,787.326,694.65204,809.89014,793.7729,-0.00701904296875,-0.0247802734375,0.98736572265625,2.011260986328125,-4.403839111328125,-0.1495361328125,1.0,2.0,1.0,4.0,2.0,85.0,event
11:38:36.388,0.4979982,0.44596356,0.93043804,0.35358387,0.2790962,-0.04211812,0.45979702,0.24319172,0.47522676,0.08183881,0.41848785,0.5761361,0.6656678,0.3044513,-0.16463774,0.30764645,0.22646686,-0.16861604,-0.59538,-0.15199326,803.8461,796.5934,659.59705,786.52014,757.1062,-0.00701904296875,-0.0247802734375,0.98736572265625,2.011260986328125,-4.403839111328125,-0.1495361328125,1.0,2.0,1.0,4.0,2.0,85.0,event
11:38:36.388,0.4979982,0.44596356,0.93043804,0.35358387,0.2790962,-0.04211812,0.45979702,0.24319172,0.47522676,0.08183881,0.41848785,0.5761361,0.6656678,0.3044513,-0.16463774,0.30764645,0.22646686,-0.16861604,-0.59538,-0.15199326,684.57874,806.26373,811.9048,776.8498,707.5458,-0.00701904296875,-0.0247802734375,0.98736572265625,2.011260986328125,-4.403839111328125,-0.1495361328125,1.0,2.0,1.0,4.0,2.0,85.0,event
11:38:36.389,0.4979982,0.44596356,0.93043804,0.35358387,0.2790962,-0.04211812,0.45979702,0.24319172,0.47522676,0.08183881,0.41848785,0.5761361,0.6656678,0.3044513,-0.16463774,0.30764645,0.22646686,-0.16861604,-0.59538,-0.15199326,718.022,801.8315,849.7802,789.34064,738.5714,-0.00701904296875,-0.0247802734375,0.98736572265625,2.011260986328125,-4.403839111328125,-0.1495361328125,1.0,2.0,1.0,4.0,2.0,85.0,event
11:38:36.390,0.4979982,0.44596356,0.93043804,0.35358387,0.2790962,-0.04211812,0.45979702,0.24319172,0.47522676,0.08183881,0.41848785,0.5761361,0.6656678,0.3044513,-0.16463774,0.30764645,0.22646686,-0.16861604,-0.59538,-0.15199326,857.03296,792.5641,635.82416,805.05493,975.89746,-0.00701904296875,-0.0247802734375,0.98736572265625,2.011260986328125,-4.403839111328125,-0.1495361328125,1.0,2.0,1.0,4.0,2.0,85.0,event
11:38:36.391,0.4979982,0.44596356,0.93043804,0.35358387,0.2790962,-0.04211812,0.45979702,0.24319172,0.47522676,0.08183881,0.41848785,0.5761361,0.6656678,0.3044513,-0.16463774,0.30764645,0.22646686,-0.16861604,-0.59538,-0.15199326,929.5604,794.57874,487.14285,812.71063,944.87177,-0.00701904296875,-0.0247802734375,0.98736572265625,2.011260986328125,-4.403839111328125,-0.1495361328125,1.0,2.0,1.0,4.0,2.0,85.0,event
11:38:36.392,0.4979982,0.44596356,0.93043804,0.35358387,0.2790962,-0.04211812,0.45979702,0.24319172,0.47522676,0.08183881,0.41848785,0.5761361,0.6656678,0.3044513,-0.16463774,0.30764645,0.22646686,-0.16861604,-0.59538,-0.15199326,822.381,805.4579,671.28204,798.20514,715.6044,-0.00701904296875,-0.0247802734375,0.98736572265625,2.011260986328125,-4.403839111328125,-0.1495361328125,1.0,2.0,1.0,4.0,2.0,85.0,event
11:38:36.393,0.4979982,0.44596356,0.93043804,0.35358387,0.2790962,-0.04211812,0.45979702,0.24319172,0.47522676,0.08183881,0.41848785,0.5761361,0.6656678,0.3044513,-0.16463774,0.30764645,0.22646686,-0.16861604,-0.59538,-0.15199326,684.17584,795.38464,733.3333,781.28204,689.011,-0.00701904296875,-0.0247802734375,0.98736572265625,2.011260986328125,-4.403839111328125,-0.1495361328125,1.0,2.0,1.0,4.0,2.0,85.0,event
11:38:36.394,0.4979982,0.44596356,0.93043804,0.35358387,0.2790962,-0.04211812,0.45979702,0.24319172,0.47522676,0.08183881,0.41848785,0.5761361,0.6656678,0.3044513,-0.16463774,0.30764645,0.22646686,-0.16861604,-0.59538,-0.15199326,695.05493,783.69965,311.86813,791.3553,904.57874,-0.00701904296875,-0.0247802734375,0.98736572265625,2.011260986328125,-4.403839111328125,-0.1495361328125,1.0,2.0,1.0,4.0,2.0,85.0,event
11:38:36.394,0.4979982,0.44596356,0.93043804,0.35358387,0.2790962,-0.04211812,0.45979702,0.24319172,0.47522676,0.08183881,0.41848785,0.5761361,0.6656678,0.3044513,-0.16463774,0.30764645,0.22646686,-0.16861604,-0.59538,-0.15199326,844.1392,801.02563,527.4359,804.2491,909.81683,-0.00701904296875,-0.0247802734375,0.98736572265625,2.011260986328125,-4.403839111328125,-0.1495361328125,1.0,2.0,1.0,4.0,2.0,85.0,event
11:38:36.395,0.4979982,0.44596356,0.93043804,0.35358387,0.2790962,-0.04211812,0.45979702,0.24319172,0.47522676,0.08183881,0.41848785,0.5761361,0.6656678,0.3044513,-0.16463774,0.30764645,0.22646686,-0.16861604,-0.59538,-0.15199326,945.6777,803.44324,953.73627,803.8461,790.9524,-0.00701904296875,-0.0247802734375,0.98736572265625,2.011260986328125,-4.403839111328125,-0.1495361328125,1.0,2.0,1.0,4.0,2.0,85.0,event
11:38:36.434,0.4979982,0.44596356,0.93043804,0.35358387,0.2790962,-0.04211812,0.45979702,0.24319172,0.47522676,0.08183881,0.41848785,0.5761361,0.6656678,0.3044513,-0.16463774,0.30764645,0.22646686,-0.16861604,-0.59538,-0.15199326,837.28937,789.34064,637.4359,790.14655,931.5751,-0.00799560546875,-0.0186767578125,0.98870849609375,2.3028564453125,-4.02252197265625,0.770111083984375,1.0,2.0,1.0,4.0,2.0,85.0,event
11:38:36.435,0.4979982,0.44596356,0.93043804,0.35358387,0.2790962,-0.04211812,0.45979702,0.24319172,0.47522676,0.08183881,0.41848785,0.5761361,0.6656678,0.3044513,-0.16463774,0.30764645,0.22646686,-0.16861604,-0.59538,-0.15199326,689.41394,795.38464,347.32602,780.87915,923.5165,-0.00799560546875,-0.0186767578125,0.98870849609375,2.3028564453125,-4.02252197265625,0.770111083984375,1.0,2.0,1.0,4.0,2.0,85.0,event
11:38:36.435,0.4979982,0.44596356,0.93043804,0.35358387,0.2790962,-0.04211812,0.45979702,0.24319172,0.47522676,0.08183881,0.41848785,0.5761361,0.6656678,0.3044513,-0.16463774,0.30764645,0.22646686,-0.16861604,-0.59538,-0.15199326,692.6374,804.2491,711.5751,786.52014,769.59705,-0.00799560546875,-0.0186767578125,0.98870849609375,2.3028564453125,-4.02252197265625,0.770111083984375,1.0,2.0,1.0,4.0,2.0,85.0,event
11:38:36.436,0.4979982,0.44596356,0.93043804,0.35358387,0.2790962,-0.04211812,0.45979702,0.24319172,0.47522676,0.08183881,0.41848785,0.5761361,0.6656678,0.3044513,-0.16463774,0.30764645,0.22646686,-0.16861604,-0.59538,-0.15199326,826.4103,798.20514,988.7912,806.26373,751.8681,-0.00799560546875,-0.0186767578125,0.98870849609375,2.3028564453125,-4.02252197265625,0.770111083984375,1.0,2.0,1.0,4.0,2.0,85.0,event
11:38:36.436,0.4979982,0.44596356,0.93043804,0.35358387,0.2790962,-0.04211812,0.45979702,0.24319172,0.47522676,0.08183881,0.41848785,0.5761361,0.6656678,0.3044513,-0.16463774,0.30764645,0.22646686,-0.16861604,-0.59538,-0.15199326,943.2601,794.57874,805.4579,816.337,774.0293,-0.00799560546875,-0.0186767578125,0.98870849609375,2.3028564453125,-4.02252197265625,0.770111083984375,1.0,2.0,1.0,4.0,2.0,85.0,event
11:38:36.437,0.4979982,0.44596356,0.93043804,0.35358387,0.2790962,-0.04211812,0.45979702,0.24319172,0.47522676,0.08183881,0.41848785,0.5761361,0.6656678,0.3044513,-0.16463774,0.30764645,0.22646686,-0.16861604,-0.59538,-0.15199326,693.44324,803.0403,663.22345,790.14655,671.685,-0.00799560546875,-0.0186767578125,0.98870849609375,2.3028564453125,-4.02252197265625,0.770111083984375,1.0,2.0,1.0,4.0,2.0,85.0,event
11:38:36.437,0.4979982,0.44596356,0.93043804,0.35358387,0.2790962,-0.04211812,0.45979702,0.24319172,0.47522676,0.08183881,0.41848785,0.5761361,0.6656678,0.3044513,-0.16463774,0.30764645,0.22646686,-0.16861604,-0.59538,-0.15199326,709.9634,796.99634,364.24908,783.2967,802.6374,-0.00799560546875,-0.0186767578125,0.98870849609375,2.3028564453125,-4.02252197265625,0.770111083984375,1.0,2.0,1.0,4.0,2.0,85.0,event
11:38:36.437,0.4979982,0.44596356,0.93043804,0.35358387,0.2790962,-0.04211812,0.45979702,0.24319172,0.47522676,0.08183881,0.41848785,0.5761361,0.6656678,0.3044513,-0.16463774,0.30764645,0.22646686,-0.16861604,-0.59538,-0.15199326,863.0769,795.78754,480.29303,797.3993,811.0989,-0.00799560546875,-0.0186767578125,0.98870849609375,2.3028564453125,-4.02252197265625,0.770111083984375,1.0,2.0,1.0,4.0,2.0,85.0,event
11:38:36.438,0.4979982,0.44596356,0.93043804,0.35358387,0.2790962,-0.04211812,0.45979702,0.24319172,0.47522676,0.08183881,0.41848785,0.5761361,0.6656678,0.3044513,-0.16463774,0.30764645,0.22646686,-0.16861604,-0.59538,-0.15199326,809.4872,796.99634,679.7436,808.2784,743.8095,-0.00799560546875,-0.0186767578125,0.98870849609375,2.3028564453125,-4.02252197265625,0.770111083984375,1.0,2.0,1.0,4.0,2.0,85.0,event
11:38:36.439,0.4979982,0.44596356,0.93043804,0.35358387,0.2790962,-0.04211812,0.45979702,0.24319172,0.47522676,0.08183881,0.41848785,0.5761361,0.6656678,0.3044513,-0.16463774,0.30764645,0.22646686,-0.16861604,-0.59538,-0.15199326,928.7546,790.54944,232.49084,823.9927,1031.9048,-0.00799560546875,-0.0186767578125,0.98870849609375,2.3028564453125,-4.02252197265625,0.770111083984375,1.0,2.0,1.0,4.0,2.0,85.0,event
11:38:36.442,0.4979982,0.44596356,0.93043804,0.35358387,0.2790962,-0.04211812,0.45979702,0.24319172,0.47522676,0.08183881,0.41848785,0.5761361,0.6656678,0.3044513,-0.16463774,0.30764645,0.22646686,-0.16861604,-0.59538,-0.15199326,896.52014,810.696,600.3663,813.91943,835.6777,-0.00799560546875,-0.0186767578125,0.98870849609375,2.3028564453125,-4.02252197265625,0.770111083984375,1.0,2.0,1.0,4.0,2.0,85.0,event
11:38:36.443,0.4979982,0.44596356,0.93043804,0.35358387,0.2790962,-0.04211812,0.45979702,0.24319172,0.47522676,0.08183881,0.41848785,0.5761361,0.6656678,0.3044513,-0.16463774,0.30764645,0.22646686,-0.16861604,-0.59538,-0.15199326,746.2271,808.2784,861.4652,786.52014,701.0989,-0.00799560546875,-0.0186767578125,0.98870849609375,2.3028564453125,-4.02252197265625,0.770111083984375,1.0,2.0,1.0,4.0,2.0,85.0,event
11:38:36.487,0.4979982,0.44596356,0.93043804,0.35358387,0.2790962,-0.04211812,0.45979702,0.24319172,0.47522676,0.08183881,0.41848785,0.5761361,0.6656678,0.3044513,-0.16463774,0.30764645,0.22646686,-0.16861604,-0.59538,-0.15199326,693.0403,798.20514,629.3773,786.52014,778.46155,-0.00799560546875,-0.0186767578125,0.98870849609375,2.3028564453125,-4.02252197265625,0.770111083984375,1.0,2.0,1.0,4.0,2.0,85.0,event
11:38:36.488,0.4979982,0.44596356,0.93043804,0.35358387,0.2790962,-0.04211812,0.45979702,0.24319172,0.47522676,0.08183881,0.41848785,0.5761361,0.6656678,0.3044513,-0.16463774,0.30764645,0.22646686,-0.16861604,-0.59538,-0.15199326,807.47253,807.8755,803.8461,803.0403,774.0293,-0.00799560546875,-0.0186767578125,0.98870849609375,2.3028564453125,-4.02252197265625,0.770111083984375,1.0,2.0,1.0,4.0,2.0,85.0,event
11:38:36.489,0.4979982,0.44596356,0.93043804,0.35358387,0.2790962,-0.04211812,0.45979702,0.24319172,0.47522676,0.08183881,0.41848785,0.5761361,0.6656678,0.3044513,-0.16463774,0.30764645,0.22646686,-0.16861604,-0.59538,-0.15199326,940.84247,810.293,972.27106,810.293,780.4762,-0.00799560546875,-0.0186767578125,0.98870849609375,2.3028564453125,-4.02252197265625,0.770111083984375,1.0,2.0,1.0,4.0,2.0,85.0,event
11:38:36.490,0.4979982,0.44596356,0.93043804,0.35358387,0.2790962,-0.04211812,0.45979702,0.24319172,0.47522676,0.08183881,0.41848785,0.5761361,0.6656678,0.3044513,-0.16463774,0.30764645,0.22646686,-0.16861604,-0.59538,-0.15199326,902.5641,802.6374,699.89014,799.41394,852.1978,-0.00799560546875,-0.0186767578125,0.98870849609375,2.3028564453125,-4.02252197265625,0.770111083984375,1.0,2.0,1.0,4.0,2.0,85.0,event
11:38:36.491,0.4979982,0.44596356,0.93043804,0.35358387,0.2790962,-0.04211812,0.45979702,0.24319172,0.47522676,0.08183881,0.41848785,0.5761361,0.6656678,0.3044513,-0.16463774,0.30764645,0.22646686,-0.16861604,-0.59538,-0.15199326,739.7802,799.81683,312.27106,783.2967,877.5824,-0.00799560546875,-0.0186767578125,0.98870849609375,2.3028564453125,-4.02252197265625,0.770111083984375,1.0,2.0,1.0,4.0,2.0,85.0,event
11:38:36.492,0.4979982,0.44596356,0.93043804,0.35358387,0.2790962,-0.04211812,0.45979702,0.24319172,0.47522676,0.08183881,0.41848785,0.5761361,0.6656678,0.3044513,-0.16463774,0.30764645,0.22646686,-0.16861604,-0.59538,-0.15199326,674.10254,806.26373,311.06226,779.67035,817.5458,-0.00799560546875,-0.0186767578125,0.98870849609375,2.3028564453125,-4.02252197265625,0.770111083984375,1.0,2.0,1.0,4.0,2.0,85.0,event
11:38:36.493,0.4979982,0.44596356,0.93043804,0.35358387,0.2790962,-0.04211812,0.45979702,0.24319172,0.47522676,0.08183881,0.41848785,0.5761361,0.6656678,0.3044513,-0.16463774,0.30764645,0.22646686,-0.16861604,-0.59538,-0.15199326,915.8608,809.4872,775.64105,809.0842,757.9121,-0.00799560546875,-0.0186767578125,0.98870849609375,2.3028564453125,-4.02252197265625,0.770111083984375,1.0,2.0,1.0,4.0,2.0,85.0,event
11:38:36.493,0.4979982,0.44596356,0.93043804,0.35358387,0.2790962,-0.04211812,0.45979702,0.24319172,0.47522676,0.08183881,0.41848785,0.5761361,0.6656678,0.3044513,-0.16463774,0.30764645,0.22646686,-0.16861604,-0.59538,-0.15199326,776.4469,811.9048,581.02563,794.9817,749.0476,-0.00799560546875,-0.0186767578125,0.98870849609375,2.3028564453125,-4.02252197265625,0.770111083984375,1.0,2.0,1.0,4.0,2.0,85.0,event
11:38:36.494,0.4979982,0.44596356,0.93043804,0.35358387,0.2790962,-0.04211812,0.45979702,0.24319172,0.47522676,0.08183881,0.41848785,0.5761361,0.6656678,0.3044513,-0.16463774,0.30764645,0.22646686,-0.16861604,-0.59538,-0.15199326,899.7436,795.78754,361.42856,801.8315,933.1868,-0.00799560546875,-0.0186767578125,0.98870849609375,2.3028564453125,-4.02252197265625,0.770111083984375,1.0,2.0,1.0,4.0,2.0,85.0,event
11:38:36.495,0.4979982,0.44596356,0.93043804,0.35358387,0.2790962,-0.04211812,0.45979702,0.24319172,0.47522676,0.08183881,0.41848785,0.5761361,0.6656678,0.3044513,-0.16463774,0.30764645,0.22646686,-0.16861604,-0.59538,-0.15199326,755.89746,811.0989,264.32236,788.5348,877.98535,-0.00799560546875,-0.0186767578125,0.98870849609375,2.3028564453125,-4.02252197265625,0.770111083984375,1.0,2.0,1.0,4.0,2.0,85.0,event
11:38:36.495,0.4979982,0.44596356,0.93043804,0.35358387,0.2790962,-0.04211812,0.45979702,0.24319172,0.47522676,0.08183881,0.41848785,0.5761361,0.6656678,0.3044513,-0.16463774,0.30764645,0.22646686,-0.16861604,-0.59538,-0.15199326,671.685,815.5311,783.69965,783.2967,675.7143,-0.00799560546875,-0.0186767578125,0.98870849609375,2.3028564453125,-4.02252197265625,0.770111083984375,1.0,2.0,1.0,4.0,2.0,85.0,event
11:38:36.496,0.4979982,0.44596356,0.93043804,0.35358387,0.2790962,-0.04211812,0.45979702,0.24319172,0.47522676,0.08183881,0.41848785,0.5761361,0.6656678,0.3044513,-0.16463774,0.30764645,0.22646686,-0.16861604,-0.59538,-0.15199326,747.8388,801.4286,881.6117,801.4286,747.03296,-0.00799560546875,-0.0186767578125,0.98870849609375,2.3028564453125,-4.02252197265625,0.770111083984375,1.0,2.0,1.0,4.0,2.0,85.0,event
11:38:36.527,0.4979982,0.44596356,0.93043804,0.35358387,0.2790962,-0.04211812,0.45979702,0.24319172,0.47522676,0.08183881,0.41848785,0.5761361,0.6656678,0.3044513,-0.16463774,0.30764645,0.22646686,-0.16861604,-0.59538,-0.15199326,888.0586,802.23444,770.40295,813.1135,820.3663,0.00128173828125,-0.0225830078125,0.99407958984375,2.370147705078125,-4.42626953125,0.560760498046875,1.0,2.0,1.0,4.0,2.0,85.0,event
11:38:36.528,0.4979982,0.44596356,0.93043804,0.35358387,0.2790962,-0.04211812,0.45979702,0.24319172,0.47522676,0.08183881,0.41848785,0.5761361,0.6656678,0.3044513,-0.16463774,0.30764645,0.22646686,-0.16861604,-0.59538,-0.15199326,896.52014,803.44324,829.6337,799.41394,745.0183,0.00128173828125,-0.0225830078125,0.99407958984375,2.370147705078125,-4.42626953125,0.560760498046875,1.0,2.0,1.0,4.0,2.0,85.0,event
11:38:36.529,0.4979982,0.44596356,0.93043804,0.35358387,0.2790962,-0.04211812,0.45979702,0.24319172,0.47522676,0.08183881,0.41848785,0.5761361,0.6656678,0.3044513,-0.16463774,0.30764645,0.22646686,-0.16861604,-0.59538,-0.15199326,759.12085,798.20514,815.12823,782.0879,679.7436,0.00128173828125,-0.0225830078125,0.99407958984375,2.370147705078125,-4.42626953125,0.560760498046875,1.0,2.0,1.0,4.0,2.0,85.0,event
11:38:36.530,0.4979982,0.44596356,0.93043804,0.35358387,0.2790962,-0.04211812,0.45979702,0.24319172,0.47522676,0.08183881,0.41848785,0.5761361,0.6656678,0.3044513,-0.16463774,0.30764645,0.22646686,-0.16861604,-0.59538,-0.15199326,652.74725,792.1612,662.4176,780.87915,663.6264,0.00128173828125,-0.0225830078125,0.99407958984375,2.370147705078125,-4.42626953125,0.560760498046875,1.0,2.0,1.0,4.0,2.0,85.0,event
11:38:36.530,0.4979982,0.44596356,0.93043804,0.35358387,0.2790962,-0.04211812,0.45979702,0.24319172,0.47522676,0.08183881,0.41848785,0.5761361,0.6656678,0.3044513,-0.16463774,0.30764645,0.22646686,-0.16861604,-0.59538,-0.15199326,715.2015,799.41394,610.4396,795.78754,662.8205,0.00128173828125,-0.0225830078125,0.99407958984375,2.370147705078125,-4.42626953125,0.560760498046875,1.0,2.0,1.0,4.0,2.0,85.0,event
11:38:36.531,0.4979982,0.44596356,0.93043804,0.35358387,0.2790962,-0.04211812,0.45979702,0.24319172,0.47522676,0.08183881,0.41848785,0.5761361,0.6656678,0.3044513,-0.16463774,0.30764645,0.22646686,-0.16861604,-0.59538,-0.15199326,877.5824,800.6227,621.7216,807.8755,815.5311,0.00128173828125,-0.0225830078125,0.99407958984375,2.370147705078125,-4.42626953125,0.560760498046875,1.0,2.0,1.0,4.0,2.0,85.0,event
11:38:36.532,0.4979982,0.44596356,0.93043804,0.35358387,0.2790962,-0.04211812,0.45979702,0.24319172,0.47522676,0.08183881,0.41848785,0.5761361,0.6656678,0.3044513,-0.16463774,0.30764645,0.22646686,-0.16861604,-0.59538,-0.15199326,918.2784,799.41394,639.45056,805.05493,905.78754,0.00128173828125,-0.0225830078125,0.99407958984375,2.370147705078125,-4.42626953125,0.560760498046875,1.0,2.0,1.0,4.0,2.0,85.0,event
11:38:36.533,0.4979982,0.44596356,0.93043804,0.35358387,0.2790962,-0.04211812,0.45979702,0.24319172,0.47522676,0.08183881,0.41848785,0.5761361,0.6656678,0.3044513,-0.16463774,0.30764645,0.22646686,-0.16861604,-0.59538,-0.15199326,783.69965,793.36993,497.21613,790.54944,959.7802,0.00128173828125,-0.0225830078125,0.99407958984375,2.370147705078125,-4.42626953125,0.560760498046875,1.0,2.0,1.0,4.0,2.0,85.0,event
11:38:36.534,0.4979982,0.44596356,0.93043804,0.35358387,0.2790962,-0.04211812,0.45979702,0.24319172,0.47522676,0.08183881,0.41848785,0.5761361,0.6656678,0.3044513,-0.16463774,0.30764645,0.22646686,-0.16861604,-0.59538,-0.15199326,660.80585,790.9524,37.875458,791.75824,1134.652,0.00128173828125,-0.0225830078125,0.99407958984375,2.370147705078125,-4.42626953125,0.560760498046875,1.0,2.0,1.0,4.0,2.0,85.0,event
11:38:36.534,0.4979982,0.44596356,0.93043804,0.35358387,0.2790962,-0.04211812,0.45979702,0.24319172,0.47522676,0.08183881,0.41848785,0.5761361,0.6656678,0.3044513,-0.16463774,0.30764645,0.22646686,-0.16861604,-0.59538,-0.15199326,704.7253,811.0989,296.15384,799.81683,897.326,0.00128173828125,-0.0225830078125,0.99407958984375,2.370147705078125,-4.42626953125,0.560760498046875,1.0,2.0,1.0,4.0,2.0,85.0,event
11:38:36.536,0.4979982,0.44596356,0.93043804,0.35358387,0.2790962,-0.04211812,0.45979702,0.24319172,0.47522676,0.08183881,0.41848785,0.5761361,0.6656678,0.3044513,-0.16463774,0.30764645,0.22646686,-0.16861604,-0.59538,-0.15199326,859.85345,808.68134,862.27106,813.91943,692.6374,0.00128173828125,-0.0225830078125,0.99407958984375,2.370147705078125,-4.42626953125,0.560760498046875,1.0,2.0,1.0,4.0,2.0,85.0,event
11:38:36.537,0.4979982,0.44596356,0.93043804,0.35358387,0.2790962,-0.04211812,0.45979702,0.24319172,0.47522676,0.08183881,0.41848785,0.5761361,0.6656678,0.3044513,-0.16463774,0.30764645,0.22646686,-0.16861604,-0.59538,-0.15199326,918.68134,795.78754,756.7033,810.293,793.7729,0.00128173828125,-0.0225830078125,0.99407958984375,2.370147705078125,-4.42626953125,0.560760498046875,1.0,2.0,1.0,4.0,2.0,85.0,event
11:38:36.564,0.4979982,0.44596356,0.93043804,0.35358387,0.2790962,-0.04211812,0.45979702,0.24319172,0.47522676,0.08183881,0.41848785,0.5761361,0.6656678,0.3044513,-0.16463774,0.30764645,0.22646686,-0.16861604,-0.59538,-0.15199326,804.2491,799.011,708.7546,793.36993,782.0879,0.00360107421875,-0.01751708984375,0.98187255859375,2.392578125,-4.1571044921875,0.58319091796875,1.0,2.0,1.0,4.0,2.0,85.0,event
11:38:36.566,0.4979982,0.44596356,0.93043804,0.35358387,0.2790962,-0.04211812,0.45979702,0.24319172,0.47522676,0.08183881,0.41848785,0.5761361,0.6656678,0.3044513,-0.16463774,0.30764645,0.22646686,-0.16861604,-0.59538,-0.15199326,683.7729,797.3993,801.02563,782.8938,666.04395,0.00360107421875,-0.01751708984375,0.98187255859375,2.392578125,-4.1571044921875,0.58319091796875,1.0,2.0,1.0,4.0,2.0,85.0,event
11:38:36.567,0.4979982,0.44596356,0.93043804,0.35358387,0.2790962,-0.04211812,0.45979702,0.24319172,0.47522676,0.08183881,0.41848785,0.5761361,0.6656678,0.3044513,-0.16463774,0.30764645,0.22646686,-0.16861604,-0.59538,-0.15199326,703.91943,799.41394,792.5641,791.75824,650.7326,0.00360107421875,-0.01751708984375,0.98187255859375,2.392578125,-4.1571044921875,0.58319091796875,1.0,2.0,1.0,4.0,2.0,85.0,event
11:38:36.568,0.4979982,0.44596356,0.93043804,0.35358387,0.2790962,-0.04211812,0.45979702,0.24319172,0.47522676,0.08183881,0.41848785,0.5761361,0.6656678,0.3044513,-0.16463774,0.30764645,0.22646686,-0.16861604,-0.59538,-0.15199326,840.9158,801.02563,644.68866,802.23444,730.10986,0.00360107421875,-0.01751708984375,0.98187255859375,2.392578125,-4.1571044921875,0.58319091796875,1.0,2.0,1.0,4.0,2.0,85.0,event
11:38:36.569,0.4979982,0.44596356,0.93043804,0.35358387,0.2790962,-0.04211812,0.45979702,0.24319172,0.47522676,0.08183881,0.41848785,0.5761361,0.6656678,0.3044513,-0.16463774,0.30764645,0.22646686,-0.16861604,-0.59538,-0.15199326,924.7253,800.2198,700.293,793.36993,732.9304,0.00360107421875,-0.01751708984375,0.98187255859375,2.392578125,-4.1571044921875,0.58319091796875,1.0,2.0,1.0,4.0,2.0,85.0,event
11:38:36.570,0.4979982,0.44596356,0.93043804,0.35358387,0.2790962,-0.04211812,0.45979702,0.24319172,0.47522676,0.08183881,0.41848785,0.5761361,0.6656678,0.3044513,-0.16463774,0.30764645,0.22646686,-0.16861604,-0.59538,-0.15199326,822.7839,799.011,595.12823,784.90845,729.304,0.00360107421875,-0.01751708984375,0.98187255859375,2.392578125,-4.1571044921875,0.58319091796875,1.0,2.0,1.0,4.0,2.0,85.0,event
11:38:36.571,0.4979982,0.44596356,0.93043804,0.35358387,0.2790962,-0.04211812,0.45979702,0.24319172,0.47522676,0.08183881,0.41848785,0.5761361,0.6656678,0.3044513,-0.16463774,0.30764645,0.22646686,-0.16861604,-0.59538,-0.15199326,690.2198,802.23444,204.68864,790.9524,942.4542,0.00360107421875,-0.01751708984375,0.98187255859375,2.392578125,-4.1571044921875,0.58319091796875,1.0,2.0,1.0,4.0,2.0,85.0,event
11:38:36.571,0.4979982,0.44596356,0.93043804,0.35358387,0.2790962,-0.04211812,0.45979702,0.24319172,0.47522676,0.08183881,0.41848785,0.5761361,0.6656678,0.3044513,-0.16463774,0.30764645,0.22646686,-0.16861604,-0.59538,-0.15199326,687.3993,797.8022,417.43588,779.2674,786.1172,0.00360107421875,-0.01751708984375,0.98187255859375,2.392578125,-4.1571044921875,0.58319091796875,1.0,2.0,1.0,4.0,2.0,85.0,event
11:38:36.572,0.4979982,0.44596356,0.93043804,0.35358387,0.2790962,-0.04211812,0.45979702,0.24319172,0.47522676,0.08183881,0.41848785,0.5761361,0.6656678,0.3044513,-0.16463774,0.30764645,0.22646686,-0.16861604,-0.59538,-0.15199326,826.4103,814.7253,318.31503,813.91943,913.8461,0.00360107421875,-0.01751708984375,0.98187255859375,2.392578125,-4.1571044921875,0.58319091796875,1.0,2.0,1.0,4.0,2.0,85.0,event
11:38:36.573,0.4979982,0.44596356,0.93043804,0.35358387,0.2790962,-0.04211812,0.45979702,0.24319172,0.47522676,0.08183881,0.41848785,0.5761361,0.6656678,0.3044513,-0.16463774,0.30764645,0.22646686,-0.16861604,-0.59538,-0.15199326,937.2161,813.5165,751.06226,819.9634,794.9817,0.00360107421875,-0.01751708984375,0.98187255859375,2.392578125,-4.1571044921875,0.58319091796875,1.0,2.0,1.0,4.0,2.0,85.0,event
11:38:36.574,0.4979982,0.44596356,0.93043804,0.35358387,0.2790962,-0.04211812,0.45979702,0.24319172,0.47522676,0.08183881,0.41848785,0.5761361,0.6656678,0.3044513,-0.16463774,0.30764645,0.22646686,-0.16861604,-0.59538,-0.15199326,853.8095,809.89014,642.674,805.4579,790.14655,0.00360107421875,-0.01751708984375,0.98187255859375,2.392578125,-4.1571044921875,0.58319091796875,1.0,2.0,1.0,4.0,2.0,85.0,event
11:38:36.574,0.4979982,0.44596356,0.93043804,0.35358387,0.2790962,-0.04211812,0.45979702,0.24319172,0.47522676,0.08183881,0.41848785,0.5761361,0.6656678,0.3044513,-0.16463774,0.30764645,0.22646686,-0.16861604,-0.59538,-0.15199326,699.4872,809.4872,321.53845,796.5934,789.34064,0.00360107421875,-0.01751708984375,0.98187255859375,2.392578125,-4.1571044921875,0.58319091796875,1.0,2.0,1.0,4.0,2.0,85.0,event
11:38:36.613,0.4979982,0.44596356,0.93043804,0.35358387,0.2790962,-0.04211812,0.45979702,0.24319172,0.47522676,0.08183881,0.41848785,0.5761361,0.6656678,0.3044513,-0.16463774,0.30764645,0.22646686,-0.16861604,-0.59538,-0.15199326,686.1905,813.91943,630.58606,799.41394,738.5714,-0.01007080078125,-0.013427734375,0.99371337890625,1.9439697265625,-2.64678955078125,-0.665435791015625,1.0,2.0,1.0,4.0,2.0,85.0,event
11:38:36.615,0.4979982,0.44596356,0.93043804,0.35358387,0.2790962,-0.04211812,0.45979702,0.24319172,0.47522676,0.08183881,0.41848785,0.5761361,0.6656678,0.3044513,-0.16463774,0.30764645,0.22646686,-0.16861604,-0.59538,-0.15199326,814.3223,814.7253,944.87177,814.7253,719.2308,-0.01007080078125,-0.013427734375,0.99371337890625,1.9439697265625,-2.64678955078125,-0.665435791015625,1.0,2.0,1.0,4.0,2.0,85.0,event
11:38:36.615,0.4979982,0.44596356,0.93043804,0.35358387,0.2790962,-0.04211812,0.45979702,0.24319172,0.47522676,0.08183881,0.41848785,0.5761361,0.6656678,0.3044513,-0.16463774,0.30764645,0.22646686,-0.16861604,-0.59538,-0.15199326,936.0073,814.7253,805.8608,825.6044,754.68866,-0.01007080078125,-0.013427734375,0.99371337890625,1.9439697265625,-2.64678955078125,-0.665435791015625,1.0,2.0,1.0,4.0,2.0,85.0,event
11:38:36.616,0.4979982,0.44596356,0.93043804,0.35358387,0.2790962,-0.04211812,0.45979702,0.24319172,0.47522676,0.08183881,0.41848785,0.5761361,0.6656678,0.3044513,-0.16463774,0.30764645,0.22646686,-0.16861604,-0.59538,-0.15199326,881.2088,818.7546,715.2015,809.89014,803.0403,-0.01007080078125,-0.013427734375,0.99371337890625,1.9439697265625,-2.64678955078125,-0.665435791015625,1.0,2.0,1.0,4.0,2.0,85.0,event
11:38:36.617,0.4979982,0.44596356,0.93043804,0.35358387,0.2790962,-0.04211812,0.45979702,0.24319172,0.47522676,0.08183881,0.41848785,0.5761361,0.6656678,0.3044513,-0.16463774,0.30764645,0.22646686,-0.16861604,-0.59538,-0.15199326,682.5641,815.12823,647.9121,794.9817,792.1612,-0.01007080078125,-0.013427734375,0.99371337890625,1.9439697265625,-2.64678955078125,-0.665435791015625,1.0,2.0,1.0,4.0,2.0,85.0,event
11:38:36.617,0.4979982,0.44596356,0.93043804,0.35358387,0.2790962,-0.04211812,0.45979702,0.24319172,0.47522676,0.08183881,0.41848785,0.5761361,0.6656678,0.3044513,-0.16463774,0.30764645,0.22646686,-0.16861604,-0.59538,-0.15199326,726.4835,819.15753,714.3956,796.1905,772.8205,-0.01007080078125,-0.013427734375,0.99371337890625,1.9439697265625,-2.64678955078125,-0.665435791015625,1.0,2.0,1.0,4.0,2.0,85.0,event
11:38:36.618,0.4979982,0.44596356,0.93043804,0.35358387,0.2790962,-0.04211812,0.45979702,0.24319172,0.47522676,0.08183881,0.41848785,0.5761361,0.6656678,0.3044513,-0.16463774,0.30764645,0.22646686,-0.16861604,-0.59538,-0.15199326,792.96704,807.0696,469.011,810.293,907.3993,-0.01007080078125,-0.013427734375,0.99371337890625,1.9439697265625,-2.64678955078125,-0.665435791015625,1.0,2.0,1.0,4.0,2.0,85.0,event
11:38:36.619,0.4979982,0.44596356,0.93043804,0.35358387,0.2790962,-0.04211812,0.45979702,0.24319172,0.47522676,0.08183881,0.41848785,0.5761361,0.6656678,0.3044513,-0.16463774,0.30764645,0.22646686,-0.16861604,-0.59538,-0.15199326,913.8461,809.89014,147.0696,825.6044,1067.3627,-0.01007080078125,-0.013427734375,0.99371337890625,1.9439697265625,-2.64678955078125,-0.665435791015625,1.0,2.0,1.0,4.0,2.0,85.0,event
11:38:36.620,0.4979982,0.44596356,0.93043804,0.35358387,0.2790962,-0.04211812,0.45979702,0.24319172,0.47522676,0.08183881,0.41848785,0.5761361,0.6656678,0.3044513,-0.16463774,0.30764645,0.22646686,-0.16861604,-0.59538,-0.15199326,880.40295,828.022,552.4176,809.89014,889.67035,-0.01007080078125,-0.013427734375,0.99371337890625,1.9439697265625,-2.64678955078125,-0.665435791015625,1.0,2.0,1.0,4.0,2.0,85.0,event
11:38:36.620,0.4979982,0.44596356,0.93043804,0.35358387,0.2790962,-0.04211812,0.45979702,0.24319172,0.47522676,0.08183881,0.41848785,0.5761361,0.6656678,0.3044513,-0.16463774,0.30764645,0.22646686,-0.16861604,-0.59538,-0.15199326,737.3626,823.9927,827.619,792.96704,698.68134,-0.01007080078125,-0.013427734375,0.99371337890625,1.9439697265625,-2.64678955078125,-0.665435791015625,1.0,2.0,1.0,4.0,2.0,85.0,event
11:38:36.621,0.4979982,0.44596356,0.93043804,0.35358387,0.2790962,-0.04211812,0.45979702,0.24319172,0.47522676,0.08183881,0.41848785,0.5761361,0.6656678,0.3044513,-0.16463774,0.30764645,0.22646686,-0.16861604,-0.59538,-0.15199326,675.7143,821.1722,616.4835,799.011,747.03296,-0.01007080078125,-0.013427734375,0.99371337890625,1.9439697265625,-2.64678955078125,-0.665435791015625,1.0,2.0,1.0,4.0,2.0,85.0,event
11:38:36.622,0.4979982,0.44596356,0.93043804,0.35358387,0.2790962,-0.04211812,0.45979702,0.24319172,0.47522676,0.08183881,0.41848785,0.5761361,0.6656678,0.3044513,-0.16463774,0.30764645,0.22646686,-0.16861604,-0.59538,-0.15199326,777.25275,825.6044,753.8828,816.337,759.92676,-0.01007080078125,-0.013427734375,0.99371337890625,1.9439697265625,-2.64678955078125,-0.665435791015625,1.0,2.0,1.0,4.0,2.0,85.0,event
11:38:36.654,0.4979982,0.44596356,0.93043804,0.35358387,0.2790962,-0.04211812,0.45979702,0.24319172,0.47522676,0.08183881,0.41848785,0.5761361,0.6656678,0.3044513,-0.16463774,0.30764645,0.22646686,-0.16861604,-0.59538,-0.15199326,926.7399,817.9487,829.2308,822.7839,796.5934,-0.00341796875,-0.0172119140625,0.983642578125,1.831817626953125,-3.54400634765625,-0.10467529296875,1.0,2.0,1.0,4.0,2.0,85.0,event
11:38:36.655,0.4979982,0.44596356,0.93043804,0.35358387,0.2790962,-0.04211812,0.45979702,0.24319172,0.47522676,0.08183881,0.41848785,0.5761361,0.6656678,0.3044513,-0.16463774,0.30764645,0.22646686,-0.16861604,-0.59538,-0.15199326,914.65204,819.5604,685.78754,817.5458,828.8278,-0.00341796875,-0.0172119140625,0.983642578125,1.831817626953125,-3.54400634765625,-0.10467529296875,1.0,2.0,1.0,4.0,2.0,85.0,event
11:38:36.659,0.4979982,0.44596356,0.93043804,0.35358387,0.2790962,-0.04211812,0.45979702,0.24319172,0.47522676,0.08183881,0.41848785,0.5761361,0.6656678,0.3044513,-0.16463774,0.30764645,0.22646686,-0.16861604,-0.59538,-0.15199326,763.1502,820.7692,415.0183,805.8608,814.3223,-0.00341796875,-0.0172119140625,0.983642578125,1.831817626953125,-3.54400634765625,-0.10467529296875,1.0,2.0,1.0,4.0,2.0,85.0,event
11:38:36.660,0.4979982,0.44596356,0.93043804,0.35358387,0.2790962,-0.04211812,0.45979702,0.24319172,0.47522676,0.08183881,0.41848785,0.5761361,0.6656678,0.3044513,-0.16463774,0.30764645,0.22646686,-0.16861604,-0.59538,-0.15199326,687.3993,823.1868,486.337,800.6227,780.07324,-0.00341796875,-0.0172119140625,0.983642578125,1.831817626953125,-3.54400634765625,-0.10467529296875,1.0,2.0,1.0,4.0,2.0,85.0,event
11:38:36.660,0.4979982,0.44596356,0.93043804,0.35358387,0.2790962,-0.04211812,0.45979702,0.24319172,0.47522676,0.08183881,0.41848785,0.5761361,0.6656678,0.3044513,-0.16463774,0.30764645,0.22646686,-0.16861604,-0.59538,-0.15199326,776.8498,830.4396,811.50183,809.0842,714.3956,-0.00341796875,-0.0172119140625,0.983642578125,1.831817626953125,-3.54400634765625,-0.10467529296875,1.0,2.0,1.0,4.0,2.0,85.0,event
11:38:36.661,0.4979982,0.44596356,0.93043804,0.35358387,0.2790962,-0.04211812,0.45979702,0.24319172,0.47522676,0.08183881,0.41848785,0.5761361,0.6656678,0.3044513,-0.16463774,0.30764645,0.22646686,-0.16861604,-0.59538,-0.15199326,920.696,822.7839,700.293,819.15753,828.022,-0.00341796875,-0.0172119140625,0.983642578125,1.831817626953125,-3.54400634765625,-0.10467529296875,1.0,2.0,1.0,4.0,2.0,85.0,event
11:38:36.662,0.4979982,0.44596356,0.93043804,0.35358387,0.2790962,-0.04211812,0.45979702,0.24319172,0.47522676,0.08183881,0.41848785,0.5761361,0.6656678,0.3044513,-0.16463774,0.30764645,0.22646686,-0.16861604,-0.59538,-0.15199326,918.2784,805.8608,252.63736,820.7692,1076.63,-0.00341796875,-0.0172119140625,0.983642578125,1.831817626953125,-3.54400634765625,-0.10467529296875,1.0,2.0,1.0,4.0,2.0,85.0,event
11:38:36.663,0.4979982,0.44596356,0.93043804,0.35358387,0.2790962,-0.04211812,0.45979702,0.24319172,0.47522676,0.08183881,0.41848785,0.5761361,0.6656678,0.3044513,-0.16463774,0.30764645,0.22646686,-0.16861604,-0.59538,-0.15199326,781.28204,820.7692,197.83882,805.8608,935.6044,-0.00341796875,-0.0172119140625,0.983642578125,1.831817626953125,-3.54400634765625,-0.10467529296875,1.0,2.0,1.0,4.0,2.0,85.0,event
11:38:36.664,0.4979982,0.44596356,0.93043804,0.35358387,0.2790962,-0.04211812,0.45979702,0.24319172,0.47522676,0.08183881,0.41848785,0.5761361,0.6656678,0.3044513,-0.16463774,0.30764645,0.22646686,-0.16861604,-0.59538,-0.15199326,691.4286,829.6337,680.9524,792.1612,651.9414,-0.00341796875,-0.0172119140625,0.983642578125,1.831817626953125,-3.54400634765625,-0.10467529296875,1.0,2.0,1.0,4.0,2.0,85.0,event
11:38:36.664,0.4979982,0.44596356,0.93043804,0.35358387,0.2790962,-0.04211812,0.45979702,0.24319172,0.47522676,0.08183881,0.41848785,0.5761361,0.6656678,0.3044513,-0.16463774,0.30764645,0.22646686,-0.16861604,-0.59538,-0.15199326,756.7033,813.91943,760.32965,799.011,665.64105,-0.00341796875,-0.0172119140625,0.983642578125,1.831817626953125,-3.54400634765625,-0.10467529296875,1.0,2.0,1.0,4.0,2.0,85.0,event
11:38:36.665,0.4979982,0.44596356,0.93043804,0.35358387,0.2790962,-0.04211812,0.45979702,0.24319172,0.47522676,0.08183881,0.41848785,0.5761361,0.6656678,0.3044513,-0.16463774,0.30764645,0.22646686,-0.16861604,-0.59538,-0.15199326,909.81683,814.7253,637.03296,823.5897,735.7509,-0.00341796875,-0.0172119140625,0.983642578125,1.831817626953125,-3.54400634765625,-0.10467529296875,1.0,2.0,1.0,4.0,2.0,85.0,event
11:38:36.666,0.4979982,0.44596356,0.93043804,0.35358387,0.2790962,-0.04211812,0.45979702,0.24319172,0.47522676,0.08183881,0.41848785,0.5761361,0.6656678,0.3044513,-0.16463774,0.30764645,0.22646686,-0.16861604,-0.59538,-0.15199326,947.28937,820.3663,792.96704,824.3956,744.61536,-0.00341796875,-0.0172119140625,0.983642578125,1.831817626953125,-3.54400634765625,-0.10467529296875,1.0,2.0,1.0,4.0,2.0,85.0,event
11:38:36.707,0.4979982,0.44596356,0.93043804,0.35358387,0.2790962,-0.04211812,0.45979702,0.24319172,0.47522676,0.08183881,0.41848785,0.5761361,0.6656678,0.3044513,-0.16463774,0.30764645,0.22646686,-0.16861604,-0.59538,-0.15199326,802.6374,813.91943,786.1172,803.0403,673.69965,-0.00341796875,-0.0172119140625,0.983642578125,1.831817626953125,-3.54400634765625,-0.10467529296875,1.0,2.0,1.0,4.0,2.0,85.0,event
11:38:36.709,0.4979982,0.44596356,0.93043804,0.35358387,0.2790962,-0.04211812,0.45979702,0.24319172,0.47522676,0.08183881,0.41848785,0.5761361,0.6656678,0.3044513,-0.16463774,0.30764645,0.22646686,-0.16861604,-0.59538,-0.15199326,680.54944,810.293,653.1502,800.2198,705.9341,-0.00341796875,-0.0172119140625,0.983642578125,1.831817626953125,-3.54400634765625,-0.10467529296875,1.0,2.0,1.0,4.0,2.0,85.0,event
11:38:36.711,0.4979982,0.44596356,0.93043804,0.35358387,0.2790962,-0.04211812,0.45979702,0.24319172,0.47522676,0.08183881,0.41848785,0.5761361,0.6656678,0.3044513,-0.16463774,0.30764645,0.22646686,-0.16861604,-0.59538,-0.15199326,725.2747,812.71063,642.674,805.4579,772.01465,-0.00341796875,-0.0172119140625,0.983642578125,1.831817626953125,-3.54400634765625,-0.10467529296875,1.0,2.0,1.0,4.0,2.0,85.0,event
11:38:36.712,0.4979982,0.44596356,0.93043804,0.35358387,0.2790962,-0.04211812,0.45979702,0.24319172,0.47522676,0.08183881,0.41848785,0.5761361,0.6656678,0.3044513,-0.16463774,0.30764645,0.22646686,-0.16861604,-0.59538,-0.15199326,869.5238,809.0842,674.10254,815.12823,770.80585,-0.00341796875,-0.0172119140625,0.983642578125,1.831817626953125,-3.54400634765625,-0.10467529296875,1.0,2.0,1.0,4.0,2.0,85.0,event
11:38:36.714,0.4979982,0.44596356,0.93043804,0.35358387,0.2790962,-0.04211812,0.45979702,0.24319172,0.47522676,0.08183881,0.41848785,0.5761361,0.6656678,0.3044513,-0.16463774,0.30764645,0.22646686,-0.16861604,-0.59538,-0.15199326,929.9634,811.9048,612.8571,816.7399,719.6337,-0.00341796875,-0.0172119140625,0.983642578125,1.831817626953125,-3.54400634765625,-0.10467529296875,1.0,2.0,1.0,4.0,2.0,85.0,event
11:38:36.715,0.4979982,0.44596356,0.93043804,0.35358387,0.2790962,-0.04211812,0.45979702,0.24319172,0.47522676,0.08183881,0.41848785,0.5761361,0.6656678,0.3044513,-0.16463774,0.30764645,0.22646686,-0.16861604,-0.59538,-0.15199326,808.2784,806.26373,442.82053,803.0403,821.1722,-0.00341796875,-0.0172119140625,0.983642578125,1.831817626953125,-3.54400634765625,-0.10467529296875,1.0,2.0,1.0,4.0,2.0,85.0,event
11:38:36.716,0.4979982,0.44596356,0.93043804,0.35358387,0.2790962,-0.04211812,0.45979702,0.24319172,0.47522676,0.08183881,0.41848785,0.5761361,0.6656678,0.3044513,-0.16463774,0.30764645,0.22646686,-0.16861604,-0.59538,-0.15199326,678.1319,801.4286,60.43956,791.3553,1117.326,-0.00341796875,-0.0172119140625,0.983642578125,1.831817626953125,-3.54400634765625,-0.10467529296875,1.0,2.0,1.0,4.0,2.0,85.0,event
11:38:36.717,0.4979982,0.44596356,0.93043804,0.35358387,0.2790962,-0.04211812,0.45979702,0.24319172,0.47522676,0.08183881,0.41848785,0.5761361,0.6656678,0.3044513,-0.16463774,0.30764645,0.22646686,-0.16861604,-0.59538,-0.15199326,713.5897,823.9927,319.92673,796.1905,902.1612,-0.00341796875,-0.0172119140625,0.983642578125,1.831817626953125,-3.54400634765625,-0.10467529296875,1.0,2.0,1.0,4.0,2.0,85.0,event
11:38:36.718,0.4979982,0.44596356,0.93043804,0.35358387,0.2790962,-0.04211812,0.45979702,0.24319172,0.47522676,0.08183881,0.41848785,0.5761361,0.6656678,0.3044513,-0.16463774,0.30764645,0.22646686,-0.16861604,-0.59538,-0.15199326,861.8681,828.022,766.77655,813.91943,649.12085,-0.00341796875,-0.0172119140625,0.983642578125,1.831817626953125,-3.54400634765625,-0.10467529296875,1.0,2.0,1.0,4.0,2.0,85.0,event
11:38:36.719,0.4979982,0.44596356,0.93043804,0.35358387,0.2790962,-0.04211812,0.45979702,0.24319172,0.47522676,0.08183881,0.41848785,0.5761361,0.6656678,0.3044513,-0.16463774,0.30764645,0.22646686,-0.16861604,-0.59538,-0.15199326,942.4542,821.1722,717.2161,812.3077,743.4066,-0.00341796875,-0.0172119140625,0.983642578125,1.831817626953125,-3.54400634765625,-0.10467529296875,1.0,2.0,1.0,4.0,2.0,85.0,event
11:38:36.720,0.4979982,0.44596356,0.93043804,0.35358387,0.2790962,-0.04211812,0.45979702,0.24319172,0.47522676,0.08183881,0.41848785,0.5761361,0.6656678,0.3044513,-0.16463774,0.30764645,0.22646686,-0.16861604,-0.59538,-0.15199326,836.8865,819.9634,639.85345,788.1319,786.52014,-0.00341796875,-0.0172119140625,0.983642578125,1.831817626953125,-3.54400634765625,-0.10467529296875,1.0,2.0,1.0,4.0,2.0,85.0,event
11:38:36.720,0.4979982,0.44596356,0.93043804,0.35358387,0.2790962,-0.04211812,0.45979702,0.24319172,0.47522676,0.08183881,0.41848785,0.5761361,0.6656678,0.3044513,-0.16463774,0.30764645,0.22646686,-0.16861604,-0.59538,-0.15199326,704.7253,819.5604,636.2271,773.22345,724.87177,-0.00341796875,-0.0172119140625,0.983642578125,1.831817626953125,-3.54400634765625,-0.10467529296875,1.0,2.0,1.0,4.0,2.0,85.0,event
11:38:36.752,0.4979982,0.44596356,0.93043804,0.35358387,0.2790962,-0.04211812,0.45979702,0.24319172,0.47522676,0.08183881,0.41848785,0.5761361,0.6656678,0.3044513,-0.16463774,0.30764645,0.22646686,-0.16861604,-0.59538,-0.15199326,720.84247,824.3956,755.4945,793.7729,702.3077,-0.01434326171875,-0.0211181640625,0.98553466796875,2.1533203125,-2.03369140625,-0.127105712890625,1.0,2.0,1.0,4.0,2.0,85.0,event
11:38:36.753,0.4979982,0.44596356,0.93043804,0.35358387,0.2790962,-0.04211812,0.45979702,0.24319172,0.47522676,0.08183881,0.41848785,0.5761361,0.6656678,0.3044513,-0.16463774,0.30764645,0.22646686,-0.16861604,-0.59538,-0.15199326,847.76556,807.8755,644.2857,817.9487,830.0366,-0.01434326171875,-0.0211181640625,0.98553466796875,2.1533203125,-2.03369140625,-0.127105712890625,1.0,2.0,1.0,4.0,2.0,85.0,event
11:38:36.753,0.4979982,0.44596356,0.93043804,0.35358387,0.2790962,-0.04211812,0.45979702,0.24319172,0.47522676,0.08183881,0.41848785,0.5761361,0.6656678,0.3044513,-0.16463774,0.30764645,0.22646686,-0.16861604,-0.59538,-0.15199326,959.3773,813.1135,679.34064,830.4396,825.2015,-0.01434326171875,-0.0211181640625,0.98553466796875,2.1533203125,-2.03369140625,-0.127105712890625,1.0,2.0,1.0,4.0,2.0,85.0,event
11:38:36.754,0.4979982,0.44596356,0.93043804,0.35358387,0.2790962,-0.04211812,0.45979702,0.24319172,0.47522676,0.08183881,0.41848785,0.5761361,0.6656678,0.3044513,-0.16463774,0.30764645,0.22646686,-0.16861604,-0.59538,-0.15199326,861.8681,818.3516,847.76556,800.2198,759.5238,-0.01434326171875,-0.0211181640625,0.98553466796875,2.1533203125,-2.03369140625,-0.127105712890625,1.0,2.0,1.0,4.0,2.0,85.0,event
11:38:36.756,0.4979982,0.44596356,0.93043804,0.35358387,0.2790962,-0.04211812,0.45979702,0.24319172,0.47522676,0.08183881,0.41848785,0.5761361,0.6656678,0.3044513,-0.16463774,0.30764645,0.22646686,-0.16861604,-0.59538,-0.15199326,705.5311,803.0403,733.3333,785.7143,755.89746,-0.01434326171875,-0.0211181640625,0.98553466796875,2.1533203125,-2.03369140625,-0.127105712890625,1.0,2.0,1.0,4.0,2.0,85.0,event
11:38:36.757,0.4979982,0.44596356,0.93043804,0.35358387,0.2790962,-0.04211812,0.45979702,0.24319172,0.47522676,0.08183881,0.41848785,0.5761361,0.6656678,0.3044513,-0.16463774,0.30764645,0.22646686,-0.16861604,-0.59538,-0.15199326,693.0403,790.14655,458.93774,794.17584,948.9011,-0.01434326171875,-0.0211181640625,0.98553466796875,2.1533203125,-2.03369140625,-0.127105712890625,1.0,2.0,1.0,4.0,2.0,85.0,event
11:38:36.757,0.4979982,0.44596356,0.93043804,0.35358387,0.2790962,-0.04211812,0.45979702,0.24319172,0.47522676,0.08183881,0.41848785,0.5761361,0.6656678,0.3044513,-0.16463774,0.30764645,0.22646686,-0.16861604,-0.59538,-0.15199326,798.20514,768.3883,456.92307,783.2967,972.27106,-0.01434326171875,-0.0211181640625,0.98553466796875,2.1533203125,-2.03369140625,-0.127105712890625,1.0,2.0,1.0,4.0,2.0,85.0,event
11:38:36.758,0.4979982,0.44596356,0.93043804,0.35358387,0.2790962,-0.04211812,0.45979702,0.24319172,0.47522676,0.08183881,0.41848785,0.5761361,0.6656678,0.3044513,-0.16463774,0.30764645,0.22646686,-0.16861604,-0.59538,-0.15199326,928.7546,741.79486,594.3223,799.011,859.0476,-0.01434326171875,-0.0211181640625,0.98553466796875,2.1533203125,-2.03369140625,-0.127105712890625,1.0,2.0,1.0,4.0,2.0,85.0,event
11:38:36.758,0.4979982,0.44596356,0.93043804,0.35358387,0.2790962,-0.04211812,0.45979702,0.24319172,0.47522676,0.08183881,0.41848785,0.5761361,0.6656678,0.3044513,-0.16463774,0.30764645,0.22646686,-0.16861604,-0.59538,-0.15199326,841.31866,689.011,697.47253,767.1795,836.8865,-0.01434326171875,-0.0211181640625,0.98553466796875,2.1533203125,-2.03369140625,-0.127105712890625,1.0,2.0,1.0,4.0,2.0,85.0,event
11:38:36.759,0.4979982,0.44596356,0.93043804,0.35358387,0.2790962,-0.04211812,0.45979702,0.24319172,0.47522676,0.08183881,0.41848785,0.5761361,0.6656678,0.3044513,-0.16463774,0.30764645,0.22646686,-0.16861604,-0.59538,-0.15199326,738.97437,584.65204,787.72894,717.2161,727.28937,-0.01434326171875,-0.0211181640625,0.98553466796875,2.1533203125,-2.03369140625,-0.127105712890625,1.0,2.0,1.0,4.0,2.0,85.0,event
11:38:36.759,0.4979982,0.44596356,0.93043804,0.35358387,0.2790962,-0.04211812,0.45979702,0.24319172,0.47522676,0.08183881,0.41848785,0.5761361,0.6656678,0.3044513,-0.16463774,0.30764645,0.22646686,-0.16861604,-0.59538,-0.15199326,658.3883,622.9304,275.6044,730.10986,1015.78754,-0.01434326171875,-0.0211181640625,0.98553466796875,2.1533203125,-2.03369140625,-0.127105712890625,1.0,2.0,1.0,4.0,2.0,85.0,event
11:38:36.759,0.4979982,0.44596356,0.93043804,0.35358387,0.2790962,-0.04211812,0.45979702,0.24319172,0.47522676,0.08183881,0.41848785,0.5761361,0.6656678,0.3044513,-0.16463774,0.30764645,0.22646686,-0.16861604,-0.59538,-0.15199326,626.1539,580.2198,209.92674,725.2747,1000.87915,-0.01434326171875,-0.0211181640625,0.98553466796875,2.1533203125,-2.03369140625,-0.127105712890625,1.0,2.0,1.0,4.0,2.0,85.0,event
11:38:36.810,0.4979982,0.44596356,0.93043804,0.35358387,0.2790962,-0.04211812,0.45979702,0.24319172,0.47522676,0.08183881,0.41848785,0.5761361,0.6656678,0.3044513,-0.16463774,0.30764645,0.22646686,-0.16861604,-0.59538,-0.15199326,846.9597,605.2015,872.74725,715.2015,728.0952,-0.0030517578125,-0.01922607421875,0.99322509765625,2.27294921875,-3.36456298828125,-0.46356201171875,1.0,2.0,1.0,4.0,2.0,85.0,event
11:38:36.811,0.4979982,0.44596356,0.93043804,0.35358387,0.2790962,-0.04211812,0.45979702,0.24319172,0.47522676,0.08183881,0.41848785,0.5761361,0.6656678,0.3044513,-0.16463774,0.30764645,0.22646686,-0.16861604,-0.59538,-0.15199326,761.53845,635.42126,730.10986,683.36993,820.3663,-0.0030517578125,-0.01922607421875,0.99322509765625,2.27294921875,-3.36456298828125,-0.46356201171875,1.0,2.0,1.0,4.0,2.0,85.0,event
11:38:36.812,0.4979982,0.44596356,0.93043804,0.35358387,0.2790962,-0.04211812,0.45979702,0.24319172,0.47522676,0.08183881,0.41848785,0.5761361,0.6656678,0.3044513,-0.16463774,0.30764645,0.22646686,-0.16861604,-0.59538,-0.15199326,566.1172,690.2198,722.8571,632.1978,728.0952,-0.0030517578125,-0.01922607421875,0.99322509765625,2.27294921875,-3.36456298828125,-0.46356201171875,1.0,2.0,1.0,4.0,2.0,85.0,event
11:38:36.812,0.4979982,0.44596356,0.93043804,0.35358387,0.2790962,-0.04211812,0.45979702,0.24319172,0.47522676,0.08183881,0.41848785,0.5761361,0.6656678,0.3044513,-0.16463774,0.30764645,0.22646686,-0.16861604,-0.59538,-0.15199326,475.05493,755.09155,802.23444,596.7399,651.9414,-0.0030517578125,-0.01922607421875,0.99322509765625,2.27294921875,-3.36456298828125,-0.46356201171875,1.0,2.0,1.0,4.0,2.0,85.0,event
11:38:36.813,0.4979982,0.44596356,0.93043804,0.35358387,0.2790962,-0.04211812,0.45979702,0.24319172,0.47522676,0.08183881,0.41848785,0.5761361,0.6656678,0.3044513,-0.16463774,0.30764645,0.22646686,-0.16861604,-0.59538,-0.15199326,542.74725,803.0403,761.13556,574.9817,711.5751,-0.0030517578125,-0.01922607421875,0.99322509765625,2.27294921875,-3.36456298828125,-0.46356201171875,1.0,2.0,1.0,4.0,2.0,85.0,event
11:38:36.814,0.4979982,0.44596356,0.93043804,0.35358387,0.2790962,-0.04211812,0.45979702,0.24319172,0.47522676,0.08183881,0.41848785,0.5761361,0.6656678,0.3044513,-0.16463774,0.30764645,0.22646686,-0.16861604,-0.59538,-0.15199326,662.4176,839.707,564.10254,559.2674,816.337,-0.0030517578125,-0.01922607421875,0.99322509765625,2.27294921875,-3.36456298828125,-0.46356201171875,1.0,2.0,1.0,4.0,2.0,85.0,event
11:38:36.814,0.4979982,0.44596356,0.93043804,0.35358387,0.2790962,-0.04211812,0.45979702,0.24319172,0.47522676,0.08183881,0.41848785,0.5761361,0.6656678,0.3044513,-0.16463774,0.30764645,0.22646686,-0.16861604,-0.59538,-0.15199326,623.3333,875.9707,510.51282,534.68866,881.2088,-0.0030517578125,-0.01922607421875,0.99322509765625,2.27294921875,-3.36456298828125,-0.46356201171875,1.0,2.0,1.0,4.0,2.0,85.0,event
11:38:36.815,0.4979982,0.44596356,0.93043804,0.35358387,0.2790962,-0.04211812,0.45979702,0.24319172,0.47522676,0.08183881,0.41848785,0.5761361,0.6656678,0.3044513,-0.16463774,0.30764645,0.22646686,-0.16861604,-0.59538,-0.15199326,465.3846,903.36993,698.68134,504.46887,757.1062,-0.0030517578125,-0.01922607421875,0.99322509765625,2.27294921875,-3.36456298828125,-0.46356201171875,1.0,2.0,1.0,4.0,2.0,85.0,event
11:38:36.815,0.4979982,0.44596356,0.93043804,0.35358387,0.2790962,-0.04211812,0.45979702,0.24319172,0.47522676,0.08183881,0.41848785,0.5761361,0.6656678,0.3044513,-0.16463774,0.30764645,0.22646686,-0.16861604,-0.59538,-0.15199326,393.663,903.36993,588.2784,496.8132,747.03296,-0.0030517578125,-0.01922607421875,0.99322509765625,2.27294921875,-3.36456298828125,-0.46356201171875,1.0,2.0,1.0,4.0,2.0,85.0,event
11:38:36.816,0.4979982,0.44596356,0.93043804,0.35358387,0.2790962,-0.04211812,0.45979702,0.24319172,0.47522676,0.08183881,0.41848785,0.5761361,0.6656678,0.3044513,-0.16463774,0.30764645,0.22646686,-0.16861604,-0.59538,-0.15199326,484.32236,890.87915,132.5641,527.4359,946.4835,-0.0030517578125,-0.01922607421875,0.99322509765625,2.27294921875,-3.36456298828125,-0.46356201171875,1.0,2.0,1.0,4.0,2.0,85.0,event
11:38:36.817,0.4979982,0.44596356,0.93043804,0.35358387,0.2790962,-0.04211812,0.45979702,0.24319172,0.47522676,0.08183881,0.41848785,0.5761361,0.6656678,0.3044513,-0.16463774,0.30764645,0.22646686,-0.16861604,-0.59538,-0.15199326,640.2564,899.34064,448.86447,539.92676,872.3443,-0.0030517578125,-0.01922607421875,0.99322509765625,2.27294921875,-3.36456298828125,-0.46356201171875,1.0,2.0,1.0,4.0,2.0,85.0,event
11:38:36.817,0.4979982,0.44596356,0.93043804,0.35358387,0.2790962,-0.04211812,0.45979702,0.24319172,0.47522676,0.08183881,0.41848785,0.5761361,0.6656678,0.3044513,-0.16463774,0.30764645,0.22646686,-0.16861604,-0.59538,-0.15199326,651.9414,892.0879,846.55676,520.18317,706.7399,-0.0030517578125,-0.01922607421875,0.99322509765625,2.27294921875,-3.36456298828125,-0.46356201171875,1.0,2.0,1.0,4.0,2.0,85.0,event
11:38:36.842,0.4979982,0.44596356,0.93043804,0.35358387,0.2790962,-0.04211812,0.45979702,0.24319172,0.47522676,0.08183881,0.41848785,0.5761361,0.6656678,0.3044513,-0.16463774,0.30764645,0.22646686,-0.16861604,-0.59538,-0.15199326,514.94507,861.8681,557.25275,523.4066,758.71796,-0.0120849609375,-0.01666259765625,0.98272705078125,2.265472412109375,-2.893524169921875,1.099090576171875,1.0,2.0,1.0,4.0,2.0,85.0,event
11:38:36.843,0.4979982,0.44596356,0.93043804,0.35358387,0.2790962,-0.04211812,0.45979702,0.24319172,0.47522676,0.08183881,0.41848785,0.5761361,0.6656678,0.3044513,-0.16463774,0.30764645,0.22646686,-0.16861604,-0.59538,-0.15199326,437.17947,862.27106,509.30402,539.92676,789.34064,-0.0120849609375,-0.01666259765625,0.98272705078125,2.265472412109375,-2.893524169921875,1.099090576171875,1.0,2.0,1.0,4.0,2.0,85.0,event
11:38:36.844,0.4979982,0.44596356,0.93043804,0.35358387,0.2790962,-0.04211812,0.45979702,0.24319172,0.47522676,0.08183881,0.41848785,0.5761361,0.6656678,0.3044513,-0.16463774,0.30764645,0.22646686,-0.16861604,-0.59538,-0.15199326,541.9414,869.5238,798.20514,569.34064,668.46155,-0.0120849609375,-0.01666259765625,0.98272705078125,2.265472412109375,-2.893524169921875,1.099090576171875,1.0,2.0,1.0,4.0,2.0,85.0,event
11:38:36.844,0.4979982,0.44596356,0.93043804,0.35358387,0.2790962,-0.04211812,0.45979702,0.24319172,0.47522676,0.08183881,0.41848785,0.5761361,0.6656678,0.3044513,-0.16463774,0.30764645,0.22646686,-0.16861604,-0.59538,-0.15199326,715.6044,850.18317,864.2857,605.6044,649.12085,-0.0120849609375,-0.01666259765625,0.98272705078125,2.265472412109375,-2.893524169921875,1.099090576171875,1.0,2.0,1.0,4.0,2.0,85.0,event
11:38:36.845,0.4979982,0.44596356,0.93043804,0.35358387,0.2790962,-0.04211812,0.45979702,0.24319172,0.47522676,0.08183881,0.41848785,0.5761361,0.6656678,0.3044513,-0.16463774,0.30764645,0.22646686,-0.16861604,-0.59538,-0.15199326,747.4359,829.2308,657.1795,622.52747,766.77655,-0.0120849609375,-0.01666259765625,0.98272705078125,2.265472412109375,-2.893524169921875,1.099090576171875,1.0,2.0,1.0,4.0,2.0,85.0,event
11:38:36.846,0.4979982,0.44596356,0.93043804,0.35358387,0.2790962,-0.04211812,0.45979702,0.24319172,0.47522676,0.08183881,0.41848785,0.5761361,0.6656678,0.3044513,-0.16463774,0.30764645,0.22646686,-0.16861604,-0.59538,-0.15199326,633.8095,820.7692,440.80585,632.1978,846.9597,-0.0120849609375,-0.01666259765625,0.98272705078125,2.265472412109375,-2.893524169921875,1.099090576171875,1.0,2.0,1.0,4.0,2.0,85.0,event
11:38:36.850,0.4979982,0.44596356,0.93043804,0.35358387,0.2790962,-0.04211812,0.45979702,0.24319172,0.47522676,0.08183881,0.41848785,0.5761361,0.6656678,0.3044513,-0.16463774,0.30764645,0.22646686,-0.16861604,-0.59538,-0.15199326,552.01465,820.3663,466.1905,649.12085,789.7436,-0.0120849609375,-0.01666259765625,0.98272705078125,2.265472412109375,-2.893524169921875,1.099090576171875,1.0,2.0,1.0,4.0,2.0,85.0,event
11:38:36.851,0.4979982,0.44596356,0.93043804,0.35358387,0.2790962,-0.04211812,0.45979702,0.24319172,0.47522676,0.08183881,0.41848785,0.5761361,0.6656678,0.3044513,-0.16463774,0.30764645,0.22646686,-0.16861604,-0.59538,-0.15199326,621.7216,810.293,701.0989,675.7143,779.2674,-0.0120849609375,-0.01666259765625,0.98272705078125,2.265472412109375,-2.893524169921875,1.099090576171875,1.0,2.0,1.0,4.0,2.0,85.0,event
11:38:36.852,0.4979982,0.44596356,0.93043804,0.35358387,0.2790962,-0.04211812,0.45979702,0.24319172,0.47522676,0.08183881,0.41848785,0.5761361,0.6656678,0.3044513,-0.16463774,0.30764645,0.22646686,-0.16861604,-0.59538,-0.15199326,788.1319,786.1172,473.84616,702.71063,1022.6374,-0.0120849609375,-0.01666259765625,0.98272705078125,2.265472412109375,-2.893524169921875,1.099090576171875,1.0,2.0,1.0,4.0,2.0,85.0,event
11:38:36.853,0.4979982,0.44596356,0.93043804,0.35358387,0.2790962,-0.04211812,0.45979702,0.24319172,0.47522676,0.08183881,0.41848785,0.5761361,0.6656678,0.3044513,-0.16463774,0.30764645,0.22646686,-0.16861604,-0.59538,-0.15199326,861.06226,782.49084,441.61172,712.381,997.6557,-0.0120849609375,-0.01666259765625,0.98272705078125,2.265472412109375,-2.893524169921875,1.099090576171875,1.0,2.0,1.0,4.0,2.0,85.0,event
11:38:36.854,0.4979982,0.44596356,0.93043804,0.35358387,0.2790962,-0.04211812,0.45979702,0.24319172,0.47522676,0.08183881,0.41848785,0.5761361,0.6656678,0.3044513,-0.16463774,0.30764645,0.22646686,-0.16861604,-0.59538,-0.15199326,769.19415,780.87915,826.0073,722.0513,770.40295,-0.0120849609375,-0.01666259765625,0.98272705078125,2.265472412109375,-2.893524169921875,1.099090576171875,1.0,2.0,1.0,4.0,2.0,85.0,event
11:38:36.855,0.4979982,0.44596356,0.93043804,0.35358387,0.2790962,-0.04211812,0.45979702,0.24319172,0.47522676,0.08183881,0.41848785,0.5761361,0.6656678,0.3044513,-0.16463774,0.30764645,0.22646686,-0.16861604,-0.59538,-0.15199326,656.3736,771.2088,763.95605,732.52747,724.0659,-0.0120849609375,-0.01666259765625,0.98272705078125,2.265472412109375,-2.893524169921875,1.099090576171875,1.0,2.0,1.0,4.0,2.0,85.0,event
11:38:36.901,0.4979982,0.44596356,0.93043804,0.35358387,0.2790962,-0.04211812,0.45979702,0.24319172,0.47522676,0.08183881,0.41848785,0.5761361,0.6656678,0.3044513,-0.16463774,0.30764645,0.22646686,-0.16861604,-0.59538,-0.15199326,701.50183,764.35895,568.5348,761.13556,699.0842,-0.00775146484375,-0.0167236328125,0.9898681640625,2.325286865234375,-3.289794921875,-0.710296630859375,1.0,2.0,1.0,4.0,2.0,85.0,event
11:38:36.902,0.4979982,0.44596356,0.93043804,0.35358387,0.2790962,-0.04211812,0.45979702,0.24319172,0.47522676,0.08183881,0.41848785,0.5761361,0.6656678,0.3044513,-0.16463774,0.30764645,0.22646686,-0.16861604,-0.59538,-0.15199326,873.1502,755.4945,624.94507,798.20514,788.93774,-0.00775146484375,-0.0167236328125,0.9898681640625,2.325286865234375,-3.289794921875,-0.710296630859375,1.0,2.0,1.0,4.0,2.0,85.0,event
11:38:36.903,0.4979982,0.44596356,0.93043804,0.35358387,0.2790962,-0.04211812,0.45979702,0.24319172,0.47522676,0.08183881,0.41848785,0.5761361,0.6656678,0.3044513,-0.16463774,0.30764645,0.22646686,-0.16861604,-0.59538,-0.15199326,961.79486,749.85345,827.619,815.12823,743.00366,-0.00775146484375,-0.0167236328125,0.9898681640625,2.325286865234375,-3.289794921875,-0.710296630859375,1.0,2.0,1.0,4.0,2.0,85.0,event
11:38:36.904,0.4979982,0.44596356,0.93043804,0.35358387,0.2790962,-0.04211812,0.45979702,0.24319172,0.47522676,0.08183881,0.41848785,0.5761361,0.6656678,0.3044513,-0.16463774,0.30764645,0.22646686,-0.16861604,-0.59538,-0.15199326,863.8828,743.4066,660.80585,816.337,689.011,-0.00775146484375,-0.0167236328125,0.9898681640625,2.325286865234375,-3.289794921875,-0.710296630859375,1.0,2.0,1.0,4.0,2.0,85.0,event
11:38:36.904,0.4979982,0.44596356,0.93043804,0.35358387,0.2790962,-0.04211812,0.45979702,0.24319172,0.47522676,0.08183881,0.41848785,0.5761361,0.6656678,0.3044513,-0.16463774,0.30764645,0.22646686,-0.16861604,-0.59538,-0.15199326,746.63007,742.6007,387.21613,825.2015,823.1868,-0.00775146484375,-0.0167236328125,0.9898681640625,2.325286865234375,-3.289794921875,-0.710296630859375,1.0,2.0,1.0,4.0,2.0,85.0,event
11:38:36.905,0.4979982,0.44596356,0.93043804,0.35358387,0.2790962,-0.04211812,0.45979702,0.24319172,0.47522676,0.08183881,0.41848785,0.5761361,0.6656678,0.3044513,-0.16463774,0.30764645,0.22646686,-0.16861604,-0.59538,-0.15199326,784.90845,739.7802,470.6227,847.76556,835.6777,-0.00775146484375,-0.0167236328125,0.9898681640625,2.325286865234375,-3.289794921875,-0.710296630859375,1.0,2.0,1.0,4.0,2.0,85.0,event
11:38:36.906,0.4979982,0.44596356,0.93043804,0.35358387,0.2790962,-0.04211812,0.45979702,0.24319172,0.47522676,0.08183881,0.41848785,0.5761361,0.6656678,0.3044513,-0.16463774,0.30764645,0.22646686,-0.16861604,-0.59538,-0.15199326,926.337,737.76556,660.40295,870.7326,834.0659,-0.00775146484375,-0.0167236328125,0.9898681640625,2.325286865234375,-3.289794921875,-0.710296630859375,1.0,2.0,1.0,4.0,2.0,85.0,event
11:38:36.907,0.4979982,0.44596356,0.93043804,0.35358387,0.2790962,-0.04211812,0.45979702,0.24319172,0.47522676,0.08183881,0.41848785,0.5761361,0.6656678,0.3044513,-0.16463774,0.30764645,0.22646686,-0.16861604,-0.59538,-0.15199326,1029.4872,732.52747,574.9817,890.87915,900.54944,-0.00775146484375,-0.0167236328125,0.9898681640625,2.325286865234375,-3.289794921875,-0.710296630859375,1.0,2.0,1.0,4.0,2.0,85.0,event
11:38:36.908,0.4979982,0.44596356,0.93043804,0.35358387,0.2790962,-0.04211812,0.45979702,0.24319172,0.47522676,0.08183881,0.41848785,0.5761361,0.6656678,0.3044513,-0.16463774,0.30764645,0.22646686,-0.16861604,-0.59538,-0.15199326,943.663,726.8865,136.19048,886.4469,1034.3224,-0.00775146484375,-0.0167236328125,0.9898681640625,2.325286865234375,-3.289794921875,-0.710296630859375,1.0,2.0,1.0,4.0,2.0,85.0,event
11:38:36.909,0.4979982,0.44596356,0.93043804,0.35358387,0.2790962,-0.04211812,0.45979702,0.24319172,0.47522676,0.08183881,0.41848785,0.5761361,0.6656678,0.3044513,-0.16463774,0.30764645,0.22646686,-0.16861604,-0.59538,-0.15199326,805.8608,737.76556,457.72894,870.7326,776.8498,-0.00775146484375,-0.0167236328125,0.9898681640625,2.325286865234375,-3.289794921875,-0.710296630859375,1.0,2.0,1.0,4.0,2.0,85.0,event
11:38:36.910,0.4979982,0.44596356,0.93043804,0.35358387,0.2790962,-0.04211812,0.45979702,0.24319172,0.47522676,0.08183881,0.41848785,0.5761361,0.6656678,0.3044513,-0.16463774,0.30764645,0.22646686,-0.16861604,-0.59538,-0.15199326,801.4286,737.3626,800.6227,880.80585,641.06226,-0.00775146484375,-0.0167236328125,0.9898681640625,2.325286865234375,-3.289794921875,-0.710296630859375,1.0,2.0,1.0,4.0,2.0,85.0,event
11:38:36.911,0.4979982,0.44596356,0.93043804,0.35358387,0.2790962,-0.04211812,0.45979702,0.24319172,0.47522676,0.08183881,0.41848785,0.5761361,0.6656678,0.3044513,-0.16463774,0.30764645,0.22646686,-0.16861604,-0.59538,-0.15199326,935.6044,740.58606,734.1392,904.17584,832.0513,-0.00775146484375,-0.0167236328125,0.9898681640625,2.325286865234375,-3.289794921875,-0.710296630859375,1.0,2.0,1.0,4.0,2.0,85.0,event
11:38:36.943,0.4979982,0.44596356,0.93043804,0.35358387,0.2790962,-0.04211812,0.45979702,0.24319172,0.47522676,0.08183881,0.41848785,0.5761361,0.6656678,0.3044513,-0.16463774,0.30764645,0.22646686,-0.16861604,-0.59538,-0.15199326,1051.6483,748.24176,819.5604,905.78754,821.5751,-0.00775146484375,-0.0167236328125,0.9898681640625,2.325286865234375,-3.289794921875,-0.710296630859375,1.0,2.0,1.0,4.0,2.0,85.0,event
11:38:36.944,0.4979982,0.44596356,0.93043804,0.35358387,0.2790962,-0.04211812,0.45979702,0.24319172,0.47522676,0.08183881,0.41848785,0.5761361,0.6656678,0.3044513,-0.16463774,0.30764645,0.22646686,-0.16861604,-0.59538,-0.15199326,982.74725,753.0769,857.4359,891.28204,721.6484,-0.00775146484375,-0.0167236328125,0.9898681640625,2.325286865234375,-3.289794921875,-0.710296630859375,1.0,2.0,1.0,4.0,2.0,85.0,event
11:38:36.945,0.4979982,0.44596356,0.93043804,0.35358387,0.2790962,-0.04211812,0.45979702,0.24319172,0.47522676,0.08183881,0.41848785,0.5761361,0.6656678,0.3044513,-0.16463774,0.30764645,0.22646686,-0.16861604,-0.59538,-0.15199326,835.6777,755.4945,741.79486,883.22345,703.1135,-0.00775146484375,-0.0167236328125,0.9898681640625,2.325286865234375,-3.289794921875,-0.710296630859375,1.0,2.0,1.0,4.0,2.0,85.0,event
11:38:36.946,0.4979982,0.44596356,0.93043804,0.35358387,0.2790962,-0.04211812,0.45979702,0.24319172,0.47522676,0.08183881,0.41848785,0.5761361,0.6656678,0.3044513,-0.16463774,0.30764645,0.22646686,-0.16861604,-0.59538,-0.15199326,800.2198,756.7033,507.28937,889.2674,755.09155,-0.00775146484375,-0.0167236328125,0.9898681640625,2.325286865234375,-3.289794921875,-0.710296630859375,1.0,2.0,1.0,4.0,2.0,85.0,event
11:38:36.946,0.4979982,0.44596356,0.93043804,0.35358387,0.2790962,-0.04211812,0.45979702,0.24319172,0.47522676,0.08183881,0.41848785,0.5761361,0.6656678,0.3044513,-0.16463774,0.30764645,0.22646686,-0.16861604,-0.59538,-0.15199326,917.47253,763.1502,515.34796,896.9231,821.5751,-0.00775146484375,-0.0167236328125,0.9898681640625,2.325286865234375,-3.289794921875,-0.710296630859375,1.0,2.0,1.0,4.0,2.0,85.0,event
11:38:36.947,0.4979982,0.44596356,0.93043804,0.35358387,0.2790962,-0.04211812,0.45979702,0.24319172,0.47522676,0.08183881,0.41848785,0.5761361,0.6656678,0.3044513,-0.16463774,0.30764645,0.22646686,-0.16861604,-0.59538,-0.15199326,1045.2014,772.01465,587.47253,898.93774,791.3553,-0.00775146484375,-0.0167236328125,0.9898681640625,2.325286865234375,-3.289794921875,-0.710296630859375,1.0,2.0,1.0,4.0,2.0,85.0,event
11:38:36.948,0.4979982,0.44596356,0.93043804,0.35358387,0.2790962,-0.04211812,0.45979702,0.24319172,0.47522676,0.08183881,0.41848785,0.5761361,0.6656678,0.3044513,-0.16463774,0.30764645,0.22646686,-0.16861604,-0.59538,-0.15199326,981.9414,781.28204,513.73627,886.8498,796.1905,-0.00775146484375,-0.0167236328125,0.9898681640625,2.325286865234375,-3.289794921875,-0.710296630859375,1.0,2.0,1.0,4.0,2.0,85.0,event
11:38:36.949,0.4979982,0.44596356,0.93043804,0.35358387,0.2790962,-0.04211812,0.45979702,0.24319172,0.47522676,0.08183881,0.41848785,0.5761361,0.6656678,0.3044513,-0.16463774,0.30764645,0.22646686,-0.16861604,-0.59538,-0.15199326,825.6044,779.2674,182.12454,879.19415,1003.69965,-0.00775146484375,-0.0167236328125,0.9898681640625,2.325286865234375,-3.289794921875,-0.710296630859375,1.0,2.0,1.0,4.0,2.0,85.0,event
11:38:36.951,,,,,,,,,,,,,,,,,,,,,,,,,,,,,,,,,,,,,,blink
11:38:36.953,0.4979982,0.44596356,0.93043804,0.35358387,0.2790962,-0.04211812,0.45979702,0.24319172,0.47522676,0.08183881,0.41848785,0.5761361,0.6656678,0.3044513,-0.16463774,0.30764645,0.22646686,-0.16861604,-0.59538,-0.15199326,780.4762,794.57874,0.0,889.67035,1044.7986,-0.00775146484375,-0.0167236328125,0.9898681640625,2.325286865234375,-3.289794921875,-0.710296630859375,1.0,2.0,1.0,4.0,2.0,85.0,event
11:38:36.954,0.4979982,0.44596356,0.93043804,0.35358387,0.2790962,-0.04211812,0.45979702,0.24319172,0.47522676,0.08183881,0.41848785,0.5761361,0.6656678,0.3044513,-0.16463774,0.30764645,0.22646686,-0.16861604,-0.59538,-0.15199326,901.3553,824.3956,594.7253,894.10254,742.6007,-0.00775146484375,-0.0167236328125,0.9898681640625,2.325286865234375,-3.289794921875,-0.710296630859375,1.0,2.0,1.0,4.0,2.0,85.0,event
11:38:36.955,0.4979982,0.44596356,0.93043804,0.35358387,0.2790962,-0.04211812,0.45979702,0.24319172,0.47522676,0.08183881,0.41848785,0.5761361,0.6656678,0.3044513,-0.16463774,0.30764645,0.22646686,-0.16861604,-0.59538,-0.15199326,1033.5165,826.0073,917.8755,898.1319,727.6923,-0.00775146484375,-0.0167236328125,0.9898681640625,2.325286865234375,-3.289794921875,-0.710296630859375,1.0,2.0,1.0,4.0,2.0,85.0,event
11:38:36.956,0.4979982,0.44596356,0.93043804,0.35358387,0.2790962,-0.04211812,0.45979702,0.24319172,0.47522676,0.08183881,0.41848785,0.5761361,0.6656678,0.3044513,-0.16463774,0.30764645,0.22646686,-0.16861604,-0.59538,-0.15199326,992.4176,829.2308,729.304,882.01465,809.4872,-0.00775146484375,-0.0167236328125,0.9898681640625,2.325286865234375,-3.289794921875,-0.710296630859375,1.0,2.0,1.0,4.0,2.0,85.0,event
11:38:36.979,0.4979982,0.44596356,0.93043804,0.35358387,0.2790962,-0.04211812,0.45979702,0.24319172,0.47522676,0.08183881,0.41848785,0.5761361,0.6656678,0.3044513,-0.16463774,0.30764645,0.22646686,-0.16861604,-0.59538,-0.15199326,846.55676,844.1392,746.2271,857.8388,705.9341,-0.008056640625,-0.01806640625,0.9884033203125,2.213134765625,-3.461761474609375,-0.500946044921875,1.0,2.0,1.0,4.0,2.0,85.0,event
11:38:36.980,0.4979982,0.44596356,0.93043804,0.35358387,0.2790962,-0.04211812,0.45979702,0.24319172,0.47522676,0.08183881,0.41848785,0.5761361,0.6656678,0.3044513,-0.16463774,0.30764645,0.22646686,-0.16861604,-0.59538,-0.15199326,780.87915,849.7802,823.1868,859.0476,697.8755,-0.008056640625,-0.01806640625,0.9884033203125,2.213134765625,-3.461761474609375,-0.500946044921875,1.0,2.0,1.0,4.0,2.0,85.0,event
11:38:36.981,0.4979982,0.44596356,0.93043804,0.35358387,0.2790962,-0.04211812,0.45979702,0.24319172,0.47522676,0.08183881,0.41848785,0.5761361,0.6656678,0.3044513,-0.16463774,0.30764645,0.22646686,-0.16861604,-0.59538,-0.15199326,866.30035,850.18317,855.82416,868.71796,814.7253,-0.008056640625,-0.01806640625,0.9884033203125,2.213134765625,-3.461761474609375,-0.500946044921875,1.0,2.0,1.0,4.0,2.0,85.0,event
11:38:36.982,0.4979982,0.44596356,0.93043804,0.35358387,0.2790962,-0.04211812,0.45979702,0.24319172,0.47522676,0.08183881,0.41848785,0.5761361,0.6656678,0.3044513,-0.16463774,0.30764645,0.22646686,-0.16861604,-0.59538,-0.15199326,1006.1172,860.2564,865.4945,885.2381,877.5824,-0.008056640625,-0.01806640625,0.9884033203125,2.213134765625,-3.461761474609375,-0.500946044921875,1.0,2.0,1.0,4.0,2.0,85.0,event
11:38:36.982,0.4979982,0.44596356,0.93043804,0.35358387,0.2790962,-0.04211812,0.45979702,0.24319172,0.47522676,0.08183881,0.41848785,0.5761361,0.6656678,0.3044513,-0.16463774,0.30764645,0.22646686,-0.16861604,-0.59538,-0.15199326,1002.49084,868.71796,855.0183,882.4176,828.022,-0.008056640625,-0.01806640625,0.9884033203125,2.213134765625,-3.461761474609375,-0.500946044921875,1.0,2.0,1.0,4.0,2.0,85.0,event
11:38:36.983,0.4979982,0.44596356,0.93043804,0.35358387,0.2790962,-0.04211812,0.45979702,0.24319172,0.47522676,0.08183881,0.41848785,0.5761361,0.6656678,0.3044513,-0.16463774,0.30764645,0.22646686,-0.16861604,-0.59538,-0.15199326,849.7802,871.53845,672.8938,861.06226,841.7216,-0.008056640625,-0.01806640625,0.9884033203125,2.213134765625,-3.461761474609375,-0.500946044921875,1.0,2.0,1.0,4.0,2.0,85.0,event
11:38:36.984,0.4979982,0.44596356,0.93043804,0.35358387,0.2790962,-0.04211812,0.45979702,0.24319172,0.47522676,0.08183881,0.41848785,0.5761361,0.6656678,0.3044513,-0.16463774,0.30764645,0.22646686,-0.16861604,-0.59538,-0.15199326,753.47986,876.3736,409.7802,852.1978,935.2015,-0.008056640625,-0.01806640625,0.9884033203125,2.213134765625,-3.461761474609375,-0.500946044921875,1.0,2.0,1.0,4.0,2.0,85.0,event
11:38:36.984,0.4979982,0.44596356,0.93043804,0.35358387,0.2790962,-0.04211812,0.45979702,0.24319172,0.47522676,0.08183881,0.41848785,0.5761361,0.6656678,0.3044513,-0.16463774,0.30764645,0.22646686,-0.16861604,-0.59538,-0.15199326,817.9487,879.19415,83.00366,864.2857,1142.3077,-0.008056640625,-0.01806640625,0.9884033203125,2.213134765625,-3.461761474609375,-0.500946044921875,1.0,2.0,1.0,4.0,2.0,85.0,event
11:38:36.985,0.4979982,0.44596356,0.93043804,0.35358387,0.2790962,-0.04211812,0.45979702,0.24319172,0.47522676,0.08183881,0.41848785,0.5761361,0.6656678,0.3044513,-0.16463774,0.30764645,0.22646686,-0.16861604,-0.59538,-0.15199326,970.2564,897.72894,520.18317,871.53845,918.2784,-0.008056640625,-0.01806640625,0.9884033203125,2.213134765625,-3.461761474609375,-0.500946044921875,1.0,2.0,1.0,4.0,2.0,85.0,event
11:38:36.986,0.4979982,0.44596356,0.93043804,0.35358387,0.2790962,-0.04211812,0.45979702,0.24319172,0.47522676,0.08183881,0.41848785,0.5761361,0.6656678,0.3044513,-0.16463774,0.30764645,0.22646686,-0.16861604,-0.59538,-0.15199326,994.0293,897.326,936.8132,862.674,691.8315,-0.008056640625,-0.01806640625,0.9884033203125,2.213134765625,-3.461761474609375,-0.500946044921875,1.0,2.0,1.0,4.0,2.0,85.0,event
11:38:36.986,0.4979982,0.44596356,0.93043804,0.35358387,0.2790962,-0.04211812,0.45979702,0.24319172,0.47522676,0.08183881,0.41848785,0.5761361,0.6656678,0.3044513,-0.16463774,0.30764645,0.22646686,-0.16861604,-0.59538,-0.15199326,841.7216,889.67035,648.315,847.76556,797.8022,-0.008056640625,-0.01806640625,0.9884033203125,2.213134765625,-3.461761474609375,-0.500946044921875,1.0,2.0,1.0,4.0,2.0,85.0,event
11:38:36.987,0.4979982,0.44596356,0.93043804,0.35358387,0.2790962,-0.04211812,0.45979702,0.24319172,0.47522676,0.08183881,0.41848785,0.5761361,0.6656678,0.3044513,-0.16463774,0.30764645,0.22646686,-0.16861604,-0.59538,-0.15199326,735.34796,891.28204,602.381,836.8865,797.3993,-0.008056640625,-0.01806640625,0.9884033203125,2.213134765625,-3.461761474609375,-0.500946044921875,1.0,2.0,1.0,4.0,2.0,85.0,event
11:38:37.079,0.4979982,0.44596356,0.93043804,0.35358387,0.2790962,-0.04211812,0.45979702,0.24319172,0.47522676,0.08183881,0.41848785,0.5761361,0.6656678,0.3044513,-0.16463774,0.30764645,0.22646686,-0.16861604,-0.59538,-0.15199326,803.44324,896.9231,838.49817,842.1245,693.0403,-0.005859375,-0.0184326171875,0.99066162109375,2.093505859375,-3.21502685546875,0.859832763671875,1.0,2.0,1.0,4.0,2.0,85.0,event
11:38:37.080,0.4979982,0.44596356,0.93043804,0.35358387,0.2790962,-0.04211812,0.45979702,0.24319172,0.47522676,0.08183881,0.41848785,0.5761361,0.6656678,0.3044513,-0.16463774,0.30764645,0.22646686,-0.16861604,-0.59538,-0.15199326,948.49817,900.14655,912.23444,857.03296,715.6044,-0.005859375,-0.0184326171875,0.99066162109375,2.093505859375,-3.21502685546875,0.859832763671875,1.0,2.0,1.0,4.0,2.0,85.0,event
11:38:37.082,0.4979982,0.44596356,0.93043804,0.35358387,0.2790962,-0.04211812,0.45979702,0.24319172,0.47522676,0.08183881,0.41848785,0.5761361,0.6656678,0.3044513,-0.16463774,0.30764645,0.22646686,-0.16861604,-0.59538,-0.15199326,978.71796,893.2967,651.53845,857.4359,778.86444,-0.005859375,-0.0184326171875,0.99066162109375,2.093505859375,-3.21502685546875,0.859832763671875,1.0,2.0,1.0,4.0,2.0,85.0,event
11:38:37.084,0.4979982,0.44596356,0.93043804,0.35358387,0.2790962,-0.04211812,0.45979702,0.24319172,0.47522676,0.08183881,0.41848785,0.5761361,0.6656678,0.3044513,-0.16463774,0.30764645,0.22646686,-0.16861604,-0.59538,-0.15199326,848.5714,894.10254,583.8461,837.6923,673.2967,-0.005859375,-0.0184326171875,0.99066162109375,2.093505859375,-3.21502685546875,0.859832763671875,1.0,2.0,1.0,4.0,2.0,85.0,event
11:38:37.085,0.4979982,0.44596356,0.93043804,0.35358387,0.2790962,-0.04211812,0.45979702,0.24319172,0.47522676,0.08183881,0.41848785,0.5761361,0.6656678,0.3044513,-0.16463774,0.30764645,0.22646686,-0.16861604,-0.59538,-0.15199326,737.3626,894.90845,660.40295,830.4396,621.31866,-0.005859375,-0.0184326171875,0.99066162109375,2.093505859375,-3.21502685546875,0.859832763671875,1.0,2.0,1.0,4.0,2.0,85.0,event
11:38:37.087,0.4979982,0.44596356,0.93043804,0.35358387,0.2790962,-0.04211812,0.45979702,0.24319172,0.47522676,0.08183881,0.41848785,0.5761361,0.6656678,0.3044513,-0.16463774,0.30764645,0.22646686,-0.16861604,-0.59538,-0.15199326,782.49084,885.64105,527.03296,848.97437,811.0989,-0.005859375,-0.0184326171875,0.99066162109375,2.093505859375,-3.21502685546875,0.859832763671875,1.0,2.0,1.0,4.0,2.0,85.0,event
11:38:37.088,0.4979982,0.44596356,0.93043804,0.35358387,0.2790962,-0.04211812,0.45979702,0.24319172,0.47522676,0.08183881,0.41848785,0.5761361,0.6656678,0.3044513,-0.16463774,0.30764645,0.22646686,-0.16861604,-0.59538,-0.15199326,919.0842,883.6264,442.41757,863.0769,913.0403,-0.005859375,-0.0184326171875,0.99066162109375,2.093505859375,-3.21502685546875,0.859832763671875,1.0,2.0,1.0,4.0,2.0,85.0,event
11:38:37.089,0.4979982,0.44596356,0.93043804,0.35358387,0.2790962,-0.04211812,0.45979702,0.24319172,0.47522676,0.08183881,0.41848785,0.5761361,0.6656678,0.3044513,-0.16463774,0.30764645,0.22646686,-0.16861604,-0.59538,-0.15199326,876.3736,897.326,771.6117,857.4359,695.8608,-0.005859375,-0.0184326171875,0.99066162109375,2.093505859375,-3.21502685546875,0.859832763671875,1.0,2.0,1.0,4.0,2.0,85.0,event
11:38:37.089,0.4979982,0.44596356,0.93043804,0.35358387,0.2790962,-0.04211812,0.45979702,0.24319172,0.47522676,0.08183881,0.41848785,0.5761361,0.6656678,0.3044513,-0.16463774,0.30764645,0.22646686,-0.16861604,-0.59538,-0.15199326,985.56775,892.0879,648.71796,865.89746,808.2784,-0.005859375,-0.0184326171875,0.99066162109375,2.093505859375,-3.21502685546875,0.859832763671875,1.0,2.0,1.0,4.0,2.0,85.0,event
11:38:37.090,0.4979982,0.44596356,0.93043804,0.35358387,0.2790962,-0.04211812,0.45979702,0.24319172,0.47522676,0.08183881,0.41848785,0.5761361,0.6656678,0.3044513,-0.16463774,0.30764645,0.22646686,-0.16861604,-0.59538,-0.15199326,744.61536,890.87915,636.2271,843.73627,662.01465,-0.005859375,-0.0184326171875,0.99066162109375,2.093505859375,-3.21502685546875,0.859832763671875,1.0,2.0,1.0,4.0,2.0,85.0,event
11:38:37.095,0.4979982,0.44596356,0.93043804,0.35358387,0.2790962,-0.04211812,0.45979702,0.24319172,0.47522676,0.08183881,0.41848785,0.5761361,0.6656678,0.3044513,-0.16463774,0.30764645,0.22646686,-0.16861604,-0.59538,-0.15199326,753.47986,873.1502,139.41393,849.7802,989.19415,-0.005859375,-0.0184326171875,0.99066162109375,2.093505859375,-3.21502685546875,0.859832763671875,1.0,2.0,1.0,4.0,2.0,85.0,event
11:38:37.095,0.4979982,0.44596356,0.93043804,0.35358387,0.2790962,-0.04211812,0.45979702,0.24319172,0.47522676,0.08183881,0.41848785,0.5761361,0.6656678,0.3044513,-0.16463774,0.30764645,0.22646686,-0.16861604,-0.59538,-0.15199326,894.5055,883.22345,142.23444,868.315,1084.6886,-0.005859375,-0.0184326171875,0.99066162109375,2.093505859375,-3.21502685546875,0.859832763671875,1.0,2.0,1.0,4.0,2.0,85.0,event
11:38:37.123,0.4979982,0.44596356,0.93043804,0.35358387,0.2790962,-0.04211812,0.45979702,0.24319172,0.47522676,0.08183881,0.41848785,0.5761361,0.6656678,0.3044513,-0.16463774,0.30764645,0.22646686,-0.16861604,-0.59538,-0.15199326,994.43225,891.685,793.7729,865.09155,790.14655,-0.01177978515625,-0.019775390625,0.98712158203125,2.49725341796875,-2.97576904296875,0.650482177734375,1.0,2.0,1.0,4.0,2.0,85.0,event
11:38:37.125,0.4979982,0.44596356,0.93043804,0.35358387,0.2790962,-0.04211812,0.45979702,0.24319172,0.47522676,0.08183881,0.41848785,0.5761361,0.6656678,0.3044513,-0.16463774,0.30764645,0.22646686,-0.16861604,-0.59538,-0.15199326,896.9231,876.77655,755.09155,847.3626,718.4249,-0.01177978515625,-0.019775390625,0.98712158203125,2.49725341796875,-2.97576904296875,0.650482177734375,1.0,2.0,1.0,4.0,2.0,85.0,event
11:38:37.126,0.4979982,0.44596356,0.93043804,0.35358387,0.2790962,-0.04211812,0.45979702,0.24319172,0.47522676,0.08183881,0.41848785,0.5761361,0.6656678,0.3044513,-0.16463774,0.30764645,0.22646686,-0.16861604,-0.59538,-0.15199326,752.674,873.1502,504.46887,836.08057,732.1245,-0.01177978515625,-0.019775390625,0.98712158203125,2.49725341796875,-2.97576904296875,0.650482177734375,1.0,2.0,1.0,4.0,2.0,85.0,event
11:38:37.127,0.4979982,0.44596356,0.93043804,0.35358387,0.2790962,-0.04211812,0.45979702,0.24319172,0.47522676,0.08183881,0.41848785,0.5761361,0.6656678,0.3044513,-0.16463774,0.30764645,0.22646686,-0.16861604,-0.59538,-0.15199326,751.4652,874.7619,708.3516,840.5128,726.8865,-0.01177978515625,-0.019775390625,0.98712158203125,2.49725341796875,-2.97576904296875,0.650482177734375,1.0,2.0,1.0,4.0,2.0,85.0,event
11:38:37.129,0.4979982,0.44596356,0.93043804,0.35358387,0.2790962,-0.04211812,0.45979702,0.24319172,0.47522676,0.08183881,0.41848785,0.5761361,0.6656678,0.3044513,-0.16463774,0.30764645,0.22646686,-0.16861604,-0.59538,-0.15199326,887.6557,868.315,903.7729,852.1978,699.4872,-0.01177978515625,-0.019775390625,0.98712158203125,2.49725341796875,-2.97576904296875,0.650482177734375,1.0,2.0,1.0,4.0,2.0,85.0,event
11:38:37.131,0.4979982,0.44596356,0.93043804,0.35358387,0.2790962,-0.04211812,0.45979702,0.24319172,0.47522676,0.08183881,0.41848785,0.5761361,0.6656678,0.3044513,-0.16463774,0.30764645,0.22646686,-0.16861604,-0.59538,-0.15199326,987.1795,858.24176,602.7839,861.4652,857.8388,-0.01177978515625,-0.019775390625,0.98712158203125,2.49725341796875,-2.97576904296875,0.650482177734375,1.0,2.0,1.0,4.0,2.0,85.0,event
11:38:37.132,0.4979982,0.44596356,0.93043804,0.35358387,0.2790962,-0.04211812,0.45979702,0.24319172,0.47522676,0.08183881,0.41848785,0.5761361,0.6656678,0.3044513,-0.16463774,0.30764645,0.22646686,-0.16861604,-0.59538,-0.15199326,893.69965,861.8681,218.38828,850.989,997.6557,-0.01177978515625,-0.019775390625,0.98712158203125,2.49725341796875,-2.97576904296875,0.650482177734375,1.0,2.0,1.0,4.0,2.0,85.0,event
11:38:37.133,0.4979982,0.44596356,0.93043804,0.35358387,0.2790962,-0.04211812,0.45979702,0.24319172,0.47522676,0.08183881,0.41848785,0.5761361,0.6656678,0.3044513,-0.16463774,0.30764645,0.22646686,-0.16861604,-0.59538,-0.15199326,748.6447,869.5238,502.45422,832.8571,783.2967,-0.01177978515625,-0.019775390625,0.98712158203125,2.49725341796875,-2.97576904296875,0.650482177734375,1.0,2.0,1.0,4.0,2.0,85.0,event
11:38:37.134,0.4979982,0.44596356,0.93043804,0.35358387,0.2790962,-0.04211812,0.45979702,0.24319172,0.47522676,0.08183881,0.41848785,0.5761361,0.6656678,0.3044513,-0.16463774,0.30764645,0.22646686,-0.16861604,-0.59538,-0.15199326,731.31866,861.06226,779.2674,834.0659,658.3883,-0.01177978515625,-0.019775390625,0.98712158203125,2.49725341796875,-2.97576904296875,0.650482177734375,1.0,2.0,1.0,4.0,2.0,85.0,event
11:38:37.135,0.4979982,0.44596356,0.93043804,0.35358387,0.2790962,-0.04211812,0.45979702,0.24319172,0.47522676,0.08183881,0.41848785,0.5761361,0.6656678,0.3044513,-0.16463774,0.30764645,0.22646686,-0.16861604,-0.59538,-0.15199326,970.65936,855.0183,642.27106,849.3773,874.7619,-0.01177978515625,-0.019775390625,0.98712158203125,2.49725341796875,-2.97576904296875,0.650482177734375,1.0,2.0,1.0,4.0,2.0,85.0,event
11:38:37.135,0.4979982,0.44596356,0.93043804,0.35358387,0.2790962,-0.04211812,0.45979702,0.24319172,0.47522676,0.08183881,0.41848785,0.5761361,0.6656678,0.3044513,-0.16463774,0.30764645,0.22646686,-0.16861604,-0.59538,-0.15199326,849.7802,851.39197,661.2088,849.7802,759.12085,-0.01177978515625,-0.019775390625,0.98712158203125,2.49725341796875,-2.97576904296875,0.650482177734375,1.0,2.0,1.0,4.0,2.0,85.0,event
11:38:37.136,0.4979982,0.44596356,0.93043804,0.35358387,0.2790962,-0.04211812,0.45979702,0.24319172,0.47522676,0.08183881,0.41848785,0.5761361,0.6656678,0.3044513,-0.16463774,0.30764645,0.22646686,-0.16861604,-0.59538,-0.15199326,906.5934,857.03296,819.5604,825.2015,779.67035,-0.01177978515625,-0.019775390625,0.98712158203125,2.49725341796875,-2.97576904296875,0.650482177734375,1.0,2.0,1.0,4.0,2.0,85.0,event
11:38:37.137,0.4979982,0.44596356,0.93043804,0.35358387,0.2790962,-0.04211812,0.45979702,0.24319172,0.47522676,0.08183881,0.41848785,0.5761361,0.6656678,0.3044513,-0.16463774,0.30764645,0.22646686,-0.16861604,-0.59538,-0.15199326,741.39197,848.1685,716.4103,815.5311,661.6117,-0.00714111328125,-0.02252197265625,0.98822021484375,2.04864501953125,-3.207550048828125,0.007476806640625,1.0,2.0,1.0,4.0,2.0,85.0,event
11:38:37.137,0.4979982,0.44596356,0.93043804,0.35358387,0.2790962,-0.04211812,0.45979702,0.24319172,0.47522676,0.08183881,0.41848785,0.5761361,0.6656678,0.3044513,-0.16463774,0.30764645,0.22646686,-0.16861604,-0.59538,-0.15199326,697.0696,838.0952,506.48352,819.15753,823.5897,-0.00714111328125,-0.02252197265625,0.98822021484375,2.04864501953125,-3.207550048828125,0.007476806640625,1.0,2.0,1.0,4.0,2.0,85.0,event
11:38:37.138,0.4979982,0.44596356,0.93043804,0.35358387,0.2790962,-0.04211812,0.45979702,0.24319172,0.47522676,0.08183881,0.41848785,0.5761361,0.6656678,0.3044513,-0.16463774,0.30764645,0.22646686,-0.16861604,-0.59538,-0.15199326,815.5311,842.1245,650.32965,824.3956,859.85345,-0.00714111328125,-0.02252197265625,0.98822021484375,2.04864501953125,-3.207550048828125,0.007476806640625,1.0,2.0,1.0,4.0,2.0,85.0,event
11:38:37.139,0.4979982,0.44596356,0.93043804,0.35358387,0.2790962,-0.04211812,0.45979702,0.24319172,0.47522676,0.08183881,0.41848785,0.5761361,0.6656678,0.3044513,-0.16463774,0.30764645,0.22646686,-0.16861604,-0.59538,-0.15199326,951.31866,843.73627,875.16486,829.6337,729.707,-0.00714111328125,-0.02252197265625,0.98822021484375,2.04864501953125,-3.207550048828125,0.007476806640625,1.0,2.0,1.0,4.0,2.0,85.0,event
11:38:37.139,0.4979982,0.44596356,0.93043804,0.35358387,0.2790962,-0.04211812,0.45979702,0.24319172,0.47522676,0.08183881,0.41848785,0.5761361,0.6656678,0.3044513,-0.16463774,0.30764645,0.22646686,-0.16861604,-0.59538,-0.15199326,913.0403,835.6777,836.4835,811.9048,723.663,-0.00714111328125,-0.02252197265625,0.98822021484375,2.04864501953125,-3.207550048828125,0.007476806640625,1.0,2.0,1.0,4.0,2.0,85.0,event
11:38:37.140,0.4979982,0.44596356,0.93043804,0.35358387,0.2790962,-0.04211812,0.45979702,0.24319172,0.47522676,0.08183881,0.41848785,0.5761361,0.6656678,0.3044513,-0.16463774,0.30764645,0.22646686,-0.16861604,-0.59538,-0.15199326,751.8681,819.5604,299.3773,795.78754,931.5751,-0.00714111328125,-0.02252197265625,0.98822021484375,2.04864501953125,-3.207550048828125,0.007476806640625,1.0,2.0,1.0,4.0,2.0,85.0,event
11:38:37.140,0.4979982,0.44596356,0.93043804,0.35358387,0.2790962,-0.04211812,0.45979702,0.24319172,0.47522676,0.08183881,0.41848785,0.5761361,0.6656678,0.3044513,-0.16463774,0.30764645,0.22646686,-0.16861604,-0.59538,-0.15199326,682.96704,827.619,95.091576,799.41394,1049.2307,-0.00714111328125,-0.02252197265625,0.98822021484375,2.04864501953125,-3.207550048828125,0.007476806640625,1.0,2.0,1.0,4.0,2.0,85.0,event
11:38:37.140,0.4979982,0.44596356,0.93043804,0.35358387,0.2790962,-0.04211812,0.45979702,0.24319172,0.47522676,0.08183881,0.41848785,0.5761361,0.6656678,0.3044513,-0.16463774,0.30764645,0.22646686,-0.16861604,-0.59538,-0.15199326,796.99634,842.1245,673.2967,810.293,759.92676,-0.00714111328125,-0.02252197265625,0.98822021484375,2.04864501953125,-3.207550048828125,0.007476806640625,1.0,2.0,1.0,4.0,2.0,85.0,event
11:38:37.141,0.4979982,0.44596356,0.93043804,0.35358387,0.2790962,-0.04211812,0.45979702,0.24319172,0.47522676,0.08183881,0.41848785,0.5761361,0.6656678,0.3044513,-0.16463774,0.30764645,0.22646686,-0.16861604,-0.59538,-0.15199326,691.8315,832.4542,689.011,788.1319,729.304,-0.00714111328125,-0.02252197265625,0.98822021484375,2.04864501953125,-3.207550048828125,0.007476806640625,1.0,2.0,1.0,4.0,2.0,85.0,event
11:38:37.141,0.4979982,0.44596356,0.93043804,0.35358387,0.2790962,-0.04211812,0.45979702,0.24319172,0.47522676,0.08183881,0.41848785,0.5761361,0.6656678,0.3044513,-0.16463774,0.30764645,0.22646686,-0.16861604,-0.59538,-0.15199326,767.1795,824.7985,493.58975,798.20514,776.4469,-0.00714111328125,-0.02252197265625,0.98822021484375,2.04864501953125,-3.207550048828125,0.007476806640625,1.0,2.0,1.0,4.0,2.0,85.0,event
11:38:37.141,0.4979982,0.44596356,0.93043804,0.35358387,0.2790962,-0.04211812,0.45979702,0.24319172,0.47522676,0.08183881,0.41848785,0.5761361,0.6656678,0.3044513,-0.16463774,0.30764645,0.22646686,-0.16861604,-0.59538,-0.15199326,911.02563,814.7253,445.64102,811.50183,882.01465,-0.00714111328125,-0.02252197265625,0.98822021484375,2.04864501953125,-3.207550048828125,0.007476806640625,1.0,2.0,1.0,4.0,2.0,85.0,event
11:38:37.141,0.4979982,0.44596356,0.93043804,0.35358387,0.2790962,-0.04211812,0.45979702,0.24319172,0.47522676,0.08183881,0.41848785,0.5761361,0.6656678,0.3044513,-0.16463774,0.30764645,0.22646686,-0.16861604,-0.59538,-0.15199326,939.6337,827.2161,838.49817,815.9341,711.978,-0.00714111328125,-0.02252197265625,0.98822021484375,2.04864501953125,-3.207550048828125,0.007476806640625,1.0,2.0,1.0,4.0,2.0,85.0,event
11:38:37.193,0.4979982,0.44596356,0.93043804,0.35358387,0.2790962,-0.04211812,0.45979702,0.24319172,0.47522676,0.08183881,0.41848785,0.5761361,0.6656678,0.3044513,-0.16463774,0.30764645,0.22646686,-0.16861604,-0.59538,-0.15199326,773.22345,827.2161,749.45056,805.05493,784.10254,-0.00714111328125,-0.02252197265625,0.98822021484375,2.04864501953125,-3.207550048828125,0.007476806640625,1.0,2.0,1.0,4.0,2.0,85.0,event
11:38:37.195,0.4979982,0.44596356,0.93043804,0.35358387,0.2790962,-0.04211812,0.45979702,0.24319172,0.47522676,0.08183881,0.41848785,0.5761361,0.6656678,0.3044513,-0.16463774,0.30764645,0.22646686,-0.16861604,-0.59538,-0.15199326,925.12823,818.7546,688.20514,821.5751,809.4872,-0.00714111328125,-0.02252197265625,0.98822021484375,2.04864501953125,-3.207550048828125,0.007476806640625,1.0,2.0,1.0,4.0,2.0,85.0,event
11:38:37.196,0.4979982,0.44596356,0.93043804,0.35358387,0.2790962,-0.04211812,0.45979702,0.24319172,0.47522676,0.08183881,0.41848785,0.5761361,0.6656678,0.3044513,-0.16463774,0.30764645,0.22646686,-0.16861604,-0.59538,-0.15199326,934.7985,822.7839,752.27106,804.2491,749.45056,-0.00714111328125,-0.02252197265625,0.98822021484375,2.04864501953125,-3.207550048828125,0.007476806640625,1.0,2.0,1.0,4.0,2.0,85.0,event
11:38:37.196,0.4979982,0.44596356,0.93043804,0.35358387,0.2790962,-0.04211812,0.45979702,0.24319172,0.47522676,0.08183881,0.41848785,0.5761361,0.6656678,0.3044513,-0.16463774,0.30764645,0.22646686,-0.16861604,-0.59538,-0.15199326,786.52014,828.022,762.74725,785.7143,679.7436,-0.00714111328125,-0.02252197265625,0.98822021484375,2.04864501953125,-3.207550048828125,0.007476806640625,1.0,2.0,1.0,4.0,2.0,85.0,event
11:38:37.197,0.4979982,0.44596356,0.93043804,0.35358387,0.2790962,-0.04211812,0.45979702,0.24319172,0.47522676,0.08183881,0.41848785,0.5761361,0.6656678,0.3044513,-0.16463774,0.30764645,0.22646686,-0.16861604,-0.59538,-0.15199326,690.2198,824.7985,545.56775,781.685,714.7985,-0.00714111328125,-0.02252197265625,0.98822021484375,2.04864501953125,-3.207550048828125,0.007476806640625,1.0,2.0,1.0,4.0,2.0,85.0,event
11:38:37.198,0.4979982,0.44596356,0.93043804,0.35358387,0.2790962,-0.04211812,0.45979702,0.24319172,0.47522676,0.08183881,0.41848785,0.5761361,0.6656678,0.3044513,-0.16463774,0.30764645,0.22646686,-0.16861604,-0.59538,-0.15199326,754.68866,820.3663,399.30402,792.1612,825.6044,-0.00714111328125,-0.02252197265625,0.98822021484375,2.04864501953125,-3.207550048828125,0.007476806640625,1.0,2.0,1.0,4.0,2.0,85.0,event
11:38:37.199,0.4979982,0.44596356,0.93043804,0.35358387,0.2790962,-0.04211812,0.45979702,0.24319172,0.47522676,0.08183881,0.41848785,0.5761361,0.6656678,0.3044513,-0.16463774,0.30764645,0.22646686,-0.16861604,-0.59538,-0.15199326,913.8461,824.7985,476.26373,809.0842,863.8828,-0.00714111328125,-0.02252197265625,0.98822021484375,2.04864501953125,-3.207550048828125,0.007476806640625,1.0,2.0,1.0,4.0,2.0,85.0,event
11:38:37.200,0.4979982,0.44596356,0.93043804,0.35358387,0.2790962,-0.04211812,0.45979702,0.24319172,0.47522676,0.08183881,0.41848785,0.5761361,0.6656678,0.3044513,-0.16463774,0.30764645,0.22646686,-0.16861604,-0.59538,-0.15199326,948.0952,829.2308,627.76556,804.2491,776.8498,-0.00714111328125,-0.02252197265625,0.98822021484375,2.04864501953125,-3.207550048828125,0.007476806640625,1.0,2.0,1.0,4.0,2.0,85.0,event
11:38:37.200,0.4979982,0.44596356,0.93043804,0.35358387,0.2790962,-0.04211812,0.45979702,0.24319172,0.47522676,0.08183881,0.41848785,0.5761361,0.6656678,0.3044513,-0.16463774,0.30764645,0.22646686,-0.16861604,-0.59538,-0.15199326,803.0403,813.91943,540.32965,782.49084,812.71063,-0.00714111328125,-0.02252197265625,0.98822021484375,2.04864501953125,-3.207550048828125,0.007476806640625,1.0,2.0,1.0,4.0,2.0,85.0,event
11:38:37.201,0.4979982,0.44596356,0.93043804,0.35358387,0.2790962,-0.04211812,0.45979702,0.24319172,0.47522676,0.08183881,0.41848785,0.5761361,0.6656678,0.3044513,-0.16463774,0.30764645,0.22646686,-0.16861604,-0.59538,-0.15199326,677.326,805.8608,91.86813,778.0586,1020.2198,-0.00714111328125,-0.02252197265625,0.98822021484375,2.04864501953125,-3.207550048828125,0.007476806640625,1.0,2.0,1.0,4.0,2.0,85.0,event
11:38:37.202,0.4979982,0.44596356,0.93043804,0.35358387,0.2790962,-0.04211812,0.45979702,0.24319172,0.47522676,0.08183881,0.41848785,0.5761361,0.6656678,0.3044513,-0.16463774,0.30764645,0.22646686,-0.16861604,-0.59538,-0.15199326,733.3333,825.6044,449.2674,786.52014,786.52014,-0.00714111328125,-0.02252197265625,0.98822021484375,2.04864501953125,-3.207550048828125,0.007476806640625,1.0,2.0,1.0,4.0,2.0,85.0,event
11:38:37.203,0.4979982,0.44596356,0.93043804,0.35358387,0.2790962,-0.04211812,0.45979702,0.24319172,0.47522676,0.08183881,0.41848785,0.5761361,0.6656678,0.3044513,-0.16463774,0.30764645,0.22646686,-0.16861604,-0.59538,-0.15199326,890.07324,821.978,881.6117,798.60803,649.5238,-0.00714111328125,-0.02252197265625,0.98822021484375,2.04864501953125,-3.207550048828125,0.007476806640625,1.0,2.0,1.0,4.0,2.0,85.0,event
11:38:37.227,0.4979982,0.44596356,0.93043804,0.35358387,0.2790962,-0.04211812,0.45979702,0.24319172,0.47522676,0.08183881,0.41848785,0.5761361,0.6656678,0.3044513,-0.16463774,0.30764645,0.22646686,-0.16861604,-0.59538,-0.15199326,938.022,812.71063,688.60803,802.23444,783.69965,-0.00946044921875,-0.0213623046875,0.9859619140625,2.280426025390625,-2.1234130859375,0.560760498046875,1.0,2.0,1.0,4.0,2.0,85.0,event
11:38:37.229,0.4979982,0.44596356,0.93043804,0.35358387,0.2790962,-0.04211812,0.45979702,0.24319172,0.47522676,0.08183881,0.41848785,0.5761361,0.6656678,0.3044513,-0.16463774,0.30764645,0.22646686,-0.16861604,-0.59538,-0.15199326,822.7839,818.7546,615.2747,796.5934,748.6447,-0.00946044921875,-0.0213623046875,0.9859619140625,2.280426025390625,-2.1234130859375,0.560760498046875,1.0,2.0,1.0,4.0,2.0,85.0,event
11:38:37.229,0.4979982,0.44596356,0.93043804,0.35358387,0.2790962,-0.04211812,0.45979702,0.24319172,0.47522676,0.08183881,0.41848785,0.5761361,0.6656678,0.3044513,-0.16463774,0.30764645,0.22646686,-0.16861604,-0.59538,-0.15199326,695.05493,815.9341,715.2015,800.2198,716.0073,-0.00946044921875,-0.0213623046875,0.9859619140625,2.280426025390625,-2.1234130859375,0.560760498046875,1.0,2.0,1.0,4.0,2.0,85.0,event
11:38:37.230,0.4979982,0.44596356,0.93043804,0.35358387,0.2790962,-0.04211812,0.45979702,0.24319172,0.47522676,0.08183881,0.41848785,0.5761361,0.6656678,0.3044513,-0.16463774,0.30764645,0.22646686,-0.16861604,-0.59538,-0.15199326,724.0659,811.0989,819.15753,802.6374,800.6227,-0.00946044921875,-0.0213623046875,0.9859619140625,2.280426025390625,-2.1234130859375,0.560760498046875,1.0,2.0,1.0,4.0,2.0,85.0,event
11:38:37.231,0.4979982,0.44596356,0.93043804,0.35358387,0.2790962,-0.04211812,0.45979702,0.24319172,0.47522676,0.08183881,0.41848785,0.5761361,0.6656678,0.3044513,-0.16463774,0.30764645,0.22646686,-0.16861604,-0.59538,-0.15199326,872.3443,811.0989,697.8755,809.4872,853.4066,-0.00946044921875,-0.0213623046875,0.9859619140625,2.280426025390625,-2.1234130859375,0.560760498046875,1.0,2.0,1.0,4.0,2.0,85.0,event
11:38:37.231,0.4979982,0.44596356,0.93043804,0.35358387,0.2790962,-0.04211812,0.45979702,0.24319172,0.47522676,0.08183881,0.41848785,0.5761361,0.6656678,0.3044513,-0.16463774,0.30764645,0.22646686,-0.16861604,-0.59538,-0.15199326,938.8278,818.7546,493.1868,801.4286,812.71063,-0.00946044921875,-0.0213623046875,0.9859619140625,2.280426025390625,-2.1234130859375,0.560760498046875,1.0,2.0,1.0,4.0,2.0,85.0,event
11:38:37.232,0.4979982,0.44596356,0.93043804,0.35358387,0.2790962,-0.04211812,0.45979702,0.24319172,0.47522676,0.08183881,0.41848785,0.5761361,0.6656678,0.3044513,-0.16463774,0.30764645,0.22646686,-0.16861604,-0.59538,-0.15199326,833.663,821.978,431.9414,781.28204,793.7729,-0.00946044921875,-0.0213623046875,0.9859619140625,2.280426025390625,-2.1234130859375,0.560760498046875,1.0,2.0,1.0,4.0,2.0,85.0,event
11:38:37.233,0.4979982,0.44596356,0.93043804,0.35358387,0.2790962,-0.04211812,0.45979702,0.24319172,0.47522676,0.08183881,0.41848785,0.5761361,0.6656678,0.3044513,-0.16463774,0.30764645,0.22646686,-0.16861604,-0.59538,-0.15199326,709.5604,823.1868,492.38095,776.4469,732.1245,-0.00946044921875,-0.0213623046875,0.9859619140625,2.280426025390625,-2.1234130859375,0.560760498046875,1.0,2.0,1.0,4.0,2.0,85.0,event
11:38:37.233,0.4979982,0.44596356,0.93043804,0.35358387,0.2790962,-0.04211812,0.45979702,0.24319172,0.47522676,0.08183881,0.41848785,0.5761361,0.6656678,0.3044513,-0.16463774,0.30764645,0.22646686,-0.16861604,-0.59538,-0.15199326,707.5458,810.293,147.87546,798.60803,929.15753,-0.00946044921875,-0.0213623046875,0.9859619140625,2.280426025390625,-2.1234130859375,0.560760498046875,1.0,2.0,1.0,4.0,2.0,85.0,event
11:38:37.234,0.4979982,0.44596356,0.93043804,0.35358387,0.2790962,-0.04211812,0.45979702,0.24319172,0.47522676,0.08183881,0.41848785,0.5761361,0.6656678,0.3044513,-0.16463774,0.30764645,0.22646686,-0.16861604,-0.59538,-0.15199326,841.31866,820.7692,83.40659,818.7546,1062.9304,-0.00946044921875,-0.0213623046875,0.9859619140625,2.280426025390625,-2.1234130859375,0.560760498046875,1.0,2.0,1.0,4.0,2.0,85.0,event
11:38:37.236,0.4979982,0.44596356,0.93043804,0.35358387,0.2790962,-0.04211812,0.45979702,0.24319172,0.47522676,0.08183881,0.41848785,0.5761361,0.6656678,0.3044513,-0.16463774,0.30764645,0.22646686,-0.16861604,-0.59538,-0.15199326,965.0183,835.6777,757.50916,814.7253,839.707,-0.00946044921875,-0.0213623046875,0.9859619140625,2.280426025390625,-2.1234130859375,0.560760498046875,1.0,2.0,1.0,4.0,2.0,85.0,event
11:38:37.237,0.4979982,0.44596356,0.93043804,0.35358387,0.2790962,-0.04211812,0.45979702,0.24319172,0.47522676,0.08183881,0.41848785,0.5761361,0.6656678,0.3044513,-0.16463774,0.30764645,0.22646686,-0.16861604,-0.59538,-0.15199326,871.13556,821.1722,808.68134,802.6374,787.72894,-0.00946044921875,-0.0213623046875,0.9859619140625,2.280426025390625,-2.1234130859375,0.560760498046875,1.0,2.0,1.0,4.0,2.0,85.0,event
11:38:37.286,0.4979982,0.44596356,0.93043804,0.35358387,0.2790962,-0.04211812,0.45979702,0.24319172,0.47522676,0.08183881,0.41848785,0.5761361,0.6656678,0.3044513,-0.16463774,0.30764645,0.22646686,-0.16861604,-0.59538,-0.15199326,710.3663,816.7399,531.8681,799.81683,801.8315,-0.009765625,-0.0206298828125,0.98419189453125,2.452392578125,-3.715972900390625,0.186920166015625,1.0,2.0,1.0,4.0,2.0,85.0,event
11:38:37.288,0.4979982,0.44596356,0.93043804,0.35358387,0.2790962,-0.04211812,0.45979702,0.24319172,0.47522676,0.08183881,0.41848785,0.5761361,0.6656678,0.3044513,-0.16463774,0.30764645,0.22646686,-0.16861604,-0.59538,-0.15199326,705.5311,824.3956,718.4249,809.89014,718.4249,-0.009765625,-0.0206298828125,0.98419189453125,2.452392578125,-3.715972900390625,0.186920166015625,1.0,2.0,1.0,4.0,2.0,85.0,event
11:38:37.293,0.4979982,0.44596356,0.93043804,0.35358387,0.2790962,-0.04211812,0.45979702,0.24319172,0.47522676,0.08183881,0.41848785,0.5761361,0.6656678,0.3044513,-0.16463774,0.30764645,0.22646686,-0.16861604,-0.59538,-0.15199326,837.28937,830.4396,886.04395,823.9927,727.6923,-0.009765625,-0.0206298828125,0.98419189453125,2.452392578125,-3.715972900390625,0.186920166015625,1.0,2.0,1.0,4.0,2.0,85.0,event
11:38:37.294,0.4979982,0.44596356,0.93043804,0.35358387,0.2790962,-0.04211812,0.45979702,0.24319172,0.47522676,0.08183881,0.41848785,0.5761361,0.6656678,0.3044513,-0.16463774,0.30764645,0.22646686,-0.16861604,-0.59538,-0.15199326,950.9158,817.9487,814.3223,824.3956,810.293,-0.009765625,-0.0206298828125,0.98419189453125,2.452392578125,-3.715972900390625,0.186920166015625,1.0,2.0,1.0,4.0,2.0,85.0,event
11:38:37.294,0.4979982,0.44596356,0.93043804,0.35358387,0.2790962,-0.04211812,0.45979702,0.24319172,0.47522676,0.08183881,0.41848785,0.5761361,0.6656678,0.3044513,-0.16463774,0.30764645,0.22646686,-0.16861604,-0.59538,-0.15199326,872.3443,810.696,642.27106,801.4286,835.2747,-0.009765625,-0.0206298828125,0.98419189453125,2.452392578125,-3.715972900390625,0.186920166015625,1.0,2.0,1.0,4.0,2.0,85.0,event
11:38:37.295,0.4979982,0.44596356,0.93043804,0.35358387,0.2790962,-0.04211812,0.45979702,0.24319172,0.47522676,0.08183881,0.41848785,0.5761361,0.6656678,0.3044513,-0.16463774,0.30764645,0.22646686,-0.16861604,-0.59538,-0.15199326,709.9634,809.0842,454.90842,782.0879,873.5531,-0.009765625,-0.0206298828125,0.98419189453125,2.452392578125,-3.715972900390625,0.186920166015625,1.0,2.0,1.0,4.0,2.0,85.0,event
11:38:37.296,0.4979982,0.44596356,0.93043804,0.35358387,0.2790962,-0.04211812,0.45979702,0.24319172,0.47522676,0.08183881,0.41848785,0.5761361,0.6656678,0.3044513,-0.16463774,0.30764645,0.22646686,-0.16861604,-0.59538,-0.15199326,685.78754,811.0989,503.26007,781.685,876.77655,-0.009765625,-0.0206298828125,0.98419189453125,2.452392578125,-3.715972900390625,0.186920166015625,1.0,2.0,1.0,4.0,2.0,85.0,event
11:38:37.296,0.4979982,0.44596356,0.93043804,0.35358387,0.2790962,-0.04211812,0.45979702,0.24319172,0.47522676,0.08183881,0.41848785,0.5761361,0.6656678,0.3044513,-0.16463774,0.30764645,0.22646686,-0.16861604,-0.59538,-0.15199326,808.2784,814.7253,464.1758,799.011,856.63007,-0.009765625,-0.0206298828125,0.98419189453125,2.452392578125,-3.715972900390625,0.186920166015625,1.0,2.0,1.0,4.0,2.0,85.0,event
11:38:37.297,0.4979982,0.44596356,0.93043804,0.35358387,0.2790962,-0.04211812,0.45979702,0.24319172,0.47522676,0.08183881,0.41848785,0.5761361,0.6656678,0.3044513,-0.16463774,0.30764645,0.22646686,-0.16861604,-0.59538,-0.15199326,933.1868,811.50183,129.34065,818.3516,1000.87915,-0.009765625,-0.0206298828125,0.98419189453125,2.452392578125,-3.715972900390625,0.186920166015625,1.0,2.0,1.0,4.0,2.0,85.0,event
11:38:37.298,0.4979982,0.44596356,0.93043804,0.35358387,0.2790962,-0.04211812,0.45979702,0.24319172,0.47522676,0.08183881,0.41848785,0.5761361,0.6656678,0.3044513,-0.16463774,0.30764645,0.22646686,-0.16861604,-0.59538,-0.15199326,898.1319,830.0366,483.51648,806.6667,846.1539,-0.009765625,-0.0206298828125,0.98419189453125,2.452392578125,-3.715972900390625,0.186920166015625,1.0,2.0,1.0,4.0,2.0,85.0,event
11:38:37.298,0.4979982,0.44596356,0.93043804,0.35358387,0.2790962,-0.04211812,0.45979702,0.24319172,0.47522676,0.08183881,0.41848785,0.5761361,0.6656678,0.3044513,-0.16463774,0.30764645,0.22646686,-0.16861604,-0.59538,-0.15199326,749.0476,834.4689,676.1172,787.326,712.7839,-0.009765625,-0.0206298828125,0.98419189453125,2.452392578125,-3.715972900390625,0.186920166015625,1.0,2.0,1.0,4.0,2.0,85.0,event
11:38:37.299,0.4979982,0.44596356,0.93043804,0.35358387,0.2790962,-0.04211812,0.45979702,0.24319172,0.47522676,0.08183881,0.41848785,0.5761361,0.6656678,0.3044513,-0.16463774,0.30764645,0.22646686,-0.16861604,-0.59538,-0.15199326,685.78754,817.9487,335.64102,783.69965,817.5458,-0.009765625,-0.0206298828125,0.98419189453125,2.452392578125,-3.715972900390625,0.186920166015625,1.0,2.0,1.0,4.0,2.0,85.0,event
11:38:37.349,0.4979982,0.44596356,0.93043804,0.35358387,0.2790962,-0.04211812,0.45979702,0.24319172,0.47522676,0.08183881,0.41848785,0.5761361,0.6656678,0.3044513,-0.16463774,0.30764645,0.22646686,-0.16861604,-0.59538,-0.15199326,785.31134,820.7692,451.28204,793.7729,785.7143,-0.010498046875,-0.02105712890625,0.9852294921875,2.130889892578125,-3.222503662109375,0.500946044921875,1.0,2.0,1.0,4.0,2.0,85.0,event
11:38:37.350,0.4979982,0.44596356,0.93043804,0.35358387,0.2790962,-0.04211812,0.45979702,0.24319172,0.47522676,0.08183881,0.41848785,0.5761361,0.6656678,0.3044513,-0.16463774,0.30764645,0.22646686,-0.16861604,-0.59538,-0.15199326,933.9927,823.1868,828.8278,808.68134,718.8278,-0.010498046875,-0.02105712890625,0.9852294921875,2.130889892578125,-3.222503662109375,0.500946044921875,1.0,2.0,1.0,4.0,2.0,85.0,event
11:38:37.351,0.4979982,0.44596356,0.93043804,0.35358387,0.2790962,-0.04211812,0.45979702,0.24319172,0.47522676,0.08183881,0.41848785,0.5761361,0.6656678,0.3044513,-0.16463774,0.30764645,0.22646686,-0.16861604,-0.59538,-0.15199326,909.41394,819.15753,758.315,799.41394,722.4542,-0.010498046875,-0.02105712890625,0.9852294921875,2.130889892578125,-3.222503662109375,0.500946044921875,1.0,2.0,1.0,4.0,2.0,85.0,event
