TimeStamp,Delta_TP9,Delta_AF7,Delta_AF8,Delta_TP10,Theta_TP9,Theta_AF7,Theta_AF8,Theta_TP10,Alpha_TP9,Alpha_AF7,Alpha_AF8,Alpha_TP10,Beta_TP9,Beta_AF7,Beta_AF8,Beta_TP10,Gamma_TP9,Gamma_AF7,Gamma_AF8,Gamma_TP10,RAW_TP9,RAW_AF7,RAW_AF8,RAW_TP10,AUX_RIGHT,Accelerometer_X,Accelerometer_Y,Accelerometer_Z,Gyro_X,Gyro_Y,Gyro_Z,HeadBandOn,HSI_TP9,HSI_AF7,HSI_AF8,HSI_TP10,Battery,Elements
10:23:00.562,0.0,0.0,0.0,0.0,0.0,0.0,0.0,0.0,0.0,0.0,0.0,0.0,0.0,0.0,0.0,0.0,0.0,0.0,0.0,0.0,673.69965,1003.69965,820.7692,638.24176,738.1685,-0.09478759765625,0.08953857421875,0.9779052734375,1.936492919921875,-2.594451904296875,-0.351409912109375,0.0,4.0,4.0,4.0,4.0,85.0,event
10:23:00.565,0.0,0.0,0.0,0.0,0.0,0.0,0.0,0.0,0.0,0.0,0.0,0.0,0.0,0.0,0.0,0.0,0.0,0.0,0.0,0.0,709.15753,750.65936,817.5458,668.86444,748.6447,-0.09478759765625,0.08953857421875,0.9779052734375,1.936492919921875,-2.594451904296875,-0.351409912109375,0.0,4.0,4.0,4.0,4.0,85.0,event
10:23:00.566,0.0,0.0,0.0,0.0,0.0,0.0,0.0,0.0,0.0,0.0,0.0,0.0,0.0,0.0,0.0,0.0,0.0,0.0,0.0,0.0,751.06226,871.53845,815.12823,725.2747,711.5751,-0.09478759765625,0.08953857421875,0.9779052734375,1.936492919921875,-2.594451904296875,-0.351409912109375,0.0,4.0,4.0,4.0,4.0,85.0,event
10:23:00.570,0.0,0.0,0.0,0.0,0.0,0.0,0.0,0.0,0.0,0.0,0.0,0.0,0.0,0.0,0.0,0.0,0.0,0.0,0.0,0.0,719.2308,1037.1428,814.7253,710.7692,722.8571,-0.09478759765625,0.08953857421875,0.9779052734375,1.936492919921875,-2.594451904296875,-0.351409912109375,0.0,4.0,4.0,4.0,4.0,85.0,event
10:23:00.573,0.0,0.0,0.0,0.0,0.0,0.0,0.0,0.0,0.0,0.0,0.0,0.0,0.0,0.0,0.0,0.0,0.0,0.0,0.0,0.0,643.8828,812.3077,807.8755,658.7912,751.4652,-0.09478759765625,0.08953857421875,0.9779052734375,1.936492919921875,-2.594451904296875,-0.351409912109375,0.0,4.0,4.0,4.0,4.0,85.0,event
10:23:00.576,0.0,0.0,0.0,0.0,0.0,0.0,0.0,0.0,0.0,0.0,0.0,0.0,0.0,0.0,0.0,0.0,0.0,0.0,0.0,0.0,652.3443,483.51648,814.3223,672.8938,866.7033,-0.09478759765625,0.08953857421875,0.9779052734375,1.936492919921875,-2.594451904296875,-0.351409912109375,0.0,4.0,4.0,4.0,4.0,85.0,event
10:23:00.582,0.0,0.0,0.0,0.0,0.0,0.0,0.0,0.0,0.0,0.0,0.0,0.0,0.0,0.0,0.0,0.0,0.0,0.0,0.0,0.0,713.9927,555.64105,813.1135,701.9048,854.61536,-0.09478759765625,0.08953857421875,0.9779052734375,1.936492919921875,-2.594451904296875,-0.351409912109375,0.0,4.0,4.0,4.0,4.0,85.0,event
10:23:00.583,0.0,0.0,0.0,0.0,0.0,0.0,0.0,0.0,0.0,0.0,0.0,0.0,0.0,0.0,0.0,0.0,0.0,0.0,0.0,0.0,761.13556,934.3956,810.293,738.1685,756.30035,-0.09478759765625,0.08953857421875,0.9779052734375,1.936492919921875,-2.594451904296875,-0.351409912109375,0.0,4.0,4.0,4.0,4.0,85.0,event
10:23:00.585,0.0,0.0,0.0,0.0,0.0,0.0,0.0,0.0,0.0,0.0,0.0,0.0,0.0,0.0,0.0,0.0,0.0,0.0,0.0,0.0,745.42126,905.78754,809.4872,740.18317,790.14655,-0.09478759765625,0.08953857421875,0.9779052734375,1.936492919921875,-2.594451904296875,-0.351409912109375,0.0,4.0,4.0,4.0,4.0,85.0,event
10:23:00.587,0.0,0.0,0.0,0.0,0.0,0.0,0.0,0.0,0.0,0.0,0.0,0.0,0.0,0.0,0.0,0.0,0.0,0.0,0.0,0.0,718.8278,235.31136,823.9927,751.8681,993.22345,-0.09478759765625,0.08953857421875,0.9779052734375,1.936492919921875,-2.594451904296875,-0.351409912109375,0.0,4.0,4.0,4.0,4.0,85.0,event
10:23:00.589,0.0,0.0,0.0,0.0,0.0,0.0,0.0,0.0,0.0,0.0,0.0,0.0,0.0,0.0,0.0,0.0,0.0,0.0,0.0,0.0,740.989,411.39194,824.7985,780.87915,887.6557,-0.09478759765625,0.08953857421875,0.9779052734375,1.936492919921875,-2.594451904296875,-0.351409912109375,0.0,4.0,4.0,4.0,4.0,85.0,event
10:23:00.591,0.0,0.0,0.0,0.0,0.0,0.0,0.0,0.0,0.0,0.0,0.0,0.0,0.0,0.0,0.0,0.0,0.0,0.0,0.0,0.0,753.0769,995.2381,804.2491,753.0769,714.3956,-0.09478759765625,0.08953857421875,0.9779052734375,1.936492919921875,-2.594451904296875,-0.351409912109375,0.0,4.0,4.0,4.0,4.0,85.0,event
10:23:00.614,0.0,0.0,0.0,0.0,0.0,0.0,0.0,0.0,0.0,0.0,0.0,0.0,0.0,0.0,0.0,0.0,0.0,0.0,0.0,0.0,794.9817,905.78754,807.47253,778.0586,766.77655,-0.11138916015625,0.0821533203125,0.9759521484375,1.30096435546875,-2.026214599609375,0.2392578125,0.0,4.0,4.0,4.0,4.0,85.0,event
10:23:00.615,0.0,0.0,0.0,0.0,0.0,0.0,0.0,0.0,0.0,0.0,0.0,0.0,0.0,0.0,0.0,0.0,0.0,0.0,0.0,0.0,799.81683,645.89746,807.47253,795.78754,803.44324,-0.11138916015625,0.0821533203125,0.9759521484375,1.30096435546875,-2.026214599609375,0.2392578125,0.0,4.0,4.0,4.0,4.0,85.0,event
10:23:00.617,0.0,0.0,0.0,0.0,0.0,0.0,0.0,0.0,0.0,0.0,0.0,0.0,0.0,0.0,0.0,0.0,0.0,0.0,0.0,0.0,749.0476,906.5934,799.81683,759.5238,752.674,-0.11138916015625,0.0821533203125,0.9759521484375,1.30096435546875,-2.026214599609375,0.2392578125,0.0,4.0,4.0,4.0,4.0,85.0,event
10:23:00.618,0.0,0.0,0.0,0.0,0.0,0.0,0.0,0.0,0.0,0.0,0.0,0.0,0.0,0.0,0.0,0.0,0.0,0.0,0.0,0.0,771.6117,1045.6044,811.50183,770.0,685.38464,-0.11138916015625,0.0821533203125,0.9759521484375,1.30096435546875,-2.026214599609375,0.2392578125,0.0,4.0,4.0,4.0,4.0,85.0,event
10:23:00.619,0.0,0.0,0.0,0.0,0.0,0.0,0.0,0.0,0.0,0.0,0.0,0.0,0.0,0.0,0.0,0.0,0.0,0.0,0.0,0.0,815.9341,897.326,814.7253,806.26373,758.71796,-0.11138916015625,0.0821533203125,0.9759521484375,1.30096435546875,-2.026214599609375,0.2392578125,0.0,4.0,4.0,4.0,4.0,85.0,event
10:23:00.621,0.0,0.0,0.0,0.0,0.0,0.0,0.0,0.0,0.0,0.0,0.0,0.0,0.0,0.0,0.0,0.0,0.0,0.0,0.0,0.0,861.8681,711.5751,806.6667,863.8828,869.92676,-0.11138916015625,0.0821533203125,0.9759521484375,1.30096435546875,-2.026214599609375,0.2392578125,0.0,4.0,4.0,4.0,4.0,85.0,event
10:23:00.623,0.0,0.0,0.0,0.0,0.0,0.0,0.0,0.0,0.0,0.0,0.0,0.0,0.0,0.0,0.0,0.0,0.0,0.0,0.0,0.0,873.5531,710.3663,812.3077,884.0293,877.1795,-0.11138916015625,0.0821533203125,0.9759521484375,1.30096435546875,-2.026214599609375,0.2392578125,0.0,4.0,4.0,4.0,4.0,85.0,event
10:23:00.625,0.0,0.0,0.0,0.0,0.0,0.0,0.0,0.0,0.0,0.0,0.0,0.0,0.0,0.0,0.0,0.0,0.0,0.0,0.0,0.0,787.72894,942.4542,798.20514,820.7692,778.86444,-0.11138916015625,0.0821533203125,0.9759521484375,1.30096435546875,-2.026214599609375,0.2392578125,0.0,4.0,4.0,4.0,4.0,85.0,event
10:23:00.627,0.0,0.0,0.0,0.0,0.0,0.0,0.0,0.0,0.0,0.0,0.0,0.0,0.0,0.0,0.0,0.0,0.0,0.0,0.0,0.0,760.7326,585.4579,789.34064,799.81683,822.381,-0.11138916015625,0.0821533203125,0.9759521484375,1.30096435546875,-2.026214599609375,0.2392578125,0.0,4.0,4.0,4.0,4.0,85.0,event
10:23:00.629,0.0,0.0,0.0,0.0,0.0,0.0,0.0,0.0,0.0,0.0,0.0,0.0,0.0,0.0,0.0,0.0,0.0,0.0,0.0,0.0,822.7839,264.32236,803.0403,822.7839,929.5604,-0.11138916015625,0.0821533203125,0.9759521484375,1.30096435546875,-2.026214599609375,0.2392578125,0.0,4.0,4.0,4.0,4.0,85.0,event
10:23:00.631,0.0,0.0,0.0,0.0,0.0,0.0,0.0,0.0,0.0,0.0,0.0,0.0,0.0,0.0,0.0,0.0,0.0,0.0,0.0,0.0,876.3736,980.7326,803.0403,846.1539,775.2381,-0.11138916015625,0.0821533203125,0.9759521484375,1.30096435546875,-2.026214599609375,0.2392578125,0.0,4.0,4.0,4.0,4.0,85.0,event
10:23:00.632,0.0,0.0,0.0,0.0,0.0,0.0,0.0,0.0,0.0,0.0,0.0,0.0,0.0,0.0,0.0,0.0,0.0,0.0,0.0,0.0,894.10254,1144.3224,800.6227,874.7619,724.4689,-0.11138916015625,0.0821533203125,0.9759521484375,1.30096435546875,-2.026214599609375,0.2392578125,0.0,4.0,4.0,4.0,4.0,85.0,event
10:23:00.654,0.0,0.0,0.0,0.0,0.0,0.0,0.0,0.0,0.0,0.0,0.0,0.0,0.0,0.0,0.0,0.0,0.0,0.0,0.0,0.0,840.5128,792.96704,803.44324,848.1685,774.43225,-0.1085205078125,0.08001708984375,0.97882080078125,1.7645263671875,-2.998199462890625,-0.515899658203125,0.0,4.0,4.0,4.0,4.0,85.0,event
10:23:00.656,0.0,0.0,0.0,0.0,0.0,0.0,0.0,0.0,0.0,0.0,0.0,0.0,0.0,0.0,0.0,0.0,0.0,0.0,0.0,0.0,811.9048,803.0403,807.47253,833.663,796.5934,-0.1085205078125,0.08001708984375,0.97882080078125,1.7645263671875,-2.998199462890625,-0.515899658203125,0.0,4.0,4.0,4.0,4.0,85.0,event
10:23:00.658,0.0,0.0,0.0,0.0,0.0,0.0,0.0,0.0,0.0,0.0,0.0,0.0,0.0,0.0,0.0,0.0,0.0,0.0,0.0,0.0,860.2564,1053.663,810.293,856.2271,767.5824,-0.1085205078125,0.08001708984375,0.97882080078125,1.7645263671875,-2.998199462890625,-0.515899658203125,0.0,4.0,4.0,4.0,4.0,85.0,event
10:23:00.661,0.0,0.0,0.0,0.0,0.0,0.0,0.0,0.0,0.0,0.0,0.0,0.0,0.0,0.0,0.0,0.0,0.0,0.0,0.0,0.0,895.31134,1094.762,797.3993,877.5824,763.1502,-0.1085205078125,0.08001708984375,0.97882080078125,1.7645263671875,-2.998199462890625,-0.515899658203125,0.0,4.0,4.0,4.0,4.0,85.0,event
10:23:00.663,0.0,0.0,0.0,0.0,0.0,0.0,0.0,0.0,0.0,0.0,0.0,0.0,0.0,0.0,0.0,0.0,0.0,0.0,0.0,0.0,909.81683,657.98535,790.9524,898.93774,960.989,-0.1085205078125,0.08001708984375,0.97882080078125,1.7645263671875,-2.998199462890625,-0.515899658203125,0.0,4.0,4.0,4.0,4.0,85.0,event
10:23:00.665,0.0,0.0,0.0,0.0,0.0,0.0,0.0,0.0,0.0,0.0,0.0,0.0,0.0,0.0,0.0,0.0,0.0,0.0,0.0,0.0,882.4176,599.15753,800.2198,870.32965,1033.9194,-0.1085205078125,0.08001708984375,0.97882080078125,1.7645263671875,-2.998199462890625,-0.515899658203125,0.0,4.0,4.0,4.0,4.0,85.0,event
10:23:00.667,0.0,0.0,0.0,0.0,0.0,0.0,0.0,0.0,0.0,0.0,0.0,0.0,0.0,0.0,0.0,0.0,0.0,0.0,0.0,0.0,834.0659,809.4872,797.8022,838.9011,857.4359,-0.1085205078125,0.08001708984375,0.97882080078125,1.7645263671875,-2.998199462890625,-0.515899658203125,0.0,4.0,4.0,4.0,4.0,85.0,event
10:23:00.669,0.0,0.0,0.0,0.0,0.0,0.0,0.0,0.0,0.0,0.0,0.0,0.0,0.0,0.0,0.0,0.0,0.0,0.0,0.0,0.0,846.9597,812.71063,799.41394,853.00366,759.92676,-0.1085205078125,0.08001708984375,0.97882080078125,1.7645263671875,-2.998199462890625,-0.515899658203125,0.0,4.0,4.0,4.0,4.0,85.0,event
10:23:00.674,0.0,0.0,0.0,0.0,0.0,0.0,0.0,0.0,0.0,0.0,0.0,0.0,0.0,0.0,0.0,0.0,0.0,0.0,0.0,0.0,891.28204,284.06595,812.71063,880.40295,941.2454,-0.1085205078125,0.08001708984375,0.97882080078125,1.7645263671875,-2.998199462890625,-0.515899658203125,0.0,4.0,4.0,4.0,4.0,85.0,event
10:23:00.676,0.0,0.0,0.0,0.0,0.0,0.0,0.0,0.0,0.0,0.0,0.0,0.0,0.0,0.0,0.0,0.0,0.0,0.0,0.0,0.0,900.14655,592.3077,804.65204,891.28204,813.5165,-0.1085205078125,0.08001708984375,0.97882080078125,1.7645263671875,-2.998199462890625,-0.515899658203125,0.0,4.0,4.0,4.0,4.0,85.0,event
10:23:00.677,0.0,0.0,0.0,0.0,0.0,0.0,0.0,0.0,0.0,0.0,0.0,0.0,0.0,0.0,0.0,0.0,0.0,0.0,0.0,0.0,853.00366,1134.249,790.54944,862.674,666.8498,-0.1085205078125,0.08001708984375,0.97882080078125,1.7645263671875,-2.998199462890625,-0.515899658203125,0.0,4.0,4.0,4.0,4.0,85.0,event
10:23:00.679,0.0,0.0,0.0,0.0,0.0,0.0,0.0,0.0,0.0,0.0,0.0,0.0,0.0,0.0,0.0,0.0,0.0,0.0,0.0,0.0,815.5311,885.64105,787.326,840.10986,782.8938,-0.1085205078125,0.08001708984375,0.97882080078125,1.7645263671875,-2.998199462890625,-0.515899658203125,0.0,4.0,4.0,4.0,4.0,85.0,event
10:23:00.701,0.0,0.0,0.0,0.0,0.0,0.0,0.0,0.0,0.0,0.0,0.0,0.0,0.0,0.0,0.0,0.0,0.0,0.0,0.0,0.0,834.87177,882.8205,798.20514,856.2271,733.73627,-0.1085205078125,0.08001708984375,0.97882080078125,1.7645263671875,-2.998199462890625,-0.515899658203125,0.0,4.0,4.0,4.0,4.0,85.0,event
10:23:00.707,0.0,0.0,0.0,0.0,0.0,0.0,0.0,0.0,0.0,0.0,0.0,0.0,0.0,0.0,0.0,0.0,0.0,0.0,0.0,0.0,880.0,1205.5677,802.23444,873.95605,746.63007,-0.1085205078125,0.08001708984375,0.97882080078125,1.7645263671875,-2.998199462890625,-0.515899658203125,0.0,4.0,4.0,4.0,4.0,85.0,event
10:23:00.708,0.0,0.0,0.0,0.0,0.0,0.0,0.0,0.0,0.0,0.0,0.0,0.0,0.0,0.0,0.0,0.0,0.0,0.0,0.0,0.0,910.2198,1272.0513,799.41394,907.3993,803.44324,-0.1085205078125,0.08001708984375,0.97882080078125,1.7645263671875,-2.998199462890625,-0.515899658203125,0.0,4.0,4.0,4.0,4.0,85.0,event
10:23:00.711,0.0,0.0,0.0,0.0,0.0,0.0,0.0,0.0,0.0,0.0,0.0,0.0,0.0,0.0,0.0,0.0,0.0,0.0,0.0,0.0,854.61536,1025.8608,800.6227,879.19415,839.707,-0.1085205078125,0.08001708984375,0.97882080078125,1.7645263671875,-2.998199462890625,-0.515899658203125,0.0,4.0,4.0,4.0,4.0,85.0,event
10:23:00.713,0.0,0.0,0.0,0.0,0.0,0.0,0.0,0.0,0.0,0.0,0.0,0.0,0.0,0.0,0.0,0.0,0.0,0.0,0.0,0.0,811.9048,853.4066,808.68134,836.4835,848.1685,-0.1085205078125,0.08001708984375,0.97882080078125,1.7645263671875,-2.998199462890625,-0.515899658203125,0.0,4.0,4.0,4.0,4.0,85.0,event
10:23:00.715,0.0,0.0,0.0,0.0,0.0,0.0,0.0,0.0,0.0,0.0,0.0,0.0,0.0,0.0,0.0,0.0,0.0,0.0,0.0,0.0,844.5421,761.13556,820.7692,868.71796,809.0842,-0.1085205078125,0.08001708984375,0.97882080078125,1.7645263671875,-2.998199462890625,-0.515899658203125,0.0,4.0,4.0,4.0,4.0,85.0,event
10:23:00.716,0.0,0.0,0.0,0.0,0.0,0.0,0.0,0.0,0.0,0.0,0.0,0.0,0.0,0.0,0.0,0.0,0.0,0.0,0.0,0.0,867.50916,848.97437,808.2784,879.19415,784.90845,-0.1085205078125,0.08001708984375,0.97882080078125,1.7645263671875,-2.998199462890625,-0.515899658203125,0.0,4.0,4.0,4.0,4.0,85.0,event
10:23:00.718,0.0,0.0,0.0,0.0,0.0,0.0,0.0,0.0,0.0,0.0,0.0,0.0,0.0,0.0,0.0,0.0,0.0,0.0,0.0,0.0,884.0293,673.2967,796.1905,881.2088,960.989,-0.1085205078125,0.08001708984375,0.97882080078125,1.7645263671875,-2.998199462890625,-0.515899658203125,0.0,4.0,4.0,4.0,4.0,85.0,event
10:23:00.719,0.0,0.0,0.0,0.0,0.0,0.0,0.0,0.0,0.0,0.0,0.0,0.0,0.0,0.0,0.0,0.0,0.0,0.0,0.0,0.0,869.92676,97.106224,800.2198,868.315,1124.5787,-0.1085205078125,0.08001708984375,0.97882080078125,1.7645263671875,-2.998199462890625,-0.515899658203125,0.0,4.0,4.0,4.0,4.0,85.0,event
10:23:00.721,0.0,0.0,0.0,0.0,0.0,0.0,0.0,0.0,0.0,0.0,0.0,0.0,0.0,0.0,0.0,0.0,0.0,0.0,0.0,0.0,830.0366,703.5165,799.41394,838.0952,857.8388,-0.1085205078125,0.08001708984375,0.97882080078125,1.7645263671875,-2.998199462890625,-0.515899658203125,0.0,4.0,4.0,4.0,4.0,85.0,event
10:23:00.723,0.0,0.0,0.0,0.0,0.0,0.0,0.0,0.0,0.0,0.0,0.0,0.0,0.0,0.0,0.0,0.0,0.0,0.0,0.0,0.0,827.619,1270.0366,803.0403,839.304,751.06226,-0.1085205078125,0.08001708984375,0.97882080078125,1.7645263671875,-2.998199462890625,-0.515899658203125,0.0,4.0,4.0,4.0,4.0,85.0,event
10:23:00.725,0.0,0.0,0.0,0.0,0.0,0.0,0.0,0.0,0.0,0.0,0.0,0.0,0.0,0.0,0.0,0.0,0.0,0.0,0.0,0.0,872.74725,1019.81683,810.293,857.4359,848.1685,-0.1085205078125,0.08001708984375,0.97882080078125,1.7645263671875,-2.998199462890625,-0.515899658203125,0.0,4.0,4.0,4.0,4.0,85.0,event
10:23:00.748,0.0,0.0,0.0,0.0,0.0,0.0,0.0,0.0,0.0,0.0,0.0,0.0,0.0,0.0,0.0,0.0,0.0,0.0,0.0,0.0,926.7399,1114.5055,820.3663,903.36993,773.22345,-0.10321044921875,0.0809326171875,0.97784423828125,2.34771728515625,-3.349609375,-0.6878662109375,0.0,4.0,4.0,4.0,4.0,85.0,event
10:23:00.749,0.0,0.0,0.0,0.0,0.0,0.0,0.0,0.0,0.0,0.0,0.0,0.0,0.0,0.0,0.0,0.0,0.0,0.0,0.0,0.0,906.1905,1227.326,819.15753,901.3553,709.15753,-0.10321044921875,0.0809326171875,0.97784423828125,2.34771728515625,-3.349609375,-0.6878662109375,0.0,4.0,4.0,4.0,4.0,85.0,event
10:23:00.751,0.0,0.0,0.0,0.0,0.0,0.0,0.0,0.0,0.0,0.0,0.0,0.0,0.0,0.0,0.0,0.0,0.0,0.0,0.0,0.0,828.4249,1024.249,806.6667,837.6923,725.2747,-0.10321044921875,0.0809326171875,0.97784423828125,2.34771728515625,-3.349609375,-0.6878662109375,0.0,4.0,4.0,4.0,4.0,85.0,event
10:23:00.752,0.0,0.0,0.0,0.0,0.0,0.0,0.0,0.0,0.0,0.0,0.0,0.0,0.0,0.0,0.0,0.0,0.0,0.0,0.0,0.0,813.1135,873.5531,796.1905,818.3516,765.16486,-0.10321044921875,0.0809326171875,0.97784423828125,2.34771728515625,-3.349609375,-0.6878662109375,0.0,4.0,4.0,4.0,4.0,85.0,event
10:23:00.755,0.0,0.0,0.0,0.0,0.0,0.0,0.0,0.0,0.0,0.0,0.0,0.0,0.0,0.0,0.0,0.0,0.0,0.0,0.0,0.0,886.4469,1018.20514,800.6227,843.3333,715.6044,-0.10321044921875,0.0809326171875,0.97784423828125,2.34771728515625,-3.349609375,-0.6878662109375,0.0,4.0,4.0,4.0,4.0,85.0,event
10:23:00.756,0.0,0.0,0.0,0.0,0.0,0.0,0.0,0.0,0.0,0.0,0.0,0.0,0.0,0.0,0.0,0.0,0.0,0.0,0.0,0.0,926.7399,994.43225,805.8608,879.59705,810.293,-0.10321044921875,0.0809326171875,0.97784423828125,2.34771728515625,-3.349609375,-0.6878662109375,0.0,4.0,4.0,4.0,4.0,85.0,event
10:23:00.758,0.0,0.0,0.0,0.0,0.0,0.0,0.0,0.0,0.0,0.0,0.0,0.0,0.0,0.0,0.0,0.0,0.0,0.0,0.0,0.0,856.63007,751.4652,802.6374,862.27106,910.2198,-0.10321044921875,0.0809326171875,0.97784423828125,2.34771728515625,-3.349609375,-0.6878662109375,0.0,4.0,4.0,4.0,4.0,85.0,event
10:23:00.760,0.0,0.0,0.0,0.0,0.0,0.0,0.0,0.0,0.0,0.0,0.0,0.0,0.0,0.0,0.0,0.0,0.0,0.0,0.0,0.0,793.36993,159.15752,809.4872,821.1722,1085.0916,-0.10321044921875,0.0809326171875,0.97784423828125,2.34771728515625,-3.349609375,-0.6878662109375,0.0,4.0,4.0,4.0,4.0,85.0,event
10:23:00.762,0.0,0.0,0.0,0.0,0.0,0.0,0.0,0.0,0.0,0.0,0.0,0.0,0.0,0.0,0.0,0.0,0.0,0.0,0.0,0.0,797.3993,391.64835,807.47253,815.12823,1030.6959,-0.10321044921875,0.0809326171875,0.97784423828125,2.34771728515625,-3.349609375,-0.6878662109375,0.0,4.0,4.0,4.0,4.0,85.0,event
10:23:00.764,0.0,0.0,0.0,0.0,0.0,0.0,0.0,0.0,0.0,0.0,0.0,0.0,0.0,0.0,0.0,0.0,0.0,0.0,0.0,0.0,843.3333,1156.4103,802.6374,834.0659,737.3626,-0.10321044921875,0.0809326171875,0.97784423828125,2.34771728515625,-3.349609375,-0.6878662109375,0.0,4.0,4.0,4.0,4.0,85.0,event
10:23:00.769,0.0,0.0,0.0,0.0,0.0,0.0,0.0,0.0,0.0,0.0,0.0,0.0,0.0,0.0,0.0,0.0,0.0,0.0,0.0,0.0,897.72894,1117.7289,807.8755,883.22345,753.0769,-0.10321044921875,0.0809326171875,0.97784423828125,2.34771728515625,-3.349609375,-0.6878662109375,0.0,4.0,4.0,4.0,4.0,85.0,event
10:23:00.770,0.0,0.0,0.0,0.0,0.0,0.0,0.0,0.0,0.0,0.0,0.0,0.0,0.0,0.0,0.0,0.0,0.0,0.0,0.0,0.0,876.3736,913.0403,805.05493,871.9414,797.3993,-0.10321044921875,0.0809326171875,0.97784423828125,2.34771728515625,-3.349609375,-0.6878662109375,0.0,4.0,4.0,4.0,4.0,85.0,event
10:23:00.794,0.0,0.0,0.0,0.0,0.0,0.0,0.0,0.0,0.0,0.0,0.0,0.0,0.0,0.0,0.0,0.0,0.0,0.0,0.0,0.0,803.0403,1016.1905,796.99634,810.293,716.8132,-0.0975341796875,0.08209228515625,0.9814453125,2.55706787109375,-3.75335693359375,0.2392578125,0.0,4.0,4.0,4.0,4.0,85.0,event
10:23:00.796,0.0,0.0,0.0,0.0,0.0,0.0,0.0,0.0,0.0,0.0,0.0,0.0,0.0,0.0,0.0,0.0,0.0,0.0,0.0,0.0,807.8755,1133.0403,801.02563,814.3223,696.26373,-0.0975341796875,0.08209228515625,0.9814453125,2.55706787109375,-3.75335693359375,0.2392578125,0.0,4.0,4.0,4.0,4.0,85.0,event
10:23:00.798,0.0,0.0,0.0,0.0,0.0,0.0,0.0,0.0,0.0,0.0,0.0,0.0,0.0,0.0,0.0,0.0,0.0,0.0,0.0,0.0,845.7509,987.1795,805.4579,839.707,759.92676,-0.0975341796875,0.08209228515625,0.9814453125,2.55706787109375,-3.75335693359375,0.2392578125,0.0,4.0,4.0,4.0,4.0,85.0,event
10:23:00.799,0.0,0.0,0.0,0.0,0.0,0.0,0.0,0.0,0.0,0.0,0.0,0.0,0.0,0.0,0.0,0.0,0.0,0.0,0.0,0.0,892.8938,998.46155,807.47253,857.8388,808.68134,-0.0975341796875,0.08209228515625,0.9814453125,2.55706787109375,-3.75335693359375,0.2392578125,0.0,4.0,4.0,4.0,4.0,85.0,event
10:23:00.803,0.0,0.0,0.0,0.0,0.0,0.0,0.0,0.0,0.0,0.0,0.0,0.0,0.0,0.0,0.0,0.0,0.0,0.0,0.0,0.0,923.1135,1046.0073,809.4872,868.315,756.7033,-0.0975341796875,0.08209228515625,0.9814453125,2.55706787109375,-3.75335693359375,0.2392578125,0.0,4.0,4.0,4.0,4.0,85.0,event
10:23:00.807,0.0,0.0,0.0,0.0,0.0,0.0,0.0,0.0,0.0,0.0,0.0,0.0,0.0,0.0,0.0,0.0,0.0,0.0,0.0,0.0,827.619,812.71063,804.2491,831.6484,738.5714,-0.0975341796875,0.08209228515625,0.9814453125,2.55706787109375,-3.75335693359375,0.2392578125,0.0,4.0,4.0,4.0,4.0,85.0,event
10:23:00.810,0.0,0.0,0.0,0.0,0.0,0.0,0.0,0.0,0.0,0.0,0.0,0.0,0.0,0.0,0.0,0.0,0.0,0.0,0.0,0.0,778.86444,468.20514,809.4872,828.4249,923.1135,-0.0975341796875,0.08209228515625,0.9814453125,2.55706787109375,-3.75335693359375,0.2392578125,0.0,4.0,4.0,4.0,4.0,85.0,event
10:23:00.812,0.0,0.0,0.0,0.0,0.0,0.0,0.0,0.0,0.0,0.0,0.0,0.0,0.0,0.0,0.0,0.0,0.0,0.0,0.0,0.0,834.87177,215.16484,819.15753,838.49817,1008.1319,-0.0975341796875,0.08209228515625,0.9814453125,2.55706787109375,-3.75335693359375,0.2392578125,0.0,4.0,4.0,4.0,4.0,85.0,event
10:23:00.813,0.0,0.0,0.0,0.0,0.0,0.0,0.0,0.0,0.0,0.0,0.0,0.0,0.0,0.0,0.0,0.0,0.0,0.0,0.0,0.0,867.9121,846.9597,808.68134,837.6923,724.0659,-0.0975341796875,0.08209228515625,0.9814453125,2.55706787109375,-3.75335693359375,0.2392578125,0.0,4.0,4.0,4.0,4.0,85.0,event
10:23:00.815,0.0,0.0,0.0,0.0,0.0,0.0,0.0,0.0,0.0,0.0,0.0,0.0,0.0,0.0,0.0,0.0,0.0,0.0,0.0,0.0,878.7912,1139.0842,803.8461,861.06226,682.1612,-0.0975341796875,0.08209228515625,0.9814453125,2.55706787109375,-3.75335693359375,0.2392578125,0.0,4.0,4.0,4.0,4.0,85.0,event
10:23:00.816,0.0,0.0,0.0,0.0,0.0,0.0,0.0,0.0,0.0,0.0,0.0,0.0,0.0,0.0,0.0,0.0,0.0,0.0,0.0,0.0,809.4872,700.293,799.81683,824.7985,819.5604,-0.0975341796875,0.08209228515625,0.9814453125,2.55706787109375,-3.75335693359375,0.2392578125,0.0,4.0,4.0,4.0,4.0,85.0,event
10:23:00.817,0.0,0.0,0.0,0.0,0.0,0.0,0.0,0.0,0.0,0.0,0.0,0.0,0.0,0.0,0.0,0.0,0.0,0.0,0.0,0.0,759.5238,689.011,796.99634,791.3553,776.04395,-0.0975341796875,0.08209228515625,0.9814453125,2.55706787109375,-3.75335693359375,0.2392578125,0.0,4.0,4.0,4.0,4.0,85.0,event
10:23:00.839,0.0,0.0,0.0,0.0,0.0,0.0,0.0,0.0,0.0,0.0,0.0,0.0,0.0,0.0,0.0,0.0,0.0,0.0,0.0,0.0,801.8315,1093.1501,807.0696,813.1135,702.71063,-0.10382080078125,0.08349609375,0.98089599609375,2.325286865234375,-3.043060302734375,0.46356201171875,0.0,4.0,4.0,4.0,4.0,85.0,event
10:23:00.843,0.0,0.0,0.0,0.0,0.0,0.0,0.0,0.0,0.0,0.0,0.0,0.0,0.0,0.0,0.0,0.0,0.0,0.0,0.0,0.0,859.0476,1083.0769,808.68134,855.82416,731.7216,-0.10382080078125,0.08349609375,0.98089599609375,2.325286865234375,-3.043060302734375,0.46356201171875,0.0,4.0,4.0,4.0,4.0,85.0,event
10:23:00.845,0.0,0.0,0.0,0.0,0.0,0.0,0.0,0.0,0.0,0.0,0.0,0.0,0.0,0.0,0.0,0.0,0.0,0.0,0.0,0.0,889.2674,591.9048,809.0842,886.4469,915.05493,-0.10382080078125,0.08349609375,0.98089599609375,2.325286865234375,-3.043060302734375,0.46356201171875,0.0,4.0,4.0,4.0,4.0,85.0,event
10:23:00.846,0.0,0.0,0.0,0.0,0.0,0.0,0.0,0.0,0.0,0.0,0.0,0.0,0.0,0.0,0.0,0.0,0.0,0.0,0.0,0.0,843.73627,709.15753,805.8608,831.6484,851.79486,-0.10382080078125,0.08349609375,0.98089599609375,2.325286865234375,-3.043060302734375,0.46356201171875,0.0,4.0,4.0,4.0,4.0,85.0,event
10:23:00.848,0.0,0.0,0.0,0.0,0.0,0.0,0.0,0.0,0.0,0.0,0.0,0.0,0.0,0.0,0.0,0.0,0.0,0.0,0.0,0.0,802.6374,1040.7693,806.26373,791.3553,690.6227,-0.10382080078125,0.08349609375,0.98089599609375,2.325286865234375,-3.043060302734375,0.46356201171875,0.0,4.0,4.0,4.0,4.0,85.0,event
10:23:00.849,0.0,0.0,0.0,0.0,0.0,0.0,0.0,0.0,0.0,0.0,0.0,0.0,0.0,0.0,0.0,0.0,0.0,0.0,0.0,0.0,818.7546,734.5421,815.12823,800.6227,781.28204,-0.10382080078125,0.08349609375,0.98089599609375,2.325286865234375,-3.043060302734375,0.46356201171875,0.0,4.0,4.0,4.0,4.0,85.0,event
10:23:00.851,0.0,0.0,0.0,0.0,0.0,0.0,0.0,0.0,0.0,0.0,0.0,0.0,0.0,0.0,0.0,0.0,0.0,0.0,0.0,0.0,838.49817,201.06227,805.05493,823.1868,994.43225,-0.10382080078125,0.08349609375,0.98089599609375,2.325286865234375,-3.043060302734375,0.46356201171875,0.0,4.0,4.0,4.0,4.0,85.0,event
10:23:00.852,0.0,0.0,0.0,0.0,0.0,0.0,0.0,0.0,0.0,0.0,0.0,0.0,0.0,0.0,0.0,0.0,0.0,0.0,0.0,0.0,860.65936,594.3223,792.5641,859.85345,875.56775,-0.10382080078125,0.08349609375,0.98089599609375,2.325286865234375,-3.043060302734375,0.46356201171875,0.0,4.0,4.0,4.0,4.0,85.0,event
10:23:00.854,0.0,0.0,0.0,0.0,0.0,0.0,0.0,0.0,0.0,0.0,0.0,0.0,0.0,0.0,0.0,0.0,0.0,0.0,0.0,0.0,820.7692,1020.6227,799.41394,833.2601,686.5934,-0.10382080078125,0.08349609375,0.98089599609375,2.325286865234375,-3.043060302734375,0.46356201171875,0.0,4.0,4.0,4.0,4.0,85.0,event
10:23:00.857,0.0,0.0,0.0,0.0,0.0,0.0,0.0,0.0,0.0,0.0,0.0,0.0,0.0,0.0,0.0,0.0,0.0,0.0,0.0,0.0,757.50916,862.674,804.65204,792.5641,740.989,-0.10382080078125,0.08349609375,0.98089599609375,2.325286865234375,-3.043060302734375,0.46356201171875,0.0,4.0,4.0,4.0,4.0,85.0,event
10:23:00.859,0.0,0.0,0.0,0.0,0.0,0.0,0.0,0.0,0.0,0.0,0.0,0.0,0.0,0.0,0.0,0.0,0.0,0.0,0.0,0.0,778.86444,793.36993,804.2491,791.75824,787.72894,-0.10382080078125,0.08349609375,0.98089599609375,2.325286865234375,-3.043060302734375,0.46356201171875,0.0,4.0,4.0,4.0,4.0,85.0,event
10:23:00.860,0.0,0.0,0.0,0.0,0.0,0.0,0.0,0.0,0.0,0.0,0.0,0.0,0.0,0.0,0.0,0.0,0.0,0.0,0.0,0.0,846.1539,975.89746,814.3223,816.7399,721.2454,-0.10382080078125,0.08349609375,0.98089599609375,2.325286865234375,-3.043060302734375,0.46356201171875,0.0,4.0,4.0,4.0,4.0,85.0,event
10:23:00.887,0.0,0.0,0.0,0.0,0.0,0.0,0.0,0.0,0.0,0.0,0.0,0.0,0.0,0.0,0.0,0.0,0.0,0.0,0.0,0.0,875.16486,1101.6117,805.8608,846.55676,742.1978,-0.10986328125,0.0772705078125,0.97784423828125,2.25799560546875,-2.833709716796875,-0.1495361328125,0.0,4.0,4.0,4.0,4.0,85.0,event
10:23:00.889,0.0,0.0,0.0,0.0,0.0,0.0,0.0,0.0,0.0,0.0,0.0,0.0,0.0,0.0,0.0,0.0,0.0,0.0,0.0,0.0,831.6484,807.47253,797.8022,823.9927,811.50183,-0.10986328125,0.0772705078125,0.97784423828125,2.25799560546875,-2.833709716796875,-0.1495361328125,0.0,4.0,4.0,4.0,4.0,85.0,event
10:23:00.892,0.0,0.0,0.0,0.0,0.0,0.0,0.0,0.0,0.0,0.0,0.0,0.0,0.0,0.0,0.0,0.0,0.0,0.0,0.0,0.0,767.5824,577.8022,803.0403,788.1319,835.2747,-0.10986328125,0.0772705078125,0.97784423828125,2.25799560546875,-2.833709716796875,-0.1495361328125,0.0,4.0,4.0,4.0,4.0,85.0,event
10:23:00.894,0.0,0.0,0.0,0.0,0.0,0.0,0.0,0.0,0.0,0.0,0.0,0.0,0.0,0.0,0.0,0.0,0.0,0.0,0.0,0.0,794.9817,869.12085,798.60803,788.93774,763.1502,-0.10986328125,0.0772705078125,0.97784423828125,2.25799560546875,-2.833709716796875,-0.1495361328125,0.0,4.0,4.0,4.0,4.0,85.0,event
10:23:00.896,0.0,0.0,0.0,0.0,0.0,0.0,0.0,0.0,0.0,0.0,0.0,0.0,0.0,0.0,0.0,0.0,0.0,0.0,0.0,0.0,871.53845,1055.6776,799.41394,822.381,702.3077,-0.10986328125,0.0772705078125,0.97784423828125,2.25799560546875,-2.833709716796875,-0.1495361328125,0.0,4.0,4.0,4.0,4.0,85.0,event
10:23:00.899,0.0,0.0,0.0,0.0,0.0,0.0,0.0,0.0,0.0,0.0,0.0,0.0,0.0,0.0,0.0,0.0,0.0,0.0,0.0,0.0,882.01465,629.3773,797.8022,863.47986,909.41394,-0.10986328125,0.0772705078125,0.97784423828125,2.25799560546875,-2.833709716796875,-0.1495361328125,0.0,4.0,4.0,4.0,4.0,85.0,event
10:23:00.903,0.0,0.0,0.0,0.0,0.0,0.0,0.0,0.0,0.0,0.0,0.0,0.0,0.0,0.0,0.0,0.0,0.0,0.0,0.0,0.0,836.8865,47.94872,805.4579,844.1392,1139.4872,-0.10986328125,0.0772705078125,0.97784423828125,2.25799560546875,-2.833709716796875,-0.1495361328125,0.0,4.0,4.0,4.0,4.0,85.0,event
10:23:00.905,0.0,0.0,0.0,0.0,0.0,0.0,0.0,0.0,0.0,0.0,0.0,0.0,0.0,0.0,0.0,0.0,0.0,0.0,0.0,0.0,795.38464,509.70697,808.2784,795.38464,889.2674,-0.10986328125,0.0772705078125,0.97784423828125,2.25799560546875,-2.833709716796875,-0.1495361328125,0.0,4.0,4.0,4.0,4.0,85.0,event
10:23:00.908,0.0,0.0,0.0,0.0,0.0,0.0,0.0,0.0,0.0,0.0,0.0,0.0,0.0,0.0,0.0,0.0,0.0,0.0,0.0,0.0,781.685,1037.9487,799.41394,793.36993,706.337,-0.10986328125,0.0772705078125,0.97784423828125,2.25799560546875,-2.833709716796875,-0.1495361328125,0.0,4.0,4.0,4.0,4.0,85.0,event
10:23:00.909,0.0,0.0,0.0,0.0,0.0,0.0,0.0,0.0,0.0,0.0,0.0,0.0,0.0,0.0,0.0,0.0,0.0,0.0,0.0,0.0,819.5604,725.2747,803.8461,832.8571,859.0476,-0.10986328125,0.0772705078125,0.97784423828125,2.25799560546875,-2.833709716796875,-0.1495361328125,0.0,4.0,4.0,4.0,4.0,85.0,event
10:23:00.919,0.0,0.0,0.0,0.0,0.0,0.0,0.0,0.0,0.0,0.0,0.0,0.0,0.0,0.0,0.0,0.0,0.0,0.0,0.0,0.0,862.674,785.31134,807.47253,868.71796,900.9524,-0.10986328125,0.0772705078125,0.97784423828125,2.25799560546875,-2.833709716796875,-0.1495361328125,0.0,4.0,4.0,4.0,4.0,85.0,event
10:23:00.921,0.0,0.0,0.0,0.0,0.0,0.0,0.0,0.0,0.0,0.0,0.0,0.0,0.0,0.0,0.0,0.0,0.0,0.0,0.0,0.0,845.7509,1109.2675,801.02563,841.7216,823.1868,-0.10986328125,0.0772705078125,0.97784423828125,2.25799560546875,-2.833709716796875,-0.1495361328125,0.0,4.0,4.0,4.0,4.0,85.0,event
10:23:00.942,0.0,0.0,0.0,0.0,0.0,0.0,0.0,0.0,0.0,0.0,0.0,0.0,0.0,0.0,0.0,0.0,0.0,0.0,0.0,0.0,782.8938,971.06226,802.6374,804.2491,784.5055,-0.10986328125,0.0772705078125,0.97784423828125,2.25799560546875,-2.833709716796875,-0.1495361328125,0.0,4.0,4.0,4.0,4.0,85.0,event
10:23:00.946,0.0,0.0,0.0,0.0,0.0,0.0,0.0,0.0,0.0,0.0,0.0,0.0,0.0,0.0,0.0,0.0,0.0,0.0,0.0,0.0,776.4469,771.2088,809.0842,814.3223,829.2308,-0.10986328125,0.0772705078125,0.97784423828125,2.25799560546875,-2.833709716796875,-0.1495361328125,0.0,4.0,4.0,4.0,4.0,85.0,event
10:23:00.948,0.0,0.0,0.0,0.0,0.0,0.0,0.0,0.0,0.0,0.0,0.0,0.0,0.0,0.0,0.0,0.0,0.0,0.0,0.0,0.0,810.696,915.05493,807.47253,812.71063,786.9231,-0.10986328125,0.0772705078125,0.97784423828125,2.25799560546875,-2.833709716796875,-0.1495361328125,0.0,4.0,4.0,4.0,4.0,85.0,event
10:23:00.950,0.0,0.0,0.0,0.0,0.0,0.0,0.0,0.0,0.0,0.0,0.0,0.0,0.0,0.0,0.0,0.0,0.0,0.0,0.0,0.0,849.3773,1078.6447,805.8608,828.4249,726.8865,-0.10986328125,0.0772705078125,0.97784423828125,2.25799560546875,-2.833709716796875,-0.1495361328125,0.0,4.0,4.0,4.0,4.0,85.0,event
10:23:00.952,0.0,0.0,0.0,0.0,0.0,0.0,0.0,0.0,0.0,0.0,0.0,0.0,0.0,0.0,0.0,0.0,0.0,0.0,0.0,0.0,838.9011,871.9414,810.293,836.4835,783.69965,-0.10986328125,0.0772705078125,0.97784423828125,2.25799560546875,-2.833709716796875,-0.1495361328125,0.0,4.0,4.0,4.0,4.0,85.0,event
10:23:00.953,0.0,0.0,0.0,0.0,0.0,0.0,0.0,0.0,0.0,0.0,0.0,0.0,0.0,0.0,0.0,0.0,0.0,0.0,0.0,0.0,768.3883,445.64102,809.4872,804.65204,882.01465,-0.10986328125,0.0772705078125,0.97784423828125,2.25799560546875,-2.833709716796875,-0.1495361328125,0.0,4.0,4.0,4.0,4.0,85.0,event
10:23:00.955,0.0,0.0,0.0,0.0,0.0,0.0,0.0,0.0,0.0,0.0,0.0,0.0,0.0,0.0,0.0,0.0,0.0,0.0,0.0,0.0,771.6117,458.13187,809.4872,801.4286,861.4652,-0.10986328125,0.0772705078125,0.97784423828125,2.25799560546875,-2.833709716796875,-0.1495361328125,0.0,4.0,4.0,4.0,4.0,85.0,event
10:23:00.959,0.0,0.0,0.0,0.0,0.0,0.0,0.0,0.0,0.0,0.0,0.0,0.0,0.0,0.0,0.0,0.0,0.0,0.0,0.0,0.0,822.381,699.0842,809.4872,813.1135,819.9634,-0.10986328125,0.0772705078125,0.97784423828125,2.25799560546875,-2.833709716796875,-0.1495361328125,0.0,4.0,4.0,4.0,4.0,85.0,event
10:23:00.961,0.0,0.0,0.0,0.0,0.0,0.0,0.0,0.0,0.0,0.0,0.0,0.0,0.0,0.0,0.0,0.0,0.0,0.0,0.0,0.0,867.1062,766.77655,803.0403,844.5421,786.1172,-0.10986328125,0.0772705078125,0.97784423828125,2.25799560546875,-2.833709716796875,-0.1495361328125,0.0,4.0,4.0,4.0,4.0,85.0,event
10:23:00.964,0.0,0.0,0.0,0.0,0.0,0.0,0.0,0.0,0.0,0.0,0.0,0.0,0.0,0.0,0.0,0.0,0.0,0.0,0.0,0.0,870.32965,196.22711,805.05493,865.89746,975.4945,-0.10986328125,0.0772705078125,0.97784423828125,2.25799560546875,-2.833709716796875,-0.1495361328125,0.0,4.0,4.0,4.0,4.0,85.0,event
10:23:00.966,0.0,0.0,0.0,0.0,0.0,0.0,0.0,0.0,0.0,0.0,0.0,0.0,0.0,0.0,0.0,0.0,0.0,0.0,0.0,0.0,802.23444,375.93405,805.8608,813.1135,863.0769,-0.10986328125,0.0772705078125,0.97784423828125,2.25799560546875,-2.833709716796875,-0.1495361328125,0.0,4.0,4.0,4.0,4.0,85.0,event
10:23:00.967,0.0,0.0,0.0,0.0,0.0,0.0,0.0,0.0,0.0,0.0,0.0,0.0,0.0,0.0,0.0,0.0,0.0,0.0,0.0,0.0,780.4762,1014.9817,803.44324,794.17584,673.2967,-0.10986328125,0.0772705078125,0.97784423828125,2.25799560546875,-2.833709716796875,-0.1495361328125,0.0,4.0,4.0,4.0,4.0,85.0,event
10:23:00.992,0.0,0.0,0.0,0.0,0.0,0.0,0.0,0.0,0.0,0.0,0.0,0.0,0.0,0.0,0.0,0.0,0.0,0.0,0.0,0.0,805.05493,976.7033,799.011,792.5641,778.86444,-0.1068115234375,0.08331298828125,0.983154296875,2.49725341796875,-2.489776611328125,-0.216827392578125,0.0,4.0,4.0,4.0,4.0,85.0,event
10:23:00.994,0.0,0.0,0.0,0.0,0.0,0.0,0.0,0.0,0.0,0.0,0.0,0.0,0.0,0.0,0.0,0.0,0.0,0.0,0.0,0.0,844.94507,909.81683,799.81683,824.7985,767.98535,-0.1068115234375,0.08331298828125,0.983154296875,2.49725341796875,-2.489776611328125,-0.216827392578125,0.0,4.0,4.0,4.0,4.0,85.0,event
10:23:01.000,0.0,0.0,0.0,0.0,0.0,0.0,0.0,0.0,0.0,0.0,0.0,0.0,0.0,0.0,0.0,0.0,0.0,0.0,0.0,0.0,863.0769,950.10986,811.0989,860.2564,667.6557,-0.1068115234375,0.08331298828125,0.983154296875,2.49725341796875,-2.489776611328125,-0.216827392578125,0.0,4.0,4.0,4.0,4.0,85.0,event
10:23:01.001,0.0,0.0,0.0,0.0,0.0,0.0,0.0,0.0,0.0,0.0,0.0,0.0,0.0,0.0,0.0,0.0,0.0,0.0,0.0,0.0,808.68134,956.55676,811.50183,801.8315,674.10254,-0.1068115234375,0.08331298828125,0.983154296875,2.49725341796875,-2.489776611328125,-0.216827392578125,0.0,4.0,4.0,4.0,4.0,85.0,event
10:23:01.003,0.0,0.0,0.0,0.0,0.0,0.0,0.0,0.0,0.0,0.0,0.0,0.0,0.0,0.0,0.0,0.0,0.0,0.0,0.0,0.0,780.87915,831.2454,814.3223,793.36993,795.38464,-0.1068115234375,0.08331298828125,0.983154296875,2.49725341796875,-2.489776611328125,-0.216827392578125,0.0,4.0,4.0,4.0,4.0,85.0,event
10:23:01.005,0.0,0.0,0.0,0.0,0.0,0.0,0.0,0.0,0.0,0.0,0.0,0.0,0.0,0.0,0.0,0.0,0.0,0.0,0.0,0.0,814.3223,665.64105,811.9048,813.1135,869.12085,-0.1068115234375,0.08331298828125,0.983154296875,2.49725341796875,-2.489776611328125,-0.216827392578125,0.0,4.0,4.0,4.0,4.0,85.0,event
10:23:01.008,0.0,0.0,0.0,0.0,0.0,0.0,0.0,0.0,0.0,0.0,0.0,0.0,0.0,0.0,0.0,0.0,0.0,0.0,0.0,0.0,850.18317,653.1502,799.011,826.0073,860.65936,-0.1068115234375,0.08331298828125,0.983154296875,2.49725341796875,-2.489776611328125,-0.216827392578125,0.0,4.0,4.0,4.0,4.0,85.0,event
10:23:01.010,0.0,0.0,0.0,0.0,0.0,0.0,0.0,0.0,0.0,0.0,0.0,0.0,0.0,0.0,0.0,0.0,0.0,0.0,0.0,0.0,861.8681,874.7619,803.0403,850.18317,801.02563,-0.1068115234375,0.08331298828125,0.983154296875,2.49725341796875,-2.489776611328125,-0.216827392578125,0.0,4.0,4.0,4.0,4.0,85.0,event
10:23:01.011,0.0,0.0,0.0,0.0,0.0,0.0,0.0,0.0,0.0,0.0,0.0,0.0,0.0,0.0,0.0,0.0,0.0,0.0,0.0,0.0,819.9634,570.54944,811.50183,831.6484,943.663,-0.1068115234375,0.08331298828125,0.983154296875,2.49725341796875,-2.489776611328125,-0.216827392578125,0.0,4.0,4.0,4.0,4.0,85.0,event
10:23:01.013,0.0,0.0,0.0,0.0,0.0,0.0,0.0,0.0,0.0,0.0,0.0,0.0,0.0,0.0,0.0,0.0,0.0,0.0,0.0,0.0,785.7143,44.725273,809.4872,803.8461,1105.641,-0.1068115234375,0.08331298828125,0.983154296875,2.49725341796875,-2.489776611328125,-0.216827392578125,0.0,4.0,4.0,4.0,4.0,85.0,event
10:23:01.015,0.0,0.0,0.0,0.0,0.0,0.0,0.0,0.0,0.0,0.0,0.0,0.0,0.0,0.0,0.0,0.0,0.0,0.0,0.0,0.0,812.71063,735.34796,806.26373,802.6374,815.5311,-0.1068115234375,0.08331298828125,0.983154296875,2.49725341796875,-2.489776611328125,-0.216827392578125,0.0,4.0,4.0,4.0,4.0,85.0,event
10:23:01.017,0.0,0.0,0.0,0.0,0.0,0.0,0.0,0.0,0.0,0.0,0.0,0.0,0.0,0.0,0.0,0.0,0.0,0.0,0.0,0.0,852.1978,1122.5641,811.50183,834.87177,668.46155,-0.1068115234375,0.08331298828125,0.983154296875,2.49725341796875,-2.489776611328125,-0.216827392578125,0.0,4.0,4.0,4.0,4.0,85.0,event
10:23:01.020,0.0,0.0,0.0,0.0,0.0,0.0,0.0,0.0,0.0,0.0,0.0,0.0,0.0,0.0,0.0,0.0,0.0,0.0,0.0,0.0,865.89746,791.3553,813.91943,853.4066,771.2088,-0.11041259765625,0.08099365234375,0.971435546875,2.100982666015625,-3.386993408203125,-0.04486083984375,0.0,4.0,4.0,4.0,4.0,85.0,event
10:23:01.022,0.0,0.0,0.0,0.0,0.0,0.0,0.0,0.0,0.0,0.0,0.0,0.0,0.0,0.0,0.0,0.0,0.0,0.0,0.0,0.0,808.2784,891.685,798.20514,807.47253,726.8865,-0.11041259765625,0.08099365234375,0.971435546875,2.100982666015625,-3.386993408203125,-0.04486083984375,0.0,4.0,4.0,4.0,4.0,85.0,event
10:23:01.024,0.0,0.0,0.0,0.0,0.0,0.0,0.0,0.0,0.0,0.0,0.0,0.0,0.0,0.0,0.0,0.0,0.0,0.0,0.0,0.0,766.3736,1091.1355,799.41394,789.34064,700.696,-0.11041259765625,0.08099365234375,0.971435546875,2.100982666015625,-3.386993408203125,-0.04486083984375,0.0,4.0,4.0,4.0,4.0,85.0,event
10:23:01.026,0.0,0.0,0.0,0.0,0.0,0.0,0.0,0.0,0.0,0.0,0.0,0.0,0.0,0.0,0.0,0.0,0.0,0.0,0.0,0.0,794.17584,1027.4725,812.3077,810.293,729.707,-0.11041259765625,0.08099365234375,0.971435546875,2.100982666015625,-3.386993408203125,-0.04486083984375,0.0,4.0,4.0,4.0,4.0,85.0,event
10:23:01.028,0.0,0.0,0.0,0.0,0.0,0.0,0.0,0.0,0.0,0.0,0.0,0.0,0.0,0.0,0.0,0.0,0.0,0.0,0.0,0.0,845.7509,805.8608,813.5165,840.9158,722.4542,-0.11041259765625,0.08099365234375,0.971435546875,2.100982666015625,-3.386993408203125,-0.04486083984375,0.0,4.0,4.0,4.0,4.0,85.0,event
10:23:01.030,0.0,0.0,0.0,0.0,0.0,0.0,0.0,0.0,0.0,0.0,0.0,0.0,0.0,0.0,0.0,0.0,0.0,0.0,0.0,0.0,869.92676,694.2491,807.47253,862.674,778.86444,-0.11041259765625,0.08099365234375,0.971435546875,2.100982666015625,-3.386993408203125,-0.04486083984375,0.0,4.0,4.0,4.0,4.0,85.0,event
10:23:01.031,0.0,0.0,0.0,0.0,0.0,0.0,0.0,0.0,0.0,0.0,0.0,0.0,0.0,0.0,0.0,0.0,0.0,0.0,0.0,0.0,838.0952,724.4689,805.05493,821.1722,801.02563,-0.11041259765625,0.08099365234375,0.971435546875,2.100982666015625,-3.386993408203125,-0.04486083984375,0.0,4.0,4.0,4.0,4.0,85.0,event
10:23:01.033,0.0,0.0,0.0,0.0,0.0,0.0,0.0,0.0,0.0,0.0,0.0,0.0,0.0,0.0,0.0,0.0,0.0,0.0,0.0,0.0,790.14655,628.5714,814.7253,792.1612,773.6264,-0.11041259765625,0.08099365234375,0.971435546875,2.100982666015625,-3.386993408203125,-0.04486083984375,0.0,4.0,4.0,4.0,4.0,85.0,event
10:23:01.035,0.0,0.0,0.0,0.0,0.0,0.0,0.0,0.0,0.0,0.0,0.0,0.0,0.0,0.0,0.0,0.0,0.0,0.0,0.0,0.0,797.8022,430.32968,813.91943,804.2491,861.8681,-0.11041259765625,0.08099365234375,0.971435546875,2.100982666015625,-3.386993408203125,-0.04486083984375,0.0,4.0,4.0,4.0,4.0,85.0,event
10:23:01.038,0.0,0.0,0.0,0.0,0.0,0.0,0.0,0.0,0.0,0.0,0.0,0.0,0.0,0.0,0.0,0.0,0.0,0.0,0.0,0.0,841.31866,896.9231,804.65204,823.9927,807.0696,-0.11041259765625,0.08099365234375,0.971435546875,2.100982666015625,-3.386993408203125,-0.04486083984375,0.0,4.0,4.0,4.0,4.0,85.0,event
10:23:01.040,0.0,0.0,0.0,0.0,0.0,0.0,0.0,0.0,0.0,0.0,0.0,0.0,0.0,0.0,0.0,0.0,0.0,0.0,0.0,0.0,885.2381,1179.3773,806.26373,857.03296,700.293,-0.11041259765625,0.08099365234375,0.971435546875,2.100982666015625,-3.386993408203125,-0.04486083984375,0.0,4.0,4.0,4.0,4.0,85.0,event
10:23:01.047,0.0,0.0,0.0,0.0,0.0,0.0,0.0,0.0,0.0,0.0,0.0,0.0,0.0,0.0,0.0,0.0,0.0,0.0,0.0,0.0,857.8388,782.0879,804.2491,843.3333,809.4872,-0.11041259765625,0.08099365234375,0.971435546875,2.100982666015625,-3.386993408203125,-0.04486083984375,0.0,4.0,4.0,4.0,4.0,85.0,event
10:23:01.075,0.0,0.0,0.0,0.0,0.0,0.0,0.0,0.0,0.0,0.0,0.0,0.0,0.0,0.0,0.0,0.0,0.0,0.0,0.0,0.0,768.3883,174.8718,802.23444,811.0989,995.2381,-0.11260986328125,0.079345703125,0.98028564453125,2.519683837890625,-3.162689208984375,-0.0299072265625,0.0,4.0,4.0,4.0,4.0,85.0,event
10:23:01.080,0.0,0.0,0.0,0.0,0.0,0.0,0.0,0.0,0.0,0.0,0.0,0.0,0.0,0.0,0.0,0.0,0.0,0.0,0.0,0.0,767.98535,662.01465,804.2491,795.38464,797.8022,-0.11260986328125,0.079345703125,0.98028564453125,2.519683837890625,-3.162689208984375,-0.0299072265625,0.0,4.0,4.0,4.0,4.0,85.0,event
10:23:01.082,0.0,0.0,0.0,0.0,0.0,0.0,0.0,0.0,0.0,0.0,0.0,0.0,0.0,0.0,0.0,0.0,0.0,0.0,0.0,0.0,842.9304,1210.403,810.696,812.71063,693.0403,-0.11260986328125,0.079345703125,0.98028564453125,2.519683837890625,-3.162689208984375,-0.0299072265625,0.0,4.0,4.0,4.0,4.0,85.0,event
10:23:01.083,0.0,0.0,0.0,0.0,0.0,0.0,0.0,0.0,0.0,0.0,0.0,0.0,0.0,0.0,0.0,0.0,0.0,0.0,0.0,0.0,873.5531,977.9121,813.5165,852.6007,794.9817,-0.11260986328125,0.079345703125,0.98028564453125,2.519683837890625,-3.162689208984375,-0.0299072265625,0.0,4.0,4.0,4.0,4.0,85.0,event
10:23:01.089,0.0,0.0,0.0,0.0,0.0,0.0,0.0,0.0,0.0,0.0,0.0,0.0,0.0,0.0,0.0,0.0,0.0,0.0,0.0,0.0,829.6337,905.78754,804.2491,823.1868,764.35895,-0.11260986328125,0.079345703125,0.98028564453125,2.519683837890625,-3.162689208984375,-0.0299072265625,0.0,4.0,4.0,4.0,4.0,85.0,event
10:23:01.091,0.0,0.0,0.0,0.0,0.0,0.0,0.0,0.0,0.0,0.0,0.0,0.0,0.0,0.0,0.0,0.0,0.0,0.0,0.0,0.0,774.0293,799.41394,805.05493,782.8938,798.20514,-0.11260986328125,0.079345703125,0.98028564453125,2.519683837890625,-3.162689208984375,-0.0299072265625,0.0,4.0,4.0,4.0,4.0,85.0,event
10:23:01.093,0.0,0.0,0.0,0.0,0.0,0.0,0.0,0.0,0.0,0.0,0.0,0.0,0.0,0.0,0.0,0.0,0.0,0.0,0.0,0.0,785.31134,774.83514,810.696,788.1319,815.12823,-0.11260986328125,0.079345703125,0.98028564453125,2.519683837890625,-3.162689208984375,-0.0299072265625,0.0,4.0,4.0,4.0,4.0,85.0,event
10:23:01.095,0.0,0.0,0.0,0.0,0.0,0.0,0.0,0.0,0.0,0.0,0.0,0.0,0.0,0.0,0.0,0.0,0.0,0.0,0.0,0.0,835.6777,577.8022,805.05493,809.89014,833.2601,-0.11260986328125,0.079345703125,0.98028564453125,2.519683837890625,-3.162689208984375,-0.0299072265625,0.0,4.0,4.0,4.0,4.0,85.0,event
10:23:01.096,0.0,0.0,0.0,0.0,0.0,0.0,0.0,0.0,0.0,0.0,0.0,0.0,0.0,0.0,0.0,0.0,0.0,0.0,0.0,0.0,865.09155,233.69963,803.44324,847.3626,891.28204,-0.11260986328125,0.079345703125,0.98028564453125,2.519683837890625,-3.162689208984375,-0.0299072265625,0.0,4.0,4.0,4.0,4.0,85.0,event
10:23:01.099,0.0,0.0,0.0,0.0,0.0,0.0,0.0,0.0,0.0,0.0,0.0,0.0,0.0,0.0,0.0,0.0,0.0,0.0,0.0,0.0,861.8681,869.92676,797.8022,846.55676,711.978,-0.11260986328125,0.079345703125,0.98028564453125,2.519683837890625,-3.162689208984375,-0.0299072265625,0.0,4.0,4.0,4.0,4.0,85.0,event
10:23:01.100,0.0,0.0,0.0,0.0,0.0,0.0,0.0,0.0,0.0,0.0,0.0,0.0,0.0,0.0,0.0,0.0,0.0,0.0,0.0,0.0,812.3077,1109.6703,804.2491,817.9487,661.2088,-0.11260986328125,0.079345703125,0.98028564453125,2.519683837890625,-3.162689208984375,-0.0299072265625,0.0,4.0,4.0,4.0,4.0,85.0,event
10:23:01.102,0.0,0.0,0.0,0.0,0.0,0.0,0.0,0.0,0.0,0.0,0.0,0.0,0.0,0.0,0.0,0.0,0.0,0.0,0.0,0.0,781.685,717.619,814.3223,818.7546,791.3553,-0.11260986328125,0.079345703125,0.98028564453125,2.519683837890625,-3.162689208984375,-0.0299072265625,0.0,4.0,4.0,4.0,4.0,85.0,event
10:23:01.124,0.0,0.0,0.0,0.0,0.0,0.0,0.0,0.0,0.0,0.0,0.0,0.0,0.0,0.0,0.0,0.0,0.0,0.0,0.0,0.0,796.99634,938.8278,802.23444,818.3516,759.92676,-0.11260986328125,0.079345703125,0.98028564453125,2.519683837890625,-3.162689208984375,-0.0299072265625,0.0,4.0,4.0,4.0,4.0,85.0,event
10:23:01.126,0.0,0.0,0.0,0.0,0.0,0.0,0.0,0.0,0.0,0.0,0.0,0.0,0.0,0.0,0.0,0.0,0.0,0.0,0.0,0.0,842.1245,1180.989,800.2198,829.6337,687.8022,-0.11260986328125,0.079345703125,0.98028564453125,2.519683837890625,-3.162689208984375,-0.0299072265625,0.0,4.0,4.0,4.0,4.0,85.0,event
10:23:01.128,0.0,0.0,0.0,0.0,0.0,0.0,0.0,0.0,0.0,0.0,0.0,0.0,0.0,0.0,0.0,0.0,0.0,0.0,0.0,0.0,848.5714,864.68866,810.293,837.28937,794.9817,-0.11260986328125,0.079345703125,0.98028564453125,2.519683837890625,-3.162689208984375,-0.0299072265625,0.0,4.0,4.0,4.0,4.0,85.0,event
10:23:01.131,0.0,0.0,0.0,0.0,0.0,0.0,0.0,0.0,0.0,0.0,0.0,0.0,0.0,0.0,0.0,0.0,0.0,0.0,0.0,0.0,792.96704,450.4762,805.4579,788.1319,915.8608,-0.11260986328125,0.079345703125,0.98028564453125,2.519683837890625,-3.162689208984375,-0.0299072265625,0.0,4.0,4.0,4.0,4.0,85.0,event
10:23:01.133,0.0,0.0,0.0,0.0,0.0,0.0,0.0,0.0,0.0,0.0,0.0,0.0,0.0,0.0,0.0,0.0,0.0,0.0,0.0,0.0,778.46155,759.5238,801.4286,774.43225,775.64105,-0.11260986328125,0.079345703125,0.98028564453125,2.519683837890625,-3.162689208984375,-0.0299072265625,0.0,4.0,4.0,4.0,4.0,85.0,event
10:23:01.134,0.0,0.0,0.0,0.0,0.0,0.0,0.0,0.0,0.0,0.0,0.0,0.0,0.0,0.0,0.0,0.0,0.0,0.0,0.0,0.0,832.4542,933.5897,806.6667,813.5165,773.22345,-0.11260986328125,0.079345703125,0.98028564453125,2.519683837890625,-3.162689208984375,-0.0299072265625,0.0,4.0,4.0,4.0,4.0,85.0,event
10:23:01.136,0.0,0.0,0.0,0.0,0.0,0.0,0.0,0.0,0.0,0.0,0.0,0.0,0.0,0.0,0.0,0.0,0.0,0.0,0.0,0.0,855.0183,721.2454,802.23444,834.4689,924.7253,-0.11260986328125,0.079345703125,0.98028564453125,2.519683837890625,-3.162689208984375,-0.0299072265625,0.0,4.0,4.0,4.0,4.0,85.0,event
10:23:01.139,0.0,0.0,0.0,0.0,0.0,0.0,0.0,0.0,0.0,0.0,0.0,0.0,0.0,0.0,0.0,0.0,0.0,0.0,0.0,0.0,845.7509,259.48718,809.0842,846.1539,1059.7069,-0.11260986328125,0.079345703125,0.98028564453125,2.519683837890625,-3.162689208984375,-0.0299072265625,0.0,4.0,4.0,4.0,4.0,85.0,event
10:23:01.141,0.0,0.0,0.0,0.0,0.0,0.0,0.0,0.0,0.0,0.0,0.0,0.0,0.0,0.0,0.0,0.0,0.0,0.0,0.0,0.0,796.1905,519.3773,806.6667,797.3993,893.69965,-0.11260986328125,0.079345703125,0.98028564453125,2.519683837890625,-3.162689208984375,-0.0299072265625,0.0,4.0,4.0,4.0,4.0,85.0,event
10:23:01.143,0.0,0.0,0.0,0.0,0.0,0.0,0.0,0.0,0.0,0.0,0.0,0.0,0.0,0.0,0.0,0.0,0.0,0.0,0.0,0.0,770.80585,1106.8499,795.38464,774.0293,688.60803,-0.11260986328125,0.079345703125,0.98028564453125,2.519683837890625,-3.162689208984375,-0.0299072265625,0.0,4.0,4.0,4.0,4.0,85.0,event
10:23:01.145,0.0,0.0,0.0,0.0,0.0,0.0,0.0,0.0,0.0,0.0,0.0,0.0,0.0,0.0,0.0,0.0,0.0,0.0,0.0,0.0,815.5311,1086.3004,801.02563,799.41394,792.5641,-0.11260986328125,0.079345703125,0.98028564453125,2.519683837890625,-3.162689208984375,-0.0299072265625,0.0,4.0,4.0,4.0,4.0,85.0,event
10:23:01.147,0.0,0.0,0.0,0.0,0.0,0.0,0.0,0.0,0.0,0.0,0.0,0.0,0.0,0.0,0.0,0.0,0.0,0.0,0.0,0.0,839.304,1010.14655,806.26373,819.15753,844.5421,-0.11260986328125,0.079345703125,0.98028564453125,2.519683837890625,-3.162689208984375,-0.0299072265625,0.0,4.0,4.0,4.0,4.0,85.0,event
10:23:01.169,0.0,0.0,0.0,0.0,0.0,0.0,0.0,0.0,0.0,0.0,0.0,0.0,0.0,0.0,0.0,0.0,0.0,0.0,0.0,0.0,836.4835,1066.1538,802.6374,838.9011,758.315,-0.0909423828125,0.07916259765625,0.98419189453125,1.95892333984375,-5.016937255859375,0.351409912109375,0.0,4.0,4.0,4.0,4.0,85.0,event
10:23:01.171,0.0,0.0,0.0,0.0,0.0,0.0,0.0,0.0,0.0,0.0,0.0,0.0,0.0,0.0,0.0,0.0,0.0,0.0,0.0,0.0,809.89014,1046.8132,805.4579,809.0842,691.8315,-0.0909423828125,0.07916259765625,0.98419189453125,1.95892333984375,-5.016937255859375,0.351409912109375,0.0,4.0,4.0,4.0,4.0,85.0,event
10:23:01.173,0.0,0.0,0.0,0.0,0.0,0.0,0.0,0.0,0.0,0.0,0.0,0.0,0.0,0.0,0.0,0.0,0.0,0.0,0.0,0.0,786.9231,831.6484,804.2491,799.41394,732.52747,-0.0909423828125,0.07916259765625,0.98419189453125,1.95892333984375,-5.016937255859375,0.351409912109375,0.0,4.0,4.0,4.0,4.0,85.0,event
10:23:01.175,0.0,0.0,0.0,0.0,0.0,0.0,0.0,0.0,0.0,0.0,0.0,0.0,0.0,0.0,0.0,0.0,0.0,0.0,0.0,0.0,793.7729,883.22345,794.9817,811.0989,802.23444,-0.0909423828125,0.07916259765625,0.98419189453125,1.95892333984375,-5.016937255859375,0.351409912109375,0.0,4.0,4.0,4.0,4.0,85.0,event
10:23:01.177,0.0,0.0,0.0,0.0,0.0,0.0,0.0,0.0,0.0,0.0,0.0,0.0,0.0,0.0,0.0,0.0,0.0,0.0,0.0,0.0,815.9341,995.64105,800.2198,813.1135,774.0293,-0.0909423828125,0.07916259765625,0.98419189453125,1.95892333984375,-5.016937255859375,0.351409912109375,0.0,4.0,4.0,4.0,4.0,85.0,event
10:23:01.179,0.0,0.0,0.0,0.0,0.0,0.0,0.0,0.0,0.0,0.0,0.0,0.0,0.0,0.0,0.0,0.0,0.0,0.0,0.0,0.0,840.10986,803.8461,796.99634,827.619,755.89746,-0.0909423828125,0.07916259765625,0.98419189453125,1.95892333984375,-5.016937255859375,0.351409912109375,0.0,4.0,4.0,4.0,4.0,85.0,event
10:23:01.184,0.0,0.0,0.0,0.0,0.0,0.0,0.0,0.0,0.0,0.0,0.0,0.0,0.0,0.0,0.0,0.0,0.0,0.0,0.0,0.0,803.44324,431.9414,787.72894,793.7729,990.40295,-0.0909423828125,0.07916259765625,0.98419189453125,1.95892333984375,-5.016937255859375,0.351409912109375,0.0,4.0,4.0,4.0,4.0,85.0,event
10:23:01.186,0.0,0.0,0.0,0.0,0.0,0.0,0.0,0.0,0.0,0.0,0.0,0.0,0.0,0.0,0.0,0.0,0.0,0.0,0.0,0.0,757.1062,81.391945,793.7729,762.74725,1269.6337,-0.0909423828125,0.07916259765625,0.98419189453125,1.95892333984375,-5.016937255859375,0.351409912109375,0.0,4.0,4.0,4.0,4.0,85.0,event
10:23:01.187,0.0,0.0,0.0,0.0,0.0,0.0,0.0,0.0,0.0,0.0,0.0,0.0,0.0,0.0,0.0,0.0,0.0,0.0,0.0,0.0,774.83514,696.6667,794.57874,765.16486,885.64105,-0.0909423828125,0.07916259765625,0.98419189453125,1.95892333984375,-5.016937255859375,0.351409912109375,0.0,4.0,4.0,4.0,4.0,85.0,event
10:23:01.189,0.0,0.0,0.0,0.0,0.0,0.0,0.0,0.0,0.0,0.0,0.0,0.0,0.0,0.0,0.0,0.0,0.0,0.0,0.0,0.0,826.4103,1031.0989,797.8022,799.41394,608.4249,-0.0909423828125,0.07916259765625,0.98419189453125,1.95892333984375,-5.016937255859375,0.351409912109375,0.0,4.0,4.0,4.0,4.0,85.0,event
10:23:01.191,0.0,0.0,0.0,0.0,0.0,0.0,0.0,0.0,0.0,0.0,0.0,0.0,0.0,0.0,0.0,0.0,0.0,0.0,0.0,0.0,866.30035,655.16486,805.4579,853.4066,753.0769,-0.0909423828125,0.07916259765625,0.98419189453125,1.95892333984375,-5.016937255859375,0.351409912109375,0.0,4.0,4.0,4.0,4.0,85.0,event
10:23:01.195,0.0,0.0,0.0,0.0,0.0,0.0,0.0,0.0,0.0,0.0,0.0,0.0,0.0,0.0,0.0,0.0,0.0,0.0,0.0,0.0,835.2747,759.5238,790.14655,815.5311,716.4103,-0.0909423828125,0.07916259765625,0.98419189453125,1.95892333984375,-5.016937255859375,0.351409912109375,0.0,4.0,4.0,4.0,4.0,85.0,event
10:23:01.218,0.0,0.0,0.0,0.0,0.0,0.0,0.0,0.0,0.0,0.0,0.0,0.0,0.0,0.0,0.0,0.0,0.0,0.0,0.0,0.0,776.8498,1025.0549,783.69965,767.1795,685.78754,-0.10406494140625,0.08172607421875,0.96435546875,1.786956787109375,-3.850555419921875,1.757049560546875,0.0,4.0,4.0,4.0,4.0,85.0,event
10:23:01.221,0.0,0.0,0.0,0.0,0.0,0.0,0.0,0.0,0.0,0.0,0.0,0.0,0.0,0.0,0.0,0.0,0.0,0.0,0.0,0.0,778.86444,994.0293,801.02563,777.25275,749.85345,-0.10406494140625,0.08172607421875,0.96435546875,1.786956787109375,-3.850555419921875,1.757049560546875,0.0,4.0,4.0,4.0,4.0,85.0,event
10:23:01.224,0.0,0.0,0.0,0.0,0.0,0.0,0.0,0.0,0.0,0.0,0.0,0.0,0.0,0.0,0.0,0.0,0.0,0.0,0.0,0.0,811.9048,772.4176,809.0842,813.5165,801.4286,-0.10406494140625,0.08172607421875,0.96435546875,1.786956787109375,-3.850555419921875,1.757049560546875,0.0,4.0,4.0,4.0,4.0,85.0,event
10:23:01.226,0.0,0.0,0.0,0.0,0.0,0.0,0.0,0.0,0.0,0.0,0.0,0.0,0.0,0.0,0.0,0.0,0.0,0.0,0.0,0.0,846.1539,850.58606,801.8315,859.0476,763.5531,-0.10406494140625,0.08172607421875,0.96435546875,1.786956787109375,-3.850555419921875,1.757049560546875,0.0,4.0,4.0,4.0,4.0,85.0,event
10:23:01.230,0.0,0.0,0.0,0.0,0.0,0.0,0.0,0.0,0.0,0.0,0.0,0.0,0.0,0.0,0.0,0.0,0.0,0.0,0.0,0.0,819.5604,995.64105,784.10254,834.4689,713.5897,-0.10406494140625,0.08172607421875,0.96435546875,1.786956787109375,-3.850555419921875,1.757049560546875,0.0,4.0,4.0,4.0,4.0,85.0,event
10:23:01.232,0.0,0.0,0.0,0.0,0.0,0.0,0.0,0.0,0.0,0.0,0.0,0.0,0.0,0.0,0.0,0.0,0.0,0.0,0.0,0.0,755.4945,653.95605,784.10254,802.6374,806.6667,-0.10406494140625,0.08172607421875,0.96435546875,1.786956787109375,-3.850555419921875,1.757049560546875,0.0,4.0,4.0,4.0,4.0,85.0,event
10:23:01.234,0.0,0.0,0.0,0.0,0.0,0.0,0.0,0.0,0.0,0.0,0.0,0.0,0.0,0.0,0.0,0.0,0.0,0.0,0.0,0.0,763.1502,139.41393,792.96704,810.696,1062.5275,-0.10406494140625,0.08172607421875,0.96435546875,1.786956787109375,-3.850555419921875,1.757049560546875,0.0,4.0,4.0,4.0,4.0,85.0,event
10:23:01.235,0.0,0.0,0.0,0.0,0.0,0.0,0.0,0.0,0.0,0.0,0.0,0.0,0.0,0.0,0.0,0.0,0.0,0.0,0.0,0.0,826.0073,529.45056,786.1172,811.0989,878.3883,-0.10406494140625,0.08172607421875,0.96435546875,1.786956787109375,-3.850555419921875,1.757049560546875,0.0,4.0,4.0,4.0,4.0,85.0,event
10:23:01.236,0.0,0.0,0.0,0.0,0.0,0.0,0.0,0.0,0.0,0.0,0.0,0.0,0.0,0.0,0.0,0.0,0.0,0.0,0.0,0.0,868.71796,941.2454,787.72894,829.6337,714.7985,-0.10406494140625,0.08172607421875,0.96435546875,1.786956787109375,-3.850555419921875,1.757049560546875,0.0,4.0,4.0,4.0,4.0,85.0,event
10:23:01.239,0.0,0.0,0.0,0.0,0.0,0.0,0.0,0.0,0.0,0.0,0.0,0.0,0.0,0.0,0.0,0.0,0.0,0.0,0.0,0.0,836.4835,629.3773,800.6227,820.7692,858.6447,-0.10406494140625,0.08172607421875,0.96435546875,1.786956787109375,-3.850555419921875,1.757049560546875,0.0,4.0,4.0,4.0,4.0,85.0,event
10:23:01.240,0.0,0.0,0.0,0.0,0.0,0.0,0.0,0.0,0.0,0.0,0.0,0.0,0.0,0.0,0.0,0.0,0.0,0.0,0.0,0.0,770.40295,276.41025,795.78754,784.90845,919.89014,-0.10406494140625,0.08172607421875,0.96435546875,1.786956787109375,-3.850555419921875,1.757049560546875,0.0,4.0,4.0,4.0,4.0,85.0,event
10:23:01.242,0.0,0.0,0.0,0.0,0.0,0.0,0.0,0.0,0.0,0.0,0.0,0.0,0.0,0.0,0.0,0.0,0.0,0.0,0.0,0.0,782.0879,728.0952,792.1612,788.5348,752.674,-0.10406494140625,0.08172607421875,0.96435546875,1.786956787109375,-3.850555419921875,1.757049560546875,0.0,4.0,4.0,4.0,4.0,85.0,event
10:23:01.265,0.0,0.0,0.0,0.0,0.0,0.0,0.0,0.0,0.0,0.0,0.0,0.0,0.0,0.0,0.0,0.0,0.0,0.0,0.0,0.0,828.8278,1052.0513,792.96704,815.5311,651.9414,-0.1143798828125,0.0860595703125,0.97967529296875,3.386993408203125,-2.923431396484375,0.426177978515625,0.0,4.0,4.0,4.0,4.0,85.0,event
10:23:01.267,0.0,0.0,0.0,0.0,0.0,0.0,0.0,0.0,0.0,0.0,0.0,0.0,0.0,0.0,0.0,0.0,0.0,0.0,0.0,0.0,863.47986,817.1429,782.49084,845.7509,723.663,-0.1143798828125,0.0860595703125,0.97967529296875,3.386993408203125,-2.923431396484375,0.426177978515625,0.0,4.0,4.0,4.0,4.0,85.0,event
10:23:01.269,0.0,0.0,0.0,0.0,0.0,0.0,0.0,0.0,0.0,0.0,0.0,0.0,0.0,0.0,0.0,0.0,0.0,0.0,0.0,0.0,862.27106,740.18317,782.0879,843.3333,716.4103,-0.1143798828125,0.0860595703125,0.97967529296875,3.386993408203125,-2.923431396484375,0.426177978515625,0.0,4.0,4.0,4.0,4.0,85.0,event
10:23:01.271,0.0,0.0,0.0,0.0,0.0,0.0,0.0,0.0,0.0,0.0,0.0,0.0,0.0,0.0,0.0,0.0,0.0,0.0,0.0,0.0,773.6264,844.1392,782.0879,796.5934,666.04395,-0.1143798828125,0.0860595703125,0.97967529296875,3.386993408203125,-2.923431396484375,0.426177978515625,0.0,4.0,4.0,4.0,4.0,85.0,event
10:23:01.274,0.0,0.0,0.0,0.0,0.0,0.0,0.0,0.0,0.0,0.0,0.0,0.0,0.0,0.0,0.0,0.0,0.0,0.0,0.0,0.0,756.30035,895.7143,786.52014,792.5641,630.58606,-0.1143798828125,0.0860595703125,0.97967529296875,3.386993408203125,-2.923431396484375,0.426177978515625,0.0,4.0,4.0,4.0,4.0,85.0,event
10:23:01.276,0.0,0.0,0.0,0.0,0.0,0.0,0.0,0.0,0.0,0.0,0.0,0.0,0.0,0.0,0.0,0.0,0.0,0.0,0.0,0.0,802.6374,547.1795,785.31134,810.696,783.69965,-0.1143798828125,0.0860595703125,0.97967529296875,3.386993408203125,-2.923431396484375,0.426177978515625,0.0,4.0,4.0,4.0,4.0,85.0,event
10:23:01.280,0.0,0.0,0.0,0.0,0.0,0.0,0.0,0.0,0.0,0.0,0.0,0.0,0.0,0.0,0.0,0.0,0.0,0.0,0.0,0.0,857.03296,317.91208,796.99634,859.45056,946.8865,-0.1143798828125,0.0860595703125,0.97967529296875,3.386993408203125,-2.923431396484375,0.426177978515625,0.0,4.0,4.0,4.0,4.0,85.0,event
10:23:01.282,0.0,0.0,0.0,0.0,0.0,0.0,0.0,0.0,0.0,0.0,0.0,0.0,0.0,0.0,0.0,0.0,0.0,0.0,0.0,0.0,862.674,758.315,802.6374,857.4359,835.2747,-0.1143798828125,0.0860595703125,0.97967529296875,3.386993408203125,-2.923431396484375,0.426177978515625,0.0,4.0,4.0,4.0,4.0,85.0,event
10:23:01.289,0.0,0.0,0.0,0.0,0.0,0.0,0.0,0.0,0.0,0.0,0.0,0.0,0.0,0.0,0.0,0.0,0.0,0.0,0.0,0.0,778.46155,952.9304,784.90845,784.90845,737.3626,-0.1143798828125,0.0860595703125,0.97967529296875,3.386993408203125,-2.923431396484375,0.426177978515625,0.0,4.0,4.0,4.0,4.0,85.0,event
10:23:01.291,0.0,0.0,0.0,0.0,0.0,0.0,0.0,0.0,0.0,0.0,0.0,0.0,0.0,0.0,0.0,0.0,0.0,0.0,0.0,0.0,767.1795,477.87546,787.326,795.78754,835.6777,-0.1143798828125,0.0860595703125,0.97967529296875,3.386993408203125,-2.923431396484375,0.426177978515625,0.0,4.0,4.0,4.0,4.0,85.0,event
10:23:01.293,0.0,0.0,0.0,0.0,0.0,0.0,0.0,0.0,0.0,0.0,0.0,0.0,0.0,0.0,0.0,0.0,0.0,0.0,0.0,0.0,830.4396,466.5934,786.9231,811.50183,851.39197,-0.1143798828125,0.0860595703125,0.97967529296875,3.386993408203125,-2.923431396484375,0.426177978515625,0.0,4.0,4.0,4.0,4.0,85.0,event
10:23:01.295,0.0,0.0,0.0,0.0,0.0,0.0,0.0,0.0,0.0,0.0,0.0,0.0,0.0,0.0,0.0,0.0,0.0,0.0,0.0,0.0,874.35895,844.5421,773.22345,816.337,745.82416,-0.1143798828125,0.0860595703125,0.97967529296875,3.386993408203125,-2.923431396484375,0.426177978515625,0.0,4.0,4.0,4.0,4.0,85.0,event
10:23:01.319,0.0,0.0,0.0,0.0,0.0,0.0,0.0,0.0,0.0,0.0,0.0,0.0,0.0,0.0,0.0,0.0,0.0,0.0,0.0,0.0,868.315,653.1502,783.69965,832.4542,852.1978,-0.10174560546875,0.0926513671875,0.977783203125,2.7215576171875,-4.179534912109375,0.321502685546875,0.0,4.0,4.0,4.0,4.0,85.0,event
10:23:01.328,0.0,0.0,0.0,0.0,0.0,0.0,0.0,0.0,0.0,0.0,0.0,0.0,0.0,0.0,0.0,0.0,0.0,0.0,0.0,0.0,807.0696,329.59708,799.011,794.57874,948.49817,-0.10174560546875,0.0926513671875,0.977783203125,2.7215576171875,-4.179534912109375,0.321502685546875,0.0,4.0,4.0,4.0,4.0,85.0,event
10:23:01.331,0.0,0.0,0.0,0.0,0.0,0.0,0.0,0.0,0.0,0.0,0.0,0.0,0.0,0.0,0.0,0.0,0.0,0.0,0.0,0.0,782.0879,632.6007,799.41394,790.14655,866.30035,-0.10174560546875,0.0926513671875,0.977783203125,2.7215576171875,-4.179534912109375,0.321502685546875,0.0,4.0,4.0,4.0,4.0,85.0,event
10:23:01.335,0.0,0.0,0.0,0.0,0.0,0.0,0.0,0.0,0.0,0.0,0.0,0.0,0.0,0.0,0.0,0.0,0.0,0.0,0.0,0.0,809.89014,1038.3517,789.34064,804.65204,777.6557,-0.10174560546875,0.0926513671875,0.977783203125,2.7215576171875,-4.179534912109375,0.321502685546875,0.0,4.0,4.0,4.0,4.0,85.0,event
10:23:01.339,0.0,0.0,0.0,0.0,0.0,0.0,0.0,0.0,0.0,0.0,0.0,0.0,0.0,0.0,0.0,0.0,0.0,0.0,0.0,0.0,827.2161,887.6557,779.67035,815.5311,828.4249,-0.10174560546875,0.0926513671875,0.977783203125,2.7215576171875,-4.179534912109375,0.321502685546875,0.0,4.0,4.0,4.0,4.0,85.0,event
10:23:01.342,0.0,0.0,0.0,0.0,0.0,0.0,0.0,0.0,0.0,0.0,0.0,0.0,0.0,0.0,0.0,0.0,0.0,0.0,0.0,0.0,834.4689,477.0696,788.93774,831.2454,911.4286,-0.10174560546875,0.0926513671875,0.977783203125,2.7215576171875,-4.179534912109375,0.321502685546875,0.0,4.0,4.0,4.0,4.0,85.0,event
10:23:01.344,0.0,0.0,0.0,0.0,0.0,0.0,0.0,0.0,0.0,0.0,0.0,0.0,0.0,0.0,0.0,0.0,0.0,0.0,0.0,0.0,792.5641,369.48718,788.93774,796.99634,853.4066,-0.10174560546875,0.0926513671875,0.977783203125,2.7215576171875,-4.179534912109375,0.321502685546875,0.0,4.0,4.0,4.0,4.0,85.0,event
10:23:01.348,0.0,0.0,0.0,0.0,0.0,0.0,0.0,0.0,0.0,0.0,0.0,0.0,0.0,0.0,0.0,0.0,0.0,0.0,0.0,0.0,757.50916,663.6264,786.52014,784.10254,806.6667,-0.10174560546875,0.0926513671875,0.977783203125,2.7215576171875,-4.179534912109375,0.321502685546875,0.0,4.0,4.0,4.0,4.0,85.0,event
10:23:01.355,0.0,0.0,0.0,0.0,0.0,0.0,0.0,0.0,0.0,0.0,0.0,0.0,0.0,0.0,0.0,0.0,0.0,0.0,0.0,0.0,807.0696,756.30035,801.02563,819.5604,768.3883,-0.10174560546875,0.0926513671875,0.977783203125,2.7215576171875,-4.179534912109375,0.321502685546875,0.0,4.0,4.0,4.0,4.0,85.0,event
10:23:01.357,0.0,0.0,0.0,0.0,0.0,0.0,0.0,0.0,0.0,0.0,0.0,0.0,0.0,0.0,0.0,0.0,0.0,0.0,0.0,0.0,862.674,180.91576,806.26373,858.6447,952.9304,-0.10174560546875,0.0926513671875,0.977783203125,2.7215576171875,-4.179534912109375,0.321502685546875,0.0,4.0,4.0,4.0,4.0,85.0,event
10:23:01.361,0.0,0.0,0.0,0.0,0.0,0.0,0.0,0.0,0.0,0.0,0.0,0.0,0.0,0.0,0.0,0.0,0.0,0.0,0.0,0.0,844.1392,433.15018,785.31134,843.3333,841.31866,-0.10174560546875,0.0926513671875,0.977783203125,2.7215576171875,-4.179534912109375,0.321502685546875,0.0,4.0,4.0,4.0,4.0,85.0,event
10:23:01.366,0.0,0.0,0.0,0.0,0.0,0.0,0.0,0.0,0.0,0.0,0.0,0.0,0.0,0.0,0.0,0.0,0.0,0.0,0.0,0.0,795.38464,900.9524,771.6117,796.1905,661.2088,-0.10174560546875,0.0926513671875,0.977783203125,2.7215576171875,-4.179534912109375,0.321502685546875,0.0,4.0,4.0,4.0,4.0,85.0,event
10:23:01.389,0.0,0.0,0.0,0.0,0.0,0.0,0.0,0.0,0.0,0.0,0.0,0.0,0.0,0.0,0.0,0.0,0.0,0.0,0.0,0.0,773.22345,699.89014,786.52014,791.3553,709.15753,-0.10174560546875,0.0926513671875,0.977783203125,2.7215576171875,-4.179534912109375,0.321502685546875,0.0,4.0,4.0,4.0,4.0,85.0,event
10:23:01.394,0.0,0.0,0.0,0.0,0.0,0.0,0.0,0.0,0.0,0.0,0.0,0.0,0.0,0.0,0.0,0.0,0.0,0.0,0.0,0.0,802.23444,685.38464,801.02563,797.3993,690.6227,-0.10174560546875,0.0926513671875,0.977783203125,2.7215576171875,-4.179534912109375,0.321502685546875,0.0,4.0,4.0,4.0,4.0,85.0,event
10:23:01.395,0.0,0.0,0.0,0.0,0.0,0.0,0.0,0.0,0.0,0.0,0.0,0.0,0.0,0.0,0.0,0.0,0.0,0.0,0.0,0.0,850.58606,790.9524,794.9817,818.3516,735.7509,-0.10174560546875,0.0926513671875,0.977783203125,2.7215576171875,-4.179534912109375,0.321502685546875,0.0,4.0,4.0,4.0,4.0,85.0,event
10:23:01.396,0.0,0.0,0.0,0.0,0.0,0.0,0.0,0.0,0.0,0.0,0.0,0.0,0.0,0.0,0.0,0.0,0.0,0.0,0.0,0.0,871.13556,686.99634,795.78754,850.58606,815.12823,-0.10174560546875,0.0926513671875,0.977783203125,2.7215576171875,-4.179534912109375,0.321502685546875,0.0,4.0,4.0,4.0,4.0,85.0,event
10:23:01.398,0.0,0.0,0.0,0.0,0.0,0.0,0.0,0.0,0.0,0.0,0.0,0.0,0.0,0.0,0.0,0.0,0.0,0.0,0.0,0.0,815.9341,468.20514,798.60803,809.89014,832.0513,-0.10174560546875,0.0926513671875,0.977783203125,2.7215576171875,-4.179534912109375,0.321502685546875,0.0,4.0,4.0,4.0,4.0,85.0,event
10:23:01.399,0.0,0.0,0.0,0.0,0.0,0.0,0.0,0.0,0.0,0.0,0.0,0.0,0.0,0.0,0.0,0.0,0.0,0.0,0.0,0.0,755.09155,261.90475,788.1319,772.01465,880.0,-0.10174560546875,0.0926513671875,0.977783203125,2.7215576171875,-4.179534912109375,0.321502685546875,0.0,4.0,4.0,4.0,4.0,85.0,event
10:23:01.400,0.0,0.0,0.0,0.0,0.0,0.0,0.0,0.0,0.0,0.0,0.0,0.0,0.0,0.0,0.0,0.0,0.0,0.0,0.0,0.0,793.36993,455.7143,790.9524,790.9524,831.2454,-0.10174560546875,0.0926513671875,0.977783203125,2.7215576171875,-4.179534912109375,0.321502685546875,0.0,4.0,4.0,4.0,4.0,85.0,event
10:23:01.401,0.0,0.0,0.0,0.0,0.0,0.0,0.0,0.0,0.0,0.0,0.0,0.0,0.0,0.0,0.0,0.0,0.0,0.0,0.0,0.0,847.3626,825.2015,800.2198,817.1429,751.4652,-0.10174560546875,0.0926513671875,0.977783203125,2.7215576171875,-4.179534912109375,0.321502685546875,0.0,4.0,4.0,4.0,4.0,85.0,event
10:23:01.403,0.0,0.0,0.0,0.0,0.0,0.0,0.0,0.0,0.0,0.0,0.0,0.0,0.0,0.0,0.0,0.0,0.0,0.0,0.0,0.0,854.61536,528.6447,805.8608,849.7802,864.68866,-0.10174560546875,0.0926513671875,0.977783203125,2.7215576171875,-4.179534912109375,0.321502685546875,0.0,4.0,4.0,4.0,4.0,85.0,event
10:23:01.404,0.0,0.0,0.0,0.0,0.0,0.0,0.0,0.0,0.0,0.0,0.0,0.0,0.0,0.0,0.0,0.0,0.0,0.0,0.0,0.0,817.9487,170.84248,800.2198,834.0659,1033.5165,-0.10174560546875,0.0926513671875,0.977783203125,2.7215576171875,-4.179534912109375,0.321502685546875,0.0,4.0,4.0,4.0,4.0,85.0,event
10:23:01.410,0.0,0.0,0.0,0.0,0.0,0.0,0.0,0.0,0.0,0.0,0.0,0.0,0.0,0.0,0.0,0.0,0.0,0.0,0.0,0.0,759.12085,763.95605,787.72894,786.9231,823.5897,-0.10174560546875,0.0926513671875,0.977783203125,2.7215576171875,-4.179534912109375,0.321502685546875,0.0,4.0,4.0,4.0,4.0,85.0,event
10:23:01.411,0.0,0.0,0.0,0.0,0.0,0.0,0.0,0.0,0.0,0.0,0.0,0.0,0.0,0.0,0.0,0.0,0.0,0.0,0.0,0.0,766.77655,903.36993,788.5348,790.9524,674.90845,-0.10174560546875,0.0926513671875,0.977783203125,2.7215576171875,-4.179534912109375,0.321502685546875,0.0,4.0,4.0,4.0,4.0,85.0,event
10:23:01.413,0.0,0.0,0.0,0.0,0.0,0.0,0.0,0.0,0.0,0.0,0.0,0.0,0.0,0.0,0.0,0.0,0.0,0.0,0.0,0.0,826.0073,627.76556,802.23444,826.8132,799.41394,-0.09429931640625,0.09326171875,0.97479248046875,2.37762451171875,-3.5589599609375,1.74957275390625,0.0,4.0,4.0,4.0,4.0,85.0,event
10:23:01.414,0.0,0.0,0.0,0.0,0.0,0.0,0.0,0.0,0.0,0.0,0.0,0.0,0.0,0.0,0.0,0.0,0.0,0.0,0.0,0.0,850.989,836.08057,803.44324,845.34796,838.9011,-0.09429931640625,0.09326171875,0.97479248046875,2.37762451171875,-3.5589599609375,1.74957275390625,0.0,4.0,4.0,4.0,4.0,85.0,event
10:23:01.415,0.0,0.0,0.0,0.0,0.0,0.0,0.0,0.0,0.0,0.0,0.0,0.0,0.0,0.0,0.0,0.0,0.0,0.0,0.0,0.0,844.1392,952.52747,791.3553,818.3516,758.71796,-0.09429931640625,0.09326171875,0.97479248046875,2.37762451171875,-3.5589599609375,1.74957275390625,0.0,4.0,4.0,4.0,4.0,85.0,event
10:23:01.417,0.0,0.0,0.0,0.0,0.0,0.0,0.0,0.0,0.0,0.0,0.0,0.0,0.0,0.0,0.0,0.0,0.0,0.0,0.0,0.0,802.6374,774.43225,789.34064,773.22345,743.4066,-0.09429931640625,0.09326171875,0.97479248046875,2.37762451171875,-3.5589599609375,1.74957275390625,0.0,4.0,4.0,4.0,4.0,85.0,event
10:23:01.418,0.0,0.0,0.0,0.0,0.0,0.0,0.0,0.0,0.0,0.0,0.0,0.0,0.0,0.0,0.0,0.0,0.0,0.0,0.0,0.0,784.10254,595.5311,800.6227,779.67035,815.5311,-0.09429931640625,0.09326171875,0.97479248046875,2.37762451171875,-3.5589599609375,1.74957275390625,0.0,4.0,4.0,4.0,4.0,85.0,event
10:23:01.419,0.0,0.0,0.0,0.0,0.0,0.0,0.0,0.0,0.0,0.0,0.0,0.0,0.0,0.0,0.0,0.0,0.0,0.0,0.0,0.0,801.4286,521.39197,802.23444,810.696,879.59705,-0.09429931640625,0.09326171875,0.97479248046875,2.37762451171875,-3.5589599609375,1.74957275390625,0.0,4.0,4.0,4.0,4.0,85.0,event
10:23:01.420,0.0,0.0,0.0,0.0,0.0,0.0,0.0,0.0,0.0,0.0,0.0,0.0,0.0,0.0,0.0,0.0,0.0,0.0,0.0,0.0,833.663,537.50916,798.20514,836.08057,839.304,-0.09429931640625,0.09326171875,0.97479248046875,2.37762451171875,-3.5589599609375,1.74957275390625,0.0,4.0,4.0,4.0,4.0,85.0,event
10:23:01.422,0.0,0.0,0.0,0.0,0.0,0.0,0.0,0.0,0.0,0.0,0.0,0.0,0.0,0.0,0.0,0.0,0.0,0.0,0.0,0.0,832.8571,480.69598,794.17584,824.7985,857.8388,-0.09429931640625,0.09326171875,0.97479248046875,2.37762451171875,-3.5589599609375,1.74957275390625,0.0,4.0,4.0,4.0,4.0,85.0,event
10:23:01.423,0.0,0.0,0.0,0.0,0.0,0.0,0.0,0.0,0.0,0.0,0.0,0.0,0.0,0.0,0.0,0.0,0.0,0.0,0.0,0.0,780.4762,73.333336,800.2198,809.0842,1089.1208,-0.09429931640625,0.09326171875,0.97479248046875,2.37762451171875,-3.5589599609375,1.74957275390625,0.0,4.0,4.0,4.0,4.0,85.0,event
10:23:01.425,0.0,0.0,0.0,0.0,0.0,0.0,0.0,0.0,0.0,0.0,0.0,0.0,0.0,0.0,0.0,0.0,0.0,0.0,0.0,0.0,777.6557,215.9707,798.60803,814.7253,941.2454,-0.09429931640625,0.09326171875,0.97479248046875,2.37762451171875,-3.5589599609375,1.74957275390625,0.0,4.0,4.0,4.0,4.0,85.0,event
10:23:01.426,0.0,0.0,0.0,0.0,0.0,0.0,0.0,0.0,0.0,0.0,0.0,0.0,0.0,0.0,0.0,0.0,0.0,0.0,0.0,0.0,808.68134,810.293,786.52014,808.68134,668.0586,-0.09429931640625,0.09326171875,0.97479248046875,2.37762451171875,-3.5589599609375,1.74957275390625,0.0,4.0,4.0,4.0,4.0,85.0,event
10:23:01.428,0.0,0.0,0.0,0.0,0.0,0.0,0.0,0.0,0.0,0.0,0.0,0.0,0.0,0.0,0.0,0.0,0.0,0.0,0.0,0.0,843.3333,850.989,791.75824,825.2015,730.10986,-0.09429931640625,0.09326171875,0.97479248046875,2.37762451171875,-3.5589599609375,1.74957275390625,0.0,4.0,4.0,4.0,4.0,85.0,event
10:23:01.450,0.0,0.0,0.0,0.0,0.0,0.0,0.0,0.0,0.0,0.0,0.0,0.0,0.0,0.0,0.0,0.0,0.0,0.0,0.0,0.0,844.1392,750.2564,801.8315,817.5458,766.3736,-0.1083984375,0.08282470703125,0.9803466796875,1.906585693359375,-3.013153076171875,1.7047119140625,0.0,4.0,4.0,4.0,4.0,85.0,event
10:23:01.451,0.0,0.0,0.0,0.0,0.0,0.0,0.0,0.0,0.0,0.0,0.0,0.0,0.0,0.0,0.0,0.0,0.0,0.0,0.0,0.0,797.3993,873.95605,807.0696,792.5641,729.304,-0.1083984375,0.08282470703125,0.9803466796875,1.906585693359375,-3.013153076171875,1.7047119140625,0.0,4.0,4.0,4.0,4.0,85.0,event
10:23:01.452,0.0,0.0,0.0,0.0,0.0,0.0,0.0,0.0,0.0,0.0,0.0,0.0,0.0,0.0,0.0,0.0,0.0,0.0,0.0,0.0,789.34064,933.5897,804.65204,793.36993,743.4066,-0.1083984375,0.08282470703125,0.9803466796875,1.906585693359375,-3.013153076171875,1.7047119140625,0.0,4.0,4.0,4.0,4.0,85.0,event
10:23:01.454,0.0,0.0,0.0,0.0,0.0,0.0,0.0,0.0,0.0,0.0,0.0,0.0,0.0,0.0,0.0,0.0,0.0,0.0,0.0,0.0,833.2601,745.42126,797.8022,797.8022,790.9524,-0.1083984375,0.08282470703125,0.9803466796875,1.906585693359375,-3.013153076171875,1.7047119140625,0.0,4.0,4.0,4.0,4.0,85.0,event
10:23:01.456,0.0,0.0,0.0,0.0,0.0,0.0,0.0,0.0,0.0,0.0,0.0,0.0,0.0,0.0,0.0,0.0,0.0,0.0,0.0,0.0,864.68866,704.7253,793.7729,823.1868,766.3736,-0.1083984375,0.08282470703125,0.9803466796875,1.906585693359375,-3.013153076171875,1.7047119140625,0.0,4.0,4.0,4.0,4.0,85.0,event
10:23:01.457,0.0,0.0,0.0,0.0,0.0,0.0,0.0,0.0,0.0,0.0,0.0,0.0,0.0,0.0,0.0,0.0,0.0,0.0,0.0,0.0,838.49817,601.978,797.8022,840.10986,813.5165,-0.1083984375,0.08282470703125,0.9803466796875,1.906585693359375,-3.013153076171875,1.7047119140625,0.0,4.0,4.0,4.0,4.0,85.0,event
10:23:01.458,0.0,0.0,0.0,0.0,0.0,0.0,0.0,0.0,0.0,0.0,0.0,0.0,0.0,0.0,0.0,0.0,0.0,0.0,0.0,0.0,757.1062,504.06595,797.3993,791.3553,838.9011,-0.1083984375,0.08282470703125,0.9803466796875,1.906585693359375,-3.013153076171875,1.7047119140625,0.0,4.0,4.0,4.0,4.0,85.0,event
10:23:01.459,0.0,0.0,0.0,0.0,0.0,0.0,0.0,0.0,0.0,0.0,0.0,0.0,0.0,0.0,0.0,0.0,0.0,0.0,0.0,0.0,731.7216,362.23444,799.41394,785.31134,875.56775,-0.1083984375,0.08282470703125,0.9803466796875,1.906585693359375,-3.013153076171875,1.7047119140625,0.0,4.0,4.0,4.0,4.0,85.0,event
10:23:01.461,0.0,0.0,0.0,0.0,0.0,0.0,0.0,0.0,0.0,0.0,0.0,0.0,0.0,0.0,0.0,0.0,0.0,0.0,0.0,0.0,779.67035,140.62271,798.60803,806.6667,983.95605,-0.1083984375,0.08282470703125,0.9803466796875,1.906585693359375,-3.013153076171875,1.7047119140625,0.0,4.0,4.0,4.0,4.0,85.0,event
10:23:01.462,0.0,0.0,0.0,0.0,0.0,0.0,0.0,0.0,0.0,0.0,0.0,0.0,0.0,0.0,0.0,0.0,0.0,0.0,0.0,0.0,826.0073,533.47986,796.99634,817.5458,799.81683,-0.1083984375,0.08282470703125,0.9803466796875,1.906585693359375,-3.013153076171875,1.7047119140625,0.0,4.0,4.0,4.0,4.0,85.0,event
10:23:01.463,0.0,0.0,0.0,0.0,0.0,0.0,0.0,0.0,0.0,0.0,0.0,0.0,0.0,0.0,0.0,0.0,0.0,0.0,0.0,0.0,850.58606,831.2454,800.6227,828.022,706.7399,-0.1083984375,0.08282470703125,0.9803466796875,1.906585693359375,-3.013153076171875,1.7047119140625,0.0,4.0,4.0,4.0,4.0,85.0,event
10:23:01.464,0.0,0.0,0.0,0.0,0.0,0.0,0.0,0.0,0.0,0.0,0.0,0.0,0.0,0.0,0.0,0.0,0.0,0.0,0.0,0.0,804.65204,476.66666,802.23444,797.8022,851.39197,-0.1083984375,0.08282470703125,0.9803466796875,1.906585693359375,-3.013153076171875,1.7047119140625,0.0,4.0,4.0,4.0,4.0,85.0,event
10:23:01.488,0.0,0.0,0.0,0.0,0.0,0.0,0.0,0.0,0.0,0.0,0.0,0.0,0.0,0.0,0.0,0.0,0.0,0.0,0.0,0.0,771.6117,528.24176,799.011,805.4579,774.43225,-0.10882568359375,0.08209228515625,0.9754638671875,1.383209228515625,-3.48419189453125,-1.517791748046875,0.0,4.0,4.0,4.0,4.0,85.0,event
10:23:01.489,0.0,0.0,0.0,0.0,0.0,0.0,0.0,0.0,0.0,0.0,0.0,0.0,0.0,0.0,0.0,0.0,0.0,0.0,0.0,0.0,805.8608,902.1612,794.57874,811.50183,645.89746,-0.10882568359375,0.08209228515625,0.9754638671875,1.383209228515625,-3.48419189453125,-1.517791748046875,0.0,4.0,4.0,4.0,4.0,85.0,event
10:23:01.491,0.0,0.0,0.0,0.0,0.0,0.0,0.0,0.0,0.0,0.0,0.0,0.0,0.0,0.0,0.0,0.0,0.0,0.0,0.0,0.0,850.989,856.63007,800.6227,817.5458,726.8865,-0.10882568359375,0.08209228515625,0.9754638671875,1.383209228515625,-3.48419189453125,-1.517791748046875,0.0,4.0,4.0,4.0,4.0,85.0,event
10:23:01.492,0.0,0.0,0.0,0.0,0.0,0.0,0.0,0.0,0.0,0.0,0.0,0.0,0.0,0.0,0.0,0.0,0.0,0.0,0.0,0.0,859.0476,674.90845,799.81683,838.9011,794.17584,-0.10882568359375,0.08209228515625,0.9754638671875,1.383209228515625,-3.48419189453125,-1.517791748046875,0.0,4.0,4.0,4.0,4.0,85.0,event
10:23:01.494,0.0,0.0,0.0,0.0,0.0,0.0,0.0,0.0,0.0,0.0,0.0,0.0,0.0,0.0,0.0,0.0,0.0,0.0,0.0,0.0,813.1135,740.18317,788.5348,802.23444,757.9121,-0.10882568359375,0.08209228515625,0.9754638671875,1.383209228515625,-3.48419189453125,-1.517791748046875,0.0,4.0,4.0,4.0,4.0,85.0,event
10:23:01.495,0.0,0.0,0.0,0.0,0.0,0.0,0.0,0.0,0.0,0.0,0.0,0.0,0.0,0.0,0.0,0.0,0.0,0.0,0.0,0.0,783.2967,679.34064,792.1612,788.93774,782.0879,-0.10882568359375,0.08209228515625,0.9754638671875,1.383209228515625,-3.48419189453125,-1.517791748046875,0.0,4.0,4.0,4.0,4.0,85.0,event
10:23:01.496,0.0,0.0,0.0,0.0,0.0,0.0,0.0,0.0,0.0,0.0,0.0,0.0,0.0,0.0,0.0,0.0,0.0,0.0,0.0,0.0,789.34064,457.32602,799.81683,789.7436,904.9817,-0.10882568359375,0.08209228515625,0.9754638671875,1.383209228515625,-3.48419189453125,-1.517791748046875,0.0,4.0,4.0,4.0,4.0,85.0,event
10:23:01.499,0.0,0.0,0.0,0.0,0.0,0.0,0.0,0.0,0.0,0.0,0.0,0.0,0.0,0.0,0.0,0.0,0.0,0.0,0.0,0.0,815.12823,116.446884,803.8461,812.71063,1031.0989,-0.10882568359375,0.08209228515625,0.9754638671875,1.383209228515625,-3.48419189453125,-1.517791748046875,0.0,4.0,4.0,4.0,4.0,85.0,event
10:23:01.501,0.0,0.0,0.0,0.0,0.0,0.0,0.0,0.0,0.0,0.0,0.0,0.0,0.0,0.0,0.0,0.0,0.0,0.0,0.0,0.0,869.12085,477.87546,811.9048,858.24176,927.5458,-0.10882568359375,0.08209228515625,0.9754638671875,1.383209228515625,-3.48419189453125,-1.517791748046875,0.0,4.0,4.0,4.0,4.0,85.0,event
10:23:01.502,0.0,0.0,0.0,0.0,0.0,0.0,0.0,0.0,0.0,0.0,0.0,0.0,0.0,0.0,0.0,0.0,0.0,0.0,0.0,0.0,834.0659,933.1868,802.23444,819.5604,714.7985,-0.10882568359375,0.08209228515625,0.9754638671875,1.383209228515625,-3.48419189453125,-1.517791748046875,0.0,4.0,4.0,4.0,4.0,85.0,event
10:23:01.504,0.0,0.0,0.0,0.0,0.0,0.0,0.0,0.0,0.0,0.0,0.0,0.0,0.0,0.0,0.0,0.0,0.0,0.0,0.0,0.0,767.1795,789.7436,798.20514,785.7143,728.49817,-0.10882568359375,0.08209228515625,0.9754638671875,1.383209228515625,-3.48419189453125,-1.517791748046875,0.0,4.0,4.0,4.0,4.0,85.0,event
10:23:01.505,0.0,0.0,0.0,0.0,0.0,0.0,0.0,0.0,0.0,0.0,0.0,0.0,0.0,0.0,0.0,0.0,0.0,0.0,0.0,0.0,784.5055,636.63007,807.8755,794.57874,770.40295,-0.10882568359375,0.08209228515625,0.9754638671875,1.383209228515625,-3.48419189453125,-1.517791748046875,0.0,4.0,4.0,4.0,4.0,85.0,event
10:23:01.527,0.0,0.0,0.0,0.0,0.0,0.0,0.0,0.0,0.0,0.0,0.0,0.0,0.0,0.0,0.0,0.0,0.0,0.0,0.0,0.0,843.3333,633.8095,806.26373,828.4249,772.8205,-0.09783935546875,0.0819091796875,0.98541259765625,1.742095947265625,-4.523468017578125,-0.665435791015625,0.0,4.0,4.0,4.0,4.0,85.0,event
10:23:01.528,0.0,0.0,0.0,0.0,0.0,0.0,0.0,0.0,0.0,0.0,0.0,0.0,0.0,0.0,0.0,0.0,0.0,0.0,0.0,0.0,862.674,892.49084,805.4579,863.8828,751.06226,-0.09783935546875,0.0819091796875,0.98541259765625,1.742095947265625,-4.523468017578125,-0.665435791015625,0.0,4.0,4.0,4.0,4.0,85.0,event
10:23:01.529,0.0,0.0,0.0,0.0,0.0,0.0,0.0,0.0,0.0,0.0,0.0,0.0,0.0,0.0,0.0,0.0,0.0,0.0,0.0,0.0,804.65204,707.5458,800.2198,814.7253,806.6667,-0.09783935546875,0.0819091796875,0.98541259765625,1.742095947265625,-4.523468017578125,-0.665435791015625,0.0,4.0,4.0,4.0,4.0,85.0,event
10:23:01.530,0.0,0.0,0.0,0.0,0.0,0.0,0.0,0.0,0.0,0.0,0.0,0.0,0.0,0.0,0.0,0.0,0.0,0.0,0.0,0.0,758.315,332.01465,802.23444,771.6117,891.685,-0.09783935546875,0.0819091796875,0.98541259765625,1.742095947265625,-4.523468017578125,-0.665435791015625,0.0,4.0,4.0,4.0,4.0,85.0,event
10:23:01.531,0.0,0.0,0.0,0.0,0.0,0.0,0.0,0.0,0.0,0.0,0.0,0.0,0.0,0.0,0.0,0.0,0.0,0.0,0.0,0.0,793.36993,686.5934,808.2784,804.2491,744.61536,-0.09783935546875,0.0819091796875,0.98541259765625,1.742095947265625,-4.523468017578125,-0.665435791015625,0.0,4.0,4.0,4.0,4.0,85.0,event
10:23:01.533,0.0,0.0,0.0,0.0,0.0,0.0,0.0,0.0,0.0,0.0,0.0,0.0,0.0,0.0,0.0,0.0,0.0,0.0,0.0,0.0,831.2454,753.8828,805.8608,820.7692,690.6227,-0.09783935546875,0.0819091796875,0.98541259765625,1.742095947265625,-4.523468017578125,-0.665435791015625,0.0,4.0,4.0,4.0,4.0,85.0,event
10:23:01.534,0.0,0.0,0.0,0.0,0.0,0.0,0.0,0.0,0.0,0.0,0.0,0.0,0.0,0.0,0.0,0.0,0.0,0.0,0.0,0.0,850.58606,402.12454,811.9048,838.9011,922.3077,-0.09783935546875,0.0819091796875,0.98541259765625,1.742095947265625,-4.523468017578125,-0.665435791015625,0.0,4.0,4.0,4.0,4.0,85.0,event
10:23:01.535,0.0,0.0,0.0,0.0,0.0,0.0,0.0,0.0,0.0,0.0,0.0,0.0,0.0,0.0,0.0,0.0,0.0,0.0,0.0,0.0,808.68134,151.90475,806.6667,820.3663,1011.3553,-0.09783935546875,0.0819091796875,0.98541259765625,1.742095947265625,-4.523468017578125,-0.665435791015625,0.0,4.0,4.0,4.0,4.0,85.0,event
10:23:01.537,0.0,0.0,0.0,0.0,0.0,0.0,0.0,0.0,0.0,0.0,0.0,0.0,0.0,0.0,0.0,0.0,0.0,0.0,0.0,0.0,754.68866,709.9634,798.20514,775.2381,753.0769,-0.09783935546875,0.0819091796875,0.98541259765625,1.742095947265625,-4.523468017578125,-0.665435791015625,0.0,4.0,4.0,4.0,4.0,85.0,event
10:23:01.538,0.0,0.0,0.0,0.0,0.0,0.0,0.0,0.0,0.0,0.0,0.0,0.0,0.0,0.0,0.0,0.0,0.0,0.0,0.0,0.0,789.34064,910.2198,802.23444,795.38464,623.73627,-0.09783935546875,0.0819091796875,0.98541259765625,1.742095947265625,-4.523468017578125,-0.665435791015625,0.0,4.0,4.0,4.0,4.0,85.0,event
10:23:01.539,0.0,0.0,0.0,0.0,0.0,0.0,0.0,0.0,0.0,0.0,0.0,0.0,0.0,0.0,0.0,0.0,0.0,0.0,0.0,0.0,829.2308,601.1722,805.05493,817.1429,680.9524,-0.09783935546875,0.0819091796875,0.98541259765625,1.742095947265625,-4.523468017578125,-0.665435791015625,0.0,4.0,4.0,4.0,4.0,85.0,event
10:23:01.541,0.0,0.0,0.0,0.0,0.0,0.0,0.0,0.0,0.0,0.0,0.0,0.0,0.0,0.0,0.0,0.0,0.0,0.0,0.0,0.0,848.1685,809.89014,810.696,837.28937,719.6337,-0.09783935546875,0.0819091796875,0.98541259765625,1.742095947265625,-4.523468017578125,-0.665435791015625,0.0,4.0,4.0,4.0,4.0,85.0,event
10:23:01.563,0.0,0.0,0.0,0.0,0.0,0.0,0.0,0.0,0.0,0.0,0.0,0.0,0.0,0.0,0.0,0.0,0.0,0.0,0.0,0.0,826.4103,1008.5348,808.68134,831.2454,721.6484,-0.09783935546875,0.0819091796875,0.98541259765625,1.742095947265625,-4.523468017578125,-0.665435791015625,0.0,4.0,4.0,4.0,4.0,85.0,event
10:23:01.564,0.0,0.0,0.0,0.0,0.0,0.0,0.0,0.0,0.0,0.0,0.0,0.0,0.0,0.0,0.0,0.0,0.0,0.0,0.0,0.0,767.98535,922.71063,799.011,802.6374,780.4762,-0.09783935546875,0.0819091796875,0.98541259765625,1.742095947265625,-4.523468017578125,-0.665435791015625,0.0,4.0,4.0,4.0,4.0,85.0,event
10:23:01.570,0.0,0.0,0.0,0.0,0.0,0.0,0.0,0.0,0.0,0.0,0.0,0.0,0.0,0.0,0.0,0.0,0.0,0.0,0.0,0.0,781.685,672.8938,810.696,809.4872,826.0073,-0.09783935546875,0.0819091796875,0.98541259765625,1.742095947265625,-4.523468017578125,-0.665435791015625,0.0,4.0,4.0,4.0,4.0,85.0,event
10:23:01.574,0.0,0.0,0.0,0.0,0.0,0.0,0.0,0.0,0.0,0.0,0.0,0.0,0.0,0.0,0.0,0.0,0.0,0.0,0.0,0.0,824.3956,630.58606,816.7399,816.337,830.0366,-0.09783935546875,0.0819091796875,0.98541259765625,1.742095947265625,-4.523468017578125,-0.665435791015625,0.0,4.0,4.0,4.0,4.0,85.0,event
10:23:01.578,0.0,0.0,0.0,0.0,0.0,0.0,0.0,0.0,0.0,0.0,0.0,0.0,0.0,0.0,0.0,0.0,0.0,0.0,0.0,0.0,847.3626,892.8938,808.2784,846.1539,838.9011,-0.09783935546875,0.0819091796875,0.98541259765625,1.742095947265625,-4.523468017578125,-0.665435791015625,0.0,4.0,4.0,4.0,4.0,85.0,event
10:23:01.580,0.0,0.0,0.0,0.0,0.0,0.0,0.0,0.0,0.0,0.0,0.0,0.0,0.0,0.0,0.0,0.0,0.0,0.0,0.0,0.0,850.18317,747.8388,808.2784,857.03296,860.65936,-0.09783935546875,0.0819091796875,0.98541259765625,1.742095947265625,-4.523468017578125,-0.665435791015625,0.0,4.0,4.0,4.0,4.0,85.0,event
10:23:01.582,0.0,0.0,0.0,0.0,0.0,0.0,0.0,0.0,0.0,0.0,0.0,0.0,0.0,0.0,0.0,0.0,0.0,0.0,0.0,0.0,791.75824,105.16483,806.26373,799.41394,1122.5641,-0.09783935546875,0.0819091796875,0.98541259765625,1.742095947265625,-4.523468017578125,-0.665435791015625,0.0,4.0,4.0,4.0,4.0,85.0,event
10:23:01.583,0.0,0.0,0.0,0.0,0.0,0.0,0.0,0.0,0.0,0.0,0.0,0.0,0.0,0.0,0.0,0.0,0.0,0.0,0.0,0.0,770.40295,167.21611,812.3077,776.8498,1050.0366,-0.09783935546875,0.0819091796875,0.98541259765625,1.742095947265625,-4.523468017578125,-0.665435791015625,0.0,4.0,4.0,4.0,4.0,85.0,event
10:23:01.584,0.0,0.0,0.0,0.0,0.0,0.0,0.0,0.0,0.0,0.0,0.0,0.0,0.0,0.0,0.0,0.0,0.0,0.0,0.0,0.0,810.293,894.5055,818.7546,803.0403,703.91943,-0.09783935546875,0.0819091796875,0.98541259765625,1.742095947265625,-4.523468017578125,-0.665435791015625,0.0,4.0,4.0,4.0,4.0,85.0,event
10:23:01.586,0.0,0.0,0.0,0.0,0.0,0.0,0.0,0.0,0.0,0.0,0.0,0.0,0.0,0.0,0.0,0.0,0.0,0.0,0.0,0.0,835.6777,1005.7143,803.44324,839.304,710.7692,-0.09783935546875,0.0819091796875,0.98541259765625,1.742095947265625,-4.523468017578125,-0.665435791015625,0.0,4.0,4.0,4.0,4.0,85.0,event
10:23:01.588,0.0,0.0,0.0,0.0,0.0,0.0,0.0,0.0,0.0,0.0,0.0,0.0,0.0,0.0,0.0,0.0,0.0,0.0,0.0,0.0,836.8865,851.79486,792.96704,846.9597,774.83514,-0.09783935546875,0.0819091796875,0.98541259765625,1.742095947265625,-4.523468017578125,-0.665435791015625,0.0,4.0,4.0,4.0,4.0,85.0,event
10:23:01.589,0.0,0.0,0.0,0.0,0.0,0.0,0.0,0.0,0.0,0.0,0.0,0.0,0.0,0.0,0.0,0.0,0.0,0.0,0.0,0.0,784.10254,978.315,792.96704,808.68134,738.5714,-0.09783935546875,0.0819091796875,0.98541259765625,1.742095947265625,-4.523468017578125,-0.665435791015625,0.0,4.0,4.0,4.0,4.0,85.0,event
10:23:01.611,0.0,0.0,0.0,0.0,0.0,0.0,0.0,0.0,0.0,0.0,0.0,0.0,0.0,0.0,0.0,0.0,0.0,0.0,0.0,0.0,752.674,1039.9634,799.81683,797.8022,729.707,-0.101318359375,0.0811767578125,0.9774169921875,1.7645263671875,-3.715972900390625,0.142059326171875,0.0,4.0,4.0,4.0,4.0,85.0,event
10:23:01.613,0.0,0.0,0.0,0.0,0.0,0.0,0.0,0.0,0.0,0.0,0.0,0.0,0.0,0.0,0.0,0.0,0.0,0.0,0.0,0.0,801.8315,875.56775,806.26373,810.293,732.1245,-0.101318359375,0.0811767578125,0.9774169921875,1.7645263671875,-3.715972900390625,0.142059326171875,0.0,4.0,4.0,4.0,4.0,85.0,event
10:23:01.615,0.0,0.0,0.0,0.0,0.0,0.0,0.0,0.0,0.0,0.0,0.0,0.0,0.0,0.0,0.0,0.0,0.0,0.0,0.0,0.0,857.8388,880.80585,809.4872,851.39197,796.5934,-0.101318359375,0.0811767578125,0.9774169921875,1.7645263671875,-3.715972900390625,0.142059326171875,0.0,4.0,4.0,4.0,4.0,85.0,event
10:23:01.616,0.0,0.0,0.0,0.0,0.0,0.0,0.0,0.0,0.0,0.0,0.0,0.0,0.0,0.0,0.0,0.0,0.0,0.0,0.0,0.0,854.61536,1047.619,805.8608,861.4652,803.0403,-0.101318359375,0.0811767578125,0.9774169921875,1.7645263671875,-3.715972900390625,0.142059326171875,0.0,4.0,4.0,4.0,4.0,85.0,event
10:23:01.621,0.0,0.0,0.0,0.0,0.0,0.0,0.0,0.0,0.0,0.0,0.0,0.0,0.0,0.0,0.0,0.0,0.0,0.0,0.0,0.0,786.1172,982.3443,796.1905,792.5641,726.08057,-0.101318359375,0.0811767578125,0.9774169921875,1.7645263671875,-3.715972900390625,0.142059326171875,0.0,4.0,4.0,4.0,4.0,85.0,event
10:23:01.623,0.0,0.0,0.0,0.0,0.0,0.0,0.0,0.0,0.0,0.0,0.0,0.0,0.0,0.0,0.0,0.0,0.0,0.0,0.0,0.0,769.19415,580.6227,804.2491,782.0879,827.2161,-0.101318359375,0.0811767578125,0.9774169921875,1.7645263671875,-3.715972900390625,0.142059326171875,0.0,4.0,4.0,4.0,4.0,85.0,event
10:23:01.625,0.0,0.0,0.0,0.0,0.0,0.0,0.0,0.0,0.0,0.0,0.0,0.0,0.0,0.0,0.0,0.0,0.0,0.0,0.0,0.0,803.0403,429.92673,809.89014,806.26373,921.0989,-0.101318359375,0.0811767578125,0.9774169921875,1.7645263671875,-3.715972900390625,0.142059326171875,0.0,4.0,4.0,4.0,4.0,85.0,event
10:23:01.626,0.0,0.0,0.0,0.0,0.0,0.0,0.0,0.0,0.0,0.0,0.0,0.0,0.0,0.0,0.0,0.0,0.0,0.0,0.0,0.0,840.9158,680.54944,799.81683,834.4689,878.3883,-0.101318359375,0.0811767578125,0.9774169921875,1.7645263671875,-3.715972900390625,0.142059326171875,0.0,4.0,4.0,4.0,4.0,85.0,event
10:23:01.628,0.0,0.0,0.0,0.0,0.0,0.0,0.0,0.0,0.0,0.0,0.0,0.0,0.0,0.0,0.0,0.0,0.0,0.0,0.0,0.0,879.19415,981.53845,804.65204,868.315,782.49084,-0.101318359375,0.0811767578125,0.9774169921875,1.7645263671875,-3.715972900390625,0.142059326171875,0.0,4.0,4.0,4.0,4.0,85.0,event
10:23:01.629,0.0,0.0,0.0,0.0,0.0,0.0,0.0,0.0,0.0,0.0,0.0,0.0,0.0,0.0,0.0,0.0,0.0,0.0,0.0,0.0,828.4249,629.3773,803.8461,816.337,897.326,-0.101318359375,0.0811767578125,0.9774169921875,1.7645263671875,-3.715972900390625,0.142059326171875,0.0,4.0,4.0,4.0,4.0,85.0,event
10:23:01.630,0.0,0.0,0.0,0.0,0.0,0.0,0.0,0.0,0.0,0.0,0.0,0.0,0.0,0.0,0.0,0.0,0.0,0.0,0.0,0.0,771.2088,231.28206,798.20514,783.69965,982.3443,-0.101318359375,0.0811767578125,0.9774169921875,1.7645263671875,-3.715972900390625,0.142059326171875,0.0,4.0,4.0,4.0,4.0,85.0,event
10:23:01.631,0.0,0.0,0.0,0.0,0.0,0.0,0.0,0.0,0.0,0.0,0.0,0.0,0.0,0.0,0.0,0.0,0.0,0.0,0.0,0.0,801.8315,910.6227,804.2491,806.6667,745.82416,-0.101318359375,0.0811767578125,0.9774169921875,1.7645263671875,-3.715972900390625,0.142059326171875,0.0,4.0,4.0,4.0,4.0,85.0,event
10:23:01.654,0.0,0.0,0.0,0.0,0.0,0.0,0.0,0.0,0.0,0.0,0.0,0.0,0.0,0.0,0.0,0.0,0.0,0.0,0.0,0.0,840.9158,1141.5018,800.2198,830.4396,711.978,-0.1026611328125,0.08245849609375,0.97955322265625,1.577606201171875,-3.446807861328125,0.2691650390625,0.0,4.0,4.0,4.0,4.0,85.0,event
10:23:01.655,0.0,0.0,0.0,0.0,0.0,0.0,0.0,0.0,0.0,0.0,0.0,0.0,0.0,0.0,0.0,0.0,0.0,0.0,0.0,0.0,858.24176,847.76556,799.81683,849.7802,794.17584,-0.1026611328125,0.08245849609375,0.97955322265625,1.577606201171875,-3.446807861328125,0.2691650390625,0.0,4.0,4.0,4.0,4.0,85.0,event
10:23:01.656,0.0,0.0,0.0,0.0,0.0,0.0,0.0,0.0,0.0,0.0,0.0,0.0,0.0,0.0,0.0,0.0,0.0,0.0,0.0,0.0,819.9634,948.49817,795.38464,814.3223,770.80585,-0.1026611328125,0.08245849609375,0.97955322265625,1.577606201171875,-3.446807861328125,0.2691650390625,0.0,4.0,4.0,4.0,4.0,85.0,event
10:23:01.658,0.0,0.0,0.0,0.0,0.0,0.0,0.0,0.0,0.0,0.0,0.0,0.0,0.0,0.0,0.0,0.0,0.0,0.0,0.0,0.0,773.22345,1121.7583,791.3553,783.69965,748.6447,-0.1026611328125,0.08245849609375,0.97955322265625,1.577606201171875,-3.446807861328125,0.2691650390625,0.0,4.0,4.0,4.0,4.0,85.0,event
10:23:01.663,0.0,0.0,0.0,0.0,0.0,0.0,0.0,0.0,0.0,0.0,0.0,0.0,0.0,0.0,0.0,0.0,0.0,0.0,0.0,0.0,799.011,1025.8608,799.81683,795.38464,776.4469,-0.1026611328125,0.08245849609375,0.97955322265625,1.577606201171875,-3.446807861328125,0.2691650390625,0.0,4.0,4.0,4.0,4.0,85.0,event
10:23:01.665,0.0,0.0,0.0,0.0,0.0,0.0,0.0,0.0,0.0,0.0,0.0,0.0,0.0,0.0,0.0,0.0,0.0,0.0,0.0,0.0,844.5421,688.20514,805.05493,822.7839,877.1795,-0.1026611328125,0.08245849609375,0.97955322265625,1.577606201171875,-3.446807861328125,0.2691650390625,0.0,4.0,4.0,4.0,4.0,85.0,event
10:23:01.666,0.0,0.0,0.0,0.0,0.0,0.0,0.0,0.0,0.0,0.0,0.0,0.0,0.0,0.0,0.0,0.0,0.0,0.0,0.0,0.0,865.09155,671.28204,803.0403,849.3773,882.01465,-0.1026611328125,0.08245849609375,0.97955322265625,1.577606201171875,-3.446807861328125,0.2691650390625,0.0,4.0,4.0,4.0,4.0,85.0,event
10:23:01.668,0.0,0.0,0.0,0.0,0.0,0.0,0.0,0.0,0.0,0.0,0.0,0.0,0.0,0.0,0.0,0.0,0.0,0.0,0.0,0.0,818.7546,1056.8865,792.1612,818.3516,845.34796,-0.1026611328125,0.08245849609375,0.97955322265625,1.577606201171875,-3.446807861328125,0.2691650390625,0.0,4.0,4.0,4.0,4.0,85.0,event
10:23:01.674,0.0,0.0,0.0,0.0,0.0,0.0,0.0,0.0,0.0,0.0,0.0,0.0,0.0,0.0,0.0,0.0,0.0,0.0,0.0,0.0,758.71796,1012.1612,789.34064,790.9524,847.76556,-0.1026611328125,0.08245849609375,0.97955322265625,1.577606201171875,-3.446807861328125,0.2691650390625,0.0,4.0,4.0,4.0,4.0,85.0,event
10:23:01.675,0.0,0.0,0.0,0.0,0.0,0.0,0.0,0.0,0.0,0.0,0.0,0.0,0.0,0.0,0.0,0.0,0.0,0.0,0.0,0.0,770.80585,296.95972,799.41394,820.3663,1039.5604,-0.1026611328125,0.08245849609375,0.97955322265625,1.577606201171875,-3.446807861328125,0.2691650390625,0.0,4.0,4.0,4.0,4.0,85.0,event
10:23:01.677,0.0,0.0,0.0,0.0,0.0,0.0,0.0,0.0,0.0,0.0,0.0,0.0,0.0,0.0,0.0,0.0,0.0,0.0,0.0,0.0,819.5604,653.5531,797.8022,819.5604,928.3516,-0.1026611328125,0.08245849609375,0.97955322265625,1.577606201171875,-3.446807861328125,0.2691650390625,0.0,4.0,4.0,4.0,4.0,85.0,event
10:23:01.679,0.0,0.0,0.0,0.0,0.0,0.0,0.0,0.0,0.0,0.0,0.0,0.0,0.0,0.0,0.0,0.0,0.0,0.0,0.0,0.0,858.6447,1257.5458,796.99634,856.63007,745.82416,-0.1026611328125,0.08245849609375,0.97955322265625,1.577606201171875,-3.446807861328125,0.2691650390625,0.0,4.0,4.0,4.0,4.0,85.0,event
10:23:01.703,0.0,0.0,0.0,0.0,0.0,0.0,0.0,0.0,0.0,0.0,0.0,0.0,0.0,0.0,0.0,0.0,0.0,0.0,0.0,0.0,830.84247,947.6923,799.81683,852.1978,780.87915,-0.1011962890625,0.08447265625,0.97259521484375,2.130889892578125,-4.20196533203125,0.306549072265625,0.0,4.0,4.0,4.0,4.0,85.0,event
10:23:01.705,0.0,0.0,0.0,0.0,0.0,0.0,0.0,0.0,0.0,0.0,0.0,0.0,0.0,0.0,0.0,0.0,0.0,0.0,0.0,0.0,765.16486,643.47986,786.9231,784.90845,793.36993,-0.1011962890625,0.08447265625,0.97259521484375,2.130889892578125,-4.20196533203125,0.306549072265625,0.0,4.0,4.0,4.0,4.0,85.0,event
10:23:01.707,0.0,0.0,0.0,0.0,0.0,0.0,0.0,0.0,0.0,0.0,0.0,0.0,0.0,0.0,0.0,0.0,0.0,0.0,0.0,0.0,786.9231,961.79486,791.3553,793.7729,717.2161,-0.1011962890625,0.08447265625,0.97259521484375,2.130889892578125,-4.20196533203125,0.306549072265625,0.0,4.0,4.0,4.0,4.0,85.0,event
10:23:01.708,0.0,0.0,0.0,0.0,0.0,0.0,0.0,0.0,0.0,0.0,0.0,0.0,0.0,0.0,0.0,0.0,0.0,0.0,0.0,0.0,848.5714,1150.7693,799.011,809.4872,659.59705,-0.1011962890625,0.08447265625,0.97259521484375,2.130889892578125,-4.20196533203125,0.306549072265625,0.0,4.0,4.0,4.0,4.0,85.0,event
10:23:01.710,0.0,0.0,0.0,0.0,0.0,0.0,0.0,0.0,0.0,0.0,0.0,0.0,0.0,0.0,0.0,0.0,0.0,0.0,0.0,0.0,872.3443,964.61536,795.38464,835.2747,778.86444,-0.1011962890625,0.08447265625,0.97259521484375,2.130889892578125,-4.20196533203125,0.306549072265625,0.0,4.0,4.0,4.0,4.0,85.0,event
10:23:01.712,0.0,0.0,0.0,0.0,0.0,0.0,0.0,0.0,0.0,0.0,0.0,0.0,0.0,0.0,0.0,0.0,0.0,0.0,0.0,0.0,836.4835,807.8755,796.99634,837.28937,895.7143,-0.1011962890625,0.08447265625,0.97259521484375,2.130889892578125,-4.20196533203125,0.306549072265625,0.0,4.0,4.0,4.0,4.0,85.0,event
10:23:01.713,0.0,0.0,0.0,0.0,0.0,0.0,0.0,0.0,0.0,0.0,0.0,0.0,0.0,0.0,0.0,0.0,0.0,0.0,0.0,0.0,771.6117,737.76556,805.05493,810.696,944.0659,-0.1011962890625,0.08447265625,0.97259521484375,2.130889892578125,-4.20196533203125,0.306549072265625,0.0,4.0,4.0,4.0,4.0,85.0,event
10:23:01.715,0.0,0.0,0.0,0.0,0.0,0.0,0.0,0.0,0.0,0.0,0.0,0.0,0.0,0.0,0.0,0.0,0.0,0.0,0.0,0.0,763.5531,842.1245,801.4286,796.1905,896.1172,-0.1011962890625,0.08447265625,0.97259521484375,2.130889892578125,-4.20196533203125,0.306549072265625,0.0,4.0,4.0,4.0,4.0,85.0,event
10:23:01.716,0.0,0.0,0.0,0.0,0.0,0.0,0.0,0.0,0.0,0.0,0.0,0.0,0.0,0.0,0.0,0.0,0.0,0.0,0.0,0.0,818.3516,662.01465,797.3993,802.6374,913.0403,-0.1011962890625,0.08447265625,0.97259521484375,2.130889892578125,-4.20196533203125,0.306549072265625,0.0,4.0,4.0,4.0,4.0,85.0,event
10:23:01.718,0.0,0.0,0.0,0.0,0.0,0.0,0.0,0.0,0.0,0.0,0.0,0.0,0.0,0.0,0.0,0.0,0.0,0.0,0.0,0.0,860.65936,189.78021,795.38464,846.9597,1042.7839,-0.1011962890625,0.08447265625,0.97259521484375,2.130889892578125,-4.20196533203125,0.306549072265625,0.0,4.0,4.0,4.0,4.0,85.0,event
10:23:01.719,0.0,0.0,0.0,0.0,0.0,0.0,0.0,0.0,0.0,0.0,0.0,0.0,0.0,0.0,0.0,0.0,0.0,0.0,0.0,0.0,853.8095,832.4542,797.3993,848.5714,783.69965,-0.1011962890625,0.08447265625,0.97259521484375,2.130889892578125,-4.20196533203125,0.306549072265625,0.0,4.0,4.0,4.0,4.0,85.0,event
10:23:01.721,0.0,0.0,0.0,0.0,0.0,0.0,0.0,0.0,0.0,0.0,0.0,0.0,0.0,0.0,0.0,0.0,0.0,0.0,0.0,0.0,788.93774,1163.663,798.20514,788.5348,643.8828,-0.1011962890625,0.08447265625,0.97259521484375,2.130889892578125,-4.20196533203125,0.306549072265625,0.0,4.0,4.0,4.0,4.0,85.0,event
10:23:01.747,0.0,0.0,0.0,0.0,0.0,0.0,0.0,0.0,0.0,0.0,0.0,0.0,0.0,0.0,0.0,0.0,0.0,0.0,0.0,0.0,766.3736,752.674,794.57874,768.7912,766.3736,-0.10260009765625,0.08355712890625,0.9820556640625,1.712188720703125,-3.790740966796875,0.321502685546875,0.0,4.0,4.0,4.0,4.0,85.0,event
10:23:01.749,0.0,0.0,0.0,0.0,0.0,0.0,0.0,0.0,0.0,0.0,0.0,0.0,0.0,0.0,0.0,0.0,0.0,0.0,0.0,0.0,803.44324,840.5128,796.5934,788.93774,728.0952,-0.10260009765625,0.08355712890625,0.9820556640625,1.712188720703125,-3.790740966796875,0.321502685546875,0.0,4.0,4.0,4.0,4.0,85.0,event
10:23:01.750,0.0,0.0,0.0,0.0,0.0,0.0,0.0,0.0,0.0,0.0,0.0,0.0,0.0,0.0,0.0,0.0,0.0,0.0,0.0,0.0,850.58606,1210.403,796.5934,825.2015,656.77655,-0.10260009765625,0.08355712890625,0.9820556640625,1.712188720703125,-3.790740966796875,0.321502685546875,0.0,4.0,4.0,4.0,4.0,85.0,event
10:23:01.751,0.0,0.0,0.0,0.0,0.0,0.0,0.0,0.0,0.0,0.0,0.0,0.0,0.0,0.0,0.0,0.0,0.0,0.0,0.0,0.0,864.2857,1145.9341,796.99634,842.52747,732.1245,-0.10260009765625,0.08355712890625,0.9820556640625,1.712188720703125,-3.790740966796875,0.321502685546875,0.0,4.0,4.0,4.0,4.0,85.0,event
10:23:01.753,0.0,0.0,0.0,0.0,0.0,0.0,0.0,0.0,0.0,0.0,0.0,0.0,0.0,0.0,0.0,0.0,0.0,0.0,0.0,0.0,778.46155,611.6484,790.9524,802.6374,863.8828,-0.10260009765625,0.08355712890625,0.9820556640625,1.712188720703125,-3.790740966796875,0.321502685546875,0.0,4.0,4.0,4.0,4.0,85.0,event
10:23:01.754,0.0,0.0,0.0,0.0,0.0,0.0,0.0,0.0,0.0,0.0,0.0,0.0,0.0,0.0,0.0,0.0,0.0,0.0,0.0,0.0,759.5238,655.9707,792.1612,797.8022,866.7033,-0.10260009765625,0.08355712890625,0.9820556640625,1.712188720703125,-3.790740966796875,0.321502685546875,0.0,4.0,4.0,4.0,4.0,85.0,event
10:23:01.759,0.0,0.0,0.0,0.0,0.0,0.0,0.0,0.0,0.0,0.0,0.0,0.0,0.0,0.0,0.0,0.0,0.0,0.0,0.0,0.0,834.87177,926.7399,811.9048,830.84247,782.8938,-0.10260009765625,0.08355712890625,0.9820556640625,1.712188720703125,-3.790740966796875,0.321502685546875,0.0,4.0,4.0,4.0,4.0,85.0,event
10:23:01.762,0.0,0.0,0.0,0.0,0.0,0.0,0.0,0.0,0.0,0.0,0.0,0.0,0.0,0.0,0.0,0.0,0.0,0.0,0.0,0.0,850.58606,861.8681,805.05493,842.52747,768.3883,-0.10260009765625,0.08355712890625,0.9820556640625,1.712188720703125,-3.790740966796875,0.321502685546875,0.0,4.0,4.0,4.0,4.0,85.0,event
10:23:01.763,0.0,0.0,0.0,0.0,0.0,0.0,0.0,0.0,0.0,0.0,0.0,0.0,0.0,0.0,0.0,0.0,0.0,0.0,0.0,0.0,830.84247,343.2967,778.86444,845.7509,952.9304,-0.10260009765625,0.08355712890625,0.9820556640625,1.712188720703125,-3.790740966796875,0.321502685546875,0.0,4.0,4.0,4.0,4.0,85.0,event
10:23:01.765,0.0,0.0,0.0,0.0,0.0,0.0,0.0,0.0,0.0,0.0,0.0,0.0,0.0,0.0,0.0,0.0,0.0,0.0,0.0,0.0,792.1612,567.326,774.43225,810.293,823.5897,-0.10260009765625,0.08355712890625,0.9820556640625,1.712188720703125,-3.790740966796875,0.321502685546875,0.0,4.0,4.0,4.0,4.0,85.0,event
10:23:01.767,0.0,0.0,0.0,0.0,0.0,0.0,0.0,0.0,0.0,0.0,0.0,0.0,0.0,0.0,0.0,0.0,0.0,0.0,0.0,0.0,770.80585,1145.9341,789.7436,784.90845,624.1392,-0.10260009765625,0.08355712890625,0.9820556640625,1.712188720703125,-3.790740966796875,0.321502685546875,0.0,4.0,4.0,4.0,4.0,85.0,event
10:23:01.768,0.0,0.0,0.0,0.0,0.0,0.0,0.0,0.0,0.0,0.0,0.0,0.0,0.0,0.0,0.0,0.0,0.0,0.0,0.0,0.0,815.12823,1100.0,808.2784,802.23444,689.41394,-0.10260009765625,0.08355712890625,0.9820556640625,1.712188720703125,-3.790740966796875,0.321502685546875,0.0,4.0,4.0,4.0,4.0,85.0,event
10:23:01.790,0.0,0.0,0.0,0.0,0.0,0.0,0.0,0.0,0.0,0.0,0.0,0.0,0.0,0.0,0.0,0.0,0.0,0.0,0.0,0.0,840.9158,1083.0769,799.81683,830.0366,751.4652,-0.10260009765625,0.08355712890625,0.9820556640625,1.712188720703125,-3.790740966796875,0.321502685546875,0.0,4.0,4.0,4.0,4.0,85.0,event
10:23:01.792,0.0,0.0,0.0,0.0,0.0,0.0,0.0,0.0,0.0,0.0,0.0,0.0,0.0,0.0,0.0,0.0,0.0,0.0,0.0,0.0,844.94507,1197.9121,780.4762,849.3773,732.1245,-0.10260009765625,0.08355712890625,0.9820556640625,1.712188720703125,-3.790740966796875,0.321502685546875,0.0,4.0,4.0,4.0,4.0,85.0,event
10:23:01.794,0.0,0.0,0.0,0.0,0.0,0.0,0.0,0.0,0.0,0.0,0.0,0.0,0.0,0.0,0.0,0.0,0.0,0.0,0.0,0.0,805.05493,1182.1978,786.1172,810.293,687.3993,-0.10260009765625,0.08355712890625,0.9820556640625,1.712188720703125,-3.790740966796875,0.321502685546875,0.0,4.0,4.0,4.0,4.0,85.0,event
10:23:01.795,0.0,0.0,0.0,0.0,0.0,0.0,0.0,0.0,0.0,0.0,0.0,0.0,0.0,0.0,0.0,0.0,0.0,0.0,0.0,0.0,762.74725,881.2088,796.99634,779.67035,741.79486,-0.10260009765625,0.08355712890625,0.9820556640625,1.712188720703125,-3.790740966796875,0.321502685546875,0.0,4.0,4.0,4.0,4.0,85.0,event
10:23:01.797,0.0,0.0,0.0,0.0,0.0,0.0,0.0,0.0,0.0,0.0,0.0,0.0,0.0,0.0,0.0,0.0,0.0,0.0,0.0,0.0,805.8608,767.1795,790.9524,792.1612,776.04395,-0.10260009765625,0.08355712890625,0.9820556640625,1.712188720703125,-3.790740966796875,0.321502685546875,0.0,4.0,4.0,4.0,4.0,85.0,event
10:23:01.801,0.0,0.0,0.0,0.0,0.0,0.0,0.0,0.0,0.0,0.0,0.0,0.0,0.0,0.0,0.0,0.0,0.0,0.0,0.0,0.0,874.7619,866.7033,797.3993,841.31866,811.0989,-0.10260009765625,0.08355712890625,0.9820556640625,1.712188720703125,-3.790740966796875,0.321502685546875,0.0,4.0,4.0,4.0,4.0,85.0,event
10:23:01.804,0.0,0.0,0.0,0.0,0.0,0.0,0.0,0.0,0.0,0.0,0.0,0.0,0.0,0.0,0.0,0.0,0.0,0.0,0.0,0.0,885.64105,946.08057,798.60803,870.7326,872.3443,-0.10260009765625,0.08355712890625,0.9820556640625,1.712188720703125,-3.790740966796875,0.321502685546875,0.0,4.0,4.0,4.0,4.0,85.0,event
10:23:01.806,0.0,0.0,0.0,0.0,0.0,0.0,0.0,0.0,0.0,0.0,0.0,0.0,0.0,0.0,0.0,0.0,0.0,0.0,0.0,0.0,810.293,677.72894,784.90845,817.9487,933.1868,-0.10260009765625,0.08355712890625,0.9820556640625,1.712188720703125,-3.790740966796875,0.321502685546875,0.0,4.0,4.0,4.0,4.0,85.0,event
10:23:01.808,0.0,0.0,0.0,0.0,0.0,0.0,0.0,0.0,0.0,0.0,0.0,0.0,0.0,0.0,0.0,0.0,0.0,0.0,0.0,0.0,749.45056,150.29305,790.54944,774.43225,1044.3956,-0.10260009765625,0.08355712890625,0.9820556640625,1.712188720703125,-3.790740966796875,0.321502685546875,0.0,4.0,4.0,4.0,4.0,85.0,event
10:23:01.810,0.0,0.0,0.0,0.0,0.0,0.0,0.0,0.0,0.0,0.0,0.0,0.0,0.0,0.0,0.0,0.0,0.0,0.0,0.0,0.0,767.98535,853.8095,791.3553,780.87915,786.52014,-0.10260009765625,0.08355712890625,0.9820556640625,1.712188720703125,-3.790740966796875,0.321502685546875,0.0,4.0,4.0,4.0,4.0,85.0,event
10:23:01.811,0.0,0.0,0.0,0.0,0.0,0.0,0.0,0.0,0.0,0.0,0.0,0.0,0.0,0.0,0.0,0.0,0.0,0.0,0.0,0.0,813.91943,1328.8645,788.93774,818.7546,722.4542,-0.10260009765625,0.08355712890625,0.9820556640625,1.712188720703125,-3.790740966796875,0.321502685546875,0.0,4.0,4.0,4.0,4.0,85.0,event
10:23:01.813,0.0,0.0,0.0,0.0,0.0,0.0,0.0,0.0,0.0,0.0,0.0,0.0,0.0,0.0,0.0,0.0,0.0,0.0,0.0,0.0,865.89746,1000.4762,790.14655,851.79486,814.7253,-0.10260009765625,0.08355712890625,0.9820556640625,1.712188720703125,-3.790740966796875,0.321502685546875,0.0,4.0,4.0,4.0,4.0,85.0,event
10:23:01.836,0.0,0.0,0.0,0.0,0.0,0.0,0.0,0.0,0.0,0.0,0.0,0.0,0.0,0.0,0.0,0.0,0.0,0.0,0.0,0.0,837.6923,1050.8425,788.93774,816.337,756.30035,-0.09930419921875,0.07867431640625,0.976318359375,1.89910888671875,-3.297271728515625,0.037384033203125,0.0,4.0,4.0,4.0,4.0,85.0,event
10:23:01.837,0.0,0.0,0.0,0.0,0.0,0.0,0.0,0.0,0.0,0.0,0.0,0.0,0.0,0.0,0.0,0.0,0.0,0.0,0.0,0.0,772.8205,1185.8242,794.57874,780.4762,707.1429,-0.09930419921875,0.07867431640625,0.976318359375,1.89910888671875,-3.297271728515625,0.037384033203125,0.0,4.0,4.0,4.0,4.0,85.0,event
10:23:01.838,0.0,0.0,0.0,0.0,0.0,0.0,0.0,0.0,0.0,0.0,0.0,0.0,0.0,0.0,0.0,0.0,0.0,0.0,0.0,0.0,792.1612,1107.2528,797.3993,805.4579,710.3663,-0.09930419921875,0.07867431640625,0.976318359375,1.89910888671875,-3.297271728515625,0.037384033203125,0.0,4.0,4.0,4.0,4.0,85.0,event
10:23:01.841,0.0,0.0,0.0,0.0,0.0,0.0,0.0,0.0,0.0,0.0,0.0,0.0,0.0,0.0,0.0,0.0,0.0,0.0,0.0,0.0,832.0513,974.68866,796.5934,821.5751,798.60803,-0.09930419921875,0.07867431640625,0.976318359375,1.89910888671875,-3.297271728515625,0.037384033203125,0.0,4.0,4.0,4.0,4.0,85.0,event
10:23:01.843,0.0,0.0,0.0,0.0,0.0,0.0,0.0,0.0,0.0,0.0,0.0,0.0,0.0,0.0,0.0,0.0,0.0,0.0,0.0,0.0,868.315,1060.5128,798.20514,843.73627,761.9414,-0.09930419921875,0.07867431640625,0.976318359375,1.89910888671875,-3.297271728515625,0.037384033203125,0.0,4.0,4.0,4.0,4.0,85.0,event
10:23:01.845,0.0,0.0,0.0,0.0,0.0,0.0,0.0,0.0,0.0,0.0,0.0,0.0,0.0,0.0,0.0,0.0,0.0,0.0,0.0,0.0,835.6777,936.8132,789.34064,825.2015,824.7985,-0.09930419921875,0.07867431640625,0.976318359375,1.89910888671875,-3.297271728515625,0.037384033203125,0.0,4.0,4.0,4.0,4.0,85.0,event
10:23:01.846,0.0,0.0,0.0,0.0,0.0,0.0,0.0,0.0,0.0,0.0,0.0,0.0,0.0,0.0,0.0,0.0,0.0,0.0,0.0,0.0,767.1795,757.50916,784.10254,800.6227,976.30035,-0.09930419921875,0.07867431640625,0.976318359375,1.89910888671875,-3.297271728515625,0.037384033203125,0.0,4.0,4.0,4.0,4.0,85.0,event
10:23:01.848,0.0,0.0,0.0,0.0,0.0,0.0,0.0,0.0,0.0,0.0,0.0,0.0,0.0,0.0,0.0,0.0,0.0,0.0,0.0,0.0,771.6117,228.46153,793.36993,799.011,1148.3517,-0.09930419921875,0.07867431640625,0.976318359375,1.89910888671875,-3.297271728515625,0.037384033203125,0.0,4.0,4.0,4.0,4.0,85.0,event
10:23:01.853,0.0,0.0,0.0,0.0,0.0,0.0,0.0,0.0,0.0,0.0,0.0,0.0,0.0,0.0,0.0,0.0,0.0,0.0,0.0,0.0,809.4872,307.83884,796.5934,797.3993,1079.4506,-0.09930419921875,0.07867431640625,0.976318359375,1.89910888671875,-3.297271728515625,0.037384033203125,0.0,4.0,4.0,4.0,4.0,85.0,event
10:23:01.854,0.0,0.0,0.0,0.0,0.0,0.0,0.0,0.0,0.0,0.0,0.0,0.0,0.0,0.0,0.0,0.0,0.0,0.0,0.0,0.0,843.3333,1137.4725,792.1612,836.4835,767.1795,-0.09930419921875,0.07867431640625,0.976318359375,1.89910888671875,-3.297271728515625,0.037384033203125,0.0,4.0,4.0,4.0,4.0,85.0,event
10:23:01.855,0.0,0.0,0.0,0.0,0.0,0.0,0.0,0.0,0.0,0.0,0.0,0.0,0.0,0.0,0.0,0.0,0.0,0.0,0.0,0.0,830.84247,1141.5018,790.54944,834.0659,755.4945,-0.09930419921875,0.07867431640625,0.976318359375,1.89910888671875,-3.297271728515625,0.037384033203125,0.0,4.0,4.0,4.0,4.0,85.0,event
10:23:01.857,0.0,0.0,0.0,0.0,0.0,0.0,0.0,0.0,0.0,0.0,0.0,0.0,0.0,0.0,0.0,0.0,0.0,0.0,0.0,0.0,769.19415,954.1392,785.7143,788.5348,808.68134,-0.09930419921875,0.07867431640625,0.976318359375,1.89910888671875,-3.297271728515625,0.037384033203125,0.0,4.0,4.0,4.0,4.0,85.0,event
10:23:01.879,0.0,0.0,0.0,0.0,0.0,0.0,0.0,0.0,0.0,0.0,0.0,0.0,0.0,0.0,0.0,0.0,0.0,0.0,0.0,0.0,767.5824,1097.1794,786.52014,775.64105,667.6557,-0.0960693359375,0.08349609375,0.98211669921875,2.16827392578125,-3.27484130859375,0.059814453125,0.0,4.0,4.0,4.0,4.0,85.0,event
10:23:01.881,0.0,0.0,0.0,0.0,0.0,0.0,0.0,0.0,0.0,0.0,0.0,0.0,0.0,0.0,0.0,0.0,0.0,0.0,0.0,0.0,819.5604,1202.3444,797.8022,794.57874,642.674,-0.0960693359375,0.08349609375,0.98211669921875,2.16827392578125,-3.27484130859375,0.059814453125,0.0,4.0,4.0,4.0,4.0,85.0,event
10:23:01.883,0.0,0.0,0.0,0.0,0.0,0.0,0.0,0.0,0.0,0.0,0.0,0.0,0.0,0.0,0.0,0.0,0.0,0.0,0.0,0.0,855.82416,1064.5421,796.99634,836.4835,778.0586,-0.0960693359375,0.08349609375,0.98211669921875,2.16827392578125,-3.27484130859375,0.059814453125,0.0,4.0,4.0,4.0,4.0,85.0,event
10:23:01.884,0.0,0.0,0.0,0.0,0.0,0.0,0.0,0.0,0.0,0.0,0.0,0.0,0.0,0.0,0.0,0.0,0.0,0.0,0.0,0.0,840.10986,1001.685,783.69965,832.4542,805.8608,-0.0960693359375,0.08349609375,0.98211669921875,2.16827392578125,-3.27484130859375,0.059814453125,0.0,4.0,4.0,4.0,4.0,85.0,event
10:23:01.886,0.0,0.0,0.0,0.0,0.0,0.0,0.0,0.0,0.0,0.0,0.0,0.0,0.0,0.0,0.0,0.0,0.0,0.0,0.0,0.0,786.1172,994.0293,788.5348,786.1172,728.9011,-0.0960693359375,0.08349609375,0.98211669921875,2.16827392578125,-3.27484130859375,0.059814453125,0.0,4.0,4.0,4.0,4.0,85.0,event
10:23:01.887,0.0,0.0,0.0,0.0,0.0,0.0,0.0,0.0,0.0,0.0,0.0,0.0,0.0,0.0,0.0,0.0,0.0,0.0,0.0,0.0,758.71796,907.8022,788.5348,762.3443,752.27106,-0.0960693359375,0.08349609375,0.98211669921875,2.16827392578125,-3.27484130859375,0.059814453125,0.0,4.0,4.0,4.0,4.0,85.0,event
10:23:01.889,0.0,0.0,0.0,0.0,0.0,0.0,0.0,0.0,0.0,0.0,0.0,0.0,0.0,0.0,0.0,0.0,0.0,0.0,0.0,0.0,792.1612,591.50183,784.10254,777.6557,897.326,-0.0960693359375,0.08349609375,0.98211669921875,2.16827392578125,-3.27484130859375,0.059814453125,0.0,4.0,4.0,4.0,4.0,85.0,event
10:23:01.890,0.0,0.0,0.0,0.0,0.0,0.0,0.0,0.0,0.0,0.0,0.0,0.0,0.0,0.0,0.0,0.0,0.0,0.0,0.0,0.0,832.8571,252.63736,793.7729,842.9304,1022.6374,-0.0960693359375,0.08349609375,0.98211669921875,2.16827392578125,-3.27484130859375,0.059814453125,0.0,4.0,4.0,4.0,4.0,85.0,event
10:23:01.892,0.0,0.0,0.0,0.0,0.0,0.0,0.0,0.0,0.0,0.0,0.0,0.0,0.0,0.0,0.0,0.0,0.0,0.0,0.0,0.0,851.39197,922.71063,793.36993,853.4066,826.4103,-0.0960693359375,0.08349609375,0.98211669921875,2.16827392578125,-3.27484130859375,0.059814453125,0.0,4.0,4.0,4.0,4.0,85.0,event
10:23:01.893,0.0,0.0,0.0,0.0,0.0,0.0,0.0,0.0,0.0,0.0,0.0,0.0,0.0,0.0,0.0,0.0,0.0,0.0,0.0,0.0,822.381,1148.3517,792.1612,799.41394,697.8755,-0.0960693359375,0.08349609375,0.98211669921875,2.16827392578125,-3.27484130859375,0.059814453125,0.0,4.0,4.0,4.0,4.0,85.0,event
10:23:01.895,0.0,0.0,0.0,0.0,0.0,0.0,0.0,0.0,0.0,0.0,0.0,0.0,0.0,0.0,0.0,0.0,0.0,0.0,0.0,0.0,790.9524,724.87177,794.17584,788.93774,861.8681,-0.0960693359375,0.08349609375,0.98211669921875,2.16827392578125,-3.27484130859375,0.059814453125,0.0,4.0,4.0,4.0,4.0,85.0,event
10:23:01.896,0.0,0.0,0.0,0.0,0.0,0.0,0.0,0.0,0.0,0.0,0.0,0.0,0.0,0.0,0.0,0.0,0.0,0.0,0.0,0.0,815.12823,874.7619,792.1612,791.75824,852.6007,-0.0960693359375,0.08349609375,0.98211669921875,2.16827392578125,-3.27484130859375,0.059814453125,0.0,4.0,4.0,4.0,4.0,85.0,event
10:23:01.945,0.0,0.0,0.0,0.0,0.0,0.0,0.0,0.0,0.0,0.0,0.0,0.0,0.0,0.0,0.0,0.0,0.0,0.0,0.0,0.0,846.9597,1250.6959,792.1612,817.9487,718.022,-0.09814453125,0.08282470703125,0.97747802734375,2.093505859375,-3.18511962890625,0.530853271484375,0.0,4.0,4.0,4.0,4.0,85.0,event
10:23:01.950,0.0,0.0,0.0,0.0,0.0,0.0,0.0,0.0,0.0,0.0,0.0,0.0,0.0,0.0,0.0,0.0,0.0,0.0,0.0,0.0,835.2747,1142.3077,787.72894,839.304,709.5604,-0.09814453125,0.08282470703125,0.97747802734375,2.093505859375,-3.18511962890625,0.530853271484375,0.0,4.0,4.0,4.0,4.0,85.0,event
10:23:01.951,0.0,0.0,0.0,0.0,0.0,0.0,0.0,0.0,0.0,0.0,0.0,0.0,0.0,0.0,0.0,0.0,0.0,0.0,0.0,0.0,761.9414,576.1905,782.49084,784.90845,838.0952,-0.09814453125,0.08282470703125,0.97747802734375,2.093505859375,-3.18511962890625,0.530853271484375,0.0,4.0,4.0,4.0,4.0,85.0,event
10:23:01.952,0.0,0.0,0.0,0.0,0.0,0.0,0.0,0.0,0.0,0.0,0.0,0.0,0.0,0.0,0.0,0.0,0.0,0.0,0.0,0.0,741.39197,797.3993,786.1172,762.74725,790.54944,-0.09814453125,0.08282470703125,0.97747802734375,2.093505859375,-3.18511962890625,0.530853271484375,0.0,4.0,4.0,4.0,4.0,85.0,event
10:23:01.954,0.0,0.0,0.0,0.0,0.0,0.0,0.0,0.0,0.0,0.0,0.0,0.0,0.0,0.0,0.0,0.0,0.0,0.0,0.0,0.0,796.5934,1205.9707,789.34064,796.99634,669.2674,-0.09814453125,0.08282470703125,0.97747802734375,2.093505859375,-3.18511962890625,0.530853271484375,0.0,4.0,4.0,4.0,4.0,85.0,event
10:23:01.955,0.0,0.0,0.0,0.0,0.0,0.0,0.0,0.0,0.0,0.0,0.0,0.0,0.0,0.0,0.0,0.0,0.0,0.0,0.0,0.0,844.94507,925.9341,797.8022,832.4542,814.3223,-0.09814453125,0.08282470703125,0.97747802734375,2.093505859375,-3.18511962890625,0.530853271484375,0.0,4.0,4.0,4.0,4.0,85.0,event
10:23:01.957,0.0,0.0,0.0,0.0,0.0,0.0,0.0,0.0,0.0,0.0,0.0,0.0,0.0,0.0,0.0,0.0,0.0,0.0,0.0,0.0,860.65936,299.7802,803.0403,849.7802,1077.033,-0.09814453125,0.08282470703125,0.97747802734375,2.093505859375,-3.18511962890625,0.530853271484375,0.0,4.0,4.0,4.0,4.0,85.0,event
10:23:01.959,0.0,0.0,0.0,0.0,0.0,0.0,0.0,0.0,0.0,0.0,0.0,0.0,0.0,0.0,0.0,0.0,0.0,0.0,0.0,0.0,798.20514,489.56042,784.10254,801.4286,924.3223,-0.09814453125,0.08282470703125,0.97747802734375,2.093505859375,-3.18511962890625,0.530853271484375,0.0,4.0,4.0,4.0,4.0,85.0,event
10:23:01.960,0.0,0.0,0.0,0.0,0.0,0.0,0.0,0.0,0.0,0.0,0.0,0.0,0.0,0.0,0.0,0.0,0.0,0.0,0.0,0.0,756.7033,1149.1575,776.04395,774.43225,698.2784,-0.09814453125,0.08282470703125,0.97747802734375,2.093505859375,-3.18511962890625,0.530853271484375,0.0,4.0,4.0,4.0,4.0,85.0,event
10:23:01.962,0.0,0.0,0.0,0.0,0.0,0.0,0.0,0.0,0.0,0.0,0.0,0.0,0.0,0.0,0.0,0.0,0.0,0.0,0.0,0.0,783.2967,1138.2784,778.0586,788.5348,725.6777,-0.09814453125,0.08282470703125,0.97747802734375,2.093505859375,-3.18511962890625,0.530853271484375,0.0,4.0,4.0,4.0,4.0,85.0,event
10:23:01.975,0.0,0.0,0.0,0.0,0.0,0.0,0.0,0.0,0.0,0.0,0.0,0.0,0.0,0.0,0.0,0.0,0.0,0.0,0.0,0.0,835.6777,1054.0659,780.07324,825.6044,780.4762,-0.09814453125,0.08282470703125,0.97747802734375,2.093505859375,-3.18511962890625,0.530853271484375,0.0,4.0,4.0,4.0,4.0,85.0,event
10:23:01.977,0.0,0.0,0.0,0.0,0.0,0.0,0.0,0.0,0.0,0.0,0.0,0.0,0.0,0.0,0.0,0.0,0.0,0.0,0.0,0.0,874.7619,1189.8535,795.38464,865.09155,756.30035,-0.09814453125,0.08282470703125,0.97747802734375,2.093505859375,-3.18511962890625,0.530853271484375,0.0,4.0,4.0,4.0,4.0,85.0,event
10:23:02.000,0.0,0.0,0.0,0.0,0.0,0.0,0.0,0.0,0.0,0.0,0.0,0.0,0.0,0.0,0.0,0.0,0.0,0.0,0.0,0.0,833.663,1173.3334,800.2198,848.1685,733.73627,-0.10711669921875,0.0823974609375,0.9798583984375,2.086029052734375,-3.446807861328125,0.052337646484375,0.0,4.0,4.0,4.0,4.0,85.0,event
10:23:02.001,0.0,0.0,0.0,0.0,0.0,0.0,0.0,0.0,0.0,0.0,0.0,0.0,0.0,0.0,0.0,0.0,0.0,0.0,0.0,0.0,772.8205,846.55676,788.1319,796.99634,859.45056,-0.10711669921875,0.0823974609375,0.9798583984375,2.086029052734375,-3.446807861328125,0.052337646484375,0.0,4.0,4.0,4.0,4.0,85.0,event
10:23:02.002,0.0,0.0,0.0,0.0,0.0,0.0,0.0,0.0,0.0,0.0,0.0,0.0,0.0,0.0,0.0,0.0,0.0,0.0,0.0,0.0,767.5824,730.10986,795.78754,775.2381,860.2564,-0.10711669921875,0.0823974609375,0.9798583984375,2.086029052734375,-3.446807861328125,0.052337646484375,0.0,4.0,4.0,4.0,4.0,85.0,event
10:23:02.004,0.0,0.0,0.0,0.0,0.0,0.0,0.0,0.0,0.0,0.0,0.0,0.0,0.0,0.0,0.0,0.0,0.0,0.0,0.0,0.0,803.8461,1101.6117,792.1612,783.2967,721.6484,-0.10711669921875,0.0823974609375,0.9798583984375,2.086029052734375,-3.446807861328125,0.052337646484375,0.0,4.0,4.0,4.0,4.0,85.0,event
10:23:02.005,0.0,0.0,0.0,0.0,0.0,0.0,0.0,0.0,0.0,0.0,0.0,0.0,0.0,0.0,0.0,0.0,0.0,0.0,0.0,0.0,842.52747,1217.2528,781.685,821.1722,695.8608,-0.10711669921875,0.0823974609375,0.9798583984375,2.086029052734375,-3.446807861328125,0.052337646484375,0.0,4.0,4.0,4.0,4.0,85.0,event
10:23:02.007,0.0,0.0,0.0,0.0,0.0,0.0,0.0,0.0,0.0,0.0,0.0,0.0,0.0,0.0,0.0,0.0,0.0,0.0,0.0,0.0,804.65204,826.4103,787.72894,824.7985,902.5641,-0.10711669921875,0.0823974609375,0.9798583984375,2.086029052734375,-3.446807861328125,0.052337646484375,0.0,4.0,4.0,4.0,4.0,85.0,event
10:23:02.008,0.0,0.0,0.0,0.0,0.0,0.0,0.0,0.0,0.0,0.0,0.0,0.0,0.0,0.0,0.0,0.0,0.0,0.0,0.0,0.0,756.30035,573.7729,787.326,783.2967,1027.0696,-0.10711669921875,0.0823974609375,0.9798583984375,2.086029052734375,-3.446807861328125,0.052337646484375,0.0,4.0,4.0,4.0,4.0,85.0,event
10:23:02.010,0.0,0.0,0.0,0.0,0.0,0.0,0.0,0.0,0.0,0.0,0.0,0.0,0.0,0.0,0.0,0.0,0.0,0.0,0.0,0.0,779.67035,939.2308,788.1319,782.8938,839.304,-0.10711669921875,0.0823974609375,0.9798583984375,2.086029052734375,-3.446807861328125,0.052337646484375,0.0,4.0,4.0,4.0,4.0,85.0,event
10:23:02.011,0.0,0.0,0.0,0.0,0.0,0.0,0.0,0.0,0.0,0.0,0.0,0.0,0.0,0.0,0.0,0.0,0.0,0.0,0.0,0.0,836.8865,1251.5018,793.36993,812.71063,718.4249,-0.10711669921875,0.0823974609375,0.9798583984375,2.086029052734375,-3.446807861328125,0.052337646484375,0.0,4.0,4.0,4.0,4.0,85.0,event
10:23:02.014,0.0,0.0,0.0,0.0,0.0,0.0,0.0,0.0,0.0,0.0,0.0,0.0,0.0,0.0,0.0,0.0,0.0,0.0,0.0,0.0,882.01465,871.13556,792.96704,863.0769,865.89746,-0.10711669921875,0.0823974609375,0.9798583984375,2.086029052734375,-3.446807861328125,0.052337646484375,0.0,4.0,4.0,4.0,4.0,85.0,event
10:23:02.015,0.0,0.0,0.0,0.0,0.0,0.0,0.0,0.0,0.0,0.0,0.0,0.0,0.0,0.0,0.0,0.0,0.0,0.0,0.0,0.0,826.8132,688.20514,790.14655,840.9158,894.10254,-0.10711669921875,0.0823974609375,0.9798583984375,2.086029052734375,-3.446807861328125,0.052337646484375,0.0,4.0,4.0,4.0,4.0,85.0,event
10:23:02.017,0.0,0.0,0.0,0.0,0.0,0.0,0.0,0.0,0.0,0.0,0.0,0.0,0.0,0.0,0.0,0.0,0.0,0.0,0.0,0.0,740.989,1149.5604,779.67035,765.16486,759.12085,-0.10711669921875,0.0823974609375,0.9798583984375,2.086029052734375,-3.446807861328125,0.052337646484375,0.0,4.0,4.0,4.0,4.0,85.0,event
10:23:02.039,0.0,0.0,0.0,0.0,0.0,0.0,0.0,0.0,0.0,0.0,0.0,0.0,0.0,0.0,0.0,0.0,0.0,0.0,0.0,0.0,755.89746,1154.3956,778.46155,772.01465,672.8938,-0.10711669921875,0.0823974609375,0.9798583984375,2.086029052734375,-3.446807861328125,0.052337646484375,0.0,4.0,4.0,4.0,4.0,85.0,event
10:23:02.041,0.0,0.0,0.0,0.0,0.0,0.0,0.0,0.0,0.0,0.0,0.0,0.0,0.0,0.0,0.0,0.0,0.0,0.0,0.0,0.0,807.47253,898.93774,793.7729,806.26373,713.1868,-0.10711669921875,0.0823974609375,0.9798583984375,2.086029052734375,-3.446807861328125,0.052337646484375,0.0,4.0,4.0,4.0,4.0,85.0,event
10:23:02.047,0.0,0.0,0.0,0.0,0.0,0.0,0.0,0.0,0.0,0.0,0.0,0.0,0.0,0.0,0.0,0.0,0.0,0.0,0.0,0.0,858.24176,1077.8389,792.96704,850.58606,756.30035,-0.10711669921875,0.0823974609375,0.9798583984375,2.086029052734375,-3.446807861328125,0.052337646484375,0.0,4.0,4.0,4.0,4.0,85.0,event
10:23:02.049,0.0,0.0,0.0,0.0,0.0,0.0,0.0,0.0,0.0,0.0,0.0,0.0,0.0,0.0,0.0,0.0,0.0,0.0,0.0,0.0,852.1978,1182.6007,778.0586,852.1978,744.21246,-0.10711669921875,0.0823974609375,0.9798583984375,2.086029052734375,-3.446807861328125,0.052337646484375,0.0,4.0,4.0,4.0,4.0,85.0,event
10:23:02.051,0.0,0.0,0.0,0.0,0.0,0.0,0.0,0.0,0.0,0.0,0.0,0.0,0.0,0.0,0.0,0.0,0.0,0.0,0.0,0.0,789.7436,880.40295,780.4762,797.8022,829.2308,-0.10711669921875,0.0823974609375,0.9798583984375,2.086029052734375,-3.446807861328125,0.052337646484375,0.0,4.0,4.0,4.0,4.0,85.0,event
10:23:02.053,0.0,0.0,0.0,0.0,0.0,0.0,0.0,0.0,0.0,0.0,0.0,0.0,0.0,0.0,0.0,0.0,0.0,0.0,0.0,0.0,773.6264,321.13553,789.34064,803.44324,1095.1648,-0.10711669921875,0.0823974609375,0.9798583984375,2.086029052734375,-3.446807861328125,0.052337646484375,0.0,4.0,4.0,4.0,4.0,85.0,event
10:23:02.054,0.0,0.0,0.0,0.0,0.0,0.0,0.0,0.0,0.0,0.0,0.0,0.0,0.0,0.0,0.0,0.0,0.0,0.0,0.0,0.0,814.3223,469.011,790.54944,828.022,1013.7729,-0.10711669921875,0.0823974609375,0.9798583984375,2.086029052734375,-3.446807861328125,0.052337646484375,0.0,4.0,4.0,4.0,4.0,85.0,event
10:23:02.056,0.0,0.0,0.0,0.0,0.0,0.0,0.0,0.0,0.0,0.0,0.0,0.0,0.0,0.0,0.0,0.0,0.0,0.0,0.0,0.0,856.2271,1153.1868,790.54944,825.6044,714.3956,-0.10711669921875,0.0823974609375,0.9798583984375,2.086029052734375,-3.446807861328125,0.052337646484375,0.0,4.0,4.0,4.0,4.0,85.0,event
10:23:02.057,0.0,0.0,0.0,0.0,0.0,0.0,0.0,0.0,0.0,0.0,0.0,0.0,0.0,0.0,0.0,0.0,0.0,0.0,0.0,0.0,826.4103,1078.6447,783.2967,804.2491,765.9707,-0.10711669921875,0.0823974609375,0.9798583984375,2.086029052734375,-3.446807861328125,0.052337646484375,0.0,4.0,4.0,4.0,4.0,85.0,event
10:23:02.059,0.0,0.0,0.0,0.0,0.0,0.0,0.0,0.0,0.0,0.0,0.0,0.0,0.0,0.0,0.0,0.0,0.0,0.0,0.0,0.0,763.5531,502.85715,787.72894,772.8205,923.1135,-0.10711669921875,0.0823974609375,0.9798583984375,2.086029052734375,-3.446807861328125,0.052337646484375,0.0,4.0,4.0,4.0,4.0,85.0,event
10:23:02.060,0.0,0.0,0.0,0.0,0.0,0.0,0.0,0.0,0.0,0.0,0.0,0.0,0.0,0.0,0.0,0.0,0.0,0.0,0.0,0.0,780.07324,942.0513,796.1905,798.60803,812.71063,-0.10711669921875,0.0823974609375,0.9798583984375,2.086029052734375,-3.446807861328125,0.052337646484375,0.0,4.0,4.0,4.0,4.0,85.0,event
10:23:02.062,0.0,0.0,0.0,0.0,0.0,0.0,0.0,0.0,0.0,0.0,0.0,0.0,0.0,0.0,0.0,0.0,0.0,0.0,0.0,0.0,832.4542,1323.6263,790.14655,820.3663,687.3993,-0.10711669921875,0.0823974609375,0.9798583984375,2.086029052734375,-3.446807861328125,0.052337646484375,0.0,4.0,4.0,4.0,4.0,85.0,event
10:23:02.089,0.0,0.0,0.0,0.0,0.0,0.0,0.0,0.0,0.0,0.0,0.0,0.0,0.0,0.0,0.0,0.0,0.0,0.0,0.0,0.0,849.3773,1159.6337,779.67035,837.6923,793.7729,-0.102783203125,0.08831787109375,0.9840087890625,2.213134765625,-4.05242919921875,0.710296630859375,0.0,4.0,4.0,4.0,4.0,85.0,event
10:23:02.091,0.0,0.0,0.0,0.0,0.0,0.0,0.0,0.0,0.0,0.0,0.0,0.0,0.0,0.0,0.0,0.0,0.0,0.0,0.0,0.0,839.707,1066.9597,780.87915,839.304,836.08057,-0.102783203125,0.08831787109375,0.9840087890625,2.213134765625,-4.05242919921875,0.710296630859375,0.0,4.0,4.0,4.0,4.0,85.0,event
10:23:02.093,0.0,0.0,0.0,0.0,0.0,0.0,0.0,0.0,0.0,0.0,0.0,0.0,0.0,0.0,0.0,0.0,0.0,0.0,0.0,0.0,780.4762,1082.2711,783.69965,792.5641,706.7399,-0.102783203125,0.08831787109375,0.9840087890625,2.213134765625,-4.05242919921875,0.710296630859375,0.0,4.0,4.0,4.0,4.0,85.0,event
10:23:02.095,0.0,0.0,0.0,0.0,0.0,0.0,0.0,0.0,0.0,0.0,0.0,0.0,0.0,0.0,0.0,0.0,0.0,0.0,0.0,0.0,762.74725,1133.8462,783.2967,786.9231,641.06226,-0.102783203125,0.08831787109375,0.9840087890625,2.213134765625,-4.05242919921875,0.710296630859375,0.0,4.0,4.0,4.0,4.0,85.0,event
10:23:02.096,0.0,0.0,0.0,0.0,0.0,0.0,0.0,0.0,0.0,0.0,0.0,0.0,0.0,0.0,0.0,0.0,0.0,0.0,0.0,0.0,811.9048,973.47986,779.2674,801.4286,692.6374,-0.102783203125,0.08831787109375,0.9840087890625,2.213134765625,-4.05242919921875,0.710296630859375,0.0,4.0,4.0,4.0,4.0,85.0,event
10:23:02.098,0.0,0.0,0.0,0.0,0.0,0.0,0.0,0.0,0.0,0.0,0.0,0.0,0.0,0.0,0.0,0.0,0.0,0.0,0.0,0.0,865.09155,771.6117,782.0879,830.4396,805.8608,-0.102783203125,0.08831787109375,0.9840087890625,2.213134765625,-4.05242919921875,0.710296630859375,0.0,4.0,4.0,4.0,4.0,85.0,event
10:23:02.100,0.0,0.0,0.0,0.0,0.0,0.0,0.0,0.0,0.0,0.0,0.0,0.0,0.0,0.0,0.0,0.0,0.0,0.0,0.0,0.0,865.09155,726.08057,782.0879,846.1539,840.9158,-0.102783203125,0.08831787109375,0.9840087890625,2.213134765625,-4.05242919921875,0.710296630859375,0.0,4.0,4.0,4.0,4.0,85.0,event
10:23:02.101,0.0,0.0,0.0,0.0,0.0,0.0,0.0,0.0,0.0,0.0,0.0,0.0,0.0,0.0,0.0,0.0,0.0,0.0,0.0,0.0,798.60803,819.5604,778.86444,801.02563,784.10254,-0.102783203125,0.08831787109375,0.9840087890625,2.213134765625,-4.05242919921875,0.710296630859375,0.0,4.0,4.0,4.0,4.0,85.0,event
10:23:02.103,0.0,0.0,0.0,0.0,0.0,0.0,0.0,0.0,0.0,0.0,0.0,0.0,0.0,0.0,0.0,0.0,0.0,0.0,0.0,0.0,774.0293,643.0769,782.0879,793.7729,875.16486,-0.102783203125,0.08831787109375,0.9840087890625,2.213134765625,-4.05242919921875,0.710296630859375,0.0,4.0,4.0,4.0,4.0,85.0,event
10:23:02.105,0.0,0.0,0.0,0.0,0.0,0.0,0.0,0.0,0.0,0.0,0.0,0.0,0.0,0.0,0.0,0.0,0.0,0.0,0.0,0.0,796.99634,113.22344,788.1319,803.44324,1050.4396,-0.102783203125,0.08831787109375,0.9840087890625,2.213134765625,-4.05242919921875,0.710296630859375,0.0,4.0,4.0,4.0,4.0,85.0,event
10:23:02.106,0.0,0.0,0.0,0.0,0.0,0.0,0.0,0.0,0.0,0.0,0.0,0.0,0.0,0.0,0.0,0.0,0.0,0.0,0.0,0.0,855.42126,778.46155,793.36993,813.5165,794.17584,-0.102783203125,0.08831787109375,0.9840087890625,2.213134765625,-4.05242919921875,0.710296630859375,0.0,4.0,4.0,4.0,4.0,85.0,event
10:23:02.108,0.0,0.0,0.0,0.0,0.0,0.0,0.0,0.0,0.0,0.0,0.0,0.0,0.0,0.0,0.0,0.0,0.0,0.0,0.0,0.0,875.9707,1256.337,784.90845,836.8865,683.7729,-0.102783203125,0.08831787109375,0.9840087890625,2.213134765625,-4.05242919921875,0.710296630859375,0.0,4.0,4.0,4.0,4.0,85.0,event
10:23:02.130,0.0,0.0,0.0,0.0,0.0,0.0,0.0,0.0,0.0,0.0,0.0,0.0,0.0,0.0,0.0,0.0,0.0,0.0,0.0,0.0,792.5641,900.9524,775.2381,804.65204,777.6557,-0.10150146484375,0.08038330078125,0.9761962890625,1.861724853515625,-4.299163818359375,0.022430419921875,0.0,4.0,4.0,4.0,4.0,85.0,event
10:23:02.132,0.0,0.0,0.0,0.0,0.0,0.0,0.0,0.0,0.0,0.0,0.0,0.0,0.0,0.0,0.0,0.0,0.0,0.0,0.0,0.0,751.4652,1064.1392,782.0879,773.6264,722.0513,-0.10150146484375,0.08038330078125,0.9761962890625,1.861724853515625,-4.299163818359375,0.022430419921875,0.0,4.0,4.0,4.0,4.0,85.0,event
10:23:02.133,0.0,0.0,0.0,0.0,0.0,0.0,0.0,0.0,0.0,0.0,0.0,0.0,0.0,0.0,0.0,0.0,0.0,0.0,0.0,0.0,805.4579,1317.5824,783.2967,807.8755,720.84247,-0.10150146484375,0.08038330078125,0.9761962890625,1.861724853515625,-4.299163818359375,0.022430419921875,0.0,4.0,4.0,4.0,4.0,85.0,event
10:23:02.135,0.0,0.0,0.0,0.0,0.0,0.0,0.0,0.0,0.0,0.0,0.0,0.0,0.0,0.0,0.0,0.0,0.0,0.0,0.0,0.0,874.7619,1227.7289,788.1319,854.61536,742.1978,-0.10150146484375,0.08038330078125,0.9761962890625,1.861724853515625,-4.299163818359375,0.022430419921875,0.0,4.0,4.0,4.0,4.0,85.0,event
10:23:02.137,0.0,0.0,0.0,0.0,0.0,0.0,0.0,0.0,0.0,0.0,0.0,0.0,0.0,0.0,0.0,0.0,0.0,0.0,0.0,0.0,882.01465,986.77655,789.7436,861.8681,831.6484,-0.10150146484375,0.08038330078125,0.9761962890625,1.861724853515625,-4.299163818359375,0.022430419921875,0.0,4.0,4.0,4.0,4.0,85.0,event
10:23:02.139,0.0,0.0,0.0,0.0,0.0,0.0,0.0,0.0,0.0,0.0,0.0,0.0,0.0,0.0,0.0,0.0,0.0,0.0,0.0,0.0,812.71063,870.7326,782.0879,822.381,849.3773,-0.10150146484375,0.08038330078125,0.9761962890625,1.861724853515625,-4.299163818359375,0.022430419921875,0.0,4.0,4.0,4.0,4.0,85.0,event
10:23:02.141,0.0,0.0,0.0,0.0,0.0,0.0,0.0,0.0,0.0,0.0,0.0,0.0,0.0,0.0,0.0,0.0,0.0,0.0,0.0,0.0,769.19415,877.5824,785.31134,805.4579,836.4835,-0.10150146484375,0.08038330078125,0.9761962890625,1.861724853515625,-4.299163818359375,0.022430419921875,0.0,4.0,4.0,4.0,4.0,85.0,event
10:23:02.144,0.0,0.0,0.0,0.0,0.0,0.0,0.0,0.0,0.0,0.0,0.0,0.0,0.0,0.0,0.0,0.0,0.0,0.0,0.0,0.0,803.44324,886.8498,791.3553,803.44324,905.38464,-0.10150146484375,0.08038330078125,0.9761962890625,1.861724853515625,-4.299163818359375,0.022430419921875,0.0,4.0,4.0,4.0,4.0,85.0,event
10:23:02.146,0.0,0.0,0.0,0.0,0.0,0.0,0.0,0.0,0.0,0.0,0.0,0.0,0.0,0.0,0.0,0.0,0.0,0.0,0.0,0.0,840.10986,369.48718,787.326,809.4872,1011.75824,-0.10150146484375,0.08038330078125,0.9761962890625,1.861724853515625,-4.299163818359375,0.022430419921875,0.0,4.0,4.0,4.0,4.0,85.0,event
10:23:02.148,0.0,0.0,0.0,0.0,0.0,0.0,0.0,0.0,0.0,0.0,0.0,0.0,0.0,0.0,0.0,0.0,0.0,0.0,0.0,0.0,846.9597,538.71796,781.28204,835.2747,900.9524,-0.10150146484375,0.08038330078125,0.9761962890625,1.861724853515625,-4.299163818359375,0.022430419921875,0.0,4.0,4.0,4.0,4.0,85.0,event
10:23:02.150,0.0,0.0,0.0,0.0,0.0,0.0,0.0,0.0,0.0,0.0,0.0,0.0,0.0,0.0,0.0,0.0,0.0,0.0,0.0,0.0,817.5458,1035.1282,784.5055,815.9341,762.3443,-0.10150146484375,0.08038330078125,0.9761962890625,1.861724853515625,-4.299163818359375,0.022430419921875,0.0,4.0,4.0,4.0,4.0,85.0,event
10:23:02.152,0.0,0.0,0.0,0.0,0.0,0.0,0.0,0.0,0.0,0.0,0.0,0.0,0.0,0.0,0.0,0.0,0.0,0.0,0.0,0.0,787.72894,840.5128,790.9524,811.50183,778.46155,-0.10150146484375,0.08038330078125,0.9761962890625,1.861724853515625,-4.299163818359375,0.022430419921875,0.0,4.0,4.0,4.0,4.0,85.0,event
10:23:02.174,0.0,0.0,0.0,0.0,0.0,0.0,0.0,0.0,0.0,0.0,0.0,0.0,0.0,0.0,0.0,0.0,0.0,0.0,0.0,0.0,818.3516,793.36993,789.7436,824.3956,778.0586,-0.09588623046875,0.08148193359375,0.97955322265625,1.742095947265625,-3.96270751953125,-0.28411865234375,0.0,4.0,4.0,4.0,4.0,85.0,event
10:23:02.176,0.0,0.0,0.0,0.0,0.0,0.0,0.0,0.0,0.0,0.0,0.0,0.0,0.0,0.0,0.0,0.0,0.0,0.0,0.0,0.0,841.7216,1156.8132,791.3553,829.2308,675.31134,-0.09588623046875,0.08148193359375,0.97955322265625,1.742095947265625,-3.96270751953125,-0.28411865234375,0.0,4.0,4.0,4.0,4.0,85.0,event
10:23:02.182,0.0,0.0,0.0,0.0,0.0,0.0,0.0,0.0,0.0,0.0,0.0,0.0,0.0,0.0,0.0,0.0,0.0,0.0,0.0,0.0,848.5714,1300.6593,794.17584,846.55676,694.65204,-0.09588623046875,0.08148193359375,0.97955322265625,1.742095947265625,-3.96270751953125,-0.28411865234375,0.0,4.0,4.0,4.0,4.0,85.0,event
10:23:02.184,0.0,0.0,0.0,0.0,0.0,0.0,0.0,0.0,0.0,0.0,0.0,0.0,0.0,0.0,0.0,0.0,0.0,0.0,0.0,0.0,813.91943,1082.2711,783.69965,817.5458,794.17584,-0.09588623046875,0.08148193359375,0.97955322265625,1.742095947265625,-3.96270751953125,-0.28411865234375,0.0,4.0,4.0,4.0,4.0,85.0,event
10:23:02.186,0.0,0.0,0.0,0.0,0.0,0.0,0.0,0.0,0.0,0.0,0.0,0.0,0.0,0.0,0.0,0.0,0.0,0.0,0.0,0.0,767.1795,1019.41394,788.93774,780.07324,748.24176,-0.09588623046875,0.08148193359375,0.97955322265625,1.742095947265625,-3.96270751953125,-0.28411865234375,0.0,4.0,4.0,4.0,4.0,85.0,event
10:23:02.187,0.0,0.0,0.0,0.0,0.0,0.0,0.0,0.0,0.0,0.0,0.0,0.0,0.0,0.0,0.0,0.0,0.0,0.0,0.0,0.0,768.7912,921.50183,786.1172,775.2381,767.98535,-0.09588623046875,0.08148193359375,0.97955322265625,1.742095947265625,-3.96270751953125,-0.28411865234375,0.0,4.0,4.0,4.0,4.0,85.0,event
10:23:02.189,0.0,0.0,0.0,0.0,0.0,0.0,0.0,0.0,0.0,0.0,0.0,0.0,0.0,0.0,0.0,0.0,0.0,0.0,0.0,0.0,825.2015,925.9341,782.0879,815.12823,773.6264,-0.09588623046875,0.08148193359375,0.97955322265625,1.742095947265625,-3.96270751953125,-0.28411865234375,0.0,4.0,4.0,4.0,4.0,85.0,event
10:23:02.191,0.0,0.0,0.0,0.0,0.0,0.0,0.0,0.0,0.0,0.0,0.0,0.0,0.0,0.0,0.0,0.0,0.0,0.0,0.0,0.0,860.2564,732.1245,788.5348,855.42126,859.45056,-0.09588623046875,0.08148193359375,0.97955322265625,1.742095947265625,-3.96270751953125,-0.28411865234375,0.0,4.0,4.0,4.0,4.0,85.0,event
10:23:02.192,0.0,0.0,0.0,0.0,0.0,0.0,0.0,0.0,0.0,0.0,0.0,0.0,0.0,0.0,0.0,0.0,0.0,0.0,0.0,0.0,813.91943,294.1392,792.1612,818.3516,967.03296,-0.09588623046875,0.08148193359375,0.97955322265625,1.742095947265625,-3.96270751953125,-0.28411865234375,0.0,4.0,4.0,4.0,4.0,85.0,event
10:23:02.194,0.0,0.0,0.0,0.0,0.0,0.0,0.0,0.0,0.0,0.0,0.0,0.0,0.0,0.0,0.0,0.0,0.0,0.0,0.0,0.0,778.0586,913.0403,791.3553,777.6557,713.1868,-0.09588623046875,0.08148193359375,0.97955322265625,1.742095947265625,-3.96270751953125,-0.28411865234375,0.0,4.0,4.0,4.0,4.0,85.0,event
10:23:02.196,0.0,0.0,0.0,0.0,0.0,0.0,0.0,0.0,0.0,0.0,0.0,0.0,0.0,0.0,0.0,0.0,0.0,0.0,0.0,0.0,792.1612,1232.1611,792.96704,788.5348,627.3626,-0.09588623046875,0.08148193359375,0.97955322265625,1.742095947265625,-3.96270751953125,-0.28411865234375,0.0,4.0,4.0,4.0,4.0,85.0,event
10:23:02.198,0.0,0.0,0.0,0.0,0.0,0.0,0.0,0.0,0.0,0.0,0.0,0.0,0.0,0.0,0.0,0.0,0.0,0.0,0.0,0.0,813.5165,964.61536,795.38464,803.44324,743.00366,-0.09588623046875,0.08148193359375,0.97955322265625,1.742095947265625,-3.96270751953125,-0.28411865234375,0.0,4.0,4.0,4.0,4.0,85.0,event
10:23:02.225,0.0,0.0,0.0,0.0,0.0,0.0,0.0,0.0,0.0,0.0,0.0,0.0,0.0,0.0,0.0,0.0,0.0,0.0,0.0,0.0,849.3773,1135.0549,792.1612,842.9304,770.80585,-0.09552001953125,0.07916259765625,0.9786376953125,1.577606201171875,-4.418792724609375,0.2691650390625,0.0,4.0,4.0,4.0,4.0,85.0,event
10:23:02.228,0.0,0.0,0.0,0.0,0.0,0.0,0.0,0.0,0.0,0.0,0.0,0.0,0.0,0.0,0.0,0.0,0.0,0.0,0.0,0.0,846.9597,1154.7986,786.52014,844.94507,745.42126,-0.09552001953125,0.07916259765625,0.9786376953125,1.577606201171875,-4.418792724609375,0.2691650390625,0.0,4.0,4.0,4.0,4.0,85.0,event
10:23:02.232,0.0,0.0,0.0,0.0,0.0,0.0,0.0,0.0,0.0,0.0,0.0,0.0,0.0,0.0,0.0,0.0,0.0,0.0,0.0,0.0,809.4872,852.1978,790.54944,815.12823,806.26373,-0.09552001953125,0.07916259765625,0.9786376953125,1.577606201171875,-4.418792724609375,0.2691650390625,0.0,4.0,4.0,4.0,4.0,85.0,event
10:23:02.235,0.0,0.0,0.0,0.0,0.0,0.0,0.0,0.0,0.0,0.0,0.0,0.0,0.0,0.0,0.0,0.0,0.0,0.0,0.0,0.0,796.5934,614.0659,796.99634,810.696,882.01465,-0.09552001953125,0.07916259765625,0.9786376953125,1.577606201171875,-4.418792724609375,0.2691650390625,0.0,4.0,4.0,4.0,4.0,85.0,event
