TimeStamp,Delta_TP9,Delta_AF7,Delta_AF8,Delta_TP10,Theta_TP9,Theta_AF7,Theta_AF8,Theta_TP10,Alpha_TP9,Alpha_AF7,Alpha_AF8,Alpha_TP10,Beta_TP9,Beta_AF7,Beta_AF8,Beta_TP10,Gamma_TP9,Gamma_AF7,Gamma_AF8,Gamma_TP10,RAW_TP9,RAW_AF7,RAW_AF8,RAW_TP10,AUX_RIGHT,Accelerometer_X,Accelerometer_Y,Accelerometer_Z,Gyro_X,Gyro_Y,Gyro_Z,HeadBandOn,HSI_TP9,HSI_AF7,HSI_AF8,HSI_TP10,Battery,Elements
09:18:46.211,1.0030543,0.0,0.0,1.1401681,0.521343,0.0,0.0,0.8302219,0.7180645,0.0,0.0,0.83268213,0.82602614,0.0,0.0,0.82912755,0.7193033,0.0,0.0,0.6226703,838.9011,1089.5238,1058.4982,837.6923,730.9158,-0.13995361328125,0.1121826171875,0.9700927734375,2.160797119140625,-3.342132568359375,0.276641845703125,1.0,1.0,4.0,4.0,1.0,95.0,event
09:18:46.212,1.0030543,0.0,0.0,1.1401681,0.521343,0.0,0.0,0.8302219,0.7180645,0.0,0.0,0.83268213,0.82602614,0.0,0.0,0.82912755,0.7193033,0.0,0.0,0.6226703,855.42126,996.04395,948.9011,854.61536,833.2601,-0.13995361328125,0.1121826171875,0.9700927734375,2.160797119140625,-3.342132568359375,0.276641845703125,1.0,1.0,4.0,4.0,1.0,95.0,event
09:18:46.213,1.0030543,0.0,0.0,1.1401681,0.521343,0.0,0.0,0.8302219,0.7180645,0.0,0.0,0.83268213,0.82602614,0.0,0.0,0.82912755,0.7193033,0.0,0.0,0.6226703,814.7253,602.7839,580.6227,812.3077,837.28937,-0.13995361328125,0.1121826171875,0.9700927734375,2.160797119140625,-3.342132568359375,0.276641845703125,1.0,1.0,4.0,4.0,1.0,95.0,event
09:18:46.214,1.0030543,0.0,0.0,1.1401681,0.521343,0.0,0.0,0.8302219,0.7180645,0.0,0.0,0.83268213,0.82602614,0.0,0.0,0.82912755,0.7193033,0.0,0.0,0.6226703,779.67035,761.53845,738.5714,780.87915,735.34796,-0.13995361328125,0.1121826171875,0.9700927734375,2.160797119140625,-3.342132568359375,0.276641845703125,1.0,1.0,4.0,4.0,1.0,95.0,event
09:18:46.214,1.0030543,0.0,0.0,1.1401681,0.521343,0.0,0.0,0.8302219,0.7180645,0.0,0.0,0.83268213,0.82602614,0.0,0.0,0.82912755,0.7193033,0.0,0.0,0.6226703,775.2381,1020.2198,992.01465,774.43225,729.707,-0.13995361328125,0.1121826171875,0.9700927734375,2.160797119140625,-3.342132568359375,0.276641845703125,1.0,1.0,4.0,4.0,1.0,95.0,event
09:18:46.215,1.0030543,0.0,0.0,1.1401681,0.521343,0.0,0.0,0.8302219,0.7180645,0.0,0.0,0.83268213,0.82602614,0.0,0.0,0.82912755,0.7193033,0.0,0.0,0.6226703,784.5055,870.7326,873.95605,795.78754,803.0403,-0.13995361328125,0.1121826171875,0.9700927734375,2.160797119140625,-3.342132568359375,0.276641845703125,1.0,1.0,4.0,4.0,1.0,95.0,event
09:18:46.215,1.0030543,0.0,0.0,1.1401681,0.521343,0.0,0.0,0.8302219,0.7180645,0.0,0.0,0.83268213,0.82602614,0.0,0.0,0.82912755,0.7193033,0.0,0.0,0.6226703,797.8022,306.2271,326.37363,818.7546,1018.60803,-0.13995361328125,0.1121826171875,0.9700927734375,2.160797119140625,-3.342132568359375,0.276641845703125,1.0,1.0,4.0,4.0,1.0,95.0,event
09:18:46.216,1.0030543,0.0,0.0,1.1401681,0.521343,0.0,0.0,0.8302219,0.7180645,0.0,0.0,0.83268213,0.82602614,0.0,0.0,0.82912755,0.7193033,0.0,0.0,0.6226703,790.54944,251.02563,223.62637,791.3553,979.12085,-0.13995361328125,0.1121826171875,0.9700927734375,2.160797119140625,-3.342132568359375,0.276641845703125,1.0,1.0,4.0,4.0,1.0,95.0,event
09:18:46.216,1.0030543,0.0,0.0,1.1401681,0.521343,0.0,0.0,0.8302219,0.7180645,0.0,0.0,0.83268213,0.82602614,0.0,0.0,0.82912755,0.7193033,0.0,0.0,0.6226703,774.0293,918.2784,842.9304,769.59705,697.0696,-0.13995361328125,0.1121826171875,0.9700927734375,2.160797119140625,-3.342132568359375,0.276641845703125,1.0,1.0,4.0,4.0,1.0,95.0,event
09:18:46.217,1.0030543,0.0,0.0,1.1401681,0.521343,0.0,0.0,0.8302219,0.7180645,0.0,0.0,0.83268213,0.82602614,0.0,0.0,0.82912755,0.7193033,0.0,0.0,0.6226703,800.2198,746.63007,777.6557,808.2784,850.18317,-0.13995361328125,0.1121826171875,0.9700927734375,2.160797119140625,-3.342132568359375,0.276641845703125,1.0,1.0,4.0,4.0,1.0,95.0,event
09:18:46.217,1.0030543,0.0,0.0,1.1401681,0.521343,0.0,0.0,0.8302219,0.7180645,0.0,0.0,0.83268213,0.82602614,0.0,0.0,0.82912755,0.7193033,0.0,0.0,0.6226703,788.1319,1008.93774,982.74725,779.2674,717.619,-0.13995361328125,0.1121826171875,0.9700927734375,2.160797119140625,-3.342132568359375,0.276641845703125,1.0,1.0,4.0,4.0,1.0,95.0,event
09:18:46.218,1.0030543,0.0,0.0,1.1401681,0.521343,0.0,0.0,0.8302219,0.7180645,0.0,0.0,0.83268213,0.82602614,0.0,0.0,0.82912755,0.7193033,0.0,0.0,0.6226703,790.14655,778.86444,757.50916,825.6044,849.3773,-0.13995361328125,0.1121826171875,0.9700927734375,2.160797119140625,-3.342132568359375,0.276641845703125,1.0,1.0,4.0,4.0,1.0,95.0,event
09:18:46.283,1.0030543,0.0,0.0,1.1401681,0.521343,0.0,0.0,0.8302219,0.7180645,0.0,0.0,0.83268213,0.82602614,0.0,0.0,0.82912755,0.7193033,0.0,0.0,0.6226703,790.14655,999.2674,909.011,815.12823,720.84247,-0.1395263671875,0.11810302734375,0.97247314453125,2.235565185546875,-3.15521240234375,-0.082244873046875,1.0,1.0,4.0,4.0,1.0,95.0,event
09:18:46.284,1.0030543,0.0,0.0,1.1401681,0.521343,0.0,0.0,0.8302219,0.7180645,0.0,0.0,0.83268213,0.82602614,0.0,0.0,0.82912755,0.7193033,0.0,0.0,0.6226703,781.28204,790.9524,762.3443,788.5348,715.2015,-0.1395263671875,0.11810302734375,0.97247314453125,2.235565185546875,-3.15521240234375,-0.082244873046875,1.0,1.0,4.0,4.0,1.0,95.0,event
09:18:46.285,1.0030543,0.0,0.0,1.1401681,0.521343,0.0,0.0,0.8302219,0.7180645,0.0,0.0,0.83268213,0.82602614,0.0,0.0,0.82912755,0.7193033,0.0,0.0,0.6226703,775.64105,554.0293,616.4835,780.4762,834.0659,-0.1395263671875,0.11810302734375,0.97247314453125,2.235565185546875,-3.15521240234375,-0.082244873046875,1.0,1.0,4.0,4.0,1.0,95.0,event
09:18:46.286,1.0030543,0.0,0.0,1.1401681,0.521343,0.0,0.0,0.8302219,0.7180645,0.0,0.0,0.83268213,0.82602614,0.0,0.0,0.82912755,0.7193033,0.0,0.0,0.6226703,794.9817,887.6557,898.5348,817.9487,744.61536,-0.1395263671875,0.11810302734375,0.97247314453125,2.235565185546875,-3.15521240234375,-0.082244873046875,1.0,1.0,4.0,4.0,1.0,95.0,event
09:18:46.286,1.0030543,0.0,0.0,1.1401681,0.521343,0.0,0.0,0.8302219,0.7180645,0.0,0.0,0.83268213,0.82602614,0.0,0.0,0.82912755,0.7193033,0.0,0.0,0.6226703,806.26373,1071.392,1009.7436,826.8132,680.14655,-0.1395263671875,0.11810302734375,0.97247314453125,2.235565185546875,-3.15521240234375,-0.082244873046875,1.0,1.0,4.0,4.0,1.0,95.0,event
09:18:46.287,0.9820657,0.0,0.0,1.131252,0.49418464,0.0,0.0,0.8217541,0.72150105,0.0,0.0,0.83268213,0.8261213,0.0,0.0,0.84308016,0.71523595,0.0,0.0,0.61137867,800.6227,533.8828,516.9597,805.4579,880.40295,-0.1395263671875,0.11810302734375,0.97247314453125,2.235565185546875,-3.15521240234375,-0.082244873046875,1.0,1.0,4.0,4.0,1.0,95.0,event
09:18:46.291,0.9820657,0.0,0.0,1.131252,0.49418464,0.0,0.0,0.8217541,0.72150105,0.0,0.0,0.83268213,0.8261213,0.0,0.0,0.84308016,0.71523595,0.0,0.0,0.61137867,790.9524,159.96336,179.70695,794.9817,985.16486,-0.1395263671875,0.11810302734375,0.97247314453125,2.235565185546875,-3.15521240234375,-0.082244873046875,1.0,1.0,4.0,4.0,1.0,95.0,event
09:18:46.292,0.9820657,0.0,0.0,1.131252,0.49418464,0.0,0.0,0.8217541,0.72150105,0.0,0.0,0.83268213,0.8261213,0.0,0.0,0.84308016,0.71523595,0.0,0.0,0.61137867,794.57874,736.9597,696.6667,792.1612,797.3993,-0.1395263671875,0.11810302734375,0.97247314453125,2.235565185546875,-3.15521240234375,-0.082244873046875,1.0,1.0,4.0,4.0,1.0,95.0,event
09:18:46.293,0.9820657,0.0,0.0,1.131252,0.49418464,0.0,0.0,0.8217541,0.72150105,0.0,0.0,0.83268213,0.8261213,0.0,0.0,0.84308016,0.71523595,0.0,0.0,0.61137867,801.02563,1162.0513,1084.6886,807.8755,722.8571,-0.1395263671875,0.11810302734375,0.97247314453125,2.235565185546875,-3.15521240234375,-0.082244873046875,1.0,1.0,4.0,4.0,1.0,95.0,event
09:18:46.294,0.9820657,0.0,0.0,1.131252,0.49418464,0.0,0.0,0.8217541,0.72150105,0.0,0.0,0.83268213,0.8261213,0.0,0.0,0.84308016,0.71523595,0.0,0.0,0.61137867,784.90845,495.20148,525.82416,808.2784,914.2491,-0.1395263671875,0.11810302734375,0.97247314453125,2.235565185546875,-3.15521240234375,-0.082244873046875,1.0,1.0,4.0,4.0,1.0,95.0,event
09:18:46.294,0.9820657,0.0,0.0,1.131252,0.49418464,0.0,0.0,0.8217541,0.72150105,0.0,0.0,0.83268213,0.8261213,0.0,0.0,0.84308016,0.71523595,0.0,0.0,0.61137867,798.20514,738.1685,750.2564,824.3956,894.5055,-0.1395263671875,0.11810302734375,0.97247314453125,2.235565185546875,-3.15521240234375,-0.082244873046875,1.0,1.0,4.0,4.0,1.0,95.0,event
09:18:46.295,0.9820657,0.0,0.0,1.131252,0.49418464,0.0,0.0,0.8217541,0.72150105,0.0,0.0,0.83268213,0.8261213,0.0,0.0,0.84308016,0.71523595,0.0,0.0,0.61137867,777.25275,906.1905,836.08057,791.3553,720.84247,-0.1395263671875,0.11810302734375,0.97247314453125,2.235565185546875,-3.15521240234375,-0.082244873046875,1.0,1.0,4.0,4.0,1.0,95.0,event
09:18:46.320,0.9820657,0.0,0.0,1.131252,0.49418464,0.0,0.0,0.8217541,0.72150105,0.0,0.0,0.83268213,0.8261213,0.0,0.0,0.84308016,0.71523595,0.0,0.0,0.61137867,790.9524,1030.2931,989.19415,801.8315,707.5458,-0.142333984375,0.11492919921875,0.969482421875,2.25799560546875,-3.4991455078125,0.418701171875,1.0,1.0,4.0,4.0,1.0,95.0,event
09:18:46.321,0.9820657,0.0,0.0,1.131252,0.49418464,0.0,0.0,0.8217541,0.72150105,0.0,0.0,0.83268213,0.8261213,0.0,0.0,0.84308016,0.71523595,0.0,0.0,0.61137867,806.26373,798.60803,823.5897,818.7546,823.1868,-0.142333984375,0.11492919921875,0.969482421875,2.25799560546875,-3.4991455078125,0.418701171875,1.0,1.0,4.0,4.0,1.0,95.0,event
09:18:46.322,0.9820657,0.0,0.0,1.131252,0.49418464,0.0,0.0,0.8217541,0.72150105,0.0,0.0,0.83268213,0.8261213,0.0,0.0,0.84308016,0.71523595,0.0,0.0,0.61137867,812.71063,729.304,727.6923,824.3956,885.64105,-0.142333984375,0.11492919921875,0.969482421875,2.25799560546875,-3.4991455078125,0.418701171875,1.0,1.0,4.0,4.0,1.0,95.0,event
09:18:46.322,0.9820657,0.0,0.0,1.131252,0.49418464,0.0,0.0,0.8217541,0.72150105,0.0,0.0,0.83268213,0.8261213,0.0,0.0,0.84308016,0.71523595,0.0,0.0,0.61137867,802.23444,951.7216,880.0,803.0403,836.08057,-0.142333984375,0.11492919921875,0.969482421875,2.25799560546875,-3.4991455078125,0.418701171875,1.0,1.0,4.0,4.0,1.0,95.0,event
09:18:46.323,0.9820657,0.0,0.0,1.131252,0.49418464,0.0,0.0,0.8217541,0.72150105,0.0,0.0,0.83268213,0.8261213,0.0,0.0,0.84308016,0.71523595,0.0,0.0,0.61137867,788.93774,982.3443,915.05493,783.2967,716.4103,-0.142333984375,0.11492919921875,0.969482421875,2.25799560546875,-3.4991455078125,0.418701171875,1.0,1.0,4.0,4.0,1.0,95.0,event
09:18:46.323,0.9820657,0.0,0.0,1.131252,0.49418464,0.0,0.0,0.8217541,0.72150105,0.0,0.0,0.83268213,0.8261213,0.0,0.0,0.84308016,0.71523595,0.0,0.0,0.61137867,785.7143,417.03296,458.13187,770.80585,982.74725,-0.142333984375,0.11492919921875,0.969482421875,2.25799560546875,-3.4991455078125,0.418701171875,1.0,1.0,4.0,4.0,1.0,95.0,event
09:18:46.324,0.9820657,0.0,0.0,1.131252,0.49418464,0.0,0.0,0.8217541,0.72150105,0.0,0.0,0.83268213,0.8261213,0.0,0.0,0.84308016,0.71523595,0.0,0.0,0.61137867,803.44324,141.02563,211.94139,788.93774,1145.1282,-0.142333984375,0.11492919921875,0.969482421875,2.25799560546875,-3.4991455078125,0.418701171875,1.0,1.0,4.0,4.0,1.0,95.0,event
09:18:46.325,0.9820657,0.0,0.0,1.131252,0.49418464,0.0,0.0,0.8217541,0.72150105,0.0,0.0,0.83268213,0.8261213,0.0,0.0,0.84308016,0.71523595,0.0,0.0,0.61137867,815.5311,831.6484,811.50183,816.7399,794.9817,-0.142333984375,0.11492919921875,0.969482421875,2.25799560546875,-3.4991455078125,0.418701171875,1.0,1.0,4.0,4.0,1.0,95.0,event
09:18:46.325,0.9820657,0.0,0.0,1.131252,0.49418464,0.0,0.0,0.8217541,0.72150105,0.0,0.0,0.83268213,0.8261213,0.0,0.0,0.84308016,0.71523595,0.0,0.0,0.61137867,804.2491,916.26373,874.7619,809.4872,700.293,-0.142333984375,0.11492919921875,0.969482421875,2.25799560546875,-3.4991455078125,0.418701171875,1.0,1.0,4.0,4.0,1.0,95.0,event
09:18:46.326,0.9820657,0.0,0.0,1.131252,0.49418464,0.0,0.0,0.8217541,0.72150105,0.0,0.0,0.83268213,0.8261213,0.0,0.0,0.84308016,0.71523595,0.0,0.0,0.61137867,782.49084,732.52747,718.8278,782.49084,749.45056,-0.142333984375,0.11492919921875,0.969482421875,2.25799560546875,-3.4991455078125,0.418701171875,1.0,1.0,4.0,4.0,1.0,95.0,event
09:18:46.326,0.9820657,0.0,0.0,1.131252,0.49418464,0.0,0.0,0.8217541,0.72150105,0.0,0.0,0.83268213,0.8261213,0.0,0.0,0.84308016,0.71523595,0.0,0.0,0.61137867,790.14655,520.989,531.4652,794.57874,774.43225,-0.142333984375,0.11492919921875,0.969482421875,2.25799560546875,-3.4991455078125,0.418701171875,1.0,1.0,4.0,4.0,1.0,95.0,event
09:18:46.327,0.9820657,0.0,0.0,1.131252,0.49418464,0.0,0.0,0.8217541,0.72150105,0.0,0.0,0.83268213,0.8261213,0.0,0.0,0.84308016,0.71523595,0.0,0.0,0.61137867,788.1319,1076.227,1006.9231,797.3993,669.67035,-0.142333984375,0.11492919921875,0.969482421875,2.25799560546875,-3.4991455078125,0.418701171875,1.0,1.0,4.0,4.0,1.0,95.0,event
09:18:46.387,0.9820657,0.0,0.0,1.131252,0.49418464,0.0,0.0,0.8217541,0.72150105,0.0,0.0,0.83268213,0.8261213,0.0,0.0,0.84308016,0.71523595,0.0,0.0,0.61137867,801.02563,942.8571,911.8315,824.7985,759.12085,-0.142333984375,0.11492919921875,0.969482421875,2.25799560546875,-3.4991455078125,0.418701171875,1.0,1.0,4.0,4.0,1.0,95.0,event
09:18:46.388,0.9820657,0.0,0.0,1.131252,0.49418464,0.0,0.0,0.8217541,0.72150105,0.0,0.0,0.83268213,0.8261213,0.0,0.0,0.84308016,0.71523595,0.0,0.0,0.61137867,802.23444,734.94507,702.71063,814.7253,806.26373,-0.142333984375,0.11492919921875,0.969482421875,2.25799560546875,-3.4991455078125,0.418701171875,1.0,1.0,4.0,4.0,1.0,95.0,event
09:18:46.389,0.9820657,0.0,0.0,1.131252,0.49418464,0.0,0.0,0.8217541,0.72150105,0.0,0.0,0.83268213,0.8261213,0.0,0.0,0.84308016,0.71523595,0.0,0.0,0.61137867,784.10254,830.84247,764.35895,796.1905,726.4835,-0.142333984375,0.11492919921875,0.969482421875,2.25799560546875,-3.4991455078125,0.418701171875,1.0,1.0,4.0,4.0,1.0,95.0,event
09:18:46.390,0.9820657,0.0,0.0,1.131252,0.49418464,0.0,0.0,0.8217541,0.72150105,0.0,0.0,0.83268213,0.8261213,0.0,0.0,0.84308016,0.71523595,0.0,0.0,0.61137867,778.46155,1009.7436,944.0659,789.34064,716.8132,-0.142333984375,0.11492919921875,0.969482421875,2.25799560546875,-3.4991455078125,0.418701171875,1.0,1.0,4.0,4.0,1.0,95.0,event
09:18:46.390,0.9820657,0.0,0.0,1.131252,0.49418464,0.0,0.0,0.8217541,0.72150105,0.0,0.0,0.83268213,0.8261213,0.0,0.0,0.84308016,0.71523595,0.0,0.0,0.61137867,791.3553,841.31866,844.94507,791.3553,840.5128,-0.142333984375,0.11492919921875,0.969482421875,2.25799560546875,-3.4991455078125,0.418701171875,1.0,1.0,4.0,4.0,1.0,95.0,event
09:18:46.391,0.9820657,0.0,0.0,1.131252,0.49418464,0.0,0.0,0.8217541,0.72150105,0.0,0.0,0.83268213,0.8261213,0.0,0.0,0.84308016,0.71523595,0.0,0.0,0.61137867,815.9341,575.38464,645.09155,830.0366,978.315,-0.142333984375,0.11492919921875,0.969482421875,2.25799560546875,-3.4991455078125,0.418701171875,1.0,1.0,4.0,4.0,1.0,95.0,event
09:18:46.392,0.9820657,0.0,0.0,1.131252,0.49418464,0.0,0.0,0.8217541,0.72150105,0.0,0.0,0.83268213,0.8261213,0.0,0.0,0.84308016,0.71523595,0.0,0.0,0.61137867,813.1135,617.28937,612.0513,828.022,948.49817,-0.142333984375,0.11492919921875,0.969482421875,2.25799560546875,-3.4991455078125,0.418701171875,1.0,1.0,4.0,4.0,1.0,95.0,event
09:18:46.392,0.95122665,0.0,0.0,1.1177474,0.4707093,0.0,0.0,0.8058035,0.7209644,0.0,0.0,0.83268213,0.8180857,0.0,0.0,0.85090894,0.70924497,0.0,0.0,0.60516775,795.38464,629.3773,582.23444,792.96704,831.2454,-0.142333984375,0.11492919921875,0.969482421875,2.25799560546875,-3.4991455078125,0.418701171875,1.0,1.0,4.0,4.0,1.0,95.0,event
09:18:46.397,0.95122665,0.0,0.0,1.1177474,0.4707093,0.0,0.0,0.8058035,0.7209644,0.0,0.0,0.83268213,0.8180857,0.0,0.0,0.85090894,0.70924497,0.0,0.0,0.60516775,786.1172,394.06595,402.12454,785.7143,833.2601,-0.142333984375,0.11492919921875,0.969482421875,2.25799560546875,-3.4991455078125,0.418701171875,1.0,1.0,4.0,4.0,1.0,95.0,event
09:18:46.398,0.95122665,0.0,0.0,1.1177474,0.4707093,0.0,0.0,0.8058035,0.7209644,0.0,0.0,0.83268213,0.8180857,0.0,0.0,0.85090894,0.70924497,0.0,0.0,0.60516775,796.5934,104.35897,164.3956,796.5934,1014.57874,-0.142333984375,0.11492919921875,0.969482421875,2.25799560546875,-3.4991455078125,0.418701171875,1.0,1.0,4.0,4.0,1.0,95.0,event
09:18:46.399,0.95122665,0.0,0.0,1.1177474,0.4707093,0.0,0.0,0.8058035,0.7209644,0.0,0.0,0.83268213,0.8180857,0.0,0.0,0.85090894,0.70924497,0.0,0.0,0.60516775,808.68134,711.1722,704.7253,808.68134,875.56775,-0.142333984375,0.11492919921875,0.969482421875,2.25799560546875,-3.4991455078125,0.418701171875,1.0,1.0,4.0,4.0,1.0,95.0,event
09:18:46.400,0.95122665,0.0,0.0,1.1177474,0.4707093,0.0,0.0,0.8058035,0.7209644,0.0,0.0,0.83268213,0.8180857,0.0,0.0,0.85090894,0.70924497,0.0,0.0,0.60516775,802.6374,1090.3297,1026.2638,807.47253,739.3773,-0.142333984375,0.11492919921875,0.969482421875,2.25799560546875,-3.4991455078125,0.418701171875,1.0,1.0,4.0,4.0,1.0,95.0,event
09:18:46.429,0.95122665,0.0,0.0,1.1177474,0.4707093,0.0,0.0,0.8058035,0.7209644,0.0,0.0,0.83268213,0.8180857,0.0,0.0,0.85090894,0.70924497,0.0,0.0,0.60516775,791.3553,767.1795,708.7546,797.8022,774.0293,-0.139892578125,0.11773681640625,0.97467041015625,1.95892333984375,-3.3795166015625,0.299072265625,1.0,1.0,4.0,4.0,1.0,95.0,event
09:18:46.430,0.95122665,0.0,0.0,1.1177474,0.4707093,0.0,0.0,0.8058035,0.7209644,0.0,0.0,0.83268213,0.8180857,0.0,0.0,0.85090894,0.70924497,0.0,0.0,0.60516775,781.28204,778.0586,726.4835,790.54944,719.2308,-0.139892578125,0.11773681640625,0.97467041015625,1.95892333984375,-3.3795166015625,0.299072265625,1.0,1.0,4.0,4.0,1.0,95.0,event
09:18:46.431,0.95122665,0.0,0.0,1.1177474,0.4707093,0.0,0.0,0.8058035,0.7209644,0.0,0.0,0.83268213,0.8180857,0.0,0.0,0.85090894,0.70924497,0.0,0.0,0.60516775,798.20514,1073.8096,1018.20514,807.47253,749.45056,-0.139892578125,0.11773681640625,0.97467041015625,1.95892333984375,-3.3795166015625,0.299072265625,1.0,1.0,4.0,4.0,1.0,95.0,event
09:18:46.432,0.95122665,0.0,0.0,1.1177474,0.4707093,0.0,0.0,0.8058035,0.7209644,0.0,0.0,0.83268213,0.8180857,0.0,0.0,0.85090894,0.70924497,0.0,0.0,0.60516775,803.44324,1127.8022,1082.674,821.978,817.1429,-0.139892578125,0.11773681640625,0.97467041015625,1.95892333984375,-3.3795166015625,0.299072265625,1.0,1.0,4.0,4.0,1.0,95.0,event
09:18:46.433,0.95122665,0.0,0.0,1.1177474,0.4707093,0.0,0.0,0.8058035,0.7209644,0.0,0.0,0.83268213,0.8180857,0.0,0.0,0.85090894,0.70924497,0.0,0.0,0.60516775,789.7436,854.21246,827.619,804.2491,814.3223,-0.139892578125,0.11773681640625,0.97467041015625,1.95892333984375,-3.3795166015625,0.299072265625,1.0,1.0,4.0,4.0,1.0,95.0,event
09:18:46.434,0.95122665,0.0,0.0,1.1177474,0.4707093,0.0,0.0,0.8058035,0.7209644,0.0,0.0,0.83268213,0.8180857,0.0,0.0,0.85090894,0.70924497,0.0,0.0,0.60516775,782.49084,565.31134,553.6264,785.31134,844.5421,-0.139892578125,0.11773681640625,0.97467041015625,1.95892333984375,-3.3795166015625,0.299072265625,1.0,1.0,4.0,4.0,1.0,95.0,event
09:18:46.434,0.95122665,0.0,0.0,1.1177474,0.4707093,0.0,0.0,0.8058035,0.7209644,0.0,0.0,0.83268213,0.8180857,0.0,0.0,0.85090894,0.70924497,0.0,0.0,0.60516775,785.7143,570.54944,554.43225,777.25275,847.76556,-0.139892578125,0.11773681640625,0.97467041015625,1.95892333984375,-3.3795166015625,0.299072265625,1.0,1.0,4.0,4.0,1.0,95.0,event
09:18:46.435,0.95122665,0.0,0.0,1.1177474,0.4707093,0.0,0.0,0.8058035,0.7209644,0.0,0.0,0.83268213,0.8180857,0.0,0.0,0.85090894,0.70924497,0.0,0.0,0.60516775,798.20514,767.98535,758.71796,780.07324,720.4396,-0.139892578125,0.11773681640625,0.97467041015625,1.95892333984375,-3.3795166015625,0.299072265625,1.0,1.0,4.0,4.0,1.0,95.0,event
09:18:46.436,0.95122665,0.0,0.0,1.1177474,0.4707093,0.0,0.0,0.8058035,0.7209644,0.0,0.0,0.83268213,0.8180857,0.0,0.0,0.85090894,0.70924497,0.0,0.0,0.60516775,806.6667,334.0293,411.79486,805.4579,977.1062,-0.139892578125,0.11773681640625,0.97467041015625,1.95892333984375,-3.3795166015625,0.299072265625,1.0,1.0,4.0,4.0,1.0,95.0,event
09:18:46.436,0.95122665,0.0,0.0,1.1177474,0.4707093,0.0,0.0,0.8058035,0.7209644,0.0,0.0,0.83268213,0.8180857,0.0,0.0,0.85090894,0.70924497,0.0,0.0,0.60516775,805.8608,254.24908,307.03296,809.4872,1059.3041,-0.139892578125,0.11773681640625,0.97467041015625,1.95892333984375,-3.3795166015625,0.299072265625,1.0,1.0,4.0,4.0,1.0,95.0,event
09:18:46.437,0.95122665,0.0,0.0,1.1177474,0.4707093,0.0,0.0,0.8058035,0.7209644,0.0,0.0,0.83268213,0.8180857,0.0,0.0,0.85090894,0.70924497,0.0,0.0,0.60516775,790.54944,946.08057,868.315,777.6557,750.65936,-0.139892578125,0.11773681640625,0.97467041015625,1.95892333984375,-3.3795166015625,0.299072265625,1.0,1.0,4.0,4.0,1.0,95.0,event
09:18:46.437,0.95122665,0.0,0.0,1.1177474,0.4707093,0.0,0.0,0.8058035,0.7209644,0.0,0.0,0.83268213,0.8180857,0.0,0.0,0.85090894,0.70924497,0.0,0.0,0.60516775,788.1319,896.1172,837.28937,770.80585,707.9487,-0.139892578125,0.11773681640625,0.97467041015625,1.95892333984375,-3.3795166015625,0.299072265625,1.0,1.0,4.0,4.0,1.0,95.0,event
09:18:46.464,0.95122665,0.0,0.0,1.1177474,0.4707093,0.0,0.0,0.8058035,0.7209644,0.0,0.0,0.83268213,0.8180857,0.0,0.0,0.85090894,0.70924497,0.0,0.0,0.60516775,793.7729,369.08426,446.4469,782.49084,870.7326,-0.1361083984375,0.11651611328125,0.96868896484375,2.2430419921875,-2.863616943359375,0.13458251953125,1.0,1.0,4.0,4.0,1.0,95.0,event
09:18:46.465,0.95122665,0.0,0.0,1.1177474,0.4707093,0.0,0.0,0.8058035,0.7209644,0.0,0.0,0.83268213,0.8180857,0.0,0.0,0.85090894,0.70924497,0.0,0.0,0.60516775,800.2198,677.72894,724.87177,807.8755,875.9707,-0.1361083984375,0.11651611328125,0.96868896484375,2.2430419921875,-2.863616943359375,0.13458251953125,1.0,1.0,4.0,4.0,1.0,95.0,event
09:18:46.465,0.95122665,0.0,0.0,1.1177474,0.4707093,0.0,0.0,0.8058035,0.7209644,0.0,0.0,0.83268213,0.8180857,0.0,0.0,0.85090894,0.70924497,0.0,0.0,0.60516775,807.0696,1166.0806,1108.8645,819.5604,742.6007,-0.1361083984375,0.11651611328125,0.96868896484375,2.2430419921875,-2.863616943359375,0.13458251953125,1.0,1.0,4.0,4.0,1.0,95.0,event
09:18:46.466,0.95122665,0.0,0.0,1.1177474,0.4707093,0.0,0.0,0.8058035,0.7209644,0.0,0.0,0.83268213,0.8180857,0.0,0.0,0.85090894,0.70924497,0.0,0.0,0.60516775,795.38464,844.5421,800.6227,796.5934,778.0586,-0.1361083984375,0.11651611328125,0.96868896484375,2.2430419921875,-2.863616943359375,0.13458251953125,1.0,1.0,4.0,4.0,1.0,95.0,event
09:18:46.466,0.95122665,0.0,0.0,1.1177474,0.4707093,0.0,0.0,0.8058035,0.7209644,0.0,0.0,0.83268213,0.8180857,0.0,0.0,0.85090894,0.70924497,0.0,0.0,0.60516775,784.90845,661.6117,625.34796,778.46155,780.4762,-0.1361083984375,0.11651611328125,0.96868896484375,2.2430419921875,-2.863616943359375,0.13458251953125,1.0,1.0,4.0,4.0,1.0,95.0,event
09:18:46.467,0.95122665,0.0,0.0,1.1177474,0.4707093,0.0,0.0,0.8058035,0.7209644,0.0,0.0,0.83268213,0.8180857,0.0,0.0,0.85090894,0.70924497,0.0,0.0,0.60516775,783.69965,695.4579,673.2967,777.25275,764.7619,-0.1361083984375,0.11651611328125,0.96868896484375,2.2430419921875,-2.863616943359375,0.13458251953125,1.0,1.0,4.0,4.0,1.0,95.0,event
09:18:46.468,0.95122665,0.0,0.0,1.1177474,0.4707093,0.0,0.0,0.8058035,0.7209644,0.0,0.0,0.83268213,0.8180857,0.0,0.0,0.85090894,0.70924497,0.0,0.0,0.60516775,793.36993,761.53845,749.0476,784.90845,746.63007,-0.1361083984375,0.11651611328125,0.96868896484375,2.2430419921875,-2.863616943359375,0.13458251953125,1.0,1.0,4.0,4.0,1.0,95.0,event
09:18:46.468,0.95122665,0.0,0.0,1.1177474,0.4707093,0.0,0.0,0.8058035,0.7209644,0.0,0.0,0.83268213,0.8180857,0.0,0.0,0.85090894,0.70924497,0.0,0.0,0.60516775,801.8315,532.674,575.38464,799.81683,819.15753,-0.1361083984375,0.11651611328125,0.96868896484375,2.2430419921875,-2.863616943359375,0.13458251953125,1.0,1.0,4.0,4.0,1.0,95.0,event
09:18:46.469,0.95122665,0.0,0.0,1.1177474,0.4707093,0.0,0.0,0.8058035,0.7209644,0.0,0.0,0.83268213,0.8180857,0.0,0.0,0.85090894,0.70924497,0.0,0.0,0.60516775,792.1612,151.90475,186.55678,803.8461,931.5751,-0.1361083984375,0.11651611328125,0.96868896484375,2.2430419921875,-2.863616943359375,0.13458251953125,1.0,1.0,4.0,4.0,1.0,95.0,event
09:18:46.469,0.9105062,0.0,0.0,1.097383,0.45303023,0.0,0.0,0.77834374,0.7179965,0.0,0.0,0.8218245,0.8082722,0.0,0.0,0.8552421,0.70414186,0.0,0.0,0.5984029,798.20514,657.98535,589.4872,787.72894,747.8388,-0.1361083984375,0.11651611328125,0.96868896484375,2.2430419921875,-2.863616943359375,0.13458251953125,1.0,1.0,4.0,4.0,1.0,95.0,event
09:18:46.473,0.9105062,0.0,0.0,1.097383,0.45303023,0.0,0.0,0.77834374,0.7179965,0.0,0.0,0.8218245,0.8082722,0.0,0.0,0.8552421,0.70414186,0.0,0.0,0.5984029,816.7399,1049.2307,971.06226,793.7729,667.25275,-0.1361083984375,0.11651611328125,0.96868896484375,2.2430419921875,-2.863616943359375,0.13458251953125,1.0,1.0,4.0,4.0,1.0,95.0,event
09:18:46.474,0.9105062,0.0,0.0,1.097383,0.45303023,0.0,0.0,0.77834374,0.7179965,0.0,0.0,0.8218245,0.8082722,0.0,0.0,0.8552421,0.70414186,0.0,0.0,0.5984029,809.4872,811.50183,795.38464,812.71063,841.7216,-0.1361083984375,0.11651611328125,0.96868896484375,2.2430419921875,-2.863616943359375,0.13458251953125,1.0,1.0,4.0,4.0,1.0,95.0,event
09:18:46.496,0.9105062,0.0,0.0,1.097383,0.45303023,0.0,0.0,0.77834374,0.7179965,0.0,0.0,0.8218245,0.8082722,0.0,0.0,0.8552421,0.70414186,0.0,0.0,0.5984029,814.3223,813.1135,812.71063,829.2308,795.38464,-0.14239501953125,0.11810302734375,0.97784423828125,2.4224853515625,-3.521575927734375,1.03179931640625,1.0,1.0,4.0,4.0,1.0,95.0,event
09:18:46.497,0.9105062,0.0,0.0,1.097383,0.45303023,0.0,0.0,0.77834374,0.7179965,0.0,0.0,0.8218245,0.8082722,0.0,0.0,0.8552421,0.70414186,0.0,0.0,0.5984029,817.5458,967.03296,901.75824,823.9927,640.2564,-0.14239501953125,0.11810302734375,0.97784423828125,2.4224853515625,-3.521575927734375,1.03179931640625,1.0,1.0,4.0,4.0,1.0,95.0,event
09:18:46.498,0.9105062,0.0,0.0,1.097383,0.45303023,0.0,0.0,0.77834374,0.7179965,0.0,0.0,0.8218245,0.8082722,0.0,0.0,0.8552421,0.70414186,0.0,0.0,0.5984029,790.54944,923.91943,857.03296,782.49084,686.5934,-0.14239501953125,0.11810302734375,0.97784423828125,2.4224853515625,-3.521575927734375,1.03179931640625,1.0,1.0,4.0,4.0,1.0,95.0,event
09:18:46.498,0.9105062,0.0,0.0,1.097383,0.45303023,0.0,0.0,0.77834374,0.7179965,0.0,0.0,0.8218245,0.8082722,0.0,0.0,0.8552421,0.70414186,0.0,0.0,0.5984029,784.10254,758.315,761.13556,770.0,747.8388,-0.14239501953125,0.11810302734375,0.97784423828125,2.4224853515625,-3.521575927734375,1.03179931640625,1.0,1.0,4.0,4.0,1.0,95.0,event
09:18:46.499,0.9105062,0.0,0.0,1.097383,0.45303023,0.0,0.0,0.77834374,0.7179965,0.0,0.0,0.8218245,0.8082722,0.0,0.0,0.8552421,0.70414186,0.0,0.0,0.5984029,792.96704,821.1722,827.619,793.7729,702.3077,-0.14239501953125,0.11810302734375,0.97784423828125,2.4224853515625,-3.521575927734375,1.03179931640625,1.0,1.0,4.0,4.0,1.0,95.0,event
09:18:46.499,0.9105062,0.0,0.0,1.097383,0.45303023,0.0,0.0,0.77834374,0.7179965,0.0,0.0,0.8218245,0.8082722,0.0,0.0,0.8552421,0.70414186,0.0,0.0,0.5984029,790.9524,840.9158,823.5897,811.0989,765.16486,-0.14239501953125,0.11810302734375,0.97784423828125,2.4224853515625,-3.521575927734375,1.03179931640625,1.0,1.0,4.0,4.0,1.0,95.0,event
09:18:46.500,0.9105062,0.0,0.0,1.097383,0.45303023,0.0,0.0,0.77834374,0.7179965,0.0,0.0,0.8218245,0.8082722,0.0,0.0,0.8552421,0.70414186,0.0,0.0,0.5984029,791.3553,678.1319,666.4469,809.0842,853.4066,-0.14239501953125,0.11810302734375,0.97784423828125,2.4224853515625,-3.521575927734375,1.03179931640625,1.0,1.0,4.0,4.0,1.0,95.0,event
09:18:46.500,0.9105062,0.0,0.0,1.097383,0.45303023,0.0,0.0,0.77834374,0.7179965,0.0,0.0,0.8218245,0.8082722,0.0,0.0,0.8552421,0.70414186,0.0,0.0,0.5984029,793.7729,253.84616,256.26373,795.38464,956.1539,-0.14239501953125,0.11810302734375,0.97784423828125,2.4224853515625,-3.521575927734375,1.03179931640625,1.0,1.0,4.0,4.0,1.0,95.0,event
09:18:46.501,0.9105062,0.0,0.0,1.097383,0.45303023,0.0,0.0,0.77834374,0.7179965,0.0,0.0,0.8218245,0.8082722,0.0,0.0,0.8552421,0.70414186,0.0,0.0,0.5984029,803.8461,285.27472,259.08426,792.5641,902.5641,-0.14239501953125,0.11810302734375,0.97784423828125,2.4224853515625,-3.521575927734375,1.03179931640625,1.0,1.0,4.0,4.0,1.0,95.0,event
09:18:46.501,0.9105062,0.0,0.0,1.097383,0.45303023,0.0,0.0,0.77834374,0.7179965,0.0,0.0,0.8218245,0.8082722,0.0,0.0,0.8552421,0.70414186,0.0,0.0,0.5984029,823.5897,1035.9341,962.6007,804.65204,687.3993,-0.14239501953125,0.11810302734375,0.97784423828125,2.4224853515625,-3.521575927734375,1.03179931640625,1.0,1.0,4.0,4.0,1.0,95.0,event
09:18:46.502,0.9105062,0.0,0.0,1.097383,0.45303023,0.0,0.0,0.77834374,0.7179965,0.0,0.0,0.8218245,0.8082722,0.0,0.0,0.8552421,0.70414186,0.0,0.0,0.5984029,837.6923,1055.6776,1020.6227,834.4689,741.79486,-0.14239501953125,0.11810302734375,0.97784423828125,2.4224853515625,-3.521575927734375,1.03179931640625,1.0,1.0,4.0,4.0,1.0,95.0,event
09:18:46.502,0.9105062,0.0,0.0,1.097383,0.45303023,0.0,0.0,0.77834374,0.7179965,0.0,0.0,0.8218245,0.8082722,0.0,0.0,0.8552421,0.70414186,0.0,0.0,0.5984029,824.7985,778.46155,752.27106,825.6044,773.22345,-0.14239501953125,0.11810302734375,0.97784423828125,2.4224853515625,-3.521575927734375,1.03179931640625,1.0,1.0,4.0,4.0,1.0,95.0,event
09:18:46.529,0.9105062,0.0,0.0,1.097383,0.45303023,0.0,0.0,0.77834374,0.7179965,0.0,0.0,0.8218245,0.8082722,0.0,0.0,0.8552421,0.70414186,0.0,0.0,0.5984029,795.78754,877.98535,813.91943,786.52014,724.4689,-0.14239501953125,0.11810302734375,0.97784423828125,2.4224853515625,-3.521575927734375,1.03179931640625,1.0,1.0,4.0,4.0,1.0,95.0,event
09:18:46.530,0.9105062,0.0,0.0,1.097383,0.45303023,0.0,0.0,0.77834374,0.7179965,0.0,0.0,0.8218245,0.8082722,0.0,0.0,0.8552421,0.70414186,0.0,0.0,0.5984029,785.7143,1023.8461,950.5128,773.22345,689.011,-0.14239501953125,0.11810302734375,0.97784423828125,2.4224853515625,-3.521575927734375,1.03179931640625,1.0,1.0,4.0,4.0,1.0,95.0,event
09:18:46.531,0.9105062,0.0,0.0,1.097383,0.45303023,0.0,0.0,0.77834374,0.7179965,0.0,0.0,0.8218245,0.8082722,0.0,0.0,0.8552421,0.70414186,0.0,0.0,0.5984029,797.8022,713.9927,718.4249,791.3553,776.4469,-0.14239501953125,0.11810302734375,0.97784423828125,2.4224853515625,-3.521575927734375,1.03179931640625,1.0,1.0,4.0,4.0,1.0,95.0,event
09:18:46.531,0.9105062,0.0,0.0,1.097383,0.45303023,0.0,0.0,0.77834374,0.7179965,0.0,0.0,0.8218245,0.8082722,0.0,0.0,0.8552421,0.70414186,0.0,0.0,0.5984029,811.50183,556.04395,632.6007,814.7253,905.38464,-0.14239501953125,0.11810302734375,0.97784423828125,2.4224853515625,-3.521575927734375,1.03179931640625,1.0,1.0,4.0,4.0,1.0,95.0,event
09:18:46.532,0.9105062,0.0,0.0,1.097383,0.45303023,0.0,0.0,0.77834374,0.7179965,0.0,0.0,0.8218245,0.8082722,0.0,0.0,0.8552421,0.70414186,0.0,0.0,0.5984029,811.9048,891.685,891.28204,815.12823,819.5604,-0.14239501953125,0.11810302734375,0.97784423828125,2.4224853515625,-3.521575927734375,1.03179931640625,1.0,1.0,4.0,4.0,1.0,95.0,event
09:18:46.532,0.9105062,0.0,0.0,1.097383,0.45303023,0.0,0.0,0.77834374,0.7179965,0.0,0.0,0.8218245,0.8082722,0.0,0.0,0.8552421,0.70414186,0.0,0.0,0.5984029,803.0403,744.21246,684.57874,793.36993,753.47986,-0.14239501953125,0.11810302734375,0.97784423828125,2.4224853515625,-3.521575927734375,1.03179931640625,1.0,1.0,4.0,4.0,1.0,95.0,event
09:18:46.533,0.9105062,0.0,0.0,1.097383,0.45303023,0.0,0.0,0.77834374,0.7179965,0.0,0.0,0.8218245,0.8082722,0.0,0.0,0.8552421,0.70414186,0.0,0.0,0.5984029,801.4286,357.8022,376.337,783.2967,913.8461,-0.14239501953125,0.11810302734375,0.97784423828125,2.4224853515625,-3.521575927734375,1.03179931640625,1.0,1.0,4.0,4.0,1.0,95.0,event
09:18:46.534,0.9105062,0.0,0.0,1.097383,0.45303023,0.0,0.0,0.77834374,0.7179965,0.0,0.0,0.8218245,0.8082722,0.0,0.0,0.8552421,0.70414186,0.0,0.0,0.5984029,804.65204,174.46887,271.97803,803.0403,1003.2967,-0.14239501953125,0.11810302734375,0.97784423828125,2.4224853515625,-3.521575927734375,1.03179931640625,1.0,1.0,4.0,4.0,1.0,95.0,event
09:18:46.534,0.9105062,0.0,0.0,1.097383,0.45303023,0.0,0.0,0.77834374,0.7179965,0.0,0.0,0.8218245,0.8082722,0.0,0.0,0.8552421,0.70414186,0.0,0.0,0.5984029,815.12823,785.7143,793.7729,818.7546,809.89014,-0.14239501953125,0.11810302734375,0.97784423828125,2.4224853515625,-3.521575927734375,1.03179931640625,1.0,1.0,4.0,4.0,1.0,95.0,event
09:18:46.535,0.9105062,0.0,0.0,1.097383,0.45303023,0.0,0.0,0.77834374,0.7179965,0.0,0.0,0.8218245,0.8082722,0.0,0.0,0.8552421,0.70414186,0.0,0.0,0.5984029,814.7253,1141.9048,1088.3151,813.1135,740.58606,-0.14239501953125,0.11810302734375,0.97784423828125,2.4224853515625,-3.521575927734375,1.03179931640625,1.0,1.0,4.0,4.0,1.0,95.0,event
09:18:46.535,0.9105062,0.0,0.0,1.097383,0.45303023,0.0,0.0,0.77834374,0.7179965,0.0,0.0,0.8218245,0.8082722,0.0,0.0,0.8552421,0.70414186,0.0,0.0,0.5984029,807.47253,813.1135,779.67035,798.20514,787.72894,-0.14239501953125,0.11810302734375,0.97784423828125,2.4224853515625,-3.521575927734375,1.03179931640625,1.0,1.0,4.0,4.0,1.0,95.0,event
09:18:46.536,0.8679957,0.0,0.0,1.0714219,0.44315293,0.0,0.0,0.7392445,0.7112002,0.0,0.0,0.7837916,0.8016259,0.0,0.0,0.8589551,0.70560163,0.0,0.0,0.59255517,794.9817,775.2381,738.5714,788.1319,749.0476,-0.14239501953125,0.11810302734375,0.97784423828125,2.4224853515625,-3.521575927734375,1.03179931640625,1.0,1.0,4.0,4.0,1.0,95.0,event
09:18:46.598,0.8679957,0.0,0.0,1.0714219,0.44315293,0.0,0.0,0.7392445,0.7112002,0.0,0.0,0.7837916,0.8016259,0.0,0.0,0.8589551,0.70560163,0.0,0.0,0.59255517,793.7729,1028.2784,977.9121,785.31134,662.4176,-0.14276123046875,0.119873046875,0.96856689453125,1.592559814453125,-2.773895263671875,-0.201873779296875,1.0,1.0,4.0,4.0,1.0,95.0,event
09:18:46.599,0.8679957,0.0,0.0,1.0714219,0.44315293,0.0,0.0,0.7392445,0.7112002,0.0,0.0,0.7837916,0.8016259,0.0,0.0,0.8589551,0.70560163,0.0,0.0,0.59255517,810.696,1139.0842,1108.4615,805.05493,745.82416,-0.14276123046875,0.119873046875,0.96856689453125,1.592559814453125,-2.773895263671875,-0.201873779296875,1.0,1.0,4.0,4.0,1.0,95.0,event
09:18:46.600,0.8679957,0.0,0.0,1.0714219,0.44315293,0.0,0.0,0.7392445,0.7112002,0.0,0.0,0.7837916,0.8016259,0.0,0.0,0.8589551,0.70560163,0.0,0.0,0.59255517,812.71063,924.7253,882.01465,823.5897,837.28937,-0.14276123046875,0.119873046875,0.96856689453125,1.592559814453125,-2.773895263671875,-0.201873779296875,1.0,1.0,4.0,4.0,1.0,95.0,event
09:18:46.601,0.8679957,0.0,0.0,1.0714219,0.44315293,0.0,0.0,0.7392445,0.7112002,0.0,0.0,0.7837916,0.8016259,0.0,0.0,0.8589551,0.70560163,0.0,0.0,0.59255517,806.26373,838.49817,770.40295,818.3516,794.17584,-0.14276123046875,0.119873046875,0.96856689453125,1.592559814453125,-2.773895263671875,-0.201873779296875,1.0,1.0,4.0,4.0,1.0,95.0,event
09:18:46.601,0.8679957,0.0,0.0,1.0714219,0.44315293,0.0,0.0,0.7392445,0.7112002,0.0,0.0,0.7837916,0.8016259,0.0,0.0,0.8589551,0.70560163,0.0,0.0,0.59255517,786.52014,862.27106,820.3663,790.14655,713.1868,-0.14276123046875,0.119873046875,0.96856689453125,1.592559814453125,-2.773895263671875,-0.201873779296875,1.0,1.0,4.0,4.0,1.0,95.0,event
09:18:46.602,0.8679957,0.0,0.0,1.0714219,0.44315293,0.0,0.0,0.7392445,0.7112002,0.0,0.0,0.7837916,0.8016259,0.0,0.0,0.8589551,0.70560163,0.0,0.0,0.59255517,786.52014,769.19415,772.01465,783.69965,724.4689,-0.14276123046875,0.119873046875,0.96856689453125,1.592559814453125,-2.773895263671875,-0.201873779296875,1.0,1.0,4.0,4.0,1.0,95.0,event
09:18:46.603,0.8679957,0.0,0.0,1.0714219,0.44315293,0.0,0.0,0.7392445,0.7112002,0.0,0.0,0.7837916,0.8016259,0.0,0.0,0.8589551,0.70560163,0.0,0.0,0.59255517,810.293,342.08792,418.64468,825.6044,1057.6923,-0.14276123046875,0.119873046875,0.96856689453125,1.592559814453125,-2.773895263671875,-0.201873779296875,1.0,1.0,4.0,4.0,1.0,95.0,event
09:18:46.603,0.8679957,0.0,0.0,1.0714219,0.44315293,0.0,0.0,0.7392445,0.7112002,0.0,0.0,0.7837916,0.8016259,0.0,0.0,0.8589551,0.70560163,0.0,0.0,0.59255517,816.7399,164.79854,234.10257,838.0952,1124.1758,-0.14276123046875,0.119873046875,0.96856689453125,1.592559814453125,-2.773895263671875,-0.201873779296875,1.0,1.0,4.0,4.0,1.0,95.0,event
09:18:46.604,0.8679957,0.0,0.0,1.0714219,0.44315293,0.0,0.0,0.7392445,0.7112002,0.0,0.0,0.7837916,0.8016259,0.0,0.0,0.8589551,0.70560163,0.0,0.0,0.59255517,804.2491,808.2784,758.71796,817.5458,784.90845,-0.14276123046875,0.119873046875,0.96856689453125,1.592559814453125,-2.773895263671875,-0.201873779296875,1.0,1.0,4.0,4.0,1.0,95.0,event
09:18:46.605,0.8679957,0.0,0.0,1.0714219,0.44315293,0.0,0.0,0.7392445,0.7112002,0.0,0.0,0.7837916,0.8016259,0.0,0.0,0.8589551,0.70560163,0.0,0.0,0.59255517,783.69965,888.0586,842.1245,785.31134,733.73627,-0.14276123046875,0.119873046875,0.96856689453125,1.592559814453125,-2.773895263671875,-0.201873779296875,1.0,1.0,4.0,4.0,1.0,95.0,event
09:18:46.605,0.8679957,0.0,0.0,1.0714219,0.44315293,0.0,0.0,0.7392445,0.7112002,0.0,0.0,0.7837916,0.8016259,0.0,0.0,0.8589551,0.70560163,0.0,0.0,0.59255517,787.72894,585.05493,645.09155,770.80585,782.8938,-0.14276123046875,0.119873046875,0.96856689453125,1.592559814453125,-2.773895263671875,-0.201873779296875,1.0,1.0,4.0,4.0,1.0,95.0,event
09:18:46.606,0.8679957,0.0,0.0,1.0714219,0.44315293,0.0,0.0,0.7392445,0.7112002,0.0,0.0,0.7837916,0.8016259,0.0,0.0,0.8589551,0.70560163,0.0,0.0,0.59255517,808.68134,879.19415,911.02563,797.3993,768.7912,-0.14276123046875,0.119873046875,0.96856689453125,1.592559814453125,-2.773895263671875,-0.201873779296875,1.0,1.0,4.0,4.0,1.0,95.0,event
09:18:46.674,0.8679957,0.0,0.0,1.0714219,0.44315293,0.0,0.0,0.7392445,0.7112002,0.0,0.0,0.7837916,0.8016259,0.0,0.0,0.8589551,0.70560163,0.0,0.0,0.59255517,817.5458,1216.4469,1158.8279,812.71063,799.41394,-0.14080810546875,0.1131591796875,0.9720458984375,1.891632080078125,-3.54400634765625,0.201873779296875,1.0,1.0,4.0,4.0,1.0,95.0,event
09:18:46.676,0.8679957,0.0,0.0,1.0714219,0.44315293,0.0,0.0,0.7392445,0.7112002,0.0,0.0,0.7837916,0.8016259,0.0,0.0,0.8589551,0.70560163,0.0,0.0,0.59255517,815.9341,857.4359,841.31866,807.0696,851.39197,-0.14080810546875,0.1131591796875,0.9720458984375,1.891632080078125,-3.54400634765625,0.201873779296875,1.0,1.0,4.0,4.0,1.0,95.0,event
09:18:46.677,0.8679957,0.0,0.0,1.0714219,0.44315293,0.0,0.0,0.7392445,0.7112002,0.0,0.0,0.7837916,0.8016259,0.0,0.0,0.8589551,0.70560163,0.0,0.0,0.59255517,803.44324,904.57874,886.4469,784.5055,758.315,-0.14080810546875,0.1131591796875,0.9720458984375,1.891632080078125,-3.54400634765625,0.201873779296875,1.0,1.0,4.0,4.0,1.0,95.0,event
09:18:46.677,0.8679957,0.0,0.0,1.0714219,0.44315293,0.0,0.0,0.7392445,0.7112002,0.0,0.0,0.7837916,0.8016259,0.0,0.0,0.8589551,0.70560163,0.0,0.0,0.59255517,804.2491,558.0586,574.9817,794.57874,829.6337,-0.14080810546875,0.1131591796875,0.9720458984375,1.891632080078125,-3.54400634765625,0.201873779296875,1.0,1.0,4.0,4.0,1.0,95.0,event
09:18:46.679,0.8679957,0.0,0.0,1.0714219,0.44315293,0.0,0.0,0.7392445,0.7112002,0.0,0.0,0.7837916,0.8016259,0.0,0.0,0.8589551,0.70560163,0.0,0.0,0.59255517,816.7399,1140.2931,1124.9817,810.293,685.38464,-0.14080810546875,0.1131591796875,0.9720458984375,1.891632080078125,-3.54400634765625,0.201873779296875,1.0,1.0,4.0,4.0,1.0,95.0,event
09:18:46.680,0.8679957,0.0,0.0,1.0714219,0.44315293,0.0,0.0,0.7392445,0.7112002,0.0,0.0,0.7837916,0.8016259,0.0,0.0,0.8589551,0.70560163,0.0,0.0,0.59255517,819.15753,696.6667,748.6447,841.7216,869.12085,-0.14080810546875,0.1131591796875,0.9720458984375,1.891632080078125,-3.54400634765625,0.201873779296875,1.0,1.0,4.0,4.0,1.0,95.0,event
09:18:46.680,0.8679957,0.0,0.0,1.0714219,0.44315293,0.0,0.0,0.7392445,0.7112002,0.0,0.0,0.7837916,0.8016259,0.0,0.0,0.8589551,0.70560163,0.0,0.0,0.59255517,802.23444,228.05861,316.30035,823.9927,997.25275,-0.14080810546875,0.1131591796875,0.9720458984375,1.891632080078125,-3.54400634765625,0.201873779296875,1.0,1.0,4.0,4.0,1.0,95.0,event
09:18:46.681,0.8679957,0.0,0.0,1.0714219,0.44315293,0.0,0.0,0.7392445,0.7112002,0.0,0.0,0.7837916,0.8016259,0.0,0.0,0.8589551,0.70560163,0.0,0.0,0.59255517,779.67035,634.21246,610.0366,788.5348,773.22345,-0.14080810546875,0.1131591796875,0.9720458984375,1.891632080078125,-3.54400634765625,0.201873779296875,1.0,1.0,4.0,4.0,1.0,95.0,event
09:18:46.682,0.8679957,0.0,0.0,1.0714219,0.44315293,0.0,0.0,0.7392445,0.7112002,0.0,0.0,0.7837916,0.8016259,0.0,0.0,0.8589551,0.70560163,0.0,0.0,0.59255517,783.69965,897.326,848.5714,781.28204,709.5604,-0.14080810546875,0.1131591796875,0.9720458984375,1.891632080078125,-3.54400634765625,0.201873779296875,1.0,1.0,4.0,4.0,1.0,95.0,event
09:18:46.683,0.8679957,0.0,0.0,1.0714219,0.44315293,0.0,0.0,0.7392445,0.7112002,0.0,0.0,0.7837916,0.8016259,0.0,0.0,0.8589551,0.70560163,0.0,0.0,0.59255517,800.6227,483.9194,549.59705,802.23444,865.89746,-0.14080810546875,0.1131591796875,0.9720458984375,1.891632080078125,-3.54400634765625,0.201873779296875,1.0,1.0,4.0,4.0,1.0,95.0,event
09:18:46.683,0.8679957,0.0,0.0,1.0714219,0.44315293,0.0,0.0,0.7392445,0.7112002,0.0,0.0,0.7837916,0.8016259,0.0,0.0,0.8589551,0.70560163,0.0,0.0,0.59255517,808.2784,226.44688,343.69965,820.7692,1004.5055,-0.14080810546875,0.1131591796875,0.9720458984375,1.891632080078125,-3.54400634765625,0.201873779296875,1.0,1.0,4.0,4.0,1.0,95.0,event
09:18:46.684,0.8679957,0.0,0.0,1.0714219,0.44315293,0.0,0.0,0.7392445,0.7112002,0.0,0.0,0.7837916,0.8016259,0.0,0.0,0.8589551,0.70560163,0.0,0.0,0.59255517,800.2198,766.77655,763.1502,809.4872,819.15753,-0.14080810546875,0.1131591796875,0.9720458984375,1.891632080078125,-3.54400634765625,0.201873779296875,1.0,1.0,4.0,4.0,1.0,95.0,event
09:18:46.721,0.8679957,0.0,0.0,1.0714219,0.44315293,0.0,0.0,0.7392445,0.7112002,0.0,0.0,0.7837916,0.8016259,0.0,0.0,0.8589551,0.70560163,0.0,0.0,0.59255517,791.75824,966.63007,897.72894,782.8938,719.2308,-0.13897705078125,0.1123046875,0.9658203125,2.3626708984375,-3.162689208984375,-0.037384033203125,1.0,1.0,4.0,4.0,1.0,95.0,event
09:18:46.722,0.8324363,0.0,0.0,1.043178,0.43667537,0.0,0.0,0.69227046,0.6812596,0.0,0.0,0.7596028,0.7997545,0.0,0.0,0.8636279,0.71339804,0.0,0.0,0.5916946,792.1612,782.8938,746.2271,777.25275,756.7033,-0.13897705078125,0.1123046875,0.9658203125,2.3626708984375,-3.162689208984375,-0.037384033203125,1.0,1.0,4.0,4.0,1.0,95.0,event
09:18:46.727,0.8324363,0.0,0.0,1.043178,0.43667537,0.0,0.0,0.69227046,0.6812596,0.0,0.0,0.7596028,0.7997545,0.0,0.0,0.8636279,0.71339804,0.0,0.0,0.5916946,807.8755,936.0073,928.7546,792.1612,753.47986,-0.13897705078125,0.1123046875,0.9658203125,2.3626708984375,-3.162689208984375,-0.037384033203125,1.0,1.0,4.0,4.0,1.0,95.0,event
09:18:46.728,0.8324363,0.0,0.0,1.043178,0.43667537,0.0,0.0,0.69227046,0.6812596,0.0,0.0,0.7596028,0.7997545,0.0,0.0,0.8636279,0.71339804,0.0,0.0,0.5916946,815.5311,1086.3004,1050.8425,803.0403,701.0989,-0.13897705078125,0.1123046875,0.9658203125,2.3626708984375,-3.162689208984375,-0.037384033203125,1.0,1.0,4.0,4.0,1.0,95.0,event
09:18:46.729,0.8324363,0.0,0.0,1.043178,0.43667537,0.0,0.0,0.69227046,0.6812596,0.0,0.0,0.7596028,0.7997545,0.0,0.0,0.8636279,0.71339804,0.0,0.0,0.5916946,806.6667,961.79486,891.685,804.65204,704.7253,-0.13897705078125,0.1123046875,0.9658203125,2.3626708984375,-3.162689208984375,-0.037384033203125,1.0,1.0,4.0,4.0,1.0,95.0,event
09:18:46.730,0.8324363,0.0,0.0,1.043178,0.43667537,0.0,0.0,0.69227046,0.6812596,0.0,0.0,0.7596028,0.7997545,0.0,0.0,0.8636279,0.71339804,0.0,0.0,0.5916946,797.3993,595.9341,582.23444,789.7436,870.7326,-0.13897705078125,0.1123046875,0.9658203125,2.3626708984375,-3.162689208984375,-0.037384033203125,1.0,1.0,4.0,4.0,1.0,95.0,event
09:18:46.732,0.8324363,0.0,0.0,1.043178,0.43667537,0.0,0.0,0.69227046,0.6812596,0.0,0.0,0.7596028,0.7997545,0.0,0.0,0.8636279,0.71339804,0.0,0.0,0.5916946,794.17584,495.20148,535.09155,782.49084,954.1392,-0.13897705078125,0.1123046875,0.9658203125,2.3626708984375,-3.162689208984375,-0.037384033203125,1.0,1.0,4.0,4.0,1.0,95.0,event
09:18:46.733,0.8324363,0.0,0.0,1.043178,0.43667537,0.0,0.0,0.69227046,0.6812596,0.0,0.0,0.7596028,0.7997545,0.0,0.0,0.8636279,0.71339804,0.0,0.0,0.5916946,801.02563,931.5751,925.12823,801.02563,832.0513,-0.13897705078125,0.1123046875,0.9658203125,2.3626708984375,-3.162689208984375,-0.037384033203125,1.0,1.0,4.0,4.0,1.0,95.0,event
09:18:46.735,0.8324363,0.0,0.0,1.043178,0.43667537,0.0,0.0,0.69227046,0.6812596,0.0,0.0,0.7596028,0.7997545,0.0,0.0,0.8636279,0.71339804,0.0,0.0,0.5916946,814.7253,1028.2784,1007.72894,815.9341,758.71796,-0.13897705078125,0.1123046875,0.9658203125,2.3626708984375,-3.162689208984375,-0.037384033203125,1.0,1.0,4.0,4.0,1.0,95.0,event
09:18:46.736,0.8324363,0.0,0.0,1.043178,0.43667537,0.0,0.0,0.69227046,0.6812596,0.0,0.0,0.7596028,0.7997545,0.0,0.0,0.8636279,0.71339804,0.0,0.0,0.5916946,813.1135,634.61536,636.63007,819.15753,788.5348,-0.13897705078125,0.1123046875,0.9658203125,2.3626708984375,-3.162689208984375,-0.037384033203125,1.0,1.0,4.0,4.0,1.0,95.0,event
09:18:46.737,0.8324363,0.0,0.0,1.043178,0.43667537,0.0,0.0,0.69227046,0.6812596,0.0,0.0,0.7596028,0.7997545,0.0,0.0,0.8636279,0.71339804,0.0,0.0,0.5916946,801.4286,682.96704,641.4652,805.4579,719.2308,-0.13897705078125,0.1123046875,0.9658203125,2.3626708984375,-3.162689208984375,-0.037384033203125,1.0,1.0,4.0,4.0,1.0,95.0,event
09:18:46.738,0.8324363,0.0,0.0,1.043178,0.43667537,0.0,0.0,0.69227046,0.6812596,0.0,0.0,0.7596028,0.7997545,0.0,0.0,0.8636279,0.71339804,0.0,0.0,0.5916946,801.4286,791.75824,745.42126,790.9524,715.2015,-0.13897705078125,0.1123046875,0.9658203125,2.3626708984375,-3.162689208984375,-0.037384033203125,1.0,1.0,4.0,4.0,1.0,95.0,event
09:18:46.765,0.8324363,0.0,0.0,1.043178,0.43667537,0.0,0.0,0.69227046,0.6812596,0.0,0.0,0.7596028,0.7997545,0.0,0.0,0.8636279,0.71339804,0.0,0.0,0.5916946,811.0989,743.00366,767.98535,794.17584,796.5934,-0.144287109375,0.1204833984375,0.978271484375,2.355194091796875,-2.73651123046875,0.710296630859375,1.0,1.0,4.0,4.0,1.0,95.0,event
09:18:46.766,0.8324363,0.0,0.0,1.043178,0.43667537,0.0,0.0,0.69227046,0.6812596,0.0,0.0,0.7596028,0.7997545,0.0,0.0,0.8636279,0.71339804,0.0,0.0,0.5916946,813.1135,262.71063,338.86447,816.7399,1019.81683,-0.144287109375,0.1204833984375,0.978271484375,2.355194091796875,-2.73651123046875,0.710296630859375,1.0,1.0,4.0,4.0,1.0,95.0,event
09:18:46.767,0.8324363,0.0,0.0,1.043178,0.43667537,0.0,0.0,0.69227046,0.6812596,0.0,0.0,0.7596028,0.7997545,0.0,0.0,0.8636279,0.71339804,0.0,0.0,0.5916946,796.99634,276.00732,286.0806,813.91943,939.2308,-0.144287109375,0.1204833984375,0.978271484375,2.355194091796875,-2.73651123046875,0.710296630859375,1.0,1.0,4.0,4.0,1.0,95.0,event
09:18:46.768,0.8324363,0.0,0.0,1.043178,0.43667537,0.0,0.0,0.69227046,0.6812596,0.0,0.0,0.7596028,0.7997545,0.0,0.0,0.8636279,0.71339804,0.0,0.0,0.5916946,785.7143,778.0586,727.28937,780.07324,769.19415,-0.144287109375,0.1204833984375,0.978271484375,2.355194091796875,-2.73651123046875,0.710296630859375,1.0,1.0,4.0,4.0,1.0,95.0,event
09:18:46.768,0.8324363,0.0,0.0,1.043178,0.43667537,0.0,0.0,0.69227046,0.6812596,0.0,0.0,0.7596028,0.7997545,0.0,0.0,0.8636279,0.71339804,0.0,0.0,0.5916946,786.9231,919.0842,834.0659,786.52014,693.44324,-0.144287109375,0.1204833984375,0.978271484375,2.355194091796875,-2.73651123046875,0.710296630859375,1.0,1.0,4.0,4.0,1.0,95.0,event
09:18:46.769,0.8324363,0.0,0.0,1.043178,0.43667537,0.0,0.0,0.69227046,0.6812596,0.0,0.0,0.7596028,0.7997545,0.0,0.0,0.8636279,0.71339804,0.0,0.0,0.5916946,801.4286,571.75824,593.91943,786.9231,833.663,-0.144287109375,0.1204833984375,0.978271484375,2.355194091796875,-2.73651123046875,0.710296630859375,1.0,1.0,4.0,4.0,1.0,95.0,event
09:18:46.769,0.8324363,0.0,0.0,1.043178,0.43667537,0.0,0.0,0.69227046,0.6812596,0.0,0.0,0.7596028,0.7997545,0.0,0.0,0.8636279,0.71339804,0.0,0.0,0.5916946,811.9048,696.6667,697.0696,813.5165,864.68866,-0.144287109375,0.1204833984375,0.978271484375,2.355194091796875,-2.73651123046875,0.710296630859375,1.0,1.0,4.0,4.0,1.0,95.0,event
09:18:46.770,0.8324363,0.0,0.0,1.043178,0.43667537,0.0,0.0,0.69227046,0.6812596,0.0,0.0,0.7596028,0.7997545,0.0,0.0,0.8636279,0.71339804,0.0,0.0,0.5916946,805.8608,984.35895,910.6227,829.6337,784.10254,-0.144287109375,0.1204833984375,0.978271484375,2.355194091796875,-2.73651123046875,0.710296630859375,1.0,1.0,4.0,4.0,1.0,95.0,event
09:18:46.771,0.8324363,0.0,0.0,1.043178,0.43667537,0.0,0.0,0.69227046,0.6812596,0.0,0.0,0.7596028,0.7997545,0.0,0.0,0.8636279,0.71339804,0.0,0.0,0.5916946,802.6374,627.3626,606.4103,810.696,806.6667,-0.144287109375,0.1204833984375,0.978271484375,2.355194091796875,-2.73651123046875,0.710296630859375,1.0,1.0,4.0,4.0,1.0,95.0,event
09:18:46.771,0.8324363,0.0,0.0,1.043178,0.43667537,0.0,0.0,0.69227046,0.6812596,0.0,0.0,0.7596028,0.7997545,0.0,0.0,0.8636279,0.71339804,0.0,0.0,0.5916946,795.38464,141.42857,166.00732,795.78754,929.9634,-0.144287109375,0.1204833984375,0.978271484375,2.355194091796875,-2.73651123046875,0.710296630859375,1.0,1.0,4.0,4.0,1.0,95.0,event
09:18:46.772,0.8324363,0.0,0.0,1.043178,0.43667537,0.0,0.0,0.69227046,0.6812596,0.0,0.0,0.7596028,0.7997545,0.0,0.0,0.8636279,0.71339804,0.0,0.0,0.5916946,796.99634,782.49084,731.7216,791.75824,740.18317,-0.144287109375,0.1204833984375,0.978271484375,2.355194091796875,-2.73651123046875,0.710296630859375,1.0,1.0,4.0,4.0,1.0,95.0,event
09:18:46.772,0.8324363,0.0,0.0,1.043178,0.43667537,0.0,0.0,0.69227046,0.6812596,0.0,0.0,0.7596028,0.7997545,0.0,0.0,0.8636279,0.71339804,0.0,0.0,0.5916946,806.26373,1134.652,1100.8059,802.23444,655.56775,-0.144287109375,0.1204833984375,0.978271484375,2.355194091796875,-2.73651123046875,0.710296630859375,1.0,1.0,4.0,4.0,1.0,95.0,event
09:18:46.805,0.8324363,0.0,0.0,1.043178,0.43667537,0.0,0.0,0.69227046,0.6812596,0.0,0.0,0.7596028,0.7997545,0.0,0.0,0.8636279,0.71339804,0.0,0.0,0.5916946,814.3223,920.696,906.99634,820.7692,824.3956,-0.144287109375,0.1204833984375,0.978271484375,2.355194091796875,-2.73651123046875,0.710296630859375,1.0,1.0,4.0,4.0,1.0,95.0,event
09:18:46.807,0.8324363,0.0,0.0,1.043178,0.43667537,0.0,0.0,0.69227046,0.6812596,0.0,0.0,0.7596028,0.7997545,0.0,0.0,0.8636279,0.71339804,0.0,0.0,0.5916946,814.3223,856.2271,798.20514,818.7546,813.1135,-0.144287109375,0.1204833984375,0.978271484375,2.355194091796875,-2.73651123046875,0.710296630859375,1.0,1.0,4.0,4.0,1.0,95.0,event
09:18:46.807,0.8324363,0.0,0.0,1.043178,0.43667537,0.0,0.0,0.69227046,0.6812596,0.0,0.0,0.7596028,0.7997545,0.0,0.0,0.8636279,0.71339804,0.0,0.0,0.5916946,796.5934,809.4872,740.18317,794.9817,727.6923,-0.144287109375,0.1204833984375,0.978271484375,2.355194091796875,-2.73651123046875,0.710296630859375,1.0,1.0,4.0,4.0,1.0,95.0,event
09:18:46.808,0.8048012,0.0,0.0,1.013889,0.42638823,0.0,0.0,0.6439104,0.65688956,0.0,0.0,0.7409384,0.803243,0.0,0.0,0.87013525,0.71770394,0.0,0.0,0.5939321,790.14655,737.76556,681.75824,786.9231,749.0476,-0.144287109375,0.1204833984375,0.978271484375,2.355194091796875,-2.73651123046875,0.710296630859375,1.0,1.0,4.0,4.0,1.0,95.0,event
09:18:46.813,0.8048012,0.0,0.0,1.013889,0.42638823,0.0,0.0,0.6439104,0.65688956,0.0,0.0,0.7409384,0.803243,0.0,0.0,0.87013525,0.71770394,0.0,0.0,0.5939321,809.4872,619.707,630.18317,818.3516,848.97437,-0.144287109375,0.1204833984375,0.978271484375,2.355194091796875,-2.73651123046875,0.710296630859375,1.0,1.0,4.0,4.0,1.0,95.0,event
09:18:46.814,0.8048012,0.0,0.0,1.013889,0.42638823,0.0,0.0,0.6439104,0.65688956,0.0,0.0,0.7409384,0.803243,0.0,0.0,0.87013525,0.71770394,0.0,0.0,0.5939321,811.9048,500.8425,534.2857,830.4396,916.26373,-0.144287109375,0.1204833984375,0.978271484375,2.355194091796875,-2.73651123046875,0.710296630859375,1.0,1.0,4.0,4.0,1.0,95.0,event
09:18:46.814,0.8048012,0.0,0.0,1.013889,0.42638823,0.0,0.0,0.6439104,0.65688956,0.0,0.0,0.7409384,0.803243,0.0,0.0,0.87013525,0.71770394,0.0,0.0,0.5939321,801.02563,598.3516,552.8205,814.3223,844.1392,-0.144287109375,0.1204833984375,0.978271484375,2.355194091796875,-2.73651123046875,0.710296630859375,1.0,1.0,4.0,4.0,1.0,95.0,event
09:18:46.815,0.8048012,0.0,0.0,1.013889,0.42638823,0.0,0.0,0.6439104,0.65688956,0.0,0.0,0.7409384,0.803243,0.0,0.0,0.87013525,0.71770394,0.0,0.0,0.5939321,793.7729,704.3223,631.79486,796.99634,729.707,-0.144287109375,0.1204833984375,0.978271484375,2.355194091796875,-2.73651123046875,0.710296630859375,1.0,1.0,4.0,4.0,1.0,95.0,event
09:18:46.816,0.8048012,0.0,0.0,1.013889,0.42638823,0.0,0.0,0.6439104,0.65688956,0.0,0.0,0.7409384,0.803243,0.0,0.0,0.87013525,0.71770394,0.0,0.0,0.5939321,800.2198,568.1319,565.31134,797.3993,749.0476,-0.144287109375,0.1204833984375,0.978271484375,2.355194091796875,-2.73651123046875,0.710296630859375,1.0,1.0,4.0,4.0,1.0,95.0,event
09:18:46.816,0.8048012,0.0,0.0,1.013889,0.42638823,0.0,0.0,0.6439104,0.65688956,0.0,0.0,0.7409384,0.803243,0.0,0.0,0.87013525,0.71770394,0.0,0.0,0.5939321,810.696,756.30035,750.2564,809.4872,774.0293,-0.144287109375,0.1204833984375,0.978271484375,2.355194091796875,-2.73651123046875,0.710296630859375,1.0,1.0,4.0,4.0,1.0,95.0,event
09:18:46.817,0.8048012,0.0,0.0,1.013889,0.42638823,0.0,0.0,0.6439104,0.65688956,0.0,0.0,0.7409384,0.803243,0.0,0.0,0.87013525,0.71770394,0.0,0.0,0.5939321,807.0696,1149.1575,1065.348,815.9341,706.337,-0.144287109375,0.1204833984375,0.978271484375,2.355194091796875,-2.73651123046875,0.710296630859375,1.0,1.0,4.0,4.0,1.0,95.0,event
09:18:46.817,0.8048012,0.0,0.0,1.013889,0.42638823,0.0,0.0,0.6439104,0.65688956,0.0,0.0,0.7409384,0.803243,0.0,0.0,0.87013525,0.71770394,0.0,0.0,0.5939321,796.1905,924.7253,866.30035,807.47253,776.4469,-0.144287109375,0.1204833984375,0.978271484375,2.355194091796875,-2.73651123046875,0.710296630859375,1.0,1.0,4.0,4.0,1.0,95.0,event
09:18:46.847,0.8048012,0.0,0.0,1.013889,0.42638823,0.0,0.0,0.6439104,0.65688956,0.0,0.0,0.7409384,0.803243,0.0,0.0,0.87013525,0.71770394,0.0,0.0,0.5939321,788.1319,424.2857,462.96704,789.7436,888.46155,-0.14642333984375,0.1168212890625,0.970458984375,1.622467041015625,-2.85614013671875,0.381317138671875,1.0,1.0,4.0,4.0,1.0,95.0,event
09:18:46.849,0.8048012,0.0,0.0,1.013889,0.42638823,0.0,0.0,0.6439104,0.65688956,0.0,0.0,0.7409384,0.803243,0.0,0.0,0.87013525,0.71770394,0.0,0.0,0.5939321,783.69965,715.2015,720.0366,783.69965,803.0403,-0.14642333984375,0.1168212890625,0.970458984375,1.622467041015625,-2.85614013671875,0.381317138671875,1.0,1.0,4.0,4.0,1.0,95.0,event
09:18:46.850,0.8048012,0.0,0.0,1.013889,0.42638823,0.0,0.0,0.6439104,0.65688956,0.0,0.0,0.7409384,0.803243,0.0,0.0,0.87013525,0.71770394,0.0,0.0,0.5939321,794.57874,1176.1538,1115.7142,807.0696,708.3516,-0.14642333984375,0.1168212890625,0.970458984375,1.622467041015625,-2.85614013671875,0.381317138671875,1.0,1.0,4.0,4.0,1.0,95.0,event
09:18:46.851,0.8048012,0.0,0.0,1.013889,0.42638823,0.0,0.0,0.6439104,0.65688956,0.0,0.0,0.7409384,0.803243,0.0,0.0,0.87013525,0.71770394,0.0,0.0,0.5939321,809.4872,937.2161,898.1319,821.1722,772.4176,-0.14642333984375,0.1168212890625,0.970458984375,1.622467041015625,-2.85614013671875,0.381317138671875,1.0,1.0,4.0,4.0,1.0,95.0,event
09:18:46.852,0.8048012,0.0,0.0,1.013889,0.42638823,0.0,0.0,0.6439104,0.65688956,0.0,0.0,0.7409384,0.803243,0.0,0.0,0.87013525,0.71770394,0.0,0.0,0.5939321,793.36993,608.022,577.8022,804.65204,700.696,-0.14642333984375,0.1168212890625,0.970458984375,1.622467041015625,-2.85614013671875,0.381317138671875,1.0,1.0,4.0,4.0,1.0,95.0,event
09:18:46.852,0.8048012,0.0,0.0,1.013889,0.42638823,0.0,0.0,0.6439104,0.65688956,0.0,0.0,0.7409384,0.803243,0.0,0.0,0.87013525,0.71770394,0.0,0.0,0.5939321,807.0696,699.0842,659.59705,817.1429,794.57874,-0.14642333984375,0.1168212890625,0.970458984375,1.622467041015625,-2.85614013671875,0.381317138671875,1.0,1.0,4.0,4.0,1.0,95.0,event
09:18:46.853,0.8048012,0.0,0.0,1.013889,0.42638823,0.0,0.0,0.6439104,0.65688956,0.0,0.0,0.7409384,0.803243,0.0,0.0,0.87013525,0.71770394,0.0,0.0,0.5939321,794.9817,630.58606,608.4249,791.3553,718.4249,-0.14642333984375,0.1168212890625,0.970458984375,1.622467041015625,-2.85614013671875,0.381317138671875,1.0,1.0,4.0,4.0,1.0,95.0,event
09:18:46.854,0.8048012,0.0,0.0,1.013889,0.42638823,0.0,0.0,0.6439104,0.65688956,0.0,0.0,0.7409384,0.803243,0.0,0.0,0.87013525,0.71770394,0.0,0.0,0.5939321,796.1905,576.99634,632.6007,802.23444,930.7692,-0.14642333984375,0.1168212890625,0.970458984375,1.622467041015625,-2.85614013671875,0.381317138671875,1.0,1.0,4.0,4.0,1.0,95.0,event
09:18:46.854,0.8048012,0.0,0.0,1.013889,0.42638823,0.0,0.0,0.6439104,0.65688956,0.0,0.0,0.7409384,0.803243,0.0,0.0,0.87013525,0.71770394,0.0,0.0,0.5939321,800.6227,26.593407,123.69963,822.381,1192.2711,-0.14642333984375,0.1168212890625,0.970458984375,1.622467041015625,-2.85614013671875,0.381317138671875,1.0,1.0,4.0,4.0,1.0,95.0,event
09:18:46.855,0.8048012,0.0,0.0,1.013889,0.42638823,0.0,0.0,0.6439104,0.65688956,0.0,0.0,0.7409384,0.803243,0.0,0.0,0.87013525,0.71770394,0.0,0.0,0.5939321,810.696,315.89743,292.52747,820.3663,1036.7399,-0.14642333984375,0.1168212890625,0.970458984375,1.622467041015625,-2.85614013671875,0.381317138671875,1.0,1.0,4.0,4.0,1.0,95.0,event
09:18:46.855,0.8048012,0.0,0.0,1.013889,0.42638823,0.0,0.0,0.6439104,0.65688956,0.0,0.0,0.7409384,0.803243,0.0,0.0,0.87013525,0.71770394,0.0,0.0,0.5939321,790.54944,920.696,830.0366,795.38464,702.3077,-0.14642333984375,0.1168212890625,0.970458984375,1.622467041015625,-2.85614013671875,0.381317138671875,1.0,1.0,4.0,4.0,1.0,95.0,event
09:18:46.856,0.8048012,0.0,0.0,1.013889,0.42638823,0.0,0.0,0.6439104,0.65688956,0.0,0.0,0.7409384,0.803243,0.0,0.0,0.87013525,0.71770394,0.0,0.0,0.5939321,772.01465,822.7839,762.74725,786.9231,711.978,-0.14642333984375,0.1168212890625,0.970458984375,1.622467041015625,-2.85614013671875,0.381317138671875,1.0,1.0,4.0,4.0,1.0,95.0,event
09:18:46.889,0.8048012,0.0,0.0,1.013889,0.42638823,0.0,0.0,0.6439104,0.65688956,0.0,0.0,0.7409384,0.803243,0.0,0.0,0.87013525,0.71770394,0.0,0.0,0.5939321,811.0989,943.2601,903.36993,832.8571,746.2271,-0.14422607421875,0.1143798828125,0.97039794921875,2.489776611328125,-3.357086181640625,0.37384033203125,1.0,1.0,4.0,4.0,1.0,95.0,event
09:18:46.890,0.8048012,0.0,0.0,1.013889,0.42638823,0.0,0.0,0.6439104,0.65688956,0.0,0.0,0.7409384,0.803243,0.0,0.0,0.87013525,0.71770394,0.0,0.0,0.5939321,838.49817,1166.4835,1102.0146,855.0183,706.337,-0.14422607421875,0.1143798828125,0.97039794921875,2.489776611328125,-3.357086181640625,0.37384033203125,1.0,1.0,4.0,4.0,1.0,95.0,event
09:18:46.891,0.8048012,0.0,0.0,1.013889,0.42638823,0.0,0.0,0.6439104,0.65688956,0.0,0.0,0.7409384,0.803243,0.0,0.0,0.87013525,0.71770394,0.0,0.0,0.5939321,795.38464,1041.5751,973.47986,800.6227,731.7216,-0.14422607421875,0.1143798828125,0.97039794921875,2.489776611328125,-3.357086181640625,0.37384033203125,1.0,1.0,4.0,4.0,1.0,95.0,event
09:18:46.892,0.8048012,0.0,0.0,1.013889,0.42638823,0.0,0.0,0.6439104,0.65688956,0.0,0.0,0.7409384,0.803243,0.0,0.0,0.87013525,0.71770394,0.0,0.0,0.5939321,770.0,734.1392,695.05493,761.53845,714.7985,-0.14422607421875,0.1143798828125,0.97039794921875,2.489776611328125,-3.357086181640625,0.37384033203125,1.0,1.0,4.0,4.0,1.0,95.0,event
09:18:46.892,0.8048012,0.0,0.0,1.013889,0.42638823,0.0,0.0,0.6439104,0.65688956,0.0,0.0,0.7409384,0.803243,0.0,0.0,0.87013525,0.71770394,0.0,0.0,0.5939321,786.52014,852.1978,825.2015,777.6557,780.87915,-0.14422607421875,0.1143798828125,0.97039794921875,2.489776611328125,-3.357086181640625,0.37384033203125,1.0,1.0,4.0,4.0,1.0,95.0,event
09:18:46.893,0.77515256,0.0,0.0,0.96923304,0.40752196,0.0,0.0,0.5926649,0.63140374,0.0,0.0,0.7350423,0.8105964,0.0,0.0,0.87714916,0.7064968,0.0,0.0,0.59012204,792.1612,942.8571,927.5458,789.7436,869.5238,-0.14422607421875,0.1143798828125,0.97039794921875,2.489776611328125,-3.357086181640625,0.37384033203125,1.0,1.0,4.0,4.0,1.0,95.0,event
09:18:46.898,0.77515256,0.0,0.0,0.96923304,0.40752196,0.0,0.0,0.5926649,0.63140374,0.0,0.0,0.7350423,0.8105964,0.0,0.0,0.87714916,0.7064968,0.0,0.0,0.59012204,797.3993,794.9817,804.65204,795.38464,929.9634,-0.14422607421875,0.1143798828125,0.97039794921875,2.489776611328125,-3.357086181640625,0.37384033203125,1.0,1.0,4.0,4.0,1.0,95.0,event
09:18:46.899,0.77515256,0.0,0.0,0.96923304,0.40752196,0.0,0.0,0.5926649,0.63140374,0.0,0.0,0.7350423,0.8105964,0.0,0.0,0.87714916,0.7064968,0.0,0.0,0.59012204,803.44324,578.20514,616.8865,805.4579,969.0476,-0.14422607421875,0.1143798828125,0.97039794921875,2.489776611328125,-3.357086181640625,0.37384033203125,1.0,1.0,4.0,4.0,1.0,95.0,event
09:18:46.900,0.77515256,0.0,0.0,0.96923304,0.40752196,0.0,0.0,0.5926649,0.63140374,0.0,0.0,0.7350423,0.8105964,0.0,0.0,0.87714916,0.7064968,0.0,0.0,0.59012204,787.72894,557.6557,564.90845,790.9524,854.61536,-0.14422607421875,0.1143798828125,0.97039794921875,2.489776611328125,-3.357086181640625,0.37384033203125,1.0,1.0,4.0,4.0,1.0,95.0,event
09:18:46.901,0.77515256,0.0,0.0,0.96923304,0.40752196,0.0,0.0,0.5926649,0.63140374,0.0,0.0,0.7350423,0.8105964,0.0,0.0,0.87714916,0.7064968,0.0,0.0,0.59012204,780.4762,766.3736,732.52747,773.6264,761.9414,-0.14422607421875,0.1143798828125,0.97039794921875,2.489776611328125,-3.357086181640625,0.37384033203125,1.0,1.0,4.0,4.0,1.0,95.0,event
09:18:46.901,0.77515256,0.0,0.0,0.96923304,0.40752196,0.0,0.0,0.5926649,0.63140374,0.0,0.0,0.7350423,0.8105964,0.0,0.0,0.87714916,0.7064968,0.0,0.0,0.59012204,787.326,955.7509,946.08057,782.8938,669.2674,-0.14422607421875,0.1143798828125,0.97039794921875,2.489776611328125,-3.357086181640625,0.37384033203125,1.0,1.0,4.0,4.0,1.0,95.0,event
09:18:46.902,0.77515256,0.0,0.0,0.96923304,0.40752196,0.0,0.0,0.5926649,0.63140374,0.0,0.0,0.7350423,0.8105964,0.0,0.0,0.87714916,0.7064968,0.0,0.0,0.59012204,794.57874,364.652,460.1465,816.7399,891.28204,-0.14422607421875,0.1143798828125,0.97039794921875,2.489776611328125,-3.357086181640625,0.37384033203125,1.0,1.0,4.0,4.0,1.0,95.0,event
09:18:46.929,0.77515256,0.0,0.0,0.96923304,0.40752196,0.0,0.0,0.5926649,0.63140374,0.0,0.0,0.7350423,0.8105964,0.0,0.0,0.87714916,0.7064968,0.0,0.0,0.59012204,800.6227,275.20148,340.4762,818.7546,1006.52014,-0.14373779296875,0.114501953125,0.9722900390625,2.452392578125,-3.416900634765625,0.485992431640625,1.0,1.0,4.0,4.0,1.0,95.0,event
09:18:46.931,0.77515256,0.0,0.0,0.96923304,0.40752196,0.0,0.0,0.5926649,0.63140374,0.0,0.0,0.7350423,0.8105964,0.0,0.0,0.87714916,0.7064968,0.0,0.0,0.59012204,798.20514,976.30035,903.7729,784.5055,736.9597,-0.14373779296875,0.114501953125,0.9722900390625,2.452392578125,-3.416900634765625,0.485992431640625,1.0,1.0,4.0,4.0,1.0,95.0,event
09:18:46.934,0.77515256,0.0,0.0,0.96923304,0.40752196,0.0,0.0,0.5926649,0.63140374,0.0,0.0,0.7350423,0.8105964,0.0,0.0,0.87714916,0.7064968,0.0,0.0,0.59012204,790.54944,850.18317,817.5458,762.74725,726.8865,-0.14373779296875,0.114501953125,0.9722900390625,2.452392578125,-3.416900634765625,0.485992431640625,1.0,1.0,4.0,4.0,1.0,95.0,event
09:18:46.936,0.77515256,0.0,0.0,0.96923304,0.40752196,0.0,0.0,0.5926649,0.63140374,0.0,0.0,0.7350423,0.8105964,0.0,0.0,0.87714916,0.7064968,0.0,0.0,0.59012204,809.0842,830.84247,849.3773,786.1172,751.4652,-0.14373779296875,0.114501953125,0.9722900390625,2.452392578125,-3.416900634765625,0.485992431640625,1.0,1.0,4.0,4.0,1.0,95.0,event
09:18:46.937,0.77515256,0.0,0.0,0.96923304,0.40752196,0.0,0.0,0.5926649,0.63140374,0.0,0.0,0.7350423,0.8105964,0.0,0.0,0.87714916,0.7064968,0.0,0.0,0.59012204,821.978,1052.4542,1039.1575,817.5458,712.7839,-0.14373779296875,0.114501953125,0.9722900390625,2.452392578125,-3.416900634765625,0.485992431640625,1.0,1.0,4.0,4.0,1.0,95.0,event
09:18:46.939,0.77515256,0.0,0.0,0.96923304,0.40752196,0.0,0.0,0.5926649,0.63140374,0.0,0.0,0.7350423,0.8105964,0.0,0.0,0.87714916,0.7064968,0.0,0.0,0.59012204,799.011,867.9121,842.9304,811.50183,765.56775,-0.14373779296875,0.114501953125,0.9722900390625,2.452392578125,-3.416900634765625,0.485992431640625,1.0,1.0,4.0,4.0,1.0,95.0,event
09:18:46.940,0.77515256,0.0,0.0,0.96923304,0.40752196,0.0,0.0,0.5926649,0.63140374,0.0,0.0,0.7350423,0.8105964,0.0,0.0,0.87714916,0.7064968,0.0,0.0,0.59012204,786.52014,413.8095,422.27106,796.99634,869.92676,-0.14373779296875,0.114501953125,0.9722900390625,2.452392578125,-3.416900634765625,0.485992431640625,1.0,1.0,4.0,4.0,1.0,95.0,event
09:18:46.941,0.77515256,0.0,0.0,0.96923304,0.40752196,0.0,0.0,0.5926649,0.63140374,0.0,0.0,0.7350423,0.8105964,0.0,0.0,0.87714916,0.7064968,0.0,0.0,0.59012204,782.8938,141.8315,169.23077,786.9231,950.9158,-0.14373779296875,0.114501953125,0.9722900390625,2.452392578125,-3.416900634765625,0.485992431640625,1.0,1.0,4.0,4.0,1.0,95.0,event
09:18:46.942,0.77515256,0.0,0.0,0.96923304,0.40752196,0.0,0.0,0.5926649,0.63140374,0.0,0.0,0.7350423,0.8105964,0.0,0.0,0.87714916,0.7064968,0.0,0.0,0.59012204,788.93774,752.674,726.08057,784.10254,776.4469,-0.14373779296875,0.114501953125,0.9722900390625,2.452392578125,-3.416900634765625,0.485992431640625,1.0,1.0,4.0,4.0,1.0,95.0,event
09:18:46.943,0.77515256,0.0,0.0,0.96923304,0.40752196,0.0,0.0,0.5926649,0.63140374,0.0,0.0,0.7350423,0.8105964,0.0,0.0,0.87714916,0.7064968,0.0,0.0,0.59012204,808.68134,1191.8682,1164.0659,809.89014,686.5934,-0.14373779296875,0.114501953125,0.9722900390625,2.452392578125,-3.416900634765625,0.485992431640625,1.0,1.0,4.0,4.0,1.0,95.0,event
09:18:46.943,0.77515256,0.0,0.0,0.96923304,0.40752196,0.0,0.0,0.5926649,0.63140374,0.0,0.0,0.7350423,0.8105964,0.0,0.0,0.87714916,0.7064968,0.0,0.0,0.59012204,808.2784,955.34796,949.304,823.5897,790.14655,-0.14373779296875,0.114501953125,0.9722900390625,2.452392578125,-3.416900634765625,0.485992431640625,1.0,1.0,4.0,4.0,1.0,95.0,event
09:18:46.944,0.77515256,0.0,0.0,0.96923304,0.40752196,0.0,0.0,0.5926649,0.63140374,0.0,0.0,0.7350423,0.8105964,0.0,0.0,0.87714916,0.7064968,0.0,0.0,0.59012204,787.72894,778.86444,739.3773,792.1612,764.35895,-0.14373779296875,0.114501953125,0.9722900390625,2.452392578125,-3.416900634765625,0.485992431640625,1.0,1.0,4.0,4.0,1.0,95.0,event
09:18:46.971,0.77515256,0.0,0.0,0.96923304,0.40752196,0.0,0.0,0.5926649,0.63140374,0.0,0.0,0.7350423,0.8105964,0.0,0.0,0.87714916,0.7064968,0.0,0.0,0.59012204,789.34064,774.0293,720.0366,773.6264,759.92676,-0.146728515625,0.11572265625,0.971923828125,1.682281494140625,-2.85614013671875,0.83740234375,1.0,1.0,4.0,4.0,1.0,95.0,event
09:18:46.972,0.77515256,0.0,0.0,0.96923304,0.40752196,0.0,0.0,0.5926649,0.63140374,0.0,0.0,0.7350423,0.8105964,0.0,0.0,0.87714916,0.7064968,0.0,0.0,0.59012204,800.2198,985.56775,952.9304,785.7143,758.315,-0.146728515625,0.11572265625,0.971923828125,1.682281494140625,-2.85614013671875,0.83740234375,1.0,1.0,4.0,4.0,1.0,95.0,event
09:18:46.972,0.77515256,0.0,0.0,0.96923304,0.40752196,0.0,0.0,0.5926649,0.63140374,0.0,0.0,0.7350423,0.8105964,0.0,0.0,0.87714916,0.7064968,0.0,0.0,0.59012204,806.6667,802.6374,846.1539,803.0403,828.8278,-0.146728515625,0.11572265625,0.971923828125,1.682281494140625,-2.85614013671875,0.83740234375,1.0,1.0,4.0,4.0,1.0,95.0,event
09:18:46.973,0.77515256,0.0,0.0,0.96923304,0.40752196,0.0,0.0,0.5926649,0.63140374,0.0,0.0,0.7350423,0.8105964,0.0,0.0,0.87714916,0.7064968,0.0,0.0,0.59012204,811.0989,738.5714,774.43225,815.9341,861.8681,-0.146728515625,0.11572265625,0.971923828125,1.682281494140625,-2.85614013671875,0.83740234375,1.0,1.0,4.0,4.0,1.0,95.0,event
09:18:46.973,0.77515256,0.0,0.0,0.96923304,0.40752196,0.0,0.0,0.5926649,0.63140374,0.0,0.0,0.7350423,0.8105964,0.0,0.0,0.87714916,0.7064968,0.0,0.0,0.59012204,809.89014,988.7912,927.9487,809.89014,773.22345,-0.146728515625,0.11572265625,0.971923828125,1.682281494140625,-2.85614013671875,0.83740234375,1.0,1.0,4.0,4.0,1.0,95.0,event
09:18:46.974,0.77515256,0.0,0.0,0.96923304,0.40752196,0.0,0.0,0.5926649,0.63140374,0.0,0.0,0.7350423,0.8105964,0.0,0.0,0.87714916,0.7064968,0.0,0.0,0.59012204,781.685,267.54578,353.36996,786.9231,998.86444,-0.146728515625,0.11572265625,0.971923828125,1.682281494140625,-2.85614013671875,0.83740234375,1.0,1.0,4.0,4.0,1.0,95.0,event
09:18:46.974,0.77515256,0.0,0.0,0.96923304,0.40752196,0.0,0.0,0.5926649,0.63140374,0.0,0.0,0.7350423,0.8105964,0.0,0.0,0.87714916,0.7064968,0.0,0.0,0.59012204,799.011,796.99634,778.46155,792.1612,751.8681,-0.146728515625,0.11572265625,0.971923828125,1.682281494140625,-2.85614013671875,0.83740234375,1.0,1.0,4.0,4.0,1.0,95.0,event
09:18:46.975,0.7327066,0.0,0.0,0.8814641,0.3765897,0.0,0.0,0.52595145,0.5938809,0.0,0.0,0.729002,0.8168232,0.0,0.0,0.881495,0.67336833,0.0,0.0,0.5716781,788.93774,331.2088,417.03296,795.38464,1001.685,-0.146728515625,0.11572265625,0.971923828125,1.682281494140625,-2.85614013671875,0.83740234375,1.0,1.0,4.0,4.0,1.0,95.0,event
09:18:46.979,0.7327066,0.0,0.0,0.8814641,0.3765897,0.0,0.0,0.52595145,0.5938809,0.0,0.0,0.729002,0.8168232,0.0,0.0,0.881495,0.67336833,0.0,0.0,0.5716781,811.0989,1062.1245,1054.4689,812.3077,699.0842,-0.146728515625,0.11572265625,0.971923828125,1.682281494140625,-2.85614013671875,0.83740234375,1.0,1.0,4.0,4.0,1.0,95.0,event
09:18:46.979,0.7327066,0.0,0.0,0.8814641,0.3765897,0.0,0.0,0.52595145,0.5938809,0.0,0.0,0.729002,0.8168232,0.0,0.0,0.881495,0.67336833,0.0,0.0,0.5716781,809.4872,968.24176,935.6044,804.65204,750.2564,-0.146728515625,0.11572265625,0.971923828125,1.682281494140625,-2.85614013671875,0.83740234375,1.0,1.0,4.0,4.0,1.0,95.0,event
09:18:46.980,0.7327066,0.0,0.0,0.8814641,0.3765897,0.0,0.0,0.52595145,0.5938809,0.0,0.0,0.729002,0.8168232,0.0,0.0,0.881495,0.67336833,0.0,0.0,0.5716781,791.3553,737.76556,720.84247,780.07324,766.77655,-0.146728515625,0.11572265625,0.971923828125,1.682281494140625,-2.85614013671875,0.83740234375,1.0,1.0,4.0,4.0,1.0,95.0,event
09:18:46.980,0.7327066,0.0,0.0,0.8814641,0.3765897,0.0,0.0,0.52595145,0.5938809,0.0,0.0,0.729002,0.8168232,0.0,0.0,0.881495,0.67336833,0.0,0.0,0.5716781,786.9231,949.304,925.5311,777.25275,685.38464,-0.146728515625,0.11572265625,0.971923828125,1.682281494140625,-2.85614013671875,0.83740234375,1.0,1.0,4.0,4.0,1.0,95.0,event
09:18:47.039,0.7327066,0.0,0.0,0.8814641,0.3765897,0.0,0.0,0.52595145,0.5938809,0.0,0.0,0.729002,0.8168232,0.0,0.0,0.881495,0.67336833,0.0,0.0,0.5716781,793.36993,1154.7986,1131.4286,782.49084,684.17584,-0.146728515625,0.11572265625,0.971923828125,1.682281494140625,-2.85614013671875,0.83740234375,1.0,1.0,4.0,4.0,1.0,95.0,event
09:18:47.040,0.7327066,0.0,0.0,0.8814641,0.3765897,0.0,0.0,0.52595145,0.5938809,0.0,0.0,0.729002,0.8168232,0.0,0.0,0.881495,0.67336833,0.0,0.0,0.5716781,807.0696,998.46155,1002.0879,799.41394,772.8205,-0.146728515625,0.11572265625,0.971923828125,1.682281494140625,-2.85614013671875,0.83740234375,1.0,1.0,4.0,4.0,1.0,95.0,event
09:18:47.041,0.7327066,0.0,0.0,0.8814641,0.3765897,0.0,0.0,0.52595145,0.5938809,0.0,0.0,0.729002,0.8168232,0.0,0.0,0.881495,0.67336833,0.0,0.0,0.5716781,815.12823,744.21246,758.71796,790.9524,844.5421,-0.146728515625,0.11572265625,0.971923828125,1.682281494140625,-2.85614013671875,0.83740234375,1.0,1.0,4.0,4.0,1.0,95.0,event
09:18:47.041,0.7327066,0.0,0.0,0.8814641,0.3765897,0.0,0.0,0.52595145,0.5938809,0.0,0.0,0.729002,0.8168232,0.0,0.0,0.881495,0.67336833,0.0,0.0,0.5716781,799.81683,674.5055,670.07324,767.98535,781.685,-0.146728515625,0.11572265625,0.971923828125,1.682281494140625,-2.85614013671875,0.83740234375,1.0,1.0,4.0,4.0,1.0,95.0,event
09:18:47.042,0.7327066,0.0,0.0,0.8814641,0.3765897,0.0,0.0,0.52595145,0.5938809,0.0,0.0,0.729002,0.8168232,0.0,0.0,0.881495,0.67336833,0.0,0.0,0.5716781,793.36993,900.9524,880.80585,769.19415,717.2161,-0.146728515625,0.11572265625,0.971923828125,1.682281494140625,-2.85614013671875,0.83740234375,1.0,1.0,4.0,4.0,1.0,95.0,event
09:18:47.043,0.7327066,0.0,0.0,0.8814641,0.3765897,0.0,0.0,0.52595145,0.5938809,0.0,0.0,0.729002,0.8168232,0.0,0.0,0.881495,0.67336833,0.0,0.0,0.5716781,819.9634,142.63736,299.3773,813.5165,1205.5677,-0.146728515625,0.11572265625,0.971923828125,1.682281494140625,-2.85614013671875,0.83740234375,1.0,1.0,4.0,4.0,1.0,95.0,event
09:18:47.043,0.7327066,0.0,0.0,0.8814641,0.3765897,0.0,0.0,0.52595145,0.5938809,0.0,0.0,0.729002,0.8168232,0.0,0.0,0.881495,0.67336833,0.0,0.0,0.5716781,813.91943,801.02563,881.6117,782.8938,902.5641,-0.146728515625,0.11572265625,0.971923828125,1.682281494140625,-2.85614013671875,0.83740234375,1.0,1.0,4.0,4.0,1.0,95.0,event
09:18:47.044,0.7327066,0.0,0.0,0.8814641,0.3765897,0.0,0.0,0.52595145,0.5938809,0.0,0.0,0.729002,0.8168232,0.0,0.0,0.881495,0.67336833,0.0,0.0,0.5716781,807.47253,446.84982,473.44324,810.696,955.34796,-0.146728515625,0.11572265625,0.971923828125,1.682281494140625,-2.85614013671875,0.83740234375,1.0,1.0,4.0,4.0,1.0,95.0,event
09:18:47.045,0.7327066,0.0,0.0,0.8814641,0.3765897,0.0,0.0,0.52595145,0.5938809,0.0,0.0,0.729002,0.8168232,0.0,0.0,0.881495,0.67336833,0.0,0.0,0.5716781,786.52014,957.76556,894.10254,785.7143,648.71796,-0.146728515625,0.11572265625,0.971923828125,1.682281494140625,-2.85614013671875,0.83740234375,1.0,1.0,4.0,4.0,1.0,95.0,event
09:18:47.046,0.7327066,0.0,0.0,0.8814641,0.3765897,0.0,0.0,0.52595145,0.5938809,0.0,0.0,0.729002,0.8168232,0.0,0.0,0.881495,0.67336833,0.0,0.0,0.5716781,776.8498,751.4652,763.1502,784.5055,738.5714,-0.146728515625,0.11572265625,0.971923828125,1.682281494140625,-2.85614013671875,0.83740234375,1.0,1.0,4.0,4.0,1.0,95.0,event
09:18:47.047,0.7327066,0.0,0.0,0.8814641,0.3765897,0.0,0.0,0.52595145,0.5938809,0.0,0.0,0.729002,0.8168232,0.0,0.0,0.881495,0.67336833,0.0,0.0,0.5716781,791.3553,813.1135,861.4652,795.38464,774.83514,-0.146728515625,0.11572265625,0.971923828125,1.682281494140625,-2.85614013671875,0.83740234375,1.0,1.0,4.0,4.0,1.0,95.0,event
09:18:47.048,0.7327066,0.0,0.0,0.8814641,0.3765897,0.0,0.0,0.52595145,0.5938809,0.0,0.0,0.729002,0.8168232,0.0,0.0,0.881495,0.67336833,0.0,0.0,0.5716781,799.011,1130.2197,1119.3407,814.3223,718.8278,-0.146728515625,0.11572265625,0.971923828125,1.682281494140625,-2.85614013671875,0.83740234375,1.0,1.0,4.0,4.0,1.0,95.0,event
09:18:47.072,0.7327066,0.0,0.0,0.8814641,0.3765897,0.0,0.0,0.52595145,0.5938809,0.0,0.0,0.729002,0.8168232,0.0,0.0,0.881495,0.67336833,0.0,0.0,0.5716781,796.1905,1036.337,1002.8938,806.6667,734.94507,-0.1436767578125,0.1217041015625,0.970458984375,1.921539306640625,-2.94586181640625,0.13458251953125,1.0,1.0,4.0,4.0,1.0,95.0,event
09:18:47.073,0.7327066,0.0,0.0,0.8814641,0.3765897,0.0,0.0,0.52595145,0.5938809,0.0,0.0,0.729002,0.8168232,0.0,0.0,0.881495,0.67336833,0.0,0.0,0.5716781,796.5934,710.3663,700.696,782.0879,800.6227,-0.1436767578125,0.1217041015625,0.970458984375,1.921539306640625,-2.94586181640625,0.13458251953125,1.0,1.0,4.0,4.0,1.0,95.0,event
09:18:47.074,0.7327066,0.0,0.0,0.8814641,0.3765897,0.0,0.0,0.52595145,0.5938809,0.0,0.0,0.729002,0.8168232,0.0,0.0,0.881495,0.67336833,0.0,0.0,0.5716781,798.20514,740.989,739.7802,774.0293,761.53845,-0.1436767578125,0.1217041015625,0.970458984375,1.921539306640625,-2.94586181640625,0.13458251953125,1.0,1.0,4.0,4.0,1.0,95.0,event
09:18:47.075,0.7327066,0.0,0.0,0.8814641,0.3765897,0.0,0.0,0.52595145,0.5938809,0.0,0.0,0.729002,0.8168232,0.0,0.0,0.881495,0.67336833,0.0,0.0,0.5716781,797.8022,1033.5165,1026.2638,784.10254,675.7143,-0.1436767578125,0.1217041015625,0.970458984375,1.921539306640625,-2.94586181640625,0.13458251953125,1.0,1.0,4.0,4.0,1.0,95.0,event
09:18:47.075,0.7327066,0.0,0.0,0.8814641,0.3765897,0.0,0.0,0.52595145,0.5938809,0.0,0.0,0.729002,0.8168232,0.0,0.0,0.881495,0.67336833,0.0,0.0,0.5716781,812.3077,1041.5751,1014.57874,809.0842,679.34064,-0.1436767578125,0.1217041015625,0.970458984375,1.921539306640625,-2.94586181640625,0.13458251953125,1.0,1.0,4.0,4.0,1.0,95.0,event
09:18:47.076,0.7327066,0.0,0.0,0.8814641,0.3765897,0.0,0.0,0.52595145,0.5938809,0.0,0.0,0.729002,0.8168232,0.0,0.0,0.881495,0.67336833,0.0,0.0,0.5716781,815.5311,540.32965,562.49084,816.7399,861.4652,-0.1436767578125,0.1217041015625,0.970458984375,1.921539306640625,-2.94586181640625,0.13458251953125,1.0,1.0,4.0,4.0,1.0,95.0,event
09:18:47.077,0.7327066,0.0,0.0,0.8814641,0.3765897,0.0,0.0,0.52595145,0.5938809,0.0,0.0,0.729002,0.8168232,0.0,0.0,0.881495,0.67336833,0.0,0.0,0.5716781,803.44324,350.54944,407.76556,809.4872,940.84247,-0.1436767578125,0.1217041015625,0.970458984375,1.921539306640625,-2.94586181640625,0.13458251953125,1.0,1.0,4.0,4.0,1.0,95.0,event
09:18:47.077,0.7327066,0.0,0.0,0.8814641,0.3765897,0.0,0.0,0.52595145,0.5938809,0.0,0.0,0.729002,0.8168232,0.0,0.0,0.881495,0.67336833,0.0,0.0,0.5716781,800.2198,567.326,569.34064,798.20514,788.5348,-0.1436767578125,0.1217041015625,0.970458984375,1.921539306640625,-2.94586181640625,0.13458251953125,1.0,1.0,4.0,4.0,1.0,95.0,event
09:18:47.078,0.7327066,0.0,0.0,0.8814641,0.3765897,0.0,0.0,0.52595145,0.5938809,0.0,0.0,0.729002,0.8168232,0.0,0.0,0.881495,0.67336833,0.0,0.0,0.5716781,808.2784,880.40295,880.0,790.9524,746.2271,-0.1436767578125,0.1217041015625,0.970458984375,1.921539306640625,-2.94586181640625,0.13458251953125,1.0,1.0,4.0,4.0,1.0,95.0,event
09:18:47.079,0.6711294,0.0,0.0,0.72678804,0.32851887,0.0,0.0,0.41993934,0.5540661,0.0,0.0,0.72506404,0.8153011,0.0,0.0,0.8790749,0.6205782,0.0,0.0,0.53651375,814.3223,464.9817,544.7619,810.696,965.0183,-0.1436767578125,0.1217041015625,0.970458984375,1.921539306640625,-2.94586181640625,0.13458251953125,1.0,1.0,4.0,4.0,1.0,95.0,event
09:18:47.083,0.6711294,0.0,0.0,0.72678804,0.32851887,0.0,0.0,0.41993934,0.5540661,0.0,0.0,0.72506404,0.8153011,0.0,0.0,0.8790749,0.6205782,0.0,0.0,0.53651375,806.26373,187.36264,244.57875,821.5751,991.6117,-0.1436767578125,0.1217041015625,0.970458984375,1.921539306640625,-2.94586181640625,0.13458251953125,1.0,1.0,4.0,4.0,1.0,95.0,event
09:18:47.084,0.6711294,0.0,0.0,0.72678804,0.32851887,0.0,0.0,0.41993934,0.5540661,0.0,0.0,0.72506404,0.8153011,0.0,0.0,0.8790749,0.6205782,0.0,0.0,0.53651375,796.1905,902.96704,843.73627,802.23444,755.09155,-0.1436767578125,0.1217041015625,0.970458984375,1.921539306640625,-2.94586181640625,0.13458251953125,1.0,1.0,4.0,4.0,1.0,95.0,event
09:18:47.110,0.6711294,0.0,0.0,0.72678804,0.32851887,0.0,0.0,0.41993934,0.5540661,0.0,0.0,0.72506404,0.8153011,0.0,0.0,0.8790749,0.6205782,0.0,0.0,0.53651375,788.1319,916.26373,876.77655,788.5348,772.01465,-0.1483154296875,0.1102294921875,0.97076416015625,1.607513427734375,-2.415008544921875,0.291595458984375,1.0,1.0,4.0,4.0,1.0,95.0,event
09:18:47.111,0.6711294,0.0,0.0,0.72678804,0.32851887,0.0,0.0,0.41993934,0.5540661,0.0,0.0,0.72506404,0.8153011,0.0,0.0,0.8790749,0.6205782,0.0,0.0,0.53651375,786.1172,850.58606,850.18317,792.1612,832.8571,-0.1483154296875,0.1102294921875,0.97076416015625,1.607513427734375,-2.415008544921875,0.291595458984375,1.0,1.0,4.0,4.0,1.0,95.0,event
09:18:47.112,0.6711294,0.0,0.0,0.72678804,0.32851887,0.0,0.0,0.41993934,0.5540661,0.0,0.0,0.72506404,0.8153011,0.0,0.0,0.8790749,0.6205782,0.0,0.0,0.53651375,804.65204,1091.1355,1075.8242,809.0842,765.56775,-0.1483154296875,0.1102294921875,0.97076416015625,1.607513427734375,-2.415008544921875,0.291595458984375,1.0,1.0,4.0,4.0,1.0,95.0,event
09:18:47.113,0.6711294,0.0,0.0,0.72678804,0.32851887,0.0,0.0,0.41993934,0.5540661,0.0,0.0,0.72506404,0.8153011,0.0,0.0,0.8790749,0.6205782,0.0,0.0,0.53651375,813.5165,1080.2565,1032.7106,809.4872,694.65204,-0.1483154296875,0.1102294921875,0.97076416015625,1.607513427734375,-2.415008544921875,0.291595458984375,1.0,1.0,4.0,4.0,1.0,95.0,event
09:18:47.113,0.6711294,0.0,0.0,0.72678804,0.32851887,0.0,0.0,0.41993934,0.5540661,0.0,0.0,0.72506404,0.8153011,0.0,0.0,0.8790749,0.6205782,0.0,0.0,0.53651375,813.91943,769.19415,739.7802,809.0842,780.87915,-0.1483154296875,0.1102294921875,0.97076416015625,1.607513427734375,-2.415008544921875,0.291595458984375,1.0,1.0,4.0,4.0,1.0,95.0,event
09:18:47.114,0.6711294,0.0,0.0,0.72678804,0.32851887,0.0,0.0,0.41993934,0.5540661,0.0,0.0,0.72506404,0.8153011,0.0,0.0,0.8790749,0.6205782,0.0,0.0,0.53651375,807.0696,576.5934,613.2601,793.36993,775.2381,-0.1483154296875,0.1102294921875,0.97076416015625,1.607513427734375,-2.415008544921875,0.291595458984375,1.0,1.0,4.0,4.0,1.0,95.0,event
09:18:47.114,0.6711294,0.0,0.0,0.72678804,0.32851887,0.0,0.0,0.41993934,0.5540661,0.0,0.0,0.72506404,0.8153011,0.0,0.0,0.8790749,0.6205782,0.0,0.0,0.53651375,808.2784,492.38095,525.42126,809.4872,855.82416,-0.1483154296875,0.1102294921875,0.97076416015625,1.607513427734375,-2.415008544921875,0.291595458984375,1.0,1.0,4.0,4.0,1.0,95.0,event
09:18:47.115,0.6711294,0.0,0.0,0.72678804,0.32851887,0.0,0.0,0.41993934,0.5540661,0.0,0.0,0.72506404,0.8153011,0.0,0.0,0.8790749,0.6205782,0.0,0.0,0.53651375,820.3663,1016.5934,991.6117,806.26373,738.1685,-0.1483154296875,0.1102294921875,0.97076416015625,1.607513427734375,-2.415008544921875,0.291595458984375,1.0,1.0,4.0,4.0,1.0,95.0,event
09:18:47.115,0.6711294,0.0,0.0,0.72678804,0.32851887,0.0,0.0,0.41993934,0.5540661,0.0,0.0,0.72506404,0.8153011,0.0,0.0,0.8790749,0.6205782,0.0,0.0,0.53651375,813.5165,822.381,871.9414,816.337,909.81683,-0.1483154296875,0.1102294921875,0.97076416015625,1.607513427734375,-2.415008544921875,0.291595458984375,1.0,1.0,4.0,4.0,1.0,95.0,event
09:18:47.116,0.6711294,0.0,0.0,0.72678804,0.32851887,0.0,0.0,0.41993934,0.5540661,0.0,0.0,0.72506404,0.8153011,0.0,0.0,0.8790749,0.6205782,0.0,0.0,0.53651375,803.44324,53.186813,141.02563,809.89014,1132.6373,-0.1483154296875,0.1102294921875,0.97076416015625,1.607513427734375,-2.415008544921875,0.291595458984375,1.0,1.0,4.0,4.0,1.0,95.0,event
09:18:47.117,0.6711294,0.0,0.0,0.72678804,0.32851887,0.0,0.0,0.41993934,0.5540661,0.0,0.0,0.72506404,0.8153011,0.0,0.0,0.8790749,0.6205782,0.0,0.0,0.53651375,791.3553,509.30402,475.4579,794.57874,869.92676,-0.1483154296875,0.1102294921875,0.97076416015625,1.607513427734375,-2.415008544921875,0.291595458984375,1.0,1.0,4.0,4.0,1.0,95.0,event
09:18:47.117,0.6711294,0.0,0.0,0.72678804,0.32851887,0.0,0.0,0.41993934,0.5540661,0.0,0.0,0.72506404,0.8153011,0.0,0.0,0.8790749,0.6205782,0.0,0.0,0.53651375,788.5348,1046.4103,1010.14655,778.0586,622.52747,-0.1483154296875,0.1102294921875,0.97076416015625,1.607513427734375,-2.415008544921875,0.291595458984375,1.0,1.0,4.0,4.0,1.0,95.0,event
09:18:47.139,0.6711294,0.0,0.0,0.72678804,0.32851887,0.0,0.0,0.41993934,0.5540661,0.0,0.0,0.72506404,0.8153011,0.0,0.0,0.8790749,0.6205782,0.0,0.0,0.53651375,794.9817,878.7912,906.5934,790.14655,766.77655,-0.14630126953125,0.1151123046875,0.970458984375,2.40753173828125,-0.0,0.127105712890625,1.0,1.0,4.0,4.0,1.0,95.0,event
09:18:47.140,0.6711294,0.0,0.0,0.72678804,0.32851887,0.0,0.0,0.41993934,0.5540661,0.0,0.0,0.72506404,0.8153011,0.0,0.0,0.8790749,0.6205782,0.0,0.0,0.53651375,800.6227,878.7912,894.10254,812.71063,833.663,-0.14630126953125,0.1151123046875,0.970458984375,2.40753173828125,-0.0,0.127105712890625,1.0,1.0,4.0,4.0,1.0,95.0,event
09:18:47.141,0.6711294,0.0,0.0,0.72678804,0.32851887,0.0,0.0,0.41993934,0.5540661,0.0,0.0,0.72506404,0.8153011,0.0,0.0,0.8790749,0.6205782,0.0,0.0,0.53651375,800.2198,994.43225,938.8278,809.89014,744.21246,-0.14630126953125,0.1151123046875,0.970458984375,2.40753173828125,-0.0,0.127105712890625,1.0,1.0,4.0,4.0,1.0,95.0,event
09:18:47.142,0.6711294,0.0,0.0,0.72678804,0.32851887,0.0,0.0,0.41993934,0.5540661,0.0,0.0,0.72506404,0.8153011,0.0,0.0,0.8790749,0.6205782,0.0,0.0,0.53651375,797.8022,938.8278,897.72894,794.9817,710.3663,-0.14630126953125,0.1151123046875,0.970458984375,2.40753173828125,-0.0,0.127105712890625,1.0,1.0,4.0,4.0,1.0,95.0,event
09:18:47.142,0.6711294,0.0,0.0,0.72678804,0.32851887,0.0,0.0,0.41993934,0.5540661,0.0,0.0,0.72506404,0.8153011,0.0,0.0,0.8790749,0.6205782,0.0,0.0,0.53651375,796.5934,811.50183,822.381,789.34064,743.8095,-0.14630126953125,0.1151123046875,0.970458984375,2.40753173828125,-0.0,0.127105712890625,1.0,1.0,4.0,4.0,1.0,95.0,event
09:18:47.143,0.6711294,0.0,0.0,0.72678804,0.32851887,0.0,0.0,0.41993934,0.5540661,0.0,0.0,0.72506404,0.8153011,0.0,0.0,0.8790749,0.6205782,0.0,0.0,0.53651375,796.1905,738.5714,785.31134,797.3993,872.3443,-0.14630126953125,0.1151123046875,0.970458984375,2.40753173828125,-0.0,0.127105712890625,1.0,1.0,4.0,4.0,1.0,95.0,event
09:18:47.144,0.6711294,0.0,0.0,0.72678804,0.32851887,0.0,0.0,0.41993934,0.5540661,0.0,0.0,0.72506404,0.8153011,0.0,0.0,0.8790749,0.6205782,0.0,0.0,0.53651375,799.41394,748.24176,762.74725,814.7253,985.16486,-0.14630126953125,0.1151123046875,0.970458984375,2.40753173828125,-0.0,0.127105712890625,1.0,1.0,4.0,4.0,1.0,95.0,event
09:18:47.145,0.6711294,0.0,0.0,0.72678804,0.32851887,0.0,0.0,0.41993934,0.5540661,0.0,0.0,0.72506404,0.8153011,0.0,0.0,0.8790749,0.6205782,0.0,0.0,0.53651375,805.05493,896.1172,853.4066,801.8315,890.87915,-0.14630126953125,0.1151123046875,0.970458984375,2.40753173828125,-0.0,0.127105712890625,1.0,1.0,4.0,4.0,1.0,95.0,event
09:18:47.145,0.6711294,0.0,0.0,0.72678804,0.32851887,0.0,0.0,0.41993934,0.5540661,0.0,0.0,0.72506404,0.8153011,0.0,0.0,0.8790749,0.6205782,0.0,0.0,0.53651375,800.2198,407.76556,409.3773,787.326,952.52747,-0.14630126953125,0.1151123046875,0.970458984375,2.40753173828125,-0.0,0.127105712890625,1.0,1.0,4.0,4.0,1.0,95.0,event
09:18:47.146,0.6711294,0.0,0.0,0.72678804,0.32851887,0.0,0.0,0.41993934,0.5540661,0.0,0.0,0.72506404,0.8153011,0.0,0.0,0.8790749,0.6205782,0.0,0.0,0.53651375,796.5934,299.7802,325.56778,794.9817,913.0403,-0.14630126953125,0.1151123046875,0.970458984375,2.40753173828125,-0.0,0.127105712890625,1.0,1.0,4.0,4.0,1.0,95.0,event
09:18:47.147,0.6711294,0.0,0.0,0.72678804,0.32851887,0.0,0.0,0.41993934,0.5540661,0.0,0.0,0.72506404,0.8153011,0.0,0.0,0.8790749,0.6205782,0.0,0.0,0.53651375,805.05493,1077.4359,1050.0366,800.6227,679.7436,-0.14630126953125,0.1151123046875,0.970458984375,2.40753173828125,-0.0,0.127105712890625,1.0,1.0,4.0,4.0,1.0,95.0,event
09:18:47.147,0.5946531,0.0,0.0,0.49436796,0.25438017,0.0,0.0,0.25134107,0.5313218,0.0,0.0,0.5074317,0.802508,0.0,0.0,0.86668915,0.55936325,0.0,0.0,0.49041343,800.6227,985.16486,971.4652,814.3223,699.4872,-0.14630126953125,0.1151123046875,0.970458984375,2.40753173828125,-0.0,0.127105712890625,1.0,1.0,4.0,4.0,1.0,95.0,event
09:18:47.234,0.5946531,0.0,0.0,0.49436796,0.25438017,0.0,0.0,0.25134107,0.5313218,0.0,0.0,0.5074317,0.802508,0.0,0.0,0.86668915,0.55936325,0.0,0.0,0.49041343,799.011,533.47986,561.685,812.3077,788.93774,-0.1502685546875,0.11761474609375,0.96832275390625,1.682281494140625,-1.846771240234375,0.2392578125,1.0,1.0,4.0,4.0,1.0,95.0,event
09:18:47.235,0.5946531,0.0,0.0,0.49436796,0.25438017,0.0,0.0,0.25134107,0.5313218,0.0,0.0,0.5074317,0.802508,0.0,0.0,0.86668915,0.55936325,0.0,0.0,0.49041343,797.3993,651.13556,635.42126,785.31134,745.42126,-0.1502685546875,0.11761474609375,0.96832275390625,1.682281494140625,-1.846771240234375,0.2392578125,1.0,1.0,4.0,4.0,1.0,95.0,event
09:18:47.236,0.5946531,0.0,0.0,0.49436796,0.25438017,0.0,0.0,0.25134107,0.5313218,0.0,0.0,0.5074317,0.802508,0.0,0.0,0.86668915,0.55936325,0.0,0.0,0.49041343,791.75824,1009.7436,956.1539,765.9707,615.2747,-0.1502685546875,0.11761474609375,0.96832275390625,1.682281494140625,-1.846771240234375,0.2392578125,1.0,1.0,4.0,4.0,1.0,95.0,event
09:18:47.236,0.5946531,0.0,0.0,0.49436796,0.25438017,0.0,0.0,0.25134107,0.5313218,0.0,0.0,0.5074317,0.802508,0.0,0.0,0.86668915,0.55936325,0.0,0.0,0.49041343,810.696,807.8755,828.4249,798.20514,657.1795,-0.1502685546875,0.11761474609375,0.96832275390625,1.682281494140625,-1.846771240234375,0.2392578125,1.0,1.0,4.0,4.0,1.0,95.0,event
09:18:47.237,0.5946531,0.0,0.0,0.49436796,0.25438017,0.0,0.0,0.25134107,0.5313218,0.0,0.0,0.5074317,0.802508,0.0,0.0,0.86668915,0.55936325,0.0,0.0,0.49041343,828.8278,508.09525,593.91943,829.2308,796.99634,-0.1502685546875,0.11761474609375,0.96832275390625,1.682281494140625,-1.846771240234375,0.2392578125,1.0,1.0,4.0,4.0,1.0,95.0,event
09:18:47.238,0.5946531,0.0,0.0,0.49436796,0.25438017,0.0,0.0,0.25134107,0.5313218,0.0,0.0,0.5074317,0.802508,0.0,0.0,0.86668915,0.55936325,0.0,0.0,0.49041343,759.92676,661.6117,644.2857,762.74725,848.1685,-0.1502685546875,0.11761474609375,0.96832275390625,1.682281494140625,-1.846771240234375,0.2392578125,1.0,1.0,4.0,4.0,1.0,95.0,event
09:18:47.238,0.5946531,0.0,0.0,0.49436796,0.25438017,0.0,0.0,0.25134107,0.5313218,0.0,0.0,0.5074317,0.802508,0.0,0.0,0.86668915,0.55936325,0.0,0.0,0.49041343,795.78754,630.18317,656.3736,802.6374,843.3333,-0.1502685546875,0.11761474609375,0.96832275390625,1.682281494140625,-1.846771240234375,0.2392578125,1.0,1.0,4.0,4.0,1.0,95.0,event
09:18:47.239,0.5946531,0.0,0.0,0.49436796,0.25438017,0.0,0.0,0.25134107,0.5313218,0.0,0.0,0.5074317,0.802508,0.0,0.0,0.86668915,0.55936325,0.0,0.0,0.49041343,767.5824,473.44324,511.3187,759.92676,909.41394,-0.1502685546875,0.11761474609375,0.96832275390625,1.682281494140625,-1.846771240234375,0.2392578125,1.0,1.0,4.0,4.0,1.0,95.0,event
09:18:47.240,0.5946531,0.0,0.0,0.49436796,0.25438017,0.0,0.0,0.25134107,0.5313218,0.0,0.0,0.5074317,0.802508,0.0,0.0,0.86668915,0.55936325,0.0,0.0,0.49041343,778.0586,743.00366,781.28204,772.8205,795.78754,-0.1502685546875,0.11761474609375,0.96832275390625,1.682281494140625,-1.846771240234375,0.2392578125,1.0,1.0,4.0,4.0,1.0,95.0,event
09:18:47.240,0.5946531,0.0,0.0,0.49436796,0.25438017,0.0,0.0,0.25134107,0.5313218,0.0,0.0,0.5074317,0.802508,0.0,0.0,0.86668915,0.55936325,0.0,0.0,0.49041343,782.0879,236.52014,373.9194,778.46155,978.71796,-0.1502685546875,0.11761474609375,0.96832275390625,1.682281494140625,-1.846771240234375,0.2392578125,1.0,1.0,4.0,4.0,1.0,95.0,event
09:18:47.241,0.5946531,0.0,0.0,0.49436796,0.25438017,0.0,0.0,0.25134107,0.5313218,0.0,0.0,0.5074317,0.802508,0.0,0.0,0.86668915,0.55936325,0.0,0.0,0.49041343,774.83514,1048.8279,980.32965,771.2088,695.8608,-0.1502685546875,0.11761474609375,0.96832275390625,1.682281494140625,-1.846771240234375,0.2392578125,1.0,1.0,4.0,4.0,1.0,95.0,event
09:18:47.242,0.5946531,0.0,0.0,0.49436796,0.25438017,0.0,0.0,0.25134107,0.5313218,0.0,0.0,0.5074317,0.802508,0.0,0.0,0.86668915,0.55936325,0.0,0.0,0.49041343,786.52014,772.01465,715.6044,779.2674,754.68866,-0.1502685546875,0.11761474609375,0.96832275390625,1.682281494140625,-1.846771240234375,0.2392578125,1.0,1.0,4.0,4.0,1.0,95.0,event
09:18:47.268,0.5946531,0.0,0.0,0.49436796,0.25438017,0.0,0.0,0.25134107,0.5313218,0.0,0.0,0.5074317,0.802508,0.0,0.0,0.86668915,0.55936325,0.0,0.0,0.49041343,776.04395,783.2967,738.97437,756.30035,719.2308,-0.1502685546875,0.11761474609375,0.96832275390625,1.682281494140625,-1.846771240234375,0.2392578125,1.0,1.0,4.0,4.0,1.0,95.0,event
09:18:47.270,0.5946531,0.0,0.0,0.49436796,0.25438017,0.0,0.0,0.25134107,0.5313218,0.0,0.0,0.5074317,0.802508,0.0,0.0,0.86668915,0.55936325,0.0,0.0,0.49041343,736.9597,1065.348,1016.1905,718.022,686.1905,-0.1502685546875,0.11761474609375,0.96832275390625,1.682281494140625,-1.846771240234375,0.2392578125,1.0,1.0,4.0,4.0,1.0,95.0,event
09:18:47.271,0.5946531,0.0,0.0,0.49436796,0.25438017,0.0,0.0,0.25134107,0.5313218,0.0,0.0,0.5074317,0.802508,0.0,0.0,0.86668915,0.55936325,0.0,0.0,0.49041343,736.55676,1108.8645,1073.4066,729.707,738.1685,-0.1502685546875,0.11761474609375,0.96832275390625,1.682281494140625,-1.846771240234375,0.2392578125,1.0,1.0,4.0,4.0,1.0,95.0,event
09:18:47.271,0.5946531,0.0,0.0,0.49436796,0.25438017,0.0,0.0,0.25134107,0.5313218,0.0,0.0,0.5074317,0.802508,0.0,0.0,0.86668915,0.55936325,0.0,0.0,0.49041343,738.1685,740.58606,740.58606,740.989,806.26373,-0.1502685546875,0.11761474609375,0.96832275390625,1.682281494140625,-1.846771240234375,0.2392578125,1.0,1.0,4.0,4.0,1.0,95.0,event
09:18:47.272,0.5946531,0.0,0.0,0.49436796,0.25438017,0.0,0.0,0.25134107,0.5313218,0.0,0.0,0.5074317,0.802508,0.0,0.0,0.86668915,0.55936325,0.0,0.0,0.49041343,715.2015,589.0842,573.36993,719.2308,815.5311,-0.1502685546875,0.11761474609375,0.96832275390625,1.682281494140625,-1.846771240234375,0.2392578125,1.0,1.0,4.0,4.0,1.0,95.0,event
09:18:47.273,0.5946531,0.0,0.0,0.49436796,0.25438017,0.0,0.0,0.25134107,0.5313218,0.0,0.0,0.5074317,0.802508,0.0,0.0,0.86668915,0.55936325,0.0,0.0,0.49041343,704.3223,608.022,576.99634,707.1429,722.4542,-0.1502685546875,0.11761474609375,0.96832275390625,1.682281494140625,-1.846771240234375,0.2392578125,1.0,1.0,4.0,4.0,1.0,95.0,event
09:18:47.274,0.5946531,0.0,0.0,0.49436796,0.25438017,0.0,0.0,0.25134107,0.5313218,0.0,0.0,0.5074317,0.802508,0.0,0.0,0.86668915,0.55936325,0.0,0.0,0.49041343,687.8022,679.34064,671.28204,700.293,733.3333,-0.1502685546875,0.11761474609375,0.96832275390625,1.682281494140625,-1.846771240234375,0.2392578125,1.0,1.0,4.0,4.0,1.0,95.0,event
09:18:47.275,0.5946531,0.0,0.0,0.49436796,0.25438017,0.0,0.0,0.25134107,0.5313218,0.0,0.0,0.5074317,0.802508,0.0,0.0,0.86668915,0.55936325,0.0,0.0,0.49041343,686.5934,360.2198,381.5751,717.619,934.7985,-0.1502685546875,0.11761474609375,0.96832275390625,1.682281494140625,-1.846771240234375,0.2392578125,1.0,1.0,4.0,4.0,1.0,95.0,event
09:18:47.276,0.5946531,0.0,0.0,0.49436796,0.25438017,0.0,0.0,0.25134107,0.5313218,0.0,0.0,0.5074317,0.802508,0.0,0.0,0.86668915,0.55936325,0.0,0.0,0.49041343,690.6227,108.388275,108.79121,720.84247,1047.619,-0.1502685546875,0.11761474609375,0.96832275390625,1.682281494140625,-1.846771240234375,0.2392578125,1.0,1.0,4.0,4.0,1.0,95.0,event
09:18:47.277,0.5946531,0.0,0.0,0.49436796,0.25438017,0.0,0.0,0.25134107,0.5313218,0.0,0.0,0.5074317,0.802508,0.0,0.0,0.86668915,0.55936325,0.0,0.0,0.49041343,671.28204,767.5824,706.7399,678.93774,792.96704,-0.1502685546875,0.11761474609375,0.96832275390625,1.682281494140625,-1.846771240234375,0.2392578125,1.0,1.0,4.0,4.0,1.0,95.0,event
09:18:47.277,0.5946531,0.0,0.0,0.49436796,0.25438017,0.0,0.0,0.25134107,0.5313218,0.0,0.0,0.5074317,0.802508,0.0,0.0,0.86668915,0.55936325,0.0,0.0,0.49041343,662.4176,938.4249,876.77655,660.80585,674.90845,-0.1502685546875,0.11761474609375,0.96832275390625,1.682281494140625,-1.846771240234375,0.2392578125,1.0,1.0,4.0,4.0,1.0,95.0,event
09:18:47.278,0.5946531,0.0,0.0,0.49436796,0.25438017,0.0,0.0,0.25134107,0.5313218,0.0,0.0,0.5074317,0.802508,0.0,0.0,0.86668915,0.55936325,0.0,0.0,0.49041343,671.28204,610.4396,645.4945,664.43225,865.89746,-0.1502685546875,0.11761474609375,0.96832275390625,1.682281494140625,-1.846771240234375,0.2392578125,1.0,1.0,4.0,4.0,1.0,95.0,event
09:18:47.322,0.5946531,0.0,0.0,0.49436796,0.25438017,0.0,0.0,0.25134107,0.5313218,0.0,0.0,0.5074317,0.802508,0.0,0.0,0.86668915,0.55936325,0.0,0.0,0.49041343,684.57874,825.6044,841.7216,680.9524,820.7692,-0.1544189453125,0.112060546875,0.97259521484375,1.607513427734375,-1.009368896484375,-0.0897216796875,1.0,1.0,4.0,4.0,1.0,95.0,event
09:18:47.324,0.53755045,0.0,0.0,0.49436796,0.17684451,0.0,0.0,0.25134107,0.5003686,0.0,0.0,0.5074317,0.79237163,0.0,0.0,0.86668915,0.51428103,0.0,0.0,0.49041343,690.2198,1145.5311,1056.8865,707.9487,692.6374,-0.1544189453125,0.112060546875,0.97259521484375,1.607513427734375,-1.009368896484375,-0.0897216796875,1.0,1.0,4.0,4.0,1.0,95.0,event
09:18:47.329,0.53755045,0.0,0.0,0.49436796,0.17684451,0.0,0.0,0.25134107,0.5003686,0.0,0.0,0.5074317,0.79237163,0.0,0.0,0.86668915,0.51428103,0.0,0.0,0.49041343,685.78754,865.89746,798.20514,701.50183,754.68866,-0.1544189453125,0.112060546875,0.97259521484375,1.607513427734375,-1.009368896484375,-0.0897216796875,1.0,1.0,4.0,4.0,1.0,95.0,event
09:18:47.330,0.53755045,0.0,0.0,0.49436796,0.17684451,0.0,0.0,0.25134107,0.5003686,0.0,0.0,0.5074317,0.79237163,0.0,0.0,0.86668915,0.51428103,0.0,0.0,0.49041343,683.36993,736.55676,696.26373,678.93774,761.9414,-0.1544189453125,0.112060546875,0.97259521484375,1.607513427734375,-1.009368896484375,-0.0897216796875,1.0,1.0,4.0,4.0,1.0,95.0,event
09:18:47.331,0.53755045,0.0,0.0,0.49436796,0.17684451,0.0,0.0,0.25134107,0.5003686,0.0,0.0,0.5074317,0.79237163,0.0,0.0,0.86668915,0.51428103,0.0,0.0,0.49041343,701.0989,1024.249,968.6447,691.4286,766.3736,-0.1544189453125,0.112060546875,0.97259521484375,1.607513427734375,-1.009368896484375,-0.0897216796875,1.0,1.0,4.0,4.0,1.0,95.0,event
09:18:47.332,0.53755045,0.0,0.0,0.49436796,0.17684451,0.0,0.0,0.25134107,0.5003686,0.0,0.0,0.5074317,0.79237163,0.0,0.0,0.86668915,0.51428103,0.0,0.0,0.49041343,719.2308,946.4835,934.3956,724.87177,813.5165,-0.1544189453125,0.112060546875,0.97259521484375,1.607513427734375,-1.009368896484375,-0.0897216796875,1.0,1.0,4.0,4.0,1.0,95.0,event
09:18:47.332,0.53755045,0.0,0.0,0.49436796,0.17684451,0.0,0.0,0.25134107,0.5003686,0.0,0.0,0.5074317,0.79237163,0.0,0.0,0.86668915,0.51428103,0.0,0.0,0.49041343,733.73627,597.1429,668.86444,740.989,942.8571,-0.1544189453125,0.112060546875,0.97259521484375,1.607513427734375,-1.009368896484375,-0.0897216796875,1.0,1.0,4.0,4.0,1.0,95.0,event
09:18:47.333,0.53755045,0.0,0.0,0.49436796,0.17684451,0.0,0.0,0.25134107,0.5003686,0.0,0.0,0.5074317,0.79237163,0.0,0.0,0.86668915,0.51428103,0.0,0.0,0.49041343,745.82416,56.813187,132.16118,747.4359,1197.1062,-0.1544189453125,0.112060546875,0.97259521484375,1.607513427734375,-1.009368896484375,-0.0897216796875,1.0,1.0,4.0,4.0,1.0,95.0,event
09:18:47.334,0.53755045,0.0,0.0,0.49436796,0.17684451,0.0,0.0,0.25134107,0.5003686,0.0,0.0,0.5074317,0.79237163,0.0,0.0,0.86668915,0.51428103,0.0,0.0,0.49041343,747.03296,1110.8792,1059.3041,740.58606,674.10254,-0.1544189453125,0.112060546875,0.97259521484375,1.607513427734375,-1.009368896484375,-0.0897216796875,1.0,1.0,4.0,4.0,1.0,95.0,event
09:18:47.334,0.53755045,0.0,0.0,0.49436796,0.17684451,0.0,0.0,0.25134107,0.5003686,0.0,0.0,0.5074317,0.79237163,0.0,0.0,0.86668915,0.51428103,0.0,0.0,0.49041343,744.61536,394.8718,362.23444,739.3773,964.61536,-0.1544189453125,0.112060546875,0.97259521484375,1.607513427734375,-1.009368896484375,-0.0897216796875,1.0,1.0,4.0,4.0,1.0,95.0,event
09:18:47.335,0.53755045,0.0,0.0,0.49436796,0.17684451,0.0,0.0,0.25134107,0.5003686,0.0,0.0,0.5074317,0.79237163,0.0,0.0,0.86668915,0.51428103,0.0,0.0,0.49041343,772.8205,977.9121,973.47986,779.2674,734.5421,-0.1544189453125,0.112060546875,0.97259521484375,1.607513427734375,-1.009368896484375,-0.0897216796875,1.0,1.0,4.0,4.0,1.0,95.0,event
09:18:47.335,0.53755045,0.0,0.0,0.49436796,0.17684451,0.0,0.0,0.25134107,0.5003686,0.0,0.0,0.5074317,0.79237163,0.0,0.0,0.86668915,0.51428103,0.0,0.0,0.49041343,793.7729,882.01465,860.65936,807.47253,707.1429,-0.1544189453125,0.112060546875,0.97259521484375,1.607513427734375,-1.009368896484375,-0.0897216796875,1.0,1.0,4.0,4.0,1.0,95.0,event
09:18:47.394,0.53755045,0.0,0.0,0.49436796,0.17684451,0.0,0.0,0.25134107,0.5003686,0.0,0.0,0.5074317,0.79237163,0.0,0.0,0.86668915,0.51428103,0.0,0.0,0.49041343,788.5348,1012.5641,953.73627,800.2198,642.27106,-0.16326904296875,0.11041259765625,0.97064208984375,1.996307373046875,-2.983245849609375,0.2093505859375,1.0,1.0,4.0,4.0,1.0,95.0,event
09:18:47.395,0.53755045,0.0,0.0,0.49436796,0.17684451,0.0,0.0,0.25134107,0.5003686,0.0,0.0,0.5074317,0.79237163,0.0,0.0,0.86668915,0.51428103,0.0,0.0,0.49041343,788.5348,974.68866,931.5751,797.8022,651.53845,-0.16326904296875,0.11041259765625,0.97064208984375,1.996307373046875,-2.983245849609375,0.2093505859375,1.0,1.0,4.0,4.0,1.0,95.0,event
09:18:47.396,0.53755045,0.0,0.0,0.49436796,0.17684451,0.0,0.0,0.25134107,0.5003686,0.0,0.0,0.5074317,0.79237163,0.0,0.0,0.86668915,0.51428103,0.0,0.0,0.49041343,787.326,823.5897,831.2454,790.54944,677.326,-0.16326904296875,0.11041259765625,0.97064208984375,1.996307373046875,-2.983245849609375,0.2093505859375,1.0,1.0,4.0,4.0,1.0,95.0,event
09:18:47.397,0.53755045,0.0,0.0,0.49436796,0.17684451,0.0,0.0,0.25134107,0.5003686,0.0,0.0,0.5074317,0.79237163,0.0,0.0,0.86668915,0.51428103,0.0,0.0,0.49041343,790.54944,919.89014,925.5311,802.23444,678.1319,-0.16326904296875,0.11041259765625,0.97064208984375,1.996307373046875,-2.983245849609375,0.2093505859375,1.0,1.0,4.0,4.0,1.0,95.0,event
09:18:47.397,0.53755045,0.0,0.0,0.49436796,0.17684451,0.0,0.0,0.25134107,0.5003686,0.0,0.0,0.5074317,0.79237163,0.0,0.0,0.86668915,0.51428103,0.0,0.0,0.49041343,809.4872,1017.8022,977.50916,830.0366,700.696,-0.16326904296875,0.11041259765625,0.97064208984375,1.996307373046875,-2.983245849609375,0.2093505859375,1.0,1.0,4.0,4.0,1.0,95.0,event
09:18:47.398,0.53755045,0.0,0.0,0.49436796,0.17684451,0.0,0.0,0.25134107,0.5003686,0.0,0.0,0.5074317,0.79237163,0.0,0.0,0.86668915,0.51428103,0.0,0.0,0.49041343,813.5165,824.3956,786.1172,818.3516,768.3883,-0.16326904296875,0.11041259765625,0.97064208984375,1.996307373046875,-2.983245849609375,0.2093505859375,1.0,1.0,4.0,4.0,1.0,95.0,event
09:18:47.399,0.53755045,0.0,0.0,0.49436796,0.17684451,0.0,0.0,0.25134107,0.5003686,0.0,0.0,0.5074317,0.79237163,0.0,0.0,0.86668915,0.51428103,0.0,0.0,0.49041343,812.3077,280.8425,284.8718,803.0403,1025.0549,-0.16326904296875,0.11041259765625,0.97064208984375,1.996307373046875,-2.983245849609375,0.2093505859375,1.0,1.0,4.0,4.0,1.0,95.0,event
09:18:47.400,0.53755045,0.0,0.0,0.49436796,0.17684451,0.0,0.0,0.25134107,0.5003686,0.0,0.0,0.5074317,0.79237163,0.0,0.0,0.86668915,0.51428103,0.0,0.0,0.49041343,821.5751,288.09525,290.91574,808.68134,1005.31134,-0.16326904296875,0.11041259765625,0.97064208984375,1.996307373046875,-2.983245849609375,0.2093505859375,1.0,1.0,4.0,4.0,1.0,95.0,event
09:18:47.400,0.53755045,0.0,0.0,0.49436796,0.17684451,0.0,0.0,0.25134107,0.5003686,0.0,0.0,0.5074317,0.79237163,0.0,0.0,0.86668915,0.51428103,0.0,0.0,0.49041343,844.94507,1009.34064,971.4652,835.6777,663.22345,-0.16326904296875,0.11041259765625,0.97064208984375,1.996307373046875,-2.983245849609375,0.2093505859375,1.0,1.0,4.0,4.0,1.0,95.0,event
09:18:47.401,0.53755045,0.0,0.0,0.49436796,0.17684451,0.0,0.0,0.25134107,0.5003686,0.0,0.0,0.5074317,0.79237163,0.0,0.0,0.86668915,0.51428103,0.0,0.0,0.49041343,847.76556,996.04395,966.2271,855.0183,728.49817,-0.16326904296875,0.11041259765625,0.97064208984375,1.996307373046875,-2.983245849609375,0.2093505859375,1.0,1.0,4.0,4.0,1.0,95.0,event
09:18:47.402,0.53755045,0.0,0.0,0.49436796,0.17684451,0.0,0.0,0.25134107,0.5003686,0.0,0.0,0.5074317,0.79237163,0.0,0.0,0.86668915,0.51428103,0.0,0.0,0.49041343,829.6337,709.15753,696.26373,836.8865,866.7033,-0.16326904296875,0.11041259765625,0.97064208984375,1.996307373046875,-2.983245849609375,0.2093505859375,1.0,1.0,4.0,4.0,1.0,95.0,event
09:18:47.403,0.53755045,0.0,0.0,0.49436796,0.17684451,0.0,0.0,0.25134107,0.5003686,0.0,0.0,0.5074317,0.79237163,0.0,0.0,0.86668915,0.51428103,0.0,0.0,0.49041343,821.1722,810.696,759.5238,809.4872,739.7802,-0.16326904296875,0.11041259765625,0.97064208984375,1.996307373046875,-2.983245849609375,0.2093505859375,1.0,1.0,4.0,4.0,1.0,95.0,event
09:18:47.445,0.53755045,0.0,0.0,0.49436796,0.17684451,0.0,0.0,0.25134107,0.5003686,0.0,0.0,0.5074317,0.79237163,0.0,0.0,0.86668915,0.51428103,0.0,0.0,0.49041343,831.2454,1053.663,989.59705,813.1135,652.3443,-0.16046142578125,0.1148681640625,0.966552734375,2.34771728515625,-3.648681640625,0.52337646484375,1.0,1.0,4.0,4.0,1.0,95.0,event
09:18:47.447,0.53755045,0.0,0.0,0.49436796,0.17684451,0.0,0.0,0.25134107,0.5003686,0.0,0.0,0.5074317,0.79237163,0.0,0.0,0.86668915,0.51428103,0.0,0.0,0.49041343,848.5714,968.6447,962.6007,838.0952,770.40295,-0.16046142578125,0.1148681640625,0.966552734375,2.34771728515625,-3.648681640625,0.52337646484375,1.0,1.0,4.0,4.0,1.0,95.0,event
09:18:47.448,0.53755045,0.0,0.0,0.49436796,0.17684451,0.0,0.0,0.25134107,0.5003686,0.0,0.0,0.5074317,0.79237163,0.0,0.0,0.86668915,0.51428103,0.0,0.0,0.49041343,855.42126,751.06226,769.19415,865.09155,821.5751,-0.16046142578125,0.1148681640625,0.966552734375,2.34771728515625,-3.648681640625,0.52337646484375,1.0,1.0,4.0,4.0,1.0,95.0,event
09:18:47.448,0.49821642,0.0,0.0,0.49436796,0.09577718,0.0,0.0,0.25134107,0.4691066,0.0,0.0,0.5074317,0.7816663,0.0,0.0,0.86668915,0.48664433,0.0,0.0,0.49041343,851.79486,948.9011,905.78754,863.47986,790.14655,-0.16046142578125,0.1148681640625,0.966552734375,2.34771728515625,-3.648681640625,0.52337646484375,1.0,1.0,4.0,4.0,1.0,95.0,event
09:18:47.453,0.49821642,0.0,0.0,0.49436796,0.09577718,0.0,0.0,0.25134107,0.4691066,0.0,0.0,0.5074317,0.7816663,0.0,0.0,0.86668915,0.48664433,0.0,0.0,0.49041343,840.10986,1002.49084,934.7985,831.2454,708.7546,-0.16046142578125,0.1148681640625,0.966552734375,2.34771728515625,-3.648681640625,0.52337646484375,1.0,1.0,4.0,4.0,1.0,95.0,event
09:18:47.454,0.49821642,0.0,0.0,0.49436796,0.09577718,0.0,0.0,0.25134107,0.4691066,0.0,0.0,0.5074317,0.7816663,0.0,0.0,0.86668915,0.48664433,0.0,0.0,0.49041343,833.2601,573.7729,598.7546,814.3223,821.978,-0.16046142578125,0.1148681640625,0.966552734375,2.34771728515625,-3.648681640625,0.52337646484375,1.0,1.0,4.0,4.0,1.0,95.0,event
09:18:47.455,0.49821642,0.0,0.0,0.49436796,0.09577718,0.0,0.0,0.25134107,0.4691066,0.0,0.0,0.5074317,0.7816663,0.0,0.0,0.86668915,0.48664433,0.0,0.0,0.49041343,844.5421,351.75824,460.54944,829.6337,982.3443,-0.16046142578125,0.1148681640625,0.966552734375,2.34771728515625,-3.648681640625,0.52337646484375,1.0,1.0,4.0,4.0,1.0,95.0,event
09:18:47.455,0.49821642,0.0,0.0,0.49436796,0.09577718,0.0,0.0,0.25134107,0.4691066,0.0,0.0,0.5074317,0.7816663,0.0,0.0,0.86668915,0.48664433,0.0,0.0,0.49041343,852.1978,809.0842,811.50183,852.1978,819.5604,-0.16046142578125,0.1148681640625,0.966552734375,2.34771728515625,-3.648681640625,0.52337646484375,1.0,1.0,4.0,4.0,1.0,95.0,event
09:18:47.456,0.49821642,0.0,0.0,0.49436796,0.09577718,0.0,0.0,0.25134107,0.4691066,0.0,0.0,0.5074317,0.7816663,0.0,0.0,0.86668915,0.48664433,0.0,0.0,0.49041343,860.2564,1123.37,1039.1575,852.6007,733.3333,-0.16046142578125,0.1148681640625,0.966552734375,2.34771728515625,-3.648681640625,0.52337646484375,1.0,1.0,4.0,4.0,1.0,95.0,event
09:18:47.457,0.49821642,0.0,0.0,0.49436796,0.09577718,0.0,0.0,0.25134107,0.4691066,0.0,0.0,0.5074317,0.7816663,0.0,0.0,0.86668915,0.48664433,0.0,0.0,0.49041343,838.49817,332.82053,418.24176,824.7985,954.1392,-0.16046142578125,0.1148681640625,0.966552734375,2.34771728515625,-3.648681640625,0.52337646484375,1.0,1.0,4.0,4.0,1.0,95.0,event
09:18:47.457,0.49821642,0.0,0.0,0.49436796,0.09577718,0.0,0.0,0.25134107,0.4691066,0.0,0.0,0.5074317,0.7816663,0.0,0.0,0.86668915,0.48664433,0.0,0.0,0.49041343,854.61536,629.7802,635.0183,837.6923,908.20514,-0.16046142578125,0.1148681640625,0.966552734375,2.34771728515625,-3.648681640625,0.52337646484375,1.0,1.0,4.0,4.0,1.0,95.0,event
09:18:47.458,0.49821642,0.0,0.0,0.49436796,0.09577718,0.0,0.0,0.25134107,0.4691066,0.0,0.0,0.5074317,0.7816663,0.0,0.0,0.86668915,0.48664433,0.0,0.0,0.49041343,844.1392,980.7326,966.2271,832.8571,787.326,-0.16046142578125,0.1148681640625,0.966552734375,2.34771728515625,-3.648681640625,0.52337646484375,1.0,1.0,4.0,4.0,1.0,95.0,event
09:18:47.459,0.49821642,0.0,0.0,0.49436796,0.09577718,0.0,0.0,0.25134107,0.4691066,0.0,0.0,0.5074317,0.7816663,0.0,0.0,0.86668915,0.48664433,0.0,0.0,0.49041343,850.18317,1052.0513,1004.5055,855.0183,773.6264,-0.16064453125,0.11279296875,0.96746826171875,2.160797119140625,-3.887939453125,0.37384033203125,1.0,1.0,4.0,4.0,1.0,95.0,event
09:18:47.460,0.49821642,0.0,0.0,0.49436796,0.09577718,0.0,0.0,0.25134107,0.4691066,0.0,0.0,0.5074317,0.7816663,0.0,0.0,0.86668915,0.48664433,0.0,0.0,0.49041343,844.1392,640.2564,671.28204,859.45056,911.4286,-0.16064453125,0.11279296875,0.96746826171875,2.160797119140625,-3.887939453125,0.37384033203125,1.0,1.0,4.0,4.0,1.0,95.0,event
09:18:47.460,0.49821642,0.0,0.0,0.49436796,0.09577718,0.0,0.0,0.25134107,0.4691066,0.0,0.0,0.5074317,0.7816663,0.0,0.0,0.86668915,0.48664433,0.0,0.0,0.49041343,838.0952,644.68866,659.59705,842.9304,891.685,-0.16064453125,0.11279296875,0.96746826171875,2.160797119140625,-3.887939453125,0.37384033203125,1.0,1.0,4.0,4.0,1.0,95.0,event
09:18:47.461,0.49821642,0.0,0.0,0.49436796,0.09577718,0.0,0.0,0.25134107,0.4691066,0.0,0.0,0.5074317,0.7816663,0.0,0.0,0.86668915,0.48664433,0.0,0.0,0.49041343,830.84247,933.1868,871.53845,819.9634,701.0989,-0.16064453125,0.11279296875,0.96746826171875,2.160797119140625,-3.887939453125,0.37384033203125,1.0,1.0,4.0,4.0,1.0,95.0,event
09:18:47.462,0.49821642,0.0,0.0,0.49436796,0.09577718,0.0,0.0,0.25134107,0.4691066,0.0,0.0,0.5074317,0.7816663,0.0,0.0,0.86668915,0.48664433,0.0,0.0,0.49041343,831.6484,974.2857,939.6337,824.7985,683.36993,-0.16064453125,0.11279296875,0.96746826171875,2.160797119140625,-3.887939453125,0.37384033203125,1.0,1.0,4.0,4.0,1.0,95.0,event
09:18:47.462,0.49821642,0.0,0.0,0.49436796,0.09577718,0.0,0.0,0.25134107,0.4691066,0.0,0.0,0.5074317,0.7816663,0.0,0.0,0.86668915,0.48664433,0.0,0.0,0.49041343,841.31866,423.47986,476.26373,844.5421,948.0952,-0.16064453125,0.11279296875,0.96746826171875,2.160797119140625,-3.887939453125,0.37384033203125,1.0,1.0,4.0,4.0,1.0,95.0,event
09:18:47.466,0.49821642,0.0,0.0,0.49436796,0.09577718,0.0,0.0,0.25134107,0.4691066,0.0,0.0,0.5074317,0.7816663,0.0,0.0,0.86668915,0.48664433,0.0,0.0,0.49041343,835.2747,187.36264,232.49084,847.76556,1006.1172,-0.16064453125,0.11279296875,0.96746826171875,2.160797119140625,-3.887939453125,0.37384033203125,1.0,1.0,4.0,4.0,1.0,95.0,event
09:18:47.468,0.49821642,0.0,0.0,0.49436796,0.09577718,0.0,0.0,0.25134107,0.4691066,0.0,0.0,0.5074317,0.7816663,0.0,0.0,0.86668915,0.48664433,0.0,0.0,0.49041343,818.7546,733.3333,684.9817,830.0366,771.2088,-0.16064453125,0.11279296875,0.96746826171875,2.160797119140625,-3.887939453125,0.37384033203125,1.0,1.0,4.0,4.0,1.0,95.0,event
09:18:47.469,0.49821642,0.0,0.0,0.49436796,0.09577718,0.0,0.0,0.25134107,0.4691066,0.0,0.0,0.5074317,0.7816663,0.0,0.0,0.86668915,0.48664433,0.0,0.0,0.49041343,822.381,902.1612,838.49817,816.7399,695.4579,-0.16064453125,0.11279296875,0.96746826171875,2.160797119140625,-3.887939453125,0.37384033203125,1.0,1.0,4.0,4.0,1.0,95.0,event
09:18:47.469,0.49821642,0.0,0.0,0.49436796,0.09577718,0.0,0.0,0.25134107,0.4691066,0.0,0.0,0.5074317,0.7816663,0.0,0.0,0.86668915,0.48664433,0.0,0.0,0.49041343,832.0513,499.23077,549.59705,823.9927,806.26373,-0.16064453125,0.11279296875,0.96746826171875,2.160797119140625,-3.887939453125,0.37384033203125,1.0,1.0,4.0,4.0,1.0,95.0,event
09:18:47.470,0.49821642,0.0,0.0,0.49436796,0.09577718,0.0,0.0,0.25134107,0.4691066,0.0,0.0,0.5074317,0.7816663,0.0,0.0,0.86668915,0.48664433,0.0,0.0,0.49041343,839.304,1110.0732,1026.6666,850.989,740.989,-0.16064453125,0.11279296875,0.96746826171875,2.160797119140625,-3.887939453125,0.37384033203125,1.0,1.0,4.0,4.0,1.0,95.0,event
09:18:47.470,0.49821642,0.0,0.0,0.49436796,0.09577718,0.0,0.0,0.25134107,0.4691066,0.0,0.0,0.5074317,0.7816663,0.0,0.0,0.86668915,0.48664433,0.0,0.0,0.49041343,825.2015,657.5824,688.20514,835.6777,829.6337,-0.16064453125,0.11279296875,0.96746826171875,2.160797119140625,-3.887939453125,0.37384033203125,1.0,1.0,4.0,4.0,1.0,95.0,event
09:18:47.491,0.49821642,0.0,0.0,0.49436796,0.09577718,0.0,0.0,0.25134107,0.4691066,0.0,0.0,0.5074317,0.7816663,0.0,0.0,0.86668915,0.48664433,0.0,0.0,0.49041343,847.76556,868.71796,800.6227,853.00366,754.2857,-0.16064453125,0.11279296875,0.96746826171875,2.160797119140625,-3.887939453125,0.37384033203125,1.0,1.0,4.0,4.0,1.0,95.0,event
09:18:47.492,0.49821642,0.0,0.0,0.49436796,0.09577718,0.0,0.0,0.25134107,0.4691066,0.0,0.0,0.5074317,0.7816663,0.0,0.0,0.86668915,0.48664433,0.0,0.0,0.49041343,824.7985,589.89014,548.3883,831.6484,802.6374,-0.16064453125,0.11279296875,0.96746826171875,2.160797119140625,-3.887939453125,0.37384033203125,1.0,1.0,4.0,4.0,1.0,95.0,event
09:18:47.492,0.49821642,0.0,0.0,0.49436796,0.09577718,0.0,0.0,0.25134107,0.4691066,0.0,0.0,0.5074317,0.7816663,0.0,0.0,0.86668915,0.48664433,0.0,0.0,0.49041343,815.9341,844.5421,796.1905,822.7839,767.5824,-0.16064453125,0.11279296875,0.96746826171875,2.160797119140625,-3.887939453125,0.37384033203125,1.0,1.0,4.0,4.0,1.0,95.0,event
09:18:47.493,0.49821642,0.0,0.0,0.49436796,0.09577718,0.0,0.0,0.25134107,0.4691066,0.0,0.0,0.5074317,0.7816663,0.0,0.0,0.86668915,0.48664433,0.0,0.0,0.49041343,837.28937,1067.7656,1023.8461,834.0659,684.9817,-0.16064453125,0.11279296875,0.96746826171875,2.160797119140625,-3.887939453125,0.37384033203125,1.0,1.0,4.0,4.0,1.0,95.0,event
09:18:47.493,0.49821642,0.0,0.0,0.49436796,0.09577718,0.0,0.0,0.25134107,0.4691066,0.0,0.0,0.5074317,0.7816663,0.0,0.0,0.86668915,0.48664433,0.0,0.0,0.49041343,845.7509,703.1135,725.2747,847.76556,815.12823,-0.16064453125,0.11279296875,0.96746826171875,2.160797119140625,-3.887939453125,0.37384033203125,1.0,1.0,4.0,4.0,1.0,95.0,event
09:18:47.493,0.48088858,0.0,0.0,0.45773935,0.042935558,0.0,0.0,0.19120193,0.4552057,0.0,0.0,0.47258946,0.77009624,0.0,0.0,0.85483754,0.481899,0.0,0.0,0.4893301,831.6484,107.58242,157.54579,835.6777,1041.978,-0.16064453125,0.11279296875,0.96746826171875,2.160797119140625,-3.887939453125,0.37384033203125,1.0,1.0,4.0,4.0,1.0,95.0,event
09:18:47.495,,,,,,,,,,,,,,,,,,,,,,,,,,,,,,,,,,,,,,blink
09:18:47.496,0.48088858,0.0,0.0,0.45773935,0.042935558,0.0,0.0,0.19120193,0.4552057,0.0,0.0,0.47258946,0.77009624,0.0,0.0,0.85483754,0.481899,0.0,0.0,0.4893301,823.9927,296.95972,279.6337,817.9487,954.5421,-0.16064453125,0.11279296875,0.96746826171875,2.160797119140625,-3.887939453125,0.37384033203125,1.0,1.0,4.0,4.0,1.0,95.0,event
09:18:47.497,0.48088858,0.0,0.0,0.45773935,0.042935558,0.0,0.0,0.19120193,0.4552057,0.0,0.0,0.47258946,0.77009624,0.0,0.0,0.85483754,0.481899,0.0,0.0,0.4893301,819.5604,894.5055,813.91943,811.9048,642.27106,-0.16064453125,0.11279296875,0.96746826171875,2.160797119140625,-3.887939453125,0.37384033203125,1.0,1.0,4.0,4.0,1.0,95.0,event
09:18:47.497,0.48088858,0.0,0.0,0.45773935,0.042935558,0.0,0.0,0.19120193,0.4552057,0.0,0.0,0.47258946,0.77009624,0.0,0.0,0.85483754,0.481899,0.0,0.0,0.4893301,830.4396,709.15753,731.7216,824.7985,760.7326,-0.16064453125,0.11279296875,0.96746826171875,2.160797119140625,-3.887939453125,0.37384033203125,1.0,1.0,4.0,4.0,1.0,95.0,event
09:18:47.498,0.48088858,0.0,0.0,0.45773935,0.042935558,0.0,0.0,0.19120193,0.4552057,0.0,0.0,0.47258946,0.77009624,0.0,0.0,0.85483754,0.481899,0.0,0.0,0.4893301,831.2454,963.4066,854.61536,809.4872,651.9414,-0.16064453125,0.11279296875,0.96746826171875,2.160797119140625,-3.887939453125,0.37384033203125,1.0,1.0,4.0,4.0,1.0,95.0,event
09:18:47.498,0.48088858,0.0,0.0,0.45773935,0.042935558,0.0,0.0,0.19120193,0.4552057,0.0,0.0,0.47258946,0.77009624,0.0,0.0,0.85483754,0.481899,0.0,0.0,0.4893301,849.3773,432.74725,529.0476,852.1978,943.2601,-0.16064453125,0.11279296875,0.96746826171875,2.160797119140625,-3.887939453125,0.37384033203125,1.0,1.0,4.0,4.0,1.0,95.0,event
09:18:47.498,0.48088858,0.0,0.0,0.45773935,0.042935558,0.0,0.0,0.19120193,0.4552057,0.0,0.0,0.47258946,0.77009624,0.0,0.0,0.85483754,0.481899,0.0,0.0,0.4893301,840.10986,891.685,820.3663,837.28937,727.6923,-0.16064453125,0.11279296875,0.96746826171875,2.160797119140625,-3.887939453125,0.37384033203125,1.0,1.0,4.0,4.0,1.0,95.0,event
09:18:47.559,0.48088858,0.0,0.0,0.45773935,0.042935558,0.0,0.0,0.19120193,0.4552057,0.0,0.0,0.47258946,0.77009624,0.0,0.0,0.85483754,0.481899,0.0,0.0,0.4893301,833.2601,757.50916,722.8571,812.71063,675.7143,-0.15631103515625,0.1173095703125,0.9659423828125,2.2430419921875,-4.568328857421875,0.07476806640625,1.0,1.0,4.0,4.0,1.0,95.0,event
09:18:47.560,0.48088858,0.0,0.0,0.45773935,0.042935558,0.0,0.0,0.19120193,0.4552057,0.0,0.0,0.47258946,0.77009624,0.0,0.0,0.85483754,0.481899,0.0,0.0,0.4893301,836.8865,858.24176,830.4396,823.9927,723.663,-0.15631103515625,0.1173095703125,0.9659423828125,2.2430419921875,-4.568328857421875,0.07476806640625,1.0,1.0,4.0,4.0,1.0,95.0,event
09:18:47.560,0.48088858,0.0,0.0,0.45773935,0.042935558,0.0,0.0,0.19120193,0.4552057,0.0,0.0,0.47258946,0.77009624,0.0,0.0,0.85483754,0.481899,0.0,0.0,0.4893301,846.1539,1089.9268,1015.38464,844.1392,763.95605,-0.15631103515625,0.1173095703125,0.9659423828125,2.2430419921875,-4.568328857421875,0.07476806640625,1.0,1.0,4.0,4.0,1.0,95.0,event
09:18:47.561,0.48088858,0.0,0.0,0.45773935,0.042935558,0.0,0.0,0.19120193,0.4552057,0.0,0.0,0.47258946,0.77009624,0.0,0.0,0.85483754,0.481899,0.0,0.0,0.4893301,844.1392,1012.5641,919.0842,848.97437,767.1795,-0.15631103515625,0.1173095703125,0.9659423828125,2.2430419921875,-4.568328857421875,0.07476806640625,1.0,1.0,4.0,4.0,1.0,95.0,event
09:18:47.562,0.48088858,0.0,0.0,0.45773935,0.042935558,0.0,0.0,0.19120193,0.4552057,0.0,0.0,0.47258946,0.77009624,0.0,0.0,0.85483754,0.481899,0.0,0.0,0.4893301,824.3956,729.707,676.1172,819.5604,788.93774,-0.15631103515625,0.1173095703125,0.9659423828125,2.2430419921875,-4.568328857421875,0.07476806640625,1.0,1.0,4.0,4.0,1.0,95.0,event
09:18:47.562,0.48088858,0.0,0.0,0.45773935,0.042935558,0.0,0.0,0.19120193,0.4552057,0.0,0.0,0.47258946,0.77009624,0.0,0.0,0.85483754,0.481899,0.0,0.0,0.4893301,801.02563,575.38464,577.3993,796.99634,860.2564,-0.15631103515625,0.1173095703125,0.9659423828125,2.2430419921875,-4.568328857421875,0.07476806640625,1.0,1.0,4.0,4.0,1.0,95.0,event
09:18:47.563,0.48088858,0.0,0.0,0.45773935,0.042935558,0.0,0.0,0.19120193,0.4552057,0.0,0.0,0.47258946,0.77009624,0.0,0.0,0.85483754,0.481899,0.0,0.0,0.4893301,810.293,667.25275,661.6117,807.47253,891.685,-0.15631103515625,0.1173095703125,0.9659423828125,2.2430419921875,-4.568328857421875,0.07476806640625,1.0,1.0,4.0,4.0,1.0,95.0,event
09:18:47.564,0.48088858,0.0,0.0,0.45773935,0.042935558,0.0,0.0,0.19120193,0.4552057,0.0,0.0,0.47258946,0.77009624,0.0,0.0,0.85483754,0.481899,0.0,0.0,0.4893301,815.12823,363.44324,357.8022,840.9158,992.01465,-0.15631103515625,0.1173095703125,0.9659423828125,2.2430419921875,-4.568328857421875,0.07476806640625,1.0,1.0,4.0,4.0,1.0,95.0,event
09:18:47.564,0.48088858,0.0,0.0,0.45773935,0.042935558,0.0,0.0,0.19120193,0.4552057,0.0,0.0,0.47258946,0.77009624,0.0,0.0,0.85483754,0.481899,0.0,0.0,0.4893301,818.7546,803.0403,770.40295,832.4542,836.4835,-0.15631103515625,0.1173095703125,0.9659423828125,2.2430419921875,-4.568328857421875,0.07476806640625,1.0,1.0,4.0,4.0,1.0,95.0,event
09:18:47.565,0.48088858,0.0,0.0,0.45773935,0.042935558,0.0,0.0,0.19120193,0.4552057,0.0,0.0,0.47258946,0.77009624,0.0,0.0,0.85483754,0.481899,0.0,0.0,0.4893301,809.89014,818.3516,742.1978,803.44324,692.6374,-0.15631103515625,0.1173095703125,0.9659423828125,2.2430419921875,-4.568328857421875,0.07476806640625,1.0,1.0,4.0,4.0,1.0,95.0,event
09:18:47.565,0.48088858,0.0,0.0,0.45773935,0.042935558,0.0,0.0,0.19120193,0.4552057,0.0,0.0,0.47258946,0.77009624,0.0,0.0,0.85483754,0.481899,0.0,0.0,0.4893301,811.50183,100.32967,85.82417,819.15753,965.0183,-0.15631103515625,0.1173095703125,0.9659423828125,2.2430419921875,-4.568328857421875,0.07476806640625,1.0,1.0,4.0,4.0,1.0,95.0,event
09:18:47.566,0.48088858,0.0,0.0,0.45773935,0.042935558,0.0,0.0,0.19120193,0.4552057,0.0,0.0,0.47258946,0.77009624,0.0,0.0,0.85483754,0.481899,0.0,0.0,0.4893301,822.381,1007.326,960.18317,806.6667,741.39197,-0.15631103515625,0.1173095703125,0.9659423828125,2.2430419921875,-4.568328857421875,0.07476806640625,1.0,1.0,4.0,4.0,1.0,95.0,event
09:18:47.604,0.48088858,0.0,0.0,0.45773935,0.042935558,0.0,0.0,0.19120193,0.4552057,0.0,0.0,0.47258946,0.77009624,0.0,0.0,0.85483754,0.481899,0.0,0.0,0.4893301,843.3333,864.2857,833.2601,838.49817,808.68134,-0.15313720703125,0.11572265625,0.97442626953125,2.534637451171875,-4.29168701171875,-0.0897216796875,1.0,1.0,4.0,4.0,1.0,95.0,event
09:18:47.605,0.48088858,0.0,0.0,0.45773935,0.042935558,0.0,0.0,0.19120193,0.4552057,0.0,0.0,0.47258946,0.77009624,0.0,0.0,0.85483754,0.481899,0.0,0.0,0.4893301,855.0183,1008.5348,926.7399,867.9121,755.89746,-0.15313720703125,0.11572265625,0.97442626953125,2.534637451171875,-4.29168701171875,-0.0897216796875,1.0,1.0,4.0,4.0,1.0,95.0,event
09:18:47.606,0.48088858,0.0,0.0,0.45773935,0.042935558,0.0,0.0,0.19120193,0.4552057,0.0,0.0,0.47258946,0.77009624,0.0,0.0,0.85483754,0.481899,0.0,0.0,0.4893301,834.87177,1033.9194,924.7253,834.87177,722.0513,-0.15313720703125,0.11572265625,0.97442626953125,2.534637451171875,-4.29168701171875,-0.0897216796875,1.0,1.0,4.0,4.0,1.0,95.0,event
09:18:47.606,0.48088858,0.0,0.0,0.45773935,0.042935558,0.0,0.0,0.19120193,0.4552057,0.0,0.0,0.47258946,0.77009624,0.0,0.0,0.85483754,0.481899,0.0,0.0,0.4893301,793.7729,860.65936,790.9524,795.78754,786.9231,-0.15313720703125,0.11572265625,0.97442626953125,2.534637451171875,-4.29168701171875,-0.0897216796875,1.0,1.0,4.0,4.0,1.0,95.0,event
09:18:47.607,0.48088858,0.0,0.0,0.45773935,0.042935558,0.0,0.0,0.19120193,0.4552057,0.0,0.0,0.47258946,0.77009624,0.0,0.0,0.85483754,0.481899,0.0,0.0,0.4893301,782.0879,763.1502,737.3626,789.34064,802.23444,-0.15313720703125,0.11572265625,0.97442626953125,2.534637451171875,-4.29168701171875,-0.0897216796875,1.0,1.0,4.0,4.0,1.0,95.0,event
09:18:47.607,0.48088858,0.0,0.0,0.45773935,0.042935558,0.0,0.0,0.19120193,0.4552057,0.0,0.0,0.47258946,0.77009624,0.0,0.0,0.85483754,0.481899,0.0,0.0,0.4893301,810.696,862.27106,831.6484,815.9341,870.32965,-0.15313720703125,0.11572265625,0.97442626953125,2.534637451171875,-4.29168701171875,-0.0897216796875,1.0,1.0,4.0,4.0,1.0,95.0,event
09:18:47.608,0.48215246,0.0,0.0,0.45264006,0.028791243,0.0,0.0,0.15818174,0.43664655,0.0,0.0,0.45350915,0.75627095,0.0,0.0,0.8450521,0.4923919,0.0,0.0,0.49619302,796.99634,401.3187,386.00732,794.57874,844.5421,-0.15313720703125,0.11572265625,0.97442626953125,2.534637451171875,-4.29168701171875,-0.0897216796875,1.0,1.0,4.0,4.0,1.0,95.0,event
