TimeStamp,Delta_TP9,Delta_AF7,Delta_AF8,Delta_TP10,Theta_TP9,Theta_AF7,Theta_AF8,Theta_TP10,Alpha_TP9,Alpha_AF7,Alpha_AF8,Alpha_TP10,Beta_TP9,Beta_AF7,Beta_AF8,Beta_TP10,Gamma_TP9,Gamma_AF7,Gamma_AF8,Gamma_TP10,RAW_TP9,RAW_AF7,RAW_AF8,RAW_TP10,AUX_RIGHT,Accelerometer_X,Accelerometer_Y,Accelerometer_Z,Gyro_X,Gyro_Y,Gyro_Z,HeadBandOn,HSI_TP9,HSI_AF7,HSI_AF8,HSI_TP10,Battery,Elements
12:32:36.445,0.92572576,0.26563329,0.8705632,1.6240861,0.81582993,-0.20374514,0.1989423,1.2400678,0.76834404,0.1800024,0.108267166,1.4289771,1.0718459,0.046890724,0.06764858,0.9588886,1.0834378,-0.1662561,-0.36980167,0.59665024,765.16486,803.44324,813.91943,718.4249,609.2308,-0.287353515625,0.12567138671875,0.9302978515625,2.3028564453125,-4.007568359375,-0.22430419921875,1.0,2.0,1.0,1.0,2.0,100.0,event
12:32:36.446,0.92572576,0.26563329,0.8705632,1.6240861,0.81582993,-0.20374514,0.1989423,1.2400678,0.76834404,0.1800024,0.108267166,1.4289771,1.0718459,0.046890724,0.06764858,0.9588886,1.0834378,-0.1662561,-0.36980167,0.59665024,780.87915,802.23444,818.3516,738.1685,627.3626,-0.287353515625,0.12567138671875,0.9302978515625,2.3028564453125,-4.007568359375,-0.22430419921875,1.0,2.0,1.0,1.0,2.0,100.0,event
12:32:36.446,0.92572576,0.26563329,0.8705632,1.6240861,0.81582993,-0.20374514,0.1989423,1.2400678,0.76834404,0.1800024,0.108267166,1.4289771,1.0718459,0.046890724,0.06764858,0.9588886,1.0834378,-0.1662561,-0.36980167,0.59665024,778.46155,802.23444,814.7253,738.97437,703.5165,-0.287353515625,0.12567138671875,0.9302978515625,2.3028564453125,-4.007568359375,-0.22430419921875,1.0,2.0,1.0,1.0,2.0,100.0,event
12:32:36.447,0.92572576,0.26563329,0.8705632,1.6240861,0.81582993,-0.20374514,0.1989423,1.2400678,0.76834404,0.1800024,0.108267166,1.4289771,1.0718459,0.046890724,0.06764858,0.9588886,1.0834378,-0.1662561,-0.36980167,0.59665024,768.7912,805.05493,809.4872,718.8278,682.96704,-0.287353515625,0.12567138671875,0.9302978515625,2.3028564453125,-4.007568359375,-0.22430419921875,1.0,2.0,1.0,1.0,2.0,100.0,event
12:32:36.448,0.92572576,0.26563329,0.8705632,1.6240861,0.81582993,-0.20374514,0.1989423,1.2400678,0.76834404,0.1800024,0.108267166,1.4289771,1.0718459,0.046890724,0.06764858,0.9588886,1.0834378,-0.1662561,-0.36980167,0.59665024,763.5531,810.696,812.3077,733.73627,693.0403,-0.287353515625,0.12567138671875,0.9302978515625,2.3028564453125,-4.007568359375,-0.22430419921875,1.0,2.0,1.0,1.0,2.0,100.0,event
12:32:36.449,0.92572576,0.26563329,0.8705632,1.6240861,0.81582993,-0.20374514,0.1989423,1.2400678,0.76834404,0.1800024,0.108267166,1.4289771,1.0718459,0.046890724,0.06764858,0.9588886,1.0834378,-0.1662561,-0.36980167,0.59665024,799.81683,805.8608,809.0842,739.3773,1083.0769,-0.287353515625,0.12567138671875,0.9302978515625,2.3028564453125,-4.007568359375,-0.22430419921875,1.0,2.0,1.0,1.0,2.0,100.0,event
12:32:36.449,0.92572576,0.26563329,0.8705632,1.6240861,0.81582993,-0.20374514,0.1989423,1.2400678,0.76834404,0.1800024,0.108267166,1.4289771,1.0718459,0.046890724,0.06764858,0.9588886,1.0834378,-0.1662561,-0.36980167,0.59665024,774.83514,812.71063,813.91943,743.00366,837.6923,-0.287353515625,0.12567138671875,0.9302978515625,2.3028564453125,-4.007568359375,-0.22430419921875,1.0,2.0,1.0,1.0,2.0,100.0,event
12:32:36.450,0.92572576,0.26563329,0.8705632,1.6240861,0.81582993,-0.20374514,0.1989423,1.2400678,0.76834404,0.1800024,0.108267166,1.4289771,1.0718459,0.046890724,0.06764858,0.9588886,1.0834378,-0.1662561,-0.36980167,0.59665024,782.8938,805.05493,808.68134,740.989,1055.6776,-0.287353515625,0.12567138671875,0.9302978515625,2.3028564453125,-4.007568359375,-0.22430419921875,1.0,2.0,1.0,1.0,2.0,100.0,event
12:32:36.451,0.92572576,0.26563329,0.8705632,1.6240861,0.81582993,-0.20374514,0.1989423,1.2400678,0.76834404,0.1800024,0.108267166,1.4289771,1.0718459,0.046890724,0.06764858,0.9588886,1.0834378,-0.1662561,-0.36980167,0.59665024,764.35895,805.8608,810.293,742.6007,808.2784,-0.287353515625,0.12567138671875,0.9302978515625,2.3028564453125,-4.007568359375,-0.22430419921875,1.0,2.0,1.0,1.0,2.0,100.0,event
12:32:36.451,0.92572576,0.26563329,0.8705632,1.6240861,0.81582993,-0.20374514,0.1989423,1.2400678,0.76834404,0.1800024,0.108267166,1.4289771,1.0718459,0.046890724,0.06764858,0.9588886,1.0834378,-0.1662561,-0.36980167,0.59665024,767.5824,806.6667,811.9048,747.4359,734.5421,-0.287353515625,0.12567138671875,0.9302978515625,2.3028564453125,-4.007568359375,-0.22430419921875,1.0,2.0,1.0,1.0,2.0,100.0,event
12:32:36.452,0.92572576,0.26563329,0.8705632,1.6240861,0.81582993,-0.20374514,0.1989423,1.2400678,0.76834404,0.1800024,0.108267166,1.4289771,1.0718459,0.046890724,0.06764858,0.9588886,1.0834378,-0.1662561,-0.36980167,0.59665024,755.89746,809.89014,815.12823,749.85345,852.1978,-0.287353515625,0.12567138671875,0.9302978515625,2.3028564453125,-4.007568359375,-0.22430419921875,1.0,2.0,1.0,1.0,2.0,100.0,event
12:32:36.453,0.92572576,0.26563329,0.8705632,1.6240861,0.81582993,-0.20374514,0.1989423,1.2400678,0.76834404,0.1800024,0.108267166,1.4289771,1.0718459,0.046890724,0.06764858,0.9588886,1.0834378,-0.1662561,-0.36980167,0.59665024,769.19415,813.91943,815.9341,766.3736,875.9707,-0.287353515625,0.12567138671875,0.9302978515625,2.3028564453125,-4.007568359375,-0.22430419921875,1.0,2.0,1.0,1.0,2.0,100.0,event
12:32:36.454,0.92572576,0.26563329,0.8705632,1.6240861,0.81582993,-0.20374514,0.1989423,1.2400678,0.76834404,0.1800024,0.108267166,1.4289771,1.0718459,0.046890724,0.06764858,0.9588886,1.0834378,-0.1662561,-0.36980167,0.59665024,793.7729,810.696,815.5311,770.0,782.49084,-0.28460693359375,0.13372802734375,0.94854736328125,3.058013916015625,-3.058013916015625,0.127105712890625,1.0,2.0,1.0,1.0,2.0,100.0,event
12:32:36.455,0.92572576,0.26563329,0.8705632,1.6240861,0.81582993,-0.20374514,0.1989423,1.2400678,0.76834404,0.1800024,0.108267166,1.4289771,1.0718459,0.046890724,0.06764858,0.9588886,1.0834378,-0.1662561,-0.36980167,0.59665024,789.34064,803.44324,815.12823,758.315,769.59705,-0.28460693359375,0.13372802734375,0.94854736328125,3.058013916015625,-3.058013916015625,0.127105712890625,1.0,2.0,1.0,1.0,2.0,100.0,event
12:32:36.456,0.92572576,0.26563329,0.8705632,1.6240861,0.81582993,-0.20374514,0.1989423,1.2400678,0.76834404,0.1800024,0.108267166,1.4289771,1.0718459,0.046890724,0.06764858,0.9588886,1.0834378,-0.1662561,-0.36980167,0.59665024,799.41394,805.8608,817.9487,752.27106,747.4359,-0.28460693359375,0.13372802734375,0.94854736328125,3.058013916015625,-3.058013916015625,0.127105712890625,1.0,2.0,1.0,1.0,2.0,100.0,event
12:32:36.456,0.92572576,0.26563329,0.8705632,1.6240861,0.81582993,-0.20374514,0.1989423,1.2400678,0.76834404,0.1800024,0.108267166,1.4289771,1.0718459,0.046890724,0.06764858,0.9588886,1.0834378,-0.1662561,-0.36980167,0.59665024,790.54944,808.2784,820.7692,757.9121,759.92676,-0.28460693359375,0.13372802734375,0.94854736328125,3.058013916015625,-3.058013916015625,0.127105712890625,1.0,2.0,1.0,1.0,2.0,100.0,event
12:32:36.457,0.92572576,0.26563329,0.8705632,1.6240861,0.81582993,-0.20374514,0.1989423,1.2400678,0.76834404,0.1800024,0.108267166,1.4289771,1.0718459,0.046890724,0.06764858,0.9588886,1.0834378,-0.1662561,-0.36980167,0.59665024,775.2381,807.8755,817.5458,781.685,836.4835,-0.28460693359375,0.13372802734375,0.94854736328125,3.058013916015625,-3.058013916015625,0.127105712890625,1.0,2.0,1.0,1.0,2.0,100.0,event
12:32:36.458,0.92572576,0.26563329,0.8705632,1.6240861,0.81582993,-0.20374514,0.1989423,1.2400678,0.76834404,0.1800024,0.108267166,1.4289771,1.0718459,0.046890724,0.06764858,0.9588886,1.0834378,-0.1662561,-0.36980167,0.59665024,785.7143,807.8755,814.3223,791.75824,1039.9634,-0.28460693359375,0.13372802734375,0.94854736328125,3.058013916015625,-3.058013916015625,0.127105712890625,1.0,2.0,1.0,1.0,2.0,100.0,event
12:32:36.459,0.92572576,0.26563329,0.8705632,1.6240861,0.81582993,-0.20374514,0.1989423,1.2400678,0.76834404,0.1800024,0.108267166,1.4289771,1.0718459,0.046890724,0.06764858,0.9588886,1.0834378,-0.1662561,-0.36980167,0.59665024,788.1319,806.26373,810.696,772.8205,1153.5897,-0.28460693359375,0.13372802734375,0.94854736328125,3.058013916015625,-3.058013916015625,0.127105712890625,1.0,2.0,1.0,1.0,2.0,100.0,event
12:32:36.459,0.92572576,0.26563329,0.8705632,1.6240861,0.81582993,-0.20374514,0.1989423,1.2400678,0.76834404,0.1800024,0.108267166,1.4289771,1.0718459,0.046890724,0.06764858,0.9588886,1.0834378,-0.1662561,-0.36980167,0.59665024,780.4762,805.4579,811.9048,765.9707,956.9597,-0.28460693359375,0.13372802734375,0.94854736328125,3.058013916015625,-3.058013916015625,0.127105712890625,1.0,2.0,1.0,1.0,2.0,100.0,event
12:32:36.460,0.92572576,0.26563329,0.8705632,1.6240861,0.81582993,-0.20374514,0.1989423,1.2400678,0.76834404,0.1800024,0.108267166,1.4289771,1.0718459,0.046890724,0.06764858,0.9588886,1.0834378,-0.1662561,-0.36980167,0.59665024,763.95605,803.44324,817.9487,772.8205,786.52014,-0.28460693359375,0.13372802734375,0.94854736328125,3.058013916015625,-3.058013916015625,0.127105712890625,1.0,2.0,1.0,1.0,2.0,100.0,event
12:32:36.461,0.92572576,0.26563329,0.8705632,1.6240861,0.81582993,-0.20374514,0.1989423,1.2400678,0.76834404,0.1800024,0.108267166,1.4289771,1.0718459,0.046890724,0.06764858,0.9588886,1.0834378,-0.1662561,-0.36980167,0.59665024,761.53845,803.0403,819.5604,766.77655,843.73627,-0.28460693359375,0.13372802734375,0.94854736328125,3.058013916015625,-3.058013916015625,0.127105712890625,1.0,2.0,1.0,1.0,2.0,100.0,event
12:32:36.461,0.92572576,0.26563329,0.8705632,1.6240861,0.81582993,-0.20374514,0.1989423,1.2400678,0.76834404,0.1800024,0.108267166,1.4289771,1.0718459,0.046890724,0.06764858,0.9588886,1.0834378,-0.1662561,-0.36980167,0.59665024,770.0,808.2784,819.5604,770.0,992.4176,-0.28460693359375,0.13372802734375,0.94854736328125,3.058013916015625,-3.058013916015625,0.127105712890625,1.0,2.0,1.0,1.0,2.0,100.0,event
12:32:36.462,0.92572576,0.20688444,0.91472286,1.6240861,0.81582993,-0.17639112,0.22532089,1.2400678,0.76834404,0.17560375,0.13014191,1.4289771,1.0718459,0.033094432,0.08414689,0.9588886,1.0834378,-0.19672419,-0.37066436,0.59665024,775.2381,811.50183,819.15753,769.19415,925.9341,-0.28460693359375,0.13372802734375,0.94854736328125,3.058013916015625,-3.058013916015625,0.127105712890625,1.0,2.0,1.0,1.0,2.0,100.0,event
12:32:36.488,0.92572576,0.20688444,0.91472286,1.6240861,0.81582993,-0.17639112,0.22532089,1.2400678,0.76834404,0.17560375,0.13014191,1.4289771,1.0718459,0.033094432,0.08414689,0.9588886,1.0834378,-0.19672419,-0.37066436,0.59665024,784.5055,810.293,818.3516,749.0476,792.96704,-0.29815673828125,0.1343994140625,0.945556640625,1.5252685546875,-2.504730224609375,0.994415283203125,1.0,2.0,1.0,1.0,2.0,100.0,event
12:32:36.490,0.92572576,0.20688444,0.91472286,1.6240861,0.81582993,-0.17639112,0.22532089,1.2400678,0.76834404,0.17560375,0.13014191,1.4289771,1.0718459,0.033094432,0.08414689,0.9588886,1.0834378,-0.19672419,-0.37066436,0.59665024,780.87915,809.4872,817.9487,750.2564,827.2161,-0.29815673828125,0.1343994140625,0.945556640625,1.5252685546875,-2.504730224609375,0.994415283203125,1.0,2.0,1.0,1.0,2.0,100.0,event
12:32:36.491,0.92572576,0.20688444,0.91472286,1.6240861,0.81582993,-0.17639112,0.22532089,1.2400678,0.76834404,0.17560375,0.13014191,1.4289771,1.0718459,0.033094432,0.08414689,0.9588886,1.0834378,-0.19672419,-0.37066436,0.59665024,768.7912,813.91943,815.5311,753.8828,875.16486,-0.29815673828125,0.1343994140625,0.945556640625,1.5252685546875,-2.504730224609375,0.994415283203125,1.0,2.0,1.0,1.0,2.0,100.0,event
12:32:36.492,0.92572576,0.20688444,0.91472286,1.6240861,0.81582993,-0.17639112,0.22532089,1.2400678,0.76834404,0.17560375,0.13014191,1.4289771,1.0718459,0.033094432,0.08414689,0.9588886,1.0834378,-0.19672419,-0.37066436,0.59665024,788.5348,816.337,813.91943,767.98535,854.61536,-0.29815673828125,0.1343994140625,0.945556640625,1.5252685546875,-2.504730224609375,0.994415283203125,1.0,2.0,1.0,1.0,2.0,100.0,event
12:32:36.492,0.92572576,0.20688444,0.91472286,1.6240861,0.81582993,-0.17639112,0.22532089,1.2400678,0.76834404,0.17560375,0.13014191,1.4289771,1.0718459,0.033094432,0.08414689,0.9588886,1.0834378,-0.19672419,-0.37066436,0.59665024,795.78754,814.3223,814.3223,772.8205,861.4652,-0.29815673828125,0.1343994140625,0.945556640625,1.5252685546875,-2.504730224609375,0.994415283203125,1.0,2.0,1.0,1.0,2.0,100.0,event
12:32:36.493,0.92572576,0.20688444,0.91472286,1.6240861,0.81582993,-0.17639112,0.22532089,1.2400678,0.76834404,0.17560375,0.13014191,1.4289771,1.0718459,0.033094432,0.08414689,0.9588886,1.0834378,-0.19672419,-0.37066436,0.59665024,768.3883,814.7253,815.9341,744.21246,1003.69965,-0.29815673828125,0.1343994140625,0.945556640625,1.5252685546875,-2.504730224609375,0.994415283203125,1.0,2.0,1.0,1.0,2.0,100.0,event
12:32:36.494,0.92572576,0.20688444,0.91472286,1.6240861,0.81582993,-0.17639112,0.22532089,1.2400678,0.76834404,0.17560375,0.13014191,1.4289771,1.0718459,0.033094432,0.08414689,0.9588886,1.0834378,-0.19672419,-0.37066436,0.59665024,749.45056,811.0989,814.7253,722.0513,920.696,-0.29815673828125,0.1343994140625,0.945556640625,1.5252685546875,-2.504730224609375,0.994415283203125,1.0,2.0,1.0,1.0,2.0,100.0,event
12:32:36.495,0.92572576,0.20688444,0.91472286,1.6240861,0.81582993,-0.17639112,0.22532089,1.2400678,0.76834404,0.17560375,0.13014191,1.4289771,1.0718459,0.033094432,0.08414689,0.9588886,1.0834378,-0.19672419,-0.37066436,0.59665024,754.68866,812.3077,815.5311,726.08057,694.2491,-0.29815673828125,0.1343994140625,0.945556640625,1.5252685546875,-2.504730224609375,0.994415283203125,1.0,2.0,1.0,1.0,2.0,100.0,event
12:32:36.496,0.92572576,0.20688444,0.91472286,1.6240861,0.81582993,-0.17639112,0.22532089,1.2400678,0.76834404,0.17560375,0.13014191,1.4289771,1.0718459,0.033094432,0.08414689,0.9588886,1.0834378,-0.19672419,-0.37066436,0.59665024,761.13556,821.978,818.7546,754.68866,680.54944,-0.29815673828125,0.1343994140625,0.945556640625,1.5252685546875,-2.504730224609375,0.994415283203125,1.0,2.0,1.0,1.0,2.0,100.0,event
12:32:36.496,0.92572576,0.20688444,0.91472286,1.6240861,0.81582993,-0.17639112,0.22532089,1.2400678,0.76834404,0.17560375,0.13014191,1.4289771,1.0718459,0.033094432,0.08414689,0.9588886,1.0834378,-0.19672419,-0.37066436,0.59665024,760.32965,820.7692,818.3516,750.2564,842.9304,-0.29815673828125,0.1343994140625,0.945556640625,1.5252685546875,-2.504730224609375,0.994415283203125,1.0,2.0,1.0,1.0,2.0,100.0,event
12:32:36.497,0.92572576,0.20688444,0.91472286,1.6240861,0.81582993,-0.17639112,0.22532089,1.2400678,0.76834404,0.17560375,0.13014191,1.4289771,1.0718459,0.033094432,0.08414689,0.9588886,1.0834378,-0.19672419,-0.37066436,0.59665024,755.09155,814.3223,819.9634,708.3516,795.78754,-0.29815673828125,0.1343994140625,0.945556640625,1.5252685546875,-2.504730224609375,0.994415283203125,1.0,2.0,1.0,1.0,2.0,100.0,event
12:32:36.497,0.92572576,0.20688444,0.91472286,1.6240861,0.81582993,-0.17639112,0.22532089,1.2400678,0.76834404,0.17560375,0.13014191,1.4289771,1.0718459,0.033094432,0.08414689,0.9588886,1.0834378,-0.19672419,-0.37066436,0.59665024,758.315,813.5165,821.5751,702.71063,645.09155,-0.29815673828125,0.1343994140625,0.945556640625,1.5252685546875,-2.504730224609375,0.994415283203125,1.0,2.0,1.0,1.0,2.0,100.0,event
12:32:36.563,0.92572576,0.20688444,0.91472286,1.6240861,0.81582993,-0.17639112,0.22532089,1.2400678,0.76834404,0.17560375,0.13014191,1.4289771,1.0718459,0.033094432,0.08414689,0.9588886,1.0834378,-0.19672419,-0.37066436,0.59665024,769.59705,813.5165,816.7399,705.5311,675.31134,-0.29815673828125,0.1343994140625,0.945556640625,1.5252685546875,-2.504730224609375,0.994415283203125,1.0,2.0,1.0,1.0,2.0,100.0,event
12:32:36.565,0.92572576,0.20688444,0.91472286,1.6240861,0.81582993,-0.17639112,0.22532089,1.2400678,0.76834404,0.17560375,0.13014191,1.4289771,1.0718459,0.033094432,0.08414689,0.9588886,1.0834378,-0.19672419,-0.37066436,0.59665024,755.4945,811.50183,815.9341,706.337,733.73627,-0.29815673828125,0.1343994140625,0.945556640625,1.5252685546875,-2.504730224609375,0.994415283203125,1.0,2.0,1.0,1.0,2.0,100.0,event
12:32:36.566,0.92572576,0.20688444,0.91472286,1.6240861,0.81582993,-0.17639112,0.22532089,1.2400678,0.76834404,0.17560375,0.13014191,1.4289771,1.0718459,0.033094432,0.08414689,0.9588886,1.0834378,-0.19672419,-0.37066436,0.59665024,745.42126,809.0842,817.9487,707.9487,739.3773,-0.29815673828125,0.1343994140625,0.945556640625,1.5252685546875,-2.504730224609375,0.994415283203125,1.0,2.0,1.0,1.0,2.0,100.0,event
12:32:36.567,0.92572576,0.20688444,0.91472286,1.6240861,0.81582993,-0.17639112,0.22532089,1.2400678,0.76834404,0.17560375,0.13014191,1.4289771,1.0718459,0.033094432,0.08414689,0.9588886,1.0834378,-0.19672419,-0.37066436,0.59665024,746.2271,810.696,819.15753,686.99634,720.0366,-0.29815673828125,0.1343994140625,0.945556640625,1.5252685546875,-2.504730224609375,0.994415283203125,1.0,2.0,1.0,1.0,2.0,100.0,event
12:32:36.568,0.92572576,0.20688444,0.91472286,1.6240861,0.81582993,-0.17639112,0.22532089,1.2400678,0.76834404,0.17560375,0.13014191,1.4289771,1.0718459,0.033094432,0.08414689,0.9588886,1.0834378,-0.19672419,-0.37066436,0.59665024,740.989,809.4872,820.3663,692.23444,729.304,-0.29815673828125,0.1343994140625,0.945556640625,1.5252685546875,-2.504730224609375,0.994415283203125,1.0,2.0,1.0,1.0,2.0,100.0,event
12:32:36.569,0.92572576,0.20688444,0.91472286,1.6240861,0.81582993,-0.17639112,0.22532089,1.2400678,0.76834404,0.17560375,0.13014191,1.4289771,1.0718459,0.033094432,0.08414689,0.9588886,1.0834378,-0.19672419,-0.37066436,0.59665024,742.6007,807.47253,821.5751,717.2161,795.78754,-0.29815673828125,0.1343994140625,0.945556640625,1.5252685546875,-2.504730224609375,0.994415283203125,1.0,2.0,1.0,1.0,2.0,100.0,event
12:32:36.570,0.92572576,0.20688444,0.91472286,1.6240861,0.81582993,-0.17639112,0.22532089,1.2400678,0.76834404,0.17560375,0.13014191,1.4289771,1.0718459,0.033094432,0.08414689,0.9588886,1.0834378,-0.19672419,-0.37066436,0.59665024,745.82416,807.47253,820.3663,717.619,821.1722,-0.29815673828125,0.1343994140625,0.945556640625,1.5252685546875,-2.504730224609375,0.994415283203125,1.0,2.0,1.0,1.0,2.0,100.0,event
12:32:36.572,0.92572576,0.20688444,0.91472286,1.6240861,0.81582993,-0.17639112,0.22532089,1.2400678,0.76834404,0.17560375,0.13014191,1.4289771,1.0718459,0.033094432,0.08414689,0.9588886,1.0834378,-0.19672419,-0.37066436,0.59665024,745.0183,804.65204,822.381,714.3956,680.14655,-0.29815673828125,0.1343994140625,0.945556640625,1.5252685546875,-2.504730224609375,0.994415283203125,1.0,2.0,1.0,1.0,2.0,100.0,event
12:32:36.573,0.92572576,0.20688444,0.91472286,1.6240861,0.81582993,-0.17639112,0.22532089,1.2400678,0.76834404,0.17560375,0.13014191,1.4289771,1.0718459,0.033094432,0.08414689,0.9588886,1.0834378,-0.19672419,-0.37066436,0.59665024,739.7802,803.8461,821.1722,714.7985,661.6117,-0.29815673828125,0.1343994140625,0.945556640625,1.5252685546875,-2.504730224609375,0.994415283203125,1.0,2.0,1.0,1.0,2.0,100.0,event
12:32:36.574,0.92572576,0.20688444,0.91472286,1.6240861,0.81582993,-0.17639112,0.22532089,1.2400678,0.76834404,0.17560375,0.13014191,1.4289771,1.0718459,0.033094432,0.08414689,0.9588886,1.0834378,-0.19672419,-0.37066436,0.59665024,742.6007,807.8755,817.1429,711.978,890.87915,-0.29815673828125,0.1343994140625,0.945556640625,1.5252685546875,-2.504730224609375,0.994415283203125,1.0,2.0,1.0,1.0,2.0,100.0,event
12:32:36.575,0.92572576,0.20688444,0.91472286,1.6240861,0.81582993,-0.17639112,0.22532089,1.2400678,0.76834404,0.17560375,0.13014191,1.4289771,1.0718459,0.033094432,0.08414689,0.9588886,1.0834378,-0.19672419,-0.37066436,0.59665024,754.68866,809.4872,817.5458,705.9341,693.0403,-0.29815673828125,0.1343994140625,0.945556640625,1.5252685546875,-2.504730224609375,0.994415283203125,1.0,2.0,1.0,1.0,2.0,100.0,event
12:32:36.575,0.92572576,0.20688444,0.91472286,1.6240861,0.81582993,-0.17639112,0.22532089,1.2400678,0.76834404,0.17560375,0.13014191,1.4289771,1.0718459,0.033094432,0.08414689,0.9588886,1.0834378,-0.19672419,-0.37066436,0.59665024,760.7326,807.8755,820.3663,722.8571,593.91943,-0.29815673828125,0.1343994140625,0.945556640625,1.5252685546875,-2.504730224609375,0.994415283203125,1.0,2.0,1.0,1.0,2.0,100.0,event
12:32:36.603,0.92572576,0.20688444,0.91472286,1.6240861,0.81582993,-0.17639112,0.22532089,1.2400678,0.76834404,0.17560375,0.13014191,1.4289771,1.0718459,0.033094432,0.08414689,0.9588886,1.0834378,-0.19672419,-0.37066436,0.59665024,755.89746,810.293,821.5751,737.76556,712.7839,-0.3004150390625,0.11810302734375,0.91888427734375,1.233673095703125,-3.46923828125,-0.411224365234375,1.0,2.0,1.0,1.0,2.0,100.0,event
12:32:36.604,0.92572576,0.17608343,0.935476,1.6240861,0.81582993,-0.14494175,0.24888298,1.2400678,0.76834404,0.15852898,0.1525233,1.4289771,1.0718459,0.01733143,0.093027905,0.9588886,1.0834378,-0.22515386,-0.37206513,0.59665024,752.674,809.89014,823.5897,731.7216,659.19415,-0.3004150390625,0.11810302734375,0.91888427734375,1.233673095703125,-3.46923828125,-0.411224365234375,1.0,2.0,1.0,1.0,2.0,100.0,event
12:32:36.609,0.92572576,0.17608343,0.935476,1.6240861,0.81582993,-0.14494175,0.24888298,1.2400678,0.76834404,0.15852898,0.1525233,1.4289771,1.0718459,0.01733143,0.093027905,0.9588886,1.0834378,-0.22515386,-0.37206513,0.59665024,760.7326,803.0403,823.9927,715.2015,595.5311,-0.3004150390625,0.11810302734375,0.91888427734375,1.233673095703125,-3.46923828125,-0.411224365234375,1.0,2.0,1.0,1.0,2.0,100.0,event
12:32:36.610,0.92572576,0.17608343,0.935476,1.6240861,0.81582993,-0.14494175,0.24888298,1.2400678,0.76834404,0.15852898,0.1525233,1.4289771,1.0718459,0.01733143,0.093027905,0.9588886,1.0834378,-0.22515386,-0.37206513,0.59665024,746.2271,806.6667,811.0989,722.0513,709.9634,-0.3004150390625,0.11810302734375,0.91888427734375,1.233673095703125,-3.46923828125,-0.411224365234375,1.0,2.0,1.0,1.0,2.0,100.0,event
12:32:36.610,0.92572576,0.17608343,0.935476,1.6240861,0.81582993,-0.14494175,0.24888298,1.2400678,0.76834404,0.15852898,0.1525233,1.4289771,1.0718459,0.01733143,0.093027905,0.9588886,1.0834378,-0.22515386,-0.37206513,0.59665024,761.13556,802.6374,817.1429,719.2308,628.1685,-0.3004150390625,0.11810302734375,0.91888427734375,1.233673095703125,-3.46923828125,-0.411224365234375,1.0,2.0,1.0,1.0,2.0,100.0,event
12:32:36.611,0.92572576,0.17608343,0.935476,1.6240861,0.81582993,-0.14494175,0.24888298,1.2400678,0.76834404,0.15852898,0.1525233,1.4289771,1.0718459,0.01733143,0.093027905,0.9588886,1.0834378,-0.22515386,-0.37206513,0.59665024,755.09155,813.5165,816.7399,729.304,691.8315,-0.3004150390625,0.11810302734375,0.91888427734375,1.233673095703125,-3.46923828125,-0.411224365234375,1.0,2.0,1.0,1.0,2.0,100.0,event
12:32:36.612,0.92572576,0.17608343,0.935476,1.6240861,0.81582993,-0.14494175,0.24888298,1.2400678,0.76834404,0.15852898,0.1525233,1.4289771,1.0718459,0.01733143,0.093027905,0.9588886,1.0834378,-0.22515386,-0.37206513,0.59665024,776.04395,816.337,818.7546,724.0659,728.0952,-0.3004150390625,0.11810302734375,0.91888427734375,1.233673095703125,-3.46923828125,-0.411224365234375,1.0,2.0,1.0,1.0,2.0,100.0,event
12:32:36.612,0.92572576,0.17608343,0.935476,1.6240861,0.81582993,-0.14494175,0.24888298,1.2400678,0.76834404,0.15852898,0.1525233,1.4289771,1.0718459,0.01733143,0.093027905,0.9588886,1.0834378,-0.22515386,-0.37206513,0.59665024,767.1795,805.8608,815.12823,707.1429,796.99634,-0.3004150390625,0.11810302734375,0.91888427734375,1.233673095703125,-3.46923828125,-0.411224365234375,1.0,2.0,1.0,1.0,2.0,100.0,event
12:32:36.613,0.92572576,0.17608343,0.935476,1.6240861,0.81582993,-0.14494175,0.24888298,1.2400678,0.76834404,0.15852898,0.1525233,1.4289771,1.0718459,0.01733143,0.093027905,0.9588886,1.0834378,-0.22515386,-0.37206513,0.59665024,751.8681,796.99634,813.1135,714.3956,903.36993,-0.3004150390625,0.11810302734375,0.91888427734375,1.233673095703125,-3.46923828125,-0.411224365234375,1.0,2.0,1.0,1.0,2.0,100.0,event
12:32:36.614,0.92572576,0.17608343,0.935476,1.6240861,0.81582993,-0.14494175,0.24888298,1.2400678,0.76834404,0.15852898,0.1525233,1.4289771,1.0718459,0.01733143,0.093027905,0.9588886,1.0834378,-0.22515386,-0.37206513,0.59665024,743.4066,792.96704,810.696,725.6777,859.85345,-0.3004150390625,0.11810302734375,0.91888427734375,1.233673095703125,-3.46923828125,-0.411224365234375,1.0,2.0,1.0,1.0,2.0,100.0,event
12:32:36.614,0.92572576,0.17608343,0.935476,1.6240861,0.81582993,-0.14494175,0.24888298,1.2400678,0.76834404,0.15852898,0.1525233,1.4289771,1.0718459,0.01733143,0.093027905,0.9588886,1.0834378,-0.22515386,-0.37206513,0.59665024,752.27106,798.60803,815.12823,721.6484,661.6117,-0.3004150390625,0.11810302734375,0.91888427734375,1.233673095703125,-3.46923828125,-0.411224365234375,1.0,2.0,1.0,1.0,2.0,100.0,event
12:32:36.615,0.92572576,0.17608343,0.935476,1.6240861,0.81582993,-0.14494175,0.24888298,1.2400678,0.76834404,0.15852898,0.1525233,1.4289771,1.0718459,0.01733143,0.093027905,0.9588886,1.0834378,-0.22515386,-0.37206513,0.59665024,770.80585,803.0403,813.5165,723.2601,709.9634,-0.3004150390625,0.11810302734375,0.91888427734375,1.233673095703125,-3.46923828125,-0.411224365234375,1.0,2.0,1.0,1.0,2.0,100.0,event
12:32:36.639,0.92572576,0.17608343,0.935476,1.6240861,0.81582993,-0.14494175,0.24888298,1.2400678,0.76834404,0.15852898,0.1525233,1.4289771,1.0718459,0.01733143,0.093027905,0.9588886,1.0834378,-0.22515386,-0.37206513,0.59665024,789.7436,799.011,814.3223,736.9597,847.3626,-0.28375244140625,0.1292724609375,0.93682861328125,3.00567626953125,-4.66552734375,-0.889739990234375,1.0,2.0,1.0,1.0,2.0,100.0,event
12:32:36.640,0.92572576,0.17608343,0.935476,1.6240861,0.81582993,-0.14494175,0.24888298,1.2400678,0.76834404,0.15852898,0.1525233,1.4289771,1.0718459,0.01733143,0.093027905,0.9588886,1.0834378,-0.22515386,-0.37206513,0.59665024,788.1319,801.4286,814.7253,730.10986,762.3443,-0.28375244140625,0.1292724609375,0.93682861328125,3.00567626953125,-4.66552734375,-0.889739990234375,1.0,2.0,1.0,1.0,2.0,100.0,event
12:32:36.641,0.92572576,0.17608343,0.935476,1.6240861,0.81582993,-0.14494175,0.24888298,1.2400678,0.76834404,0.15852898,0.1525233,1.4289771,1.0718459,0.01733143,0.093027905,0.9588886,1.0834378,-0.22515386,-0.37206513,0.59665024,776.8498,808.68134,809.89014,728.9011,747.8388,-0.28375244140625,0.1292724609375,0.93682861328125,3.00567626953125,-4.66552734375,-0.889739990234375,1.0,2.0,1.0,1.0,2.0,100.0,event
12:32:36.641,0.92572576,0.17608343,0.935476,1.6240861,0.81582993,-0.14494175,0.24888298,1.2400678,0.76834404,0.15852898,0.1525233,1.4289771,1.0718459,0.01733143,0.093027905,0.9588886,1.0834378,-0.22515386,-0.37206513,0.59665024,770.0,809.4872,814.3223,737.76556,894.5055,-0.28375244140625,0.1292724609375,0.93682861328125,3.00567626953125,-4.66552734375,-0.889739990234375,1.0,2.0,1.0,1.0,2.0,100.0,event
12:32:36.642,0.92572576,0.17608343,0.935476,1.6240861,0.81582993,-0.14494175,0.24888298,1.2400678,0.76834404,0.15852898,0.1525233,1.4289771,1.0718459,0.01733143,0.093027905,0.9588886,1.0834378,-0.22515386,-0.37206513,0.59665024,749.0476,801.4286,818.7546,702.3077,956.1539,-0.28375244140625,0.1292724609375,0.93682861328125,3.00567626953125,-4.66552734375,-0.889739990234375,1.0,2.0,1.0,1.0,2.0,100.0,event
12:32:36.642,0.92572576,0.17608343,0.935476,1.6240861,0.81582993,-0.14494175,0.24888298,1.2400678,0.76834404,0.15852898,0.1525233,1.4289771,1.0718459,0.01733143,0.093027905,0.9588886,1.0834378,-0.22515386,-0.37206513,0.59665024,741.79486,796.5934,815.9341,680.9524,939.6337,-0.28375244140625,0.1292724609375,0.93682861328125,3.00567626953125,-4.66552734375,-0.889739990234375,1.0,2.0,1.0,1.0,2.0,100.0,event
12:32:36.643,0.92572576,0.17608343,0.935476,1.6240861,0.81582993,-0.14494175,0.24888298,1.2400678,0.76834404,0.15852898,0.1525233,1.4289771,1.0718459,0.01733143,0.093027905,0.9588886,1.0834378,-0.22515386,-0.37206513,0.59665024,759.12085,803.44324,816.7399,718.8278,875.56775,-0.28375244140625,0.1292724609375,0.93682861328125,3.00567626953125,-4.66552734375,-0.889739990234375,1.0,2.0,1.0,1.0,2.0,100.0,event
12:32:36.643,0.92572576,0.17608343,0.935476,1.6240861,0.81582993,-0.14494175,0.24888298,1.2400678,0.76834404,0.15852898,0.1525233,1.4289771,1.0718459,0.01733143,0.093027905,0.9588886,1.0834378,-0.22515386,-0.37206513,0.59665024,747.8388,800.2198,815.12823,696.6667,883.22345,-0.28375244140625,0.1292724609375,0.93682861328125,3.00567626953125,-4.66552734375,-0.889739990234375,1.0,2.0,1.0,1.0,2.0,100.0,event
12:32:36.644,0.92572576,0.17608343,0.935476,1.6240861,0.81582993,-0.14494175,0.24888298,1.2400678,0.76834404,0.15852898,0.1525233,1.4289771,1.0718459,0.01733143,0.093027905,0.9588886,1.0834378,-0.22515386,-0.37206513,0.59665024,776.8498,805.05493,815.5311,738.5714,1199.9268,-0.28375244140625,0.1292724609375,0.93682861328125,3.00567626953125,-4.66552734375,-0.889739990234375,1.0,2.0,1.0,1.0,2.0,100.0,event
12:32:36.644,0.92572576,0.17608343,0.935476,1.6240861,0.81582993,-0.14494175,0.24888298,1.2400678,0.76834404,0.15852898,0.1525233,1.4289771,1.0718459,0.01733143,0.093027905,0.9588886,1.0834378,-0.22515386,-0.37206513,0.59665024,783.69965,806.6667,816.7399,737.76556,1035.9341,-0.28375244140625,0.1292724609375,0.93682861328125,3.00567626953125,-4.66552734375,-0.889739990234375,1.0,2.0,1.0,1.0,2.0,100.0,event
12:32:36.645,0.92572576,0.17608343,0.935476,1.6240861,0.81582993,-0.14494175,0.24888298,1.2400678,0.76834404,0.15852898,0.1525233,1.4289771,1.0718459,0.01733143,0.093027905,0.9588886,1.0834378,-0.22515386,-0.37206513,0.59665024,772.01465,808.68134,817.5458,728.0952,724.87177,-0.28375244140625,0.1292724609375,0.93682861328125,3.00567626953125,-4.66552734375,-0.889739990234375,1.0,2.0,1.0,1.0,2.0,100.0,event
12:32:36.645,0.92572576,0.17608343,0.935476,1.6240861,0.81582993,-0.14494175,0.24888298,1.2400678,0.76834404,0.15852898,0.1525233,1.4289771,1.0718459,0.01733143,0.093027905,0.9588886,1.0834378,-0.22515386,-0.37206513,0.59665024,768.3883,807.8755,816.337,722.0513,824.7985,-0.28375244140625,0.1292724609375,0.93682861328125,3.00567626953125,-4.66552734375,-0.889739990234375,1.0,2.0,1.0,1.0,2.0,100.0,event
12:32:36.669,0.92572576,0.17608343,0.935476,1.6240861,0.81582993,-0.14494175,0.24888298,1.2400678,0.76834404,0.15852898,0.1525233,1.4289771,1.0718459,0.01733143,0.093027905,0.9588886,1.0834378,-0.22515386,-0.37206513,0.59665024,784.90845,797.3993,813.5165,733.3333,803.0403,-0.28790283203125,0.13763427734375,0.9532470703125,1.487884521484375,-4.373931884765625,-0.70281982421875,1.0,2.0,1.0,1.0,2.0,100.0,event
12:32:36.670,0.92572576,0.17608343,0.935476,1.6240861,0.81582993,-0.14494175,0.24888298,1.2400678,0.76834404,0.15852898,0.1525233,1.4289771,1.0718459,0.01733143,0.093027905,0.9588886,1.0834378,-0.22515386,-0.37206513,0.59665024,804.65204,798.20514,815.5311,761.13556,785.31134,-0.28790283203125,0.13763427734375,0.9532470703125,1.487884521484375,-4.373931884765625,-0.70281982421875,1.0,2.0,1.0,1.0,2.0,100.0,event
12:32:36.670,0.92572576,0.17608343,0.935476,1.6240861,0.81582993,-0.14494175,0.24888298,1.2400678,0.76834404,0.15852898,0.1525233,1.4289771,1.0718459,0.01733143,0.093027905,0.9588886,1.0834378,-0.22515386,-0.37206513,0.59665024,807.0696,809.4872,813.91943,761.13556,870.32965,-0.28790283203125,0.13763427734375,0.9532470703125,1.487884521484375,-4.373931884765625,-0.70281982421875,1.0,2.0,1.0,1.0,2.0,100.0,event
12:32:36.671,0.92572576,0.16486038,0.9240492,1.6240861,0.81582993,-0.12174738,0.26375142,1.2400678,0.76834404,0.14038184,0.1623681,1.4289771,1.0718459,0.0024208545,0.09313598,0.9588886,1.0834378,-0.23789687,-0.37616494,0.59665024,799.011,807.0696,816.337,741.39197,909.81683,-0.28790283203125,0.13763427734375,0.9532470703125,1.487884521484375,-4.373931884765625,-0.70281982421875,1.0,2.0,1.0,1.0,2.0,100.0,event
12:32:36.675,0.92572576,0.16486038,0.9240492,1.6240861,0.81582993,-0.12174738,0.26375142,1.2400678,0.76834404,0.14038184,0.1623681,1.4289771,1.0718459,0.0024208545,0.09313598,0.9588886,1.0834378,-0.23789687,-0.37616494,0.59665024,780.87915,807.8755,819.9634,746.2271,830.84247,-0.28790283203125,0.13763427734375,0.9532470703125,1.487884521484375,-4.373931884765625,-0.70281982421875,1.0,2.0,1.0,1.0,2.0,100.0,event
12:32:36.675,0.92572576,0.16486038,0.9240492,1.6240861,0.81582993,-0.12174738,0.26375142,1.2400678,0.76834404,0.14038184,0.1623681,1.4289771,1.0718459,0.0024208545,0.09313598,0.9588886,1.0834378,-0.23789687,-0.37616494,0.59665024,749.85345,807.8755,816.7399,754.68866,857.4359,-0.28790283203125,0.13763427734375,0.9532470703125,1.487884521484375,-4.373931884765625,-0.70281982421875,1.0,2.0,1.0,1.0,2.0,100.0,event
12:32:36.676,0.92572576,0.16486038,0.9240492,1.6240861,0.81582993,-0.12174738,0.26375142,1.2400678,0.76834404,0.14038184,0.1623681,1.4289771,1.0718459,0.0024208545,0.09313598,0.9588886,1.0834378,-0.23789687,-0.37616494,0.59665024,750.65936,805.4579,813.1135,753.47986,974.68866,-0.28790283203125,0.13763427734375,0.9532470703125,1.487884521484375,-4.373931884765625,-0.70281982421875,1.0,2.0,1.0,1.0,2.0,100.0,event
12:32:36.677,0.92572576,0.16486038,0.9240492,1.6240861,0.81582993,-0.12174738,0.26375142,1.2400678,0.76834404,0.14038184,0.1623681,1.4289771,1.0718459,0.0024208545,0.09313598,0.9588886,1.0834378,-0.23789687,-0.37616494,0.59665024,769.59705,812.3077,816.7399,743.8095,1024.249,-0.28790283203125,0.13763427734375,0.9532470703125,1.487884521484375,-4.373931884765625,-0.70281982421875,1.0,2.0,1.0,1.0,2.0,100.0,event
12:32:36.677,0.92572576,0.16486038,0.9240492,1.6240861,0.81582993,-0.12174738,0.26375142,1.2400678,0.76834404,0.14038184,0.1623681,1.4289771,1.0718459,0.0024208545,0.09313598,0.9588886,1.0834378,-0.23789687,-0.37616494,0.59665024,771.6117,807.47253,811.0989,750.2564,1119.3407,-0.28790283203125,0.13763427734375,0.9532470703125,1.487884521484375,-4.373931884765625,-0.70281982421875,1.0,2.0,1.0,1.0,2.0,100.0,event
12:32:36.678,0.92572576,0.16486038,0.9240492,1.6240861,0.81582993,-0.12174738,0.26375142,1.2400678,0.76834404,0.14038184,0.1623681,1.4289771,1.0718459,0.0024208545,0.09313598,0.9588886,1.0834378,-0.23789687,-0.37616494,0.59665024,761.13556,807.0696,819.5604,738.1685,798.20514,-0.28790283203125,0.13763427734375,0.9532470703125,1.487884521484375,-4.373931884765625,-0.70281982421875,1.0,2.0,1.0,1.0,2.0,100.0,event
12:32:36.678,0.92572576,0.16486038,0.9240492,1.6240861,0.81582993,-0.12174738,0.26375142,1.2400678,0.76834404,0.14038184,0.1623681,1.4289771,1.0718459,0.0024208545,0.09313598,0.9588886,1.0834378,-0.23789687,-0.37616494,0.59665024,768.7912,798.20514,816.7399,746.63007,790.9524,-0.28790283203125,0.13763427734375,0.9532470703125,1.487884521484375,-4.373931884765625,-0.70281982421875,1.0,2.0,1.0,1.0,2.0,100.0,event
12:32:36.679,0.92572576,0.16486038,0.9240492,1.6240861,0.81582993,-0.12174738,0.26375142,1.2400678,0.76834404,0.14038184,0.1623681,1.4289771,1.0718459,0.0024208545,0.09313598,0.9588886,1.0834378,-0.23789687,-0.37616494,0.59665024,771.2088,800.6227,815.9341,771.2088,909.81683,-0.28790283203125,0.13763427734375,0.9532470703125,1.487884521484375,-4.373931884765625,-0.70281982421875,1.0,2.0,1.0,1.0,2.0,100.0,event
12:32:36.731,0.92572576,0.16486038,0.9240492,1.6240861,0.81582993,-0.12174738,0.26375142,1.2400678,0.76834404,0.14038184,0.1623681,1.4289771,1.0718459,0.0024208545,0.09313598,0.9588886,1.0834378,-0.23789687,-0.37616494,0.59665024,754.68866,803.0403,815.5311,745.42126,836.08057,-0.29620361328125,0.12451171875,0.93255615234375,-0.01495361328125,-2.938385009765625,-1.15142822265625,1.0,2.0,1.0,1.0,2.0,100.0,event
12:32:36.732,0.92572576,0.16486038,0.9240492,1.6240861,0.81582993,-0.12174738,0.26375142,1.2400678,0.76834404,0.14038184,0.1623681,1.4289771,1.0718459,0.0024208545,0.09313598,0.9588886,1.0834378,-0.23789687,-0.37616494,0.59665024,755.89746,803.44324,815.12823,717.2161,666.04395,-0.29620361328125,0.12451171875,0.93255615234375,-0.01495361328125,-2.938385009765625,-1.15142822265625,1.0,2.0,1.0,1.0,2.0,100.0,event
12:32:36.733,0.92572576,0.16486038,0.9240492,1.6240861,0.81582993,-0.12174738,0.26375142,1.2400678,0.76834404,0.14038184,0.1623681,1.4289771,1.0718459,0.0024208545,0.09313598,0.9588886,1.0834378,-0.23789687,-0.37616494,0.59665024,763.95605,803.8461,819.15753,729.707,704.3223,-0.29620361328125,0.12451171875,0.93255615234375,-0.01495361328125,-2.938385009765625,-1.15142822265625,1.0,2.0,1.0,1.0,2.0,100.0,event
12:32:36.734,0.92572576,0.16486038,0.9240492,1.6240861,0.81582993,-0.12174738,0.26375142,1.2400678,0.76834404,0.14038184,0.1623681,1.4289771,1.0718459,0.0024208545,0.09313598,0.9588886,1.0834378,-0.23789687,-0.37616494,0.59665024,766.3736,805.05493,819.5604,732.1245,813.1135,-0.29620361328125,0.12451171875,0.93255615234375,-0.01495361328125,-2.938385009765625,-1.15142822265625,1.0,2.0,1.0,1.0,2.0,100.0,event
12:32:36.734,0.92572576,0.16486038,0.9240492,1.6240861,0.81582993,-0.12174738,0.26375142,1.2400678,0.76834404,0.14038184,0.1623681,1.4289771,1.0718459,0.0024208545,0.09313598,0.9588886,1.0834378,-0.23789687,-0.37616494,0.59665024,778.86444,803.8461,816.7399,722.0513,779.67035,-0.29620361328125,0.12451171875,0.93255615234375,-0.01495361328125,-2.938385009765625,-1.15142822265625,1.0,2.0,1.0,1.0,2.0,100.0,event
12:32:36.734,0.92572576,0.16486038,0.9240492,1.6240861,0.81582993,-0.12174738,0.26375142,1.2400678,0.76834404,0.14038184,0.1623681,1.4289771,1.0718459,0.0024208545,0.09313598,0.9588886,1.0834378,-0.23789687,-0.37616494,0.59665024,786.9231,800.6227,818.7546,730.10986,832.0513,-0.29620361328125,0.12451171875,0.93255615234375,-0.01495361328125,-2.938385009765625,-1.15142822265625,1.0,2.0,1.0,1.0,2.0,100.0,event
12:32:36.735,0.92572576,0.16486038,0.9240492,1.6240861,0.81582993,-0.12174738,0.26375142,1.2400678,0.76834404,0.14038184,0.1623681,1.4289771,1.0718459,0.0024208545,0.09313598,0.9588886,1.0834378,-0.23789687,-0.37616494,0.59665024,779.2674,802.23444,818.7546,723.663,906.99634,-0.29620361328125,0.12451171875,0.93255615234375,-0.01495361328125,-2.938385009765625,-1.15142822265625,1.0,2.0,1.0,1.0,2.0,100.0,event
12:32:36.735,0.92572576,0.16486038,0.9240492,1.6240861,0.81582993,-0.12174738,0.26375142,1.2400678,0.76834404,0.14038184,0.1623681,1.4289771,1.0718459,0.0024208545,0.09313598,0.9588886,1.0834378,-0.23789687,-0.37616494,0.59665024,777.6557,803.8461,818.7546,728.9011,991.6117,-0.29620361328125,0.12451171875,0.93255615234375,-0.01495361328125,-2.938385009765625,-1.15142822265625,1.0,2.0,1.0,1.0,2.0,100.0,event
12:32:36.736,0.92572576,0.16486038,0.9240492,1.6240861,0.81582993,-0.12174738,0.26375142,1.2400678,0.76834404,0.14038184,0.1623681,1.4289771,1.0718459,0.0024208545,0.09313598,0.9588886,1.0834378,-0.23789687,-0.37616494,0.59665024,785.7143,802.23444,820.7692,726.8865,774.83514,-0.29620361328125,0.12451171875,0.93255615234375,-0.01495361328125,-2.938385009765625,-1.15142822265625,1.0,2.0,1.0,1.0,2.0,100.0,event
12:32:36.737,0.92572576,0.16486038,0.9240492,1.6240861,0.81582993,-0.12174738,0.26375142,1.2400678,0.76834404,0.14038184,0.1623681,1.4289771,1.0718459,0.0024208545,0.09313598,0.9588886,1.0834378,-0.23789687,-0.37616494,0.59665024,776.8498,799.41394,820.3663,715.2015,603.9927,-0.29620361328125,0.12451171875,0.93255615234375,-0.01495361328125,-2.938385009765625,-1.15142822265625,1.0,2.0,1.0,1.0,2.0,100.0,event
12:32:36.737,0.92572576,0.16486038,0.9240492,1.6240861,0.81582993,-0.12174738,0.26375142,1.2400678,0.76834404,0.14038184,0.1623681,1.4289771,1.0718459,0.0024208545,0.09313598,0.9588886,1.0834378,-0.23789687,-0.37616494,0.59665024,774.0293,803.0403,822.381,706.337,689.41394,-0.29620361328125,0.12451171875,0.93255615234375,-0.01495361328125,-2.938385009765625,-1.15142822265625,1.0,2.0,1.0,1.0,2.0,100.0,event
12:32:36.738,0.92572576,0.16486038,0.9240492,1.6240861,0.81582993,-0.12174738,0.26375142,1.2400678,0.76834404,0.14038184,0.1623681,1.4289771,1.0718459,0.0024208545,0.09313598,0.9588886,1.0834378,-0.23789687,-0.37616494,0.59665024,774.83514,803.44324,818.3516,696.6667,683.7729,-0.29620361328125,0.12451171875,0.93255615234375,-0.01495361328125,-2.938385009765625,-1.15142822265625,1.0,2.0,1.0,1.0,2.0,100.0,event
12:32:36.780,0.92572576,0.16486038,0.9240492,1.6240861,0.81582993,-0.12174738,0.26375142,1.2400678,0.76834404,0.14038184,0.1623681,1.4289771,1.0718459,0.0024208545,0.09313598,0.9588886,1.0834378,-0.23789687,-0.37616494,0.59665024,768.3883,798.60803,813.5165,680.14655,606.8132,-0.29620361328125,0.12451171875,0.93255615234375,-0.01495361328125,-2.938385009765625,-1.15142822265625,1.0,2.0,1.0,1.0,2.0,100.0,event
12:32:36.781,0.92572576,0.16486038,0.9240492,1.6240861,0.81582993,-0.12174738,0.26375142,1.2400678,0.76834404,0.14038184,0.1623681,1.4289771,1.0718459,0.0024208545,0.09313598,0.9588886,1.0834378,-0.23789687,-0.37616494,0.59665024,765.16486,801.4286,813.91943,687.8022,592.71063,-0.29620361328125,0.12451171875,0.93255615234375,-0.01495361328125,-2.938385009765625,-1.15142822265625,1.0,2.0,1.0,1.0,2.0,100.0,event
12:32:36.782,0.92572576,0.16486038,0.9240492,1.6240861,0.81582993,-0.12174738,0.26375142,1.2400678,0.76834404,0.14038184,0.1623681,1.4289771,1.0718459,0.0024208545,0.09313598,0.9588886,1.0834378,-0.23789687,-0.37616494,0.59665024,746.2271,803.8461,812.71063,712.381,730.5128,-0.29620361328125,0.12451171875,0.93255615234375,-0.01495361328125,-2.938385009765625,-1.15142822265625,1.0,2.0,1.0,1.0,2.0,100.0,event
12:32:36.783,0.92572576,0.16486038,0.9240492,1.6240861,0.81582993,-0.12174738,0.26375142,1.2400678,0.76834404,0.14038184,0.1623681,1.4289771,1.0718459,0.0024208545,0.09313598,0.9588886,1.0834378,-0.23789687,-0.37616494,0.59665024,738.97437,805.8608,816.7399,706.337,765.16486,-0.29620361328125,0.12451171875,0.93255615234375,-0.01495361328125,-2.938385009765625,-1.15142822265625,1.0,2.0,1.0,1.0,2.0,100.0,event
12:32:36.783,0.92572576,0.16486038,0.9240492,1.6240861,0.81582993,-0.12174738,0.26375142,1.2400678,0.76834404,0.14038184,0.1623681,1.4289771,1.0718459,0.0024208545,0.09313598,0.9588886,1.0834378,-0.23789687,-0.37616494,0.59665024,738.1685,803.8461,817.9487,699.0842,660.40295,-0.29620361328125,0.12451171875,0.93255615234375,-0.01495361328125,-2.938385009765625,-1.15142822265625,1.0,2.0,1.0,1.0,2.0,100.0,event
12:32:36.784,0.92572576,0.16503082,0.8856773,1.6240861,0.81582993,-0.10210561,0.26654437,1.2400678,0.76834404,0.09900992,0.16539724,1.4289771,1.0718459,-0.008476843,0.08513424,0.9588886,1.0834378,-0.23405196,-0.38427904,0.59665024,739.3773,803.8461,812.71063,678.1319,680.54944,-0.29620361328125,0.12451171875,0.93255615234375,-0.01495361328125,-2.938385009765625,-1.15142822265625,1.0,2.0,1.0,1.0,2.0,100.0,event
12:32:36.789,0.92572576,0.16503082,0.8856773,1.6240861,0.81582993,-0.10210561,0.26654437,1.2400678,0.76834404,0.09900992,0.16539724,1.4289771,1.0718459,-0.008476843,0.08513424,0.9588886,1.0834378,-0.23405196,-0.38427904,0.59665024,764.7619,805.4579,813.1135,670.4762,896.9231,-0.29620361328125,0.12451171875,0.93255615234375,-0.01495361328125,-2.938385009765625,-1.15142822265625,1.0,2.0,1.0,1.0,2.0,100.0,event
12:32:36.789,0.92572576,0.16503082,0.8856773,1.6240861,0.81582993,-0.10210561,0.26654437,1.2400678,0.76834404,0.09900992,0.16539724,1.4289771,1.0718459,-0.008476843,0.08513424,0.9588886,1.0834378,-0.23405196,-0.38427904,0.59665024,767.1795,808.68134,818.3516,702.71063,978.71796,-0.29620361328125,0.12451171875,0.93255615234375,-0.01495361328125,-2.938385009765625,-1.15142822265625,1.0,2.0,1.0,1.0,2.0,100.0,event
12:32:36.790,0.92572576,0.16503082,0.8856773,1.6240861,0.81582993,-0.10210561,0.26654437,1.2400678,0.76834404,0.09900992,0.16539724,1.4289771,1.0718459,-0.008476843,0.08513424,0.9588886,1.0834378,-0.23405196,-0.38427904,0.59665024,767.5824,809.89014,818.7546,732.52747,723.663,-0.29620361328125,0.12451171875,0.93255615234375,-0.01495361328125,-2.938385009765625,-1.15142822265625,1.0,2.0,1.0,1.0,2.0,100.0,event
12:32:36.790,0.92572576,0.16503082,0.8856773,1.6240861,0.81582993,-0.10210561,0.26654437,1.2400678,0.76834404,0.09900992,0.16539724,1.4289771,1.0718459,-0.008476843,0.08513424,0.9588886,1.0834378,-0.23405196,-0.38427904,0.59665024,781.685,808.68134,816.7399,726.08057,636.63007,-0.29620361328125,0.12451171875,0.93255615234375,-0.01495361328125,-2.938385009765625,-1.15142822265625,1.0,2.0,1.0,1.0,2.0,100.0,event
12:32:36.791,0.92572576,0.16503082,0.8856773,1.6240861,0.81582993,-0.10210561,0.26654437,1.2400678,0.76834404,0.09900992,0.16539724,1.4289771,1.0718459,-0.008476843,0.08513424,0.9588886,1.0834378,-0.23405196,-0.38427904,0.59665024,776.8498,812.3077,813.5165,705.9341,674.10254,-0.29620361328125,0.12451171875,0.93255615234375,-0.01495361328125,-2.938385009765625,-1.15142822265625,1.0,2.0,1.0,1.0,2.0,100.0,event
12:32:36.791,0.92572576,0.16503082,0.8856773,1.6240861,0.81582993,-0.10210561,0.26654437,1.2400678,0.76834404,0.09900992,0.16539724,1.4289771,1.0718459,-0.008476843,0.08513424,0.9588886,1.0834378,-0.23405196,-0.38427904,0.59665024,771.6117,809.89014,814.3223,704.7253,654.7619,-0.29620361328125,0.12451171875,0.93255615234375,-0.01495361328125,-2.938385009765625,-1.15142822265625,1.0,2.0,1.0,1.0,2.0,100.0,event
12:32:36.827,0.92572576,0.16503082,0.8856773,1.6240861,0.81582993,-0.10210561,0.26654437,1.2400678,0.76834404,0.09900992,0.16539724,1.4289771,1.0718459,-0.008476843,0.08513424,0.9588886,1.0834378,-0.23405196,-0.38427904,0.59665024,767.1795,803.0403,815.9341,718.8278,624.94507,-0.29632568359375,0.11883544921875,0.92132568359375,1.48040771484375,-0.844879150390625,-2.22808837890625,1.0,2.0,1.0,1.0,2.0,100.0,event
12:32:36.828,0.92572576,0.16503082,0.8856773,1.6240861,0.81582993,-0.10210561,0.26654437,1.2400678,0.76834404,0.09900992,0.16539724,1.4289771,1.0718459,-0.008476843,0.08513424,0.9588886,1.0834378,-0.23405196,-0.38427904,0.59665024,764.35895,803.0403,816.337,724.87177,651.53845,-0.29632568359375,0.11883544921875,0.92132568359375,1.48040771484375,-0.844879150390625,-2.22808837890625,1.0,2.0,1.0,1.0,2.0,100.0,event
12:32:36.829,0.92572576,0.16503082,0.8856773,1.6240861,0.81582993,-0.10210561,0.26654437,1.2400678,0.76834404,0.09900992,0.16539724,1.4289771,1.0718459,-0.008476843,0.08513424,0.9588886,1.0834378,-0.23405196,-0.38427904,0.59665024,769.19415,805.4579,819.15753,708.3516,738.1685,-0.29632568359375,0.11883544921875,0.92132568359375,1.48040771484375,-0.844879150390625,-2.22808837890625,1.0,2.0,1.0,1.0,2.0,100.0,event
12:32:36.829,0.92572576,0.16503082,0.8856773,1.6240861,0.81582993,-0.10210561,0.26654437,1.2400678,0.76834404,0.09900992,0.16539724,1.4289771,1.0718459,-0.008476843,0.08513424,0.9588886,1.0834378,-0.23405196,-0.38427904,0.59665024,769.59705,808.2784,816.7399,698.68134,711.978,-0.29632568359375,0.11883544921875,0.92132568359375,1.48040771484375,-0.844879150390625,-2.22808837890625,1.0,2.0,1.0,1.0,2.0,100.0,event
12:32:36.830,0.92572576,0.16503082,0.8856773,1.6240861,0.81582993,-0.10210561,0.26654437,1.2400678,0.76834404,0.09900992,0.16539724,1.4289771,1.0718459,-0.008476843,0.08513424,0.9588886,1.0834378,-0.23405196,-0.38427904,0.59665024,769.59705,808.2784,816.337,728.0952,621.7216,-0.29632568359375,0.11883544921875,0.92132568359375,1.48040771484375,-0.844879150390625,-2.22808837890625,1.0,2.0,1.0,1.0,2.0,100.0,event
12:32:36.831,0.92572576,0.16503082,0.8856773,1.6240861,0.81582993,-0.10210561,0.26654437,1.2400678,0.76834404,0.09900992,0.16539724,1.4289771,1.0718459,-0.008476843,0.08513424,0.9588886,1.0834378,-0.23405196,-0.38427904,0.59665024,760.32965,809.0842,817.1429,749.0476,808.2784,-0.29632568359375,0.11883544921875,0.92132568359375,1.48040771484375,-0.844879150390625,-2.22808837890625,1.0,2.0,1.0,1.0,2.0,100.0,event
12:32:36.831,0.92572576,0.16503082,0.8856773,1.6240861,0.81582993,-0.10210561,0.26654437,1.2400678,0.76834404,0.09900992,0.16539724,1.4289771,1.0718459,-0.008476843,0.08513424,0.9588886,1.0834378,-0.23405196,-0.38427904,0.59665024,764.35895,811.50183,819.5604,745.82416,961.39197,-0.29632568359375,0.11883544921875,0.92132568359375,1.48040771484375,-0.844879150390625,-2.22808837890625,1.0,2.0,1.0,1.0,2.0,100.0,event
12:32:36.832,0.92572576,0.16503082,0.8856773,1.6240861,0.81582993,-0.10210561,0.26654437,1.2400678,0.76834404,0.09900992,0.16539724,1.4289771,1.0718459,-0.008476843,0.08513424,0.9588886,1.0834378,-0.23405196,-0.38427904,0.59665024,768.7912,809.89014,819.9634,739.7802,889.2674,-0.29632568359375,0.11883544921875,0.92132568359375,1.48040771484375,-0.844879150390625,-2.22808837890625,1.0,2.0,1.0,1.0,2.0,100.0,event
12:32:36.833,0.92572576,0.16503082,0.8856773,1.6240861,0.81582993,-0.10210561,0.26654437,1.2400678,0.76834404,0.09900992,0.16539724,1.4289771,1.0718459,-0.008476843,0.08513424,0.9588886,1.0834378,-0.23405196,-0.38427904,0.59665024,776.8498,808.68134,817.9487,747.8388,782.8938,-0.29632568359375,0.11883544921875,0.92132568359375,1.48040771484375,-0.844879150390625,-2.22808837890625,1.0,2.0,1.0,1.0,2.0,100.0,event
12:32:36.833,0.92572576,0.16503082,0.8856773,1.6240861,0.81582993,-0.10210561,0.26654437,1.2400678,0.76834404,0.09900992,0.16539724,1.4289771,1.0718459,-0.008476843,0.08513424,0.9588886,1.0834378,-0.23405196,-0.38427904,0.59665024,780.4762,809.4872,814.7253,766.3736,871.13556,-0.29632568359375,0.11883544921875,0.92132568359375,1.48040771484375,-0.844879150390625,-2.22808837890625,1.0,2.0,1.0,1.0,2.0,100.0,event
12:32:36.834,0.92572576,0.16503082,0.8856773,1.6240861,0.81582993,-0.10210561,0.26654437,1.2400678,0.76834404,0.09900992,0.16539724,1.4289771,1.0718459,-0.008476843,0.08513424,0.9588886,1.0834378,-0.23405196,-0.38427904,0.59665024,789.7436,811.0989,811.0989,794.57874,1062.9304,-0.29632568359375,0.11883544921875,0.92132568359375,1.48040771484375,-0.844879150390625,-2.22808837890625,1.0,2.0,1.0,1.0,2.0,100.0,event
12:32:36.835,0.92572576,0.16503082,0.8856773,1.6240861,0.81582993,-0.10210561,0.26654437,1.2400678,0.76834404,0.09900992,0.16539724,1.4289771,1.0718459,-0.008476843,0.08513424,0.9588886,1.0834378,-0.23405196,-0.38427904,0.59665024,796.1905,808.68134,815.5311,782.49084,888.86444,-0.29632568359375,0.11883544921875,0.92132568359375,1.48040771484375,-0.844879150390625,-2.22808837890625,1.0,2.0,1.0,1.0,2.0,100.0,event
12:32:36.861,0.92572576,0.16503082,0.8856773,1.6240861,0.81582993,-0.10210561,0.26654437,1.2400678,0.76834404,0.09900992,0.16539724,1.4289771,1.0718459,-0.008476843,0.08513424,0.9588886,1.0834378,-0.23405196,-0.38427904,0.59665024,766.77655,798.60803,820.3663,738.5714,781.28204,-0.29473876953125,0.12615966796875,0.93865966796875,2.07855224609375,-2.998199462890625,-1.07666015625,1.0,2.0,1.0,1.0,2.0,100.0,event
12:32:36.862,0.92572576,0.16503082,0.8856773,1.6240861,0.81582993,-0.10210561,0.26654437,1.2400678,0.76834404,0.09900992,0.16539724,1.4289771,1.0718459,-0.008476843,0.08513424,0.9588886,1.0834378,-0.23405196,-0.38427904,0.59665024,761.9414,792.5641,821.978,743.8095,805.05493,-0.29473876953125,0.12615966796875,0.93865966796875,2.07855224609375,-2.998199462890625,-1.07666015625,1.0,2.0,1.0,1.0,2.0,100.0,event
12:32:36.863,0.92572576,0.16503082,0.8856773,1.6240861,0.81582993,-0.10210561,0.26654437,1.2400678,0.76834404,0.09900992,0.16539724,1.4289771,1.0718459,-0.008476843,0.08513424,0.9588886,1.0834378,-0.23405196,-0.38427904,0.59665024,768.7912,792.96704,822.381,770.40295,785.31134,-0.29473876953125,0.12615966796875,0.93865966796875,2.07855224609375,-2.998199462890625,-1.07666015625,1.0,2.0,1.0,1.0,2.0,100.0,event
12:32:36.864,0.92572576,0.16503082,0.8856773,1.6240861,0.81582993,-0.10210561,0.26654437,1.2400678,0.76834404,0.09900992,0.16539724,1.4289771,1.0718459,-0.008476843,0.08513424,0.9588886,1.0834378,-0.23405196,-0.38427904,0.59665024,756.30035,793.36993,821.978,766.77655,786.9231,-0.29473876953125,0.12615966796875,0.93865966796875,2.07855224609375,-2.998199462890625,-1.07666015625,1.0,2.0,1.0,1.0,2.0,100.0,event
12:32:36.864,0.92572576,0.16503082,0.8856773,1.6240861,0.81582993,-0.10210561,0.26654437,1.2400678,0.76834404,0.09900992,0.16539724,1.4289771,1.0718459,-0.008476843,0.08513424,0.9588886,1.0834378,-0.23405196,-0.38427904,0.59665024,753.47986,795.38464,819.5604,761.53845,812.3077,-0.29473876953125,0.12615966796875,0.93865966796875,2.07855224609375,-2.998199462890625,-1.07666015625,1.0,2.0,1.0,1.0,2.0,100.0,event
12:32:36.865,0.92572576,0.16503082,0.8856773,1.6240861,0.81582993,-0.10210561,0.26654437,1.2400678,0.76834404,0.09900992,0.16539724,1.4289771,1.0718459,-0.008476843,0.08513424,0.9588886,1.0834378,-0.23405196,-0.38427904,0.59665024,767.98535,795.78754,819.9634,757.9121,962.6007,-0.29473876953125,0.12615966796875,0.93865966796875,2.07855224609375,-2.998199462890625,-1.07666015625,1.0,2.0,1.0,1.0,2.0,100.0,event
12:32:36.866,0.92572576,0.16503082,0.8856773,1.6240861,0.81582993,-0.10210561,0.26654437,1.2400678,0.76834404,0.09900992,0.16539724,1.4289771,1.0718459,-0.008476843,0.08513424,0.9588886,1.0834378,-0.23405196,-0.38427904,0.59665024,786.1172,795.38464,818.7546,757.9121,1017.3993,-0.29473876953125,0.12615966796875,0.93865966796875,2.07855224609375,-2.998199462890625,-1.07666015625,1.0,2.0,1.0,1.0,2.0,100.0,event
12:32:36.866,0.92572576,0.16901368,0.83753073,1.6240861,0.81582993,-0.07855209,0.25932753,1.2400678,0.76834404,0.045901492,0.16518722,1.4289771,1.0718459,-0.015685353,0.071558155,0.9588886,1.0834378,-0.22036289,-0.3931888,0.59665024,770.0,798.60803,817.5458,757.9121,898.1319,-0.29473876953125,0.12615966796875,0.93865966796875,2.07855224609375,-2.998199462890625,-1.07666015625,1.0,2.0,1.0,1.0,2.0,100.0,event
12:32:36.871,0.92572576,0.16901368,0.83753073,1.6240861,0.81582993,-0.07855209,0.25932753,1.2400678,0.76834404,0.045901492,0.16518722,1.4289771,1.0718459,-0.015685353,0.071558155,0.9588886,1.0834378,-0.22036289,-0.3931888,0.59665024,749.85345,799.81683,818.7546,755.89746,886.8498,-0.29473876953125,0.12615966796875,0.93865966796875,2.07855224609375,-2.998199462890625,-1.07666015625,1.0,2.0,1.0,1.0,2.0,100.0,event
12:32:36.871,0.92572576,0.16901368,0.83753073,1.6240861,0.81582993,-0.07855209,0.25932753,1.2400678,0.76834404,0.045901492,0.16518722,1.4289771,1.0718459,-0.015685353,0.071558155,0.9588886,1.0834378,-0.22036289,-0.3931888,0.59665024,766.77655,800.6227,819.9634,781.685,1157.2161,-0.29473876953125,0.12615966796875,0.93865966796875,2.07855224609375,-2.998199462890625,-1.07666015625,1.0,2.0,1.0,1.0,2.0,100.0,event
12:32:36.873,0.92572576,0.16901368,0.83753073,1.6240861,0.81582993,-0.07855209,0.25932753,1.2400678,0.76834404,0.045901492,0.16518722,1.4289771,1.0718459,-0.015685353,0.071558155,0.9588886,1.0834378,-0.22036289,-0.3931888,0.59665024,778.46155,799.81683,823.9927,792.5641,1219.6703,-0.29473876953125,0.12615966796875,0.93865966796875,2.07855224609375,-2.998199462890625,-1.07666015625,1.0,2.0,1.0,1.0,2.0,100.0,event
12:32:36.874,0.92572576,0.16901368,0.83753073,1.6240861,0.81582993,-0.07855209,0.25932753,1.2400678,0.76834404,0.045901492,0.16518722,1.4289771,1.0718459,-0.015685353,0.071558155,0.9588886,1.0834378,-0.22036289,-0.3931888,0.59665024,780.87915,796.5934,825.6044,774.0293,897.326,-0.29473876953125,0.12615966796875,0.93865966796875,2.07855224609375,-2.998199462890625,-1.07666015625,1.0,2.0,1.0,1.0,2.0,100.0,event
12:32:36.896,0.92572576,0.16901368,0.83753073,1.6240861,0.81582993,-0.07855209,0.25932753,1.2400678,0.76834404,0.045901492,0.16518722,1.4289771,1.0718459,-0.015685353,0.071558155,0.9588886,1.0834378,-0.22036289,-0.3931888,0.59665024,780.87915,796.99634,823.1868,764.35895,857.03296,-0.3037109375,0.13067626953125,0.96051025390625,1.1065673828125,-2.818756103515625,-0.336456298828125,1.0,2.0,1.0,1.0,2.0,100.0,event
12:32:36.901,0.92572576,0.16901368,0.83753073,1.6240861,0.81582993,-0.07855209,0.25932753,1.2400678,0.76834404,0.045901492,0.16518722,1.4289771,1.0718459,-0.015685353,0.071558155,0.9588886,1.0834378,-0.22036289,-0.3931888,0.59665024,772.4176,801.02563,821.5751,763.1502,931.978,-0.3037109375,0.13067626953125,0.96051025390625,1.1065673828125,-2.818756103515625,-0.336456298828125,1.0,2.0,1.0,1.0,2.0,100.0,event
12:32:36.903,0.92572576,0.16901368,0.83753073,1.6240861,0.81582993,-0.07855209,0.25932753,1.2400678,0.76834404,0.045901492,0.16518722,1.4289771,1.0718459,-0.015685353,0.071558155,0.9588886,1.0834378,-0.22036289,-0.3931888,0.59665024,759.5238,802.23444,819.15753,771.6117,880.80585,-0.3037109375,0.13067626953125,0.96051025390625,1.1065673828125,-2.818756103515625,-0.336456298828125,1.0,2.0,1.0,1.0,2.0,100.0,event
12:32:36.904,0.92572576,0.16901368,0.83753073,1.6240861,0.81582993,-0.07855209,0.25932753,1.2400678,0.76834404,0.045901492,0.16518722,1.4289771,1.0718459,-0.015685353,0.071558155,0.9588886,1.0834378,-0.22036289,-0.3931888,0.59665024,777.25275,805.05493,818.7546,777.6557,817.1429,-0.3037109375,0.13067626953125,0.96051025390625,1.1065673828125,-2.818756103515625,-0.336456298828125,1.0,2.0,1.0,1.0,2.0,100.0,event
12:32:36.905,0.92572576,0.16901368,0.83753073,1.6240861,0.81582993,-0.07855209,0.25932753,1.2400678,0.76834404,0.045901492,0.16518722,1.4289771,1.0718459,-0.015685353,0.071558155,0.9588886,1.0834378,-0.22036289,-0.3931888,0.59665024,782.0879,809.89014,824.7985,771.2088,840.9158,-0.3037109375,0.13067626953125,0.96051025390625,1.1065673828125,-2.818756103515625,-0.336456298828125,1.0,2.0,1.0,1.0,2.0,100.0,event
12:32:36.906,0.92572576,0.16901368,0.83753073,1.6240861,0.81582993,-0.07855209,0.25932753,1.2400678,0.76834404,0.045901492,0.16518722,1.4289771,1.0718459,-0.015685353,0.071558155,0.9588886,1.0834378,-0.22036289,-0.3931888,0.59665024,752.27106,807.0696,830.0366,768.3883,987.1795,-0.3037109375,0.13067626953125,0.96051025390625,1.1065673828125,-2.818756103515625,-0.336456298828125,1.0,2.0,1.0,1.0,2.0,100.0,event
12:32:36.907,0.92572576,0.16901368,0.83753073,1.6240861,0.81582993,-0.07855209,0.25932753,1.2400678,0.76834404,0.045901492,0.16518722,1.4289771,1.0718459,-0.015685353,0.071558155,0.9588886,1.0834378,-0.22036289,-0.3931888,0.59665024,763.5531,808.2784,826.8132,759.12085,788.5348,-0.3037109375,0.13067626953125,0.96051025390625,1.1065673828125,-2.818756103515625,-0.336456298828125,1.0,2.0,1.0,1.0,2.0,100.0,event
12:32:36.907,0.92572576,0.16901368,0.83753073,1.6240861,0.81582993,-0.07855209,0.25932753,1.2400678,0.76834404,0.045901492,0.16518722,1.4289771,1.0718459,-0.015685353,0.071558155,0.9588886,1.0834378,-0.22036289,-0.3931888,0.59665024,753.0769,808.2784,826.8132,763.95605,942.4542,-0.3037109375,0.13067626953125,0.96051025390625,1.1065673828125,-2.818756103515625,-0.336456298828125,1.0,2.0,1.0,1.0,2.0,100.0,event
12:32:36.908,0.92572576,0.16901368,0.83753073,1.6240861,0.81582993,-0.07855209,0.25932753,1.2400678,0.76834404,0.045901492,0.16518722,1.4289771,1.0718459,-0.015685353,0.071558155,0.9588886,1.0834378,-0.22036289,-0.3931888,0.59665024,780.87915,803.8461,829.2308,763.1502,848.97437,-0.3037109375,0.13067626953125,0.96051025390625,1.1065673828125,-2.818756103515625,-0.336456298828125,1.0,2.0,1.0,1.0,2.0,100.0,event
12:32:36.909,0.92572576,0.16901368,0.83753073,1.6240861,0.81582993,-0.07855209,0.25932753,1.2400678,0.76834404,0.045901492,0.16518722,1.4289771,1.0718459,-0.015685353,0.071558155,0.9588886,1.0834378,-0.22036289,-0.3931888,0.59665024,794.17584,800.6227,830.0366,747.8388,1065.751,-0.3037109375,0.13067626953125,0.96051025390625,1.1065673828125,-2.818756103515625,-0.336456298828125,1.0,2.0,1.0,1.0,2.0,100.0,event
12:32:36.909,0.92572576,0.16901368,0.83753073,1.6240861,0.81582993,-0.07855209,0.25932753,1.2400678,0.76834404,0.045901492,0.16518722,1.4289771,1.0718459,-0.015685353,0.071558155,0.9588886,1.0834378,-0.22036289,-0.3931888,0.59665024,770.40295,801.8315,829.2308,729.707,909.81683,-0.3037109375,0.13067626953125,0.96051025390625,1.1065673828125,-2.818756103515625,-0.336456298828125,1.0,2.0,1.0,1.0,2.0,100.0,event
12:32:36.910,0.92572576,0.16901368,0.83753073,1.6240861,0.81582993,-0.07855209,0.25932753,1.2400678,0.76834404,0.045901492,0.16518722,1.4289771,1.0718459,-0.015685353,0.071558155,0.9588886,1.0834378,-0.22036289,-0.3931888,0.59665024,746.2271,801.4286,823.9927,748.24176,753.0769,-0.3037109375,0.13067626953125,0.96051025390625,1.1065673828125,-2.818756103515625,-0.336456298828125,1.0,2.0,1.0,1.0,2.0,100.0,event
12:32:36.966,0.92572576,0.16901368,0.83753073,1.6240861,0.81582993,-0.07855209,0.25932753,1.2400678,0.76834404,0.045901492,0.16518722,1.4289771,1.0718459,-0.015685353,0.071558155,0.9588886,1.0834378,-0.22036289,-0.3931888,0.59665024,759.12085,803.44324,821.5751,762.74725,892.49084,-0.30718994140625,0.11273193359375,0.9168701171875,0.829925537109375,-3.282318115234375,-0.485992431640625,1.0,2.0,1.0,1.0,2.0,100.0,event
12:32:36.968,0.92572576,0.16901368,0.83753073,1.6240861,0.81582993,-0.07855209,0.25932753,1.2400678,0.76834404,0.045901492,0.16518722,1.4289771,1.0718459,-0.015685353,0.071558155,0.9588886,1.0834378,-0.22036289,-0.3931888,0.59665024,772.01465,806.6667,819.9634,779.67035,855.42126,-0.30718994140625,0.11273193359375,0.9168701171875,0.829925537109375,-3.282318115234375,-0.485992431640625,1.0,2.0,1.0,1.0,2.0,100.0,event
12:32:36.969,0.92572576,0.16901368,0.83753073,1.6240861,0.81582993,-0.07855209,0.25932753,1.2400678,0.76834404,0.045901492,0.16518722,1.4289771,1.0718459,-0.015685353,0.071558155,0.9588886,1.0834378,-0.22036289,-0.3931888,0.59665024,777.6557,805.4579,822.381,758.315,690.6227,-0.30718994140625,0.11273193359375,0.9168701171875,0.829925537109375,-3.282318115234375,-0.485992431640625,1.0,2.0,1.0,1.0,2.0,100.0,event
12:32:36.969,0.92572576,0.16901368,0.83753073,1.6240861,0.81582993,-0.07855209,0.25932753,1.2400678,0.76834404,0.045901492,0.16518722,1.4289771,1.0718459,-0.015685353,0.071558155,0.9588886,1.0834378,-0.22036289,-0.3931888,0.59665024,790.9524,801.02563,826.0073,730.9158,630.18317,-0.30718994140625,0.11273193359375,0.9168701171875,0.829925537109375,-3.282318115234375,-0.485992431640625,1.0,2.0,1.0,1.0,2.0,100.0,event
12:32:36.970,0.92572576,0.16901368,0.83753073,1.6240861,0.81582993,-0.07855209,0.25932753,1.2400678,0.76834404,0.045901492,0.16518722,1.4289771,1.0718459,-0.015685353,0.071558155,0.9588886,1.0834378,-0.22036289,-0.3931888,0.59665024,771.2088,802.23444,827.619,736.9597,675.31134,-0.30718994140625,0.11273193359375,0.9168701171875,0.829925537109375,-3.282318115234375,-0.485992431640625,1.0,2.0,1.0,1.0,2.0,100.0,event
12:32:36.971,0.92572576,0.16901368,0.83753073,1.6240861,0.81582993,-0.07855209,0.25932753,1.2400678,0.76834404,0.045901492,0.16518722,1.4289771,1.0718459,-0.015685353,0.071558155,0.9588886,1.0834378,-0.22036289,-0.3931888,0.59665024,771.2088,801.8315,832.8571,748.24176,751.8681,-0.30718994140625,0.11273193359375,0.9168701171875,0.829925537109375,-3.282318115234375,-0.485992431640625,1.0,2.0,1.0,1.0,2.0,100.0,event
12:32:36.971,0.92572576,0.16901368,0.83753073,1.6240861,0.81582993,-0.07855209,0.25932753,1.2400678,0.76834404,0.045901492,0.16518722,1.4289771,1.0718459,-0.015685353,0.071558155,0.9588886,1.0834378,-0.22036289,-0.3931888,0.59665024,792.5641,796.99634,830.84247,747.03296,762.3443,-0.30718994140625,0.11273193359375,0.9168701171875,0.829925537109375,-3.282318115234375,-0.485992431640625,1.0,2.0,1.0,1.0,2.0,100.0,event
12:32:36.972,0.92572576,0.16901368,0.83753073,1.6240861,0.81582993,-0.07855209,0.25932753,1.2400678,0.76834404,0.045901492,0.16518722,1.4289771,1.0718459,-0.015685353,0.071558155,0.9588886,1.0834378,-0.22036289,-0.3931888,0.59665024,776.8498,802.23444,821.978,758.71796,674.5055,-0.30718994140625,0.11273193359375,0.9168701171875,0.829925537109375,-3.282318115234375,-0.485992431640625,1.0,2.0,1.0,1.0,2.0,100.0,event
12:32:36.973,0.92572576,0.1798295,0.7990916,1.6240861,0.81582993,-0.051634815,0.24548,1.2400678,0.76834404,-0.02292361,0.16399968,1.4289771,1.0718459,-0.02113134,0.055010285,0.9588886,1.0834378,-0.20382504,-0.3986599,0.59665024,771.6117,809.89014,826.0073,738.5714,813.5165,-0.30718994140625,0.11273193359375,0.9168701171875,0.829925537109375,-3.282318115234375,-0.485992431640625,1.0,2.0,1.0,1.0,2.0,100.0,event
12:32:36.973,0.92572576,0.16901368,0.83753073,1.6240861,0.81582993,-0.07855209,0.25932753,1.2400678,0.76834404,0.045901492,0.16518722,1.4289771,1.0718459,-0.015685353,0.071558155,0.9588886,1.0834378,-0.22036289,-0.3931888,0.59665024,755.4945,803.0403,821.978,776.8498,776.8498,-0.30718994140625,0.11273193359375,0.9168701171875,0.829925537109375,-3.282318115234375,-0.485992431640625,1.0,2.0,1.0,1.0,2.0,100.0,event
12:32:36.979,0.92572576,0.1798295,0.7990916,1.6240861,0.81582993,-0.051634815,0.24548,1.2400678,0.76834404,-0.02292361,0.16399968,1.4289771,1.0718459,-0.02113134,0.055010285,0.9588886,1.0834378,-0.20382504,-0.3986599,0.59665024,779.2674,805.05493,822.381,724.87177,613.2601,-0.30718994140625,0.11273193359375,0.9168701171875,0.829925537109375,-3.282318115234375,-0.485992431640625,1.0,2.0,1.0,1.0,2.0,100.0,event
12:32:36.980,0.92572576,0.1798295,0.7990916,1.6240861,0.81582993,-0.051634815,0.24548,1.2400678,0.76834404,-0.02292361,0.16399968,1.4289771,1.0718459,-0.02113134,0.055010285,0.9588886,1.0834378,-0.20382504,-0.3986599,0.59665024,781.28204,792.96704,823.9927,742.1978,575.78754,-0.30718994140625,0.11273193359375,0.9168701171875,0.829925537109375,-3.282318115234375,-0.485992431640625,1.0,2.0,1.0,1.0,2.0,100.0,event
12:32:37.007,0.92572576,0.1798295,0.7990916,1.6240861,0.81582993,-0.051634815,0.24548,1.2400678,0.76834404,-0.02292361,0.16399968,1.4289771,1.0718459,-0.02113134,0.055010285,0.9588886,1.0834378,-0.20382504,-0.3986599,0.59665024,779.2674,803.0403,827.2161,741.79486,641.06226,-0.30718994140625,0.11273193359375,0.9168701171875,0.829925537109375,-3.282318115234375,-0.485992431640625,1.0,2.0,1.0,1.0,2.0,100.0,event
12:32:37.009,0.92572576,0.1798295,0.7990916,1.6240861,0.81582993,-0.051634815,0.24548,1.2400678,0.76834404,-0.02292361,0.16399968,1.4289771,1.0718459,-0.02113134,0.055010285,0.9588886,1.0834378,-0.20382504,-0.3986599,0.59665024,755.09155,810.293,828.4249,733.3333,615.2747,-0.30718994140625,0.11273193359375,0.9168701171875,0.829925537109375,-3.282318115234375,-0.485992431640625,1.0,2.0,1.0,1.0,2.0,100.0,event
12:32:37.009,0.92572576,0.1798295,0.7990916,1.6240861,0.81582993,-0.051634815,0.24548,1.2400678,0.76834404,-0.02292361,0.16399968,1.4289771,1.0718459,-0.02113134,0.055010285,0.9588886,1.0834378,-0.20382504,-0.3986599,0.59665024,753.47986,807.8755,827.619,726.8865,531.8681,-0.30718994140625,0.11273193359375,0.9168701171875,0.829925537109375,-3.282318115234375,-0.485992431640625,1.0,2.0,1.0,1.0,2.0,100.0,event
12:32:37.010,0.92572576,0.1798295,0.7990916,1.6240861,0.81582993,-0.051634815,0.24548,1.2400678,0.76834404,-0.02292361,0.16399968,1.4289771,1.0718459,-0.02113134,0.055010285,0.9588886,1.0834378,-0.20382504,-0.3986599,0.59665024,772.4176,805.8608,824.7985,742.1978,648.315,-0.30718994140625,0.11273193359375,0.9168701171875,0.829925537109375,-3.282318115234375,-0.485992431640625,1.0,2.0,1.0,1.0,2.0,100.0,event
12:32:37.011,0.92572576,0.1798295,0.7990916,1.6240861,0.81582993,-0.051634815,0.24548,1.2400678,0.76834404,-0.02292361,0.16399968,1.4289771,1.0718459,-0.02113134,0.055010285,0.9588886,1.0834378,-0.20382504,-0.3986599,0.59665024,774.0293,802.23444,828.4249,754.2857,761.13556,-0.30718994140625,0.11273193359375,0.9168701171875,0.829925537109375,-3.282318115234375,-0.485992431640625,1.0,2.0,1.0,1.0,2.0,100.0,event
12:32:37.011,0.92572576,0.1798295,0.7990916,1.6240861,0.81582993,-0.051634815,0.24548,1.2400678,0.76834404,-0.02292361,0.16399968,1.4289771,1.0718459,-0.02113134,0.055010285,0.9588886,1.0834378,-0.20382504,-0.3986599,0.59665024,765.16486,794.9817,828.4249,740.18317,757.50916,-0.30718994140625,0.11273193359375,0.9168701171875,0.829925537109375,-3.282318115234375,-0.485992431640625,1.0,2.0,1.0,1.0,2.0,100.0,event
12:32:37.012,0.92572576,0.1798295,0.7990916,1.6240861,0.81582993,-0.051634815,0.24548,1.2400678,0.76834404,-0.02292361,0.16399968,1.4289771,1.0718459,-0.02113134,0.055010285,0.9588886,1.0834378,-0.20382504,-0.3986599,0.59665024,776.8498,793.7729,824.3956,732.52747,707.9487,-0.30718994140625,0.11273193359375,0.9168701171875,0.829925537109375,-3.282318115234375,-0.485992431640625,1.0,2.0,1.0,1.0,2.0,100.0,event
12:32:37.013,0.92572576,0.1798295,0.7990916,1.6240861,0.81582993,-0.051634815,0.24548,1.2400678,0.76834404,-0.02292361,0.16399968,1.4289771,1.0718459,-0.02113134,0.055010285,0.9588886,1.0834378,-0.20382504,-0.3986599,0.59665024,764.35895,799.011,822.7839,742.1978,691.8315,-0.30718994140625,0.11273193359375,0.9168701171875,0.829925537109375,-3.282318115234375,-0.485992431640625,1.0,2.0,1.0,1.0,2.0,100.0,event
12:32:37.013,0.92572576,0.1798295,0.7990916,1.6240861,0.81582993,-0.051634815,0.24548,1.2400678,0.76834404,-0.02292361,0.16399968,1.4289771,1.0718459,-0.02113134,0.055010285,0.9588886,1.0834378,-0.20382504,-0.3986599,0.59665024,744.61536,802.6374,825.2015,769.19415,871.53845,-0.30718994140625,0.11273193359375,0.9168701171875,0.829925537109375,-3.282318115234375,-0.485992431640625,1.0,2.0,1.0,1.0,2.0,100.0,event
12:32:37.014,0.92572576,0.1798295,0.7990916,1.6240861,0.81582993,-0.051634815,0.24548,1.2400678,0.76834404,-0.02292361,0.16399968,1.4289771,1.0718459,-0.02113134,0.055010285,0.9588886,1.0834378,-0.20382504,-0.3986599,0.59665024,767.5824,807.8755,820.7692,754.68866,605.6044,-0.30718994140625,0.11273193359375,0.9168701171875,0.829925537109375,-3.282318115234375,-0.485992431640625,1.0,2.0,1.0,1.0,2.0,100.0,event
12:32:37.014,0.92572576,0.1798295,0.7990916,1.6240861,0.81582993,-0.051634815,0.24548,1.2400678,0.76834404,-0.02292361,0.16399968,1.4289771,1.0718459,-0.02113134,0.055010285,0.9588886,1.0834378,-0.20382504,-0.3986599,0.59665024,764.7619,807.0696,819.15753,776.4469,700.696,-0.30718994140625,0.11273193359375,0.9168701171875,0.829925537109375,-3.282318115234375,-0.485992431640625,1.0,2.0,1.0,1.0,2.0,100.0,event
12:32:37.015,0.92572576,0.1798295,0.7990916,1.6240861,0.81582993,-0.051634815,0.24548,1.2400678,0.76834404,-0.02292361,0.16399968,1.4289771,1.0718459,-0.02113134,0.055010285,0.9588886,1.0834378,-0.20382504,-0.3986599,0.59665024,766.77655,804.65204,826.4103,746.2271,747.8388,-0.30718994140625,0.11273193359375,0.9168701171875,0.829925537109375,-3.282318115234375,-0.485992431640625,1.0,2.0,1.0,1.0,2.0,100.0,event
12:32:37.081,0.92572576,0.1798295,0.7990916,1.6240861,0.81582993,-0.051634815,0.24548,1.2400678,0.76834404,-0.02292361,0.16399968,1.4289771,1.0718459,-0.02113134,0.055010285,0.9588886,1.0834378,-0.20382504,-0.3986599,0.59665024,788.93774,798.20514,824.7985,754.68866,750.65936,-0.29412841796875,0.1156005859375,0.93438720703125,1.906585693359375,-2.97576904296875,-3.66363525390625,1.0,2.0,1.0,1.0,2.0,100.0,event
12:32:37.082,0.92572576,0.1798295,0.7990916,1.6240861,0.81582993,-0.051634815,0.24548,1.2400678,0.76834404,-0.02292361,0.16399968,1.4289771,1.0718459,-0.02113134,0.055010285,0.9588886,1.0834378,-0.20382504,-0.3986599,0.59665024,792.96704,799.81683,825.6044,742.6007,686.5934,-0.29412841796875,0.1156005859375,0.93438720703125,1.906585693359375,-2.97576904296875,-3.66363525390625,1.0,2.0,1.0,1.0,2.0,100.0,event
12:32:37.083,0.92572576,0.1798295,0.7990916,1.6240861,0.81582993,-0.051634815,0.24548,1.2400678,0.76834404,-0.02292361,0.16399968,1.4289771,1.0718459,-0.02113134,0.055010285,0.9588886,1.0834378,-0.20382504,-0.3986599,0.59665024,792.96704,802.23444,821.5751,760.7326,722.8571,-0.29412841796875,0.1156005859375,0.93438720703125,1.906585693359375,-2.97576904296875,-3.66363525390625,1.0,2.0,1.0,1.0,2.0,100.0,event
12:32:37.084,0.92572576,0.1798295,0.7990916,1.6240861,0.81582993,-0.051634815,0.24548,1.2400678,0.76834404,-0.02292361,0.16399968,1.4289771,1.0718459,-0.02113134,0.055010285,0.9588886,1.0834378,-0.20382504,-0.3986599,0.59665024,779.67035,804.2491,820.3663,753.0769,800.6227,-0.29412841796875,0.1156005859375,0.93438720703125,1.906585693359375,-2.97576904296875,-3.66363525390625,1.0,2.0,1.0,1.0,2.0,100.0,event
12:32:37.084,0.92572576,0.1798295,0.7990916,1.6240861,0.81582993,-0.051634815,0.24548,1.2400678,0.76834404,-0.02292361,0.16399968,1.4289771,1.0718459,-0.02113134,0.055010285,0.9588886,1.0834378,-0.20382504,-0.3986599,0.59665024,771.2088,806.26373,823.5897,721.6484,765.56775,-0.29412841796875,0.1156005859375,0.93438720703125,1.906585693359375,-2.97576904296875,-3.66363525390625,1.0,2.0,1.0,1.0,2.0,100.0,event
12:32:37.085,0.92572576,0.1798295,0.7990916,1.6240861,0.81582993,-0.051634815,0.24548,1.2400678,0.76834404,-0.02292361,0.16399968,1.4289771,1.0718459,-0.02113134,0.055010285,0.9588886,1.0834378,-0.20382504,-0.3986599,0.59665024,782.8938,800.6227,823.9927,728.9011,769.19415,-0.29412841796875,0.1156005859375,0.93438720703125,1.906585693359375,-2.97576904296875,-3.66363525390625,1.0,2.0,1.0,1.0,2.0,100.0,event
12:32:37.085,0.92572576,0.1798295,0.7990916,1.6240861,0.81582993,-0.051634815,0.24548,1.2400678,0.76834404,-0.02292361,0.16399968,1.4289771,1.0718459,-0.02113134,0.055010285,0.9588886,1.0834378,-0.20382504,-0.3986599,0.59665024,787.326,799.81683,828.4249,757.9121,850.989,-0.29412841796875,0.1156005859375,0.93438720703125,1.906585693359375,-2.97576904296875,-3.66363525390625,1.0,2.0,1.0,1.0,2.0,100.0,event
12:32:37.086,0.92572576,0.1798295,0.7990916,1.6240861,0.81582993,-0.051634815,0.24548,1.2400678,0.76834404,-0.02292361,0.16399968,1.4289771,1.0718459,-0.02113134,0.055010285,0.9588886,1.0834378,-0.20382504,-0.3986599,0.59665024,790.54944,801.4286,825.2015,768.3883,1108.0586,-0.29412841796875,0.1156005859375,0.93438720703125,1.906585693359375,-2.97576904296875,-3.66363525390625,1.0,2.0,1.0,1.0,2.0,100.0,event
12:32:37.086,0.92572576,0.1798295,0.7990916,1.6240861,0.81582993,-0.051634815,0.24548,1.2400678,0.76834404,-0.02292361,0.16399968,1.4289771,1.0718459,-0.02113134,0.055010285,0.9588886,1.0834378,-0.20382504,-0.3986599,0.59665024,782.49084,807.0696,814.3223,734.94507,1250.6959,-0.29412841796875,0.1156005859375,0.93438720703125,1.906585693359375,-2.97576904296875,-3.66363525390625,1.0,2.0,1.0,1.0,2.0,100.0,event
12:32:37.087,0.92572576,0.1798295,0.7990916,1.6240861,0.81582993,-0.051634815,0.24548,1.2400678,0.76834404,-0.02292361,0.16399968,1.4289771,1.0718459,-0.02113134,0.055010285,0.9588886,1.0834378,-0.20382504,-0.3986599,0.59665024,775.64105,811.9048,812.71063,704.7253,915.4579,-0.29412841796875,0.1156005859375,0.93438720703125,1.906585693359375,-2.97576904296875,-3.66363525390625,1.0,2.0,1.0,1.0,2.0,100.0,event
12:32:37.087,0.92572576,0.1798295,0.7990916,1.6240861,0.81582993,-0.051634815,0.24548,1.2400678,0.76834404,-0.02292361,0.16399968,1.4289771,1.0718459,-0.02113134,0.055010285,0.9588886,1.0834378,-0.20382504,-0.3986599,0.59665024,778.86444,811.9048,815.12823,705.12823,803.0403,-0.29412841796875,0.1156005859375,0.93438720703125,1.906585693359375,-2.97576904296875,-3.66363525390625,1.0,2.0,1.0,1.0,2.0,100.0,event
12:32:37.088,0.92572576,0.18954004,0.77611226,1.6240861,0.81582993,-0.025404725,0.2262725,1.2400678,0.76834404,-0.016358407,0.16274437,1.4289771,1.0718459,-0.024989098,0.038235705,0.9588886,1.0834378,-0.18817781,-0.40029588,0.59665024,780.4762,813.1135,815.9341,726.08057,894.5055,-0.29412841796875,0.1156005859375,0.93438720703125,1.906585693359375,-2.97576904296875,-3.66363525390625,1.0,2.0,1.0,1.0,2.0,100.0,event
12:32:37.120,0.92572576,0.18954004,0.77611226,1.6240861,0.81582993,-0.025404725,0.2262725,1.2400678,0.76834404,-0.016358407,0.16274437,1.4289771,1.0718459,-0.024989098,0.038235705,0.9588886,1.0834378,-0.18817781,-0.40029588,0.59665024,774.83514,811.9048,819.15753,736.55676,838.0952,-0.28289794921875,0.12744140625,0.9525146484375,1.816864013671875,-3.581390380859375,-2.609405517578125,1.0,2.0,1.0,1.0,2.0,100.0,event
12:32:37.121,0.92572576,0.18954004,0.77611226,1.6240861,0.81582993,-0.025404725,0.2262725,1.2400678,0.76834404,-0.016358407,0.16274437,1.4289771,1.0718459,-0.024989098,0.038235705,0.9588886,1.0834378,-0.18817781,-0.40029588,0.59665024,787.72894,809.4872,817.1429,751.06226,849.3773,-0.28289794921875,0.12744140625,0.9525146484375,1.816864013671875,-3.581390380859375,-2.609405517578125,1.0,2.0,1.0,1.0,2.0,100.0,event
12:32:37.121,0.92572576,0.18954004,0.77611226,1.6240861,0.81582993,-0.025404725,0.2262725,1.2400678,0.76834404,-0.016358407,0.16274437,1.4289771,1.0718459,-0.024989098,0.038235705,0.9588886,1.0834378,-0.18817781,-0.40029588,0.59665024,791.3553,809.4872,819.9634,752.27106,805.05493,-0.28289794921875,0.12744140625,0.9525146484375,1.816864013671875,-3.581390380859375,-2.609405517578125,1.0,2.0,1.0,1.0,2.0,100.0,event
12:32:37.121,0.92572576,0.18954004,0.77611226,1.6240861,0.81582993,-0.025404725,0.2262725,1.2400678,0.76834404,-0.016358407,0.16274437,1.4289771,1.0718459,-0.024989098,0.038235705,0.9588886,1.0834378,-0.18817781,-0.40029588,0.59665024,783.69965,812.71063,820.7692,747.4359,791.3553,-0.28289794921875,0.12744140625,0.9525146484375,1.816864013671875,-3.581390380859375,-2.609405517578125,1.0,2.0,1.0,1.0,2.0,100.0,event
12:32:37.122,0.92572576,0.18954004,0.77611226,1.6240861,0.81582993,-0.025404725,0.2262725,1.2400678,0.76834404,-0.016358407,0.16274437,1.4289771,1.0718459,-0.024989098,0.038235705,0.9588886,1.0834378,-0.18817781,-0.40029588,0.59665024,796.1905,807.8755,816.7399,778.0586,863.8828,-0.28289794921875,0.12744140625,0.9525146484375,1.816864013671875,-3.581390380859375,-2.609405517578125,1.0,2.0,1.0,1.0,2.0,100.0,event
12:32:37.122,0.92572576,0.18954004,0.77611226,1.6240861,0.81582993,-0.025404725,0.2262725,1.2400678,0.76834404,-0.016358407,0.16274437,1.4289771,1.0718459,-0.024989098,0.038235705,0.9588886,1.0834378,-0.18817781,-0.40029588,0.59665024,801.8315,802.23444,812.71063,796.99634,946.08057,-0.28289794921875,0.12744140625,0.9525146484375,1.816864013671875,-3.581390380859375,-2.609405517578125,1.0,2.0,1.0,1.0,2.0,100.0,event
12:32:37.122,0.92572576,0.18954004,0.77611226,1.6240861,0.81582993,-0.025404725,0.2262725,1.2400678,0.76834404,-0.016358407,0.16274437,1.4289771,1.0718459,-0.024989098,0.038235705,0.9588886,1.0834378,-0.18817781,-0.40029588,0.59665024,795.78754,805.4579,811.50183,808.2784,1057.6923,-0.28289794921875,0.12744140625,0.9525146484375,1.816864013671875,-3.581390380859375,-2.609405517578125,1.0,2.0,1.0,1.0,2.0,100.0,event
12:32:37.123,0.92572576,0.18954004,0.77611226,1.6240861,0.81582993,-0.025404725,0.2262725,1.2400678,0.76834404,-0.016358407,0.16274437,1.4289771,1.0718459,-0.024989098,0.038235705,0.9588886,1.0834378,-0.18817781,-0.40029588,0.59665024,791.75824,809.4872,821.978,811.0989,1201.5385,-0.28289794921875,0.12744140625,0.9525146484375,1.816864013671875,-3.581390380859375,-2.609405517578125,1.0,2.0,1.0,1.0,2.0,100.0,event
12:32:37.123,0.92572576,0.18954004,0.77611226,1.6240861,0.81582993,-0.025404725,0.2262725,1.2400678,0.76834404,-0.016358407,0.16274437,1.4289771,1.0718459,-0.024989098,0.038235705,0.9588886,1.0834378,-0.18817781,-0.40029588,0.59665024,797.3993,807.8755,821.978,801.02563,947.6923,-0.28289794921875,0.12744140625,0.9525146484375,1.816864013671875,-3.581390380859375,-2.609405517578125,1.0,2.0,1.0,1.0,2.0,100.0,event
12:32:37.123,0.92572576,0.18954004,0.77611226,1.6240861,0.81582993,-0.025404725,0.2262725,1.2400678,0.76834404,-0.016358407,0.16274437,1.4289771,1.0718459,-0.024989098,0.038235705,0.9588886,1.0834378,-0.18817781,-0.40029588,0.59665024,802.23444,804.2491,821.978,813.1135,803.44324,-0.28289794921875,0.12744140625,0.9525146484375,1.816864013671875,-3.581390380859375,-2.609405517578125,1.0,2.0,1.0,1.0,2.0,100.0,event
12:32:37.124,0.92572576,0.18954004,0.77611226,1.6240861,0.81582993,-0.025404725,0.2262725,1.2400678,0.76834404,-0.016358407,0.16274437,1.4289771,1.0718459,-0.024989098,0.038235705,0.9588886,1.0834378,-0.18817781,-0.40029588,0.59665024,791.3553,801.8315,824.3956,826.4103,875.16486,-0.28289794921875,0.12744140625,0.9525146484375,1.816864013671875,-3.581390380859375,-2.609405517578125,1.0,2.0,1.0,1.0,2.0,100.0,event
12:32:37.124,0.92572576,0.18954004,0.77611226,1.6240861,0.81582993,-0.025404725,0.2262725,1.2400678,0.76834404,-0.016358407,0.16274437,1.4289771,1.0718459,-0.024989098,0.038235705,0.9588886,1.0834378,-0.18817781,-0.40029588,0.59665024,786.52014,807.0696,824.3956,802.6374,846.55676,-0.28289794921875,0.12744140625,0.9525146484375,1.816864013671875,-3.581390380859375,-2.609405517578125,1.0,2.0,1.0,1.0,2.0,100.0,event
12:32:37.185,0.92572576,0.18954004,0.77611226,1.6240861,0.81582993,-0.025404725,0.2262725,1.2400678,0.76834404,-0.016358407,0.16274437,1.4289771,1.0718459,-0.024989098,0.038235705,0.9588886,1.0834378,-0.18817781,-0.40029588,0.59665024,790.14655,807.47253,829.2308,776.04395,783.69965,-0.298095703125,0.10638427734375,0.93206787109375,-0.1495361328125,-2.280426025390625,-0.067291259765625,1.0,2.0,1.0,1.0,2.0,100.0,event
12:32:37.186,0.92572576,0.18954004,0.77611226,1.6240861,0.81582993,-0.025404725,0.2262725,1.2400678,0.76834404,-0.016358407,0.16274437,1.4289771,1.0718459,-0.024989098,0.038235705,0.9588886,1.0834378,-0.18817781,-0.40029588,0.59665024,808.68134,802.6374,821.1722,783.69965,751.4652,-0.298095703125,0.10638427734375,0.93206787109375,-0.1495361328125,-2.280426025390625,-0.067291259765625,1.0,2.0,1.0,1.0,2.0,100.0,event
12:32:37.187,0.92572576,0.18954004,0.77611226,1.6240861,0.81582993,-0.025404725,0.2262725,1.2400678,0.76834404,-0.016358407,0.16274437,1.4289771,1.0718459,-0.024989098,0.038235705,0.9588886,1.0834378,-0.18817781,-0.40029588,0.59665024,806.26373,807.0696,817.9487,809.89014,819.5604,-0.298095703125,0.10638427734375,0.93206787109375,-0.1495361328125,-2.280426025390625,-0.067291259765625,1.0,2.0,1.0,1.0,2.0,100.0,event
12:32:37.187,0.92572576,0.18954004,0.77611226,1.6240861,0.81582993,-0.025404725,0.2262725,1.2400678,0.76834404,-0.016358407,0.16274437,1.4289771,1.0718459,-0.024989098,0.038235705,0.9588886,1.0834378,-0.18817781,-0.40029588,0.59665024,803.44324,813.91943,826.8132,801.8315,799.81683,-0.298095703125,0.10638427734375,0.93206787109375,-0.1495361328125,-2.280426025390625,-0.067291259765625,1.0,2.0,1.0,1.0,2.0,100.0,event
12:32:37.188,0.92572576,0.18954004,0.77611226,1.6240861,0.81582993,-0.025404725,0.2262725,1.2400678,0.76834404,-0.016358407,0.16274437,1.4289771,1.0718459,-0.024989098,0.038235705,0.9588886,1.0834378,-0.18817781,-0.40029588,0.59665024,770.40295,812.71063,820.7692,778.86444,857.03296,-0.298095703125,0.10638427734375,0.93206787109375,-0.1495361328125,-2.280426025390625,-0.067291259765625,1.0,2.0,1.0,1.0,2.0,100.0,event
12:32:37.188,0.92572576,0.18954004,0.77611226,1.6240861,0.81582993,-0.025404725,0.2262725,1.2400678,0.76834404,-0.016358407,0.16274437,1.4289771,1.0718459,-0.024989098,0.038235705,0.9588886,1.0834378,-0.18817781,-0.40029588,0.59665024,800.6227,816.7399,823.5897,786.9231,814.7253,-0.298095703125,0.10638427734375,0.93206787109375,-0.1495361328125,-2.280426025390625,-0.067291259765625,1.0,2.0,1.0,1.0,2.0,100.0,event
12:32:37.189,0.92572576,0.18954004,0.77611226,1.6240861,0.81582993,-0.025404725,0.2262725,1.2400678,0.76834404,-0.016358407,0.16274437,1.4289771,1.0718459,-0.024989098,0.038235705,0.9588886,1.0834378,-0.18817781,-0.40029588,0.59665024,753.47986,806.26373,821.978,753.0769,1072.1978,-0.298095703125,0.10638427734375,0.93206787109375,-0.1495361328125,-2.280426025390625,-0.067291259765625,1.0,2.0,1.0,1.0,2.0,100.0,event
12:32:37.190,0.92572576,0.18954004,0.77611226,1.6240861,0.81582993,-0.025404725,0.2262725,1.2400678,0.76834404,-0.016358407,0.16274437,1.4289771,1.0718459,-0.024989098,0.038235705,0.9588886,1.0834378,-0.18817781,-0.40029588,0.59665024,743.4066,804.2491,825.2015,747.03296,1044.7986,-0.298095703125,0.10638427734375,0.93206787109375,-0.1495361328125,-2.280426025390625,-0.067291259765625,1.0,2.0,1.0,1.0,2.0,100.0,event
12:32:37.190,0.92572576,0.18954004,0.77611226,1.6240861,0.81582993,-0.025404725,0.2262725,1.2400678,0.76834404,-0.016358407,0.16274437,1.4289771,1.0718459,-0.024989098,0.038235705,0.9588886,1.0834378,-0.18817781,-0.40029588,0.59665024,740.58606,806.6667,824.7985,765.56775,721.2454,-0.298095703125,0.10638427734375,0.93206787109375,-0.1495361328125,-2.280426025390625,-0.067291259765625,1.0,2.0,1.0,1.0,2.0,100.0,event
12:32:37.191,0.92572576,0.18954004,0.77611226,1.6240861,0.81582993,-0.025404725,0.2262725,1.2400678,0.76834404,-0.016358407,0.16274437,1.4289771,1.0718459,-0.024989098,0.038235705,0.9588886,1.0834378,-0.18817781,-0.40029588,0.59665024,749.0476,807.8755,826.4103,770.80585,767.1795,-0.298095703125,0.10638427734375,0.93206787109375,-0.1495361328125,-2.280426025390625,-0.067291259765625,1.0,2.0,1.0,1.0,2.0,100.0,event
12:32:37.191,0.92572576,0.18954004,0.77611226,1.6240861,0.81582993,-0.025404725,0.2262725,1.2400678,0.76834404,-0.016358407,0.16274437,1.4289771,1.0718459,-0.024989098,0.038235705,0.9588886,1.0834378,-0.18817781,-0.40029588,0.59665024,758.71796,809.89014,830.0366,772.8205,780.07324,-0.298095703125,0.10638427734375,0.93206787109375,-0.1495361328125,-2.280426025390625,-0.067291259765625,1.0,2.0,1.0,1.0,2.0,100.0,event
12:32:37.192,0.92572576,0.18954004,0.77611226,1.6240861,0.81582993,-0.025404725,0.2262725,1.2400678,0.76834404,-0.016358407,0.16274437,1.4289771,1.0718459,-0.024989098,0.038235705,0.9588886,1.0834378,-0.18817781,-0.40029588,0.59665024,750.65936,812.71063,824.3956,766.3736,654.7619,-0.298095703125,0.10638427734375,0.93206787109375,-0.1495361328125,-2.280426025390625,-0.067291259765625,1.0,2.0,1.0,1.0,2.0,100.0,event
12:32:37.219,0.92572576,0.18954004,0.77611226,1.6240861,0.81582993,-0.025404725,0.2262725,1.2400678,0.76834404,-0.016358407,0.16274437,1.4289771,1.0718459,-0.024989098,0.038235705,0.9588886,1.0834378,-0.18817781,-0.40029588,0.59665024,768.3883,812.3077,813.91943,757.50916,697.47253,-0.3056640625,0.10015869140625,0.91766357421875,1.734619140625,-2.160797119140625,-1.054229736328125,1.0,2.0,1.0,1.0,2.0,100.0,event
12:32:37.220,0.92572576,0.19444324,0.76616144,1.6240861,0.81582993,-0.0008130113,0.20118535,1.2400678,0.76834404,0.06354405,0.15855353,1.4289771,1.0718459,-0.025478926,0.024831034,0.9588886,1.0834378,-0.17595042,-0.399063,0.59665024,767.1795,808.2784,821.1722,759.12085,794.9817,-0.3056640625,0.10015869140625,0.91766357421875,1.734619140625,-2.160797119140625,-1.054229736328125,1.0,2.0,1.0,1.0,2.0,100.0,event
12:32:37.225,0.92572576,0.19444324,0.76616144,1.6240861,0.81582993,-0.0008130113,0.20118535,1.2400678,0.76834404,0.06354405,0.15855353,1.4289771,1.0718459,-0.025478926,0.024831034,0.9588886,1.0834378,-0.17595042,-0.399063,0.59665024,738.97437,802.6374,830.0366,765.9707,811.9048,-0.3056640625,0.10015869140625,0.91766357421875,1.734619140625,-2.160797119140625,-1.054229736328125,1.0,2.0,1.0,1.0,2.0,100.0,event
12:32:37.226,0.92572576,0.19444324,0.76616144,1.6240861,0.81582993,-0.0008130113,0.20118535,1.2400678,0.76834404,0.06354405,0.15855353,1.4289771,1.0718459,-0.025478926,0.024831034,0.9588886,1.0834378,-0.17595042,-0.399063,0.59665024,733.73627,800.2198,829.2308,741.79486,648.315,-0.3056640625,0.10015869140625,0.91766357421875,1.734619140625,-2.160797119140625,-1.054229736328125,1.0,2.0,1.0,1.0,2.0,100.0,event
12:32:37.226,0.92572576,0.19444324,0.76616144,1.6240861,0.81582993,-0.0008130113,0.20118535,1.2400678,0.76834404,0.06354405,0.15855353,1.4289771,1.0718459,-0.025478926,0.024831034,0.9588886,1.0834378,-0.17595042,-0.399063,0.59665024,736.9597,801.4286,828.022,716.8132,569.7436,-0.3056640625,0.10015869140625,0.91766357421875,1.734619140625,-2.160797119140625,-1.054229736328125,1.0,2.0,1.0,1.0,2.0,100.0,event
12:32:37.227,0.92572576,0.19444324,0.76616144,1.6240861,0.81582993,-0.0008130113,0.20118535,1.2400678,0.76834404,0.06354405,0.15855353,1.4289771,1.0718459,-0.025478926,0.024831034,0.9588886,1.0834378,-0.17595042,-0.399063,0.59665024,753.47986,800.2198,823.9927,738.97437,704.7253,-0.3056640625,0.10015869140625,0.91766357421875,1.734619140625,-2.160797119140625,-1.054229736328125,1.0,2.0,1.0,1.0,2.0,100.0,event
12:32:37.228,0.92572576,0.19444324,0.76616144,1.6240861,0.81582993,-0.0008130113,0.20118535,1.2400678,0.76834404,0.06354405,0.15855353,1.4289771,1.0718459,-0.025478926,0.024831034,0.9588886,1.0834378,-0.17595042,-0.399063,0.59665024,767.98535,799.41394,817.5458,766.3736,842.1245,-0.3056640625,0.10015869140625,0.91766357421875,1.734619140625,-2.160797119140625,-1.054229736328125,1.0,2.0,1.0,1.0,2.0,100.0,event
12:32:37.229,0.92572576,0.19444324,0.76616144,1.6240861,0.81582993,-0.0008130113,0.20118535,1.2400678,0.76834404,0.06354405,0.15855353,1.4289771,1.0718459,-0.025478926,0.024831034,0.9588886,1.0834378,-0.17595042,-0.399063,0.59665024,807.0696,814.7253,825.2015,779.2674,521.39197,-0.3056640625,0.10015869140625,0.91766357421875,1.734619140625,-2.160797119140625,-1.054229736328125,1.0,2.0,1.0,1.0,2.0,100.0,event
12:32:37.229,0.92572576,0.19444324,0.76616144,1.6240861,0.81582993,-0.0008130113,0.20118535,1.2400678,0.76834404,0.06354405,0.15855353,1.4289771,1.0718459,-0.025478926,0.024831034,0.9588886,1.0834378,-0.17595042,-0.399063,0.59665024,781.685,809.89014,819.5604,770.0,660.0,-0.3056640625,0.10015869140625,0.91766357421875,1.734619140625,-2.160797119140625,-1.054229736328125,1.0,2.0,1.0,1.0,2.0,100.0,event
12:32:37.230,0.92572576,0.19444324,0.76616144,1.6240861,0.81582993,-0.0008130113,0.20118535,1.2400678,0.76834404,0.06354405,0.15855353,1.4289771,1.0718459,-0.025478926,0.024831034,0.9588886,1.0834378,-0.17595042,-0.399063,0.59665024,786.1172,811.0989,823.1868,758.71796,667.6557,-0.3056640625,0.10015869140625,0.91766357421875,1.734619140625,-2.160797119140625,-1.054229736328125,1.0,2.0,1.0,1.0,2.0,100.0,event
12:32:37.230,0.92572576,0.19444324,0.76616144,1.6240861,0.81582993,-0.0008130113,0.20118535,1.2400678,0.76834404,0.06354405,0.15855353,1.4289771,1.0718459,-0.025478926,0.024831034,0.9588886,1.0834378,-0.17595042,-0.399063,0.59665024,756.7033,809.4872,817.9487,749.0476,719.6337,-0.3056640625,0.10015869140625,0.91766357421875,1.734619140625,-2.160797119140625,-1.054229736328125,1.0,2.0,1.0,1.0,2.0,100.0,event
12:32:37.231,0.92572576,0.19444324,0.76616144,1.6240861,0.81582993,-0.0008130113,0.20118535,1.2400678,0.76834404,0.06354405,0.15855353,1.4289771,1.0718459,-0.025478926,0.024831034,0.9588886,1.0834378,-0.17595042,-0.399063,0.59665024,762.74725,805.8608,820.7692,760.7326,565.31134,-0.3056640625,0.10015869140625,0.91766357421875,1.734619140625,-2.160797119140625,-1.054229736328125,1.0,2.0,1.0,1.0,2.0,100.0,event
12:32:37.256,0.92572576,0.19444324,0.76616144,1.6240861,0.81582993,-0.0008130113,0.20118535,1.2400678,0.76834404,0.06354405,0.15855353,1.4289771,1.0718459,-0.025478926,0.024831034,0.9588886,1.0834378,-0.17595042,-0.399063,0.59665024,786.9231,807.0696,823.1868,770.0,551.2088,-0.3056640625,0.10015869140625,0.91766357421875,1.734619140625,-2.160797119140625,-1.054229736328125,1.0,2.0,1.0,1.0,2.0,100.0,event
12:32:37.257,0.92572576,0.19444324,0.76616144,1.6240861,0.81582993,-0.0008130113,0.20118535,1.2400678,0.76834404,0.06354405,0.15855353,1.4289771,1.0718459,-0.025478926,0.024831034,0.9588886,1.0834378,-0.17595042,-0.399063,0.59665024,801.4286,813.5165,822.381,777.25275,657.1795,-0.3056640625,0.10015869140625,0.91766357421875,1.734619140625,-2.160797119140625,-1.054229736328125,1.0,2.0,1.0,1.0,2.0,100.0,event
12:32:37.258,0.92572576,0.19444324,0.76616144,1.6240861,0.81582993,-0.0008130113,0.20118535,1.2400678,0.76834404,0.06354405,0.15855353,1.4289771,1.0718459,-0.025478926,0.024831034,0.9588886,1.0834378,-0.17595042,-0.399063,0.59665024,795.78754,814.3223,817.1429,761.53845,649.12085,-0.3056640625,0.10015869140625,0.91766357421875,1.734619140625,-2.160797119140625,-1.054229736328125,1.0,2.0,1.0,1.0,2.0,100.0,event
12:32:37.258,0.92572576,0.19444324,0.76616144,1.6240861,0.81582993,-0.0008130113,0.20118535,1.2400678,0.76834404,0.06354405,0.15855353,1.4289771,1.0718459,-0.025478926,0.024831034,0.9588886,1.0834378,-0.17595042,-0.399063,0.59665024,788.93774,811.0989,821.5751,735.7509,594.3223,-0.3056640625,0.10015869140625,0.91766357421875,1.734619140625,-2.160797119140625,-1.054229736328125,1.0,2.0,1.0,1.0,2.0,100.0,event
12:32:37.259,0.92572576,0.19444324,0.76616144,1.6240861,0.81582993,-0.0008130113,0.20118535,1.2400678,0.76834404,0.06354405,0.15855353,1.4289771,1.0718459,-0.025478926,0.024831034,0.9588886,1.0834378,-0.17595042,-0.399063,0.59665024,776.4469,802.23444,835.2747,721.2454,573.36993,-0.3056640625,0.10015869140625,0.91766357421875,1.734619140625,-2.160797119140625,-1.054229736328125,1.0,2.0,1.0,1.0,2.0,100.0,event
12:32:37.259,0.92572576,0.19444324,0.76616144,1.6240861,0.81582993,-0.0008130113,0.20118535,1.2400678,0.76834404,0.06354405,0.15855353,1.4289771,1.0718459,-0.025478926,0.024831034,0.9588886,1.0834378,-0.17595042,-0.399063,0.59665024,767.1795,796.99634,834.87177,734.1392,841.31866,-0.3056640625,0.10015869140625,0.91766357421875,1.734619140625,-2.160797119140625,-1.054229736328125,1.0,2.0,1.0,1.0,2.0,100.0,event
12:32:37.260,0.92572576,0.19444324,0.76616144,1.6240861,0.81582993,-0.0008130113,0.20118535,1.2400678,0.76834404,0.06354405,0.15855353,1.4289771,1.0718459,-0.025478926,0.024831034,0.9588886,1.0834378,-0.17595042,-0.399063,0.59665024,771.6117,799.81683,828.022,742.6007,983.5531,-0.3056640625,0.10015869140625,0.91766357421875,1.734619140625,-2.160797119140625,-1.054229736328125,1.0,2.0,1.0,1.0,2.0,100.0,event
12:32:37.261,0.92572576,0.19444324,0.76616144,1.6240861,0.81582993,-0.0008130113,0.20118535,1.2400678,0.76834404,0.06354405,0.15855353,1.4289771,1.0718459,-0.025478926,0.024831034,0.9588886,1.0834378,-0.17595042,-0.399063,0.59665024,778.46155,806.6667,828.022,743.4066,672.49084,-0.3056640625,0.10015869140625,0.91766357421875,1.734619140625,-2.160797119140625,-1.054229736328125,1.0,2.0,1.0,1.0,2.0,100.0,event
12:32:37.261,0.92572576,0.19444324,0.76616144,1.6240861,0.81582993,-0.0008130113,0.20118535,1.2400678,0.76834404,0.06354405,0.15855353,1.4289771,1.0718459,-0.025478926,0.024831034,0.9588886,1.0834378,-0.17595042,-0.399063,0.59665024,767.5824,807.47253,827.2161,725.6777,627.76556,-0.3056640625,0.10015869140625,0.91766357421875,1.734619140625,-2.160797119140625,-1.054229736328125,1.0,2.0,1.0,1.0,2.0,100.0,event
12:32:37.262,0.92572576,0.19444324,0.76616144,1.6240861,0.81582993,-0.0008130113,0.20118535,1.2400678,0.76834404,0.06354405,0.15855353,1.4289771,1.0718459,-0.025478926,0.024831034,0.9588886,1.0834378,-0.17595042,-0.399063,0.59665024,773.22345,801.02563,822.381,772.4176,807.0696,-0.3056640625,0.10015869140625,0.91766357421875,1.734619140625,-2.160797119140625,-1.054229736328125,1.0,2.0,1.0,1.0,2.0,100.0,event
12:32:37.262,0.92572576,0.19444324,0.76616144,1.6240861,0.81582993,-0.0008130113,0.20118535,1.2400678,0.76834404,0.06354405,0.15855353,1.4289771,1.0718459,-0.025478926,0.024831034,0.9588886,1.0834378,-0.17595042,-0.399063,0.59665024,763.1502,803.0403,823.1868,733.73627,853.4066,-0.3056640625,0.10015869140625,0.91766357421875,1.734619140625,-2.160797119140625,-1.054229736328125,1.0,2.0,1.0,1.0,2.0,100.0,event
12:32:37.263,0.92572576,0.19444324,0.76616144,1.6240861,0.81582993,-0.0008130113,0.20118535,1.2400678,0.76834404,0.06354405,0.15855353,1.4289771,1.0718459,-0.025478926,0.024831034,0.9588886,1.0834378,-0.17595042,-0.399063,0.59665024,786.52014,799.81683,821.5751,744.61536,625.34796,-0.3056640625,0.10015869140625,0.91766357421875,1.734619140625,-2.160797119140625,-1.054229736328125,1.0,2.0,1.0,1.0,2.0,100.0,event
12:32:37.285,0.92572576,0.19444324,0.76616144,1.6240861,0.81582993,-0.0008130113,0.20118535,1.2400678,0.76834404,0.06354405,0.15855353,1.4289771,1.0718459,-0.025478926,0.024831034,0.9588886,1.0834378,-0.17595042,-0.399063,0.59665024,770.0,805.8608,818.3516,732.52747,676.9231,-0.2896728515625,0.1090087890625,0.92413330078125,4.373931884765625,-2.609405517578125,0.485992431640625,1.0,2.0,1.0,1.0,2.0,100.0,event
12:32:37.286,0.92572576,0.19444324,0.76616144,1.6240861,0.81582993,-0.0008130113,0.20118535,1.2400678,0.76834404,0.06354405,0.15855353,1.4289771,1.0718459,-0.025478926,0.024831034,0.9588886,1.0834378,-0.17595042,-0.399063,0.59665024,776.04395,813.91943,818.7546,769.59705,755.89746,-0.2896728515625,0.1090087890625,0.92413330078125,4.373931884765625,-2.609405517578125,0.485992431640625,1.0,2.0,1.0,1.0,2.0,100.0,event
12:32:37.286,0.92572576,0.19444324,0.76616144,1.6240861,0.81582993,-0.0008130113,0.20118535,1.2400678,0.76834404,0.06354405,0.15855353,1.4289771,1.0718459,-0.025478926,0.024831034,0.9588886,1.0834378,-0.17595042,-0.399063,0.59665024,806.6667,813.5165,811.9048,762.3443,657.1795,-0.2896728515625,0.1090087890625,0.92413330078125,4.373931884765625,-2.609405517578125,0.485992431640625,1.0,2.0,1.0,1.0,2.0,100.0,event
12:32:37.287,0.8413623,0.19045684,0.76331294,1.6240861,0.9769278,0.021022663,0.17082827,1.2400678,0.7156719,0.13625686,0.15855353,1.4289771,1.1185948,-0.022711609,0.016908193,0.9588886,0.89872867,-0.1636447,-0.3916884,0.59665024,803.44324,815.12823,811.0989,752.674,696.6667,-0.2896728515625,0.1090087890625,0.92413330078125,4.373931884765625,-2.609405517578125,0.485992431640625,1.0,2.0,1.0,1.0,2.0,100.0,event
12:32:37.291,0.8413623,0.19045684,0.76331294,1.6240861,0.9769278,0.021022663,0.17082827,1.2400678,0.7156719,0.13625686,0.15855353,1.4289771,1.1185948,-0.022711609,0.016908193,0.9588886,0.89872867,-0.1636447,-0.3916884,0.59665024,771.2088,814.7253,819.15753,761.9414,794.17584,-0.2896728515625,0.1090087890625,0.92413330078125,4.373931884765625,-2.609405517578125,0.485992431640625,1.0,2.0,1.0,1.0,2.0,100.0,event
12:32:37.292,0.8413623,0.19045684,0.76331294,1.6240861,0.9769278,0.021022663,0.17082827,1.2400678,0.7156719,0.13625686,0.15855353,1.4289771,1.1185948,-0.022711609,0.016908193,0.9588886,0.89872867,-0.1636447,-0.3916884,0.59665024,767.1795,808.2784,819.15753,757.1062,908.20514,-0.2896728515625,0.1090087890625,0.92413330078125,4.373931884765625,-2.609405517578125,0.485992431640625,1.0,2.0,1.0,1.0,2.0,100.0,event
12:32:37.292,0.8413623,0.19045684,0.76331294,1.6240861,0.9769278,0.021022663,0.17082827,1.2400678,0.7156719,0.13625686,0.15855353,1.4289771,1.1185948,-0.022711609,0.016908193,0.9588886,0.89872867,-0.1636447,-0.3916884,0.59665024,785.7143,807.8755,817.5458,754.2857,954.94507,-0.2896728515625,0.1090087890625,0.92413330078125,4.373931884765625,-2.609405517578125,0.485992431640625,1.0,2.0,1.0,1.0,2.0,100.0,event
12:32:37.293,0.8413623,0.19045684,0.76331294,1.6240861,0.9769278,0.021022663,0.17082827,1.2400678,0.7156719,0.13625686,0.15855353,1.4289771,1.1185948,-0.022711609,0.016908193,0.9588886,0.89872867,-0.1636447,-0.3916884,0.59665024,778.0586,803.0403,815.5311,755.89746,904.17584,-0.2896728515625,0.1090087890625,0.92413330078125,4.373931884765625,-2.609405517578125,0.485992431640625,1.0,2.0,1.0,1.0,2.0,100.0,event
12:32:37.293,0.8413623,0.19045684,0.76331294,1.6240861,0.9769278,0.021022663,0.17082827,1.2400678,0.7156719,0.13625686,0.15855353,1.4289771,1.1185948,-0.022711609,0.016908193,0.9588886,0.89872867,-0.1636447,-0.3916884,0.59665024,765.16486,796.5934,815.12823,765.56775,1019.41394,-0.2896728515625,0.1090087890625,0.92413330078125,4.373931884765625,-2.609405517578125,0.485992431640625,1.0,2.0,1.0,1.0,2.0,100.0,event
12:32:37.294,0.8413623,0.19045684,0.76331294,1.6240861,0.9769278,0.021022663,0.17082827,1.2400678,0.7156719,0.13625686,0.15855353,1.4289771,1.1185948,-0.022711609,0.016908193,0.9588886,0.89872867,-0.1636447,-0.3916884,0.59665024,785.31134,803.8461,815.9341,787.72894,1140.2931,-0.2896728515625,0.1090087890625,0.92413330078125,4.373931884765625,-2.609405517578125,0.485992431640625,1.0,2.0,1.0,1.0,2.0,100.0,event
12:32:37.294,0.8413623,0.19045684,0.76331294,1.6240861,0.9769278,0.021022663,0.17082827,1.2400678,0.7156719,0.13625686,0.15855353,1.4289771,1.1185948,-0.022711609,0.016908193,0.9588886,0.89872867,-0.1636447,-0.3916884,0.59665024,781.28204,799.81683,815.5311,787.326,1243.4432,-0.2896728515625,0.1090087890625,0.92413330078125,4.373931884765625,-2.609405517578125,0.485992431640625,1.0,2.0,1.0,1.0,2.0,100.0,event
12:32:37.295,0.8413623,0.19045684,0.76331294,1.6240861,0.9769278,0.021022663,0.17082827,1.2400678,0.7156719,0.13625686,0.15855353,1.4289771,1.1185948,-0.022711609,0.016908193,0.9588886,0.89872867,-0.1636447,-0.3916884,0.59665024,767.98535,800.2198,816.337,773.22345,910.2198,-0.2896728515625,0.1090087890625,0.92413330078125,4.373931884765625,-2.609405517578125,0.485992431640625,1.0,2.0,1.0,1.0,2.0,100.0,event
12:32:37.317,0.8413623,0.19045684,0.76331294,1.6240861,0.9769278,0.021022663,0.17082827,1.2400678,0.7156719,0.13625686,0.15855353,1.4289771,1.1185948,-0.022711609,0.016908193,0.9588886,0.89872867,-0.1636447,-0.3916884,0.59665024,777.25275,796.99634,815.5311,779.2674,872.3443,-0.3011474609375,0.12628173828125,0.95404052734375,4.029998779296875,-3.147735595703125,3.289794921875,1.0,2.0,1.0,1.0,2.0,100.0,event
12:32:37.318,0.8413623,0.19045684,0.76331294,1.6240861,0.9769278,0.021022663,0.17082827,1.2400678,0.7156719,0.13625686,0.15855353,1.4289771,1.1185948,-0.022711609,0.016908193,0.9588886,0.89872867,-0.1636447,-0.3916884,0.59665024,777.25275,799.81683,814.7253,802.6374,880.40295,-0.3011474609375,0.12628173828125,0.95404052734375,4.029998779296875,-3.147735595703125,3.289794921875,1.0,2.0,1.0,1.0,2.0,100.0,event
12:32:37.319,0.8413623,0.19045684,0.76331294,1.6240861,0.9769278,0.021022663,0.17082827,1.2400678,0.7156719,0.13625686,0.15855353,1.4289771,1.1185948,-0.022711609,0.016908193,0.9588886,0.89872867,-0.1636447,-0.3916884,0.59665024,775.64105,801.4286,815.12823,804.2491,831.2454,-0.3011474609375,0.12628173828125,0.95404052734375,4.029998779296875,-3.147735595703125,3.289794921875,1.0,2.0,1.0,1.0,2.0,100.0,event
12:32:37.319,0.8413623,0.19045684,0.76331294,1.6240861,0.9769278,0.021022663,0.17082827,1.2400678,0.7156719,0.13625686,0.15855353,1.4289771,1.1185948,-0.022711609,0.016908193,0.9588886,0.89872867,-0.1636447,-0.3916884,0.59665024,799.41394,805.8608,815.5311,803.44324,820.7692,-0.3011474609375,0.12628173828125,0.95404052734375,4.029998779296875,-3.147735595703125,3.289794921875,1.0,2.0,1.0,1.0,2.0,100.0,event
12:32:37.320,0.8413623,0.19045684,0.76331294,1.6240861,0.9769278,0.021022663,0.17082827,1.2400678,0.7156719,0.13625686,0.15855353,1.4289771,1.1185948,-0.022711609,0.016908193,0.9588886,0.89872867,-0.1636447,-0.3916884,0.59665024,801.02563,803.44324,811.9048,782.49084,919.0842,-0.3011474609375,0.12628173828125,0.95404052734375,4.029998779296875,-3.147735595703125,3.289794921875,1.0,2.0,1.0,1.0,2.0,100.0,event
12:32:37.320,0.8413623,0.19045684,0.76331294,1.6240861,0.9769278,0.021022663,0.17082827,1.2400678,0.7156719,0.13625686,0.15855353,1.4289771,1.1185948,-0.022711609,0.016908193,0.9588886,0.89872867,-0.1636447,-0.3916884,0.59665024,790.54944,802.6374,806.26373,768.3883,977.1062,-0.3011474609375,0.12628173828125,0.95404052734375,4.029998779296875,-3.147735595703125,3.289794921875,1.0,2.0,1.0,1.0,2.0,100.0,event
12:32:37.321,0.8413623,0.19045684,0.76331294,1.6240861,0.9769278,0.021022663,0.17082827,1.2400678,0.7156719,0.13625686,0.15855353,1.4289771,1.1185948,-0.022711609,0.016908193,0.9588886,0.89872867,-0.1636447,-0.3916884,0.59665024,805.05493,805.8608,806.6667,777.25275,965.42126,-0.3011474609375,0.12628173828125,0.95404052734375,4.029998779296875,-3.147735595703125,3.289794921875,1.0,2.0,1.0,1.0,2.0,100.0,event
12:32:37.321,0.8413623,0.19045684,0.76331294,1.6240861,0.9769278,0.021022663,0.17082827,1.2400678,0.7156719,0.13625686,0.15855353,1.4289771,1.1185948,-0.022711609,0.016908193,0.9588886,0.89872867,-0.1636447,-0.3916884,0.59665024,812.71063,807.47253,807.47253,776.04395,931.1722,-0.3011474609375,0.12628173828125,0.95404052734375,4.029998779296875,-3.147735595703125,3.289794921875,1.0,2.0,1.0,1.0,2.0,100.0,event
12:32:37.322,0.8413623,0.19045684,0.76331294,1.6240861,0.9769278,0.021022663,0.17082827,1.2400678,0.7156719,0.13625686,0.15855353,1.4289771,1.1185948,-0.022711609,0.016908193,0.9588886,0.89872867,-0.1636447,-0.3916884,0.59665024,795.38464,810.293,810.293,767.98535,1045.6044,-0.3011474609375,0.12628173828125,0.95404052734375,4.029998779296875,-3.147735595703125,3.289794921875,1.0,2.0,1.0,1.0,2.0,100.0,event
12:32:37.322,0.8413623,0.19045684,0.76331294,1.6240861,0.9769278,0.021022663,0.17082827,1.2400678,0.7156719,0.13625686,0.15855353,1.4289771,1.1185948,-0.022711609,0.016908193,0.9588886,0.89872867,-0.1636447,-0.3916884,0.59665024,780.87915,810.696,812.71063,743.00366,1034.7252,-0.3011474609375,0.12628173828125,0.95404052734375,4.029998779296875,-3.147735595703125,3.289794921875,1.0,2.0,1.0,1.0,2.0,100.0,event
12:32:37.322,0.8413623,0.19045684,0.76331294,1.6240861,0.9769278,0.021022663,0.17082827,1.2400678,0.7156719,0.13625686,0.15855353,1.4289771,1.1185948,-0.022711609,0.016908193,0.9588886,0.89872867,-0.1636447,-0.3916884,0.59665024,786.9231,809.89014,811.9048,749.45056,823.5897,-0.3011474609375,0.12628173828125,0.95404052734375,4.029998779296875,-3.147735595703125,3.289794921875,1.0,2.0,1.0,1.0,2.0,100.0,event
12:32:37.323,0.8413623,0.19045684,0.76331294,1.6240861,0.9769278,0.021022663,0.17082827,1.2400678,0.7156719,0.13625686,0.15855353,1.4289771,1.1185948,-0.022711609,0.016908193,0.9588886,0.89872867,-0.1636447,-0.3916884,0.59665024,807.47253,806.6667,812.3077,753.8828,808.2784,-0.3011474609375,0.12628173828125,0.95404052734375,4.029998779296875,-3.147735595703125,3.289794921875,1.0,2.0,1.0,1.0,2.0,100.0,event
12:32:37.413,0.8413623,0.19045684,0.76331294,1.6240861,0.9769278,0.021022663,0.17082827,1.2400678,0.7156719,0.13625686,0.15855353,1.4289771,1.1185948,-0.022711609,0.016908193,0.9588886,0.89872867,-0.1636447,-0.3916884,0.59665024,800.6227,807.0696,807.0696,756.30035,931.1722,-0.3101806640625,0.11676025390625,0.93157958984375,2.07855224609375,-2.011260986328125,2.76641845703125,1.0,2.0,1.0,1.0,2.0,100.0,event
12:32:37.414,0.8413623,0.19045684,0.76331294,1.6240861,0.9769278,0.021022663,0.17082827,1.2400678,0.7156719,0.13625686,0.15855353,1.4289771,1.1185948,-0.022711609,0.016908193,0.9588886,0.89872867,-0.1636447,-0.3916884,0.59665024,771.2088,809.4872,810.696,758.71796,794.57874,-0.3101806640625,0.11676025390625,0.93157958984375,2.07855224609375,-2.011260986328125,2.76641845703125,1.0,2.0,1.0,1.0,2.0,100.0,event
12:32:37.415,0.8413623,0.19045684,0.76331294,1.6240861,0.9769278,0.021022663,0.17082827,1.2400678,0.7156719,0.13625686,0.15855353,1.4289771,1.1185948,-0.022711609,0.016908193,0.9588886,0.89872867,-0.1636447,-0.3916884,0.59665024,757.9121,809.4872,815.9341,726.08057,730.10986,-0.3101806640625,0.11676025390625,0.93157958984375,2.07855224609375,-2.011260986328125,2.76641845703125,1.0,2.0,1.0,1.0,2.0,100.0,event
12:32:37.416,0.8413623,0.19045684,0.76331294,1.6240861,0.9769278,0.021022663,0.17082827,1.2400678,0.7156719,0.13625686,0.15855353,1.4289771,1.1185948,-0.022711609,0.016908193,0.9588886,0.89872867,-0.1636447,-0.3916884,0.59665024,763.5531,809.0842,813.5165,723.2601,769.59705,-0.3101806640625,0.11676025390625,0.93157958984375,2.07855224609375,-2.011260986328125,2.76641845703125,1.0,2.0,1.0,1.0,2.0,100.0,event
12:32:37.417,0.8413623,0.19045684,0.76331294,1.6240861,0.9769278,0.021022663,0.17082827,1.2400678,0.7156719,0.13625686,0.15855353,1.4289771,1.1185948,-0.022711609,0.016908193,0.9588886,0.89872867,-0.1636447,-0.3916884,0.59665024,768.3883,810.293,807.8755,749.45056,723.663,-0.3101806640625,0.11676025390625,0.93157958984375,2.07855224609375,-2.011260986328125,2.76641845703125,1.0,2.0,1.0,1.0,2.0,100.0,event
12:32:37.417,0.80323243,0.16925031,0.7635782,1.6240861,0.9470442,0.034236923,0.13868484,1.2400678,0.82815576,0.15024966,0.15855353,1.4289771,1.1055087,-0.019177381,0.012728349,0.9588886,0.8956187,-0.14400974,-0.37483904,0.59665024,775.64105,811.9048,804.2491,761.53845,791.75824,-0.3101806640625,0.11676025390625,0.93157958984375,2.07855224609375,-2.011260986328125,2.76641845703125,1.0,1.0,1.0,1.0,1.0,100.0,event
12:32:37.422,0.80323243,0.16925031,0.7635782,1.6240861,0.9470442,0.034236923,0.13868484,1.2400678,0.82815576,0.15024966,0.15855353,1.4289771,1.1055087,-0.019177381,0.012728349,0.9588886,0.8956187,-0.14400974,-0.37483904,0.59665024,773.6264,809.89014,811.0989,761.53845,793.7729,-0.3101806640625,0.11676025390625,0.93157958984375,2.07855224609375,-2.011260986328125,2.76641845703125,1.0,1.0,1.0,1.0,1.0,100.0,event
12:32:37.423,0.80323243,0.16925031,0.7635782,1.6240861,0.9470442,0.034236923,0.13868484,1.2400678,0.82815576,0.15024966,0.15855353,1.4289771,1.1055087,-0.019177381,0.012728349,0.9588886,0.8956187,-0.14400974,-0.37483904,0.59665024,763.5531,809.89014,811.50183,727.6923,826.4103,-0.3101806640625,0.11676025390625,0.93157958984375,2.07855224609375,-2.011260986328125,2.76641845703125,1.0,1.0,1.0,1.0,1.0,100.0,event
12:32:37.424,0.80323243,0.16925031,0.7635782,1.6240861,0.9470442,0.034236923,0.13868484,1.2400678,0.82815576,0.15024966,0.15855353,1.4289771,1.1055087,-0.019177381,0.012728349,0.9588886,0.8956187,-0.14400974,-0.37483904,0.59665024,757.9121,805.4579,811.0989,709.15753,974.2857,-0.3101806640625,0.11676025390625,0.93157958984375,2.07855224609375,-2.011260986328125,2.76641845703125,1.0,1.0,1.0,1.0,1.0,100.0,event
12:32:37.426,0.80323243,0.16925031,0.7635782,1.6240861,0.9470442,0.034236923,0.13868484,1.2400678,0.82815576,0.15024966,0.15855353,1.4289771,1.1055087,-0.019177381,0.012728349,0.9588886,0.8956187,-0.14400974,-0.37483904,0.59665024,759.12085,804.2491,811.0989,709.15753,768.3883,-0.3101806640625,0.11676025390625,0.93157958984375,2.07855224609375,-2.011260986328125,2.76641845703125,1.0,1.0,1.0,1.0,1.0,100.0,event
12:32:37.427,0.80323243,0.16925031,0.7635782,1.6240861,0.9470442,0.034236923,0.13868484,1.2400678,0.82815576,0.15024966,0.15855353,1.4289771,1.1055087,-0.019177381,0.012728349,0.9588886,0.8956187,-0.14400974,-0.37483904,0.59665024,748.24176,808.68134,809.0842,719.6337,622.52747,-0.3101806640625,0.11676025390625,0.93157958984375,2.07855224609375,-2.011260986328125,2.76641845703125,1.0,1.0,1.0,1.0,1.0,100.0,event
12:32:37.428,0.80323243,0.16925031,0.7635782,1.6240861,0.9470442,0.034236923,0.13868484,1.2400678,0.82815576,0.15024966,0.15855353,1.4289771,1.1055087,-0.019177381,0.012728349,0.9588886,0.8956187,-0.14400974,-0.37483904,0.59665024,746.63007,812.71063,810.696,743.00366,674.90845,-0.3101806640625,0.11676025390625,0.93157958984375,2.07855224609375,-2.011260986328125,2.76641845703125,1.0,1.0,1.0,1.0,1.0,100.0,event
12:32:37.451,0.80323243,0.16925031,0.7635782,1.6240861,0.9470442,0.034236923,0.13868484,1.2400678,0.82815576,0.15024966,0.15855353,1.4289771,1.1055087,-0.019177381,0.012728349,0.9588886,0.8956187,-0.14400974,-0.37483904,0.59665024,748.6447,813.91943,808.2784,735.7509,693.0403,-0.3006591796875,0.11279296875,0.91705322265625,3.6187744140625,-1.89910888671875,1.891632080078125,1.0,1.0,1.0,1.0,1.0,100.0,event
12:32:37.454,0.80323243,0.16925031,0.7635782,1.6240861,0.9470442,0.034236923,0.13868484,1.2400678,0.82815576,0.15024966,0.15855353,1.4289771,1.1055087,-0.019177381,0.012728349,0.9588886,0.8956187,-0.14400974,-0.37483904,0.59665024,738.97437,813.5165,810.293,697.47253,672.49084,-0.3006591796875,0.11279296875,0.91705322265625,3.6187744140625,-1.89910888671875,1.891632080078125,1.0,1.0,1.0,1.0,1.0,100.0,event
12:32:37.455,0.80323243,0.16925031,0.7635782,1.6240861,0.9470442,0.034236923,0.13868484,1.2400678,0.82815576,0.15024966,0.15855353,1.4289771,1.1055087,-0.019177381,0.012728349,0.9588886,0.8956187,-0.14400974,-0.37483904,0.59665024,744.21246,809.4872,811.0989,691.8315,586.6667,-0.3006591796875,0.11279296875,0.91705322265625,3.6187744140625,-1.89910888671875,1.891632080078125,1.0,1.0,1.0,1.0,1.0,100.0,event
12:32:37.455,0.80323243,0.16925031,0.7635782,1.6240861,0.9470442,0.034236923,0.13868484,1.2400678,0.82815576,0.15024966,0.15855353,1.4289771,1.1055087,-0.019177381,0.012728349,0.9588886,0.8956187,-0.14400974,-0.37483904,0.59665024,750.2564,806.26373,807.8755,695.4579,669.2674,-0.3006591796875,0.11279296875,0.91705322265625,3.6187744140625,-1.89910888671875,1.891632080078125,1.0,1.0,1.0,1.0,1.0,100.0,event
12:32:37.456,0.80323243,0.16925031,0.7635782,1.6240861,0.9470442,0.034236923,0.13868484,1.2400678,0.82815576,0.15024966,0.15855353,1.4289771,1.1055087,-0.019177381,0.012728349,0.9588886,0.8956187,-0.14400974,-0.37483904,0.59665024,743.4066,808.2784,808.68134,705.5311,672.0879,-0.3006591796875,0.11279296875,0.91705322265625,3.6187744140625,-1.89910888671875,1.891632080078125,1.0,1.0,1.0,1.0,1.0,100.0,event
12:32:37.457,0.80323243,0.16925031,0.7635782,1.6240861,0.9470442,0.034236923,0.13868484,1.2400678,0.82815576,0.15024966,0.15855353,1.4289771,1.1055087,-0.019177381,0.012728349,0.9588886,0.8956187,-0.14400974,-0.37483904,0.59665024,759.92676,809.89014,811.0989,724.0659,637.8388,-0.3006591796875,0.11279296875,0.91705322265625,3.6187744140625,-1.89910888671875,1.891632080078125,1.0,1.0,1.0,1.0,1.0,100.0,event
12:32:37.458,0.80323243,0.16925031,0.7635782,1.6240861,0.9470442,0.034236923,0.13868484,1.2400678,0.82815576,0.15024966,0.15855353,1.4289771,1.1055087,-0.019177381,0.012728349,0.9588886,0.8956187,-0.14400974,-0.37483904,0.59665024,774.0293,807.8755,810.293,732.9304,707.5458,-0.3006591796875,0.11279296875,0.91705322265625,3.6187744140625,-1.89910888671875,1.891632080078125,1.0,1.0,1.0,1.0,1.0,100.0,event
12:32:37.458,0.80323243,0.16925031,0.7635782,1.6240861,0.9470442,0.034236923,0.13868484,1.2400678,0.82815576,0.15024966,0.15855353,1.4289771,1.1055087,-0.019177381,0.012728349,0.9588886,0.8956187,-0.14400974,-0.37483904,0.59665024,758.71796,804.2491,814.7253,723.663,880.40295,-0.3006591796875,0.11279296875,0.91705322265625,3.6187744140625,-1.89910888671875,1.891632080078125,1.0,1.0,1.0,1.0,1.0,100.0,event
12:32:37.459,0.80323243,0.16925031,0.7635782,1.6240861,0.9470442,0.034236923,0.13868484,1.2400678,0.82815576,0.15024966,0.15855353,1.4289771,1.1055087,-0.019177381,0.012728349,0.9588886,0.8956187,-0.14400974,-0.37483904,0.59665024,761.53845,801.4286,813.91943,703.1135,883.22345,-0.3006591796875,0.11279296875,0.91705322265625,3.6187744140625,-1.89910888671875,1.891632080078125,1.0,1.0,1.0,1.0,1.0,100.0,event
12:32:37.460,0.80323243,0.16925031,0.7635782,1.6240861,0.9470442,0.034236923,0.13868484,1.2400678,0.82815576,0.15024966,0.15855353,1.4289771,1.1055087,-0.019177381,0.012728349,0.9588886,0.8956187,-0.14400974,-0.37483904,0.59665024,786.52014,803.8461,802.6374,718.8278,701.0989,-0.3006591796875,0.11279296875,0.91705322265625,3.6187744140625,-1.89910888671875,1.891632080078125,1.0,1.0,1.0,1.0,1.0,100.0,event
12:32:37.461,0.80323243,0.16925031,0.7635782,1.6240861,0.9470442,0.034236923,0.13868484,1.2400678,0.82815576,0.15024966,0.15855353,1.4289771,1.1055087,-0.019177381,0.012728349,0.9588886,0.8956187,-0.14400974,-0.37483904,0.59665024,787.72894,807.0696,800.2198,747.03296,678.5348,-0.3006591796875,0.11279296875,0.91705322265625,3.6187744140625,-1.89910888671875,1.891632080078125,1.0,1.0,1.0,1.0,1.0,100.0,event
12:32:37.461,0.80323243,0.16925031,0.7635782,1.6240861,0.9470442,0.034236923,0.13868484,1.2400678,0.82815576,0.15024966,0.15855353,1.4289771,1.1055087,-0.019177381,0.012728349,0.9588886,0.8956187,-0.14400974,-0.37483904,0.59665024,778.46155,801.02563,812.3077,742.1978,639.45056,-0.3006591796875,0.11279296875,0.91705322265625,3.6187744140625,-1.89910888671875,1.891632080078125,1.0,1.0,1.0,1.0,1.0,100.0,event
12:32:37.462,0.80323243,0.16925031,0.7635782,1.6240861,0.9470442,0.034236923,0.13868484,1.2400678,0.82815576,0.15024966,0.15855353,1.4289771,1.1055087,-0.019177381,0.012728349,0.9588886,0.8956187,-0.14400974,-0.37483904,0.59665024,765.16486,798.20514,821.5751,726.08057,606.0073,-0.3006591796875,0.11279296875,0.91705322265625,3.6187744140625,-1.89910888671875,1.891632080078125,1.0,1.0,1.0,1.0,1.0,100.0,event
12:32:37.463,0.80323243,0.16925031,0.7635782,1.6240861,0.9470442,0.034236923,0.13868484,1.2400678,0.82815576,0.15024966,0.15855353,1.4289771,1.1055087,-0.019177381,0.012728349,0.9588886,0.8956187,-0.14400974,-0.37483904,0.59665024,747.4359,800.2198,815.5311,737.76556,659.59705,-0.3006591796875,0.11279296875,0.91705322265625,3.6187744140625,-1.89910888671875,1.891632080078125,1.0,1.0,1.0,1.0,1.0,100.0,event
12:32:37.463,0.80323243,0.16925031,0.7635782,1.6240861,0.9470442,0.034236923,0.13868484,1.2400678,0.82815576,0.15024966,0.15855353,1.4289771,1.1055087,-0.019177381,0.012728349,0.9588886,0.8956187,-0.14400974,-0.37483904,0.59665024,756.7033,803.0403,811.0989,749.85345,740.18317,-0.3006591796875,0.11279296875,0.91705322265625,3.6187744140625,-1.89910888671875,1.891632080078125,1.0,1.0,1.0,1.0,1.0,100.0,event
12:32:37.464,0.80323243,0.16925031,0.7635782,1.6240861,0.9470442,0.034236923,0.13868484,1.2400678,0.82815576,0.15024966,0.15855353,1.4289771,1.1055087,-0.019177381,0.012728349,0.9588886,0.8956187,-0.14400974,-0.37483904,0.59665024,762.3443,804.65204,814.3223,732.52747,806.26373,-0.3006591796875,0.11279296875,0.91705322265625,3.6187744140625,-1.89910888671875,1.891632080078125,1.0,1.0,1.0,1.0,1.0,100.0,event
12:32:37.465,0.80323243,0.16925031,0.7635782,1.6240861,0.9470442,0.034236923,0.13868484,1.2400678,0.82815576,0.15024966,0.15855353,1.4289771,1.1055087,-0.019177381,0.012728349,0.9588886,0.8956187,-0.14400974,-0.37483904,0.59665024,763.5531,806.6667,811.9048,709.15753,832.4542,-0.3006591796875,0.11279296875,0.91705322265625,3.6187744140625,-1.89910888671875,1.891632080078125,1.0,1.0,1.0,1.0,1.0,100.0,event
12:32:37.465,0.80323243,0.16925031,0.7635782,1.6240861,0.9470442,0.034236923,0.13868484,1.2400678,0.82815576,0.15024966,0.15855353,1.4289771,1.1055087,-0.019177381,0.012728349,0.9588886,0.8956187,-0.14400974,-0.37483904,0.59665024,761.53845,811.9048,806.6667,709.5604,805.05493,-0.3006591796875,0.11279296875,0.91705322265625,3.6187744140625,-1.89910888671875,1.891632080078125,1.0,1.0,1.0,1.0,1.0,100.0,event
12:32:37.466,0.80323243,0.16925031,0.7635782,1.6240861,0.9470442,0.034236923,0.13868484,1.2400678,0.82815576,0.15024966,0.15855353,1.4289771,1.1055087,-0.019177381,0.012728349,0.9588886,0.8956187,-0.14400974,-0.37483904,0.59665024,757.50916,813.1135,808.2784,716.0073,868.71796,-0.3006591796875,0.11279296875,0.91705322265625,3.6187744140625,-1.89910888671875,1.891632080078125,1.0,1.0,1.0,1.0,1.0,100.0,event
12:32:37.467,0.79841787,0.1319429,0.7642721,1.6240861,0.96265924,0.034870673,0.10996327,1.2400678,0.98624337,0.15876865,0.14989972,1.4289771,1.0862123,-0.013283841,0.008850816,0.9588886,0.8983458,-0.11463807,-0.3525982,0.59665024,749.0476,804.65204,809.89014,713.9927,1121.3553,-0.3006591796875,0.11279296875,0.91705322265625,3.6187744140625,-1.89910888671875,1.891632080078125,1.0,1.0,1.0,1.0,1.0,100.0,event
12:32:37.471,0.79841787,0.1319429,0.7642721,1.6240861,0.96265924,0.034870673,0.10996327,1.2400678,0.98624337,0.15876865,0.14989972,1.4289771,1.0862123,-0.013283841,0.008850816,0.9588886,0.8983458,-0.11463807,-0.3525982,0.59665024,730.10986,801.8315,810.696,694.2491,950.5128,-0.3006591796875,0.11279296875,0.91705322265625,3.6187744140625,-1.89910888671875,1.891632080078125,1.0,1.0,1.0,1.0,1.0,100.0,event
12:32:37.472,0.79841787,0.1319429,0.7642721,1.6240861,0.96265924,0.034870673,0.10996327,1.2400678,0.98624337,0.15876865,0.14989972,1.4289771,1.0862123,-0.013283841,0.008850816,0.9588886,0.8983458,-0.11463807,-0.3525982,0.59665024,724.0659,798.20514,808.2784,691.8315,696.6667,-0.3006591796875,0.11279296875,0.91705322265625,3.6187744140625,-1.89910888671875,1.891632080078125,1.0,1.0,1.0,1.0,1.0,100.0,event
12:32:37.472,0.79841787,0.1319429,0.7642721,1.6240861,0.96265924,0.034870673,0.10996327,1.2400678,0.98624337,0.15876865,0.14989972,1.4289771,1.0862123,-0.013283841,0.008850816,0.9588886,0.8983458,-0.11463807,-0.3525982,0.59665024,719.6337,797.8022,801.4286,701.50183,762.74725,-0.3006591796875,0.11279296875,0.91705322265625,3.6187744140625,-1.89910888671875,1.891632080078125,1.0,1.0,1.0,1.0,1.0,100.0,event
12:32:37.473,0.79841787,0.1319429,0.7642721,1.6240861,0.96265924,0.034870673,0.10996327,1.2400678,0.98624337,0.15876865,0.14989972,1.4289771,1.0862123,-0.013283841,0.008850816,0.9588886,0.8983458,-0.11463807,-0.3525982,0.59665024,704.3223,808.2784,798.60803,684.17584,811.0989,-0.3006591796875,0.11279296875,0.91705322265625,3.6187744140625,-1.89910888671875,1.891632080078125,1.0,1.0,1.0,1.0,1.0,100.0,event
12:32:37.564,0.79841787,0.1319429,0.7642721,1.6240861,0.96265924,0.034870673,0.10996327,1.2400678,0.98624337,0.15876865,0.14989972,1.4289771,1.0862123,-0.013283841,0.008850816,0.9588886,0.8983458,-0.11463807,-0.3525982,0.59665024,691.4286,811.50183,797.8022,675.31134,772.8205,-0.29290771484375,0.12371826171875,0.922119140625,7.40203857421875,-2.6318359375,4.299163818359375,1.0,1.0,1.0,1.0,1.0,100.0,event
