TimeStamp,Delta_TP9,Delta_AF7,Delta_AF8,Delta_TP10,Theta_TP9,Theta_AF7,Theta_AF8,Theta_TP10,Alpha_TP9,Alpha_AF7,Alpha_AF8,Alpha_TP10,Beta_TP9,Beta_AF7,Beta_AF8,Beta_TP10,Gamma_TP9,Gamma_AF7,Gamma_AF8,Gamma_TP10,RAW_TP9,RAW_AF7,RAW_AF8,RAW_TP10,AUX_RIGHT,Accelerometer_X,Accelerometer_Y,Accelerometer_Z,Gyro_X,Gyro_Y,Gyro_Z,HeadBandOn,HSI_TP9,HSI_AF7,HSI_AF8,HSI_TP10,Battery,Elements
09:27:40.225,0.0,0.0,0.0,1.2202492,0.0,0.0,0.0,1.4157766,0.0,0.0,0.0,1.2795233,0.0,0.0,0.0,0.7747767,0.0,0.0,0.0,0.5744891,201.06227,784.5055,790.54944,770.40295,705.12823,-0.283447265625,0.03399658203125,0.9427490234375,1.77947998046875,-3.760833740234375,0.231781005859375,1.0,4.0,4.0,4.0,1.0,100.0,event
09:27:40.227,0.0,0.0,0.0,1.2202492,0.0,0.0,0.0,1.4157766,0.0,0.0,0.0,1.2795233,0.0,0.0,0.0,0.7747767,0.0,0.0,0.0,0.5744891,1349.414,1295.8242,942.8571,797.3993,853.8095,-0.283447265625,0.03399658203125,0.9427490234375,1.77947998046875,-3.760833740234375,0.231781005859375,1.0,4.0,4.0,4.0,1.0,100.0,event
09:27:40.228,0.0,0.0,0.0,1.2202492,0.0,0.0,0.0,1.4157766,0.0,0.0,0.0,1.2795233,0.0,0.0,0.0,0.7747767,0.0,0.0,0.0,0.5744891,79.78022,1628.2417,1214.0293,792.5641,862.27106,-0.283447265625,0.03399658203125,0.9427490234375,1.77947998046875,-3.760833740234375,0.231781005859375,1.0,4.0,4.0,4.0,1.0,100.0,event
09:27:40.229,0.0,0.0,0.0,1.2202492,0.0,0.0,0.0,1.4157766,0.0,0.0,0.0,1.2795233,0.0,0.0,0.0,0.7747767,0.0,0.0,0.0,0.5744891,641.4652,1363.5165,1057.2894,788.93774,791.75824,-0.283447265625,0.03399658203125,0.9427490234375,1.77947998046875,-3.760833740234375,0.231781005859375,1.0,4.0,4.0,4.0,1.0,100.0,event
09:27:40.230,0.0,0.0,0.0,1.2202492,0.0,0.0,0.0,1.4157766,0.0,0.0,0.0,1.2795233,0.0,0.0,0.0,0.7747767,0.0,0.0,0.0,0.5744891,0.0,531.06226,597.5458,788.1319,727.6923,-0.283447265625,0.03399658203125,0.9427490234375,1.77947998046875,-3.760833740234375,0.231781005859375,1.0,4.0,4.0,4.0,1.0,100.0,event
09:27:40.231,0.0,0.0,0.0,1.2202492,0.0,0.0,0.0,1.4157766,0.0,0.0,0.0,1.2795233,0.0,0.0,0.0,0.7747767,0.0,0.0,0.0,0.5744891,210.32967,275.20148,383.58975,786.9231,774.0293,-0.283447265625,0.03399658203125,0.9427490234375,1.77947998046875,-3.760833740234375,0.231781005859375,1.0,4.0,4.0,4.0,1.0,100.0,event
09:27:40.232,0.0,0.0,0.0,1.2202492,0.0,0.0,0.0,1.4157766,0.0,0.0,0.0,1.2795233,0.0,0.0,0.0,0.7747767,0.0,0.0,0.0,0.5744891,1302.674,996.4469,681.3553,809.4872,867.9121,-0.283447265625,0.03399658203125,0.9427490234375,1.77947998046875,-3.760833740234375,0.231781005859375,1.0,4.0,4.0,4.0,1.0,100.0,event
09:27:40.233,0.0,0.0,0.0,1.2202492,0.0,0.0,0.0,1.4157766,0.0,0.0,0.0,1.2795233,0.0,0.0,0.0,0.7747767,0.0,0.0,0.0,0.5744891,113.22344,4.4322343,1112.0879,814.3223,816.7399,-0.283447265625,0.03399658203125,0.9427490234375,1.77947998046875,-3.760833740234375,0.231781005859375,1.0,4.0,4.0,4.0,1.0,100.0,event
09:27:40.234,0.0,0.0,0.0,1.2202492,0.0,0.0,0.0,1.4157766,0.0,0.0,0.0,1.2795233,0.0,0.0,0.0,0.7747767,0.0,0.0,0.0,0.5744891,857.4359,1286.1538,919.89014,794.17584,800.2198,-0.283447265625,0.03399658203125,0.9427490234375,1.77947998046875,-3.760833740234375,0.231781005859375,1.0,4.0,4.0,4.0,1.0,100.0,event
09:27:40.235,0.0,0.0,0.0,1.2202492,0.0,0.0,0.0,1.4157766,0.0,0.0,0.0,1.2795233,0.0,0.0,0.0,0.7747767,0.0,0.0,0.0,0.5744891,0.0,257.47253,359.81686,784.90845,806.26373,-0.283447265625,0.03399658203125,0.9427490234375,1.77947998046875,-3.760833740234375,0.231781005859375,1.0,4.0,4.0,4.0,1.0,100.0,event
09:27:40.236,0.0,0.0,0.0,1.2202492,0.0,0.0,0.0,1.4157766,0.0,0.0,0.0,1.2795233,0.0,0.0,0.0,0.7747767,0.0,0.0,0.0,0.5744891,64.06593,278.82785,435.56778,786.9231,847.3626,-0.283447265625,0.03399658203125,0.9427490234375,1.77947998046875,-3.760833740234375,0.231781005859375,1.0,4.0,4.0,4.0,1.0,100.0,event
09:27:40.236,0.0,0.0,0.0,1.2202492,0.0,0.0,0.0,1.4157766,0.0,0.0,0.0,1.2795233,0.0,0.0,0.0,0.7747767,0.0,0.0,0.0,0.5744891,1226.9231,1236.9963,958.5714,807.47253,800.2198,-0.283447265625,0.03399658203125,0.9427490234375,1.77947998046875,-3.760833740234375,0.231781005859375,1.0,4.0,4.0,4.0,1.0,100.0,event
09:27:40.269,0.0,0.0,0.0,1.2202492,0.0,0.0,0.0,1.4157766,0.0,0.0,0.0,1.2795233,0.0,0.0,0.0,0.7747767,0.0,0.0,0.0,0.5744891,137.8022,1599.6337,1067.3627,811.9048,786.52014,-0.28680419921875,0.03277587890625,0.947998046875,1.936492919921875,-4.074859619140625,0.934600830078125,1.0,4.0,4.0,4.0,1.0,100.0,event
09:27:40.270,0.0,0.0,0.0,1.2202492,0.0,0.0,0.0,1.4157766,0.0,0.0,0.0,1.2795233,0.0,0.0,0.0,0.7747767,0.0,0.0,0.0,0.5744891,828.4249,482.71063,251.42857,798.60803,1070.989,-0.28680419921875,0.03277587890625,0.947998046875,1.936492919921875,-4.074859619140625,0.934600830078125,1.0,4.0,4.0,4.0,1.0,100.0,event
09:27:40.271,0.0,0.0,0.0,1.2202492,0.0,0.0,0.0,1.4157766,0.0,0.0,0.0,1.2795233,0.0,0.0,0.0,0.7747767,0.0,0.0,0.0,0.5744891,0.0,42.71062,186.55678,793.36993,915.8608,-0.28680419921875,0.03277587890625,0.947998046875,1.936492919921875,-4.074859619140625,0.934600830078125,1.0,4.0,4.0,4.0,1.0,100.0,event
09:27:40.272,0.0,0.0,0.0,1.2202492,0.0,0.0,0.0,1.4157766,0.0,0.0,0.0,1.2795233,0.0,0.0,0.0,0.7747767,0.0,0.0,0.0,0.5744891,35.860806,486.73993,650.7326,791.75824,689.41394,-0.28680419921875,0.03277587890625,0.947998046875,1.936492919921875,-4.074859619140625,0.934600830078125,1.0,4.0,4.0,4.0,1.0,100.0,event
09:27:40.273,0.0,0.0,0.0,1.2202492,0.0,0.0,0.0,1.4157766,0.0,0.0,0.0,1.2795233,0.0,0.0,0.0,0.7747767,0.0,0.0,0.0,0.5744891,1087.5092,884.83514,729.304,806.6667,800.2198,-0.28680419921875,0.03277587890625,0.947998046875,1.936492919921875,-4.074859619140625,0.934600830078125,1.0,4.0,4.0,4.0,1.0,100.0,event
09:27:40.273,0.0,0.0,0.0,1.2202492,0.0,0.0,0.0,1.4157766,0.0,0.0,0.0,1.2795233,0.0,0.0,0.0,0.7747767,0.0,0.0,0.0,0.5744891,157.54579,1443.2968,875.56775,817.5458,916.6667,-0.28680419921875,0.03277587890625,0.947998046875,1.936492919921875,-4.074859619140625,0.934600830078125,1.0,4.0,4.0,4.0,1.0,100.0,event
09:27:40.274,0.0,0.0,0.0,1.2202492,0.0,0.0,0.0,1.4157766,0.0,0.0,0.0,1.2795233,0.0,0.0,0.0,0.7747767,0.0,0.0,0.0,0.5744891,1226.9231,1290.1831,807.8755,805.05493,858.24176,-0.28680419921875,0.03277587890625,0.947998046875,1.936492919921875,-4.074859619140625,0.934600830078125,1.0,4.0,4.0,4.0,1.0,100.0,event
09:27:40.275,0.0,0.0,0.0,1.2202492,0.0,0.0,0.0,1.4157766,0.0,0.0,0.0,1.2795233,0.0,0.0,0.0,0.7747767,0.0,0.0,0.0,0.5744891,158.35165,699.89014,713.1868,789.34064,697.8755,-0.28680419921875,0.03277587890625,0.947998046875,1.936492919921875,-4.074859619140625,0.934600830078125,1.0,4.0,4.0,4.0,1.0,100.0,event
09:27:40.276,0.0,0.0,0.0,1.2202492,0.0,0.0,0.0,1.4157766,0.0,0.0,0.0,1.2795233,0.0,0.0,0.0,0.7747767,0.0,0.0,0.0,0.5744891,0.0,147.0696,398.9011,783.69965,824.3956,-0.28680419921875,0.03277587890625,0.947998046875,1.936492919921875,-4.074859619140625,0.934600830078125,1.0,4.0,4.0,4.0,1.0,100.0,event
09:27:40.279,0.0,0.0,0.0,1.2202492,0.0,0.0,0.0,1.4157766,0.0,0.0,0.0,1.2795233,0.0,0.0,0.0,0.7747767,0.0,0.0,0.0,0.5744891,790.54944,367.0696,346.92307,810.696,944.87177,-0.28680419921875,0.03277587890625,0.947998046875,1.936492919921875,-4.074859619140625,0.934600830078125,1.0,4.0,4.0,4.0,1.0,100.0,event
09:27:40.280,0.0,0.0,0.0,1.2202492,0.0,0.0,0.0,1.4157766,0.0,0.0,0.0,1.2795233,0.0,0.0,0.0,0.7747767,0.0,0.0,0.0,0.5744891,91.86813,1526.7032,1165.6776,838.9011,748.24176,-0.28680419921875,0.03277587890625,0.947998046875,1.936492919921875,-4.074859619140625,0.934600830078125,1.0,4.0,4.0,4.0,1.0,100.0,event
09:27:40.281,0.0,0.0,0.0,1.2202492,0.0,0.0,0.0,1.4157766,0.0,0.0,0.0,1.2795233,0.0,0.0,0.0,0.7747767,0.0,0.0,0.0,0.5744891,1422.7472,1585.1282,1167.2894,813.91943,641.8681,-0.28680419921875,0.03277587890625,0.947998046875,1.936492919921875,-4.074859619140625,0.934600830078125,1.0,4.0,4.0,4.0,1.0,100.0,event
09:27:40.305,0.0,0.0,0.0,1.2202492,0.0,0.0,0.0,1.4157766,0.0,0.0,0.0,1.2795233,0.0,0.0,0.0,0.7747767,0.0,0.0,0.0,0.5744891,251.02563,560.07324,549.59705,801.02563,715.2015,-0.28460693359375,0.031005859375,0.9486083984375,2.04864501953125,-3.6785888671875,0.097198486328125,1.0,4.0,4.0,4.0,1.0,100.0,event
09:27:40.307,0.0,0.0,0.0,1.2202492,0.0,0.0,0.0,1.4157766,0.0,0.0,0.0,1.2795233,0.0,0.0,0.0,0.7747767,0.0,0.0,0.0,0.5744891,0.0,153.91942,435.56778,802.23444,749.85345,-0.28460693359375,0.031005859375,0.9486083984375,2.04864501953125,-3.6785888671875,0.097198486328125,1.0,4.0,4.0,4.0,1.0,100.0,event
09:27:40.308,0.0,0.0,0.0,1.2202492,0.0,0.0,0.0,1.4157766,0.0,0.0,0.0,1.2795233,0.0,0.0,0.0,0.7747767,0.0,0.0,0.0,0.5744891,759.5238,918.68134,881.2088,807.47253,703.1135,-0.28460693359375,0.031005859375,0.9486083984375,2.04864501953125,-3.6785888671875,0.097198486328125,1.0,4.0,4.0,4.0,1.0,100.0,event
09:27:40.310,0.0,0.0,0.0,1.2202492,0.0,0.0,0.0,1.4157766,0.0,0.0,0.0,1.2795233,0.0,0.0,0.0,0.7747767,0.0,0.0,0.0,0.5744891,53.186813,1565.7876,1231.7583,818.3516,778.0586,-0.28460693359375,0.031005859375,0.9486083984375,2.04864501953125,-3.6785888671875,0.097198486328125,1.0,4.0,4.0,4.0,1.0,100.0,event
09:27:40.311,0.0,0.0,0.0,1.2202492,0.0,0.0,0.0,1.4157766,0.0,0.0,0.0,1.2795233,0.0,0.0,0.0,0.7747767,0.0,0.0,0.0,0.5744891,1484.7986,1243.4432,849.3773,809.0842,852.1978,-0.28460693359375,0.031005859375,0.9486083984375,2.04864501953125,-3.6785888671875,0.097198486328125,1.0,4.0,4.0,4.0,1.0,100.0,event
09:27:40.312,0.0,0.0,0.0,1.2202492,0.0,0.0,0.0,1.4157766,0.0,0.0,0.0,1.2795233,0.0,0.0,0.0,0.7747767,0.0,0.0,0.0,0.5744891,325.16483,518.97437,490.3663,795.38464,845.7509,-0.28460693359375,0.031005859375,0.9486083984375,2.04864501953125,-3.6785888671875,0.097198486328125,1.0,4.0,4.0,4.0,1.0,100.0,event
09:27:40.313,0.0,0.0,0.0,1.2202492,0.0,0.0,0.0,1.4157766,0.0,0.0,0.0,1.2795233,0.0,0.0,0.0,0.7747767,0.0,0.0,0.0,0.5744891,0.0,225.64102,508.09525,779.67035,883.6264,-0.28460693359375,0.031005859375,0.9486083984375,2.04864501953125,-3.6785888671875,0.097198486328125,1.0,4.0,4.0,4.0,1.0,100.0,event
09:27:40.314,0.0,0.0,0.0,1.2202492,0.0,0.0,0.0,1.4157766,0.0,0.0,0.0,1.2795233,0.0,0.0,0.0,0.7747767,0.0,0.0,0.0,0.5744891,490.3663,688.20514,689.81683,786.1172,848.97437,-0.28460693359375,0.031005859375,0.9486083984375,2.04864501953125,-3.6785888671875,0.097198486328125,1.0,4.0,4.0,4.0,1.0,100.0,event
09:27:40.315,0.0,0.0,0.0,1.2202492,0.0,0.0,0.0,1.4157766,0.0,0.0,0.0,1.2795233,0.0,0.0,0.0,0.7747767,0.0,0.0,0.0,0.5744891,1589.1575,800.2198,492.38095,808.2784,1038.7546,-0.28460693359375,0.031005859375,0.9486083984375,2.04864501953125,-3.6785888671875,0.097198486328125,1.0,4.0,4.0,4.0,1.0,100.0,event
09:27:40.316,0.0,0.0,0.0,1.2202492,0.0,0.0,0.0,1.4157766,0.0,0.0,0.0,1.2795233,0.0,0.0,0.0,0.7747767,0.0,0.0,0.0,0.5744891,1574.652,987.1795,595.12823,802.6374,977.9121,-0.28460693359375,0.031005859375,0.9486083984375,2.04864501953125,-3.6785888671875,0.097198486328125,1.0,4.0,4.0,4.0,1.0,100.0,event
09:27:40.317,0.0,0.0,0.0,1.2202492,0.0,0.0,0.0,1.4157766,0.0,0.0,0.0,1.2795233,0.0,0.0,0.0,0.7747767,0.0,0.0,0.0,0.5744891,383.99268,998.46155,860.2564,794.17584,643.8828,-0.28460693359375,0.031005859375,0.9486083984375,2.04864501953125,-3.6785888671875,0.097198486328125,1.0,4.0,4.0,4.0,1.0,100.0,event
09:27:40.318,0.0,0.0,0.0,1.2202492,0.0,0.0,0.0,1.4157766,0.0,0.0,0.0,1.2795233,0.0,0.0,0.0,0.7747767,0.0,0.0,0.0,0.5744891,0.0,367.87546,610.0366,792.96704,628.1685,-0.28460693359375,0.031005859375,0.9486083984375,2.04864501953125,-3.6785888671875,0.097198486328125,1.0,4.0,4.0,4.0,1.0,100.0,event
09:27:40.343,0.0,0.0,0.0,1.2202492,0.0,0.0,0.0,1.4157766,0.0,0.0,0.0,1.2795233,0.0,0.0,0.0,0.7747767,0.0,0.0,0.0,0.5744891,353.7729,668.86444,723.663,806.26373,660.0,-0.28460693359375,0.031005859375,0.9486083984375,2.04864501953125,-3.6785888671875,0.097198486328125,1.0,4.0,4.0,4.0,1.0,100.0,event
09:27:40.344,0.0,0.0,0.0,1.2202492,0.0,0.0,0.0,1.4157766,0.0,0.0,0.0,1.2795233,0.0,0.0,0.0,0.7747767,0.0,0.0,0.0,0.5744891,1495.6776,1498.9011,1188.6447,822.381,660.80585,-0.28460693359375,0.031005859375,0.9486083984375,2.04864501953125,-3.6785888671875,0.097198486328125,1.0,4.0,4.0,4.0,1.0,100.0,event
09:27:40.347,0.0,0.0,0.0,1.2202492,0.0,0.0,0.0,1.4157766,0.0,0.0,0.0,1.2795233,0.0,0.0,0.0,0.7747767,0.0,0.0,0.0,0.5744891,1633.4799,43.113552,1304.2858,813.5165,725.2747,-0.28460693359375,0.031005859375,0.9486083984375,2.04864501953125,-3.6785888671875,0.097198486328125,1.0,4.0,4.0,4.0,1.0,100.0,event
09:27:40.348,0.0,0.0,0.0,1.2202492,0.0,0.0,0.0,1.4157766,0.0,0.0,0.0,1.2795233,0.0,0.0,0.0,0.7747767,0.0,0.0,0.0,0.5744891,448.0586,1062.9304,875.56775,806.26373,808.2784,-0.28460693359375,0.031005859375,0.9486083984375,2.04864501953125,-3.6785888671875,0.097198486328125,1.0,4.0,4.0,4.0,1.0,100.0,event
09:27:40.349,0.0,0.0,0.0,1.2202492,0.0,0.0,0.0,1.4157766,0.0,0.0,0.0,1.2795233,0.0,0.0,0.0,0.7747767,0.0,0.0,0.0,0.5744891,0.0,226.84982,439.19415,784.5055,812.3077,-0.28460693359375,0.031005859375,0.9486083984375,2.04864501953125,-3.6785888671875,0.097198486328125,1.0,4.0,4.0,4.0,1.0,100.0,event
09:27:40.349,0.0,0.0,0.0,1.2202492,0.0,0.0,0.0,1.4157766,0.0,0.0,0.0,1.2795233,0.0,0.0,0.0,0.7747767,0.0,0.0,0.0,0.5744891,177.6923,345.31134,473.84616,789.7436,758.315,-0.28460693359375,0.031005859375,0.9486083984375,2.04864501953125,-3.6785888671875,0.097198486328125,1.0,4.0,4.0,4.0,1.0,100.0,event
09:27:40.350,0.0,0.0,0.0,1.2202492,0.0,0.0,0.0,1.4157766,0.0,0.0,0.0,1.2795233,0.0,0.0,0.0,0.7747767,0.0,0.0,0.0,0.5744891,1379.2307,1260.7693,861.06226,812.71063,764.35895,-0.28460693359375,0.031005859375,0.9486083984375,2.04864501953125,-3.6785888671875,0.097198486328125,1.0,4.0,4.0,4.0,1.0,100.0,event
09:27:40.350,0.0,0.0,0.0,1.2202492,0.0,0.0,0.0,1.4157766,0.0,0.0,0.0,1.2795233,0.0,0.0,0.0,0.7747767,0.0,0.0,0.0,0.5744891,10.07326,1409.8535,830.4396,801.4286,953.3333,-0.28460693359375,0.031005859375,0.9486083984375,2.04864501953125,-3.6785888671875,0.097198486328125,1.0,4.0,4.0,4.0,1.0,100.0,event
09:27:40.351,0.0,0.0,0.0,1.2202492,0.0,0.0,0.0,1.4157766,0.0,0.0,0.0,1.2795233,0.0,0.0,0.0,0.7747767,0.0,0.0,0.0,0.5744891,423.07693,240.95238,133.36996,785.31134,1134.652,-0.28460693359375,0.031005859375,0.9486083984375,2.04864501953125,-3.6785888671875,0.097198486328125,1.0,4.0,4.0,4.0,1.0,100.0,event
09:27:40.352,0.0,0.0,0.0,1.2202492,0.0,0.0,0.0,1.4157766,0.0,0.0,0.0,1.2795233,0.0,0.0,0.0,0.7747767,0.0,0.0,0.0,0.5744891,169.6337,787.326,898.5348,796.5934,684.9817,-0.28460693359375,0.031005859375,0.9486083984375,2.04864501953125,-3.6785888671875,0.097198486328125,1.0,4.0,4.0,4.0,1.0,100.0,event
09:27:40.352,0.0,0.0,0.0,1.2202492,0.0,0.0,0.0,1.4157766,0.0,0.0,0.0,1.2795233,0.0,0.0,0.0,0.7747767,0.0,0.0,0.0,0.5744891,0.0,146.26373,373.9194,782.49084,881.6117,-0.28460693359375,0.031005859375,0.9486083984375,2.04864501953125,-3.6785888671875,0.097198486328125,1.0,4.0,4.0,4.0,1.0,100.0,event
09:27:40.353,0.0,0.0,0.0,1.2202492,0.0,0.0,0.0,1.4157766,0.0,0.0,0.0,1.2795233,0.0,0.0,0.0,0.7747767,0.0,0.0,0.0,0.5744891,1299.8535,1216.8499,955.7509,819.9634,799.41394,-0.28460693359375,0.031005859375,0.9486083984375,2.04864501953125,-3.6785888671875,0.097198486328125,1.0,4.0,4.0,4.0,1.0,100.0,event
09:27:40.400,0.0,0.0,0.0,1.2202492,0.0,0.0,0.0,1.4157766,0.0,0.0,0.0,1.2795233,0.0,0.0,0.0,0.7747767,0.0,0.0,0.0,0.5744891,111.611725,1605.6776,1191.4652,816.7399,759.12085,-0.2874755859375,0.02984619140625,0.94757080078125,1.98883056640625,-3.641204833984375,0.441131591796875,1.0,4.0,4.0,4.0,1.0,100.0,event
09:27:40.401,0.0,0.0,0.0,1.2202492,0.0,0.0,0.0,1.4157766,0.0,0.0,0.0,1.2795233,0.0,0.0,0.0,0.7747767,0.0,0.0,0.0,0.5744891,799.81683,1395.751,1083.0769,788.5348,680.9524,-0.2874755859375,0.02984619140625,0.94757080078125,1.98883056640625,-3.641204833984375,0.441131591796875,1.0,4.0,4.0,4.0,1.0,100.0,event
09:27:40.402,0.0,0.0,0.0,1.2202492,0.0,0.0,0.0,1.4157766,0.0,0.0,0.0,1.2795233,0.0,0.0,0.0,0.7747767,0.0,0.0,0.0,0.5744891,0.0,585.05493,641.4652,779.2674,707.5458,-0.2874755859375,0.02984619140625,0.94757080078125,1.98883056640625,-3.641204833984375,0.441131591796875,1.0,4.0,4.0,4.0,1.0,100.0,event
09:27:40.403,0.0,0.0,0.0,1.2202492,0.0,0.0,0.0,1.4157766,0.0,0.0,0.0,1.2795233,0.0,0.0,0.0,0.7747767,0.0,0.0,0.0,0.5744891,96.7033,372.71063,523.00366,791.75824,729.707,-0.2874755859375,0.02984619140625,0.94757080078125,1.98883056640625,-3.641204833984375,0.441131591796875,1.0,4.0,4.0,4.0,1.0,100.0,event
09:27:40.404,0.0,0.0,0.0,1.2202492,0.0,0.0,0.0,1.4157766,0.0,0.0,0.0,1.2795233,0.0,0.0,0.0,0.7747767,0.0,0.0,0.0,0.5744891,1249.4872,1237.8022,948.9011,808.2784,748.24176,-0.2874755859375,0.02984619140625,0.94757080078125,1.98883056640625,-3.641204833984375,0.441131591796875,1.0,4.0,4.0,4.0,1.0,100.0,event
09:27:40.405,0.0,0.0,0.0,1.2202492,0.0,0.0,0.0,1.4157766,0.0,0.0,0.0,1.2795233,0.0,0.0,0.0,0.7747767,0.0,0.0,0.0,0.5744891,138.20512,46.336998,1067.3627,809.89014,820.3663,-0.2874755859375,0.02984619140625,0.94757080078125,1.98883056640625,-3.641204833984375,0.441131591796875,1.0,4.0,4.0,4.0,1.0,100.0,event
09:27:40.406,0.0,0.0,0.0,1.2202492,0.0,0.0,0.0,1.4157766,0.0,0.0,0.0,1.2795233,0.0,0.0,0.0,0.7747767,0.0,0.0,0.0,0.5744891,944.87177,1056.4835,627.76556,793.7729,799.81683,-0.2874755859375,0.02984619140625,0.94757080078125,1.98883056640625,-3.641204833984375,0.441131591796875,1.0,4.0,4.0,4.0,1.0,100.0,event
09:27:40.407,0.0,0.0,0.0,1.2202492,0.0,0.0,0.0,1.4157766,0.0,0.0,0.0,1.2795233,0.0,0.0,0.0,0.7747767,0.0,0.0,0.0,0.5744891,0.0,98.31502,73.333336,786.9231,1044.7986,-0.2874755859375,0.02984619140625,0.94757080078125,1.98883056640625,-3.641204833984375,0.441131591796875,1.0,4.0,4.0,4.0,1.0,100.0,event
09:27:40.407,0.0,0.0,0.0,1.2202492,0.0,0.0,0.0,1.4157766,0.0,0.0,0.0,1.2795233,0.0,0.0,0.0,0.7747767,0.0,0.0,0.0,0.5744891,45.934067,276.00732,301.39194,805.4579,1013.36993,-0.2874755859375,0.02984619140625,0.94757080078125,1.98883056640625,-3.641204833984375,0.441131591796875,1.0,4.0,4.0,4.0,1.0,100.0,event
09:27:40.408,0.0,0.0,0.0,1.2202492,0.0,0.0,0.0,1.4157766,0.0,0.0,0.0,1.2795233,0.0,0.0,0.0,0.7747767,0.0,0.0,0.0,0.5744891,1164.8718,1235.3846,1016.5934,811.9048,676.1172,-0.2874755859375,0.02984619140625,0.94757080078125,1.98883056640625,-3.641204833984375,0.441131591796875,1.0,4.0,4.0,4.0,1.0,100.0,event
09:27:40.409,0.0,0.0,0.0,1.2202492,0.0,0.0,0.0,1.4157766,0.0,0.0,0.0,1.2795233,0.0,0.0,0.0,0.7747767,0.0,0.0,0.0,0.5744891,149.8901,1629.4506,1182.1978,821.978,702.71063,-0.2874755859375,0.02984619140625,0.94757080078125,1.98883056640625,-3.641204833984375,0.441131591796875,1.0,4.0,4.0,4.0,1.0,100.0,event
09:27:40.410,0.0,0.0,0.0,1.2202492,0.0,0.0,0.0,1.4157766,0.0,0.0,0.0,1.2795233,0.0,0.0,0.0,0.7747767,0.0,0.0,0.0,0.5744891,1219.2675,1301.0623,919.0842,796.5934,767.5824,-0.2874755859375,0.02984619140625,0.94757080078125,1.98883056640625,-3.641204833984375,0.441131591796875,1.0,4.0,4.0,4.0,1.0,100.0,event
09:27:40.465,0.0,0.0,0.0,1.2202492,0.0,0.0,0.0,1.4157766,0.0,0.0,0.0,1.2795233,0.0,0.0,0.0,0.7747767,0.0,0.0,0.0,0.5744891,131.75824,690.2198,699.4872,776.4469,670.07324,-0.28533935546875,0.03070068359375,0.9508056640625,2.743988037109375,-2.818756103515625,0.351409912109375,1.0,4.0,4.0,4.0,1.0,100.0,event
09:27:40.466,0.0,0.0,0.0,1.2202492,0.0,0.0,0.0,1.4157766,0.0,0.0,0.0,1.2795233,0.0,0.0,0.0,0.7747767,0.0,0.0,0.0,0.5744891,0.0,583.44324,756.7033,797.8022,658.3883,-0.28533935546875,0.03070068359375,0.9508056640625,2.743988037109375,-2.818756103515625,0.351409912109375,1.0,4.0,4.0,4.0,1.0,100.0,event
09:27:40.467,0.0,0.0,0.0,1.2202492,0.0,0.0,0.0,1.4157766,0.0,0.0,0.0,1.2795233,0.0,0.0,0.0,0.7747767,0.0,0.0,0.0,0.5744891,978.315,975.4945,817.1429,807.47253,727.28937,-0.28533935546875,0.03070068359375,0.9508056640625,2.743988037109375,-2.818756103515625,0.351409912109375,1.0,4.0,4.0,4.0,1.0,100.0,event
09:27:40.467,0.0,0.0,0.0,1.2202492,0.0,0.0,0.0,1.4157766,0.0,0.0,0.0,1.2795233,0.0,0.0,0.0,0.7747767,0.0,0.0,0.0,0.5744891,123.2967,1519.8535,1070.1831,806.26373,811.50183,-0.28533935546875,0.03070068359375,0.9508056640625,2.743988037109375,-2.818756103515625,0.351409912109375,1.0,4.0,4.0,4.0,1.0,100.0,event
09:27:40.470,0.0,0.0,0.0,1.2202492,0.0,0.0,0.0,1.4157766,0.0,0.0,0.0,1.2795233,0.0,0.0,0.0,0.7747767,0.0,0.0,0.0,0.5744891,1357.8755,1569.414,1139.8901,803.0403,842.1245,-0.28533935546875,0.03070068359375,0.9508056640625,2.743988037109375,-2.818756103515625,0.351409912109375,1.0,4.0,4.0,4.0,1.0,100.0,event
09:27:40.471,0.0,0.0,0.0,1.2202492,0.0,0.0,0.0,1.4157766,0.0,0.0,0.0,1.2795233,0.0,0.0,0.0,0.7747767,0.0,0.0,0.0,0.5744891,253.44322,691.8315,651.53845,786.52014,805.4579,-0.28533935546875,0.03070068359375,0.9508056640625,2.743988037109375,-2.818756103515625,0.351409912109375,1.0,4.0,4.0,4.0,1.0,100.0,event
09:27:40.471,0.0,0.0,0.0,1.2202492,0.0,0.0,0.0,1.4157766,0.0,0.0,0.0,1.2795233,0.0,0.0,0.0,0.7747767,0.0,0.0,0.0,0.5744891,0.0,0.0,199.04762,789.7436,925.12823,-0.28533935546875,0.03070068359375,0.9508056640625,2.743988037109375,-2.818756103515625,0.351409912109375,1.0,4.0,4.0,4.0,1.0,100.0,event
09:27:40.471,0.0,0.0,0.0,1.2202492,0.0,0.0,0.0,1.4157766,0.0,0.0,0.0,1.2795233,0.0,0.0,0.0,0.7747767,0.0,0.0,0.0,0.5744891,579.41394,267.54578,195.42125,805.4579,1006.9231,-0.28533935546875,0.03070068359375,0.9508056640625,2.743988037109375,-2.818756103515625,0.351409912109375,1.0,4.0,4.0,4.0,1.0,100.0,event
09:27:40.472,0.0,0.0,0.0,1.2202492,0.0,0.0,0.0,1.4157766,0.0,0.0,0.0,1.2795233,0.0,0.0,0.0,0.7747767,0.0,0.0,0.0,0.5744891,23.369963,1460.2197,1073.8096,804.2491,798.20514,-0.28533935546875,0.03070068359375,0.9508056640625,2.743988037109375,-2.818756103515625,0.351409912109375,1.0,4.0,4.0,4.0,1.0,100.0,event
09:27:40.472,0.0,0.0,0.0,1.2202492,0.0,0.0,0.0,1.4157766,0.0,0.0,0.0,1.2795233,0.0,0.0,0.0,0.7747767,0.0,0.0,0.0,0.5744891,1473.1135,1552.4908,1142.7106,799.011,741.39197,-0.28533935546875,0.03070068359375,0.9508056640625,2.743988037109375,-2.818756103515625,0.351409912109375,1.0,4.0,4.0,4.0,1.0,100.0,event
09:27:40.473,0.0,0.0,0.0,1.2202492,0.0,0.0,0.0,1.4157766,0.0,0.0,0.0,1.2795233,0.0,0.0,0.0,0.7747767,0.0,0.0,0.0,0.5744891,272.38095,412.60074,409.3773,794.9817,855.0183,-0.28533935546875,0.03070068359375,0.9508056640625,2.743988037109375,-2.818756103515625,0.351409912109375,1.0,4.0,4.0,4.0,1.0,100.0,event
09:27:40.473,0.0,0.0,0.0,1.2202492,0.0,0.0,0.0,1.4157766,0.0,0.0,0.0,1.2795233,0.0,0.0,0.0,0.7747767,0.0,0.0,0.0,0.5744891,0.0,132.5641,417.03296,787.326,798.20514,-0.28533935546875,0.03070068359375,0.9508056640625,2.743988037109375,-2.818756103515625,0.351409912109375,1.0,4.0,4.0,4.0,1.0,100.0,event
09:27:40.504,0.0,0.0,0.0,1.2202492,0.0,0.0,0.0,1.4157766,0.0,0.0,0.0,1.2795233,0.0,0.0,0.0,0.7747767,0.0,0.0,0.0,0.5744891,558.86444,992.01465,956.9597,797.3993,711.978,-0.28619384765625,0.03094482421875,0.94403076171875,2.041168212890625,-4.66552734375,0.64300537109375,1.0,4.0,4.0,4.0,1.0,100.0,event
09:27:40.505,0.0,0.0,0.0,1.2202492,0.0,0.0,0.0,1.4157766,0.0,0.0,0.0,1.2795233,0.0,0.0,0.0,0.7747767,0.0,0.0,0.0,0.5744891,1634.2858,1602.8572,1278.9011,811.50183,823.9927,-0.28619384765625,0.03094482421875,0.94403076171875,2.041168212890625,-4.66552734375,0.64300537109375,1.0,4.0,4.0,4.0,1.0,100.0,event
09:27:40.506,0.0,0.0,0.0,1.2202492,0.0,0.0,0.0,1.4157766,0.0,0.0,0.0,1.2795233,0.0,0.0,0.0,0.7747767,0.0,0.0,0.0,0.5744891,1516.63,1141.9048,784.5055,812.71063,996.04395,-0.28619384765625,0.03094482421875,0.94403076171875,2.041168212890625,-4.66552734375,0.64300537109375,1.0,4.0,4.0,4.0,1.0,100.0,event
09:27:40.507,0.0,0.0,0.0,1.2202492,0.0,0.0,0.0,1.4157766,0.0,0.0,0.0,1.2795233,0.0,0.0,0.0,0.7747767,0.0,0.0,0.0,0.5744891,0.0,493.1868,690.2198,785.7143,627.3626,-0.28619384765625,0.03094482421875,0.94403076171875,2.041168212890625,-4.66552734375,0.64300537109375,1.0,4.0,4.0,4.0,1.0,100.0,event
09:27:40.507,0.0,0.0,0.0,1.2202492,0.0,0.0,0.0,1.4157766,0.0,0.0,0.0,1.2795233,0.0,0.0,0.0,0.7747767,0.0,0.0,0.0,0.5744891,330.40292,592.3077,503.26007,796.99634,849.7802,-0.28619384765625,0.03094482421875,0.94403076171875,2.041168212890625,-4.66552734375,0.64300537109375,1.0,4.0,4.0,4.0,1.0,100.0,event
09:27:40.508,0.0,0.0,0.0,1.2202492,0.0,0.0,0.0,1.4157766,0.0,0.0,0.0,1.2795233,0.0,0.0,0.0,0.7747767,0.0,0.0,0.0,0.5744891,261.50183,531.06226,578.60803,797.8022,759.5238,-0.28619384765625,0.03094482421875,0.94403076171875,2.041168212890625,-4.66552734375,0.64300537109375,1.0,4.0,4.0,4.0,1.0,100.0,event
09:27:40.509,0.0,0.0,0.0,1.2202492,0.0,0.0,0.0,1.4157766,0.0,0.0,0.0,1.2795233,0.0,0.0,0.0,0.7747767,0.0,0.0,0.0,0.5744891,1452.1611,709.9634,424.2857,817.9487,1046.0073,-0.28619384765625,0.03094482421875,0.94403076171875,2.041168212890625,-4.66552734375,0.64300537109375,1.0,4.0,4.0,4.0,1.0,100.0,event
09:27:40.509,0.0,0.0,0.0,1.2202492,0.0,0.0,0.0,1.4157766,0.0,0.0,0.0,1.2795233,0.0,0.0,0.0,0.7747767,0.0,0.0,0.0,0.5744891,1624.6154,1316.7766,790.9524,803.0403,852.1978,-0.28619384765625,0.03094482421875,0.94403076171875,2.041168212890625,-4.66552734375,0.64300537109375,1.0,4.0,4.0,4.0,1.0,100.0,event
09:27:40.510,0.0,0.0,0.0,1.2202492,0.0,0.0,0.0,1.4157766,0.0,0.0,0.0,1.2795233,0.0,0.0,0.0,0.7747767,0.0,0.0,0.0,0.5744891,391.64835,1143.9194,877.5824,786.52014,606.0073,-0.28619384765625,0.03094482421875,0.94403076171875,2.041168212890625,-4.66552734375,0.64300537109375,1.0,4.0,4.0,4.0,1.0,100.0,event
09:27:40.511,0.0,0.0,0.0,1.2202492,0.0,0.0,0.0,1.4157766,0.0,0.0,0.0,1.2795233,0.0,0.0,0.0,0.7747767,0.0,0.0,0.0,0.5744891,0.0,324.35898,520.58606,793.7729,636.2271,-0.28619384765625,0.03094482421875,0.94403076171875,2.041168212890625,-4.66552734375,0.64300537109375,1.0,4.0,4.0,4.0,1.0,100.0,event
09:27:40.511,0.0,0.0,0.0,1.2202492,0.0,0.0,0.0,1.4157766,0.0,0.0,0.0,1.2795233,0.0,0.0,0.0,0.7747767,0.0,0.0,0.0,0.5744891,211.53847,514.1392,584.65204,803.0403,691.02563,-0.28619384765625,0.03094482421875,0.94403076171875,2.041168212890625,-4.66552734375,0.64300537109375,1.0,4.0,4.0,4.0,1.0,100.0,event
09:27:40.512,0.0,0.0,0.0,1.2202492,0.0,0.0,0.0,1.4157766,0.0,0.0,0.0,1.2795233,0.0,0.0,0.0,0.7747767,0.0,0.0,0.0,0.5744891,1393.7362,1423.956,1100.8059,814.7253,731.31866,-0.28619384765625,0.03094482421875,0.94403076171875,2.041168212890625,-4.66552734375,0.64300537109375,1.0,4.0,4.0,4.0,1.0,100.0,event
09:27:40.538,0.0,0.0,0.0,1.2202492,0.0,0.0,0.0,1.4157766,0.0,0.0,0.0,1.2795233,0.0,0.0,0.0,0.7747767,0.0,0.0,0.0,0.5744891,23.369963,67.69231,1282.5275,817.5458,733.3333,-0.28192138671875,0.034423828125,0.95050048828125,2.6318359375,-3.72344970703125,-0.052337646484375,1.0,4.0,4.0,4.0,1.0,100.0,event
09:27:40.539,0.0,0.0,0.0,1.2202492,0.0,0.0,0.0,1.4157766,0.0,0.0,0.0,1.2795233,0.0,0.0,0.0,0.7747767,0.0,0.0,0.0,0.5744891,469.4139,981.13556,740.18317,800.6227,768.7912,-0.28192138671875,0.034423828125,0.95050048828125,2.6318359375,-3.72344970703125,-0.052337646484375,1.0,4.0,4.0,4.0,1.0,100.0,event
09:27:40.540,0.0,0.0,0.0,1.2202492,0.0,0.0,0.0,1.4157766,0.0,0.0,0.0,1.2795233,0.0,0.0,0.0,0.7747767,0.0,0.0,0.0,0.5744891,0.0,142.63736,330.40292,780.07324,796.1905,-0.28192138671875,0.034423828125,0.95050048828125,2.6318359375,-3.72344970703125,-0.052337646484375,1.0,4.0,4.0,4.0,1.0,100.0,event
09:27:40.540,0.0,0.0,0.0,1.2202492,0.0,0.0,0.0,1.4157766,0.0,0.0,0.0,1.2795233,0.0,0.0,0.0,0.7747767,0.0,0.0,0.0,0.5744891,151.90475,545.56775,653.5531,786.52014,686.99634,-0.28192138671875,0.034423828125,0.95050048828125,2.6318359375,-3.72344970703125,-0.052337646484375,1.0,4.0,4.0,4.0,1.0,100.0,event
09:27:40.541,0.0,0.0,0.0,1.2202492,0.0,0.0,0.0,1.4157766,0.0,0.0,0.0,1.2795233,0.0,0.0,0.0,0.7747767,0.0,0.0,0.0,0.5744891,1338.9377,1481.5751,1095.5677,809.89014,649.92676,-0.28192138671875,0.034423828125,0.95050048828125,2.6318359375,-3.72344970703125,-0.052337646484375,1.0,4.0,4.0,4.0,1.0,100.0,event
09:27:40.541,0.0,0.0,0.0,1.2202492,0.0,0.0,0.0,1.4157766,0.0,0.0,0.0,1.2795233,0.0,0.0,0.0,0.7747767,0.0,0.0,0.0,0.5744891,48.35165,1475.5311,895.31134,809.0842,932.7839,-0.28192138671875,0.034423828125,0.95050048828125,2.6318359375,-3.72344970703125,-0.052337646484375,1.0,4.0,4.0,4.0,1.0,100.0,event
09:27:40.546,0.0,0.0,0.0,1.2202492,0.0,0.0,0.0,1.4157766,0.0,0.0,0.0,1.2795233,0.0,0.0,0.0,0.7747767,0.0,0.0,0.0,0.5744891,516.55676,469.4139,265.53113,793.7729,1095.1648,-0.28192138671875,0.034423828125,0.95050048828125,2.6318359375,-3.72344970703125,-0.052337646484375,1.0,4.0,4.0,4.0,1.0,100.0,event
09:27:40.547,0.0,0.0,0.0,1.2202492,0.0,0.0,0.0,1.4157766,0.0,0.0,0.0,1.2795233,0.0,0.0,0.0,0.7747767,0.0,0.0,0.0,0.5744891,0.0,299.3773,469.011,786.52014,793.7729,-0.28192138671875,0.034423828125,0.95050048828125,2.6318359375,-3.72344970703125,-0.052337646484375,1.0,4.0,4.0,4.0,1.0,100.0,event
09:27:40.548,0.0,0.0,0.0,1.2202492,0.0,0.0,0.0,1.4157766,0.0,0.0,0.0,1.2795233,0.0,0.0,0.0,0.7747767,0.0,0.0,0.0,0.5744891,134.57875,747.4359,848.1685,793.36993,727.6923,-0.28192138671875,0.034423828125,0.95050048828125,2.6318359375,-3.72344970703125,-0.052337646484375,1.0,4.0,4.0,4.0,1.0,100.0,event
09:27:40.549,0.0,0.0,0.0,1.2202492,0.0,0.0,0.0,1.4157766,0.0,0.0,0.0,1.2795233,0.0,0.0,0.0,0.7747767,0.0,0.0,0.0,0.5744891,1247.0696,1049.2307,797.3993,817.1429,895.31134,-0.28192138671875,0.034423828125,0.95050048828125,2.6318359375,-3.72344970703125,-0.052337646484375,1.0,4.0,4.0,4.0,1.0,100.0,event
09:27:40.549,0.0,0.0,0.0,1.2202492,0.0,0.0,0.0,1.4157766,0.0,0.0,0.0,1.2795233,0.0,0.0,0.0,0.7747767,0.0,0.0,0.0,0.5744891,137.39926,1481.1721,959.7802,825.2015,831.6484,-0.28192138671875,0.034423828125,0.95050048828125,2.6318359375,-3.72344970703125,-0.052337646484375,1.0,4.0,4.0,4.0,1.0,100.0,event
09:27:40.550,0.0,0.0,0.0,1.2202492,0.0,0.0,0.0,1.4157766,0.0,0.0,0.0,1.2795233,0.0,0.0,0.0,0.7747767,0.0,0.0,0.0,0.5744891,933.1868,1448.9377,1015.78754,797.8022,746.2271,-0.28192138671875,0.034423828125,0.95050048828125,2.6318359375,-3.72344970703125,-0.052337646484375,1.0,4.0,4.0,4.0,1.0,100.0,event
09:27:40.577,0.0,0.0,0.0,1.2202492,0.0,0.0,0.0,1.4157766,0.0,0.0,0.0,1.2795233,0.0,0.0,0.0,0.7747767,0.0,0.0,0.0,0.5744891,0.0,677.326,704.7253,792.1612,779.2674,-0.28192138671875,0.034423828125,0.95050048828125,2.6318359375,-3.72344970703125,-0.052337646484375,1.0,4.0,4.0,4.0,1.0,100.0,event
09:27:40.578,0.0,0.0,0.0,1.2202492,0.0,0.0,0.0,1.4157766,0.0,0.0,0.0,1.2795233,0.0,0.0,0.0,0.7747767,0.0,0.0,0.0,0.5744891,49.15751,367.87546,517.3626,795.38464,801.4286,-0.28192138671875,0.034423828125,0.95050048828125,2.6318359375,-3.72344970703125,-0.052337646484375,1.0,4.0,4.0,4.0,1.0,100.0,event
09:27:40.578,0.0,0.0,0.0,1.2202492,0.0,0.0,0.0,1.4157766,0.0,0.0,0.0,1.2795233,0.0,0.0,0.0,0.7747767,0.0,0.0,0.0,0.5744891,1180.989,1123.773,891.28204,805.05493,780.4762,-0.28192138671875,0.034423828125,0.95050048828125,2.6318359375,-3.72344970703125,-0.052337646484375,1.0,4.0,4.0,4.0,1.0,100.0,event
09:27:40.579,0.0,0.0,0.0,1.2202492,0.0,0.0,0.0,1.4157766,0.0,0.0,0.0,1.2795233,0.0,0.0,0.0,0.7747767,0.0,0.0,0.0,0.5744891,153.91942,67.289375,1269.2307,819.5604,772.4176,-0.28192138671875,0.034423828125,0.95050048828125,2.6318359375,-3.72344970703125,-0.052337646484375,1.0,4.0,4.0,4.0,1.0,100.0,event
09:27:40.580,0.0,0.0,0.0,1.2202492,0.0,0.0,0.0,1.4157766,0.0,0.0,0.0,1.2795233,0.0,0.0,0.0,0.7747767,0.0,0.0,0.0,0.5744891,1109.6703,1378.022,927.1429,792.1612,862.27106,-0.28192138671875,0.034423828125,0.95050048828125,2.6318359375,-3.72344970703125,-0.052337646484375,1.0,4.0,4.0,4.0,1.0,100.0,event
09:27:40.583,0.0,0.0,0.0,1.2202492,0.0,0.0,0.0,1.4157766,0.0,0.0,0.0,1.2795233,0.0,0.0,0.0,0.7747767,0.0,0.0,0.0,0.5744891,69.30403,305.0183,325.9707,786.9231,967.4359,-0.28192138671875,0.034423828125,0.95050048828125,2.6318359375,-3.72344970703125,-0.052337646484375,1.0,4.0,4.0,4.0,1.0,100.0,event
09:27:40.584,0.0,0.0,0.0,1.2202492,0.0,0.0,0.0,1.4157766,0.0,0.0,0.0,1.2795233,0.0,0.0,0.0,0.7747767,0.0,0.0,0.0,0.5744891,0.0,62.857143,284.46887,790.9524,904.9817,-0.28192138671875,0.034423828125,0.95050048828125,2.6318359375,-3.72344970703125,-0.052337646484375,1.0,4.0,4.0,4.0,1.0,100.0,event
09:27:40.585,0.0,0.0,0.0,1.2202492,0.0,0.0,0.0,1.4157766,0.0,0.0,0.0,1.2795233,0.0,0.0,0.0,0.7747767,0.0,0.0,0.0,0.5744891,1003.2967,864.2857,685.38464,799.41394,818.3516,-0.28192138671875,0.034423828125,0.95050048828125,2.6318359375,-3.72344970703125,-0.052337646484375,1.0,4.0,4.0,4.0,1.0,100.0,event
09:27:40.586,0.0,0.0,0.0,1.2202492,0.0,0.0,0.0,1.4157766,0.0,0.0,0.0,1.2795233,0.0,0.0,0.0,0.7747767,0.0,0.0,0.0,0.5744891,149.48718,1534.359,1043.9927,818.7546,852.1978,-0.28192138671875,0.034423828125,0.95050048828125,2.6318359375,-3.72344970703125,-0.052337646484375,1.0,4.0,4.0,4.0,1.0,100.0,event
09:27:40.587,0.0,0.0,0.0,1.2202492,0.0,0.0,0.0,1.4157766,0.0,0.0,0.0,1.2795233,0.0,0.0,0.0,0.7747767,0.0,0.0,0.0,0.5744891,1156.0073,710.3663,405.348,801.8315,1089.9268,-0.28192138671875,0.034423828125,0.95050048828125,2.6318359375,-3.72344970703125,-0.052337646484375,1.0,4.0,4.0,4.0,1.0,100.0,event
09:27:40.588,0.0,0.0,0.0,1.2202492,0.0,0.0,0.0,1.4157766,0.0,0.0,0.0,1.2795233,0.0,0.0,0.0,0.7747767,0.0,0.0,0.0,0.5744891,90.25641,172.85715,292.12454,782.0879,983.1502,-0.28192138671875,0.034423828125,0.95050048828125,2.6318359375,-3.72344970703125,-0.052337646484375,1.0,4.0,4.0,4.0,1.0,100.0,event
09:27:40.589,0.0,0.0,0.0,1.2202492,0.0,0.0,0.0,1.4157766,0.0,0.0,0.0,1.2795233,0.0,0.0,0.0,0.7747767,0.0,0.0,0.0,0.5744891,0.0,576.99634,772.4176,785.31134,697.8755,-0.28192138671875,0.034423828125,0.95050048828125,2.6318359375,-3.72344970703125,-0.052337646484375,1.0,4.0,4.0,4.0,1.0,100.0,event
09:27:40.653,0.0,0.0,0.0,1.2202492,0.0,0.0,0.0,1.4157766,0.0,0.0,0.0,1.2795233,0.0,0.0,0.0,0.7747767,0.0,0.0,0.0,0.5744891,824.7985,974.68866,854.61536,804.2491,715.2015,-0.277099609375,0.032470703125,0.953857421875,1.95892333984375,-3.7982177734375,0.889739990234375,1.0,4.0,4.0,4.0,1.0,100.0,event
09:27:40.654,0.0,0.0,0.0,1.2202492,0.0,0.0,0.0,1.4157766,0.0,0.0,0.0,1.2795233,0.0,0.0,0.0,0.7747767,0.0,0.0,0.0,0.5744891,85.01832,1525.8975,1112.4908,807.47253,787.72894,-0.277099609375,0.032470703125,0.953857421875,1.95892333984375,-3.7982177734375,0.889739990234375,1.0,4.0,4.0,4.0,1.0,100.0,event
09:27:40.655,0.0,0.0,0.0,1.2202492,0.0,0.0,0.0,1.4157766,0.0,0.0,0.0,1.2795233,0.0,0.0,0.0,0.7747767,0.0,0.0,0.0,0.5744891,1440.8792,1585.1282,1109.6703,780.87915,738.1685,-0.277099609375,0.032470703125,0.953857421875,1.95892333984375,-3.7982177734375,0.889739990234375,1.0,4.0,4.0,4.0,1.0,100.0,event
09:27:40.655,0.0,0.0,0.0,1.2202492,0.0,0.0,0.0,1.4157766,0.0,0.0,0.0,1.2795233,0.0,0.0,0.0,0.7747767,0.0,0.0,0.0,0.5744891,289.70697,970.2564,841.31866,771.2088,723.663,-0.277099609375,0.032470703125,0.953857421875,1.95892333984375,-3.7982177734375,0.889739990234375,1.0,4.0,4.0,4.0,1.0,100.0,event
09:27:40.656,0.0,0.0,0.0,1.2202492,0.0,0.0,0.0,1.4157766,0.0,0.0,0.0,1.2795233,0.0,0.0,0.0,0.7747767,0.0,0.0,0.0,0.5744891,0.0,376.73993,596.337,790.9524,782.8938,-0.277099609375,0.032470703125,0.953857421875,1.95892333984375,-3.7982177734375,0.889739990234375,1.0,4.0,4.0,4.0,1.0,100.0,event
09:27:40.657,0.0,0.0,0.0,1.2202492,0.0,0.0,0.0,1.4157766,0.0,0.0,0.0,1.2795233,0.0,0.0,0.0,0.7747767,0.0,0.0,0.0,0.5744891,594.7253,622.52747,579.41394,801.8315,867.50916,-0.277099609375,0.032470703125,0.953857421875,1.95892333984375,-3.7982177734375,0.889739990234375,1.0,4.0,4.0,4.0,1.0,100.0,event
09:27:40.657,0.0,0.0,0.0,1.2202492,0.0,0.0,0.0,1.4157766,0.0,0.0,0.0,1.2795233,0.0,0.0,0.0,0.7747767,0.0,0.0,0.0,0.5744891,1648.7913,1420.3297,874.35895,809.4872,869.12085,-0.277099609375,0.032470703125,0.953857421875,1.95892333984375,-3.7982177734375,0.889739990234375,1.0,4.0,4.0,4.0,1.0,100.0,event
09:27:40.658,0.0,0.0,0.0,0.4547229,0.0,0.0,0.0,0.41623783,0.0,0.0,0.0,0.3052052,0.0,0.0,0.0,0.5874484,0.0,0.0,0.0,0.48381072,1515.4213,1648.3883,1017.8022,806.26373,775.64105,-0.277099609375,0.032470703125,0.953857421875,1.95892333984375,-3.7982177734375,0.889739990234375,1.0,4.0,4.0,4.0,1.0,100.0,event
09:27:40.662,0.0,0.0,0.0,0.4547229,0.0,0.0,0.0,0.41623783,0.0,0.0,0.0,0.3052052,0.0,0.0,0.0,0.5874484,0.0,0.0,0.0,0.48381072,329.19415,656.3736,500.43958,789.7436,927.9487,-0.277099609375,0.032470703125,0.953857421875,1.95892333984375,-3.7982177734375,0.889739990234375,1.0,4.0,4.0,4.0,1.0,100.0,event
09:27:40.663,0.0,0.0,0.0,0.4547229,0.0,0.0,0.0,0.41623783,0.0,0.0,0.0,0.3052052,0.0,0.0,0.0,0.5874484,0.0,0.0,0.0,0.48381072,0.0,0.0,15.714286,796.1905,1091.9414,-0.277099609375,0.032470703125,0.953857421875,1.95892333984375,-3.7982177734375,0.889739990234375,1.0,4.0,4.0,4.0,1.0,100.0,event
09:27:40.664,0.0,0.0,0.0,0.4547229,0.0,0.0,0.0,0.41623783,0.0,0.0,0.0,0.3052052,0.0,0.0,0.0,0.5874484,0.0,0.0,0.0,0.48381072,415.8242,755.89746,648.71796,807.0696,763.95605,-0.277099609375,0.032470703125,0.953857421875,1.95892333984375,-3.7982177734375,0.889739990234375,1.0,4.0,4.0,4.0,1.0,100.0,event
09:27:40.664,0.0,0.0,0.0,0.4547229,0.0,0.0,0.0,0.41623783,0.0,0.0,0.0,0.3052052,0.0,0.0,0.0,0.5874484,0.0,0.0,0.0,0.48381072,1548.4615,1560.9524,1237.8022,805.4579,685.38464,-0.277099609375,0.032470703125,0.953857421875,1.95892333984375,-3.7982177734375,0.889739990234375,1.0,4.0,4.0,4.0,1.0,100.0,event
09:27:40.693,0.0,0.0,0.0,0.4547229,0.0,0.0,0.0,0.41623783,0.0,0.0,0.0,0.3052052,0.0,0.0,0.0,0.5874484,0.0,0.0,0.0,0.48381072,1589.5604,1484.3956,1010.9524,794.9817,812.3077,-0.28619384765625,0.029296875,0.94293212890625,2.130889892578125,-2.594451904296875,0.411224365234375,1.0,4.0,4.0,4.0,1.0,100.0,event
09:27:40.694,0.0,0.0,0.0,0.4547229,0.0,0.0,0.0,0.41623783,0.0,0.0,0.0,0.3052052,0.0,0.0,0.0,0.5874484,0.0,0.0,0.0,0.48381072,390.8425,974.68866,735.7509,794.57874,645.09155,-0.28619384765625,0.029296875,0.94293212890625,2.130889892578125,-2.594451904296875,0.411224365234375,1.0,4.0,4.0,4.0,1.0,100.0,event
09:27:40.695,0.0,0.0,0.0,0.4547229,0.0,0.0,0.0,0.41623783,0.0,0.0,0.0,0.3052052,0.0,0.0,0.0,0.5874484,0.0,0.0,0.0,0.48381072,0.0,583.44324,731.7216,796.99634,614.0659,-0.28619384765625,0.029296875,0.94293212890625,2.130889892578125,-2.594451904296875,0.411224365234375,1.0,4.0,4.0,4.0,1.0,100.0,event
09:27:40.696,0.0,0.0,0.0,0.4547229,0.0,0.0,0.0,0.41623783,0.0,0.0,0.0,0.3052052,0.0,0.0,0.0,0.5874484,0.0,0.0,0.0,0.48381072,215.56776,749.0476,771.2088,799.011,774.83514,-0.28619384765625,0.029296875,0.94293212890625,2.130889892578125,-2.594451904296875,0.411224365234375,1.0,4.0,4.0,4.0,1.0,100.0,event
09:27:40.697,0.0,0.0,0.0,0.4547229,0.0,0.0,0.0,0.41623783,0.0,0.0,0.0,0.3052052,0.0,0.0,0.0,0.5874484,0.0,0.0,0.0,0.48381072,1397.3627,1280.5128,874.35895,817.9487,894.90845,-0.28619384765625,0.029296875,0.94293212890625,2.130889892578125,-2.594451904296875,0.411224365234375,1.0,4.0,4.0,4.0,1.0,100.0,event
09:27:40.697,0.0,0.0,0.0,0.4547229,0.0,0.0,0.0,0.41623783,0.0,0.0,0.0,0.3052052,0.0,0.0,0.0,0.5874484,0.0,0.0,0.0,0.48381072,1581.9048,1521.0623,893.69965,815.5311,883.6264,-0.28619384765625,0.029296875,0.94293212890625,2.130889892578125,-2.594451904296875,0.411224365234375,1.0,4.0,4.0,4.0,1.0,100.0,event
09:27:40.698,0.0,0.0,0.0,0.4547229,0.0,0.0,0.0,0.41623783,0.0,0.0,0.0,0.3052052,0.0,0.0,0.0,0.5874484,0.0,0.0,0.0,0.48381072,419.45056,983.1502,676.52014,798.20514,831.6484,-0.28619384765625,0.029296875,0.94293212890625,2.130889892578125,-2.594451904296875,0.411224365234375,1.0,4.0,4.0,4.0,1.0,100.0,event
09:27:40.698,0.0,0.0,0.0,0.4547229,0.0,0.0,0.0,0.41623783,0.0,0.0,0.0,0.3052052,0.0,0.0,0.0,0.5874484,0.0,0.0,0.0,0.48381072,0.0,200.25641,379.56042,785.31134,756.7033,-0.28619384765625,0.029296875,0.94293212890625,2.130889892578125,-2.594451904296875,0.411224365234375,1.0,4.0,4.0,4.0,1.0,100.0,event
09:27:40.699,0.0,0.0,0.0,0.4547229,0.0,0.0,0.0,0.41623783,0.0,0.0,0.0,0.3052052,0.0,0.0,0.0,0.5874484,0.0,0.0,0.0,0.48381072,174.46887,344.5055,433.5531,786.1172,762.3443,-0.28619384765625,0.029296875,0.94293212890625,2.130889892578125,-2.594451904296875,0.411224365234375,1.0,4.0,4.0,4.0,1.0,100.0,event
09:27:40.700,0.0,0.0,0.0,0.4547229,0.0,0.0,0.0,0.41623783,0.0,0.0,0.0,0.3052052,0.0,0.0,0.0,0.5874484,0.0,0.0,0.0,0.48381072,1354.249,1391.7216,1080.2565,811.9048,771.2088,-0.28619384765625,0.029296875,0.94293212890625,2.130889892578125,-2.594451904296875,0.411224365234375,1.0,4.0,4.0,4.0,1.0,100.0,event
09:27:40.700,0.0,0.0,0.0,0.4547229,0.0,0.0,0.0,0.41623783,0.0,0.0,0.0,0.3052052,0.0,0.0,0.0,0.5874484,0.0,0.0,0.0,0.48381072,62.454212,64.468864,1287.7656,809.4872,719.2308,-0.28619384765625,0.029296875,0.94293212890625,2.130889892578125,-2.594451904296875,0.411224365234375,1.0,4.0,4.0,4.0,1.0,100.0,event
09:27:40.701,0.0,0.0,0.0,0.4547229,0.0,0.0,0.0,0.41623783,0.0,0.0,0.0,0.3052052,0.0,0.0,0.0,0.5874484,0.0,0.0,0.0,0.48381072,579.41394,1041.978,732.9304,780.4762,822.7839,-0.28619384765625,0.029296875,0.94293212890625,2.130889892578125,-2.594451904296875,0.411224365234375,1.0,4.0,4.0,4.0,1.0,100.0,event
09:27:40.736,0.0,0.0,0.0,0.4547229,0.0,0.0,0.0,0.41623783,0.0,0.0,0.0,0.3052052,0.0,0.0,0.0,0.5874484,0.0,0.0,0.0,0.48381072,0.0,112.01465,96.30037,770.40295,1058.9011,-0.28253173828125,0.034912109375,0.95355224609375,2.572021484375,-2.67669677734375,0.3289794921875,1.0,4.0,4.0,4.0,1.0,100.0,event
09:27:40.737,0.0,0.0,0.0,0.4547229,0.0,0.0,0.0,0.41623783,0.0,0.0,0.0,0.3052052,0.0,0.0,0.0,0.5874484,0.0,0.0,0.0,0.48381072,153.11356,506.88644,486.73993,778.46155,923.1135,-0.28253173828125,0.034912109375,0.95355224609375,2.572021484375,-2.67669677734375,0.3289794921875,1.0,4.0,4.0,4.0,1.0,100.0,event
09:27:40.738,0.0,0.0,0.0,0.4547229,0.0,0.0,0.0,0.41623783,0.0,0.0,0.0,0.3052052,0.0,0.0,0.0,0.5874484,0.0,0.0,0.0,0.48381072,1286.1538,1492.0513,1180.1831,800.2198,705.12823,-0.28253173828125,0.034912109375,0.95355224609375,2.572021484375,-2.67669677734375,0.3289794921875,1.0,4.0,4.0,4.0,1.0,100.0,event
09:27:40.739,0.0,0.0,0.0,0.4547229,0.0,0.0,0.0,0.41623783,0.0,0.0,0.0,0.3052052,0.0,0.0,0.0,0.5874484,0.0,0.0,0.0,0.48381072,127.728935,1589.9634,1120.5494,810.696,793.36993,-0.28253173828125,0.034912109375,0.95355224609375,2.572021484375,-2.67669677734375,0.3289794921875,1.0,4.0,4.0,4.0,1.0,100.0,event
09:27:40.739,0.0,0.0,0.0,0.4547229,0.0,0.0,0.0,0.41623783,0.0,0.0,0.0,0.3052052,0.0,0.0,0.0,0.5874484,0.0,0.0,0.0,0.48381072,905.38464,1135.8608,775.64105,797.3993,836.4835,-0.28253173828125,0.034912109375,0.95355224609375,2.572021484375,-2.67669677734375,0.3289794921875,1.0,4.0,4.0,4.0,1.0,100.0,event
09:27:40.740,0.0,0.0,0.0,0.4547229,0.0,0.0,0.0,0.41623783,0.0,0.0,0.0,0.3052052,0.0,0.0,0.0,0.5874484,0.0,0.0,0.0,0.48381072,0.0,448.86447,506.0806,787.72894,810.696,-0.28253173828125,0.034912109375,0.95355224609375,2.572021484375,-2.67669677734375,0.3289794921875,1.0,4.0,4.0,4.0,1.0,100.0,event
09:27:40.741,0.0,0.0,0.0,0.4547229,0.0,0.0,0.0,0.41623783,0.0,0.0,0.0,0.3052052,0.0,0.0,0.0,0.5874484,0.0,0.0,0.0,0.48381072,61.245422,448.46155,564.90845,792.5641,792.1612,-0.28253173828125,0.034912109375,0.95355224609375,2.572021484375,-2.67669677734375,0.3289794921875,1.0,4.0,4.0,4.0,1.0,100.0,event
09:27:40.742,0.0,0.0,0.0,0.4547229,0.0,0.0,0.0,0.41623783,0.0,0.0,0.0,0.3052052,0.0,0.0,0.0,0.5874484,0.0,0.0,0.0,0.48381072,1194.6886,913.8461,671.28204,807.8755,871.53845,-0.28253173828125,0.034912109375,0.95355224609375,2.572021484375,-2.67669677734375,0.3289794921875,1.0,4.0,4.0,4.0,1.0,100.0,event
09:27:40.742,0.0,0.0,0.0,0.4547229,0.0,0.0,0.0,0.41623783,0.0,0.0,0.0,0.3052052,0.0,0.0,0.0,0.5874484,0.0,0.0,0.0,0.48381072,148.27838,1121.7583,598.7546,824.3956,975.09155,-0.28253173828125,0.034912109375,0.95355224609375,2.572021484375,-2.67669677734375,0.3289794921875,1.0,4.0,4.0,4.0,1.0,100.0,event
09:27:40.743,0.0,0.0,0.0,0.4387978,0.0,0.0,0.0,0.37582442,0.0,0.0,0.0,0.30853134,0.0,0.0,0.0,0.6010737,0.0,0.0,0.0,0.42768425,1133.0403,1431.2087,950.9158,813.91943,741.79486,-0.28253173828125,0.034912109375,0.95355224609375,2.572021484375,-2.67669677734375,0.3289794921875,1.0,4.0,4.0,4.0,1.0,100.0,event
09:27:40.747,0.0,0.0,0.0,0.4387978,0.0,0.0,0.0,0.37582442,0.0,0.0,0.0,0.30853134,0.0,0.0,0.0,0.6010737,0.0,0.0,0.0,0.42768425,62.05128,894.90845,879.59705,794.57874,679.7436,-0.28253173828125,0.034912109375,0.95355224609375,2.572021484375,-2.67669677734375,0.3289794921875,1.0,4.0,4.0,4.0,1.0,100.0,event
09:27:40.747,0.0,0.0,0.0,0.4387978,0.0,0.0,0.0,0.37582442,0.0,0.0,0.0,0.30853134,0.0,0.0,0.0,0.6010737,0.0,0.0,0.0,0.42768425,0.0,483.11356,608.4249,794.17584,793.7729,-0.28253173828125,0.034912109375,0.95355224609375,2.572021484375,-2.67669677734375,0.3289794921875,1.0,4.0,4.0,4.0,1.0,100.0,event
09:27:40.781,0.0,0.0,0.0,0.4387978,0.0,0.0,0.0,0.37582442,0.0,0.0,0.0,0.30853134,0.0,0.0,0.0,0.6010737,0.0,0.0,0.0,0.42768425,1135.8608,1216.8499,1022.6374,805.8608,807.0696,-0.28253173828125,0.034912109375,0.95355224609375,2.572021484375,-2.67669677734375,0.3289794921875,1.0,4.0,4.0,4.0,1.0,100.0,event
09:27:40.782,0.0,0.0,0.0,0.4387978,0.0,0.0,0.0,0.37582442,0.0,0.0,0.0,0.30853134,0.0,0.0,0.0,0.6010737,0.0,0.0,0.0,0.42768425,151.50183,66.48351,1392.5275,822.7839,811.9048,-0.28253173828125,0.034912109375,0.95355224609375,2.572021484375,-2.67669677734375,0.3289794921875,1.0,4.0,4.0,4.0,1.0,100.0,event
09:27:40.783,0.0,0.0,0.0,0.4387978,0.0,0.0,0.0,0.37582442,0.0,0.0,0.0,0.30853134,0.0,0.0,0.0,0.6010737,0.0,0.0,0.0,0.42768425,1228.9377,1314.762,950.5128,814.7253,839.707,-0.28253173828125,0.034912109375,0.95355224609375,2.572021484375,-2.67669677734375,0.3289794921875,1.0,4.0,4.0,4.0,1.0,100.0,event
09:27:40.784,0.0,0.0,0.0,0.4387978,0.0,0.0,0.0,0.37582442,0.0,0.0,0.0,0.30853134,0.0,0.0,0.0,0.6010737,0.0,0.0,0.0,0.42768425,148.27838,336.4469,318.71796,802.23444,900.54944,-0.28253173828125,0.034912109375,0.95355224609375,2.572021484375,-2.67669677734375,0.3289794921875,1.0,4.0,4.0,4.0,1.0,100.0,event
09:27:40.784,0.0,0.0,0.0,0.4387978,0.0,0.0,0.0,0.37582442,0.0,0.0,0.0,0.30853134,0.0,0.0,0.0,0.6010737,0.0,0.0,0.0,0.42768425,0.0,334.43222,513.73627,797.3993,749.45056,-0.28253173828125,0.034912109375,0.95355224609375,2.572021484375,-2.67669677734375,0.3289794921875,1.0,4.0,4.0,4.0,1.0,100.0,event
09:27:40.785,0.0,0.0,0.0,0.4387978,0.0,0.0,0.0,0.37582442,0.0,0.0,0.0,0.30853134,0.0,0.0,0.0,0.6010737,0.0,0.0,0.0,0.42768425,865.09155,1010.9524,824.7985,805.4579,721.2454,-0.28253173828125,0.034912109375,0.95355224609375,2.572021484375,-2.67669677734375,0.3289794921875,1.0,4.0,4.0,4.0,1.0,100.0,event
09:27:40.786,0.0,0.0,0.0,0.4387978,0.0,0.0,0.0,0.37582442,0.0,0.0,0.0,0.30853134,0.0,0.0,0.0,0.6010737,0.0,0.0,0.0,0.42768425,111.611725,1507.3627,903.36993,823.5897,892.0879,-0.28253173828125,0.034912109375,0.95355224609375,2.572021484375,-2.67669677734375,0.3289794921875,1.0,4.0,4.0,4.0,1.0,100.0,event
09:27:40.786,0.0,0.0,0.0,0.4387978,0.0,0.0,0.0,0.37582442,0.0,0.0,0.0,0.30853134,0.0,0.0,0.0,0.6010737,0.0,0.0,0.0,0.42768425,1328.8645,913.8461,449.2674,819.9634,1000.4762,-0.28253173828125,0.034912109375,0.95355224609375,2.572021484375,-2.67669677734375,0.3289794921875,1.0,4.0,4.0,4.0,1.0,100.0,event
09:27:40.787,0.0,0.0,0.0,0.4387978,0.0,0.0,0.0,0.37582442,0.0,0.0,0.0,0.30853134,0.0,0.0,0.0,0.6010737,0.0,0.0,0.0,0.42768425,184.94505,408.57144,402.52747,794.9817,815.12823,-0.28253173828125,0.034912109375,0.95355224609375,2.572021484375,-2.67669677734375,0.3289794921875,1.0,4.0,4.0,4.0,1.0,100.0,event
09:27:40.787,0.0,0.0,0.0,0.4387978,0.0,0.0,0.0,0.37582442,0.0,0.0,0.0,0.30853134,0.0,0.0,0.0,0.6010737,0.0,0.0,0.0,0.42768425,0.0,673.2967,804.2491,784.5055,630.989,-0.28253173828125,0.034912109375,0.95355224609375,2.572021484375,-2.67669677734375,0.3289794921875,1.0,4.0,4.0,4.0,1.0,100.0,event
09:27:40.788,0.0,0.0,0.0,0.4387978,0.0,0.0,0.0,0.37582442,0.0,0.0,0.0,0.30853134,0.0,0.0,0.0,0.6010737,0.0,0.0,0.0,0.42768425,733.73627,1113.2968,933.5897,799.011,731.31866,-0.28253173828125,0.034912109375,0.95355224609375,2.572021484375,-2.67669677734375,0.3289794921875,1.0,4.0,4.0,4.0,1.0,100.0,event
09:27:40.789,0.0,0.0,0.0,0.4387978,0.0,0.0,0.0,0.37582442,0.0,0.0,0.0,0.30853134,0.0,0.0,0.0,0.6010737,0.0,0.0,0.0,0.42768425,41.904762,1558.1318,1053.2601,820.3663,718.022,-0.28253173828125,0.034912109375,0.95355224609375,2.572021484375,-2.67669677734375,0.3289794921875,1.0,4.0,4.0,4.0,1.0,100.0,event
09:27:40.816,0.0,0.0,0.0,0.4387978,0.0,0.0,0.0,0.37582442,0.0,0.0,0.0,0.30853134,0.0,0.0,0.0,0.6010737,0.0,0.0,0.0,0.42768425,1504.5421,1645.5677,1120.9524,815.9341,666.04395,-0.2874755859375,0.03192138671875,0.94537353515625,2.03369140625,-2.878570556640625,0.2691650390625,1.0,4.0,4.0,4.0,1.0,100.0,event
09:27:40.817,0.0,0.0,0.0,0.4387978,0.0,0.0,0.0,0.37582442,0.0,0.0,0.0,0.30853134,0.0,0.0,0.0,0.6010737,0.0,0.0,0.0,0.42768425,337.25275,1165.6776,914.65204,805.05493,691.4286,-0.2874755859375,0.03192138671875,0.94537353515625,2.03369140625,-2.878570556640625,0.2691650390625,1.0,4.0,4.0,4.0,1.0,100.0,event
09:27:40.817,0.0,0.0,0.0,0.4387978,0.0,0.0,0.0,0.37582442,0.0,0.0,0.0,0.30853134,0.0,0.0,0.0,0.6010737,0.0,0.0,0.0,0.42768425,0.0,493.99268,577.3993,798.20514,707.5458,-0.2874755859375,0.03192138671875,0.94537353515625,2.03369140625,-2.878570556640625,0.2691650390625,1.0,4.0,4.0,4.0,1.0,100.0,event
09:27:40.818,0.0,0.0,0.0,0.4387978,0.0,0.0,0.0,0.37582442,0.0,0.0,0.0,0.30853134,0.0,0.0,0.0,0.6010737,0.0,0.0,0.0,0.42768425,542.74725,879.19415,763.1502,794.9817,757.9121,-0.2874755859375,0.03192138671875,0.94537353515625,2.03369140625,-2.878570556640625,0.2691650390625,1.0,4.0,4.0,4.0,1.0,100.0,event
09:27:40.818,0.0,0.0,0.0,0.4387978,0.0,0.0,0.0,0.37582442,0.0,0.0,0.0,0.30853134,0.0,0.0,0.0,0.6010737,0.0,0.0,0.0,0.42768425,1614.9451,1594.3956,1168.4982,803.44324,784.10254,-0.2874755859375,0.03192138671875,0.94537353515625,2.03369140625,-2.878570556640625,0.2691650390625,1.0,4.0,4.0,4.0,1.0,100.0,event
09:27:40.819,0.0,0.0,0.0,0.4387978,0.0,0.0,0.0,0.37582442,0.0,0.0,0.0,0.30853134,0.0,0.0,0.0,0.6010737,0.0,0.0,0.0,0.42768425,1553.2968,1615.751,1039.1575,800.6227,756.7033,-0.2874755859375,0.03192138671875,0.94537353515625,2.03369140625,-2.878570556640625,0.2691650390625,1.0,4.0,4.0,4.0,1.0,100.0,event
09:27:40.820,0.0,0.0,0.0,0.4387978,0.0,0.0,0.0,0.37582442,0.0,0.0,0.0,0.30853134,0.0,0.0,0.0,0.6010737,0.0,0.0,0.0,0.42768425,367.87546,765.9707,493.1868,792.1612,946.08057,-0.2874755859375,0.03192138671875,0.94537353515625,2.03369140625,-2.878570556640625,0.2691650390625,1.0,4.0,4.0,4.0,1.0,100.0,event
09:27:40.820,0.0,0.0,0.0,0.4387978,0.0,0.0,0.0,0.37582442,0.0,0.0,0.0,0.30853134,0.0,0.0,0.0,0.6010737,0.0,0.0,0.0,0.42768425,0.0,20.54945,92.673996,793.36993,1085.4945,-0.2874755859375,0.03192138671875,0.94537353515625,2.03369140625,-2.878570556640625,0.2691650390625,1.0,4.0,4.0,4.0,1.0,100.0,event
09:27:40.821,0.0,0.0,0.0,0.4387978,0.0,0.0,0.0,0.37582442,0.0,0.0,0.0,0.30853134,0.0,0.0,0.0,0.6010737,0.0,0.0,0.0,0.42768425,355.78754,776.04395,663.6264,814.3223,797.8022,-0.2874755859375,0.03192138671875,0.94537353515625,2.03369140625,-2.878570556640625,0.2691650390625,1.0,4.0,4.0,4.0,1.0,100.0,event
09:27:40.822,0.0,0.0,0.0,0.4387978,0.0,0.0,0.0,0.37582442,0.0,0.0,0.0,0.30853134,0.0,0.0,0.0,0.6010737,0.0,0.0,0.0,0.42768425,1488.022,1597.2161,1233.37,826.8132,723.663,-0.2874755859375,0.03192138671875,0.94537353515625,2.03369140625,-2.878570556640625,0.2691650390625,1.0,4.0,4.0,4.0,1.0,100.0,event
09:27:40.823,0.0,0.0,0.0,0.4387978,0.0,0.0,0.0,0.37582442,0.0,0.0,0.0,0.30853134,0.0,0.0,0.0,0.6010737,0.0,0.0,0.0,0.42768425,1649.1941,1450.1465,974.68866,796.5934,954.1392,-0.2874755859375,0.03192138671875,0.94537353515625,2.03369140625,-2.878570556640625,0.2691650390625,1.0,4.0,4.0,4.0,1.0,100.0,event
09:27:40.824,0.0,0.0,0.0,0.40431944,0.0,0.0,0.0,0.33816415,0.0,0.0,0.0,0.30853134,0.0,0.0,0.0,0.60256684,0.0,0.0,0.0,0.3745196,488.75458,1062.5275,740.989,773.22345,880.0,-0.2874755859375,0.03192138671875,0.94537353515625,2.03369140625,-2.878570556640625,0.2691650390625,1.0,4.0,4.0,4.0,1.0,100.0,event
09:27:40.850,0.0,0.0,0.0,0.40431944,0.0,0.0,0.0,0.33816415,0.0,0.0,0.0,0.30853134,0.0,0.0,0.0,0.60256684,0.0,0.0,0.0,0.3745196,0.0,680.14655,728.49817,756.30035,633.00366,-0.2852783203125,0.03399658203125,0.94830322265625,2.3028564453125,-3.132781982421875,0.478515625,1.0,4.0,4.0,4.0,1.0,100.0,event
09:27:40.852,0.0,0.0,0.0,0.40431944,0.0,0.0,0.0,0.33816415,0.0,0.0,0.0,0.30853134,0.0,0.0,0.0,0.60256684,0.0,0.0,0.0,0.3745196,210.7326,884.83514,803.8461,760.32965,694.2491,-0.2852783203125,0.03399658203125,0.94830322265625,2.3028564453125,-3.132781982421875,0.478515625,1.0,4.0,4.0,4.0,1.0,100.0,event
09:27:40.853,0.0,0.0,0.0,0.40431944,0.0,0.0,0.0,0.33816415,0.0,0.0,0.0,0.30853134,0.0,0.0,0.0,0.60256684,0.0,0.0,0.0,0.3745196,1368.7546,1411.8682,952.52747,779.2674,862.27106,-0.2852783203125,0.03399658203125,0.94830322265625,2.3028564453125,-3.132781982421875,0.478515625,1.0,4.0,4.0,4.0,1.0,100.0,event
09:27:40.855,0.0,0.0,0.0,0.40431944,0.0,0.0,0.0,0.33816415,0.0,0.0,0.0,0.30853134,0.0,0.0,0.0,0.60256684,0.0,0.0,0.0,0.3745196,67.69231,1630.6593,1150.3663,776.8498,825.6044,-0.2852783203125,0.03399658203125,0.94830322265625,2.3028564453125,-3.132781982421875,0.478515625,1.0,4.0,4.0,4.0,1.0,100.0,event
09:27:40.856,0.0,0.0,0.0,0.40431944,0.0,0.0,0.0,0.33816415,0.0,0.0,0.0,0.30853134,0.0,0.0,0.0,0.60256684,0.0,0.0,0.0,0.3745196,628.97437,1408.2417,1021.8315,775.2381,740.58606,-0.2852783203125,0.03399658203125,0.94830322265625,2.3028564453125,-3.132781982421875,0.478515625,1.0,4.0,4.0,4.0,1.0,100.0,event
09:27:40.856,0.0,0.0,0.0,0.40431944,0.0,0.0,0.0,0.33816415,0.0,0.0,0.0,0.30853134,0.0,0.0,0.0,0.60256684,0.0,0.0,0.0,0.3745196,0.0,496.8132,505.67764,780.87915,897.72894,-0.2852783203125,0.03399658203125,0.94830322265625,2.3028564453125,-3.132781982421875,0.478515625,1.0,4.0,4.0,4.0,1.0,100.0,event
09:27:40.857,0.0,0.0,0.0,0.40431944,0.0,0.0,0.0,0.33816415,0.0,0.0,0.0,0.30853134,0.0,0.0,0.0,0.60256684,0.0,0.0,0.0,0.3745196,124.908424,41.0989,114.432236,794.9817,1131.8315,-0.2852783203125,0.03399658203125,0.94830322265625,2.3028564453125,-3.132781982421875,0.478515625,1.0,4.0,4.0,4.0,1.0,100.0,event
09:27:40.857,0.0,0.0,0.0,0.40431944,0.0,0.0,0.0,0.33816415,0.0,0.0,0.0,0.30853134,0.0,0.0,0.0,0.60256684,0.0,0.0,0.0,0.3745196,1285.348,1092.7472,727.6923,794.9817,925.5311,-0.2852783203125,0.03399658203125,0.94830322265625,2.3028564453125,-3.132781982421875,0.478515625,1.0,4.0,4.0,4.0,1.0,100.0,event
09:27:40.858,0.0,0.0,0.0,0.40431944,0.0,0.0,0.0,0.33816415,0.0,0.0,0.0,0.30853134,0.0,0.0,0.0,0.60256684,0.0,0.0,0.0,0.3745196,112.82051,107.98535,1211.2087,794.9817,770.40295,-0.2852783203125,0.03399658203125,0.94830322265625,2.3028564453125,-3.132781982421875,0.478515625,1.0,4.0,4.0,4.0,1.0,100.0,event
09:27:40.858,0.0,0.0,0.0,0.40431944,0.0,0.0,0.0,0.33816415,0.0,0.0,0.0,0.30853134,0.0,0.0,0.0,0.60256684,0.0,0.0,0.0,0.3745196,767.1795,1101.2087,689.011,790.14655,856.63007,-0.2852783203125,0.03399658203125,0.94830322265625,2.3028564453125,-3.132781982421875,0.478515625,1.0,4.0,4.0,4.0,1.0,100.0,event
09:27:40.859,0.0,0.0,0.0,0.40431944,0.0,0.0,0.0,0.33816415,0.0,0.0,0.0,0.30853134,0.0,0.0,0.0,0.60256684,0.0,0.0,0.0,0.3745196,0.0,163.58974,130.95238,786.52014,933.9927,-0.2852783203125,0.03399658203125,0.94830322265625,2.3028564453125,-3.132781982421875,0.478515625,1.0,4.0,4.0,4.0,1.0,100.0,event
09:27:40.860,0.0,0.0,0.0,0.40431944,0.0,0.0,0.0,0.33816415,0.0,0.0,0.0,0.30853134,0.0,0.0,0.0,0.60256684,0.0,0.0,0.0,0.3745196,104.35897,563.69965,543.95605,786.1172,768.3883,-0.2852783203125,0.03399658203125,0.94830322265625,2.3028564453125,-3.132781982421875,0.478515625,1.0,4.0,4.0,4.0,1.0,100.0,event
09:27:40.957,0.0,0.0,0.0,0.40431944,0.0,0.0,0.0,0.33816415,0.0,0.0,0.0,0.30853134,0.0,0.0,0.0,0.60256684,0.0,0.0,0.0,0.3745196,1235.3846,1475.1282,1133.8462,793.36993,668.0586,-0.28863525390625,0.0369873046875,0.94873046875,1.92901611328125,-3.887939453125,0.456085205078125,1.0,4.0,4.0,4.0,1.0,100.0,event
09:27:40.959,0.0,0.0,0.0,0.40431944,0.0,0.0,0.0,0.33816415,0.0,0.0,0.0,0.30853134,0.0,0.0,0.0,0.60256684,0.0,0.0,0.0,0.3745196,146.26373,1632.2711,1115.3114,802.23444,742.1978,-0.28863525390625,0.0369873046875,0.94873046875,1.92901611328125,-3.887939453125,0.456085205078125,1.0,4.0,4.0,4.0,1.0,100.0,event
09:27:40.959,0.0,0.0,0.0,0.40431944,0.0,0.0,0.0,0.33816415,0.0,0.0,0.0,0.30853134,0.0,0.0,0.0,0.60256684,0.0,0.0,0.0,0.3745196,1063.3334,1395.751,906.1905,795.78754,753.47986,-0.28863525390625,0.0369873046875,0.94873046875,1.92901611328125,-3.887939453125,0.456085205078125,1.0,4.0,4.0,4.0,1.0,100.0,event
09:27:40.960,0.0,0.0,0.0,0.40431944,0.0,0.0,0.0,0.33816415,0.0,0.0,0.0,0.30853134,0.0,0.0,0.0,0.60256684,0.0,0.0,0.0,0.3745196,35.457874,858.24176,741.39197,788.1319,713.9927,-0.28863525390625,0.0369873046875,0.94873046875,1.92901611328125,-3.887939453125,0.456085205078125,1.0,4.0,4.0,4.0,1.0,100.0,event
09:27:40.961,0.0,0.0,0.0,0.40431944,0.0,0.0,0.0,0.33816415,0.0,0.0,0.0,0.30853134,0.0,0.0,0.0,0.60256684,0.0,0.0,0.0,0.3745196,1114.9084,1046.8132,744.61536,810.696,906.5934,-0.28863525390625,0.0369873046875,0.94873046875,1.92901611328125,-3.887939453125,0.456085205078125,1.0,4.0,4.0,4.0,1.0,100.0,event
09:27:40.961,0.0,0.0,0.0,0.40431944,0.0,0.0,0.0,0.33816415,0.0,0.0,0.0,0.30853134,0.0,0.0,0.0,0.60256684,0.0,0.0,0.0,0.3745196,0.4029304,763.1502,763.1502,785.31134,698.68134,-0.28863525390625,0.0369873046875,0.94873046875,1.92901611328125,-3.887939453125,0.456085205078125,1.0,4.0,4.0,4.0,1.0,100.0,event
09:27:40.962,0.0,0.0,0.0,0.40431944,0.0,0.0,0.0,0.33816415,0.0,0.0,0.0,0.30853134,0.0,0.0,0.0,0.60256684,0.0,0.0,0.0,0.3745196,147.87546,1425.1648,743.4066,813.5165,1016.99634,-0.28863525390625,0.0369873046875,0.94873046875,1.92901611328125,-3.887939453125,0.456085205078125,1.0,4.0,4.0,4.0,1.0,100.0,event
09:27:40.963,0.0,0.0,0.0,0.40431944,0.0,0.0,0.0,0.33816415,0.0,0.0,0.0,0.30853134,0.0,0.0,0.0,0.60256684,0.0,0.0,0.0,0.3745196,1248.6813,1548.0586,890.87915,785.31134,790.9524,-0.28863525390625,0.0369873046875,0.94873046875,1.92901611328125,-3.887939453125,0.456085205078125,1.0,4.0,4.0,4.0,1.0,100.0,event
09:27:40.964,0.0,0.0,0.0,0.40431944,0.0,0.0,0.0,0.33816415,0.0,0.0,0.0,0.30853134,0.0,0.0,0.0,0.60256684,0.0,0.0,0.0,0.3745196,146.26373,978.315,804.2491,781.28204,730.9158,-0.28863525390625,0.0369873046875,0.94873046875,1.92901611328125,-3.887939453125,0.456085205078125,1.0,4.0,4.0,4.0,1.0,100.0,event
09:27:40.965,0.0,0.0,0.0,0.40431944,0.0,0.0,0.0,0.33816415,0.0,0.0,0.0,0.30853134,0.0,0.0,0.0,0.60256684,0.0,0.0,0.0,0.3745196,0.0,333.62637,413.4066,797.8022,898.5348,-0.28863525390625,0.0369873046875,0.94873046875,1.92901611328125,-3.887939453125,0.456085205078125,1.0,4.0,4.0,4.0,1.0,100.0,event
09:27:40.966,0.0,0.0,0.0,0.40431944,0.0,0.0,0.0,0.33816415,0.0,0.0,0.0,0.30853134,0.0,0.0,0.0,0.60256684,0.0,0.0,0.0,0.3745196,996.8498,771.2088,574.57874,799.011,874.35895,-0.28863525390625,0.0369873046875,0.94873046875,1.92901611328125,-3.887939453125,0.456085205078125,1.0,4.0,4.0,4.0,1.0,100.0,event
09:27:40.966,0.0,0.0,0.0,0.40431944,0.0,0.0,0.0,0.33816415,0.0,0.0,0.0,0.30853134,0.0,0.0,0.0,0.60256684,0.0,0.0,0.0,0.3745196,125.311356,14.102564,1111.2821,817.1429,803.44324,-0.28863525390625,0.0369873046875,0.94873046875,1.92901611328125,-3.887939453125,0.456085205078125,1.0,4.0,4.0,4.0,1.0,100.0,event
09:27:40.994,0.0,0.0,0.0,0.40431944,0.0,0.0,0.0,0.33816415,0.0,0.0,0.0,0.30853134,0.0,0.0,0.0,0.60256684,0.0,0.0,0.0,0.3745196,1362.3077,1437.6556,813.5165,806.6667,830.0366,-0.28265380859375,0.02978515625,0.9481201171875,1.60003662109375,-4.3963623046875,0.16448974609375,1.0,4.0,4.0,4.0,1.0,100.0,event
09:27:40.995,0.0,0.0,0.0,0.36401975,0.0,0.0,0.0,0.3084562,0.0,0.0,0.0,0.34357387,0.0,0.0,0.0,0.5919546,0.0,0.0,0.0,0.32996365,231.68498,427.10623,267.54578,778.0586,823.9927,-0.28265380859375,0.02978515625,0.9481201171875,1.60003662109375,-4.3963623046875,0.16448974609375,1.0,4.0,4.0,4.0,1.0,100.0,event
09:27:40.998,0.0,0.0,0.0,0.36401975,0.0,0.0,0.0,0.3084562,0.0,0.0,0.0,0.34357387,0.0,0.0,0.0,0.5919546,0.0,0.0,0.0,0.32996365,0.0,339.67032,415.0183,784.10254,678.1319,-0.28265380859375,0.02978515625,0.9481201171875,1.60003662109375,-4.3963623046875,0.16448974609375,1.0,4.0,4.0,4.0,1.0,100.0,event
09:27:40.999,0.0,0.0,0.0,0.36401975,0.0,0.0,0.0,0.3084562,0.0,0.0,0.0,0.34357387,0.0,0.0,0.0,0.5919546,0.0,0.0,0.0,0.32996365,779.2674,1154.7986,887.25275,795.38464,598.3516,-0.28265380859375,0.02978515625,0.9481201171875,1.60003662109375,-4.3963623046875,0.16448974609375,1.0,4.0,4.0,4.0,1.0,100.0,event
09:27:40.999,0.0,0.0,0.0,0.36401975,0.0,0.0,0.0,0.3084562,0.0,0.0,0.0,0.34357387,0.0,0.0,0.0,0.5919546,0.0,0.0,0.0,0.32996365,67.69231,1577.8755,1082.674,807.47253,723.2601,-0.28265380859375,0.02978515625,0.9481201171875,1.60003662109375,-4.3963623046875,0.16448974609375,1.0,4.0,4.0,4.0,1.0,100.0,event
09:27:41.000,0.0,0.0,0.0,0.36401975,0.0,0.0,0.0,0.3084562,0.0,0.0,0.0,0.34357387,0.0,0.0,0.0,0.5919546,0.0,0.0,0.0,0.32996365,1453.37,1016.1905,533.8828,800.2198,903.7729,-0.28265380859375,0.02978515625,0.9481201171875,1.60003662109375,-4.3963623046875,0.16448974609375,1.0,4.0,4.0,4.0,1.0,100.0,event
09:27:41.000,0.0,0.0,0.0,0.36401975,0.0,0.0,0.0,0.3084562,0.0,0.0,0.0,0.34357387,0.0,0.0,0.0,0.5919546,0.0,0.0,0.0,0.32996365,296.95972,423.07693,249.41393,797.8022,859.45056,-0.28265380859375,0.02978515625,0.9481201171875,1.60003662109375,-4.3963623046875,0.16448974609375,1.0,4.0,4.0,4.0,1.0,100.0,event
09:27:41.001,0.0,0.0,0.0,0.36401975,0.0,0.0,0.0,0.3084562,0.0,0.0,0.0,0.34357387,0.0,0.0,0.0,0.5919546,0.0,0.0,0.0,0.32996365,490.3663,916.6667,758.71796,788.93774,649.12085,-0.28265380859375,0.02978515625,0.9481201171875,1.60003662109375,-4.3963623046875,0.16448974609375,1.0,4.0,4.0,4.0,1.0,100.0,event
09:27:41.001,0.0,0.0,0.0,0.36401975,0.0,0.0,0.0,0.3084562,0.0,0.0,0.0,0.34357387,0.0,0.0,0.0,0.5919546,0.0,0.0,0.0,0.32996365,0.0,546.77655,614.4689,799.41394,671.685,-0.28265380859375,0.02978515625,0.9481201171875,1.60003662109375,-4.3963623046875,0.16448974609375,1.0,4.0,4.0,4.0,1.0,100.0,event
09:27:41.002,0.0,0.0,0.0,0.36401975,0.0,0.0,0.0,0.3084562,0.0,0.0,0.0,0.34357387,0.0,0.0,0.0,0.5919546,0.0,0.0,0.0,0.32996365,1592.7839,893.2967,419.0476,812.3077,909.41394,-0.28265380859375,0.02978515625,0.9481201171875,1.60003662109375,-4.3963623046875,0.16448974609375,1.0,4.0,4.0,4.0,1.0,100.0,event
09:27:41.002,0.0,0.0,0.0,0.36401975,0.0,0.0,0.0,0.3084562,0.0,0.0,0.0,0.34357387,0.0,0.0,0.0,0.5919546,0.0,0.0,0.0,0.32996365,1558.5348,1363.5165,719.2308,819.5604,837.6923,-0.28265380859375,0.02978515625,0.9481201171875,1.60003662109375,-4.3963623046875,0.16448974609375,1.0,4.0,4.0,4.0,1.0,100.0,event
09:27:41.003,0.0,0.0,0.0,0.36401975,0.0,0.0,0.0,0.3084562,0.0,0.0,0.0,0.34357387,0.0,0.0,0.0,0.5919546,0.0,0.0,0.0,0.32996365,360.2198,1254.3224,936.4103,806.26373,656.77655,-0.28265380859375,0.02978515625,0.9481201171875,1.60003662109375,-4.3963623046875,0.16448974609375,1.0,4.0,4.0,4.0,1.0,100.0,event
09:27:41.004,0.0,0.0,0.0,0.36401975,0.0,0.0,0.0,0.3084562,0.0,0.0,0.0,0.34357387,0.0,0.0,0.0,0.5919546,0.0,0.0,0.0,0.32996365,0.0,521.79486,608.8278,801.02563,744.61536,-0.28265380859375,0.02978515625,0.9481201171875,1.60003662109375,-4.3963623046875,0.16448974609375,1.0,4.0,4.0,4.0,1.0,100.0,event
09:27:41.004,0.0,0.0,0.0,0.36401975,0.0,0.0,0.0,0.3084562,0.0,0.0,0.0,0.34357387,0.0,0.0,0.0,0.5919546,0.0,0.0,0.0,0.32996365,333.22345,850.989,737.3626,807.0696,740.18317,-0.28265380859375,0.02978515625,0.9481201171875,1.60003662109375,-4.3963623046875,0.16448974609375,1.0,4.0,4.0,4.0,1.0,100.0,event
09:27:41.005,0.0,0.0,0.0,0.36401975,0.0,0.0,0.0,0.3084562,0.0,0.0,0.0,0.34357387,0.0,0.0,0.0,0.5919546,0.0,0.0,0.0,0.32996365,1491.2454,1531.9414,1050.4396,809.0842,757.1062,-0.28265380859375,0.02978515625,0.9481201171875,1.60003662109375,-4.3963623046875,0.16448974609375,1.0,4.0,4.0,4.0,1.0,100.0,event
09:27:41.005,0.0,0.0,0.0,0.36401975,0.0,0.0,0.0,0.3084562,0.0,0.0,0.0,0.34357387,0.0,0.0,0.0,0.5919546,0.0,0.0,0.0,0.32996365,1619.3773,47.142857,1074.6154,807.8755,810.293,-0.28265380859375,0.02978515625,0.9481201171875,1.60003662109375,-4.3963623046875,0.16448974609375,1.0,4.0,4.0,4.0,1.0,100.0,event
09:27:41.006,0.0,0.0,0.0,0.36401975,0.0,0.0,0.0,0.3084562,0.0,0.0,0.0,0.34357387,0.0,0.0,0.0,0.5919546,0.0,0.0,0.0,0.32996365,410.989,1049.2307,700.696,796.99634,813.5165,-0.28265380859375,0.02978515625,0.9481201171875,1.60003662109375,-4.3963623046875,0.16448974609375,1.0,4.0,4.0,4.0,1.0,100.0,event
09:27:41.006,0.0,0.0,0.0,0.36401975,0.0,0.0,0.0,0.3084562,0.0,0.0,0.0,0.34357387,0.0,0.0,0.0,0.5919546,0.0,0.0,0.0,0.32996365,0.0,91.86813,251.8315,779.67035,869.12085,-0.28265380859375,0.02978515625,0.9481201171875,1.60003662109375,-4.3963623046875,0.16448974609375,1.0,4.0,4.0,4.0,1.0,100.0,event
09:27:41.007,0.0,0.0,0.0,0.36401975,0.0,0.0,0.0,0.3084562,0.0,0.0,0.0,0.34357387,0.0,0.0,0.0,0.5919546,0.0,0.0,0.0,0.32996365,168.42491,494.3956,490.76923,790.9524,872.74725,-0.28265380859375,0.02978515625,0.9481201171875,1.60003662109375,-4.3963623046875,0.16448974609375,1.0,4.0,4.0,4.0,1.0,100.0,event
09:27:41.007,0.0,0.0,0.0,0.36401975,0.0,0.0,0.0,0.3084562,0.0,0.0,0.0,0.34357387,0.0,0.0,0.0,0.5919546,0.0,0.0,0.0,0.32996365,1378.022,1543.6263,1089.9268,810.293,772.4176,-0.28265380859375,0.02978515625,0.9481201171875,1.60003662109375,-4.3963623046875,0.16448974609375,1.0,4.0,4.0,4.0,1.0,100.0,event
09:27:41.008,0.0,0.0,0.0,0.36401975,0.0,0.0,0.0,0.3084562,0.0,0.0,0.0,0.34357387,0.0,0.0,0.0,0.5919546,0.0,0.0,0.0,0.32996365,1648.7913,1436.4469,917.47253,809.89014,882.8205,-0.28265380859375,0.02978515625,0.9481201171875,1.60003662109375,-4.3963623046875,0.16448974609375,1.0,4.0,4.0,4.0,1.0,100.0,event
09:27:41.008,0.0,0.0,0.0,0.36401975,0.0,0.0,0.0,0.3084562,0.0,0.0,0.0,0.34357387,0.0,0.0,0.0,0.5919546,0.0,0.0,0.0,0.32996365,394.06595,532.27106,313.88278,797.3993,985.9707,-0.28265380859375,0.02978515625,0.9481201171875,1.60003662109375,-4.3963623046875,0.16448974609375,1.0,4.0,4.0,4.0,1.0,100.0,event
09:27:41.009,0.0,0.0,0.0,0.36401975,0.0,0.0,0.0,0.3084562,0.0,0.0,0.0,0.34357387,0.0,0.0,0.0,0.5919546,0.0,0.0,0.0,0.32996365,0.0,511.72162,619.304,790.14655,736.9597,-0.28265380859375,0.02978515625,0.9481201171875,1.60003662109375,-4.3963623046875,0.16448974609375,1.0,4.0,4.0,4.0,1.0,100.0,event
09:27:41.009,0.0,0.0,0.0,0.36401975,0.0,0.0,0.0,0.3084562,0.0,0.0,0.0,0.34357387,0.0,0.0,0.0,0.5919546,0.0,0.0,0.0,0.32996365,164.3956,954.94507,910.2198,803.0403,743.4066,-0.28265380859375,0.02978515625,0.9481201171875,1.60003662109375,-4.3963623046875,0.16448974609375,1.0,4.0,4.0,4.0,1.0,100.0,event
09:27:41.065,0.0,0.0,0.0,0.36401975,0.0,0.0,0.0,0.3084562,0.0,0.0,0.0,0.34357387,0.0,0.0,0.0,0.5919546,0.0,0.0,0.0,0.32996365,1304.6886,1336.9231,955.34796,819.9634,876.77655,-0.28436279296875,0.02655029296875,0.94171142578125,1.7645263671875,-3.386993408203125,-0.19439697265625,1.0,4.0,4.0,4.0,1.0,100.0,event
09:27:41.066,0.0,0.0,0.0,0.36401975,0.0,0.0,0.0,0.3084562,0.0,0.0,0.0,0.34357387,0.0,0.0,0.0,0.5919546,0.0,0.0,0.0,0.32996365,101.53846,1627.033,1242.6373,826.4103,868.71796,-0.28436279296875,0.02655029296875,0.94171142578125,1.7645263671875,-3.386993408203125,-0.19439697265625,1.0,4.0,4.0,4.0,1.0,100.0,event
09:27:41.067,0.0,0.0,0.0,0.36401975,0.0,0.0,0.0,0.3084562,0.0,0.0,0.0,0.34357387,0.0,0.0,0.0,0.5919546,0.0,0.0,0.0,0.32996365,718.4249,1478.7546,1123.37,796.5934,784.10254,-0.28436279296875,0.02655029296875,0.94171142578125,1.7645263671875,-3.386993408203125,-0.19439697265625,1.0,4.0,4.0,4.0,1.0,100.0,event
09:27:41.068,0.0,0.0,0.0,0.33048147,0.0,0.0,0.0,0.30319488,0.0,0.0,0.0,0.40854692,0.0,0.0,0.0,0.5796561,0.0,0.0,0.0,0.301788,0.0,707.5458,653.1502,769.59705,695.8608,-0.28436279296875,0.02655029296875,0.94171142578125,1.7645263671875,-3.386993408203125,-0.19439697265625,1.0,4.0,4.0,4.0,1.0,100.0,event
09:27:41.072,0.0,0.0,0.0,0.33048147,0.0,0.0,0.0,0.30319488,0.0,0.0,0.0,0.40854692,0.0,0.0,0.0,0.5796561,0.0,0.0,0.0,0.301788,83.40659,453.2967,506.48352,786.1172,738.1685,-0.28436279296875,0.02655029296875,0.94171142578125,1.7645263671875,-3.386993408203125,-0.19439697265625,1.0,4.0,4.0,4.0,1.0,100.0,event
09:27:41.072,0.0,0.0,0.0,0.33048147,0.0,0.0,0.0,0.30319488,0.0,0.0,0.0,0.40854692,0.0,0.0,0.0,0.5796561,0.0,0.0,0.0,0.301788,1220.0732,1183.0037,774.0293,809.89014,866.7033,-0.28436279296875,0.02655029296875,0.94171142578125,1.7645263671875,-3.386993408203125,-0.19439697265625,1.0,4.0,4.0,4.0,1.0,100.0,event
09:27:41.073,0.0,0.0,0.0,0.33048147,0.0,0.0,0.0,0.30319488,0.0,0.0,0.0,0.40854692,0.0,0.0,0.0,0.5796561,0.0,0.0,0.0,0.301788,137.39926,18.937729,965.0183,806.6667,850.58606,-0.28436279296875,0.02655029296875,0.94171142578125,1.7645263671875,-3.386993408203125,-0.19439697265625,1.0,4.0,4.0,4.0,1.0,100.0,event
09:27:41.074,0.0,0.0,0.0,0.33048147,0.0,0.0,0.0,0.30319488,0.0,0.0,0.0,0.40854692,0.0,0.0,0.0,0.5796561,0.0,0.0,0.0,0.301788,862.674,1150.7693,656.77655,801.4286,803.8461,-0.28436279296875,0.02655029296875,0.94171142578125,1.7645263671875,-3.386993408203125,-0.19439697265625,1.0,4.0,4.0,4.0,1.0,100.0,event
09:27:41.074,0.0,0.0,0.0,0.33048147,0.0,0.0,0.0,0.30319488,0.0,0.0,0.0,0.40854692,0.0,0.0,0.0,0.5796561,0.0,0.0,0.0,0.301788,0.0,130.54945,87.4359,790.9524,1033.9194,-0.28436279296875,0.02655029296875,0.94171142578125,1.7645263671875,-3.386993408203125,-0.19439697265625,1.0,4.0,4.0,4.0,1.0,100.0,event
09:27:41.075,0.0,0.0,0.0,0.33048147,0.0,0.0,0.0,0.30319488,0.0,0.0,0.0,0.40854692,0.0,0.0,0.0,0.5796561,0.0,0.0,0.0,0.301788,47.94872,312.67398,280.43958,785.31134,931.1722,-0.28436279296875,0.02655029296875,0.94171142578125,1.7645263671875,-3.386993408203125,-0.19439697265625,1.0,4.0,4.0,4.0,1.0,100.0,event
09:27:41.076,0.0,0.0,0.0,0.33048147,0.0,0.0,0.0,0.30319488,0.0,0.0,0.0,0.40854692,0.0,0.0,0.0,0.5796561,0.0,0.0,0.0,0.301788,1146.7399,1317.9854,981.53845,811.9048,685.78754,-0.28436279296875,0.02655029296875,0.94171142578125,1.7645263671875,-3.386993408203125,-0.19439697265625,1.0,4.0,4.0,4.0,1.0,100.0,event
09:27:41.076,0.0,0.0,0.0,0.33048147,0.0,0.0,0.0,0.30319488,0.0,0.0,0.0,0.40854692,0.0,0.0,0.0,0.5796561,0.0,0.0,0.0,0.301788,155.1282,1630.6593,1181.7949,817.9487,747.03296,-0.28436279296875,0.02655029296875,0.94171142578125,1.7645263671875,-3.386993408203125,-0.19439697265625,1.0,4.0,4.0,4.0,1.0,100.0,event
09:27:41.099,0.0,0.0,0.0,0.33048147,0.0,0.0,0.0,0.30319488,0.0,0.0,0.0,0.40854692,0.0,0.0,0.0,0.5796561,0.0,0.0,0.0,0.301788,1154.3956,1360.2931,906.1905,791.75824,749.0476,-0.27996826171875,0.0283203125,0.95660400390625,2.73651123046875,-2.714080810546875,-0.246734619140625,1.0,4.0,4.0,4.0,1.0,100.0,event
09:27:41.100,0.0,0.0,0.0,0.33048147,0.0,0.0,0.0,0.30319488,0.0,0.0,0.0,0.40854692,0.0,0.0,0.0,0.5796561,0.0,0.0,0.0,0.301788,100.32967,848.1685,721.6484,788.1319,645.4945,-0.27996826171875,0.0283203125,0.95660400390625,2.73651123046875,-2.714080810546875,-0.246734619140625,1.0,4.0,4.0,4.0,1.0,100.0,event
09:27:41.101,0.0,0.0,0.0,0.33048147,0.0,0.0,0.0,0.30319488,0.0,0.0,0.0,0.40854692,0.0,0.0,0.0,0.5796561,0.0,0.0,0.0,0.301788,951.7216,1008.5348,700.293,813.91943,715.2015,-0.27996826171875,0.0283203125,0.95660400390625,2.73651123046875,-2.714080810546875,-0.246734619140625,1.0,4.0,4.0,4.0,1.0,100.0,event
09:27:41.101,0.0,0.0,0.0,0.33048147,0.0,0.0,0.0,0.30319488,0.0,0.0,0.0,0.40854692,0.0,0.0,0.0,0.5796561,0.0,0.0,0.0,0.301788,0.0,663.22345,685.78754,795.38464,582.23444,-0.27996826171875,0.0283203125,0.95660400390625,2.73651123046875,-2.714080810546875,-0.246734619140625,1.0,4.0,4.0,4.0,1.0,100.0,event
09:27:41.102,0.0,0.0,0.0,0.33048147,0.0,0.0,0.0,0.30319488,0.0,0.0,0.0,0.40854692,0.0,0.0,0.0,0.5796561,0.0,0.0,0.0,0.301788,127.326004,1519.4506,979.5238,828.8278,790.54944,-0.27996826171875,0.0283203125,0.95660400390625,2.73651123046875,-2.714080810546875,-0.246734619140625,1.0,4.0,4.0,4.0,1.0,100.0,event
09:27:41.103,0.0,0.0,0.0,0.33048147,0.0,0.0,0.0,0.30319488,0.0,0.0,0.0,0.40854692,0.0,0.0,0.0,0.5796561,0.0,0.0,0.0,0.301788,1295.4213,1452.1611,923.91943,802.23444,827.2161,-0.27996826171875,0.0283203125,0.95660400390625,2.73651123046875,-2.714080810546875,-0.246734619140625,1.0,4.0,4.0,4.0,1.0,100.0,event
09:27:41.103,0.0,0.0,0.0,0.33048147,0.0,0.0,0.0,0.30319488,0.0,0.0,0.0,0.40854692,0.0,0.0,0.0,0.5796561,0.0,0.0,0.0,0.301788,184.54213,628.97437,456.52014,786.52014,870.7326,-0.27996826171875,0.0283203125,0.95660400390625,2.73651123046875,-2.714080810546875,-0.246734619140625,1.0,4.0,4.0,4.0,1.0,100.0,event
09:27:41.104,0.0,0.0,0.0,0.33048147,0.0,0.0,0.0,0.30319488,0.0,0.0,0.0,0.40854692,0.0,0.0,0.0,0.5796561,0.0,0.0,0.0,0.301788,0.0,165.6044,271.97803,789.7436,804.2491,-0.27996826171875,0.0283203125,0.95660400390625,2.73651123046875,-2.714080810546875,-0.246734619140625,1.0,4.0,4.0,4.0,1.0,100.0,event
09:27:41.105,0.0,0.0,0.0,0.33048147,0.0,0.0,0.0,0.30319488,0.0,0.0,0.0,0.40854692,0.0,0.0,0.0,0.5796561,0.0,0.0,0.0,0.301788,748.24176,821.5751,581.4286,799.41394,768.7912,-0.27996826171875,0.0283203125,0.95660400390625,2.73651123046875,-2.714080810546875,-0.246734619140625,1.0,4.0,4.0,4.0,1.0,100.0,event
09:27:41.106,0.0,0.0,0.0,0.33048147,0.0,0.0,0.0,0.30319488,0.0,0.0,0.0,0.40854692,0.0,0.0,0.0,0.5796561,0.0,0.0,0.0,0.301788,66.08059,1601.6483,953.73627,815.5311,834.87177,-0.27996826171875,0.0283203125,0.95660400390625,2.73651123046875,-2.714080810546875,-0.246734619140625,1.0,4.0,4.0,4.0,1.0,100.0,event
09:27:41.106,0.0,0.0,0.0,0.33048147,0.0,0.0,0.0,0.30319488,0.0,0.0,0.0,0.40854692,0.0,0.0,0.0,0.5796561,0.0,0.0,0.0,0.301788,1443.2968,1650.0,1048.4249,804.2491,796.1905,-0.27996826171875,0.0283203125,0.95660400390625,2.73651123046875,-2.714080810546875,-0.246734619140625,1.0,4.0,4.0,4.0,1.0,100.0,event
09:27:41.107,0.0,0.0,0.0,0.33048147,0.0,0.0,0.0,0.30319488,0.0,0.0,0.0,0.40854692,0.0,0.0,0.0,0.5796561,0.0,0.0,0.0,0.301788,287.28937,618.9011,425.89743,794.9817,884.43225,-0.27996826171875,0.0283203125,0.95660400390625,2.73651123046875,-2.714080810546875,-0.246734619140625,1.0,4.0,4.0,4.0,1.0,100.0,event
09:27:41.137,0.0,0.0,0.0,0.33048147,0.0,0.0,0.0,0.30319488,0.0,0.0,0.0,0.40854692,0.0,0.0,0.0,0.5796561,0.0,0.0,0.0,0.301788,0.0,0.0,0.0,789.7436,1031.9048,-0.28570556640625,0.0291748046875,0.94561767578125,1.74957275390625,-3.222503662109375,-0.1495361328125,1.0,4.0,4.0,4.0,1.0,100.0,event
09:27:41.138,0.0,0.0,0.0,0.33048147,0.0,0.0,0.0,0.30319488,0.0,0.0,0.0,0.40854692,0.0,0.0,0.0,0.5796561,0.0,0.0,0.0,0.301788,494.3956,896.1172,645.4945,803.44324,750.65936,-0.28570556640625,0.0291748046875,0.94561767578125,1.74957275390625,-3.222503662109375,-0.1495361328125,1.0,4.0,4.0,4.0,1.0,100.0,event
09:27:41.139,0.0,0.0,0.0,0.33048147,0.0,0.0,0.0,0.30319488,0.0,0.0,0.0,0.40854692,0.0,0.0,0.0,0.5796561,0.0,0.0,0.0,0.301788,1610.9158,1576.2638,1138.6813,814.7253,688.20514,-0.28570556640625,0.0291748046875,0.94561767578125,1.74957275390625,-3.222503662109375,-0.1495361328125,1.0,4.0,4.0,4.0,1.0,100.0,event
09:27:41.140,0.0,0.0,0.0,0.33048147,0.0,0.0,0.0,0.30319488,0.0,0.0,0.0,0.40854692,0.0,0.0,0.0,0.5796561,0.0,0.0,0.0,0.301788,1530.3297,1546.8499,967.03296,787.326,807.0696,-0.28570556640625,0.0291748046875,0.94561767578125,1.74957275390625,-3.222503662109375,-0.1495361328125,1.0,4.0,4.0,4.0,1.0,100.0,event
09:27:41.143,0.0,0.0,0.0,0.33048147,0.0,0.0,0.0,0.30319488,0.0,0.0,0.0,0.40854692,0.0,0.0,0.0,0.5796561,0.0,0.0,0.0,0.301788,331.61172,1107.6556,758.71796,775.64105,756.30035,-0.28570556640625,0.0291748046875,0.94561767578125,1.74957275390625,-3.222503662109375,-0.1495361328125,1.0,4.0,4.0,4.0,1.0,100.0,event
09:27:41.144,0.0,0.0,0.0,0.3187964,0.0,0.0,0.0,0.33709756,0.0,0.0,0.0,0.5127057,0.0,0.0,0.0,0.5793268,0.0,0.0,0.0,0.2963532,0.0,449.67032,480.69598,774.0293,738.5714,-0.28570556640625,0.0291748046875,0.94561767578125,1.74957275390625,-3.222503662109375,-0.1495361328125,1.0,4.0,4.0,4.0,1.0,100.0,event
09:27:41.149,0.0,0.0,0.0,0.3187964,0.0,0.0,0.0,0.33709756,0.0,0.0,0.0,0.5127057,0.0,0.0,0.0,0.5793268,0.0,0.0,0.0,0.2963532,239.74359,585.8608,425.89743,779.67035,850.989,-0.28570556640625,0.0291748046875,0.94561767578125,1.74957275390625,-3.222503662109375,-0.1495361328125,1.0,4.0,4.0,4.0,1.0,100.0,event
09:27:41.150,0.0,0.0,0.0,0.3187964,0.0,0.0,0.0,0.33709756,0.0,0.0,0.0,0.5127057,0.0,0.0,0.0,0.5793268,0.0,0.0,0.0,0.2963532,1443.6996,942.8571,427.50916,804.2491,1077.033,-0.28570556640625,0.0291748046875,0.94561767578125,1.74957275390625,-3.222503662109375,-0.1495361328125,1.0,4.0,4.0,4.0,1.0,100.0,event
09:27:41.151,0.0,0.0,0.0,0.3187964,0.0,0.0,0.0,0.33709756,0.0,0.0,0.0,0.5127057,0.0,0.0,0.0,0.5793268,0.0,0.0,0.0,0.2963532,1625.0183,1449.7435,743.4066,797.8022,915.05493,-0.28570556640625,0.0291748046875,0.94561767578125,1.74957275390625,-3.222503662109375,-0.1495361328125,1.0,4.0,4.0,4.0,1.0,100.0,event
09:27:41.152,0.0,0.0,0.0,0.3187964,0.0,0.0,0.0,0.33709756,0.0,0.0,0.0,0.5127057,0.0,0.0,0.0,0.5793268,0.0,0.0,0.0,0.2963532,384.3956,1368.3517,934.7985,786.9231,693.0403,-0.28570556640625,0.0291748046875,0.94561767578125,1.74957275390625,-3.222503662109375,-0.1495361328125,1.0,4.0,4.0,4.0,1.0,100.0,event
09:27:41.153,0.0,0.0,0.0,0.3187964,0.0,0.0,0.0,0.33709756,0.0,0.0,0.0,0.5127057,0.0,0.0,0.0,0.5793268,0.0,0.0,0.0,0.2963532,0.0,608.022,615.6777,793.7729,707.9487,-0.28570556640625,0.0291748046875,0.94561767578125,1.74957275390625,-3.222503662109375,-0.1495361328125,1.0,4.0,4.0,4.0,1.0,100.0,event
09:27:41.153,0.0,0.0,0.0,0.3187964,0.0,0.0,0.0,0.33709756,0.0,0.0,0.0,0.5127057,0.0,0.0,0.0,0.5793268,0.0,0.0,0.0,0.2963532,210.32967,757.9121,566.1172,805.4579,703.91943,-0.28570556640625,0.0291748046875,0.94561767578125,1.74957275390625,-3.222503662109375,-0.1495361328125,1.0,4.0,4.0,4.0,1.0,100.0,event
09:27:41.175,0.0,0.0,0.0,0.3187964,0.0,0.0,0.0,0.33709756,0.0,0.0,0.0,0.5127057,0.0,0.0,0.0,0.5793268,0.0,0.0,0.0,0.2963532,1394.1392,1468.2784,901.75824,805.8608,823.5897,-0.2823486328125,0.029296875,0.95062255859375,2.100982666015625,-3.102874755859375,-0.306549072265625,1.0,4.0,4.0,4.0,1.0,100.0,event
09:27:41.176,0.0,0.0,0.0,0.3187964,0.0,0.0,0.0,0.33709756,0.0,0.0,0.0,0.5127057,0.0,0.0,0.0,0.5793268,0.0,0.0,0.0,0.2963532,24.578754,69.70696,1207.5824,795.38464,881.6117,-0.2823486328125,0.029296875,0.95062255859375,2.100982666015625,-3.102874755859375,-0.306549072265625,1.0,4.0,4.0,4.0,1.0,100.0,event
09:27:41.177,0.0,0.0,0.0,0.3187964,0.0,0.0,0.0,0.33709756,0.0,0.0,0.0,0.5127057,0.0,0.0,0.0,0.5793268,0.0,0.0,0.0,0.2963532,472.23444,1168.0952,792.1612,784.10254,833.663,-0.2823486328125,0.029296875,0.95062255859375,2.100982666015625,-3.102874755859375,-0.306549072265625,1.0,4.0,4.0,4.0,1.0,100.0,event
09:27:41.177,0.0,0.0,0.0,0.3187964,0.0,0.0,0.0,0.33709756,0.0,0.0,0.0,0.5127057,0.0,0.0,0.0,0.5793268,0.0,0.0,0.0,0.2963532,0.0,412.1978,367.87546,779.2674,849.3773,-0.2823486328125,0.029296875,0.95062255859375,2.100982666015625,-3.102874755859375,-0.306549072265625,1.0,4.0,4.0,4.0,1.0,100.0,event
09:27:41.178,0.0,0.0,0.0,0.3187964,0.0,0.0,0.0,0.33709756,0.0,0.0,0.0,0.5127057,0.0,0.0,0.0,0.5793268,0.0,0.0,0.0,0.2963532,148.68132,777.25275,623.3333,795.78754,782.8938,-0.2823486328125,0.029296875,0.95062255859375,2.100982666015625,-3.102874755859375,-0.306549072265625,1.0,4.0,4.0,4.0,1.0,100.0,event
09:27:41.179,0.0,0.0,0.0,0.3187964,0.0,0.0,0.0,0.33709756,0.0,0.0,0.0,0.5127057,0.0,0.0,0.0,0.5793268,0.0,0.0,0.0,0.2963532,1344.9817,1544.4323,894.5055,821.1722,832.0513,-0.2823486328125,0.029296875,0.95062255859375,2.100982666015625,-3.102874755859375,-0.306549072265625,1.0,4.0,4.0,4.0,1.0,100.0,event
09:27:41.179,0.0,0.0,0.0,0.3187964,0.0,0.0,0.0,0.33709756,0.0,0.0,0.0,0.5127057,0.0,0.0,0.0,0.5793268,0.0,0.0,0.0,0.2963532,38.68132,1465.8608,722.8571,815.5311,1054.0659,-0.2823486328125,0.029296875,0.95062255859375,2.100982666015625,-3.102874755859375,-0.306549072265625,1.0,4.0,4.0,4.0,1.0,100.0,event
09:27:41.180,0.0,0.0,0.0,0.3187964,0.0,0.0,0.0,0.33709756,0.0,0.0,0.0,0.5127057,0.0,0.0,0.0,0.5793268,0.0,0.0,0.0,0.2963532,468.20514,570.9524,191.39194,797.3993,1083.0769,-0.2823486328125,0.029296875,0.95062255859375,2.100982666015625,-3.102874755859375,-0.306549072265625,1.0,4.0,4.0,4.0,1.0,100.0,event
09:27:41.180,0.0,0.0,0.0,0.3187964,0.0,0.0,0.0,0.33709756,0.0,0.0,0.0,0.5127057,0.0,0.0,0.0,0.5793268,0.0,0.0,0.0,0.2963532,0.0,562.49084,497.21613,778.86444,820.3663,-0.2823486328125,0.029296875,0.95062255859375,2.100982666015625,-3.102874755859375,-0.306549072265625,1.0,4.0,4.0,4.0,1.0,100.0,event
09:27:41.181,0.0,0.0,0.0,0.3187964,0.0,0.0,0.0,0.33709756,0.0,0.0,0.0,0.5127057,0.0,0.0,0.0,0.5793268,0.0,0.0,0.0,0.2963532,136.19048,923.1135,746.63007,794.17584,720.84247,-0.2823486328125,0.029296875,0.95062255859375,2.100982666015625,-3.102874755859375,-0.306549072265625,1.0,4.0,4.0,4.0,1.0,100.0,event
09:27:41.181,0.0,0.0,0.0,0.3187964,0.0,0.0,0.0,0.33709756,0.0,0.0,0.0,0.5127057,0.0,0.0,0.0,0.5793268,0.0,0.0,0.0,0.2963532,1245.4579,1273.2601,777.6557,817.1429,821.978,-0.2823486328125,0.029296875,0.95062255859375,2.100982666015625,-3.102874755859375,-0.306549072265625,1.0,4.0,4.0,4.0,1.0,100.0,event
09:27:41.182,0.0,0.0,0.0,0.3187964,0.0,0.0,0.0,0.33709756,0.0,0.0,0.0,0.5127057,0.0,0.0,0.0,0.5793268,0.0,0.0,0.0,0.2963532,135.78755,1622.6007,1148.3517,807.47253,885.2381,-0.2823486328125,0.029296875,0.95062255859375,2.100982666015625,-3.102874755859375,-0.306549072265625,1.0,4.0,4.0,4.0,1.0,100.0,event
09:27:41.280,0.0,0.0,0.0,0.3187964,0.0,0.0,0.0,0.33709756,0.0,0.0,0.0,0.5127057,0.0,0.0,0.0,0.5793268,0.0,0.0,0.0,0.2963532,895.31134,1550.8792,1062.9304,789.34064,808.68134,-0.2823486328125,0.029296875,0.95062255859375,2.100982666015625,-3.102874755859375,-0.306549072265625,1.0,4.0,4.0,4.0,1.0,100.0,event
09:27:41.282,0.0,0.0,0.0,0.3187964,0.0,0.0,0.0,0.33709756,0.0,0.0,0.0,0.5127057,0.0,0.0,0.0,0.5793268,0.0,0.0,0.0,0.2963532,0.0,843.73627,621.31866,780.87915,721.6484,-0.2823486328125,0.029296875,0.95062255859375,2.100982666015625,-3.102874755859375,-0.306549072265625,1.0,4.0,4.0,4.0,1.0,100.0,event
09:27:41.282,0.0,0.0,0.0,0.3187964,0.0,0.0,0.0,0.33709756,0.0,0.0,0.0,0.5127057,0.0,0.0,0.0,0.5793268,0.0,0.0,0.0,0.2963532,38.27839,426.30035,342.08792,778.86444,736.55676,-0.2823486328125,0.029296875,0.95062255859375,2.100982666015625,-3.102874755859375,-0.306549072265625,1.0,4.0,4.0,4.0,1.0,100.0,event
09:27:41.283,0.0,0.0,0.0,0.3187964,0.0,0.0,0.0,0.33709756,0.0,0.0,0.0,0.5127057,0.0,0.0,0.0,0.5793268,0.0,0.0,0.0,0.2963532,1158.4249,1059.7069,589.89014,801.4286,817.1429,-0.2823486328125,0.029296875,0.95062255859375,2.100982666015625,-3.102874755859375,-0.306549072265625,1.0,4.0,4.0,4.0,1.0,100.0,event
09:27:41.284,0.0,0.0,0.0,0.3187964,0.0,0.0,0.0,0.33709756,0.0,0.0,0.0,0.5127057,0.0,0.0,0.0,0.5793268,0.0,0.0,0.0,0.2963532,153.11356,7.655678,1047.619,803.8461,789.34064,-0.2823486328125,0.029296875,0.95062255859375,2.100982666015625,-3.102874755859375,-0.306549072265625,1.0,4.0,4.0,4.0,1.0,100.0,event
09:27:41.285,0.0,0.0,0.0,0.3187964,0.0,0.0,0.0,0.33709756,0.0,0.0,0.0,0.5127057,0.0,0.0,0.0,0.5793268,0.0,0.0,0.0,0.2963532,1033.5165,1297.8389,785.7143,785.31134,837.28937,-0.2823486328125,0.029296875,0.95062255859375,2.100982666015625,-3.102874755859375,-0.306549072265625,1.0,4.0,4.0,4.0,1.0,100.0,event
09:27:41.285,0.0,0.0,0.0,0.3187964,0.0,0.0,0.0,0.33709756,0.0,0.0,0.0,0.5127057,0.0,0.0,0.0,0.5793268,0.0,0.0,0.0,0.2963532,23.369963,179.30403,78.168495,784.90845,1108.8645,-0.2823486328125,0.029296875,0.95062255859375,2.100982666015625,-3.102874755859375,-0.306549072265625,1.0,4.0,4.0,4.0,1.0,100.0,event
09:27:41.286,0.0,0.0,0.0,0.3332511,0.0,0.0,0.0,0.39226446,0.0,0.0,0.0,0.5538642,0.0,0.0,0.0,0.59370303,0.0,0.0,0.0,0.31141996,0.0,155.53113,123.69963,787.326,1031.0989,-0.2823486328125,0.029296875,0.95062255859375,2.100982666015625,-3.102874755859375,-0.306549072265625,1.0,4.0,4.0,4.0,1.0,100.0,event
09:27:41.291,0.0,0.0,0.0,0.3332511,0.0,0.0,0.0,0.39226446,0.0,0.0,0.0,0.5538642,0.0,0.0,0.0,0.59370303,0.0,0.0,0.0,0.31141996,1069.3773,1249.4872,890.4762,826.0073,736.55676,-0.2823486328125,0.029296875,0.95062255859375,2.100982666015625,-3.102874755859375,-0.306549072265625,1.0,4.0,4.0,4.0,1.0,100.0,event
09:27:41.291,0.0,0.0,0.0,0.3332511,0.0,0.0,0.0,0.39226446,0.0,0.0,0.0,0.5538642,0.0,0.0,0.0,0.59370303,0.0,0.0,0.0,0.31141996,143.0403,2.014652,1150.3663,834.87177,687.8022,-0.2823486328125,0.029296875,0.95062255859375,2.100982666015625,-3.102874755859375,-0.306549072265625,1.0,4.0,4.0,4.0,1.0,100.0,event
09:27:41.292,0.0,0.0,0.0,0.3332511,0.0,0.0,0.0,0.39226446,0.0,0.0,0.0,0.5538642,0.0,0.0,0.0,0.59370303,0.0,0.0,0.0,0.31141996,1293.8096,1443.6996,847.3626,773.22345,684.9817,-0.2823486328125,0.029296875,0.95062255859375,2.100982666015625,-3.102874755859375,-0.306549072265625,1.0,4.0,4.0,4.0,1.0,100.0,event
09:27:41.293,0.0,0.0,0.0,0.3332511,0.0,0.0,0.0,0.39226446,0.0,0.0,0.0,0.5538642,0.0,0.0,0.0,0.59370303,0.0,0.0,0.0,0.31141996,193.4066,963.8095,693.44324,741.79486,691.4286,-0.2823486328125,0.029296875,0.95062255859375,2.100982666015625,-3.102874755859375,-0.306549072265625,1.0,4.0,4.0,4.0,1.0,100.0,event
09:27:41.327,0.0,0.0,0.0,0.3332511,0.0,0.0,0.0,0.39226446,0.0,0.0,0.0,0.5538642,0.0,0.0,0.0,0.59370303,0.0,0.0,0.0,0.31141996,0.0,698.68134,646.30035,743.00366,673.69965,-0.2763671875,0.03448486328125,0.949951171875,2.056121826171875,-2.6019287109375,0.351409912109375,1.0,4.0,4.0,4.0,1.0,100.0,event
09:27:41.328,0.0,0.0,0.0,0.3332511,0.0,0.0,0.0,0.39226446,0.0,0.0,0.0,0.5538642,0.0,0.0,0.0,0.59370303,0.0,0.0,0.0,0.31141996,819.9634,1104.8352,728.0952,727.6923,729.707,-0.2763671875,0.03448486328125,0.949951171875,2.056121826171875,-2.6019287109375,0.351409912109375,1.0,4.0,4.0,4.0,1.0,100.0,event
09:27:41.329,0.0,0.0,0.0,0.3332511,0.0,0.0,0.0,0.39226446,0.0,0.0,0.0,0.5538642,0.0,0.0,0.0,0.59370303,0.0,0.0,0.0,0.31141996,85.82417,1560.9524,976.7033,710.7692,765.9707,-0.2763671875,0.03448486328125,0.949951171875,2.056121826171875,-2.6019287109375,0.351409912109375,1.0,4.0,4.0,4.0,1.0,100.0,event
09:27:41.330,0.0,0.0,0.0,0.3332511,0.0,0.0,0.0,0.39226446,0.0,0.0,0.0,0.5538642,0.0,0.0,0.0,0.59370303,0.0,0.0,0.0,0.31141996,279.23077,1079.4506,765.9707,657.1795,744.21246,-0.2763671875,0.03448486328125,0.949951171875,2.056121826171875,-2.6019287109375,0.351409912109375,1.0,4.0,4.0,4.0,1.0,100.0,event
09:27:41.330,0.0,0.0,0.0,0.3332511,0.0,0.0,0.0,0.39226446,0.0,0.0,0.0,0.5538642,0.0,0.0,0.0,0.59370303,0.0,0.0,0.0,0.31141996,1416.3004,1606.8865,1028.2784,686.5934,703.1135,-0.2763671875,0.03448486328125,0.949951171875,2.056121826171875,-2.6019287109375,0.351409912109375,1.0,4.0,4.0,4.0,1.0,100.0,event
09:27:41.331,0.0,0.0,0.0,0.3332511,0.0,0.0,0.0,0.39226446,0.0,0.0,0.0,0.5538642,0.0,0.0,0.0,0.59370303,0.0,0.0,0.0,0.31141996,0.0,292.12454,299.7802,653.5531,832.4542,-0.2763671875,0.03448486328125,0.949951171875,2.056121826171875,-2.6019287109375,0.351409912109375,1.0,4.0,4.0,4.0,1.0,100.0,event
09:27:41.332,0.0,0.0,0.0,0.3332511,0.0,0.0,0.0,0.39226446,0.0,0.0,0.0,0.5538642,0.0,0.0,0.0,0.59370303,0.0,0.0,0.0,0.31141996,501.64835,502.85715,299.7802,648.315,806.6667,-0.2763671875,0.03448486328125,0.949951171875,2.056121826171875,-2.6019287109375,0.351409912109375,1.0,4.0,4.0,4.0,1.0,100.0,event
09:27:41.332,0.0,0.0,0.0,0.3332511,0.0,0.0,0.0,0.39226446,0.0,0.0,0.0,0.5538642,0.0,0.0,0.0,0.59370303,0.0,0.0,0.0,0.31141996,1615.751,1472.7106,841.7216,655.9707,896.1172,-0.2763671875,0.03448486328125,0.949951171875,2.056121826171875,-2.6019287109375,0.351409912109375,1.0,4.0,4.0,4.0,1.0,100.0,event
09:27:41.333,0.0,0.0,0.0,0.3332511,0.0,0.0,0.0,0.39226446,0.0,0.0,0.0,0.5538642,0.0,0.0,0.0,0.59370303,0.0,0.0,0.0,0.31141996,1525.8975,60.43956,1043.1868,651.53845,820.7692,-0.2763671875,0.03448486328125,0.949951171875,2.056121826171875,-2.6019287109375,0.351409912109375,1.0,4.0,4.0,4.0,1.0,100.0,event
09:27:41.334,0.0,0.0,0.0,0.3332511,0.0,0.0,0.0,0.39226446,0.0,0.0,0.0,0.5538642,0.0,0.0,0.0,0.59370303,0.0,0.0,0.0,0.31141996,313.47986,737.76556,469.4139,629.7802,904.57874,-0.2763671875,0.03448486328125,0.949951171875,2.056121826171875,-2.6019287109375,0.351409912109375,1.0,4.0,4.0,4.0,1.0,100.0,event
09:27:41.334,0.0,0.0,0.0,0.3332511,0.0,0.0,0.0,0.39226446,0.0,0.0,0.0,0.5538642,0.0,0.0,0.0,0.59370303,0.0,0.0,0.0,0.31141996,0.0,0.0,0.0,615.2747,1068.5714,-0.2763671875,0.03448486328125,0.949951171875,2.056121826171875,-2.6019287109375,0.351409912109375,1.0,4.0,4.0,4.0,1.0,100.0,event
09:27:41.335,0.0,0.0,0.0,0.3332511,0.0,0.0,0.0,0.39226446,0.0,0.0,0.0,0.5538642,0.0,0.0,0.0,0.59370303,0.0,0.0,0.0,0.31141996,416.63004,843.3333,617.28937,620.9158,756.7033,-0.2763671875,0.03448486328125,0.949951171875,2.056121826171875,-2.6019287109375,0.351409912109375,1.0,4.0,4.0,4.0,1.0,100.0,event
09:27:41.336,0.0,0.0,0.0,0.3332511,0.0,0.0,0.0,0.39226446,0.0,0.0,0.0,0.5538642,0.0,0.0,0.0,0.59370303,0.0,0.0,0.0,0.31141996,1553.2968,1588.3517,1122.967,647.1062,648.71796,-0.28265380859375,0.033203125,0.94305419921875,2.13836669921875,-2.1832275390625,0.336456298828125,1.0,4.0,4.0,4.0,1.0,100.0,event
09:27:41.337,0.0,0.0,0.0,0.3332511,0.0,0.0,0.0,0.39226446,0.0,0.0,0.0,0.5538642,0.0,0.0,0.0,0.59370303,0.0,0.0,0.0,0.31141996,1583.1135,1529.5238,923.1135,643.0769,765.9707,-0.28265380859375,0.033203125,0.94305419921875,2.13836669921875,-2.1832275390625,0.336456298828125,1.0,4.0,4.0,4.0,1.0,100.0,event
09:27:41.337,0.0,0.0,0.0,0.3332511,0.0,0.0,0.0,0.39226446,0.0,0.0,0.0,0.5538642,0.0,0.0,0.0,0.59370303,0.0,0.0,0.0,0.31141996,377.54578,1146.337,736.9597,633.8095,716.4103,-0.28265380859375,0.033203125,0.94305419921875,2.13836669921875,-2.1832275390625,0.336456298828125,1.0,4.0,4.0,4.0,1.0,100.0,event
09:27:41.338,0.0,0.0,0.0,0.3332511,0.0,0.0,0.0,0.39226446,0.0,0.0,0.0,0.5538642,0.0,0.0,0.0,0.59370303,0.0,0.0,0.0,0.31141996,0.0,699.0842,667.25275,641.4652,656.3736,-0.28265380859375,0.033203125,0.94305419921875,2.13836669921875,-2.1832275390625,0.336456298828125,1.0,4.0,4.0,4.0,1.0,100.0,event
09:27:41.339,0.0,0.0,0.0,0.3332511,0.0,0.0,0.0,0.39226446,0.0,0.0,0.0,0.5538642,0.0,0.0,0.0,0.59370303,0.0,0.0,0.0,0.31141996,237.326,936.0073,761.9414,648.315,754.68866,-0.28265380859375,0.033203125,0.94305419921875,2.13836669921875,-2.1832275390625,0.336456298828125,1.0,4.0,4.0,4.0,1.0,100.0,event
09:27:41.340,0.0,0.0,0.0,0.3332511,0.0,0.0,0.0,0.39226446,0.0,0.0,0.0,0.5538642,0.0,0.0,0.0,0.59370303,0.0,0.0,0.0,0.31141996,8.864469,1571.8315,827.619,649.5238,947.28937,-0.28265380859375,0.033203125,0.94305419921875,2.13836669921875,-2.1832275390625,0.336456298828125,1.0,4.0,4.0,4.0,1.0,100.0,event
09:27:41.340,0.0,0.0,0.0,0.3332511,0.0,0.0,0.0,0.39226446,0.0,0.0,0.0,0.5538642,0.0,0.0,0.0,0.59370303,0.0,0.0,0.0,0.31141996,1415.0916,1353.0403,796.5934,647.50916,946.08057,-0.28265380859375,0.033203125,0.94305419921875,2.13836669921875,-2.1832275390625,0.336456298828125,1.0,4.0,4.0,4.0,1.0,100.0,event
09:27:41.341,0.0,0.0,0.0,0.3332511,0.0,0.0,0.0,0.39226446,0.0,0.0,0.0,0.5538642,0.0,0.0,0.0,0.59370303,0.0,0.0,0.0,0.31141996,446.4469,1310.3297,829.6337,656.77655,749.0476,-0.28265380859375,0.033203125,0.94305419921875,2.13836669921875,-2.1832275390625,0.336456298828125,1.0,4.0,4.0,4.0,1.0,100.0,event
09:27:41.341,0.0,0.0,0.0,0.3332511,0.0,0.0,0.0,0.39226446,0.0,0.0,0.0,0.5538642,0.0,0.0,0.0,0.59370303,0.0,0.0,0.0,0.31141996,0.0,492.38095,473.44324,660.80585,645.89746,-0.28265380859375,0.033203125,0.94305419921875,2.13836669921875,-2.1832275390625,0.336456298828125,1.0,4.0,4.0,4.0,1.0,100.0,event
09:27:41.342,0.0,0.0,0.0,0.3332511,0.0,0.0,0.0,0.39226446,0.0,0.0,0.0,0.5538642,0.0,0.0,0.0,0.59370303,0.0,0.0,0.0,0.31141996,124.50549,63.663002,64.871796,678.1319,974.2857,-0.28265380859375,0.033203125,0.94305419921875,2.13836669921875,-2.1832275390625,0.336456298828125,1.0,4.0,4.0,4.0,1.0,100.0,event
09:27:41.347,0.0,0.0,0.0,0.3332511,0.0,0.0,0.0,0.39226446,0.0,0.0,0.0,0.5538642,0.0,0.0,0.0,0.59370303,0.0,0.0,0.0,0.31141996,1290.1831,1084.6886,667.25275,711.5751,907.3993,-0.28265380859375,0.033203125,0.94305419921875,2.13836669921875,-2.1832275390625,0.336456298828125,1.0,4.0,4.0,4.0,1.0,100.0,event
09:27:41.347,0.0,0.0,0.0,0.3332511,0.0,0.0,0.0,0.39226446,0.0,0.0,0.0,0.5538642,0.0,0.0,0.0,0.59370303,0.0,0.0,0.0,0.31141996,79.37729,116.446884,1204.359,722.4542,641.06226,-0.28265380859375,0.033203125,0.94305419921875,2.13836669921875,-2.1832275390625,0.336456298828125,1.0,4.0,4.0,4.0,1.0,100.0,event
09:27:41.376,0.0,0.0,0.0,0.3332511,0.0,0.0,0.0,0.39226446,0.0,0.0,0.0,0.5538642,0.0,0.0,0.0,0.59370303,0.0,0.0,0.0,0.31141996,583.44324,1232.1611,827.2161,713.9927,737.3626,-0.29351806640625,0.0340576171875,0.9461669921875,1.831817626953125,-3.102874755859375,-0.04486083984375,1.0,4.0,4.0,4.0,1.0,100.0,event
09:27:41.377,0.0,0.0,0.0,0.3332511,0.0,0.0,0.0,0.39226446,0.0,0.0,0.0,0.5538642,0.0,0.0,0.0,0.59370303,0.0,0.0,0.0,0.31141996,0.0,496.00732,479.08426,706.7399,768.7912,-0.29351806640625,0.0340576171875,0.9461669921875,1.831817626953125,-3.102874755859375,-0.04486083984375,1.0,4.0,4.0,4.0,1.0,100.0,event
09:27:41.377,0.0,0.0,0.0,0.3332511,0.0,0.0,0.0,0.39226446,0.0,0.0,0.0,0.5538642,0.0,0.0,0.0,0.59370303,0.0,0.0,0.0,0.31141996,135.78755,755.4945,699.89014,709.15753,727.6923,-0.29351806640625,0.0340576171875,0.9461669921875,1.831817626953125,-3.102874755859375,-0.04486083984375,1.0,4.0,4.0,4.0,1.0,100.0,event
09:27:41.378,0.0,0.0,0.0,0.3332511,0.0,0.0,0.0,0.39226446,0.0,0.0,0.0,0.5538642,0.0,0.0,0.0,0.59370303,0.0,0.0,0.0,0.31141996,1288.5714,1516.63,1096.3737,743.8095,724.87177,-0.29351806640625,0.0340576171875,0.9461669921875,1.831817626953125,-3.102874755859375,-0.04486083984375,1.0,4.0,4.0,4.0,1.0,100.0,event
09:27:41.378,0.0,0.0,0.0,0.3332511,0.0,0.0,0.0,0.39226446,0.0,0.0,0.0,0.5538642,0.0,0.0,0.0,0.59370303,0.0,0.0,0.0,0.31141996,113.22344,1620.1831,1023.8461,753.47986,740.18317,-0.29351806640625,0.0340576171875,0.9461669921875,1.831817626953125,-3.102874755859375,-0.04486083984375,1.0,4.0,4.0,4.0,1.0,100.0,event
09:27:41.379,0.0,0.0,0.0,0.3332511,0.0,0.0,0.0,0.39226446,0.0,0.0,0.0,0.5538642,0.0,0.0,0.0,0.59370303,0.0,0.0,0.0,0.31141996,756.30035,1086.3004,591.50183,738.97437,888.46155,-0.29351806640625,0.0340576171875,0.9461669921875,1.831817626953125,-3.102874755859375,-0.04486083984375,1.0,4.0,4.0,4.0,1.0,100.0,event
09:27:41.379,0.0,0.0,0.0,0.3332511,0.0,0.0,0.0,0.39226446,0.0,0.0,0.0,0.5538642,0.0,0.0,0.0,0.59370303,0.0,0.0,0.0,0.31141996,0.0,376.73993,338.0586,747.8388,941.6484,-0.29351806640625,0.0340576171875,0.9461669921875,1.831817626953125,-3.102874755859375,-0.04486083984375,1.0,4.0,4.0,4.0,1.0,100.0,event
09:27:41.380,0.0,0.0,0.0,0.3332511,0.0,0.0,0.0,0.39226446,0.0,0.0,0.0,0.5538642,0.0,0.0,0.0,0.59370303,0.0,0.0,0.0,0.31141996,77.36264,623.3333,618.49817,770.80585,784.90845,-0.29351806640625,0.0340576171875,0.9461669921875,1.831817626953125,-3.102874755859375,-0.04486083984375,1.0,4.0,4.0,4.0,1.0,100.0,event
09:27:41.380,0.0,0.0,0.0,0.3332511,0.0,0.0,0.0,0.39226446,0.0,0.0,0.0,0.5538642,0.0,0.0,0.0,0.59370303,0.0,0.0,0.0,0.31141996,1186.63,1026.2638,681.75824,784.90845,860.2564,-0.29351806640625,0.0340576171875,0.9461669921875,1.831817626953125,-3.102874755859375,-0.04486083984375,1.0,4.0,4.0,4.0,1.0,100.0,event
09:27:41.381,0.0,0.0,0.0,0.3332511,0.0,0.0,0.0,0.39226446,0.0,0.0,0.0,0.5538642,0.0,0.0,0.0,0.59370303,0.0,0.0,0.0,0.31141996,151.50183,1136.2638,528.6447,796.5934,991.6117,-0.29351806640625,0.0340576171875,0.9461669921875,1.831817626953125,-3.102874755859375,-0.04486083984375,1.0,4.0,4.0,4.0,1.0,100.0,event
09:27:41.382,0.0,0.0,0.0,0.3332511,0.0,0.0,0.0,0.39226446,0.0,0.0,0.0,0.5538642,0.0,0.0,0.0,0.59370303,0.0,0.0,0.0,0.31141996,1054.4689,1420.3297,859.45056,792.5641,740.989,-0.29351806640625,0.0340576171875,0.9461669921875,1.831817626953125,-3.102874755859375,-0.04486083984375,1.0,4.0,4.0,4.0,1.0,100.0,event
09:27:41.382,0.0,0.0,0.0,0.3332511,0.0,0.0,0.0,0.39226446,0.0,0.0,0.0,0.5538642,0.0,0.0,0.0,0.59370303,0.0,0.0,0.0,0.31141996,34.249084,808.2784,715.2015,783.69965,642.674,-0.29351806640625,0.0340576171875,0.9461669921875,1.831817626953125,-3.102874755859375,-0.04486083984375,1.0,4.0,4.0,4.0,1.0,100.0,event
09:27:41.438,0.0,0.0,0.0,0.3332511,0.0,0.0,0.0,0.39226446,0.0,0.0,0.0,0.5538642,0.0,0.0,0.0,0.59370303,0.0,0.0,0.0,0.31141996,0.0,336.04395,408.57144,792.1612,809.4872,-0.28912353515625,0.0313720703125,0.943359375,2.01873779296875,-3.050537109375,-0.770111083984375,1.0,4.0,4.0,4.0,1.0,100.0,event
09:27:41.439,0.0,0.0,0.0,0.3332511,0.0,0.0,0.0,0.39226446,0.0,0.0,0.0,0.5538642,0.0,0.0,0.0,0.59370303,0.0,0.0,0.0,0.31141996,1087.9121,1041.5751,760.32965,814.3223,838.0952,-0.28912353515625,0.0313720703125,0.943359375,2.01873779296875,-3.050537109375,-0.770111083984375,1.0,4.0,4.0,4.0,1.0,100.0,event
09:27:41.440,0.0,0.0,0.0,0.3332511,0.0,0.0,0.0,0.39226446,0.0,0.0,0.0,0.5538642,0.0,0.0,0.0,0.59370303,0.0,0.0,0.0,0.31141996,151.50183,58.82784,1298.6447,832.0513,796.1905,-0.28912353515625,0.0313720703125,0.943359375,2.01873779296875,-3.050537109375,-0.770111083984375,1.0,4.0,4.0,4.0,1.0,100.0,event
09:27:41.441,0.0,0.0,0.0,0.3332511,0.0,0.0,0.0,0.39226446,0.0,0.0,0.0,0.5538642,0.0,0.0,0.0,0.59370303,0.0,0.0,0.0,0.31141996,1251.0989,1475.9341,1059.7069,818.3516,780.4762,-0.28912353515625,0.0313720703125,0.943359375,2.01873779296875,-3.050537109375,-0.770111083984375,1.0,4.0,4.0,4.0,1.0,100.0,event
09:27:41.442,0.0,0.0,0.0,0.3332511,0.0,0.0,0.0,0.39226446,0.0,0.0,0.0,0.5538642,0.0,0.0,0.0,0.59370303,0.0,0.0,0.0,0.31141996,158.35165,361.42856,281.64835,820.7692,847.76556,-0.28912353515625,0.0313720703125,0.943359375,2.01873779296875,-3.050537109375,-0.770111083984375,1.0,4.0,4.0,4.0,1.0,100.0,event
09:27:41.443,0.0,0.0,0.0,0.3332511,0.0,0.0,0.0,0.39226446,0.0,0.0,0.0,0.5538642,0.0,0.0,0.0,0.59370303,0.0,0.0,0.0,0.31141996,0.0,96.30037,238.93773,820.7692,873.5531,-0.28912353515625,0.0313720703125,0.943359375,2.01873779296875,-3.050537109375,-0.770111083984375,1.0,4.0,4.0,4.0,1.0,100.0,event
09:27:41.444,0.0,0.0,0.0,0.3332511,0.0,0.0,0.0,0.39226446,0.0,0.0,0.0,0.5538642,0.0,0.0,0.0,0.59370303,0.0,0.0,0.0,0.31141996,873.1502,896.9231,650.32965,826.4103,812.3077,-0.28912353515625,0.0313720703125,0.943359375,2.01873779296875,-3.050537109375,-0.770111083984375,1.0,4.0,4.0,4.0,1.0,100.0,event
09:27:41.445,0.0,0.0,0.0,0.3332511,0.0,0.0,0.0,0.39226446,0.0,0.0,0.0,0.5538642,0.0,0.0,0.0,0.59370303,0.0,0.0,0.0,0.31141996,117.65568,1515.8242,871.9414,841.7216,836.8865,-0.28912353515625,0.0313720703125,0.943359375,2.01873779296875,-3.050537109375,-0.770111083984375,1.0,4.0,4.0,4.0,1.0,100.0,event
09:27:41.446,0.0,0.0,0.0,0.3332511,0.0,0.0,0.0,0.39226446,0.0,0.0,0.0,0.5538642,0.0,0.0,0.0,0.59370303,0.0,0.0,0.0,0.31141996,1297.4359,871.9414,422.27106,842.9304,999.67035,-0.28912353515625,0.0313720703125,0.943359375,2.01873779296875,-3.050537109375,-0.770111083984375,1.0,4.0,4.0,4.0,1.0,100.0,event
09:27:41.447,0.0,0.0,0.0,0.3332511,0.0,0.0,0.0,0.39226446,0.0,0.0,0.0,0.5538642,0.0,0.0,0.0,0.59370303,0.0,0.0,0.0,0.31141996,171.24542,354.1758,344.10257,826.4103,841.31866,-0.28912353515625,0.0313720703125,0.943359375,2.01873779296875,-3.050537109375,-0.770111083984375,1.0,4.0,4.0,4.0,1.0,100.0,event
09:27:41.449,0.0,0.0,0.0,0.3332511,0.0,0.0,0.0,0.39226446,0.0,0.0,0.0,0.5538642,0.0,0.0,0.0,0.59370303,0.0,0.0,0.0,0.31141996,0.0,591.0989,691.8315,815.5311,640.2564,-0.28912353515625,0.0313720703125,0.943359375,2.01873779296875,-3.050537109375,-0.770111083984375,1.0,4.0,4.0,4.0,1.0,100.0,event
09:27:41.450,0.0,0.0,0.0,0.3332511,0.0,0.0,0.0,0.39226446,0.0,0.0,0.0,0.5538642,0.0,0.0,0.0,0.59370303,0.0,0.0,0.0,0.31141996,695.05493,1056.4835,864.68866,844.1392,757.50916,-0.28912353515625,0.0313720703125,0.943359375,2.01873779296875,-3.050537109375,-0.770111083984375,1.0,4.0,4.0,4.0,1.0,100.0,event
09:27:41.474,0.0,0.0,0.0,0.3332511,0.0,0.0,0.0,0.39226446,0.0,0.0,0.0,0.5538642,0.0,0.0,0.0,0.59370303,0.0,0.0,0.0,0.31141996,39.084248,1560.9524,1156.4103,867.9121,861.06226,-0.28912353515625,0.0313720703125,0.943359375,2.01873779296875,-3.050537109375,-0.770111083984375,1.0,4.0,4.0,4.0,1.0,100.0,event
09:27:41.475,0.0,0.0,0.0,0.3332511,0.0,0.0,0.0,0.39226446,0.0,0.0,0.0,0.5538642,0.0,0.0,0.0,0.59370303,0.0,0.0,0.0,0.31141996,1488.4249,1621.392,1201.5385,855.82416,792.5641,-0.28912353515625,0.0313720703125,0.943359375,2.01873779296875,-3.050537109375,-0.770111083984375,1.0,4.0,4.0,4.0,1.0,100.0,event
09:27:41.475,0.0,0.0,0.0,0.3332511,0.0,0.0,0.0,0.39226446,0.0,0.0,0.0,0.5538642,0.0,0.0,0.0,0.59370303,0.0,0.0,0.0,0.31141996,319.5238,1055.6776,832.4542,835.2747,675.31134,-0.28912353515625,0.0313720703125,0.943359375,2.01873779296875,-3.050537109375,-0.770111083984375,1.0,4.0,4.0,4.0,1.0,100.0,event
09:27:41.475,0.0,0.0,0.0,0.3332511,0.0,0.0,0.0,0.39226446,0.0,0.0,0.0,0.5538642,0.0,0.0,0.0,0.59370303,0.0,0.0,0.0,0.31141996,0.0,298.57144,415.42123,830.0366,722.4542,-0.28912353515625,0.0313720703125,0.943359375,2.01873779296875,-3.050537109375,-0.770111083984375,1.0,4.0,4.0,4.0,1.0,100.0,event
09:27:41.476,0.0,0.0,0.0,0.3332511,0.0,0.0,0.0,0.39226446,0.0,0.0,0.0,0.5538642,0.0,0.0,0.0,0.59370303,0.0,0.0,0.0,0.31141996,468.20514,575.78754,502.85715,846.9597,758.315,-0.28912353515625,0.0313720703125,0.943359375,2.01873779296875,-3.050537109375,-0.770111083984375,1.0,4.0,4.0,4.0,1.0,100.0,event
09:27:41.476,0.0,0.0,0.0,0.3332511,0.0,0.0,0.0,0.39226446,0.0,0.0,0.0,0.5538642,0.0,0.0,0.0,0.59370303,0.0,0.0,0.0,0.31141996,1590.3663,1454.1758,862.674,870.7326,817.5458,-0.28912353515625,0.0313720703125,0.943359375,2.01873779296875,-3.050537109375,-0.770111083984375,1.0,4.0,4.0,4.0,1.0,100.0,event
09:27:41.476,0.0,0.0,0.0,0.3332511,0.0,0.0,0.0,0.39226446,0.0,0.0,0.0,0.5538642,0.0,0.0,0.0,0.59370303,0.0,0.0,0.0,0.31141996,1552.0879,1586.7399,879.59705,862.674,841.31866,-0.28912353515625,0.0313720703125,0.943359375,2.01873779296875,-3.050537109375,-0.770111083984375,1.0,4.0,4.0,4.0,1.0,100.0,event
09:27:41.476,0.0,0.0,0.0,0.3332511,0.0,0.0,0.0,0.39226446,0.0,0.0,0.0,0.5538642,0.0,0.0,0.0,0.59370303,0.0,0.0,0.0,0.31141996,346.52014,688.60803,432.74725,837.28937,885.2381,-0.28912353515625,0.0313720703125,0.943359375,2.01873779296875,-3.050537109375,-0.770111083984375,1.0,4.0,4.0,4.0,1.0,100.0,event
09:27:41.477,0.0,0.0,0.0,0.3332511,0.0,0.0,0.0,0.39226446,0.0,0.0,0.0,0.5538642,0.0,0.0,0.0,0.59370303,0.0,0.0,0.0,0.31141996,0.0,16.923077,49.15751,831.6484,1037.5458,-0.28912353515625,0.0313720703125,0.943359375,2.01873779296875,-3.050537109375,-0.770111083984375,1.0,4.0,4.0,4.0,1.0,100.0,event
09:27:41.477,0.0,0.0,0.0,0.3332511,0.0,0.0,0.0,0.39226446,0.0,0.0,0.0,0.5538642,0.0,0.0,0.0,0.59370303,0.0,0.0,0.0,0.31141996,305.0183,800.2198,686.5934,844.94507,808.68134,-0.28912353515625,0.0313720703125,0.943359375,2.01873779296875,-3.050537109375,-0.770111083984375,1.0,4.0,4.0,4.0,1.0,100.0,event
09:27:41.477,0.0,0.0,0.0,0.3332511,0.0,0.0,0.0,0.39226446,0.0,0.0,0.0,0.5538642,0.0,0.0,0.0,0.59370303,0.0,0.0,0.0,0.31141996,1469.0842,1569.011,1206.7766,861.06226,685.38464,-0.28912353515625,0.0313720703125,0.943359375,2.01873779296875,-3.050537109375,-0.770111083984375,1.0,4.0,4.0,4.0,1.0,100.0,event
09:27:41.477,0.0,0.0,0.0,0.3332511,0.0,0.0,0.0,0.39226446,0.0,0.0,0.0,0.5538642,0.0,0.0,0.0,0.59370303,0.0,0.0,0.0,0.31141996,1638.7179,1508.5714,977.1062,867.1062,746.63007,-0.28912353515625,0.0313720703125,0.943359375,2.01873779296875,-3.050537109375,-0.770111083984375,1.0,4.0,4.0,4.0,1.0,100.0,event
09:27:41.538,0.0,0.0,0.0,0.3332511,0.0,0.0,0.0,0.39226446,0.0,0.0,0.0,0.5538642,0.0,0.0,0.0,0.59370303,0.0,0.0,0.0,0.31141996,437.58243,1079.0476,775.2381,842.1245,701.50183,-0.2872314453125,0.0308837890625,0.9462890625,1.577606201171875,-3.551483154296875,-0.25421142578125,1.0,4.0,4.0,4.0,1.0,100.0,event
09:27:41.539,0.0,0.0,0.0,0.3332511,0.0,0.0,0.0,0.39226446,0.0,0.0,0.0,0.5538642,0.0,0.0,0.0,0.59370303,0.0,0.0,0.0,0.31141996,0.0,592.3077,696.6667,838.49817,678.1319,-0.2872314453125,0.0308837890625,0.9462890625,1.577606201171875,-3.551483154296875,-0.25421142578125,1.0,4.0,4.0,4.0,1.0,100.0,event
09:27:41.540,0.0,0.0,0.0,0.3332511,0.0,0.0,0.0,0.39226446,0.0,0.0,0.0,0.5538642,0.0,0.0,0.0,0.59370303,0.0,0.0,0.0,0.31141996,176.48352,772.01465,749.45056,853.00366,718.4249,-0.2872314453125,0.0308837890625,0.9462890625,1.577606201171875,-3.551483154296875,-0.25421142578125,1.0,4.0,4.0,4.0,1.0,100.0,event
09:27:41.540,0.0,0.0,0.0,0.3332511,0.0,0.0,0.0,0.39226446,0.0,0.0,0.0,0.5538642,0.0,0.0,0.0,0.59370303,0.0,0.0,0.0,0.31141996,1360.6959,1265.2014,834.4689,848.97437,840.5128,-0.2872314453125,0.0308837890625,0.9462890625,1.577606201171875,-3.551483154296875,-0.25421142578125,1.0,4.0,4.0,4.0,1.0,100.0,event
09:27:41.541,0.0,0.0,0.0,0.3332511,0.0,0.0,0.0,0.39226446,0.0,0.0,0.0,0.5538642,0.0,0.0,0.0,0.59370303,0.0,0.0,0.0,0.31141996,495.6044,1047.619,746.2271,841.7216,846.9597,-0.2872314453125,0.0308837890625,0.9462890625,1.577606201171875,-3.551483154296875,-0.25421142578125,1.0,4.0,4.0,4.0,1.0,100.0,event
09:27:41.541,0.0,0.0,0.0,0.3332511,0.0,0.0,0.0,0.39226446,0.0,0.0,0.0,0.5538642,0.0,0.0,0.0,0.59370303,0.0,0.0,0.0,0.31141996,41.0989,1603.2601,1044.7986,842.1245,837.28937,-0.2872314453125,0.0308837890625,0.9462890625,1.577606201171875,-3.551483154296875,-0.25421142578125,1.0,4.0,4.0,4.0,1.0,100.0,event
09:27:41.542,0.0,0.0,0.0,0.3332511,0.0,0.0,0.0,0.39226446,0.0,0.0,0.0,0.5538642,0.0,0.0,0.0,0.59370303,0.0,0.0,0.0,0.31141996,0.0,217.17949,309.0476,832.0513,882.8205,-0.2872314453125,0.0308837890625,0.9462890625,1.577606201171875,-3.551483154296875,-0.25421142578125,1.0,4.0,4.0,4.0,1.0,100.0,event
09:27:41.542,0.0,0.0,0.0,0.3332511,0.0,0.0,0.0,0.39226446,0.0,0.0,0.0,0.5538642,0.0,0.0,0.0,0.59370303,0.0,0.0,0.0,0.31141996,113.62637,0.0,24.578754,842.52747,1047.2161,-0.2872314453125,0.0308837890625,0.9462890625,1.577606201171875,-3.551483154296875,-0.25421142578125,1.0,4.0,4.0,4.0,1.0,100.0,event
09:27:41.543,0.0,0.0,0.0,0.3332511,0.0,0.0,0.0,0.39226446,0.0,0.0,0.0,0.5538642,0.0,0.0,0.0,0.59370303,0.0,0.0,0.0,0.31141996,1244.652,259.8901,90.65934,865.89746,1094.762,-0.2872314453125,0.0308837890625,0.9462890625,1.577606201171875,-3.551483154296875,-0.25421142578125,1.0,4.0,4.0,4.0,1.0,100.0,event
09:27:41.543,0.0,0.0,0.0,0.3332511,0.0,0.0,0.0,0.39226446,0.0,0.0,0.0,0.5538642,0.0,0.0,0.0,0.59370303,0.0,0.0,0.0,0.31141996,120.07326,1477.9487,1001.28204,852.1978,839.707,-0.2872314453125,0.0308837890625,0.9462890625,1.577606201171875,-3.551483154296875,-0.25421142578125,1.0,4.0,4.0,4.0,1.0,100.0,event
09:27:41.544,0.0,0.0,0.0,0.3332511,0.0,0.0,0.0,0.39226446,0.0,0.0,0.0,0.5538642,0.0,0.0,0.0,0.59370303,0.0,0.0,0.0,0.31141996,752.27106,1356.6666,989.19415,834.4689,700.293,-0.2872314453125,0.0308837890625,0.9462890625,1.577606201171875,-3.551483154296875,-0.25421142578125,1.0,4.0,4.0,4.0,1.0,100.0,event
09:27:41.544,0.0,0.0,0.0,0.3332511,0.0,0.0,0.0,0.39226446,0.0,0.0,0.0,0.5538642,0.0,0.0,0.0,0.59370303,0.0,0.0,0.0,0.31141996,0.0,378.75458,493.1868,830.0366,659.19415,-0.2872314453125,0.0308837890625,0.9462890625,1.577606201171875,-3.551483154296875,-0.25421142578125,1.0,4.0,4.0,4.0,1.0,100.0,event
09:27:41.574,0.0,0.0,0.0,0.3332511,0.0,0.0,0.0,0.39226446,0.0,0.0,0.0,0.5538642,0.0,0.0,0.0,0.59370303,0.0,0.0,0.0,0.31141996,101.13553,652.74725,782.0879,838.0952,670.07324,-0.2891845703125,0.0263671875,0.9437255859375,1.79443359375,-3.94775390625,-0.4486083984375,1.0,4.0,4.0,4.0,1.0,100.0,event
09:27:41.576,0.0,0.0,0.0,0.3332511,0.0,0.0,0.0,0.39226446,0.0,0.0,0.0,0.5538642,0.0,0.0,0.0,0.59370303,0.0,0.0,0.0,0.31141996,1232.967,1413.4799,1147.1428,855.0183,701.9048,-0.2891845703125,0.0263671875,0.9437255859375,1.79443359375,-3.94775390625,-0.4486083984375,1.0,4.0,4.0,4.0,1.0,100.0,event
09:27:41.579,0.0,0.0,0.0,0.3332511,0.0,0.0,0.0,0.39226446,0.0,0.0,0.0,0.5538642,0.0,0.0,0.0,0.59370303,0.0,0.0,0.0,0.31141996,145.05495,1634.2858,1170.5128,854.61536,795.38464,-0.2891845703125,0.0263671875,0.9437255859375,1.79443359375,-3.94775390625,-0.4486083984375,1.0,4.0,4.0,4.0,1.0,100.0,event
09:27:41.580,0.0,0.0,0.0,0.3332511,0.0,0.0,0.0,0.39226446,0.0,0.0,0.0,0.5538642,0.0,0.0,0.0,0.59370303,0.0,0.0,0.0,0.31141996,1005.31134,1357.4725,979.92676,821.5751,841.31866,-0.2891845703125,0.0263671875,0.9437255859375,1.79443359375,-3.94775390625,-0.4486083984375,1.0,4.0,4.0,4.0,1.0,100.0,event
09:27:41.581,0.0,0.0,0.0,0.3332511,0.0,0.0,0.0,0.39226446,0.0,0.0,0.0,0.5538642,0.0,0.0,0.0,0.59370303,0.0,0.0,0.0,0.31141996,14.505494,654.35895,679.7436,805.8608,734.5421,-0.2891845703125,0.0263671875,0.9437255859375,1.79443359375,-3.94775390625,-0.4486083984375,1.0,4.0,4.0,4.0,1.0,100.0,event
09:27:41.581,0.0,0.0,0.0,0.3332511,0.0,0.0,0.0,0.39226446,0.0,0.0,0.0,0.5538642,0.0,0.0,0.0,0.59370303,0.0,0.0,0.0,0.31141996,3.2234433,414.21246,552.01465,807.47253,716.4103,-0.2891845703125,0.0263671875,0.9437255859375,1.79443359375,-3.94775390625,-0.4486083984375,1.0,4.0,4.0,4.0,1.0,100.0,event
09:27:41.582,0.0,0.0,0.0,0.3332511,0.0,0.0,0.0,0.39226446,0.0,0.0,0.0,0.5538642,0.0,0.0,0.0,0.59370303,0.0,0.0,0.0,0.31141996,1102.4176,689.011,539.12085,825.2015,894.10254,-0.2891845703125,0.0263671875,0.9437255859375,1.79443359375,-3.94775390625,-0.4486083984375,1.0,4.0,4.0,4.0,1.0,100.0,event
09:27:41.583,0.0,0.0,0.0,0.3332511,0.0,0.0,0.0,0.39226446,0.0,0.0,0.0,0.5538642,0.0,0.0,0.0,0.59370303,0.0,0.0,0.0,0.31141996,1204.762,1358.2784,924.7253,820.3663,755.89746,-0.2891845703125,0.0263671875,0.9437255859375,1.79443359375,-3.94775390625,-0.4486083984375,1.0,4.0,4.0,4.0,1.0,100.0,event
09:27:41.583,0.0,0.0,0.0,0.3332511,0.0,0.0,0.0,0.39226446,0.0,0.0,0.0,0.5538642,0.0,0.0,0.0,0.59370303,0.0,0.0,0.0,0.31141996,153.11356,1032.7106,591.0989,839.304,1006.52014,-0.2891845703125,0.0263671875,0.9437255859375,1.79443359375,-3.94775390625,-0.4486083984375,1.0,4.0,4.0,4.0,1.0,100.0,event
09:27:41.584,0.0,0.0,0.0,0.3332511,0.0,0.0,0.0,0.39226446,0.0,0.0,0.0,0.5538642,0.0,0.0,0.0,0.59370303,0.0,0.0,0.0,0.31141996,118.46154,732.52747,750.2564,807.47253,642.674,-0.2891845703125,0.0263671875,0.9437255859375,1.79443359375,-3.94775390625,-0.4486083984375,1.0,4.0,4.0,4.0,1.0,100.0,event
09:27:41.585,0.0,0.0,0.0,0.3332511,0.0,0.0,0.0,0.39226446,0.0,0.0,0.0,0.5538642,0.0,0.0,0.0,0.59370303,0.0,0.0,0.0,0.31141996,0.0,89.04762,332.01465,811.9048,868.315,-0.2891845703125,0.0263671875,0.9437255859375,1.79443359375,-3.94775390625,-0.4486083984375,1.0,4.0,4.0,4.0,1.0,100.0,event
09:27:41.586,0.0,0.0,0.0,0.3332511,0.0,0.0,0.0,0.39226446,0.0,0.0,0.0,0.5538642,0.0,0.0,0.0,0.59370303,0.0,0.0,0.0,0.31141996,986.77655,713.5897,627.76556,824.7985,857.4359,-0.2891845703125,0.0263671875,0.9437255859375,1.79443359375,-3.94775390625,-0.4486083984375,1.0,4.0,4.0,4.0,1.0,100.0,event
09:27:41.614,0.0,0.0,0.0,0.3332511,0.0,0.0,0.0,0.39226446,0.0,0.0,0.0,0.5538642,0.0,0.0,0.0,0.59370303,0.0,0.0,0.0,0.31141996,125.71429,1644.762,1282.5275,832.4542,704.7253,-0.278564453125,0.029541015625,0.94512939453125,1.697235107421875,-3.431854248046875,-0.321502685546875,1.0,4.0,4.0,4.0,1.0,100.0,event
09:27:41.615,0.0,0.0,0.0,0.3332511,0.0,0.0,0.0,0.39226446,0.0,0.0,0.0,0.5538642,0.0,0.0,0.0,0.59370303,0.0,0.0,0.0,0.31141996,1365.1282,1526.3004,1170.1099,821.1722,771.6117,-0.278564453125,0.029541015625,0.94512939453125,1.697235107421875,-3.431854248046875,-0.321502685546875,1.0,4.0,4.0,4.0,1.0,100.0,event
09:27:41.616,0.0,0.0,0.0,0.3332511,0.0,0.0,0.0,0.39226446,0.0,0.0,0.0,0.5538642,0.0,0.0,0.0,0.59370303,0.0,0.0,0.0,0.31141996,233.69963,493.99268,538.71796,804.2491,741.39197,-0.278564453125,0.029541015625,0.94512939453125,1.697235107421875,-3.431854248046875,-0.321502685546875,1.0,4.0,4.0,4.0,1.0,100.0,event
09:27:41.616,0.0,0.0,0.0,0.3332511,0.0,0.0,0.0,0.39226446,0.0,0.0,0.0,0.5538642,0.0,0.0,0.0,0.59370303,0.0,0.0,0.0,0.31141996,0.0,259.48718,551.6117,804.65204,655.56775,-0.278564453125,0.029541015625,0.94512939453125,1.697235107421875,-3.431854248046875,-0.321502685546875,1.0,4.0,4.0,4.0,1.0,100.0,event
09:27:41.617,0.0,0.0,0.0,0.3332511,0.0,0.0,0.0,0.39226446,0.0,0.0,0.0,0.5538642,0.0,0.0,0.0,0.59370303,0.0,0.0,0.0,0.31141996,765.9707,1035.5311,983.1502,809.89014,681.3553,-0.278564453125,0.029541015625,0.94512939453125,1.697235107421875,-3.431854248046875,-0.321502685546875,1.0,4.0,4.0,4.0,1.0,100.0,event
09:27:41.617,0.0,0.0,0.0,0.3332511,0.0,0.0,0.0,0.39226446,0.0,0.0,0.0,0.5538642,0.0,0.0,0.0,0.59370303,0.0,0.0,0.0,0.31141996,74.54212,1481.978,985.56775,824.7985,821.1722,-0.278564453125,0.029541015625,0.94512939453125,1.697235107421875,-3.431854248046875,-0.321502685546875,1.0,4.0,4.0,4.0,1.0,100.0,event
09:27:41.618,0.0,0.0,0.0,0.3332511,0.0,0.0,0.0,0.39226446,0.0,0.0,0.0,0.5538642,0.0,0.0,0.0,0.59370303,0.0,0.0,0.0,0.31141996,1414.6886,822.7839,471.02563,828.8278,1105.641,-0.278564453125,0.029541015625,0.94512939453125,1.697235107421875,-3.431854248046875,-0.321502685546875,1.0,4.0,4.0,4.0,1.0,100.0,event
09:27:41.618,0.0,0.0,0.0,0.3332511,0.0,0.0,0.0,0.39226446,0.0,0.0,0.0,0.5538642,0.0,0.0,0.0,0.59370303,0.0,0.0,0.0,0.31141996,256.66666,333.22345,417.43588,811.50183,911.02563,-0.278564453125,0.029541015625,0.94512939453125,1.697235107421875,-3.431854248046875,-0.321502685546875,1.0,4.0,4.0,4.0,1.0,100.0,event
09:27:41.619,0.0,0.0,0.0,0.3332511,0.0,0.0,0.0,0.39226446,0.0,0.0,0.0,0.5538642,0.0,0.0,0.0,0.59370303,0.0,0.0,0.0,0.31141996,0.0,421.4652,703.91943,805.05493,595.9341,-0.278564453125,0.029541015625,0.94512939453125,1.697235107421875,-3.431854248046875,-0.321502685546875,1.0,4.0,4.0,4.0,1.0,100.0,event
09:27:41.620,0.0,0.0,0.0,0.3332511,0.0,0.0,0.0,0.39226446,0.0,0.0,0.0,0.5538642,0.0,0.0,0.0,0.59370303,0.0,0.0,0.0,0.31141996,523.4066,786.9231,847.76556,817.5458,707.9487,-0.278564453125,0.029541015625,0.94512939453125,1.697235107421875,-3.431854248046875,-0.321502685546875,1.0,4.0,4.0,4.0,1.0,100.0,event
09:27:41.622,0.0,0.0,0.0,0.3332511,0.0,0.0,0.0,0.39226446,0.0,0.0,0.0,0.5538642,0.0,0.0,0.0,0.59370303,0.0,0.0,0.0,0.31141996,1612.1245,1423.5531,1063.7362,837.28937,868.315,-0.278564453125,0.029541015625,0.94512939453125,1.697235107421875,-3.431854248046875,-0.321502685546875,1.0,4.0,4.0,4.0,1.0,100.0,event
09:27:41.623,0.0,0.0,0.0,0.3332511,0.0,0.0,0.0,0.39226446,0.0,0.0,0.0,0.5538642,0.0,0.0,0.0,0.59370303,0.0,0.0,0.0,0.31141996,1547.2528,1640.3297,1183.4066,824.7985,774.0293,-0.278564453125,0.029541015625,0.94512939453125,1.697235107421875,-3.431854248046875,-0.321502685546875,1.0,4.0,4.0,4.0,1.0,100.0,event
09:27:41.653,0.0,0.0,0.0,0.3332511,0.0,0.0,0.0,0.39226446,0.0,0.0,0.0,0.5538642,0.0,0.0,0.0,0.59370303,0.0,0.0,0.0,0.31141996,354.57877,965.82416,855.42126,806.26373,695.4579,-0.2818603515625,0.0252685546875,0.94488525390625,1.801910400390625,-2.5421142578125,0.07476806640625,1.0,4.0,4.0,4.0,1.0,100.0,event
09:27:41.654,0.0,0.0,0.0,0.3332511,0.0,0.0,0.0,0.39226446,0.0,0.0,0.0,0.5538642,0.0,0.0,0.0,0.59370303,0.0,0.0,0.0,0.31141996,0.0,140.62271,450.07327,808.68134,859.45056,-0.2818603515625,0.0252685546875,0.94488525390625,1.801910400390625,-2.5421142578125,0.07476806640625,1.0,4.0,4.0,4.0,1.0,100.0,event
09:27:41.655,0.0,0.0,0.0,0.3332511,0.0,0.0,0.0,0.39226446,0.0,0.0,0.0,0.5538642,0.0,0.0,0.0,0.59370303,0.0,0.0,0.0,0.31141996,352.16116,479.08426,610.4396,808.2784,875.9707,-0.2818603515625,0.0252685546875,0.94488525390625,1.801910400390625,-2.5421142578125,0.07476806640625,1.0,4.0,4.0,4.0,1.0,100.0,event
09:27:41.655,0.0,0.0,0.0,0.3332511,0.0,0.0,0.0,0.39226446,0.0,0.0,0.0,0.5538642,0.0,0.0,0.0,0.59370303,0.0,0.0,0.0,0.31141996,1515.4213,1473.5165,1133.4432,820.7692,734.94507,-0.2818603515625,0.0252685546875,0.94488525390625,1.801910400390625,-2.5421142578125,0.07476806640625,1.0,4.0,4.0,4.0,1.0,100.0,event
09:27:41.659,0.0,0.0,0.0,0.3332511,0.0,0.0,0.0,0.39226446,0.0,0.0,0.0,0.5538642,0.0,0.0,0.0,0.59370303,0.0,0.0,0.0,0.31141996,1599.6337,10.879121,1232.5641,819.9634,713.9927,-0.2818603515625,0.0252685546875,0.94488525390625,1.801910400390625,-2.5421142578125,0.07476806640625,1.0,4.0,4.0,4.0,1.0,100.0,event
09:27:41.659,0.0,0.0,0.0,0.3332511,0.0,0.0,0.0,0.39226446,0.0,0.0,0.0,0.5538642,0.0,0.0,0.0,0.59370303,0.0,0.0,0.0,0.31141996,382.78387,664.0293,534.68866,806.6667,902.96704,-0.2818603515625,0.0252685546875,0.94488525390625,1.801910400390625,-2.5421142578125,0.07476806640625,1.0,4.0,4.0,4.0,1.0,100.0,event
09:27:41.660,0.0,0.0,0.0,0.3332511,0.0,0.0,0.0,0.39226446,0.0,0.0,0.0,0.5538642,0.0,0.0,0.0,0.59370303,0.0,0.0,0.0,0.31141996,0.0,0.0,20.952381,796.1905,1042.381,-0.2818603515625,0.0252685546875,0.94488525390625,1.801910400390625,-2.5421142578125,0.07476806640625,1.0,4.0,4.0,4.0,1.0,100.0,event
09:27:41.660,0.0,0.0,0.0,0.3332511,0.0,0.0,0.0,0.39226446,0.0,0.0,0.0,0.5538642,0.0,0.0,0.0,0.59370303,0.0,0.0,0.0,0.31141996,213.55312,528.24176,582.23444,799.41394,781.685,-0.2818603515625,0.0252685546875,0.94488525390625,1.801910400390625,-2.5421142578125,0.07476806640625,1.0,4.0,4.0,4.0,1.0,100.0,event
09:27:41.661,0.0,0.0,0.0,0.3332511,0.0,0.0,0.0,0.39226446,0.0,0.0,0.0,0.5538642,0.0,0.0,0.0,0.59370303,0.0,0.0,0.0,0.31141996,1387.6923,1456.9963,1185.0183,844.94507,676.9231,-0.2818603515625,0.0252685546875,0.94488525390625,1.801910400390625,-2.5421142578125,0.07476806640625,1.0,4.0,4.0,4.0,1.0,100.0,event
09:27:41.661,0.0,0.0,0.0,0.3332511,0.0,0.0,0.0,0.39226446,0.0,0.0,0.0,0.5538642,0.0,0.0,0.0,0.59370303,0.0,0.0,0.0,0.31141996,36.666668,1426.3737,992.8205,831.6484,862.27106,-0.2818603515625,0.0252685546875,0.94488525390625,1.801910400390625,-2.5421142578125,0.07476806640625,1.0,4.0,4.0,4.0,1.0,100.0,event
09:27:41.662,0.0,0.0,0.0,0.3332511,0.0,0.0,0.0,0.39226446,0.0,0.0,0.0,0.5538642,0.0,0.0,0.0,0.59370303,0.0,0.0,0.0,0.31141996,510.51282,786.1172,659.59705,794.17584,820.7692,-0.2818603515625,0.0252685546875,0.94488525390625,1.801910400390625,-2.5421142578125,0.07476806640625,1.0,4.0,4.0,4.0,1.0,100.0,event
09:27:41.662,0.0,0.0,0.0,0.3332511,0.0,0.0,0.0,0.39226446,0.0,0.0,0.0,0.5538642,0.0,0.0,0.0,0.59370303,0.0,0.0,0.0,0.31141996,0.0,468.20514,728.0952,802.6374,705.12823,-0.2818603515625,0.0252685546875,0.94488525390625,1.801910400390625,-2.5421142578125,0.07476806640625,1.0,4.0,4.0,4.0,1.0,100.0,event
09:27:41.724,0.0,0.0,0.0,0.3332511,0.0,0.0,0.0,0.39226446,0.0,0.0,0.0,0.5538642,0.0,0.0,0.0,0.59370303,0.0,0.0,0.0,0.31141996,149.48718,604.7985,823.9927,801.4286,725.6777,-0.2818603515625,0.0252685546875,0.94488525390625,1.801910400390625,-2.5421142578125,0.07476806640625,1.0,4.0,4.0,4.0,1.0,100.0,event
09:27:41.725,0.0,0.0,0.0,0.3332511,0.0,0.0,0.0,0.39226446,0.0,0.0,0.0,0.5538642,0.0,0.0,0.0,0.59370303,0.0,0.0,0.0,0.31141996,1308.3151,1088.3151,879.19415,809.89014,804.65204,-0.2818603515625,0.0252685546875,0.94488525390625,1.801910400390625,-2.5421142578125,0.07476806640625,1.0,4.0,4.0,4.0,1.0,100.0,event
09:27:41.726,0.0,0.0,0.0,0.3332511,0.0,0.0,0.0,0.39226446,0.0,0.0,0.0,0.5538642,0.0,0.0,0.0,0.59370303,0.0,0.0,0.0,0.31141996,677.72894,1237.3993,993.22345,811.50183,751.4652,-0.2818603515625,0.0252685546875,0.94488525390625,1.801910400390625,-2.5421142578125,0.07476806640625,1.0,4.0,4.0,4.0,1.0,100.0,event
09:27:41.726,0.0,0.0,0.0,0.3332511,0.0,0.0,0.0,0.39226446,0.0,0.0,0.0,0.5538642,0.0,0.0,0.0,0.59370303,0.0,0.0,0.0,0.31141996,94.28571,1586.337,1112.8938,823.5897,795.38464,-0.2818603515625,0.0252685546875,0.94488525390625,1.801910400390625,-2.5421142578125,0.07476806640625,1.0,4.0,4.0,4.0,1.0,100.0,event
09:27:41.727,0.0,0.0,0.0,0.3332511,0.0,0.0,0.0,0.39226446,0.0,0.0,0.0,0.5538642,0.0,0.0,0.0,0.59370303,0.0,0.0,0.0,0.31141996,0.0,270.3663,488.35165,809.89014,840.10986,-0.2818603515625,0.0252685546875,0.94488525390625,1.801910400390625,-2.5421142578125,0.07476806640625,1.0,4.0,4.0,4.0,1.0,100.0,event
09:27:41.727,0.0,0.0,0.0,0.3332511,0.0,0.0,0.0,0.39226446,0.0,0.0,0.0,0.5538642,0.0,0.0,0.0,0.59370303,0.0,0.0,0.0,0.31141996,97.106224,0.0,87.03297,824.3956,1016.99634,-0.2818603515625,0.0252685546875,0.94488525390625,1.801910400390625,-2.5421142578125,0.07476806640625,1.0,4.0,4.0,4.0,1.0,100.0,event
09:27:41.728,0.0,0.0,0.0,0.3332511,0.0,0.0,0.0,0.39226446,0.0,0.0,0.0,0.5538642,0.0,0.0,0.0,0.59370303,0.0,0.0,0.0,0.31141996,1222.0879,674.5055,475.4579,818.7546,900.9524,-0.2818603515625,0.0252685546875,0.94488525390625,1.801910400390625,-2.5421142578125,0.07476806640625,1.0,4.0,4.0,4.0,1.0,100.0,event
09:27:41.729,0.0,0.0,0.0,0.3332511,0.0,0.0,0.0,0.39226446,0.0,0.0,0.0,0.5538642,0.0,0.0,0.0,0.59370303,0.0,0.0,0.0,0.31141996,142.63736,1608.4982,1182.1978,817.5458,690.2198,-0.2818603515625,0.0252685546875,0.94488525390625,1.801910400390625,-2.5421142578125,0.07476806640625,1.0,4.0,4.0,4.0,1.0,100.0,event
09:27:41.729,0.0,0.0,0.0,0.3332511,0.0,0.0,0.0,0.39226446,0.0,0.0,0.0,0.5538642,0.0,0.0,0.0,0.59370303,0.0,0.0,0.0,0.31141996,932.381,1222.4908,933.9927,799.81683,755.89746,-0.2818603515625,0.0252685546875,0.94488525390625,1.801910400390625,-2.5421142578125,0.07476806640625,1.0,4.0,4.0,4.0,1.0,100.0,event
