TimeStamp,Delta_TP9,Delta_AF7,Delta_AF8,Delta_TP10,Theta_TP9,Theta_AF7,Theta_AF8,Theta_TP10,Alpha_TP9,Alpha_AF7,Alpha_AF8,Alpha_TP10,Beta_TP9,Beta_AF7,Beta_AF8,Beta_TP10,Gamma_TP9,Gamma_AF7,Gamma_AF8,Gamma_TP10,RAW_TP9,RAW_AF7,RAW_AF8,RAW_TP10,AUX_RIGHT,Accelerometer_X,Accelerometer_Y,Accelerometer_Z,Gyro_X,Gyro_Y,Gyro_Z,HeadBandOn,HSI_TP9,HSI_AF7,HSI_AF8,HSI_TP10,Battery,Elements
12:48:36.415,1.0338432,0.15908751,1.2582589,0.5784938,1.463777,-0.10367101,0.6032951,0.32940656,1.6119024,0.45225662,-0.014264201,0.21683247,1.3771305,0.63651764,-0.12750226,0.524308,1.124297,0.7093931,-0.44645023,0.34209996,797.3993,830.0366,967.8388,778.0586,785.7143,-0.3863525390625,0.05438232421875,0.916748046875,1.375732421875,-3.349609375,-2.893524169921875,1.0,1.0,1.0,1.0,1.0,100.0,event
12:48:36.416,1.0338432,0.15908751,1.2582589,0.5784938,1.463777,-0.10367101,0.6032951,0.32940656,1.6119024,0.45225662,-0.014264201,0.21683247,1.3771305,0.63651764,-0.12750226,0.524308,1.124297,0.7093931,-0.44645023,0.34209996,1133.0403,833.663,997.6557,779.67035,668.0586,-0.3863525390625,0.05438232421875,0.916748046875,1.375732421875,-3.349609375,-2.893524169921875,1.0,1.0,1.0,1.0,1.0,100.0,event
12:48:36.417,1.0338432,0.15908751,1.2582589,0.5784938,1.463777,-0.10367101,0.6032951,0.32940656,1.6119024,0.45225662,-0.014264201,0.21683247,1.3771305,0.63651764,-0.12750226,0.524308,1.124297,0.7093931,-0.44645023,0.34209996,967.8388,783.69965,825.6044,771.2088,747.03296,-0.3863525390625,0.05438232421875,0.916748046875,1.375732421875,-3.349609375,-2.893524169921875,1.0,1.0,1.0,1.0,1.0,100.0,event
12:48:36.418,1.0338432,0.15908751,1.2582589,0.5784938,1.463777,-0.10367101,0.6032951,0.32940656,1.6119024,0.45225662,-0.014264201,0.21683247,1.3771305,0.63651764,-0.12750226,0.524308,1.124297,0.7093931,-0.44645023,0.34209996,501.64835,790.9524,747.4359,770.0,786.9231,-0.3863525390625,0.05438232421875,0.916748046875,1.375732421875,-3.349609375,-2.893524169921875,1.0,1.0,1.0,1.0,1.0,100.0,event
12:48:36.421,1.0338432,0.15908751,1.2582589,0.5784938,1.463777,-0.10367101,0.6032951,0.32940656,1.6119024,0.45225662,-0.014264201,0.21683247,1.3771305,0.63651764,-0.12750226,0.524308,1.124297,0.7093931,-0.44645023,0.34209996,446.04395,819.15753,859.85345,762.3443,719.2308,-0.3863525390625,0.05438232421875,0.916748046875,1.375732421875,-3.349609375,-2.893524169921875,1.0,1.0,1.0,1.0,1.0,100.0,event
12:48:36.422,1.0338432,0.15908751,1.2582589,0.5784938,1.463777,-0.10367101,0.6032951,0.32940656,1.6119024,0.45225662,-0.014264201,0.21683247,1.3771305,0.63651764,-0.12750226,0.524308,1.124297,0.7093931,-0.44645023,0.34209996,790.14655,815.9341,881.2088,778.46155,805.8608,-0.3863525390625,0.05438232421875,0.916748046875,1.375732421875,-3.349609375,-2.893524169921875,1.0,1.0,1.0,1.0,1.0,100.0,event
12:48:36.423,1.0338432,0.15908751,1.2582589,0.5784938,1.463777,-0.10367101,0.6032951,0.32940656,1.6119024,0.45225662,-0.014264201,0.21683247,1.3771305,0.63651764,-0.12750226,0.524308,1.124297,0.7093931,-0.44645023,0.34209996,1104.8352,799.011,855.42126,788.93774,945.6777,-0.3863525390625,0.05438232421875,0.916748046875,1.375732421875,-3.349609375,-2.893524169921875,1.0,1.0,1.0,1.0,1.0,100.0,event
12:48:36.424,1.0338432,0.15908751,1.2582589,0.5784938,1.463777,-0.10367101,0.6032951,0.32940656,1.6119024,0.45225662,-0.014264201,0.21683247,1.3771305,0.63651764,-0.12750226,0.524308,1.124297,0.7093931,-0.44645023,0.34209996,1002.0879,759.92676,725.2747,767.1795,1083.8828,-0.3863525390625,0.05438232421875,0.916748046875,1.375732421875,-3.349609375,-2.893524169921875,1.0,1.0,1.0,1.0,1.0,100.0,event
12:48:36.424,1.0338432,0.15908751,1.2582589,0.5784938,1.463777,-0.10367101,0.6032951,0.32940656,1.6119024,0.45225662,-0.014264201,0.21683247,1.3771305,0.63651764,-0.12750226,0.524308,1.124297,0.7093931,-0.44645023,0.34209996,556.8498,838.0952,896.9231,764.35895,919.89014,-0.3863525390625,0.05438232421875,0.916748046875,1.375732421875,-3.349609375,-2.893524169921875,1.0,1.0,1.0,1.0,1.0,100.0,event
12:48:36.425,1.0338432,0.15908751,1.2582589,0.5784938,1.463777,-0.10367101,0.6032951,0.32940656,1.6119024,0.45225662,-0.014264201,0.21683247,1.3771305,0.63651764,-0.12750226,0.524308,1.124297,0.7093931,-0.44645023,0.34209996,433.5531,832.4542,964.61536,782.49084,666.04395,-0.3863525390625,0.05438232421875,0.916748046875,1.375732421875,-3.349609375,-2.893524169921875,1.0,1.0,1.0,1.0,1.0,100.0,event
12:48:36.426,1.0338432,0.15908751,1.2582589,0.5784938,1.463777,-0.10367101,0.6032951,0.32940656,1.6119024,0.45225662,-0.014264201,0.21683247,1.3771305,0.63651764,-0.12750226,0.524308,1.124297,0.7093931,-0.44645023,0.34209996,746.63007,794.57874,862.27106,782.0879,691.8315,-0.3863525390625,0.05438232421875,0.916748046875,1.375732421875,-3.349609375,-2.893524169921875,1.0,1.0,1.0,1.0,1.0,100.0,event
12:48:36.427,1.0338432,0.15908751,1.2582589,0.5784938,1.463777,-0.10367101,0.6032951,0.32940656,1.6119024,0.45225662,-0.014264201,0.21683247,1.3771305,0.63651764,-0.12750226,0.524308,1.124297,0.7093931,-0.44645023,0.34209996,1098.3883,831.6484,931.978,785.31134,743.00366,-0.3863525390625,0.05438232421875,0.916748046875,1.375732421875,-3.349609375,-2.893524169921875,1.0,1.0,1.0,1.0,1.0,100.0,event
12:48:36.495,1.0338432,0.15908751,1.2582589,0.5784938,1.463777,-0.10367101,0.6032951,0.32940656,1.6119024,0.45225662,-0.014264201,0.21683247,1.3771305,0.63651764,-0.12750226,0.524308,1.124297,0.7093931,-0.44645023,0.34209996,1035.1282,808.2784,884.43225,790.9524,753.0769,-0.38885498046875,0.045166015625,0.9017333984375,2.25799560546875,-1.024322509765625,-1.57012939453125,1.0,1.0,1.0,1.0,1.0,100.0,event
12:48:36.496,1.0338432,0.15908751,1.2582589,0.5784938,1.463777,-0.10367101,0.6032951,0.32940656,1.6119024,0.45225662,-0.014264201,0.21683247,1.3771305,0.63651764,-0.12750226,0.524308,1.124297,0.7093931,-0.44645023,0.34209996,583.8461,774.83514,746.2271,792.96704,795.78754,-0.38885498046875,0.045166015625,0.9017333984375,2.25799560546875,-1.024322509765625,-1.57012939453125,1.0,1.0,1.0,1.0,1.0,100.0,event
12:48:36.497,1.0338432,0.15908751,1.2582589,0.5784938,1.463777,-0.10367101,0.6032951,0.32940656,1.6119024,0.45225662,-0.014264201,0.21683247,1.3771305,0.63651764,-0.12750226,0.524308,1.124297,0.7093931,-0.44645023,0.34209996,389.23077,799.41394,751.8681,781.28204,808.2784,-0.38885498046875,0.045166015625,0.9017333984375,2.25799560546875,-1.024322509765625,-1.57012939453125,1.0,1.0,1.0,1.0,1.0,100.0,event
12:48:36.498,1.0338432,0.15908751,1.2582589,0.5784938,1.463777,-0.10367101,0.6032951,0.32940656,1.6119024,0.45225662,-0.014264201,0.21683247,1.3771305,0.63651764,-0.12750226,0.524308,1.124297,0.7093931,-0.44645023,0.34209996,676.52014,849.3773,934.3956,788.1319,833.2601,-0.38885498046875,0.045166015625,0.9017333984375,2.25799560546875,-1.024322509765625,-1.57012939453125,1.0,1.0,1.0,1.0,1.0,100.0,event
12:48:36.499,1.0338432,0.15908751,1.2582589,0.5784938,1.463777,-0.10367101,0.6032951,0.32940656,1.6119024,0.45225662,-0.014264201,0.21683247,1.3771305,0.63651764,-0.12750226,0.524308,1.124297,0.7093931,-0.44645023,0.34209996,1051.2454,831.6484,968.6447,803.44324,833.663,-0.38885498046875,0.045166015625,0.9017333984375,2.25799560546875,-1.024322509765625,-1.57012939453125,1.0,1.0,1.0,1.0,1.0,100.0,event
12:48:36.500,1.0338432,0.15908751,1.2582589,0.5784938,1.463777,-0.10367101,0.6032951,0.32940656,1.6119024,0.45225662,-0.014264201,0.21683247,1.3771305,0.63651764,-0.12750226,0.524308,1.124297,0.7093931,-0.44645023,0.34209996,1063.3334,796.99634,826.8132,792.96704,848.97437,-0.38885498046875,0.045166015625,0.9017333984375,2.25799560546875,-1.024322509765625,-1.57012939453125,1.0,1.0,1.0,1.0,1.0,100.0,event
12:48:36.500,1.0338432,0.15908751,1.2582589,0.5784938,1.463777,-0.10367101,0.6032951,0.32940656,1.6119024,0.45225662,-0.014264201,0.21683247,1.3771305,0.63651764,-0.12750226,0.524308,1.124297,0.7093931,-0.44645023,0.34209996,636.63007,771.2088,721.2454,784.90845,963.4066,-0.38885498046875,0.045166015625,0.9017333984375,2.25799560546875,-1.024322509765625,-1.57012939453125,1.0,1.0,1.0,1.0,1.0,100.0,event
12:48:36.501,1.0338432,0.15908751,1.2582589,0.5784938,1.463777,-0.10367101,0.6032951,0.32940656,1.6119024,0.45225662,-0.014264201,0.21683247,1.3771305,0.63651764,-0.12750226,0.524308,1.124297,0.7093931,-0.44645023,0.34209996,358.20514,794.57874,732.52747,786.1172,1041.5751,-0.38885498046875,0.045166015625,0.9017333984375,2.25799560546875,-1.024322509765625,-1.57012939453125,1.0,1.0,1.0,1.0,1.0,100.0,event
12:48:36.502,1.0338432,0.15908751,1.2582589,0.5784938,1.463777,-0.10367101,0.6032951,0.32940656,1.6119024,0.45225662,-0.014264201,0.21683247,1.3771305,0.63651764,-0.12750226,0.524308,1.124297,0.7093931,-0.44645023,0.34209996,629.3773,853.4066,987.1795,782.0879,774.43225,-0.38885498046875,0.045166015625,0.9017333984375,2.25799560546875,-1.024322509765625,-1.57012939453125,1.0,1.0,1.0,1.0,1.0,100.0,event
12:48:36.503,1.0338432,0.15908751,1.2582589,0.5784938,1.463777,-0.10367101,0.6032951,0.32940656,1.6119024,0.45225662,-0.014264201,0.21683247,1.3771305,0.63651764,-0.12750226,0.524308,1.124297,0.7093931,-0.44645023,0.34209996,1118.5348,767.98535,770.40295,792.5641,844.5421,-0.38885498046875,0.045166015625,0.9017333984375,2.25799560546875,-1.024322509765625,-1.57012939453125,1.0,1.0,1.0,1.0,1.0,100.0,event
12:48:36.503,1.0338432,0.15908751,1.2582589,0.5784938,1.463777,-0.10367101,0.6032951,0.32940656,1.6119024,0.45225662,-0.014264201,0.21683247,1.3771305,0.63651764,-0.12750226,0.524308,1.124297,0.7093931,-0.44645023,0.34209996,1018.20514,806.6667,947.6923,788.93774,700.293,-0.38885498046875,0.045166015625,0.9017333984375,2.25799560546875,-1.024322509765625,-1.57012939453125,1.0,1.0,1.0,1.0,1.0,100.0,event
12:48:36.504,1.0338432,0.15908751,1.2582589,0.5784938,1.463777,-0.10367101,0.6032951,0.32940656,1.6119024,0.45225662,-0.014264201,0.21683247,1.3771305,0.63651764,-0.12750226,0.524308,1.124297,0.7093931,-0.44645023,0.34209996,711.978,802.6374,799.41394,782.0879,803.8461,-0.38885498046875,0.045166015625,0.9017333984375,2.25799560546875,-1.024322509765625,-1.57012939453125,1.0,1.0,1.0,1.0,1.0,100.0,event
12:48:36.525,1.0338432,0.15908751,1.2582589,0.5784938,1.463777,-0.10367101,0.6032951,0.32940656,1.6119024,0.45225662,-0.014264201,0.21683247,1.3771305,0.63651764,-0.12750226,0.524308,1.124297,0.7093931,-0.44645023,0.34209996,401.72162,817.1429,857.4359,787.326,673.69965,-0.38885498046875,0.045166015625,0.9017333984375,2.25799560546875,-1.024322509765625,-1.57012939453125,1.0,1.0,1.0,1.0,1.0,100.0,event
12:48:36.526,1.0338432,0.15908751,1.2582589,0.5784938,1.463777,-0.10367101,0.6032951,0.32940656,1.6119024,0.45225662,-0.014264201,0.21683247,1.3771305,0.63651764,-0.12750226,0.524308,1.124297,0.7093931,-0.44645023,0.34209996,613.2601,795.38464,825.2015,792.5641,704.3223,-0.38885498046875,0.045166015625,0.9017333984375,2.25799560546875,-1.024322509765625,-1.57012939453125,1.0,1.0,1.0,1.0,1.0,100.0,event
12:48:36.527,1.0338432,0.15908751,1.2582589,0.5784938,1.463777,-0.10367101,0.6032951,0.32940656,1.6119024,0.45225662,-0.014264201,0.21683247,1.3771305,0.63651764,-0.12750226,0.524308,1.124297,0.7093931,-0.44645023,0.34209996,957.76556,786.1172,779.2674,790.9524,800.2198,-0.38885498046875,0.045166015625,0.9017333984375,2.25799560546875,-1.024322509765625,-1.57012939453125,1.0,1.0,1.0,1.0,1.0,100.0,event
12:48:36.528,1.0338432,0.15908751,1.2582589,0.5784938,1.463777,-0.10367101,0.6032951,0.32940656,1.6119024,0.45225662,-0.014264201,0.21683247,1.3771305,0.63651764,-0.12750226,0.524308,1.124297,0.7093931,-0.44645023,0.34209996,1135.0549,808.2784,861.8681,789.7436,768.7912,-0.38885498046875,0.045166015625,0.9017333984375,2.25799560546875,-1.024322509765625,-1.57012939453125,1.0,1.0,1.0,1.0,1.0,100.0,event
12:48:36.529,1.0338432,0.15908751,1.2582589,0.5784938,1.463777,-0.10367101,0.6032951,0.32940656,1.6119024,0.45225662,-0.014264201,0.21683247,1.3771305,0.63651764,-0.12750226,0.524308,1.124297,0.7093931,-0.44645023,0.34209996,794.57874,792.5641,789.34064,780.07324,762.74725,-0.38885498046875,0.045166015625,0.9017333984375,2.25799560546875,-1.024322509765625,-1.57012939453125,1.0,1.0,1.0,1.0,1.0,100.0,event
12:48:36.530,1.0338432,0.15908751,1.2582589,0.5784938,1.463777,-0.10367101,0.6032951,0.32940656,1.6119024,0.45225662,-0.014264201,0.21683247,1.3771305,0.63651764,-0.12750226,0.524308,1.124297,0.7093931,-0.44645023,0.34209996,406.55676,767.98535,699.0842,771.2088,837.6923,-0.38885498046875,0.045166015625,0.9017333984375,2.25799560546875,-1.024322509765625,-1.57012939453125,1.0,1.0,1.0,1.0,1.0,100.0,event
12:48:36.533,1.0338432,0.15908751,1.2582589,0.5784938,1.463777,-0.10367101,0.6032951,0.32940656,1.6119024,0.45225662,-0.014264201,0.21683247,1.3771305,0.63651764,-0.12750226,0.524308,1.124297,0.7093931,-0.44645023,0.34209996,515.34796,752.27106,653.95605,773.6264,1043.9927,-0.38885498046875,0.045166015625,0.9017333984375,2.25799560546875,-1.024322509765625,-1.57012939453125,1.0,1.0,1.0,1.0,1.0,100.0,event
12:48:36.534,1.0338432,0.15908751,1.2582589,0.5784938,1.463777,-0.10367101,0.6032951,0.32940656,1.6119024,0.45225662,-0.014264201,0.21683247,1.3771305,0.63651764,-0.12750226,0.524308,1.124297,0.7093931,-0.44645023,0.34209996,913.44324,859.45056,929.5604,789.7436,1020.2198,-0.38885498046875,0.045166015625,0.9017333984375,2.25799560546875,-1.024322509765625,-1.57012939453125,1.0,1.0,1.0,1.0,1.0,100.0,event
12:48:36.535,1.0338432,0.15908751,1.2582589,0.5784938,1.463777,-0.10367101,0.6032951,0.32940656,1.6119024,0.45225662,-0.014264201,0.21683247,1.3771305,0.63651764,-0.12750226,0.524308,1.124297,0.7093931,-0.44645023,0.34209996,1191.0623,845.34796,1036.7399,806.26373,774.0293,-0.38885498046875,0.045166015625,0.9017333984375,2.25799560546875,-1.024322509765625,-1.57012939453125,1.0,1.0,1.0,1.0,1.0,100.0,event
12:48:36.535,1.0338432,0.15908751,1.2582589,0.5784938,1.463777,-0.10367101,0.6032951,0.32940656,1.6119024,0.45225662,-0.014264201,0.21683247,1.3771305,0.63651764,-0.12750226,0.524308,1.124297,0.7093931,-0.44645023,0.34209996,873.1502,774.43225,770.0,796.1905,755.4945,-0.38885498046875,0.045166015625,0.9017333984375,2.25799560546875,-1.024322509765625,-1.57012939453125,1.0,1.0,1.0,1.0,1.0,100.0,event
12:48:36.536,1.0338432,0.15908751,1.2582589,0.5784938,1.463777,-0.10367101,0.6032951,0.32940656,1.6119024,0.45225662,-0.014264201,0.21683247,1.3771305,0.63651764,-0.12750226,0.524308,1.124297,0.7093931,-0.44645023,0.34209996,437.17947,813.5165,753.8828,774.43225,771.2088,-0.38885498046875,0.045166015625,0.9017333984375,2.25799560546875,-1.024322509765625,-1.57012939453125,1.0,1.0,1.0,1.0,1.0,100.0,event
12:48:36.537,1.0338432,0.15908751,1.2582589,0.5784938,1.463777,-0.10367101,0.6032951,0.32940656,1.6119024,0.45225662,-0.014264201,0.21683247,1.3771305,0.63651764,-0.12750226,0.524308,1.124297,0.7093931,-0.44645023,0.34209996,555.2381,823.9927,877.1795,771.2088,722.8571,-0.38885498046875,0.045166015625,0.9017333984375,2.25799560546875,-1.024322509765625,-1.57012939453125,1.0,1.0,1.0,1.0,1.0,100.0,event
12:48:36.561,1.0338432,0.15908751,1.2582589,0.5784938,1.463777,-0.10367101,0.6032951,0.32940656,1.6119024,0.45225662,-0.014264201,0.21683247,1.3771305,0.63651764,-0.12750226,0.524308,1.124297,0.7093931,-0.44645023,0.34209996,951.7216,805.4579,880.0,774.83514,740.58606,-0.39227294921875,0.04876708984375,0.90826416015625,3.39447021484375,0.919647216796875,-3.147735595703125,1.0,1.0,1.0,1.0,1.0,100.0,event
12:48:36.562,1.0338432,0.15908751,1.2582589,0.5784938,1.463777,-0.10367101,0.6032951,0.32940656,1.6119024,0.45225662,-0.014264201,0.21683247,1.3771305,0.63651764,-0.12750226,0.524308,1.124297,0.7093931,-0.44645023,0.34209996,1199.9268,792.96704,821.1722,781.685,805.4579,-0.39227294921875,0.04876708984375,0.90826416015625,3.39447021484375,0.919647216796875,-3.147735595703125,1.0,1.0,1.0,1.0,1.0,100.0,event
12:48:36.563,1.0338432,0.15908751,1.2582589,0.5784938,1.463777,-0.10367101,0.6032951,0.32940656,1.6119024,0.45225662,-0.014264201,0.21683247,1.3771305,0.63651764,-0.12750226,0.524308,1.124297,0.7093931,-0.44645023,0.34209996,950.10986,802.6374,801.8315,790.14655,816.7399,-0.39227294921875,0.04876708984375,0.90826416015625,3.39447021484375,0.919647216796875,-3.147735595703125,1.0,1.0,1.0,1.0,1.0,100.0,event
12:48:36.564,1.0338432,0.15908751,1.2582589,0.5784938,1.463777,-0.10367101,0.6032951,0.32940656,1.6119024,0.45225662,-0.014264201,0.21683247,1.3771305,0.63651764,-0.12750226,0.524308,1.124297,0.7093931,-0.44645023,0.34209996,501.64835,804.65204,795.78754,780.4762,725.2747,-0.39227294921875,0.04876708984375,0.90826416015625,3.39447021484375,0.919647216796875,-3.147735595703125,1.0,1.0,1.0,1.0,1.0,100.0,event
12:48:36.565,1.0338432,0.15908751,1.2582589,0.5784938,1.463777,-0.10367101,0.6032951,0.32940656,1.6119024,0.45225662,-0.014264201,0.21683247,1.3771305,0.63651764,-0.12750226,0.524308,1.124297,0.7093931,-0.44645023,0.34209996,914.2491,788.5348,761.13556,777.25275,847.76556,-0.39227294921875,0.04876708984375,0.90826416015625,3.39447021484375,0.919647216796875,-3.147735595703125,1.0,1.0,1.0,1.0,1.0,100.0,event
12:48:36.565,1.0338432,0.15908751,1.2582589,0.5784938,1.463777,-0.10367101,0.6032951,0.32940656,1.6119024,0.45225662,-0.014264201,0.21683247,1.3771305,0.63651764,-0.12750226,0.524308,1.124297,0.7093931,-0.44645023,0.34209996,534.68866,799.81683,798.60803,774.0293,660.0,-0.39227294921875,0.04876708984375,0.90826416015625,3.39447021484375,0.919647216796875,-3.147735595703125,1.0,1.0,1.0,1.0,1.0,100.0,event
12:48:36.566,1.0338432,0.15908751,1.2582589,0.5784938,1.463777,-0.10367101,0.6032951,0.32940656,1.6119024,0.45225662,-0.014264201,0.21683247,1.3771305,0.63651764,-0.12750226,0.524308,1.124297,0.7093931,-0.44645023,0.34209996,1222.8938,811.0989,824.7985,779.2674,978.315,-0.39227294921875,0.04876708984375,0.90826416015625,3.39447021484375,0.919647216796875,-3.147735595703125,1.0,1.0,1.0,1.0,1.0,100.0,event
12:48:36.567,1.0338432,0.15908751,1.2582589,0.5784938,1.463777,-0.10367101,0.6032951,0.32940656,1.6119024,0.45225662,-0.014264201,0.21683247,1.3771305,0.63651764,-0.12750226,0.524308,1.124297,0.7093931,-0.44645023,0.34209996,1056.8865,809.4872,845.34796,782.8938,834.0659,-0.39227294921875,0.04876708984375,0.90826416015625,3.39447021484375,0.919647216796875,-3.147735595703125,1.0,1.0,1.0,1.0,1.0,100.0,event
12:48:36.568,1.0338432,0.15908751,1.2582589,0.5784938,1.463777,-0.10367101,0.6032951,0.32940656,1.6119024,0.45225662,-0.014264201,0.21683247,1.3771305,0.63651764,-0.12750226,0.524308,1.124297,0.7093931,-0.44645023,0.34209996,595.9341,806.6667,805.05493,771.2088,744.61536,-0.39227294921875,0.04876708984375,0.90826416015625,3.39447021484375,0.919647216796875,-3.147735595703125,1.0,1.0,1.0,1.0,1.0,100.0,event
12:48:36.569,1.0338432,0.15908751,1.2582589,0.5784938,1.463777,-0.10367101,0.6032951,0.32940656,1.6119024,0.45225662,-0.014264201,0.21683247,1.3771305,0.63651764,-0.12750226,0.524308,1.124297,0.7093931,-0.44645023,0.34209996,530.2564,764.35895,699.89014,768.7912,818.7546,-0.39227294921875,0.04876708984375,0.90826416015625,3.39447021484375,0.919647216796875,-3.147735595703125,1.0,1.0,1.0,1.0,1.0,100.0,event
12:48:36.571,1.0338432,0.15908751,1.2582589,0.5784938,1.463777,-0.10367101,0.6032951,0.32940656,1.6119024,0.45225662,-0.014264201,0.21683247,1.3771305,0.63651764,-0.12750226,0.524308,1.124297,0.7093931,-0.44645023,0.34209996,880.80585,822.381,784.10254,791.3553,973.0769,-0.39227294921875,0.04876708984375,0.90826416015625,3.39447021484375,0.919647216796875,-3.147735595703125,1.0,1.0,1.0,1.0,1.0,100.0,event
12:48:36.572,1.0338432,0.15908751,1.2582589,0.5784938,1.463777,-0.10367101,0.6032951,0.32940656,1.6119024,0.45225662,-0.014264201,0.21683247,1.3771305,0.63651764,-0.12750226,0.524308,1.124297,0.7093931,-0.44645023,0.34209996,1260.3663,862.27106,1006.1172,802.6374,785.7143,-0.39227294921875,0.04876708984375,0.90826416015625,3.39447021484375,0.919647216796875,-3.147735595703125,1.0,1.0,1.0,1.0,1.0,100.0,event
12:48:36.598,1.0338432,0.15908751,1.2582589,0.5784938,1.463777,-0.10367101,0.6032951,0.32940656,1.6119024,0.45225662,-0.014264201,0.21683247,1.3771305,0.63651764,-0.12750226,0.524308,1.124297,0.7093931,-0.44645023,0.34209996,1141.9048,789.34064,824.7985,793.36993,719.2308,-0.408203125,0.04144287109375,0.900390625,3.910369873046875,-2.175750732421875,-3.760833740234375,1.0,1.0,1.0,1.0,1.0,100.0,event
12:48:36.599,1.0338432,0.15908751,1.2582589,0.5784938,1.463777,-0.10367101,0.6032951,0.32940656,1.6119024,0.45225662,-0.014264201,0.21683247,1.3771305,0.63651764,-0.12750226,0.524308,1.124297,0.7093931,-0.44645023,0.34209996,649.5238,781.28204,663.22345,779.67035,749.0476,-0.408203125,0.04144287109375,0.900390625,3.910369873046875,-2.175750732421875,-3.760833740234375,1.0,1.0,1.0,1.0,1.0,100.0,event
12:48:36.600,1.0338432,0.15908751,1.2582589,0.5784938,1.463777,-0.10367101,0.6032951,0.32940656,1.6119024,0.45225662,-0.014264201,0.21683247,1.3771305,0.63651764,-0.12750226,0.524308,1.124297,0.7093931,-0.44645023,0.34209996,541.53845,811.0989,792.5641,775.64105,662.4176,-0.408203125,0.04144287109375,0.900390625,3.910369873046875,-2.175750732421875,-3.760833740234375,1.0,1.0,1.0,1.0,1.0,100.0,event
12:48:36.601,1.0338432,0.15908751,1.2582589,0.5784938,1.463777,-0.10367101,0.6032951,0.32940656,1.6119024,0.45225662,-0.014264201,0.21683247,1.3771305,0.63651764,-0.12750226,0.524308,1.124297,0.7093931,-0.44645023,0.34209996,876.77655,825.6044,886.4469,775.2381,660.80585,-0.408203125,0.04144287109375,0.900390625,3.910369873046875,-2.175750732421875,-3.760833740234375,1.0,1.0,1.0,1.0,1.0,100.0,event
12:48:36.601,1.0338432,0.15908751,1.2582589,0.5784938,1.463777,-0.10367101,0.6032951,0.32940656,1.6119024,0.45225662,-0.014264201,0.21683247,1.3771305,0.63651764,-0.12750226,0.524308,1.124297,0.7093931,-0.44645023,0.34209996,1214.8352,801.8315,835.2747,782.0879,773.22345,-0.408203125,0.04144287109375,0.900390625,3.910369873046875,-2.175750732421875,-3.760833740234375,1.0,1.0,1.0,1.0,1.0,100.0,event
12:48:36.602,1.0338432,0.15908751,1.2582589,0.5784938,1.463777,-0.10367101,0.6032951,0.32940656,1.6119024,0.45225662,-0.014264201,0.21683247,1.3771305,0.63651764,-0.12750226,0.524308,1.124297,0.7093931,-0.44645023,0.34209996,1105.641,788.93774,720.0366,792.1612,960.989,-0.408203125,0.04144287109375,0.900390625,3.910369873046875,-2.175750732421875,-3.760833740234375,1.0,1.0,1.0,1.0,1.0,100.0,event
12:48:36.603,1.0338432,0.15908751,1.2582589,0.5784938,1.463777,-0.10367101,0.6032951,0.32940656,1.6119024,0.45225662,-0.014264201,0.21683247,1.3771305,0.63651764,-0.12750226,0.524308,1.124297,0.7093931,-0.44645023,0.34209996,674.90845,810.293,727.6923,780.07324,901.3553,-0.408203125,0.04144287109375,0.900390625,3.910369873046875,-2.175750732421875,-3.760833740234375,1.0,1.0,1.0,1.0,1.0,100.0,event
12:48:36.604,1.0338432,0.15908751,1.2582589,0.5784938,1.463777,-0.10367101,0.6032951,0.32940656,1.6119024,0.45225662,-0.014264201,0.21683247,1.3771305,0.63651764,-0.12750226,0.524308,1.124297,0.7093931,-0.44645023,0.34209996,544.35895,828.4249,843.3333,778.86444,715.6044,-0.408203125,0.04144287109375,0.900390625,3.910369873046875,-2.175750732421875,-3.760833740234375,1.0,1.0,1.0,1.0,1.0,100.0,event
12:48:36.607,1.0338432,0.15908751,1.2582589,0.5784938,1.463777,-0.10367101,0.6032951,0.32940656,1.6119024,0.45225662,-0.014264201,0.21683247,1.3771305,0.63651764,-0.12750226,0.524308,1.124297,0.7093931,-0.44645023,0.34209996,1143.1135,767.98535,675.31134,787.326,962.1978,-0.408203125,0.04144287109375,0.900390625,3.910369873046875,-2.175750732421875,-3.760833740234375,1.0,1.0,1.0,1.0,1.0,100.0,event
12:48:36.607,1.0338432,0.15908751,1.2582589,0.5784938,1.463777,-0.10367101,0.6032951,0.32940656,1.6119024,0.45225662,-0.014264201,0.21683247,1.3771305,0.63651764,-0.12750226,0.524308,1.124297,0.7093931,-0.44645023,0.34209996,1215.238,821.1722,831.2454,801.4286,916.6667,-0.408203125,0.04144287109375,0.900390625,3.910369873046875,-2.175750732421875,-3.760833740234375,1.0,1.0,1.0,1.0,1.0,100.0,event
12:48:36.607,1.0338432,0.15908751,1.2582589,0.5784938,1.463777,-0.10367101,0.6032951,0.32940656,1.6119024,0.45225662,-0.014264201,0.21683247,1.3771305,0.63651764,-0.12750226,0.524308,1.124297,0.7093931,-0.44645023,0.34209996,815.9341,794.9817,801.02563,779.67035,730.10986,-0.408203125,0.04144287109375,0.900390625,3.910369873046875,-2.175750732421875,-3.760833740234375,1.0,1.0,1.0,1.0,1.0,100.0,event
12:48:36.608,1.0338432,0.15908751,1.2582589,0.5784938,1.463777,-0.10367101,0.6032951,0.32940656,1.6119024,0.45225662,-0.014264201,0.21683247,1.3771305,0.63651764,-0.12750226,0.524308,1.124297,0.7093931,-0.44645023,0.34209996,780.07324,813.5165,818.3516,790.54944,727.6923,-0.408203125,0.04144287109375,0.900390625,3.910369873046875,-2.175750732421875,-3.760833740234375,1.0,1.0,1.0,1.0,1.0,100.0,event
12:48:36.671,1.0338432,0.15908751,1.2582589,0.5784938,1.463777,-0.10367101,0.6032951,0.32940656,1.6119024,0.45225662,-0.014264201,0.21683247,1.3771305,0.63651764,-0.12750226,0.524308,1.124297,0.7093931,-0.44645023,0.34209996,484.32236,794.17584,718.8278,770.80585,716.8132,-0.39630126953125,0.04693603515625,0.9017333984375,5.555267333984375,-3.102874755859375,-4.80010986328125,1.0,1.0,1.0,1.0,1.0,100.0,event
12:48:36.672,1.0338432,0.15908751,1.2582589,0.5784938,1.463777,-0.10367101,0.6032951,0.32940656,1.6119024,0.45225662,-0.014264201,0.21683247,1.3771305,0.63651764,-0.12750226,0.524308,1.124297,0.7093931,-0.44645023,0.34209996,737.76556,838.49817,799.011,770.40295,791.3553,-0.39630126953125,0.04693603515625,0.9017333984375,5.555267333984375,-3.102874755859375,-4.80010986328125,1.0,1.0,1.0,1.0,1.0,100.0,event
12:48:36.672,1.0338432,0.15908751,1.2582589,0.5784938,1.463777,-0.10367101,0.6032951,0.32940656,1.6119024,0.45225662,-0.014264201,0.21683247,1.3771305,0.63651764,-0.12750226,0.524308,1.124297,0.7093931,-0.44645023,0.34209996,1127.3993,840.5128,902.1612,780.87915,735.7509,-0.39630126953125,0.04693603515625,0.9017333984375,5.555267333984375,-3.102874755859375,-4.80010986328125,1.0,1.0,1.0,1.0,1.0,100.0,event
12:48:36.673,1.0338432,0.15908751,1.2582589,0.5784938,1.463777,-0.10367101,0.6032951,0.32940656,1.6119024,0.45225662,-0.014264201,0.21683247,1.3771305,0.63651764,-0.12750226,0.524308,1.124297,0.7093931,-0.44645023,0.34209996,1221.6849,807.47253,836.08057,799.011,738.1685,-0.39630126953125,0.04693603515625,0.9017333984375,5.555267333984375,-3.102874755859375,-4.80010986328125,1.0,1.0,1.0,1.0,1.0,100.0,event
12:48:36.673,1.0338432,0.15908751,1.2582589,0.5784938,1.463777,-0.10367101,0.6032951,0.32940656,1.6119024,0.45225662,-0.014264201,0.21683247,1.3771305,0.63651764,-0.12750226,0.524308,1.124297,0.7093931,-0.44645023,0.34209996,782.0879,779.2674,700.696,791.75824,838.49817,-0.39630126953125,0.04693603515625,0.9017333984375,5.555267333984375,-3.102874755859375,-4.80010986328125,1.0,1.0,1.0,1.0,1.0,100.0,event
12:48:36.674,1.0338432,0.15908751,1.2582589,0.5784938,1.463777,-0.10367101,0.6032951,0.32940656,1.6119024,0.45225662,-0.014264201,0.21683247,1.3771305,0.63651764,-0.12750226,0.524308,1.124297,0.7093931,-0.44645023,0.34209996,687.3993,815.5311,782.0879,780.87915,815.5311,-0.39630126953125,0.04693603515625,0.9017333984375,5.555267333984375,-3.102874755859375,-4.80010986328125,1.0,1.0,1.0,1.0,1.0,100.0,event
12:48:36.674,1.0338432,0.15908751,1.2582589,0.5784938,1.463777,-0.10367101,0.6032951,0.32940656,1.6119024,0.45225662,-0.014264201,0.21683247,1.3771305,0.63651764,-0.12750226,0.524308,1.124297,0.7093931,-0.44645023,0.34209996,446.84982,783.2967,667.6557,770.80585,881.6117,-0.39630126953125,0.04693603515625,0.9017333984375,5.555267333984375,-3.102874755859375,-4.80010986328125,1.0,1.0,1.0,1.0,1.0,100.0,event
12:48:36.675,1.0338432,0.15908751,1.2582589,0.5784938,1.463777,-0.10367101,0.6032951,0.32940656,1.6119024,0.45225662,-0.014264201,0.21683247,1.3771305,0.63651764,-0.12750226,0.524308,1.124297,0.7093931,-0.44645023,0.34209996,1082.674,825.6044,903.7729,790.9524,745.82416,-0.39630126953125,0.04693603515625,0.9017333984375,5.555267333984375,-3.102874755859375,-4.80010986328125,1.0,1.0,1.0,1.0,1.0,100.0,event
12:48:36.676,1.0338432,0.15908751,1.2582589,0.5784938,1.463777,-0.10367101,0.6032951,0.32940656,1.6119024,0.45225662,-0.014264201,0.21683247,1.3771305,0.63651764,-0.12750226,0.524308,1.124297,0.7093931,-0.44645023,0.34209996,1190.2565,765.16486,709.15753,791.75824,876.77655,-0.39630126953125,0.04693603515625,0.9017333984375,5.555267333984375,-3.102874755859375,-4.80010986328125,1.0,1.0,1.0,1.0,1.0,100.0,event
12:48:36.676,1.0338432,0.15908751,1.2582589,0.5784938,1.463777,-0.10367101,0.6032951,0.32940656,1.6119024,0.45225662,-0.014264201,0.21683247,1.3771305,0.63651764,-0.12750226,0.524308,1.124297,0.7093931,-0.44645023,0.34209996,807.8755,803.44324,644.2857,784.90845,1019.011,-0.39630126953125,0.04693603515625,0.9017333984375,5.555267333984375,-3.102874755859375,-4.80010986328125,1.0,1.0,1.0,1.0,1.0,100.0,event
12:48:36.676,1.0338432,0.15908751,1.2582589,0.5784938,1.463777,-0.10367101,0.6032951,0.32940656,1.6119024,0.45225662,-0.014264201,0.21683247,1.3771305,0.63651764,-0.12750226,0.524308,1.124297,0.7093931,-0.44645023,0.34209996,496.41025,849.3773,860.65936,780.87915,772.4176,-0.39630126953125,0.04693603515625,0.9017333984375,5.555267333984375,-3.102874755859375,-4.80010986328125,1.0,1.0,1.0,1.0,1.0,100.0,event
12:48:36.677,1.0338432,0.15908751,1.2582589,0.5784938,1.463777,-0.10367101,0.6032951,0.32940656,1.6119024,0.45225662,-0.014264201,0.21683247,1.3771305,0.63651764,-0.12750226,0.524308,1.124297,0.7093931,-0.44645023,0.34209996,655.16486,805.05493,813.5165,783.2967,674.10254,-0.39630126953125,0.04693603515625,0.9017333984375,5.555267333984375,-3.102874755859375,-4.80010986328125,1.0,1.0,1.0,1.0,1.0,100.0,event
12:48:36.731,1.0338432,0.15908751,1.2582589,0.5784938,1.463777,-0.10367101,0.6032951,0.32940656,1.6119024,0.45225662,-0.014264201,0.21683247,1.3771305,0.63651764,-0.12750226,0.524308,1.124297,0.7093931,-0.44645023,0.34209996,1012.1612,795.38464,761.9414,788.1319,809.4872,-0.3914794921875,0.05938720703125,0.90679931640625,5.674896240234375,-3.835601806640625,-3.00567626953125,1.0,1.0,1.0,1.0,1.0,100.0,event
12:48:36.732,1.0338432,0.15908751,1.2582589,0.5784938,1.463777,-0.10367101,0.6032951,0.32940656,1.6119024,0.45225662,-0.014264201,0.21683247,1.3771305,0.63651764,-0.12750226,0.524308,1.124297,0.7093931,-0.44645023,0.34209996,1205.1648,804.65204,788.1319,794.17584,847.76556,-0.3914794921875,0.05938720703125,0.90679931640625,5.674896240234375,-3.835601806640625,-3.00567626953125,1.0,1.0,1.0,1.0,1.0,100.0,event
12:48:36.733,1.0338432,0.15908751,1.2582589,0.5784938,1.463777,-0.10367101,0.6032951,0.32940656,1.6119024,0.45225662,-0.014264201,0.21683247,1.3771305,0.63651764,-0.12750226,0.524308,1.124297,0.7093931,-0.44645023,0.34209996,886.4469,809.4872,747.03296,782.0879,832.0513,-0.3914794921875,0.05938720703125,0.90679931640625,5.674896240234375,-3.835601806640625,-3.00567626953125,1.0,1.0,1.0,1.0,1.0,100.0,event
12:48:36.734,1.0338432,0.15908751,1.2582589,0.5784938,1.463777,-0.10367101,0.6032951,0.32940656,1.6119024,0.45225662,-0.014264201,0.21683247,1.3771305,0.63651764,-0.12750226,0.524308,1.124297,0.7093931,-0.44645023,0.34209996,572.96704,773.22345,636.63007,786.52014,838.9011,-0.3914794921875,0.05938720703125,0.90679931640625,5.674896240234375,-3.835601806640625,-3.00567626953125,1.0,1.0,1.0,1.0,1.0,100.0,event
12:48:36.734,1.0338432,0.15908751,1.2582589,0.5784938,1.463777,-0.10367101,0.6032951,0.32940656,1.6119024,0.45225662,-0.014264201,0.21683247,1.3771305,0.63651764,-0.12750226,0.524308,1.124297,0.7093931,-0.44645023,0.34209996,488.75458,792.1612,722.4542,767.98535,773.6264,-0.3914794921875,0.05938720703125,0.90679931640625,5.674896240234375,-3.835601806640625,-3.00567626953125,1.0,1.0,1.0,1.0,1.0,100.0,event
12:48:36.735,1.0338432,0.15908751,1.2582589,0.5784938,1.463777,-0.10367101,0.6032951,0.32940656,1.6119024,0.45225662,-0.014264201,0.21683247,1.3771305,0.63651764,-0.12750226,0.524308,1.124297,0.7093931,-0.44645023,0.34209996,963.8095,819.15753,768.7912,793.7729,865.09155,-0.3914794921875,0.05938720703125,0.90679931640625,5.674896240234375,-3.835601806640625,-3.00567626953125,1.0,1.0,1.0,1.0,1.0,100.0,event
12:48:36.735,1.0338432,0.15908751,1.2582589,0.5784938,1.463777,-0.10367101,0.6032951,0.32940656,1.6119024,0.45225662,-0.014264201,0.21683247,1.3771305,0.63651764,-0.12750226,0.524308,1.124297,0.7093931,-0.44645023,0.34209996,1215.238,823.5897,856.63007,788.93774,867.9121,-0.3914794921875,0.05938720703125,0.90679931640625,5.674896240234375,-3.835601806640625,-3.00567626953125,1.0,1.0,1.0,1.0,1.0,100.0,event
12:48:36.736,1.0338432,0.15908751,1.2582589,0.5784938,1.463777,-0.10367101,0.6032951,0.32940656,1.6119024,0.45225662,-0.014264201,0.21683247,1.3771305,0.63651764,-0.12750226,0.524308,1.124297,0.7093931,-0.44645023,0.34209996,941.6484,784.10254,709.9634,788.1319,867.50916,-0.3914794921875,0.05938720703125,0.90679931640625,5.674896240234375,-3.835601806640625,-3.00567626953125,1.0,1.0,1.0,1.0,1.0,100.0,event
12:48:36.737,1.0338432,0.15908751,1.2582589,0.5784938,1.463777,-0.10367101,0.6032951,0.32940656,1.6119024,0.45225662,-0.014264201,0.21683247,1.3771305,0.63651764,-0.12750226,0.524308,1.124297,0.7093931,-0.44645023,0.34209996,471.42856,767.5824,564.10254,781.28204,992.4176,-0.3914794921875,0.05938720703125,0.90679931640625,5.674896240234375,-3.835601806640625,-3.00567626953125,1.0,1.0,1.0,1.0,1.0,100.0,event
12:48:36.738,1.0338432,0.15908751,1.2582589,0.5784938,1.463777,-0.10367101,0.6032951,0.32940656,1.6119024,0.45225662,-0.014264201,0.21683247,1.3771305,0.63651764,-0.12750226,0.524308,1.124297,0.7093931,-0.44645023,0.34209996,539.12085,869.5238,855.42126,786.1172,926.337,-0.3914794921875,0.05938720703125,0.90679931640625,5.674896240234375,-3.835601806640625,-3.00567626953125,1.0,1.0,1.0,1.0,1.0,100.0,event
12:48:36.742,1.0338432,0.15908751,1.2582589,0.5784938,1.463777,-0.10367101,0.6032951,0.32940656,1.6119024,0.45225662,-0.014264201,0.21683247,1.3771305,0.63651764,-0.12750226,0.524308,1.124297,0.7093931,-0.44645023,0.34209996,952.1245,845.7509,954.5421,788.1319,705.5311,-0.3914794921875,0.05938720703125,0.90679931640625,5.674896240234375,-3.835601806640625,-3.00567626953125,1.0,1.0,1.0,1.0,1.0,100.0,event
12:48:36.743,1.0338432,0.15908751,1.2582589,0.5784938,1.463777,-0.10367101,0.6032951,0.32940656,1.6119024,0.45225662,-0.014264201,0.21683247,1.3771305,0.63651764,-0.12750226,0.524308,1.124297,0.7093931,-0.44645023,0.34209996,1215.641,791.3553,779.67035,791.3553,756.7033,-0.3914794921875,0.05938720703125,0.90679931640625,5.674896240234375,-3.835601806640625,-3.00567626953125,1.0,1.0,1.0,1.0,1.0,100.0,event
12:48:36.767,1.0338432,0.15908751,1.2582589,0.5784938,1.463777,-0.10367101,0.6032951,0.32940656,1.6119024,0.45225662,-0.014264201,0.21683247,1.3771305,0.63651764,-0.12750226,0.524308,1.124297,0.7093931,-0.44645023,0.34209996,1010.9524,815.5311,776.04395,794.57874,799.41394,-0.3914794921875,0.05938720703125,0.90679931640625,5.674896240234375,-3.835601806640625,-3.00567626953125,1.0,1.0,1.0,1.0,1.0,100.0,event
12:48:36.768,1.0338432,0.15908751,1.2582589,0.5784938,1.463777,-0.10367101,0.6032951,0.32940656,1.6119024,0.45225662,-0.014264201,0.21683247,1.3771305,0.63651764,-0.12750226,0.524308,1.124297,0.7093931,-0.44645023,0.34209996,561.28204,812.3077,760.32965,789.7436,736.9597,-0.3914794921875,0.05938720703125,0.90679931640625,5.674896240234375,-3.835601806640625,-3.00567626953125,1.0,1.0,1.0,1.0,1.0,100.0,event
12:48:36.769,1.0338432,0.15908751,1.2582589,0.5784938,1.463777,-0.10367101,0.6032951,0.32940656,1.6119024,0.45225662,-0.014264201,0.21683247,1.3771305,0.63651764,-0.12750226,0.524308,1.124297,0.7093931,-0.44645023,0.34209996,518.97437,802.6374,758.315,789.34064,708.3516,-0.3914794921875,0.05938720703125,0.90679931640625,5.674896240234375,-3.835601806640625,-3.00567626953125,1.0,1.0,1.0,1.0,1.0,100.0,event
12:48:36.770,1.0338432,0.15908751,1.2582589,0.5784938,1.463777,-0.10367101,0.6032951,0.32940656,1.6119024,0.45225662,-0.014264201,0.21683247,1.3771305,0.63651764,-0.12750226,0.524308,1.124297,0.7093931,-0.44645023,0.34209996,858.6447,792.96704,745.42126,792.96704,726.4835,-0.3914794921875,0.05938720703125,0.90679931640625,5.674896240234375,-3.835601806640625,-3.00567626953125,1.0,1.0,1.0,1.0,1.0,100.0,event
12:48:36.771,1.0338432,0.15908751,1.2582589,0.5784938,1.463777,-0.10367101,0.6032951,0.32940656,1.6119024,0.45225662,-0.014264201,0.21683247,1.3771305,0.63651764,-0.12750226,0.524308,1.124297,0.7093931,-0.44645023,0.34209996,1180.989,808.68134,793.36993,807.47253,786.9231,-0.3914794921875,0.05938720703125,0.90679931640625,5.674896240234375,-3.835601806640625,-3.00567626953125,1.0,1.0,1.0,1.0,1.0,100.0,event
12:48:36.772,1.0338432,0.15908751,1.2582589,0.5784938,1.463777,-0.10367101,0.6032951,0.32940656,1.6119024,0.45225662,-0.014264201,0.21683247,1.3771305,0.63651764,-0.12750226,0.524308,1.124297,0.7093931,-0.44645023,0.34209996,1004.10254,797.3993,720.4396,813.5165,839.707,-0.3914794921875,0.05938720703125,0.90679931640625,5.674896240234375,-3.835601806640625,-3.00567626953125,1.0,1.0,1.0,1.0,1.0,100.0,event
12:48:36.775,1.0338432,0.15908751,1.2582589,0.5784938,1.463777,-0.10367101,0.6032951,0.32940656,1.6119024,0.45225662,-0.014264201,0.21683247,1.3771305,0.63651764,-0.12750226,0.524308,1.124297,0.7093931,-0.44645023,0.34209996,534.2857,802.6374,688.20514,798.20514,864.2857,-0.3914794921875,0.05938720703125,0.90679931640625,5.674896240234375,-3.835601806640625,-3.00567626953125,1.0,1.0,1.0,1.0,1.0,100.0,event
12:48:36.776,1.0338432,0.15908751,1.2582589,0.5784938,1.463777,-0.10367101,0.6032951,0.32940656,1.6119024,0.45225662,-0.014264201,0.21683247,1.3771305,0.63651764,-0.12750226,0.524308,1.124297,0.7093931,-0.44645023,0.34209996,430.32968,784.5055,672.8938,778.0586,896.52014,-0.3914794921875,0.05938720703125,0.90679931640625,5.674896240234375,-3.835601806640625,-3.00567626953125,1.0,1.0,1.0,1.0,1.0,100.0,event
12:48:36.777,1.0338432,0.15908751,1.2582589,0.5784938,1.463777,-0.10367101,0.6032951,0.32940656,1.6119024,0.45225662,-0.014264201,0.21683247,1.3771305,0.63651764,-0.12750226,0.524308,1.124297,0.7093931,-0.44645023,0.34209996,720.84247,788.5348,663.22345,782.0879,1050.0366,-0.3914794921875,0.05938720703125,0.90679931640625,5.674896240234375,-3.835601806640625,-3.00567626953125,1.0,1.0,1.0,1.0,1.0,100.0,event
12:48:36.780,1.0338432,0.15908751,1.2582589,0.5784938,1.463777,-0.10367101,0.6032951,0.32940656,1.6119024,0.45225662,-0.014264201,0.21683247,1.3771305,0.63651764,-0.12750226,0.524308,1.124297,0.7093931,-0.44645023,0.34209996,1120.5494,865.09155,950.5128,805.05493,908.60803,-0.3914794921875,0.05938720703125,0.90679931640625,5.674896240234375,-3.835601806640625,-3.00567626953125,1.0,1.0,1.0,1.0,1.0,100.0,event
12:48:36.781,1.0338432,0.15908751,1.2582589,0.5784938,1.463777,-0.10367101,0.6032951,0.32940656,1.6119024,0.45225662,-0.014264201,0.21683247,1.3771305,0.63651764,-0.12750226,0.524308,1.124297,0.7093931,-0.44645023,0.34209996,1073.0037,819.9634,876.3736,815.9341,778.0586,-0.3914794921875,0.05938720703125,0.90679931640625,5.674896240234375,-3.835601806640625,-3.00567626953125,1.0,1.0,1.0,1.0,1.0,100.0,event
12:48:36.782,1.0338432,0.15908751,1.2582589,0.5784938,1.463777,-0.10367101,0.6032951,0.32940656,1.6119024,0.45225662,-0.014264201,0.21683247,1.3771305,0.63651764,-0.12750226,0.524308,1.124297,0.7093931,-0.44645023,0.34209996,560.07324,768.7912,627.3626,791.75824,833.2601,-0.3914794921875,0.05938720703125,0.90679931640625,5.674896240234375,-3.835601806640625,-3.00567626953125,1.0,1.0,1.0,1.0,1.0,100.0,event
12:48:36.804,1.0338432,0.15908751,1.2582589,0.5784938,1.463777,-0.10367101,0.6032951,0.32940656,1.6119024,0.45225662,-0.014264201,0.21683247,1.3771305,0.63651764,-0.12750226,0.524308,1.124297,0.7093931,-0.44645023,0.34209996,411.39194,811.50183,736.1539,780.87915,774.0293,-0.3880615234375,0.0606689453125,0.908935546875,3.177642822265625,-4.14215087890625,0.231781005859375,1.0,1.0,1.0,1.0,1.0,100.0,event
12:48:36.805,1.0338432,0.15908751,1.2582589,0.5784938,1.463777,-0.10367101,0.6032951,0.32940656,1.6119024,0.45225662,-0.014264201,0.21683247,1.3771305,0.63651764,-0.12750226,0.524308,1.124297,0.7093931,-0.44645023,0.34209996,738.97437,819.15753,815.9341,785.7143,712.7839,-0.3880615234375,0.0606689453125,0.908935546875,3.177642822265625,-4.14215087890625,0.231781005859375,1.0,1.0,1.0,1.0,1.0,100.0,event
12:48:36.806,1.0338432,0.15908751,1.2582589,0.5784938,1.463777,-0.10367101,0.6032951,0.32940656,1.6119024,0.45225662,-0.014264201,0.21683247,1.3771305,0.63651764,-0.12750226,0.524308,1.124297,0.7093931,-0.44645023,0.34209996,1086.3004,793.36993,729.707,781.28204,703.91943,-0.3880615234375,0.0606689453125,0.908935546875,3.177642822265625,-4.14215087890625,0.231781005859375,1.0,1.0,1.0,1.0,1.0,100.0,event
12:48:36.806,1.0338432,0.15908751,1.2582589,0.5784938,1.463777,-0.10367101,0.6032951,0.32940656,1.6119024,0.45225662,-0.014264201,0.21683247,1.3771305,0.63651764,-0.12750226,0.524308,1.124297,0.7093931,-0.44645023,0.34209996,1076.63,805.05493,710.3663,784.5055,812.3077,-0.3880615234375,0.0606689453125,0.908935546875,3.177642822265625,-4.14215087890625,0.231781005859375,1.0,1.0,1.0,1.0,1.0,100.0,event
12:48:36.807,1.0338432,0.15908751,1.2582589,0.5784938,1.463777,-0.10367101,0.6032951,0.32940656,1.6119024,0.45225662,-0.014264201,0.21683247,1.3771305,0.63651764,-0.12750226,0.524308,1.124297,0.7093931,-0.44645023,0.34209996,618.9011,804.65204,708.7546,780.4762,797.8022,-0.3880615234375,0.0606689453125,0.908935546875,3.177642822265625,-4.14215087890625,0.231781005859375,1.0,1.0,1.0,1.0,1.0,100.0,event
12:48:36.807,1.0338432,0.15908751,1.2582589,0.5784938,1.463777,-0.10367101,0.6032951,0.32940656,1.6119024,0.45225662,-0.014264201,0.21683247,1.3771305,0.63651764,-0.12750226,0.524308,1.124297,0.7093931,-0.44645023,0.34209996,406.15384,804.65204,690.2198,775.64105,809.89014,-0.3880615234375,0.0606689453125,0.908935546875,3.177642822265625,-4.14215087890625,0.231781005859375,1.0,1.0,1.0,1.0,1.0,100.0,event
12:48:36.808,1.0338432,0.15908751,1.2582589,0.5784938,1.463777,-0.10367101,0.6032951,0.32940656,1.6119024,0.45225662,-0.014264201,0.21683247,1.3771305,0.63651764,-0.12750226,0.524308,1.124297,0.7093931,-0.44645023,0.34209996,682.96704,802.6374,723.663,782.0879,904.17584,-0.3880615234375,0.0606689453125,0.908935546875,3.177642822265625,-4.14215087890625,0.231781005859375,1.0,1.0,1.0,1.0,1.0,100.0,event
12:48:36.808,1.0338432,0.15908751,1.2582589,0.5784938,1.463777,-0.10367101,0.6032951,0.32940656,1.6119024,0.45225662,-0.014264201,0.21683247,1.3771305,0.63651764,-0.12750226,0.524308,1.124297,0.7093931,-0.44645023,0.34209996,1002.8938,765.56775,622.52747,799.011,1058.0952,-0.3880615234375,0.0606689453125,0.908935546875,3.177642822265625,-4.14215087890625,0.231781005859375,1.0,1.0,1.0,1.0,1.0,100.0,event
12:48:36.809,1.0338432,0.15908751,1.2582589,0.5784938,1.463777,-0.10367101,0.6032951,0.32940656,1.6119024,0.45225662,-0.014264201,0.21683247,1.3771305,0.63651764,-0.12750226,0.524308,1.124297,0.7093931,-0.44645023,0.34209996,1086.3004,832.0513,785.31134,795.38464,1033.5165,-0.3880615234375,0.0606689453125,0.908935546875,3.177642822265625,-4.14215087890625,0.231781005859375,1.0,1.0,1.0,1.0,1.0,100.0,event
12:48:36.809,1.0338432,0.15908751,1.2582589,0.5784938,1.463777,-0.10367101,0.6032951,0.32940656,1.6119024,0.45225662,-0.014264201,0.21683247,1.3771305,0.63651764,-0.12750226,0.524308,1.124297,0.7093931,-0.44645023,0.34209996,703.5165,832.0513,844.94507,781.28204,754.2857,-0.3880615234375,0.0606689453125,0.908935546875,3.177642822265625,-4.14215087890625,0.231781005859375,1.0,1.0,1.0,1.0,1.0,100.0,event
12:48:36.810,1.0338432,0.15908751,1.2582589,0.5784938,1.463777,-0.10367101,0.6032951,0.32940656,1.6119024,0.45225662,-0.014264201,0.21683247,1.3771305,0.63651764,-0.12750226,0.524308,1.124297,0.7093931,-0.44645023,0.34209996,395.27472,785.7143,664.43225,782.8938,759.92676,-0.3880615234375,0.0606689453125,0.908935546875,3.177642822265625,-4.14215087890625,0.231781005859375,1.0,1.0,1.0,1.0,1.0,100.0,event
12:48:36.811,1.0338432,0.15908751,1.2582589,0.5784938,1.463777,-0.10367101,0.6032951,0.32940656,1.6119024,0.45225662,-0.014264201,0.21683247,1.3771305,0.63651764,-0.12750226,0.524308,1.124297,0.7093931,-0.44645023,0.34209996,620.10986,824.7985,692.6374,776.8498,847.3626,-0.3880615234375,0.0606689453125,0.908935546875,3.177642822265625,-4.14215087890625,0.231781005859375,1.0,1.0,1.0,1.0,1.0,100.0,event
12:48:36.853,1.0338432,0.15908751,1.2582589,0.5784938,1.463777,-0.10367101,0.6032951,0.32940656,1.6119024,0.45225662,-0.014264201,0.21683247,1.3771305,0.63651764,-0.12750226,0.524308,1.124297,0.7093931,-0.44645023,0.34209996,1016.1905,844.5421,838.9011,773.6264,764.35895,-0.40765380859375,0.05584716796875,0.91259765625,2.03369140625,-4.41131591796875,2.6617431640625,1.0,1.0,1.0,1.0,1.0,100.0,event
12:48:36.854,1.0338432,0.15908751,1.2582589,0.5784938,1.463777,-0.10367101,0.6032951,0.32940656,1.6119024,0.45225662,-0.014264201,0.21683247,1.3771305,0.63651764,-0.12750226,0.524308,1.124297,0.7093931,-0.44645023,0.34209996,1161.2454,812.71063,792.1612,784.90845,734.1392,-0.40765380859375,0.05584716796875,0.91259765625,2.03369140625,-4.41131591796875,2.6617431640625,1.0,1.0,1.0,1.0,1.0,100.0,event
12:48:36.855,1.0338432,0.15908751,1.2582589,0.5784938,1.463777,-0.10367101,0.6032951,0.32940656,1.6119024,0.45225662,-0.014264201,0.21683247,1.3771305,0.63651764,-0.12750226,0.524308,1.124297,0.7093931,-0.44645023,0.34209996,757.9121,783.2967,645.89746,772.4176,793.36993,-0.40765380859375,0.05584716796875,0.91259765625,2.03369140625,-4.41131591796875,2.6617431640625,1.0,1.0,1.0,1.0,1.0,100.0,event
12:48:36.856,1.0338432,0.15908751,1.2582589,0.5784938,1.463777,-0.10367101,0.6032951,0.32940656,1.6119024,0.45225662,-0.014264201,0.21683247,1.3771305,0.63651764,-0.12750226,0.524308,1.124297,0.7093931,-0.44645023,0.34209996,402.52747,809.4872,689.81683,762.74725,780.07324,-0.40765380859375,0.05584716796875,0.91259765625,2.03369140625,-4.41131591796875,2.6617431640625,1.0,1.0,1.0,1.0,1.0,100.0,event
12:48:36.857,1.0338432,0.15908751,1.2582589,0.5784938,1.463777,-0.10367101,0.6032951,0.32940656,1.6119024,0.45225662,-0.014264201,0.21683247,1.3771305,0.63651764,-0.12750226,0.524308,1.124297,0.7093931,-0.44645023,0.34209996,975.4945,802.6374,724.87177,782.8938,779.2674,-0.40765380859375,0.05584716796875,0.91259765625,2.03369140625,-4.41131591796875,2.6617431640625,1.0,1.0,1.0,1.0,1.0,100.0,event
12:48:36.857,1.0338432,0.15908751,1.2582589,0.5784938,1.463777,-0.10367101,0.6032951,0.32940656,1.6119024,0.45225662,-0.014264201,0.21683247,1.3771305,0.63651764,-0.12750226,0.524308,1.124297,0.7093931,-0.44645023,0.34209996,602.7839,820.7692,765.9707,770.0,709.9634,-0.40765380859375,0.05584716796875,0.91259765625,2.03369140625,-4.41131591796875,2.6617431640625,1.0,1.0,1.0,1.0,1.0,100.0,event
12:48:36.858,1.0338432,0.15908751,1.2582589,0.5784938,1.463777,-0.10367101,0.6032951,0.32940656,1.6119024,0.45225662,-0.014264201,0.21683247,1.3771305,0.63651764,-0.12750226,0.524308,1.124297,0.7093931,-0.44645023,0.34209996,1139.0842,780.4762,640.2564,798.60803,943.663,-0.40765380859375,0.05584716796875,0.91259765625,2.03369140625,-4.41131591796875,2.6617431640625,1.0,1.0,1.0,1.0,1.0,100.0,event
12:48:36.859,1.0338432,0.15908751,1.2582589,0.5784938,1.463777,-0.10367101,0.6032951,0.32940656,1.6119024,0.45225662,-0.014264201,0.21683247,1.3771305,0.63651764,-0.12750226,0.524308,1.124297,0.7093931,-0.44645023,0.34209996,794.9817,821.5751,653.1502,803.0403,1016.99634,-0.40765380859375,0.05584716796875,0.91259765625,2.03369140625,-4.41131591796875,2.6617431640625,1.0,1.0,1.0,1.0,1.0,100.0,event
12:48:36.859,1.0338432,0.15908751,1.2582589,0.5784938,1.463777,-0.10367101,0.6032951,0.32940656,1.6119024,0.45225662,-0.014264201,0.21683247,1.3771305,0.63651764,-0.12750226,0.524308,1.124297,0.7093931,-0.44645023,0.34209996,424.2857,847.3626,809.0842,784.5055,789.7436,-0.40765380859375,0.05584716796875,0.91259765625,2.03369140625,-4.41131591796875,2.6617431640625,1.0,1.0,1.0,1.0,1.0,100.0,event
12:48:36.860,1.0338432,0.15908751,1.2582589,0.5784938,1.463777,-0.10367101,0.6032951,0.32940656,1.6119024,0.45225662,-0.014264201,0.21683247,1.3771305,0.63651764,-0.12750226,0.524308,1.124297,0.7093931,-0.44645023,0.34209996,551.6117,806.6667,760.7326,775.2381,631.39197,-0.40765380859375,0.05584716796875,0.91259765625,2.03369140625,-4.41131591796875,2.6617431640625,1.0,1.0,1.0,1.0,1.0,100.0,event
12:48:36.861,1.0338432,0.15908751,1.2582589,0.5784938,1.463777,-0.10367101,0.6032951,0.32940656,1.6119024,0.45225662,-0.014264201,0.21683247,1.3771305,0.63651764,-0.12750226,0.524308,1.124297,0.7093931,-0.44645023,0.34209996,915.4579,774.0293,657.5824,780.87915,803.0403,-0.40765380859375,0.05584716796875,0.91259765625,2.03369140625,-4.41131591796875,2.6617431640625,1.0,1.0,1.0,1.0,1.0,100.0,event
12:48:36.861,1.0338432,0.15908751,1.2582589,0.5784938,1.463777,-0.10367101,0.6032951,0.32940656,1.6119024,0.45225662,-0.014264201,0.21683247,1.3771305,0.63651764,-0.12750226,0.524308,1.124297,0.7093931,-0.44645023,0.34209996,1138.2784,800.2198,736.9597,779.2674,905.38464,-0.40765380859375,0.05584716796875,0.91259765625,2.03369140625,-4.41131591796875,2.6617431640625,1.0,1.0,1.0,1.0,1.0,100.0,event
12:48:36.895,1.0338432,0.15908751,1.2582589,0.5784938,1.463777,-0.10367101,0.6032951,0.32940656,1.6119024,0.45225662,-0.014264201,0.21683247,1.3771305,0.63651764,-0.12750226,0.524308,1.124297,0.7093931,-0.44645023,0.34209996,868.315,830.0366,799.011,778.0586,740.58606,-0.39361572265625,0.05914306640625,0.9078369140625,2.0037841796875,-4.50103759765625,1.92901611328125,1.0,1.0,1.0,1.0,1.0,100.0,event
12:48:36.896,1.0338432,0.15908751,1.2582589,0.5784938,1.463777,-0.10367101,0.6032951,0.32940656,1.6119024,0.45225662,-0.014264201,0.21683247,1.3771305,0.63651764,-0.12750226,0.524308,1.124297,0.7093931,-0.44645023,0.34209996,441.2088,789.34064,685.78754,779.2674,699.89014,-0.39361572265625,0.05914306640625,0.9078369140625,2.0037841796875,-4.50103759765625,1.92901611328125,1.0,1.0,1.0,1.0,1.0,100.0,event
12:48:36.897,1.0338432,0.15908751,1.2582589,0.5784938,1.463777,-0.10367101,0.6032951,0.32940656,1.6119024,0.45225662,-0.014264201,0.21683247,1.3771305,0.63651764,-0.12750226,0.524308,1.124297,0.7093931,-0.44645023,0.34209996,471.02563,757.9121,583.8461,774.0293,842.1245,-0.39361572265625,0.05914306640625,0.9078369140625,2.0037841796875,-4.50103759765625,1.92901611328125,1.0,1.0,1.0,1.0,1.0,100.0,event
12:48:36.898,1.0338432,0.15908751,1.2582589,0.5784938,1.463777,-0.10367101,0.6032951,0.32940656,1.6119024,0.45225662,-0.014264201,0.21683247,1.3771305,0.63651764,-0.12750226,0.524308,1.124297,0.7093931,-0.44645023,0.34209996,856.63007,820.7692,770.0,769.19415,811.0989,-0.39361572265625,0.05914306640625,0.9078369140625,2.0037841796875,-4.50103759765625,1.92901611328125,1.0,1.0,1.0,1.0,1.0,100.0,event
12:48:36.899,1.0338432,0.15908751,1.2582589,0.5784938,1.463777,-0.10367101,0.6032951,0.32940656,1.6119024,0.45225662,-0.014264201,0.21683247,1.3771305,0.63651764,-0.12750226,0.524308,1.124297,0.7093931,-0.44645023,0.34209996,1143.1135,826.4103,852.6007,782.8938,751.06226,-0.39361572265625,0.05914306640625,0.9078369140625,2.0037841796875,-4.50103759765625,1.92901611328125,1.0,1.0,1.0,1.0,1.0,100.0,event
12:48:36.899,1.0338432,0.15908751,1.2582589,0.5784938,1.463777,-0.10367101,0.6032951,0.32940656,1.6119024,0.45225662,-0.014264201,0.21683247,1.3771305,0.63651764,-0.12750226,0.524308,1.124297,0.7093931,-0.44645023,0.34209996,888.46155,772.01465,629.7802,794.9817,850.18317,-0.39361572265625,0.05914306640625,0.9078369140625,2.0037841796875,-4.50103759765625,1.92901611328125,1.0,1.0,1.0,1.0,1.0,100.0,event
12:48:36.900,1.0338432,0.15908751,1.2582589,0.5784938,1.463777,-0.10367101,0.6032951,0.32940656,1.6119024,0.45225662,-0.014264201,0.21683247,1.3771305,0.63651764,-0.12750226,0.524308,1.124297,0.7093931,-0.44645023,0.34209996,435.9707,796.1905,608.4249,780.87915,897.326,-0.39361572265625,0.05914306640625,0.9078369140625,2.0037841796875,-4.50103759765625,1.92901611328125,1.0,1.0,1.0,1.0,1.0,100.0,event
12:48:36.901,1.0338432,0.15908751,1.2582589,0.5784938,1.463777,-0.10367101,0.6032951,0.32940656,1.6119024,0.45225662,-0.014264201,0.21683247,1.3771305,0.63651764,-0.12750226,0.524308,1.124297,0.7093931,-0.44645023,0.34209996,466.5934,824.3956,781.28204,774.83514,733.73627,-0.39361572265625,0.05914306640625,0.9078369140625,2.0037841796875,-4.50103759765625,1.92901611328125,1.0,1.0,1.0,1.0,1.0,100.0,event
12:48:36.901,1.0338432,0.15908751,1.2582589,0.5784938,1.463777,-0.10367101,0.6032951,0.32940656,1.6119024,0.45225662,-0.014264201,0.21683247,1.3771305,0.63651764,-0.12750226,0.524308,1.124297,0.7093931,-0.44645023,0.34209996,843.73627,819.15753,829.2308,777.25275,607.2161,-0.39361572265625,0.05914306640625,0.9078369140625,2.0037841796875,-4.50103759765625,1.92901611328125,1.0,1.0,1.0,1.0,1.0,100.0,event
12:48:36.902,1.0338432,0.15908751,1.2582589,0.5784938,1.463777,-0.10367101,0.6032951,0.32940656,1.6119024,0.45225662,-0.014264201,0.21683247,1.3771305,0.63651764,-0.12750226,0.524308,1.124297,0.7093931,-0.44645023,0.34209996,1144.3224,791.3553,765.16486,781.28204,743.00366,-0.39361572265625,0.05914306640625,0.9078369140625,2.0037841796875,-4.50103759765625,1.92901611328125,1.0,1.0,1.0,1.0,1.0,100.0,event
12:48:36.903,1.0338432,0.15908751,1.2582589,0.5784938,1.463777,-0.10367101,0.6032951,0.32940656,1.6119024,0.45225662,-0.014264201,0.21683247,1.3771305,0.63651764,-0.12750226,0.524308,1.124297,0.7093931,-0.44645023,0.34209996,479.8901,828.4249,758.71796,783.69965,927.9487,-0.39361572265625,0.05914306640625,0.9078369140625,2.0037841796875,-4.50103759765625,1.92901611328125,1.0,1.0,1.0,1.0,1.0,100.0,event
12:48:36.903,1.0338432,0.15908751,1.2582589,0.5784938,1.463777,-0.10367101,0.6032951,0.32940656,1.6119024,0.45225662,-0.014264201,0.21683247,1.3771305,0.63651764,-0.12750226,0.524308,1.124297,0.7093931,-0.44645023,0.34209996,925.5311,751.8681,571.3553,791.3553,1046.0073,-0.39361572265625,0.05914306640625,0.9078369140625,2.0037841796875,-4.50103759765625,1.92901611328125,1.0,1.0,1.0,1.0,1.0,100.0,event
12:48:36.934,1.0338432,0.15908751,1.2582589,0.5784938,1.463777,-0.10367101,0.6032951,0.32940656,1.6119024,0.45225662,-0.014264201,0.21683247,1.3771305,0.63651764,-0.12750226,0.524308,1.124297,0.7093931,-0.44645023,0.34209996,449.67032,824.3956,853.8095,776.8498,640.65936,-0.39361572265625,0.05914306640625,0.9078369140625,2.0037841796875,-4.50103759765625,1.92901611328125,1.0,1.0,1.0,1.0,1.0,100.0,event
12:48:36.935,1.0338432,0.15908751,1.2582589,0.5784938,1.463777,-0.10367101,0.6032951,0.32940656,1.6119024,0.45225662,-0.014264201,0.21683247,1.3771305,0.63651764,-0.12750226,0.524308,1.124297,0.7093931,-0.44645023,0.34209996,763.5531,785.31134,732.9304,788.1319,652.3443,-0.39361572265625,0.05914306640625,0.9078369140625,2.0037841796875,-4.50103759765625,1.92901611328125,1.0,1.0,1.0,1.0,1.0,100.0,event
12:48:36.939,1.0338432,0.15908751,1.2582589,0.5784938,1.463777,-0.10367101,0.6032951,0.32940656,1.6119024,0.45225662,-0.014264201,0.21683247,1.3771305,0.63651764,-0.12750226,0.524308,1.124297,0.7093931,-0.44645023,0.34209996,1089.1208,810.696,795.78754,789.34064,794.17584,-0.39361572265625,0.05914306640625,0.9078369140625,2.0037841796875,-4.50103759765625,1.92901611328125,1.0,1.0,1.0,1.0,1.0,100.0,event
12:48:36.940,1.0338432,0.15908751,1.2582589,0.5784938,1.463777,-0.10367101,0.6032951,0.32940656,1.6119024,0.45225662,-0.014264201,0.21683247,1.3771305,0.63651764,-0.12750226,0.524308,1.124297,0.7093931,-0.44645023,0.34209996,1008.5348,808.2784,832.8571,785.7143,780.4762,-0.39361572265625,0.05914306640625,0.9078369140625,2.0037841796875,-4.50103759765625,1.92901611328125,1.0,1.0,1.0,1.0,1.0,100.0,event
12:48:36.941,1.0338432,0.15908751,1.2582589,0.5784938,1.463777,-0.10367101,0.6032951,0.32940656,1.6119024,0.45225662,-0.014264201,0.21683247,1.3771305,0.63651764,-0.12750226,0.524308,1.124297,0.7093931,-0.44645023,0.34209996,533.0769,799.41394,755.89746,774.0293,637.8388,-0.39361572265625,0.05914306640625,0.9078369140625,2.0037841796875,-4.50103759765625,1.92901611328125,1.0,1.0,1.0,1.0,1.0,100.0,event
12:48:36.942,1.0338432,0.15908751,1.2582589,0.5784938,1.463777,-0.10367101,0.6032951,0.32940656,1.6119024,0.45225662,-0.014264201,0.21683247,1.3771305,0.63651764,-0.12750226,0.524308,1.124297,0.7093931,-0.44645023,0.34209996,367.87546,765.9707,641.4652,770.40295,825.6044,-0.39361572265625,0.05914306640625,0.9078369140625,2.0037841796875,-4.50103759765625,1.92901611328125,1.0,1.0,1.0,1.0,1.0,100.0,event
12:48:36.942,1.0338432,0.15908751,1.2582589,0.5784938,1.463777,-0.10367101,0.6032951,0.32940656,1.6119024,0.45225662,-0.014264201,0.21683247,1.3771305,0.63651764,-0.12750226,0.524308,1.124297,0.7093931,-0.44645023,0.34209996,657.98535,774.0293,650.32965,780.87915,1124.5787,-0.39361572265625,0.05914306640625,0.9078369140625,2.0037841796875,-4.50103759765625,1.92901611328125,1.0,1.0,1.0,1.0,1.0,100.0,event
12:48:36.943,1.0338432,0.15908751,1.2582589,0.5784938,1.463777,-0.10367101,0.6032951,0.32940656,1.6119024,0.45225662,-0.014264201,0.21683247,1.3771305,0.63651764,-0.12750226,0.524308,1.124297,0.7093931,-0.44645023,0.34209996,1048.8279,854.21246,953.73627,779.67035,859.85345,-0.39361572265625,0.05914306640625,0.9078369140625,2.0037841796875,-4.50103759765625,1.92901611328125,1.0,1.0,1.0,1.0,1.0,100.0,event
12:48:36.945,1.0338432,0.15908751,1.2582589,0.5784938,1.463777,-0.10367101,0.6032951,0.32940656,1.6119024,0.45225662,-0.014264201,0.21683247,1.3771305,0.63651764,-0.12750226,0.524308,1.124297,0.7093931,-0.44645023,0.34209996,1026.2638,808.2784,888.0586,778.0586,686.99634,-0.39361572265625,0.05914306640625,0.9078369140625,2.0037841796875,-4.50103759765625,1.92901611328125,1.0,1.0,1.0,1.0,1.0,100.0,event
12:48:36.946,1.0338432,0.15908751,1.2582589,0.5784938,1.463777,-0.10367101,0.6032951,0.32940656,1.6119024,0.45225662,-0.014264201,0.21683247,1.3771305,0.63651764,-0.12750226,0.524308,1.124297,0.7093931,-0.44645023,0.34209996,509.30402,754.2857,632.6007,775.64105,748.24176,-0.39361572265625,0.05914306640625,0.9078369140625,2.0037841796875,-4.50103759765625,1.92901611328125,1.0,1.0,1.0,1.0,1.0,100.0,event
12:48:36.947,1.0338432,0.15908751,1.2582589,0.5784938,1.463777,-0.10367101,0.6032951,0.32940656,1.6119024,0.45225662,-0.014264201,0.21683247,1.3771305,0.63651764,-0.12750226,0.524308,1.124297,0.7093931,-0.44645023,0.34209996,311.06226,805.8608,772.01465,774.83514,718.4249,-0.39361572265625,0.05914306640625,0.9078369140625,2.0037841796875,-4.50103759765625,1.92901611328125,1.0,1.0,1.0,1.0,1.0,100.0,event
12:48:36.947,1.0338432,0.15908751,1.2582589,0.5784938,1.463777,-0.10367101,0.6032951,0.32940656,1.6119024,0.45225662,-0.014264201,0.21683247,1.3771305,0.63651764,-0.12750226,0.524308,1.124297,0.7093931,-0.44645023,0.34209996,624.5421,817.9487,858.24176,788.5348,695.4579,-0.39361572265625,0.05914306640625,0.9078369140625,2.0037841796875,-4.50103759765625,1.92901611328125,1.0,1.0,1.0,1.0,1.0,100.0,event
12:48:36.974,1.0338432,0.15908751,1.2582589,0.5784938,1.463777,-0.10367101,0.6032951,0.32940656,1.6119024,0.45225662,-0.014264201,0.21683247,1.3771305,0.63651764,-0.12750226,0.524308,1.124297,0.7093931,-0.44645023,0.34209996,976.7033,795.78754,808.68134,788.5348,697.0696,-0.39691162109375,0.04962158203125,0.90301513671875,1.256103515625,-4.3963623046875,1.89910888671875,1.0,1.0,1.0,1.0,1.0,100.0,event
12:48:36.976,1.0338432,0.15908751,1.2582589,0.5784938,1.463777,-0.10367101,0.6032951,0.32940656,1.6119024,0.45225662,-0.014264201,0.21683247,1.3771305,0.63651764,-0.12750226,0.524308,1.124297,0.7093931,-0.44645023,0.34209996,1002.8938,790.54944,751.8681,782.0879,829.2308,-0.39691162109375,0.04962158203125,0.90301513671875,1.256103515625,-4.3963623046875,1.89910888671875,1.0,1.0,1.0,1.0,1.0,100.0,event
12:48:36.977,1.0338432,0.15908751,1.2582589,0.5784938,1.463777,-0.10367101,0.6032951,0.32940656,1.6119024,0.45225662,-0.014264201,0.21683247,1.3771305,0.63651764,-0.12750226,0.524308,1.124297,0.7093931,-0.44645023,0.34209996,558.0586,797.3993,749.85345,769.59705,806.26373,-0.39691162109375,0.04962158203125,0.90301513671875,1.256103515625,-4.3963623046875,1.89910888671875,1.0,1.0,1.0,1.0,1.0,100.0,event
12:48:36.978,1.0338432,0.15908751,1.2582589,0.5784938,1.463777,-0.10367101,0.6032951,0.32940656,1.6119024,0.45225662,-0.014264201,0.21683247,1.3771305,0.63651764,-0.12750226,0.524308,1.124297,0.7093931,-0.44645023,0.34209996,311.06226,805.05493,775.2381,769.19415,645.4945,-0.39691162109375,0.04962158203125,0.90301513671875,1.256103515625,-4.3963623046875,1.89910888671875,1.0,1.0,1.0,1.0,1.0,100.0,event
12:48:36.979,1.0338432,0.15908751,1.2582589,0.5784938,1.463777,-0.10367101,0.6032951,0.32940656,1.6119024,0.45225662,-0.014264201,0.21683247,1.3771305,0.63651764,-0.12750226,0.524308,1.124297,0.7093931,-0.44645023,0.34209996,594.7253,786.9231,753.0769,776.8498,733.73627,-0.39691162109375,0.04962158203125,0.90301513671875,1.256103515625,-4.3963623046875,1.89910888671875,1.0,1.0,1.0,1.0,1.0,100.0,event
12:48:36.980,1.0338432,0.15908751,1.2582589,0.5784938,1.463777,-0.10367101,0.6032951,0.32940656,1.6119024,0.45225662,-0.014264201,0.21683247,1.3771305,0.63651764,-0.12750226,0.524308,1.124297,0.7093931,-0.44645023,0.34209996,926.7399,789.34064,747.4359,778.86444,896.9231,-0.39691162109375,0.04962158203125,0.90301513671875,1.256103515625,-4.3963623046875,1.89910888671875,1.0,1.0,1.0,1.0,1.0,100.0,event
12:48:36.981,1.0338432,0.15908751,1.2582589,0.5784938,1.463777,-0.10367101,0.6032951,0.32940656,1.6119024,0.45225662,-0.014264201,0.21683247,1.3771305,0.63651764,-0.12750226,0.524308,1.124297,0.7093931,-0.44645023,0.34209996,1027.4725,803.44324,810.696,779.67035,879.59705,-0.39691162109375,0.04962158203125,0.90301513671875,1.256103515625,-4.3963623046875,1.89910888671875,1.0,1.0,1.0,1.0,1.0,100.0,event
12:48:36.981,1.0338432,0.15908751,1.2582589,0.5784938,1.463777,-0.10367101,0.6032951,0.32940656,1.6119024,0.45225662,-0.014264201,0.21683247,1.3771305,0.63651764,-0.12750226,0.524308,1.124297,0.7093931,-0.44645023,0.34209996,641.4652,800.6227,807.8755,770.40295,879.19415,-0.39691162109375,0.04962158203125,0.90301513671875,1.256103515625,-4.3963623046875,1.89910888671875,1.0,1.0,1.0,1.0,1.0,100.0,event
12:48:36.982,1.0338432,0.15908751,1.2582589,0.5784938,1.463777,-0.10367101,0.6032951,0.32940656,1.6119024,0.45225662,-0.014264201,0.21683247,1.3771305,0.63651764,-0.12750226,0.524308,1.124297,0.7093931,-0.44645023,0.34209996,311.4652,781.685,762.3443,770.40295,844.94507,-0.39691162109375,0.04962158203125,0.90301513671875,1.256103515625,-4.3963623046875,1.89910888671875,1.0,1.0,1.0,1.0,1.0,100.0,event
12:48:36.983,1.0338432,0.15908751,1.2582589,0.5784938,1.463777,-0.10367101,0.6032951,0.32940656,1.6119024,0.45225662,-0.014264201,0.21683247,1.3771305,0.63651764,-0.12750226,0.524308,1.124297,0.7093931,-0.44645023,0.34209996,498.4249,751.8681,644.2857,774.0293,967.03296,-0.39691162109375,0.04962158203125,0.90301513671875,1.256103515625,-4.3963623046875,1.89910888671875,1.0,1.0,1.0,1.0,1.0,100.0,event
12:48:36.983,1.0338432,0.15908751,1.2582589,0.5784938,1.463777,-0.10367101,0.6032951,0.32940656,1.6119024,0.45225662,-0.014264201,0.21683247,1.3771305,0.63651764,-0.12750226,0.524308,1.124297,0.7093931,-0.44645023,0.34209996,909.011,854.21246,939.6337,780.07324,973.8828,-0.39691162109375,0.04962158203125,0.90301513671875,1.256103515625,-4.3963623046875,1.89910888671875,1.0,1.0,1.0,1.0,1.0,100.0,event
12:48:36.984,1.0338432,0.15908751,1.2582589,0.5784938,1.463777,-0.10367101,0.6032951,0.32940656,1.6119024,0.45225662,-0.014264201,0.21683247,1.3771305,0.63651764,-0.12750226,0.524308,1.124297,0.7093931,-0.44645023,0.34209996,1102.8206,830.0366,989.59705,797.3993,759.92676,-0.39691162109375,0.04962158203125,0.90301513671875,1.256103515625,-4.3963623046875,1.89910888671875,1.0,1.0,1.0,1.0,1.0,100.0,event
12:48:37.047,1.0338432,0.15908751,1.2582589,0.5784938,1.463777,-0.10367101,0.6032951,0.32940656,1.6119024,0.45225662,-0.014264201,0.21683247,1.3771305,0.63651764,-0.12750226,0.524308,1.124297,0.7093931,-0.44645023,0.34209996,721.6484,772.8205,733.73627,787.72894,745.42126,-0.38787841796875,0.0577392578125,0.90765380859375,1.495361328125,-4.8748779296875,1.435546875,1.0,1.0,1.0,1.0,1.0,100.0,event
12:48:37.049,1.0338432,0.15908751,1.2582589,0.5784938,1.463777,-0.10367101,0.6032951,0.32940656,1.6119024,0.45225662,-0.014264201,0.21683247,1.3771305,0.63651764,-0.12750226,0.524308,1.124297,0.7093931,-0.44645023,0.34209996,346.11722,811.0989,776.4469,775.2381,764.7619,-0.38787841796875,0.0577392578125,0.90765380859375,1.495361328125,-4.8748779296875,1.435546875,1.0,1.0,1.0,1.0,1.0,100.0,event
12:48:37.050,1.0338432,0.15908751,1.2582589,0.5784938,1.463777,-0.10367101,0.6032951,0.32940656,1.6119024,0.45225662,-0.014264201,0.21683247,1.3771305,0.63651764,-0.12750226,0.524308,1.124297,0.7093931,-0.44645023,0.34209996,498.02197,816.7399,855.0183,780.87915,711.5751,-0.38787841796875,0.0577392578125,0.90765380859375,1.495361328125,-4.8748779296875,1.435546875,1.0,1.0,1.0,1.0,1.0,100.0,event
12:48:37.051,1.0338432,0.15908751,1.2582589,0.5784938,1.463777,-0.10367101,0.6032951,0.32940656,1.6119024,0.45225662,-0.014264201,0.21683247,1.3771305,0.63651764,-0.12750226,0.524308,1.124297,0.7093931,-0.44645023,0.34209996,877.1795,809.89014,874.35895,781.28204,713.1868,-0.38787841796875,0.0577392578125,0.90765380859375,1.495361328125,-4.8748779296875,1.435546875,1.0,2.0,1.0,1.0,2.0,100.0,event
12:48:37.055,1.0338432,0.15908751,1.2582589,0.5784938,1.463777,-0.10367101,0.6032951,0.32940656,1.6119024,0.45225662,-0.014264201,0.21683247,1.3771305,0.63651764,-0.12750226,0.524308,1.124297,0.7093931,-0.44645023,0.34209996,1085.8975,787.326,806.26373,794.9817,805.05493,-0.38787841796875,0.0577392578125,0.90765380859375,1.495361328125,-4.8748779296875,1.435546875,1.0,2.0,1.0,1.0,2.0,100.0,event
12:48:37.056,1.0338432,0.15908751,1.2582589,0.5784938,1.463777,-0.10367101,0.6032951,0.32940656,1.6119024,0.45225662,-0.014264201,0.21683247,1.3771305,0.63651764,-0.12750226,0.524308,1.124297,0.7093931,-0.44645023,0.34209996,760.32965,782.0879,734.5421,794.17584,884.0293,-0.38787841796875,0.0577392578125,0.90765380859375,1.495361328125,-4.8748779296875,1.435546875,1.0,2.0,1.0,1.0,2.0,100.0,event
12:48:37.057,1.0338432,0.15908751,1.2582589,0.5784938,1.463777,-0.10367101,0.6032951,0.32940656,1.6119024,0.45225662,-0.014264201,0.21683247,1.3771305,0.63651764,-0.12750226,0.524308,1.124297,0.7093931,-0.44645023,0.34209996,346.11722,801.8315,780.07324,775.64105,849.3773,-0.38787841796875,0.0577392578125,0.90765380859375,1.495361328125,-4.8748779296875,1.435546875,1.0,2.0,1.0,1.0,2.0,100.0,event
12:48:37.057,1.0338432,0.15908751,1.2582589,0.5784938,1.463777,-0.10367101,0.6032951,0.32940656,1.6119024,0.45225662,-0.014264201,0.21683247,1.3771305,0.63651764,-0.12750226,0.524308,1.124297,0.7093931,-0.44645023,0.34209996,454.90842,817.9487,882.8205,780.87915,672.0879,-0.38787841796875,0.0577392578125,0.90765380859375,1.495361328125,-4.8748779296875,1.435546875,1.0,2.0,1.0,1.0,2.0,100.0,event
12:48:37.058,1.0338432,0.15908751,1.2582589,0.5784938,1.463777,-0.10367101,0.6032951,0.32940656,1.6119024,0.45225662,-0.014264201,0.21683247,1.3771305,0.63651764,-0.12750226,0.524308,1.124297,0.7093931,-0.44645023,0.34209996,817.1429,760.7326,777.25275,788.93774,803.0403,-0.38787841796875,0.0577392578125,0.90765380859375,1.495361328125,-4.8748779296875,1.435546875,1.0,2.0,1.0,1.0,2.0,100.0,event
12:48:37.059,1.0338432,0.15908751,1.2582589,0.5784938,1.463777,-0.10367101,0.6032951,0.32940656,1.6119024,0.45225662,-0.014264201,0.21683247,1.3771305,0.63651764,-0.12750226,0.524308,1.124297,0.7093931,-0.44645023,0.34209996,819.9634,845.34796,955.34796,792.5641,898.5348,-0.38787841796875,0.0577392578125,0.90765380859375,1.495361328125,-4.8748779296875,1.435546875,1.0,2.0,1.0,1.0,2.0,100.0,event
12:48:37.059,1.0338432,0.15908751,1.2582589,0.5784938,1.463777,-0.10367101,0.6032951,0.32940656,1.6119024,0.45225662,-0.014264201,0.21683247,1.3771305,0.63651764,-0.12750226,0.524308,1.124297,0.7093931,-0.44645023,0.34209996,1032.3077,767.5824,732.1245,793.36993,1151.1721,-0.38787841796875,0.0577392578125,0.90765380859375,1.495361328125,-4.8748779296875,1.435546875,1.0,2.0,1.0,1.0,2.0,100.0,event
12:48:37.060,1.0338432,0.15908751,1.2582589,0.5784938,1.463777,-0.10367101,0.6032951,0.32940656,1.6119024,0.45225662,-0.014264201,0.21683247,1.3771305,0.63651764,-0.12750226,0.524308,1.124297,0.7093931,-0.44645023,0.34209996,403.33334,798.60803,856.2271,782.0879,695.8608,-0.38787841796875,0.0577392578125,0.90765380859375,1.495361328125,-4.8748779296875,1.435546875,1.0,2.0,1.0,1.0,2.0,100.0,event
12:48:37.085,1.0338432,0.15908751,1.2582589,0.5784938,1.463777,-0.10367101,0.6032951,0.32940656,1.6119024,0.45225662,-0.014264201,0.21683247,1.3771305,0.63651764,-0.12750226,0.524308,1.124297,0.7093931,-0.44645023,0.34209996,413.8095,767.1795,723.663,776.8498,743.4066,-0.38885498046875,0.06024169921875,0.9122314453125,1.8243408203125,-4.942169189453125,1.891632080078125,1.0,2.0,1.0,1.0,2.0,100.0,event
12:48:37.086,1.0338432,0.15908751,1.2582589,0.5784938,1.463777,-0.10367101,0.6032951,0.32940656,1.6119024,0.45225662,-0.014264201,0.21683247,1.3771305,0.63651764,-0.12750226,0.524308,1.124297,0.7093931,-0.44645023,0.34209996,804.2491,810.293,868.71796,784.90845,646.30035,-0.38885498046875,0.06024169921875,0.9122314453125,1.8243408203125,-4.942169189453125,1.891632080078125,1.0,2.0,1.0,1.0,2.0,100.0,event
12:48:37.087,1.0338432,0.15908751,1.2582589,0.5784938,1.463777,-0.10367101,0.6032951,0.32940656,1.6119024,0.45225662,-0.014264201,0.21683247,1.3771305,0.63651764,-0.12750226,0.524308,1.124297,0.7093931,-0.44645023,0.34209996,1116.1172,818.7546,943.663,786.9231,675.31134,-0.38885498046875,0.06024169921875,0.9122314453125,1.8243408203125,-4.942169189453125,1.891632080078125,1.0,2.0,1.0,1.0,2.0,100.0,event
12:48:37.087,1.0338432,0.15908751,1.2582589,0.5784938,1.463777,-0.10367101,0.6032951,0.32940656,1.6119024,0.45225662,-0.014264201,0.21683247,1.3771305,0.63651764,-0.12750226,0.524308,1.124297,0.7093931,-0.44645023,0.34209996,916.26373,782.49084,814.7253,779.2674,781.28204,-0.38885498046875,0.06024169921875,0.9122314453125,1.8243408203125,-4.942169189453125,1.891632080078125,1.0,2.0,1.0,1.0,2.0,100.0,event
12:48:37.088,1.0338432,0.15908751,1.2582589,0.5784938,1.463777,-0.10367101,0.6032951,0.32940656,1.6119024,0.45225662,-0.014264201,0.21683247,1.3771305,0.63651764,-0.12750226,0.524308,1.124297,0.7093931,-0.44645023,0.34209996,440.80585,779.2674,706.7399,783.69965,796.1905,-0.38885498046875,0.06024169921875,0.9122314453125,1.8243408203125,-4.942169189453125,1.891632080078125,1.0,2.0,1.0,1.0,2.0,100.0,event
12:48:37.089,1.0338432,0.15908751,1.2582589,0.5784938,1.463777,-0.10367101,0.6032951,0.32940656,1.6119024,0.45225662,-0.014264201,0.21683247,1.3771305,0.63651764,-0.12750226,0.524308,1.124297,0.7093931,-0.44645023,0.34209996,387.61905,783.69965,754.68866,778.46155,833.663,-0.38885498046875,0.06024169921875,0.9122314453125,1.8243408203125,-4.942169189453125,1.891632080078125,1.0,2.0,1.0,1.0,2.0,100.0,event
12:48:37.090,1.0338432,0.15908751,1.2582589,0.5784938,1.463777,-0.10367101,0.6032951,0.32940656,1.6119024,0.45225662,-0.014264201,0.21683247,1.3771305,0.63651764,-0.12750226,0.524308,1.124297,0.7093931,-0.44645023,0.34209996,1072.1978,794.9817,886.4469,780.4762,741.79486,-0.38885498046875,0.06024169921875,0.9122314453125,1.8243408203125,-4.942169189453125,1.891632080078125,1.0,2.0,1.0,1.0,2.0,100.0,event
12:48:37.090,1.0338432,0.15908751,1.2582589,0.5784938,1.463777,-0.10367101,0.6032951,0.32940656,1.6119024,0.45225662,-0.014264201,0.21683247,1.3771305,0.63651764,-0.12750226,0.524308,1.124297,0.7093931,-0.44645023,0.34209996,745.42126,808.2784,873.95605,767.5824,794.57874,-0.38885498046875,0.06024169921875,0.9122314453125,1.8243408203125,-4.942169189453125,1.891632080078125,1.0,2.0,1.0,1.0,2.0,100.0,event
12:48:37.091,1.0338432,0.15908751,1.2582589,0.5784938,1.463777,-0.10367101,0.6032951,0.32940656,1.6119024,0.45225662,-0.014264201,0.21683247,1.3771305,0.63651764,-0.12750226,0.524308,1.124297,0.7093931,-0.44645023,0.34209996,909.011,742.6007,668.86444,788.1319,932.7839,-0.38885498046875,0.06024169921875,0.9122314453125,1.8243408203125,-4.942169189453125,1.891632080078125,1.0,2.0,1.0,1.0,2.0,100.0,event
12:48:37.092,1.0338432,0.15908751,1.2582589,0.5784938,1.463777,-0.10367101,0.6032951,0.32940656,1.6119024,0.45225662,-0.014264201,0.21683247,1.3771305,0.63651764,-0.12750226,0.524308,1.124297,0.7093931,-0.44645023,0.34209996,467.39926,832.0513,859.85345,777.6557,901.75824,-0.38885498046875,0.06024169921875,0.9122314453125,1.8243408203125,-4.942169189453125,1.891632080078125,1.0,2.0,1.0,1.0,2.0,100.0,event
12:48:37.093,1.0338432,0.15908751,1.2582589,0.5784938,1.463777,-0.10367101,0.6032951,0.32940656,1.6119024,0.45225662,-0.014264201,0.21683247,1.3771305,0.63651764,-0.12750226,0.524308,1.124297,0.7093931,-0.44645023,0.34209996,386.00732,817.1429,927.9487,777.25275,676.1172,-0.38885498046875,0.06024169921875,0.9122314453125,1.8243408203125,-4.942169189453125,1.891632080078125,1.0,2.0,1.0,1.0,2.0,100.0,event
12:48:37.094,1.0338432,0.15908751,1.2582589,0.5784938,1.463777,-0.10367101,0.6032951,0.32940656,1.6119024,0.45225662,-0.014264201,0.21683247,1.3771305,0.63651764,-0.12750226,0.524308,1.124297,0.7093931,-0.44645023,0.34209996,690.2198,779.2674,798.60803,786.9231,703.91943,-0.38885498046875,0.06024169921875,0.9122314453125,1.8243408203125,-4.942169189453125,1.891632080078125,1.0,2.0,1.0,1.0,2.0,100.0,event
12:48:37.120,1.0338432,0.15908751,1.2582589,0.5784938,1.463777,-0.10367101,0.6032951,0.32940656,1.6119024,0.45225662,-0.014264201,0.21683247,1.3771305,0.63651764,-0.12750226,0.524308,1.124297,0.7093931,-0.44645023,0.34209996,1039.1575,830.4396,907.8022,803.0403,833.663,-0.38897705078125,0.0592041015625,0.90911865234375,1.57012939453125,-4.2169189453125,0.85235595703125,1.0,2.0,1.0,1.0,2.0,100.0,event
12:48:37.121,1.0338432,0.15908751,1.2582589,0.5784938,1.463777,-0.10367101,0.6032951,0.32940656,1.6119024,0.45225662,-0.014264201,0.21683247,1.3771305,0.63651764,-0.12750226,0.524308,1.124297,0.7093931,-0.44645023,0.34209996,996.8498,812.3077,919.89014,803.8461,794.9817,-0.38897705078125,0.0592041015625,0.90911865234375,1.57012939453125,-4.2169189453125,0.85235595703125,1.0,2.0,1.0,1.0,2.0,100.0,event
12:48:37.122,1.0338432,0.15908751,1.2582589,0.5784938,1.463777,-0.10367101,0.6032951,0.32940656,1.6119024,0.45225662,-0.014264201,0.21683247,1.3771305,0.63651764,-0.12750226,0.524308,1.124297,0.7093931,-0.44645023,0.34209996,527.4359,778.86444,782.49084,796.5934,728.0952,-0.38897705078125,0.0592041015625,0.90911865234375,1.57012939453125,-4.2169189453125,0.85235595703125,1.0,2.0,1.0,1.0,2.0,100.0,event
12:48:37.123,1.0338432,0.15908751,1.2582589,0.5784938,1.463777,-0.10367101,0.6032951,0.32940656,1.6119024,0.45225662,-0.014264201,0.21683247,1.3771305,0.63651764,-0.12750226,0.524308,1.124297,0.7093931,-0.44645023,0.34209996,350.9524,780.07324,752.674,789.7436,754.2857,-0.38897705078125,0.0592041015625,0.90911865234375,1.57012939453125,-4.2169189453125,0.85235595703125,1.0,2.0,1.0,1.0,2.0,100.0,event
12:48:37.123,1.0338432,0.15908751,1.2582589,0.5784938,1.463777,-0.10367101,0.6032951,0.32940656,1.6119024,0.45225662,-0.014264201,0.21683247,1.3771305,0.63651764,-0.12750226,0.524308,1.124297,0.7093931,-0.44645023,0.34209996,651.13556,808.68134,878.3883,794.17584,794.9817,-0.38897705078125,0.0592041015625,0.90911865234375,1.57012939453125,-4.2169189453125,0.85235595703125,1.0,2.0,1.0,1.0,2.0,100.0,event
12:48:37.124,1.0338432,0.15908751,1.2582589,0.5784938,1.463777,-0.10367101,0.6032951,0.32940656,1.6119024,0.45225662,-0.014264201,0.21683247,1.3771305,0.63651764,-0.12750226,0.524308,1.124297,0.7093931,-0.44645023,0.34209996,996.4469,796.1905,872.3443,792.1612,829.6337,-0.38897705078125,0.0592041015625,0.90911865234375,1.57012939453125,-4.2169189453125,0.85235595703125,1.0,2.0,1.0,1.0,2.0,100.0,event
12:48:37.127,1.0338432,0.15908751,1.2582589,0.5784938,1.463777,-0.10367101,0.6032951,0.32940656,1.6119024,0.45225662,-0.014264201,0.21683247,1.3771305,0.63651764,-0.12750226,0.524308,1.124297,0.7093931,-0.44645023,0.34209996,1019.41394,793.36993,835.2747,779.2674,828.022,-0.38897705078125,0.0592041015625,0.90911865234375,1.57012939453125,-4.2169189453125,0.85235595703125,1.0,2.0,1.0,1.0,2.0,100.0,event
12:48:37.128,1.0338432,0.15908751,1.2582589,0.5784938,1.463777,-0.10367101,0.6032951,0.32940656,1.6119024,0.45225662,-0.014264201,0.21683247,1.3771305,0.63651764,-0.12750226,0.524308,1.124297,0.7093931,-0.44645023,0.34209996,561.685,765.16486,736.55676,776.04395,915.4579,-0.38897705078125,0.0592041015625,0.90911865234375,1.57012939453125,-4.2169189453125,0.85235595703125,1.0,2.0,1.0,1.0,2.0,100.0,event
12:48:37.129,1.0338432,0.15908751,1.2582589,0.5784938,1.463777,-0.10367101,0.6032951,0.32940656,1.6119024,0.45225662,-0.014264201,0.21683247,1.3771305,0.63651764,-0.12750226,0.524308,1.124297,0.7093931,-0.44645023,0.34209996,311.4652,775.64105,705.12823,770.80585,1053.663,-0.38897705078125,0.0592041015625,0.90911865234375,1.57012939453125,-4.2169189453125,0.85235595703125,1.0,2.0,1.0,1.0,2.0,100.0,event
12:48:37.130,1.0338432,0.15908751,1.2582589,0.5784938,1.463777,-0.10367101,0.6032951,0.32940656,1.6119024,0.45225662,-0.014264201,0.21683247,1.3771305,0.63651764,-0.12750226,0.524308,1.124297,0.7093931,-0.44645023,0.34209996,626.1539,846.1539,1006.9231,775.2381,831.6484,-0.38897705078125,0.0592041015625,0.90911865234375,1.57012939453125,-4.2169189453125,0.85235595703125,1.0,2.0,1.0,1.0,2.0,100.0,event
12:48:37.130,1.0338432,0.15908751,1.2582589,0.5784938,1.463777,-0.10367101,0.6032951,0.32940656,1.6119024,0.45225662,-0.014264201,0.21683247,1.3771305,0.63651764,-0.12750226,0.524308,1.124297,0.7093931,-0.44645023,0.34209996,990.80585,801.02563,967.4359,783.2967,697.47253,-0.38897705078125,0.0592041015625,0.90911865234375,1.57012939453125,-4.2169189453125,0.85235595703125,1.0,2.0,1.0,1.0,2.0,100.0,event
12:48:37.131,1.0338432,0.15908751,1.2582589,0.5784938,1.463777,-0.10367101,0.6032951,0.32940656,1.6119024,0.45225662,-0.014264201,0.21683247,1.3771305,0.63651764,-0.12750226,0.524308,1.124297,0.7093931,-0.44645023,0.34209996,1049.2307,763.95605,788.1319,794.17584,808.68134,-0.38897705078125,0.0592041015625,0.90911865234375,1.57012939453125,-4.2169189453125,0.85235595703125,1.0,2.0,1.0,1.0,2.0,100.0,event
12:48:37.177,1.0338432,0.15908751,1.2582589,0.5784938,1.463777,-0.10367101,0.6032951,0.32940656,1.6119024,0.45225662,-0.014264201,0.21683247,1.3771305,0.63651764,-0.12750226,0.524308,1.124297,0.7093931,-0.44645023,0.34209996,652.3443,791.75824,821.978,790.54944,782.0879,-0.38897705078125,0.0592041015625,0.90911865234375,1.57012939453125,-4.2169189453125,0.85235595703125,1.0,2.0,1.0,1.0,2.0,100.0,event
12:48:37.178,1.0338432,0.15908751,1.2582589,0.5784938,1.463777,-0.10367101,0.6032951,0.32940656,1.6119024,0.45225662,-0.014264201,0.21683247,1.3771305,0.63651764,-0.12750226,0.524308,1.124297,0.7093931,-0.44645023,0.34209996,369.08426,801.8315,855.42126,774.43225,662.4176,-0.38897705078125,0.0592041015625,0.90911865234375,1.57012939453125,-4.2169189453125,0.85235595703125,1.0,2.0,1.0,1.0,2.0,100.0,event
12:48:37.179,1.0338432,0.15908751,1.2582589,0.5784938,1.463777,-0.10367101,0.6032951,0.32940656,1.6119024,0.45225662,-0.014264201,0.21683247,1.3771305,0.63651764,-0.12750226,0.524308,1.124297,0.7093931,-0.44645023,0.34209996,595.5311,770.80585,823.1868,770.0,719.6337,-0.38897705078125,0.0592041015625,0.90911865234375,1.57012939453125,-4.2169189453125,0.85235595703125,1.0,2.0,1.0,1.0,2.0,100.0,event
12:48:37.180,1.0338432,0.15908751,1.2582589,0.5784938,1.463777,-0.10367101,0.6032951,0.32940656,1.6119024,0.45225662,-0.014264201,0.21683247,1.3771305,0.63651764,-0.12750226,0.524308,1.124297,0.7093931,-0.44645023,0.34209996,954.5421,751.8681,781.685,767.1795,913.0403,-0.38897705078125,0.0592041015625,0.90911865234375,1.57012939453125,-4.2169189453125,0.85235595703125,1.0,2.0,1.0,1.0,2.0,100.0,event
12:48:37.180,1.0338432,0.15908751,1.2582589,0.5784938,1.463777,-0.10367101,0.6032951,0.32940656,1.6119024,0.45225662,-0.014264201,0.21683247,1.3771305,0.63651764,-0.12750226,0.524308,1.124297,0.7093931,-0.44645023,0.34209996,1108.0586,803.0403,917.0696,778.86444,830.0366,-0.38897705078125,0.0592041015625,0.90911865234375,1.57012939453125,-4.2169189453125,0.85235595703125,1.0,2.0,1.0,1.0,2.0,100.0,event
12:48:37.181,1.0338432,0.15908751,1.2582589,0.5784938,1.463777,-0.10367101,0.6032951,0.32940656,1.6119024,0.45225662,-0.014264201,0.21683247,1.3771305,0.63651764,-0.12750226,0.524308,1.124297,0.7093931,-0.44645023,0.34209996,728.49817,794.9817,842.52747,780.4762,765.9707,-0.38897705078125,0.0592041015625,0.90911865234375,1.57012939453125,-4.2169189453125,0.85235595703125,1.0,2.0,1.0,1.0,2.0,100.0,event
12:48:37.182,1.0338432,0.15908751,1.2582589,0.5784938,1.463777,-0.10367101,0.6032951,0.32940656,1.6119024,0.45225662,-0.014264201,0.21683247,1.3771305,0.63651764,-0.12750226,0.524308,1.124297,0.7093931,-0.44645023,0.34209996,360.6227,761.13556,746.2271,755.89746,825.6044,-0.38897705078125,0.0592041015625,0.90911865234375,1.57012939453125,-4.2169189453125,0.85235595703125,1.0,2.0,1.0,1.0,2.0,100.0,event
12:48:37.182,1.0338432,0.15908751,1.2582589,0.5784938,1.463777,-0.10367101,0.6032951,0.32940656,1.6119024,0.45225662,-0.014264201,0.21683247,1.3771305,0.63651764,-0.12750226,0.524308,1.124297,0.7093931,-0.44645023,0.34209996,522.6007,751.8681,748.6447,761.13556,1003.2967,-0.38897705078125,0.0592041015625,0.90911865234375,1.57012939453125,-4.2169189453125,0.85235595703125,1.0,2.0,1.0,1.0,2.0,100.0,event
12:48:37.183,1.0338432,0.15908751,1.2582589,0.5784938,1.463777,-0.10367101,0.6032951,0.32940656,1.6119024,0.45225662,-0.014264201,0.21683247,1.3771305,0.63651764,-0.12750226,0.524308,1.124297,0.7093931,-0.44645023,0.34209996,929.15753,832.8571,998.86444,773.22345,892.0879,-0.38897705078125,0.0592041015625,0.90911865234375,1.57012939453125,-4.2169189453125,0.85235595703125,1.0,2.0,1.0,1.0,2.0,100.0,event
12:48:37.183,1.0338432,0.15908751,1.2582589,0.5784938,1.463777,-0.10367101,0.6032951,0.32940656,1.6119024,0.45225662,-0.014264201,0.21683247,1.3771305,0.63651764,-0.12750226,0.524308,1.124297,0.7093931,-0.44645023,0.34209996,1139.0842,816.337,1024.249,771.2088,668.86444,-0.38897705078125,0.0592041015625,0.90911865234375,1.57012939453125,-4.2169189453125,0.85235595703125,1.0,2.0,1.0,1.0,2.0,100.0,event
12:48:37.184,1.0338432,0.15908751,1.2582589,0.5784938,1.463777,-0.10367101,0.6032951,0.32940656,1.6119024,0.45225662,-0.014264201,0.21683247,1.3771305,0.63651764,-0.12750226,0.524308,1.124297,0.7093931,-0.44645023,0.34209996,797.8022,774.83514,821.1722,772.8205,764.35895,-0.38897705078125,0.0592041015625,0.90911865234375,1.57012939453125,-4.2169189453125,0.85235595703125,1.0,2.0,1.0,1.0,2.0,100.0,event
12:48:37.185,1.0338432,0.15908751,1.2582589,0.5784938,1.463777,-0.10367101,0.6032951,0.32940656,1.6119024,0.45225662,-0.014264201,0.21683247,1.3771305,0.63651764,-0.12750226,0.524308,1.124297,0.7093931,-0.44645023,0.34209996,405.75092,793.36993,812.3077,772.8205,790.9524,-0.38897705078125,0.0592041015625,0.90911865234375,1.57012939453125,-4.2169189453125,0.85235595703125,1.0,2.0,1.0,1.0,2.0,100.0,event
12:48:37.211,1.0338432,0.15908751,1.2582589,0.5784938,1.463777,-0.10367101,0.6032951,0.32940656,1.6119024,0.45225662,-0.014264201,0.21683247,1.3771305,0.63651764,-0.12750226,0.524308,1.124297,0.7093931,-0.44645023,0.34209996,525.82416,802.23444,890.07324,774.83514,686.1905,-0.38299560546875,0.05584716796875,0.91656494140625,1.03179931640625,-4.91973876953125,-0.0,1.0,2.0,1.0,1.0,2.0,100.0,event
12:48:37.212,1.0338432,0.15908751,1.2582589,0.5784938,1.463777,-0.10367101,0.6032951,0.32940656,1.6119024,0.45225662,-0.014264201,0.21683247,1.3771305,0.63651764,-0.12750226,0.524308,1.124297,0.7093931,-0.44645023,0.34209996,902.96704,796.5934,929.5604,780.4762,665.2381,-0.38299560546875,0.05584716796875,0.91656494140625,1.03179931640625,-4.91973876953125,-0.0,1.0,2.0,1.0,1.0,2.0,100.0,event
12:48:37.212,1.0338432,0.15908751,1.2582589,0.5784938,1.463777,-0.10367101,0.6032951,0.32940656,1.6119024,0.45225662,-0.014264201,0.21683247,1.3771305,0.63651764,-0.12750226,0.524308,1.124297,0.7093931,-0.44645023,0.34209996,1126.5934,777.25275,882.4176,774.83514,780.87915,-0.38299560546875,0.05584716796875,0.91656494140625,1.03179931640625,-4.91973876953125,-0.0,1.0,2.0,1.0,1.0,2.0,100.0,event
12:48:37.213,1.0338432,0.15908751,1.2582589,0.5784938,1.463777,-0.10367101,0.6032951,0.32940656,1.6119024,0.45225662,-0.014264201,0.21683247,1.3771305,0.63651764,-0.12750226,0.524308,1.124297,0.7093931,-0.44645023,0.34209996,848.5714,788.5348,871.9414,770.0,831.6484,-0.38299560546875,0.05584716796875,0.91656494140625,1.03179931640625,-4.91973876953125,-0.0,1.0,2.0,1.0,1.0,2.0,100.0,event
12:48:37.214,1.0338432,0.15908751,1.2582589,0.5784938,1.463777,-0.10367101,0.6032951,0.32940656,1.6119024,0.45225662,-0.014264201,0.21683247,1.3771305,0.63651764,-0.12750226,0.524308,1.124297,0.7093931,-0.44645023,0.34209996,424.68866,781.28204,838.0952,769.59705,743.00366,-0.38299560546875,0.05584716796875,0.91656494140625,1.03179931640625,-4.91973876953125,-0.0,1.0,2.0,1.0,1.0,2.0,100.0,event
12:48:37.215,1.0338432,0.15908751,1.2582589,0.5784938,1.463777,-0.10367101,0.6032951,0.32940656,1.6119024,0.45225662,-0.014264201,0.21683247,1.3771305,0.63651764,-0.12750226,0.524308,1.124297,0.7093931,-0.44645023,0.34209996,473.84616,782.8938,827.2161,770.40295,684.17584,-0.38299560546875,0.05584716796875,0.91656494140625,1.03179931640625,-4.91973876953125,-0.0,1.0,2.0,1.0,1.0,2.0,100.0,event
12:48:37.215,1.0338432,0.15908751,1.2582589,0.5784938,1.463777,-0.10367101,0.6032951,0.32940656,1.6119024,0.45225662,-0.014264201,0.21683247,1.3771305,0.63651764,-0.12750226,0.524308,1.124297,0.7093931,-0.44645023,0.34209996,841.31866,774.0293,847.3626,780.87915,897.326,-0.38299560546875,0.05584716796875,0.91656494140625,1.03179931640625,-4.91973876953125,-0.0,1.0,2.0,1.0,1.0,2.0,100.0,event
12:48:37.216,1.0338432,0.15908751,1.2582589,0.5784938,1.463777,-0.10367101,0.6032951,0.32940656,1.6119024,0.45225662,-0.014264201,0.21683247,1.3771305,0.63651764,-0.12750226,0.524308,1.124297,0.7093931,-0.44645023,0.34209996,1092.3444,774.83514,834.4689,789.7436,1187.8389,-0.38299560546875,0.05584716796875,0.91656494140625,1.03179931640625,-4.91973876953125,-0.0,1.0,2.0,1.0,1.0,2.0,100.0,event
12:48:37.220,1.0338432,0.15908751,1.2582589,0.5784938,1.463777,-0.10367101,0.6032951,0.32940656,1.6119024,0.45225662,-0.014264201,0.21683247,1.3771305,0.63651764,-0.12750226,0.524308,1.124297,0.7093931,-0.44645023,0.34209996,915.4579,831.6484,1013.7729,787.72894,924.7253,-0.38299560546875,0.05584716796875,0.91656494140625,1.03179931640625,-4.91973876953125,-0.0,1.0,2.0,1.0,1.0,2.0,100.0,event
12:48:37.221,1.0338432,0.15908751,1.2582589,0.5784938,1.463777,-0.10367101,0.6032951,0.32940656,1.6119024,0.45225662,-0.014264201,0.21683247,1.3771305,0.63651764,-0.12750226,0.524308,1.124297,0.7093931,-0.44645023,0.34209996,484.32236,787.72894,909.81683,781.685,707.9487,-0.38299560546875,0.05584716796875,0.91656494140625,1.03179931640625,-4.91973876953125,-0.0,1.0,2.0,1.0,1.0,2.0,100.0,event
12:48:37.221,1.0338432,0.15908751,1.2582589,0.5784938,1.463777,-0.10367101,0.6032951,0.32940656,1.6119024,0.45225662,-0.014264201,0.21683247,1.3771305,0.63651764,-0.12750226,0.524308,1.124297,0.7093931,-0.44645023,0.34209996,439.19415,756.7033,784.90845,782.0879,767.98535,-0.38299560546875,0.05584716796875,0.91656494140625,1.03179931640625,-4.91973876953125,-0.0,1.0,2.0,1.0,1.0,2.0,100.0,event
12:48:37.222,1.0338432,0.15908751,1.2582589,0.5784938,1.463777,-0.10367101,0.6032951,0.32940656,1.6119024,0.45225662,-0.014264201,0.21683247,1.3771305,0.63651764,-0.12750226,0.524308,1.124297,0.7093931,-0.44645023,0.34209996,815.5311,807.0696,963.00366,775.64105,782.0879,-0.38299560546875,0.05584716796875,0.91656494140625,1.03179931640625,-4.91973876953125,-0.0,1.0,2.0,1.0,1.0,2.0,100.0,event
12:48:37.244,1.0338432,0.15908751,1.2582589,0.5784938,1.463777,-0.10367101,0.6032951,0.32940656,1.6119024,0.45225662,-0.014264201,0.21683247,1.3771305,0.63651764,-0.12750226,0.524308,1.124297,0.7093931,-0.44645023,0.34209996,1135.0549,809.89014,996.4469,779.67035,751.8681,-0.38360595703125,0.052978515625,0.90899658203125,1.51031494140625,-4.35150146484375,-0.46356201171875,1.0,2.0,1.0,1.0,2.0,100.0,event
12:48:37.245,1.0338432,0.15908751,1.2582589,0.5784938,1.463777,-0.10367101,0.6032951,0.32940656,1.6119024,0.45225662,-0.014264201,0.21683247,1.3771305,0.63651764,-0.12750226,0.524308,1.124297,0.7093931,-0.44645023,0.34209996,976.7033,767.98535,869.12085,791.3553,775.64105,-0.38360595703125,0.052978515625,0.90899658203125,1.51031494140625,-4.35150146484375,-0.46356201171875,1.0,2.0,1.0,1.0,2.0,100.0,event
12:48:37.246,1.0338432,0.15908751,1.2582589,0.5784938,1.463777,-0.10367101,0.6032951,0.32940656,1.6119024,0.45225662,-0.014264201,0.21683247,1.3771305,0.63651764,-0.12750226,0.524308,1.124297,0.7093931,-0.44645023,0.34209996,512.1245,763.95605,769.19415,781.685,824.7985,-0.38360595703125,0.052978515625,0.90899658203125,1.51031494140625,-4.35150146484375,-0.46356201171875,1.0,2.0,1.0,1.0,2.0,100.0,event
12:48:37.247,1.0338432,0.15908751,1.2582589,0.5784938,1.463777,-0.10367101,0.6032951,0.32940656,1.6119024,0.45225662,-0.014264201,0.21683247,1.3771305,0.63651764,-0.12750226,0.524308,1.124297,0.7093931,-0.44645023,0.34209996,444.43222,796.1905,874.35895,777.25275,755.89746,-0.38360595703125,0.052978515625,0.90899658203125,1.51031494140625,-4.35150146484375,-0.46356201171875,1.0,2.0,1.0,1.0,2.0,100.0,event
12:48:37.248,1.0338432,0.15908751,1.2582589,0.5784938,1.463777,-0.10367101,0.6032951,0.32940656,1.6119024,0.45225662,-0.014264201,0.21683247,1.3771305,0.63651764,-0.12750226,0.524308,1.124297,0.7093931,-0.44645023,0.34209996,1094.762,761.13556,882.4176,796.99634,857.03296,-0.38360595703125,0.052978515625,0.90899658203125,1.51031494140625,-4.35150146484375,-0.46356201171875,1.0,2.0,1.0,1.0,2.0,100.0,event
12:48:37.248,1.0338432,0.15908751,1.2582589,0.5784938,1.463777,-0.10367101,0.6032951,0.32940656,1.6119024,0.45225662,-0.014264201,0.21683247,1.3771305,0.63651764,-0.12750226,0.524308,1.124297,0.7093931,-0.44645023,0.34209996,782.49084,797.8022,965.82416,797.8022,708.7546,-0.38360595703125,0.052978515625,0.90899658203125,1.51031494140625,-4.35150146484375,-0.46356201171875,1.0,2.0,1.0,1.0,2.0,100.0,event
12:48:37.249,1.0338432,0.15908751,1.2582589,0.5784938,1.463777,-0.10367101,0.6032951,0.32940656,1.6119024,0.45225662,-0.014264201,0.21683247,1.3771305,0.63651764,-0.12750226,0.524308,1.124297,0.7093931,-0.44645023,0.34209996,981.9414,736.55676,746.63007,776.04395,1137.8755,-0.38360595703125,0.052978515625,0.90899658203125,1.51031494140625,-4.35150146484375,-0.46356201171875,1.0,2.0,1.0,1.0,2.0,100.0,event
12:48:37.250,1.0338432,0.15908751,1.2582589,0.5784938,1.463777,-0.10367101,0.6032951,0.32940656,1.6119024,0.45225662,-0.014264201,0.21683247,1.3771305,0.63651764,-0.12750226,0.524308,1.124297,0.7093931,-0.44645023,0.34209996,541.53845,819.5604,923.1135,766.3736,1008.5348,-0.38360595703125,0.052978515625,0.90899658203125,1.51031494140625,-4.35150146484375,-0.46356201171875,1.0,2.0,1.0,1.0,2.0,100.0,event
12:48:37.251,1.0338432,0.15908751,1.2582589,0.5784938,1.463777,-0.10367101,0.6032951,0.32940656,1.6119024,0.45225662,-0.014264201,0.21683247,1.3771305,0.63651764,-0.12750226,0.524308,1.124297,0.7093931,-0.44645023,0.34209996,436.37363,810.293,967.8388,761.9414,653.1502,-0.38360595703125,0.052978515625,0.90899658203125,1.51031494140625,-4.35150146484375,-0.46356201171875,1.0,2.0,1.0,1.0,2.0,100.0,event
12:48:37.251,1.0338432,0.15908751,1.2582589,0.5784938,1.463777,-0.10367101,0.6032951,0.32940656,1.6119024,0.45225662,-0.014264201,0.21683247,1.3771305,0.63651764,-0.12750226,0.524308,1.124297,0.7093931,-0.44645023,0.34209996,727.28937,765.9707,850.58606,771.6117,761.9414,-0.38360595703125,0.052978515625,0.90899658203125,1.51031494140625,-4.35150146484375,-0.46356201171875,1.0,2.0,1.0,1.0,2.0,100.0,event
12:48:37.252,1.0338432,0.15908751,1.2582589,0.5784938,1.463777,-0.10367101,0.6032951,0.32940656,1.6119024,0.45225662,-0.014264201,0.21683247,1.3771305,0.63651764,-0.12750226,0.524308,1.124297,0.7093931,-0.44645023,0.34209996,1071.7949,809.89014,926.7399,790.9524,902.96704,-0.38360595703125,0.052978515625,0.90899658203125,1.51031494140625,-4.35150146484375,-0.46356201171875,1.0,2.0,1.0,1.0,2.0,100.0,event
12:48:37.253,1.0338432,0.15908751,1.2582589,0.5784938,1.463777,-0.10367101,0.6032951,0.32940656,1.6119024,0.45225662,-0.014264201,0.21683247,1.3771305,0.63651764,-0.12750226,0.524308,1.124297,0.7093931,-0.44645023,0.34209996,1091.9414,814.3223,989.19415,794.57874,709.15753,-0.38360595703125,0.052978515625,0.90899658203125,1.51031494140625,-4.35150146484375,-0.46356201171875,1.0,2.0,1.0,1.0,2.0,100.0,event
12:48:37.317,1.0338432,0.15908751,1.2582589,0.5784938,1.463777,-0.10367101,0.6032951,0.32940656,1.6119024,0.45225662,-0.014264201,0.21683247,1.3771305,0.63651764,-0.12750226,0.524308,1.124297,0.7093931,-0.44645023,0.34209996,639.0476,778.86444,886.04395,780.87915,657.1795,-0.38323974609375,0.0546875,0.91015625,1.83929443359375,-3.431854248046875,-0.082244873046875,1.0,2.0,1.0,1.0,2.0,100.0,event
12:48:37.319,1.0338432,0.15908751,1.2582589,0.5784938,1.463777,-0.10367101,0.6032951,0.32940656,1.6119024,0.45225662,-0.014264201,0.21683247,1.3771305,0.63651764,-0.12750226,0.524308,1.124297,0.7093931,-0.44645023,0.34209996,429.5238,774.0293,834.0659,781.685,742.6007,-0.38323974609375,0.0546875,0.91015625,1.83929443359375,-3.431854248046875,-0.082244873046875,1.0,2.0,1.0,1.0,2.0,100.0,event
12:48:37.321,1.0338432,0.15908751,1.2582589,0.5784938,1.463777,-0.10367101,0.6032951,0.32940656,1.6119024,0.45225662,-0.014264201,0.21683247,1.3771305,0.63651764,-0.12750226,0.524308,1.124297,0.7093931,-0.44645023,0.34209996,720.0366,803.8461,942.0513,781.685,752.674,-0.38323974609375,0.0546875,0.91015625,1.83929443359375,-3.431854248046875,-0.082244873046875,1.0,2.0,1.0,1.0,2.0,100.0,event
12:48:37.322,1.0338432,0.15908751,1.2582589,0.5784938,1.463777,-0.10367101,0.6032951,0.32940656,1.6119024,0.45225662,-0.014264201,0.21683247,1.3771305,0.63651764,-0.12750226,0.524308,1.124297,0.7093931,-0.44645023,0.34209996,1080.2565,810.696,998.86444,786.52014,749.85345,-0.38323974609375,0.0546875,0.91015625,1.83929443359375,-3.431854248046875,-0.082244873046875,1.0,2.0,1.0,1.0,2.0,100.0,event
12:48:37.324,1.0338432,0.15908751,1.2582589,0.5784938,1.463777,-0.10367101,0.6032951,0.32940656,1.6119024,0.45225662,-0.014264201,0.21683247,1.3771305,0.63651764,-0.12750226,0.524308,1.124297,0.7093931,-0.44645023,0.34209996,1149.9634,790.9524,929.5604,802.23444,751.06226,-0.38323974609375,0.0546875,0.91015625,1.83929443359375,-3.431854248046875,-0.082244873046875,1.0,2.0,1.0,1.0,2.0,100.0,event
12:48:37.325,1.0338432,0.15908751,1.2582589,0.5784938,1.463777,-0.10367101,0.6032951,0.32940656,1.6119024,0.45225662,-0.014264201,0.21683247,1.3771305,0.63651764,-0.12750226,0.524308,1.124297,0.7093931,-0.44645023,0.34209996,692.23444,759.92676,761.13556,796.99634,943.2601,-0.38323974609375,0.0546875,0.91015625,1.83929443359375,-3.431854248046875,-0.082244873046875,1.0,2.0,1.0,1.0,2.0,100.0,event
12:48:37.326,1.0338432,0.15908751,1.2582589,0.5784938,1.463777,-0.10367101,0.6032951,0.32940656,1.6119024,0.45225662,-0.014264201,0.21683247,1.3771305,0.63651764,-0.12750226,0.524308,1.124297,0.7093931,-0.44645023,0.34209996,408.57144,796.99634,813.91943,791.75824,1046.0073,-0.38323974609375,0.0546875,0.91015625,1.83929443359375,-3.431854248046875,-0.082244873046875,1.0,2.0,1.0,1.0,2.0,100.0,event
12:48:37.327,1.0338432,0.15908751,1.2582589,0.5784938,1.463777,-0.10367101,0.6032951,0.32940656,1.6119024,0.45225662,-0.014264201,0.21683247,1.3771305,0.63651764,-0.12750226,0.524308,1.124297,0.7093931,-0.44645023,0.34209996,699.89014,831.6484,1037.9487,793.7729,785.7143,-0.38323974609375,0.0546875,0.91015625,1.83929443359375,-3.431854248046875,-0.082244873046875,1.0,2.0,1.0,1.0,2.0,100.0,event
12:48:37.328,1.0338432,0.15908751,1.2582589,0.5784938,1.463777,-0.10367101,0.6032951,0.32940656,1.6119024,0.45225662,-0.014264201,0.21683247,1.3771305,0.63651764,-0.12750226,0.524308,1.124297,0.7093931,-0.44645023,0.34209996,1064.1392,796.1905,985.56775,786.9231,689.41394,-0.38323974609375,0.0546875,0.91015625,1.83929443359375,-3.431854248046875,-0.082244873046875,1.0,2.0,1.0,1.0,2.0,100.0,event
12:48:37.328,1.0338432,0.15908751,1.2582589,0.5784938,1.463777,-0.10367101,0.6032951,0.32940656,1.6119024,0.45225662,-0.014264201,0.21683247,1.3771305,0.63651764,-0.12750226,0.524308,1.124297,0.7093931,-0.44645023,0.34209996,1152.381,757.50916,843.3333,794.9817,837.6923,-0.38323974609375,0.0546875,0.91015625,1.83929443359375,-3.431854248046875,-0.082244873046875,1.0,2.0,1.0,1.0,2.0,100.0,event
12:48:37.332,1.0338432,0.15908751,1.2582589,0.5784938,1.463777,-0.10367101,0.6032951,0.32940656,1.6119024,0.45225662,-0.014264201,0.21683247,1.3771305,0.63651764,-0.12750226,0.524308,1.124297,0.7093931,-0.44645023,0.34209996,755.89746,785.31134,859.85345,787.326,829.2308,-0.38323974609375,0.0546875,0.91015625,1.83929443359375,-3.431854248046875,-0.082244873046875,1.0,2.0,1.0,1.0,2.0,100.0,event
12:48:37.333,1.0338432,0.15908751,1.2582589,0.5784938,1.463777,-0.10367101,0.6032951,0.32940656,1.6119024,0.45225662,-0.014264201,0.21683247,1.3771305,0.63651764,-0.12750226,0.524308,1.124297,0.7093931,-0.44645023,0.34209996,433.5531,806.6667,871.13556,774.83514,711.5751,-0.38323974609375,0.0546875,0.91015625,1.83929443359375,-3.431854248046875,-0.082244873046875,1.0,2.0,1.0,1.0,2.0,100.0,event
12:48:37.381,1.0338432,0.15908751,1.2582589,0.5784938,1.463777,-0.10367101,0.6032951,0.32940656,1.6119024,0.45225662,-0.014264201,0.21683247,1.3771305,0.63651764,-0.12750226,0.524308,1.124297,0.7093931,-0.44645023,0.34209996,620.9158,782.49084,850.58606,776.8498,740.58606,-0.38543701171875,0.0501708984375,0.90283203125,1.742095947265625,-3.715972900390625,-0.007476806640625,1.0,2.0,1.0,1.0,2.0,100.0,event
12:48:37.383,1.0338432,0.15908751,1.2582589,0.5784938,1.463777,-0.10367101,0.6032951,0.32940656,1.6119024,0.45225662,-0.014264201,0.21683247,1.3771305,0.63651764,-0.12750226,0.524308,1.124297,0.7093931,-0.44645023,0.34209996,969.85345,755.4945,838.9011,786.1172,848.1685,-0.38543701171875,0.0501708984375,0.90283203125,1.742095947265625,-3.715972900390625,-0.007476806640625,1.0,2.0,1.0,1.0,2.0,100.0,event
12:48:37.383,1.0338432,0.15908751,1.2582589,0.5784938,1.463777,-0.10367101,0.6032951,0.32940656,1.6119024,0.45225662,-0.014264201,0.21683247,1.3771305,0.63651764,-0.12750226,0.524308,1.124297,0.7093931,-0.44645023,0.34209996,1158.4249,809.89014,981.9414,796.5934,823.5897,-0.38543701171875,0.0501708984375,0.90283203125,1.742095947265625,-3.715972900390625,-0.007476806640625,1.0,2.0,1.0,1.0,2.0,100.0,event
12:48:37.384,1.0338432,0.15908751,1.2582589,0.5784938,1.463777,-0.10367101,0.6032951,0.32940656,1.6119024,0.45225662,-0.014264201,0.21683247,1.3771305,0.63651764,-0.12750226,0.524308,1.124297,0.7093931,-0.44645023,0.34209996,822.7839,809.0842,949.304,794.17584,661.6117,-0.38543701171875,0.0501708984375,0.90283203125,1.742095947265625,-3.715972900390625,-0.007476806640625,1.0,2.0,1.0,1.0,2.0,100.0,event
12:48:37.385,1.0338432,0.15908751,1.2582589,0.5784938,1.463777,-0.10367101,0.6032951,0.32940656,1.6119024,0.45225662,-0.014264201,0.21683247,1.3771305,0.63651764,-0.12750226,0.524308,1.124297,0.7093931,-0.44645023,0.34209996,421.06226,763.5531,789.7436,785.7143,670.07324,-0.38543701171875,0.0501708984375,0.90283203125,1.742095947265625,-3.715972900390625,-0.007476806640625,1.0,2.0,1.0,1.0,2.0,100.0,event
12:48:37.385,1.0338432,0.15908751,1.2582589,0.5784938,1.463777,-0.10367101,0.6032951,0.32940656,1.6119024,0.45225662,-0.014264201,0.21683247,1.3771305,0.63651764,-0.12750226,0.524308,1.124297,0.7093931,-0.44645023,0.34209996,541.13556,773.22345,777.6557,779.67035,803.44324,-0.38543701171875,0.0501708984375,0.90283203125,1.742095947265625,-3.715972900390625,-0.007476806640625,1.0,2.0,1.0,1.0,2.0,100.0,event
12:48:37.386,1.0338432,0.15908751,1.2582589,0.5784938,1.463777,-0.10367101,0.6032951,0.32940656,1.6119024,0.45225662,-0.014264201,0.21683247,1.3771305,0.63651764,-0.12750226,0.524308,1.124297,0.7093931,-0.44645023,0.34209996,935.2015,809.0842,911.02563,778.0586,799.011,-0.38543701171875,0.0501708984375,0.90283203125,1.742095947265625,-3.715972900390625,-0.007476806640625,1.0,2.0,1.0,1.0,2.0,100.0,event
12:48:37.386,1.0338432,0.15908751,1.2582589,0.5784938,1.463777,-0.10367101,0.6032951,0.32940656,1.6119024,0.45225662,-0.014264201,0.21683247,1.3771305,0.63651764,-0.12750226,0.524308,1.124297,0.7093931,-0.44645023,0.34209996,1189.4506,819.9634,1019.41394,790.54944,774.0293,-0.38543701171875,0.0501708984375,0.90283203125,1.742095947265625,-3.715972900390625,-0.007476806640625,1.0,2.0,1.0,1.0,2.0,100.0,event
12:48:37.387,1.0338432,0.15908751,1.2582589,0.5784938,1.463777,-0.10367101,0.6032951,0.32940656,1.6119024,0.45225662,-0.014264201,0.21683247,1.3771305,0.63651764,-0.12750226,0.524308,1.124297,0.7093931,-0.44645023,0.34209996,876.77655,764.35895,830.84247,800.6227,824.3956,-0.38543701171875,0.0501708984375,0.90283203125,1.742095947265625,-3.715972900390625,-0.007476806640625,1.0,2.0,1.0,1.0,2.0,100.0,event
12:48:37.388,1.0338432,0.15908751,1.2582589,0.5784938,1.463777,-0.10367101,0.6032951,0.32940656,1.6119024,0.45225662,-0.014264201,0.21683247,1.3771305,0.63651764,-0.12750226,0.524308,1.124297,0.7093931,-0.44645023,0.34209996,432.34433,730.9158,635.82416,786.1172,1028.6813,-0.38543701171875,0.0501708984375,0.90283203125,1.742095947265625,-3.715972900390625,-0.007476806640625,1.0,2.0,1.0,1.0,2.0,100.0,event
12:48:37.388,1.0338432,0.15908751,1.2582589,0.5784938,1.463777,-0.10367101,0.6032951,0.32940656,1.6119024,0.45225662,-0.014264201,0.21683247,1.3771305,0.63651764,-0.12750226,0.524308,1.124297,0.7093931,-0.44645023,0.34209996,552.4176,813.5165,924.3223,778.46155,883.22345,-0.38543701171875,0.0501708984375,0.90283203125,1.742095947265625,-3.715972900390625,-0.007476806640625,1.0,2.0,1.0,1.0,2.0,100.0,event
12:48:37.389,1.0338432,0.15908751,1.2582589,0.5784938,1.463777,-0.10367101,0.6032951,0.32940656,1.6119024,0.45225662,-0.014264201,0.21683247,1.3771305,0.63651764,-0.12750226,0.524308,1.124297,0.7093931,-0.44645023,0.34209996,938.022,805.8608,989.19415,792.1612,679.7436,-0.38543701171875,0.0501708984375,0.90283203125,1.742095947265625,-3.715972900390625,-0.007476806640625,1.0,2.0,1.0,1.0,2.0,100.0,event
12:48:37.416,1.0338432,0.15908751,1.2582589,0.5784938,1.463777,-0.10367101,0.6032951,0.32940656,1.6119024,0.45225662,-0.014264201,0.21683247,1.3771305,0.63651764,-0.12750226,0.524308,1.124297,0.7093931,-0.44645023,0.34209996,1177.7656,774.43225,857.03296,789.7436,728.9011,-0.38543701171875,0.0501708984375,0.90283203125,1.742095947265625,-3.715972900390625,-0.007476806640625,1.0,2.0,1.0,1.0,2.0,100.0,event
12:48:37.417,1.0338432,0.15908751,1.2582589,0.5784938,1.463777,-0.10367101,0.6032951,0.32940656,1.6119024,0.45225662,-0.014264201,0.21683247,1.3771305,0.63651764,-0.12750226,0.524308,1.124297,0.7093931,-0.44645023,0.34209996,941.6484,799.81683,865.4945,778.46155,771.2088,-0.38543701171875,0.0501708984375,0.90283203125,1.742095947265625,-3.715972900390625,-0.007476806640625,1.0,2.0,1.0,1.0,2.0,100.0,event
12:48:37.418,1.0338432,0.15908751,1.2582589,0.5784938,1.463777,-0.10367101,0.6032951,0.32940656,1.6119024,0.45225662,-0.014264201,0.21683247,1.3771305,0.63651764,-0.12750226,0.524308,1.124297,0.7093931,-0.44645023,0.34209996,508.49817,772.4176,798.20514,788.93774,805.05493,-0.38543701171875,0.0501708984375,0.90283203125,1.742095947265625,-3.715972900390625,-0.007476806640625,1.0,2.0,1.0,1.0,2.0,100.0,event
12:48:37.418,1.0338432,0.15908751,1.2582589,0.5784938,1.463777,-0.10367101,0.6032951,0.32940656,1.6119024,0.45225662,-0.014264201,0.21683247,1.3771305,0.63651764,-0.12750226,0.524308,1.124297,0.7093931,-0.44645023,0.34209996,507.69232,786.1172,820.7692,785.7143,762.3443,-0.38543701171875,0.0501708984375,0.90283203125,1.742095947265625,-3.715972900390625,-0.007476806640625,1.0,2.0,1.0,1.0,2.0,100.0,event
12:48:37.419,1.0338432,0.15908751,1.2582589,0.5784938,1.463777,-0.10367101,0.6032951,0.32940656,1.6119024,0.45225662,-0.014264201,0.21683247,1.3771305,0.63651764,-0.12750226,0.524308,1.124297,0.7093931,-0.44645023,0.34209996,865.89746,790.14655,848.1685,779.67035,825.2015,-0.38543701171875,0.0501708984375,0.90283203125,1.742095947265625,-3.715972900390625,-0.007476806640625,1.0,2.0,1.0,1.0,2.0,100.0,event
12:48:37.420,1.0338432,0.15908751,1.2582589,0.5784938,1.463777,-0.10367101,0.6032951,0.32940656,1.6119024,0.45225662,-0.014264201,0.21683247,1.3771305,0.63651764,-0.12750226,0.524308,1.124297,0.7093931,-0.44645023,0.34209996,1156.0073,814.3223,900.9524,786.52014,902.1612,-0.38543701171875,0.0501708984375,0.90283203125,1.742095947265625,-3.715972900390625,-0.007476806640625,1.0,2.0,1.0,1.0,2.0,100.0,event
12:48:37.421,1.0338432,0.15908751,1.2582589,0.5784938,1.463777,-0.10367101,0.6032951,0.32940656,1.6119024,0.45225662,-0.014264201,0.21683247,1.3771305,0.63651764,-0.12750226,0.524308,1.124297,0.7093931,-0.44645023,0.34209996,554.0293,794.17584,856.2271,782.8938,765.16486,-0.38543701171875,0.0501708984375,0.90283203125,1.742095947265625,-3.715972900390625,-0.007476806640625,1.0,2.0,1.0,1.0,2.0,100.0,event
12:48:37.421,1.0338432,0.15908751,1.2582589,0.5784938,1.463777,-0.10367101,0.6032951,0.32940656,1.6119024,0.45225662,-0.014264201,0.21683247,1.3771305,0.63651764,-0.12750226,0.524308,1.124297,0.7093931,-0.44645023,0.34209996,981.9414,801.8315,875.16486,788.93774,870.7326,-0.38543701171875,0.0501708984375,0.90283203125,1.742095947265625,-3.715972900390625,-0.007476806640625,1.0,2.0,1.0,1.0,2.0,100.0,event
12:48:37.422,1.0338432,0.15908751,1.2582589,0.5784938,1.463777,-0.10367101,0.6032951,0.32940656,1.6119024,0.45225662,-0.014264201,0.21683247,1.3771305,0.63651764,-0.12750226,0.524308,1.124297,0.7093931,-0.44645023,0.34209996,483.9194,747.4359,728.0952,782.0879,801.02563,-0.38543701171875,0.0501708984375,0.90283203125,1.742095947265625,-3.715972900390625,-0.007476806640625,1.0,2.0,1.0,1.0,2.0,100.0,event
12:48:37.423,1.0338432,0.15908751,1.2582589,0.5784938,1.463777,-0.10367101,0.6032951,0.32940656,1.6119024,0.45225662,-0.014264201,0.21683247,1.3771305,0.63651764,-0.12750226,0.524308,1.124297,0.7093931,-0.44645023,0.34209996,801.02563,798.20514,799.41394,781.685,930.7692,-0.38543701171875,0.0501708984375,0.90283203125,1.742095947265625,-3.715972900390625,-0.007476806640625,1.0,2.0,1.0,1.0,2.0,100.0,event
12:48:37.424,1.0338432,0.15908751,1.2582589,0.5784938,1.463777,-0.10367101,0.6032951,0.32940656,1.6119024,0.45225662,-0.014264201,0.21683247,1.3771305,0.63651764,-0.12750226,0.524308,1.124297,0.7093931,-0.44645023,0.34209996,1171.7216,852.1978,1043.5897,793.36993,789.34064,-0.38543701171875,0.0501708984375,0.90283203125,1.742095947265625,-3.715972900390625,-0.007476806640625,1.0,2.0,1.0,1.0,2.0,100.0,event
12:48:37.425,1.0338432,0.15908751,1.2582589,0.5784938,1.463777,-0.10367101,0.6032951,0.32940656,1.6119024,0.45225662,-0.014264201,0.21683247,1.3771305,0.63651764,-0.12750226,0.524308,1.124297,0.7093931,-0.44645023,0.34209996,1060.5128,783.2967,877.5824,796.5934,733.3333,-0.38543701171875,0.0501708984375,0.90283203125,1.742095947265625,-3.715972900390625,-0.007476806640625,1.0,2.0,1.0,1.0,2.0,100.0,event
12:48:37.456,1.0338432,0.15908751,1.2582589,0.5784938,1.463777,-0.10367101,0.6032951,0.32940656,1.6119024,0.45225662,-0.014264201,0.21683247,1.3771305,0.63651764,-0.12750226,0.524308,1.124297,0.7093931,-0.44645023,0.34209996,562.49084,759.12085,702.3077,776.04395,799.81683,-0.38177490234375,0.05230712890625,0.9310302734375,1.86920166015625,-3.985137939453125,-0.657958984375,1.0,2.0,1.0,1.0,2.0,100.0,event
12:48:37.457,1.0338432,0.15908751,1.2582589,0.5784938,1.463777,-0.10367101,0.6032951,0.32940656,1.6119024,0.45225662,-0.014264201,0.21683247,1.3771305,0.63651764,-0.12750226,0.524308,1.124297,0.7093931,-0.44645023,0.34209996,465.78754,801.02563,828.022,777.6557,728.9011,-0.38177490234375,0.05230712890625,0.9310302734375,1.86920166015625,-3.985137939453125,-0.657958984375,1.0,2.0,1.0,1.0,2.0,100.0,event
12:48:37.458,1.0338432,0.15908751,1.2582589,0.5784938,1.463777,-0.10367101,0.6032951,0.32940656,1.6119024,0.45225662,-0.014264201,0.21683247,1.3771305,0.63651764,-0.12750226,0.524308,1.124297,0.7093931,-0.44645023,0.34209996,803.8461,812.3077,915.4579,798.60803,713.1868,-0.38177490234375,0.05230712890625,0.9310302734375,1.86920166015625,-3.985137939453125,-0.657958984375,1.0,2.0,1.0,1.0,2.0,100.0,event
12:48:37.459,1.0338432,0.15908751,1.2582589,0.5784938,1.463777,-0.10367101,0.6032951,0.32940656,1.6119024,0.45225662,-0.014264201,0.21683247,1.3771305,0.63651764,-0.12750226,0.524308,1.124297,0.7093931,-0.44645023,0.34209996,1133.8462,791.3553,869.5238,803.0403,763.95605,-0.38177490234375,0.05230712890625,0.9310302734375,1.86920166015625,-3.985137939453125,-0.657958984375,1.0,2.0,1.0,1.0,2.0,100.0,event
12:48:37.460,1.0338432,0.15908751,1.2582589,0.5784938,1.463777,-0.10367101,0.6032951,0.32940656,1.6119024,0.45225662,-0.014264201,0.21683247,1.3771305,0.63651764,-0.12750226,0.524308,1.124297,0.7093931,-0.44645023,0.34209996,1077.033,786.52014,782.49084,811.9048,853.8095,-0.38177490234375,0.05230712890625,0.9310302734375,1.86920166015625,-3.985137939453125,-0.657958984375,1.0,2.0,1.0,1.0,2.0,100.0,event
12:48:37.461,1.0338432,0.15908751,1.2582589,0.5784938,1.463777,-0.10367101,0.6032951,0.32940656,1.6119024,0.45225662,-0.014264201,0.21683247,1.3771305,0.63651764,-0.12750226,0.524308,1.124297,0.7093931,-0.44645023,0.34209996,609.6337,780.07324,733.73627,802.6374,863.47986,-0.38177490234375,0.05230712890625,0.9310302734375,1.86920166015625,-3.985137939453125,-0.657958984375,1.0,2.0,1.0,1.0,2.0,100.0,event
12:48:37.462,1.0338432,0.15908751,1.2582589,0.5784938,1.463777,-0.10367101,0.6032951,0.32940656,1.6119024,0.45225662,-0.014264201,0.21683247,1.3771305,0.63651764,-0.12750226,0.524308,1.124297,0.7093931,-0.44645023,0.34209996,438.38828,799.41394,803.8461,794.9817,749.85345,-0.38177490234375,0.05230712890625,0.9310302734375,1.86920166015625,-3.985137939453125,-0.657958984375,1.0,2.0,1.0,1.0,2.0,100.0,event
12:48:37.463,1.0338432,0.15908751,1.2582589,0.5784938,1.463777,-0.10367101,0.6032951,0.32940656,1.6119024,0.45225662,-0.014264201,0.21683247,1.3771305,0.63651764,-0.12750226,0.524308,1.124297,0.7093931,-0.44645023,0.34209996,734.94507,790.9524,842.52747,805.8608,776.8498,-0.38177490234375,0.05230712890625,0.9310302734375,1.86920166015625,-3.985137939453125,-0.657958984375,1.0,2.0,1.0,1.0,2.0,100.0,event
12:48:37.463,1.0338432,0.15908751,1.2582589,0.5784938,1.463777,-0.10367101,0.6032951,0.32940656,1.6119024,0.45225662,-0.014264201,0.21683247,1.3771305,0.63651764,-0.12750226,0.524308,1.124297,0.7093931,-0.44645023,0.34209996,1052.0513,751.4652,724.87177,807.8755,1080.2565,-0.38177490234375,0.05230712890625,0.9310302734375,1.86920166015625,-3.985137939453125,-0.657958984375,1.0,2.0,1.0,1.0,2.0,100.0,event
12:48:37.464,1.0338432,0.15908751,1.2582589,0.5784938,1.463777,-0.10367101,0.6032951,0.32940656,1.6119024,0.45225662,-0.014264201,0.21683247,1.3771305,0.63651764,-0.12750226,0.524308,1.124297,0.7093931,-0.44645023,0.34209996,1091.1355,844.94507,895.31134,804.65204,1107.6556,-0.38177490234375,0.05230712890625,0.9310302734375,1.86920166015625,-3.985137939453125,-0.657958984375,1.0,2.0,1.0,1.0,2.0,100.0,event
12:48:37.468,1.0338432,0.15908751,1.2582589,0.5784938,1.463777,-0.10367101,0.6032951,0.32940656,1.6119024,0.45225662,-0.014264201,0.21683247,1.3771305,0.63651764,-0.12750226,0.524308,1.124297,0.7093931,-0.44645023,0.34209996,696.6667,830.84247,934.3956,789.34064,778.0586,-0.38177490234375,0.05230712890625,0.9310302734375,1.86920166015625,-3.985137939453125,-0.657958984375,1.0,2.0,1.0,1.0,2.0,100.0,event
12:48:37.469,1.0338432,0.15908751,1.2582589,0.5784938,1.463777,-0.10367101,0.6032951,0.32940656,1.6119024,0.45225662,-0.014264201,0.21683247,1.3771305,0.63651764,-0.12750226,0.524308,1.124297,0.7093931,-0.44645023,0.34209996,460.54944,780.4762,786.9231,783.69965,747.4359,-0.38177490234375,0.05230712890625,0.9310302734375,1.86920166015625,-3.985137939453125,-0.657958984375,1.0,2.0,1.0,1.0,2.0,100.0,event
12:48:37.510,1.0338432,0.15908751,1.2582589,0.5784938,1.463777,-0.10367101,0.6032951,0.32940656,1.6119024,0.45225662,-0.014264201,0.21683247,1.3771305,0.63651764,-0.12750226,0.524308,1.124297,0.7093931,-0.44645023,0.34209996,735.7509,819.9634,868.315,790.54944,767.1795,-0.36956787109375,0.0401611328125,0.90570068359375,0.67291259765625,-4.88983154296875,0.418701171875,1.0,2.0,1.0,1.0,2.0,100.0,event
12:48:37.512,1.0338432,0.15908751,1.2582589,0.5784938,1.463777,-0.10367101,0.6032951,0.32940656,1.6119024,0.45225662,-0.014264201,0.21683247,1.3771305,0.63651764,-0.12750226,0.524308,1.124297,0.7093931,-0.44645023,0.34209996,1088.7179,817.5458,933.5897,797.8022,747.4359,-0.36956787109375,0.0401611328125,0.90570068359375,0.67291259765625,-4.88983154296875,0.418701171875,1.0,2.0,1.0,1.0,2.0,100.0,event
12:48:37.513,1.0338432,0.15908751,1.2582589,0.5784938,1.463777,-0.10367101,0.6032951,0.32940656,1.6119024,0.45225662,-0.014264201,0.21683247,1.3771305,0.63651764,-0.12750226,0.524308,1.124297,0.7093931,-0.44645023,0.34209996,1160.8425,790.14655,869.5238,799.011,805.8608,-0.36956787109375,0.0401611328125,0.90570068359375,0.67291259765625,-4.88983154296875,0.418701171875,1.0,2.0,1.0,1.0,2.0,100.0,event
12:48:37.514,1.0338432,0.15908751,1.2582589,0.5784938,1.463777,-0.10367101,0.6032951,0.32940656,1.6119024,0.45225662,-0.014264201,0.21683247,1.3771305,0.63651764,-0.12750226,0.524308,1.124297,0.7093931,-0.44645023,0.34209996,731.31866,766.77655,742.1978,793.7729,823.9927,-0.36956787109375,0.0401611328125,0.90570068359375,0.67291259765625,-4.88983154296875,0.418701171875,1.0,2.0,1.0,1.0,2.0,100.0,event
12:48:37.514,1.0338432,0.15908751,1.2582589,0.5784938,1.463777,-0.10367101,0.6032951,0.32940656,1.6119024,0.45225662,-0.014264201,0.21683247,1.3771305,0.63651764,-0.12750226,0.524308,1.124297,0.7093931,-0.44645023,0.34209996,429.92673,793.7729,795.38464,786.52014,810.293,-0.36956787109375,0.0401611328125,0.90570068359375,0.67291259765625,-4.88983154296875,0.418701171875,1.0,2.0,1.0,1.0,2.0,100.0,event
12:48:37.515,1.0338432,0.15908751,1.2582589,0.5784938,1.463777,-0.10367101,0.6032951,0.32940656,1.6119024,0.45225662,-0.014264201,0.21683247,1.3771305,0.63651764,-0.12750226,0.524308,1.124297,0.7093931,-0.44645023,0.34209996,665.2381,794.9817,809.89014,776.4469,835.6777,-0.36956787109375,0.0401611328125,0.90570068359375,0.67291259765625,-4.88983154296875,0.418701171875,1.0,2.0,1.0,1.0,2.0,100.0,event
12:48:37.516,1.0338432,0.15908751,1.2582589,0.5784938,1.463777,-0.10367101,0.6032951,0.32940656,1.6119024,0.45225662,-0.014264201,0.21683247,1.3771305,0.63651764,-0.12750226,0.524308,1.124297,0.7093931,-0.44645023,0.34209996,1009.7436,803.8461,850.989,775.64105,874.35895,-0.36956787109375,0.0401611328125,0.90570068359375,0.67291259765625,-4.88983154296875,0.418701171875,1.0,2.0,1.0,1.0,2.0,100.0,event
12:48:37.517,1.0338432,0.15908751,1.2582589,0.5784938,1.463777,-0.10367101,0.6032951,0.32940656,1.6119024,0.45225662,-0.014264201,0.21683247,1.3771305,0.63651764,-0.12750226,0.524308,1.124297,0.7093931,-0.44645023,0.34209996,1135.4579,775.2381,799.011,790.14655,884.83514,-0.36956787109375,0.0401611328125,0.90570068359375,0.67291259765625,-4.88983154296875,0.418701171875,1.0,2.0,1.0,1.0,2.0,100.0,event
12:48:37.517,1.0338432,0.15908751,1.2582589,0.5784938,1.463777,-0.10367101,0.6032951,0.32940656,1.6119024,0.45225662,-0.014264201,0.21683247,1.3771305,0.63651764,-0.12750226,0.524308,1.124297,0.7093931,-0.44645023,0.34209996,745.42126,763.95605,668.86444,794.9817,1025.0549,-0.36956787109375,0.0401611328125,0.90570068359375,0.67291259765625,-4.88983154296875,0.418701171875,1.0,2.0,1.0,1.0,2.0,100.0,event
12:48:37.518,1.0338432,0.15908751,1.2582589,0.5784938,1.463777,-0.10367101,0.6032951,0.32940656,1.6119024,0.45225662,-0.014264201,0.21683247,1.3771305,0.63651764,-0.12750226,0.524308,1.124297,0.7093931,-0.44645023,0.34209996,408.97437,819.9634,855.82416,776.04395,857.4359,-0.36956787109375,0.0401611328125,0.90570068359375,0.67291259765625,-4.88983154296875,0.418701171875,1.0,2.0,1.0,1.0,2.0,100.0,event
12:48:37.519,1.0338432,0.15908751,1.2582589,0.5784938,1.463777,-0.10367101,0.6032951,0.32940656,1.6119024,0.45225662,-0.014264201,0.21683247,1.3771305,0.63651764,-0.12750226,0.524308,1.124297,0.7093931,-0.44645023,0.34209996,942.0513,763.95605,788.1319,778.86444,751.8681,-0.36956787109375,0.0401611328125,0.90570068359375,0.67291259765625,-4.88983154296875,0.418701171875,1.0,2.0,1.0,1.0,2.0,100.0,event
12:48:37.519,1.0338432,0.15908751,1.2582589,0.5784938,1.463777,-0.10367101,0.6032951,0.32940656,1.6119024,0.45225662,-0.014264201,0.21683247,1.3771305,0.63651764,-0.12750226,0.524308,1.124297,0.7093931,-0.44645023,0.34209996,591.50183,811.50183,906.5934,761.53845,637.8388,-0.36956787109375,0.0401611328125,0.90570068359375,0.67291259765625,-4.88983154296875,0.418701171875,1.0,2.0,1.0,1.0,2.0,100.0,event
12:48:37.545,1.0338432,0.15908751,1.2582589,0.5784938,1.463777,-0.10367101,0.6032951,0.32940656,1.6119024,0.45225662,-0.014264201,0.21683247,1.3771305,0.63651764,-0.12750226,0.524308,1.124297,0.7093931,-0.44645023,0.34209996,1153.5897,803.0403,879.59705,792.1612,818.7546,-0.37359619140625,0.05023193359375,0.90631103515625,3.72344970703125,-1.77947998046875,0.0299072265625,1.0,2.0,1.0,1.0,2.0,100.0,event
12:48:37.546,1.0338432,0.15908751,1.2582589,0.5784938,1.463777,-0.10367101,0.6032951,0.32940656,1.6119024,0.45225662,-0.014264201,0.21683247,1.3771305,0.63651764,-0.12750226,0.524308,1.124297,0.7093931,-0.44645023,0.34209996,838.49817,810.696,860.2564,778.86444,712.381,-0.37359619140625,0.05023193359375,0.90631103515625,3.72344970703125,-1.77947998046875,0.0299072265625,1.0,2.0,1.0,1.0,2.0,100.0,event
12:48:37.550,1.0338432,0.15908751,1.2582589,0.5784938,1.463777,-0.10367101,0.6032951,0.32940656,1.6119024,0.45225662,-0.014264201,0.21683247,1.3771305,0.63651764,-0.12750226,0.524308,1.124297,0.7093931,-0.44645023,0.34209996,429.12088,776.8498,736.1539,768.7912,712.7839,-0.37359619140625,0.05023193359375,0.90631103515625,3.72344970703125,-1.77947998046875,0.0299072265625,1.0,2.0,1.0,1.0,2.0,100.0,event
12:48:37.550,1.0338432,0.15908751,1.2582589,0.5784938,1.463777,-0.10367101,0.6032951,0.32940656,1.6119024,0.45225662,-0.014264201,0.21683247,1.3771305,0.63651764,-0.12750226,0.524308,1.124297,0.7093931,-0.44645023,0.34209996,545.56775,789.7436,750.65936,776.4469,739.3773,-0.37359619140625,0.05023193359375,0.90631103515625,3.72344970703125,-1.77947998046875,0.0299072265625,1.0,2.0,1.0,1.0,2.0,100.0,event
12:48:37.551,1.0338432,0.15908751,1.2582589,0.5784938,1.463777,-0.10367101,0.6032951,0.32940656,1.6119024,0.45225662,-0.014264201,0.21683247,1.3771305,0.63651764,-0.12750226,0.524308,1.124297,0.7093931,-0.44645023,0.34209996,929.5604,809.4872,856.2271,793.36993,728.9011,-0.37359619140625,0.05023193359375,0.90631103515625,3.72344970703125,-1.77947998046875,0.0299072265625,1.0,2.0,1.0,1.0,2.0,100.0,event
12:48:37.552,1.0338432,0.15908751,1.2582589,0.5784938,1.463777,-0.10367101,0.6032951,0.32940656,1.6119024,0.45225662,-0.014264201,0.21683247,1.3771305,0.63651764,-0.12750226,0.524308,1.124297,0.7093931,-0.44645023,0.34209996,1155.6044,799.41394,819.5604,803.8461,790.54944,-0.37359619140625,0.05023193359375,0.90631103515625,3.72344970703125,-1.77947998046875,0.0299072265625,1.0,2.0,1.0,1.0,2.0,100.0,event
12:48:37.552,1.0338432,0.15908751,1.2582589,0.5784938,1.463777,-0.10367101,0.6032951,0.32940656,1.6119024,0.45225662,-0.014264201,0.21683247,1.3771305,0.63651764,-0.12750226,0.524308,1.124297,0.7093931,-0.44645023,0.34209996,871.13556,762.74725,706.337,795.78754,823.9927,-0.37359619140625,0.05023193359375,0.90631103515625,3.72344970703125,-1.77947998046875,0.0299072265625,1.0,2.0,1.0,1.0,2.0,100.0,event
