TimeStamp,Delta_TP9,Delta_AF7,Delta_AF8,Delta_TP10,Theta_TP9,Theta_AF7,Theta_AF8,Theta_TP10,Alpha_TP9,Alpha_AF7,Alpha_AF8,Alpha_TP10,Beta_TP9,Beta_AF7,Beta_AF8,Beta_TP10,Gamma_TP9,Gamma_AF7,Gamma_AF8,Gamma_TP10,RAW_TP9,RAW_AF7,RAW_AF8,RAW_TP10,AUX_RIGHT,Accelerometer_X,Accelerometer_Y,Accelerometer_Z,Gyro_X,Gyro_Y,Gyro_Z,HeadBandOn,HSI_TP9,HSI_AF7,HSI_AF8,HSI_TP10,Battery,Elements
11:38:48.660,0.640648,0.44596356,0.93043804,0.24697305,0.5812638,-0.04211812,0.45979702,0.20295168,0.60793394,0.08183881,0.41848785,0.37219048,0.8097623,0.3044513,-0.16463774,0.4763945,0.12093926,-0.16861604,-0.59538,0.042064637,919.89014,815.9341,892.49084,820.3663,813.91943,-0.00653076171875,-0.01837158203125,0.98876953125,2.6019287109375,-3.401947021484375,0.657958984375,1.0,1.0,1.0,4.0,1.0,85.0,event
11:38:48.660,0.640648,0.44596356,0.93043804,0.24697305,0.5812638,-0.04211812,0.45979702,0.20295168,0.60793394,0.08183881,0.41848785,0.37219048,0.8097623,0.3044513,-0.16463774,0.4763945,0.12093926,-0.16861604,-0.59538,0.042064637,863.0769,806.6667,493.99268,810.293,994.43225,-0.00653076171875,-0.01837158203125,0.98876953125,2.6019287109375,-3.401947021484375,0.657958984375,1.0,1.0,1.0,4.0,1.0,85.0,event
11:38:48.661,0.640648,0.44596356,0.93043804,0.24697305,0.5812638,-0.04211812,0.45979702,0.20295168,0.60793394,0.08183881,0.41848785,0.37219048,0.8097623,0.3044513,-0.16463774,0.4763945,0.12093926,-0.16861604,-0.59538,0.042064637,708.3516,810.293,176.08058,802.23444,1068.5714,-0.00653076171875,-0.01837158203125,0.98876953125,2.6019287109375,-3.401947021484375,0.657958984375,1.0,1.0,1.0,4.0,1.0,85.0,event
11:38:48.662,0.640648,0.44596356,0.93043804,0.24697305,0.5812638,-0.04211812,0.45979702,0.20295168,0.60793394,0.08183881,0.41848785,0.37219048,0.8097623,0.3044513,-0.16463774,0.4763945,0.12093926,-0.16861604,-0.59538,0.042064637,680.14655,822.381,705.12823,811.50183,763.95605,-0.00653076171875,-0.01837158203125,0.98876953125,2.6019287109375,-3.401947021484375,0.657958984375,1.0,1.0,1.0,4.0,1.0,85.0,event
11:38:48.662,0.640648,0.44596356,0.93043804,0.24697305,0.5812638,-0.04211812,0.45979702,0.20295168,0.60793394,0.08183881,0.41848785,0.37219048,0.8097623,0.3044513,-0.16463774,0.4763945,0.12093926,-0.16861604,-0.59538,0.042064637,790.14655,819.5604,1012.5641,821.5751,697.47253,-0.00653076171875,-0.01837158203125,0.98876953125,2.6019287109375,-3.401947021484375,0.657958984375,1.0,1.0,1.0,4.0,1.0,85.0,event
11:38:48.663,0.640648,0.44596356,0.93043804,0.24697305,0.5812638,-0.04211812,0.45979702,0.20295168,0.60793394,0.08183881,0.41848785,0.37219048,0.8097623,0.3044513,-0.16463774,0.4763945,0.12093926,-0.16861604,-0.59538,0.042064637,914.65204,818.7546,803.0403,819.15753,807.8755,-0.00653076171875,-0.01837158203125,0.98876953125,2.6019287109375,-3.401947021484375,0.657958984375,1.0,1.0,1.0,4.0,1.0,85.0,event
11:38:48.664,0.640648,0.44596356,0.93043804,0.24697305,0.5812638,-0.04211812,0.45979702,0.20295168,0.60793394,0.08183881,0.41848785,0.37219048,0.8097623,0.3044513,-0.16463774,0.4763945,0.12093926,-0.16861604,-0.59538,0.042064637,891.685,819.5604,816.337,808.68134,817.9487,-0.00653076171875,-0.01837158203125,0.98876953125,2.6019287109375,-3.401947021484375,0.657958984375,1.0,1.0,1.0,4.0,1.0,85.0,event
11:38:48.698,0.640648,0.44596356,0.93043804,0.24697305,0.5812638,-0.04211812,0.45979702,0.20295168,0.60793394,0.08183881,0.41848785,0.37219048,0.8097623,0.3044513,-0.16463774,0.4763945,0.12093926,-0.16861604,-0.59538,0.042064637,738.97437,811.50183,730.5128,790.54944,754.2857,-0.0020751953125,-0.01812744140625,0.97979736328125,1.54022216796875,-3.21502685546875,-0.186920166015625,1.0,1.0,1.0,4.0,1.0,85.0,event
11:38:48.699,0.640648,0.44596356,0.93043804,0.24697305,0.5812638,-0.04211812,0.45979702,0.20295168,0.60793394,0.08183881,0.41848785,0.37219048,0.8097623,0.3044513,-0.16463774,0.4763945,0.12093926,-0.16861604,-0.59538,0.042064637,666.4469,812.71063,718.022,788.5348,710.7692,-0.0020751953125,-0.01812744140625,0.97979736328125,1.54022216796875,-3.21502685546875,-0.186920166015625,1.0,1.0,1.0,4.0,1.0,85.0,event
11:38:48.700,0.640648,0.44596356,0.93043804,0.24697305,0.5812638,-0.04211812,0.45979702,0.20295168,0.60793394,0.08183881,0.41848785,0.37219048,0.8097623,0.3044513,-0.16463774,0.4763945,0.12093926,-0.16861604,-0.59538,0.042064637,747.8388,807.47253,608.8278,803.44324,898.93774,-0.0020751953125,-0.01812744140625,0.97979736328125,1.54022216796875,-3.21502685546875,-0.186920166015625,1.0,1.0,1.0,4.0,1.0,85.0,event
11:38:48.701,0.640648,0.44596356,0.93043804,0.24697305,0.5812638,-0.04211812,0.45979702,0.20295168,0.60793394,0.08183881,0.41848785,0.37219048,0.8097623,0.3044513,-0.16463774,0.4763945,0.12093926,-0.16861604,-0.59538,0.042064637,896.9231,817.9487,844.5421,810.696,920.696,-0.0020751953125,-0.01812744140625,0.97979736328125,1.54022216796875,-3.21502685546875,-0.186920166015625,1.0,1.0,1.0,4.0,1.0,85.0,event
11:38:48.701,0.640648,0.44596356,0.93043804,0.24697305,0.5812638,-0.04211812,0.45979702,0.20295168,0.60793394,0.08183881,0.41848785,0.37219048,0.8097623,0.3044513,-0.16463774,0.4763945,0.12093926,-0.16861604,-0.59538,0.042064637,908.20514,821.1722,1048.4249,807.8755,806.26373,-0.0020751953125,-0.01812744140625,0.97979736328125,1.54022216796875,-3.21502685546875,-0.186920166015625,1.0,1.0,1.0,4.0,1.0,85.0,event
11:38:48.702,0.640648,0.44596356,0.93043804,0.24697305,0.5812638,-0.04211812,0.45979702,0.20295168,0.60793394,0.08183881,0.41848785,0.37219048,0.8097623,0.3044513,-0.16463774,0.4763945,0.12093926,-0.16861604,-0.59538,0.042064637,757.9121,804.65204,635.0183,795.78754,837.6923,-0.0020751953125,-0.01812744140625,0.97979736328125,1.54022216796875,-3.21502685546875,-0.186920166015625,1.0,1.0,1.0,4.0,1.0,85.0,event
11:38:48.703,0.640648,0.44596356,0.93043804,0.24697305,0.5812638,-0.04211812,0.45979702,0.20295168,0.60793394,0.08183881,0.41848785,0.37219048,0.8097623,0.3044513,-0.16463774,0.4763945,0.12093926,-0.16861604,-0.59538,0.042064637,663.6264,799.81683,201.4652,794.17584,1013.36993,-0.0020751953125,-0.01812744140625,0.97979736328125,1.54022216796875,-3.21502685546875,-0.186920166015625,1.0,1.0,1.0,4.0,1.0,85.0,event
11:38:48.704,0.640648,0.44596356,0.93043804,0.24697305,0.5812638,-0.04211812,0.45979702,0.20295168,0.60793394,0.08183881,0.41848785,0.37219048,0.8097623,0.3044513,-0.16463774,0.4763945,0.12093926,-0.16861604,-0.59538,0.042064637,906.99634,821.1722,1006.9231,819.15753,626.55676,-0.0020751953125,-0.01812744140625,0.97979736328125,1.54022216796875,-3.21502685546875,-0.186920166015625,1.0,1.0,1.0,4.0,1.0,85.0,event
11:38:48.704,0.640648,0.44596356,0.93043804,0.24697305,0.5812638,-0.04211812,0.45979702,0.20295168,0.60793394,0.08183881,0.41848785,0.37219048,0.8097623,0.3044513,-0.16463774,0.4763945,0.12093926,-0.16861604,-0.59538,0.042064637,747.03296,817.9487,567.72894,803.8461,861.4652,-0.0020751953125,-0.01812744140625,0.97979736328125,1.54022216796875,-3.21502685546875,-0.186920166015625,1.0,1.0,1.0,4.0,1.0,85.0,event
11:38:48.705,0.640648,0.44596356,0.93043804,0.24697305,0.5812638,-0.04211812,0.45979702,0.20295168,0.60793394,0.08183881,0.41848785,0.37219048,0.8097623,0.3044513,-0.16463774,0.4763945,0.12093926,-0.16861604,-0.59538,0.042064637,925.9341,811.50183,837.6923,820.3663,706.337,-0.0020751953125,-0.01812744140625,0.97979736328125,1.54022216796875,-3.21502685546875,-0.186920166015625,1.0,1.0,1.0,4.0,1.0,85.0,event
11:38:48.706,0.640648,0.44596356,0.93043804,0.24697305,0.5812638,-0.04211812,0.45979702,0.20295168,0.60793394,0.08183881,0.41848785,0.37219048,0.8097623,0.3044513,-0.16463774,0.4763945,0.12093926,-0.16861604,-0.59538,0.042064637,785.7143,814.3223,639.0476,799.011,739.7802,-0.0020751953125,-0.01812744140625,0.97979736328125,1.54022216796875,-3.21502685546875,-0.186920166015625,1.0,1.0,1.0,4.0,1.0,85.0,event
11:38:48.707,0.640648,0.44596356,0.93043804,0.24697305,0.5812638,-0.04211812,0.45979702,0.20295168,0.60793394,0.08183881,0.41848785,0.37219048,0.8097623,0.3044513,-0.16463774,0.4763945,0.12093926,-0.16861604,-0.59538,0.042064637,685.78754,817.9487,782.49084,792.1612,665.2381,-0.0020751953125,-0.01812744140625,0.97979736328125,1.54022216796875,-3.21502685546875,-0.186920166015625,1.0,1.0,1.0,4.0,1.0,85.0,event
11:38:48.744,0.640648,0.44596356,0.93043804,0.24697305,0.5812638,-0.04211812,0.45979702,0.20295168,0.60793394,0.08183881,0.41848785,0.37219048,0.8097623,0.3044513,-0.16463774,0.4763945,0.12093926,-0.16861604,-0.59538,0.042064637,744.21246,817.9487,1000.4762,806.6667,721.2454,-0.0020751953125,-0.01812744140625,0.97979736328125,1.54022216796875,-3.21502685546875,-0.186920166015625,1.0,1.0,1.0,4.0,1.0,85.0,event
11:38:48.744,0.640648,0.44596356,0.93043804,0.24697305,0.5812638,-0.04211812,0.45979702,0.20295168,0.60793394,0.08183881,0.41848785,0.37219048,0.8097623,0.3044513,-0.16463774,0.4763945,0.12093926,-0.16861604,-0.59538,0.042064637,886.04395,815.9341,910.6227,821.1722,750.2564,-0.0020751953125,-0.01812744140625,0.97979736328125,1.54022216796875,-3.21502685546875,-0.186920166015625,1.0,1.0,1.0,4.0,1.0,85.0,event
11:38:48.745,0.640648,0.44596356,0.93043804,0.24697305,0.5812638,-0.04211812,0.45979702,0.20295168,0.60793394,0.08183881,0.41848785,0.37219048,0.8097623,0.3044513,-0.16463774,0.4763945,0.12093926,-0.16861604,-0.59538,0.042064637,923.1135,815.12823,759.92676,821.1722,740.58606,-0.0020751953125,-0.01812744140625,0.97979736328125,1.54022216796875,-3.21502685546875,-0.186920166015625,1.0,1.0,1.0,4.0,1.0,85.0,event
11:38:48.745,0.640648,0.44596356,0.93043804,0.24697305,0.5812638,-0.04211812,0.45979702,0.20295168,0.60793394,0.08183881,0.41848785,0.37219048,0.8097623,0.3044513,-0.16463774,0.4763945,0.12093926,-0.16861604,-0.59538,0.042064637,792.96704,812.3077,637.8388,805.8608,815.5311,-0.0020751953125,-0.01812744140625,0.97979736328125,1.54022216796875,-3.21502685546875,-0.186920166015625,1.0,1.0,1.0,4.0,1.0,85.0,event
11:38:48.746,0.640648,0.44596356,0.93043804,0.24697305,0.5812638,-0.04211812,0.45979702,0.20295168,0.60793394,0.08183881,0.41848785,0.37219048,0.8097623,0.3044513,-0.16463774,0.4763945,0.12093926,-0.16861604,-0.59538,0.042064637,679.7436,814.7253,749.0476,797.8022,750.2564,-0.0020751953125,-0.01812744140625,0.97979736328125,1.54022216796875,-3.21502685546875,-0.186920166015625,1.0,1.0,1.0,4.0,1.0,85.0,event
11:38:48.746,0.640648,0.44596356,0.93043804,0.24697305,0.5812638,-0.04211812,0.45979702,0.20295168,0.60793394,0.08183881,0.41848785,0.37219048,0.8097623,0.3044513,-0.16463774,0.4763945,0.12093926,-0.16861604,-0.59538,0.042064637,721.2454,809.89014,619.707,811.50183,794.57874,-0.0020751953125,-0.01812744140625,0.97979736328125,1.54022216796875,-3.21502685546875,-0.186920166015625,1.0,1.0,1.0,4.0,1.0,85.0,event
11:38:48.746,0.640648,0.44596356,0.93043804,0.24697305,0.5812638,-0.04211812,0.45979702,0.20295168,0.60793394,0.08183881,0.41848785,0.37219048,0.8097623,0.3044513,-0.16463774,0.4763945,0.12093926,-0.16861604,-0.59538,0.042064637,857.4359,804.2491,117.65568,831.6484,1120.9524,-0.0020751953125,-0.01812744140625,0.97979736328125,1.54022216796875,-3.21502685546875,-0.186920166015625,1.0,1.0,1.0,4.0,1.0,85.0,event
11:38:48.747,0.640648,0.44596356,0.93043804,0.24697305,0.5812638,-0.04211812,0.45979702,0.20295168,0.60793394,0.08183881,0.41848785,0.37219048,0.8097623,0.3044513,-0.16463774,0.4763945,0.12093926,-0.16861604,-0.59538,0.042064637,692.23444,804.2491,603.5897,805.8608,838.9011,-0.0020751953125,-0.01812744140625,0.97979736328125,1.54022216796875,-3.21502685546875,-0.186920166015625,1.0,1.0,1.0,4.0,1.0,85.0,event
11:38:48.747,0.640648,0.44596356,0.93043804,0.24697305,0.5812638,-0.04211812,0.45979702,0.20295168,0.60793394,0.08183881,0.41848785,0.37219048,0.8097623,0.3044513,-0.16463774,0.4763945,0.12093926,-0.16861604,-0.59538,0.042064637,824.7985,819.5604,892.0879,811.9048,724.0659,-0.0020751953125,-0.01812744140625,0.97979736328125,1.54022216796875,-3.21502685546875,-0.186920166015625,1.0,1.0,1.0,4.0,1.0,85.0,event
11:38:48.747,0.640648,0.44596356,0.93043804,0.24697305,0.5812638,-0.04211812,0.45979702,0.20295168,0.60793394,0.08183881,0.41848785,0.37219048,0.8097623,0.3044513,-0.16463774,0.4763945,0.12093926,-0.16861604,-0.59538,0.042064637,931.5751,823.9927,511.3187,830.0366,984.35895,-0.0020751953125,-0.01812744140625,0.97979736328125,1.54022216796875,-3.21502685546875,-0.186920166015625,1.0,1.0,1.0,4.0,1.0,85.0,event
11:38:48.748,0.640648,0.44596356,0.93043804,0.24697305,0.5812638,-0.04211812,0.45979702,0.20295168,0.60793394,0.08183881,0.41848785,0.37219048,0.8097623,0.3044513,-0.16463774,0.4763945,0.12093926,-0.16861604,-0.59538,0.042064637,708.3516,813.1135,684.17584,811.50183,820.3663,-0.0020751953125,-0.01812744140625,0.97979736328125,1.54022216796875,-3.21502685546875,-0.186920166015625,1.0,1.0,1.0,4.0,1.0,85.0,event
11:38:48.748,0.640648,0.44596356,0.93043804,0.24697305,0.5812638,-0.04211812,0.45979702,0.20295168,0.60793394,0.08183881,0.41848785,0.37219048,0.8097623,0.3044513,-0.16463774,0.4763945,0.12093926,-0.16861604,-0.59538,0.042064637,848.1685,813.91943,1041.1721,821.1722,696.6667,-0.0020751953125,-0.01812744140625,0.97979736328125,1.54022216796875,-3.21502685546875,-0.186920166015625,1.0,1.0,1.0,4.0,1.0,85.0,event
11:38:48.807,0.640648,0.44596356,0.93043804,0.24697305,0.5812638,-0.04211812,0.45979702,0.20295168,0.60793394,0.08183881,0.41848785,0.37219048,0.8097623,0.3044513,-0.16463774,0.4763945,0.12093926,-0.16861604,-0.59538,0.042064637,939.2308,808.68134,1005.31134,830.0366,791.3553,-0.0035400390625,-0.02520751953125,0.989013671875,1.428070068359375,-3.701019287109375,0.0897216796875,1.0,1.0,1.0,4.0,1.0,85.0,event
11:38:48.808,0.640648,0.44596356,0.93043804,0.24697305,0.5812638,-0.04211812,0.45979702,0.20295168,0.60793394,0.08183881,0.41848785,0.37219048,0.8097623,0.3044513,-0.16463774,0.4763945,0.12093926,-0.16861604,-0.59538,0.042064637,838.9011,804.65204,703.1135,812.3077,839.707,-0.0035400390625,-0.02520751953125,0.989013671875,1.428070068359375,-3.701019287109375,0.0897216796875,1.0,1.0,1.0,4.0,1.0,85.0,event
11:38:48.808,0.640648,0.44596356,0.93043804,0.24697305,0.5812638,-0.04211812,0.45979702,0.20295168,0.60793394,0.08183881,0.41848785,0.37219048,0.8097623,0.3044513,-0.16463774,0.4763945,0.12093926,-0.16861604,-0.59538,0.042064637,704.3223,807.8755,716.0073,801.4286,704.7253,-0.0035400390625,-0.02520751953125,0.989013671875,1.428070068359375,-3.701019287109375,0.0897216796875,1.0,1.0,1.0,4.0,1.0,85.0,event
11:38:48.809,0.640648,0.44596356,0.93043804,0.24697305,0.5812638,-0.04211812,0.45979702,0.20295168,0.60793394,0.08183881,0.41848785,0.37219048,0.8097623,0.3044513,-0.16463774,0.4763945,0.12093926,-0.16861604,-0.59538,0.042064637,713.1868,817.1429,950.5128,815.12823,692.6374,-0.0035400390625,-0.02520751953125,0.989013671875,1.428070068359375,-3.701019287109375,0.0897216796875,1.0,1.0,1.0,4.0,1.0,85.0,event
11:38:48.810,0.640648,0.44596356,0.93043804,0.24697305,0.5812638,-0.04211812,0.45979702,0.20295168,0.60793394,0.08183881,0.41848785,0.37219048,0.8097623,0.3044513,-0.16463774,0.4763945,0.12093926,-0.16861604,-0.59538,0.042064637,839.707,809.89014,966.2271,826.0073,781.685,-0.0035400390625,-0.02520751953125,0.989013671875,1.428070068359375,-3.701019287109375,0.0897216796875,1.0,1.0,1.0,4.0,1.0,85.0,event
11:38:48.811,0.640648,0.44596356,0.93043804,0.24697305,0.5812638,-0.04211812,0.45979702,0.20295168,0.60793394,0.08183881,0.41848785,0.37219048,0.8097623,0.3044513,-0.16463774,0.4763945,0.12093926,-0.16861604,-0.59538,0.042064637,940.84247,806.26373,657.5824,828.8278,902.96704,-0.0035400390625,-0.02520751953125,0.989013671875,1.428070068359375,-3.701019287109375,0.0897216796875,1.0,1.0,1.0,4.0,1.0,85.0,event
11:38:48.812,0.640648,0.44596356,0.93043804,0.24697305,0.5812638,-0.04211812,0.45979702,0.20295168,0.60793394,0.08183881,0.41848785,0.37219048,0.8097623,0.3044513,-0.16463774,0.4763945,0.12093926,-0.16861604,-0.59538,0.042064637,863.0769,815.5311,498.82785,811.0989,859.0476,-0.0035400390625,-0.02520751953125,0.989013671875,1.428070068359375,-3.701019287109375,0.0897216796875,1.0,1.0,1.0,4.0,1.0,85.0,event
11:38:48.813,0.640648,0.44596356,0.93043804,0.24697305,0.5812638,-0.04211812,0.45979702,0.20295168,0.60793394,0.08183881,0.41848785,0.37219048,0.8097623,0.3044513,-0.16463774,0.4763945,0.12093926,-0.16861604,-0.59538,0.042064637,691.4286,812.71063,694.2491,803.8461,755.4945,-0.0035400390625,-0.02520751953125,0.989013671875,1.428070068359375,-3.701019287109375,0.0897216796875,1.0,1.0,1.0,4.0,1.0,85.0,event
11:38:48.813,0.640648,0.44596356,0.93043804,0.24697305,0.5812638,-0.04211812,0.45979702,0.20295168,0.60793394,0.08183881,0.41848785,0.37219048,0.8097623,0.3044513,-0.16463774,0.4763945,0.12093926,-0.16861604,-0.59538,0.042064637,710.3663,815.12823,584.2491,794.57874,782.49084,-0.0035400390625,-0.02520751953125,0.989013671875,1.428070068359375,-3.701019287109375,0.0897216796875,1.0,1.0,1.0,4.0,1.0,85.0,event
11:38:48.814,0.640648,0.44596356,0.93043804,0.24697305,0.5812638,-0.04211812,0.45979702,0.20295168,0.60793394,0.08183881,0.41848785,0.37219048,0.8097623,0.3044513,-0.16463774,0.4763945,0.12093926,-0.16861604,-0.59538,0.042064637,799.41394,802.23444,276.8132,818.7546,954.94507,-0.0035400390625,-0.02520751953125,0.989013671875,1.428070068359375,-3.701019287109375,0.0897216796875,1.0,1.0,1.0,4.0,1.0,85.0,event
11:38:48.815,0.640648,0.44596356,0.93043804,0.24697305,0.5812638,-0.04211812,0.45979702,0.20295168,0.60793394,0.08183881,0.41848785,0.37219048,0.8097623,0.3044513,-0.16463774,0.4763945,0.12093926,-0.16861604,-0.59538,0.042064637,917.0696,815.9341,407.76556,824.7985,943.663,-0.0035400390625,-0.02520751953125,0.989013671875,1.428070068359375,-3.701019287109375,0.0897216796875,1.0,1.0,1.0,4.0,1.0,85.0,event
11:38:48.815,0.640648,0.44596356,0.93043804,0.24697305,0.5812638,-0.04211812,0.45979702,0.20295168,0.60793394,0.08183881,0.41848785,0.37219048,0.8097623,0.3044513,-0.16463774,0.4763945,0.12093926,-0.16861604,-0.59538,0.042064637,874.7619,826.0073,896.9231,813.91943,711.5751,-0.0035400390625,-0.02520751953125,0.989013671875,1.428070068359375,-3.701019287109375,0.0897216796875,1.0,1.0,1.0,4.0,1.0,85.0,event
11:38:48.853,0.640648,0.44596356,0.93043804,0.24697305,0.5812638,-0.04211812,0.45979702,0.20295168,0.60793394,0.08183881,0.41848785,0.37219048,0.8097623,0.3044513,-0.16463774,0.4763945,0.12093926,-0.16861604,-0.59538,0.042064637,724.0659,815.9341,763.95605,799.011,718.8278,0.0018310546875,-0.0294189453125,0.9871826171875,2.743988037109375,-3.626251220703125,0.605621337890625,1.0,1.0,1.0,4.0,1.0,85.0,event
11:38:48.855,0.640648,0.44596356,0.93043804,0.24697305,0.5812638,-0.04211812,0.45979702,0.20295168,0.60793394,0.08183881,0.41848785,0.37219048,0.8097623,0.3044513,-0.16463774,0.4763945,0.12093926,-0.16861604,-0.59538,0.042064637,677.72894,815.9341,760.7326,799.011,774.43225,0.0018310546875,-0.0294189453125,0.9871826171875,2.743988037109375,-3.626251220703125,0.605621337890625,1.0,1.0,1.0,4.0,1.0,85.0,event
11:38:48.859,0.640648,0.44596356,0.93043804,0.24697305,0.5812638,-0.04211812,0.45979702,0.20295168,0.60793394,0.08183881,0.41848785,0.37219048,0.8097623,0.3044513,-0.16463774,0.4763945,0.12093926,-0.16861604,-0.59538,0.042064637,792.5641,815.5311,985.56775,813.5165,724.4689,0.0018310546875,-0.0294189453125,0.9871826171875,2.743988037109375,-3.626251220703125,0.605621337890625,1.0,1.0,1.0,4.0,1.0,85.0,event
11:38:48.860,0.640648,0.44596356,0.93043804,0.24697305,0.5812638,-0.04211812,0.45979702,0.20295168,0.60793394,0.08183881,0.41848785,0.37219048,0.8097623,0.3044513,-0.16463774,0.4763945,0.12093926,-0.16861604,-0.59538,0.042064637,927.9487,817.5458,1056.8865,823.9927,749.85345,0.0018310546875,-0.0294189453125,0.9871826171875,2.743988037109375,-3.626251220703125,0.605621337890625,1.0,1.0,1.0,4.0,1.0,85.0,event
11:38:48.860,0.640648,0.44596356,0.93043804,0.24697305,0.5812638,-0.04211812,0.45979702,0.20295168,0.60793394,0.08183881,0.41848785,0.37219048,0.8097623,0.3044513,-0.16463774,0.4763945,0.12093926,-0.16861604,-0.59538,0.042064637,884.43225,812.71063,776.8498,812.71063,814.3223,0.0018310546875,-0.0294189453125,0.9871826171875,2.743988037109375,-3.626251220703125,0.605621337890625,1.0,1.0,1.0,4.0,1.0,85.0,event
11:38:48.861,0.640648,0.44596356,0.93043804,0.24697305,0.5812638,-0.04211812,0.45979702,0.20295168,0.60793394,0.08183881,0.41848785,0.37219048,0.8097623,0.3044513,-0.16463774,0.4763945,0.12093926,-0.16861604,-0.59538,0.042064637,739.3773,807.0696,494.3956,794.17584,817.1429,0.0018310546875,-0.0294189453125,0.9871826171875,2.743988037109375,-3.626251220703125,0.605621337890625,1.0,1.0,1.0,4.0,1.0,85.0,event
11:38:48.862,0.640648,0.44596356,0.93043804,0.24697305,0.5812638,-0.04211812,0.45979702,0.20295168,0.60793394,0.08183881,0.41848785,0.37219048,0.8097623,0.3044513,-0.16463774,0.4763945,0.12093926,-0.16861604,-0.59538,0.042064637,684.57874,814.7253,544.7619,792.1612,820.7692,0.0018310546875,-0.0294189453125,0.9871826171875,2.743988037109375,-3.626251220703125,0.605621337890625,1.0,1.0,1.0,4.0,1.0,85.0,event
11:38:48.863,0.640648,0.44596356,0.93043804,0.24697305,0.5812638,-0.04211812,0.45979702,0.20295168,0.60793394,0.08183881,0.41848785,0.37219048,0.8097623,0.3044513,-0.16463774,0.4763945,0.12093926,-0.16861604,-0.59538,0.042064637,784.90845,819.9634,836.8865,807.0696,698.68134,0.0018310546875,-0.0294189453125,0.9871826171875,2.743988037109375,-3.626251220703125,0.605621337890625,1.0,1.0,1.0,4.0,1.0,85.0,event
11:38:48.864,0.640648,0.44596356,0.93043804,0.24697305,0.5812638,-0.04211812,0.45979702,0.20295168,0.60793394,0.08183881,0.41848785,0.37219048,0.8097623,0.3044513,-0.16463774,0.4763945,0.12093926,-0.16861604,-0.59538,0.042064637,919.89014,805.05493,707.1429,825.2015,864.68866,0.0018310546875,-0.0294189453125,0.9871826171875,2.743988037109375,-3.626251220703125,0.605621337890625,1.0,1.0,1.0,4.0,1.0,85.0,event
11:38:48.865,0.640648,0.44596356,0.93043804,0.24697305,0.5812638,-0.04211812,0.45979702,0.20295168,0.60793394,0.08183881,0.41848785,0.37219048,0.8097623,0.3044513,-0.16463774,0.4763945,0.12093926,-0.16861604,-0.59538,0.042064637,898.5348,804.65204,271.17215,817.5458,1132.6373,0.0018310546875,-0.0294189453125,0.9871826171875,2.743988037109375,-3.626251220703125,0.605621337890625,1.0,1.0,1.0,4.0,1.0,85.0,event
11:38:48.865,0.640648,0.44596356,0.93043804,0.24697305,0.5812638,-0.04211812,0.45979702,0.20295168,0.60793394,0.08183881,0.41848785,0.37219048,0.8097623,0.3044513,-0.16463774,0.4763945,0.12093926,-0.16861604,-0.59538,0.042064637,760.7326,823.9927,665.2381,793.36993,867.50916,0.0018310546875,-0.0294189453125,0.9871826171875,2.743988037109375,-3.626251220703125,0.605621337890625,1.0,1.0,1.0,4.0,1.0,85.0,event
11:38:48.866,0.640648,0.44596356,0.93043804,0.24697305,0.5812638,-0.04211812,0.45979702,0.20295168,0.60793394,0.08183881,0.41848785,0.37219048,0.8097623,0.3044513,-0.16463774,0.4763945,0.12093926,-0.16861604,-0.59538,0.042064637,683.36993,819.15753,957.76556,790.14655,716.0073,0.0018310546875,-0.0294189453125,0.9871826171875,2.743988037109375,-3.626251220703125,0.605621337890625,1.0,1.0,1.0,4.0,1.0,85.0,event
11:38:48.888,0.640648,0.44596356,0.93043804,0.24697305,0.5812638,-0.04211812,0.45979702,0.20295168,0.60793394,0.08183881,0.41848785,0.37219048,0.8097623,0.3044513,-0.16463774,0.4763945,0.12093926,-0.16861604,-0.59538,0.042064637,768.3883,811.0989,649.5238,814.7253,848.1685,0.00244140625,-0.0203857421875,0.9873046875,2.28790283203125,-3.581390380859375,1.158905029296875,1.0,1.0,1.0,4.0,1.0,85.0,event
11:38:48.890,0.640648,0.44596356,0.93043804,0.24697305,0.5812638,-0.04211812,0.45979702,0.20295168,0.60793394,0.08183881,0.41848785,0.37219048,0.8097623,0.3044513,-0.16463774,0.4763945,0.12093926,-0.16861604,-0.59538,0.042064637,921.9048,822.381,779.67035,831.6484,786.9231,0.00244140625,-0.0203857421875,0.9873046875,2.28790283203125,-3.581390380859375,1.158905029296875,1.0,1.0,1.0,4.0,1.0,85.0,event
11:38:48.891,0.640648,0.44596356,0.93043804,0.24697305,0.5812638,-0.04211812,0.45979702,0.20295168,0.60793394,0.08183881,0.41848785,0.37219048,0.8097623,0.3044513,-0.16463774,0.4763945,0.12093926,-0.16861604,-0.59538,0.042064637,934.3956,826.0073,1029.0842,817.9487,713.5897,0.00244140625,-0.0203857421875,0.9873046875,2.28790283203125,-3.581390380859375,1.158905029296875,1.0,1.0,1.0,4.0,1.0,85.0,event
11:38:48.891,0.640648,0.44596356,0.93043804,0.24697305,0.5812638,-0.04211812,0.45979702,0.20295168,0.60793394,0.08183881,0.41848785,0.37219048,0.8097623,0.3044513,-0.16463774,0.4763945,0.12093926,-0.16861604,-0.59538,0.042064637,794.17584,817.9487,858.24176,805.05493,716.4103,0.00244140625,-0.0203857421875,0.9873046875,2.28790283203125,-3.581390380859375,1.158905029296875,1.0,1.0,1.0,4.0,1.0,85.0,event
11:38:48.892,0.640648,0.44596356,0.93043804,0.24697305,0.5812638,-0.04211812,0.45979702,0.20295168,0.60793394,0.08183881,0.41848785,0.37219048,0.8097623,0.3044513,-0.16463774,0.4763945,0.12093926,-0.16861604,-0.59538,0.042064637,687.8022,816.337,680.9524,800.6227,743.8095,0.00244140625,-0.0203857421875,0.9873046875,2.28790283203125,-3.581390380859375,1.158905029296875,1.0,1.0,1.0,4.0,1.0,85.0,event
11:38:48.893,0.640648,0.44596356,0.93043804,0.24697305,0.5812638,-0.04211812,0.45979702,0.20295168,0.60793394,0.08183881,0.41848785,0.37219048,0.8097623,0.3044513,-0.16463774,0.4763945,0.12093926,-0.16861604,-0.59538,0.042064637,745.0183,816.7399,661.6117,811.9048,825.6044,0.00244140625,-0.0203857421875,0.9873046875,2.28790283203125,-3.581390380859375,1.158905029296875,1.0,1.0,1.0,4.0,1.0,85.0,event
11:38:48.893,0.640648,0.44596356,0.93043804,0.24697305,0.5812638,-0.04211812,0.45979702,0.20295168,0.60793394,0.08183881,0.41848785,0.37219048,0.8097623,0.3044513,-0.16463774,0.4763945,0.12093926,-0.16861604,-0.59538,0.042064637,896.1172,818.7546,726.08057,833.663,827.619,0.00244140625,-0.0203857421875,0.9873046875,2.28790283203125,-3.581390380859375,1.158905029296875,1.0,1.0,1.0,4.0,1.0,85.0,event
11:38:48.894,0.640648,0.44596356,0.93043804,0.24697305,0.5812638,-0.04211812,0.45979702,0.20295168,0.60793394,0.08183881,0.41848785,0.37219048,0.8097623,0.3044513,-0.16463774,0.4763945,0.12093926,-0.16861604,-0.59538,0.042064637,927.1429,817.5458,776.8498,828.4249,774.0293,0.00244140625,-0.0203857421875,0.9873046875,2.28790283203125,-3.581390380859375,1.158905029296875,1.0,1.0,1.0,4.0,1.0,85.0,event
11:38:48.895,0.640648,0.44596356,0.93043804,0.24697305,0.5812638,-0.04211812,0.45979702,0.20295168,0.60793394,0.08183881,0.41848785,0.37219048,0.8097623,0.3044513,-0.16463774,0.4763945,0.12093926,-0.16861604,-0.59538,0.042064637,784.10254,806.6667,279.6337,812.71063,927.9487,0.00244140625,-0.0203857421875,0.9873046875,2.28790283203125,-3.581390380859375,1.158905029296875,1.0,1.0,1.0,4.0,1.0,85.0,event
11:38:48.896,0.640648,0.44596356,0.93043804,0.24697305,0.5812638,-0.04211812,0.45979702,0.20295168,0.60793394,0.08183881,0.41848785,0.37219048,0.8097623,0.3044513,-0.16463774,0.4763945,0.12093926,-0.16861604,-0.59538,0.042064637,680.9524,822.381,462.16116,802.6374,873.5531,0.00244140625,-0.0203857421875,0.9873046875,2.28790283203125,-3.581390380859375,1.158905029296875,1.0,1.0,1.0,4.0,1.0,85.0,event
11:38:48.896,0.640648,0.44596356,0.93043804,0.24697305,0.5812638,-0.04211812,0.45979702,0.20295168,0.60793394,0.08183881,0.41848785,0.37219048,0.8097623,0.3044513,-0.16463774,0.4763945,0.12093926,-0.16861604,-0.59538,0.042064637,737.76556,820.3663,1013.7729,804.65204,721.2454,0.00244140625,-0.0203857421875,0.9873046875,2.28790283203125,-3.581390380859375,1.158905029296875,1.0,1.0,1.0,4.0,1.0,85.0,event
11:38:48.897,0.640648,0.44596356,0.93043804,0.24697305,0.5812638,-0.04211812,0.45979702,0.20295168,0.60793394,0.08183881,0.41848785,0.37219048,0.8097623,0.3044513,-0.16463774,0.4763945,0.12093926,-0.16861604,-0.59538,0.042064637,878.3883,803.8461,993.22345,817.9487,783.2967,0.00244140625,-0.0203857421875,0.9873046875,2.28790283203125,-3.581390380859375,1.158905029296875,1.0,1.0,1.0,4.0,1.0,85.0,event
11:38:48.920,0.640648,0.44596356,0.93043804,0.24697305,0.5812638,-0.04211812,0.45979702,0.20295168,0.60793394,0.08183881,0.41848785,0.37219048,0.8097623,0.3044513,-0.16463774,0.4763945,0.12093926,-0.16861604,-0.59538,0.042064637,930.7692,799.81683,781.685,818.3516,823.9927,-0.00048828125,-0.0233154296875,0.9918212890625,1.966400146484375,-2.73651123046875,0.889739990234375,1.0,1.0,1.0,4.0,1.0,85.0,event
11:38:48.921,0.640648,0.44596356,0.93043804,0.24697305,0.5812638,-0.04211812,0.45979702,0.20295168,0.60793394,0.08183881,0.41848785,0.37219048,0.8097623,0.3044513,-0.16463774,0.4763945,0.12093926,-0.16861604,-0.59538,0.042064637,811.50183,804.65204,694.65204,800.2198,757.1062,-0.00048828125,-0.0233154296875,0.9918212890625,1.966400146484375,-2.73651123046875,0.889739990234375,1.0,1.0,1.0,4.0,1.0,85.0,event
11:38:48.922,0.640648,0.44596356,0.93043804,0.24697305,0.5812638,-0.04211812,0.45979702,0.20295168,0.60793394,0.08183881,0.41848785,0.37219048,0.8097623,0.3044513,-0.16463774,0.4763945,0.12093926,-0.16861604,-0.59538,0.042064637,690.2198,812.71063,863.47986,792.5641,654.7619,-0.00048828125,-0.0233154296875,0.9918212890625,1.966400146484375,-2.73651123046875,0.889739990234375,1.0,1.0,1.0,4.0,1.0,85.0,event
11:38:48.923,0.640648,0.44596356,0.93043804,0.24697305,0.5812638,-0.04211812,0.45979702,0.20295168,0.60793394,0.08183881,0.41848785,0.37219048,0.8097623,0.3044513,-0.16463774,0.4763945,0.12093926,-0.16861604,-0.59538,0.042064637,711.1722,807.0696,769.59705,805.4579,699.4872,-0.00048828125,-0.0233154296875,0.9918212890625,1.966400146484375,-2.73651123046875,0.889739990234375,1.0,1.0,1.0,4.0,1.0,85.0,event
11:38:48.928,0.640648,0.44596356,0.93043804,0.24697305,0.5812638,-0.04211812,0.45979702,0.20295168,0.60793394,0.08183881,0.41848785,0.37219048,0.8097623,0.3044513,-0.16463774,0.4763945,0.12093926,-0.16861604,-0.59538,0.042064637,854.61536,807.8755,691.02563,824.3956,785.31134,-0.00048828125,-0.0233154296875,0.9918212890625,1.966400146484375,-2.73651123046875,0.889739990234375,1.0,1.0,1.0,4.0,1.0,85.0,event
11:38:48.929,0.640648,0.44596356,0.93043804,0.24697305,0.5812638,-0.04211812,0.45979702,0.20295168,0.60793394,0.08183881,0.41848785,0.37219048,0.8097623,0.3044513,-0.16463774,0.4763945,0.12093926,-0.16861604,-0.59538,0.042064637,936.8132,807.47253,778.0586,823.5897,817.1429,-0.00048828125,-0.0233154296875,0.9918212890625,1.966400146484375,-2.73651123046875,0.889739990234375,1.0,1.0,1.0,4.0,1.0,85.0,event
11:38:48.931,0.640648,0.44596356,0.93043804,0.24697305,0.5812638,-0.04211812,0.45979702,0.20295168,0.60793394,0.08183881,0.41848785,0.37219048,0.8097623,0.3044513,-0.16463774,0.4763945,0.12093926,-0.16861604,-0.59538,0.042064637,830.4396,808.2784,702.3077,801.8315,819.9634,-0.00048828125,-0.0233154296875,0.9918212890625,1.966400146484375,-2.73651123046875,0.889739990234375,1.0,1.0,1.0,4.0,1.0,85.0,event
11:38:48.932,0.640648,0.44596356,0.93043804,0.24697305,0.5812638,-0.04211812,0.45979702,0.20295168,0.60793394,0.08183881,0.41848785,0.37219048,0.8097623,0.3044513,-0.16463774,0.4763945,0.12093926,-0.16861604,-0.59538,0.042064637,691.8315,804.65204,462.56412,791.3553,941.6484,-0.00048828125,-0.0233154296875,0.9918212890625,1.966400146484375,-2.73651123046875,0.889739990234375,1.0,1.0,1.0,4.0,1.0,85.0,event
11:38:48.933,0.640648,0.44596356,0.93043804,0.24697305,0.5812638,-0.04211812,0.45979702,0.20295168,0.60793394,0.08183881,0.41848785,0.37219048,0.8097623,0.3044513,-0.16463774,0.4763945,0.12093926,-0.16861604,-0.59538,0.042064637,694.2491,805.8608,291.3187,805.8608,1025.4579,-0.00048828125,-0.0233154296875,0.9918212890625,1.966400146484375,-2.73651123046875,0.889739990234375,1.0,1.0,1.0,4.0,1.0,85.0,event
11:38:48.934,0.640648,0.44596356,0.93043804,0.24697305,0.5812638,-0.04211812,0.45979702,0.20295168,0.60793394,0.08183881,0.41848785,0.37219048,0.8097623,0.3044513,-0.16463774,0.4763945,0.12093926,-0.16861604,-0.59538,0.042064637,832.0513,819.5604,884.0293,813.1135,801.02563,-0.00048828125,-0.0233154296875,0.9918212890625,1.966400146484375,-2.73651123046875,0.889739990234375,1.0,1.0,1.0,4.0,1.0,85.0,event
11:38:48.936,0.640648,0.44596356,0.93043804,0.24697305,0.5812638,-0.04211812,0.45979702,0.20295168,0.60793394,0.08183881,0.41848785,0.37219048,0.8097623,0.3044513,-0.16463774,0.4763945,0.12093926,-0.16861604,-0.59538,0.042064637,936.4103,814.3223,1053.663,816.7399,742.1978,-0.00048828125,-0.0233154296875,0.9918212890625,1.966400146484375,-2.73651123046875,0.889739990234375,1.0,1.0,1.0,4.0,1.0,85.0,event
11:38:48.937,0.640648,0.44596356,0.93043804,0.24697305,0.5812638,-0.04211812,0.45979702,0.20295168,0.60793394,0.08183881,0.41848785,0.37219048,0.8097623,0.3044513,-0.16463774,0.4763945,0.12093926,-0.16861604,-0.59538,0.042064637,849.3773,809.89014,633.00366,809.0842,844.94507,-0.00048828125,-0.0233154296875,0.9918212890625,1.966400146484375,-2.73651123046875,0.889739990234375,1.0,1.0,1.0,4.0,1.0,85.0,event
11:38:48.960,0.640648,0.44596356,0.93043804,0.24697305,0.5812638,-0.04211812,0.45979702,0.20295168,0.60793394,0.08183881,0.41848785,0.37219048,0.8097623,0.3044513,-0.16463774,0.4763945,0.12093926,-0.16861604,-0.59538,0.042064637,707.1429,821.5751,698.68134,794.17584,728.0952,-0.00048828125,-0.0233154296875,0.9918212890625,1.966400146484375,-2.73651123046875,0.889739990234375,1.0,1.0,1.0,4.0,1.0,85.0,event
11:38:48.961,0.640648,0.44596356,0.93043804,0.24697305,0.5812638,-0.04211812,0.45979702,0.20295168,0.60793394,0.08183881,0.41848785,0.37219048,0.8097623,0.3044513,-0.16463774,0.4763945,0.12093926,-0.16861604,-0.59538,0.042064637,700.696,827.2161,949.707,799.81683,640.2564,-0.00048828125,-0.0233154296875,0.9918212890625,1.966400146484375,-2.73651123046875,0.889739990234375,1.0,1.0,1.0,4.0,1.0,85.0,event
11:38:48.962,0.640648,0.44596356,0.93043804,0.24697305,0.5812638,-0.04211812,0.45979702,0.20295168,0.60793394,0.08183881,0.41848785,0.37219048,0.8097623,0.3044513,-0.16463774,0.4763945,0.12093926,-0.16861604,-0.59538,0.042064637,816.7399,817.1429,957.3626,815.5311,704.3223,-0.00048828125,-0.0233154296875,0.9918212890625,1.966400146484375,-2.73651123046875,0.889739990234375,1.0,1.0,1.0,4.0,1.0,85.0,event
11:38:48.963,0.640648,0.44596356,0.93043804,0.24697305,0.5812638,-0.04211812,0.45979702,0.20295168,0.60793394,0.08183881,0.41848785,0.37219048,0.8097623,0.3044513,-0.16463774,0.4763945,0.12093926,-0.16861604,-0.59538,0.042064637,925.5311,805.4579,715.6044,820.7692,786.52014,-0.00048828125,-0.0233154296875,0.9918212890625,1.966400146484375,-2.73651123046875,0.889739990234375,1.0,1.0,1.0,4.0,1.0,85.0,event
11:38:48.963,0.640648,0.44596356,0.93043804,0.24697305,0.5812638,-0.04211812,0.45979702,0.20295168,0.60793394,0.08183881,0.41848785,0.37219048,0.8097623,0.3044513,-0.16463774,0.4763945,0.12093926,-0.16861604,-0.59538,0.042064637,865.09155,811.50183,645.4945,805.4579,792.5641,-0.00048828125,-0.0233154296875,0.9918212890625,1.966400146484375,-2.73651123046875,0.889739990234375,1.0,1.0,1.0,4.0,1.0,85.0,event
11:38:48.964,0.640648,0.44596356,0.93043804,0.24697305,0.5812638,-0.04211812,0.45979702,0.20295168,0.60793394,0.08183881,0.41848785,0.37219048,0.8097623,0.3044513,-0.16463774,0.4763945,0.12093926,-0.16861604,-0.59538,0.042064637,723.663,817.9487,665.2381,792.5641,823.9927,-0.00048828125,-0.0233154296875,0.9918212890625,1.966400146484375,-2.73651123046875,0.889739990234375,1.0,1.0,1.0,4.0,1.0,85.0,event
11:38:48.965,0.640648,0.44596356,0.93043804,0.24697305,0.5812638,-0.04211812,0.45979702,0.20295168,0.60793394,0.08183881,0.41848785,0.37219048,0.8097623,0.3044513,-0.16463774,0.4763945,0.12093926,-0.16861604,-0.59538,0.042064637,699.89014,813.5165,616.4835,798.20514,840.9158,-0.00048828125,-0.0233154296875,0.9918212890625,1.966400146484375,-2.73651123046875,0.889739990234375,1.0,1.0,1.0,4.0,1.0,85.0,event
11:38:48.965,0.640648,0.44596356,0.93043804,0.24697305,0.5812638,-0.04211812,0.45979702,0.20295168,0.60793394,0.08183881,0.41848785,0.37219048,0.8097623,0.3044513,-0.16463774,0.4763945,0.12093926,-0.16861604,-0.59538,0.042064637,804.2491,801.8315,284.8718,820.3663,1028.6813,-0.00048828125,-0.0233154296875,0.9918212890625,1.966400146484375,-2.73651123046875,0.889739990234375,1.0,1.0,1.0,4.0,1.0,85.0,event
11:38:48.966,0.640648,0.44596356,0.93043804,0.24697305,0.5812638,-0.04211812,0.45979702,0.20295168,0.60793394,0.08183881,0.41848785,0.37219048,0.8097623,0.3044513,-0.16463774,0.4763945,0.12093926,-0.16861604,-0.59538,0.042064637,937.2161,824.3956,328.38828,830.84247,1049.2307,-0.00048828125,-0.0233154296875,0.9918212890625,1.966400146484375,-2.73651123046875,0.889739990234375,1.0,1.0,1.0,4.0,1.0,85.0,event
11:38:48.967,0.640648,0.44596356,0.93043804,0.24697305,0.5812638,-0.04211812,0.45979702,0.20295168,0.60793394,0.08183881,0.41848785,0.37219048,0.8097623,0.3044513,-0.16463774,0.4763945,0.12093926,-0.16861604,-0.59538,0.042064637,913.8461,837.28937,916.26373,814.3223,770.0,-0.00048828125,-0.0233154296875,0.9918212890625,1.966400146484375,-2.73651123046875,0.889739990234375,1.0,1.0,1.0,4.0,1.0,85.0,event
11:38:48.968,0.640648,0.44596356,0.93043804,0.24697305,0.5812638,-0.04211812,0.45979702,0.20295168,0.60793394,0.08183881,0.41848785,0.37219048,0.8097623,0.3044513,-0.16463774,0.4763945,0.12093926,-0.16861604,-0.59538,0.042064637,761.53845,823.5897,864.2857,805.4579,711.978,-0.00048828125,-0.0233154296875,0.9918212890625,1.966400146484375,-2.73651123046875,0.889739990234375,1.0,1.0,1.0,4.0,1.0,85.0,event
11:38:48.968,0.640648,0.44596356,0.93043804,0.24697305,0.5812638,-0.04211812,0.45979702,0.20295168,0.60793394,0.08183881,0.41848785,0.37219048,0.8097623,0.3044513,-0.16463774,0.4763945,0.12093926,-0.16861604,-0.59538,0.042064637,699.0842,822.7839,757.9121,803.8461,723.2601,-0.00048828125,-0.0233154296875,0.9918212890625,1.966400146484375,-2.73651123046875,0.889739990234375,1.0,1.0,1.0,4.0,1.0,85.0,event
11:38:49.057,0.640648,0.44596356,0.93043804,0.24697305,0.5812638,-0.04211812,0.45979702,0.20295168,0.60793394,0.08183881,0.41848785,0.37219048,0.8097623,0.3044513,-0.16463774,0.4763945,0.12093926,-0.16861604,-0.59538,0.042064637,795.78754,825.2015,987.98535,813.1135,722.0513,-0.0126953125,-0.0198974609375,0.9910888671875,2.01873779296875,-2.370147705078125,0.4486083984375,1.0,1.0,1.0,4.0,1.0,85.0,event
11:38:49.059,0.640648,0.44596356,0.93043804,0.24697305,0.5812638,-0.04211812,0.45979702,0.20295168,0.60793394,0.08183881,0.41848785,0.37219048,0.8097623,0.3044513,-0.16463774,0.4763945,0.12093926,-0.16861604,-0.59538,0.042064637,936.8132,821.978,1016.1905,834.0659,696.6667,-0.0126953125,-0.0198974609375,0.9910888671875,2.01873779296875,-2.370147705078125,0.4486083984375,1.0,1.0,1.0,4.0,1.0,85.0,event
11:38:49.060,0.640648,0.44596356,0.93043804,0.24697305,0.5812638,-0.04211812,0.45979702,0.20295168,0.60793394,0.08183881,0.41848785,0.37219048,0.8097623,0.3044513,-0.16463774,0.4763945,0.12093926,-0.16861604,-0.59538,0.042064637,913.8461,816.337,814.3223,828.4249,726.4835,-0.0126953125,-0.0198974609375,0.9910888671875,2.01873779296875,-2.370147705078125,0.4486083984375,1.0,1.0,1.0,4.0,1.0,85.0,event
11:38:49.061,0.640648,0.44596356,0.93043804,0.24697305,0.5812638,-0.04211812,0.45979702,0.20295168,0.60793394,0.08183881,0.41848785,0.37219048,0.8097623,0.3044513,-0.16463774,0.4763945,0.12093926,-0.16861604,-0.59538,0.042064637,758.71796,819.15753,731.31866,804.65204,713.5897,-0.0126953125,-0.0198974609375,0.9910888671875,2.01873779296875,-2.370147705078125,0.4486083984375,1.0,1.0,1.0,4.0,1.0,85.0,event
11:38:49.063,0.640648,0.44596356,0.93043804,0.24697305,0.5812638,-0.04211812,0.45979702,0.20295168,0.60793394,0.08183881,0.41848785,0.37219048,0.8097623,0.3044513,-0.16463774,0.4763945,0.12093926,-0.16861604,-0.59538,0.042064637,687.3993,821.1722,826.8132,802.23444,685.78754,-0.0126953125,-0.0198974609375,0.9910888671875,2.01873779296875,-2.370147705078125,0.4486083984375,1.0,1.0,1.0,4.0,1.0,85.0,event
11:38:49.064,0.6829208,0.4673036,0.93043804,0.32029226,1.0389125,0.21436137,0.45979702,0.052950982,0.5288691,0.31985673,0.41848785,0.15888189,0.44305176,0.28460374,-0.16463774,0.26844448,0.0568329,-0.37165645,-0.59538,-0.39497036,768.7912,817.9487,786.1172,815.12823,770.80585,-0.0126953125,-0.0198974609375,0.9910888671875,2.01873779296875,-2.370147705078125,0.4486083984375,1.0,1.0,1.0,4.0,1.0,85.0,event
11:38:49.069,0.6829208,0.4673036,0.93043804,0.32029226,1.0389125,0.21436137,0.45979702,0.052950982,0.5288691,0.31985673,0.41848785,0.15888189,0.44305176,0.28460374,-0.16463774,0.26844448,0.0568329,-0.37165645,-0.59538,-0.39497036,899.34064,805.8608,500.43958,827.619,917.8755,-0.0126953125,-0.0198974609375,0.9910888671875,2.01873779296875,-2.370147705078125,0.4486083984375,1.0,1.0,1.0,4.0,1.0,85.0,event
11:38:49.070,0.6829208,0.4673036,0.93043804,0.32029226,1.0389125,0.21436137,0.45979702,0.052950982,0.5288691,0.31985673,0.41848785,0.15888189,0.44305176,0.28460374,-0.16463774,0.26844448,0.0568329,-0.37165645,-0.59538,-0.39497036,897.326,802.23444,113.22344,827.2161,1116.5201,-0.0126953125,-0.0198974609375,0.9910888671875,2.01873779296875,-2.370147705078125,0.4486083984375,1.0,1.0,1.0,4.0,1.0,85.0,event
11:38:49.071,0.6829208,0.4673036,0.93043804,0.32029226,1.0389125,0.21436137,0.45979702,0.052950982,0.5288691,0.31985673,0.41848785,0.15888189,0.44305176,0.28460374,-0.16463774,0.26844448,0.0568329,-0.37165645,-0.59538,-0.39497036,688.60803,824.3956,960.18317,803.0403,689.81683,-0.0126953125,-0.0198974609375,0.9910888671875,2.01873779296875,-2.370147705078125,0.4486083984375,1.0,1.0,1.0,4.0,1.0,85.0,event
11:38:49.071,0.6829208,0.4673036,0.93043804,0.32029226,1.0389125,0.21436137,0.45979702,0.052950982,0.5288691,0.31985673,0.41848785,0.15888189,0.44305176,0.28460374,-0.16463774,0.26844448,0.0568329,-0.37165645,-0.59538,-0.39497036,770.80585,836.08057,596.7399,805.05493,882.01465,-0.0126953125,-0.0198974609375,0.9910888671875,2.01873779296875,-2.370147705078125,0.4486083984375,1.0,1.0,1.0,4.0,1.0,85.0,event
11:38:49.072,0.6829208,0.4673036,0.93043804,0.32029226,1.0389125,0.21436137,0.45979702,0.052950982,0.5288691,0.31985673,0.41848785,0.15888189,0.44305176,0.28460374,-0.16463774,0.26844448,0.0568329,-0.37165645,-0.59538,-0.39497036,751.4652,799.81683,673.69965,813.5165,745.82416,-0.0126953125,-0.0198974609375,0.9910888671875,2.01873779296875,-2.370147705078125,0.4486083984375,1.0,1.0,1.0,4.0,1.0,85.0,event
11:38:49.073,0.6829208,0.4673036,0.93043804,0.32029226,1.0389125,0.21436137,0.45979702,0.052950982,0.5288691,0.31985673,0.41848785,0.15888189,0.44305176,0.28460374,-0.16463774,0.26844448,0.0568329,-0.37165645,-0.59538,-0.39497036,898.5348,1227.7289,830.0366,827.619,778.0586,-0.0126953125,-0.0198974609375,0.9910888671875,2.01873779296875,-2.370147705078125,0.4486083984375,1.0,1.0,1.0,4.0,1.0,85.0,event
11:38:49.117,0.6829208,0.4673036,0.93043804,0.32029226,1.0389125,0.21436137,0.45979702,0.052950982,0.5288691,0.31985673,0.41848785,0.15888189,0.44305176,0.28460374,-0.16463774,0.26844448,0.0568329,-0.37165645,-0.59538,-0.39497036,927.5458,1630.2565,1054.4689,821.1722,729.304,-0.011962890625,-0.01702880859375,0.9903564453125,2.61688232421875,-2.87109375,-0.28411865234375,1.0,1.0,1.0,4.0,1.0,85.0,event
11:38:49.118,0.6829208,0.4673036,0.93043804,0.32029226,1.0389125,0.21436137,0.45979702,0.052950982,0.5288691,0.31985673,0.41848785,0.15888189,0.44305176,0.28460374,-0.16463774,0.26844448,0.0568329,-0.37165645,-0.59538,-0.39497036,794.57874,1621.392,865.09155,803.8461,679.34064,-0.011962890625,-0.01702880859375,0.9903564453125,2.61688232421875,-2.87109375,-0.28411865234375,1.0,1.0,1.0,4.0,1.0,85.0,event
11:38:49.120,0.6829208,0.4673036,0.93043804,0.32029226,1.0389125,0.21436137,0.45979702,0.052950982,0.5288691,0.31985673,0.41848785,0.15888189,0.44305176,0.28460374,-0.16463774,0.26844448,0.0568329,-0.37165645,-0.59538,-0.39497036,677.72894,1620.1831,630.18317,801.4286,703.1135,-0.011962890625,-0.01702880859375,0.9903564453125,2.61688232421875,-2.87109375,-0.28411865234375,1.0,1.0,1.0,4.0,1.0,85.0,event
11:38:49.121,0.6829208,0.4673036,0.93043804,0.32029226,1.0389125,0.21436137,0.45979702,0.052950982,0.5288691,0.31985673,0.41848785,0.15888189,0.44305176,0.28460374,-0.16463774,0.26844448,0.0568329,-0.37165645,-0.59538,-0.39497036,723.663,1631.0623,792.96704,809.4872,666.4469,-0.011962890625,-0.01702880859375,0.9903564453125,2.61688232421875,-2.87109375,-0.28411865234375,1.0,1.0,1.0,4.0,1.0,85.0,event
11:38:49.122,0.6829208,0.4673036,0.93043804,0.32029226,1.0389125,0.21436137,0.45979702,0.052950982,0.5288691,0.31985673,0.41848785,0.15888189,0.44305176,0.28460374,-0.16463774,0.26844448,0.0568329,-0.37165645,-0.59538,-0.39497036,880.40295,1625.4213,962.6007,825.2015,670.87915,-0.011962890625,-0.01702880859375,0.9903564453125,2.61688232421875,-2.87109375,-0.28411865234375,1.0,1.0,1.0,4.0,1.0,85.0,event
11:38:49.123,0.6829208,0.4673036,0.93043804,0.32029226,1.0389125,0.21436137,0.45979702,0.052950982,0.5288691,0.31985673,0.41848785,0.15888189,0.44305176,0.28460374,-0.16463774,0.26844448,0.0568329,-0.37165645,-0.59538,-0.39497036,934.7985,1572.6373,728.9011,828.4249,816.337,-0.011962890625,-0.01702880859375,0.9903564453125,2.61688232421875,-2.87109375,-0.28411865234375,1.0,1.0,1.0,4.0,1.0,85.0,event
11:38:49.124,0.6829208,0.4673036,0.93043804,0.32029226,1.0389125,0.21436137,0.45979702,0.052950982,0.5288691,0.31985673,0.41848785,0.15888189,0.44305176,0.28460374,-0.16463774,0.26844448,0.0568329,-0.37165645,-0.59538,-0.39497036,801.4286,1515.0183,208.71794,811.9048,1058.4982,-0.011962890625,-0.01702880859375,0.9903564453125,2.61688232421875,-2.87109375,-0.28411865234375,1.0,1.0,1.0,4.0,1.0,85.0,event
11:38:49.126,0.6829208,0.4673036,0.93043804,0.32029226,1.0389125,0.21436137,0.45979702,0.052950982,0.5288691,0.31985673,0.41848785,0.15888189,0.44305176,0.28460374,-0.16463774,0.26844448,0.0568329,-0.37165645,-0.59538,-0.39497036,680.54944,1492.0513,481.50183,796.5934,939.6337,-0.011962890625,-0.01702880859375,0.9903564453125,2.61688232421875,-2.87109375,-0.28411865234375,1.0,1.0,1.0,4.0,1.0,85.0,event
11:38:49.127,0.6829208,0.4673036,0.93043804,0.32029226,1.0389125,0.21436137,0.45979702,0.052950982,0.5288691,0.31985673,0.41848785,0.15888189,0.44305176,0.28460374,-0.16463774,0.26844448,0.0568329,-0.37165645,-0.59538,-0.39497036,718.8278,1453.37,993.6264,804.2491,716.8132,-0.011962890625,-0.01702880859375,0.9903564453125,2.61688232421875,-2.87109375,-0.28411865234375,1.0,1.0,1.0,4.0,1.0,85.0,event
11:38:49.128,0.6829208,0.4673036,0.93043804,0.32029226,1.0389125,0.21436137,0.45979702,0.052950982,0.5288691,0.31985673,0.41848785,0.15888189,0.44305176,0.28460374,-0.16463774,0.26844448,0.0568329,-0.37165645,-0.59538,-0.39497036,861.4652,1410.2565,863.0769,828.4249,740.989,-0.011962890625,-0.01702880859375,0.9903564453125,2.61688232421875,-2.87109375,-0.28411865234375,1.0,1.0,1.0,4.0,1.0,85.0,event
11:38:49.129,0.6829208,0.4673036,0.93043804,0.32029226,1.0389125,0.21436137,0.45979702,0.052950982,0.5288691,0.31985673,0.41848785,0.15888189,0.44305176,0.28460374,-0.16463774,0.26844448,0.0568329,-0.37165645,-0.59538,-0.39497036,931.5751,1382.8572,632.1978,833.2601,815.5311,-0.011962890625,-0.01702880859375,0.9903564453125,2.61688232421875,-2.87109375,-0.28411865234375,1.0,1.0,1.0,4.0,1.0,85.0,event
11:38:49.129,0.6829208,0.4673036,0.93043804,0.32029226,1.0389125,0.21436137,0.45979702,0.052950982,0.5288691,0.31985673,0.41848785,0.15888189,0.44305176,0.28460374,-0.16463774,0.26844448,0.0568329,-0.37165645,-0.59538,-0.39497036,818.3516,1358.6813,759.92676,806.6667,754.68866,-0.011962890625,-0.01702880859375,0.9903564453125,2.61688232421875,-2.87109375,-0.28411865234375,1.0,1.0,1.0,4.0,1.0,85.0,event
11:38:49.165,0.6829208,0.4673036,0.93043804,0.32029226,1.0389125,0.21436137,0.45979702,0.052950982,0.5288691,0.31985673,0.41848785,0.15888189,0.44305176,0.28460374,-0.16463774,0.26844448,0.0568329,-0.37165645,-0.59538,-0.39497036,688.20514,1326.044,883.6264,794.57874,650.32965,-0.00634765625,-0.02276611328125,0.98370361328125,1.45050048828125,-3.09539794921875,-0.291595458984375,1.0,1.0,1.0,4.0,1.0,85.0,event
11:38:49.166,0.6829208,0.4673036,0.93043804,0.32029226,1.0389125,0.21436137,0.45979702,0.052950982,0.5288691,0.31985673,0.41848785,0.15888189,0.44305176,0.28460374,-0.16463774,0.26844448,0.0568329,-0.37165645,-0.59538,-0.39497036,700.696,1295.8242,724.4689,805.05493,695.05493,-0.00634765625,-0.02276611328125,0.98370361328125,1.45050048828125,-3.09539794921875,-0.291595458984375,1.0,1.0,1.0,4.0,1.0,85.0,event
11:38:49.167,0.6829208,0.4673036,0.93043804,0.32029226,1.0389125,0.21436137,0.45979702,0.052950982,0.5288691,0.31985673,0.41848785,0.15888189,0.44305176,0.28460374,-0.16463774,0.26844448,0.0568329,-0.37165645,-0.59538,-0.39497036,831.6484,1271.6483,624.1392,814.7253,845.34796,-0.00634765625,-0.02276611328125,0.98370361328125,1.45050048828125,-3.09539794921875,-0.291595458984375,1.0,1.0,1.0,4.0,1.0,85.0,event
11:38:49.168,0.6829208,0.4673036,0.93043804,0.32029226,1.0389125,0.21436137,0.45979702,0.052950982,0.5288691,0.31985673,0.41848785,0.15888189,0.44305176,0.28460374,-0.16463774,0.26844448,0.0568329,-0.37165645,-0.59538,-0.39497036,934.3956,1247.8755,891.28204,820.7692,795.38464,-0.00634765625,-0.02276611328125,0.98370361328125,1.45050048828125,-3.09539794921875,-0.291595458984375,1.0,1.0,1.0,4.0,1.0,85.0,event
11:38:49.168,0.6829208,0.4673036,0.93043804,0.32029226,1.0389125,0.21436137,0.45979702,0.052950982,0.5288691,0.31985673,0.41848785,0.15888189,0.44305176,0.28460374,-0.16463774,0.26844448,0.0568329,-0.37165645,-0.59538,-0.39497036,846.55676,1217.2528,939.2308,805.4579,701.0989,-0.00634765625,-0.02276611328125,0.98370361328125,1.45050048828125,-3.09539794921875,-0.291595458984375,1.0,1.0,1.0,4.0,1.0,85.0,event
11:38:49.169,0.6829208,0.4673036,0.93043804,0.32029226,1.0389125,0.21436137,0.45979702,0.052950982,0.5288691,0.31985673,0.41848785,0.15888189,0.44305176,0.28460374,-0.16463774,0.26844448,0.0568329,-0.37165645,-0.59538,-0.39497036,695.05493,1186.227,558.86444,789.7436,810.293,-0.00634765625,-0.02276611328125,0.98370361328125,1.45050048828125,-3.09539794921875,-0.291595458984375,1.0,1.0,1.0,4.0,1.0,85.0,event
11:38:49.170,0.6829208,0.4673036,0.93043804,0.32029226,1.0389125,0.21436137,0.45979702,0.052950982,0.5288691,0.31985673,0.41848785,0.15888189,0.44305176,0.28460374,-0.16463774,0.26844448,0.0568329,-0.37165645,-0.59538,-0.39497036,682.96704,1168.4982,429.5238,799.41394,965.82416,-0.00634765625,-0.02276611328125,0.98370361328125,1.45050048828125,-3.09539794921875,-0.291595458984375,1.0,1.0,1.0,4.0,1.0,85.0,event
11:38:49.171,0.6732811,0.4673036,0.93043804,0.30037165,1.0125195,0.21436137,0.45979702,0.07523043,0.5306195,0.31985673,0.41848785,0.25224382,0.45234692,0.28460374,-0.16463774,0.25007212,0.039187763,-0.37165645,-0.59538,-0.3616371,817.5458,1159.2307,807.0696,819.9634,862.674,-0.00634765625,-0.02276611328125,0.98370361328125,1.45050048828125,-3.09539794921875,-0.291595458984375,1.0,1.0,1.0,4.0,1.0,85.0,event
11:38:49.174,,,,,,,,,,,,,,,,,,,,,,,,,,,,,,,,,,,,,,jaw_clench
11:38:49.176,0.6732811,0.4673036,0.93043804,0.30037165,1.0125195,0.21436137,0.45979702,0.07523043,0.5306195,0.31985673,0.41848785,0.25224382,0.45234692,0.28460374,-0.16463774,0.25007212,0.039187763,-0.37165645,-0.59538,-0.3616371,940.84247,1140.6959,1011.75824,825.2015,740.58606,-0.00634765625,-0.02276611328125,0.98370361328125,1.45050048828125,-3.09539794921875,-0.291595458984375,1.0,1.0,1.0,4.0,1.0,85.0,event
11:38:49.177,0.6732811,0.4673036,0.93043804,0.30037165,1.0125195,0.21436137,0.45979702,0.07523043,0.5306195,0.31985673,0.41848785,0.25224382,0.45234692,0.28460374,-0.16463774,0.25007212,0.039187763,-0.37165645,-0.59538,-0.3616371,863.47986,1114.5055,619.707,808.68134,844.1392,-0.00634765625,-0.02276611328125,0.98370361328125,1.45050048828125,-3.09539794921875,-0.291595458984375,1.0,1.0,1.0,4.0,1.0,85.0,event
11:38:49.178,0.6732811,0.4673036,0.93043804,0.30037165,1.0125195,0.21436137,0.45979702,0.07523043,0.5306195,0.31985673,0.41848785,0.25224382,0.45234692,0.28460374,-0.16463774,0.25007212,0.039187763,-0.37165645,-0.59538,-0.3616371,710.3663,1103.6263,443.62637,790.9524,812.71063,-0.00634765625,-0.02276611328125,0.98370361328125,1.45050048828125,-3.09539794921875,-0.291595458984375,1.0,1.0,1.0,4.0,1.0,85.0,event
11:38:49.179,0.6732811,0.4673036,0.93043804,0.30037165,1.0125195,0.21436137,0.45979702,0.07523043,0.5306195,0.31985673,0.41848785,0.25224382,0.45234692,0.28460374,-0.16463774,0.25007212,0.039187763,-0.37165645,-0.59538,-0.3616371,691.4286,1087.1062,852.1978,792.1612,653.1502,-0.00634765625,-0.02276611328125,0.98370361328125,1.45050048828125,-3.09539794921875,-0.291595458984375,1.0,1.0,1.0,4.0,1.0,85.0,event
11:38:49.180,0.6732811,0.4673036,0.93043804,0.30037165,1.0125195,0.21436137,0.45979702,0.07523043,0.5306195,0.31985673,0.41848785,0.25224382,0.45234692,0.28460374,-0.16463774,0.25007212,0.039187763,-0.37165645,-0.59538,-0.3616371,808.2784,1064.5421,880.40295,810.293,697.8755,-0.0064697265625,-0.0220947265625,0.9866943359375,2.265472412109375,-3.170166015625,0.246734619140625,1.0,1.0,1.0,4.0,1.0,85.0,event
11:38:49.183,0.6732811,0.4673036,0.93043804,0.30037165,1.0125195,0.21436137,0.45979702,0.07523043,0.5306195,0.31985673,0.41848785,0.25224382,0.45234692,0.28460374,-0.16463774,0.25007212,0.039187763,-0.37165645,-0.59538,-0.3616371,929.9634,1048.022,595.12823,825.6044,886.4469,-0.0064697265625,-0.0220947265625,0.9866943359375,2.265472412109375,-3.170166015625,0.246734619140625,1.0,1.0,1.0,4.0,1.0,85.0,event
11:38:49.185,0.6732811,0.4673036,0.93043804,0.30037165,1.0125195,0.21436137,0.45979702,0.07523043,0.5306195,0.31985673,0.41848785,0.25224382,0.45234692,0.28460374,-0.16463774,0.25007212,0.039187763,-0.37165645,-0.59538,-0.3616371,880.80585,1043.9927,719.6337,811.50183,824.3956,-0.0064697265625,-0.0220947265625,0.9866943359375,2.265472412109375,-3.170166015625,0.246734619140625,1.0,1.0,1.0,4.0,1.0,85.0,event
11:38:49.186,0.6732811,0.4673036,0.93043804,0.30037165,1.0125195,0.21436137,0.45979702,0.07523043,0.5306195,0.31985673,0.41848785,0.25224382,0.45234692,0.28460374,-0.16463774,0.25007212,0.039187763,-0.37165645,-0.59538,-0.3616371,727.28937,1026.6666,900.9524,792.5641,687.3993,-0.0064697265625,-0.0220947265625,0.9866943359375,2.265472412109375,-3.170166015625,0.246734619140625,1.0,1.0,1.0,4.0,1.0,85.0,event
11:38:49.186,0.6732811,0.4673036,0.93043804,0.30037165,1.0125195,0.21436137,0.45979702,0.07523043,0.5306195,0.31985673,0.41848785,0.25224382,0.45234692,0.28460374,-0.16463774,0.25007212,0.039187763,-0.37165645,-0.59538,-0.3616371,674.5055,996.8498,800.6227,792.5641,770.80585,-0.0064697265625,-0.0220947265625,0.9866943359375,2.265472412109375,-3.170166015625,0.246734619140625,1.0,1.0,1.0,4.0,1.0,85.0,event
11:38:49.187,0.6732811,0.4673036,0.93043804,0.30037165,1.0125195,0.21436137,0.45979702,0.07523043,0.5306195,0.31985673,0.41848785,0.25224382,0.45234692,0.28460374,-0.16463774,0.25007212,0.039187763,-0.37165645,-0.59538,-0.3616371,772.4176,969.85345,526.2271,800.2198,956.1539,-0.0064697265625,-0.0220947265625,0.9866943359375,2.265472412109375,-3.170166015625,0.246734619140625,1.0,1.0,1.0,4.0,1.0,85.0,event
11:38:49.188,0.6732811,0.4673036,0.93043804,0.30037165,1.0125195,0.21436137,0.45979702,0.07523043,0.5306195,0.31985673,0.41848785,0.25224382,0.45234692,0.28460374,-0.16463774,0.25007212,0.039187763,-0.37165645,-0.59538,-0.3616371,897.326,954.1392,556.04395,798.60803,915.8608,-0.0064697265625,-0.0220947265625,0.9866943359375,2.265472412109375,-3.170166015625,0.246734619140625,1.0,1.0,1.0,4.0,1.0,85.0,event
11:38:49.189,0.6732811,0.4673036,0.93043804,0.30037165,1.0125195,0.21436137,0.45979702,0.07523043,0.5306195,0.31985673,0.41848785,0.25224382,0.45234692,0.28460374,-0.16463774,0.25007212,0.039187763,-0.37165645,-0.59538,-0.3616371,696.26373,848.97437,753.47986,746.63007,795.38464,-0.0064697265625,-0.0220947265625,0.9866943359375,2.265472412109375,-3.170166015625,0.246734619140625,1.0,1.0,1.0,4.0,1.0,85.0,event
11:38:49.189,0.6732811,0.4673036,0.93043804,0.30037165,1.0125195,0.21436137,0.45979702,0.07523043,0.5306195,0.31985673,0.41848785,0.25224382,0.45234692,0.28460374,-0.16463774,0.25007212,0.039187763,-0.37165645,-0.59538,-0.3616371,856.2271,936.4103,765.56775,774.83514,851.39197,-0.0064697265625,-0.0220947265625,0.9866943359375,2.265472412109375,-3.170166015625,0.246734619140625,1.0,1.0,1.0,4.0,1.0,85.0,event
11:38:49.191,0.6732811,0.4673036,0.93043804,0.30037165,1.0125195,0.21436137,0.45979702,0.07523043,0.5306195,0.31985673,0.41848785,0.25224382,0.45234692,0.28460374,-0.16463774,0.25007212,0.039187763,-0.37165645,-0.59538,-0.3616371,610.84247,765.16486,247.39926,744.61536,933.1868,-0.0064697265625,-0.0220947265625,0.9866943359375,2.265472412109375,-3.170166015625,0.246734619140625,1.0,1.0,1.0,4.0,1.0,85.0,event
11:38:49.192,0.6732811,0.4673036,0.93043804,0.30037165,1.0125195,0.21436137,0.45979702,0.07523043,0.5306195,0.31985673,0.41848785,0.25224382,0.45234692,0.28460374,-0.16463774,0.25007212,0.039187763,-0.37165645,-0.59538,-0.3616371,697.47253,575.38464,502.85715,745.0183,867.1062,-0.0064697265625,-0.0220947265625,0.9866943359375,2.265472412109375,-3.170166015625,0.246734619140625,1.0,1.0,1.0,4.0,1.0,85.0,event
11:38:49.193,0.6732811,0.4673036,0.93043804,0.30037165,1.0125195,0.21436137,0.45979702,0.07523043,0.5306195,0.31985673,0.41848785,0.25224382,0.45234692,0.28460374,-0.16463774,0.25007212,0.039187763,-0.37165645,-0.59538,-0.3616371,832.0513,116.849815,1040.3663,733.73627,720.84247,-0.0064697265625,-0.0220947265625,0.9866943359375,2.265472412109375,-3.170166015625,0.246734619140625,1.0,1.0,1.0,4.0,1.0,85.0,event
11:38:49.231,0.6732811,0.4673036,0.93043804,0.30037165,1.0125195,0.21436137,0.45979702,0.07523043,0.5306195,0.31985673,0.41848785,0.25224382,0.45234692,0.28460374,-0.16463774,0.25007212,0.039187763,-0.37165645,-0.59538,-0.3616371,819.9634,0.0,861.8681,721.2454,747.03296,-0.0064697265625,-0.0220947265625,0.9866943359375,2.265472412109375,-3.170166015625,0.246734619140625,1.0,1.0,1.0,4.0,1.0,85.0,event
11:38:49.232,0.6732811,0.4673036,0.93043804,0.30037165,1.0125195,0.21436137,0.45979702,0.07523043,0.5306195,0.31985673,0.41848785,0.25224382,0.45234692,0.28460374,-0.16463774,0.25007212,0.039187763,-0.37165645,-0.59538,-0.3616371,671.685,16.923077,733.3333,698.2784,757.9121,-0.0064697265625,-0.0220947265625,0.9866943359375,2.265472412109375,-3.170166015625,0.246734619140625,1.0,1.0,1.0,4.0,1.0,85.0,event
11:38:49.233,0.6732811,0.4673036,0.93043804,0.30037165,1.0125195,0.21436137,0.45979702,0.07523043,0.5306195,0.31985673,0.41848785,0.25224382,0.45234692,0.28460374,-0.16463774,0.25007212,0.039187763,-0.37165645,-0.59538,-0.3616371,564.90845,2.8205128,842.1245,676.52014,663.6264,-0.0064697265625,-0.0220947265625,0.9866943359375,2.265472412109375,-3.170166015625,0.246734619140625,1.0,1.0,1.0,4.0,1.0,85.0,event
11:38:49.233,0.6732811,0.4673036,0.93043804,0.30037165,1.0125195,0.21436137,0.45979702,0.07523043,0.5306195,0.31985673,0.41848785,0.25224382,0.45234692,0.28460374,-0.16463774,0.25007212,0.039187763,-0.37165645,-0.59538,-0.3616371,619.707,70.91575,907.8022,675.7143,628.5714,-0.0064697265625,-0.0220947265625,0.9866943359375,2.265472412109375,-3.170166015625,0.246734619140625,1.0,1.0,1.0,4.0,1.0,85.0,event
11:38:49.234,0.6732811,0.4673036,0.93043804,0.30037165,1.0125195,0.21436137,0.45979702,0.07523043,0.5306195,0.31985673,0.41848785,0.25224382,0.45234692,0.28460374,-0.16463774,0.25007212,0.039187763,-0.37165645,-0.59538,-0.3616371,746.2271,148.68132,779.67035,668.46155,870.7326,-0.0064697265625,-0.0220947265625,0.9866943359375,2.265472412109375,-3.170166015625,0.246734619140625,1.0,1.0,1.0,4.0,1.0,85.0,event
11:38:49.235,0.6732811,0.4673036,0.93043804,0.30037165,1.0125195,0.21436137,0.45979702,0.07523043,0.5306195,0.31985673,0.41848785,0.25224382,0.45234692,0.28460374,-0.16463774,0.25007212,0.039187763,-0.37165645,-0.59538,-0.3616371,744.21246,227.65567,561.685,642.27106,981.9414,-0.0064697265625,-0.0220947265625,0.9866943359375,2.265472412109375,-3.170166015625,0.246734619140625,1.0,1.0,1.0,4.0,1.0,85.0,event
11:38:49.236,0.6732811,0.4673036,0.93043804,0.30037165,1.0125195,0.21436137,0.45979702,0.07523043,0.5306195,0.31985673,0.41848785,0.25224382,0.45234692,0.28460374,-0.16463774,0.25007212,0.039187763,-0.37165645,-0.59538,-0.3616371,476.66666,353.36996,778.0586,581.02563,685.38464,-0.0064697265625,-0.0220947265625,0.9866943359375,2.265472412109375,-3.170166015625,0.246734619140625,1.0,1.0,1.0,4.0,1.0,85.0,event
11:38:49.236,0.6732811,0.4673036,0.93043804,0.30037165,1.0125195,0.21436137,0.45979702,0.07523043,0.5306195,0.31985673,0.41848785,0.25224382,0.45234692,0.28460374,-0.16463774,0.25007212,0.039187763,-0.37165645,-0.59538,-0.3616371,591.0989,298.97437,540.7326,606.4103,830.4396,-0.0064697265625,-0.0220947265625,0.9866943359375,2.265472412109375,-3.170166015625,0.246734619140625,1.0,1.0,1.0,4.0,1.0,85.0,event
11:38:49.237,0.6732811,0.4673036,0.93043804,0.30037165,1.0125195,0.21436137,0.45979702,0.07523043,0.5306195,0.31985673,0.41848785,0.25224382,0.45234692,0.28460374,-0.16463774,0.25007212,0.039187763,-0.37165645,-0.59538,-0.3616371,526.2271,394.8718,615.2747,590.293,774.83514,-0.0064697265625,-0.0220947265625,0.9866943359375,2.265472412109375,-3.170166015625,0.246734619140625,1.0,1.0,1.0,4.0,1.0,85.0,event
11:38:49.238,0.6732811,0.4673036,0.93043804,0.30037165,1.0125195,0.21436137,0.45979702,0.07523043,0.5306195,0.31985673,0.41848785,0.25224382,0.45234692,0.28460374,-0.16463774,0.25007212,0.039187763,-0.37165645,-0.59538,-0.3616371,663.6264,443.22345,328.38828,598.7546,938.4249,-0.0064697265625,-0.0220947265625,0.9866943359375,2.265472412109375,-3.170166015625,0.246734619140625,1.0,1.0,1.0,4.0,1.0,85.0,event
11:38:49.243,0.6732811,0.4673036,0.93043804,0.30037165,1.0125195,0.21436137,0.45979702,0.07523043,0.5306195,0.31985673,0.41848785,0.25224382,0.45234692,0.28460374,-0.16463774,0.25007212,0.039187763,-0.37165645,-0.59538,-0.3616371,715.6044,483.51648,716.0073,593.91943,748.6447,-0.0064697265625,-0.0220947265625,0.9866943359375,2.265472412109375,-3.170166015625,0.246734619140625,1.0,1.0,1.0,4.0,1.0,85.0,event
11:38:49.243,0.6732811,0.4673036,0.93043804,0.30037165,1.0125195,0.21436137,0.45979702,0.07523043,0.5306195,0.31985673,0.41848785,0.25224382,0.45234692,0.28460374,-0.16463774,0.25007212,0.039187763,-0.37165645,-0.59538,-0.3616371,601.978,504.46887,858.6447,582.6374,647.1062,-0.0064697265625,-0.0220947265625,0.9866943359375,2.265472412109375,-3.170166015625,0.246734619140625,1.0,1.0,1.0,4.0,1.0,85.0,event
11:38:49.290,0.6732811,0.4673036,0.93043804,0.30037165,1.0125195,0.21436137,0.45979702,0.07523043,0.5306195,0.31985673,0.41848785,0.25224382,0.45234692,0.28460374,-0.16463774,0.25007212,0.039187763,-0.37165645,-0.59538,-0.3616371,478.6813,526.2271,590.696,577.3993,714.3956,-0.01324462890625,-0.0198974609375,0.9893798828125,2.4224853515625,-3.36456298828125,0.13458251953125,1.0,1.0,1.0,4.0,1.0,85.0,event
11:38:49.292,0.6732811,0.4673036,0.93043804,0.30037165,1.0125195,0.21436137,0.45979702,0.07523043,0.5306195,0.31985673,0.41848785,0.25224382,0.45234692,0.28460374,-0.16463774,0.25007212,0.039187763,-0.37165645,-0.59538,-0.3616371,518.97437,544.7619,761.53845,593.91943,722.8571,-0.01324462890625,-0.0198974609375,0.9893798828125,2.4224853515625,-3.36456298828125,0.13458251953125,1.0,1.0,1.0,4.0,1.0,85.0,event
11:38:49.293,0.6732811,0.4673036,0.93043804,0.30037165,1.0125195,0.21436137,0.45979702,0.07523043,0.5306195,0.31985673,0.41848785,0.25224382,0.45234692,0.28460374,-0.16463774,0.25007212,0.039187763,-0.37165645,-0.59538,-0.3616371,684.9817,559.67035,1087.1062,634.61536,738.5714,-0.01324462890625,-0.0198974609375,0.9893798828125,2.4224853515625,-3.36456298828125,0.13458251953125,1.0,1.0,1.0,4.0,1.0,85.0,event
11:38:49.294,0.6732811,0.4673036,0.93043804,0.30037165,1.0125195,0.21436137,0.45979702,0.07523043,0.5306195,0.31985673,0.41848785,0.25224382,0.45234692,0.28460374,-0.16463774,0.25007212,0.039187763,-0.37165645,-0.59538,-0.3616371,774.0293,569.34064,1035.5311,661.6117,794.9817,-0.01324462890625,-0.0198974609375,0.9893798828125,2.4224853515625,-3.36456298828125,0.13458251953125,1.0,1.0,1.0,4.0,1.0,85.0,event
11:38:49.294,0.6732811,0.4673036,0.93043804,0.30037165,1.0125195,0.21436137,0.45979702,0.07523043,0.5306195,0.31985673,0.41848785,0.25224382,0.45234692,0.28460374,-0.16463774,0.25007212,0.039187763,-0.37165645,-0.59538,-0.3616371,674.5055,573.7729,783.69965,655.9707,851.79486,-0.01324462890625,-0.0198974609375,0.9893798828125,2.4224853515625,-3.36456298828125,0.13458251953125,1.0,1.0,1.0,4.0,1.0,85.0,event
11:38:49.295,0.6732811,0.4673036,0.93043804,0.30037165,1.0125195,0.21436137,0.45979702,0.07523043,0.5306195,0.31985673,0.41848785,0.25224382,0.45234692,0.28460374,-0.16463774,0.25007212,0.039187763,-0.37165645,-0.59538,-0.3616371,560.4762,578.60803,649.12085,660.40295,870.7326,-0.01324462890625,-0.0198974609375,0.9893798828125,2.4224853515625,-3.36456298828125,0.13458251953125,1.0,1.0,1.0,4.0,1.0,85.0,event
11:38:49.296,0.6732811,0.4673036,0.93043804,0.30037165,1.0125195,0.21436137,0.45979702,0.07523043,0.5306195,0.31985673,0.41848785,0.25224382,0.45234692,0.28460374,-0.16463774,0.25007212,0.039187763,-0.37165645,-0.59538,-0.3616371,585.4579,590.696,672.0879,681.75824,841.7216,-0.01324462890625,-0.0198974609375,0.9893798828125,2.4224853515625,-3.36456298828125,0.13458251953125,1.0,1.0,1.0,4.0,1.0,85.0,event
11:38:49.297,0.6732811,0.4673036,0.93043804,0.30037165,1.0125195,0.21436137,0.45979702,0.07523043,0.5306195,0.31985673,0.41848785,0.25224382,0.45234692,0.28460374,-0.16463774,0.25007212,0.039187763,-0.37165645,-0.59538,-0.3616371,857.8388,583.44324,348.5348,758.71796,1044.7986,-0.01324462890625,-0.0198974609375,0.9893798828125,2.4224853515625,-3.36456298828125,0.13458251953125,1.0,1.0,1.0,4.0,1.0,85.0,event
11:38:49.297,0.6732811,0.4673036,0.93043804,0.30037165,1.0125195,0.21436137,0.45979702,0.07523043,0.5306195,0.31985673,0.41848785,0.25224382,0.45234692,0.28460374,-0.16463774,0.25007212,0.039187763,-0.37165645,-0.59538,-0.3616371,740.18317,593.5165,747.4359,720.84247,821.1722,-0.01324462890625,-0.0198974609375,0.9893798828125,2.4224853515625,-3.36456298828125,0.13458251953125,1.0,1.0,1.0,4.0,1.0,85.0,event
11:38:49.298,0.6732811,0.4673036,0.93043804,0.30037165,1.0125195,0.21436137,0.45979702,0.07523043,0.5306195,0.31985673,0.41848785,0.25224382,0.45234692,0.28460374,-0.16463774,0.25007212,0.039187763,-0.37165645,-0.59538,-0.3616371,782.0879,607.2161,338.0586,751.8681,1052.8572,-0.01324462890625,-0.0198974609375,0.9893798828125,2.4224853515625,-3.36456298828125,0.13458251953125,1.0,1.0,1.0,4.0,1.0,85.0,event
11:38:49.299,0.6732811,0.4673036,0.93043804,0.30037165,1.0125195,0.21436137,0.45979702,0.07523043,0.5306195,0.31985673,0.41848785,0.25224382,0.45234692,0.28460374,-0.16463774,0.25007212,0.039187763,-0.37165645,-0.59538,-0.3616371,658.3883,617.6923,865.89746,740.989,743.4066,-0.01324462890625,-0.0198974609375,0.9893798828125,2.4224853515625,-3.36456298828125,0.13458251953125,1.0,1.0,1.0,4.0,1.0,85.0,event
11:38:49.300,0.6732811,0.4673036,0.93043804,0.30037165,1.0125195,0.21436137,0.45979702,0.07523043,0.5306195,0.31985673,0.41848785,0.25224382,0.45234692,0.28460374,-0.16463774,0.25007212,0.039187763,-0.37165645,-0.59538,-0.3616371,670.87915,603.5897,867.50916,766.3736,668.86444,-0.01324462890625,-0.0198974609375,0.9893798828125,2.4224853515625,-3.36456298828125,0.13458251953125,1.0,1.0,1.0,4.0,1.0,85.0,event
11:38:49.325,0.6732811,0.4673036,0.93043804,0.30037165,1.0125195,0.21436137,0.45979702,0.07523043,0.5306195,0.31985673,0.41848785,0.25224382,0.45234692,0.28460374,-0.16463774,0.25007212,0.039187763,-0.37165645,-0.59538,-0.3616371,823.9927,611.2454,862.27106,807.0696,729.304,-0.0037841796875,-0.019287109375,0.9915771484375,2.459869384765625,-2.87109375,0.351409912109375,1.0,1.0,1.0,4.0,1.0,85.0,event
11:38:49.327,0.6732811,0.4673036,0.93043804,0.30037165,1.0125195,0.21436137,0.45979702,0.07523043,0.5306195,0.31985673,0.41848785,0.25224382,0.45234692,0.28460374,-0.16463774,0.25007212,0.039187763,-0.37165645,-0.59538,-0.3616371,954.5421,623.73627,1070.989,831.6484,747.4359,-0.0037841796875,-0.019287109375,0.9915771484375,2.459869384765625,-2.87109375,0.351409912109375,1.0,1.0,1.0,4.0,1.0,85.0,event
11:38:49.328,0.6732811,0.4673036,0.93043804,0.30037165,1.0125195,0.21436137,0.45979702,0.07523043,0.5306195,0.31985673,0.41848785,0.25224382,0.45234692,0.28460374,-0.16463774,0.25007212,0.039187763,-0.37165645,-0.59538,-0.3616371,892.0879,624.5421,1018.20514,837.6923,705.9341,-0.0037841796875,-0.019287109375,0.9915771484375,2.459869384765625,-2.87109375,0.351409912109375,1.0,1.0,1.0,4.0,1.0,85.0,event
11:38:49.328,0.6732811,0.4673036,0.93043804,0.30037165,1.0125195,0.21436137,0.45979702,0.07523043,0.5306195,0.31985673,0.41848785,0.25224382,0.45234692,0.28460374,-0.16463774,0.25007212,0.039187763,-0.37165645,-0.59538,-0.3616371,761.9414,626.1539,785.7143,843.3333,721.2454,-0.0037841796875,-0.019287109375,0.9915771484375,2.459869384765625,-2.87109375,0.351409912109375,1.0,1.0,1.0,4.0,1.0,85.0,event
11:38:49.329,0.6732811,0.4673036,0.93043804,0.30037165,1.0125195,0.21436137,0.45979702,0.07523043,0.5306195,0.31985673,0.41848785,0.25224382,0.45234692,0.28460374,-0.16463774,0.25007212,0.039187763,-0.37165645,-0.59538,-0.3616371,753.47986,635.82416,779.67035,857.8388,743.8095,-0.0037841796875,-0.019287109375,0.9915771484375,2.459869384765625,-2.87109375,0.351409912109375,1.0,1.0,1.0,4.0,1.0,85.0,event
11:38:49.330,0.6732811,0.4673036,0.93043804,0.30037165,1.0125195,0.21436137,0.45979702,0.07523043,0.5306195,0.31985673,0.41848785,0.25224382,0.45234692,0.28460374,-0.16463774,0.25007212,0.039187763,-0.37165645,-0.59538,-0.3616371,874.7619,633.8095,846.1539,879.59705,833.663,-0.0037841796875,-0.019287109375,0.9915771484375,2.459869384765625,-2.87109375,0.351409912109375,1.0,1.0,1.0,4.0,1.0,85.0,event
11:38:49.331,0.6732811,0.4673036,0.93043804,0.30037165,1.0125195,0.21436137,0.45979702,0.07523043,0.5306195,0.31985673,0.41848785,0.25224382,0.45234692,0.28460374,-0.16463774,0.25007212,0.039187763,-0.37165645,-0.59538,-0.3616371,954.94507,627.76556,577.8022,895.31134,909.81683,-0.0037841796875,-0.019287109375,0.9915771484375,2.459869384765625,-2.87109375,0.351409912109375,1.0,1.0,1.0,4.0,1.0,85.0,event
11:38:49.331,0.6732811,0.4673036,0.93043804,0.30037165,1.0125195,0.21436137,0.45979702,0.07523043,0.5306195,0.31985673,0.41848785,0.25224382,0.45234692,0.28460374,-0.16463774,0.25007212,0.039187763,-0.37165645,-0.59538,-0.3616371,1008.1319,633.00366,883.6264,898.5348,916.26373,-0.0037841796875,-0.019287109375,0.9915771484375,2.459869384765625,-2.87109375,0.351409912109375,1.0,1.0,1.0,4.0,1.0,85.0,event
11:38:49.332,0.6732811,0.4673036,0.93043804,0.30037165,1.0125195,0.21436137,0.45979702,0.07523043,0.5306195,0.31985673,0.41848785,0.25224382,0.45234692,0.28460374,-0.16463774,0.25007212,0.039187763,-0.37165645,-0.59538,-0.3616371,804.2491,633.8095,245.78755,888.0586,986.3736,-0.0037841796875,-0.019287109375,0.9915771484375,2.459869384765625,-2.87109375,0.351409912109375,1.0,1.0,1.0,4.0,1.0,85.0,event
11:38:49.333,0.6732811,0.4673036,0.93043804,0.30037165,1.0125195,0.21436137,0.45979702,0.07523043,0.5306195,0.31985673,0.41848785,0.25224382,0.45234692,0.28460374,-0.16463774,0.25007212,0.039187763,-0.37165645,-0.59538,-0.3616371,780.87915,653.95605,783.2967,896.52014,784.90845,-0.0037841796875,-0.019287109375,0.9915771484375,2.459869384765625,-2.87109375,0.351409912109375,1.0,1.0,1.0,4.0,1.0,85.0,event
11:38:49.334,0.6732811,0.4673036,0.93043804,0.30037165,1.0125195,0.21436137,0.45979702,0.07523043,0.5306195,0.31985673,0.41848785,0.25224382,0.45234692,0.28460374,-0.16463774,0.25007212,0.039187763,-0.37165645,-0.59538,-0.3616371,900.9524,649.92676,971.8681,919.89014,745.82416,-0.0037841796875,-0.019287109375,0.9915771484375,2.459869384765625,-2.87109375,0.351409912109375,1.0,1.0,1.0,4.0,1.0,85.0,event
11:38:49.335,0.6732811,0.4673036,0.93043804,0.30037165,1.0125195,0.21436137,0.45979702,0.07523043,0.5306195,0.31985673,0.41848785,0.25224382,0.45234692,0.28460374,-0.16463774,0.25007212,0.039187763,-0.37165645,-0.59538,-0.3616371,1029.8901,643.8828,660.0,931.1722,902.1612,-0.0037841796875,-0.019287109375,0.9915771484375,2.459869384765625,-2.87109375,0.351409912109375,1.0,1.0,1.0,4.0,1.0,85.0,event
11:38:49.381,0.6732811,0.4673036,0.93043804,0.30037165,1.0125195,0.21436137,0.45979702,0.07523043,0.5306195,0.31985673,0.41848785,0.25224382,0.45234692,0.28460374,-0.16463774,0.25007212,0.039187763,-0.37165645,-0.59538,-0.3616371,998.0586,657.98535,747.03296,919.89014,787.326,-0.01422119140625,-0.02001953125,0.98822021484375,2.04864501953125,-3.222503662109375,0.418701171875,1.0,1.0,1.0,4.0,1.0,85.0,event
11:38:49.382,0.6732811,0.4673036,0.93043804,0.30037165,1.0125195,0.21436137,0.45979702,0.07523043,0.5306195,0.31985673,0.41848785,0.25224382,0.45234692,0.28460374,-0.16463774,0.25007212,0.039187763,-0.37165645,-0.59538,-0.3616371,857.8388,663.22345,942.0513,908.20514,631.39197,-0.01422119140625,-0.02001953125,0.98822021484375,2.04864501953125,-3.222503662109375,0.418701171875,1.0,1.0,1.0,4.0,1.0,85.0,event
11:38:49.383,0.6732811,0.4673036,0.93043804,0.30037165,1.0125195,0.21436137,0.45979702,0.07523043,0.5306195,0.31985673,0.41848785,0.25224382,0.45234692,0.28460374,-0.16463774,0.25007212,0.039187763,-0.37165645,-0.59538,-0.3616371,791.75824,658.3883,879.19415,911.8315,682.5641,-0.01422119140625,-0.02001953125,0.98822021484375,2.04864501953125,-3.222503662109375,0.418701171875,1.0,1.0,1.0,4.0,1.0,85.0,event
11:38:49.384,0.6732811,0.4673036,0.93043804,0.30037165,1.0125195,0.21436137,0.45979702,0.07523043,0.5306195,0.31985673,0.41848785,0.25224382,0.45234692,0.28460374,-0.16463774,0.25007212,0.039187763,-0.37165645,-0.59538,-0.3616371,883.22345,662.01465,784.10254,925.9341,756.30035,-0.01422119140625,-0.02001953125,0.98822021484375,2.04864501953125,-3.222503662109375,0.418701171875,1.0,1.0,1.0,4.0,1.0,85.0,event
11:38:49.384,0.6732811,0.4673036,0.93043804,0.30037165,1.0125195,0.21436137,0.45979702,0.07523043,0.5306195,0.31985673,0.41848785,0.25224382,0.45234692,0.28460374,-0.16463774,0.25007212,0.039187763,-0.37165645,-0.59538,-0.3616371,1033.1135,671.685,944.0659,941.2454,751.4652,-0.01422119140625,-0.02001953125,0.98822021484375,2.04864501953125,-3.222503662109375,0.418701171875,1.0,1.0,1.0,4.0,1.0,85.0,event
11:38:49.385,0.6732811,0.4673036,0.93043804,0.30037165,1.0125195,0.21436137,0.45979702,0.07523043,0.5306195,0.31985673,0.41848785,0.25224382,0.45234692,0.28460374,-0.16463774,0.25007212,0.039187763,-0.37165645,-0.59538,-0.3616371,1029.4872,679.7436,883.6264,938.4249,813.5165,-0.01422119140625,-0.02001953125,0.98822021484375,2.04864501953125,-3.222503662109375,0.418701171875,1.0,1.0,1.0,4.0,1.0,85.0,event
11:38:49.386,0.6732811,0.4673036,0.93043804,0.30037165,1.0125195,0.21436137,0.45979702,0.07523043,0.5306195,0.31985673,0.41848785,0.25224382,0.45234692,0.28460374,-0.16463774,0.25007212,0.039187763,-0.37165645,-0.59538,-0.3616371,877.98535,682.5641,630.58606,924.3223,867.9121,-0.01422119140625,-0.02001953125,0.98822021484375,2.04864501953125,-3.222503662109375,0.418701171875,1.0,1.0,1.0,4.0,1.0,85.0,event
11:38:49.387,0.6732811,0.4673036,0.93043804,0.30037165,1.0125195,0.21436137,0.45979702,0.07523043,0.5306195,0.31985673,0.41848785,0.25224382,0.45234692,0.28460374,-0.16463774,0.25007212,0.039187763,-0.37165645,-0.59538,-0.3616371,788.5348,676.52014,268.35165,924.3223,1020.2198,-0.01422119140625,-0.02001953125,0.98822021484375,2.04864501953125,-3.222503662109375,0.418701171875,1.0,1.0,1.0,4.0,1.0,85.0,event
11:38:49.388,0.6732811,0.4673036,0.93043804,0.30037165,1.0125195,0.21436137,0.45979702,0.07523043,0.5306195,0.31985673,0.41848785,0.25224382,0.45234692,0.28460374,-0.16463774,0.25007212,0.039187763,-0.37165645,-0.59538,-0.3616371,876.77655,699.89014,512.52747,930.3663,880.40295,-0.01422119140625,-0.02001953125,0.98822021484375,2.04864501953125,-3.222503662109375,0.418701171875,1.0,1.0,1.0,4.0,1.0,85.0,event
11:38:49.389,0.6732811,0.4673036,0.93043804,0.30037165,1.0125195,0.21436137,0.45979702,0.07523043,0.5306195,0.31985673,0.41848785,0.25224382,0.45234692,0.28460374,-0.16463774,0.25007212,0.039187763,-0.37165645,-0.59538,-0.3616371,1023.8461,716.8132,1087.9121,937.619,728.49817,-0.01422119140625,-0.02001953125,0.98822021484375,2.04864501953125,-3.222503662109375,0.418701171875,1.0,1.0,1.0,4.0,1.0,85.0,event
11:38:49.390,0.6732811,0.4673036,0.93043804,0.30037165,1.0125195,0.21436137,0.45979702,0.07523043,0.5306195,0.31985673,0.41848785,0.25224382,0.45234692,0.28460374,-0.16463774,0.25007212,0.039187763,-0.37165645,-0.59538,-0.3616371,1031.9048,710.3663,975.89746,930.7692,790.14655,-0.01422119140625,-0.02001953125,0.98822021484375,2.04864501953125,-3.222503662109375,0.418701171875,1.0,1.0,1.0,4.0,1.0,85.0,event
11:38:49.391,0.6732811,0.4673036,0.93043804,0.30037165,1.0125195,0.21436137,0.45979702,0.07523043,0.5306195,0.31985673,0.41848785,0.25224382,0.45234692,0.28460374,-0.16463774,0.25007212,0.039187763,-0.37165645,-0.59538,-0.3616371,886.8498,718.8278,714.3956,904.57874,761.53845,-0.01422119140625,-0.02001953125,0.98822021484375,2.04864501953125,-3.222503662109375,0.418701171875,1.0,1.0,1.0,4.0,1.0,85.0,event
11:38:49.442,0.6732811,0.4673036,0.93043804,0.30037165,1.0125195,0.21436137,0.45979702,0.07523043,0.5306195,0.31985673,0.41848785,0.25224382,0.45234692,0.28460374,-0.16463774,0.25007212,0.039187763,-0.37165645,-0.59538,-0.3616371,778.86444,732.1245,839.707,893.69965,713.5897,-0.00885009765625,-0.0186767578125,0.98590087890625,2.1832275390625,-3.4393310546875,0.25421142578125,1.0,1.0,1.0,4.0,1.0,85.0,event
11:38:49.444,0.6732811,0.4673036,0.93043804,0.30037165,1.0125195,0.21436137,0.45979702,0.07523043,0.5306195,0.31985673,0.41848785,0.25224382,0.45234692,0.28460374,-0.16463774,0.25007212,0.039187763,-0.37165645,-0.59538,-0.3616371,840.5128,736.1539,948.0952,906.1905,770.80585,-0.00885009765625,-0.0186767578125,0.98590087890625,2.1832275390625,-3.4393310546875,0.25421142578125,1.0,1.0,1.0,4.0,1.0,85.0,event
11:38:49.445,0.6732811,0.4673036,0.93043804,0.30037165,1.0125195,0.21436137,0.45979702,0.07523043,0.5306195,0.31985673,0.41848785,0.25224382,0.45234692,0.28460374,-0.16463774,0.25007212,0.039187763,-0.37165645,-0.59538,-0.3616371,986.3736,740.989,702.3077,923.91943,860.65936,-0.00885009765625,-0.0186767578125,0.98590087890625,2.1832275390625,-3.4393310546875,0.25421142578125,1.0,1.0,1.0,4.0,1.0,85.0,event
11:38:49.447,0.6732811,0.4673036,0.93043804,0.30037165,1.0125195,0.21436137,0.45979702,0.07523043,0.5306195,0.31985673,0.41848785,0.25224382,0.45234692,0.28460374,-0.16463774,0.25007212,0.039187763,-0.37165645,-0.59538,-0.3616371,1015.38464,751.4652,581.02563,915.4579,941.6484,-0.00885009765625,-0.0186767578125,0.98590087890625,2.1832275390625,-3.4393310546875,0.25421142578125,1.0,1.0,1.0,4.0,1.0,85.0,event
11:38:49.448,0.6732811,0.4673036,0.93043804,0.30037165,1.0125195,0.21436137,0.45979702,0.07523043,0.5306195,0.31985673,0.41848785,0.25224382,0.45234692,0.28460374,-0.16463774,0.25007212,0.039187763,-0.37165645,-0.59538,-0.3616371,888.0586,758.71796,834.87177,888.46155,837.28937,-0.00885009765625,-0.0186767578125,0.98590087890625,2.1832275390625,-3.4393310546875,0.25421142578125,1.0,1.0,1.0,4.0,1.0,85.0,event
11:38:49.450,0.6732811,0.4673036,0.93043804,0.30037165,1.0125195,0.21436137,0.45979702,0.07523043,0.5306195,0.31985673,0.41848785,0.25224382,0.45234692,0.28460374,-0.16463774,0.25007212,0.039187763,-0.37165645,-0.59538,-0.3616371,775.2381,761.13556,791.75824,880.0,810.293,-0.00885009765625,-0.0186767578125,0.98590087890625,2.1832275390625,-3.4393310546875,0.25421142578125,1.0,1.0,1.0,4.0,1.0,85.0,event
11:38:49.451,0.6732811,0.4673036,0.93043804,0.30037165,1.0125195,0.21436137,0.45979702,0.07523043,0.5306195,0.31985673,0.41848785,0.25224382,0.45234692,0.28460374,-0.16463774,0.25007212,0.039187763,-0.37165645,-0.59538,-0.3616371,809.89014,760.7326,509.70697,890.87915,952.1245,-0.00885009765625,-0.0186767578125,0.98590087890625,2.1832275390625,-3.4393310546875,0.25421142578125,1.0,1.0,1.0,4.0,1.0,85.0,event
11:38:49.453,0.6732811,0.4673036,0.93043804,0.30037165,1.0125195,0.21436137,0.45979702,0.07523043,0.5306195,0.31985673,0.41848785,0.25224382,0.45234692,0.28460374,-0.16463774,0.25007212,0.039187763,-0.37165645,-0.59538,-0.3616371,945.2747,766.77655,359.011,906.99634,1035.5311,-0.00885009765625,-0.0186767578125,0.98590087890625,2.1832275390625,-3.4393310546875,0.25421142578125,1.0,1.0,1.0,4.0,1.0,85.0,event
11:38:49.455,0.6732811,0.4673036,0.93043804,0.30037165,1.0125195,0.21436137,0.45979702,0.07523043,0.5306195,0.31985673,0.41848785,0.25224382,0.45234692,0.28460374,-0.16463774,0.25007212,0.039187763,-0.37165645,-0.59538,-0.3616371,1013.7729,779.67035,857.4359,902.1612,792.5641,-0.00885009765625,-0.0186767578125,0.98590087890625,2.1832275390625,-3.4393310546875,0.25421142578125,1.0,1.0,1.0,4.0,1.0,85.0,event
11:38:49.456,0.6732811,0.4673036,0.93043804,0.30037165,1.0125195,0.21436137,0.45979702,0.07523043,0.5306195,0.31985673,0.41848785,0.25224382,0.45234692,0.28460374,-0.16463774,0.25007212,0.039187763,-0.37165645,-0.59538,-0.3616371,897.326,782.8938,1000.07324,877.98535,672.49084,-0.00885009765625,-0.0186767578125,0.98590087890625,2.1832275390625,-3.4393310546875,0.25421142578125,1.0,1.0,1.0,4.0,1.0,85.0,event
11:38:49.457,0.6732811,0.4673036,0.93043804,0.30037165,1.0125195,0.21436137,0.45979702,0.07523043,0.5306195,0.31985673,0.41848785,0.25224382,0.45234692,0.28460374,-0.16463774,0.25007212,0.039187763,-0.37165645,-0.59538,-0.3616371,764.7619,784.10254,681.3553,865.89746,745.0183,-0.00885009765625,-0.0186767578125,0.98590087890625,2.1832275390625,-3.4393310546875,0.25421142578125,1.0,1.0,1.0,4.0,1.0,85.0,event
11:38:49.457,0.6732811,0.4673036,0.93043804,0.30037165,1.0125195,0.21436137,0.45979702,0.07523043,0.5306195,0.31985673,0.41848785,0.25224382,0.45234692,0.28460374,-0.16463774,0.25007212,0.039187763,-0.37165645,-0.59538,-0.3616371,793.36993,795.38464,823.1868,875.16486,728.49817,-0.00885009765625,-0.0186767578125,0.98590087890625,2.1832275390625,-3.4393310546875,0.25421142578125,1.0,1.0,1.0,4.0,1.0,85.0,event
11:38:49.481,0.6732811,0.4673036,0.93043804,0.30037165,1.0125195,0.21436137,0.45979702,0.07523043,0.5306195,0.31985673,0.41848785,0.25224382,0.45234692,0.28460374,-0.16463774,0.25007212,0.039187763,-0.37165645,-0.59538,-0.3616371,935.6044,801.4286,1107.6556,891.685,709.9634,-0.00885009765625,-0.0186767578125,0.98590087890625,2.1832275390625,-3.4393310546875,0.25421142578125,1.0,1.0,1.0,4.0,1.0,85.0,event
11:38:49.482,0.6732811,0.4673036,0.93043804,0.30037165,1.0125195,0.21436137,0.45979702,0.07523043,0.5306195,0.31985673,0.41848785,0.25224382,0.45234692,0.28460374,-0.16463774,0.25007212,0.039187763,-0.37165645,-0.59538,-0.3616371,1005.31134,797.3993,1025.0549,888.0586,725.6777,-0.00885009765625,-0.0186767578125,0.98590087890625,2.1832275390625,-3.4393310546875,0.25421142578125,1.0,1.0,1.0,4.0,1.0,85.0,event
11:38:49.486,,,,,,,,,,,,,,,,,,,,,,,,,,,,,,,,,,,,,,blink
11:38:49.488,0.6732811,0.4673036,0.93043804,0.30037165,1.0125195,0.21436137,0.45979702,0.07523043,0.5306195,0.31985673,0.41848785,0.25224382,0.45234692,0.28460374,-0.16463774,0.25007212,0.039187763,-0.37165645,-0.59538,-0.3616371,894.5055,803.44324,726.08057,865.4945,787.72894,-0.00885009765625,-0.0186767578125,0.98590087890625,2.1832275390625,-3.4393310546875,0.25421142578125,1.0,1.0,1.0,4.0,1.0,85.0,event
11:38:49.489,0.6732811,0.4673036,0.93043804,0.30037165,1.0125195,0.21436137,0.45979702,0.07523043,0.5306195,0.31985673,0.41848785,0.25224382,0.45234692,0.28460374,-0.16463774,0.25007212,0.039187763,-0.37165645,-0.59538,-0.3616371,757.9121,808.2784,804.2491,857.03296,751.06226,-0.00885009765625,-0.0186767578125,0.98590087890625,2.1832275390625,-3.4393310546875,0.25421142578125,1.0,1.0,1.0,4.0,1.0,85.0,event
11:38:49.490,0.6732811,0.4673036,0.93043804,0.30037165,1.0125195,0.21436137,0.45979702,0.07523043,0.5306195,0.31985673,0.41848785,0.25224382,0.45234692,0.28460374,-0.16463774,0.25007212,0.039187763,-0.37165645,-0.59538,-0.3616371,763.5531,809.4872,891.28204,867.1062,718.4249,-0.00885009765625,-0.0186767578125,0.98590087890625,2.1832275390625,-3.4393310546875,0.25421142578125,1.0,1.0,1.0,4.0,1.0,85.0,event
11:38:49.490,0.6732811,0.4673036,0.93043804,0.30037165,1.0125195,0.21436137,0.45979702,0.07523043,0.5306195,0.31985673,0.41848785,0.25224382,0.45234692,0.28460374,-0.16463774,0.25007212,0.039187763,-0.37165645,-0.59538,-0.3616371,897.72894,810.293,734.1392,876.77655,817.1429,-0.00885009765625,-0.0186767578125,0.98590087890625,2.1832275390625,-3.4393310546875,0.25421142578125,1.0,1.0,1.0,4.0,1.0,85.0,event
11:38:49.491,0.6732811,0.4673036,0.93043804,0.30037165,1.0125195,0.21436137,0.45979702,0.07523043,0.5306195,0.31985673,0.41848785,0.25224382,0.45234692,0.28460374,-0.16463774,0.25007212,0.039187763,-0.37165645,-0.59538,-0.3616371,987.5824,805.8608,336.84982,885.2381,1140.6959,-0.00885009765625,-0.0186767578125,0.98590087890625,2.1832275390625,-3.4393310546875,0.25421142578125,1.0,1.0,1.0,4.0,1.0,85.0,event
11:38:49.492,0.6732811,0.4673036,0.93043804,0.30037165,1.0125195,0.21436137,0.45979702,0.07523043,0.5306195,0.31985673,0.41848785,0.25224382,0.45234692,0.28460374,-0.16463774,0.25007212,0.039187763,-0.37165645,-0.59538,-0.3616371,907.3993,825.2015,373.11356,870.7326,1117.7289,-0.00885009765625,-0.0186767578125,0.98590087890625,2.1832275390625,-3.4393310546875,0.25421142578125,1.0,1.0,1.0,4.0,1.0,85.0,event
11:38:49.493,0.6732811,0.4673036,0.93043804,0.30037165,1.0125195,0.21436137,0.45979702,0.07523043,0.5306195,0.31985673,0.41848785,0.25224382,0.45234692,0.28460374,-0.16463774,0.25007212,0.039187763,-0.37165645,-0.59538,-0.3616371,748.24176,815.12823,906.1905,848.1685,755.4945,-0.00885009765625,-0.0186767578125,0.98590087890625,2.1832275390625,-3.4393310546875,0.25421142578125,1.0,1.0,1.0,4.0,1.0,85.0,event
11:38:49.493,0.6732811,0.4673036,0.93043804,0.30037165,1.0125195,0.21436137,0.45979702,0.07523043,0.5306195,0.31985673,0.41848785,0.25224382,0.45234692,0.28460374,-0.16463774,0.25007212,0.039187763,-0.37165645,-0.59538,-0.3616371,773.22345,830.84247,900.54944,848.97437,768.3883,-0.00885009765625,-0.0186767578125,0.98590087890625,2.1832275390625,-3.4393310546875,0.25421142578125,1.0,1.0,1.0,4.0,1.0,85.0,event
11:38:49.494,0.6732811,0.4673036,0.93043804,0.30037165,1.0125195,0.21436137,0.45979702,0.07523043,0.5306195,0.31985673,0.41848785,0.25224382,0.45234692,0.28460374,-0.16463774,0.25007212,0.039187763,-0.37165645,-0.59538,-0.3616371,868.71796,818.7546,856.63007,861.4652,829.6337,-0.00885009765625,-0.0186767578125,0.98590087890625,2.1832275390625,-3.4393310546875,0.25421142578125,1.0,1.0,1.0,4.0,1.0,85.0,event
11:38:49.495,0.6732811,0.4673036,0.93043804,0.30037165,1.0125195,0.21436137,0.45979702,0.07523043,0.5306195,0.31985673,0.41848785,0.25224382,0.45234692,0.28460374,-0.16463774,0.25007212,0.039187763,-0.37165645,-0.59538,-0.3616371,993.6264,821.5751,1050.0366,873.1502,742.1978,-0.00885009765625,-0.0186767578125,0.98590087890625,2.1832275390625,-3.4393310546875,0.25421142578125,1.0,1.0,1.0,4.0,1.0,85.0,event
11:38:49.516,0.6732811,0.4673036,0.93043804,0.30037165,1.0125195,0.21436137,0.45979702,0.07523043,0.5306195,0.31985673,0.41848785,0.25224382,0.45234692,0.28460374,-0.16463774,0.25007212,0.039187763,-0.37165645,-0.59538,-0.3616371,922.71063,813.91943,1027.4725,854.61536,682.1612,-0.00567626953125,-0.02337646484375,0.98614501953125,1.831817626953125,-4.4561767578125,0.6878662109375,1.0,1.0,1.0,4.0,1.0,85.0,event
11:38:49.518,0.6732811,0.4673036,0.93043804,0.30037165,1.0125195,0.21436137,0.45979702,0.07523043,0.5306195,0.31985673,0.41848785,0.25224382,0.45234692,0.28460374,-0.16463774,0.25007212,0.039187763,-0.37165645,-0.59538,-0.3616371,757.1062,803.44324,752.674,836.4835,689.81683,-0.00567626953125,-0.02337646484375,0.98614501953125,1.831817626953125,-4.4561767578125,0.6878662109375,1.0,1.0,1.0,4.0,1.0,85.0,event
11:38:49.518,0.6732811,0.4673036,0.93043804,0.30037165,1.0125195,0.21436137,0.45979702,0.07523043,0.5306195,0.31985673,0.41848785,0.25224382,0.45234692,0.28460374,-0.16463774,0.25007212,0.039187763,-0.37165645,-0.59538,-0.3616371,721.6484,807.0696,672.0879,838.9011,676.9231,-0.00567626953125,-0.02337646484375,0.98614501953125,1.831817626953125,-4.4561767578125,0.6878662109375,1.0,1.0,1.0,4.0,1.0,85.0,event
11:38:49.519,0.6732811,0.4673036,0.93043804,0.30037165,1.0125195,0.21436137,0.45979702,0.07523043,0.5306195,0.31985673,0.41848785,0.25224382,0.45234692,0.28460374,-0.16463774,0.25007212,0.039187763,-0.37165645,-0.59538,-0.3616371,840.9158,812.3077,974.68866,853.00366,723.2601,-0.00567626953125,-0.02337646484375,0.98614501953125,1.831817626953125,-4.4561767578125,0.6878662109375,1.0,1.0,1.0,4.0,1.0,85.0,event
11:38:49.520,0.6732811,0.4673036,0.93043804,0.30037165,1.0125195,0.21436137,0.45979702,0.07523043,0.5306195,0.31985673,0.41848785,0.25224382,0.45234692,0.28460374,-0.16463774,0.25007212,0.039187763,-0.37165645,-0.59538,-0.3616371,972.27106,807.0696,1091.1355,861.4652,750.65936,-0.00567626953125,-0.02337646484375,0.98614501953125,1.831817626953125,-4.4561767578125,0.6878662109375,1.0,1.0,1.0,4.0,1.0,85.0,event
11:38:49.520,0.6732811,0.4673036,0.93043804,0.30037165,1.0125195,0.21436137,0.45979702,0.07523043,0.5306195,0.31985673,0.41848785,0.25224382,0.45234692,0.28460374,-0.16463774,0.25007212,0.039187763,-0.37165645,-0.59538,-0.3616371,922.3077,808.2784,746.63007,853.00366,925.9341,-0.00567626953125,-0.02337646484375,0.98614501953125,1.831817626953125,-4.4561767578125,0.6878662109375,1.0,1.0,1.0,4.0,1.0,85.0,event
11:38:49.521,0.6732811,0.4673036,0.93043804,0.30037165,1.0125195,0.21436137,0.45979702,0.07523043,0.5306195,0.31985673,0.41848785,0.25224382,0.45234692,0.28460374,-0.16463774,0.25007212,0.039187763,-0.37165645,-0.59538,-0.3616371,763.5531,810.293,444.43222,833.663,963.00366,-0.00567626953125,-0.02337646484375,0.98614501953125,1.831817626953125,-4.4561767578125,0.6878662109375,1.0,1.0,1.0,4.0,1.0,85.0,event
11:38:49.522,0.6732811,0.4673036,0.93043804,0.30037165,1.0125195,0.21436137,0.45979702,0.07523043,0.5306195,0.31985673,0.41848785,0.25224382,0.45234692,0.28460374,-0.16463774,0.25007212,0.039187763,-0.37165645,-0.59538,-0.3616371,711.978,811.9048,601.5751,824.7985,734.1392,-0.00567626953125,-0.02337646484375,0.98614501953125,1.831817626953125,-4.4561767578125,0.6878662109375,1.0,1.0,1.0,4.0,1.0,85.0,event
11:38:49.523,0.6732811,0.4673036,0.93043804,0.30037165,1.0125195,0.21436137,0.45979702,0.07523043,0.5306195,0.31985673,0.41848785,0.25224382,0.45234692,0.28460374,-0.16463774,0.25007212,0.039187763,-0.37165645,-0.59538,-0.3616371,811.50183,810.696,743.00366,833.2601,692.23444,-0.00567626953125,-0.02337646484375,0.98614501953125,1.831817626953125,-4.4561767578125,0.6878662109375,1.0,1.0,1.0,4.0,1.0,85.0,event
11:38:49.524,0.6732811,0.4673036,0.93043804,0.30037165,1.0125195,0.21436137,0.45979702,0.07523043,0.5306195,0.31985673,0.41848785,0.25224382,0.45234692,0.28460374,-0.16463774,0.25007212,0.039187763,-0.37165645,-0.59538,-0.3616371,942.0513,797.3993,551.2088,842.9304,853.00366,-0.00567626953125,-0.02337646484375,0.98614501953125,1.831817626953125,-4.4561767578125,0.6878662109375,1.0,1.0,1.0,4.0,1.0,85.0,event
11:38:49.525,0.6732811,0.4673036,0.93043804,0.30037165,1.0125195,0.21436137,0.45979702,0.07523043,0.5306195,0.31985673,0.41848785,0.25224382,0.45234692,0.28460374,-0.16463774,0.25007212,0.039187763,-0.37165645,-0.59538,-0.3616371,926.337,803.44324,377.54578,835.6777,983.95605,-0.00567626953125,-0.02337646484375,0.98614501953125,1.831817626953125,-4.4561767578125,0.6878662109375,1.0,1.0,1.0,4.0,1.0,85.0,event
11:38:49.526,0.6732811,0.4673036,0.93043804,0.30037165,1.0125195,0.21436137,0.45979702,0.07523043,0.5306195,0.31985673,0.41848785,0.25224382,0.45234692,0.28460374,-0.16463774,0.25007212,0.039187763,-0.37165645,-0.59538,-0.3616371,782.49084,818.7546,799.41394,811.50183,780.4762,-0.00567626953125,-0.02337646484375,0.98614501953125,1.831817626953125,-4.4561767578125,0.6878662109375,1.0,1.0,1.0,4.0,1.0,85.0,event
11:38:49.550,0.6732811,0.4673036,0.93043804,0.30037165,1.0125195,0.21436137,0.45979702,0.07523043,0.5306195,0.31985673,0.41848785,0.25224382,0.45234692,0.28460374,-0.16463774,0.25007212,0.039187763,-0.37165645,-0.59538,-0.3616371,703.91943,807.0696,930.7692,809.0842,730.10986,-0.0079345703125,-0.02093505859375,0.9853515625,2.1533203125,-3.18511962890625,0.814971923828125,1.0,1.0,1.0,4.0,1.0,85.0,event
11:38:49.551,0.6732811,0.4673036,0.93043804,0.30037165,1.0125195,0.21436137,0.45979702,0.07523043,0.5306195,0.31985673,0.41848785,0.25224382,0.45234692,0.28460374,-0.16463774,0.25007212,0.039187763,-0.37165645,-0.59538,-0.3616371,793.7729,801.8315,788.93774,828.8278,782.49084,-0.0079345703125,-0.02093505859375,0.9853515625,2.1533203125,-3.18511962890625,0.814971923828125,1.0,1.0,1.0,4.0,1.0,85.0,event
11:38:49.552,0.6732811,0.4673036,0.93043804,0.30037165,1.0125195,0.21436137,0.45979702,0.07523043,0.5306195,0.31985673,0.41848785,0.25224382,0.45234692,0.28460374,-0.16463774,0.25007212,0.039187763,-0.37165645,-0.59538,-0.3616371,942.0513,808.2784,919.0842,844.1392,681.3553,-0.0079345703125,-0.02093505859375,0.9853515625,2.1533203125,-3.18511962890625,0.814971923828125,1.0,1.0,1.0,4.0,1.0,85.0,event
11:38:49.553,0.6732811,0.4673036,0.93043804,0.30037165,1.0125195,0.21436137,0.45979702,0.07523043,0.5306195,0.31985673,0.41848785,0.25224382,0.45234692,0.28460374,-0.16463774,0.25007212,0.039187763,-0.37165645,-0.59538,-0.3616371,939.6337,805.05493,1030.6959,833.2601,644.2857,-0.0079345703125,-0.02093505859375,0.9853515625,2.1533203125,-3.18511962890625,0.814971923828125,1.0,1.0,1.0,4.0,1.0,85.0,event
11:38:49.559,0.6732811,0.4673036,0.93043804,0.30037165,1.0125195,0.21436137,0.45979702,0.07523043,0.5306195,0.31985673,0.41848785,0.25224382,0.45234692,0.28460374,-0.16463774,0.25007212,0.039187763,-0.37165645,-0.59538,-0.3616371,788.93774,795.78754,913.44324,815.5311,736.9597,-0.0079345703125,-0.02093505859375,0.9853515625,2.1533203125,-3.18511962890625,0.814971923828125,1.0,1.0,1.0,4.0,1.0,85.0,event
11:38:49.560,0.6732811,0.4673036,0.93043804,0.30037165,1.0125195,0.21436137,0.45979702,0.07523043,0.5306195,0.31985673,0.41848785,0.25224382,0.45234692,0.28460374,-0.16463774,0.25007212,0.039187763,-0.37165645,-0.59538,-0.3616371,697.8755,795.38464,580.2198,814.7253,840.10986,-0.0079345703125,-0.02093505859375,0.9853515625,2.1533203125,-3.18511962890625,0.814971923828125,1.0,1.0,1.0,4.0,1.0,85.0,event
11:38:49.561,0.6732811,0.4673036,0.93043804,0.30037165,1.0125195,0.21436137,0.45979702,0.07523043,0.5306195,0.31985673,0.41848785,0.25224382,0.45234692,0.28460374,-0.16463774,0.25007212,0.039187763,-0.37165645,-0.59538,-0.3616371,753.0769,791.75824,597.1429,813.91943,840.5128,-0.0079345703125,-0.02093505859375,0.9853515625,2.1533203125,-3.18511962890625,0.814971923828125,1.0,1.0,1.0,4.0,1.0,85.0,event
11:38:49.562,0.6732811,0.4673036,0.93043804,0.30037165,1.0125195,0.21436137,0.45979702,0.07523043,0.5306195,0.31985673,0.41848785,0.25224382,0.45234692,0.28460374,-0.16463774,0.25007212,0.039187763,-0.37165645,-0.59538,-0.3616371,902.1612,786.1172,956.9597,823.1868,739.7802,-0.0079345703125,-0.02093505859375,0.9853515625,2.1533203125,-3.18511962890625,0.814971923828125,1.0,1.0,1.0,4.0,1.0,85.0,event
11:38:49.567,0.6732811,0.4673036,0.93043804,0.30037165,1.0125195,0.21436137,0.45979702,0.07523043,0.5306195,0.31985673,0.41848785,0.25224382,0.45234692,0.28460374,-0.16463774,0.25007212,0.039187763,-0.37165645,-0.59538,-0.3616371,937.2161,790.54944,981.53845,824.3956,795.38464,-0.0079345703125,-0.02093505859375,0.9853515625,2.1533203125,-3.18511962890625,0.814971923828125,1.0,1.0,1.0,4.0,1.0,85.0,event
11:38:49.568,0.6732811,0.4673036,0.93043804,0.30037165,1.0125195,0.21436137,0.45979702,0.07523043,0.5306195,0.31985673,0.41848785,0.25224382,0.45234692,0.28460374,-0.16463774,0.25007212,0.039187763,-0.37165645,-0.59538,-0.3616371,776.04395,778.0586,441.61172,796.1905,1060.9158,-0.0079345703125,-0.02093505859375,0.9853515625,2.1533203125,-3.18511962890625,0.814971923828125,1.0,1.0,1.0,4.0,1.0,85.0,event
11:38:49.570,0.6732811,0.4673036,0.93043804,0.30037165,1.0125195,0.21436137,0.45979702,0.07523043,0.5306195,0.31985673,0.41848785,0.25224382,0.45234692,0.28460374,-0.16463774,0.25007212,0.039187763,-0.37165645,-0.59538,-0.3616371,647.50916,763.5531,552.4176,769.19415,891.28204,-0.0079345703125,-0.02093505859375,0.9853515625,2.1533203125,-3.18511962890625,0.814971923828125,1.0,1.0,1.0,4.0,1.0,85.0,event
11:38:49.571,0.6732811,0.4673036,0.93043804,0.30037165,1.0125195,0.21436137,0.45979702,0.07523043,0.5306195,0.31985673,0.41848785,0.25224382,0.45234692,0.28460374,-0.16463774,0.25007212,0.039187763,-0.37165645,-0.59538,-0.3616371,699.4872,752.674,861.4652,776.04395,748.6447,-0.0079345703125,-0.02093505859375,0.9853515625,2.1533203125,-3.18511962890625,0.814971923828125,1.0,1.0,1.0,4.0,1.0,85.0,event
11:38:49.614,0.6732811,0.4673036,0.93043804,0.30037165,1.0125195,0.21436137,0.45979702,0.07523043,0.5306195,0.31985673,0.41848785,0.25224382,0.45234692,0.28460374,-0.16463774,0.25007212,0.039187763,-0.37165645,-0.59538,-0.3616371,844.5421,744.61536,799.011,792.96704,760.7326,-0.0120849609375,-0.02264404296875,0.98480224609375,2.6019287109375,-3.828125,-0.37384033203125,1.0,1.0,1.0,4.0,1.0,85.0,event
11:38:49.616,0.6732811,0.4673036,0.93043804,0.30037165,1.0125195,0.21436137,0.45979702,0.07523043,0.5306195,0.31985673,0.41848785,0.25224382,0.45234692,0.28460374,-0.16463774,0.25007212,0.039187763,-0.37165645,-0.59538,-0.3616371,879.19415,738.1685,726.8865,775.64105,785.31134,-0.0120849609375,-0.02264404296875,0.98480224609375,2.6019287109375,-3.828125,-0.37384033203125,1.0,1.0,1.0,4.0,1.0,85.0,event
11:38:49.617,0.6732811,0.4673036,0.93043804,0.30037165,1.0125195,0.21436137,0.45979702,0.07523043,0.5306195,0.31985673,0.41848785,0.25224382,0.45234692,0.28460374,-0.16463774,0.25007212,0.039187763,-0.37165645,-0.59538,-0.3616371,732.52747,740.18317,882.4176,726.8865,736.9597,-0.0120849609375,-0.02264404296875,0.98480224609375,2.6019287109375,-3.828125,-0.37384033203125,1.0,1.0,1.0,4.0,1.0,85.0,event
11:38:49.618,0.6732811,0.4673036,0.93043804,0.30037165,1.0125195,0.21436137,0.45979702,0.07523043,0.5306195,0.31985673,0.41848785,0.25224382,0.45234692,0.28460374,-0.16463774,0.25007212,0.039187763,-0.37165645,-0.59538,-0.3616371,579.81683,745.0183,930.7692,682.5641,681.75824,-0.0120849609375,-0.02264404296875,0.98480224609375,2.6019287109375,-3.828125,-0.37384033203125,1.0,1.0,1.0,4.0,1.0,85.0,event
11:38:49.619,0.6732811,0.4673036,0.93043804,0.30037165,1.0125195,0.21436137,0.45979702,0.07523043,0.5306195,0.31985673,0.41848785,0.25224382,0.45234692,0.28460374,-0.16463774,0.25007212,0.039187763,-0.37165645,-0.59538,-0.3616371,588.68134,771.2088,815.9341,672.0879,748.6447,-0.0120849609375,-0.02264404296875,0.98480224609375,2.6019287109375,-3.828125,-0.37384033203125,1.0,1.0,1.0,4.0,1.0,85.0,event
11:38:49.620,0.6732811,0.4673036,0.93043804,0.30037165,1.0125195,0.21436137,0.45979702,0.07523043,0.5306195,0.31985673,0.41848785,0.25224382,0.45234692,0.28460374,-0.16463774,0.25007212,0.039187763,-0.37165645,-0.59538,-0.3616371,710.7692,801.02563,716.8132,666.8498,799.41394,-0.0120849609375,-0.02264404296875,0.98480224609375,2.6019287109375,-3.828125,-0.37384033203125,1.0,1.0,1.0,4.0,1.0,85.0,event
11:38:49.621,0.6732811,0.4673036,0.93043804,0.30037165,1.0125195,0.21436137,0.45979702,0.07523043,0.5306195,0.31985673,0.41848785,0.25224382,0.45234692,0.28460374,-0.16463774,0.25007212,0.039187763,-0.37165645,-0.59538,-0.3616371,764.7619,828.022,688.20514,643.8828,807.8755,-0.0120849609375,-0.02264404296875,0.98480224609375,2.6019287109375,-3.828125,-0.37384033203125,1.0,1.0,1.0,4.0,1.0,85.0,event
11:38:49.621,0.6732811,0.4673036,0.93043804,0.30037165,1.0125195,0.21436137,0.45979702,0.07523043,0.5306195,0.31985673,0.41848785,0.25224382,0.45234692,0.28460374,-0.16463774,0.25007212,0.039187763,-0.37165645,-0.59538,-0.3616371,635.0183,853.4066,817.9487,609.2308,784.5055,-0.0120849609375,-0.02264404296875,0.98480224609375,2.6019287109375,-3.828125,-0.37384033203125,1.0,1.0,1.0,4.0,1.0,85.0,event
11:38:49.622,0.6732811,0.4673036,0.93043804,0.30037165,1.0125195,0.21436137,0.45979702,0.07523043,0.5306195,0.31985673,0.41848785,0.25224382,0.45234692,0.28460374,-0.16463774,0.25007212,0.039187763,-0.37165645,-0.59538,-0.3616371,463.7729,862.674,552.8205,574.9817,811.9048,-0.0120849609375,-0.02264404296875,0.98480224609375,2.6019287109375,-3.828125,-0.37384033203125,1.0,1.0,1.0,4.0,1.0,85.0,event
11:38:49.623,0.6732811,0.4673036,0.93043804,0.30037165,1.0125195,0.21436137,0.45979702,0.07523043,0.5306195,0.31985673,0.41848785,0.25224382,0.45234692,0.28460374,-0.16463774,0.25007212,0.039187763,-0.37165645,-0.59538,-0.3616371,452.08792,882.01465,132.96703,570.54944,951.7216,-0.0120849609375,-0.02264404296875,0.98480224609375,2.6019287109375,-3.828125,-0.37384033203125,1.0,1.0,1.0,4.0,1.0,85.0,event
11:38:49.624,0.6732811,0.4673036,0.93043804,0.30037165,1.0125195,0.21436137,0.45979702,0.07523043,0.5306195,0.31985673,0.41848785,0.25224382,0.45234692,0.28460374,-0.16463774,0.25007212,0.039187763,-0.37165645,-0.59538,-0.3616371,601.1722,896.52014,780.07324,581.4286,739.3773,-0.0120849609375,-0.02264404296875,0.98480224609375,2.6019287109375,-3.828125,-0.37384033203125,1.0,1.0,1.0,4.0,1.0,85.0,event
11:38:49.624,0.6732811,0.4673036,0.93043804,0.30037165,1.0125195,0.21436137,0.45979702,0.07523043,0.5306195,0.31985673,0.41848785,0.25224382,0.45234692,0.28460374,-0.16463774,0.25007212,0.039187763,-0.37165645,-0.59538,-0.3616371,705.12823,885.2381,1087.9121,587.0696,674.10254,-0.0120849609375,-0.02264404296875,0.98480224609375,2.6019287109375,-3.828125,-0.37384033203125,1.0,1.0,1.0,4.0,1.0,85.0,event
11:38:49.670,0.6732811,0.4673036,0.93043804,0.30037165,1.0125195,0.21436137,0.45979702,0.07523043,0.5306195,0.31985673,0.41848785,0.25224382,0.45234692,0.28460374,-0.16463774,0.25007212,0.039187763,-0.37165645,-0.59538,-0.3616371,608.4249,879.59705,749.85345,569.34064,763.95605,-0.0120849609375,-0.02264404296875,0.98480224609375,2.6019287109375,-3.828125,-0.37384033203125,1.0,1.0,1.0,4.0,1.0,85.0,event
11:38:49.671,0.6732811,0.4673036,0.93043804,0.30037165,1.0125195,0.21436137,0.45979702,0.07523043,0.5306195,0.31985673,0.41848785,0.25224382,0.45234692,0.28460374,-0.16463774,0.25007212,0.039187763,-0.37165645,-0.59538,-0.3616371,480.29303,886.8498,753.8828,568.5348,719.2308,-0.0120849609375,-0.02264404296875,0.98480224609375,2.6019287109375,-3.828125,-0.37384033203125,1.0,1.0,1.0,4.0,1.0,85.0,event
11:38:49.673,0.6732811,0.4673036,0.93043804,0.30037165,1.0125195,0.21436137,0.45979702,0.07523043,0.5306195,0.31985673,0.41848785,0.25224382,0.45234692,0.28460374,-0.16463774,0.25007212,0.039187763,-0.37165645,-0.59538,-0.3616371,478.6813,883.22345,795.38464,577.3993,722.8571,-0.0120849609375,-0.02264404296875,0.98480224609375,2.6019287109375,-3.828125,-0.37384033203125,1.0,1.0,1.0,4.0,1.0,85.0,event
11:38:49.674,0.6732811,0.4673036,0.93043804,0.30037165,1.0125195,0.21436137,0.45979702,0.07523043,0.5306195,0.31985673,0.41848785,0.25224382,0.45234692,0.28460374,-0.16463774,0.25007212,0.039187763,-0.37165645,-0.59538,-0.3616371,608.022,877.98535,896.9231,592.71063,774.43225,-0.0120849609375,-0.02264404296875,0.98480224609375,2.6019287109375,-3.828125,-0.37384033203125,1.0,1.0,1.0,4.0,1.0,85.0,event
11:38:49.675,0.6732811,0.4673036,0.93043804,0.30037165,1.0125195,0.21436137,0.45979702,0.07523043,0.5306195,0.31985673,0.41848785,0.25224382,0.45234692,0.28460374,-0.16463774,0.25007212,0.039187763,-0.37165645,-0.59538,-0.3616371,720.0366,869.92676,698.2784,608.8278,896.1172,-0.0120849609375,-0.02264404296875,0.98480224609375,2.6019287109375,-3.828125,-0.37384033203125,1.0,1.0,1.0,4.0,1.0,85.0,event
11:38:49.677,0.6732811,0.4673036,0.93043804,0.30037165,1.0125195,0.21436137,0.45979702,0.07523043,0.5306195,0.31985673,0.41848785,0.25224382,0.45234692,0.28460374,-0.16463774,0.25007212,0.039187763,-0.37165645,-0.59538,-0.3616371,648.71796,866.30035,540.7326,595.5311,857.4359,-0.0120849609375,-0.02264404296875,0.98480224609375,2.6019287109375,-3.828125,-0.37384033203125,1.0,1.0,1.0,4.0,1.0,85.0,event
11:38:49.682,0.6732811,0.4673036,0.93043804,0.30037165,1.0125195,0.21436137,0.45979702,0.07523043,0.5306195,0.31985673,0.41848785,0.25224382,0.45234692,0.28460374,-0.16463774,0.25007212,0.039187763,-0.37165645,-0.59538,-0.3616371,521.79486,861.8681,635.0183,596.7399,791.75824,-0.0120849609375,-0.02264404296875,0.98480224609375,2.6019287109375,-3.828125,-0.37384033203125,1.0,1.0,1.0,4.0,1.0,85.0,event
11:38:49.683,0.6732811,0.4673036,0.93043804,0.30037165,1.0125195,0.21436137,0.45979702,0.07523043,0.5306195,0.31985673,0.41848785,0.25224382,0.45234692,0.28460374,-0.16463774,0.25007212,0.039187763,-0.37165645,-0.59538,-0.3616371,506.48352,853.8095,793.36993,608.4249,801.8315,-0.0120849609375,-0.02264404296875,0.98480224609375,2.6019287109375,-3.828125,-0.37384033203125,1.0,1.0,1.0,4.0,1.0,85.0,event
11:38:49.684,0.6732811,0.4673036,0.93043804,0.30037165,1.0125195,0.21436137,0.45979702,0.07523043,0.5306195,0.31985673,0.41848785,0.25224382,0.45234692,0.28460374,-0.16463774,0.25007212,0.039187763,-0.37165645,-0.59538,-0.3616371,630.58606,835.2747,476.26373,635.82416,962.1978,-0.0120849609375,-0.02264404296875,0.98480224609375,2.6019287109375,-3.828125,-0.37384033203125,1.0,1.0,1.0,4.0,1.0,85.0,event
11:38:49.685,0.6732811,0.4673036,0.93043804,0.30037165,1.0125195,0.21436137,0.45979702,0.07523043,0.5306195,0.31985673,0.41848785,0.25224382,0.45234692,0.28460374,-0.16463774,0.25007212,0.039187763,-0.37165645,-0.59538,-0.3616371,751.4652,846.55676,1081.0623,673.69965,732.1245,-0.0120849609375,-0.02264404296875,0.98480224609375,2.6019287109375,-3.828125,-0.37384033203125,1.0,1.0,1.0,4.0,1.0,85.0,event
11:38:49.685,0.6732811,0.4673036,0.93043804,0.30037165,1.0125195,0.21436137,0.45979702,0.07523043,0.5306195,0.31985673,0.41848785,0.25224382,0.45234692,0.28460374,-0.16463774,0.25007212,0.039187763,-0.37165645,-0.59538,-0.3616371,784.90845,844.94507,655.16486,670.87915,898.5348,-0.0120849609375,-0.02264404296875,0.98480224609375,2.6019287109375,-3.828125,-0.37384033203125,1.0,1.0,1.0,4.0,1.0,85.0,event
11:38:49.686,0.6732811,0.4673036,0.93043804,0.30037165,1.0125195,0.21436137,0.45979702,0.07523043,0.5306195,0.31985673,0.41848785,0.25224382,0.45234692,0.28460374,-0.16463774,0.25007212,0.039187763,-0.37165645,-0.59538,-0.3616371,604.7985,824.7985,865.89746,676.1172,755.4945,-0.0120849609375,-0.02264404296875,0.98480224609375,2.6019287109375,-3.828125,-0.37384033203125,1.0,1.0,1.0,4.0,1.0,85.0,event
11:38:49.733,0.6732811,0.4673036,0.93043804,0.30037165,1.0125195,0.21436137,0.45979702,0.07523043,0.5306195,0.31985673,0.41848785,0.25224382,0.45234692,0.28460374,-0.16463774,0.25007212,0.039187763,-0.37165645,-0.59538,-0.3616371,576.99634,823.9927,809.89014,699.89014,753.0769,-0.009033203125,-0.01812744140625,0.99395751953125,2.2430419921875,-2.594451904296875,-0.2093505859375,1.0,1.0,1.0,4.0,1.0,85.0,event
11:38:49.735,0.6732811,0.4673036,0.93043804,0.30037165,1.0125195,0.21436137,0.45979702,0.07523043,0.5306195,0.31985673,0.41848785,0.25224382,0.45234692,0.28460374,-0.16463774,0.25007212,0.039187763,-0.37165645,-0.59538,-0.3616371,706.7399,821.5751,1058.0952,731.7216,747.03296,-0.009033203125,-0.01812744140625,0.99395751953125,2.2430419921875,-2.594451904296875,-0.2093505859375,1.0,1.0,1.0,4.0,1.0,85.0,event
11:38:49.735,0.6732811,0.4673036,0.93043804,0.30037165,1.0125195,0.21436137,0.45979702,0.07523043,0.5306195,0.31985673,0.41848785,0.25224382,0.45234692,0.28460374,-0.16463774,0.25007212,0.039187763,-0.37165645,-0.59538,-0.3616371,866.30035,800.2198,1156.8132,759.92676,784.90845,-0.009033203125,-0.01812744140625,0.99395751953125,2.2430419921875,-2.594451904296875,-0.2093505859375,1.0,1.0,1.0,4.0,1.0,85.0,event
11:38:49.736,0.6732811,0.4673036,0.93043804,0.30037165,1.0125195,0.21436137,0.45979702,0.07523043,0.5306195,0.31985673,0.41848785,0.25224382,0.45234692,0.28460374,-0.16463774,0.25007212,0.039187763,-0.37165645,-0.59538,-0.3616371,849.3773,786.9231,931.5751,759.5238,805.4579,-0.009033203125,-0.01812744140625,0.99395751953125,2.2430419921875,-2.594451904296875,-0.2093505859375,1.0,1.0,1.0,4.0,1.0,85.0,event
11:38:49.737,0.6732811,0.4673036,0.93043804,0.30037165,1.0125195,0.21436137,0.45979702,0.07523043,0.5306195,0.31985673,0.41848785,0.25224382,0.45234692,0.28460374,-0.16463774,0.25007212,0.039187763,-0.37165645,-0.59538,-0.3616371,715.2015,788.93774,757.9121,757.50916,789.7436,-0.009033203125,-0.01812744140625,0.99395751953125,2.2430419921875,-2.594451904296875,-0.2093505859375,1.0,1.0,1.0,4.0,1.0,85.0,event
11:38:49.738,0.6732811,0.4673036,0.93043804,0.30037165,1.0125195,0.21436137,0.45979702,0.07523043,0.5306195,0.31985673,0.41848785,0.25224382,0.45234692,0.28460374,-0.16463774,0.25007212,0.039187763,-0.37165645,-0.59538,-0.3616371,668.0586,786.9231,688.20514,778.0586,828.8278,-0.009033203125,-0.01812744140625,0.99395751953125,2.2430419921875,-2.594451904296875,-0.2093505859375,1.0,1.0,1.0,4.0,1.0,85.0,event
11:38:49.738,0.6732811,0.4673036,0.93043804,0.30037165,1.0125195,0.21436137,0.45979702,0.07523043,0.5306195,0.31985673,0.41848785,0.25224382,0.45234692,0.28460374,-0.16463774,0.25007212,0.039187763,-0.37165645,-0.59538,-0.3616371,770.0,784.90845,742.1978,801.4286,882.4176,-0.009033203125,-0.01812744140625,0.99395751953125,2.2430419921875,-2.594451904296875,-0.2093505859375,1.0,1.0,1.0,4.0,1.0,85.0,event
11:38:49.739,0.6732811,0.4673036,0.93043804,0.30037165,1.0125195,0.21436137,0.45979702,0.07523043,0.5306195,0.31985673,0.41848785,0.25224382,0.45234692,0.28460374,-0.16463774,0.25007212,0.039187763,-0.37165645,-0.59538,-0.3616371,926.7399,772.01465,655.16486,828.8278,1033.5165,-0.009033203125,-0.01812744140625,0.99395751953125,2.2430419921875,-2.594451904296875,-0.2093505859375,1.0,1.0,1.0,4.0,1.0,85.0,event
11:38:49.740,0.6732811,0.4673036,0.93043804,0.30037165,1.0125195,0.21436137,0.45979702,0.07523043,0.5306195,0.31985673,0.41848785,0.25224382,0.45234692,0.28460374,-0.16463774,0.25007212,0.039187763,-0.37165645,-0.59538,-0.3616371,931.978,770.40295,185.75092,832.0513,1212.0146,-0.009033203125,-0.01812744140625,0.99395751953125,2.2430419921875,-2.594451904296875,-0.2093505859375,1.0,1.0,1.0,4.0,1.0,85.0,event
11:38:49.741,0.6732811,0.4673036,0.93043804,0.30037165,1.0125195,0.21436137,0.45979702,0.07523043,0.5306195,0.31985673,0.41848785,0.25224382,0.45234692,0.28460374,-0.16463774,0.25007212,0.039187763,-0.37165645,-0.59538,-0.3616371,730.5128,811.50183,914.65204,830.84247,728.9011,-0.009033203125,-0.01812744140625,0.99395751953125,2.2430419921875,-2.594451904296875,-0.2093505859375,1.0,1.0,1.0,4.0,1.0,85.0,event
11:38:49.741,0.6732811,0.4673036,0.93043804,0.30037165,1.0125195,0.21436137,0.45979702,0.07523043,0.5306195,0.31985673,0.41848785,0.25224382,0.45234692,0.28460374,-0.16463774,0.25007212,0.039187763,-0.37165645,-0.59538,-0.3616371,808.68134,798.60803,513.3333,822.7839,886.04395,-0.009033203125,-0.01812744140625,0.99395751953125,2.2430419921875,-2.594451904296875,-0.2093505859375,1.0,1.0,1.0,4.0,1.0,85.0,event
11:38:49.742,0.6732811,0.4673036,0.93043804,0.30037165,1.0125195,0.21436137,0.45979702,0.07523043,0.5306195,0.31985673,0.41848785,0.25224382,0.45234692,0.28460374,-0.16463774,0.25007212,0.039187763,-0.37165645,-0.59538,-0.3616371,810.293,828.022,820.3663,853.8095,887.6557,-0.009033203125,-0.01812744140625,0.99395751953125,2.2430419921875,-2.594451904296875,-0.2093505859375,1.0,1.0,1.0,4.0,1.0,85.0,event
11:38:49.743,0.6732811,0.4673036,0.93043804,0.30037165,1.0125195,0.21436137,0.45979702,0.07523043,0.5306195,0.31985673,0.41848785,0.25224382,0.45234692,0.28460374,-0.16463774,0.25007212,0.039187763,-0.37165645,-0.59538,-0.3616371,975.89746,863.47986,944.0659,881.6117,803.44324,-0.0089111328125,-0.01275634765625,0.99188232421875,2.94586181640625,-3.880462646484375,1.233673095703125,1.0,1.0,1.0,4.0,1.0,85.0,event
11:38:49.744,0.6732811,0.4673036,0.93043804,0.30037165,1.0125195,0.21436137,0.45979702,0.07523043,0.5306195,0.31985673,0.41848785,0.25224382,0.45234692,0.28460374,-0.16463774,0.25007212,0.039187763,-0.37165645,-0.59538,-0.3616371,1006.52014,905.78754,1010.14655,887.6557,680.9524,-0.0089111328125,-0.01275634765625,0.99188232421875,2.94586181640625,-3.880462646484375,1.233673095703125,1.0,1.0,1.0,4.0,1.0,85.0,event
11:38:49.745,0.6732811,0.4673036,0.93043804,0.30037165,1.0125195,0.21436137,0.45979702,0.07523043,0.5306195,0.31985673,0.41848785,0.25224382,0.45234692,0.28460374,-0.16463774,0.25007212,0.039187763,-0.37165645,-0.59538,-0.3616371,868.315,940.4396,762.74725,876.3736,694.65204,-0.0089111328125,-0.01275634765625,0.99188232421875,2.94586181640625,-3.880462646484375,1.233673095703125,1.0,1.0,1.0,4.0,1.0,85.0,event
11:38:49.746,0.6732811,0.4673036,0.93043804,0.30037165,1.0125195,0.21436137,0.45979702,0.07523043,0.5306195,0.31985673,0.41848785,0.25224382,0.45234692,0.28460374,-0.16463774,0.25007212,0.039187763,-0.37165645,-0.59538,-0.3616371,757.50916,979.92676,535.4945,877.5824,758.315,-0.0089111328125,-0.01275634765625,0.99188232421875,2.94586181640625,-3.880462646484375,1.233673095703125,1.0,1.0,1.0,4.0,1.0,85.0,event
11:38:49.747,0.6732811,0.4673036,0.93043804,0.30037165,1.0125195,0.21436137,0.45979702,0.07523043,0.5306195,0.31985673,0.41848785,0.25224382,0.45234692,0.28460374,-0.16463774,0.25007212,0.039187763,-0.37165645,-0.59538,-0.3616371,821.5751,1030.2931,742.6007,897.326,736.9597,-0.0089111328125,-0.01275634765625,0.99188232421875,2.94586181640625,-3.880462646484375,1.233673095703125,1.0,1.0,1.0,4.0,1.0,85.0,event
11:38:49.748,0.6732811,0.4673036,0.93043804,0.30037165,1.0125195,0.21436137,0.45979702,0.07523043,0.5306195,0.31985673,0.41848785,0.25224382,0.45234692,0.28460374,-0.16463774,0.25007212,0.039187763,-0.37165645,-0.59538,-0.3616371,977.9121,1063.3334,778.46155,915.05493,762.74725,-0.0089111328125,-0.01275634765625,0.99188232421875,2.94586181640625,-3.880462646484375,1.233673095703125,1.0,1.0,1.0,4.0,1.0,85.0,event
11:38:49.749,0.6732811,0.4673036,0.93043804,0.30037165,1.0125195,0.21436137,0.45979702,0.07523043,0.5306195,0.31985673,0.41848785,0.25224382,0.45234692,0.28460374,-0.16463774,0.25007212,0.039187763,-0.37165645,-0.59538,-0.3616371,1015.38464,1094.762,560.4762,912.23444,884.83514,-0.0089111328125,-0.01275634765625,0.99188232421875,2.94586181640625,-3.880462646484375,1.233673095703125,1.0,1.0,1.0,4.0,1.0,85.0,event
11:38:49.750,0.6732811,0.4673036,0.93043804,0.30037165,1.0125195,0.21436137,0.45979702,0.07523043,0.5306195,0.31985673,0.41848785,0.25224382,0.45234692,0.28460374,-0.16463774,0.25007212,0.039187763,-0.37165645,-0.59538,-0.3616371,885.2381,1120.5494,168.42491,901.75824,1062.9304,-0.0089111328125,-0.01275634765625,0.99188232421875,2.94586181640625,-3.880462646484375,1.233673095703125,1.0,1.0,1.0,4.0,1.0,85.0,event
11:38:49.755,0.6732811,0.4673036,0.93043804,0.30037165,1.0125195,0.21436137,0.45979702,0.07523043,0.5306195,0.31985673,0.41848785,0.25224382,0.45234692,0.28460374,-0.16463774,0.25007212,0.039187763,-0.37165645,-0.59538,-0.3616371,776.4469,1166.0806,188.97437,892.8938,967.4359,-0.0089111328125,-0.01275634765625,0.99188232421875,2.94586181640625,-3.880462646484375,1.233673095703125,1.0,1.0,1.0,4.0,1.0,85.0,event
11:38:49.756,0.6732811,0.4673036,0.93043804,0.30037165,1.0125195,0.21436137,0.45979702,0.07523043,0.5306195,0.31985673,0.41848785,0.25224382,0.45234692,0.28460374,-0.16463774,0.25007212,0.039187763,-0.37165645,-0.59538,-0.3616371,823.1868,1181.7949,772.8205,896.52014,757.9121,-0.0089111328125,-0.01275634765625,0.99188232421875,2.94586181640625,-3.880462646484375,1.233673095703125,1.0,1.0,1.0,4.0,1.0,85.0,event
11:38:49.757,0.6732811,0.4673036,0.93043804,0.30037165,1.0125195,0.21436137,0.45979702,0.07523043,0.5306195,0.31985673,0.41848785,0.25224382,0.45234692,0.28460374,-0.16463774,0.25007212,0.039187763,-0.37165645,-0.59538,-0.3616371,962.6007,1195.8975,888.86444,914.65204,795.78754,-0.0089111328125,-0.01275634765625,0.99188232421875,2.94586181640625,-3.880462646484375,1.233673095703125,1.0,1.0,1.0,4.0,1.0,85.0,event
11:38:49.759,0.6732811,0.4673036,0.93043804,0.30037165,1.0125195,0.21436137,0.45979702,0.07523043,0.5306195,0.31985673,0.41848785,0.25224382,0.45234692,0.28460374,-0.16463774,0.25007212,0.039187763,-0.37165645,-0.59538,-0.3616371,1020.2198,1484.3956,636.63007,919.0842,880.40295,-0.0089111328125,-0.01275634765625,0.99188232421875,2.94586181640625,-3.880462646484375,1.233673095703125,1.0,1.0,1.0,4.0,1.0,85.0,event
11:38:49.799,0.6732811,0.4673036,0.93043804,0.30037165,1.0125195,0.21436137,0.45979702,0.07523043,0.5306195,0.31985673,0.41848785,0.25224382,0.45234692,0.28460374,-0.16463774,0.25007212,0.039187763,-0.37165645,-0.59538,-0.3616371,905.78754,4.4322343,792.5641,896.1172,795.38464,-0.0118408203125,-0.020263671875,0.98590087890625,1.48040771484375,-2.729034423828125,-0.25421142578125,1.0,1.0,1.0,4.0,1.0,85.0,event
11:38:49.799,0.6732811,0.4673036,0.93043804,0.30037165,1.0125195,0.21436137,0.45979702,0.07523043,0.5306195,0.31985673,0.41848785,0.25224382,0.45234692,0.28460374,-0.16463774,0.25007212,0.039187763,-0.37165645,-0.59538,-0.3616371,768.7912,1614.5421,896.1172,876.3736,699.4872,-0.0118408203125,-0.020263671875,0.98590087890625,1.48040771484375,-2.729034423828125,-0.25421142578125,1.0,1.0,1.0,4.0,1.0,85.0,event
11:38:49.800,0.6732811,0.4673036,0.93043804,0.30037165,1.0125195,0.21436137,0.45979702,0.07523043,0.5306195,0.31985673,0.41848785,0.25224382,0.45234692,0.28460374,-0.16463774,0.25007212,0.039187763,-0.37165645,-0.59538,-0.3616371,779.2674,1629.4506,798.60803,880.80585,735.7509,-0.0118408203125,-0.020263671875,0.98590087890625,1.48040771484375,-2.729034423828125,-0.25421142578125,1.0,1.0,1.0,4.0,1.0,85.0,event
11:38:49.800,0.6732811,0.4673036,0.93043804,0.30037165,1.0125195,0.21436137,0.45979702,0.07523043,0.5306195,0.31985673,0.41848785,0.25224382,0.45234692,0.28460374,-0.16463774,0.25007212,0.039187763,-0.37165645,-0.59538,-0.3616371,920.696,1628.2417,871.53845,896.1172,793.7729,-0.0118408203125,-0.020263671875,0.98590087890625,1.48040771484375,-2.729034423828125,-0.25421142578125,1.0,1.0,1.0,4.0,1.0,85.0,event
11:38:49.801,0.6732811,0.4673036,0.93043804,0.30037165,1.0125195,0.21436137,0.45979702,0.07523043,0.5306195,0.31985673,0.41848785,0.25224382,0.45234692,0.28460374,-0.16463774,0.25007212,0.039187763,-0.37165645,-0.59538,-0.3616371,1008.93774,1628.2417,945.6777,897.72894,768.7912,-0.0118408203125,-0.020263671875,0.98590087890625,1.48040771484375,-2.729034423828125,-0.25421142578125,1.0,1.0,1.0,4.0,1.0,85.0,event
11:38:49.801,0.6732811,0.4673036,0.93043804,0.30037165,1.0125195,0.21436137,0.45979702,0.07523043,0.5306195,0.31985673,0.41848785,0.25224382,0.45234692,0.28460374,-0.16463774,0.25007212,0.039187763,-0.37165645,-0.59538,-0.3616371,894.10254,1628.6447,722.0513,876.3736,768.7912,-0.0118408203125,-0.020263671875,0.98590087890625,1.48040771484375,-2.729034423828125,-0.25421142578125,1.0,1.0,1.0,4.0,1.0,85.0,event
11:38:49.802,0.6732811,0.4673036,0.93043804,0.30037165,1.0125195,0.21436137,0.45979702,0.07523043,0.5306195,0.31985673,0.41848785,0.25224382,0.45234692,0.28460374,-0.16463774,0.25007212,0.039187763,-0.37165645,-0.59538,-0.3616371,749.85345,1628.2417,392.45422,861.4652,907.3993,-0.0118408203125,-0.020263671875,0.98590087890625,1.48040771484375,-2.729034423828125,-0.25421142578125,1.0,1.0,1.0,4.0,1.0,85.0,event
11:38:49.803,0.6732811,0.4673036,0.93043804,0.30037165,1.0125195,0.21436137,0.45979702,0.07523043,0.5306195,0.31985673,0.41848785,0.25224382,0.45234692,0.28460374,-0.16463774,0.25007212,0.039187763,-0.37165645,-0.59538,-0.3616371,748.6447,1626.63,191.79488,866.7033,1043.9927,-0.0118408203125,-0.020263671875,0.98590087890625,1.48040771484375,-2.729034423828125,-0.25421142578125,1.0,1.0,1.0,4.0,1.0,85.0,event
11:38:49.803,0.6732811,0.4673036,0.93043804,0.30037165,1.0125195,0.21436137,0.45979702,0.07523043,0.5306195,0.31985673,0.41848785,0.25224382,0.45234692,0.28460374,-0.16463774,0.25007212,0.039187763,-0.37165645,-0.59538,-0.3616371,886.4469,1630.6593,767.1795,880.40295,792.96704,-0.0118408203125,-0.020263671875,0.98590087890625,1.48040771484375,-2.729034423828125,-0.25421142578125,1.0,1.0,1.0,4.0,1.0,85.0,event
