TimeStamp,Delta_TP9,Delta_AF7,Delta_AF8,Delta_TP10,Theta_TP9,Theta_AF7,Theta_AF8,Theta_TP10,Alpha_TP9,Alpha_AF7,Alpha_AF8,Alpha_TP10,Beta_TP9,Beta_AF7,Beta_AF8,Beta_TP10,Gamma_TP9,Gamma_AF7,Gamma_AF8,Gamma_TP10,RAW_TP9,RAW_AF7,RAW_AF8,RAW_TP10,AUX_RIGHT,Accelerometer_X,Accelerometer_Y,Accelerometer_Z,Gyro_X,Gyro_Y,Gyro_Z,HeadBandOn,HSI_TP9,HSI_AF7,HSI_AF8,HSI_TP10,Battery,Elements
12:33:17.183,0.7514398,0.4427027,0.93904763,1.2779598,0.615363,0.24890228,0.5627916,1.1148034,1.2288874,0.29282668,0.333197,1.17753,0.97502834,0.03703778,0.072626874,0.8971911,0.6894498,-0.4022772,-0.25639495,0.6707851,796.99634,807.0696,827.2161,789.7436,883.22345,-0.27203369140625,0.182373046875,0.93194580078125,3.4393310546875,-2.01873779296875,-1.1962890625,1.0,2.0,1.0,1.0,2.0,100.0,event
12:33:17.184,0.7514398,0.4427027,0.93904763,1.2779598,0.615363,0.24890228,0.5627916,1.1148034,1.2288874,0.29282668,0.333197,1.17753,0.97502834,0.03703778,0.072626874,0.8971911,0.6894498,-0.4022772,-0.25639495,0.6707851,803.44324,808.68134,826.8132,801.02563,772.01465,-0.27203369140625,0.182373046875,0.93194580078125,3.4393310546875,-2.01873779296875,-1.1962890625,1.0,2.0,1.0,1.0,2.0,100.0,event
12:33:17.185,0.7514398,0.4427027,0.93904763,1.2779598,0.615363,0.24890228,0.5627916,1.1148034,1.2288874,0.29282668,0.333197,1.17753,0.97502834,0.03703778,0.072626874,0.8971911,0.6894498,-0.4022772,-0.25639495,0.6707851,796.5934,807.47253,828.022,801.4286,665.2381,-0.27203369140625,0.182373046875,0.93194580078125,3.4393310546875,-2.01873779296875,-1.1962890625,1.0,2.0,1.0,1.0,2.0,100.0,event
12:33:17.185,0.7514398,0.4427027,0.93904763,1.2779598,0.615363,0.24890228,0.5627916,1.1148034,1.2288874,0.29282668,0.333197,1.17753,0.97502834,0.03703778,0.072626874,0.8971911,0.6894498,-0.4022772,-0.25639495,0.6707851,804.65204,813.1135,826.0073,814.3223,598.3516,-0.27203369140625,0.182373046875,0.93194580078125,3.4393310546875,-2.01873779296875,-1.1962890625,1.0,2.0,1.0,1.0,2.0,100.0,event
12:33:17.186,0.7514398,0.4427027,0.93904763,1.2779598,0.615363,0.24890228,0.5627916,1.1148034,1.2288874,0.29282668,0.333197,1.17753,0.97502834,0.03703778,0.072626874,0.8971911,0.6894498,-0.4022772,-0.25639495,0.6707851,793.7729,798.60803,825.6044,780.4762,734.5421,-0.27203369140625,0.182373046875,0.93194580078125,3.4393310546875,-2.01873779296875,-1.1962890625,1.0,2.0,1.0,1.0,2.0,100.0,event
12:33:17.186,0.7514398,0.4427027,0.93904763,1.2779598,0.615363,0.24890228,0.5627916,1.1148034,1.2288874,0.29282668,0.333197,1.17753,0.97502834,0.03703778,0.072626874,0.8971911,0.6894498,-0.4022772,-0.25639495,0.6707851,785.7143,803.0403,823.9927,790.54944,812.71063,-0.27203369140625,0.182373046875,0.93194580078125,3.4393310546875,-2.01873779296875,-1.1962890625,1.0,2.0,1.0,1.0,2.0,100.0,event
12:33:17.187,0.7514398,0.4427027,0.93904763,1.2779598,0.615363,0.24890228,0.5627916,1.1148034,1.2288874,0.29282668,0.333197,1.17753,0.97502834,0.03703778,0.072626874,0.8971911,0.6894498,-0.4022772,-0.25639495,0.6707851,786.1172,808.68134,817.9487,788.5348,833.2601,-0.27203369140625,0.182373046875,0.93194580078125,3.4393310546875,-2.01873779296875,-1.1962890625,1.0,2.0,1.0,1.0,2.0,100.0,event
12:33:17.187,0.7514398,0.4427027,0.93904763,1.2779598,0.615363,0.24890228,0.5627916,1.1148034,1.2288874,0.29282668,0.333197,1.17753,0.97502834,0.03703778,0.072626874,0.8971911,0.6894498,-0.4022772,-0.25639495,0.6707851,797.8022,801.8315,814.7253,768.7912,792.5641,-0.27203369140625,0.182373046875,0.93194580078125,3.4393310546875,-2.01873779296875,-1.1962890625,1.0,2.0,1.0,1.0,2.0,100.0,event
12:33:17.187,0.7514398,0.4427027,0.93904763,1.2779598,0.615363,0.24890228,0.5627916,1.1148034,1.2288874,0.29282668,0.333197,1.17753,0.97502834,0.03703778,0.072626874,0.8971911,0.6894498,-0.4022772,-0.25639495,0.6707851,794.57874,799.41394,817.9487,779.2674,952.9304,-0.27203369140625,0.182373046875,0.93194580078125,3.4393310546875,-2.01873779296875,-1.1962890625,1.0,2.0,1.0,1.0,2.0,100.0,event
12:33:17.188,0.7514398,0.43987447,0.8751737,1.2779598,0.615363,0.22864422,0.41974038,1.1148034,1.2288874,0.29932418,0.25150913,1.17753,0.97502834,0.012976005,0.06433096,0.8971911,0.6894498,-0.41401434,-0.28494853,0.6707851,802.23444,801.8315,819.15753,779.67035,831.2454,-0.27203369140625,0.182373046875,0.93194580078125,3.4393310546875,-2.01873779296875,-1.1962890625,1.0,2.0,1.0,1.0,2.0,100.0,event
12:33:17.190,0.7514398,0.43987447,0.8751737,1.2779598,0.615363,0.22864422,0.41974038,1.1148034,1.2288874,0.29932418,0.25150913,1.17753,0.97502834,0.012976005,0.06433096,0.8971911,0.6894498,-0.41401434,-0.28494853,0.6707851,799.81683,804.65204,821.1722,780.4762,726.8865,-0.27203369140625,0.182373046875,0.93194580078125,3.4393310546875,-2.01873779296875,-1.1962890625,1.0,2.0,1.0,1.0,2.0,100.0,event
12:33:17.191,0.7514398,0.43987447,0.8751737,1.2779598,0.615363,0.22864422,0.41974038,1.1148034,1.2288874,0.29932418,0.25150913,1.17753,0.97502834,0.012976005,0.06433096,0.8971911,0.6894498,-0.41401434,-0.28494853,0.6707851,773.22345,805.4579,816.7399,776.04395,801.02563,-0.27203369140625,0.182373046875,0.93194580078125,3.4393310546875,-2.01873779296875,-1.1962890625,1.0,2.0,1.0,1.0,2.0,100.0,event
12:33:17.239,0.7514398,0.43987447,0.8751737,1.2779598,0.615363,0.22864422,0.41974038,1.1148034,1.2288874,0.29932418,0.25150913,1.17753,0.97502834,0.012976005,0.06433096,0.8971911,0.6894498,-0.41401434,-0.28494853,0.6707851,768.3883,806.6667,809.4872,765.9707,798.60803,-0.27386474609375,0.18994140625,0.93804931640625,2.01873779296875,-3.0206298828125,-0.1495361328125,1.0,2.0,1.0,1.0,2.0,100.0,event
12:33:17.241,0.7514398,0.43987447,0.8751737,1.2779598,0.615363,0.22864422,0.41974038,1.1148034,1.2288874,0.29932418,0.25150913,1.17753,0.97502834,0.012976005,0.06433096,0.8971911,0.6894498,-0.41401434,-0.28494853,0.6707851,786.9231,811.50183,799.41394,788.93774,725.6777,-0.27386474609375,0.18994140625,0.93804931640625,2.01873779296875,-3.0206298828125,-0.1495361328125,1.0,2.0,1.0,1.0,2.0,100.0,event
12:33:17.242,0.7514398,0.43987447,0.8751737,1.2779598,0.615363,0.22864422,0.41974038,1.1148034,1.2288874,0.29932418,0.25150913,1.17753,0.97502834,0.012976005,0.06433096,0.8971911,0.6894498,-0.41401434,-0.28494853,0.6707851,803.0403,807.8755,809.0842,798.60803,702.3077,-0.27386474609375,0.18994140625,0.93804931640625,2.01873779296875,-3.0206298828125,-0.1495361328125,1.0,2.0,1.0,1.0,2.0,100.0,event
12:33:17.243,0.7514398,0.43987447,0.8751737,1.2779598,0.615363,0.22864422,0.41974038,1.1148034,1.2288874,0.29932418,0.25150913,1.17753,0.97502834,0.012976005,0.06433096,0.8971911,0.6894498,-0.41401434,-0.28494853,0.6707851,765.9707,796.5934,828.4249,759.92676,821.1722,-0.27386474609375,0.18994140625,0.93804931640625,2.01873779296875,-3.0206298828125,-0.1495361328125,1.0,2.0,1.0,1.0,2.0,100.0,event
12:33:17.243,0.7514398,0.43987447,0.8751737,1.2779598,0.615363,0.22864422,0.41974038,1.1148034,1.2288874,0.29932418,0.25150913,1.17753,0.97502834,0.012976005,0.06433096,0.8971911,0.6894498,-0.41401434,-0.28494853,0.6707851,786.52014,799.41394,828.8278,769.59705,837.6923,-0.27386474609375,0.18994140625,0.93804931640625,2.01873779296875,-3.0206298828125,-0.1495361328125,1.0,2.0,1.0,1.0,2.0,100.0,event
12:33:17.244,0.7514398,0.43987447,0.8751737,1.2779598,0.615363,0.22864422,0.41974038,1.1148034,1.2288874,0.29932418,0.25150913,1.17753,0.97502834,0.012976005,0.06433096,0.8971911,0.6894498,-0.41401434,-0.28494853,0.6707851,772.8205,805.05493,826.0073,781.28204,742.6007,-0.27386474609375,0.18994140625,0.93804931640625,2.01873779296875,-3.0206298828125,-0.1495361328125,1.0,2.0,1.0,1.0,2.0,100.0,event
12:33:17.245,0.7514398,0.43987447,0.8751737,1.2779598,0.615363,0.22864422,0.41974038,1.1148034,1.2288874,0.29932418,0.25150913,1.17753,0.97502834,0.012976005,0.06433096,0.8971911,0.6894498,-0.41401434,-0.28494853,0.6707851,790.54944,806.6667,826.0073,794.17584,760.32965,-0.27386474609375,0.18994140625,0.93804931640625,2.01873779296875,-3.0206298828125,-0.1495361328125,1.0,2.0,1.0,1.0,2.0,100.0,event
12:33:17.246,0.7514398,0.43987447,0.8751737,1.2779598,0.615363,0.22864422,0.41974038,1.1148034,1.2288874,0.29932418,0.25150913,1.17753,0.97502834,0.012976005,0.06433096,0.8971911,0.6894498,-0.41401434,-0.28494853,0.6707851,793.7729,801.4286,831.2454,797.8022,926.337,-0.27386474609375,0.18994140625,0.93804931640625,2.01873779296875,-3.0206298828125,-0.1495361328125,1.0,2.0,1.0,1.0,2.0,100.0,event
12:33:17.246,0.7514398,0.43987447,0.8751737,1.2779598,0.615363,0.22864422,0.41974038,1.1148034,1.2288874,0.29932418,0.25150913,1.17753,0.97502834,0.012976005,0.06433096,0.8971911,0.6894498,-0.41401434,-0.28494853,0.6707851,801.02563,802.23444,831.6484,798.20514,917.8755,-0.27386474609375,0.18994140625,0.93804931640625,2.01873779296875,-3.0206298828125,-0.1495361328125,1.0,2.0,1.0,1.0,2.0,100.0,event
12:33:17.247,0.7514398,0.43987447,0.8751737,1.2779598,0.615363,0.22864422,0.41974038,1.1148034,1.2288874,0.29932418,0.25150913,1.17753,0.97502834,0.012976005,0.06433096,0.8971911,0.6894498,-0.41401434,-0.28494853,0.6707851,808.68134,807.0696,830.0366,797.3993,649.12085,-0.27386474609375,0.18994140625,0.93804931640625,2.01873779296875,-3.0206298828125,-0.1495361328125,1.0,2.0,1.0,1.0,2.0,100.0,event
12:33:17.249,0.7514398,0.43987447,0.8751737,1.2779598,0.615363,0.22864422,0.41974038,1.1148034,1.2288874,0.29932418,0.25150913,1.17753,0.97502834,0.012976005,0.06433096,0.8971911,0.6894498,-0.41401434,-0.28494853,0.6707851,789.34064,812.3077,829.2308,794.57874,646.30035,-0.27386474609375,0.18994140625,0.93804931640625,2.01873779296875,-3.0206298828125,-0.1495361328125,1.0,2.0,1.0,1.0,2.0,100.0,event
12:33:17.250,0.7514398,0.43987447,0.8751737,1.2779598,0.615363,0.22864422,0.41974038,1.1148034,1.2288874,0.29932418,0.25150913,1.17753,0.97502834,0.012976005,0.06433096,0.8971911,0.6894498,-0.41401434,-0.28494853,0.6707851,790.9524,812.3077,822.7839,799.81683,745.42126,-0.27386474609375,0.18994140625,0.93804931640625,2.01873779296875,-3.0206298828125,-0.1495361328125,1.0,2.0,1.0,1.0,2.0,100.0,event
12:33:17.275,0.7514398,0.43987447,0.8751737,1.2779598,0.615363,0.22864422,0.41974038,1.1148034,1.2288874,0.29932418,0.25150913,1.17753,0.97502834,0.012976005,0.06433096,0.8971911,0.6894498,-0.41401434,-0.28494853,0.6707851,789.7436,805.8608,822.381,781.685,775.2381,-0.27386474609375,0.18994140625,0.93804931640625,2.01873779296875,-3.0206298828125,-0.1495361328125,1.0,2.0,1.0,1.0,2.0,100.0,event
12:33:17.277,0.7514398,0.43987447,0.8751737,1.2779598,0.615363,0.22864422,0.41974038,1.1148034,1.2288874,0.29932418,0.25150913,1.17753,0.97502834,0.012976005,0.06433096,0.8971911,0.6894498,-0.41401434,-0.28494853,0.6707851,779.67035,802.23444,823.1868,779.67035,718.8278,-0.27386474609375,0.18994140625,0.93804931640625,2.01873779296875,-3.0206298828125,-0.1495361328125,1.0,2.0,1.0,1.0,2.0,100.0,event
12:33:17.278,0.7514398,0.43987447,0.8751737,1.2779598,0.615363,0.22864422,0.41974038,1.1148034,1.2288874,0.29932418,0.25150913,1.17753,0.97502834,0.012976005,0.06433096,0.8971911,0.6894498,-0.41401434,-0.28494853,0.6707851,775.2381,809.4872,821.978,783.2967,730.10986,-0.27386474609375,0.18994140625,0.93804931640625,2.01873779296875,-3.0206298828125,-0.1495361328125,1.0,2.0,1.0,1.0,2.0,100.0,event
12:33:17.279,0.7514398,0.43987447,0.8751737,1.2779598,0.615363,0.22864422,0.41974038,1.1148034,1.2288874,0.29932418,0.25150913,1.17753,0.97502834,0.012976005,0.06433096,0.8971911,0.6894498,-0.41401434,-0.28494853,0.6707851,762.3443,809.4872,823.1868,765.16486,786.9231,-0.27386474609375,0.18994140625,0.93804931640625,2.01873779296875,-3.0206298828125,-0.1495361328125,1.0,2.0,1.0,1.0,2.0,100.0,event
12:33:17.280,0.7514398,0.43987447,0.8751737,1.2779598,0.615363,0.22864422,0.41974038,1.1148034,1.2288874,0.29932418,0.25150913,1.17753,0.97502834,0.012976005,0.06433096,0.8971911,0.6894498,-0.41401434,-0.28494853,0.6707851,770.0,796.1905,820.7692,786.9231,722.8571,-0.27386474609375,0.18994140625,0.93804931640625,2.01873779296875,-3.0206298828125,-0.1495361328125,1.0,2.0,1.0,1.0,2.0,100.0,event
12:33:17.281,0.7514398,0.43987447,0.8751737,1.2779598,0.615363,0.22864422,0.41974038,1.1148034,1.2288874,0.29932418,0.25150913,1.17753,0.97502834,0.012976005,0.06433096,0.8971911,0.6894498,-0.41401434,-0.28494853,0.6707851,791.75824,799.011,822.7839,799.011,791.75824,-0.27386474609375,0.18994140625,0.93804931640625,2.01873779296875,-3.0206298828125,-0.1495361328125,1.0,2.0,1.0,1.0,2.0,100.0,event
12:33:17.282,0.7514398,0.43987447,0.8751737,1.2779598,0.615363,0.22864422,0.41974038,1.1148034,1.2288874,0.29932418,0.25150913,1.17753,0.97502834,0.012976005,0.06433096,0.8971911,0.6894498,-0.41401434,-0.28494853,0.6707851,794.57874,805.8608,826.4103,772.4176,924.7253,-0.27386474609375,0.18994140625,0.93804931640625,2.01873779296875,-3.0206298828125,-0.1495361328125,1.0,2.0,1.0,1.0,2.0,100.0,event
12:33:17.283,0.7514398,0.43987447,0.8751737,1.2779598,0.615363,0.22864422,0.41974038,1.1148034,1.2288874,0.29932418,0.25150913,1.17753,0.97502834,0.012976005,0.06433096,0.8971911,0.6894498,-0.41401434,-0.28494853,0.6707851,810.293,801.8315,824.3956,774.0293,889.67035,-0.27386474609375,0.18994140625,0.93804931640625,2.01873779296875,-3.0206298828125,-0.1495361328125,1.0,2.0,1.0,1.0,2.0,100.0,event
12:33:17.283,0.7514398,0.43987447,0.8751737,1.2779598,0.615363,0.22864422,0.41974038,1.1148034,1.2288874,0.29932418,0.25150913,1.17753,0.97502834,0.012976005,0.06433096,0.8971911,0.6894498,-0.41401434,-0.28494853,0.6707851,774.83514,802.23444,825.2015,761.9414,1046.0073,-0.27386474609375,0.18994140625,0.93804931640625,2.01873779296875,-3.0206298828125,-0.1495361328125,1.0,2.0,1.0,1.0,2.0,100.0,event
12:33:17.284,0.7514398,0.43987447,0.8751737,1.2779598,0.615363,0.22864422,0.41974038,1.1148034,1.2288874,0.29932418,0.25150913,1.17753,0.97502834,0.012976005,0.06433096,0.8971911,0.6894498,-0.41401434,-0.28494853,0.6707851,832.4542,806.6667,826.8132,773.22345,653.5531,-0.27386474609375,0.18994140625,0.93804931640625,2.01873779296875,-3.0206298828125,-0.1495361328125,1.0,2.0,1.0,1.0,2.0,100.0,event
12:33:17.285,0.7514398,0.43987447,0.8751737,1.2779598,0.615363,0.22864422,0.41974038,1.1148034,1.2288874,0.29932418,0.25150913,1.17753,0.97502834,0.012976005,0.06433096,0.8971911,0.6894498,-0.41401434,-0.28494853,0.6707851,796.1905,808.68134,827.2161,774.0293,768.7912,-0.27386474609375,0.18994140625,0.93804931640625,2.01873779296875,-3.0206298828125,-0.1495361328125,1.0,2.0,1.0,1.0,2.0,100.0,event
12:33:17.286,0.7514398,0.43551674,0.80026597,1.2779598,0.615363,0.2000172,0.32328564,1.1148034,1.2288874,0.320133,0.19865385,1.17753,0.97502834,-0.009382623,0.05421006,0.8971911,0.6894498,-0.42536297,-0.33593917,0.6707851,786.9231,814.7253,823.9927,783.69965,753.8828,-0.27386474609375,0.18994140625,0.93804931640625,2.01873779296875,-3.0206298828125,-0.1495361328125,1.0,2.0,1.0,1.0,2.0,100.0,event
12:33:17.313,0.7514398,0.43551674,0.80026597,1.2779598,0.615363,0.2000172,0.32328564,1.1148034,1.2288874,0.320133,0.19865385,1.17753,0.97502834,-0.009382623,0.05421006,0.8971911,0.6894498,-0.42536297,-0.33593917,0.6707851,807.47253,818.7546,826.0073,783.69965,634.21246,-0.2730712890625,0.178466796875,0.93182373046875,1.308441162109375,-2.998199462890625,-0.336456298828125,1.0,2.0,1.0,1.0,2.0,100.0,event
12:33:17.314,0.7514398,0.43551674,0.80026597,1.2779598,0.615363,0.2000172,0.32328564,1.1148034,1.2288874,0.320133,0.19865385,1.17753,0.97502834,-0.009382623,0.05421006,0.8971911,0.6894498,-0.42536297,-0.33593917,0.6707851,806.26373,806.6667,828.4249,780.07324,660.0,-0.2730712890625,0.178466796875,0.93182373046875,1.308441162109375,-2.998199462890625,-0.336456298828125,1.0,2.0,1.0,1.0,2.0,100.0,event
12:33:17.315,0.7514398,0.43551674,0.80026597,1.2779598,0.615363,0.2000172,0.32328564,1.1148034,1.2288874,0.320133,0.19865385,1.17753,0.97502834,-0.009382623,0.05421006,0.8971911,0.6894498,-0.42536297,-0.33593917,0.6707851,790.14655,804.65204,833.663,790.14655,640.2564,-0.2730712890625,0.178466796875,0.93182373046875,1.308441162109375,-2.998199462890625,-0.336456298828125,1.0,2.0,1.0,1.0,2.0,100.0,event
12:33:17.315,0.7514398,0.43551674,0.80026597,1.2779598,0.615363,0.2000172,0.32328564,1.1148034,1.2288874,0.320133,0.19865385,1.17753,0.97502834,-0.009382623,0.05421006,0.8971911,0.6894498,-0.42536297,-0.33593917,0.6707851,785.31134,811.0989,827.619,791.75824,670.07324,-0.2730712890625,0.178466796875,0.93182373046875,1.308441162109375,-2.998199462890625,-0.336456298828125,1.0,2.0,1.0,1.0,2.0,100.0,event
12:33:17.316,0.7514398,0.43551674,0.80026597,1.2779598,0.615363,0.2000172,0.32328564,1.1148034,1.2288874,0.320133,0.19865385,1.17753,0.97502834,-0.009382623,0.05421006,0.8971911,0.6894498,-0.42536297,-0.33593917,0.6707851,766.77655,808.68134,819.5604,785.31134,725.6777,-0.2730712890625,0.178466796875,0.93182373046875,1.308441162109375,-2.998199462890625,-0.336456298828125,1.0,2.0,1.0,1.0,2.0,100.0,event
12:33:17.316,0.7514398,0.43551674,0.80026597,1.2779598,0.615363,0.2000172,0.32328564,1.1148034,1.2288874,0.320133,0.19865385,1.17753,0.97502834,-0.009382623,0.05421006,0.8971911,0.6894498,-0.42536297,-0.33593917,0.6707851,756.30035,804.2491,817.9487,778.46155,784.90845,-0.2730712890625,0.178466796875,0.93182373046875,1.308441162109375,-2.998199462890625,-0.336456298828125,1.0,2.0,1.0,1.0,2.0,100.0,event
12:33:17.317,0.7514398,0.43551674,0.80026597,1.2779598,0.615363,0.2000172,0.32328564,1.1148034,1.2288874,0.320133,0.19865385,1.17753,0.97502834,-0.009382623,0.05421006,0.8971911,0.6894498,-0.42536297,-0.33593917,0.6707851,768.7912,801.4286,817.5458,773.22345,1039.1575,-0.2730712890625,0.178466796875,0.93182373046875,1.308441162109375,-2.998199462890625,-0.336456298828125,1.0,2.0,1.0,1.0,2.0,100.0,event
12:33:17.317,0.7514398,0.43551674,0.80026597,1.2779598,0.615363,0.2000172,0.32328564,1.1148034,1.2288874,0.320133,0.19865385,1.17753,0.97502834,-0.009382623,0.05421006,0.8971911,0.6894498,-0.42536297,-0.33593917,0.6707851,781.685,801.4286,820.3663,780.07324,1055.2748,-0.2730712890625,0.178466796875,0.93182373046875,1.308441162109375,-2.998199462890625,-0.336456298828125,1.0,2.0,1.0,1.0,2.0,100.0,event
12:33:17.318,0.7514398,0.43551674,0.80026597,1.2779598,0.615363,0.2000172,0.32328564,1.1148034,1.2288874,0.320133,0.19865385,1.17753,0.97502834,-0.009382623,0.05421006,0.8971911,0.6894498,-0.42536297,-0.33593917,0.6707851,801.8315,803.0403,819.15753,795.38464,693.0403,-0.2730712890625,0.178466796875,0.93182373046875,1.308441162109375,-2.998199462890625,-0.336456298828125,1.0,2.0,1.0,1.0,2.0,100.0,event
12:33:17.318,0.7514398,0.43551674,0.80026597,1.2779598,0.615363,0.2000172,0.32328564,1.1148034,1.2288874,0.320133,0.19865385,1.17753,0.97502834,-0.009382623,0.05421006,0.8971911,0.6894498,-0.42536297,-0.33593917,0.6707851,802.6374,799.41394,823.9927,808.2784,656.3736,-0.2730712890625,0.178466796875,0.93182373046875,1.308441162109375,-2.998199462890625,-0.336456298828125,1.0,2.0,1.0,1.0,2.0,100.0,event
12:33:17.319,0.7514398,0.43551674,0.80026597,1.2779598,0.615363,0.2000172,0.32328564,1.1148034,1.2288874,0.320133,0.19865385,1.17753,0.97502834,-0.009382623,0.05421006,0.8971911,0.6894498,-0.42536297,-0.33593917,0.6707851,789.34064,804.2491,823.9927,770.80585,696.26373,-0.2730712890625,0.178466796875,0.93182373046875,1.308441162109375,-2.998199462890625,-0.336456298828125,1.0,2.0,1.0,1.0,2.0,100.0,event
12:33:17.319,0.7514398,0.43551674,0.80026597,1.2779598,0.615363,0.2000172,0.32328564,1.1148034,1.2288874,0.320133,0.19865385,1.17753,0.97502834,-0.009382623,0.05421006,0.8971911,0.6894498,-0.42536297,-0.33593917,0.6707851,792.5641,802.23444,828.8278,787.72894,802.6374,-0.2730712890625,0.178466796875,0.93182373046875,1.308441162109375,-2.998199462890625,-0.336456298828125,1.0,2.0,1.0,1.0,2.0,100.0,event
12:33:17.376,0.7514398,0.43551674,0.80026597,1.2779598,0.615363,0.2000172,0.32328564,1.1148034,1.2288874,0.320133,0.19865385,1.17753,0.97502834,-0.009382623,0.05421006,0.8971911,0.6894498,-0.42536297,-0.33593917,0.6707851,790.9524,800.6227,820.7692,773.22345,601.5751,-0.271484375,0.18157958984375,0.9307861328125,1.973876953125,-2.46734619140625,-0.485992431640625,1.0,2.0,1.0,1.0,2.0,100.0,event
12:33:17.378,0.7514398,0.43551674,0.80026597,1.2779598,0.615363,0.2000172,0.32328564,1.1148034,1.2288874,0.320133,0.19865385,1.17753,0.97502834,-0.009382623,0.05421006,0.8971911,0.6894498,-0.42536297,-0.33593917,0.6707851,790.54944,803.8461,818.7546,790.54944,724.0659,-0.271484375,0.18157958984375,0.9307861328125,1.973876953125,-2.46734619140625,-0.485992431640625,1.0,2.0,1.0,1.0,2.0,100.0,event
12:33:17.378,0.7514398,0.43551674,0.80026597,1.2779598,0.615363,0.2000172,0.32328564,1.1148034,1.2288874,0.320133,0.19865385,1.17753,0.97502834,-0.009382623,0.05421006,0.8971911,0.6894498,-0.42536297,-0.33593917,0.6707851,781.685,807.0696,824.7985,812.71063,756.30035,-0.271484375,0.18157958984375,0.9307861328125,1.973876953125,-2.46734619140625,-0.485992431640625,1.0,2.0,1.0,1.0,2.0,100.0,event
12:33:17.379,0.7514398,0.43551674,0.80026597,1.2779598,0.615363,0.2000172,0.32328564,1.1148034,1.2288874,0.320133,0.19865385,1.17753,0.97502834,-0.009382623,0.05421006,0.8971911,0.6894498,-0.42536297,-0.33593917,0.6707851,780.07324,804.2491,825.2015,804.65204,668.46155,-0.271484375,0.18157958984375,0.9307861328125,1.973876953125,-2.46734619140625,-0.485992431640625,1.0,2.0,1.0,1.0,2.0,100.0,event
12:33:17.379,0.7514398,0.43551674,0.80026597,1.2779598,0.615363,0.2000172,0.32328564,1.1148034,1.2288874,0.320133,0.19865385,1.17753,0.97502834,-0.009382623,0.05421006,0.8971911,0.6894498,-0.42536297,-0.33593917,0.6707851,777.25275,802.6374,815.9341,780.07324,647.9121,-0.271484375,0.18157958984375,0.9307861328125,1.973876953125,-2.46734619140625,-0.485992431640625,1.0,2.0,1.0,1.0,2.0,100.0,event
12:33:17.380,0.7514398,0.43551674,0.80026597,1.2779598,0.615363,0.2000172,0.32328564,1.1148034,1.2288874,0.320133,0.19865385,1.17753,0.97502834,-0.009382623,0.05421006,0.8971911,0.6894498,-0.42536297,-0.33593917,0.6707851,780.87915,803.8461,819.15753,784.90845,853.00366,-0.271484375,0.18157958984375,0.9307861328125,1.973876953125,-2.46734619140625,-0.485992431640625,1.0,2.0,1.0,1.0,2.0,100.0,event
12:33:17.381,0.7514398,0.43551674,0.80026597,1.2779598,0.615363,0.2000172,0.32328564,1.1148034,1.2288874,0.320133,0.19865385,1.17753,0.97502834,-0.009382623,0.05421006,0.8971911,0.6894498,-0.42536297,-0.33593917,0.6707851,788.5348,803.8461,820.7692,790.54944,1029.4872,-0.271484375,0.18157958984375,0.9307861328125,1.973876953125,-2.46734619140625,-0.485992431640625,1.0,2.0,1.0,1.0,2.0,100.0,event
12:33:17.381,0.7514398,0.43551674,0.80026597,1.2779598,0.615363,0.2000172,0.32328564,1.1148034,1.2288874,0.320133,0.19865385,1.17753,0.97502834,-0.009382623,0.05421006,0.8971911,0.6894498,-0.42536297,-0.33593917,0.6707851,803.0403,801.4286,824.3956,782.8938,855.42126,-0.271484375,0.18157958984375,0.9307861328125,1.973876953125,-2.46734619140625,-0.485992431640625,1.0,2.0,1.0,1.0,2.0,100.0,event
12:33:17.382,0.7514398,0.43551674,0.80026597,1.2779598,0.615363,0.2000172,0.32328564,1.1148034,1.2288874,0.320133,0.19865385,1.17753,0.97502834,-0.009382623,0.05421006,0.8971911,0.6894498,-0.42536297,-0.33593917,0.6707851,799.41394,800.6227,828.8278,774.0293,646.30035,-0.271484375,0.18157958984375,0.9307861328125,1.973876953125,-2.46734619140625,-0.485992431640625,1.0,2.0,1.0,1.0,2.0,100.0,event
12:33:17.382,0.7514398,0.43551674,0.80026597,1.2779598,0.615363,0.2000172,0.32328564,1.1148034,1.2288874,0.320133,0.19865385,1.17753,0.97502834,-0.009382623,0.05421006,0.8971911,0.6894498,-0.42536297,-0.33593917,0.6707851,774.0293,801.4286,820.7692,751.06226,762.3443,-0.271484375,0.18157958984375,0.9307861328125,1.973876953125,-2.46734619140625,-0.485992431640625,1.0,2.0,1.0,1.0,2.0,100.0,event
12:33:17.383,0.7514398,0.43551674,0.80026597,1.2779598,0.615363,0.2000172,0.32328564,1.1148034,1.2288874,0.320133,0.19865385,1.17753,0.97502834,-0.009382623,0.05421006,0.8971911,0.6894498,-0.42536297,-0.33593917,0.6707851,768.3883,802.23444,818.3516,754.68866,885.2381,-0.271484375,0.18157958984375,0.9307861328125,1.973876953125,-2.46734619140625,-0.485992431640625,1.0,2.0,1.0,1.0,2.0,100.0,event
12:33:17.383,0.7514398,0.43551674,0.80026597,1.2779598,0.615363,0.2000172,0.32328564,1.1148034,1.2288874,0.320133,0.19865385,1.17753,0.97502834,-0.009382623,0.05421006,0.8971911,0.6894498,-0.42536297,-0.33593917,0.6707851,774.43225,799.81683,819.15753,778.86444,738.97437,-0.271484375,0.18157958984375,0.9307861328125,1.973876953125,-2.46734619140625,-0.485992431640625,1.0,2.0,1.0,1.0,2.0,100.0,event
12:33:17.413,0.7514398,0.43551674,0.80026597,1.2779598,0.615363,0.2000172,0.32328564,1.1148034,1.2288874,0.320133,0.19865385,1.17753,0.97502834,-0.009382623,0.05421006,0.8971911,0.6894498,-0.42536297,-0.33593917,0.6707851,777.25275,800.6227,815.9341,799.81683,708.7546,-0.26312255859375,0.1822509765625,0.9302978515625,1.86920166015625,-4.777679443359375,-0.2392578125,1.0,2.0,1.0,1.0,2.0,100.0,event
12:33:17.414,0.7514398,0.43146122,0.7162711,1.2779598,0.615363,0.15234913,0.25972497,1.1148034,1.2288874,0.30106562,0.15108824,1.17753,0.97502834,-0.026492942,0.03802695,0.8971911,0.6894498,-0.43617782,-0.41160142,0.6707851,778.46155,808.68134,821.1722,801.02563,748.24176,-0.26312255859375,0.1822509765625,0.9302978515625,1.86920166015625,-4.777679443359375,-0.2392578125,1.0,2.0,1.0,1.0,2.0,100.0,event
12:33:17.418,0.7514398,0.43146122,0.7162711,1.2779598,0.615363,0.15234913,0.25972497,1.1148034,1.2288874,0.30106562,0.15108824,1.17753,0.97502834,-0.026492942,0.03802695,0.8971911,0.6894498,-0.43617782,-0.41160142,0.6707851,781.685,806.6667,823.9927,799.81683,755.4945,-0.26312255859375,0.1822509765625,0.9302978515625,1.86920166015625,-4.777679443359375,-0.2392578125,1.0,2.0,1.0,1.0,2.0,100.0,event
12:33:17.418,0.7514398,0.43146122,0.7162711,1.2779598,0.615363,0.15234913,0.25972497,1.1148034,1.2288874,0.30106562,0.15108824,1.17753,0.97502834,-0.026492942,0.03802695,0.8971911,0.6894498,-0.43617782,-0.41160142,0.6707851,786.1172,808.2784,818.7546,801.02563,705.5311,-0.26312255859375,0.1822509765625,0.9302978515625,1.86920166015625,-4.777679443359375,-0.2392578125,1.0,2.0,1.0,1.0,2.0,100.0,event
12:33:17.419,0.7514398,0.43146122,0.7162711,1.2779598,0.615363,0.15234913,0.25972497,1.1148034,1.2288874,0.30106562,0.15108824,1.17753,0.97502834,-0.026492942,0.03802695,0.8971911,0.6894498,-0.43617782,-0.41160142,0.6707851,785.31134,811.50183,820.3663,796.5934,678.93774,-0.26312255859375,0.1822509765625,0.9302978515625,1.86920166015625,-4.777679443359375,-0.2392578125,1.0,2.0,1.0,1.0,2.0,100.0,event
12:33:17.420,0.7514398,0.43146122,0.7162711,1.2779598,0.615363,0.15234913,0.25972497,1.1148034,1.2288874,0.30106562,0.15108824,1.17753,0.97502834,-0.026492942,0.03802695,0.8971911,0.6894498,-0.43617782,-0.41160142,0.6707851,790.9524,803.44324,821.1722,794.9817,802.23444,-0.26312255859375,0.1822509765625,0.9302978515625,1.86920166015625,-4.777679443359375,-0.2392578125,1.0,2.0,1.0,1.0,2.0,100.0,event
12:33:17.420,0.7514398,0.43146122,0.7162711,1.2779598,0.615363,0.15234913,0.25972497,1.1148034,1.2288874,0.30106562,0.15108824,1.17753,0.97502834,-0.026492942,0.03802695,0.8971911,0.6894498,-0.43617782,-0.41160142,0.6707851,792.5641,802.23444,816.7399,792.1612,850.989,-0.26312255859375,0.1822509765625,0.9302978515625,1.86920166015625,-4.777679443359375,-0.2392578125,1.0,2.0,1.0,1.0,2.0,100.0,event
12:33:17.421,0.7514398,0.43146122,0.7162711,1.2779598,0.615363,0.15234913,0.25972497,1.1148034,1.2288874,0.30106562,0.15108824,1.17753,0.97502834,-0.026492942,0.03802695,0.8971911,0.6894498,-0.43617782,-0.41160142,0.6707851,780.87915,801.8315,820.7692,786.52014,667.25275,-0.26312255859375,0.1822509765625,0.9302978515625,1.86920166015625,-4.777679443359375,-0.2392578125,1.0,2.0,1.0,1.0,2.0,100.0,event
12:33:17.421,0.7514398,0.43146122,0.7162711,1.2779598,0.615363,0.15234913,0.25972497,1.1148034,1.2288874,0.30106562,0.15108824,1.17753,0.97502834,-0.026492942,0.03802695,0.8971911,0.6894498,-0.43617782,-0.41160142,0.6707851,783.2967,801.02563,825.6044,788.5348,624.5421,-0.26312255859375,0.1822509765625,0.9302978515625,1.86920166015625,-4.777679443359375,-0.2392578125,1.0,2.0,1.0,1.0,2.0,100.0,event
12:33:17.422,0.7514398,0.43146122,0.7162711,1.2779598,0.615363,0.15234913,0.25972497,1.1148034,1.2288874,0.30106562,0.15108824,1.17753,0.97502834,-0.026492942,0.03802695,0.8971911,0.6894498,-0.43617782,-0.41160142,0.6707851,788.5348,804.2491,819.9634,789.7436,851.79486,-0.26312255859375,0.1822509765625,0.9302978515625,1.86920166015625,-4.777679443359375,-0.2392578125,1.0,2.0,1.0,1.0,2.0,100.0,event
12:33:17.422,0.7514398,0.43146122,0.7162711,1.2779598,0.615363,0.15234913,0.25972497,1.1148034,1.2288874,0.30106562,0.15108824,1.17753,0.97502834,-0.026492942,0.03802695,0.8971911,0.6894498,-0.43617782,-0.41160142,0.6707851,801.4286,812.3077,817.9487,792.5641,871.53845,-0.26312255859375,0.1822509765625,0.9302978515625,1.86920166015625,-4.777679443359375,-0.2392578125,1.0,2.0,1.0,1.0,2.0,100.0,event
12:33:17.423,0.7514398,0.43146122,0.7162711,1.2779598,0.615363,0.15234913,0.25972497,1.1148034,1.2288874,0.30106562,0.15108824,1.17753,0.97502834,-0.026492942,0.03802695,0.8971911,0.6894498,-0.43617782,-0.41160142,0.6707851,813.1135,814.3223,821.1722,814.7253,688.60803,-0.26312255859375,0.1822509765625,0.9302978515625,1.86920166015625,-4.777679443359375,-0.2392578125,1.0,2.0,1.0,1.0,2.0,100.0,event
12:33:17.476,0.7514398,0.43146122,0.7162711,1.2779598,0.615363,0.15234913,0.25972497,1.1148034,1.2288874,0.30106562,0.15108824,1.17753,0.97502834,-0.026492942,0.03802695,0.8971911,0.6894498,-0.43617782,-0.41160142,0.6707851,787.326,807.8755,820.3663,791.75824,743.4066,-0.2645263671875,0.179931640625,0.92620849609375,2.594451904296875,-4.007568359375,0.396270751953125,1.0,2.0,1.0,1.0,2.0,100.0,event
12:33:17.477,0.7514398,0.43146122,0.7162711,1.2779598,0.615363,0.15234913,0.25972497,1.1148034,1.2288874,0.30106562,0.15108824,1.17753,0.97502834,-0.026492942,0.03802695,0.8971911,0.6894498,-0.43617782,-0.41160142,0.6707851,767.98535,804.65204,821.1722,758.71796,727.28937,-0.2645263671875,0.179931640625,0.92620849609375,2.594451904296875,-4.007568359375,0.396270751953125,1.0,2.0,1.0,1.0,2.0,100.0,event
12:33:17.478,0.7514398,0.43146122,0.7162711,1.2779598,0.615363,0.15234913,0.25972497,1.1148034,1.2288874,0.30106562,0.15108824,1.17753,0.97502834,-0.026492942,0.03802695,0.8971911,0.6894498,-0.43617782,-0.41160142,0.6707851,779.2674,810.293,822.381,773.22345,634.21246,-0.2645263671875,0.179931640625,0.92620849609375,2.594451904296875,-4.007568359375,0.396270751953125,1.0,2.0,1.0,1.0,2.0,100.0,event
12:33:17.478,0.7514398,0.43146122,0.7162711,1.2779598,0.615363,0.15234913,0.25972497,1.1148034,1.2288874,0.30106562,0.15108824,1.17753,0.97502834,-0.026492942,0.03802695,0.8971911,0.6894498,-0.43617782,-0.41160142,0.6707851,776.8498,807.8755,817.9487,790.54944,664.83514,-0.2645263671875,0.179931640625,0.92620849609375,2.594451904296875,-4.007568359375,0.396270751953125,1.0,2.0,1.0,1.0,2.0,100.0,event
12:33:17.479,0.7514398,0.43146122,0.7162711,1.2779598,0.615363,0.15234913,0.25972497,1.1148034,1.2288874,0.30106562,0.15108824,1.17753,0.97502834,-0.026492942,0.03802695,0.8971911,0.6894498,-0.43617782,-0.41160142,0.6707851,796.99634,799.011,819.9634,812.71063,783.69965,-0.2645263671875,0.179931640625,0.92620849609375,2.594451904296875,-4.007568359375,0.396270751953125,1.0,2.0,1.0,1.0,2.0,100.0,event
12:33:17.480,0.7514398,0.43146122,0.7162711,1.2779598,0.615363,0.15234913,0.25972497,1.1148034,1.2288874,0.30106562,0.15108824,1.17753,0.97502834,-0.026492942,0.03802695,0.8971911,0.6894498,-0.43617782,-0.41160142,0.6707851,796.1905,802.23444,823.9927,803.44324,853.4066,-0.2645263671875,0.179931640625,0.92620849609375,2.594451904296875,-4.007568359375,0.396270751953125,1.0,2.0,1.0,1.0,2.0,100.0,event
12:33:17.481,0.7514398,0.43146122,0.7162711,1.2779598,0.615363,0.15234913,0.25972497,1.1148034,1.2288874,0.30106562,0.15108824,1.17753,0.97502834,-0.026492942,0.03802695,0.8971911,0.6894498,-0.43617782,-0.41160142,0.6707851,772.8205,804.2491,817.5458,778.46155,830.4396,-0.2645263671875,0.179931640625,0.92620849609375,2.594451904296875,-4.007568359375,0.396270751953125,1.0,2.0,1.0,1.0,2.0,100.0,event
12:33:17.481,0.7514398,0.43146122,0.7162711,1.2779598,0.615363,0.15234913,0.25972497,1.1148034,1.2288874,0.30106562,0.15108824,1.17753,0.97502834,-0.026492942,0.03802695,0.8971911,0.6894498,-0.43617782,-0.41160142,0.6707851,775.2381,800.2198,817.1429,780.4762,736.55676,-0.2645263671875,0.179931640625,0.92620849609375,2.594451904296875,-4.007568359375,0.396270751953125,1.0,2.0,1.0,1.0,2.0,100.0,event
12:33:17.482,0.7514398,0.43146122,0.7162711,1.2779598,0.615363,0.15234913,0.25972497,1.1148034,1.2288874,0.30106562,0.15108824,1.17753,0.97502834,-0.026492942,0.03802695,0.8971911,0.6894498,-0.43617782,-0.41160142,0.6707851,776.4469,799.011,826.8132,798.60803,780.87915,-0.2645263671875,0.179931640625,0.92620849609375,2.594451904296875,-4.007568359375,0.396270751953125,1.0,2.0,1.0,1.0,2.0,100.0,event
12:33:17.483,0.7514398,0.43146122,0.7162711,1.2779598,0.615363,0.15234913,0.25972497,1.1148034,1.2288874,0.30106562,0.15108824,1.17753,0.97502834,-0.026492942,0.03802695,0.8971911,0.6894498,-0.43617782,-0.41160142,0.6707851,781.28204,805.4579,824.3956,812.71063,975.09155,-0.2645263671875,0.179931640625,0.92620849609375,2.594451904296875,-4.007568359375,0.396270751953125,1.0,2.0,1.0,1.0,2.0,100.0,event
12:33:17.483,0.7514398,0.43146122,0.7162711,1.2779598,0.615363,0.15234913,0.25972497,1.1148034,1.2288874,0.30106562,0.15108824,1.17753,0.97502834,-0.026492942,0.03802695,0.8971911,0.6894498,-0.43617782,-0.41160142,0.6707851,798.20514,808.2784,820.3663,806.26373,788.1319,-0.2645263671875,0.179931640625,0.92620849609375,2.594451904296875,-4.007568359375,0.396270751953125,1.0,2.0,1.0,1.0,2.0,100.0,event
12:33:17.484,0.7514398,0.43146122,0.7162711,1.2779598,0.615363,0.15234913,0.25972497,1.1148034,1.2288874,0.30106562,0.15108824,1.17753,0.97502834,-0.026492942,0.03802695,0.8971911,0.6894498,-0.43617782,-0.41160142,0.6707851,783.69965,807.8755,821.1722,797.8022,638.6447,-0.2645263671875,0.179931640625,0.92620849609375,2.594451904296875,-4.007568359375,0.396270751953125,1.0,2.0,1.0,1.0,2.0,100.0,event
12:33:17.510,0.7514398,0.43146122,0.7162711,1.2779598,0.615363,0.15234913,0.25972497,1.1148034,1.2288874,0.30106562,0.15108824,1.17753,0.97502834,-0.026492942,0.03802695,0.8971911,0.6894498,-0.43617782,-0.41160142,0.6707851,773.22345,807.0696,818.7546,803.8461,702.3077,-0.2645263671875,0.179931640625,0.92620849609375,2.594451904296875,-4.007568359375,0.396270751953125,1.0,2.0,1.0,1.0,2.0,100.0,event
12:33:17.511,0.7514398,0.43146122,0.7162711,1.2779598,0.615363,0.15234913,0.25972497,1.1148034,1.2288874,0.30106562,0.15108824,1.17753,0.97502834,-0.026492942,0.03802695,0.8971911,0.6894498,-0.43617782,-0.41160142,0.6707851,792.5641,804.2491,823.1868,813.1135,724.0659,-0.2645263671875,0.179931640625,0.92620849609375,2.594451904296875,-4.007568359375,0.396270751953125,1.0,2.0,1.0,1.0,2.0,100.0,event
12:33:17.512,0.7514398,0.43146122,0.7162711,1.2779598,0.615363,0.15234913,0.25972497,1.1148034,1.2288874,0.30106562,0.15108824,1.17753,0.97502834,-0.026492942,0.03802695,0.8971911,0.6894498,-0.43617782,-0.41160142,0.6707851,796.99634,804.2491,829.6337,810.696,688.20514,-0.2645263671875,0.179931640625,0.92620849609375,2.594451904296875,-4.007568359375,0.396270751953125,1.0,2.0,1.0,1.0,2.0,100.0,event
12:33:17.513,0.7514398,0.42517397,0.6220754,1.2779598,0.615363,0.09749767,0.17681871,1.1148034,1.2288874,0.22977504,0.08213769,1.17753,0.97502834,-0.03631787,0.010961324,0.8971911,0.6894498,-0.44989514,-0.4998175,0.6707851,790.9524,802.6374,826.8132,806.26373,754.68866,-0.2645263671875,0.179931640625,0.92620849609375,2.594451904296875,-4.007568359375,0.396270751953125,1.0,2.0,1.0,1.0,2.0,100.0,event
12:33:17.517,0.7514398,0.42517397,0.6220754,1.2779598,0.615363,0.09749767,0.17681871,1.1148034,1.2288874,0.22977504,0.08213769,1.17753,0.97502834,-0.03631787,0.010961324,0.8971911,0.6894498,-0.44989514,-0.4998175,0.6707851,792.5641,801.02563,819.9634,806.26373,907.3993,-0.2645263671875,0.179931640625,0.92620849609375,2.594451904296875,-4.007568359375,0.396270751953125,1.0,2.0,1.0,1.0,2.0,100.0,event
12:33:17.518,0.7514398,0.42517397,0.6220754,1.2779598,0.615363,0.09749767,0.17681871,1.1148034,1.2288874,0.22977504,0.08213769,1.17753,0.97502834,-0.03631787,0.010961324,0.8971911,0.6894498,-0.44989514,-0.4998175,0.6707851,796.99634,801.02563,821.978,791.75824,874.7619,-0.2645263671875,0.179931640625,0.92620849609375,2.594451904296875,-4.007568359375,0.396270751953125,1.0,2.0,1.0,1.0,2.0,100.0,event
12:33:17.519,0.7514398,0.42517397,0.6220754,1.2779598,0.615363,0.09749767,0.17681871,1.1148034,1.2288874,0.22977504,0.08213769,1.17753,0.97502834,-0.03631787,0.010961324,0.8971911,0.6894498,-0.44989514,-0.4998175,0.6707851,791.75824,802.6374,822.381,793.36993,826.8132,-0.2645263671875,0.179931640625,0.92620849609375,2.594451904296875,-4.007568359375,0.396270751953125,1.0,2.0,1.0,1.0,2.0,100.0,event
12:33:17.520,0.7514398,0.42517397,0.6220754,1.2779598,0.615363,0.09749767,0.17681871,1.1148034,1.2288874,0.22977504,0.08213769,1.17753,0.97502834,-0.03631787,0.010961324,0.8971911,0.6894498,-0.44989514,-0.4998175,0.6707851,778.0586,802.6374,817.5458,808.68134,773.22345,-0.2645263671875,0.179931640625,0.92620849609375,2.594451904296875,-4.007568359375,0.396270751953125,1.0,2.0,1.0,1.0,2.0,100.0,event
12:33:17.523,0.7514398,0.42517397,0.6220754,1.2779598,0.615363,0.09749767,0.17681871,1.1148034,1.2288874,0.22977504,0.08213769,1.17753,0.97502834,-0.03631787,0.010961324,0.8971911,0.6894498,-0.44989514,-0.4998175,0.6707851,782.8938,806.6667,816.337,810.696,900.54944,-0.2645263671875,0.179931640625,0.92620849609375,2.594451904296875,-4.007568359375,0.396270751953125,1.0,2.0,1.0,1.0,2.0,100.0,event
12:33:17.524,0.7514398,0.42517397,0.6220754,1.2779598,0.615363,0.09749767,0.17681871,1.1148034,1.2288874,0.22977504,0.08213769,1.17753,0.97502834,-0.03631787,0.010961324,0.8971911,0.6894498,-0.44989514,-0.4998175,0.6707851,794.57874,806.6667,823.1868,812.3077,906.5934,-0.2645263671875,0.179931640625,0.92620849609375,2.594451904296875,-4.007568359375,0.396270751953125,1.0,2.0,1.0,1.0,2.0,100.0,event
12:33:17.526,0.7514398,0.42517397,0.6220754,1.2779598,0.615363,0.09749767,0.17681871,1.1148034,1.2288874,0.22977504,0.08213769,1.17753,0.97502834,-0.03631787,0.010961324,0.8971911,0.6894498,-0.44989514,-0.4998175,0.6707851,784.90845,802.23444,827.2161,793.36993,642.27106,-0.2645263671875,0.179931640625,0.92620849609375,2.594451904296875,-4.007568359375,0.396270751953125,1.0,2.0,1.0,1.0,2.0,100.0,event
12:33:17.528,0.7514398,0.42517397,0.6220754,1.2779598,0.615363,0.09749767,0.17681871,1.1148034,1.2288874,0.22977504,0.08213769,1.17753,0.97502834,-0.03631787,0.010961324,0.8971911,0.6894498,-0.44989514,-0.4998175,0.6707851,774.0293,801.02563,826.0073,790.14655,729.707,-0.2645263671875,0.179931640625,0.92620849609375,2.594451904296875,-4.007568359375,0.396270751953125,1.0,2.0,1.0,1.0,2.0,100.0,event
12:33:17.551,0.7514398,0.42517397,0.6220754,1.2779598,0.615363,0.09749767,0.17681871,1.1148034,1.2288874,0.22977504,0.08213769,1.17753,0.97502834,-0.03631787,0.010961324,0.8971911,0.6894498,-0.44989514,-0.4998175,0.6707851,783.69965,799.41394,819.15753,801.02563,879.59705,-0.26165771484375,0.1834716796875,0.93505859375,2.220611572265625,-2.729034423828125,0.979461669921875,1.0,2.0,1.0,1.0,2.0,100.0,event
12:33:17.552,0.7514398,0.42517397,0.6220754,1.2779598,0.615363,0.09749767,0.17681871,1.1148034,1.2288874,0.22977504,0.08213769,1.17753,0.97502834,-0.03631787,0.010961324,0.8971911,0.6894498,-0.44989514,-0.4998175,0.6707851,801.02563,799.011,814.7253,798.60803,749.45056,-0.26165771484375,0.1834716796875,0.93505859375,2.220611572265625,-2.729034423828125,0.979461669921875,1.0,2.0,1.0,1.0,2.0,100.0,event
12:33:17.552,0.7514398,0.42517397,0.6220754,1.2779598,0.615363,0.09749767,0.17681871,1.1148034,1.2288874,0.22977504,0.08213769,1.17753,0.97502834,-0.03631787,0.010961324,0.8971911,0.6894498,-0.44989514,-0.4998175,0.6707851,803.0403,803.44324,819.5604,792.96704,633.8095,-0.26165771484375,0.1834716796875,0.93505859375,2.220611572265625,-2.729034423828125,0.979461669921875,1.0,2.0,1.0,1.0,2.0,100.0,event
12:33:17.553,0.7514398,0.42517397,0.6220754,1.2779598,0.615363,0.09749767,0.17681871,1.1148034,1.2288874,0.22977504,0.08213769,1.17753,0.97502834,-0.03631787,0.010961324,0.8971911,0.6894498,-0.44989514,-0.4998175,0.6707851,790.9524,800.2198,821.1722,790.54944,733.73627,-0.26165771484375,0.1834716796875,0.93505859375,2.220611572265625,-2.729034423828125,0.979461669921875,1.0,2.0,1.0,1.0,2.0,100.0,event
12:33:17.554,0.7514398,0.42517397,0.6220754,1.2779598,0.615363,0.09749767,0.17681871,1.1148034,1.2288874,0.22977504,0.08213769,1.17753,0.97502834,-0.03631787,0.010961324,0.8971911,0.6894498,-0.44989514,-0.4998175,0.6707851,776.4469,802.6374,824.7985,788.93774,814.3223,-0.26165771484375,0.1834716796875,0.93505859375,2.220611572265625,-2.729034423828125,0.979461669921875,1.0,2.0,1.0,1.0,2.0,100.0,event
12:33:17.554,0.7514398,0.42517397,0.6220754,1.2779598,0.615363,0.09749767,0.17681871,1.1148034,1.2288874,0.22977504,0.08213769,1.17753,0.97502834,-0.03631787,0.010961324,0.8971911,0.6894498,-0.44989514,-0.4998175,0.6707851,780.4762,804.65204,823.5897,777.25275,831.6484,-0.26165771484375,0.1834716796875,0.93505859375,2.220611572265625,-2.729034423828125,0.979461669921875,1.0,2.0,1.0,1.0,2.0,100.0,event
12:33:17.554,0.7514398,0.42517397,0.6220754,1.2779598,0.615363,0.09749767,0.17681871,1.1148034,1.2288874,0.22977504,0.08213769,1.17753,0.97502834,-0.03631787,0.010961324,0.8971911,0.6894498,-0.44989514,-0.4998175,0.6707851,790.9524,801.02563,819.5604,770.80585,847.3626,-0.26165771484375,0.1834716796875,0.93505859375,2.220611572265625,-2.729034423828125,0.979461669921875,1.0,2.0,1.0,1.0,2.0,100.0,event
12:33:17.555,0.7514398,0.42517397,0.6220754,1.2779598,0.615363,0.09749767,0.17681871,1.1148034,1.2288874,0.22977504,0.08213769,1.17753,0.97502834,-0.03631787,0.010961324,0.8971911,0.6894498,-0.44989514,-0.4998175,0.6707851,777.6557,807.8755,828.022,769.59705,1014.17584,-0.26165771484375,0.1834716796875,0.93505859375,2.220611572265625,-2.729034423828125,0.979461669921875,1.0,2.0,1.0,1.0,2.0,100.0,event
12:33:17.555,0.7514398,0.42517397,0.6220754,1.2779598,0.615363,0.09749767,0.17681871,1.1148034,1.2288874,0.22977504,0.08213769,1.17753,0.97502834,-0.03631787,0.010961324,0.8971911,0.6894498,-0.44989514,-0.4998175,0.6707851,782.0879,805.4579,821.978,767.1795,894.5055,-0.26165771484375,0.1834716796875,0.93505859375,2.220611572265625,-2.729034423828125,0.979461669921875,1.0,2.0,1.0,1.0,2.0,100.0,event
12:33:17.556,0.7514398,0.42517397,0.6220754,1.2779598,0.615363,0.09749767,0.17681871,1.1148034,1.2288874,0.22977504,0.08213769,1.17753,0.97502834,-0.03631787,0.010961324,0.8971911,0.6894498,-0.44989514,-0.4998175,0.6707851,778.86444,809.4872,827.2161,768.7912,825.6044,-0.26165771484375,0.1834716796875,0.93505859375,2.220611572265625,-2.729034423828125,0.979461669921875,1.0,2.0,1.0,1.0,2.0,100.0,event
12:33:17.557,0.7514398,0.42517397,0.6220754,1.2779598,0.615363,0.09749767,0.17681871,1.1148034,1.2288874,0.22977504,0.08213769,1.17753,0.97502834,-0.03631787,0.010961324,0.8971911,0.6894498,-0.44989514,-0.4998175,0.6707851,772.01465,803.44324,819.15753,760.32965,667.25275,-0.26165771484375,0.1834716796875,0.93505859375,2.220611572265625,-2.729034423828125,0.979461669921875,1.0,2.0,1.0,1.0,2.0,100.0,event
12:33:17.557,0.7514398,0.42517397,0.6220754,1.2779598,0.615363,0.09749767,0.17681871,1.1148034,1.2288874,0.22977504,0.08213769,1.17753,0.97502834,-0.03631787,0.010961324,0.8971911,0.6894498,-0.44989514,-0.4998175,0.6707851,774.0293,799.41394,816.337,757.50916,831.2454,-0.26165771484375,0.1834716796875,0.93505859375,2.220611572265625,-2.729034423828125,0.979461669921875,1.0,2.0,1.0,1.0,2.0,100.0,event
12:33:17.642,0.7514398,0.42517397,0.6220754,1.2779598,0.615363,0.09749767,0.17681871,1.1148034,1.2288874,0.22977504,0.08213769,1.17753,0.97502834,-0.03631787,0.010961324,0.8971911,0.6894498,-0.44989514,-0.4998175,0.6707851,769.19415,803.8461,818.7546,747.8388,847.3626,-0.27423095703125,0.1815185546875,0.94244384765625,1.024322509765625,-1.293487548828125,1.323394775390625,1.0,2.0,1.0,1.0,2.0,100.0,event
12:33:17.643,0.7514398,0.42517397,0.6220754,1.2779598,0.615363,0.09749767,0.17681871,1.1148034,1.2288874,0.22977504,0.08213769,1.17753,0.97502834,-0.03631787,0.010961324,0.8971911,0.6894498,-0.44989514,-0.4998175,0.6707851,765.16486,803.0403,819.9634,741.39197,747.03296,-0.27423095703125,0.1815185546875,0.94244384765625,1.024322509765625,-1.293487548828125,1.323394775390625,1.0,2.0,1.0,1.0,2.0,100.0,event
12:33:17.643,0.7514398,0.42517397,0.6220754,1.2779598,0.615363,0.09749767,0.17681871,1.1148034,1.2288874,0.22977504,0.08213769,1.17753,0.97502834,-0.03631787,0.010961324,0.8971911,0.6894498,-0.44989514,-0.4998175,0.6707851,776.4469,797.3993,820.7692,756.7033,709.5604,-0.27423095703125,0.1815185546875,0.94244384765625,1.024322509765625,-1.293487548828125,1.323394775390625,1.0,2.0,1.0,1.0,2.0,100.0,event
12:33:17.644,0.7514398,0.42517397,0.6220754,1.2779598,0.615363,0.09749767,0.17681871,1.1148034,1.2288874,0.22977504,0.08213769,1.17753,0.97502834,-0.03631787,0.010961324,0.8971911,0.6894498,-0.44989514,-0.4998175,0.6707851,788.5348,799.011,817.9487,784.5055,737.3626,-0.27423095703125,0.1815185546875,0.94244384765625,1.024322509765625,-1.293487548828125,1.323394775390625,1.0,2.0,1.0,1.0,2.0,100.0,event
12:33:17.645,0.7514398,0.42517397,0.6220754,1.2779598,0.615363,0.09749767,0.17681871,1.1148034,1.2288874,0.22977504,0.08213769,1.17753,0.97502834,-0.03631787,0.010961324,0.8971911,0.6894498,-0.44989514,-0.4998175,0.6707851,802.23444,807.0696,811.50183,797.3993,825.2015,-0.27423095703125,0.1815185546875,0.94244384765625,1.024322509765625,-1.293487548828125,1.323394775390625,1.0,2.0,1.0,1.0,2.0,100.0,event
12:33:17.645,0.7514398,0.42056385,0.52638763,1.2779598,0.615363,0.05779844,0.05319601,1.1148034,1.2288874,0.13423766,0.025499023,1.17753,0.97502834,-0.0382735,-0.024769139,0.8971911,0.6894498,-0.46894673,-0.5786912,0.6707851,794.57874,803.8461,815.12823,778.0586,776.4469,-0.27423095703125,0.1815185546875,0.94244384765625,1.024322509765625,-1.293487548828125,1.323394775390625,1.0,2.0,1.0,1.0,2.0,100.0,event
12:33:17.650,0.7514398,0.42056385,0.52638763,1.2779598,0.615363,0.05779844,0.05319601,1.1148034,1.2288874,0.13423766,0.025499023,1.17753,0.97502834,-0.0382735,-0.024769139,0.8971911,0.6894498,-0.46894673,-0.5786912,0.6707851,768.3883,801.02563,826.8132,775.64105,769.59705,-0.27423095703125,0.1815185546875,0.94244384765625,1.024322509765625,-1.293487548828125,1.323394775390625,1.0,2.0,1.0,1.0,2.0,100.0,event
12:33:17.650,0.7514398,0.42056385,0.52638763,1.2779598,0.615363,0.05779844,0.05319601,1.1148034,1.2288874,0.13423766,0.025499023,1.17753,0.97502834,-0.0382735,-0.024769139,0.8971911,0.6894498,-0.46894673,-0.5786912,0.6707851,766.3736,804.65204,826.8132,793.7729,924.3223,-0.27423095703125,0.1815185546875,0.94244384765625,1.024322509765625,-1.293487548828125,1.323394775390625,1.0,2.0,1.0,1.0,2.0,100.0,event
12:33:17.651,0.7514398,0.42056385,0.52638763,1.2779598,0.615363,0.05779844,0.05319601,1.1148034,1.2288874,0.13423766,0.025499023,1.17753,0.97502834,-0.0382735,-0.024769139,0.8971911,0.6894498,-0.46894673,-0.5786912,0.6707851,769.59705,806.26373,823.9927,786.52014,867.1062,-0.27423095703125,0.1815185546875,0.94244384765625,1.024322509765625,-1.293487548828125,1.323394775390625,1.0,2.0,1.0,1.0,2.0,100.0,event
12:33:17.652,0.7514398,0.42056385,0.52638763,1.2779598,0.615363,0.05779844,0.05319601,1.1148034,1.2288874,0.13423766,0.025499023,1.17753,0.97502834,-0.0382735,-0.024769139,0.8971911,0.6894498,-0.46894673,-0.5786912,0.6707851,768.3883,800.2198,825.2015,774.43225,859.85345,-0.27423095703125,0.1815185546875,0.94244384765625,1.024322509765625,-1.293487548828125,1.323394775390625,1.0,2.0,1.0,1.0,2.0,100.0,event
12:33:17.652,0.7514398,0.42056385,0.52638763,1.2779598,0.615363,0.05779844,0.05319601,1.1148034,1.2288874,0.13423766,0.025499023,1.17753,0.97502834,-0.0382735,-0.024769139,0.8971911,0.6894498,-0.46894673,-0.5786912,0.6707851,770.40295,805.4579,823.9927,778.46155,735.34796,-0.27423095703125,0.1815185546875,0.94244384765625,1.024322509765625,-1.293487548828125,1.323394775390625,1.0,2.0,1.0,1.0,2.0,100.0,event
12:33:17.653,0.7514398,0.42056385,0.52638763,1.2779598,0.615363,0.05779844,0.05319601,1.1148034,1.2288874,0.13423766,0.025499023,1.17753,0.97502834,-0.0382735,-0.024769139,0.8971911,0.6894498,-0.46894673,-0.5786912,0.6707851,777.25275,802.23444,825.6044,761.13556,887.25275,-0.27423095703125,0.1815185546875,0.94244384765625,1.024322509765625,-1.293487548828125,1.323394775390625,1.0,2.0,1.0,1.0,2.0,100.0,event
12:33:17.654,0.7514398,0.42056385,0.52638763,1.2779598,0.615363,0.05779844,0.05319601,1.1148034,1.2288874,0.13423766,0.025499023,1.17753,0.97502834,-0.0382735,-0.024769139,0.8971911,0.6894498,-0.46894673,-0.5786912,0.6707851,784.5055,802.23444,823.9927,759.12085,784.90845,-0.274658203125,0.17486572265625,0.93109130859375,2.205657958984375,-0.605621337890625,0.844879150390625,1.0,2.0,1.0,1.0,2.0,100.0,event
12:33:17.655,0.7514398,0.42056385,0.52638763,1.2779598,0.615363,0.05779844,0.05319601,1.1148034,1.2288874,0.13423766,0.025499023,1.17753,0.97502834,-0.0382735,-0.024769139,0.8971911,0.6894498,-0.46894673,-0.5786912,0.6707851,784.5055,799.81683,823.9927,765.16486,698.2784,-0.274658203125,0.17486572265625,0.93109130859375,2.205657958984375,-0.605621337890625,0.844879150390625,1.0,2.0,1.0,1.0,2.0,100.0,event
12:33:17.655,0.7514398,0.42056385,0.52638763,1.2779598,0.615363,0.05779844,0.05319601,1.1148034,1.2288874,0.13423766,0.025499023,1.17753,0.97502834,-0.0382735,-0.024769139,0.8971911,0.6894498,-0.46894673,-0.5786912,0.6707851,786.1172,801.4286,819.9634,769.19415,783.2967,-0.274658203125,0.17486572265625,0.93109130859375,2.205657958984375,-0.605621337890625,0.844879150390625,1.0,2.0,1.0,1.0,2.0,100.0,event
12:33:17.656,0.7514398,0.42056385,0.52638763,1.2779598,0.615363,0.05779844,0.05319601,1.1148034,1.2288874,0.13423766,0.025499023,1.17753,0.97502834,-0.0382735,-0.024769139,0.8971911,0.6894498,-0.46894673,-0.5786912,0.6707851,790.9524,804.2491,818.7546,766.77655,787.326,-0.274658203125,0.17486572265625,0.93109130859375,2.205657958984375,-0.605621337890625,0.844879150390625,1.0,2.0,1.0,1.0,2.0,100.0,event
12:33:17.657,0.7514398,0.42056385,0.52638763,1.2779598,0.615363,0.05779844,0.05319601,1.1148034,1.2288874,0.13423766,0.025499023,1.17753,0.97502834,-0.0382735,-0.024769139,0.8971911,0.6894498,-0.46894673,-0.5786912,0.6707851,802.23444,801.02563,823.9927,765.16486,736.1539,-0.274658203125,0.17486572265625,0.93109130859375,2.205657958984375,-0.605621337890625,0.844879150390625,1.0,2.0,1.0,1.0,2.0,100.0,event
12:33:17.657,0.7514398,0.42056385,0.52638763,1.2779598,0.615363,0.05779844,0.05319601,1.1148034,1.2288874,0.13423766,0.025499023,1.17753,0.97502834,-0.0382735,-0.024769139,0.8971911,0.6894498,-0.46894673,-0.5786912,0.6707851,806.26373,796.1905,821.1722,766.77655,896.9231,-0.274658203125,0.17486572265625,0.93109130859375,2.205657958984375,-0.605621337890625,0.844879150390625,1.0,2.0,1.0,1.0,2.0,100.0,event
12:33:17.658,0.7514398,0.42056385,0.52638763,1.2779598,0.615363,0.05779844,0.05319601,1.1148034,1.2288874,0.13423766,0.025499023,1.17753,0.97502834,-0.0382735,-0.024769139,0.8971911,0.6894498,-0.46894673,-0.5786912,0.6707851,801.4286,805.4579,816.337,792.96704,1003.69965,-0.274658203125,0.17486572265625,0.93109130859375,2.205657958984375,-0.605621337890625,0.844879150390625,1.0,2.0,1.0,1.0,2.0,100.0,event
12:33:17.658,0.7514398,0.42056385,0.52638763,1.2779598,0.615363,0.05779844,0.05319601,1.1148034,1.2288874,0.13423766,0.025499023,1.17753,0.97502834,-0.0382735,-0.024769139,0.8971911,0.6894498,-0.46894673,-0.5786912,0.6707851,792.1612,811.0989,818.7546,805.8608,888.86444,-0.274658203125,0.17486572265625,0.93109130859375,2.205657958984375,-0.605621337890625,0.844879150390625,1.0,2.0,1.0,1.0,2.0,100.0,event
12:33:17.659,0.7514398,0.42056385,0.52638763,1.2779598,0.615363,0.05779844,0.05319601,1.1148034,1.2288874,0.13423766,0.025499023,1.17753,0.97502834,-0.0382735,-0.024769139,0.8971911,0.6894498,-0.46894673,-0.5786912,0.6707851,774.83514,808.68134,819.9634,771.2088,785.31134,-0.274658203125,0.17486572265625,0.93109130859375,2.205657958984375,-0.605621337890625,0.844879150390625,1.0,2.0,1.0,1.0,2.0,100.0,event
12:33:17.660,0.7514398,0.42056385,0.52638763,1.2779598,0.615363,0.05779844,0.05319601,1.1148034,1.2288874,0.13423766,0.025499023,1.17753,0.97502834,-0.0382735,-0.024769139,0.8971911,0.6894498,-0.46894673,-0.5786912,0.6707851,759.12085,799.81683,821.5751,744.21246,725.2747,-0.274658203125,0.17486572265625,0.93109130859375,2.205657958984375,-0.605621337890625,0.844879150390625,1.0,2.0,1.0,1.0,2.0,100.0,event
12:33:17.661,0.7514398,0.42056385,0.52638763,1.2779598,0.615363,0.05779844,0.05319601,1.1148034,1.2288874,0.13423766,0.025499023,1.17753,0.97502834,-0.0382735,-0.024769139,0.8971911,0.6894498,-0.46894673,-0.5786912,0.6707851,784.10254,802.23444,818.7546,753.47986,779.67035,-0.274658203125,0.17486572265625,0.93109130859375,2.205657958984375,-0.605621337890625,0.844879150390625,1.0,2.0,1.0,1.0,2.0,100.0,event
12:33:17.661,0.7514398,0.42056385,0.52638763,1.2779598,0.615363,0.05779844,0.05319601,1.1148034,1.2288874,0.13423766,0.025499023,1.17753,0.97502834,-0.0382735,-0.024769139,0.8971911,0.6894498,-0.46894673,-0.5786912,0.6707851,776.04395,795.78754,821.5751,737.3626,751.8681,-0.274658203125,0.17486572265625,0.93109130859375,2.205657958984375,-0.605621337890625,0.844879150390625,1.0,2.0,1.0,1.0,2.0,100.0,event
12:33:17.729,0.7514398,0.42056385,0.52638763,1.2779598,0.615363,0.05779844,0.05319601,1.1148034,1.2288874,0.13423766,0.025499023,1.17753,0.97502834,-0.0382735,-0.024769139,0.8971911,0.6894498,-0.46894673,-0.5786912,0.6707851,767.5824,801.8315,819.9634,767.1795,704.7253,-0.2728271484375,0.18121337890625,0.933349609375,2.392578125,-0.112152099609375,0.34393310546875,1.0,2.0,1.0,1.0,2.0,100.0,event
12:33:17.730,0.7514398,0.42056385,0.52638763,1.2779598,0.615363,0.05779844,0.05319601,1.1148034,1.2288874,0.13423766,0.025499023,1.17753,0.97502834,-0.0382735,-0.024769139,0.8971911,0.6894498,-0.46894673,-0.5786912,0.6707851,780.07324,800.6227,815.5311,762.74725,814.7253,-0.2728271484375,0.18121337890625,0.933349609375,2.392578125,-0.112152099609375,0.34393310546875,1.0,2.0,1.0,1.0,2.0,100.0,event
12:33:17.730,0.7514398,0.42056385,0.52638763,1.2779598,0.615363,0.05779844,0.05319601,1.1148034,1.2288874,0.13423766,0.025499023,1.17753,0.97502834,-0.0382735,-0.024769139,0.8971911,0.6894498,-0.46894673,-0.5786912,0.6707851,771.2088,803.0403,817.1429,771.6117,734.1392,-0.2728271484375,0.18121337890625,0.933349609375,2.392578125,-0.112152099609375,0.34393310546875,1.0,2.0,1.0,1.0,2.0,100.0,event
12:33:17.731,0.7514398,0.42056385,0.52638763,1.2779598,0.615363,0.05779844,0.05319601,1.1148034,1.2288874,0.13423766,0.025499023,1.17753,0.97502834,-0.0382735,-0.024769139,0.8971911,0.6894498,-0.46894673,-0.5786912,0.6707851,784.90845,801.4286,821.1722,747.03296,774.43225,-0.2728271484375,0.18121337890625,0.933349609375,2.392578125,-0.112152099609375,0.34393310546875,1.0,2.0,1.0,1.0,2.0,100.0,event
12:33:17.732,0.7514398,0.42056385,0.52638763,1.2779598,0.615363,0.05779844,0.05319601,1.1148034,1.2288874,0.13423766,0.025499023,1.17753,0.97502834,-0.0382735,-0.024769139,0.8971911,0.6894498,-0.46894673,-0.5786912,0.6707851,796.5934,805.8608,817.9487,758.71796,703.5165,-0.2728271484375,0.18121337890625,0.933349609375,2.392578125,-0.112152099609375,0.34393310546875,1.0,2.0,1.0,1.0,2.0,100.0,event
12:33:17.732,0.7514398,0.42056385,0.52638763,1.2779598,0.615363,0.05779844,0.05319601,1.1148034,1.2288874,0.13423766,0.025499023,1.17753,0.97502834,-0.0382735,-0.024769139,0.8971911,0.6894498,-0.46894673,-0.5786912,0.6707851,811.50183,803.0403,812.3077,777.25275,801.02563,-0.2728271484375,0.18121337890625,0.933349609375,2.392578125,-0.112152099609375,0.34393310546875,1.0,2.0,1.0,1.0,2.0,100.0,event
12:33:17.733,0.7514398,0.42056385,0.52638763,1.2779598,0.615363,0.05779844,0.05319601,1.1148034,1.2288874,0.13423766,0.025499023,1.17753,0.97502834,-0.0382735,-0.024769139,0.8971911,0.6894498,-0.46894673,-0.5786912,0.6707851,807.0696,804.2491,812.3077,780.87915,1014.17584,-0.2728271484375,0.18121337890625,0.933349609375,2.392578125,-0.112152099609375,0.34393310546875,1.0,2.0,1.0,1.0,2.0,100.0,event
12:33:17.734,0.7514398,0.42038393,0.4115144,1.2779598,0.615363,0.04386338,-0.086668506,1.1148034,1.2288874,0.084988385,-0.013317938,1.17753,0.97502834,-0.03324003,-0.05349592,0.8971911,0.6894498,-0.4894797,-0.63341886,0.6707851,799.011,806.6667,809.89014,790.9524,1219.2675,-0.2728271484375,0.18121337890625,0.933349609375,2.392578125,-0.112152099609375,0.34393310546875,1.0,2.0,1.0,1.0,2.0,100.0,event
12:33:17.738,0.7514398,0.42038393,0.4115144,1.2779598,0.615363,0.04386338,-0.086668506,1.1148034,1.2288874,0.084988385,-0.013317938,1.17753,0.97502834,-0.03324003,-0.05349592,0.8971911,0.6894498,-0.4894797,-0.63341886,0.6707851,797.3993,808.2784,809.0842,753.47986,939.2308,-0.2728271484375,0.18121337890625,0.933349609375,2.392578125,-0.112152099609375,0.34393310546875,1.0,2.0,1.0,1.0,2.0,100.0,event
12:33:17.739,0.7514398,0.42038393,0.4115144,1.2779598,0.615363,0.04386338,-0.086668506,1.1148034,1.2288874,0.084988385,-0.013317938,1.17753,0.97502834,-0.03324003,-0.05349592,0.8971911,0.6894498,-0.4894797,-0.63341886,0.6707851,801.8315,807.47253,811.0989,742.1978,694.2491,-0.2728271484375,0.18121337890625,0.933349609375,2.392578125,-0.112152099609375,0.34393310546875,1.0,2.0,1.0,1.0,2.0,100.0,event
12:33:17.739,0.7514398,0.42038393,0.4115144,1.2779598,0.615363,0.04386338,-0.086668506,1.1148034,1.2288874,0.084988385,-0.013317938,1.17753,0.97502834,-0.03324003,-0.05349592,0.8971911,0.6894498,-0.4894797,-0.63341886,0.6707851,790.54944,806.6667,815.12823,765.9707,776.04395,-0.2728271484375,0.18121337890625,0.933349609375,2.392578125,-0.112152099609375,0.34393310546875,1.0,2.0,1.0,1.0,2.0,100.0,event
12:33:17.740,0.7514398,0.42038393,0.4115144,1.2779598,0.615363,0.04386338,-0.086668506,1.1148034,1.2288874,0.084988385,-0.013317938,1.17753,0.97502834,-0.03324003,-0.05349592,0.8971911,0.6894498,-0.4894797,-0.63341886,0.6707851,783.69965,810.293,814.3223,761.13556,749.45056,-0.2728271484375,0.18121337890625,0.933349609375,2.392578125,-0.112152099609375,0.34393310546875,1.0,2.0,1.0,1.0,2.0,100.0,event
12:33:17.769,0.7514398,0.42038393,0.4115144,1.2779598,0.615363,0.04386338,-0.086668506,1.1148034,1.2288874,0.084988385,-0.013317938,1.17753,0.97502834,-0.03324003,-0.05349592,0.8971911,0.6894498,-0.4894797,-0.63341886,0.6707851,795.78754,812.3077,814.7253,751.8681,724.87177,-0.2728271484375,0.18121337890625,0.933349609375,2.392578125,-0.112152099609375,0.34393310546875,1.0,2.0,1.0,1.0,2.0,100.0,event
12:33:17.770,0.7514398,0.42038393,0.4115144,1.2779598,0.615363,0.04386338,-0.086668506,1.1148034,1.2288874,0.084988385,-0.013317938,1.17753,0.97502834,-0.03324003,-0.05349592,0.8971911,0.6894498,-0.4894797,-0.63341886,0.6707851,800.2198,808.68134,813.5165,764.35895,759.92676,-0.2728271484375,0.18121337890625,0.933349609375,2.392578125,-0.112152099609375,0.34393310546875,1.0,2.0,1.0,1.0,2.0,100.0,event
12:33:17.771,0.7514398,0.42038393,0.4115144,1.2779598,0.615363,0.04386338,-0.086668506,1.1148034,1.2288874,0.084988385,-0.013317938,1.17753,0.97502834,-0.03324003,-0.05349592,0.8971911,0.6894498,-0.4894797,-0.63341886,0.6707851,800.2198,805.05493,813.1135,786.1172,801.4286,-0.2728271484375,0.18121337890625,0.933349609375,2.392578125,-0.112152099609375,0.34393310546875,1.0,2.0,1.0,1.0,2.0,100.0,event
12:33:17.772,0.7514398,0.42038393,0.4115144,1.2779598,0.615363,0.04386338,-0.086668506,1.1148034,1.2288874,0.084988385,-0.013317938,1.17753,0.97502834,-0.03324003,-0.05349592,0.8971911,0.6894498,-0.4894797,-0.63341886,0.6707851,814.7253,806.6667,813.91943,803.0403,759.92676,-0.2728271484375,0.18121337890625,0.933349609375,2.392578125,-0.112152099609375,0.34393310546875,1.0,2.0,1.0,1.0,2.0,100.0,event
12:33:17.773,0.7514398,0.42038393,0.4115144,1.2779598,0.615363,0.04386338,-0.086668506,1.1148034,1.2288874,0.084988385,-0.013317938,1.17753,0.97502834,-0.03324003,-0.05349592,0.8971911,0.6894498,-0.4894797,-0.63341886,0.6707851,801.02563,805.05493,815.12823,813.91943,788.93774,-0.2728271484375,0.18121337890625,0.933349609375,2.392578125,-0.112152099609375,0.34393310546875,1.0,2.0,1.0,1.0,2.0,100.0,event
12:33:17.774,0.7514398,0.42038393,0.4115144,1.2779598,0.615363,0.04386338,-0.086668506,1.1148034,1.2288874,0.084988385,-0.013317938,1.17753,0.97502834,-0.03324003,-0.05349592,0.8971911,0.6894498,-0.4894797,-0.63341886,0.6707851,786.1172,803.8461,817.5458,788.1319,934.7985,-0.2728271484375,0.18121337890625,0.933349609375,2.392578125,-0.112152099609375,0.34393310546875,1.0,2.0,1.0,1.0,2.0,100.0,event
12:33:17.775,0.7514398,0.42038393,0.4115144,1.2779598,0.615363,0.04386338,-0.086668506,1.1148034,1.2288874,0.084988385,-0.013317938,1.17753,0.97502834,-0.03324003,-0.05349592,0.8971911,0.6894498,-0.4894797,-0.63341886,0.6707851,794.17584,807.8755,815.12823,785.31134,1040.7693,-0.2728271484375,0.18121337890625,0.933349609375,2.392578125,-0.112152099609375,0.34393310546875,1.0,2.0,1.0,1.0,2.0,100.0,event
12:33:17.776,0.7514398,0.42038393,0.4115144,1.2779598,0.615363,0.04386338,-0.086668506,1.1148034,1.2288874,0.084988385,-0.013317938,1.17753,0.97502834,-0.03324003,-0.05349592,0.8971911,0.6894498,-0.4894797,-0.63341886,0.6707851,779.67035,804.2491,815.12823,785.31134,834.87177,-0.2728271484375,0.18121337890625,0.933349609375,2.392578125,-0.112152099609375,0.34393310546875,1.0,2.0,1.0,1.0,2.0,100.0,event
12:33:17.777,0.7514398,0.42038393,0.4115144,1.2779598,0.615363,0.04386338,-0.086668506,1.1148034,1.2288874,0.084988385,-0.013317938,1.17753,0.97502834,-0.03324003,-0.05349592,0.8971911,0.6894498,-0.4894797,-0.63341886,0.6707851,775.2381,805.05493,820.3663,767.5824,740.58606,-0.2728271484375,0.18121337890625,0.933349609375,2.392578125,-0.112152099609375,0.34393310546875,1.0,2.0,1.0,1.0,2.0,100.0,event
12:33:17.778,0.7514398,0.42038393,0.4115144,1.2779598,0.615363,0.04386338,-0.086668506,1.1148034,1.2288874,0.084988385,-0.013317938,1.17753,0.97502834,-0.03324003,-0.05349592,0.8971911,0.6894498,-0.4894797,-0.63341886,0.6707851,778.0586,792.1612,827.619,767.1795,913.44324,-0.2728271484375,0.18121337890625,0.933349609375,2.392578125,-0.112152099609375,0.34393310546875,1.0,2.0,1.0,1.0,2.0,100.0,event
12:33:17.779,0.7514398,0.42038393,0.4115144,1.2779598,0.615363,0.04386338,-0.086668506,1.1148034,1.2288874,0.084988385,-0.013317938,1.17753,0.97502834,-0.03324003,-0.05349592,0.8971911,0.6894498,-0.4894797,-0.63341886,0.6707851,777.25275,784.5055,826.0073,759.5238,916.6667,-0.2728271484375,0.18121337890625,0.933349609375,2.392578125,-0.112152099609375,0.34393310546875,1.0,2.0,1.0,1.0,2.0,100.0,event
12:33:17.780,0.7514398,0.42038393,0.4115144,1.2779598,0.615363,0.04386338,-0.086668506,1.1148034,1.2288874,0.084988385,-0.013317938,1.17753,0.97502834,-0.03324003,-0.05349592,0.8971911,0.6894498,-0.4894797,-0.63341886,0.6707851,785.7143,806.6667,818.3516,767.5824,753.0769,-0.2728271484375,0.18121337890625,0.933349609375,2.392578125,-0.112152099609375,0.34393310546875,1.0,2.0,1.0,1.0,2.0,100.0,event
12:33:17.811,0.7514398,0.42038393,0.4115144,1.2779598,0.615363,0.04386338,-0.086668506,1.1148034,1.2288874,0.084988385,-0.013317938,1.17753,0.97502834,-0.03324003,-0.05349592,0.8971911,0.6894498,-0.4894797,-0.63341886,0.6707851,785.31134,814.7253,813.91943,778.0586,695.8608,-0.27239990234375,0.18328857421875,0.93426513671875,1.487884521484375,-0.16448974609375,2.415008544921875,1.0,2.0,1.0,1.0,2.0,100.0,event
12:33:17.813,0.7514398,0.42038393,0.4115144,1.2779598,0.615363,0.04386338,-0.086668506,1.1148034,1.2288874,0.084988385,-0.013317938,1.17753,0.97502834,-0.03324003,-0.05349592,0.8971911,0.6894498,-0.4894797,-0.63341886,0.6707851,806.6667,815.12823,807.47253,792.1612,874.35895,-0.27239990234375,0.18328857421875,0.93426513671875,1.487884521484375,-0.16448974609375,2.415008544921875,1.0,2.0,1.0,1.0,2.0,100.0,event
12:33:17.814,0.7514398,0.42038393,0.4115144,1.2779598,0.615363,0.04386338,-0.086668506,1.1148034,1.2288874,0.084988385,-0.013317938,1.17753,0.97502834,-0.03324003,-0.05349592,0.8971911,0.6894498,-0.4894797,-0.63341886,0.6707851,828.022,819.5604,807.47253,800.2198,954.5421,-0.27239990234375,0.18328857421875,0.93426513671875,1.487884521484375,-0.16448974609375,2.415008544921875,1.0,2.0,1.0,1.0,2.0,100.0,event
12:33:17.814,0.7514398,0.42038393,0.4115144,1.2779598,0.615363,0.04386338,-0.086668506,1.1148034,1.2288874,0.084988385,-0.013317938,1.17753,0.97502834,-0.03324003,-0.05349592,0.8971911,0.6894498,-0.4894797,-0.63341886,0.6707851,818.7546,816.7399,816.7399,776.04395,717.2161,-0.27239990234375,0.18328857421875,0.93426513671875,1.487884521484375,-0.16448974609375,2.415008544921875,1.0,2.0,1.0,1.0,2.0,100.0,event
12:33:17.815,0.7514398,0.42038393,0.4115144,1.2779598,0.615363,0.04386338,-0.086668506,1.1148034,1.2288874,0.084988385,-0.013317938,1.17753,0.97502834,-0.03324003,-0.05349592,0.8971911,0.6894498,-0.4894797,-0.63341886,0.6707851,805.8608,809.0842,819.15753,763.1502,697.0696,-0.27239990234375,0.18328857421875,0.93426513671875,1.487884521484375,-0.16448974609375,2.415008544921875,1.0,2.0,1.0,1.0,2.0,100.0,event
12:33:17.816,0.7514398,0.42038393,0.4115144,1.2779598,0.615363,0.04386338,-0.086668506,1.1148034,1.2288874,0.084988385,-0.013317938,1.17753,0.97502834,-0.03324003,-0.05349592,0.8971911,0.6894498,-0.4894797,-0.63341886,0.6707851,807.0696,806.26373,813.91943,770.80585,887.25275,-0.27239990234375,0.18328857421875,0.93426513671875,1.487884521484375,-0.16448974609375,2.415008544921875,1.0,2.0,1.0,1.0,2.0,100.0,event
12:33:17.817,0.7514398,0.42038393,0.4115144,1.2779598,0.615363,0.04386338,-0.086668506,1.1148034,1.2288874,0.084988385,-0.013317938,1.17753,0.97502834,-0.03324003,-0.05349592,0.8971911,0.6894498,-0.4894797,-0.63341886,0.6707851,807.8755,800.2198,818.7546,800.2198,874.35895,-0.27239990234375,0.18328857421875,0.93426513671875,1.487884521484375,-0.16448974609375,2.415008544921875,1.0,2.0,1.0,1.0,2.0,100.0,event
12:33:17.817,0.7514398,0.42038393,0.4115144,1.2779598,0.615363,0.04386338,-0.086668506,1.1148034,1.2288874,0.084988385,-0.013317938,1.17753,0.97502834,-0.03324003,-0.05349592,0.8971911,0.6894498,-0.4894797,-0.63341886,0.6707851,810.696,804.65204,815.9341,781.28204,958.97437,-0.27239990234375,0.18328857421875,0.93426513671875,1.487884521484375,-0.16448974609375,2.415008544921875,1.0,2.0,1.0,1.0,2.0,100.0,event
12:33:17.818,0.7514398,0.42038393,0.4115144,1.2779598,0.615363,0.04386338,-0.086668506,1.1148034,1.2288874,0.084988385,-0.013317938,1.17753,0.97502834,-0.03324003,-0.05349592,0.8971911,0.6894498,-0.4894797,-0.63341886,0.6707851,827.2161,807.47253,811.0989,786.9231,824.7985,-0.27239990234375,0.18328857421875,0.93426513671875,1.487884521484375,-0.16448974609375,2.415008544921875,1.0,2.0,1.0,1.0,2.0,100.0,event
12:33:17.819,0.7514398,0.4220658,0.29751763,1.2779598,0.615363,0.043772843,-0.19793656,1.1148034,1.2288874,0.07875083,-0.018937115,1.17753,0.97502834,-0.020346014,-0.04889,0.8971911,0.6894498,-0.5031888,-0.65570074,0.6707851,825.6044,815.12823,810.293,768.3883,1015.78754,-0.27239990234375,0.18328857421875,0.93426513671875,1.487884521484375,-0.16448974609375,2.415008544921875,1.0,2.0,1.0,1.0,2.0,100.0,event
12:33:17.823,0.7514398,0.4220658,0.29751763,1.2779598,0.615363,0.043772843,-0.19793656,1.1148034,1.2288874,0.07875083,-0.018937115,1.17753,0.97502834,-0.020346014,-0.04889,0.8971911,0.6894498,-0.5031888,-0.65570074,0.6707851,812.3077,811.9048,819.15753,774.0293,1039.1575,-0.27239990234375,0.18328857421875,0.93426513671875,1.487884521484375,-0.16448974609375,2.415008544921875,1.0,2.0,1.0,1.0,2.0,100.0,event
12:33:17.824,0.7514398,0.4220658,0.29751763,1.2779598,0.615363,0.043772843,-0.19793656,1.1148034,1.2288874,0.07875083,-0.018937115,1.17753,0.97502834,-0.020346014,-0.04889,0.8971911,0.6894498,-0.5031888,-0.65570074,0.6707851,816.7399,804.65204,823.5897,778.86444,749.45056,-0.27239990234375,0.18328857421875,0.93426513671875,1.487884521484375,-0.16448974609375,2.415008544921875,1.0,2.0,1.0,1.0,2.0,100.0,event
12:33:17.851,0.7514398,0.4220658,0.29751763,1.2779598,0.615363,0.043772843,-0.19793656,1.1148034,1.2288874,0.07875083,-0.018937115,1.17753,0.97502834,-0.020346014,-0.04889,0.8971911,0.6894498,-0.5031888,-0.65570074,0.6707851,823.5897,799.011,818.7546,796.99634,744.61536,-0.2852783203125,0.17987060546875,0.93475341796875,2.265472412109375,-1.547698974609375,3.39447021484375,1.0,2.0,1.0,1.0,2.0,100.0,event
12:33:17.852,0.7514398,0.4220658,0.29751763,1.2779598,0.615363,0.043772843,-0.19793656,1.1148034,1.2288874,0.07875083,-0.018937115,1.17753,0.97502834,-0.020346014,-0.04889,0.8971911,0.6894498,-0.5031888,-0.65570074,0.6707851,816.7399,803.44324,817.9487,792.1612,815.9341,-0.2852783203125,0.17987060546875,0.93475341796875,2.265472412109375,-1.547698974609375,3.39447021484375,1.0,2.0,1.0,1.0,2.0,100.0,event
12:33:17.853,0.7514398,0.4220658,0.29751763,1.2779598,0.615363,0.043772843,-0.19793656,1.1148034,1.2288874,0.07875083,-0.018937115,1.17753,0.97502834,-0.020346014,-0.04889,0.8971911,0.6894498,-0.5031888,-0.65570074,0.6707851,825.2015,812.71063,821.5751,808.2784,784.10254,-0.2852783203125,0.17987060546875,0.93475341796875,2.265472412109375,-1.547698974609375,3.39447021484375,1.0,2.0,1.0,1.0,2.0,100.0,event
12:33:17.853,0.7514398,0.4220658,0.29751763,1.2779598,0.615363,0.043772843,-0.19793656,1.1148034,1.2288874,0.07875083,-0.018937115,1.17753,0.97502834,-0.020346014,-0.04889,0.8971911,0.6894498,-0.5031888,-0.65570074,0.6707851,827.2161,818.7546,821.978,816.7399,714.3956,-0.2852783203125,0.17987060546875,0.93475341796875,2.265472412109375,-1.547698974609375,3.39447021484375,1.0,2.0,1.0,1.0,2.0,100.0,event
12:33:17.854,0.7514398,0.4220658,0.29751763,1.2779598,0.615363,0.043772843,-0.19793656,1.1148034,1.2288874,0.07875083,-0.018937115,1.17753,0.97502834,-0.020346014,-0.04889,0.8971911,0.6894498,-0.5031888,-0.65570074,0.6707851,815.12823,813.5165,823.5897,786.9231,786.1172,-0.2852783203125,0.17987060546875,0.93475341796875,2.265472412109375,-1.547698974609375,3.39447021484375,1.0,2.0,1.0,1.0,2.0,100.0,event
12:33:17.855,0.7514398,0.4220658,0.29751763,1.2779598,0.615363,0.043772843,-0.19793656,1.1148034,1.2288874,0.07875083,-0.018937115,1.17753,0.97502834,-0.020346014,-0.04889,0.8971911,0.6894498,-0.5031888,-0.65570074,0.6707851,829.2308,807.0696,822.381,797.3993,971.06226,-0.2852783203125,0.17987060546875,0.93475341796875,2.265472412109375,-1.547698974609375,3.39447021484375,1.0,2.0,1.0,1.0,2.0,100.0,event
12:33:17.855,0.7514398,0.4220658,0.29751763,1.2779598,0.615363,0.043772843,-0.19793656,1.1148034,1.2288874,0.07875083,-0.018937115,1.17753,0.97502834,-0.020346014,-0.04889,0.8971911,0.6894498,-0.5031888,-0.65570074,0.6707851,821.978,803.8461,815.9341,805.4579,961.79486,-0.2852783203125,0.17987060546875,0.93475341796875,2.265472412109375,-1.547698974609375,3.39447021484375,1.0,2.0,1.0,1.0,2.0,100.0,event
12:33:17.856,0.7514398,0.4220658,0.29751763,1.2779598,0.615363,0.043772843,-0.19793656,1.1148034,1.2288874,0.07875083,-0.018937115,1.17753,0.97502834,-0.020346014,-0.04889,0.8971911,0.6894498,-0.5031888,-0.65570074,0.6707851,800.6227,801.4286,815.5311,801.4286,757.9121,-0.2852783203125,0.17987060546875,0.93475341796875,2.265472412109375,-1.547698974609375,3.39447021484375,1.0,2.0,1.0,1.0,2.0,100.0,event
12:33:17.857,0.7514398,0.4220658,0.29751763,1.2779598,0.615363,0.043772843,-0.19793656,1.1148034,1.2288874,0.07875083,-0.018937115,1.17753,0.97502834,-0.020346014,-0.04889,0.8971911,0.6894498,-0.5031888,-0.65570074,0.6707851,804.65204,803.8461,818.7546,806.26373,807.8755,-0.2852783203125,0.17987060546875,0.93475341796875,2.265472412109375,-1.547698974609375,3.39447021484375,1.0,2.0,1.0,1.0,2.0,100.0,event
12:33:17.858,0.7514398,0.4220658,0.29751763,1.2779598,0.615363,0.043772843,-0.19793656,1.1148034,1.2288874,0.07875083,-0.018937115,1.17753,0.97502834,-0.020346014,-0.04889,0.8971911,0.6894498,-0.5031888,-0.65570074,0.6707851,811.9048,804.2491,819.9634,808.68134,1021.02563,-0.2852783203125,0.17987060546875,0.93475341796875,2.265472412109375,-1.547698974609375,3.39447021484375,1.0,2.0,1.0,1.0,2.0,100.0,event
12:33:17.859,0.7514398,0.4220658,0.29751763,1.2779598,0.615363,0.043772843,-0.19793656,1.1148034,1.2288874,0.07875083,-0.018937115,1.17753,0.97502834,-0.020346014,-0.04889,0.8971911,0.6894498,-0.5031888,-0.65570074,0.6707851,812.71063,807.0696,820.3663,803.44324,928.3516,-0.2852783203125,0.17987060546875,0.93475341796875,2.265472412109375,-1.547698974609375,3.39447021484375,1.0,2.0,1.0,1.0,2.0,100.0,event
12:33:17.860,0.7514398,0.4220658,0.29751763,1.2779598,0.615363,0.043772843,-0.19793656,1.1148034,1.2288874,0.07875083,-0.018937115,1.17753,0.97502834,-0.020346014,-0.04889,0.8971911,0.6894498,-0.5031888,-0.65570074,0.6707851,803.0403,810.696,815.9341,787.326,840.9158,-0.2852783203125,0.17987060546875,0.93475341796875,2.265472412109375,-1.547698974609375,3.39447021484375,1.0,2.0,1.0,1.0,2.0,100.0,event
12:33:17.885,0.7514398,0.4220658,0.29751763,1.2779598,0.615363,0.043772843,-0.19793656,1.1148034,1.2288874,0.07875083,-0.018937115,1.17753,0.97502834,-0.020346014,-0.04889,0.8971911,0.6894498,-0.5031888,-0.65570074,0.6707851,798.60803,803.0403,811.9048,779.67035,919.89014,-0.2838134765625,0.176025390625,0.93328857421875,2.639312744140625,-6.273040771484375,2.51220703125,1.0,2.0,1.0,1.0,2.0,100.0,event
12:33:17.886,0.7514398,0.4220658,0.29751763,1.2779598,0.615363,0.043772843,-0.19793656,1.1148034,1.2288874,0.07875083,-0.018937115,1.17753,0.97502834,-0.020346014,-0.04889,0.8971911,0.6894498,-0.5031888,-0.65570074,0.6707851,803.8461,799.81683,817.5458,813.91943,902.5641,-0.2838134765625,0.176025390625,0.93328857421875,2.639312744140625,-6.273040771484375,2.51220703125,1.0,2.0,1.0,1.0,2.0,100.0,event
12:33:17.886,0.7514398,0.4220658,0.29751763,1.2779598,0.615363,0.043772843,-0.19793656,1.1148034,1.2288874,0.07875083,-0.018937115,1.17753,0.97502834,-0.020346014,-0.04889,0.8971911,0.6894498,-0.5031888,-0.65570074,0.6707851,801.4286,806.6667,821.1722,819.15753,755.89746,-0.2838134765625,0.176025390625,0.93328857421875,2.639312744140625,-6.273040771484375,2.51220703125,1.0,2.0,1.0,1.0,2.0,100.0,event
12:33:17.887,0.7514398,0.4220658,0.29751763,1.2779598,0.615363,0.043772843,-0.19793656,1.1148034,1.2288874,0.07875083,-0.018937115,1.17753,0.97502834,-0.020346014,-0.04889,0.8971911,0.6894498,-0.5031888,-0.65570074,0.6707851,824.7985,809.4872,818.7546,799.011,798.20514,-0.2838134765625,0.176025390625,0.93328857421875,2.639312744140625,-6.273040771484375,2.51220703125,1.0,2.0,1.0,1.0,2.0,100.0,event
12:33:17.887,0.7514398,0.4220658,0.29751763,1.2779598,0.615363,0.043772843,-0.19793656,1.1148034,1.2288874,0.07875083,-0.018937115,1.17753,0.97502834,-0.020346014,-0.04889,0.8971911,0.6894498,-0.5031888,-0.65570074,0.6707851,832.0513,803.44324,817.9487,801.4286,866.30035,-0.2838134765625,0.176025390625,0.93328857421875,2.639312744140625,-6.273040771484375,2.51220703125,1.0,2.0,1.0,1.0,2.0,100.0,event
12:33:17.888,0.7514398,0.4220658,0.29751763,1.2779598,0.615363,0.043772843,-0.19793656,1.1148034,1.2288874,0.07875083,-0.018937115,1.17753,0.97502834,-0.020346014,-0.04889,0.8971911,0.6894498,-0.5031888,-0.65570074,0.6707851,817.5458,801.4286,814.7253,808.68134,934.7985,-0.2838134765625,0.176025390625,0.93328857421875,2.639312744140625,-6.273040771484375,2.51220703125,1.0,2.0,1.0,1.0,2.0,100.0,event
12:33:17.889,0.7514398,0.4220658,0.29751763,1.2779598,0.615363,0.043772843,-0.19793656,1.1148034,1.2288874,0.07875083,-0.018937115,1.17753,0.97502834,-0.020346014,-0.04889,0.8971911,0.6894498,-0.5031888,-0.65570074,0.6707851,817.9487,805.05493,811.9048,804.2491,920.696,-0.2838134765625,0.176025390625,0.93328857421875,2.639312744140625,-6.273040771484375,2.51220703125,1.0,2.0,1.0,1.0,2.0,100.0,event
12:33:17.889,0.7514398,0.4220658,0.29751763,1.2779598,0.615363,0.043772843,-0.19793656,1.1148034,1.2288874,0.07875083,-0.018937115,1.17753,0.97502834,-0.020346014,-0.04889,0.8971911,0.6894498,-0.5031888,-0.65570074,0.6707851,823.9927,802.6374,816.337,788.1319,772.01465,-0.2838134765625,0.176025390625,0.93328857421875,2.639312744140625,-6.273040771484375,2.51220703125,1.0,2.0,1.0,1.0,2.0,100.0,event
12:33:17.890,0.7514398,0.4220658,0.29751763,1.2779598,0.615363,0.043772843,-0.19793656,1.1148034,1.2288874,0.07875083,-0.018937115,1.17753,0.97502834,-0.020346014,-0.04889,0.8971911,0.6894498,-0.5031888,-0.65570074,0.6707851,826.8132,799.011,821.1722,805.05493,939.2308,-0.2838134765625,0.176025390625,0.93328857421875,2.639312744140625,-6.273040771484375,2.51220703125,1.0,2.0,1.0,1.0,2.0,100.0,event
12:33:17.890,0.7514398,0.4220658,0.29751763,1.2779598,0.615363,0.043772843,-0.19793656,1.1148034,1.2288874,0.07875083,-0.018937115,1.17753,0.97502834,-0.020346014,-0.04889,0.8971911,0.6894498,-0.5031888,-0.65570074,0.6707851,803.44324,799.41394,825.2015,815.9341,957.3626,-0.2838134765625,0.176025390625,0.93328857421875,2.639312744140625,-6.273040771484375,2.51220703125,1.0,2.0,1.0,1.0,2.0,100.0,event
12:33:17.891,0.7514398,0.4220658,0.29751763,1.2779598,0.615363,0.043772843,-0.19793656,1.1148034,1.2288874,0.07875083,-0.018937115,1.17753,0.97502834,-0.020346014,-0.04889,0.8971911,0.6894498,-0.5031888,-0.65570074,0.6707851,782.8938,799.81683,826.4103,796.99634,686.5934,-0.2838134765625,0.176025390625,0.93328857421875,2.639312744140625,-6.273040771484375,2.51220703125,1.0,2.0,1.0,1.0,2.0,100.0,event
12:33:17.891,0.7514398,0.4221165,0.29751763,1.2779598,0.615363,0.045911297,-0.19793656,1.1148034,1.2288874,0.07875083,-0.018937115,1.17753,0.97502834,-0.0013346479,-0.04889,0.8971911,0.6894498,-0.5036433,-0.65570074,0.6707851,803.8461,795.38464,823.5897,794.57874,709.9634,-0.2838134765625,0.176025390625,0.93328857421875,2.639312744140625,-6.273040771484375,2.51220703125,1.0,2.0,1.0,1.0,2.0,100.0,event
12:33:17.920,0.7514398,0.4221165,0.29751763,1.2779598,0.615363,0.045911297,-0.19793656,1.1148034,1.2288874,0.07875083,-0.018937115,1.17753,0.97502834,-0.0013346479,-0.04889,0.8971911,0.6894498,-0.5036433,-0.65570074,0.6707851,823.1868,793.7729,819.15753,811.0989,738.97437,-0.2994384765625,0.17431640625,0.9398193359375,2.908477783203125,-9.1217041015625,0.40374755859375,1.0,2.0,1.0,1.0,2.0,100.0,event
12:33:17.921,0.7514398,0.4221165,0.29751763,1.2779598,0.615363,0.045911297,-0.19793656,1.1148034,1.2288874,0.07875083,-0.018937115,1.17753,0.97502834,-0.0013346479,-0.04889,0.8971911,0.6894498,-0.5036433,-0.65570074,0.6707851,802.6374,796.5934,814.7253,834.4689,805.4579,-0.2994384765625,0.17431640625,0.9398193359375,2.908477783203125,-9.1217041015625,0.40374755859375,1.0,2.0,1.0,1.0,2.0,100.0,event
12:33:17.921,0.7514398,0.4221165,0.29751763,1.2779598,0.615363,0.045911297,-0.19793656,1.1148034,1.2288874,0.07875083,-0.018937115,1.17753,0.97502834,-0.0013346479,-0.04889,0.8971911,0.6894498,-0.5036433,-0.65570074,0.6707851,799.011,802.23444,815.12823,839.304,827.619,-0.2994384765625,0.17431640625,0.9398193359375,2.908477783203125,-9.1217041015625,0.40374755859375,1.0,2.0,1.0,1.0,2.0,100.0,event
12:33:17.922,0.7514398,0.4221165,0.29751763,1.2779598,0.615363,0.045911297,-0.19793656,1.1148034,1.2288874,0.07875083,-0.018937115,1.17753,0.97502834,-0.0013346479,-0.04889,0.8971911,0.6894498,-0.5036433,-0.65570074,0.6707851,804.2491,805.8608,819.9634,830.0366,816.337,-0.2994384765625,0.17431640625,0.9398193359375,2.908477783203125,-9.1217041015625,0.40374755859375,1.0,2.0,1.0,1.0,2.0,100.0,event
12:33:17.922,0.7514398,0.4221165,0.29751763,1.2779598,0.615363,0.045911297,-0.19793656,1.1148034,1.2288874,0.07875083,-0.018937115,1.17753,0.97502834,-0.0013346479,-0.04889,0.8971911,0.6894498,-0.5036433,-0.65570074,0.6707851,796.1905,807.47253,821.1722,813.5165,863.0769,-0.2994384765625,0.17431640625,0.9398193359375,2.908477783203125,-9.1217041015625,0.40374755859375,1.0,2.0,1.0,1.0,2.0,100.0,event
12:33:17.923,0.7514398,0.4221165,0.29751763,1.2779598,0.615363,0.045911297,-0.19793656,1.1148034,1.2288874,0.07875083,-0.018937115,1.17753,0.97502834,-0.0013346479,-0.04889,0.8971911,0.6894498,-0.5036433,-0.65570074,0.6707851,809.0842,809.89014,815.5311,786.52014,867.9121,-0.2994384765625,0.17431640625,0.9398193359375,2.908477783203125,-9.1217041015625,0.40374755859375,1.0,2.0,1.0,1.0,2.0,100.0,event
12:33:17.923,0.7514398,0.4221165,0.29751763,1.2779598,0.615363,0.045911297,-0.19793656,1.1148034,1.2288874,0.07875083,-0.018937115,1.17753,0.97502834,-0.0013346479,-0.04889,0.8971911,0.6894498,-0.5036433,-0.65570074,0.6707851,803.0403,812.3077,808.68134,798.60803,868.71796,-0.2994384765625,0.17431640625,0.9398193359375,2.908477783203125,-9.1217041015625,0.40374755859375,1.0,2.0,1.0,1.0,2.0,100.0,event
12:33:17.924,0.7514398,0.4221165,0.29751763,1.2779598,0.615363,0.045911297,-0.19793656,1.1148034,1.2288874,0.07875083,-0.018937115,1.17753,0.97502834,-0.0013346479,-0.04889,0.8971911,0.6894498,-0.5036433,-0.65570074,0.6707851,779.2674,804.65204,809.4872,812.71063,888.0586,-0.2994384765625,0.17431640625,0.9398193359375,2.908477783203125,-9.1217041015625,0.40374755859375,1.0,2.0,1.0,1.0,2.0,100.0,event
12:33:17.924,0.7514398,0.4221165,0.29751763,1.2779598,0.615363,0.045911297,-0.19793656,1.1148034,1.2288874,0.07875083,-0.018937115,1.17753,0.97502834,-0.0013346479,-0.04889,0.8971911,0.6894498,-0.5036433,-0.65570074,0.6707851,777.6557,799.41394,811.0989,798.60803,1131.4286,-0.2994384765625,0.17431640625,0.9398193359375,2.908477783203125,-9.1217041015625,0.40374755859375,1.0,2.0,1.0,1.0,2.0,100.0,event
12:33:17.925,0.7514398,0.4221165,0.29751763,1.2779598,0.615363,0.045911297,-0.19793656,1.1148034,1.2288874,0.07875083,-0.018937115,1.17753,0.97502834,-0.0013346479,-0.04889,0.8971911,0.6894498,-0.5036433,-0.65570074,0.6707851,778.86444,801.4286,811.0989,780.87915,976.30035,-0.2994384765625,0.17431640625,0.9398193359375,2.908477783203125,-9.1217041015625,0.40374755859375,1.0,2.0,1.0,1.0,2.0,100.0,event
12:33:17.925,0.7514398,0.4221165,0.29751763,1.2779598,0.615363,0.045911297,-0.19793656,1.1148034,1.2288874,0.07875083,-0.018937115,1.17753,0.97502834,-0.0013346479,-0.04889,0.8971911,0.6894498,-0.5036433,-0.65570074,0.6707851,784.5055,799.011,811.50183,772.8205,705.9341,-0.2994384765625,0.17431640625,0.9398193359375,2.908477783203125,-9.1217041015625,0.40374755859375,1.0,2.0,1.0,1.0,2.0,100.0,event
12:33:17.926,0.7514398,0.4221165,0.29751763,1.2779598,0.615363,0.045911297,-0.19793656,1.1148034,1.2288874,0.07875083,-0.018937115,1.17753,0.97502834,-0.0013346479,-0.04889,0.8971911,0.6894498,-0.5036433,-0.65570074,0.6707851,792.1612,801.8315,809.0842,785.31134,797.3993,-0.2994384765625,0.17431640625,0.9398193359375,2.908477783203125,-9.1217041015625,0.40374755859375,1.0,2.0,1.0,1.0,2.0,100.0,event
12:33:17.996,0.7514398,0.4221165,0.29751763,1.2779598,0.615363,0.045911297,-0.19793656,1.1148034,1.2288874,0.07875083,-0.018937115,1.17753,0.97502834,-0.0013346479,-0.04889,0.8971911,0.6894498,-0.5036433,-0.65570074,0.6707851,797.3993,807.47253,809.89014,794.57874,801.4286,-0.2994384765625,0.17431640625,0.9398193359375,2.908477783203125,-9.1217041015625,0.40374755859375,1.0,2.0,1.0,1.0,2.0,100.0,event
12:33:17.997,0.7514398,0.4221165,0.29751763,1.2779598,0.615363,0.045911297,-0.19793656,1.1148034,1.2288874,0.07875083,-0.018937115,1.17753,0.97502834,-0.0013346479,-0.04889,0.8971911,0.6894498,-0.5036433,-0.65570074,0.6707851,790.54944,807.47253,810.696,774.43225,700.696,-0.2994384765625,0.17431640625,0.9398193359375,2.908477783203125,-9.1217041015625,0.40374755859375,1.0,2.0,1.0,1.0,2.0,100.0,event
12:33:17.998,0.7514398,0.4221165,0.29751763,1.2779598,0.615363,0.045911297,-0.19793656,1.1148034,1.2288874,0.07875083,-0.018937115,1.17753,0.97502834,-0.0013346479,-0.04889,0.8971911,0.6894498,-0.5036433,-0.65570074,0.6707851,792.96704,806.6667,811.0989,767.98535,784.10254,-0.2994384765625,0.17431640625,0.9398193359375,2.908477783203125,-9.1217041015625,0.40374755859375,1.0,2.0,1.0,1.0,2.0,100.0,event
12:33:17.998,0.7514398,0.4221165,0.29751763,1.2779598,0.615363,0.045911297,-0.19793656,1.1148034,1.2288874,0.07875083,-0.018937115,1.17753,0.97502834,-0.0013346479,-0.04889,0.8971911,0.6894498,-0.5036433,-0.65570074,0.6707851,788.1319,804.2491,810.293,760.32965,718.8278,-0.2994384765625,0.17431640625,0.9398193359375,2.908477783203125,-9.1217041015625,0.40374755859375,1.0,2.0,1.0,1.0,2.0,100.0,event
12:33:17.999,0.7514398,0.4221165,0.29751763,1.2779598,0.615363,0.045911297,-0.19793656,1.1148034,1.2288874,0.07875083,-0.018937115,1.17753,0.97502834,-0.0013346479,-0.04889,0.8971911,0.6894498,-0.5036433,-0.65570074,0.6707851,777.6557,809.0842,811.0989,778.46155,829.6337,-0.2994384765625,0.17431640625,0.9398193359375,2.908477783203125,-9.1217041015625,0.40374755859375,1.0,2.0,1.0,1.0,2.0,100.0,event
12:33:18.000,0.7514398,0.4221165,0.29751763,1.2779598,0.615363,0.045911297,-0.19793656,1.1148034,1.2288874,0.07875083,-0.018937115,1.17753,0.97502834,-0.0013346479,-0.04889,0.8971911,0.6894498,-0.5036433,-0.65570074,0.6707851,801.4286,806.6667,810.293,788.5348,872.74725,-0.2994384765625,0.17431640625,0.9398193359375,2.908477783203125,-9.1217041015625,0.40374755859375,1.0,2.0,1.0,1.0,2.0,100.0,event
12:33:18.001,0.7514398,0.4221165,0.29751763,1.2779598,0.615363,0.045911297,-0.19793656,1.1148034,1.2288874,0.07875083,-0.018937115,1.17753,0.97502834,-0.0013346479,-0.04889,0.8971911,0.6894498,-0.5036433,-0.65570074,0.6707851,816.337,805.4579,809.89014,791.3553,845.34796,-0.2994384765625,0.17431640625,0.9398193359375,2.908477783203125,-9.1217041015625,0.40374755859375,1.0,2.0,1.0,1.0,2.0,100.0,event
12:33:18.001,0.7514398,0.4221165,0.29751763,1.2779598,0.615363,0.045911297,-0.19793656,1.1148034,1.2288874,0.07875083,-0.018937115,1.17753,0.97502834,-0.0013346479,-0.04889,0.8971911,0.6894498,-0.5036433,-0.65570074,0.6707851,782.0879,805.05493,807.47253,765.16486,988.7912,-0.2994384765625,0.17431640625,0.9398193359375,2.908477783203125,-9.1217041015625,0.40374755859375,1.0,2.0,1.0,1.0,2.0,100.0,event
12:33:18.002,0.7514398,0.4221165,0.29751763,1.2779598,0.615363,0.045911297,-0.19793656,1.1148034,1.2288874,0.07875083,-0.018937115,1.17753,0.97502834,-0.0013346479,-0.04889,0.8971911,0.6894498,-0.5036433,-0.65570074,0.6707851,780.07324,805.4579,807.0696,749.85345,1038.7546,-0.2994384765625,0.17431640625,0.9398193359375,2.908477783203125,-9.1217041015625,0.40374755859375,1.0,2.0,1.0,1.0,2.0,100.0,event
12:33:18.003,0.7514398,0.4221165,0.29751763,1.2779598,0.615363,0.045911297,-0.19793656,1.1148034,1.2288874,0.07875083,-0.018937115,1.17753,0.97502834,-0.0013346479,-0.04889,0.8971911,0.6894498,-0.5036433,-0.65570074,0.6707851,782.8938,805.4579,812.3077,757.9121,777.6557,-0.2994384765625,0.17431640625,0.9398193359375,2.908477783203125,-9.1217041015625,0.40374755859375,1.0,2.0,1.0,1.0,2.0,100.0,event
12:33:18.004,0.7514398,0.4221165,0.29751763,1.2779598,0.615363,0.045911297,-0.19793656,1.1148034,1.2288874,0.07875083,-0.018937115,1.17753,0.97502834,-0.0013346479,-0.04889,0.8971911,0.6894498,-0.5036433,-0.65570074,0.6707851,772.4176,805.05493,813.5165,750.2564,770.40295,-0.2994384765625,0.17431640625,0.9398193359375,2.908477783203125,-9.1217041015625,0.40374755859375,1.0,2.0,1.0,1.0,2.0,100.0,event
12:33:18.006,0.7514398,0.4221165,0.29751763,1.2779598,0.615363,0.045911297,-0.19793656,1.1148034,1.2288874,0.07875083,-0.018937115,1.17753,0.97502834,-0.0013346479,-0.04889,0.8971911,0.6894498,-0.5036433,-0.65570074,0.6707851,755.4945,805.8608,809.89014,756.30035,888.0586,-0.2994384765625,0.17431640625,0.9398193359375,2.908477783203125,-9.1217041015625,0.40374755859375,1.0,2.0,1.0,1.0,2.0,100.0,event
12:33:18.033,0.7514398,0.4221165,0.29751763,1.2779598,0.615363,0.045911297,-0.19793656,1.1148034,1.2288874,0.07875083,-0.018937115,1.17753,0.97502834,-0.0013346479,-0.04889,0.8971911,0.6894498,-0.5036433,-0.65570074,0.6707851,755.4945,801.8315,809.0842,763.1502,747.03296,-0.2625732421875,0.17626953125,0.92059326171875,3.521575927734375,-7.678680419921875,-4.7552490234375,1.0,2.0,1.0,1.0,2.0,100.0,event
12:33:18.036,0.7514398,0.4203832,0.29751763,1.2779598,0.615363,0.04389181,-0.19793656,1.1148034,1.2288874,0.07606521,-0.018937115,1.17753,0.97502834,0.021895677,-0.04889,0.8971911,0.6894498,-0.4799829,-0.65570074,0.6707851,769.59705,794.9817,811.9048,765.56775,637.4359,-0.2625732421875,0.17626953125,0.92059326171875,3.521575927734375,-7.678680419921875,-4.7552490234375,1.0,2.0,1.0,1.0,2.0,100.0,event
12:33:18.040,0.7514398,0.4203832,0.29751763,1.2779598,0.615363,0.04389181,-0.19793656,1.1148034,1.2288874,0.07606521,-0.018937115,1.17753,0.97502834,0.021895677,-0.04889,0.8971911,0.6894498,-0.4799829,-0.65570074,0.6707851,784.10254,798.20514,812.71063,788.5348,753.8828,-0.2625732421875,0.17626953125,0.92059326171875,3.521575927734375,-7.678680419921875,-4.7552490234375,1.0,2.0,1.0,1.0,2.0,100.0,event
12:33:18.041,0.7514398,0.4203832,0.29751763,1.2779598,0.615363,0.04389181,-0.19793656,1.1148034,1.2288874,0.07606521,-0.018937115,1.17753,0.97502834,0.021895677,-0.04889,0.8971911,0.6894498,-0.4799829,-0.65570074,0.6707851,788.1319,800.6227,813.1135,793.36993,804.2491,-0.2625732421875,0.17626953125,0.92059326171875,3.521575927734375,-7.678680419921875,-4.7552490234375,1.0,2.0,1.0,1.0,2.0,100.0,event
12:33:18.042,0.7514398,0.4203832,0.29751763,1.2779598,0.615363,0.04389181,-0.19793656,1.1148034,1.2288874,0.07606521,-0.018937115,1.17753,0.97502834,0.021895677,-0.04889,0.8971911,0.6894498,-0.4799829,-0.65570074,0.6707851,778.86444,799.81683,810.293,750.2564,772.01465,-0.2625732421875,0.17626953125,0.92059326171875,3.521575927734375,-7.678680419921875,-4.7552490234375,1.0,2.0,1.0,1.0,2.0,100.0,event
12:33:18.043,0.7514398,0.4203832,0.29751763,1.2779598,0.615363,0.04389181,-0.19793656,1.1148034,1.2288874,0.07606521,-0.018937115,1.17753,0.97502834,0.021895677,-0.04889,0.8971911,0.6894498,-0.4799829,-0.65570074,0.6707851,761.9414,802.6374,807.47253,746.2271,809.89014,-0.2625732421875,0.17626953125,0.92059326171875,3.521575927734375,-7.678680419921875,-4.7552490234375,1.0,2.0,1.0,1.0,2.0,100.0,event
12:33:18.043,0.7514398,0.4203832,0.29751763,1.2779598,0.615363,0.04389181,-0.19793656,1.1148034,1.2288874,0.07606521,-0.018937115,1.17753,0.97502834,0.021895677,-0.04889,0.8971911,0.6894498,-0.4799829,-0.65570074,0.6707851,776.4469,803.0403,808.2784,800.2198,931.978,-0.2625732421875,0.17626953125,0.92059326171875,3.521575927734375,-7.678680419921875,-4.7552490234375,1.0,2.0,1.0,1.0,2.0,100.0,event
12:33:18.044,0.7514398,0.4203832,0.29751763,1.2779598,0.615363,0.04389181,-0.19793656,1.1148034,1.2288874,0.07606521,-0.018937115,1.17753,0.97502834,0.021895677,-0.04889,0.8971911,0.6894498,-0.4799829,-0.65570074,0.6707851,803.44324,804.2491,807.47253,801.4286,1063.3334,-0.2625732421875,0.17626953125,0.92059326171875,3.521575927734375,-7.678680419921875,-4.7552490234375,1.0,2.0,1.0,1.0,2.0,100.0,event
12:33:18.045,0.7514398,0.4203832,0.29751763,1.2779598,0.615363,0.04389181,-0.19793656,1.1148034,1.2288874,0.07606521,-0.018937115,1.17753,0.97502834,0.021895677,-0.04889,0.8971911,0.6894498,-0.4799829,-0.65570074,0.6707851,782.8938,804.65204,811.9048,801.8315,910.2198,-0.2625732421875,0.17626953125,0.92059326171875,3.521575927734375,-7.678680419921875,-4.7552490234375,1.0,2.0,1.0,1.0,2.0,100.0,event
12:33:18.046,0.7514398,0.4203832,0.29751763,1.2779598,0.615363,0.04389181,-0.19793656,1.1148034,1.2288874,0.07606521,-0.018937115,1.17753,0.97502834,0.021895677,-0.04889,0.8971911,0.6894498,-0.4799829,-0.65570074,0.6707851,783.69965,800.2198,810.696,801.8315,768.3883,-0.2625732421875,0.17626953125,0.92059326171875,3.521575927734375,-7.678680419921875,-4.7552490234375,1.0,2.0,1.0,1.0,2.0,100.0,event
12:33:18.046,0.7514398,0.4203832,0.29751763,1.2779598,0.615363,0.04389181,-0.19793656,1.1148034,1.2288874,0.07606521,-0.018937115,1.17753,0.97502834,0.021895677,-0.04889,0.8971911,0.6894498,-0.4799829,-0.65570074,0.6707851,804.2491,798.20514,808.2784,791.75824,876.77655,-0.2625732421875,0.17626953125,0.92059326171875,3.521575927734375,-7.678680419921875,-4.7552490234375,1.0,2.0,1.0,1.0,2.0,100.0,event
12:33:18.047,0.7514398,0.4203832,0.29751763,1.2779598,0.615363,0.04389181,-0.19793656,1.1148034,1.2288874,0.07606521,-0.018937115,1.17753,0.97502834,0.021895677,-0.04889,0.8971911,0.6894498,-0.4799829,-0.65570074,0.6707851,802.6374,794.17584,814.7253,790.14655,906.1905,-0.2625732421875,0.17626953125,0.92059326171875,3.521575927734375,-7.678680419921875,-4.7552490234375,1.0,2.0,1.0,1.0,2.0,100.0,event
12:33:18.073,0.7514398,0.4203832,0.29751763,1.2779598,0.615363,0.04389181,-0.19793656,1.1148034,1.2288874,0.07606521,-0.018937115,1.17753,0.97502834,0.021895677,-0.04889,0.8971911,0.6894498,-0.4799829,-0.65570074,0.6707851,792.5641,797.3993,815.9341,801.02563,777.25275,-0.252685546875,0.199462890625,0.9490966796875,4.164581298828125,-5.973968505859375,-3.6785888671875,1.0,2.0,1.0,1.0,2.0,100.0,event
12:33:18.074,0.7514398,0.4203832,0.29751763,1.2779598,0.615363,0.04389181,-0.19793656,1.1148034,1.2288874,0.07606521,-0.018937115,1.17753,0.97502834,0.021895677,-0.04889,0.8971911,0.6894498,-0.4799829,-0.65570074,0.6707851,794.9817,807.0696,813.1135,842.9304,790.54944,-0.252685546875,0.199462890625,0.9490966796875,4.164581298828125,-5.973968505859375,-3.6785888671875,1.0,2.0,1.0,1.0,2.0,100.0,event
12:33:18.075,0.7514398,0.4203832,0.29751763,1.2779598,0.615363,0.04389181,-0.19793656,1.1148034,1.2288874,0.07606521,-0.018937115,1.17753,0.97502834,0.021895677,-0.04889,0.8971911,0.6894498,-0.4799829,-0.65570074,0.6707851,791.75824,808.68134,815.9341,855.42126,906.5934,-0.252685546875,0.199462890625,0.9490966796875,4.164581298828125,-5.973968505859375,-3.6785888671875,1.0,2.0,1.0,1.0,2.0,100.0,event
12:33:18.075,0.7514398,0.4203832,0.29751763,1.2779598,0.615363,0.04389181,-0.19793656,1.1148034,1.2288874,0.07606521,-0.018937115,1.17753,0.97502834,0.021895677,-0.04889,0.8971911,0.6894498,-0.4799829,-0.65570074,0.6707851,801.02563,803.8461,821.978,830.4396,851.79486,-0.252685546875,0.199462890625,0.9490966796875,4.164581298828125,-5.973968505859375,-3.6785888671875,1.0,2.0,1.0,1.0,2.0,100.0,event
12:33:18.076,0.7514398,0.4203832,0.29751763,1.2779598,0.615363,0.04389181,-0.19793656,1.1148034,1.2288874,0.07606521,-0.018937115,1.17753,0.97502834,0.021895677,-0.04889,0.8971911,0.6894498,-0.4799829,-0.65570074,0.6707851,792.1612,798.60803,824.7985,819.5604,820.7692,-0.252685546875,0.199462890625,0.9490966796875,4.164581298828125,-5.973968505859375,-3.6785888671875,1.0,2.0,1.0,1.0,2.0,100.0,event
12:33:18.077,0.7514398,0.4203832,0.29751763,1.2779598,0.615363,0.04389181,-0.19793656,1.1148034,1.2288874,0.07606521,-0.018937115,1.17753,0.97502834,0.021895677,-0.04889,0.8971911,0.6894498,-0.4799829,-0.65570074,0.6707851,781.28204,797.3993,824.3956,832.8571,1175.751,-0.252685546875,0.199462890625,0.9490966796875,4.164581298828125,-5.973968505859375,-3.6785888671875,1.0,2.0,1.0,1.0,2.0,100.0,event
12:33:18.077,0.7514398,0.4203832,0.29751763,1.2779598,0.615363,0.04389181,-0.19793656,1.1148034,1.2288874,0.07606521,-0.018937115,1.17753,0.97502834,0.021895677,-0.04889,0.8971911,0.6894498,-0.4799829,-0.65570074,0.6707851,768.3883,798.60803,823.9927,828.4249,878.7912,-0.252685546875,0.199462890625,0.9490966796875,4.164581298828125,-5.973968505859375,-3.6785888671875,1.0,2.0,1.0,1.0,2.0,100.0,event
12:33:18.078,0.7514398,0.4203832,0.29751763,1.2779598,0.615363,0.04389181,-0.19793656,1.1148034,1.2288874,0.07606521,-0.018937115,1.17753,0.97502834,0.021895677,-0.04889,0.8971911,0.6894498,-0.4799829,-0.65570074,0.6707851,782.0879,798.60803,823.5897,838.49817,1162.0513,-0.252685546875,0.199462890625,0.9490966796875,4.164581298828125,-5.973968505859375,-3.6785888671875,1.0,2.0,1.0,1.0,2.0,100.0,event
12:33:18.078,0.7514398,0.4203832,0.29751763,1.2779598,0.615363,0.04389181,-0.19793656,1.1148034,1.2288874,0.07606521,-0.018937115,1.17753,0.97502834,0.021895677,-0.04889,0.8971911,0.6894498,-0.4799829,-0.65570074,0.6707851,782.49084,804.65204,821.5751,869.12085,781.685,-0.252685546875,0.199462890625,0.9490966796875,4.164581298828125,-5.973968505859375,-3.6785888671875,1.0,2.0,1.0,1.0,2.0,100.0,event
12:33:18.079,0.7514398,0.4203832,0.29751763,1.2779598,0.615363,0.04389181,-0.19793656,1.1148034,1.2288874,0.07606521,-0.018937115,1.17753,0.97502834,0.021895677,-0.04889,0.8971911,0.6894498,-0.4799829,-0.65570074,0.6707851,790.14655,803.8461,820.3663,868.315,802.23444,-0.252685546875,0.199462890625,0.9490966796875,4.164581298828125,-5.973968505859375,-3.6785888671875,1.0,2.0,1.0,1.0,2.0,100.0,event
12:33:18.080,0.7514398,0.4203832,0.29751763,1.2779598,0.615363,0.04389181,-0.19793656,1.1148034,1.2288874,0.07606521,-0.018937115,1.17753,0.97502834,0.021895677,-0.04889,0.8971911,0.6894498,-0.4799829,-0.65570074,0.6707851,791.75824,801.4286,818.3516,864.2857,859.0476,-0.252685546875,0.199462890625,0.9490966796875,4.164581298828125,-5.973968505859375,-3.6785888671875,1.0,2.0,1.0,1.0,2.0,100.0,event
12:33:18.081,0.7514398,0.4203832,0.29751763,1.2779598,0.615363,0.04389181,-0.19793656,1.1148034,1.2288874,0.07606521,-0.018937115,1.17753,0.97502834,0.021895677,-0.04889,0.8971911,0.6894498,-0.4799829,-0.65570074,0.6707851,805.4579,806.26373,820.3663,909.011,865.4945,-0.252685546875,0.199462890625,0.9490966796875,4.164581298828125,-5.973968505859375,-3.6785888671875,1.0,2.0,1.0,1.0,2.0,100.0,event
12:33:18.112,0.7514398,0.4203832,0.29751763,1.2779598,0.615363,0.04389181,-0.19793656,1.1148034,1.2288874,0.07606521,-0.018937115,1.17753,0.97502834,0.021895677,-0.04889,0.8971911,0.6894498,-0.4799829,-0.65570074,0.6707851,814.7253,803.8461,821.978,904.57874,801.4286,-0.26959228515625,0.1949462890625,0.93475341796875,2.7215576171875,-2.0635986328125,-0.097198486328125,1.0,2.0,1.0,1.0,2.0,100.0,event
12:33:18.113,0.7514398,0.4203832,0.29751763,1.2779598,0.615363,0.04389181,-0.19793656,1.1148034,1.2288874,0.07606521,-0.018937115,1.17753,0.97502834,0.021895677,-0.04889,0.8971911,0.6894498,-0.4799829,-0.65570074,0.6707851,786.9231,798.60803,819.5604,854.21246,810.696,-0.26959228515625,0.1949462890625,0.93475341796875,2.7215576171875,-2.0635986328125,-0.097198486328125,1.0,2.0,1.0,1.0,2.0,100.0,event
12:33:18.114,0.7514398,0.4203832,0.29751763,1.2779598,0.615363,0.04389181,-0.19793656,1.1148034,1.2288874,0.07606521,-0.018937115,1.17753,0.97502834,0.021895677,-0.04889,0.8971911,0.6894498,-0.4799829,-0.65570074,0.6707851,784.10254,806.26373,819.9634,848.5714,883.6264,-0.26959228515625,0.1949462890625,0.93475341796875,2.7215576171875,-2.0635986328125,-0.097198486328125,1.0,2.0,1.0,1.0,2.0,100.0,event
12:33:18.114,0.7514398,0.41557503,0.29751763,1.2779598,0.615363,0.038508724,-0.19793656,1.1148034,1.2288874,0.06920669,-0.018937115,1.17753,0.97502834,0.048488114,-0.04889,0.8971911,0.6894498,-0.4210424,-0.65570074,0.6707851,794.57874,804.2491,825.2015,876.77655,787.72894,-0.26959228515625,0.1949462890625,0.93475341796875,2.7215576171875,-2.0635986328125,-0.097198486328125,1.0,2.0,1.0,1.0,2.0,100.0,event
12:33:18.118,0.7514398,0.41557503,0.29751763,1.2779598,0.615363,0.038508724,-0.19793656,1.1148034,1.2288874,0.06920669,-0.018937115,1.17753,0.97502834,0.048488114,-0.04889,0.8971911,0.6894498,-0.4210424,-0.65570074,0.6707851,791.3553,801.8315,830.0366,895.31134,696.6667,-0.26959228515625,0.1949462890625,0.93475341796875,2.7215576171875,-2.0635986328125,-0.097198486328125,1.0,2.0,1.0,1.0,2.0,100.0,event
12:33:18.119,0.7514398,0.41557503,0.29751763,1.2779598,0.615363,0.038508724,-0.19793656,1.1148034,1.2288874,0.06920669,-0.018937115,1.17753,0.97502834,0.048488114,-0.04889,0.8971911,0.6894498,-0.4210424,-0.65570074,0.6707851,798.20514,804.65204,829.2308,872.74725,910.2198,-0.26959228515625,0.1949462890625,0.93475341796875,2.7215576171875,-2.0635986328125,-0.097198486328125,1.0,2.0,1.0,1.0,2.0,100.0,event
12:33:18.120,0.7514398,0.41557503,0.29751763,1.2779598,0.615363,0.038508724,-0.19793656,1.1148034,1.2288874,0.06920669,-0.018937115,1.17753,0.97502834,0.048488114,-0.04889,0.8971911,0.6894498,-0.4210424,-0.65570074,0.6707851,789.7436,804.65204,826.8132,840.10986,849.7802,-0.26959228515625,0.1949462890625,0.93475341796875,2.7215576171875,-2.0635986328125,-0.097198486328125,1.0,2.0,1.0,1.0,2.0,100.0,event
12:33:18.120,0.7514398,0.41557503,0.29751763,1.2779598,0.615363,0.038508724,-0.19793656,1.1148034,1.2288874,0.06920669,-0.018937115,1.17753,0.97502834,0.048488114,-0.04889,0.8971911,0.6894498,-0.4210424,-0.65570074,0.6707851,793.7729,803.8461,826.4103,841.7216,1088.3151,-0.26959228515625,0.1949462890625,0.93475341796875,2.7215576171875,-2.0635986328125,-0.097198486328125,1.0,2.0,1.0,1.0,2.0,100.0,event
12:33:18.121,0.7514398,0.41557503,0.29751763,1.2779598,0.615363,0.038508724,-0.19793656,1.1148034,1.2288874,0.06920669,-0.018937115,1.17753,0.97502834,0.048488114,-0.04889,0.8971911,0.6894498,-0.4210424,-0.65570074,0.6707851,785.7143,802.23444,827.619,845.7509,734.94507,-0.26959228515625,0.1949462890625,0.93475341796875,2.7215576171875,-2.0635986328125,-0.097198486328125,1.0,2.0,1.0,1.0,2.0,100.0,event
12:33:18.122,0.7514398,0.41557503,0.29751763,1.2779598,0.615363,0.038508724,-0.19793656,1.1148034,1.2288874,0.06920669,-0.018937115,1.17753,0.97502834,0.048488114,-0.04889,0.8971911,0.6894498,-0.4210424,-0.65570074,0.6707851,784.90845,801.4286,828.4249,845.34796,875.9707,-0.26959228515625,0.1949462890625,0.93475341796875,2.7215576171875,-2.0635986328125,-0.097198486328125,1.0,2.0,1.0,1.0,2.0,100.0,event
12:33:18.123,0.7514398,0.41557503,0.29751763,1.2779598,0.615363,0.038508724,-0.19793656,1.1148034,1.2288874,0.06920669,-0.018937115,1.17753,0.97502834,0.048488114,-0.04889,0.8971911,0.6894498,-0.4210424,-0.65570074,0.6707851,791.75824,801.8315,828.022,864.68866,936.4103,-0.26959228515625,0.1949462890625,0.93475341796875,2.7215576171875,-2.0635986328125,-0.097198486328125,1.0,2.0,1.0,1.0,2.0,100.0,event
12:33:18.124,0.7514398,0.41557503,0.29751763,1.2779598,0.615363,0.038508724,-0.19793656,1.1148034,1.2288874,0.06920669,-0.018937115,1.17753,0.97502834,0.048488114,-0.04889,0.8971911,0.6894498,-0.4210424,-0.65570074,0.6707851,784.10254,800.2198,825.2015,850.18317,823.1868,-0.26959228515625,0.1949462890625,0.93475341796875,2.7215576171875,-2.0635986328125,-0.097198486328125,1.0,2.0,1.0,1.0,2.0,100.0,event
12:33:18.171,0.7514398,0.41557503,0.29751763,1.2779598,0.615363,0.038508724,-0.19793656,1.1148034,1.2288874,0.06920669,-0.018937115,1.17753,0.97502834,0.048488114,-0.04889,0.8971911,0.6894498,-0.4210424,-0.65570074,0.6707851,768.7912,799.41394,828.4249,839.304,828.022,-0.2691650390625,0.1895751953125,0.93212890625,3.1103515625,-1.12152099609375,-0.979461669921875,1.0,2.0,1.0,1.0,2.0,100.0,event
12:33:18.172,0.7514398,0.41557503,0.29751763,1.2779598,0.615363,0.038508724,-0.19793656,1.1148034,1.2288874,0.06920669,-0.018937115,1.17753,0.97502834,0.048488114,-0.04889,0.8971911,0.6894498,-0.4210424,-0.65570074,0.6707851,772.8205,799.011,831.2454,847.76556,948.9011,-0.2691650390625,0.1895751953125,0.93212890625,3.1103515625,-1.12152099609375,-0.979461669921875,1.0,2.0,1.0,1.0,2.0,100.0,event
12:33:18.172,0.7514398,0.41557503,0.29751763,1.2779598,0.615363,0.038508724,-0.19793656,1.1148034,1.2288874,0.06920669,-0.018937115,1.17753,0.97502834,0.048488114,-0.04889,0.8971911,0.6894498,-0.4210424,-0.65570074,0.6707851,788.1319,800.2198,831.6484,851.79486,972.674,-0.2691650390625,0.1895751953125,0.93212890625,3.1103515625,-1.12152099609375,-0.979461669921875,1.0,2.0,1.0,1.0,2.0,100.0,event
12:33:18.173,0.7514398,0.41557503,0.29751763,1.2779598,0.615363,0.038508724,-0.19793656,1.1148034,1.2288874,0.06920669,-0.018937115,1.17753,0.97502834,0.048488114,-0.04889,0.8971911,0.6894498,-0.4210424,-0.65570074,0.6707851,801.02563,802.23444,826.0073,843.3333,796.5934,-0.2691650390625,0.1895751953125,0.93212890625,3.1103515625,-1.12152099609375,-0.979461669921875,1.0,2.0,1.0,1.0,2.0,100.0,event
12:33:18.173,0.7514398,0.41557503,0.29751763,1.2779598,0.615363,0.038508724,-0.19793656,1.1148034,1.2288874,0.06920669,-0.018937115,1.17753,0.97502834,0.048488114,-0.04889,0.8971911,0.6894498,-0.4210424,-0.65570074,0.6707851,776.04395,802.23444,824.3956,834.87177,697.47253,-0.2691650390625,0.1895751953125,0.93212890625,3.1103515625,-1.12152099609375,-0.979461669921875,1.0,2.0,1.0,1.0,2.0,100.0,event
12:33:18.173,0.7514398,0.41557503,0.29751763,1.2779598,0.615363,0.038508724,-0.19793656,1.1148034,1.2288874,0.06920669,-0.018937115,1.17753,0.97502834,0.048488114,-0.04889,0.8971911,0.6894498,-0.4210424,-0.65570074,0.6707851,751.8681,799.011,828.8278,834.4689,920.696,-0.2691650390625,0.1895751953125,0.93212890625,3.1103515625,-1.12152099609375,-0.979461669921875,1.0,2.0,1.0,1.0,2.0,100.0,event
12:33:18.174,0.7514398,0.41557503,0.29751763,1.2779598,0.615363,0.038508724,-0.19793656,1.1148034,1.2288874,0.06920669,-0.018937115,1.17753,0.97502834,0.048488114,-0.04889,0.8971911,0.6894498,-0.4210424,-0.65570074,0.6707851,767.1795,800.2198,829.6337,854.61536,1056.0806,-0.2691650390625,0.1895751953125,0.93212890625,3.1103515625,-1.12152099609375,-0.979461669921875,1.0,2.0,1.0,1.0,2.0,100.0,event
12:33:18.174,0.7514398,0.41557503,0.29751763,1.2779598,0.615363,0.038508724,-0.19793656,1.1148034,1.2288874,0.06920669,-0.018937115,1.17753,0.97502834,0.048488114,-0.04889,0.8971911,0.6894498,-0.4210424,-0.65570074,0.6707851,791.75824,803.0403,830.0366,864.68866,796.5934,-0.2691650390625,0.1895751953125,0.93212890625,3.1103515625,-1.12152099609375,-0.979461669921875,1.0,2.0,1.0,1.0,2.0,100.0,event
12:33:18.175,0.7514398,0.41557503,0.29751763,1.2779598,0.615363,0.038508724,-0.19793656,1.1148034,1.2288874,0.06920669,-0.018937115,1.17753,0.97502834,0.048488114,-0.04889,0.8971911,0.6894498,-0.4210424,-0.65570074,0.6707851,798.20514,798.60803,827.619,840.9158,796.5934,-0.2691650390625,0.1895751953125,0.93212890625,3.1103515625,-1.12152099609375,-0.979461669921875,1.0,2.0,1.0,1.0,2.0,100.0,event
12:33:18.175,0.7514398,0.41557503,0.29751763,1.2779598,0.615363,0.038508724,-0.19793656,1.1148034,1.2288874,0.06920669,-0.018937115,1.17753,0.97502834,0.048488114,-0.04889,0.8971911,0.6894498,-0.4210424,-0.65570074,0.6707851,795.38464,796.1905,830.0366,831.2454,883.22345,-0.2691650390625,0.1895751953125,0.93212890625,3.1103515625,-1.12152099609375,-0.979461669921875,1.0,2.0,1.0,1.0,2.0,100.0,event
12:33:18.175,0.7514398,0.41557503,0.29751763,1.2779598,0.615363,0.038508724,-0.19793656,1.1148034,1.2288874,0.06920669,-0.018937115,1.17753,0.97502834,0.048488114,-0.04889,0.8971911,0.6894498,-0.4210424,-0.65570074,0.6707851,786.52014,796.99634,828.8278,826.8132,776.04395,-0.2691650390625,0.1895751953125,0.93212890625,3.1103515625,-1.12152099609375,-0.979461669921875,1.0,2.0,1.0,1.0,2.0,100.0,event
12:33:18.176,0.7514398,0.41557503,0.29751763,1.2779598,0.615363,0.038508724,-0.19793656,1.1148034,1.2288874,0.06920669,-0.018937115,1.17753,0.97502834,0.048488114,-0.04889,0.8971911,0.6894498,-0.4210424,-0.65570074,0.6707851,765.56775,799.011,828.4249,837.6923,647.50916,-0.2691650390625,0.1895751953125,0.93212890625,3.1103515625,-1.12152099609375,-0.979461669921875,1.0,2.0,1.0,1.0,2.0,100.0,event
12:33:18.210,0.7514398,0.41557503,0.29751763,1.2779598,0.615363,0.038508724,-0.19793656,1.1148034,1.2288874,0.06920669,-0.018937115,1.17753,0.97502834,0.048488114,-0.04889,0.8971911,0.6894498,-0.4210424,-0.65570074,0.6707851,784.90845,798.20514,833.663,863.47986,676.9231,-0.2691650390625,0.1895751953125,0.93212890625,3.1103515625,-1.12152099609375,-0.979461669921875,1.0,2.0,1.0,1.0,2.0,100.0,event
12:33:18.211,0.7514398,0.41557503,0.29751763,1.2779598,0.615363,0.038508724,-0.19793656,1.1148034,1.2288874,0.06920669,-0.018937115,1.17753,0.97502834,0.048488114,-0.04889,0.8971911,0.6894498,-0.4210424,-0.65570074,0.6707851,791.75824,799.41394,828.8278,853.00366,771.6117,-0.2691650390625,0.1895751953125,0.93212890625,3.1103515625,-1.12152099609375,-0.979461669921875,1.0,2.0,1.0,1.0,2.0,100.0,event
12:33:18.212,0.7514398,0.41557503,0.29751763,1.2779598,0.615363,0.038508724,-0.19793656,1.1148034,1.2288874,0.06920669,-0.018937115,1.17753,0.97502834,0.048488114,-0.04889,0.8971911,0.6894498,-0.4210424,-0.65570074,0.6707851,760.7326,805.4579,827.619,837.28937,691.8315,-0.2691650390625,0.1895751953125,0.93212890625,3.1103515625,-1.12152099609375,-0.979461669921875,1.0,2.0,1.0,1.0,2.0,100.0,event
12:33:18.212,0.7514398,0.41557503,0.29751763,1.2779598,0.615363,0.038508724,-0.19793656,1.1148034,1.2288874,0.06920669,-0.018937115,1.17753,0.97502834,0.048488114,-0.04889,0.8971911,0.6894498,-0.4210424,-0.65570074,0.6707851,767.1795,805.05493,830.84247,827.619,626.9597,-0.2691650390625,0.1895751953125,0.93212890625,3.1103515625,-1.12152099609375,-0.979461669921875,1.0,2.0,1.0,1.0,2.0,100.0,event
12:33:18.213,0.7514398,0.41557503,0.29751763,1.2779598,0.615363,0.038508724,-0.19793656,1.1148034,1.2288874,0.06920669,-0.018937115,1.17753,0.97502834,0.048488114,-0.04889,0.8971911,0.6894498,-0.4210424,-0.65570074,0.6707851,788.93774,802.6374,827.2161,824.7985,699.0842,-0.2691650390625,0.1895751953125,0.93212890625,3.1103515625,-1.12152099609375,-0.979461669921875,1.0,2.0,1.0,1.0,2.0,100.0,event
12:33:18.213,0.7514398,0.40812552,0.29751763,1.2779598,0.615363,0.033683866,-0.19793656,1.1148034,1.2288874,0.052807923,-0.018937115,1.17753,0.97502834,0.07773114,-0.04889,0.8971911,0.6894498,-0.33686903,-0.65570074,0.6707851,797.8022,799.41394,826.4103,843.3333,816.7399,-0.2691650390625,0.1895751953125,0.93212890625,3.1103515625,-1.12152099609375,-0.979461669921875,1.0,2.0,1.0,1.0,2.0,100.0,event
12:33:18.217,0.7514398,0.40812552,0.29751763,1.2779598,0.615363,0.033683866,-0.19793656,1.1148034,1.2288874,0.052807923,-0.018937115,1.17753,0.97502834,0.07773114,-0.04889,0.8971911,0.6894498,-0.33686903,-0.65570074,0.6707851,780.4762,796.5934,829.6337,841.31866,811.9048,-0.2691650390625,0.1895751953125,0.93212890625,3.1103515625,-1.12152099609375,-0.979461669921875,1.0,2.0,1.0,1.0,2.0,100.0,event
12:33:18.218,0.7514398,0.40812552,0.29751763,1.2779598,0.615363,0.033683866,-0.19793656,1.1148034,1.2288874,0.052807923,-0.018937115,1.17753,0.97502834,0.07773114,-0.04889,0.8971911,0.6894498,-0.33686903,-0.65570074,0.6707851,789.7436,799.81683,829.2308,826.8132,852.1978,-0.2691650390625,0.1895751953125,0.93212890625,3.1103515625,-1.12152099609375,-0.979461669921875,1.0,2.0,1.0,1.0,2.0,100.0,event
12:33:18.218,0.7514398,0.40812552,0.29751763,1.2779598,0.615363,0.033683866,-0.19793656,1.1148034,1.2288874,0.052807923,-0.018937115,1.17753,0.97502834,0.07773114,-0.04889,0.8971911,0.6894498,-0.33686903,-0.65570074,0.6707851,797.3993,803.8461,828.4249,811.0989,884.43225,-0.2691650390625,0.1895751953125,0.93212890625,3.1103515625,-1.12152099609375,-0.979461669921875,1.0,2.0,1.0,1.0,2.0,100.0,event
12:33:18.219,0.7514398,0.40812552,0.29751763,1.2779598,0.615363,0.033683866,-0.19793656,1.1148034,1.2288874,0.052807923,-0.018937115,1.17753,0.97502834,0.07773114,-0.04889,0.8971911,0.6894498,-0.33686903,-0.65570074,0.6707851,774.83514,808.2784,828.8278,819.5604,796.1905,-0.2691650390625,0.1895751953125,0.93212890625,3.1103515625,-1.12152099609375,-0.979461669921875,1.0,2.0,1.0,1.0,2.0,100.0,event
12:33:18.219,0.7514398,0.40812552,0.29751763,1.2779598,0.615363,0.033683866,-0.19793656,1.1148034,1.2288874,0.052807923,-0.018937115,1.17753,0.97502834,0.07773114,-0.04889,0.8971911,0.6894498,-0.33686903,-0.65570074,0.6707851,787.326,805.4579,826.8132,824.3956,682.96704,-0.2691650390625,0.1895751953125,0.93212890625,3.1103515625,-1.12152099609375,-0.979461669921875,1.0,2.0,1.0,1.0,2.0,100.0,event
12:33:18.220,0.7514398,0.40812552,0.29751763,1.2779598,0.615363,0.033683866,-0.19793656,1.1148034,1.2288874,0.052807923,-0.018937115,1.17753,0.97502834,0.07773114,-0.04889,0.8971911,0.6894498,-0.33686903,-0.65570074,0.6707851,791.3553,805.4579,823.9927,827.619,616.8865,-0.2691650390625,0.1895751953125,0.93212890625,3.1103515625,-1.12152099609375,-0.979461669921875,1.0,2.0,1.0,1.0,2.0,100.0,event
12:33:18.244,0.7514398,0.40812552,0.29751763,1.2779598,0.615363,0.033683866,-0.19793656,1.1148034,1.2288874,0.052807923,-0.018937115,1.17753,0.97502834,0.07773114,-0.04889,0.8971911,0.6894498,-0.33686903,-0.65570074,0.6707851,787.326,808.2784,827.2161,847.3626,820.3663,-0.26806640625,0.19671630859375,0.9256591796875,3.745880126953125,-3.75335693359375,0.35888671875,1.0,2.0,1.0,1.0,2.0,100.0,event
12:33:18.245,0.7514398,0.40812552,0.29751763,1.2779598,0.615363,0.033683866,-0.19793656,1.1148034,1.2288874,0.052807923,-0.018937115,1.17753,0.97502834,0.07773114,-0.04889,0.8971911,0.6894498,-0.33686903,-0.65570074,0.6707851,780.07324,801.4286,825.6044,816.7399,1041.5751,-0.26806640625,0.19671630859375,0.9256591796875,3.745880126953125,-3.75335693359375,0.35888671875,1.0,2.0,1.0,1.0,2.0,100.0,event
12:33:18.246,0.7514398,0.40812552,0.29751763,1.2779598,0.615363,0.033683866,-0.19793656,1.1148034,1.2288874,0.052807923,-0.018937115,1.17753,0.97502834,0.07773114,-0.04889,0.8971911,0.6894498,-0.33686903,-0.65570074,0.6707851,783.2967,796.99634,824.7985,829.2308,821.5751,-0.26806640625,0.19671630859375,0.9256591796875,3.745880126953125,-3.75335693359375,0.35888671875,1.0,2.0,1.0,1.0,2.0,100.0,event
12:33:18.246,0.7514398,0.40812552,0.29751763,1.2779598,0.615363,0.033683866,-0.19793656,1.1148034,1.2288874,0.052807923,-0.018937115,1.17753,0.97502834,0.07773114,-0.04889,0.8971911,0.6894498,-0.33686903,-0.65570074,0.6707851,780.07324,792.96704,826.8132,852.1978,651.9414,-0.26806640625,0.19671630859375,0.9256591796875,3.745880126953125,-3.75335693359375,0.35888671875,1.0,2.0,1.0,1.0,2.0,100.0,event
12:33:18.247,0.7514398,0.40812552,0.29751763,1.2779598,0.615363,0.033683866,-0.19793656,1.1148034,1.2288874,0.052807923,-0.018937115,1.17753,0.97502834,0.07773114,-0.04889,0.8971911,0.6894498,-0.33686903,-0.65570074,0.6707851,780.87915,793.7729,823.1868,826.0073,703.1135,-0.26806640625,0.19671630859375,0.9256591796875,3.745880126953125,-3.75335693359375,0.35888671875,1.0,2.0,1.0,1.0,2.0,100.0,event
12:33:18.248,0.7514398,0.40812552,0.29751763,1.2779598,0.615363,0.033683866,-0.19793656,1.1148034,1.2288874,0.052807923,-0.018937115,1.17753,0.97502834,0.07773114,-0.04889,0.8971911,0.6894498,-0.33686903,-0.65570074,0.6707851,790.14655,797.3993,823.1868,823.5897,797.3993,-0.26806640625,0.19671630859375,0.9256591796875,3.745880126953125,-3.75335693359375,0.35888671875,1.0,2.0,1.0,1.0,2.0,100.0,event
12:33:18.249,0.7514398,0.40812552,0.29751763,1.2779598,0.615363,0.033683866,-0.19793656,1.1148034,1.2288874,0.052807923,-0.018937115,1.17753,0.97502834,0.07773114,-0.04889,0.8971911,0.6894498,-0.33686903,-0.65570074,0.6707851,769.59705,803.44324,814.3223,818.3516,842.1245,-0.26806640625,0.19671630859375,0.9256591796875,3.745880126953125,-3.75335693359375,0.35888671875,1.0,2.0,1.0,1.0,2.0,100.0,event
12:33:18.249,0.7514398,0.40812552,0.29751763,1.2779598,0.615363,0.033683866,-0.19793656,1.1148034,1.2288874,0.052807923,-0.018937115,1.17753,0.97502834,0.07773114,-0.04889,0.8971911,0.6894498,-0.33686903,-0.65570074,0.6707851,759.12085,807.47253,811.0989,788.1319,747.03296,-0.26806640625,0.19671630859375,0.9256591796875,3.745880126953125,-3.75335693359375,0.35888671875,1.0,2.0,1.0,1.0,2.0,100.0,event
12:33:18.250,0.7514398,0.40812552,0.29751763,1.2779598,0.615363,0.033683866,-0.19793656,1.1148034,1.2288874,0.052807923,-0.018937115,1.17753,0.97502834,0.07773114,-0.04889,0.8971911,0.6894498,-0.33686903,-0.65570074,0.6707851,765.56775,803.0403,820.3663,808.68134,916.6667,-0.26806640625,0.19671630859375,0.9256591796875,3.745880126953125,-3.75335693359375,0.35888671875,1.0,2.0,1.0,1.0,2.0,100.0,event
12:33:18.250,0.7514398,0.40812552,0.29751763,1.2779598,0.615363,0.033683866,-0.19793656,1.1148034,1.2288874,0.052807923,-0.018937115,1.17753,0.97502834,0.07773114,-0.04889,0.8971911,0.6894498,-0.33686903,-0.65570074,0.6707851,783.2967,805.4579,821.978,823.9927,1046.8132,-0.26806640625,0.19671630859375,0.9256591796875,3.745880126953125,-3.75335693359375,0.35888671875,1.0,2.0,1.0,1.0,2.0,100.0,event
12:33:18.251,0.7514398,0.40812552,0.29751763,1.2779598,0.615363,0.033683866,-0.19793656,1.1148034,1.2288874,0.052807923,-0.018937115,1.17753,0.97502834,0.07773114,-0.04889,0.8971911,0.6894498,-0.33686903,-0.65570074,0.6707851,807.0696,810.293,820.7692,819.5604,739.3773,-0.26806640625,0.19671630859375,0.9256591796875,3.745880126953125,-3.75335693359375,0.35888671875,1.0,2.0,1.0,1.0,2.0,100.0,event
12:33:18.251,0.7514398,0.40812552,0.29751763,1.2779598,0.615363,0.033683866,-0.19793656,1.1148034,1.2288874,0.052807923,-0.018937115,1.17753,0.97502834,0.07773114,-0.04889,0.8971911,0.6894498,-0.33686903,-0.65570074,0.6707851,823.1868,808.2784,815.5311,807.47253,655.9707,-0.26806640625,0.19671630859375,0.9256591796875,3.745880126953125,-3.75335693359375,0.35888671875,1.0,2.0,1.0,1.0,2.0,100.0,event
12:33:18.308,0.7514398,0.40812552,0.29751763,1.2779598,0.615363,0.033683866,-0.19793656,1.1148034,1.2288874,0.052807923,-0.018937115,1.17753,0.97502834,0.07773114,-0.04889,0.8971911,0.6894498,-0.33686903,-0.65570074,0.6707851,840.5128,809.4872,813.1135,776.4469,731.31866,-0.28057861328125,0.1815185546875,0.94384765625,3.850555419921875,-6.273040771484375,4.194488525390625,1.0,2.0,1.0,1.0,2.0,100.0,event
12:33:18.309,0.7514398,0.40812552,0.29751763,1.2779598,0.615363,0.033683866,-0.19793656,1.1148034,1.2288874,0.052807923,-0.018937115,1.17753,0.97502834,0.07773114,-0.04889,0.8971911,0.6894498,-0.33686903,-0.65570074,0.6707851,814.7253,807.0696,822.7839,796.99634,686.99634,-0.28057861328125,0.1815185546875,0.94384765625,3.850555419921875,-6.273040771484375,4.194488525390625,1.0,2.0,1.0,1.0,2.0,100.0,event
12:33:18.309,0.7514398,0.40812552,0.29751763,1.2779598,0.615363,0.033683866,-0.19793656,1.1148034,1.2288874,0.052807923,-0.018937115,1.17753,0.97502834,0.07773114,-0.04889,0.8971911,0.6894498,-0.33686903,-0.65570074,0.6707851,790.9524,801.02563,822.7839,828.8278,650.32965,-0.28057861328125,0.1815185546875,0.94384765625,3.850555419921875,-6.273040771484375,4.194488525390625,1.0,2.0,1.0,1.0,2.0,100.0,event
12:33:18.310,0.7514398,0.40812552,0.29751763,1.2779598,0.615363,0.033683866,-0.19793656,1.1148034,1.2288874,0.052807923,-0.018937115,1.17753,0.97502834,0.07773114,-0.04889,0.8971911,0.6894498,-0.33686903,-0.65570074,0.6707851,782.0879,808.68134,817.9487,796.5934,772.4176,-0.28057861328125,0.1815185546875,0.94384765625,3.850555419921875,-6.273040771484375,4.194488525390625,1.0,2.0,1.0,1.0,2.0,100.0,event
12:33:18.310,0.7514398,0.40812552,0.29751763,1.2779598,0.615363,0.033683866,-0.19793656,1.1148034,1.2288874,0.052807923,-0.018937115,1.17753,0.97502834,0.07773114,-0.04889,0.8971911,0.6894498,-0.33686903,-0.65570074,0.6707851,796.5934,805.8608,818.3516,824.7985,746.63007,-0.28057861328125,0.1815185546875,0.94384765625,3.850555419921875,-6.273040771484375,4.194488525390625,1.0,2.0,1.0,1.0,2.0,100.0,event
12:33:18.311,0.7514398,0.40812552,0.29751763,1.2779598,0.615363,0.033683866,-0.19793656,1.1148034,1.2288874,0.052807923,-0.018937115,1.17753,0.97502834,0.07773114,-0.04889,0.8971911,0.6894498,-0.33686903,-0.65570074,0.6707851,799.41394,810.696,815.5311,779.67035,678.93774,-0.28057861328125,0.1815185546875,0.94384765625,3.850555419921875,-6.273040771484375,4.194488525390625,1.0,2.0,1.0,1.0,2.0,100.0,event
12:33:18.311,0.7514398,0.40812552,0.29751763,1.2779598,0.615363,0.033683866,-0.19793656,1.1148034,1.2288874,0.052807923,-0.018937115,1.17753,0.97502834,0.07773114,-0.04889,0.8971911,0.6894498,-0.33686903,-0.65570074,0.6707851,790.9524,807.47253,816.7399,775.2381,726.08057,-0.28057861328125,0.1815185546875,0.94384765625,3.850555419921875,-6.273040771484375,4.194488525390625,1.0,2.0,1.0,1.0,2.0,100.0,event
12:33:18.312,0.7514398,0.38928404,0.22337912,1.2779598,0.615363,0.0324627,-0.23913623,1.1148034,1.2288874,0.039945554,-0.17580496,1.17753,0.97502834,0.10482106,-0.051165927,0.8971911,0.6894498,-0.25519148,-0.15831128,0.6707851,775.64105,801.8315,819.15753,806.6667,869.5238,-0.28057861328125,0.1815185546875,0.94384765625,3.850555419921875,-6.273040771484375,4.194488525390625,1.0,2.0,1.0,1.0,2.0,100.0,event
