TimeStamp,Delta_TP9,Delta_AF7,Delta_AF8,Delta_TP10,Theta_TP9,Theta_AF7,Theta_AF8,Theta_TP10,Alpha_TP9,Alpha_AF7,Alpha_AF8,Alpha_TP10,Beta_TP9,Beta_AF7,Beta_AF8,Beta_TP10,Gamma_TP9,Gamma_AF7,Gamma_AF8,Gamma_TP10,RAW_TP9,RAW_AF7,RAW_AF8,RAW_TP10,AUX_RIGHT,Accelerometer_X,Accelerometer_Y,Accelerometer_Z,Gyro_X,Gyro_Y,Gyro_Z,HeadBandOn,HSI_TP9,HSI_AF7,HSI_AF8,HSI_TP10,Battery,Elements
12:24:09.336,0.64699495,0.7725464,0.5598485,0.60869646,0.3662919,0.22103046,-0.19774418,0.51999956,0.7057485,0.35903466,0.2675287,0.69512725,0.6267294,0.6880022,0.42815554,0.76366854,0.47239965,0.55828416,0.42904896,0.41439012,786.9231,787.326,767.98535,801.4286,738.97437,-0.513671875,0.223388671875,0.81439208984375,1.816864013671875,-2.699127197265625,-0.246734619140625,1.0,1.0,1.0,1.0,1.0,100.0,event
12:24:09.337,0.64699495,0.7725464,0.5598485,0.60869646,0.3662919,0.22103046,-0.19774418,0.51999956,0.7057485,0.35903466,0.2675287,0.69512725,0.6267294,0.6880022,0.42815554,0.76366854,0.47239965,0.55828416,0.42904896,0.41439012,781.685,795.78754,767.98535,780.07324,745.0183,-0.513671875,0.223388671875,0.81439208984375,1.816864013671875,-2.699127197265625,-0.246734619140625,1.0,1.0,1.0,1.0,1.0,100.0,event
12:24:09.338,0.64699495,0.7725464,0.5598485,0.60869646,0.3662919,0.22103046,-0.19774418,0.51999956,0.7057485,0.35903466,0.2675287,0.69512725,0.6267294,0.6880022,0.42815554,0.76366854,0.47239965,0.55828416,0.42904896,0.41439012,765.9707,800.2198,775.64105,780.87915,762.74725,-0.513671875,0.223388671875,0.81439208984375,1.816864013671875,-2.699127197265625,-0.246734619140625,1.0,1.0,1.0,1.0,1.0,100.0,event
12:24:09.338,0.580387,0.78814733,0.59695286,0.55439085,0.33461487,0.2407586,-0.21740258,0.48385647,0.7057485,0.307407,0.25681964,0.6961554,0.6316015,0.69249904,0.44455042,0.7584883,0.49525192,0.55654943,0.41126794,0.41351184,778.0586,799.81683,790.9524,788.1319,759.12085,-0.513671875,0.223388671875,0.81439208984375,1.816864013671875,-2.699127197265625,-0.246734619140625,1.0,1.0,1.0,1.0,1.0,100.0,event
12:24:09.343,0.580387,0.78814733,0.59695286,0.55439085,0.33461487,0.2407586,-0.21740258,0.48385647,0.7057485,0.307407,0.25681964,0.6961554,0.6316015,0.69249904,0.44455042,0.7584883,0.49525192,0.55654943,0.41126794,0.41351184,779.2674,792.96704,785.31134,790.54944,829.6337,-0.513671875,0.223388671875,0.81439208984375,1.816864013671875,-2.699127197265625,-0.246734619140625,1.0,1.0,1.0,1.0,1.0,100.0,event
12:24:09.343,0.580387,0.78814733,0.59695286,0.55439085,0.33461487,0.2407586,-0.21740258,0.48385647,0.7057485,0.307407,0.25681964,0.6961554,0.6316015,0.69249904,0.44455042,0.7584883,0.49525192,0.55654943,0.41126794,0.41351184,771.6117,795.38464,773.22345,783.69965,831.2454,-0.513671875,0.223388671875,0.81439208984375,1.816864013671875,-2.699127197265625,-0.246734619140625,1.0,1.0,1.0,1.0,1.0,100.0,event
12:24:09.344,0.580387,0.78814733,0.59695286,0.55439085,0.33461487,0.2407586,-0.21740258,0.48385647,0.7057485,0.307407,0.25681964,0.6961554,0.6316015,0.69249904,0.44455042,0.7584883,0.49525192,0.55654943,0.41126794,0.41351184,774.43225,795.78754,776.04395,775.2381,786.52014,-0.513671875,0.223388671875,0.81439208984375,1.816864013671875,-2.699127197265625,-0.246734619140625,1.0,1.0,1.0,1.0,1.0,100.0,event
12:24:09.345,0.580387,0.78814733,0.59695286,0.55439085,0.33461487,0.2407586,-0.21740258,0.48385647,0.7057485,0.307407,0.25681964,0.6961554,0.6316015,0.69249904,0.44455042,0.7584883,0.49525192,0.55654943,0.41126794,0.41351184,782.8938,789.7436,780.07324,792.1612,807.8755,-0.513671875,0.223388671875,0.81439208984375,1.816864013671875,-2.699127197265625,-0.246734619140625,1.0,1.0,1.0,1.0,1.0,100.0,event
12:24:09.346,0.580387,0.78814733,0.59695286,0.55439085,0.33461487,0.2407586,-0.21740258,0.48385647,0.7057485,0.307407,0.25681964,0.6961554,0.6316015,0.69249904,0.44455042,0.7584883,0.49525192,0.55654943,0.41126794,0.41351184,788.1319,778.86444,778.46155,793.7729,1014.17584,-0.513671875,0.223388671875,0.81439208984375,1.816864013671875,-2.699127197265625,-0.246734619140625,1.0,1.0,1.0,1.0,1.0,100.0,event
12:24:09.346,0.580387,0.78814733,0.59695286,0.55439085,0.33461487,0.2407586,-0.21740258,0.48385647,0.7057485,0.307407,0.25681964,0.6961554,0.6316015,0.69249904,0.44455042,0.7584883,0.49525192,0.55654943,0.41126794,0.41351184,786.52014,786.52014,767.5824,790.14655,843.3333,-0.513671875,0.223388671875,0.81439208984375,1.816864013671875,-2.699127197265625,-0.246734619140625,1.0,1.0,1.0,1.0,1.0,100.0,event
12:24:09.347,0.580387,0.78814733,0.59695286,0.55439085,0.33461487,0.2407586,-0.21740258,0.48385647,0.7057485,0.307407,0.25681964,0.6961554,0.6316015,0.69249904,0.44455042,0.7584883,0.49525192,0.55654943,0.41126794,0.41351184,783.2967,786.9231,767.98535,813.1135,701.0989,-0.513671875,0.223388671875,0.81439208984375,1.816864013671875,-2.699127197265625,-0.246734619140625,1.0,1.0,1.0,1.0,1.0,100.0,event
12:24:09.348,0.580387,0.78814733,0.59695286,0.55439085,0.33461487,0.2407586,-0.21740258,0.48385647,0.7057485,0.307407,0.25681964,0.6961554,0.6316015,0.69249904,0.44455042,0.7584883,0.49525192,0.55654943,0.41126794,0.41351184,771.6117,782.8938,765.56775,807.0696,792.1612,-0.513671875,0.223388671875,0.81439208984375,1.816864013671875,-2.699127197265625,-0.246734619140625,1.0,1.0,1.0,1.0,1.0,100.0,event
12:24:09.369,0.580387,0.78814733,0.59695286,0.55439085,0.33461487,0.2407586,-0.21740258,0.48385647,0.7057485,0.307407,0.25681964,0.6961554,0.6316015,0.69249904,0.44455042,0.7584883,0.49525192,0.55654943,0.41126794,0.41351184,780.4762,795.38464,767.1795,801.4286,745.0183,-0.513671875,0.223388671875,0.81439208984375,1.816864013671875,-2.699127197265625,-0.246734619140625,1.0,1.0,1.0,1.0,1.0,100.0,event
12:24:09.370,0.580387,0.78814733,0.59695286,0.55439085,0.33461487,0.2407586,-0.21740258,0.48385647,0.7057485,0.307407,0.25681964,0.6961554,0.6316015,0.69249904,0.44455042,0.7584883,0.49525192,0.55654943,0.41126794,0.41351184,772.4176,803.44324,761.9414,781.28204,645.89746,-0.513671875,0.223388671875,0.81439208984375,1.816864013671875,-2.699127197265625,-0.246734619140625,1.0,1.0,1.0,1.0,1.0,100.0,event
12:24:09.371,0.580387,0.78814733,0.59695286,0.55439085,0.33461487,0.2407586,-0.21740258,0.48385647,0.7057485,0.307407,0.25681964,0.6961554,0.6316015,0.69249904,0.44455042,0.7584883,0.49525192,0.55654943,0.41126794,0.41351184,748.6447,788.93774,769.59705,773.6264,648.315,-0.513671875,0.223388671875,0.81439208984375,1.816864013671875,-2.699127197265625,-0.246734619140625,1.0,1.0,1.0,1.0,1.0,100.0,event
12:24:09.371,0.580387,0.78814733,0.59695286,0.55439085,0.33461487,0.2407586,-0.21740258,0.48385647,0.7057485,0.307407,0.25681964,0.6961554,0.6316015,0.69249904,0.44455042,0.7584883,0.49525192,0.55654943,0.41126794,0.41351184,758.71796,773.6264,782.0879,781.28204,756.30035,-0.513671875,0.223388671875,0.81439208984375,1.816864013671875,-2.699127197265625,-0.246734619140625,1.0,1.0,1.0,1.0,1.0,100.0,event
12:24:09.372,0.580387,0.78814733,0.59695286,0.55439085,0.33461487,0.2407586,-0.21740258,0.48385647,0.7057485,0.307407,0.25681964,0.6961554,0.6316015,0.69249904,0.44455042,0.7584883,0.49525192,0.55654943,0.41126794,0.41351184,773.6264,796.5934,773.6264,785.31134,813.91943,-0.513671875,0.223388671875,0.81439208984375,1.816864013671875,-2.699127197265625,-0.246734619140625,1.0,1.0,1.0,1.0,1.0,100.0,event
12:24:09.372,0.580387,0.78814733,0.59695286,0.55439085,0.33461487,0.2407586,-0.21740258,0.48385647,0.7057485,0.307407,0.25681964,0.6961554,0.6316015,0.69249904,0.44455042,0.7584883,0.49525192,0.55654943,0.41126794,0.41351184,772.8205,779.67035,778.46155,776.8498,776.04395,-0.513671875,0.223388671875,0.81439208984375,1.816864013671875,-2.699127197265625,-0.246734619140625,1.0,1.0,1.0,1.0,1.0,100.0,event
12:24:09.373,0.580387,0.78814733,0.59695286,0.55439085,0.33461487,0.2407586,-0.21740258,0.48385647,0.7057485,0.307407,0.25681964,0.6961554,0.6316015,0.69249904,0.44455042,0.7584883,0.49525192,0.55654943,0.41126794,0.41351184,772.8205,806.26373,769.59705,789.34064,853.4066,-0.513671875,0.223388671875,0.81439208984375,1.816864013671875,-2.699127197265625,-0.246734619140625,1.0,1.0,1.0,1.0,1.0,100.0,event
12:24:09.373,0.580387,0.78814733,0.59695286,0.55439085,0.33461487,0.2407586,-0.21740258,0.48385647,0.7057485,0.307407,0.25681964,0.6961554,0.6316015,0.69249904,0.44455042,0.7584883,0.49525192,0.55654943,0.41126794,0.41351184,780.07324,772.01465,792.1612,806.26373,1010.9524,-0.513671875,0.223388671875,0.81439208984375,1.816864013671875,-2.699127197265625,-0.246734619140625,1.0,1.0,1.0,1.0,1.0,100.0,event
12:24:09.374,0.580387,0.78814733,0.59695286,0.55439085,0.33461487,0.2407586,-0.21740258,0.48385647,0.7057485,0.307407,0.25681964,0.6961554,0.6316015,0.69249904,0.44455042,0.7584883,0.49525192,0.55654943,0.41126794,0.41351184,789.7436,778.86444,803.0403,817.9487,1093.956,-0.513671875,0.223388671875,0.81439208984375,1.816864013671875,-2.699127197265625,-0.246734619140625,1.0,1.0,1.0,1.0,1.0,100.0,event
12:24:09.375,0.580387,0.78814733,0.59695286,0.55439085,0.33461487,0.2407586,-0.21740258,0.48385647,0.7057485,0.307407,0.25681964,0.6961554,0.6316015,0.69249904,0.44455042,0.7584883,0.49525192,0.55654943,0.41126794,0.41351184,795.38464,820.7692,773.22345,807.47253,801.8315,-0.513671875,0.223388671875,0.81439208984375,1.816864013671875,-2.699127197265625,-0.246734619140625,1.0,1.0,1.0,1.0,1.0,100.0,event
12:24:09.375,0.580387,0.78814733,0.59695286,0.55439085,0.33461487,0.2407586,-0.21740258,0.48385647,0.7057485,0.307407,0.25681964,0.6961554,0.6316015,0.69249904,0.44455042,0.7584883,0.49525192,0.55654943,0.41126794,0.41351184,787.326,803.8461,764.7619,793.36993,697.47253,-0.513671875,0.223388671875,0.81439208984375,1.816864013671875,-2.699127197265625,-0.246734619140625,1.0,1.0,1.0,1.0,1.0,100.0,event
12:24:09.376,0.580387,0.78814733,0.59695286,0.55439085,0.33461487,0.2407586,-0.21740258,0.48385647,0.7057485,0.307407,0.25681964,0.6961554,0.6316015,0.69249904,0.44455042,0.7584883,0.49525192,0.55654943,0.41126794,0.41351184,785.7143,799.011,782.49084,787.326,782.49084,-0.513671875,0.223388671875,0.81439208984375,1.816864013671875,-2.699127197265625,-0.246734619140625,1.0,1.0,1.0,1.0,1.0,100.0,event
12:24:09.397,0.580387,0.78814733,0.59695286,0.55439085,0.33461487,0.2407586,-0.21740258,0.48385647,0.7057485,0.307407,0.25681964,0.6961554,0.6316015,0.69249904,0.44455042,0.7584883,0.49525192,0.55654943,0.41126794,0.41351184,791.75824,801.4286,788.5348,796.99634,749.85345,-0.51165771484375,0.21783447265625,0.82373046875,2.51220703125,-3.22998046875,-0.4486083984375,1.0,1.0,1.0,1.0,1.0,100.0,event
12:24:09.398,0.580387,0.78814733,0.59695286,0.55439085,0.33461487,0.2407586,-0.21740258,0.48385647,0.7057485,0.307407,0.25681964,0.6961554,0.6316015,0.69249904,0.44455042,0.7584883,0.49525192,0.55654943,0.41126794,0.41351184,786.9231,794.17584,785.31134,807.0696,698.2784,-0.51165771484375,0.21783447265625,0.82373046875,2.51220703125,-3.22998046875,-0.4486083984375,1.0,1.0,1.0,1.0,1.0,100.0,event
12:24:09.398,0.580387,0.78814733,0.59695286,0.55439085,0.33461487,0.2407586,-0.21740258,0.48385647,0.7057485,0.307407,0.25681964,0.6961554,0.6316015,0.69249904,0.44455042,0.7584883,0.49525192,0.55654943,0.41126794,0.41351184,782.49084,794.9817,778.86444,806.6667,689.81683,-0.51165771484375,0.21783447265625,0.82373046875,2.51220703125,-3.22998046875,-0.4486083984375,1.0,1.0,1.0,1.0,1.0,100.0,event
12:24:09.399,0.580387,0.78814733,0.59695286,0.55439085,0.33461487,0.2407586,-0.21740258,0.48385647,0.7057485,0.307407,0.25681964,0.6961554,0.6316015,0.69249904,0.44455042,0.7584883,0.49525192,0.55654943,0.41126794,0.41351184,815.9341,805.4579,778.46155,800.6227,759.12085,-0.51165771484375,0.21783447265625,0.82373046875,2.51220703125,-3.22998046875,-0.4486083984375,1.0,1.0,1.0,1.0,1.0,100.0,event
12:24:09.399,0.580387,0.78814733,0.59695286,0.55439085,0.33461487,0.2407586,-0.21740258,0.48385647,0.7057485,0.307407,0.25681964,0.6961554,0.6316015,0.69249904,0.44455042,0.7584883,0.49525192,0.55654943,0.41126794,0.41351184,801.02563,803.44324,776.04395,803.44324,741.39197,-0.51165771484375,0.21783447265625,0.82373046875,2.51220703125,-3.22998046875,-0.4486083984375,1.0,1.0,1.0,1.0,1.0,100.0,event
12:24:09.400,0.49367088,0.79792166,0.6227038,0.48686036,0.29998633,0.25555012,-0.2320681,0.44267538,0.7065602,0.29668176,0.25109684,0.6961035,0.63337535,0.6928215,0.458746,0.75623745,0.5108315,0.5611629,0.39315426,0.41269663,799.011,797.3993,775.64105,794.17584,745.82416,-0.51165771484375,0.21783447265625,0.82373046875,2.51220703125,-3.22998046875,-0.4486083984375,1.0,1.0,1.0,1.0,1.0,100.0,event
12:24:09.404,0.49367088,0.79792166,0.6227038,0.48686036,0.29998633,0.25555012,-0.2320681,0.44267538,0.7065602,0.29668176,0.25109684,0.6961035,0.63337535,0.6928215,0.458746,0.75623745,0.5108315,0.5611629,0.39315426,0.41269663,798.20514,799.81683,771.2088,789.34064,842.9304,-0.51165771484375,0.21783447265625,0.82373046875,2.51220703125,-3.22998046875,-0.4486083984375,1.0,1.0,1.0,1.0,1.0,100.0,event
12:24:09.405,0.49367088,0.79792166,0.6227038,0.48686036,0.29998633,0.25555012,-0.2320681,0.44267538,0.7065602,0.29668176,0.25109684,0.6961035,0.63337535,0.6928215,0.458746,0.75623745,0.5108315,0.5611629,0.39315426,0.41269663,785.31134,791.75824,762.3443,794.9817,1023.44324,-0.51165771484375,0.21783447265625,0.82373046875,2.51220703125,-3.22998046875,-0.4486083984375,1.0,1.0,1.0,1.0,1.0,100.0,event
12:24:09.405,0.49367088,0.79792166,0.6227038,0.48686036,0.29998633,0.25555012,-0.2320681,0.44267538,0.7065602,0.29668176,0.25109684,0.6961035,0.63337535,0.6928215,0.458746,0.75623745,0.5108315,0.5611629,0.39315426,0.41269663,781.28204,801.4286,780.4762,806.6667,852.6007,-0.51165771484375,0.21783447265625,0.82373046875,2.51220703125,-3.22998046875,-0.4486083984375,1.0,1.0,1.0,1.0,1.0,100.0,event
12:24:09.406,0.49367088,0.79792166,0.6227038,0.48686036,0.29998633,0.25555012,-0.2320681,0.44267538,0.7065602,0.29668176,0.25109684,0.6961035,0.63337535,0.6928215,0.458746,0.75623745,0.5108315,0.5611629,0.39315426,0.41269663,793.7729,805.05493,794.17584,803.8461,691.8315,-0.51165771484375,0.21783447265625,0.82373046875,2.51220703125,-3.22998046875,-0.4486083984375,1.0,1.0,1.0,1.0,1.0,100.0,event
12:24:09.406,0.49367088,0.79792166,0.6227038,0.48686036,0.29998633,0.25555012,-0.2320681,0.44267538,0.7065602,0.29668176,0.25109684,0.6961035,0.63337535,0.6928215,0.458746,0.75623745,0.5108315,0.5611629,0.39315426,0.41269663,782.49084,783.2967,782.8938,790.9524,742.6007,-0.51165771484375,0.21783447265625,0.82373046875,2.51220703125,-3.22998046875,-0.4486083984375,1.0,1.0,1.0,1.0,1.0,100.0,event
12:24:09.407,0.49367088,0.79792166,0.6227038,0.48686036,0.29998633,0.25555012,-0.2320681,0.44267538,0.7065602,0.29668176,0.25109684,0.6961035,0.63337535,0.6928215,0.458746,0.75623745,0.5108315,0.5611629,0.39315426,0.41269663,779.2674,802.23444,777.6557,792.5641,795.78754,-0.51165771484375,0.21783447265625,0.82373046875,2.51220703125,-3.22998046875,-0.4486083984375,1.0,1.0,1.0,1.0,1.0,100.0,event
12:24:09.464,0.49367088,0.79792166,0.6227038,0.48686036,0.29998633,0.25555012,-0.2320681,0.44267538,0.7065602,0.29668176,0.25109684,0.6961035,0.63337535,0.6928215,0.458746,0.75623745,0.5108315,0.5611629,0.39315426,0.41269663,779.2674,820.3663,775.64105,801.8315,738.1685,-0.51702880859375,0.2216796875,0.820556640625,1.3458251953125,-3.087921142578125,-1.502838134765625,1.0,1.0,1.0,1.0,1.0,100.0,event
12:24:09.465,0.49367088,0.79792166,0.6227038,0.48686036,0.29998633,0.25555012,-0.2320681,0.44267538,0.7065602,0.29668176,0.25109684,0.6961035,0.63337535,0.6928215,0.458746,0.75623745,0.5108315,0.5611629,0.39315426,0.41269663,778.46155,788.1319,771.2088,811.9048,722.4542,-0.51702880859375,0.2216796875,0.820556640625,1.3458251953125,-3.087921142578125,-1.502838134765625,1.0,1.0,1.0,1.0,1.0,100.0,event
12:24:09.466,0.49367088,0.79792166,0.6227038,0.48686036,0.29998633,0.25555012,-0.2320681,0.44267538,0.7065602,0.29668176,0.25109684,0.6961035,0.63337535,0.6928215,0.458746,0.75623745,0.5108315,0.5611629,0.39315426,0.41269663,781.685,776.8498,769.59705,806.26373,794.17584,-0.51702880859375,0.2216796875,0.820556640625,1.3458251953125,-3.087921142578125,-1.502838134765625,1.0,1.0,1.0,1.0,1.0,100.0,event
12:24:09.467,0.49367088,0.79792166,0.6227038,0.48686036,0.29998633,0.25555012,-0.2320681,0.44267538,0.7065602,0.29668176,0.25109684,0.6961035,0.63337535,0.6928215,0.458746,0.75623745,0.5108315,0.5611629,0.39315426,0.41269663,786.52014,792.1612,774.0293,791.3553,772.4176,-0.51702880859375,0.2216796875,0.820556640625,1.3458251953125,-3.087921142578125,-1.502838134765625,1.0,1.0,1.0,1.0,1.0,100.0,event
12:24:09.467,0.49367088,0.79792166,0.6227038,0.48686036,0.29998633,0.25555012,-0.2320681,0.44267538,0.7065602,0.29668176,0.25109684,0.6961035,0.63337535,0.6928215,0.458746,0.75623745,0.5108315,0.5611629,0.39315426,0.41269663,791.3553,797.3993,777.6557,802.6374,719.2308,-0.51702880859375,0.2216796875,0.820556640625,1.3458251953125,-3.087921142578125,-1.502838134765625,1.0,1.0,1.0,1.0,1.0,100.0,event
12:24:09.468,0.49367088,0.79792166,0.6227038,0.48686036,0.29998633,0.25555012,-0.2320681,0.44267538,0.7065602,0.29668176,0.25109684,0.6961035,0.63337535,0.6928215,0.458746,0.75623745,0.5108315,0.5611629,0.39315426,0.41269663,778.46155,795.78754,778.86444,803.44324,769.19415,-0.51702880859375,0.2216796875,0.820556640625,1.3458251953125,-3.087921142578125,-1.502838134765625,1.0,1.0,1.0,1.0,1.0,100.0,event
12:24:09.468,0.49367088,0.79792166,0.6227038,0.48686036,0.29998633,0.25555012,-0.2320681,0.44267538,0.7065602,0.29668176,0.25109684,0.6961035,0.63337535,0.6928215,0.458746,0.75623745,0.5108315,0.5611629,0.39315426,0.41269663,765.16486,774.83514,767.1795,792.5641,977.9121,-0.51702880859375,0.2216796875,0.820556640625,1.3458251953125,-3.087921142578125,-1.502838134765625,1.0,1.0,1.0,1.0,1.0,100.0,event
12:24:09.469,0.49367088,0.79792166,0.6227038,0.48686036,0.29998633,0.25555012,-0.2320681,0.44267538,0.7065602,0.29668176,0.25109684,0.6961035,0.63337535,0.6928215,0.458746,0.75623745,0.5108315,0.5611629,0.39315426,0.41269663,773.6264,792.96704,765.56775,796.1905,1050.0366,-0.51702880859375,0.2216796875,0.820556640625,1.3458251953125,-3.087921142578125,-1.502838134765625,1.0,1.0,1.0,1.0,1.0,100.0,event
12:24:09.471,0.49367088,0.79792166,0.6227038,0.48686036,0.29998633,0.25555012,-0.2320681,0.44267538,0.7065602,0.29668176,0.25109684,0.6961035,0.63337535,0.6928215,0.458746,0.75623745,0.5108315,0.5611629,0.39315426,0.41269663,798.60803,815.5311,776.8498,801.02563,830.84247,-0.51702880859375,0.2216796875,0.820556640625,1.3458251953125,-3.087921142578125,-1.502838134765625,1.0,1.0,1.0,1.0,1.0,100.0,event
12:24:09.472,0.49367088,0.79792166,0.6227038,0.48686036,0.29998633,0.25555012,-0.2320681,0.44267538,0.7065602,0.29668176,0.25109684,0.6961035,0.63337535,0.6928215,0.458746,0.75623745,0.5108315,0.5611629,0.39315426,0.41269663,792.5641,791.75824,780.07324,809.4872,779.67035,-0.51702880859375,0.2216796875,0.820556640625,1.3458251953125,-3.087921142578125,-1.502838134765625,1.0,1.0,1.0,1.0,1.0,100.0,event
12:24:09.473,0.49367088,0.79792166,0.6227038,0.48686036,0.29998633,0.25555012,-0.2320681,0.44267538,0.7065602,0.29668176,0.25109684,0.6961035,0.63337535,0.6928215,0.458746,0.75623745,0.5108315,0.5611629,0.39315426,0.41269663,769.19415,769.59705,784.90845,801.8315,800.2198,-0.51702880859375,0.2216796875,0.820556640625,1.3458251953125,-3.087921142578125,-1.502838134765625,1.0,1.0,1.0,1.0,1.0,100.0,event
12:24:09.474,0.49367088,0.79792166,0.6227038,0.48686036,0.29998633,0.25555012,-0.2320681,0.44267538,0.7065602,0.29668176,0.25109684,0.6961035,0.63337535,0.6928215,0.458746,0.75623745,0.5108315,0.5611629,0.39315426,0.41269663,770.0,790.54944,790.54944,803.8461,805.8608,-0.51702880859375,0.2216796875,0.820556640625,1.3458251953125,-3.087921142578125,-1.502838134765625,1.0,1.0,1.0,1.0,1.0,100.0,event
12:24:09.500,0.49367088,0.79792166,0.6227038,0.48686036,0.29998633,0.25555012,-0.2320681,0.44267538,0.7065602,0.29668176,0.25109684,0.6961035,0.63337535,0.6928215,0.458746,0.75623745,0.5108315,0.5611629,0.39315426,0.41269663,785.7143,827.619,769.19415,796.1905,773.22345,-0.521728515625,0.21832275390625,0.82305908203125,0.6280517578125,-3.69354248046875,-1.443023681640625,1.0,1.0,1.0,1.0,1.0,100.0,event
12:24:09.501,0.49367088,0.79792166,0.6227038,0.48686036,0.29998633,0.25555012,-0.2320681,0.44267538,0.7065602,0.29668176,0.25109684,0.6961035,0.63337535,0.6928215,0.458746,0.75623745,0.5108315,0.5611629,0.39315426,0.41269663,795.78754,811.0989,765.16486,793.36993,759.5238,-0.521728515625,0.21832275390625,0.82305908203125,0.6280517578125,-3.69354248046875,-1.443023681640625,1.0,1.0,1.0,1.0,1.0,100.0,event
12:24:09.503,0.49367088,0.79792166,0.6227038,0.48686036,0.29998633,0.25555012,-0.2320681,0.44267538,0.7065602,0.29668176,0.25109684,0.6961035,0.63337535,0.6928215,0.458746,0.75623745,0.5108315,0.5611629,0.39315426,0.41269663,784.10254,782.8938,793.7729,810.293,927.9487,-0.521728515625,0.21832275390625,0.82305908203125,0.6280517578125,-3.69354248046875,-1.443023681640625,1.0,1.0,1.0,1.0,1.0,100.0,event
12:24:09.504,0.49367088,0.79792166,0.6227038,0.48686036,0.29998633,0.25555012,-0.2320681,0.44267538,0.7065602,0.29668176,0.25109684,0.6961035,0.63337535,0.6928215,0.458746,0.75623745,0.5108315,0.5611629,0.39315426,0.41269663,781.685,802.6374,801.02563,800.6227,859.85345,-0.521728515625,0.21832275390625,0.82305908203125,0.6280517578125,-3.69354248046875,-1.443023681640625,1.0,1.0,1.0,1.0,1.0,100.0,event
12:24:09.505,0.49367088,0.79792166,0.6227038,0.48686036,0.29998633,0.25555012,-0.2320681,0.44267538,0.7065602,0.29668176,0.25109684,0.6961035,0.63337535,0.6928215,0.458746,0.75623745,0.5108315,0.5611629,0.39315426,0.41269663,783.2967,800.2198,782.49084,786.1172,722.4542,-0.521728515625,0.21832275390625,0.82305908203125,0.6280517578125,-3.69354248046875,-1.443023681640625,1.0,1.0,1.0,1.0,1.0,100.0,event
12:24:09.507,0.49367088,0.79792166,0.6227038,0.48686036,0.29998633,0.25555012,-0.2320681,0.44267538,0.7065602,0.29668176,0.25109684,0.6961035,0.63337535,0.6928215,0.458746,0.75623745,0.5108315,0.5611629,0.39315426,0.41269663,778.86444,781.685,783.2967,789.7436,909.81683,-0.521728515625,0.21832275390625,0.82305908203125,0.6280517578125,-3.69354248046875,-1.443023681640625,1.0,1.0,1.0,1.0,1.0,100.0,event
12:24:09.507,0.49367088,0.79792166,0.6227038,0.48686036,0.29998633,0.25555012,-0.2320681,0.44267538,0.7065602,0.29668176,0.25109684,0.6961035,0.63337535,0.6928215,0.458746,0.75623745,0.5108315,0.5611629,0.39315426,0.41269663,785.31134,783.69965,791.75824,809.0842,1106.4469,-0.521728515625,0.21832275390625,0.82305908203125,0.6280517578125,-3.69354248046875,-1.443023681640625,1.0,1.0,1.0,1.0,1.0,100.0,event
12:24:09.508,0.42678905,0.79625857,0.6334824,0.41597083,0.2703882,0.25580224,-0.23496555,0.4084124,0.7185867,0.29341966,0.24537562,0.6938161,0.6322848,0.68813753,0.46346378,0.76472414,0.51294154,0.5723461,0.37395045,0.41245532,782.49084,815.9341,782.0879,817.1429,825.6044,-0.521728515625,0.21832275390625,0.82305908203125,0.6280517578125,-3.69354248046875,-1.443023681640625,1.0,1.0,1.0,1.0,1.0,100.0,event
12:24:09.513,0.42678905,0.79625857,0.6334824,0.41597083,0.2703882,0.25580224,-0.23496555,0.4084124,0.7185867,0.29341966,0.24537562,0.6938161,0.6322848,0.68813753,0.46346378,0.76472414,0.51294154,0.5723461,0.37395045,0.41245532,799.81683,793.36993,775.64105,804.65204,759.5238,-0.521728515625,0.21832275390625,0.82305908203125,0.6280517578125,-3.69354248046875,-1.443023681640625,1.0,1.0,1.0,1.0,1.0,100.0,event
12:24:09.513,0.42678905,0.79625857,0.6334824,0.41597083,0.2703882,0.25580224,-0.23496555,0.4084124,0.7185867,0.29341966,0.24537562,0.6938161,0.6322848,0.68813753,0.46346378,0.76472414,0.51294154,0.5723461,0.37395045,0.41245532,787.72894,813.5165,774.0293,808.68134,648.71796,-0.521728515625,0.21832275390625,0.82305908203125,0.6280517578125,-3.69354248046875,-1.443023681640625,1.0,1.0,1.0,1.0,1.0,100.0,event
12:24:09.514,0.42678905,0.79625857,0.6334824,0.41597083,0.2703882,0.25580224,-0.23496555,0.4084124,0.7185867,0.29341966,0.24537562,0.6938161,0.6322848,0.68813753,0.46346378,0.76472414,0.51294154,0.5723461,0.37395045,0.41245532,795.38464,800.2198,783.2967,809.4872,813.91943,-0.521728515625,0.21832275390625,0.82305908203125,0.6280517578125,-3.69354248046875,-1.443023681640625,1.0,1.0,1.0,1.0,1.0,100.0,event
12:24:09.515,0.42678905,0.79625857,0.6334824,0.41597083,0.2703882,0.25580224,-0.23496555,0.4084124,0.7185867,0.29341966,0.24537562,0.6938161,0.6322848,0.68813753,0.46346378,0.76472414,0.51294154,0.5723461,0.37395045,0.41245532,792.1612,797.8022,784.5055,811.50183,742.1978,-0.521728515625,0.21832275390625,0.82305908203125,0.6280517578125,-3.69354248046875,-1.443023681640625,1.0,1.0,1.0,1.0,1.0,100.0,event
12:24:09.572,0.42678905,0.79625857,0.6334824,0.41597083,0.2703882,0.25580224,-0.23496555,0.4084124,0.7185867,0.29341966,0.24537562,0.6938161,0.6322848,0.68813753,0.46346378,0.76472414,0.51294154,0.5723461,0.37395045,0.41245532,795.38464,796.5934,790.9524,809.89014,707.9487,-0.521728515625,0.21832275390625,0.82305908203125,0.6280517578125,-3.69354248046875,-1.443023681640625,1.0,1.0,1.0,1.0,1.0,100.0,event
12:24:09.574,0.42678905,0.79625857,0.6334824,0.41597083,0.2703882,0.25580224,-0.23496555,0.4084124,0.7185867,0.29341966,0.24537562,0.6938161,0.6322848,0.68813753,0.46346378,0.76472414,0.51294154,0.5723461,0.37395045,0.41245532,803.0403,796.99634,786.52014,810.696,780.4762,-0.521728515625,0.21832275390625,0.82305908203125,0.6280517578125,-3.69354248046875,-1.443023681640625,1.0,1.0,1.0,1.0,1.0,100.0,event
12:24:09.575,0.42678905,0.79625857,0.6334824,0.41597083,0.2703882,0.25580224,-0.23496555,0.4084124,0.7185867,0.29341966,0.24537562,0.6938161,0.6322848,0.68813753,0.46346378,0.76472414,0.51294154,0.5723461,0.37395045,0.41245532,789.7436,790.14655,770.0,803.44324,819.5604,-0.521728515625,0.21832275390625,0.82305908203125,0.6280517578125,-3.69354248046875,-1.443023681640625,1.0,1.0,1.0,1.0,1.0,100.0,event
12:24:09.575,0.42678905,0.79625857,0.6334824,0.41597083,0.2703882,0.25580224,-0.23496555,0.4084124,0.7185867,0.29341966,0.24537562,0.6938161,0.6322848,0.68813753,0.46346378,0.76472414,0.51294154,0.5723461,0.37395045,0.41245532,792.5641,798.60803,772.01465,815.9341,783.2967,-0.521728515625,0.21832275390625,0.82305908203125,0.6280517578125,-3.69354248046875,-1.443023681640625,1.0,1.0,1.0,1.0,1.0,100.0,event
12:24:09.576,0.42678905,0.79625857,0.6334824,0.41597083,0.2703882,0.25580224,-0.23496555,0.4084124,0.7185867,0.29341966,0.24537562,0.6938161,0.6322848,0.68813753,0.46346378,0.76472414,0.51294154,0.5723461,0.37395045,0.41245532,803.0403,804.65204,783.69965,821.978,722.0513,-0.521728515625,0.21832275390625,0.82305908203125,0.6280517578125,-3.69354248046875,-1.443023681640625,1.0,1.0,1.0,1.0,1.0,100.0,event
12:24:09.577,0.42678905,0.79625857,0.6334824,0.41597083,0.2703882,0.25580224,-0.23496555,0.4084124,0.7185867,0.29341966,0.24537562,0.6938161,0.6322848,0.68813753,0.46346378,0.76472414,0.51294154,0.5723461,0.37395045,0.41245532,785.7143,792.5641,786.1172,792.1612,1116.9231,-0.521728515625,0.21832275390625,0.82305908203125,0.6280517578125,-3.69354248046875,-1.443023681640625,1.0,1.0,1.0,1.0,1.0,100.0,event
12:24:09.577,0.42678905,0.79625857,0.6334824,0.41597083,0.2703882,0.25580224,-0.23496555,0.4084124,0.7185867,0.29341966,0.24537562,0.6938161,0.6322848,0.68813753,0.46346378,0.76472414,0.51294154,0.5723461,0.37395045,0.41245532,799.41394,781.28204,791.75824,803.8461,982.3443,-0.521728515625,0.21832275390625,0.82305908203125,0.6280517578125,-3.69354248046875,-1.443023681640625,1.0,1.0,1.0,1.0,1.0,100.0,event
12:24:09.578,0.42678905,0.79625857,0.6334824,0.41597083,0.2703882,0.25580224,-0.23496555,0.4084124,0.7185867,0.29341966,0.24537562,0.6938161,0.6322848,0.68813753,0.46346378,0.76472414,0.51294154,0.5723461,0.37395045,0.41245532,774.0293,817.5458,783.2967,794.57874,780.4762,-0.521728515625,0.21832275390625,0.82305908203125,0.6280517578125,-3.69354248046875,-1.443023681640625,1.0,1.0,1.0,1.0,1.0,100.0,event
12:24:09.579,0.42678905,0.79625857,0.6334824,0.41597083,0.2703882,0.25580224,-0.23496555,0.4084124,0.7185867,0.29341966,0.24537562,0.6938161,0.6322848,0.68813753,0.46346378,0.76472414,0.51294154,0.5723461,0.37395045,0.41245532,784.90845,796.5934,776.4469,803.8461,686.1905,-0.521728515625,0.21832275390625,0.82305908203125,0.6280517578125,-3.69354248046875,-1.443023681640625,1.0,1.0,1.0,1.0,1.0,100.0,event
12:24:09.579,0.42678905,0.79625857,0.6334824,0.41597083,0.2703882,0.25580224,-0.23496555,0.4084124,0.7185867,0.29341966,0.24537562,0.6938161,0.6322848,0.68813753,0.46346378,0.76472414,0.51294154,0.5723461,0.37395045,0.41245532,809.89014,779.2674,762.3443,821.1722,916.26373,-0.521728515625,0.21832275390625,0.82305908203125,0.6280517578125,-3.69354248046875,-1.443023681640625,1.0,1.0,1.0,1.0,1.0,100.0,event
12:24:09.580,0.42678905,0.79625857,0.6334824,0.41597083,0.2703882,0.25580224,-0.23496555,0.4084124,0.7185867,0.29341966,0.24537562,0.6938161,0.6322848,0.68813753,0.46346378,0.76472414,0.51294154,0.5723461,0.37395045,0.41245532,799.41394,799.81683,774.43225,820.3663,865.4945,-0.521728515625,0.21832275390625,0.82305908203125,0.6280517578125,-3.69354248046875,-1.443023681640625,1.0,1.0,1.0,1.0,1.0,100.0,event
12:24:09.580,0.42678905,0.79625857,0.6334824,0.41597083,0.2703882,0.25580224,-0.23496555,0.4084124,0.7185867,0.29341966,0.24537562,0.6938161,0.6322848,0.68813753,0.46346378,0.76472414,0.51294154,0.5723461,0.37395045,0.41245532,774.43225,805.4579,786.1172,809.0842,701.0989,-0.521728515625,0.21832275390625,0.82305908203125,0.6280517578125,-3.69354248046875,-1.443023681640625,1.0,1.0,1.0,1.0,1.0,100.0,event
12:24:09.606,0.42678905,0.79625857,0.6334824,0.41597083,0.2703882,0.25580224,-0.23496555,0.4084124,0.7185867,0.29341966,0.24537562,0.6938161,0.6322848,0.68813753,0.46346378,0.76472414,0.51294154,0.5723461,0.37395045,0.41245532,790.54944,797.3993,792.96704,814.3223,704.7253,-0.51837158203125,0.2152099609375,0.81256103515625,2.474822998046875,-2.4224853515625,-2.639312744140625,1.0,1.0,1.0,1.0,1.0,100.0,event
12:24:09.607,0.42678905,0.79625857,0.6334824,0.41597083,0.2703882,0.25580224,-0.23496555,0.4084124,0.7185867,0.29341966,0.24537562,0.6938161,0.6322848,0.68813753,0.46346378,0.76472414,0.51294154,0.5723461,0.37395045,0.41245532,796.1905,791.3553,782.0879,811.50183,762.3443,-0.51837158203125,0.2152099609375,0.81256103515625,2.474822998046875,-2.4224853515625,-2.639312744140625,1.0,1.0,1.0,1.0,1.0,100.0,event
12:24:09.608,0.42678905,0.79625857,0.6334824,0.41597083,0.2703882,0.25580224,-0.23496555,0.4084124,0.7185867,0.29341966,0.24537562,0.6938161,0.6322848,0.68813753,0.46346378,0.76472414,0.51294154,0.5723461,0.37395045,0.41245532,807.8755,834.0659,788.5348,826.8132,763.1502,-0.51837158203125,0.2152099609375,0.81256103515625,2.474822998046875,-2.4224853515625,-2.639312744140625,1.0,1.0,1.0,1.0,1.0,100.0,event
12:24:09.608,0.42678905,0.79625857,0.6334824,0.41597083,0.2703882,0.25580224,-0.23496555,0.4084124,0.7185867,0.29341966,0.24537562,0.6938161,0.6322848,0.68813753,0.46346378,0.76472414,0.51294154,0.5723461,0.37395045,0.41245532,792.1612,808.68134,770.40295,809.89014,743.00366,-0.51837158203125,0.2152099609375,0.81256103515625,2.474822998046875,-2.4224853515625,-2.639312744140625,1.0,1.0,1.0,1.0,1.0,100.0,event
12:24:09.609,0.42678905,0.79625857,0.6334824,0.41597083,0.2703882,0.25580224,-0.23496555,0.4084124,0.7185867,0.29341966,0.24537562,0.6938161,0.6322848,0.68813753,0.46346378,0.76472414,0.51294154,0.5723461,0.37395045,0.41245532,798.20514,809.4872,757.9121,828.022,790.9524,-0.51837158203125,0.2152099609375,0.81256103515625,2.474822998046875,-2.4224853515625,-2.639312744140625,1.0,1.0,1.0,1.0,1.0,100.0,event
12:24:09.610,0.42678905,0.79625857,0.6334824,0.41597083,0.2703882,0.25580224,-0.23496555,0.4084124,0.7185867,0.29341966,0.24537562,0.6938161,0.6322848,0.68813753,0.46346378,0.76472414,0.51294154,0.5723461,0.37395045,0.41245532,782.8938,782.49084,755.89746,811.50183,837.28937,-0.51837158203125,0.2152099609375,0.81256103515625,2.474822998046875,-2.4224853515625,-2.639312744140625,1.0,1.0,1.0,1.0,1.0,100.0,event
12:24:09.610,0.42678905,0.79625857,0.6334824,0.41597083,0.2703882,0.25580224,-0.23496555,0.4084124,0.7185867,0.29341966,0.24537562,0.6938161,0.6322848,0.68813753,0.46346378,0.76472414,0.51294154,0.5723461,0.37395045,0.41245532,778.86444,782.8938,794.9817,797.3993,853.8095,-0.51837158203125,0.2152099609375,0.81256103515625,2.474822998046875,-2.4224853515625,-2.639312744140625,1.0,1.0,1.0,1.0,1.0,100.0,event
12:24:09.611,0.42678905,0.79625857,0.6334824,0.41597083,0.2703882,0.25580224,-0.23496555,0.4084124,0.7185867,0.29341966,0.24537562,0.6938161,0.6322848,0.68813753,0.46346378,0.76472414,0.51294154,0.5723461,0.37395045,0.41245532,778.46155,788.93774,798.20514,790.9524,792.1612,-0.51837158203125,0.2152099609375,0.81256103515625,2.474822998046875,-2.4224853515625,-2.639312744140625,1.0,1.0,1.0,1.0,1.0,100.0,event
12:24:09.612,0.42678905,0.79625857,0.6334824,0.41597083,0.2703882,0.25580224,-0.23496555,0.4084124,0.7185867,0.29341966,0.24537562,0.6938161,0.6322848,0.68813753,0.46346378,0.76472414,0.51294154,0.5723461,0.37395045,0.41245532,780.07324,790.9524,786.52014,783.2967,846.55676,-0.51837158203125,0.2152099609375,0.81256103515625,2.474822998046875,-2.4224853515625,-2.639312744140625,1.0,1.0,1.0,1.0,1.0,100.0,event
12:24:09.612,0.36171794,0.7760735,0.63173085,0.38579568,0.2542122,0.23038906,-0.23507226,0.38161168,0.7185867,0.28646475,0.24168764,0.676976,0.62275445,0.68343544,0.46127057,0.78498465,0.5067576,0.58343375,0.35435736,0.4136839,791.75824,783.69965,784.10254,782.49084,1061.3187,-0.51837158203125,0.2152099609375,0.81256103515625,2.474822998046875,-2.4224853515625,-2.639312744140625,1.0,1.0,1.0,1.0,1.0,100.0,event
12:24:09.617,0.36171794,0.7760735,0.63173085,0.38579568,0.2542122,0.23038906,-0.23507226,0.38161168,0.7185867,0.28646475,0.24168764,0.676976,0.62275445,0.68343544,0.46127057,0.78498465,0.5067576,0.58343375,0.35435736,0.4136839,784.10254,810.293,780.87915,789.34064,884.0293,-0.51837158203125,0.2152099609375,0.81256103515625,2.474822998046875,-2.4224853515625,-2.639312744140625,1.0,1.0,1.0,1.0,1.0,100.0,event
12:24:09.618,0.36171794,0.7760735,0.63173085,0.38579568,0.2542122,0.23038906,-0.23507226,0.38161168,0.7185867,0.28646475,0.24168764,0.676976,0.62275445,0.68343544,0.46127057,0.78498465,0.5067576,0.58343375,0.35435736,0.4136839,768.3883,811.50183,780.07324,795.78754,688.20514,-0.51837158203125,0.2152099609375,0.81256103515625,2.474822998046875,-2.4224853515625,-2.639312744140625,1.0,1.0,1.0,1.0,1.0,100.0,event
12:24:09.670,0.36171794,0.7760735,0.63173085,0.38579568,0.2542122,0.23038906,-0.23507226,0.38161168,0.7185867,0.28646475,0.24168764,0.676976,0.62275445,0.68343544,0.46127057,0.78498465,0.5067576,0.58343375,0.35435736,0.4136839,781.685,793.7729,782.49084,801.02563,796.1905,-0.51043701171875,0.21881103515625,0.8272705078125,2.3028564453125,-2.01873779296875,-2.27294921875,1.0,1.0,1.0,1.0,1.0,100.0,event
12:24:09.672,0.36171794,0.7760735,0.63173085,0.38579568,0.2542122,0.23038906,-0.23507226,0.38161168,0.7185867,0.28646475,0.24168764,0.676976,0.62275445,0.68343544,0.46127057,0.78498465,0.5067576,0.58343375,0.35435736,0.4136839,787.72894,803.8461,783.69965,801.4286,806.6667,-0.51043701171875,0.21881103515625,0.8272705078125,2.3028564453125,-2.01873779296875,-2.27294921875,1.0,1.0,1.0,1.0,1.0,100.0,event
12:24:09.673,0.36171794,0.7760735,0.63173085,0.38579568,0.2542122,0.23038906,-0.23507226,0.38161168,0.7185867,0.28646475,0.24168764,0.676976,0.62275445,0.68343544,0.46127057,0.78498465,0.5067576,0.58343375,0.35435736,0.4136839,779.2674,803.44324,777.6557,801.02563,722.8571,-0.51043701171875,0.21881103515625,0.8272705078125,2.3028564453125,-2.01873779296875,-2.27294921875,1.0,1.0,1.0,1.0,1.0,100.0,event
12:24:09.674,0.36171794,0.7760735,0.63173085,0.38579568,0.2542122,0.23038906,-0.23507226,0.38161168,0.7185867,0.28646475,0.24168764,0.676976,0.62275445,0.68343544,0.46127057,0.78498465,0.5067576,0.58343375,0.35435736,0.4136839,786.1172,798.20514,761.53845,806.6667,682.1612,-0.51043701171875,0.21881103515625,0.8272705078125,2.3028564453125,-2.01873779296875,-2.27294921875,1.0,1.0,1.0,1.0,1.0,100.0,event
12:24:09.675,0.36171794,0.7760735,0.63173085,0.38579568,0.2542122,0.23038906,-0.23507226,0.38161168,0.7185867,0.28646475,0.24168764,0.676976,0.62275445,0.68343544,0.46127057,0.78498465,0.5067576,0.58343375,0.35435736,0.4136839,792.5641,796.5934,767.1795,809.4872,800.2198,-0.51043701171875,0.21881103515625,0.8272705078125,2.3028564453125,-2.01873779296875,-2.27294921875,1.0,1.0,1.0,1.0,1.0,100.0,event
12:24:09.676,0.36171794,0.7760735,0.63173085,0.38579568,0.2542122,0.23038906,-0.23507226,0.38161168,0.7185867,0.28646475,0.24168764,0.676976,0.62275445,0.68343544,0.46127057,0.78498465,0.5067576,0.58343375,0.35435736,0.4136839,785.31134,791.3553,778.86444,806.26373,885.2381,-0.51043701171875,0.21881103515625,0.8272705078125,2.3028564453125,-2.01873779296875,-2.27294921875,1.0,1.0,1.0,1.0,1.0,100.0,event
12:24:09.677,0.36171794,0.7760735,0.63173085,0.38579568,0.2542122,0.23038906,-0.23507226,0.38161168,0.7185867,0.28646475,0.24168764,0.676976,0.62275445,0.68343544,0.46127057,0.78498465,0.5067576,0.58343375,0.35435736,0.4136839,790.14655,795.78754,789.7436,803.8461,848.97437,-0.51043701171875,0.21881103515625,0.8272705078125,2.3028564453125,-2.01873779296875,-2.27294921875,1.0,1.0,1.0,1.0,1.0,100.0,event
12:24:09.678,0.36171794,0.7760735,0.63173085,0.38579568,0.2542122,0.23038906,-0.23507226,0.38161168,0.7185867,0.28646475,0.24168764,0.676976,0.62275445,0.68343544,0.46127057,0.78498465,0.5067576,0.58343375,0.35435736,0.4136839,799.81683,816.337,794.17584,820.3663,714.3956,-0.51043701171875,0.21881103515625,0.8272705078125,2.3028564453125,-2.01873779296875,-2.27294921875,1.0,1.0,1.0,1.0,1.0,100.0,event
12:24:09.679,0.36171794,0.7760735,0.63173085,0.38579568,0.2542122,0.23038906,-0.23507226,0.38161168,0.7185867,0.28646475,0.24168764,0.676976,0.62275445,0.68343544,0.46127057,0.78498465,0.5067576,0.58343375,0.35435736,0.4136839,792.96704,789.7436,775.64105,819.15753,907.3993,-0.51043701171875,0.21881103515625,0.8272705078125,2.3028564453125,-2.01873779296875,-2.27294921875,1.0,1.0,1.0,1.0,1.0,100.0,event
12:24:09.680,0.36171794,0.7760735,0.63173085,0.38579568,0.2542122,0.23038906,-0.23507226,0.38161168,0.7185867,0.28646475,0.24168764,0.676976,0.62275445,0.68343544,0.46127057,0.78498465,0.5067576,0.58343375,0.35435736,0.4136839,784.5055,788.1319,777.25275,805.05493,1108.4615,-0.51043701171875,0.21881103515625,0.8272705078125,2.3028564453125,-2.01873779296875,-2.27294921875,1.0,1.0,1.0,1.0,1.0,100.0,event
12:24:09.681,0.36171794,0.7760735,0.63173085,0.38579568,0.2542122,0.23038906,-0.23507226,0.38161168,0.7185867,0.28646475,0.24168764,0.676976,0.62275445,0.68343544,0.46127057,0.78498465,0.5067576,0.58343375,0.35435736,0.4136839,791.75824,811.9048,773.6264,811.50183,776.04395,-0.51043701171875,0.21881103515625,0.8272705078125,2.3028564453125,-2.01873779296875,-2.27294921875,1.0,1.0,1.0,1.0,1.0,100.0,event
12:24:09.682,0.36171794,0.7760735,0.63173085,0.38579568,0.2542122,0.23038906,-0.23507226,0.38161168,0.7185867,0.28646475,0.24168764,0.676976,0.62275445,0.68343544,0.46127057,0.78498465,0.5067576,0.58343375,0.35435736,0.4136839,806.26373,800.6227,770.0,811.0989,718.4249,-0.51043701171875,0.21881103515625,0.8272705078125,2.3028564453125,-2.01873779296875,-2.27294921875,1.0,1.0,1.0,1.0,1.0,100.0,event
12:24:09.709,0.36171794,0.7760735,0.63173085,0.38579568,0.2542122,0.23038906,-0.23507226,0.38161168,0.7185867,0.28646475,0.24168764,0.676976,0.62275445,0.68343544,0.46127057,0.78498465,0.5067576,0.58343375,0.35435736,0.4136839,799.011,801.8315,787.72894,812.3077,819.15753,-0.51812744140625,0.21197509765625,0.81793212890625,1.816864013671875,0.186920166015625,-1.637420654296875,1.0,1.0,1.0,1.0,1.0,100.0,event
12:24:09.710,0.36171794,0.7760735,0.63173085,0.38579568,0.2542122,0.23038906,-0.23507226,0.38161168,0.7185867,0.28646475,0.24168764,0.676976,0.62275445,0.68343544,0.46127057,0.78498465,0.5067576,0.58343375,0.35435736,0.4136839,786.1172,792.96704,790.14655,817.1429,755.4945,-0.51812744140625,0.21197509765625,0.81793212890625,1.816864013671875,0.186920166015625,-1.637420654296875,1.0,1.0,1.0,1.0,1.0,100.0,event
12:24:09.711,0.36171794,0.7760735,0.63173085,0.38579568,0.2542122,0.23038906,-0.23507226,0.38161168,0.7185867,0.28646475,0.24168764,0.676976,0.62275445,0.68343544,0.46127057,0.78498465,0.5067576,0.58343375,0.35435736,0.4136839,802.23444,791.3553,790.14655,813.91943,672.0879,-0.51812744140625,0.21197509765625,0.81793212890625,1.816864013671875,0.186920166015625,-1.637420654296875,1.0,1.0,1.0,1.0,1.0,100.0,event
12:24:09.711,0.36171794,0.7760735,0.63173085,0.38579568,0.2542122,0.23038906,-0.23507226,0.38161168,0.7185867,0.28646475,0.24168764,0.676976,0.62275445,0.68343544,0.46127057,0.78498465,0.5067576,0.58343375,0.35435736,0.4136839,805.05493,809.89014,788.93774,818.7546,653.1502,-0.51812744140625,0.21197509765625,0.81793212890625,1.816864013671875,0.186920166015625,-1.637420654296875,1.0,1.0,1.0,1.0,1.0,100.0,event
12:24:09.712,0.36171794,0.7760735,0.63173085,0.38579568,0.2542122,0.23038906,-0.23507226,0.38161168,0.7185867,0.28646475,0.24168764,0.676976,0.62275445,0.68343544,0.46127057,0.78498465,0.5067576,0.58343375,0.35435736,0.4136839,794.57874,813.1135,778.86444,825.6044,716.0073,-0.51812744140625,0.21197509765625,0.81793212890625,1.816864013671875,0.186920166015625,-1.637420654296875,1.0,1.0,1.0,1.0,1.0,100.0,event
12:24:09.712,0.36171794,0.7760735,0.63173085,0.38579568,0.2542122,0.23038906,-0.23507226,0.38161168,0.7185867,0.28646475,0.24168764,0.676976,0.62275445,0.68343544,0.46127057,0.78498465,0.5067576,0.58343375,0.35435736,0.4136839,798.20514,800.6227,782.49084,825.2015,875.9707,-0.51812744140625,0.21197509765625,0.81793212890625,1.816864013671875,0.186920166015625,-1.637420654296875,1.0,1.0,1.0,1.0,1.0,100.0,event
12:24:09.713,0.36171794,0.7760735,0.63173085,0.38579568,0.2542122,0.23038906,-0.23507226,0.38161168,0.7185867,0.28646475,0.24168764,0.676976,0.62275445,0.68343544,0.46127057,0.78498465,0.5067576,0.58343375,0.35435736,0.4136839,793.36993,809.0842,783.2967,810.696,909.011,-0.51812744140625,0.21197509765625,0.81793212890625,1.816864013671875,0.186920166015625,-1.637420654296875,1.0,1.0,1.0,1.0,1.0,100.0,event
12:24:09.714,0.36171794,0.7760735,0.63173085,0.38579568,0.2542122,0.23038906,-0.23507226,0.38161168,0.7185867,0.28646475,0.24168764,0.676976,0.62275445,0.68343544,0.46127057,0.78498465,0.5067576,0.58343375,0.35435736,0.4136839,805.4579,796.1905,784.10254,803.8461,1092.3444,-0.51812744140625,0.21197509765625,0.81793212890625,1.816864013671875,0.186920166015625,-1.637420654296875,1.0,1.0,1.0,1.0,1.0,100.0,event
12:24:09.714,0.36171794,0.7760735,0.63173085,0.38579568,0.2542122,0.23038906,-0.23507226,0.38161168,0.7185867,0.28646475,0.24168764,0.676976,0.62275445,0.68343544,0.46127057,0.78498465,0.5067576,0.58343375,0.35435736,0.4136839,794.17584,809.4872,778.46155,800.6227,915.05493,-0.51812744140625,0.21197509765625,0.81793212890625,1.816864013671875,0.186920166015625,-1.637420654296875,1.0,1.0,1.0,1.0,1.0,100.0,event
12:24:09.715,0.36171794,0.7760735,0.63173085,0.38579568,0.2542122,0.23038906,-0.23507226,0.38161168,0.7185867,0.28646475,0.24168764,0.676976,0.62275445,0.68343544,0.46127057,0.78498465,0.5067576,0.58343375,0.35435736,0.4136839,802.6374,814.7253,790.54944,807.0696,908.60803,-0.51812744140625,0.21197509765625,0.81793212890625,1.816864013671875,0.186920166015625,-1.637420654296875,1.0,1.0,1.0,1.0,1.0,100.0,event
12:24:09.716,0.36171794,0.7760735,0.63173085,0.38579568,0.2542122,0.23038906,-0.23507226,0.38161168,0.7185867,0.28646475,0.24168764,0.676976,0.62275445,0.68343544,0.46127057,0.78498465,0.5067576,0.58343375,0.35435736,0.4136839,787.326,809.4872,780.07324,818.7546,657.98535,-0.51812744140625,0.21197509765625,0.81793212890625,1.816864013671875,0.186920166015625,-1.637420654296875,1.0,1.0,1.0,1.0,1.0,100.0,event
12:24:09.717,0.33622384,0.7285264,0.620013,0.41196874,0.25532055,0.17199849,-0.24624187,0.35559452,0.7160136,0.26927096,0.24581604,0.66842884,0.61969507,0.68282783,0.45988694,0.80927795,0.4970123,0.5853782,0.33584067,0.41701508,787.72894,784.5055,781.28204,832.8571,777.25275,-0.51812744140625,0.21197509765625,0.81793212890625,1.816864013671875,0.186920166015625,-1.637420654296875,1.0,1.0,1.0,1.0,1.0,100.0,event
12:24:09.752,0.33622384,0.7285264,0.620013,0.41196874,0.25532055,0.17199849,-0.24624187,0.35559452,0.7160136,0.26927096,0.24581604,0.66842884,0.61969507,0.68282783,0.45988694,0.80927795,0.4970123,0.5853782,0.33584067,0.41701508,804.65204,804.2491,789.34064,840.5128,937.619,-0.5269775390625,0.20770263671875,0.81439208984375,2.355194091796875,2.444915771484375,-1.016845703125,1.0,1.0,1.0,1.0,1.0,100.0,event
12:24:09.752,0.33622384,0.7285264,0.620013,0.41196874,0.25532055,0.17199849,-0.24624187,0.35559452,0.7160136,0.26927096,0.24581604,0.66842884,0.61969507,0.68282783,0.45988694,0.80927795,0.4970123,0.5853782,0.33584067,0.41701508,798.60803,814.7253,779.2674,840.9158,717.619,-0.5269775390625,0.20770263671875,0.81439208984375,2.355194091796875,2.444915771484375,-1.016845703125,1.0,1.0,1.0,1.0,1.0,100.0,event
12:24:09.753,0.33622384,0.7285264,0.620013,0.41196874,0.25532055,0.17199849,-0.24624187,0.35559452,0.7160136,0.26927096,0.24581604,0.66842884,0.61969507,0.68282783,0.45988694,0.80927795,0.4970123,0.5853782,0.33584067,0.41701508,797.8022,801.8315,774.43225,836.8865,651.13556,-0.5269775390625,0.20770263671875,0.81439208984375,2.355194091796875,2.444915771484375,-1.016845703125,1.0,1.0,1.0,1.0,1.0,100.0,event
12:24:09.753,0.33622384,0.7285264,0.620013,0.41196874,0.25532055,0.17199849,-0.24624187,0.35559452,0.7160136,0.26927096,0.24581604,0.66842884,0.61969507,0.68282783,0.45988694,0.80927795,0.4970123,0.5853782,0.33584067,0.41701508,803.44324,794.17584,779.67035,823.9927,742.1978,-0.5269775390625,0.20770263671875,0.81439208984375,2.355194091796875,2.444915771484375,-1.016845703125,1.0,1.0,1.0,1.0,1.0,100.0,event
12:24:09.754,0.33622384,0.7285264,0.620013,0.41196874,0.25532055,0.17199849,-0.24624187,0.35559452,0.7160136,0.26927096,0.24581604,0.66842884,0.61969507,0.68282783,0.45988694,0.80927795,0.4970123,0.5853782,0.33584067,0.41701508,790.9524,786.1172,782.0879,813.91943,734.94507,-0.5269775390625,0.20770263671875,0.81439208984375,2.355194091796875,2.444915771484375,-1.016845703125,1.0,1.0,1.0,1.0,1.0,100.0,event
12:24:09.754,0.33622384,0.7285264,0.620013,0.41196874,0.25532055,0.17199849,-0.24624187,0.35559452,0.7160136,0.26927096,0.24581604,0.66842884,0.61969507,0.68282783,0.45988694,0.80927795,0.4970123,0.5853782,0.33584067,0.41701508,786.52014,795.38464,782.8938,826.8132,854.21246,-0.5269775390625,0.20770263671875,0.81439208984375,2.355194091796875,2.444915771484375,-1.016845703125,1.0,1.0,1.0,1.0,1.0,100.0,event
12:24:09.755,0.33622384,0.7285264,0.620013,0.41196874,0.25532055,0.17199849,-0.24624187,0.35559452,0.7160136,0.26927096,0.24581604,0.66842884,0.61969507,0.68282783,0.45988694,0.80927795,0.4970123,0.5853782,0.33584067,0.41701508,795.78754,781.685,786.1172,825.2015,988.3883,-0.5269775390625,0.20770263671875,0.81439208984375,2.355194091796875,2.444915771484375,-1.016845703125,1.0,1.0,1.0,1.0,1.0,100.0,event
12:24:09.755,0.33622384,0.7285264,0.620013,0.41196874,0.25532055,0.17199849,-0.24624187,0.35559452,0.7160136,0.26927096,0.24581604,0.66842884,0.61969507,0.68282783,0.45988694,0.80927795,0.4970123,0.5853782,0.33584067,0.41701508,793.7729,801.8315,784.90845,838.0952,914.65204,-0.5269775390625,0.20770263671875,0.81439208984375,2.355194091796875,2.444915771484375,-1.016845703125,1.0,1.0,1.0,1.0,1.0,100.0,event
12:24:09.756,0.33622384,0.7285264,0.620013,0.41196874,0.25532055,0.17199849,-0.24624187,0.35559452,0.7160136,0.26927096,0.24581604,0.66842884,0.61969507,0.68282783,0.45988694,0.80927795,0.4970123,0.5853782,0.33584067,0.41701508,797.8022,794.9817,789.7436,821.5751,957.3626,-0.5269775390625,0.20770263671875,0.81439208984375,2.355194091796875,2.444915771484375,-1.016845703125,1.0,1.0,1.0,1.0,1.0,100.0,event
12:24:09.756,0.33622384,0.7285264,0.620013,0.41196874,0.25532055,0.17199849,-0.24624187,0.35559452,0.7160136,0.26927096,0.24581604,0.66842884,0.61969507,0.68282783,0.45988694,0.80927795,0.4970123,0.5853782,0.33584067,0.41701508,804.2491,811.50183,782.49084,823.5897,703.5165,-0.5269775390625,0.20770263671875,0.81439208984375,2.355194091796875,2.444915771484375,-1.016845703125,1.0,1.0,1.0,1.0,1.0,100.0,event
12:24:09.756,0.33622384,0.7285264,0.620013,0.41196874,0.25532055,0.17199849,-0.24624187,0.35559452,0.7160136,0.26927096,0.24581604,0.66842884,0.61969507,0.68282783,0.45988694,0.80927795,0.4970123,0.5853782,0.33584067,0.41701508,798.60803,798.60803,779.2674,830.0366,684.57874,-0.5269775390625,0.20770263671875,0.81439208984375,2.355194091796875,2.444915771484375,-1.016845703125,1.0,1.0,1.0,1.0,1.0,100.0,event
12:24:09.757,0.33622384,0.7285264,0.620013,0.41196874,0.25532055,0.17199849,-0.24624187,0.35559452,0.7160136,0.26927096,0.24581604,0.66842884,0.61969507,0.68282783,0.45988694,0.80927795,0.4970123,0.5853782,0.33584067,0.41701508,790.14655,799.81683,792.96704,826.0073,734.94507,-0.5269775390625,0.20770263671875,0.81439208984375,2.355194091796875,2.444915771484375,-1.016845703125,1.0,1.0,1.0,1.0,1.0,100.0,event
12:24:09.800,0.33622384,0.7285264,0.620013,0.41196874,0.25532055,0.17199849,-0.24624187,0.35559452,0.7160136,0.26927096,0.24581604,0.66842884,0.61969507,0.68282783,0.45988694,0.80927795,0.4970123,0.5853782,0.33584067,0.41701508,802.23444,801.02563,789.7436,815.12823,697.47253,-0.5269775390625,0.20770263671875,0.81439208984375,2.355194091796875,2.444915771484375,-1.016845703125,1.0,1.0,1.0,1.0,1.0,100.0,event
12:24:09.801,0.33622384,0.7285264,0.620013,0.41196874,0.25532055,0.17199849,-0.24624187,0.35559452,0.7160136,0.26927096,0.24581604,0.66842884,0.61969507,0.68282783,0.45988694,0.80927795,0.4970123,0.5853782,0.33584067,0.41701508,799.81683,790.9524,783.69965,821.978,779.2674,-0.5269775390625,0.20770263671875,0.81439208984375,2.355194091796875,2.444915771484375,-1.016845703125,1.0,1.0,1.0,1.0,1.0,100.0,event
12:24:09.801,0.33622384,0.7285264,0.620013,0.41196874,0.25532055,0.17199849,-0.24624187,0.35559452,0.7160136,0.26927096,0.24581604,0.66842884,0.61969507,0.68282783,0.45988694,0.80927795,0.4970123,0.5853782,0.33584067,0.41701508,821.978,798.60803,787.72894,819.9634,685.78754,-0.5269775390625,0.20770263671875,0.81439208984375,2.355194091796875,2.444915771484375,-1.016845703125,1.0,1.0,1.0,1.0,1.0,100.0,event
12:24:09.802,0.33622384,0.7285264,0.620013,0.41196874,0.25532055,0.17199849,-0.24624187,0.35559452,0.7160136,0.26927096,0.24581604,0.66842884,0.61969507,0.68282783,0.45988694,0.80927795,0.4970123,0.5853782,0.33584067,0.41701508,781.685,791.3553,783.2967,830.4396,844.1392,-0.5269775390625,0.20770263671875,0.81439208984375,2.355194091796875,2.444915771484375,-1.016845703125,1.0,1.0,1.0,1.0,1.0,100.0,event
12:24:09.803,0.33622384,0.7285264,0.620013,0.41196874,0.25532055,0.17199849,-0.24624187,0.35559452,0.7160136,0.26927096,0.24581604,0.66842884,0.61969507,0.68282783,0.45988694,0.80927795,0.4970123,0.5853782,0.33584067,0.41701508,786.52014,788.5348,782.8938,809.4872,789.7436,-0.5269775390625,0.20770263671875,0.81439208984375,2.355194091796875,2.444915771484375,-1.016845703125,1.0,1.0,1.0,1.0,1.0,100.0,event
12:24:09.803,0.33622384,0.7285264,0.620013,0.41196874,0.25532055,0.17199849,-0.24624187,0.35559452,0.7160136,0.26927096,0.24581604,0.66842884,0.61969507,0.68282783,0.45988694,0.80927795,0.4970123,0.5853782,0.33584067,0.41701508,790.14655,795.38464,789.7436,819.9634,765.16486,-0.5269775390625,0.20770263671875,0.81439208984375,2.355194091796875,2.444915771484375,-1.016845703125,1.0,1.0,1.0,1.0,1.0,100.0,event
12:24:09.804,0.33622384,0.7285264,0.620013,0.41196874,0.25532055,0.17199849,-0.24624187,0.35559452,0.7160136,0.26927096,0.24581604,0.66842884,0.61969507,0.68282783,0.45988694,0.80927795,0.4970123,0.5853782,0.33584067,0.41701508,791.75824,767.98535,786.52014,812.3077,882.8205,-0.5269775390625,0.20770263671875,0.81439208984375,2.355194091796875,2.444915771484375,-1.016845703125,1.0,1.0,1.0,1.0,1.0,100.0,event
12:24:09.804,0.33622384,0.7285264,0.620013,0.41196874,0.25532055,0.17199849,-0.24624187,0.35559452,0.7160136,0.26927096,0.24581604,0.66842884,0.61969507,0.68282783,0.45988694,0.80927795,0.4970123,0.5853782,0.33584067,0.41701508,796.99634,779.2674,786.52014,819.5604,1028.2784,-0.5269775390625,0.20770263671875,0.81439208984375,2.355194091796875,2.444915771484375,-1.016845703125,1.0,1.0,1.0,1.0,1.0,100.0,event
12:24:09.805,0.33622384,0.7285264,0.620013,0.41196874,0.25532055,0.17199849,-0.24624187,0.35559452,0.7160136,0.26927096,0.24581604,0.66842884,0.61969507,0.68282783,0.45988694,0.80927795,0.4970123,0.5853782,0.33584067,0.41701508,795.38464,820.3663,780.4762,827.619,890.07324,-0.5269775390625,0.20770263671875,0.81439208984375,2.355194091796875,2.444915771484375,-1.016845703125,1.0,1.0,1.0,1.0,1.0,100.0,event
12:24:09.806,0.33622384,0.7285264,0.620013,0.41196874,0.25532055,0.17199849,-0.24624187,0.35559452,0.7160136,0.26927096,0.24581604,0.66842884,0.61969507,0.68282783,0.45988694,0.80927795,0.4970123,0.5853782,0.33584067,0.41701508,798.60803,803.0403,776.4469,820.3663,676.9231,-0.5269775390625,0.20770263671875,0.81439208984375,2.355194091796875,2.444915771484375,-1.016845703125,1.0,1.0,1.0,1.0,1.0,100.0,event
12:24:09.806,0.33622384,0.7285264,0.620013,0.41196874,0.25532055,0.17199849,-0.24624187,0.35559452,0.7160136,0.26927096,0.24581604,0.66842884,0.61969507,0.68282783,0.45988694,0.80927795,0.4970123,0.5853782,0.33584067,0.41701508,803.0403,784.90845,758.315,813.5165,792.5641,-0.5269775390625,0.20770263671875,0.81439208984375,2.355194091796875,2.444915771484375,-1.016845703125,1.0,1.0,1.0,1.0,1.0,100.0,event
12:24:09.807,0.33622384,0.7285264,0.620013,0.41196874,0.25532055,0.17199849,-0.24624187,0.35559452,0.7160136,0.26927096,0.24581604,0.66842884,0.61969507,0.68282783,0.45988694,0.80927795,0.4970123,0.5853782,0.33584067,0.41701508,813.1135,801.8315,774.83514,819.15753,852.6007,-0.5269775390625,0.20770263671875,0.81439208984375,2.355194091796875,2.444915771484375,-1.016845703125,1.0,1.0,1.0,1.0,1.0,100.0,event
12:24:09.832,0.33622384,0.7285264,0.620013,0.41196874,0.25532055,0.17199849,-0.24624187,0.35559452,0.7160136,0.26927096,0.24581604,0.66842884,0.61969507,0.68282783,0.45988694,0.80927795,0.4970123,0.5853782,0.33584067,0.41701508,813.91943,811.0989,788.5348,813.91943,787.72894,-0.530029296875,0.2088623046875,0.8150634765625,1.89910888671875,-0.530853271484375,-0.246734619140625,1.0,1.0,1.0,1.0,1.0,100.0,event
12:24:09.833,0.33442658,0.6299953,0.59997267,0.48010242,0.26879963,0.05578502,-0.26767927,0.33205622,0.70055324,0.37960982,0.27187344,0.66842884,0.6234112,0.65492606,0.46351376,0.8277108,0.49136978,0.553321,0.32561132,0.42472962,794.17584,807.0696,789.34064,811.0989,763.5531,-0.530029296875,0.2088623046875,0.8150634765625,1.89910888671875,-0.530853271484375,-0.246734619140625,1.0,1.0,1.0,1.0,1.0,100.0,event
12:24:09.838,0.33442658,0.6299953,0.59997267,0.48010242,0.26879963,0.05578502,-0.26767927,0.33205622,0.70055324,0.37960982,0.27187344,0.66842884,0.6234112,0.65492606,0.46351376,0.8277108,0.49136978,0.553321,0.32561132,0.42472962,786.1172,795.78754,796.99634,803.44324,751.4652,-0.530029296875,0.2088623046875,0.8150634765625,1.89910888671875,-0.530853271484375,-0.246734619140625,1.0,1.0,1.0,1.0,1.0,100.0,event
12:24:09.839,0.33442658,0.6299953,0.59997267,0.48010242,0.26879963,0.05578502,-0.26767927,0.33205622,0.70055324,0.37960982,0.27187344,0.66842884,0.6234112,0.65492606,0.46351376,0.8277108,0.49136978,0.553321,0.32561132,0.42472962,790.54944,809.0842,770.0,799.81683,684.9817,-0.530029296875,0.2088623046875,0.8150634765625,1.89910888671875,-0.530853271484375,-0.246734619140625,1.0,1.0,1.0,1.0,1.0,100.0,event
12:24:09.840,0.33442658,0.6299953,0.59997267,0.48010242,0.26879963,0.05578502,-0.26767927,0.33205622,0.70055324,0.37960982,0.27187344,0.66842884,0.6234112,0.65492606,0.46351376,0.8277108,0.49136978,0.553321,0.32561132,0.42472962,797.3993,813.1135,754.68866,810.696,751.06226,-0.530029296875,0.2088623046875,0.8150634765625,1.89910888671875,-0.530853271484375,-0.246734619140625,1.0,1.0,1.0,1.0,1.0,100.0,event
12:24:09.840,0.33442658,0.6299953,0.59997267,0.48010242,0.26879963,0.05578502,-0.26767927,0.33205622,0.70055324,0.37960982,0.27187344,0.66842884,0.6234112,0.65492606,0.46351376,0.8277108,0.49136978,0.553321,0.32561132,0.42472962,803.8461,797.3993,773.6264,807.8755,855.0183,-0.530029296875,0.2088623046875,0.8150634765625,1.89910888671875,-0.530853271484375,-0.246734619140625,1.0,1.0,1.0,1.0,1.0,100.0,event
12:24:09.841,0.33442658,0.6299953,0.59997267,0.48010242,0.26879963,0.05578502,-0.26767927,0.33205622,0.70055324,0.37960982,0.27187344,0.66842884,0.6234112,0.65492606,0.46351376,0.8277108,0.49136978,0.553321,0.32561132,0.42472962,790.54944,778.86444,786.1172,814.3223,982.74725,-0.530029296875,0.2088623046875,0.8150634765625,1.89910888671875,-0.530853271484375,-0.246734619140625,1.0,1.0,1.0,1.0,1.0,100.0,event
12:24:09.841,0.33442658,0.6299953,0.59997267,0.48010242,0.26879963,0.05578502,-0.26767927,0.33205622,0.70055324,0.37960982,0.27187344,0.66842884,0.6234112,0.65492606,0.46351376,0.8277108,0.49136978,0.553321,0.32561132,0.42472962,786.9231,788.5348,786.9231,816.337,1048.4249,-0.530029296875,0.2088623046875,0.8150634765625,1.89910888671875,-0.530853271484375,-0.246734619140625,1.0,1.0,1.0,1.0,1.0,100.0,event
12:24:09.842,0.33442658,0.6299953,0.59997267,0.48010242,0.26879963,0.05578502,-0.26767927,0.33205622,0.70055324,0.37960982,0.27187344,0.66842884,0.6234112,0.65492606,0.46351376,0.8277108,0.49136978,0.553321,0.32561132,0.42472962,806.26373,795.78754,785.31134,810.696,763.5531,-0.530029296875,0.2088623046875,0.8150634765625,1.89910888671875,-0.530853271484375,-0.246734619140625,1.0,1.0,1.0,1.0,1.0,100.0,event
12:24:09.843,0.33442658,0.6299953,0.59997267,0.48010242,0.26879963,0.05578502,-0.26767927,0.33205622,0.70055324,0.37960982,0.27187344,0.66842884,0.6234112,0.65492606,0.46351376,0.8277108,0.49136978,0.553321,0.32561132,0.42472962,807.0696,792.96704,776.04395,815.12823,662.4176,-0.530029296875,0.2088623046875,0.8150634765625,1.89910888671875,-0.530853271484375,-0.246734619140625,1.0,1.0,1.0,1.0,1.0,100.0,event
12:24:09.843,0.33442658,0.6299953,0.59997267,0.48010242,0.26879963,0.05578502,-0.26767927,0.33205622,0.70055324,0.37960982,0.27187344,0.66842884,0.6234112,0.65492606,0.46351376,0.8277108,0.49136978,0.553321,0.32561132,0.42472962,788.5348,801.4286,776.04395,821.978,853.4066,-0.530029296875,0.2088623046875,0.8150634765625,1.89910888671875,-0.530853271484375,-0.246734619140625,1.0,1.0,1.0,1.0,1.0,100.0,event
12:24:09.844,0.33442658,0.6299953,0.59997267,0.48010242,0.26879963,0.05578502,-0.26767927,0.33205622,0.70055324,0.37960982,0.27187344,0.66842884,0.6234112,0.65492606,0.46351376,0.8277108,0.49136978,0.553321,0.32561132,0.42472962,783.69965,814.7253,782.0879,813.5165,832.4542,-0.530029296875,0.2088623046875,0.8150634765625,1.89910888671875,-0.530853271484375,-0.246734619140625,1.0,1.0,1.0,1.0,1.0,100.0,event
12:24:09.901,0.33442658,0.6299953,0.59997267,0.48010242,0.26879963,0.05578502,-0.26767927,0.33205622,0.70055324,0.37960982,0.27187344,0.66842884,0.6234112,0.65492606,0.46351376,0.8277108,0.49136978,0.553321,0.32561132,0.42472962,801.02563,803.44324,778.86444,807.0696,704.7253,-0.5313720703125,0.2076416015625,0.80133056640625,1.8841552734375,-3.33465576171875,0.82244873046875,1.0,1.0,1.0,1.0,1.0,100.0,event
12:24:09.902,0.33442658,0.6299953,0.59997267,0.48010242,0.26879963,0.05578502,-0.26767927,0.33205622,0.70055324,0.37960982,0.27187344,0.66842884,0.6234112,0.65492606,0.46351376,0.8277108,0.49136978,0.553321,0.32561132,0.42472962,823.9927,803.0403,781.685,811.9048,746.2271,-0.5313720703125,0.2076416015625,0.80133056640625,1.8841552734375,-3.33465576171875,0.82244873046875,1.0,1.0,1.0,1.0,1.0,100.0,event
12:24:09.903,0.33442658,0.6299953,0.59997267,0.48010242,0.26879963,0.05578502,-0.26767927,0.33205622,0.70055324,0.37960982,0.27187344,0.66842884,0.6234112,0.65492606,0.46351376,0.8277108,0.49136978,0.553321,0.32561132,0.42472962,818.3516,815.9341,783.2967,825.2015,825.2015,-0.5313720703125,0.2076416015625,0.80133056640625,1.8841552734375,-3.33465576171875,0.82244873046875,1.0,1.0,1.0,1.0,1.0,100.0,event
12:24:09.904,0.33442658,0.6299953,0.59997267,0.48010242,0.26879963,0.05578502,-0.26767927,0.33205622,0.70055324,0.37960982,0.27187344,0.66842884,0.6234112,0.65492606,0.46351376,0.8277108,0.49136978,0.553321,0.32561132,0.42472962,809.4872,811.0989,777.6557,838.9011,770.0,-0.5313720703125,0.2076416015625,0.80133056640625,1.8841552734375,-3.33465576171875,0.82244873046875,1.0,1.0,1.0,1.0,1.0,100.0,event
12:24:09.905,0.33442658,0.6299953,0.59997267,0.48010242,0.26879963,0.05578502,-0.26767927,0.33205622,0.70055324,0.37960982,0.27187344,0.66842884,0.6234112,0.65492606,0.46351376,0.8277108,0.49136978,0.553321,0.32561132,0.42472962,821.5751,815.5311,782.0879,824.7985,736.1539,-0.5313720703125,0.2076416015625,0.80133056640625,1.8841552734375,-3.33465576171875,0.82244873046875,1.0,1.0,1.0,1.0,1.0,100.0,event
12:24:09.905,0.33442658,0.6299953,0.59997267,0.48010242,0.26879963,0.05578502,-0.26767927,0.33205622,0.70055324,0.37960982,0.27187344,0.66842884,0.6234112,0.65492606,0.46351376,0.8277108,0.49136978,0.553321,0.32561132,0.42472962,819.9634,803.44324,783.2967,815.5311,932.381,-0.5313720703125,0.2076416015625,0.80133056640625,1.8841552734375,-3.33465576171875,0.82244873046875,1.0,1.0,1.0,1.0,1.0,100.0,event
12:24:09.906,0.33442658,0.6299953,0.59997267,0.48010242,0.26879963,0.05578502,-0.26767927,0.33205622,0.70055324,0.37960982,0.27187344,0.66842884,0.6234112,0.65492606,0.46351376,0.8277108,0.49136978,0.553321,0.32561132,0.42472962,793.36993,787.326,780.87915,825.2015,1073.0037,-0.5313720703125,0.2076416015625,0.80133056640625,1.8841552734375,-3.33465576171875,0.82244873046875,1.0,1.0,1.0,1.0,1.0,100.0,event
12:24:09.907,0.33442658,0.6299953,0.59997267,0.48010242,0.26879963,0.05578502,-0.26767927,0.33205622,0.70055324,0.37960982,0.27187344,0.66842884,0.6234112,0.65492606,0.46351376,0.8277108,0.49136978,0.553321,0.32561132,0.42472962,794.17584,809.4872,780.4762,810.696,832.0513,-0.5313720703125,0.2076416015625,0.80133056640625,1.8841552734375,-3.33465576171875,0.82244873046875,1.0,1.0,1.0,1.0,1.0,100.0,event
12:24:09.907,0.33442658,0.6299953,0.59997267,0.48010242,0.26879963,0.05578502,-0.26767927,0.33205622,0.70055324,0.37960982,0.27187344,0.66842884,0.6234112,0.65492606,0.46351376,0.8277108,0.49136978,0.553321,0.32561132,0.42472962,805.05493,798.20514,786.1172,805.05493,739.7802,-0.5313720703125,0.2076416015625,0.80133056640625,1.8841552734375,-3.33465576171875,0.82244873046875,1.0,1.0,1.0,1.0,1.0,100.0,event
12:24:09.908,0.33442658,0.6299953,0.59997267,0.48010242,0.26879963,0.05578502,-0.26767927,0.33205622,0.70055324,0.37960982,0.27187344,0.66842884,0.6234112,0.65492606,0.46351376,0.8277108,0.49136978,0.553321,0.32561132,0.42472962,801.4286,777.6557,786.1172,805.4579,844.5421,-0.5313720703125,0.2076416015625,0.80133056640625,1.8841552734375,-3.33465576171875,0.82244873046875,1.0,1.0,1.0,1.0,1.0,100.0,event
12:24:09.909,0.33442658,0.6299953,0.59997267,0.48010242,0.26879963,0.05578502,-0.26767927,0.33205622,0.70055324,0.37960982,0.27187344,0.66842884,0.6234112,0.65492606,0.46351376,0.8277108,0.49136978,0.553321,0.32561132,0.42472962,798.20514,810.696,782.0879,817.9487,872.3443,-0.5313720703125,0.2076416015625,0.80133056640625,1.8841552734375,-3.33465576171875,0.82244873046875,1.0,1.0,1.0,1.0,1.0,100.0,event
12:24:09.910,0.33442658,0.6299953,0.59997267,0.48010242,0.26879963,0.05578502,-0.26767927,0.33205622,0.70055324,0.37960982,0.27187344,0.66842884,0.6234112,0.65492606,0.46351376,0.8277108,0.49136978,0.553321,0.32561132,0.42472962,784.90845,819.5604,778.86444,822.7839,775.2381,-0.5313720703125,0.2076416015625,0.80133056640625,1.8841552734375,-3.33465576171875,0.82244873046875,1.0,1.0,1.0,1.0,1.0,100.0,event
12:24:09.971,0.33442658,0.6299953,0.59997267,0.48010242,0.26879963,0.05578502,-0.26767927,0.33205622,0.70055324,0.37960982,0.27187344,0.66842884,0.6234112,0.65492606,0.46351376,0.8277108,0.49136978,0.553321,0.32561132,0.42472962,793.7729,796.99634,770.0,809.0842,700.696,-0.525146484375,0.2197265625,0.81756591796875,1.36077880859375,-4.42626953125,0.829925537109375,1.0,1.0,1.0,1.0,1.0,100.0,event
12:24:09.972,0.33442658,0.6299953,0.59997267,0.48010242,0.26879963,0.05578502,-0.26767927,0.33205622,0.70055324,0.37960982,0.27187344,0.66842884,0.6234112,0.65492606,0.46351376,0.8277108,0.49136978,0.553321,0.32561132,0.42472962,803.8461,788.1319,777.6557,813.91943,727.28937,-0.525146484375,0.2197265625,0.81756591796875,1.36077880859375,-4.42626953125,0.829925537109375,1.0,1.0,1.0,1.0,1.0,100.0,event
12:24:09.973,0.33442658,0.6299953,0.59997267,0.48010242,0.26879963,0.05578502,-0.26767927,0.33205622,0.70055324,0.37960982,0.27187344,0.66842884,0.6234112,0.65492606,0.46351376,0.8277108,0.49136978,0.553321,0.32561132,0.42472962,784.10254,792.5641,787.72894,824.7985,758.315,-0.525146484375,0.2197265625,0.81756591796875,1.36077880859375,-4.42626953125,0.829925537109375,1.0,1.0,1.0,1.0,1.0,100.0,event
12:24:09.973,0.42913726,0.5038449,0.56763154,0.5496582,0.31073928,-0.064308695,-0.28629664,0.32714057,0.70041716,0.37460822,0.30029503,0.66842884,0.63244015,0.62356746,0.47112685,0.8375129,0.48193988,0.5223195,0.33303115,0.4396716,784.5055,801.02563,783.69965,827.2161,715.2015,-0.525146484375,0.2197265625,0.81756591796875,1.36077880859375,-4.42626953125,0.829925537109375,1.0,1.0,1.0,1.0,1.0,100.0,event
12:24:09.979,0.42913726,0.5038449,0.56763154,0.5496582,0.31073928,-0.064308695,-0.28629664,0.32714057,0.70041716,0.37460822,0.30029503,0.66842884,0.63244015,0.62356746,0.47112685,0.8375129,0.48193988,0.5223195,0.33303115,0.4396716,795.38464,790.54944,783.69965,817.5458,724.87177,-0.525146484375,0.2197265625,0.81756591796875,1.36077880859375,-4.42626953125,0.829925537109375,1.0,1.0,1.0,1.0,1.0,100.0,event
12:24:09.980,0.42913726,0.5038449,0.56763154,0.5496582,0.31073928,-0.064308695,-0.28629664,0.32714057,0.70041716,0.37460822,0.30029503,0.66842884,0.63244015,0.62356746,0.47112685,0.8375129,0.48193988,0.5223195,0.33303115,0.4396716,807.47253,766.3736,786.1172,810.696,835.2747,-0.525146484375,0.2197265625,0.81756591796875,1.36077880859375,-4.42626953125,0.829925537109375,1.0,1.0,1.0,1.0,1.0,100.0,event
12:24:09.981,0.42913726,0.5038449,0.56763154,0.5496582,0.31073928,-0.064308695,-0.28629664,0.32714057,0.70041716,0.37460822,0.30029503,0.66842884,0.63244015,0.62356746,0.47112685,0.8375129,0.48193988,0.5223195,0.33303115,0.4396716,799.81683,789.34064,777.6557,805.4579,854.61536,-0.525146484375,0.2197265625,0.81756591796875,1.36077880859375,-4.42626953125,0.829925537109375,1.0,1.0,1.0,1.0,1.0,100.0,event
12:24:09.981,0.42913726,0.5038449,0.56763154,0.5496582,0.31073928,-0.064308695,-0.28629664,0.32714057,0.70041716,0.37460822,0.30029503,0.66842884,0.63244015,0.62356746,0.47112685,0.8375129,0.48193988,0.5223195,0.33303115,0.4396716,786.9231,813.1135,765.16486,807.0696,723.2601,-0.525146484375,0.2197265625,0.81756591796875,1.36077880859375,-4.42626953125,0.829925537109375,1.0,1.0,1.0,1.0,1.0,100.0,event
12:24:09.982,0.42913726,0.5038449,0.56763154,0.5496582,0.31073928,-0.064308695,-0.28629664,0.32714057,0.70041716,0.37460822,0.30029503,0.66842884,0.63244015,0.62356746,0.47112685,0.8375129,0.48193988,0.5223195,0.33303115,0.4396716,798.60803,796.5934,769.19415,817.9487,625.34796,-0.525146484375,0.2197265625,0.81756591796875,1.36077880859375,-4.42626953125,0.829925537109375,1.0,1.0,1.0,1.0,1.0,100.0,event
12:24:09.983,0.42913726,0.5038449,0.56763154,0.5496582,0.31073928,-0.064308695,-0.28629664,0.32714057,0.70041716,0.37460822,0.30029503,0.66842884,0.63244015,0.62356746,0.47112685,0.8375129,0.48193988,0.5223195,0.33303115,0.4396716,802.6374,815.12823,770.0,813.5165,844.1392,-0.525146484375,0.2197265625,0.81756591796875,1.36077880859375,-4.42626953125,0.829925537109375,1.0,1.0,1.0,1.0,1.0,100.0,event
12:24:09.983,0.42913726,0.5038449,0.56763154,0.5496582,0.31073928,-0.064308695,-0.28629664,0.32714057,0.70041716,0.37460822,0.30029503,0.66842884,0.63244015,0.62356746,0.47112685,0.8375129,0.48193988,0.5223195,0.33303115,0.4396716,799.41394,784.10254,775.2381,819.5604,828.4249,-0.525146484375,0.2197265625,0.81756591796875,1.36077880859375,-4.42626953125,0.829925537109375,1.0,1.0,1.0,1.0,1.0,100.0,event
12:24:09.984,0.42913726,0.5038449,0.56763154,0.5496582,0.31073928,-0.064308695,-0.28629664,0.32714057,0.70041716,0.37460822,0.30029503,0.66842884,0.63244015,0.62356746,0.47112685,0.8375129,0.48193988,0.5223195,0.33303115,0.4396716,804.65204,818.3516,769.19415,805.8608,678.1319,-0.525146484375,0.2197265625,0.81756591796875,1.36077880859375,-4.42626953125,0.829925537109375,1.0,1.0,1.0,1.0,1.0,100.0,event
12:24:09.985,0.42913726,0.5038449,0.56763154,0.5496582,0.31073928,-0.064308695,-0.28629664,0.32714057,0.70041716,0.37460822,0.30029503,0.66842884,0.63244015,0.62356746,0.47112685,0.8375129,0.48193988,0.5223195,0.33303115,0.4396716,801.8315,791.3553,780.4762,807.47253,784.10254,-0.52984619140625,0.21728515625,0.8145751953125,3.162689208984375,-4.08233642578125,2.10845947265625,1.0,1.0,1.0,1.0,1.0,100.0,event
12:24:09.988,0.42913726,0.5038449,0.56763154,0.5496582,0.31073928,-0.064308695,-0.28629664,0.32714057,0.70041716,0.37460822,0.30029503,0.66842884,0.63244015,0.62356746,0.47112685,0.8375129,0.48193988,0.5223195,0.33303115,0.4396716,807.0696,790.54944,785.7143,810.293,851.79486,-0.52984619140625,0.21728515625,0.8145751953125,3.162689208984375,-4.08233642578125,2.10845947265625,1.0,1.0,1.0,1.0,1.0,100.0,event
12:24:09.989,0.42913726,0.5038449,0.56763154,0.5496582,0.31073928,-0.064308695,-0.28629664,0.32714057,0.70041716,0.37460822,0.30029503,0.66842884,0.63244015,0.62356746,0.47112685,0.8375129,0.48193988,0.5223195,0.33303115,0.4396716,803.44324,807.8755,775.64105,799.41394,739.7802,-0.52984619140625,0.21728515625,0.8145751953125,3.162689208984375,-4.08233642578125,2.10845947265625,1.0,1.0,1.0,1.0,1.0,100.0,event
12:24:09.990,0.42913726,0.5038449,0.56763154,0.5496582,0.31073928,-0.064308695,-0.28629664,0.32714057,0.70041716,0.37460822,0.30029503,0.66842884,0.63244015,0.62356746,0.47112685,0.8375129,0.48193988,0.5223195,0.33303115,0.4396716,796.99634,801.4286,768.3883,794.9817,698.2784,-0.52984619140625,0.21728515625,0.8145751953125,3.162689208984375,-4.08233642578125,2.10845947265625,1.0,1.0,1.0,1.0,1.0,100.0,event
12:24:09.991,0.42913726,0.5038449,0.56763154,0.5496582,0.31073928,-0.064308695,-0.28629664,0.32714057,0.70041716,0.37460822,0.30029503,0.66842884,0.63244015,0.62356746,0.47112685,0.8375129,0.48193988,0.5223195,0.33303115,0.4396716,791.75824,784.10254,770.80585,796.5934,769.59705,-0.52984619140625,0.21728515625,0.8145751953125,3.162689208984375,-4.08233642578125,2.10845947265625,1.0,1.0,1.0,1.0,1.0,100.0,event
12:24:09.991,0.42913726,0.5038449,0.56763154,0.5496582,0.31073928,-0.064308695,-0.28629664,0.32714057,0.70041716,0.37460822,0.30029503,0.66842884,0.63244015,0.62356746,0.47112685,0.8375129,0.48193988,0.5223195,0.33303115,0.4396716,798.60803,792.1612,772.01465,807.0696,882.4176,-0.52984619140625,0.21728515625,0.8145751953125,3.162689208984375,-4.08233642578125,2.10845947265625,1.0,1.0,1.0,1.0,1.0,100.0,event
12:24:09.992,0.42913726,0.5038449,0.56763154,0.5496582,0.31073928,-0.064308695,-0.28629664,0.32714057,0.70041716,0.37460822,0.30029503,0.66842884,0.63244015,0.62356746,0.47112685,0.8375129,0.48193988,0.5223195,0.33303115,0.4396716,797.8022,804.2491,774.83514,814.7253,872.74725,-0.52984619140625,0.21728515625,0.8145751953125,3.162689208984375,-4.08233642578125,2.10845947265625,1.0,1.0,1.0,1.0,1.0,100.0,event
12:24:09.993,0.42913726,0.5038449,0.56763154,0.5496582,0.31073928,-0.064308695,-0.28629664,0.32714057,0.70041716,0.37460822,0.30029503,0.66842884,0.63244015,0.62356746,0.47112685,0.8375129,0.48193988,0.5223195,0.33303115,0.4396716,805.05493,810.293,786.1172,819.15753,810.293,-0.52984619140625,0.21728515625,0.8145751953125,3.162689208984375,-4.08233642578125,2.10845947265625,1.0,1.0,1.0,1.0,1.0,100.0,event
12:24:09.994,0.42913726,0.5038449,0.56763154,0.5496582,0.31073928,-0.064308695,-0.28629664,0.32714057,0.70041716,0.37460822,0.30029503,0.66842884,0.63244015,0.62356746,0.47112685,0.8375129,0.48193988,0.5223195,0.33303115,0.4396716,807.8755,796.99634,763.1502,809.0842,857.8388,-0.52984619140625,0.21728515625,0.8145751953125,3.162689208984375,-4.08233642578125,2.10845947265625,1.0,1.0,1.0,1.0,1.0,100.0,event
12:24:09.994,0.42913726,0.5038449,0.56763154,0.5496582,0.31073928,-0.064308695,-0.28629664,0.32714057,0.70041716,0.37460822,0.30029503,0.66842884,0.63244015,0.62356746,0.47112685,0.8375129,0.48193988,0.5223195,0.33303115,0.4396716,809.0842,798.20514,749.85345,813.91943,883.6264,-0.52984619140625,0.21728515625,0.8145751953125,3.162689208984375,-4.08233642578125,2.10845947265625,1.0,1.0,1.0,1.0,1.0,100.0,event
12:24:09.995,0.42913726,0.5038449,0.56763154,0.5496582,0.31073928,-0.064308695,-0.28629664,0.32714057,0.70041716,0.37460822,0.30029503,0.66842884,0.63244015,0.62356746,0.47112685,0.8375129,0.48193988,0.5223195,0.33303115,0.4396716,812.71063,809.0842,782.0879,836.8865,777.25275,-0.52984619140625,0.21728515625,0.8145751953125,3.162689208984375,-4.08233642578125,2.10845947265625,1.0,1.0,1.0,1.0,1.0,100.0,event
12:24:09.996,0.42913726,0.5038449,0.56763154,0.5496582,0.31073928,-0.064308695,-0.28629664,0.32714057,0.70041716,0.37460822,0.30029503,0.66842884,0.63244015,0.62356746,0.47112685,0.8375129,0.48193988,0.5223195,0.33303115,0.4396716,816.7399,812.71063,791.3553,832.8571,736.1539,-0.52984619140625,0.21728515625,0.8145751953125,3.162689208984375,-4.08233642578125,2.10845947265625,1.0,1.0,1.0,1.0,1.0,100.0,event
12:24:10.020,0.42913726,0.5038449,0.56763154,0.5496582,0.31073928,-0.064308695,-0.28629664,0.32714057,0.70041716,0.37460822,0.30029503,0.66842884,0.63244015,0.62356746,0.47112685,0.8375129,0.48193988,0.5223195,0.33303115,0.4396716,815.9341,803.0403,790.9524,823.5897,824.7985,-0.52984619140625,0.21728515625,0.8145751953125,3.162689208984375,-4.08233642578125,2.10845947265625,1.0,1.0,1.0,1.0,1.0,100.0,event
12:24:10.022,0.42913726,0.5038449,0.56763154,0.5496582,0.31073928,-0.064308695,-0.28629664,0.32714057,0.70041716,0.37460822,0.30029503,0.66842884,0.63244015,0.62356746,0.47112685,0.8375129,0.48193988,0.5223195,0.33303115,0.4396716,811.0989,815.5311,784.10254,817.5458,892.8938,-0.52984619140625,0.21728515625,0.8145751953125,3.162689208984375,-4.08233642578125,2.10845947265625,1.0,1.0,1.0,1.0,1.0,100.0,event
12:24:10.023,0.42913726,0.5038449,0.56763154,0.5496582,0.31073928,-0.064308695,-0.28629664,0.32714057,0.70041716,0.37460822,0.30029503,0.66842884,0.63244015,0.62356746,0.47112685,0.8375129,0.48193988,0.5223195,0.33303115,0.4396716,814.7253,815.9341,778.86444,816.337,812.71063,-0.52984619140625,0.21728515625,0.8145751953125,3.162689208984375,-4.08233642578125,2.10845947265625,1.0,1.0,1.0,1.0,1.0,100.0,event
12:24:10.024,0.42913726,0.5038449,0.56763154,0.5496582,0.31073928,-0.064308695,-0.28629664,0.32714057,0.70041716,0.37460822,0.30029503,0.66842884,0.63244015,0.62356746,0.47112685,0.8375129,0.48193988,0.5223195,0.33303115,0.4396716,829.6337,798.20514,777.6557,817.1429,771.6117,-0.52984619140625,0.21728515625,0.8145751953125,3.162689208984375,-4.08233642578125,2.10845947265625,1.0,1.0,1.0,1.0,1.0,100.0,event
12:24:10.025,0.48241547,0.38230053,0.5312432,0.6156947,0.35519654,-0.15529287,-0.2910113,0.34939468,0.68284565,0.36807495,0.30919266,0.66842884,0.6341093,0.59939647,0.4785752,0.8430696,0.48429608,0.49590048,0.35925597,0.46133757,806.26373,806.6667,763.95605,819.9634,926.7399,-0.52984619140625,0.21728515625,0.8145751953125,3.162689208984375,-4.08233642578125,2.10845947265625,1.0,1.0,1.0,1.0,1.0,100.0,event
12:24:10.025,0.42913726,0.5038449,0.56763154,0.5496582,0.31073928,-0.064308695,-0.28629664,0.32714057,0.70041716,0.37460822,0.30029503,0.66842884,0.63244015,0.62356746,0.47112685,0.8375129,0.48193988,0.5223195,0.33303115,0.4396716,829.6337,795.78754,766.3736,819.15753,816.337,-0.52984619140625,0.21728515625,0.8145751953125,3.162689208984375,-4.08233642578125,2.10845947265625,1.0,1.0,1.0,1.0,1.0,100.0,event
12:24:10.030,0.48241547,0.38230053,0.5312432,0.6156947,0.35519654,-0.15529287,-0.2910113,0.34939468,0.68284565,0.36807495,0.30919266,0.66842884,0.6341093,0.59939647,0.4785752,0.8430696,0.48429608,0.49590048,0.35925597,0.46133757,801.02563,815.9341,776.04395,808.2784,905.38464,-0.52984619140625,0.21728515625,0.8145751953125,3.162689208984375,-4.08233642578125,2.10845947265625,1.0,1.0,1.0,1.0,1.0,100.0,event
12:24:10.031,0.48241547,0.38230053,0.5312432,0.6156947,0.35519654,-0.15529287,-0.2910113,0.34939468,0.68284565,0.36807495,0.30919266,0.66842884,0.6341093,0.59939647,0.4785752,0.8430696,0.48429608,0.49590048,0.35925597,0.46133757,802.6374,810.696,784.10254,806.26373,756.30035,-0.52984619140625,0.21728515625,0.8145751953125,3.162689208984375,-4.08233642578125,2.10845947265625,1.0,1.0,1.0,1.0,1.0,100.0,event
12:24:10.032,0.48241547,0.38230053,0.5312432,0.6156947,0.35519654,-0.15529287,-0.2910113,0.34939468,0.68284565,0.36807495,0.30919266,0.66842884,0.6341093,0.59939647,0.4785752,0.8430696,0.48429608,0.49590048,0.35925597,0.46133757,799.81683,796.5934,785.31134,817.5458,882.8205,-0.52984619140625,0.21728515625,0.8145751953125,3.162689208984375,-4.08233642578125,2.10845947265625,1.0,1.0,1.0,1.0,1.0,100.0,event
12:24:10.032,0.48241547,0.38230053,0.5312432,0.6156947,0.35519654,-0.15529287,-0.2910113,0.34939468,0.68284565,0.36807495,0.30919266,0.66842884,0.6341093,0.59939647,0.4785752,0.8430696,0.48429608,0.49590048,0.35925597,0.46133757,809.4872,808.2784,789.7436,812.3077,900.14655,-0.52984619140625,0.21728515625,0.8145751953125,3.162689208984375,-4.08233642578125,2.10845947265625,1.0,1.0,1.0,1.0,1.0,100.0,event
12:24:10.033,0.48241547,0.38230053,0.5312432,0.6156947,0.35519654,-0.15529287,-0.2910113,0.34939468,0.68284565,0.36807495,0.30919266,0.66842884,0.6341093,0.59939647,0.4785752,0.8430696,0.48429608,0.49590048,0.35925597,0.46133757,818.3516,796.1905,781.685,808.2784,649.92676,-0.52984619140625,0.21728515625,0.8145751953125,3.162689208984375,-4.08233642578125,2.10845947265625,1.0,1.0,1.0,1.0,1.0,100.0,event
12:24:10.034,0.48241547,0.38230053,0.5312432,0.6156947,0.35519654,-0.15529287,-0.2910113,0.34939468,0.68284565,0.36807495,0.30919266,0.66842884,0.6341093,0.59939647,0.4785752,0.8430696,0.48429608,0.49590048,0.35925597,0.46133757,821.1722,782.0879,775.2381,817.9487,662.8205,-0.52984619140625,0.21728515625,0.8145751953125,3.162689208984375,-4.08233642578125,2.10845947265625,1.0,1.0,1.0,1.0,1.0,100.0,event
12:24:10.087,0.48241547,0.38230053,0.5312432,0.6156947,0.35519654,-0.15529287,-0.2910113,0.34939468,0.68284565,0.36807495,0.30919266,0.66842884,0.6341093,0.59939647,0.4785752,0.8430696,0.48429608,0.49590048,0.35925597,0.46133757,809.4872,798.60803,777.6557,819.9634,759.12085,-0.5223388671875,0.21844482421875,0.81732177734375,2.220611572265625,-0.814971923828125,1.8841552734375,1.0,1.0,1.0,1.0,1.0,100.0,event
12:24:10.088,0.48241547,0.38230053,0.5312432,0.6156947,0.35519654,-0.15529287,-0.2910113,0.34939468,0.68284565,0.36807495,0.30919266,0.66842884,0.6341093,0.59939647,0.4785752,0.8430696,0.48429608,0.49590048,0.35925597,0.46133757,800.2198,803.8461,777.25275,803.8461,740.58606,-0.5223388671875,0.21844482421875,0.81732177734375,2.220611572265625,-0.814971923828125,1.8841552734375,1.0,1.0,1.0,1.0,1.0,100.0,event
12:24:10.089,0.48241547,0.38230053,0.5312432,0.6156947,0.35519654,-0.15529287,-0.2910113,0.34939468,0.68284565,0.36807495,0.30919266,0.66842884,0.6341093,0.59939647,0.4785752,0.8430696,0.48429608,0.49590048,0.35925597,0.46133757,795.38464,798.60803,782.49084,807.8755,759.5238,-0.5223388671875,0.21844482421875,0.81732177734375,2.220611572265625,-0.814971923828125,1.8841552734375,1.0,1.0,1.0,1.0,1.0,100.0,event
12:24:10.089,0.48241547,0.38230053,0.5312432,0.6156947,0.35519654,-0.15529287,-0.2910113,0.34939468,0.68284565,0.36807495,0.30919266,0.66842884,0.6341093,0.59939647,0.4785752,0.8430696,0.48429608,0.49590048,0.35925597,0.46133757,794.17584,803.0403,776.8498,795.38464,684.17584,-0.5223388671875,0.21844482421875,0.81732177734375,2.220611572265625,-0.814971923828125,1.8841552734375,1.0,1.0,1.0,1.0,1.0,100.0,event
12:24:10.090,0.48241547,0.38230053,0.5312432,0.6156947,0.35519654,-0.15529287,-0.2910113,0.34939468,0.68284565,0.36807495,0.30919266,0.66842884,0.6341093,0.59939647,0.4785752,0.8430696,0.48429608,0.49590048,0.35925597,0.46133757,812.3077,800.6227,787.326,806.26373,840.10986,-0.5223388671875,0.21844482421875,0.81732177734375,2.220611572265625,-0.814971923828125,1.8841552734375,1.0,1.0,1.0,1.0,1.0,100.0,event
12:24:10.090,0.48241547,0.38230053,0.5312432,0.6156947,0.35519654,-0.15529287,-0.2910113,0.34939468,0.68284565,0.36807495,0.30919266,0.66842884,0.6341093,0.59939647,0.4785752,0.8430696,0.48429608,0.49590048,0.35925597,0.46133757,806.6667,796.1905,781.685,801.8315,838.9011,-0.5223388671875,0.21844482421875,0.81732177734375,2.220611572265625,-0.814971923828125,1.8841552734375,1.0,1.0,1.0,1.0,1.0,100.0,event
12:24:10.091,0.48241547,0.38230053,0.5312432,0.6156947,0.35519654,-0.15529287,-0.2910113,0.34939468,0.68284565,0.36807495,0.30919266,0.66842884,0.6341093,0.59939647,0.4785752,0.8430696,0.48429608,0.49590048,0.35925597,0.46133757,794.17584,792.5641,782.8938,810.696,847.3626,-0.5223388671875,0.21844482421875,0.81732177734375,2.220611572265625,-0.814971923828125,1.8841552734375,1.0,1.0,1.0,1.0,1.0,100.0,event
12:24:10.092,0.48241547,0.38230053,0.5312432,0.6156947,0.35519654,-0.15529287,-0.2910113,0.34939468,0.68284565,0.36807495,0.30919266,0.66842884,0.6341093,0.59939647,0.4785752,0.8430696,0.48429608,0.49590048,0.35925597,0.46133757,806.6667,784.10254,786.1172,811.50183,938.8278,-0.5223388671875,0.21844482421875,0.81732177734375,2.220611572265625,-0.814971923828125,1.8841552734375,1.0,1.0,1.0,1.0,1.0,100.0,event
12:24:10.092,0.48241547,0.38230053,0.5312432,0.6156947,0.35519654,-0.15529287,-0.2910113,0.34939468,0.68284565,0.36807495,0.30919266,0.66842884,0.6341093,0.59939647,0.4785752,0.8430696,0.48429608,0.49590048,0.35925597,0.46133757,794.17584,774.83514,778.46155,811.50183,1074.2124,-0.5223388671875,0.21844482421875,0.81732177734375,2.220611572265625,-0.814971923828125,1.8841552734375,1.0,1.0,1.0,1.0,1.0,100.0,event
12:24:10.093,0.48241547,0.38230053,0.5312432,0.6156947,0.35519654,-0.15529287,-0.2910113,0.34939468,0.68284565,0.36807495,0.30919266,0.66842884,0.6341093,0.59939647,0.4785752,0.8430696,0.48429608,0.49590048,0.35925597,0.46133757,792.1612,808.2784,778.0586,796.5934,932.7839,-0.5223388671875,0.21844482421875,0.81732177734375,2.220611572265625,-0.814971923828125,1.8841552734375,1.0,1.0,1.0,1.0,1.0,100.0,event
12:24:10.093,0.48241547,0.38230053,0.5312432,0.6156947,0.35519654,-0.15529287,-0.2910113,0.34939468,0.68284565,0.36807495,0.30919266,0.66842884,0.6341093,0.59939647,0.4785752,0.8430696,0.48429608,0.49590048,0.35925597,0.46133757,815.5311,804.65204,778.46155,794.9817,722.4542,-0.5223388671875,0.21844482421875,0.81732177734375,2.220611572265625,-0.814971923828125,1.8841552734375,1.0,1.0,1.0,1.0,1.0,100.0,event
12:24:10.094,0.48241547,0.38230053,0.5312432,0.6156947,0.35519654,-0.15529287,-0.2910113,0.34939468,0.68284565,0.36807495,0.30919266,0.66842884,0.6341093,0.59939647,0.4785752,0.8430696,0.48429608,0.49590048,0.35925597,0.46133757,812.3077,788.5348,777.25275,807.0696,755.4945,-0.5223388671875,0.21844482421875,0.81732177734375,2.220611572265625,-0.814971923828125,1.8841552734375,1.0,1.0,1.0,1.0,1.0,100.0,event
12:24:10.118,0.48241547,0.38230053,0.5312432,0.6156947,0.35519654,-0.15529287,-0.2910113,0.34939468,0.68284565,0.36807495,0.30919266,0.66842884,0.6341093,0.59939647,0.4785752,0.8430696,0.48429608,0.49590048,0.35925597,0.46133757,808.68134,800.6227,786.1172,812.3077,755.89746,-0.53692626953125,0.218994140625,0.81915283203125,1.816864013671875,-1.45050048828125,0.605621337890625,1.0,1.0,1.0,1.0,1.0,100.0,event
12:24:10.119,0.48241547,0.38230053,0.5312432,0.6156947,0.35519654,-0.15529287,-0.2910113,0.34939468,0.68284565,0.36807495,0.30919266,0.66842884,0.6341093,0.59939647,0.4785752,0.8430696,0.48429608,0.49590048,0.35925597,0.46133757,797.8022,792.1612,788.93774,801.4286,602.7839,-0.53692626953125,0.218994140625,0.81915283203125,1.816864013671875,-1.45050048828125,0.605621337890625,1.0,1.0,1.0,1.0,1.0,100.0,event
12:24:10.120,0.48241547,0.38230053,0.5312432,0.6156947,0.35519654,-0.15529287,-0.2910113,0.34939468,0.68284565,0.36807495,0.30919266,0.66842884,0.6341093,0.59939647,0.4785752,0.8430696,0.48429608,0.49590048,0.35925597,0.46133757,778.86444,781.685,787.72894,790.54944,585.05493,-0.53692626953125,0.218994140625,0.81915283203125,1.816864013671875,-1.45050048828125,0.605621337890625,1.0,1.0,1.0,1.0,1.0,100.0,event
12:24:10.120,0.48241547,0.38230053,0.5312432,0.6156947,0.35519654,-0.15529287,-0.2910113,0.34939468,0.68284565,0.36807495,0.30919266,0.66842884,0.6341093,0.59939647,0.4785752,0.8430696,0.48429608,0.49590048,0.35925597,0.46133757,788.1319,783.69965,775.64105,796.99634,740.58606,-0.53692626953125,0.218994140625,0.81915283203125,1.816864013671875,-1.45050048828125,0.605621337890625,1.0,1.0,1.0,1.0,1.0,100.0,event
12:24:10.121,0.48241547,0.38230053,0.5312432,0.6156947,0.35519654,-0.15529287,-0.2910113,0.34939468,0.68284565,0.36807495,0.30919266,0.66842884,0.6341093,0.59939647,0.4785752,0.8430696,0.48429608,0.49590048,0.35925597,0.46133757,808.68134,790.54944,777.25275,807.8755,745.42126,-0.53692626953125,0.218994140625,0.81915283203125,1.816864013671875,-1.45050048828125,0.605621337890625,1.0,1.0,1.0,1.0,1.0,100.0,event
12:24:10.121,0.48241547,0.38230053,0.5312432,0.6156947,0.35519654,-0.15529287,-0.2910113,0.34939468,0.68284565,0.36807495,0.30919266,0.66842884,0.6341093,0.59939647,0.4785752,0.8430696,0.48429608,0.49590048,0.35925597,0.46133757,800.6227,792.96704,791.3553,803.8461,760.32965,-0.53692626953125,0.218994140625,0.81915283203125,1.816864013671875,-1.45050048828125,0.605621337890625,1.0,1.0,1.0,1.0,1.0,100.0,event
12:24:10.122,0.48241547,0.38230053,0.5312432,0.6156947,0.35519654,-0.15529287,-0.2910113,0.34939468,0.68284565,0.36807495,0.30919266,0.66842884,0.6341093,0.59939647,0.4785752,0.8430696,0.48429608,0.49590048,0.35925597,0.46133757,790.54944,789.7436,791.75824,803.8461,834.0659,-0.53692626953125,0.218994140625,0.81915283203125,1.816864013671875,-1.45050048828125,0.605621337890625,1.0,1.0,1.0,1.0,1.0,100.0,event
12:24:10.123,0.5073552,0.3048423,0.5087145,0.6701502,0.3850463,-0.16551799,-0.28477836,0.38741612,0.67917854,0.3572158,0.31080535,0.66842884,0.6322922,0.59403586,0.47053772,0.8494653,0.49069056,0.47008073,0.40071863,0.48474896,799.011,784.10254,780.4762,813.1135,896.1172,-0.53692626953125,0.218994140625,0.81915283203125,1.816864013671875,-1.45050048828125,0.605621337890625,1.0,1.0,1.0,1.0,1.0,100.0,event
12:24:10.127,0.5073552,0.3048423,0.5087145,0.6701502,0.3850463,-0.16551799,-0.28477836,0.38741612,0.67917854,0.3572158,0.31080535,0.66842884,0.6322922,0.59403586,0.47053772,0.8494653,0.49069056,0.47008073,0.40071863,0.48474896,793.7729,782.0879,777.25275,806.26373,735.34796,-0.53692626953125,0.218994140625,0.81915283203125,1.816864013671875,-1.45050048828125,0.605621337890625,1.0,1.0,1.0,1.0,1.0,100.0,event
12:24:10.128,0.5073552,0.3048423,0.5087145,0.6701502,0.3850463,-0.16551799,-0.28477836,0.38741612,0.67917854,0.3572158,0.31080535,0.66842884,0.6322922,0.59403586,0.47053772,0.8494653,0.49069056,0.47008073,0.40071863,0.48474896,797.3993,815.12823,781.28204,794.17584,775.64105,-0.53692626953125,0.218994140625,0.81915283203125,1.816864013671875,-1.45050048828125,0.605621337890625,1.0,1.0,1.0,1.0,1.0,100.0,event
12:24:10.128,0.5073552,0.3048423,0.5087145,0.6701502,0.3850463,-0.16551799,-0.28477836,0.38741612,0.67917854,0.3572158,0.31080535,0.66842884,0.6322922,0.59403586,0.47053772,0.8494653,0.49069056,0.47008073,0.40071863,0.48474896,792.5641,792.5641,787.326,807.47253,716.0073,-0.53692626953125,0.218994140625,0.81915283203125,1.816864013671875,-1.45050048828125,0.605621337890625,1.0,1.0,1.0,1.0,1.0,100.0,event
12:24:10.129,0.5073552,0.3048423,0.5087145,0.6701502,0.3850463,-0.16551799,-0.28477836,0.38741612,0.67917854,0.3572158,0.31080535,0.66842884,0.6322922,0.59403586,0.47053772,0.8494653,0.49069056,0.47008073,0.40071863,0.48474896,780.07324,786.1172,776.04395,786.52014,944.4689,-0.53692626953125,0.218994140625,0.81915283203125,1.816864013671875,-1.45050048828125,0.605621337890625,1.0,1.0,1.0,1.0,1.0,100.0,event
12:24:10.155,0.5073552,0.3048423,0.5087145,0.6701502,0.3850463,-0.16551799,-0.28477836,0.38741612,0.67917854,0.3572158,0.31080535,0.66842884,0.6322922,0.59403586,0.47053772,0.8494653,0.49069056,0.47008073,0.40071863,0.48474896,782.8938,786.9231,774.43225,800.6227,1116.5201,-0.5330810546875,0.211669921875,0.8057861328125,1.375732421875,-4.508514404296875,-0.740203857421875,1.0,1.0,1.0,1.0,1.0,100.0,event
12:24:10.155,0.5073552,0.3048423,0.5087145,0.6701502,0.3850463,-0.16551799,-0.28477836,0.38741612,0.67917854,0.3572158,0.31080535,0.66842884,0.6322922,0.59403586,0.47053772,0.8494653,0.49069056,0.47008073,0.40071863,0.48474896,790.54944,802.6374,780.87915,819.5604,832.0513,-0.5330810546875,0.211669921875,0.8057861328125,1.375732421875,-4.508514404296875,-0.740203857421875,1.0,1.0,1.0,1.0,1.0,100.0,event
12:24:10.156,0.5073552,0.3048423,0.5087145,0.6701502,0.3850463,-0.16551799,-0.28477836,0.38741612,0.67917854,0.3572158,0.31080535,0.66842884,0.6322922,0.59403586,0.47053772,0.8494653,0.49069056,0.47008073,0.40071863,0.48474896,788.1319,801.02563,795.78754,823.1868,703.1135,-0.5330810546875,0.211669921875,0.8057861328125,1.375732421875,-4.508514404296875,-0.740203857421875,1.0,1.0,1.0,1.0,1.0,100.0,event
12:24:10.157,0.5073552,0.3048423,0.5087145,0.6701502,0.3850463,-0.16551799,-0.28477836,0.38741612,0.67917854,0.3572158,0.31080535,0.66842884,0.6322922,0.59403586,0.47053772,0.8494653,0.49069056,0.47008073,0.40071863,0.48474896,801.4286,819.15753,794.17584,821.5751,731.31866,-0.5330810546875,0.211669921875,0.8057861328125,1.375732421875,-4.508514404296875,-0.740203857421875,1.0,1.0,1.0,1.0,1.0,100.0,event
12:24:10.157,0.5073552,0.3048423,0.5087145,0.6701502,0.3850463,-0.16551799,-0.28477836,0.38741612,0.67917854,0.3572158,0.31080535,0.66842884,0.6322922,0.59403586,0.47053772,0.8494653,0.49069056,0.47008073,0.40071863,0.48474896,789.7436,803.0403,773.6264,803.0403,707.1429,-0.5330810546875,0.211669921875,0.8057861328125,1.375732421875,-4.508514404296875,-0.740203857421875,1.0,1.0,1.0,1.0,1.0,100.0,event
12:24:10.158,0.5073552,0.3048423,0.5087145,0.6701502,0.3850463,-0.16551799,-0.28477836,0.38741612,0.67917854,0.3572158,0.31080535,0.66842884,0.6322922,0.59403586,0.47053772,0.8494653,0.49069056,0.47008073,0.40071863,0.48474896,787.72894,788.1319,774.83514,794.17584,763.95605,-0.5330810546875,0.211669921875,0.8057861328125,1.375732421875,-4.508514404296875,-0.740203857421875,1.0,1.0,1.0,1.0,1.0,100.0,event
12:24:10.158,0.5073552,0.3048423,0.5087145,0.6701502,0.3850463,-0.16551799,-0.28477836,0.38741612,0.67917854,0.3572158,0.31080535,0.66842884,0.6322922,0.59403586,0.47053772,0.8494653,0.49069056,0.47008073,0.40071863,0.48474896,788.5348,782.0879,776.4469,799.81683,881.2088,-0.5330810546875,0.211669921875,0.8057861328125,1.375732421875,-4.508514404296875,-0.740203857421875,1.0,1.0,1.0,1.0,1.0,100.0,event
12:24:10.159,0.5073552,0.3048423,0.5087145,0.6701502,0.3850463,-0.16551799,-0.28477836,0.38741612,0.67917854,0.3572158,0.31080535,0.66842884,0.6322922,0.59403586,0.47053772,0.8494653,0.49069056,0.47008073,0.40071863,0.48474896,786.9231,795.78754,781.685,803.8461,926.337,-0.5330810546875,0.211669921875,0.8057861328125,1.375732421875,-4.508514404296875,-0.740203857421875,1.0,1.0,1.0,1.0,1.0,100.0,event
12:24:10.159,0.5073552,0.3048423,0.5087145,0.6701502,0.3850463,-0.16551799,-0.28477836,0.38741612,0.67917854,0.3572158,0.31080535,0.66842884,0.6322922,0.59403586,0.47053772,0.8494653,0.49069056,0.47008073,0.40071863,0.48474896,780.07324,773.22345,770.40295,796.99634,1067.7656,-0.5330810546875,0.211669921875,0.8057861328125,1.375732421875,-4.508514404296875,-0.740203857421875,1.0,1.0,1.0,1.0,1.0,100.0,event
12:24:10.160,0.5073552,0.3048423,0.5087145,0.6701502,0.3850463,-0.16551799,-0.28477836,0.38741612,0.67917854,0.3572158,0.31080535,0.66842884,0.6322922,0.59403586,0.47053772,0.8494653,0.49069056,0.47008073,0.40071863,0.48474896,795.38464,801.8315,792.1612,809.89014,735.7509,-0.5330810546875,0.211669921875,0.8057861328125,1.375732421875,-4.508514404296875,-0.740203857421875,1.0,1.0,1.0,1.0,1.0,100.0,event
12:24:10.160,0.5073552,0.3048423,0.5087145,0.6701502,0.3850463,-0.16551799,-0.28477836,0.38741612,0.67917854,0.3572158,0.31080535,0.66842884,0.6322922,0.59403586,0.47053772,0.8494653,0.49069056,0.47008073,0.40071863,0.48474896,782.0879,799.81683,793.7729,798.60803,726.8865,-0.5330810546875,0.211669921875,0.8057861328125,1.375732421875,-4.508514404296875,-0.740203857421875,1.0,1.0,1.0,1.0,1.0,100.0,event
12:24:10.161,0.5073552,0.3048423,0.5087145,0.6701502,0.3850463,-0.16551799,-0.28477836,0.38741612,0.67917854,0.3572158,0.31080535,0.66842884,0.6322922,0.59403586,0.47053772,0.8494653,0.49069056,0.47008073,0.40071863,0.48474896,769.59705,815.9341,775.64105,790.9524,724.87177,-0.5330810546875,0.211669921875,0.8057861328125,1.375732421875,-4.508514404296875,-0.740203857421875,1.0,1.0,1.0,1.0,1.0,100.0,event
12:24:10.213,0.5073552,0.3048423,0.5087145,0.6701502,0.3850463,-0.16551799,-0.28477836,0.38741612,0.67917854,0.3572158,0.31080535,0.66842884,0.6322922,0.59403586,0.47053772,0.8494653,0.49069056,0.47008073,0.40071863,0.48474896,786.1172,809.89014,781.685,800.6227,764.35895,-0.5255126953125,0.20562744140625,0.80938720703125,0.485992431640625,-3.51409912109375,0.11962890625,1.0,1.0,1.0,1.0,1.0,100.0,event
12:24:10.214,0.5073552,0.3048423,0.5087145,0.6701502,0.3850463,-0.16551799,-0.28477836,0.38741612,0.67917854,0.3572158,0.31080535,0.66842884,0.6322922,0.59403586,0.47053772,0.8494653,0.49069056,0.47008073,0.40071863,0.48474896,788.5348,809.0842,787.72894,802.6374,713.9927,-0.5255126953125,0.20562744140625,0.80938720703125,0.485992431640625,-3.51409912109375,0.11962890625,1.0,1.0,1.0,1.0,1.0,100.0,event
12:24:10.215,0.5073552,0.3048423,0.5087145,0.6701502,0.3850463,-0.16551799,-0.28477836,0.38741612,0.67917854,0.3572158,0.31080535,0.66842884,0.6322922,0.59403586,0.47053772,0.8494653,0.49069056,0.47008073,0.40071863,0.48474896,781.28204,799.81683,772.4176,807.8755,759.92676,-0.5255126953125,0.20562744140625,0.80938720703125,0.485992431640625,-3.51409912109375,0.11962890625,1.0,1.0,1.0,1.0,1.0,100.0,event
12:24:10.215,0.5073552,0.3048423,0.5087145,0.6701502,0.3850463,-0.16551799,-0.28477836,0.38741612,0.67917854,0.3572158,0.31080535,0.66842884,0.6322922,0.59403586,0.47053772,0.8494653,0.49069056,0.47008073,0.40071863,0.48474896,791.75824,799.41394,776.04395,800.2198,804.2491,-0.5255126953125,0.20562744140625,0.80938720703125,0.485992431640625,-3.51409912109375,0.11962890625,1.0,1.0,1.0,1.0,1.0,100.0,event
12:24:10.216,0.5073552,0.3048423,0.5087145,0.6701502,0.3850463,-0.16551799,-0.28477836,0.38741612,0.67917854,0.3572158,0.31080535,0.66842884,0.6322922,0.59403586,0.47053772,0.8494653,0.49069056,0.47008073,0.40071863,0.48474896,774.0293,773.22345,785.31134,803.8461,1046.0073,-0.5255126953125,0.20562744140625,0.80938720703125,0.485992431640625,-3.51409912109375,0.11962890625,1.0,1.0,1.0,1.0,1.0,100.0,event
12:24:10.216,0.5073552,0.3048423,0.5087145,0.6701502,0.3850463,-0.16551799,-0.28477836,0.38741612,0.67917854,0.3572158,0.31080535,0.66842884,0.6322922,0.59403586,0.47053772,0.8494653,0.49069056,0.47008073,0.40071863,0.48474896,789.34064,798.60803,792.96704,787.72894,822.381,-0.5255126953125,0.20562744140625,0.80938720703125,0.485992431640625,-3.51409912109375,0.11962890625,1.0,1.0,1.0,1.0,1.0,100.0,event
12:24:10.216,0.5073552,0.3048423,0.5087145,0.6701502,0.3850463,-0.16551799,-0.28477836,0.38741612,0.67917854,0.3572158,0.31080535,0.66842884,0.6322922,0.59403586,0.47053772,0.8494653,0.49069056,0.47008073,0.40071863,0.48474896,800.2198,810.696,796.1905,783.69965,697.47253,-0.5255126953125,0.20562744140625,0.80938720703125,0.485992431640625,-3.51409912109375,0.11962890625,1.0,1.0,1.0,1.0,1.0,100.0,event
12:24:10.217,0.5073552,0.3048423,0.5087145,0.6701502,0.3850463,-0.16551799,-0.28477836,0.38741612,0.67917854,0.3572158,0.31080535,0.66842884,0.6322922,0.59403586,0.47053772,0.8494653,0.49069056,0.47008073,0.40071863,0.48474896,774.83514,794.57874,778.46155,817.9487,990.80585,-0.5255126953125,0.20562744140625,0.80938720703125,0.485992431640625,-3.51409912109375,0.11962890625,1.0,1.0,1.0,1.0,1.0,100.0,event
12:24:10.217,0.5073552,0.3048423,0.5087145,0.6701502,0.3850463,-0.16551799,-0.28477836,0.38741612,0.67917854,0.3572158,0.31080535,0.66842884,0.6322922,0.59403586,0.47053772,0.8494653,0.49069056,0.47008073,0.40071863,0.48474896,786.1172,812.3077,773.6264,805.4579,700.696,-0.5255126953125,0.20562744140625,0.80938720703125,0.485992431640625,-3.51409912109375,0.11962890625,1.0,1.0,1.0,1.0,1.0,100.0,event
12:24:10.218,0.5357461,0.24993774,0.49928588,0.7168249,0.3941501,-0.086874045,-0.26773816,0.42317626,0.67917854,0.35351148,0.30974796,0.66842884,0.6347488,0.6069939,0.47008878,0.8573147,0.4939869,0.44169727,0.43441582,0.5033815,783.69965,794.9817,779.67035,790.9524,690.6227,-0.5255126953125,0.20562744140625,0.80938720703125,0.485992431640625,-3.51409912109375,0.11962890625,1.0,1.0,1.0,1.0,1.0,100.0,event
12:24:10.221,0.5357461,0.24993774,0.49928588,0.7168249,0.3941501,-0.086874045,-0.26773816,0.42317626,0.67917854,0.35351148,0.30974796,0.66842884,0.6347488,0.6069939,0.47008878,0.8573147,0.4939869,0.44169727,0.43441582,0.5033815,779.67035,794.57874,781.28204,796.5934,777.6557,-0.5255126953125,0.20562744140625,0.80938720703125,0.485992431640625,-3.51409912109375,0.11962890625,1.0,1.0,1.0,1.0,1.0,100.0,event
12:24:10.221,0.5357461,0.24993774,0.49928588,0.7168249,0.3941501,-0.086874045,-0.26773816,0.42317626,0.67917854,0.35351148,0.30974796,0.66842884,0.6347488,0.6069939,0.47008878,0.8573147,0.4939869,0.44169727,0.43441582,0.5033815,788.1319,785.31134,779.2674,803.44324,702.3077,-0.5255126953125,0.20562744140625,0.80938720703125,0.485992431640625,-3.51409912109375,0.11962890625,1.0,1.0,1.0,1.0,1.0,100.0,event
12:24:10.283,0.5357461,0.24993774,0.49928588,0.7168249,0.3941501,-0.086874045,-0.26773816,0.42317626,0.67917854,0.35351148,0.30974796,0.66842884,0.6347488,0.6069939,0.47008878,0.8573147,0.4939869,0.44169727,0.43441582,0.5033815,801.4286,781.28204,784.5055,807.8755,658.7912,-0.5255126953125,0.20562744140625,0.80938720703125,0.485992431640625,-3.51409912109375,0.11962890625,1.0,1.0,1.0,1.0,1.0,100.0,event
12:24:10.284,0.5357461,0.24993774,0.49928588,0.7168249,0.3941501,-0.086874045,-0.26773816,0.42317626,0.67917854,0.35351148,0.30974796,0.66842884,0.6347488,0.6069939,0.47008878,0.8573147,0.4939869,0.44169727,0.43441582,0.5033815,792.1612,790.9524,779.2674,807.47253,778.0586,-0.5255126953125,0.20562744140625,0.80938720703125,0.485992431640625,-3.51409912109375,0.11962890625,1.0,1.0,1.0,1.0,1.0,100.0,event
12:24:10.285,0.5357461,0.24993774,0.49928588,0.7168249,0.3941501,-0.086874045,-0.26773816,0.42317626,0.67917854,0.35351148,0.30974796,0.66842884,0.6347488,0.6069939,0.47008878,0.8573147,0.4939869,0.44169727,0.43441582,0.5033815,768.3883,800.2198,769.59705,809.4872,829.6337,-0.5255126953125,0.20562744140625,0.80938720703125,0.485992431640625,-3.51409912109375,0.11962890625,1.0,1.0,1.0,1.0,1.0,100.0,event
12:24:10.286,0.5357461,0.24993774,0.49928588,0.7168249,0.3941501,-0.086874045,-0.26773816,0.42317626,0.67917854,0.35351148,0.30974796,0.66842884,0.6347488,0.6069939,0.47008878,0.8573147,0.4939869,0.44169727,0.43441582,0.5033815,783.2967,809.89014,778.86444,813.1135,819.5604,-0.5255126953125,0.20562744140625,0.80938720703125,0.485992431640625,-3.51409912109375,0.11962890625,1.0,1.0,1.0,1.0,1.0,100.0,event
12:24:10.286,0.5357461,0.24993774,0.49928588,0.7168249,0.3941501,-0.086874045,-0.26773816,0.42317626,0.67917854,0.35351148,0.30974796,0.66842884,0.6347488,0.6069939,0.47008878,0.8573147,0.4939869,0.44169727,0.43441582,0.5033815,771.6117,812.3077,776.8498,809.89014,810.293,-0.5255126953125,0.20562744140625,0.80938720703125,0.485992431640625,-3.51409912109375,0.11962890625,1.0,1.0,1.0,1.0,1.0,100.0,event
12:24:10.287,0.5357461,0.24993774,0.49928588,0.7168249,0.3941501,-0.086874045,-0.26773816,0.42317626,0.67917854,0.35351148,0.30974796,0.66842884,0.6347488,0.6069939,0.47008878,0.8573147,0.4939869,0.44169727,0.43441582,0.5033815,788.5348,794.17584,783.2967,828.8278,846.9597,-0.5255126953125,0.20562744140625,0.80938720703125,0.485992431640625,-3.51409912109375,0.11962890625,1.0,1.0,1.0,1.0,1.0,100.0,event
12:24:10.288,0.5357461,0.24993774,0.49928588,0.7168249,0.3941501,-0.086874045,-0.26773816,0.42317626,0.67917854,0.35351148,0.30974796,0.66842884,0.6347488,0.6069939,0.47008878,0.8573147,0.4939869,0.44169727,0.43441582,0.5033815,795.78754,781.28204,780.4762,818.7546,1126.1904,-0.5255126953125,0.20562744140625,0.80938720703125,0.485992431640625,-3.51409912109375,0.11962890625,1.0,1.0,1.0,1.0,1.0,100.0,event
12:24:10.288,0.5357461,0.24993774,0.49928588,0.7168249,0.3941501,-0.086874045,-0.26773816,0.42317626,0.67917854,0.35351148,0.30974796,0.66842884,0.6347488,0.6069939,0.47008878,0.8573147,0.4939869,0.44169727,0.43441582,0.5033815,796.99634,804.65204,755.4945,801.4286,1060.9158,-0.5255126953125,0.20562744140625,0.80938720703125,0.485992431640625,-3.51409912109375,0.11962890625,1.0,1.0,1.0,1.0,1.0,100.0,event
12:24:10.289,0.5357461,0.24993774,0.49928588,0.7168249,0.3941501,-0.086874045,-0.26773816,0.42317626,0.67917854,0.35351148,0.30974796,0.66842884,0.6347488,0.6069939,0.47008878,0.8573147,0.4939869,0.44169727,0.43441582,0.5033815,787.326,810.293,772.01465,799.011,778.86444,-0.5255126953125,0.20562744140625,0.80938720703125,0.485992431640625,-3.51409912109375,0.11962890625,1.0,1.0,1.0,1.0,1.0,100.0,event
12:24:10.290,0.5357461,0.24993774,0.49928588,0.7168249,0.3941501,-0.086874045,-0.26773816,0.42317626,0.67917854,0.35351148,0.30974796,0.66842884,0.6347488,0.6069939,0.47008878,0.8573147,0.4939869,0.44169727,0.43441582,0.5033815,779.67035,805.4579,793.36993,800.6227,757.1062,-0.5255126953125,0.20562744140625,0.80938720703125,0.485992431640625,-3.51409912109375,0.11962890625,1.0,1.0,1.0,1.0,1.0,100.0,event
12:24:10.291,0.5357461,0.24993774,0.49928588,0.7168249,0.3941501,-0.086874045,-0.26773816,0.42317626,0.67917854,0.35351148,0.30974796,0.66842884,0.6347488,0.6069939,0.47008878,0.8573147,0.4939869,0.44169727,0.43441582,0.5033815,780.07324,799.41394,774.83514,799.011,759.5238,-0.5255126953125,0.20562744140625,0.80938720703125,0.485992431640625,-3.51409912109375,0.11962890625,1.0,1.0,1.0,1.0,1.0,100.0,event
12:24:10.291,0.5357461,0.24993774,0.49928588,0.7168249,0.3941501,-0.086874045,-0.26773816,0.42317626,0.67917854,0.35351148,0.30974796,0.66842884,0.6347488,0.6069939,0.47008878,0.8573147,0.4939869,0.44169727,0.43441582,0.5033815,785.31134,780.07324,766.3736,803.8461,666.04395,-0.5255126953125,0.20562744140625,0.80938720703125,0.485992431640625,-3.51409912109375,0.11962890625,1.0,1.0,1.0,1.0,1.0,100.0,event
12:24:10.318,0.5357461,0.24993774,0.49928588,0.7168249,0.3941501,-0.086874045,-0.26773816,0.42317626,0.67917854,0.35351148,0.30974796,0.66842884,0.6347488,0.6069939,0.47008878,0.8573147,0.4939869,0.44169727,0.43441582,0.5033815,772.8205,777.25275,776.04395,804.65204,686.99634,-0.53369140625,0.219482421875,0.80224609375,2.624359130859375,-4.9945068359375,0.55328369140625,1.0,1.0,1.0,1.0,1.0,100.0,event
12:24:10.319,0.5357461,0.24993774,0.49928588,0.7168249,0.3941501,-0.086874045,-0.26773816,0.42317626,0.67917854,0.35351148,0.30974796,0.66842884,0.6347488,0.6069939,0.47008878,0.8573147,0.4939869,0.44169727,0.43441582,0.5033815,764.35895,791.75824,786.52014,790.14655,762.3443,-0.53369140625,0.219482421875,0.80224609375,2.624359130859375,-4.9945068359375,0.55328369140625,1.0,1.0,1.0,1.0,1.0,100.0,event
12:24:10.320,0.5357461,0.24993774,0.49928588,0.7168249,0.3941501,-0.086874045,-0.26773816,0.42317626,0.67917854,0.35351148,0.30974796,0.66842884,0.6347488,0.6069939,0.47008878,0.8573147,0.4939869,0.44169727,0.43441582,0.5033815,778.86444,792.96704,785.31134,786.1172,793.36993,-0.53369140625,0.219482421875,0.80224609375,2.624359130859375,-4.9945068359375,0.55328369140625,1.0,1.0,1.0,1.0,1.0,100.0,event
12:24:10.320,0.5357461,0.24993774,0.49928588,0.7168249,0.3941501,-0.086874045,-0.26773816,0.42317626,0.67917854,0.35351148,0.30974796,0.66842884,0.6347488,0.6069939,0.47008878,0.8573147,0.4939869,0.44169727,0.43441582,0.5033815,772.4176,794.9817,791.3553,807.8755,803.44324,-0.53369140625,0.219482421875,0.80224609375,2.624359130859375,-4.9945068359375,0.55328369140625,1.0,1.0,1.0,1.0,1.0,100.0,event
12:24:10.321,0.5357461,0.24993774,0.49928588,0.7168249,0.3941501,-0.086874045,-0.26773816,0.42317626,0.67917854,0.35351148,0.30974796,0.66842884,0.6347488,0.6069939,0.47008878,0.8573147,0.4939869,0.44169727,0.43441582,0.5033815,778.86444,807.0696,789.34064,809.4872,801.4286,-0.53369140625,0.219482421875,0.80224609375,2.624359130859375,-4.9945068359375,0.55328369140625,1.0,1.0,1.0,1.0,1.0,100.0,event
12:24:10.322,0.5357461,0.24993774,0.49928588,0.7168249,0.3941501,-0.086874045,-0.26773816,0.42317626,0.67917854,0.35351148,0.30974796,0.66842884,0.6347488,0.6069939,0.47008878,0.8573147,0.4939869,0.44169727,0.43441582,0.5033815,790.14655,796.5934,773.6264,813.5165,954.1392,-0.53369140625,0.219482421875,0.80224609375,2.624359130859375,-4.9945068359375,0.55328369140625,1.0,1.0,1.0,1.0,1.0,100.0,event
12:24:10.322,0.5357461,0.24993774,0.49928588,0.7168249,0.3941501,-0.086874045,-0.26773816,0.42317626,0.67917854,0.35351148,0.30974796,0.66842884,0.6347488,0.6069939,0.47008878,0.8573147,0.4939869,0.44169727,0.43441582,0.5033815,786.52014,795.38464,767.98535,812.71063,925.12823,-0.53369140625,0.219482421875,0.80224609375,2.624359130859375,-4.9945068359375,0.55328369140625,1.0,1.0,1.0,1.0,1.0,100.0,event
12:24:10.323,0.5357461,0.24993774,0.49928588,0.7168249,0.3941501,-0.086874045,-0.26773816,0.42317626,0.67917854,0.35351148,0.30974796,0.66842884,0.6347488,0.6069939,0.47008878,0.8573147,0.4939869,0.44169727,0.43441582,0.5033815,789.7436,798.20514,774.43225,786.52014,822.7839,-0.53369140625,0.219482421875,0.80224609375,2.624359130859375,-4.9945068359375,0.55328369140625,1.0,1.0,1.0,1.0,1.0,100.0,event
12:24:10.324,0.5357461,0.24993774,0.49928588,0.7168249,0.3941501,-0.086874045,-0.26773816,0.42317626,0.67917854,0.35351148,0.30974796,0.66842884,0.6347488,0.6069939,0.47008878,0.8573147,0.4939869,0.44169727,0.43441582,0.5033815,783.2967,751.06226,778.46155,789.34064,895.7143,-0.53369140625,0.219482421875,0.80224609375,2.624359130859375,-4.9945068359375,0.55328369140625,1.0,1.0,1.0,1.0,1.0,100.0,event
12:24:10.324,0.5357461,0.24993774,0.49928588,0.7168249,0.3941501,-0.086874045,-0.26773816,0.42317626,0.67917854,0.35351148,0.30974796,0.66842884,0.6347488,0.6069939,0.47008878,0.8573147,0.4939869,0.44169727,0.43441582,0.5033815,793.7729,782.0879,777.6557,777.25275,735.7509,-0.53369140625,0.219482421875,0.80224609375,2.624359130859375,-4.9945068359375,0.55328369140625,1.0,1.0,1.0,1.0,1.0,100.0,event
12:24:10.325,0.5357461,0.24993774,0.49928588,0.7168249,0.3941501,-0.086874045,-0.26773816,0.42317626,0.67917854,0.35351148,0.30974796,0.66842884,0.6347488,0.6069939,0.47008878,0.8573147,0.4939869,0.44169727,0.43441582,0.5033815,769.59705,788.1319,774.83514,799.011,1108.0586,-0.53369140625,0.219482421875,0.80224609375,2.624359130859375,-4.9945068359375,0.55328369140625,1.0,1.0,1.0,1.0,1.0,100.0,event
12:24:10.326,0.5854983,0.1793595,0.5009633,0.74972844,0.39007732,0.03720758,-0.25117326,0.4462741,0.67917854,0.35330823,0.28884557,0.66849375,0.6434954,0.62355506,0.46841058,0.86198115,0.49618852,0.41690627,0.46507317,0.51398134,770.40295,824.7985,774.0293,789.7436,880.80585,-0.53369140625,0.219482421875,0.80224609375,2.624359130859375,-4.9945068359375,0.55328369140625,1.0,1.0,1.0,1.0,1.0,100.0,event
12:24:10.352,0.5854983,0.1793595,0.5009633,0.74972844,0.39007732,0.03720758,-0.25117326,0.4462741,0.67917854,0.35330823,0.28884557,0.66849375,0.6434954,0.62355506,0.46841058,0.86198115,0.49618852,0.41690627,0.46507317,0.51398134,775.2381,803.8461,778.46155,786.1172,776.8498,-0.53436279296875,0.21624755859375,0.8082275390625,2.213134765625,-1.607513427734375,0.979461669921875,1.0,1.0,1.0,1.0,1.0,100.0,event
12:24:10.353,0.5854983,0.1793595,0.5009633,0.74972844,0.39007732,0.03720758,-0.25117326,0.4462741,0.67917854,0.35330823,0.28884557,0.66849375,0.6434954,0.62355506,0.46841058,0.86198115,0.49618852,0.41690627,0.46507317,0.51398134,780.07324,789.7436,773.6264,791.75824,845.34796,-0.53436279296875,0.21624755859375,0.8082275390625,2.213134765625,-1.607513427734375,0.979461669921875,1.0,1.0,1.0,1.0,1.0,100.0,event
12:24:10.354,0.5854983,0.1793595,0.5009633,0.74972844,0.39007732,0.03720758,-0.25117326,0.4462741,0.67917854,0.35330823,0.28884557,0.66849375,0.6434954,0.62355506,0.46841058,0.86198115,0.49618852,0.41690627,0.46507317,0.51398134,796.1905,796.99634,769.19415,788.1319,753.0769,-0.53436279296875,0.21624755859375,0.8082275390625,2.213134765625,-1.607513427734375,0.979461669921875,1.0,1.0,1.0,1.0,1.0,100.0,event
12:24:10.355,0.5854983,0.1793595,0.5009633,0.74972844,0.39007732,0.03720758,-0.25117326,0.4462741,0.67917854,0.35330823,0.28884557,0.66849375,0.6434954,0.62355506,0.46841058,0.86198115,0.49618852,0.41690627,0.46507317,0.51398134,801.02563,792.5641,770.0,774.0293,720.4396,-0.53436279296875,0.21624755859375,0.8082275390625,2.213134765625,-1.607513427734375,0.979461669921875,1.0,1.0,1.0,1.0,1.0,100.0,event
12:24:10.355,0.5854983,0.1793595,0.5009633,0.74972844,0.39007732,0.03720758,-0.25117326,0.4462741,0.67917854,0.35330823,0.28884557,0.66849375,0.6434954,0.62355506,0.46841058,0.86198115,0.49618852,0.41690627,0.46507317,0.51398134,787.72894,776.04395,776.8498,778.86444,754.2857,-0.53436279296875,0.21624755859375,0.8082275390625,2.213134765625,-1.607513427734375,0.979461669921875,1.0,1.0,1.0,1.0,1.0,100.0,event
12:24:10.356,0.5854983,0.1793595,0.5009633,0.74972844,0.39007732,0.03720758,-0.25117326,0.4462741,0.67917854,0.35330823,0.28884557,0.66849375,0.6434954,0.62355506,0.46841058,0.86198115,0.49618852,0.41690627,0.46507317,0.51398134,776.8498,774.43225,769.59705,799.011,881.2088,-0.53436279296875,0.21624755859375,0.8082275390625,2.213134765625,-1.607513427734375,0.979461669921875,1.0,1.0,1.0,1.0,1.0,100.0,event
12:24:10.357,0.5854983,0.1793595,0.5009633,0.74972844,0.39007732,0.03720758,-0.25117326,0.4462741,0.67917854,0.35330823,0.28884557,0.66849375,0.6434954,0.62355506,0.46841058,0.86198115,0.49618852,0.41690627,0.46507317,0.51398134,778.46155,780.07324,771.2088,811.50183,923.91943,-0.53436279296875,0.21624755859375,0.8082275390625,2.213134765625,-1.607513427734375,0.979461669921875,1.0,1.0,1.0,1.0,1.0,100.0,event
12:24:10.357,0.5854983,0.1793595,0.5009633,0.74972844,0.39007732,0.03720758,-0.25117326,0.4462741,0.67917854,0.35330823,0.28884557,0.66849375,0.6434954,0.62355506,0.46841058,0.86198115,0.49618852,0.41690627,0.46507317,0.51398134,778.0586,796.1905,781.685,804.65204,773.22345,-0.53436279296875,0.21624755859375,0.8082275390625,2.213134765625,-1.607513427734375,0.979461669921875,1.0,1.0,1.0,1.0,1.0,100.0,event
12:24:10.358,0.5854983,0.1793595,0.5009633,0.74972844,0.39007732,0.03720758,-0.25117326,0.4462741,0.67917854,0.35330823,0.28884557,0.66849375,0.6434954,0.62355506,0.46841058,0.86198115,0.49618852,0.41690627,0.46507317,0.51398134,786.9231,765.16486,770.40295,809.89014,994.43225,-0.53436279296875,0.21624755859375,0.8082275390625,2.213134765625,-1.607513427734375,0.979461669921875,1.0,1.0,1.0,1.0,1.0,100.0,event
12:24:10.358,0.5854983,0.1793595,0.5009633,0.74972844,0.39007732,0.03720758,-0.25117326,0.4462741,0.67917854,0.35330823,0.28884557,0.66849375,0.6434954,0.62355506,0.46841058,0.86198115,0.49618852,0.41690627,0.46507317,0.51398134,787.72894,776.8498,776.04395,805.05493,758.71796,-0.53436279296875,0.21624755859375,0.8082275390625,2.213134765625,-1.607513427734375,0.979461669921875,1.0,1.0,1.0,1.0,1.0,100.0,event
12:24:10.359,0.5854983,0.1793595,0.5009633,0.74972844,0.39007732,0.03720758,-0.25117326,0.4462741,0.67917854,0.35330823,0.28884557,0.66849375,0.6434954,0.62355506,0.46841058,0.86198115,0.49618852,0.41690627,0.46507317,0.51398134,788.5348,794.17584,774.83514,816.7399,872.3443,-0.53436279296875,0.21624755859375,0.8082275390625,2.213134765625,-1.607513427734375,0.979461669921875,1.0,1.0,1.0,1.0,1.0,100.0,event
12:24:10.360,0.5854983,0.1793595,0.5009633,0.74972844,0.39007732,0.03720758,-0.25117326,0.4462741,0.67917854,0.35330823,0.28884557,0.66849375,0.6434954,0.62355506,0.46841058,0.86198115,0.49618852,0.41690627,0.46507317,0.51398134,784.90845,795.78754,782.8938,807.0696,729.707,-0.53436279296875,0.21624755859375,0.8082275390625,2.213134765625,-1.607513427734375,0.979461669921875,1.0,1.0,1.0,1.0,1.0,100.0,event
12:24:10.421,0.5854983,0.1793595,0.5009633,0.74972844,0.39007732,0.03720758,-0.25117326,0.4462741,0.67917854,0.35330823,0.28884557,0.66849375,0.6434954,0.62355506,0.46841058,0.86198115,0.49618852,0.41690627,0.46507317,0.51398134,770.40295,785.7143,768.3883,805.05493,830.0366,-0.53131103515625,0.21771240234375,0.8118896484375,2.01873779296875,-0.67291259765625,0.590667724609375,1.0,1.0,1.0,1.0,1.0,100.0,event
12:24:10.422,0.5854983,0.1793595,0.5009633,0.74972844,0.39007732,0.03720758,-0.25117326,0.4462741,0.67917854,0.35330823,0.28884557,0.66849375,0.6434954,0.62355506,0.46841058,0.86198115,0.49618852,0.41690627,0.46507317,0.51398134,771.2088,780.4762,761.53845,795.78754,832.0513,-0.53131103515625,0.21771240234375,0.8118896484375,2.01873779296875,-0.67291259765625,0.590667724609375,1.0,1.0,1.0,1.0,1.0,100.0,event
12:24:10.422,0.5854983,0.1793595,0.5009633,0.74972844,0.39007732,0.03720758,-0.25117326,0.4462741,0.67917854,0.35330823,0.28884557,0.66849375,0.6434954,0.62355506,0.46841058,0.86198115,0.49618852,0.41690627,0.46507317,0.51398134,762.74725,773.6264,774.0293,782.0879,782.49084,-0.53131103515625,0.21771240234375,0.8118896484375,2.01873779296875,-0.67291259765625,0.590667724609375,1.0,1.0,1.0,1.0,1.0,100.0,event
12:24:10.423,0.5854983,0.1793595,0.5009633,0.74972844,0.39007732,0.03720758,-0.25117326,0.4462741,0.67917854,0.35330823,0.28884557,0.66849375,0.6434954,0.62355506,0.46841058,0.86198115,0.49618852,0.41690627,0.46507317,0.51398134,759.5238,774.43225,777.6557,792.1612,750.65936,-0.53131103515625,0.21771240234375,0.8118896484375,2.01873779296875,-0.67291259765625,0.590667724609375,1.0,1.0,1.0,1.0,1.0,100.0,event
12:24:10.424,0.5854983,0.1793595,0.5009633,0.74972844,0.39007732,0.03720758,-0.25117326,0.4462741,0.67917854,0.35330823,0.28884557,0.66849375,0.6434954,0.62355506,0.46841058,0.86198115,0.49618852,0.41690627,0.46507317,0.51398134,773.6264,777.25275,781.28204,799.41394,800.2198,-0.53131103515625,0.21771240234375,0.8118896484375,2.01873779296875,-0.67291259765625,0.590667724609375,1.0,1.0,1.0,1.0,1.0,100.0,event
12:24:10.425,0.5854983,0.1793595,0.5009633,0.74972844,0.39007732,0.03720758,-0.25117326,0.4462741,0.67917854,0.35330823,0.28884557,0.66849375,0.6434954,0.62355506,0.46841058,0.86198115,0.49618852,0.41690627,0.46507317,0.51398134,790.14655,778.0586,778.86444,804.65204,918.2784,-0.53131103515625,0.21771240234375,0.8118896484375,2.01873779296875,-0.67291259765625,0.590667724609375,1.0,1.0,1.0,1.0,1.0,100.0,event
12:24:10.426,0.5854983,0.1793595,0.5009633,0.74972844,0.39007732,0.03720758,-0.25117326,0.4462741,0.67917854,0.35330823,0.28884557,0.66849375,0.6434954,0.62355506,0.46841058,0.86198115,0.49618852,0.41690627,0.46507317,0.51398134,797.8022,764.35895,768.3883,805.4579,891.28204,-0.53131103515625,0.21771240234375,0.8118896484375,2.01873779296875,-0.67291259765625,0.590667724609375,1.0,1.0,1.0,1.0,1.0,100.0,event
12:24:10.427,0.5854983,0.1793595,0.5009633,0.74972844,0.39007732,0.03720758,-0.25117326,0.4462741,0.67917854,0.35330823,0.28884557,0.66849375,0.6434954,0.62355506,0.46841058,0.86198115,0.49618852,0.41690627,0.46507317,0.51398134,804.2491,762.74725,772.01465,809.4872,773.6264,-0.53131103515625,0.21771240234375,0.8118896484375,2.01873779296875,-0.67291259765625,0.590667724609375,1.0,1.0,1.0,1.0,1.0,100.0,event
12:24:10.428,0.5854983,0.1793595,0.5009633,0.74972844,0.39007732,0.03720758,-0.25117326,0.4462741,0.67917854,0.35330823,0.28884557,0.66849375,0.6434954,0.62355506,0.46841058,0.86198115,0.49618852,0.41690627,0.46507317,0.51398134,808.68134,766.77655,768.7912,813.5165,870.32965,-0.53131103515625,0.21771240234375,0.8118896484375,2.01873779296875,-0.67291259765625,0.590667724609375,1.0,1.0,1.0,1.0,1.0,100.0,event
12:24:10.429,0.5854983,0.1793595,0.5009633,0.74972844,0.39007732,0.03720758,-0.25117326,0.4462741,0.67917854,0.35330823,0.28884557,0.66849375,0.6434954,0.62355506,0.46841058,0.86198115,0.49618852,0.41690627,0.46507317,0.51398134,797.3993,801.8315,759.5238,804.2491,875.56775,-0.53131103515625,0.21771240234375,0.8118896484375,2.01873779296875,-0.67291259765625,0.590667724609375,1.0,1.0,1.0,1.0,1.0,100.0,event
12:24:10.430,0.5854983,0.1793595,0.5009633,0.74972844,0.39007732,0.03720758,-0.25117326,0.4462741,0.67917854,0.35330823,0.28884557,0.66849375,0.6434954,0.62355506,0.46841058,0.86198115,0.49618852,0.41690627,0.46507317,0.51398134,796.99634,815.12823,779.2674,810.696,643.47986,-0.53131103515625,0.21771240234375,0.8118896484375,2.01873779296875,-0.67291259765625,0.590667724609375,1.0,1.0,1.0,1.0,1.0,100.0,event
12:24:10.430,0.5854983,0.1793595,0.5009633,0.74972844,0.39007732,0.03720758,-0.25117326,0.4462741,0.67917854,0.35330823,0.28884557,0.66849375,0.6434954,0.62355506,0.46841058,0.86198115,0.49618852,0.41690627,0.46507317,0.51398134,792.5641,786.1172,790.14655,813.5165,679.7436,-0.53131103515625,0.21771240234375,0.8118896484375,2.01873779296875,-0.67291259765625,0.590667724609375,1.0,1.0,1.0,1.0,1.0,100.0,event
12:24:10.469,0.5854983,0.1793595,0.5009633,0.74972844,0.39007732,0.03720758,-0.25117326,0.4462741,0.67917854,0.35330823,0.28884557,0.66849375,0.6434954,0.62355506,0.46841058,0.86198115,0.49618852,0.41690627,0.46507317,0.51398134,784.90845,780.4762,777.25275,799.011,824.3956,-0.53399658203125,0.2174072265625,0.80487060546875,0.91217041015625,-3.4393310546875,-0.201873779296875,1.0,1.0,1.0,1.0,1.0,100.0,event
12:24:10.470,0.66273165,0.1128435,0.49593127,0.7741285,0.3830594,0.15632708,-0.2396055,0.45242226,0.67917854,0.31106982,0.28503406,0.6772822,0.6543357,0.62160844,0.46804914,0.85880303,0.5030596,0.40734288,0.49217093,0.5186749,790.54944,786.52014,764.35895,803.0403,805.4579,-0.53399658203125,0.2174072265625,0.80487060546875,0.91217041015625,-3.4393310546875,-0.201873779296875,1.0,1.0,1.0,1.0,1.0,100.0,event
12:24:10.474,0.66273165,0.1128435,0.49593127,0.7741285,0.3830594,0.15632708,-0.2396055,0.45242226,0.67917854,0.31106982,0.28503406,0.6772822,0.6543357,0.62160844,0.46804914,0.85880303,0.5030596,0.40734288,0.49217093,0.5186749,803.8461,794.17584,764.7619,809.89014,709.15753,-0.53399658203125,0.2174072265625,0.80487060546875,0.91217041015625,-3.4393310546875,-0.201873779296875,1.0,1.0,1.0,1.0,1.0,100.0,event
12:24:10.475,0.66273165,0.1128435,0.49593127,0.7741285,0.3830594,0.15632708,-0.2396055,0.45242226,0.67917854,0.31106982,0.28503406,0.6772822,0.6543357,0.62160844,0.46804914,0.85880303,0.5030596,0.40734288,0.49217093,0.5186749,793.36993,771.6117,783.2967,801.4286,743.8095,-0.53399658203125,0.2174072265625,0.80487060546875,0.91217041015625,-3.4393310546875,-0.201873779296875,1.0,1.0,1.0,1.0,1.0,100.0,event
12:24:10.476,0.66273165,0.1128435,0.49593127,0.7741285,0.3830594,0.15632708,-0.2396055,0.45242226,0.67917854,0.31106982,0.28503406,0.6772822,0.6543357,0.62160844,0.46804914,0.85880303,0.5030596,0.40734288,0.49217093,0.5186749,769.19415,767.98535,778.0586,805.05493,889.67035,-0.53399658203125,0.2174072265625,0.80487060546875,0.91217041015625,-3.4393310546875,-0.201873779296875,1.0,1.0,1.0,1.0,1.0,100.0,event
