TimeStamp,Delta_TP9,Delta_AF7,Delta_AF8,Delta_TP10,Theta_TP9,Theta_AF7,Theta_AF8,Theta_TP10,Alpha_TP9,Alpha_AF7,Alpha_AF8,Alpha_TP10,Beta_TP9,Beta_AF7,Beta_AF8,Beta_TP10,Gamma_TP9,Gamma_AF7,Gamma_AF8,Gamma_TP10,RAW_TP9,RAW_AF7,RAW_AF8,RAW_TP10,AUX_RIGHT,Accelerometer_X,Accelerometer_Y,Accelerometer_Z,Gyro_X,Gyro_Y,Gyro_Z,HeadBandOn,HSI_TP9,HSI_AF7,HSI_AF8,HSI_TP10,Battery,Elements
11:41:17.220,0.70091385,0.37688863,0.93043804,0.12798034,0.45498022,0.14917253,0.45979702,0.4217706,0.20562616,0.3197138,0.41848785,0.51949775,0.6802192,0.29638925,-0.16463774,0.3856137,0.20847157,-0.2396885,-0.59538,-0.061099645,801.8315,903.36993,1123.37,693.44324,717.619,0.00018310546875,-0.005615234375,0.9891357421875,2.3626708984375,-3.013153076171875,-0.43365478515625,1.0,2.0,1.0,4.0,2.0,80.0,event
11:41:17.222,0.70091385,0.37688863,0.93043804,0.12798034,0.45498022,0.14917253,0.45979702,0.4217706,0.20562616,0.3197138,0.41848785,0.51949775,0.6802192,0.29638925,-0.16463774,0.3856137,0.20847157,-0.2396885,-0.59538,-0.061099645,817.5458,875.56775,697.47253,709.5604,888.86444,0.00018310546875,-0.005615234375,0.9891357421875,2.3626708984375,-3.013153076171875,-0.43365478515625,1.0,2.0,1.0,4.0,2.0,80.0,event
11:41:17.223,0.70091385,0.37688863,0.93043804,0.12798034,0.45498022,0.14917253,0.45979702,0.4217706,0.20562616,0.3197138,0.41848785,0.51949775,0.6802192,0.29638925,-0.16463774,0.3856137,0.20847157,-0.2396885,-0.59538,-0.061099645,688.20514,872.74725,332.41757,707.9487,965.82416,0.00018310546875,-0.005615234375,0.9891357421875,2.3626708984375,-3.013153076171875,-0.43365478515625,1.0,2.0,1.0,4.0,2.0,80.0,event
11:41:17.224,0.70091385,0.37688863,0.93043804,0.12798034,0.45498022,0.14917253,0.45979702,0.4217706,0.20562616,0.3197138,0.41848785,0.51949775,0.6802192,0.29638925,-0.16463774,0.3856137,0.20847157,-0.2396885,-0.59538,-0.061099645,641.06226,875.56775,747.03296,725.2747,773.22345,0.00018310546875,-0.005615234375,0.9891357421875,2.3626708984375,-3.013153076171875,-0.43365478515625,1.0,2.0,1.0,4.0,2.0,80.0,event
11:41:17.225,0.70091385,0.37688863,0.93043804,0.12798034,0.45498022,0.14917253,0.45979702,0.4217706,0.20562616,0.3197138,0.41848785,0.51949775,0.6802192,0.29638925,-0.16463774,0.3856137,0.20847157,-0.2396885,-0.59538,-0.061099645,726.08057,854.61536,818.3516,757.9121,758.71796,6.103515625e-05,-0.00860595703125,0.97674560546875,2.0635986328125,-3.611297607421875,0.73272705078125,1.0,2.0,1.0,4.0,2.0,80.0,event
11:41:17.226,0.70091385,0.37688863,0.93043804,0.12798034,0.45498022,0.14917253,0.45979702,0.4217706,0.20562616,0.3197138,0.41848785,0.51949775,0.6802192,0.29638925,-0.16463774,0.3856137,0.20847157,-0.2396885,-0.59538,-0.061099645,880.80585,837.6923,612.8571,790.9524,875.56775,6.103515625e-05,-0.00860595703125,0.97674560546875,2.0635986328125,-3.611297607421875,0.73272705078125,1.0,2.0,1.0,4.0,2.0,80.0,event
11:41:17.227,0.70091385,0.37688863,0.93043804,0.12798034,0.45498022,0.14917253,0.45979702,0.4217706,0.20562616,0.3197138,0.41848785,0.51949775,0.6802192,0.29638925,-0.16463774,0.3856137,0.20847157,-0.2396885,-0.59538,-0.061099645,935.2015,835.2747,705.5311,808.2784,838.0952,6.103515625e-05,-0.00860595703125,0.97674560546875,2.0635986328125,-3.611297607421875,0.73272705078125,1.0,2.0,1.0,4.0,2.0,80.0,event
11:41:17.227,0.70091385,0.37688863,0.93043804,0.12798034,0.45498022,0.14917253,0.45979702,0.4217706,0.20562616,0.3197138,0.41848785,0.51949775,0.6802192,0.29638925,-0.16463774,0.3856137,0.20847157,-0.2396885,-0.59538,-0.061099645,811.50183,828.4249,904.17584,805.05493,695.05493,6.103515625e-05,-0.00860595703125,0.97674560546875,2.0635986328125,-3.611297607421875,0.73272705078125,1.0,2.0,1.0,4.0,2.0,80.0,event
11:41:17.228,0.70091385,0.37688863,0.93043804,0.12798034,0.45498022,0.14917253,0.45979702,0.4217706,0.20562616,0.3197138,0.41848785,0.51949775,0.6802192,0.29638925,-0.16463774,0.3856137,0.20847157,-0.2396885,-0.59538,-0.061099645,731.7216,806.26373,829.6337,827.619,677.72894,6.103515625e-05,-0.00860595703125,0.97674560546875,2.0635986328125,-3.611297607421875,0.73272705078125,1.0,2.0,1.0,4.0,2.0,80.0,event
11:41:17.229,0.70091385,0.37688863,0.93043804,0.12798034,0.45498022,0.14917253,0.45979702,0.4217706,0.20562616,0.3197138,0.41848785,0.51949775,0.6802192,0.29638925,-0.16463774,0.3856137,0.20847157,-0.2396885,-0.59538,-0.061099645,803.0403,792.1612,628.1685,865.09155,791.75824,6.103515625e-05,-0.00860595703125,0.97674560546875,2.0635986328125,-3.611297607421875,0.73272705078125,1.0,2.0,1.0,4.0,2.0,80.0,event
11:41:17.229,0.70091385,0.37688863,0.93043804,0.12798034,0.45498022,0.14917253,0.45979702,0.4217706,0.20562616,0.3197138,0.41848785,0.51949775,0.6802192,0.29638925,-0.16463774,0.3856137,0.20847157,-0.2396885,-0.59538,-0.061099645,955.34796,794.17584,627.3626,894.5055,902.1612,6.103515625e-05,-0.00860595703125,0.97674560546875,2.0635986328125,-3.611297607421875,0.73272705078125,1.0,2.0,1.0,4.0,2.0,80.0,event
11:41:17.230,0.70091385,0.37688863,0.93043804,0.12798034,0.45498022,0.14917253,0.45979702,0.4217706,0.20562616,0.3197138,0.41848785,0.51949775,0.6802192,0.29638925,-0.16463774,0.3856137,0.20847157,-0.2396885,-0.59538,-0.061099645,1030.6959,788.93774,863.8828,913.44324,767.1795,6.103515625e-05,-0.00860595703125,0.97674560546875,2.0635986328125,-3.611297607421875,0.73272705078125,1.0,2.0,1.0,4.0,2.0,80.0,event
11:41:17.234,0.70091385,0.37688863,0.93043804,0.12798034,0.45498022,0.14917253,0.45979702,0.4217706,0.20562616,0.3197138,0.41848785,0.51949775,0.6802192,0.29638925,-0.16463774,0.3856137,0.20847157,-0.2396885,-0.59538,-0.061099645,923.1135,770.80585,894.90845,908.60803,699.89014,6.103515625e-05,-0.00860595703125,0.97674560546875,2.0635986328125,-3.611297607421875,0.73272705078125,1.0,2.0,1.0,4.0,2.0,80.0,event
11:41:17.235,0.70091385,0.37688863,0.93043804,0.12798034,0.45498022,0.14917253,0.45979702,0.4217706,0.20562616,0.3197138,0.41848785,0.51949775,0.6802192,0.29638925,-0.16463774,0.3856137,0.20847157,-0.2396885,-0.59538,-0.061099645,802.23444,758.71796,384.3956,914.2491,893.2967,6.103515625e-05,-0.00860595703125,0.97674560546875,2.0635986328125,-3.611297607421875,0.73272705078125,1.0,2.0,1.0,4.0,2.0,80.0,event
11:41:17.235,0.70091385,0.37688863,0.93043804,0.12798034,0.45498022,0.14917253,0.45979702,0.4217706,0.20562616,0.3197138,0.41848785,0.51949775,0.6802192,0.29638925,-0.16463774,0.3856137,0.20847157,-0.2396885,-0.59538,-0.061099645,849.3773,763.5531,542.3443,931.978,899.34064,6.103515625e-05,-0.00860595703125,0.97674560546875,2.0635986328125,-3.611297607421875,0.73272705078125,1.0,2.0,1.0,4.0,2.0,80.0,event
11:41:17.236,0.70091385,0.37688863,0.93043804,0.12798034,0.45498022,0.14917253,0.45979702,0.4217706,0.20562616,0.3197138,0.41848785,0.51949775,0.6802192,0.29638925,-0.16463774,0.3856137,0.20847157,-0.2396885,-0.59538,-0.061099645,1008.1319,756.7033,1134.249,954.1392,784.90845,6.103515625e-05,-0.00860595703125,0.97674560546875,2.0635986328125,-3.611297607421875,0.73272705078125,1.0,2.0,1.0,4.0,2.0,80.0,event
11:41:17.276,0.70091385,0.37688863,0.93043804,0.12798034,0.45498022,0.14917253,0.45979702,0.4217706,0.20562616,0.3197138,0.41848785,0.51949775,0.6802192,0.29638925,-0.16463774,0.3856137,0.20847157,-0.2396885,-0.59538,-0.061099645,1075.0183,742.6007,950.9158,961.79486,843.73627,6.103515625e-05,-0.00860595703125,0.97674560546875,2.0635986328125,-3.611297607421875,0.73272705078125,1.0,2.0,1.0,4.0,2.0,80.0,event
11:41:17.279,0.70091385,0.37688863,0.93043804,0.12798034,0.45498022,0.14917253,0.45979702,0.4217706,0.20562616,0.3197138,0.41848785,0.51949775,0.6802192,0.29638925,-0.16463774,0.3856137,0.20847157,-0.2396885,-0.59538,-0.061099645,975.89746,741.39197,692.23444,944.0659,796.1905,6.103515625e-05,-0.00860595703125,0.97674560546875,2.0635986328125,-3.611297607421875,0.73272705078125,1.0,2.0,1.0,4.0,2.0,80.0,event
11:41:17.280,0.70091385,0.37688863,0.93043804,0.12798034,0.45498022,0.14917253,0.45979702,0.4217706,0.20562616,0.3197138,0.41848785,0.51949775,0.6802192,0.29638925,-0.16463774,0.3856137,0.20847157,-0.2396885,-0.59538,-0.061099645,860.65936,744.21246,794.17584,944.0659,730.9158,6.103515625e-05,-0.00860595703125,0.97674560546875,2.0635986328125,-3.611297607421875,0.73272705078125,1.0,2.0,1.0,4.0,2.0,80.0,event
11:41:17.281,0.70091385,0.37688863,0.93043804,0.12798034,0.45498022,0.14917253,0.45979702,0.4217706,0.20562616,0.3197138,0.41848785,0.51949775,0.6802192,0.29638925,-0.16463774,0.3856137,0.20847157,-0.2396885,-0.59538,-0.061099645,874.7619,739.3773,790.9524,954.5421,766.77655,6.103515625e-05,-0.00860595703125,0.97674560546875,2.0635986328125,-3.611297607421875,0.73272705078125,1.0,2.0,1.0,4.0,2.0,80.0,event
11:41:17.281,0.70091385,0.37688863,0.93043804,0.12798034,0.45498022,0.14917253,0.45979702,0.4217706,0.20562616,0.3197138,0.41848785,0.51949775,0.6802192,0.29638925,-0.16463774,0.3856137,0.20847157,-0.2396885,-0.59538,-0.061099645,999.67035,732.52747,615.2747,976.7033,873.95605,6.103515625e-05,-0.00860595703125,0.97674560546875,2.0635986328125,-3.611297607421875,0.73272705078125,1.0,2.0,1.0,4.0,2.0,80.0,event
11:41:17.283,0.70091385,0.37688863,0.93043804,0.12798034,0.45498022,0.14917253,0.45979702,0.4217706,0.20562616,0.3197138,0.41848785,0.51949775,0.6802192,0.29638925,-0.16463774,0.3856137,0.20847157,-0.2396885,-0.59538,-0.061099645,1079.4506,726.8865,530.2564,984.7619,990.80585,6.103515625e-05,-0.00860595703125,0.97674560546875,2.0635986328125,-3.611297607421875,0.73272705078125,1.0,2.0,1.0,4.0,2.0,80.0,event
11:41:17.285,0.70091385,0.37688863,0.93043804,0.12798034,0.45498022,0.14917253,0.45979702,0.4217706,0.20562616,0.3197138,0.41848785,0.51949775,0.6802192,0.29638925,-0.16463774,0.3856137,0.20847157,-0.2396885,-0.59538,-0.061099645,1006.1172,732.52747,561.685,965.42126,868.71796,6.103515625e-05,-0.00860595703125,0.97674560546875,2.0635986328125,-3.611297607421875,0.73272705078125,1.0,2.0,1.0,4.0,2.0,80.0,event
11:41:17.286,0.70091385,0.37688863,0.93043804,0.12798034,0.45498022,0.14917253,0.45979702,0.4217706,0.20562616,0.3197138,0.41848785,0.51949775,0.6802192,0.29638925,-0.16463774,0.3856137,0.20847157,-0.2396885,-0.59538,-0.061099645,881.2088,740.989,688.20514,960.58606,729.304,6.103515625e-05,-0.00860595703125,0.97674560546875,2.0635986328125,-3.611297607421875,0.73272705078125,1.0,2.0,1.0,4.0,2.0,80.0,event
11:41:17.287,0.70091385,0.37688863,0.93043804,0.12798034,0.45498022,0.14917253,0.45979702,0.4217706,0.20562616,0.3197138,0.41848785,0.51949775,0.6802192,0.29638925,-0.16463774,0.3856137,0.20847157,-0.2396885,-0.59538,-0.061099645,870.7326,734.94507,614.0659,970.65936,812.3077,6.103515625e-05,-0.00860595703125,0.97674560546875,2.0635986328125,-3.611297607421875,0.73272705078125,1.0,2.0,1.0,4.0,2.0,80.0,event
11:41:17.288,0.70091385,0.37688863,0.93043804,0.12798034,0.45498022,0.14917253,0.45979702,0.4217706,0.20562616,0.3197138,0.41848785,0.51949775,0.6802192,0.29638925,-0.16463774,0.3856137,0.20847157,-0.2396885,-0.59538,-0.061099645,991.2088,736.1539,291.3187,990.80585,1035.5311,6.103515625e-05,-0.00860595703125,0.97674560546875,2.0635986328125,-3.611297607421875,0.73272705078125,1.0,2.0,1.0,4.0,2.0,80.0,event
11:41:17.288,0.70091385,0.37688863,0.93043804,0.12798034,0.45498022,0.14917253,0.45979702,0.4217706,0.20562616,0.3197138,0.41848785,0.51949775,0.6802192,0.29638925,-0.16463774,0.3856137,0.20847157,-0.2396885,-0.59538,-0.061099645,1095.1648,756.7033,702.71063,987.1795,850.989,6.103515625e-05,-0.00860595703125,0.97674560546875,2.0635986328125,-3.611297607421875,0.73272705078125,1.0,2.0,1.0,4.0,2.0,80.0,event
11:41:17.289,0.70091385,0.37688863,0.93043804,0.12798034,0.45498022,0.14917253,0.45979702,0.4217706,0.20562616,0.3197138,0.41848785,0.51949775,0.6802192,0.29638925,-0.16463774,0.3856137,0.20847157,-0.2396885,-0.59538,-0.061099645,1021.8315,757.50916,955.34796,957.76556,671.28204,6.103515625e-05,-0.00860595703125,0.97674560546875,2.0635986328125,-3.611297607421875,0.73272705078125,1.0,2.0,1.0,4.0,2.0,80.0,event
11:41:17.325,0.70091385,0.37688863,0.93043804,0.12798034,0.45498022,0.14917253,0.45979702,0.4217706,0.20562616,0.3197138,0.41848785,0.51949775,0.6802192,0.29638925,-0.16463774,0.3856137,0.20847157,-0.2396885,-0.59538,-0.061099645,876.3736,759.5238,700.696,946.4835,695.8608,-0.00628662109375,-0.0037841796875,0.99658203125,2.2430419921875,-2.6318359375,0.710296630859375,1.0,2.0,1.0,4.0,2.0,80.0,event
11:41:17.326,0.70091385,0.37688863,0.93043804,0.12798034,0.45498022,0.14917253,0.45979702,0.4217706,0.20562616,0.3197138,0.41848785,0.51949775,0.6802192,0.29638925,-0.16463774,0.3856137,0.20847157,-0.2396885,-0.59538,-0.061099645,850.18317,761.53845,773.6264,946.4835,694.2491,-0.00628662109375,-0.0037841796875,0.99658203125,2.2430419921875,-2.6318359375,0.710296630859375,1.0,2.0,1.0,4.0,2.0,80.0,event
11:41:17.327,0.70091385,0.37688863,0.93043804,0.12798034,0.45498022,0.14917253,0.45979702,0.4217706,0.20562616,0.3197138,0.41848785,0.51949775,0.6802192,0.29638925,-0.16463774,0.3856137,0.20847157,-0.2396885,-0.59538,-0.061099645,960.58606,759.5238,1075.4213,957.3626,766.77655,-0.00628662109375,-0.0037841796875,0.99658203125,2.2430419921875,-2.6318359375,0.710296630859375,1.0,2.0,1.0,4.0,2.0,80.0,event
11:41:17.327,0.70091385,0.37688863,0.93043804,0.12798034,0.45498022,0.14917253,0.45979702,0.4217706,0.20562616,0.3197138,0.41848785,0.51949775,0.6802192,0.29638925,-0.16463774,0.3856137,0.20847157,-0.2396885,-0.59538,-0.061099645,1061.7216,756.7033,1081.0623,963.4066,808.68134,-0.00628662109375,-0.0037841796875,0.99658203125,2.2430419921875,-2.6318359375,0.710296630859375,1.0,2.0,1.0,4.0,2.0,80.0,event
11:41:17.328,0.70091385,0.37688863,0.93043804,0.12798034,0.45498022,0.14917253,0.45979702,0.4217706,0.20562616,0.3197138,0.41848785,0.51949775,0.6802192,0.29638925,-0.16463774,0.3856137,0.20847157,-0.2396885,-0.59538,-0.061099645,1000.07324,764.7619,776.4469,947.28937,788.1319,-0.00628662109375,-0.0037841796875,0.99658203125,2.2430419921875,-2.6318359375,0.710296630859375,1.0,2.0,1.0,4.0,2.0,80.0,event
11:41:17.329,0.70091385,0.37688863,0.93043804,0.12798034,0.45498022,0.14917253,0.45979702,0.4217706,0.20562616,0.3197138,0.41848785,0.51949775,0.6802192,0.29638925,-0.16463774,0.3856137,0.20847157,-0.2396885,-0.59538,-0.061099645,855.0183,776.4469,549.59705,933.5897,847.76556,-0.00628662109375,-0.0037841796875,0.99658203125,2.2430419921875,-2.6318359375,0.710296630859375,1.0,2.0,1.0,4.0,2.0,80.0,event
11:41:17.329,0.70091385,0.37688863,0.93043804,0.12798034,0.45498022,0.14917253,0.45979702,0.4217706,0.20562616,0.3197138,0.41848785,0.51949775,0.6802192,0.29638925,-0.16463774,0.3856137,0.20847157,-0.2396885,-0.59538,-0.061099645,807.8755,770.80585,550.80585,928.3516,796.5934,-0.00628662109375,-0.0037841796875,0.99658203125,2.2430419921875,-2.6318359375,0.710296630859375,1.0,2.0,1.0,4.0,2.0,80.0,event
11:41:17.330,0.70091385,0.37688863,0.93043804,0.12798034,0.45498022,0.14917253,0.45979702,0.4217706,0.20562616,0.3197138,0.41848785,0.51949775,0.6802192,0.29638925,-0.16463774,0.3856137,0.20847157,-0.2396885,-0.59538,-0.061099645,899.34064,777.6557,726.4835,933.9927,759.5238,-0.00628662109375,-0.0037841796875,0.99658203125,2.2430419921875,-2.6318359375,0.710296630859375,1.0,2.0,1.0,4.0,2.0,80.0,event
11:41:17.331,0.70091385,0.37688863,0.93043804,0.12798034,0.45498022,0.14917253,0.45979702,0.4217706,0.20562616,0.3197138,0.41848785,0.51949775,0.6802192,0.29638925,-0.16463774,0.3856137,0.20847157,-0.2396885,-0.59538,-0.061099645,1015.78754,770.40295,375.53113,941.6484,940.84247,-0.00628662109375,-0.0037841796875,0.99658203125,2.2430419921875,-2.6318359375,0.710296630859375,1.0,2.0,1.0,4.0,2.0,80.0,event
11:41:17.331,0.70091385,0.37688863,0.93043804,0.12798034,0.45498022,0.14917253,0.45979702,0.4217706,0.20562616,0.3197138,0.41848785,0.51949775,0.6802192,0.29638925,-0.16463774,0.3856137,0.20847157,-0.2396885,-0.59538,-0.061099645,987.5824,778.86444,160.3663,931.1722,948.0952,-0.00628662109375,-0.0037841796875,0.99658203125,2.2430419921875,-2.6318359375,0.710296630859375,1.0,2.0,1.0,4.0,2.0,80.0,event
11:41:17.333,,,,,,,,,,,,,,,,,,,,,,,,,,,,,,,,,,,,,,blink
11:41:17.335,0.70091385,0.37688863,0.93043804,0.12798034,0.45498022,0.14917253,0.45979702,0.4217706,0.20562616,0.3197138,0.41848785,0.51949775,0.6802192,0.29638925,-0.16463774,0.3856137,0.20847157,-0.2396885,-0.59538,-0.061099645,847.76556,805.05493,737.3626,905.78754,689.81683,-0.00628662109375,-0.0037841796875,0.99658203125,2.2430419921875,-2.6318359375,0.710296630859375,1.0,2.0,1.0,4.0,2.0,80.0,event
11:41:17.336,0.70091385,0.37688863,0.93043804,0.12798034,0.45498022,0.14917253,0.45979702,0.4217706,0.20562616,0.3197138,0.41848785,0.51949775,0.6802192,0.29638925,-0.16463774,0.3856137,0.20847157,-0.2396885,-0.59538,-0.061099645,780.4762,790.54944,820.7692,894.90845,693.0403,-0.00628662109375,-0.0037841796875,0.99658203125,2.2430419921875,-2.6318359375,0.710296630859375,1.0,2.0,1.0,4.0,2.0,80.0,event
11:41:17.337,0.70091385,0.37688863,0.93043804,0.12798034,0.45498022,0.14917253,0.45979702,0.4217706,0.20562616,0.3197138,0.41848785,0.51949775,0.6802192,0.29638925,-0.16463774,0.3856137,0.20847157,-0.2396885,-0.59538,-0.061099645,869.92676,790.54944,806.6667,909.41394,766.77655,-0.0025634765625,-0.00274658203125,0.9866943359375,2.863616943359375,-2.444915771484375,0.590667724609375,1.0,2.0,1.0,4.0,2.0,80.0,event
11:41:17.337,0.70091385,0.37688863,0.93043804,0.12798034,0.45498022,0.14917253,0.45979702,0.4217706,0.20562616,0.3197138,0.41848785,0.51949775,0.6802192,0.29638925,-0.16463774,0.3856137,0.20847157,-0.2396885,-0.59538,-0.061099645,1000.87915,799.81683,1012.96704,916.6667,726.08057,-0.0025634765625,-0.00274658203125,0.9866943359375,2.863616943359375,-2.444915771484375,0.590667724609375,1.0,2.0,1.0,4.0,2.0,80.0,event
11:41:17.338,0.70091385,0.37688863,0.93043804,0.12798034,0.45498022,0.14917253,0.45979702,0.4217706,0.20562616,0.3197138,0.41848785,0.51949775,0.6802192,0.29638925,-0.16463774,0.3856137,0.20847157,-0.2396885,-0.59538,-0.061099645,843.3333,799.011,763.5531,891.28204,770.40295,-0.0025634765625,-0.00274658203125,0.9866943359375,2.863616943359375,-2.444915771484375,0.590667724609375,1.0,2.0,1.0,4.0,2.0,80.0,event
11:41:17.338,0.70091385,0.37688863,0.93043804,0.12798034,0.45498022,0.14917253,0.45979702,0.4217706,0.20562616,0.3197138,0.41848785,0.51949775,0.6802192,0.29638925,-0.16463774,0.3856137,0.20847157,-0.2396885,-0.59538,-0.061099645,988.3883,797.3993,1042.7839,902.1612,726.8865,-0.0025634765625,-0.00274658203125,0.9866943359375,2.863616943359375,-2.444915771484375,0.590667724609375,1.0,2.0,1.0,4.0,2.0,80.0,event
11:41:17.339,0.70091385,0.37688863,0.93043804,0.12798034,0.45498022,0.14917253,0.45979702,0.4217706,0.20562616,0.3197138,0.41848785,0.51949775,0.6802192,0.29638925,-0.16463774,0.3856137,0.20847157,-0.2396885,-0.59538,-0.061099645,767.98535,805.4579,639.45056,894.5055,775.2381,-0.0025634765625,-0.00274658203125,0.9866943359375,2.863616943359375,-2.444915771484375,0.590667724609375,1.0,2.0,1.0,4.0,2.0,80.0,event
11:41:17.340,0.70091385,0.37688863,0.93043804,0.12798034,0.45498022,0.14917253,0.45979702,0.4217706,0.20562616,0.3197138,0.41848785,0.51949775,0.6802192,0.29638925,-0.16463774,0.3856137,0.20847157,-0.2396885,-0.59538,-0.061099645,840.5128,806.26373,697.8755,902.5641,809.89014,-0.0025634765625,-0.00274658203125,0.9866943359375,2.863616943359375,-2.444915771484375,0.590667724609375,1.0,2.0,1.0,4.0,2.0,80.0,event
11:41:17.340,0.70091385,0.37688863,0.93043804,0.12798034,0.45498022,0.14917253,0.45979702,0.4217706,0.20562616,0.3197138,0.41848785,0.51949775,0.6802192,0.29638925,-0.16463774,0.3856137,0.20847157,-0.2396885,-0.59538,-0.061099645,975.09155,810.696,708.3516,909.41394,816.337,-0.0025634765625,-0.00274658203125,0.9866943359375,2.863616943359375,-2.444915771484375,0.590667724609375,1.0,2.0,1.0,4.0,2.0,80.0,event
11:41:17.341,0.70091385,0.37688863,0.93043804,0.12798034,0.45498022,0.14917253,0.45979702,0.4217706,0.20562616,0.3197138,0.41848785,0.51949775,0.6802192,0.29638925,-0.16463774,0.3856137,0.20847157,-0.2396885,-0.59538,-0.061099645,994.0293,807.0696,580.6227,903.7729,905.38464,-0.0025634765625,-0.00274658203125,0.9866943359375,2.863616943359375,-2.444915771484375,0.590667724609375,1.0,2.0,1.0,4.0,2.0,80.0,event
11:41:17.341,0.70091385,0.37688863,0.93043804,0.12798034,0.45498022,0.14917253,0.45979702,0.4217706,0.20562616,0.3197138,0.41848785,0.51949775,0.6802192,0.29638925,-0.16463774,0.3856137,0.20847157,-0.2396885,-0.59538,-0.061099645,851.79486,808.68134,248.20512,889.67035,1039.5604,-0.0025634765625,-0.00274658203125,0.9866943359375,2.863616943359375,-2.444915771484375,0.590667724609375,1.0,2.0,1.0,4.0,2.0,80.0,event
11:41:17.342,0.70091385,0.37688863,0.93043804,0.12798034,0.45498022,0.14917253,0.45979702,0.4217706,0.20562616,0.3197138,0.41848785,0.51949775,0.6802192,0.29638925,-0.16463774,0.3856137,0.20847157,-0.2396885,-0.59538,-0.061099645,763.95605,830.0366,479.48718,883.6264,877.5824,-0.0025634765625,-0.00274658203125,0.9866943359375,2.863616943359375,-2.444915771484375,0.590667724609375,1.0,2.0,1.0,4.0,2.0,80.0,event
11:41:17.343,0.70091385,0.37688863,0.93043804,0.12798034,0.45498022,0.14917253,0.45979702,0.4217706,0.20562616,0.3197138,0.41848785,0.51949775,0.6802192,0.29638925,-0.16463774,0.3856137,0.20847157,-0.2396885,-0.59538,-0.061099645,817.9487,826.0073,920.696,877.98535,765.9707,-0.0025634765625,-0.00274658203125,0.9866943359375,2.863616943359375,-2.444915771484375,0.590667724609375,1.0,2.0,1.0,4.0,2.0,80.0,event
11:41:17.343,0.70091385,0.37688863,0.93043804,0.12798034,0.45498022,0.14917253,0.45979702,0.4217706,0.20562616,0.3197138,0.41848785,0.51949775,0.6802192,0.29638925,-0.16463774,0.3856137,0.20847157,-0.2396885,-0.59538,-0.061099645,940.0366,806.6667,771.2088,884.0293,861.8681,-0.0025634765625,-0.00274658203125,0.9866943359375,2.863616943359375,-2.444915771484375,0.590667724609375,1.0,2.0,1.0,4.0,2.0,80.0,event
11:41:17.390,0.70091385,0.37688863,0.93043804,0.12798034,0.45498022,0.14917253,0.45979702,0.4217706,0.20562616,0.3197138,0.41848785,0.51949775,0.6802192,0.29638925,-0.16463774,0.3856137,0.20847157,-0.2396885,-0.59538,-0.061099645,971.4652,808.2784,669.2674,873.95605,860.2564,-0.004638671875,0.00177001953125,0.991455078125,2.85614013671875,-1.801910400390625,0.994415283203125,1.0,2.0,1.0,4.0,2.0,80.0,event
11:41:17.392,0.70091385,0.37688863,0.93043804,0.12798034,0.45498022,0.14917253,0.45979702,0.4217706,0.20562616,0.3197138,0.41848785,0.51949775,0.6802192,0.29638925,-0.16463774,0.3856137,0.20847157,-0.2396885,-0.59538,-0.061099645,848.5714,818.7546,857.8388,850.989,684.9817,-0.004638671875,0.00177001953125,0.991455078125,2.85614013671875,-1.801910400390625,0.994415283203125,1.0,2.0,1.0,4.0,2.0,80.0,event
11:41:17.393,0.70091385,0.37688863,0.93043804,0.12798034,0.45498022,0.14917253,0.45979702,0.4217706,0.20562616,0.3197138,0.41848785,0.51949775,0.6802192,0.29638925,-0.16463774,0.3856137,0.20847157,-0.2396885,-0.59538,-0.061099645,736.55676,815.12823,796.1905,844.5421,688.20514,-0.004638671875,0.00177001953125,0.991455078125,2.85614013671875,-1.801910400390625,0.994415283203125,1.0,2.0,1.0,4.0,2.0,80.0,event
11:41:17.394,0.70091385,0.37688863,0.93043804,0.12798034,0.45498022,0.14917253,0.45979702,0.4217706,0.20562616,0.3197138,0.41848785,0.51949775,0.6802192,0.29638925,-0.16463774,0.3856137,0.20847157,-0.2396885,-0.59538,-0.061099645,774.43225,811.0989,773.6264,850.58606,726.08057,-0.004638671875,0.00177001953125,0.991455078125,2.85614013671875,-1.801910400390625,0.994415283203125,1.0,2.0,1.0,4.0,2.0,80.0,event
11:41:17.395,0.70091385,0.37688863,0.93043804,0.12798034,0.45498022,0.14917253,0.45979702,0.4217706,0.20562616,0.3197138,0.41848785,0.51949775,0.6802192,0.29638925,-0.16463774,0.3856137,0.20847157,-0.2396885,-0.59538,-0.061099645,922.71063,810.293,904.57874,873.95605,753.0769,-0.004638671875,0.00177001953125,0.991455078125,2.85614013671875,-1.801910400390625,0.994415283203125,1.0,2.0,1.0,4.0,2.0,80.0,event
11:41:17.396,0.70091385,0.37688863,0.93043804,0.12798034,0.45498022,0.14917253,0.45979702,0.4217706,0.20562616,0.3197138,0.41848785,0.51949775,0.6802192,0.29638925,-0.16463774,0.3856137,0.20847157,-0.2396885,-0.59538,-0.061099645,975.09155,809.0842,853.8095,875.16486,854.61536,-0.004638671875,0.00177001953125,0.991455078125,2.85614013671875,-1.801910400390625,0.994415283203125,1.0,2.0,1.0,4.0,2.0,80.0,event
11:41:17.396,0.70091385,0.37688863,0.93043804,0.12798034,0.45498022,0.14917253,0.45979702,0.4217706,0.20562616,0.3197138,0.41848785,0.51949775,0.6802192,0.29638925,-0.16463774,0.3856137,0.20847157,-0.2396885,-0.59538,-0.061099645,848.5714,807.47253,612.8571,846.9597,855.0183,-0.004638671875,0.00177001953125,0.991455078125,2.85614013671875,-1.801910400390625,0.994415283203125,1.0,2.0,1.0,4.0,2.0,80.0,event
11:41:17.397,0.70091385,0.37688863,0.93043804,0.12798034,0.45498022,0.14917253,0.45979702,0.4217706,0.20562616,0.3197138,0.41848785,0.51949775,0.6802192,0.29638925,-0.16463774,0.3856137,0.20847157,-0.2396885,-0.59538,-0.061099645,718.8278,803.8461,214.7619,839.707,944.4689,-0.004638671875,0.00177001953125,0.991455078125,2.85614013671875,-1.801910400390625,0.994415283203125,1.0,2.0,1.0,4.0,2.0,80.0,event
11:41:17.398,0.70091385,0.37688863,0.93043804,0.12798034,0.45498022,0.14917253,0.45979702,0.4217706,0.20562616,0.3197138,0.41848785,0.51949775,0.6802192,0.29638925,-0.16463774,0.3856137,0.20847157,-0.2396885,-0.59538,-0.061099645,749.0476,817.1429,301.39194,853.00366,886.04395,-0.004638671875,0.00177001953125,0.991455078125,2.85614013671875,-1.801910400390625,0.994415283203125,1.0,2.0,1.0,4.0,2.0,80.0,event
11:41:17.399,0.70091385,0.37688863,0.93043804,0.12798034,0.45498022,0.14917253,0.45979702,0.4217706,0.20562616,0.3197138,0.41848785,0.51949775,0.6802192,0.29638925,-0.16463774,0.3856137,0.20847157,-0.2396885,-0.59538,-0.061099645,891.28204,826.8132,973.8828,862.674,702.3077,-0.004638671875,0.00177001953125,0.991455078125,2.85614013671875,-1.801910400390625,0.994415283203125,1.0,2.0,1.0,4.0,2.0,80.0,event
11:41:17.400,0.70091385,0.37688863,0.93043804,0.12798034,0.45498022,0.14917253,0.45979702,0.4217706,0.20562616,0.3197138,0.41848785,0.51949775,0.6802192,0.29638925,-0.16463774,0.3856137,0.20847157,-0.2396885,-0.59538,-0.061099645,958.5714,807.8755,937.2161,861.8681,748.24176,-0.004638671875,0.00177001953125,0.991455078125,2.85614013671875,-1.801910400390625,0.994415283203125,1.0,2.0,1.0,4.0,2.0,80.0,event
11:41:17.401,0.70091385,0.37688863,0.93043804,0.12798034,0.45498022,0.14917253,0.45979702,0.4217706,0.20562616,0.3197138,0.41848785,0.51949775,0.6802192,0.29638925,-0.16463774,0.3856137,0.20847157,-0.2396885,-0.59538,-0.061099645,854.61536,806.26373,670.07324,848.5714,733.73627,-0.004638671875,0.00177001953125,0.991455078125,2.85614013671875,-1.801910400390625,0.994415283203125,1.0,2.0,1.0,4.0,2.0,80.0,event
11:41:17.455,0.70091385,0.37688863,0.93043804,0.12798034,0.45498022,0.14917253,0.45979702,0.4217706,0.20562616,0.3197138,0.41848785,0.51949775,0.6802192,0.29638925,-0.16463774,0.3856137,0.20847157,-0.2396885,-0.59538,-0.061099645,718.8278,810.293,601.5751,834.87177,726.4835,-0.0074462890625,-0.00335693359375,0.9859619140625,1.622467041015625,-2.415008544921875,0.007476806640625,1.0,2.0,1.0,4.0,2.0,80.0,event
11:41:17.456,0.70091385,0.37688863,0.93043804,0.12798034,0.45498022,0.14917253,0.45979702,0.4217706,0.20562616,0.3197138,0.41848785,0.51949775,0.6802192,0.29638925,-0.16463774,0.3856137,0.20847157,-0.2396885,-0.59538,-0.061099645,728.0952,813.1135,784.90845,835.2747,699.4872,-0.0074462890625,-0.00335693359375,0.9859619140625,1.622467041015625,-2.415008544921875,0.007476806640625,1.0,2.0,1.0,4.0,2.0,80.0,event
11:41:17.458,0.70091385,0.37688863,0.93043804,0.12798034,0.45498022,0.14917253,0.45979702,0.4217706,0.20562616,0.3197138,0.41848785,0.51949775,0.6802192,0.29638925,-0.16463774,0.3856137,0.20847157,-0.2396885,-0.59538,-0.061099645,859.0476,812.71063,811.9048,846.9597,742.6007,-0.0074462890625,-0.00335693359375,0.9859619140625,1.622467041015625,-2.415008544921875,0.007476806640625,1.0,2.0,1.0,4.0,2.0,80.0,event
11:41:17.459,0.70091385,0.37688863,0.93043804,0.12798034,0.45498022,0.14917253,0.45979702,0.4217706,0.20562616,0.3197138,0.41848785,0.51949775,0.6802192,0.29638925,-0.16463774,0.3856137,0.20847157,-0.2396885,-0.59538,-0.061099645,944.0659,807.8755,654.35895,852.6007,888.0586,-0.0074462890625,-0.00335693359375,0.9859619140625,1.622467041015625,-2.415008544921875,0.007476806640625,1.0,2.0,1.0,4.0,2.0,80.0,event
11:41:17.460,0.70091385,0.37688863,0.93043804,0.12798034,0.45498022,0.14917253,0.45979702,0.4217706,0.20562616,0.3197138,0.41848785,0.51949775,0.6802192,0.29638925,-0.16463774,0.3856137,0.20847157,-0.2396885,-0.59538,-0.061099645,862.27106,809.89014,759.92676,830.84247,758.71796,-0.0074462890625,-0.00335693359375,0.9859619140625,1.622467041015625,-2.415008544921875,0.007476806640625,1.0,2.0,1.0,4.0,2.0,80.0,event
11:41:17.461,0.70091385,0.37688863,0.93043804,0.12798034,0.45498022,0.14917253,0.45979702,0.4217706,0.20562616,0.3197138,0.41848785,0.51949775,0.6802192,0.29638925,-0.16463774,0.3856137,0.20847157,-0.2396885,-0.59538,-0.061099645,723.663,800.2198,670.07324,814.7253,736.55676,-0.0074462890625,-0.00335693359375,0.9859619140625,1.622467041015625,-2.415008544921875,0.007476806640625,1.0,2.0,1.0,4.0,2.0,80.0,event
11:41:17.461,0.70091385,0.37688863,0.93043804,0.12798034,0.45498022,0.14917253,0.45979702,0.4217706,0.20562616,0.3197138,0.41848785,0.51949775,0.6802192,0.29638925,-0.16463774,0.3856137,0.20847157,-0.2396885,-0.59538,-0.061099645,703.5165,794.57874,460.54944,822.381,992.8205,-0.0074462890625,-0.00335693359375,0.9859619140625,1.622467041015625,-2.415008544921875,0.007476806640625,1.0,2.0,1.0,4.0,2.0,80.0,event
11:41:17.462,0.70091385,0.37688863,0.93043804,0.12798034,0.45498022,0.14917253,0.45979702,0.4217706,0.20562616,0.3197138,0.41848785,0.51949775,0.6802192,0.29638925,-0.16463774,0.3856137,0.20847157,-0.2396885,-0.59538,-0.061099645,823.1868,803.0403,315.4945,836.4835,1101.2087,-0.0074462890625,-0.00335693359375,0.9859619140625,1.622467041015625,-2.415008544921875,0.007476806640625,1.0,2.0,1.0,4.0,2.0,80.0,event
11:41:17.463,0.70091385,0.37688863,0.93043804,0.12798034,0.45498022,0.14917253,0.45979702,0.4217706,0.20562616,0.3197138,0.41848785,0.51949775,0.6802192,0.29638925,-0.16463774,0.3856137,0.20847157,-0.2396885,-0.59538,-0.061099645,949.707,817.9487,747.8388,842.52747,830.84247,-0.0074462890625,-0.00335693359375,0.9859619140625,1.622467041015625,-2.415008544921875,0.007476806640625,1.0,2.0,1.0,4.0,2.0,80.0,event
11:41:17.464,0.70091385,0.37688863,0.93043804,0.12798034,0.45498022,0.14917253,0.45979702,0.4217706,0.20562616,0.3197138,0.41848785,0.51949775,0.6802192,0.29638925,-0.16463774,0.3856137,0.20847157,-0.2396885,-0.59538,-0.061099645,896.1172,813.91943,943.663,833.2601,672.0879,-0.0074462890625,-0.00335693359375,0.9859619140625,1.622467041015625,-2.415008544921875,0.007476806640625,1.0,2.0,1.0,4.0,2.0,80.0,event
11:41:17.464,0.70091385,0.37688863,0.93043804,0.12798034,0.45498022,0.14917253,0.45979702,0.4217706,0.20562616,0.3197138,0.41848785,0.51949775,0.6802192,0.29638925,-0.16463774,0.3856137,0.20847157,-0.2396885,-0.59538,-0.061099645,741.39197,804.65204,610.84247,820.3663,751.8681,-0.0074462890625,-0.00335693359375,0.9859619140625,1.622467041015625,-2.415008544921875,0.007476806640625,1.0,2.0,1.0,4.0,2.0,80.0,event
11:41:17.465,0.70091385,0.37688863,0.93043804,0.12798034,0.45498022,0.14917253,0.45979702,0.4217706,0.20562616,0.3197138,0.41848785,0.51949775,0.6802192,0.29638925,-0.16463774,0.3856137,0.20847157,-0.2396885,-0.59538,-0.061099645,711.1722,805.8608,650.7326,820.7692,802.6374,-0.0074462890625,-0.00335693359375,0.9859619140625,1.622467041015625,-2.415008544921875,0.007476806640625,1.0,2.0,1.0,4.0,2.0,80.0,event
11:41:17.512,0.70091385,0.37688863,0.93043804,0.12798034,0.45498022,0.14917253,0.45979702,0.4217706,0.20562616,0.3197138,0.41848785,0.51949775,0.6802192,0.29638925,-0.16463774,0.3856137,0.20847157,-0.2396885,-0.59538,-0.061099645,832.8571,810.696,983.1502,834.87177,730.10986,-0.0074462890625,-0.00335693359375,0.9859619140625,1.622467041015625,-2.415008544921875,0.007476806640625,1.0,2.0,1.0,4.0,2.0,80.0,event
11:41:17.513,0.70091385,0.37688863,0.93043804,0.12798034,0.45498022,0.14917253,0.45979702,0.4217706,0.20562616,0.3197138,0.41848785,0.51949775,0.6802192,0.29638925,-0.16463774,0.3856137,0.20847157,-0.2396885,-0.59538,-0.061099645,950.9158,803.44324,1034.7252,847.76556,732.9304,-0.0074462890625,-0.00335693359375,0.9859619140625,1.622467041015625,-2.415008544921875,0.007476806640625,1.0,2.0,1.0,4.0,2.0,80.0,event
11:41:17.515,0.70091385,0.37688863,0.93043804,0.12798034,0.45498022,0.14917253,0.45979702,0.4217706,0.20562616,0.3197138,0.41848785,0.51949775,0.6802192,0.29638925,-0.16463774,0.3856137,0.20847157,-0.2396885,-0.59538,-0.061099645,900.9524,800.2198,779.2674,832.8571,799.011,-0.0074462890625,-0.00335693359375,0.9859619140625,1.622467041015625,-2.415008544921875,0.007476806640625,1.0,2.0,1.0,4.0,2.0,80.0,event
11:41:17.516,0.70091385,0.37688863,0.93043804,0.12798034,0.45498022,0.14917253,0.45979702,0.4217706,0.20562616,0.3197138,0.41848785,0.51949775,0.6802192,0.29638925,-0.16463774,0.3856137,0.20847157,-0.2396885,-0.59538,-0.061099645,755.09155,801.4286,522.6007,807.0696,743.4066,-0.0074462890625,-0.00335693359375,0.9859619140625,1.622467041015625,-2.415008544921875,0.007476806640625,1.0,2.0,1.0,4.0,2.0,80.0,event
11:41:17.517,0.70091385,0.37688863,0.93043804,0.12798034,0.45498022,0.14917253,0.45979702,0.4217706,0.20562616,0.3197138,0.41848785,0.51949775,0.6802192,0.29638925,-0.16463774,0.3856137,0.20847157,-0.2396885,-0.59538,-0.061099645,706.7399,800.6227,598.3516,808.2784,685.38464,-0.0074462890625,-0.00335693359375,0.9859619140625,1.622467041015625,-2.415008544921875,0.007476806640625,1.0,2.0,1.0,4.0,2.0,80.0,event
11:41:17.518,0.70091385,0.37688863,0.93043804,0.12798034,0.45498022,0.14917253,0.45979702,0.4217706,0.20562616,0.3197138,0.41848785,0.51949775,0.6802192,0.29638925,-0.16463774,0.3856137,0.20847157,-0.2396885,-0.59538,-0.061099645,800.2198,799.81683,789.34064,819.9634,789.7436,-0.0074462890625,-0.00335693359375,0.9859619140625,1.622467041015625,-2.415008544921875,0.007476806640625,1.0,2.0,1.0,4.0,2.0,80.0,event
11:41:17.519,0.70091385,0.37688863,0.93043804,0.12798034,0.45498022,0.14917253,0.45979702,0.4217706,0.20562616,0.3197138,0.41848785,0.51949775,0.6802192,0.29638925,-0.16463774,0.3856137,0.20847157,-0.2396885,-0.59538,-0.061099645,924.7253,787.72894,400.91574,830.84247,1004.10254,-0.0074462890625,-0.00335693359375,0.9859619140625,1.622467041015625,-2.415008544921875,0.007476806640625,1.0,2.0,1.0,4.0,2.0,80.0,event
11:41:17.521,0.70091385,0.37688863,0.93043804,0.12798034,0.45498022,0.14917253,0.45979702,0.4217706,0.20562616,0.3197138,0.41848785,0.51949775,0.6802192,0.29638925,-0.16463774,0.3856137,0.20847157,-0.2396885,-0.59538,-0.061099645,901.3553,799.41394,145.05495,825.6044,1041.978,-0.0074462890625,-0.00335693359375,0.9859619140625,1.622467041015625,-2.415008544921875,0.007476806640625,1.0,2.0,1.0,4.0,2.0,80.0,event
11:41:17.522,0.70091385,0.37688863,0.93043804,0.12798034,0.45498022,0.14917253,0.45979702,0.4217706,0.20562616,0.3197138,0.41848785,0.51949775,0.6802192,0.29638925,-0.16463774,0.3856137,0.20847157,-0.2396885,-0.59538,-0.061099645,767.1795,816.337,688.60803,805.05493,749.85345,-0.0074462890625,-0.00335693359375,0.9859619140625,1.622467041015625,-2.415008544921875,0.007476806640625,1.0,2.0,1.0,4.0,2.0,80.0,event
11:41:17.523,0.70091385,0.37688863,0.93043804,0.12798034,0.45498022,0.14917253,0.45979702,0.4217706,0.20562616,0.3197138,0.41848785,0.51949775,0.6802192,0.29638925,-0.16463774,0.3856137,0.20847157,-0.2396885,-0.59538,-0.061099645,706.7399,804.2491,857.4359,805.8608,681.3553,-0.0074462890625,-0.00335693359375,0.9859619140625,1.622467041015625,-2.415008544921875,0.007476806640625,1.0,2.0,1.0,4.0,2.0,80.0,event
11:41:17.524,0.70091385,0.37688863,0.93043804,0.12798034,0.45498022,0.14917253,0.45979702,0.4217706,0.20562616,0.3197138,0.41848785,0.51949775,0.6802192,0.29638925,-0.16463774,0.3856137,0.20847157,-0.2396885,-0.59538,-0.061099645,788.5348,797.8022,800.6227,825.2015,742.1978,-0.0074462890625,-0.00335693359375,0.9859619140625,1.622467041015625,-2.415008544921875,0.007476806640625,1.0,2.0,1.0,4.0,2.0,80.0,event
11:41:17.525,0.70091385,0.37688863,0.93043804,0.12798034,0.45498022,0.14917253,0.45979702,0.4217706,0.20562616,0.3197138,0.41848785,0.51949775,0.6802192,0.29638925,-0.16463774,0.3856137,0.20847157,-0.2396885,-0.59538,-0.061099645,929.5604,798.60803,1041.5751,838.9011,796.99634,-0.0074462890625,-0.00335693359375,0.9859619140625,1.622467041015625,-2.415008544921875,0.007476806640625,1.0,2.0,1.0,4.0,2.0,80.0,event
11:41:17.559,0.70091385,0.37688863,0.93043804,0.12798034,0.45498022,0.14917253,0.45979702,0.4217706,0.20562616,0.3197138,0.41848785,0.51949775,0.6802192,0.29638925,-0.16463774,0.3856137,0.20847157,-0.2396885,-0.59538,-0.061099645,935.6044,797.8022,1084.6886,826.8132,779.2674,-0.006103515625,-0.0013427734375,0.9888916015625,2.16827392578125,-3.27484130859375,0.336456298828125,1.0,2.0,1.0,4.0,2.0,80.0,event
11:41:17.560,0.70091385,0.37688863,0.93043804,0.12798034,0.45498022,0.14917253,0.45979702,0.4217706,0.20562616,0.3197138,0.41848785,0.51949775,0.6802192,0.29638925,-0.16463774,0.3856137,0.20847157,-0.2396885,-0.59538,-0.061099645,794.17584,791.75824,785.31134,806.6667,784.10254,-0.006103515625,-0.0013427734375,0.9888916015625,2.16827392578125,-3.27484130859375,0.336456298828125,1.0,2.0,1.0,4.0,2.0,80.0,event
11:41:17.563,0.70091385,0.37688863,0.93043804,0.12798034,0.45498022,0.14917253,0.45979702,0.4217706,0.20562616,0.3197138,0.41848785,0.51949775,0.6802192,0.29638925,-0.16463774,0.3856137,0.20847157,-0.2396885,-0.59538,-0.061099645,711.5751,792.96704,662.01465,810.696,782.49084,-0.006103515625,-0.0013427734375,0.9888916015625,2.16827392578125,-3.27484130859375,0.336456298828125,1.0,2.0,1.0,4.0,2.0,80.0,event
11:41:17.564,0.70091385,0.37688863,0.93043804,0.12798034,0.45498022,0.14917253,0.45979702,0.4217706,0.20562616,0.3197138,0.41848785,0.51949775,0.6802192,0.29638925,-0.16463774,0.3856137,0.20847157,-0.2396885,-0.59538,-0.061099645,775.64105,797.3993,913.0403,823.5897,702.71063,-0.006103515625,-0.0013427734375,0.9888916015625,2.16827392578125,-3.27484130859375,0.336456298828125,1.0,2.0,1.0,4.0,2.0,80.0,event
11:41:17.565,0.70091385,0.37688863,0.93043804,0.12798034,0.45498022,0.14917253,0.45979702,0.4217706,0.20562616,0.3197138,0.41848785,0.51949775,0.6802192,0.29638925,-0.16463774,0.3856137,0.20847157,-0.2396885,-0.59538,-0.061099645,909.41394,792.1612,1070.1831,829.2308,720.84247,-0.006103515625,-0.0013427734375,0.9888916015625,2.16827392578125,-3.27484130859375,0.336456298828125,1.0,2.0,1.0,4.0,2.0,80.0,event
11:41:17.566,0.70091385,0.37688863,0.93043804,0.12798034,0.45498022,0.14917253,0.45979702,0.4217706,0.20562616,0.3197138,0.41848785,0.51949775,0.6802192,0.29638925,-0.16463774,0.3856137,0.20847157,-0.2396885,-0.59538,-0.061099645,926.7399,779.67035,686.99634,826.8132,925.12823,-0.006103515625,-0.0013427734375,0.9888916015625,2.16827392578125,-3.27484130859375,0.336456298828125,1.0,2.0,1.0,4.0,2.0,80.0,event
11:41:17.567,0.70091385,0.37688863,0.93043804,0.12798034,0.45498022,0.14917253,0.45979702,0.4217706,0.20562616,0.3197138,0.41848785,0.51949775,0.6802192,0.29638925,-0.16463774,0.3856137,0.20847157,-0.2396885,-0.59538,-0.061099645,793.36993,782.0879,284.06595,815.5311,1029.8901,-0.006103515625,-0.0013427734375,0.9888916015625,2.16827392578125,-3.27484130859375,0.336456298828125,1.0,2.0,1.0,4.0,2.0,80.0,event
11:41:17.567,0.70091385,0.37688863,0.93043804,0.12798034,0.45498022,0.14917253,0.45979702,0.4217706,0.20562616,0.3197138,0.41848785,0.51949775,0.6802192,0.29638925,-0.16463774,0.3856137,0.20847157,-0.2396885,-0.59538,-0.061099645,700.696,801.8315,539.92676,807.8755,893.2967,-0.006103515625,-0.0013427734375,0.9888916015625,2.16827392578125,-3.27484130859375,0.336456298828125,1.0,2.0,1.0,4.0,2.0,80.0,event
11:41:17.568,0.70091385,0.37688863,0.93043804,0.12798034,0.45498022,0.14917253,0.45979702,0.4217706,0.20562616,0.3197138,0.41848785,0.51949775,0.6802192,0.29638925,-0.16463774,0.3856137,0.20847157,-0.2396885,-0.59538,-0.061099645,752.27106,805.8608,926.337,811.50183,747.8388,-0.006103515625,-0.0013427734375,0.9888916015625,2.16827392578125,-3.27484130859375,0.336456298828125,1.0,2.0,1.0,4.0,2.0,80.0,event
11:41:17.569,0.70091385,0.37688863,0.93043804,0.12798034,0.45498022,0.14917253,0.45979702,0.4217706,0.20562616,0.3197138,0.41848785,0.51949775,0.6802192,0.29638925,-0.16463774,0.3856137,0.20847157,-0.2396885,-0.59538,-0.061099645,890.07324,788.5348,752.27106,828.8278,827.619,-0.006103515625,-0.0013427734375,0.9888916015625,2.16827392578125,-3.27484130859375,0.336456298828125,1.0,2.0,1.0,4.0,2.0,80.0,event
11:41:17.569,0.70091385,0.37688863,0.93043804,0.12798034,0.45498022,0.14917253,0.45979702,0.4217706,0.20562616,0.3197138,0.41848785,0.51949775,0.6802192,0.29638925,-0.16463774,0.3856137,0.20847157,-0.2396885,-0.59538,-0.061099645,937.2161,786.1172,440.40292,831.6484,962.6007,-0.006103515625,-0.0013427734375,0.9888916015625,2.16827392578125,-3.27484130859375,0.336456298828125,1.0,2.0,1.0,4.0,2.0,80.0,event
11:41:17.570,0.70091385,0.37688863,0.93043804,0.12798034,0.45498022,0.14917253,0.45979702,0.4217706,0.20562616,0.3197138,0.41848785,0.51949775,0.6802192,0.29638925,-0.16463774,0.3856137,0.20847157,-0.2396885,-0.59538,-0.061099645,824.7985,800.6227,797.8022,810.696,755.4945,-0.006103515625,-0.0013427734375,0.9888916015625,2.16827392578125,-3.27484130859375,0.336456298828125,1.0,2.0,1.0,4.0,2.0,80.0,event
11:41:17.571,0.70091385,0.37688863,0.93043804,0.12798034,0.45498022,0.14917253,0.45979702,0.4217706,0.20562616,0.3197138,0.41848785,0.51949775,0.6802192,0.29638925,-0.16463774,0.3856137,0.20847157,-0.2396885,-0.59538,-0.061099645,712.381,798.20514,996.4469,819.5604,766.77655,-0.01080322265625,-0.00640869140625,0.98663330078125,1.74957275390625,-2.594451904296875,0.299072265625,1.0,2.0,1.0,4.0,2.0,80.0,event
11:41:17.572,0.70091385,0.37688863,0.93043804,0.12798034,0.45498022,0.14917253,0.45979702,0.4217706,0.20562616,0.3197138,0.41848785,0.51949775,0.6802192,0.29638925,-0.16463774,0.3856137,0.20847157,-0.2396885,-0.59538,-0.061099645,736.55676,790.54944,861.4652,834.0659,798.20514,-0.01080322265625,-0.00640869140625,0.98663330078125,1.74957275390625,-2.594451904296875,0.299072265625,1.0,2.0,1.0,4.0,2.0,80.0,event
11:41:17.573,0.70091385,0.37688863,0.93043804,0.12798034,0.45498022,0.14917253,0.45979702,0.4217706,0.20562616,0.3197138,0.41848785,0.51949775,0.6802192,0.29638925,-0.16463774,0.3856137,0.20847157,-0.2396885,-0.59538,-0.061099645,872.74725,788.5348,930.7692,838.9011,775.2381,-0.01080322265625,-0.00640869140625,0.98663330078125,1.74957275390625,-2.594451904296875,0.299072265625,1.0,2.0,1.0,4.0,2.0,80.0,event
11:41:17.574,0.70091385,0.37688863,0.93043804,0.12798034,0.45498022,0.14917253,0.45979702,0.4217706,0.20562616,0.3197138,0.41848785,0.51949775,0.6802192,0.29638925,-0.16463774,0.3856137,0.20847157,-0.2396885,-0.59538,-0.061099645,839.304,788.5348,882.01465,828.4249,736.9597,-0.01080322265625,-0.00640869140625,0.98663330078125,1.74957275390625,-2.594451904296875,0.299072265625,1.0,2.0,1.0,4.0,2.0,80.0,event
11:41:17.574,0.70091385,0.37688863,0.93043804,0.12798034,0.45498022,0.14917253,0.45979702,0.4217706,0.20562616,0.3197138,0.41848785,0.51949775,0.6802192,0.29638925,-0.16463774,0.3856137,0.20847157,-0.2396885,-0.59538,-0.061099645,945.6777,791.3553,1054.0659,840.10986,779.2674,-0.01080322265625,-0.00640869140625,0.98663330078125,1.74957275390625,-2.594451904296875,0.299072265625,1.0,2.0,1.0,4.0,2.0,80.0,event
11:41:17.575,0.70091385,0.37688863,0.93043804,0.12798034,0.45498022,0.14917253,0.45979702,0.4217706,0.20562616,0.3197138,0.41848785,0.51949775,0.6802192,0.29638925,-0.16463774,0.3856137,0.20847157,-0.2396885,-0.59538,-0.061099645,711.5751,781.685,598.7546,819.15753,815.9341,-0.01080322265625,-0.00640869140625,0.98663330078125,1.74957275390625,-2.594451904296875,0.299072265625,1.0,2.0,1.0,4.0,2.0,80.0,event
11:41:17.576,0.70091385,0.37688863,0.93043804,0.12798034,0.45498022,0.14917253,0.45979702,0.4217706,0.20562616,0.3197138,0.41848785,0.51949775,0.6802192,0.29638925,-0.16463774,0.3856137,0.20847157,-0.2396885,-0.59538,-0.061099645,725.2747,788.5348,558.86444,824.3956,888.86444,-0.01080322265625,-0.00640869140625,0.98663330078125,1.74957275390625,-2.594451904296875,0.299072265625,1.0,2.0,1.0,4.0,2.0,80.0,event
11:41:17.577,0.70091385,0.37688863,0.93043804,0.12798034,0.45498022,0.14917253,0.45979702,0.4217706,0.20562616,0.3197138,0.41848785,0.51949775,0.6802192,0.29638925,-0.16463774,0.3856137,0.20847157,-0.2396885,-0.59538,-0.061099645,865.89746,804.65204,873.95605,843.73627,780.87915,-0.01080322265625,-0.00640869140625,0.98663330078125,1.74957275390625,-2.594451904296875,0.299072265625,1.0,2.0,1.0,4.0,2.0,80.0,event
11:41:17.577,0.70091385,0.37688863,0.93043804,0.12798034,0.45498022,0.14917253,0.45979702,0.4217706,0.20562616,0.3197138,0.41848785,0.51949775,0.6802192,0.29638925,-0.16463774,0.3856137,0.20847157,-0.2396885,-0.59538,-0.061099645,946.4835,795.78754,1012.96704,840.5128,730.9158,-0.01080322265625,-0.00640869140625,0.98663330078125,1.74957275390625,-2.594451904296875,0.299072265625,1.0,2.0,1.0,4.0,2.0,80.0,event
11:41:17.578,0.70091385,0.37688863,0.93043804,0.12798034,0.45498022,0.14917253,0.45979702,0.4217706,0.20562616,0.3197138,0.41848785,0.51949775,0.6802192,0.29638925,-0.16463774,0.3856137,0.20847157,-0.2396885,-0.59538,-0.061099645,834.87177,778.46155,432.74725,808.2784,944.0659,-0.01080322265625,-0.00640869140625,0.98663330078125,1.74957275390625,-2.594451904296875,0.299072265625,1.0,2.0,1.0,4.0,2.0,80.0,event
11:41:17.579,0.70091385,0.37688863,0.93043804,0.12798034,0.45498022,0.14917253,0.45979702,0.4217706,0.20562616,0.3197138,0.41848785,0.51949775,0.6802192,0.29638925,-0.16463774,0.3856137,0.20847157,-0.2396885,-0.59538,-0.061099645,700.696,791.3553,345.31134,785.31134,941.6484,-0.01080322265625,-0.00640869140625,0.98663330078125,1.74957275390625,-2.594451904296875,0.299072265625,1.0,2.0,1.0,4.0,2.0,80.0,event
11:41:17.579,0.70091385,0.37688863,0.93043804,0.12798034,0.45498022,0.14917253,0.45979702,0.4217706,0.20562616,0.3197138,0.41848785,0.51949775,0.6802192,0.29638925,-0.16463774,0.3856137,0.20847157,-0.2396885,-0.59538,-0.061099645,710.3663,803.44324,958.97437,795.78754,730.5128,-0.01080322265625,-0.00640869140625,0.98663330078125,1.74957275390625,-2.594451904296875,0.299072265625,1.0,2.0,1.0,4.0,2.0,80.0,event
11:41:17.629,0.70091385,0.37688863,0.93043804,0.12798034,0.45498022,0.14917253,0.45979702,0.4217706,0.20562616,0.3197138,0.41848785,0.51949775,0.6802192,0.29638925,-0.16463774,0.3856137,0.20847157,-0.2396885,-0.59538,-0.061099645,842.52747,790.14655,947.6923,823.1868,788.93774,-0.01495361328125,0.00244140625,0.98834228515625,2.893524169921875,-3.237457275390625,1.338348388671875,1.0,2.0,1.0,4.0,2.0,80.0,event
11:41:17.630,0.70091385,0.37688863,0.93043804,0.12798034,0.45498022,0.14917253,0.45979702,0.4217706,0.20562616,0.3197138,0.41848785,0.51949775,0.6802192,0.29638925,-0.16463774,0.3856137,0.20847157,-0.2396885,-0.59538,-0.061099645,938.022,782.49084,674.10254,830.0366,863.47986,-0.01495361328125,0.00244140625,0.98834228515625,2.893524169921875,-3.237457275390625,1.338348388671875,1.0,2.0,1.0,4.0,2.0,80.0,event
11:41:17.632,0.70091385,0.37688863,0.93043804,0.12798034,0.45498022,0.14917253,0.45979702,0.4217706,0.20562616,0.3197138,0.41848785,0.51949775,0.6802192,0.29638925,-0.16463774,0.3856137,0.20847157,-0.2396885,-0.59538,-0.061099645,865.09155,792.5641,743.00366,807.0696,740.18317,-0.01495361328125,0.00244140625,0.98834228515625,2.893524169921875,-3.237457275390625,1.338348388671875,1.0,2.0,1.0,4.0,2.0,80.0,event
11:41:17.633,0.70091385,0.37688863,0.93043804,0.12798034,0.45498022,0.14917253,0.45979702,0.4217706,0.20562616,0.3197138,0.41848785,0.51949775,0.6802192,0.29638925,-0.16463774,0.3856137,0.20847157,-0.2396885,-0.59538,-0.061099645,728.9011,793.36993,881.2088,790.54944,658.7912,-0.01495361328125,0.00244140625,0.98834228515625,2.893524169921875,-3.237457275390625,1.338348388671875,1.0,2.0,1.0,4.0,2.0,80.0,event
11:41:17.637,0.70091385,0.37688863,0.93043804,0.12798034,0.45498022,0.14917253,0.45979702,0.4217706,0.20562616,0.3197138,0.41848785,0.51949775,0.6802192,0.29638925,-0.16463774,0.3856137,0.20847157,-0.2396885,-0.59538,-0.061099645,807.47253,780.4762,632.6007,807.47253,851.79486,-0.01495361328125,0.00244140625,0.98834228515625,2.893524169921875,-3.237457275390625,1.338348388671875,1.0,2.0,1.0,4.0,2.0,80.0,event
11:41:17.637,0.70091385,0.37688863,0.93043804,0.12798034,0.45498022,0.14917253,0.45979702,0.4217706,0.20562616,0.3197138,0.41848785,0.51949775,0.6802192,0.29638925,-0.16463774,0.3856137,0.20847157,-0.2396885,-0.59538,-0.061099645,699.4872,785.7143,796.99634,796.99634,764.7619,-0.01495361328125,0.00244140625,0.98834228515625,2.893524169921875,-3.237457275390625,1.338348388671875,1.0,2.0,1.0,4.0,2.0,80.0,event
11:41:17.638,0.70091385,0.37688863,0.93043804,0.12798034,0.45498022,0.14917253,0.45979702,0.4217706,0.20562616,0.3197138,0.41848785,0.51949775,0.6802192,0.29638925,-0.16463774,0.3856137,0.20847157,-0.2396885,-0.59538,-0.061099645,916.26373,786.1172,635.82416,819.15753,882.01465,-0.01495361328125,0.00244140625,0.98834228515625,2.893524169921875,-3.237457275390625,1.338348388671875,1.0,2.0,1.0,4.0,2.0,80.0,event
11:41:17.639,0.70091385,0.37688863,0.93043804,0.12798034,0.45498022,0.14917253,0.45979702,0.4217706,0.20562616,0.3197138,0.41848785,0.51949775,0.6802192,0.29638925,-0.16463774,0.3856137,0.20847157,-0.2396885,-0.59538,-0.061099645,865.89746,794.17584,805.8608,808.68134,791.3553,-0.01495361328125,0.00244140625,0.98834228515625,2.893524169921875,-3.237457275390625,1.338348388671875,1.0,2.0,1.0,4.0,2.0,80.0,event
11:41:17.640,0.70091385,0.37688863,0.93043804,0.12798034,0.45498022,0.14917253,0.45979702,0.4217706,0.20562616,0.3197138,0.41848785,0.51949775,0.6802192,0.29638925,-0.16463774,0.3856137,0.20847157,-0.2396885,-0.59538,-0.061099645,711.1722,778.0586,609.6337,790.9524,825.6044,-0.01495361328125,0.00244140625,0.98834228515625,2.893524169921875,-3.237457275390625,1.338348388671875,1.0,2.0,1.0,4.0,2.0,80.0,event
11:41:17.640,0.70091385,0.37688863,0.93043804,0.12798034,0.45498022,0.14917253,0.45979702,0.4217706,0.20562616,0.3197138,0.41848785,0.51949775,0.6802192,0.29638925,-0.16463774,0.3856137,0.20847157,-0.2396885,-0.59538,-0.061099645,668.0586,776.8498,257.47253,801.4286,978.71796,-0.01495361328125,0.00244140625,0.98834228515625,2.893524169921875,-3.237457275390625,1.338348388671875,1.0,2.0,1.0,4.0,2.0,80.0,event
11:41:17.644,0.70091385,0.37688863,0.93043804,0.12798034,0.45498022,0.14917253,0.45979702,0.4217706,0.20562616,0.3197138,0.41848785,0.51949775,0.6802192,0.29638925,-0.16463774,0.3856137,0.20847157,-0.2396885,-0.59538,-0.061099645,792.1612,799.41394,767.98535,821.978,817.9487,-0.01495361328125,0.00244140625,0.98834228515625,2.893524169921875,-3.237457275390625,1.338348388671875,1.0,2.0,1.0,4.0,2.0,80.0,event
11:41:17.645,0.70091385,0.37688863,0.93043804,0.12798034,0.45498022,0.14917253,0.45979702,0.4217706,0.20562616,0.3197138,0.41848785,0.51949775,0.6802192,0.29638925,-0.16463774,0.3856137,0.20847157,-0.2396885,-0.59538,-0.061099645,915.8608,794.9817,1100.8059,832.4542,752.674,-0.01495361328125,0.00244140625,0.98834228515625,2.893524169921875,-3.237457275390625,1.338348388671875,1.0,2.0,1.0,4.0,2.0,80.0,event
11:41:17.669,0.70091385,0.37688863,0.93043804,0.12798034,0.45498022,0.14917253,0.45979702,0.4217706,0.20562616,0.3197138,0.41848785,0.51949775,0.6802192,0.29638925,-0.16463774,0.3856137,0.20847157,-0.2396885,-0.59538,-0.061099645,875.9707,789.34064,773.6264,815.9341,861.4652,-0.0125732421875,-0.00341796875,0.98577880859375,2.10845947265625,-2.953338623046875,0.680389404296875,1.0,2.0,1.0,4.0,2.0,80.0,event
11:41:17.671,0.70091385,0.37688863,0.93043804,0.12798034,0.45498022,0.14917253,0.45979702,0.4217706,0.20562616,0.3197138,0.41848785,0.51949775,0.6802192,0.29638925,-0.16463774,0.3856137,0.20847157,-0.2396885,-0.59538,-0.061099645,734.1392,796.5934,633.4066,800.2198,910.6227,-0.0125732421875,-0.00341796875,0.98577880859375,2.10845947265625,-2.953338623046875,0.680389404296875,1.0,2.0,1.0,4.0,2.0,80.0,event
11:41:17.672,0.70091385,0.37688863,0.93043804,0.12798034,0.45498022,0.14917253,0.45979702,0.4217706,0.20562616,0.3197138,0.41848785,0.51949775,0.6802192,0.29638925,-0.16463774,0.3856137,0.20847157,-0.2396885,-0.59538,-0.061099645,686.5934,799.011,892.49084,815.12823,779.67035,-0.0125732421875,-0.00341796875,0.98577880859375,2.10845947265625,-2.953338623046875,0.680389404296875,1.0,2.0,1.0,4.0,2.0,80.0,event
11:41:17.674,0.70091385,0.37688863,0.93043804,0.12798034,0.45498022,0.14917253,0.45979702,0.4217706,0.20562616,0.3197138,0.41848785,0.51949775,0.6802192,0.29638925,-0.16463774,0.3856137,0.20847157,-0.2396885,-0.59538,-0.061099645,780.87915,791.75824,987.98535,830.4396,714.7985,-0.0125732421875,-0.00341796875,0.98577880859375,2.10845947265625,-2.953338623046875,0.680389404296875,1.0,2.0,1.0,4.0,2.0,80.0,event
11:41:17.675,0.70091385,0.37688863,0.93043804,0.12798034,0.45498022,0.14917253,0.45979702,0.4217706,0.20562616,0.3197138,0.41848785,0.51949775,0.6802192,0.29638925,-0.16463774,0.3856137,0.20847157,-0.2396885,-0.59538,-0.061099645,903.36993,792.1612,736.1539,839.304,850.989,-0.0125732421875,-0.00341796875,0.98577880859375,2.10845947265625,-2.953338623046875,0.680389404296875,1.0,2.0,1.0,4.0,2.0,80.0,event
11:41:17.677,0.70091385,0.37688863,0.93043804,0.12798034,0.45498022,0.14917253,0.45979702,0.4217706,0.20562616,0.3197138,0.41848785,0.51949775,0.6802192,0.29638925,-0.16463774,0.3856137,0.20847157,-0.2396885,-0.59538,-0.061099645,887.6557,793.7729,529.85345,834.0659,885.2381,-0.0125732421875,-0.00341796875,0.98577880859375,2.10845947265625,-2.953338623046875,0.680389404296875,1.0,2.0,1.0,4.0,2.0,80.0,event
11:41:17.678,0.70091385,0.37688863,0.93043804,0.12798034,0.45498022,0.14917253,0.45979702,0.4217706,0.20562616,0.3197138,0.41848785,0.51949775,0.6802192,0.29638925,-0.16463774,0.3856137,0.20847157,-0.2396885,-0.59538,-0.061099645,754.2857,791.75824,510.91574,812.3077,780.07324,-0.0125732421875,-0.00341796875,0.98577880859375,2.10845947265625,-2.953338623046875,0.680389404296875,1.0,2.0,1.0,4.0,2.0,80.0,event
11:41:17.679,0.70091385,0.37688863,0.93043804,0.12798034,0.45498022,0.14917253,0.45979702,0.4217706,0.20562616,0.3197138,0.41848785,0.51949775,0.6802192,0.29638925,-0.16463774,0.3856137,0.20847157,-0.2396885,-0.59538,-0.061099645,687.3993,792.96704,565.31134,807.8755,691.02563,-0.0125732421875,-0.00341796875,0.98577880859375,2.10845947265625,-2.953338623046875,0.680389404296875,1.0,2.0,1.0,4.0,2.0,80.0,event
11:41:17.680,0.70091385,0.37688863,0.93043804,0.12798034,0.45498022,0.14917253,0.45979702,0.4217706,0.20562616,0.3197138,0.41848785,0.51949775,0.6802192,0.29638925,-0.16463774,0.3856137,0.20847157,-0.2396885,-0.59538,-0.061099645,742.6007,780.07324,252.23444,823.1868,821.5751,-0.0125732421875,-0.00341796875,0.98577880859375,2.10845947265625,-2.953338623046875,0.680389404296875,1.0,2.0,1.0,4.0,2.0,80.0,event
11:41:17.681,0.70091385,0.37688863,0.93043804,0.12798034,0.45498022,0.14917253,0.45979702,0.4217706,0.20562616,0.3197138,0.41848785,0.51949775,0.6802192,0.29638925,-0.16463774,0.3856137,0.20847157,-0.2396885,-0.59538,-0.061099645,878.3883,784.5055,273.99268,834.87177,909.41394,-0.0125732421875,-0.00341796875,0.98577880859375,2.10845947265625,-2.953338623046875,0.680389404296875,1.0,2.0,1.0,4.0,2.0,80.0,event
11:41:17.682,0.70091385,0.37688863,0.93043804,0.12798034,0.45498022,0.14917253,0.45979702,0.4217706,0.20562616,0.3197138,0.41848785,0.51949775,0.6802192,0.29638925,-0.16463774,0.3856137,0.20847157,-0.2396885,-0.59538,-0.061099645,916.6667,790.9524,914.2491,828.8278,732.52747,-0.0125732421875,-0.00341796875,0.98577880859375,2.10845947265625,-2.953338623046875,0.680389404296875,1.0,2.0,1.0,4.0,2.0,80.0,event
11:41:17.682,0.70091385,0.37688863,0.93043804,0.12798034,0.45498022,0.14917253,0.45979702,0.4217706,0.20562616,0.3197138,0.41848785,0.51949775,0.6802192,0.29638925,-0.16463774,0.3856137,0.20847157,-0.2396885,-0.59538,-0.061099645,776.8498,781.685,797.3993,809.0842,704.7253,-0.0125732421875,-0.00341796875,0.98577880859375,2.10845947265625,-2.953338623046875,0.680389404296875,1.0,2.0,1.0,4.0,2.0,80.0,event
11:41:17.730,0.70091385,0.37688863,0.93043804,0.12798034,0.45498022,0.14917253,0.45979702,0.4217706,0.20562616,0.3197138,0.41848785,0.51949775,0.6802192,0.29638925,-0.16463774,0.3856137,0.20847157,-0.2396885,-0.59538,-0.061099645,674.5055,795.38464,640.65936,784.90845,701.50183,-0.0125732421875,-0.00341796875,0.98577880859375,2.10845947265625,-2.953338623046875,0.680389404296875,1.0,2.0,1.0,4.0,2.0,80.0,event
11:41:17.732,0.70091385,0.37688863,0.93043804,0.12798034,0.45498022,0.14917253,0.45979702,0.4217706,0.20562616,0.3197138,0.41848785,0.51949775,0.6802192,0.29638925,-0.16463774,0.3856137,0.20847157,-0.2396885,-0.59538,-0.061099645,732.9304,796.99634,898.1319,792.5641,694.65204,-0.0125732421875,-0.00341796875,0.98577880859375,2.10845947265625,-2.953338623046875,0.680389404296875,1.0,2.0,1.0,4.0,2.0,80.0,event
11:41:17.732,0.70091385,0.37688863,0.93043804,0.12798034,0.45498022,0.14917253,0.45979702,0.4217706,0.20562616,0.3197138,0.41848785,0.51949775,0.6802192,0.29638925,-0.16463774,0.3856137,0.20847157,-0.2396885,-0.59538,-0.061099645,892.49084,788.1319,1068.5714,816.7399,718.4249,-0.0125732421875,-0.00341796875,0.98577880859375,2.10845947265625,-2.953338623046875,0.680389404296875,1.0,2.0,1.0,4.0,2.0,80.0,event
11:41:17.733,0.70091385,0.37688863,0.93043804,0.12798034,0.45498022,0.14917253,0.45979702,0.4217706,0.20562616,0.3197138,0.41848785,0.51949775,0.6802192,0.29638925,-0.16463774,0.3856137,0.20847157,-0.2396885,-0.59538,-0.061099645,943.663,781.28204,863.47986,819.9634,823.5897,-0.0125732421875,-0.00341796875,0.98577880859375,2.10845947265625,-2.953338623046875,0.680389404296875,1.0,2.0,1.0,4.0,2.0,80.0,event
11:41:17.734,0.70091385,0.37688863,0.93043804,0.12798034,0.45498022,0.14917253,0.45979702,0.4217706,0.20562616,0.3197138,0.41848785,0.51949775,0.6802192,0.29638925,-0.16463774,0.3856137,0.20847157,-0.2396885,-0.59538,-0.061099645,818.7546,780.07324,593.1135,806.6667,918.68134,-0.0125732421875,-0.00341796875,0.98577880859375,2.10845947265625,-2.953338623046875,0.680389404296875,1.0,2.0,1.0,4.0,2.0,80.0,event
11:41:17.735,0.70091385,0.37688863,0.93043804,0.12798034,0.45498022,0.14917253,0.45979702,0.4217706,0.20562616,0.3197138,0.41848785,0.51949775,0.6802192,0.29638925,-0.16463774,0.3856137,0.20847157,-0.2396885,-0.59538,-0.061099645,709.15753,787.72894,595.5311,793.36993,846.1539,-0.0125732421875,-0.00341796875,0.98577880859375,2.10845947265625,-2.953338623046875,0.680389404296875,1.0,2.0,1.0,4.0,2.0,80.0,event
11:41:17.739,0.70091385,0.37688863,0.93043804,0.12798034,0.45498022,0.14917253,0.45979702,0.4217706,0.20562616,0.3197138,0.41848785,0.51949775,0.6802192,0.29638925,-0.16463774,0.3856137,0.20847157,-0.2396885,-0.59538,-0.061099645,741.39197,790.9524,668.46155,794.57874,795.78754,-0.0125732421875,-0.00341796875,0.98577880859375,2.10845947265625,-2.953338623046875,0.680389404296875,1.0,2.0,1.0,4.0,2.0,80.0,event
11:41:17.740,0.70091385,0.37688863,0.93043804,0.12798034,0.45498022,0.14917253,0.45979702,0.4217706,0.20562616,0.3197138,0.41848785,0.51949775,0.6802192,0.29638925,-0.16463774,0.3856137,0.20847157,-0.2396885,-0.59538,-0.061099645,882.01465,778.86444,647.9121,811.9048,886.4469,-0.0125732421875,-0.00341796875,0.98577880859375,2.10845947265625,-2.953338623046875,0.680389404296875,1.0,2.0,1.0,4.0,2.0,80.0,event
11:41:17.741,0.70091385,0.37688863,0.93043804,0.12798034,0.45498022,0.14917253,0.45979702,0.4217706,0.20562616,0.3197138,0.41848785,0.51949775,0.6802192,0.29638925,-0.16463774,0.3856137,0.20847157,-0.2396885,-0.59538,-0.061099645,929.15753,770.40295,203.47986,811.0989,1117.326,-0.0125732421875,-0.00341796875,0.98577880859375,2.10845947265625,-2.953338623046875,0.680389404296875,1.0,2.0,1.0,4.0,2.0,80.0,event
11:41:17.742,0.70091385,0.37688863,0.93043804,0.12798034,0.45498022,0.14917253,0.45979702,0.4217706,0.20562616,0.3197138,0.41848785,0.51949775,0.6802192,0.29638925,-0.16463774,0.3856137,0.20847157,-0.2396885,-0.59538,-0.061099645,819.15753,793.7729,423.88278,786.1172,904.57874,-0.0125732421875,-0.00341796875,0.98577880859375,2.10845947265625,-2.953338623046875,0.680389404296875,1.0,2.0,1.0,4.0,2.0,80.0,event
11:41:17.744,0.70091385,0.37688863,0.93043804,0.12798034,0.45498022,0.14917253,0.45979702,0.4217706,0.20562616,0.3197138,0.41848785,0.51949775,0.6802192,0.29638925,-0.16463774,0.3856137,0.20847157,-0.2396885,-0.59538,-0.061099645,707.9487,797.3993,915.4579,779.2674,630.58606,-0.0125732421875,-0.00341796875,0.98577880859375,2.10845947265625,-2.953338623046875,0.680389404296875,1.0,2.0,1.0,4.0,2.0,80.0,event
11:41:17.745,0.70091385,0.37688863,0.93043804,0.12798034,0.45498022,0.14917253,0.45979702,0.4217706,0.20562616,0.3197138,0.41848785,0.51949775,0.6802192,0.29638925,-0.16463774,0.3856137,0.20847157,-0.2396885,-0.59538,-0.061099645,712.381,788.5348,795.38464,782.8938,692.6374,-0.0125732421875,-0.00341796875,0.98577880859375,2.10845947265625,-2.953338623046875,0.680389404296875,1.0,2.0,1.0,4.0,2.0,80.0,event
11:41:17.794,0.70091385,0.37688863,0.93043804,0.12798034,0.45498022,0.14917253,0.45979702,0.4217706,0.20562616,0.3197138,0.41848785,0.51949775,0.6802192,0.29638925,-0.16463774,0.3856137,0.20847157,-0.2396885,-0.59538,-0.061099645,849.7802,794.9817,926.337,794.9817,780.87915,-0.0089111328125,0.00238037109375,0.99359130859375,2.489776611328125,-4.882354736328125,1.136474609375,1.0,2.0,1.0,4.0,2.0,80.0,event
11:41:17.796,0.70091385,0.37688863,0.93043804,0.12798034,0.45498022,0.14917253,0.45979702,0.4217706,0.20562616,0.3197138,0.41848785,0.51949775,0.6802192,0.29638925,-0.16463774,0.3856137,0.20847157,-0.2396885,-0.59538,-0.061099645,940.0366,793.7729,1056.8865,803.8461,729.707,-0.0089111328125,0.00238037109375,0.99359130859375,2.489776611328125,-4.882354736328125,1.136474609375,1.0,2.0,1.0,4.0,2.0,80.0,event
11:41:17.797,0.70091385,0.37688863,0.93043804,0.12798034,0.45498022,0.14917253,0.45979702,0.4217706,0.20562616,0.3197138,0.41848785,0.51949775,0.6802192,0.29638925,-0.16463774,0.3856137,0.20847157,-0.2396885,-0.59538,-0.061099645,842.52747,787.72894,870.7326,794.9817,670.87915,-0.0089111328125,0.00238037109375,0.99359130859375,2.489776611328125,-4.882354736328125,1.136474609375,1.0,2.0,1.0,4.0,2.0,80.0,event
11:41:17.798,0.70091385,0.37688863,0.93043804,0.12798034,0.45498022,0.14917253,0.45979702,0.4217706,0.20562616,0.3197138,0.41848785,0.51949775,0.6802192,0.29638925,-0.16463774,0.3856137,0.20847157,-0.2396885,-0.59538,-0.061099645,701.0989,788.1319,742.6007,781.28204,728.49817,-0.0089111328125,0.00238037109375,0.99359130859375,2.489776611328125,-4.882354736328125,1.136474609375,1.0,2.0,1.0,4.0,2.0,80.0,event
11:41:17.799,0.70091385,0.37688863,0.93043804,0.12798034,0.45498022,0.14917253,0.45979702,0.4217706,0.20562616,0.3197138,0.41848785,0.51949775,0.6802192,0.29638925,-0.16463774,0.3856137,0.20847157,-0.2396885,-0.59538,-0.061099645,698.2784,790.54944,811.50183,782.0879,703.91943,-0.0089111328125,0.00238037109375,0.99359130859375,2.489776611328125,-4.882354736328125,1.136474609375,1.0,2.0,1.0,4.0,2.0,80.0,event
11:41:17.800,0.70091385,0.37688863,0.93043804,0.12798034,0.45498022,0.14917253,0.45979702,0.4217706,0.20562616,0.3197138,0.41848785,0.51949775,0.6802192,0.29638925,-0.16463774,0.3856137,0.20847157,-0.2396885,-0.59538,-0.061099645,827.2161,786.9231,801.4286,803.0403,751.06226,-0.0089111328125,0.00238037109375,0.99359130859375,2.489776611328125,-4.882354736328125,1.136474609375,1.0,2.0,1.0,4.0,2.0,80.0,event
11:41:17.801,0.70091385,0.37688863,0.93043804,0.12798034,0.45498022,0.14917253,0.45979702,0.4217706,0.20562616,0.3197138,0.41848785,0.51949775,0.6802192,0.29638925,-0.16463774,0.3856137,0.20847157,-0.2396885,-0.59538,-0.061099645,927.1429,792.96704,785.7143,811.0989,878.7912,-0.0089111328125,0.00238037109375,0.99359130859375,2.489776611328125,-4.882354736328125,1.136474609375,1.0,2.0,1.0,4.0,2.0,80.0,event
11:41:17.801,0.70091385,0.37688863,0.93043804,0.12798034,0.45498022,0.14917253,0.45979702,0.4217706,0.20562616,0.3197138,0.41848785,0.51949775,0.6802192,0.29638925,-0.16463774,0.3856137,0.20847157,-0.2396885,-0.59538,-0.061099645,843.73627,786.1172,371.90475,795.78754,1113.6996,-0.0089111328125,0.00238037109375,0.99359130859375,2.489776611328125,-4.882354736328125,1.136474609375,1.0,2.0,1.0,4.0,2.0,80.0,event
11:41:17.802,0.70091385,0.37688863,0.93043804,0.12798034,0.45498022,0.14917253,0.45979702,0.4217706,0.20562616,0.3197138,0.41848785,0.51949775,0.6802192,0.29638925,-0.16463774,0.3856137,0.20847157,-0.2396885,-0.59538,-0.061099645,699.89014,791.3553,141.02563,777.6557,1052.4542,-0.0089111328125,0.00238037109375,0.99359130859375,2.489776611328125,-4.882354736328125,1.136474609375,1.0,2.0,1.0,4.0,2.0,80.0,event
11:41:17.803,0.70091385,0.37688863,0.93043804,0.12798034,0.45498022,0.14917253,0.45979702,0.4217706,0.20562616,0.3197138,0.41848785,0.51949775,0.6802192,0.29638925,-0.16463774,0.3856137,0.20847157,-0.2396885,-0.59538,-0.061099645,692.23444,814.3223,792.1612,777.25275,717.619,-0.0089111328125,0.00238037109375,0.99359130859375,2.489776611328125,-4.882354736328125,1.136474609375,1.0,2.0,1.0,4.0,2.0,80.0,event
11:41:17.803,0.70091385,0.37688863,0.93043804,0.12798034,0.45498022,0.14917253,0.45979702,0.4217706,0.20562616,0.3197138,0.41848785,0.51949775,0.6802192,0.29638925,-0.16463774,0.3856137,0.20847157,-0.2396885,-0.59538,-0.061099645,811.9048,801.4286,967.8388,793.36993,723.2601,-0.0089111328125,0.00238037109375,0.99359130859375,2.489776611328125,-4.882354736328125,1.136474609375,1.0,2.0,1.0,4.0,2.0,80.0,event
11:41:17.804,0.70091385,0.37688863,0.93043804,0.12798034,0.45498022,0.14917253,0.45979702,0.4217706,0.20562616,0.3197138,0.41848785,0.51949775,0.6802192,0.29638925,-0.16463774,0.3856137,0.20847157,-0.2396885,-0.59538,-0.061099645,911.4286,793.36993,799.011,801.02563,735.34796,-0.0089111328125,0.00238037109375,0.99359130859375,2.489776611328125,-4.882354736328125,1.136474609375,1.0,2.0,1.0,4.0,2.0,80.0,event
11:41:17.837,0.70091385,0.37688863,0.93043804,0.12798034,0.45498022,0.14917253,0.45979702,0.4217706,0.20562616,0.3197138,0.41848785,0.51949775,0.6802192,0.29638925,-0.16463774,0.3856137,0.20847157,-0.2396885,-0.59538,-0.061099645,860.2564,800.6227,900.54944,791.3553,688.60803,-0.00640869140625,-0.00469970703125,0.9852294921875,1.74957275390625,-3.745880126953125,0.10467529296875,1.0,2.0,1.0,4.0,2.0,80.0,event
11:41:17.839,0.70091385,0.37688863,0.93043804,0.12798034,0.45498022,0.14917253,0.45979702,0.4217706,0.20562616,0.3197138,0.41848785,0.51949775,0.6802192,0.29638925,-0.16463774,0.3856137,0.20847157,-0.2396885,-0.59538,-0.061099645,716.4103,796.1905,961.39197,767.5824,657.5824,-0.00640869140625,-0.00469970703125,0.9852294921875,1.74957275390625,-3.745880126953125,0.10467529296875,1.0,2.0,1.0,4.0,2.0,80.0,event
11:41:17.839,0.70091385,0.37688863,0.93043804,0.12798034,0.45498022,0.14917253,0.45979702,0.4217706,0.20562616,0.3197138,0.41848785,0.51949775,0.6802192,0.29638925,-0.16463774,0.3856137,0.20847157,-0.2396885,-0.59538,-0.061099645,657.5824,783.69965,778.86444,761.53845,687.3993,-0.00640869140625,-0.00469970703125,0.9852294921875,1.74957275390625,-3.745880126953125,0.10467529296875,1.0,2.0,1.0,4.0,2.0,80.0,event
11:41:17.840,0.70091385,0.37688863,0.93043804,0.12798034,0.45498022,0.14917253,0.45979702,0.4217706,0.20562616,0.3197138,0.41848785,0.51949775,0.6802192,0.29638925,-0.16463774,0.3856137,0.20847157,-0.2396885,-0.59538,-0.061099645,774.0293,788.5348,759.12085,784.5055,760.32965,-0.00640869140625,-0.00469970703125,0.9852294921875,1.74957275390625,-3.745880126953125,0.10467529296875,1.0,2.0,1.0,4.0,2.0,80.0,event
11:41:17.841,0.70091385,0.37688863,0.93043804,0.12798034,0.45498022,0.14917253,0.45979702,0.4217706,0.20562616,0.3197138,0.41848785,0.51949775,0.6802192,0.29638925,-0.16463774,0.3856137,0.20847157,-0.2396885,-0.59538,-0.061099645,914.65204,795.78754,977.50916,796.1905,763.95605,-0.00640869140625,-0.00469970703125,0.9852294921875,1.74957275390625,-3.745880126953125,0.10467529296875,1.0,2.0,1.0,4.0,2.0,80.0,event
11:41:17.842,0.70091385,0.37688863,0.93043804,0.12798034,0.45498022,0.14917253,0.45979702,0.4217706,0.20562616,0.3197138,0.41848785,0.51949775,0.6802192,0.29638925,-0.16463774,0.3856137,0.20847157,-0.2396885,-0.59538,-0.061099645,735.34796,787.72894,433.15018,782.0879,909.011,-0.00640869140625,-0.00469970703125,0.9852294921875,1.74957275390625,-3.745880126953125,0.10467529296875,1.0,2.0,1.0,4.0,2.0,80.0,event
11:41:17.842,0.70091385,0.37688863,0.93043804,0.12798034,0.45498022,0.14917253,0.45979702,0.4217706,0.20562616,0.3197138,0.41848785,0.51949775,0.6802192,0.29638925,-0.16463774,0.3856137,0.20847157,-0.2396885,-0.59538,-0.061099645,882.01465,792.1612,813.91943,790.9524,747.03296,-0.00640869140625,-0.00469970703125,0.9852294921875,1.74957275390625,-3.745880126953125,0.10467529296875,1.0,2.0,1.0,4.0,2.0,80.0,event
11:41:17.844,0.70091385,0.37688863,0.93043804,0.12798034,0.45498022,0.14917253,0.45979702,0.4217706,0.20562616,0.3197138,0.41848785,0.51949775,0.6802192,0.29638925,-0.16463774,0.3856137,0.20847157,-0.2396885,-0.59538,-0.061099645,681.75824,792.1612,236.11722,781.28204,1072.6007,-0.00640869140625,-0.00469970703125,0.9852294921875,1.74957275390625,-3.745880126953125,0.10467529296875,1.0,2.0,1.0,4.0,2.0,80.0,event
11:41:17.848,0.70091385,0.37688863,0.93043804,0.12798034,0.45498022,0.14917253,0.45979702,0.4217706,0.20562616,0.3197138,0.41848785,0.51949775,0.6802192,0.29638925,-0.16463774,0.3856137,0.20847157,-0.2396885,-0.59538,-0.061099645,785.7143,813.5165,769.59705,788.93774,880.80585,-0.00640869140625,-0.00469970703125,0.9852294921875,1.74957275390625,-3.745880126953125,0.10467529296875,1.0,2.0,1.0,4.0,2.0,80.0,event
11:41:17.850,0.70091385,0.37688863,0.93043804,0.12798034,0.45498022,0.14917253,0.45979702,0.4217706,0.20562616,0.3197138,0.41848785,0.51949775,0.6802192,0.29638925,-0.16463774,0.3856137,0.20847157,-0.2396885,-0.59538,-0.061099645,919.4872,810.293,1094.762,800.2198,753.47986,-0.00640869140625,-0.00469970703125,0.9852294921875,1.74957275390625,-3.745880126953125,0.10467529296875,1.0,2.0,1.0,4.0,2.0,80.0,event
11:41:17.851,0.70091385,0.37688863,0.93043804,0.12798034,0.45498022,0.14917253,0.45979702,0.4217706,0.20562616,0.3197138,0.41848785,0.51949775,0.6802192,0.29638925,-0.16463774,0.3856137,0.20847157,-0.2396885,-0.59538,-0.061099645,906.99634,797.3993,740.58606,803.44324,835.2747,-0.00640869140625,-0.00469970703125,0.9852294921875,1.74957275390625,-3.745880126953125,0.10467529296875,1.0,2.0,1.0,4.0,2.0,80.0,event
11:41:17.852,0.70091385,0.37688863,0.93043804,0.12798034,0.45498022,0.14917253,0.45979702,0.4217706,0.20562616,0.3197138,0.41848785,0.51949775,0.6802192,0.29638925,-0.16463774,0.3856137,0.20847157,-0.2396885,-0.59538,-0.061099645,763.5531,804.65204,666.8498,787.326,791.75824,-0.00640869140625,-0.00469970703125,0.9852294921875,1.74957275390625,-3.745880126953125,0.10467529296875,1.0,2.0,1.0,4.0,2.0,80.0,event
11:41:17.898,0.70091385,0.37688863,0.93043804,0.12798034,0.45498022,0.14917253,0.45979702,0.4217706,0.20562616,0.3197138,0.41848785,0.51949775,0.6802192,0.29638925,-0.16463774,0.3856137,0.20847157,-0.2396885,-0.59538,-0.061099645,693.0403,811.0989,938.8278,781.685,716.8132,-0.0013427734375,-0.006103515625,0.9853515625,2.893524169921875,-2.983245849609375,0.515899658203125,1.0,2.0,1.0,4.0,2.0,80.0,event
11:41:17.900,0.70091385,0.37688863,0.93043804,0.12798034,0.45498022,0.14917253,0.45979702,0.4217706,0.20562616,0.3197138,0.41848785,0.51949775,0.6802192,0.29638925,-0.16463774,0.3856137,0.20847157,-0.2396885,-0.59538,-0.061099645,765.9707,803.8461,997.25275,792.1612,709.5604,-0.0013427734375,-0.006103515625,0.9853515625,2.893524169921875,-2.983245849609375,0.515899658203125,1.0,2.0,1.0,4.0,2.0,80.0,event
11:41:17.901,0.70091385,0.37688863,0.93043804,0.12798034,0.45498022,0.14917253,0.45979702,0.4217706,0.20562616,0.3197138,0.41848785,0.51949775,0.6802192,0.29638925,-0.16463774,0.3856137,0.20847157,-0.2396885,-0.59538,-0.061099645,900.54944,803.8461,807.8755,804.65204,758.71796,-0.0013427734375,-0.006103515625,0.9853515625,2.893524169921875,-2.983245849609375,0.515899658203125,1.0,2.0,1.0,4.0,2.0,80.0,event
11:41:17.901,0.70091385,0.37688863,0.93043804,0.12798034,0.45498022,0.14917253,0.45979702,0.4217706,0.20562616,0.3197138,0.41848785,0.51949775,0.6802192,0.29638925,-0.16463774,0.3856137,0.20847157,-0.2396885,-0.59538,-0.061099645,920.696,817.5458,795.78754,807.47253,790.54944,-0.0013427734375,-0.006103515625,0.9853515625,2.893524169921875,-2.983245849609375,0.515899658203125,1.0,2.0,1.0,4.0,2.0,80.0,event
11:41:17.902,0.70091385,0.37688863,0.93043804,0.12798034,0.45498022,0.14917253,0.45979702,0.4217706,0.20562616,0.3197138,0.41848785,0.51949775,0.6802192,0.29638925,-0.16463774,0.3856137,0.20847157,-0.2396885,-0.59538,-0.061099645,781.685,814.7253,865.4945,789.7436,737.3626,-0.0013427734375,-0.006103515625,0.9853515625,2.893524169921875,-2.983245849609375,0.515899658203125,1.0,2.0,1.0,4.0,2.0,80.0,event
11:41:17.903,0.70091385,0.37688863,0.93043804,0.12798034,0.45498022,0.14917253,0.45979702,0.4217706,0.20562616,0.3197138,0.41848785,0.51949775,0.6802192,0.29638925,-0.16463774,0.3856137,0.20847157,-0.2396885,-0.59538,-0.061099645,687.8022,807.8755,727.6923,782.0879,760.32965,-0.0013427734375,-0.006103515625,0.9853515625,2.893524169921875,-2.983245849609375,0.515899658203125,1.0,2.0,1.0,4.0,2.0,80.0,event
11:41:17.904,0.70091385,0.37688863,0.93043804,0.12798034,0.45498022,0.14917253,0.45979702,0.4217706,0.20562616,0.3197138,0.41848785,0.51949775,0.6802192,0.29638925,-0.16463774,0.3856137,0.20847157,-0.2396885,-0.59538,-0.061099645,880.0,800.6227,329.19415,828.022,1047.2161,-0.0013427734375,-0.006103515625,0.9853515625,2.893524169921875,-2.983245849609375,0.515899658203125,1.0,2.0,1.0,4.0,2.0,80.0,event
11:41:17.904,0.70091385,0.37688863,0.93043804,0.12798034,0.45498022,0.14917253,0.45979702,0.4217706,0.20562616,0.3197138,0.41848785,0.51949775,0.6802192,0.29638925,-0.16463774,0.3856137,0.20847157,-0.2396885,-0.59538,-0.061099645,740.18317,796.5934,321.9414,805.4579,1058.0952,-0.0013427734375,-0.006103515625,0.9853515625,2.893524169921875,-2.983245849609375,0.515899658203125,1.0,2.0,1.0,4.0,2.0,80.0,event
11:41:17.905,0.70091385,0.37688863,0.93043804,0.12798034,0.45498022,0.14917253,0.45979702,0.4217706,0.20562616,0.3197138,0.41848785,0.51949775,0.6802192,0.29638925,-0.16463774,0.3856137,0.20847157,-0.2396885,-0.59538,-0.061099645,923.1135,818.3516,900.14655,815.12823,722.8571,-0.0013427734375,-0.006103515625,0.9853515625,2.893524169921875,-2.983245849609375,0.515899658203125,1.0,2.0,1.0,4.0,2.0,80.0,event
11:41:17.906,0.70091385,0.37688863,0.93043804,0.12798034,0.45498022,0.14917253,0.45979702,0.4217706,0.20562616,0.3197138,0.41848785,0.51949775,0.6802192,0.29638925,-0.16463774,0.3856137,0.20847157,-0.2396885,-0.59538,-0.061099645,787.326,805.4579,823.9927,791.75824,683.36993,-0.0013427734375,-0.006103515625,0.9853515625,2.893524169921875,-2.983245849609375,0.515899658203125,1.0,2.0,1.0,4.0,2.0,80.0,event
11:41:17.907,0.70091385,0.37688863,0.93043804,0.12798034,0.45498022,0.14917253,0.45979702,0.4217706,0.20562616,0.3197138,0.41848785,0.51949775,0.6802192,0.29638925,-0.16463774,0.3856137,0.20847157,-0.2396885,-0.59538,-0.061099645,687.3993,797.3993,611.2454,794.17584,750.65936,-0.0013427734375,-0.006103515625,0.9853515625,2.893524169921875,-2.983245849609375,0.515899658203125,1.0,2.0,1.0,4.0,2.0,80.0,event
11:41:17.907,0.70091385,0.37688863,0.93043804,0.12798034,0.45498022,0.14917253,0.45979702,0.4217706,0.20562616,0.3197138,0.41848785,0.51949775,0.6802192,0.29638925,-0.16463774,0.3856137,0.20847157,-0.2396885,-0.59538,-0.061099645,731.31866,802.23444,814.3223,806.6667,816.337,-0.0013427734375,-0.006103515625,0.9853515625,2.893524169921875,-2.983245849609375,0.515899658203125,1.0,2.0,1.0,4.0,2.0,80.0,event
11:41:17.939,0.70091385,0.37688863,0.93043804,0.12798034,0.45498022,0.14917253,0.45979702,0.4217706,0.20562616,0.3197138,0.41848785,0.51949775,0.6802192,0.29638925,-0.16463774,0.3856137,0.20847157,-0.2396885,-0.59538,-0.061099645,873.95605,803.8461,1049.6337,818.3516,748.24176,-0.01251220703125,-0.0008544921875,0.9844970703125,2.280426025390625,-2.295379638671875,0.844879150390625,1.0,2.0,1.0,4.0,2.0,80.0,event
11:41:17.940,0.70091385,0.37688863,0.93043804,0.12798034,0.45498022,0.14917253,0.45979702,0.4217706,0.20562616,0.3197138,0.41848785,0.51949775,0.6802192,0.29638925,-0.16463774,0.3856137,0.20847157,-0.2396885,-0.59538,-0.061099645,923.91943,793.36993,755.09155,825.2015,770.80585,-0.01251220703125,-0.0008544921875,0.9844970703125,2.280426025390625,-2.295379638671875,0.844879150390625,1.0,2.0,1.0,4.0,2.0,80.0,event
11:41:17.942,0.70091385,0.37688863,0.93043804,0.12798034,0.45498022,0.14917253,0.45979702,0.4217706,0.20562616,0.3197138,0.41848785,0.51949775,0.6802192,0.29638925,-0.16463774,0.3856137,0.20847157,-0.2396885,-0.59538,-0.061099645,796.1905,791.75824,364.24908,807.8755,865.89746,-0.01251220703125,-0.0008544921875,0.9844970703125,2.280426025390625,-2.295379638671875,0.844879150390625,1.0,2.0,1.0,4.0,2.0,80.0,event
11:41:17.943,0.70091385,0.37688863,0.93043804,0.12798034,0.45498022,0.14917253,0.45979702,0.4217706,0.20562616,0.3197138,0.41848785,0.51949775,0.6802192,0.29638925,-0.16463774,0.3856137,0.20847157,-0.2396885,-0.59538,-0.061099645,684.17584,812.3077,677.72894,792.1612,777.6557,-0.01251220703125,-0.0008544921875,0.9844970703125,2.280426025390625,-2.295379638671875,0.844879150390625,1.0,2.0,1.0,4.0,2.0,80.0,event
11:41:17.944,0.70091385,0.37688863,0.93043804,0.12798034,0.45498022,0.14917253,0.45979702,0.4217706,0.20562616,0.3197138,0.41848785,0.51949775,0.6802192,0.29638925,-0.16463774,0.3856137,0.20847157,-0.2396885,-0.59538,-0.061099645,716.8132,812.71063,1017.8022,811.0989,707.1429,-0.01251220703125,-0.0008544921875,0.9844970703125,2.280426025390625,-2.295379638671875,0.844879150390625,1.0,2.0,1.0,4.0,2.0,80.0,event
11:41:17.945,0.70091385,0.37688863,0.93043804,0.12798034,0.45498022,0.14917253,0.45979702,0.4217706,0.20562616,0.3197138,0.41848785,0.51949775,0.6802192,0.29638925,-0.16463774,0.3856137,0.20847157,-0.2396885,-0.59538,-0.061099645,863.47986,787.326,667.6557,850.58606,892.8938,-0.01251220703125,-0.0008544921875,0.9844970703125,2.280426025390625,-2.295379638671875,0.844879150390625,1.0,2.0,1.0,4.0,2.0,80.0,event
11:41:17.946,0.70091385,0.37688863,0.93043804,0.12798034,0.45498022,0.14917253,0.45979702,0.4217706,0.20562616,0.3197138,0.41848785,0.51949775,0.6802192,0.29638925,-0.16463774,0.3856137,0.20847157,-0.2396885,-0.59538,-0.061099645,826.8132,836.4835,676.9231,794.57874,835.2747,-0.01251220703125,-0.0008544921875,0.9844970703125,2.280426025390625,-2.295379638671875,0.844879150390625,1.0,2.0,1.0,4.0,2.0,80.0,event
11:41:17.946,0.70091385,0.37688863,0.93043804,0.12798034,0.45498022,0.14917253,0.45979702,0.4217706,0.20562616,0.3197138,0.41848785,0.51949775,0.6802192,0.29638925,-0.16463774,0.3856137,0.20847157,-0.2396885,-0.59538,-0.061099645,942.4542,801.02563,309.45056,852.1978,1041.978,-0.01251220703125,-0.0008544921875,0.9844970703125,2.280426025390625,-2.295379638671875,0.844879150390625,1.0,2.0,1.0,4.0,2.0,80.0,event
11:41:17.947,0.70091385,0.37688863,0.93043804,0.12798034,0.45498022,0.14917253,0.45979702,0.4217706,0.20562616,0.3197138,0.41848785,0.51949775,0.6802192,0.29638925,-0.16463774,0.3856137,0.20847157,-0.2396885,-0.59538,-0.061099645,679.7436,828.022,961.39197,755.4945,679.7436,-0.01251220703125,-0.0008544921875,0.9844970703125,2.280426025390625,-2.295379638671875,0.844879150390625,1.0,2.0,1.0,4.0,2.0,80.0,event
11:41:17.948,0.70091385,0.37688863,0.93043804,0.12798034,0.45498022,0.14917253,0.45979702,0.4217706,0.20562616,0.3197138,0.41848785,0.51949775,0.6802192,0.29638925,-0.16463774,0.3856137,0.20847157,-0.2396885,-0.59538,-0.061099645,684.57874,810.696,662.4176,766.77655,784.10254,-0.01251220703125,-0.0008544921875,0.9844970703125,2.280426025390625,-2.295379638671875,0.844879150390625,1.0,2.0,1.0,4.0,2.0,80.0,event
11:41:17.952,0.70091385,0.37688863,0.93043804,0.12798034,0.45498022,0.14917253,0.45979702,0.4217706,0.20562616,0.3197138,0.41848785,0.51949775,0.6802192,0.29638925,-0.16463774,0.3856137,0.20847157,-0.2396885,-0.59538,-0.061099645,821.1722,818.3516,586.6667,786.1172,836.8865,-0.01251220703125,-0.0008544921875,0.9844970703125,2.280426025390625,-2.295379638671875,0.844879150390625,1.0,2.0,1.0,4.0,2.0,80.0,event
11:41:17.953,0.70091385,0.37688863,0.93043804,0.12798034,0.45498022,0.14917253,0.45979702,0.4217706,0.20562616,0.3197138,0.41848785,0.51949775,0.6802192,0.29638925,-0.16463774,0.3856137,0.20847157,-0.2396885,-0.59538,-0.061099645,898.93774,837.28937,944.4689,771.6117,721.6484,-0.01251220703125,-0.0008544921875,0.9844970703125,2.280426025390625,-2.295379638671875,0.844879150390625,1.0,2.0,1.0,4.0,2.0,80.0,event
11:41:17.954,0.70091385,0.37688863,0.93043804,0.12798034,0.45498022,0.14917253,0.45979702,0.4217706,0.20562616,0.3197138,0.41848785,0.51949775,0.6802192,0.29638925,-0.16463774,0.3856137,0.20847157,-0.2396885,-0.59538,-0.061099645,805.05493,822.381,903.36993,747.03296,706.7399,-0.01251220703125,-0.0008544921875,0.9844970703125,2.280426025390625,-2.295379638671875,0.844879150390625,1.0,2.0,1.0,4.0,2.0,80.0,event
11:41:17.955,0.70091385,0.37688863,0.93043804,0.12798034,0.45498022,0.14917253,0.45979702,0.4217706,0.20562616,0.3197138,0.41848785,0.51949775,0.6802192,0.29638925,-0.16463774,0.3856137,0.20847157,-0.2396885,-0.59538,-0.061099645,668.0586,822.381,678.5348,732.1245,738.5714,-0.01251220703125,-0.0008544921875,0.9844970703125,2.280426025390625,-2.295379638671875,0.844879150390625,1.0,2.0,1.0,4.0,2.0,80.0,event
11:41:17.956,0.70091385,0.37688863,0.93043804,0.12798034,0.45498022,0.14917253,0.45979702,0.4217706,0.20562616,0.3197138,0.41848785,0.51949775,0.6802192,0.29638925,-0.16463774,0.3856137,0.20847157,-0.2396885,-0.59538,-0.061099645,651.13556,833.2601,767.98535,741.39197,757.9121,-0.01251220703125,-0.0008544921875,0.9844970703125,2.280426025390625,-2.295379638671875,0.844879150390625,1.0,2.0,1.0,4.0,2.0,80.0,event
11:41:17.956,0.70091385,0.37688863,0.93043804,0.12798034,0.45498022,0.14917253,0.45979702,0.4217706,0.20562616,0.3197138,0.41848785,0.51949775,0.6802192,0.29638925,-0.16463774,0.3856137,0.20847157,-0.2396885,-0.59538,-0.061099645,781.685,828.022,959.7802,770.0,728.9011,-0.01251220703125,-0.0008544921875,0.9844970703125,2.280426025390625,-2.295379638671875,0.844879150390625,1.0,2.0,1.0,4.0,2.0,80.0,event
11:41:17.957,0.70091385,0.37688863,0.93043804,0.12798034,0.45498022,0.14917253,0.45979702,0.4217706,0.20562616,0.3197138,0.41848785,0.51949775,0.6802192,0.29638925,-0.16463774,0.3856137,0.20847157,-0.2396885,-0.59538,-0.061099645,891.28204,828.4249,871.9414,774.83514,827.2161,-0.01251220703125,-0.0008544921875,0.9844970703125,2.280426025390625,-2.295379638671875,0.844879150390625,1.0,2.0,1.0,4.0,2.0,80.0,event
11:41:17.958,0.70091385,0.37688863,0.93043804,0.12798034,0.45498022,0.14917253,0.45979702,0.4217706,0.20562616,0.3197138,0.41848785,0.51949775,0.6802192,0.29638925,-0.16463774,0.3856137,0.20847157,-0.2396885,-0.59538,-0.061099645,828.8278,826.8132,558.86444,766.77655,954.5421,-0.01251220703125,-0.0008544921875,0.9844970703125,2.280426025390625,-2.295379638671875,0.844879150390625,1.0,2.0,1.0,4.0,2.0,80.0,event
11:41:17.959,0.70091385,0.37688863,0.93043804,0.12798034,0.45498022,0.14917253,0.45979702,0.4217706,0.20562616,0.3197138,0.41848785,0.51949775,0.6802192,0.29638925,-0.16463774,0.3856137,0.20847157,-0.2396885,-0.59538,-0.061099645,679.34064,837.6923,670.87915,777.6557,796.99634,-0.01251220703125,-0.0008544921875,0.9844970703125,2.280426025390625,-2.295379638671875,0.844879150390625,1.0,2.0,1.0,4.0,2.0,80.0,event
11:41:17.959,0.70091385,0.37688863,0.93043804,0.12798034,0.45498022,0.14917253,0.45979702,0.4217706,0.20562616,0.3197138,0.41848785,0.51949775,0.6802192,0.29638925,-0.16463774,0.3856137,0.20847157,-0.2396885,-0.59538,-0.061099645,698.68134,831.2454,435.9707,768.7912,919.0842,-0.01251220703125,-0.0008544921875,0.9844970703125,2.280426025390625,-2.295379638671875,0.844879150390625,1.0,2.0,1.0,4.0,2.0,80.0,event
11:41:17.960,0.70091385,0.37688863,0.93043804,0.12798034,0.45498022,0.14917253,0.45979702,0.4217706,0.20562616,0.3197138,0.41848785,0.51949775,0.6802192,0.29638925,-0.16463774,0.3856137,0.20847157,-0.2396885,-0.59538,-0.061099645,794.9817,834.87177,956.9597,789.7436,730.10986,-0.01251220703125,-0.0008544921875,0.9844970703125,2.280426025390625,-2.295379638671875,0.844879150390625,1.0,2.0,1.0,4.0,2.0,80.0,event
11:41:17.961,0.70091385,0.37688863,0.93043804,0.12798034,0.45498022,0.14917253,0.45979702,0.4217706,0.20562616,0.3197138,0.41848785,0.51949775,0.6802192,0.29638925,-0.16463774,0.3856137,0.20847157,-0.2396885,-0.59538,-0.061099645,901.75824,820.7692,460.54944,805.4579,978.315,-0.01251220703125,-0.0008544921875,0.9844970703125,2.280426025390625,-2.295379638671875,0.844879150390625,1.0,2.0,1.0,4.0,2.0,80.0,event
11:41:17.961,0.70091385,0.37688863,0.93043804,0.12798034,0.45498022,0.14917253,0.45979702,0.4217706,0.20562616,0.3197138,0.41848785,0.51949775,0.6802192,0.29638925,-0.16463774,0.3856137,0.20847157,-0.2396885,-0.59538,-0.061099645,863.8828,834.4689,249.81685,795.78754,993.6264,-0.01251220703125,-0.0008544921875,0.9844970703125,2.280426025390625,-2.295379638671875,0.844879150390625,1.0,2.0,1.0,4.0,2.0,80.0,event
11:41:17.962,0.70091385,0.37688863,0.93043804,0.12798034,0.45498022,0.14917253,0.45979702,0.4217706,0.20562616,0.3197138,0.41848785,0.51949775,0.6802192,0.29638925,-0.16463774,0.3856137,0.20847157,-0.2396885,-0.59538,-0.061099645,732.9304,850.18317,796.1905,769.59705,651.9414,-0.01251220703125,-0.0008544921875,0.9844970703125,2.280426025390625,-2.295379638671875,0.844879150390625,1.0,2.0,1.0,4.0,2.0,80.0,event
11:41:17.989,0.70091385,0.37688863,0.93043804,0.12798034,0.45498022,0.14917253,0.45979702,0.4217706,0.20562616,0.3197138,0.41848785,0.51949775,0.6802192,0.29638925,-0.16463774,0.3856137,0.20847157,-0.2396885,-0.59538,-0.061099645,683.7729,838.9011,778.86444,775.2381,669.2674,-0.0103759765625,0.00152587890625,0.99163818359375,2.1533203125,-3.2598876953125,-0.10467529296875,1.0,2.0,1.0,4.0,2.0,80.0,event
11:41:17.990,0.70091385,0.37688863,0.93043804,0.12798034,0.45498022,0.14917253,0.45979702,0.4217706,0.20562616,0.3197138,0.41848785,0.51949775,0.6802192,0.29638925,-0.16463774,0.3856137,0.20847157,-0.2396885,-0.59538,-0.061099645,790.9524,835.6777,699.89014,792.5641,729.707,-0.0103759765625,0.00152587890625,0.99163818359375,2.1533203125,-3.2598876953125,-0.10467529296875,1.0,2.0,1.0,4.0,2.0,80.0,event
11:41:17.991,0.70091385,0.37688863,0.93043804,0.12798034,0.45498022,0.14917253,0.45979702,0.4217706,0.20562616,0.3197138,0.41848785,0.51949775,0.6802192,0.29638925,-0.16463774,0.3856137,0.20847157,-0.2396885,-0.59538,-0.061099645,927.5458,840.10986,914.2491,805.4579,723.663,-0.0103759765625,0.00152587890625,0.99163818359375,2.1533203125,-3.2598876953125,-0.10467529296875,1.0,2.0,1.0,4.0,2.0,80.0,event
11:41:17.993,0.70091385,0.37688863,0.93043804,0.12798034,0.45498022,0.14917253,0.45979702,0.4217706,0.20562616,0.3197138,0.41848785,0.51949775,0.6802192,0.29638925,-0.16463774,0.3856137,0.20847157,-0.2396885,-0.59538,-0.061099645,908.20514,837.6923,992.4176,798.60803,716.0073,-0.0103759765625,0.00152587890625,0.99163818359375,2.1533203125,-3.2598876953125,-0.10467529296875,1.0,2.0,1.0,4.0,2.0,80.0,event
11:41:17.994,0.70091385,0.37688863,0.93043804,0.12798034,0.45498022,0.14917253,0.45979702,0.4217706,0.20562616,0.3197138,0.41848785,0.51949775,0.6802192,0.29638925,-0.16463774,0.3856137,0.20847157,-0.2396885,-0.59538,-0.061099645,753.0769,827.2161,736.1539,786.9231,715.6044,-0.0103759765625,0.00152587890625,0.99163818359375,2.1533203125,-3.2598876953125,-0.10467529296875,1.0,2.0,1.0,4.0,2.0,80.0,event
11:41:17.995,0.70091385,0.37688863,0.93043804,0.12798034,0.45498022,0.14917253,0.45979702,0.4217706,0.20562616,0.3197138,0.41848785,0.51949775,0.6802192,0.29638925,-0.16463774,0.3856137,0.20847157,-0.2396885,-0.59538,-0.061099645,684.57874,829.6337,524.61536,787.326,797.3993,-0.0103759765625,0.00152587890625,0.99163818359375,2.1533203125,-3.2598876953125,-0.10467529296875,1.0,2.0,1.0,4.0,2.0,80.0,event
11:41:17.996,0.70091385,0.37688863,0.93043804,0.12798034,0.45498022,0.14917253,0.45979702,0.4217706,0.20562616,0.3197138,0.41848785,0.51949775,0.6802192,0.29638925,-0.16463774,0.3856137,0.20847157,-0.2396885,-0.59538,-0.061099645,773.6264,832.0513,597.1429,789.34064,810.696,-0.0103759765625,0.00152587890625,0.99163818359375,2.1533203125,-3.2598876953125,-0.10467529296875,1.0,2.0,1.0,4.0,2.0,80.0,event
11:41:17.997,0.70091385,0.37688863,0.93043804,0.12798034,0.45498022,0.14917253,0.45979702,0.4217706,0.20562616,0.3197138,0.41848785,0.51949775,0.6802192,0.29638925,-0.16463774,0.3856137,0.20847157,-0.2396885,-0.59538,-0.061099645,911.8315,823.5897,752.27106,807.47253,780.07324,-0.0103759765625,0.00152587890625,0.99163818359375,2.1533203125,-3.2598876953125,-0.10467529296875,1.0,2.0,1.0,4.0,2.0,80.0,event
11:41:17.998,0.70091385,0.37688863,0.93043804,0.12798034,0.45498022,0.14917253,0.45979702,0.4217706,0.20562616,0.3197138,0.41848785,0.51949775,0.6802192,0.29638925,-0.16463774,0.3856137,0.20847157,-0.2396885,-0.59538,-0.061099645,903.7729,813.1135,593.91943,809.0842,896.9231,-0.0103759765625,0.00152587890625,0.99163818359375,2.1533203125,-3.2598876953125,-0.10467529296875,1.0,2.0,1.0,4.0,2.0,80.0,event
11:41:17.999,0.70091385,0.37688863,0.93043804,0.12798034,0.45498022,0.14917253,0.45979702,0.4217706,0.20562616,0.3197138,0.41848785,0.51949775,0.6802192,0.29638925,-0.16463774,0.3856137,0.20847157,-0.2396885,-0.59538,-0.061099645,741.79486,808.2784,77.36264,783.2967,1052.8572,-0.0103759765625,0.00152587890625,0.99163818359375,2.1533203125,-3.2598876953125,-0.10467529296875,1.0,2.0,1.0,4.0,2.0,80.0,event
11:41:18.000,0.70091385,0.37688863,0.93043804,0.12798034,0.45498022,0.14917253,0.45979702,0.4217706,0.20562616,0.3197138,0.41848785,0.51949775,0.6802192,0.29638925,-0.16463774,0.3856137,0.20847157,-0.2396885,-0.59538,-0.061099645,675.7143,830.84247,424.2857,780.4762,820.3663,-0.0103759765625,0.00152587890625,0.99163818359375,2.1533203125,-3.2598876953125,-0.10467529296875,1.0,2.0,1.0,4.0,2.0,80.0,event
11:41:18.001,0.70091385,0.37688863,0.93043804,0.12798034,0.45498022,0.14917253,0.45979702,0.4217706,0.20562616,0.3197138,0.41848785,0.51949775,0.6802192,0.29638925,-0.16463774,0.3856137,0.20847157,-0.2396885,-0.59538,-0.061099645,762.74725,833.2601,943.2601,796.99634,626.1539,-0.0103759765625,0.00152587890625,0.99163818359375,2.1533203125,-3.2598876953125,-0.10467529296875,1.0,2.0,1.0,4.0,2.0,80.0,event
11:41:18.032,0.70091385,0.37688863,0.93043804,0.12798034,0.45498022,0.14917253,0.45979702,0.4217706,0.20562616,0.3197138,0.41848785,0.51949775,0.6802192,0.29638925,-0.16463774,0.3856137,0.20847157,-0.2396885,-0.59538,-0.061099645,896.1172,821.5751,844.94507,806.26373,733.73627,-0.00726318359375,0.0001220703125,0.98626708984375,1.966400146484375,-3.170166015625,0.0897216796875,1.0,2.0,1.0,4.0,2.0,80.0,event
11:41:18.033,0.70091385,0.37688863,0.93043804,0.12798034,0.45498022,0.14917253,0.45979702,0.4217706,0.20562616,0.3197138,0.41848785,0.51949775,0.6802192,0.29638925,-0.16463774,0.3856137,0.20847157,-0.2396885,-0.59538,-0.061099645,926.337,820.3663,866.7033,803.44324,738.97437,-0.00726318359375,0.0001220703125,0.98626708984375,1.966400146484375,-3.170166015625,0.0897216796875,1.0,2.0,1.0,4.0,2.0,80.0,event
11:41:18.034,0.70091385,0.37688863,0.93043804,0.12798034,0.45498022,0.14917253,0.45979702,0.4217706,0.20562616,0.3197138,0.41848785,0.51949775,0.6802192,0.29638925,-0.16463774,0.3856137,0.20847157,-0.2396885,-0.59538,-0.061099645,794.9817,821.1722,896.1172,788.5348,641.8681,-0.00726318359375,0.0001220703125,0.98626708984375,1.966400146484375,-3.170166015625,0.0897216796875,1.0,2.0,1.0,4.0,2.0,80.0,event
11:41:18.035,0.70091385,0.37688863,0.93043804,0.12798034,0.45498022,0.14917253,0.45979702,0.4217706,0.20562616,0.3197138,0.41848785,0.51949775,0.6802192,0.29638925,-0.16463774,0.3856137,0.20847157,-0.2396885,-0.59538,-0.061099645,696.26373,819.9634,826.8132,787.72894,608.4249,-0.00726318359375,0.0001220703125,0.98626708984375,1.966400146484375,-3.170166015625,0.0897216796875,1.0,2.0,1.0,4.0,2.0,80.0,event
11:41:18.035,0.70091385,0.37688863,0.93043804,0.12798034,0.45498022,0.14917253,0.45979702,0.4217706,0.20562616,0.3197138,0.41848785,0.51949775,0.6802192,0.29638925,-0.16463774,0.3856137,0.20847157,-0.2396885,-0.59538,-0.061099645,737.76556,809.0842,756.30035,793.36993,696.26373,-0.00726318359375,0.0001220703125,0.98626708984375,1.966400146484375,-3.170166015625,0.0897216796875,1.0,2.0,1.0,4.0,2.0,80.0,event
11:41:18.036,0.70091385,0.37688863,0.93043804,0.12798034,0.45498022,0.14917253,0.45979702,0.4217706,0.20562616,0.3197138,0.41848785,0.51949775,0.6802192,0.29638925,-0.16463774,0.3856137,0.20847157,-0.2396885,-0.59538,-0.061099645,875.16486,806.26373,749.0476,802.23444,843.3333,-0.00726318359375,0.0001220703125,0.98626708984375,1.966400146484375,-3.170166015625,0.0897216796875,1.0,2.0,1.0,4.0,2.0,80.0,event
11:41:18.037,0.70091385,0.37688863,0.93043804,0.12798034,0.45498022,0.14917253,0.45979702,0.4217706,0.20562616,0.3197138,0.41848785,0.51949775,0.6802192,0.29638925,-0.16463774,0.3856137,0.20847157,-0.2396885,-0.59538,-0.061099645,930.7692,805.05493,712.7839,799.011,858.6447,-0.00726318359375,0.0001220703125,0.98626708984375,1.966400146484375,-3.170166015625,0.0897216796875,1.0,2.0,1.0,4.0,2.0,80.0,event
11:41:18.038,0.70091385,0.37688863,0.93043804,0.12798034,0.45498022,0.14917253,0.45979702,0.4217706,0.20562616,0.3197138,0.41848785,0.51949775,0.6802192,0.29638925,-0.16463774,0.3856137,0.20847157,-0.2396885,-0.59538,-0.061099645,681.75824,801.8315,257.87546,773.6264,859.45056,-0.00726318359375,0.0001220703125,0.98626708984375,1.966400146484375,-3.170166015625,0.0897216796875,1.0,2.0,1.0,4.0,2.0,80.0,event
11:41:18.038,0.70091385,0.37688863,0.93043804,0.12798034,0.45498022,0.14917253,0.45979702,0.4217706,0.20562616,0.3197138,0.41848785,0.51949775,0.6802192,0.29638925,-0.16463774,0.3856137,0.20847157,-0.2396885,-0.59538,-0.061099645,803.8461,808.2784,643.8828,777.25275,707.5458,-0.00726318359375,0.0001220703125,0.98626708984375,1.966400146484375,-3.170166015625,0.0897216796875,1.0,2.0,1.0,4.0,2.0,80.0,event
11:41:18.039,0.70091385,0.37688863,0.93043804,0.12798034,0.45498022,0.14917253,0.45979702,0.4217706,0.20562616,0.3197138,0.41848785,0.51949775,0.6802192,0.29638925,-0.16463774,0.3856137,0.20847157,-0.2396885,-0.59538,-0.061099645,721.6484,807.47253,361.42856,791.75824,914.65204,-0.00726318359375,0.0001220703125,0.98626708984375,1.966400146484375,-3.170166015625,0.0897216796875,1.0,2.0,1.0,4.0,2.0,80.0,event
11:41:18.040,0.70091385,0.37688863,0.93043804,0.12798034,0.45498022,0.14917253,0.45979702,0.4217706,0.20562616,0.3197138,0.41848785,0.51949775,0.6802192,0.29638925,-0.16463774,0.3856137,0.20847157,-0.2396885,-0.59538,-0.061099645,875.9707,814.3223,941.2454,808.68134,753.47986,-0.00726318359375,0.0001220703125,0.98626708984375,1.966400146484375,-3.170166015625,0.0897216796875,1.0,2.0,1.0,4.0,2.0,80.0,event
11:41:18.040,0.70091385,0.37688863,0.93043804,0.12798034,0.45498022,0.14917253,0.45979702,0.4217706,0.20562616,0.3197138,0.41848785,0.51949775,0.6802192,0.29638925,-0.16463774,0.3856137,0.20847157,-0.2396885,-0.59538,-0.061099645,942.8571,805.8608,791.3553,808.68134,853.4066,-0.00726318359375,0.0001220703125,0.98626708984375,1.966400146484375,-3.170166015625,0.0897216796875,1.0,2.0,1.0,4.0,2.0,80.0,event
11:41:18.065,0.70091385,0.37688863,0.93043804,0.12798034,0.45498022,0.14917253,0.45979702,0.4217706,0.20562616,0.3197138,0.41848785,0.51949775,0.6802192,0.29638925,-0.16463774,0.3856137,0.20847157,-0.2396885,-0.59538,-0.061099645,829.2308,810.293,562.0879,792.96704,834.87177,-0.01318359375,-0.001953125,0.9832763671875,2.3626708984375,-2.40753173828125,0.85235595703125,1.0,2.0,1.0,4.0,2.0,80.0,event
11:41:18.067,0.70091385,0.37688863,0.93043804,0.12798034,0.45498022,0.14917253,0.45979702,0.4217706,0.20562616,0.3197138,0.41848785,0.51949775,0.6802192,0.29638925,-0.16463774,0.3856137,0.20847157,-0.2396885,-0.59538,-0.061099645,709.9634,820.7692,749.0476,782.49084,674.90845,-0.01318359375,-0.001953125,0.9832763671875,2.3626708984375,-2.40753173828125,0.85235595703125,1.0,2.0,1.0,4.0,2.0,80.0,event
11:41:18.067,0.70091385,0.37688863,0.93043804,0.12798034,0.45498022,0.14917253,0.45979702,0.4217706,0.20562616,0.3197138,0.41848785,0.51949775,0.6802192,0.29638925,-0.16463774,0.3856137,0.20847157,-0.2396885,-0.59538,-0.061099645,719.6337,815.9341,963.4066,787.72894,618.49817,-0.01318359375,-0.001953125,0.9832763671875,2.3626708984375,-2.40753173828125,0.85235595703125,1.0,2.0,1.0,4.0,2.0,80.0,event
11:41:18.068,0.70091385,0.37688863,0.93043804,0.12798034,0.45498022,0.14917253,0.45979702,0.4217706,0.20562616,0.3197138,0.41848785,0.51949775,0.6802192,0.29638925,-0.16463774,0.3856137,0.20847157,-0.2396885,-0.59538,-0.061099645,850.18317,808.2784,915.8608,804.65204,773.6264,-0.01318359375,-0.001953125,0.9832763671875,2.3626708984375,-2.40753173828125,0.85235595703125,1.0,2.0,1.0,4.0,2.0,80.0,event
11:41:18.069,0.70091385,0.37688863,0.93043804,0.12798034,0.45498022,0.14917253,0.45979702,0.4217706,0.20562616,0.3197138,0.41848785,0.51949775,0.6802192,0.29638925,-0.16463774,0.3856137,0.20847157,-0.2396885,-0.59538,-0.061099645,942.8571,809.0842,872.74725,814.7253,871.53845,-0.01318359375,-0.001953125,0.9832763671875,2.3626708984375,-2.40753173828125,0.85235595703125,1.0,2.0,1.0,4.0,2.0,80.0,event
11:41:18.070,0.70091385,0.37688863,0.93043804,0.12798034,0.45498022,0.14917253,0.45979702,0.4217706,0.20562616,0.3197138,0.41848785,0.51949775,0.6802192,0.29638925,-0.16463774,0.3856137,0.20847157,-0.2396885,-0.59538,-0.061099645,846.9597,804.2491,759.5238,805.4579,869.12085,-0.01318359375,-0.001953125,0.9832763671875,2.3626708984375,-2.40753173828125,0.85235595703125,1.0,2.0,1.0,4.0,2.0,80.0,event
11:41:18.070,0.70091385,0.37688863,0.93043804,0.12798034,0.45498022,0.14917253,0.45979702,0.4217706,0.20562616,0.3197138,0.41848785,0.51949775,0.6802192,0.29638925,-0.16463774,0.3856137,0.20847157,-0.2396885,-0.59538,-0.061099645,703.1135,807.47253,682.1612,788.5348,837.6923,-0.01318359375,-0.001953125,0.9832763671875,2.3626708984375,-2.40753173828125,0.85235595703125,1.0,2.0,1.0,4.0,2.0,80.0,event
11:41:18.071,0.70091385,0.37688863,0.93043804,0.12798034,0.45498022,0.14917253,0.45979702,0.4217706,0.20562616,0.3197138,0.41848785,0.51949775,0.6802192,0.29638925,-0.16463774,0.3856137,0.20847157,-0.2396885,-0.59538,-0.061099645,688.20514,798.60803,570.14655,790.14655,896.52014,-0.01318359375,-0.001953125,0.9832763671875,2.3626708984375,-2.40753173828125,0.85235595703125,1.0,2.0,1.0,4.0,2.0,80.0,event
11:41:18.072,0.70091385,0.37688863,0.93043804,0.12798034,0.45498022,0.14917253,0.45979702,0.4217706,0.20562616,0.3197138,0.41848785,0.51949775,0.6802192,0.29638925,-0.16463774,0.3856137,0.20847157,-0.2396885,-0.59538,-0.061099645,818.7546,797.3993,244.98169,817.5458,1024.249,-0.01318359375,-0.001953125,0.9832763671875,2.3626708984375,-2.40753173828125,0.85235595703125,1.0,2.0,1.0,4.0,2.0,80.0,event
11:41:18.073,0.70091385,0.37688863,0.93043804,0.12798034,0.45498022,0.14917253,0.45979702,0.4217706,0.20562616,0.3197138,0.41848785,0.51949775,0.6802192,0.29638925,-0.16463774,0.3856137,0.20847157,-0.2396885,-0.59538,-0.061099645,860.2564,812.71063,1049.6337,805.4579,715.2015,-0.01318359375,-0.001953125,0.9832763671875,2.3626708984375,-2.40753173828125,0.85235595703125,1.0,2.0,1.0,4.0,2.0,80.0,event
11:41:18.073,0.70091385,0.37688863,0.93043804,0.12798034,0.45498022,0.14917253,0.45979702,0.4217706,0.20562616,0.3197138,0.41848785,0.51949775,0.6802192,0.29638925,-0.16463774,0.3856137,0.20847157,-0.2396885,-0.59538,-0.061099645,929.15753,822.381,703.5165,824.7985,860.2564,-0.01318359375,-0.001953125,0.9832763671875,2.3626708984375,-2.40753173828125,0.85235595703125,1.0,2.0,1.0,4.0,2.0,80.0,event
11:41:18.074,0.70091385,0.37688863,0.93043804,0.12798034,0.45498022,0.14917253,0.45979702,0.4217706,0.20562616,0.3197138,0.41848785,0.51949775,0.6802192,0.29638925,-0.16463774,0.3856137,0.20847157,-0.2396885,-0.59538,-0.061099645,715.6044,803.0403,735.34796,789.34064,699.4872,-0.01318359375,-0.001953125,0.9832763671875,2.3626708984375,-2.40753173828125,0.85235595703125,1.0,2.0,1.0,4.0,2.0,80.0,event
11:41:18.136,0.70091385,0.37688863,0.93043804,0.12798034,0.45498022,0.14917253,0.45979702,0.4217706,0.20562616,0.3197138,0.41848785,0.51949775,0.6802192,0.29638925,-0.16463774,0.3856137,0.20847157,-0.2396885,-0.59538,-0.061099645,686.99634,810.293,794.17584,795.38464,696.26373,-0.017578125,0.00079345703125,0.98883056640625,2.145843505859375,-2.87109375,0.022430419921875,1.0,2.0,1.0,4.0,2.0,80.0,event
11:41:18.138,0.70091385,0.37688863,0.93043804,0.12798034,0.45498022,0.14917253,0.45979702,0.4217706,0.20562616,0.3197138,0.41848785,0.51949775,0.6802192,0.29638925,-0.16463774,0.3856137,0.20847157,-0.2396885,-0.59538,-0.061099645,807.8755,808.68134,942.4542,818.7546,714.7985,-0.017578125,0.00079345703125,0.98883056640625,2.145843505859375,-2.87109375,0.022430419921875,1.0,2.0,1.0,4.0,2.0,80.0,event
11:41:18.144,0.70091385,0.37688863,0.93043804,0.12798034,0.45498022,0.14917253,0.45979702,0.4217706,0.20562616,0.3197138,0.41848785,0.51949775,0.6802192,0.29638925,-0.16463774,0.3856137,0.20847157,-0.2396885,-0.59538,-0.061099645,919.89014,802.6374,815.9341,820.7692,760.7326,-0.017578125,0.00079345703125,0.98883056640625,2.145843505859375,-2.87109375,0.022430419921875,1.0,2.0,1.0,4.0,2.0,80.0,event
11:41:18.145,0.70091385,0.37688863,0.93043804,0.12798034,0.45498022,0.14917253,0.45979702,0.4217706,0.20562616,0.3197138,0.41848785,0.51949775,0.6802192,0.29638925,-0.16463774,0.3856137,0.20847157,-0.2396885,-0.59538,-0.061099645,865.09155,804.2491,597.5458,804.65204,830.84247,-0.017578125,0.00079345703125,0.98883056640625,2.145843505859375,-2.87109375,0.022430419921875,1.0,2.0,1.0,4.0,2.0,80.0,event
11:41:18.145,0.70091385,0.37688863,0.93043804,0.12798034,0.45498022,0.14917253,0.45979702,0.4217706,0.20562616,0.3197138,0.41848785,0.51949775,0.6802192,0.29638925,-0.16463774,0.3856137,0.20847157,-0.2396885,-0.59538,-0.061099645,728.49817,808.2784,628.1685,790.54944,782.8938,-0.017578125,0.00079345703125,0.98883056640625,2.145843505859375,-2.87109375,0.022430419921875,1.0,2.0,1.0,4.0,2.0,80.0,event
11:41:18.146,0.70091385,0.37688863,0.93043804,0.12798034,0.45498022,0.14917253,0.45979702,0.4217706,0.20562616,0.3197138,0.41848785,0.51949775,0.6802192,0.29638925,-0.16463774,0.3856137,0.20847157,-0.2396885,-0.59538,-0.061099645,682.1612,801.8315,678.93774,789.7436,745.82416,-0.017578125,0.00079345703125,0.98883056640625,2.145843505859375,-2.87109375,0.022430419921875,1.0,2.0,1.0,4.0,2.0,80.0,event
11:41:18.147,0.70091385,0.37688863,0.93043804,0.12798034,0.45498022,0.14917253,0.45979702,0.4217706,0.20562616,0.3197138,0.41848785,0.51949775,0.6802192,0.29638925,-0.16463774,0.3856137,0.20847157,-0.2396885,-0.59538,-0.061099645,788.1319,790.9524,713.9927,821.978,790.54944,-0.017578125,0.00079345703125,0.98883056640625,2.145843505859375,-2.87109375,0.022430419921875,1.0,2.0,1.0,4.0,2.0,80.0,event
11:41:18.148,0.70091385,0.37688863,0.93043804,0.12798034,0.45498022,0.14917253,0.45979702,0.4217706,0.20562616,0.3197138,0.41848785,0.51949775,0.6802192,0.29638925,-0.16463774,0.3856137,0.20847157,-0.2396885,-0.59538,-0.061099645,916.6667,787.326,492.78387,849.3773,1001.28204,-0.017578125,0.00079345703125,0.98883056640625,2.145843505859375,-2.87109375,0.022430419921875,1.0,2.0,1.0,4.0,2.0,80.0,event
11:41:18.148,0.70091385,0.37688863,0.93043804,0.12798034,0.45498022,0.14917253,0.45979702,0.4217706,0.20562616,0.3197138,0.41848785,0.51949775,0.6802192,0.29638925,-0.16463774,0.3856137,0.20847157,-0.2396885,-0.59538,-0.061099645,858.24176,815.5311,433.95605,797.3993,995.2381,-0.017578125,0.00079345703125,0.98883056640625,2.145843505859375,-2.87109375,0.022430419921875,1.0,2.0,1.0,4.0,2.0,80.0,event
11:41:18.149,0.70091385,0.37688863,0.93043804,0.12798034,0.45498022,0.14917253,0.45979702,0.4217706,0.20562616,0.3197138,0.41848785,0.51949775,0.6802192,0.29638925,-0.16463774,0.3856137,0.20847157,-0.2396885,-0.59538,-0.061099645,693.8461,826.8132,906.99634,743.4066,686.1905,-0.017578125,0.00079345703125,0.98883056640625,2.145843505859375,-2.87109375,0.022430419921875,1.0,2.0,1.0,4.0,2.0,80.0,event
11:41:18.150,0.70091385,0.37688863,0.93043804,0.12798034,0.45498022,0.14917253,0.45979702,0.4217706,0.20562616,0.3197138,0.41848785,0.51949775,0.6802192,0.29638925,-0.16463774,0.3856137,0.20847157,-0.2396885,-0.59538,-0.061099645,627.3626,796.5934,853.4066,739.3773,647.9121,-0.017578125,0.00079345703125,0.98883056640625,2.145843505859375,-2.87109375,0.022430419921875,1.0,2.0,1.0,4.0,2.0,80.0,event
11:41:18.151,0.70091385,0.37688863,0.93043804,0.12798034,0.45498022,0.14917253,0.45979702,0.4217706,0.20562616,0.3197138,0.41848785,0.51949775,0.6802192,0.29638925,-0.16463774,0.3856137,0.20847157,-0.2396885,-0.59538,-0.061099645,712.381,786.1172,780.4762,745.82416,709.9634,-0.017578125,0.00079345703125,0.98883056640625,2.145843505859375,-2.87109375,0.022430419921875,1.0,2.0,1.0,4.0,2.0,80.0,event
11:41:18.172,0.70091385,0.37688863,0.93043804,0.12798034,0.45498022,0.14917253,0.45979702,0.4217706,0.20562616,0.3197138,0.41848785,0.51949775,0.6802192,0.29638925,-0.16463774,0.3856137,0.20847157,-0.2396885,-0.59538,-0.061099645,851.79486,795.78754,1031.0989,745.82416,772.8205,-0.017578125,0.00079345703125,0.98883056640625,2.145843505859375,-2.87109375,0.022430419921875,1.0,2.0,1.0,4.0,2.0,80.0,event
11:41:18.173,0.70091385,0.37688863,0.93043804,0.12798034,0.45498022,0.14917253,0.45979702,0.4217706,0.20562616,0.3197138,0.41848785,0.51949775,0.6802192,0.29638925,-0.16463774,0.3856137,0.20847157,-0.2396885,-0.59538,-0.061099645,846.1539,786.52014,1080.2565,728.0952,721.6484,-0.017578125,0.00079345703125,0.98883056640625,2.145843505859375,-2.87109375,0.022430419921875,1.0,2.0,1.0,4.0,2.0,80.0,event
11:41:18.174,0.70091385,0.37688863,0.93043804,0.12798034,0.45498022,0.14917253,0.45979702,0.4217706,0.20562616,0.3197138,0.41848785,0.51949775,0.6802192,0.29638925,-0.16463774,0.3856137,0.20847157,-0.2396885,-0.59538,-0.061099645,675.31134,780.07324,737.76556,705.12823,678.93774,-0.017578125,0.00079345703125,0.98883056640625,2.145843505859375,-2.87109375,0.022430419921875,1.0,2.0,1.0,4.0,2.0,80.0,event
11:41:18.175,0.70091385,0.37688863,0.93043804,0.12798034,0.45498022,0.14917253,0.45979702,0.4217706,0.20562616,0.3197138,0.41848785,0.51949775,0.6802192,0.29638925,-0.16463774,0.3856137,0.20847157,-0.2396885,-0.59538,-0.061099645,609.6337,786.9231,649.5238,706.337,730.5128,-0.017578125,0.00079345703125,0.98883056640625,2.145843505859375,-2.87109375,0.022430419921875,1.0,2.0,1.0,4.0,2.0,80.0,event
11:41:18.176,0.70091385,0.37688863,0.93043804,0.12798034,0.45498022,0.14917253,0.45979702,0.4217706,0.20562616,0.3197138,0.41848785,0.51949775,0.6802192,0.29638925,-0.16463774,0.3856137,0.20847157,-0.2396885,-0.59538,-0.061099645,714.7985,797.8022,860.65936,736.55676,752.674,-0.017578125,0.00079345703125,0.98883056640625,2.145843505859375,-2.87109375,0.022430419921875,1.0,2.0,1.0,4.0,2.0,80.0,event
11:41:18.177,0.70091385,0.37688863,0.93043804,0.12798034,0.45498022,0.14917253,0.45979702,0.4217706,0.20562616,0.3197138,0.41848785,0.51949775,0.6802192,0.29638925,-0.16463774,0.3856137,0.20847157,-0.2396885,-0.59538,-0.061099645,839.707,797.3993,866.30035,748.24176,884.43225,-0.017578125,0.00079345703125,0.98883056640625,2.145843505859375,-2.87109375,0.022430419921875,1.0,2.0,1.0,4.0,2.0,80.0,event
11:41:18.177,0.70091385,0.37688863,0.93043804,0.12798034,0.45498022,0.14917253,0.45979702,0.4217706,0.20562616,0.3197138,0.41848785,0.51949775,0.6802192,0.29638925,-0.16463774,0.3856137,0.20847157,-0.2396885,-0.59538,-0.061099645,846.1539,788.93774,622.52747,744.21246,1023.44324,-0.017578125,0.00079345703125,0.98883056640625,2.145843505859375,-2.87109375,0.022430419921875,1.0,2.0,1.0,4.0,2.0,80.0,event
11:41:18.178,0.70091385,0.37688863,0.93043804,0.12798034,0.45498022,0.14917253,0.45979702,0.4217706,0.20562616,0.3197138,0.41848785,0.51949775,0.6802192,0.29638925,-0.16463774,0.3856137,0.20847157,-0.2396885,-0.59538,-0.061099645,717.619,801.8315,496.00732,739.7802,1014.9817,-0.017578125,0.00079345703125,0.98883056640625,2.145843505859375,-2.87109375,0.022430419921875,1.0,2.0,1.0,4.0,2.0,80.0,event
11:41:18.179,0.70091385,0.37688863,0.93043804,0.12798034,0.45498022,0.14917253,0.45979702,0.4217706,0.20562616,0.3197138,0.41848785,0.51949775,0.6802192,0.29638925,-0.16463774,0.3856137,0.20847157,-0.2396885,-0.59538,-0.061099645,653.1502,815.9341,815.12823,737.76556,846.1539,-0.017578125,0.00079345703125,0.98883056640625,2.145843505859375,-2.87109375,0.022430419921875,1.0,2.0,1.0,4.0,2.0,80.0,event
11:41:18.180,0.70091385,0.37688863,0.93043804,0.12798034,0.45498022,0.14917253,0.45979702,0.4217706,0.20562616,0.3197138,0.41848785,0.51949775,0.6802192,0.29638925,-0.16463774,0.3856137,0.20847157,-0.2396885,-0.59538,-0.061099645,722.4542,813.91943,1037.5458,754.68866,718.4249,-0.017578125,0.00079345703125,0.98883056640625,2.145843505859375,-2.87109375,0.022430419921875,1.0,2.0,1.0,4.0,2.0,80.0,event
11:41:18.184,0.70091385,0.37688863,0.93043804,0.12798034,0.45498022,0.14917253,0.45979702,0.4217706,0.20562616,0.3197138,0.41848785,0.51949775,0.6802192,0.29638925,-0.16463774,0.3856137,0.20847157,-0.2396885,-0.59538,-0.061099645,857.03296,799.011,770.40295,778.0586,836.8865,-0.017578125,0.00079345703125,0.98883056640625,2.145843505859375,-2.87109375,0.022430419921875,1.0,2.0,1.0,4.0,2.0,80.0,event
11:41:18.186,0.70091385,0.37688863,0.93043804,0.12798034,0.45498022,0.14917253,0.45979702,0.4217706,0.20562616,0.3197138,0.41848785,0.51949775,0.6802192,0.29638925,-0.16463774,0.3856137,0.20847157,-0.2396885,-0.59538,-0.061099645,895.31134,800.2198,202.27106,782.49084,1074.6154,-0.017578125,0.00079345703125,0.98883056640625,2.145843505859375,-2.87109375,0.022430419921875,1.0,2.0,1.0,4.0,2.0,80.0,event
11:41:18.224,0.70091385,0.37688863,0.93043804,0.12798034,0.45498022,0.14917253,0.45979702,0.4217706,0.20562616,0.3197138,0.41848785,0.51949775,0.6802192,0.29638925,-0.16463774,0.3856137,0.20847157,-0.2396885,-0.59538,-0.061099645,786.9231,828.4249,530.2564,762.3443,869.92676,-0.0062255859375,0.00311279296875,0.98382568359375,2.115936279296875,-4.65057373046875,0.590667724609375,1.0,2.0,1.0,4.0,2.0,80.0,event
11:41:18.225,0.70091385,0.37688863,0.93043804,0.12798034,0.45498022,0.14917253,0.45979702,0.4217706,0.20562616,0.3197138,0.41848785,0.51949775,0.6802192,0.29638925,-0.16463774,0.3856137,0.20847157,-0.2396885,-0.59538,-0.061099645,699.0842,828.8278,929.5604,759.12085,686.1905,-0.0062255859375,0.00311279296875,0.98382568359375,2.115936279296875,-4.65057373046875,0.590667724609375,1.0,2.0,1.0,4.0,2.0,80.0,event
11:41:18.225,0.70091385,0.37688863,0.93043804,0.12798034,0.45498022,0.14917253,0.45979702,0.4217706,0.20562616,0.3197138,0.41848785,0.51949775,0.6802192,0.29638925,-0.16463774,0.3856137,0.20847157,-0.2396885,-0.59538,-0.061099645,734.94507,827.619,795.38464,780.07324,751.06226,-0.0062255859375,0.00311279296875,0.98382568359375,2.115936279296875,-4.65057373046875,0.590667724609375,1.0,2.0,1.0,4.0,2.0,80.0,event
11:41:18.226,0.70091385,0.37688863,0.93043804,0.12798034,0.45498022,0.14917253,0.45979702,0.4217706,0.20562616,0.3197138,0.41848785,0.51949775,0.6802192,0.29638925,-0.16463774,0.3856137,0.20847157,-0.2396885,-0.59538,-0.061099645,870.7326,834.87177,941.2454,792.96704,754.2857,-0.0062255859375,0.00311279296875,0.98382568359375,2.115936279296875,-4.65057373046875,0.590667724609375,1.0,2.0,1.0,4.0,2.0,80.0,event
11:41:18.230,0.70091385,0.37688863,0.93043804,0.12798034,0.45498022,0.14917253,0.45979702,0.4217706,0.20562616,0.3197138,0.41848785,0.51949775,0.6802192,0.29638925,-0.16463774,0.3856137,0.20847157,-0.2396885,-0.59538,-0.061099645,924.7253,830.0366,1033.1135,794.9817,733.3333,-0.0062255859375,0.00311279296875,0.98382568359375,2.115936279296875,-4.65057373046875,0.590667724609375,1.0,2.0,1.0,4.0,2.0,80.0,event
11:41:18.231,0.70091385,0.37688863,0.93043804,0.12798034,0.45498022,0.14917253,0.45979702,0.4217706,0.20562616,0.3197138,0.41848785,0.51949775,0.6802192,0.29638925,-0.16463774,0.3856137,0.20847157,-0.2396885,-0.59538,-0.061099645,803.8461,824.7985,779.67035,785.31134,726.08057,-0.0062255859375,0.00311279296875,0.98382568359375,2.115936279296875,-4.65057373046875,0.590667724609375,1.0,2.0,1.0,4.0,2.0,80.0,event
11:41:18.232,0.70091385,0.37688863,0.93043804,0.12798034,0.45498022,0.14917253,0.45979702,0.4217706,0.20562616,0.3197138,0.41848785,0.51949775,0.6802192,0.29638925,-0.16463774,0.3856137,0.20847157,-0.2396885,-0.59538,-0.061099645,679.34064,818.3516,287.69232,779.67035,978.315,-0.0062255859375,0.00311279296875,0.98382568359375,2.115936279296875,-4.65057373046875,0.590667724609375,1.0,2.0,1.0,4.0,2.0,80.0,event
11:41:18.232,0.70091385,0.37688863,0.93043804,0.12798034,0.45498022,0.14917253,0.45979702,0.4217706,0.20562616,0.3197138,0.41848785,0.51949775,0.6802192,0.29638925,-0.16463774,0.3856137,0.20847157,-0.2396885,-0.59538,-0.061099645,705.9341,830.84247,297.76556,788.93774,1002.8938,-0.0062255859375,0.00311279296875,0.98382568359375,2.115936279296875,-4.65057373046875,0.590667724609375,1.0,2.0,1.0,4.0,2.0,80.0,event
11:41:18.233,0.70091385,0.37688863,0.93043804,0.12798034,0.45498022,0.14917253,0.45979702,0.4217706,0.20562616,0.3197138,0.41848785,0.51949775,0.6802192,0.29638925,-0.16463774,0.3856137,0.20847157,-0.2396885,-0.59538,-0.061099645,942.0513,836.08057,877.1795,823.5897,758.71796,-0.0062255859375,0.00311279296875,0.98382568359375,2.115936279296875,-4.65057373046875,0.590667724609375,1.0,2.0,1.0,4.0,2.0,80.0,event
11:41:18.233,0.70091385,0.37688863,0.93043804,0.12798034,0.45498022,0.14917253,0.45979702,0.4217706,0.20562616,0.3197138,0.41848785,0.51949775,0.6802192,0.29638925,-0.16463774,0.3856137,0.20847157,-0.2396885,-0.59538,-0.061099645,857.4359,844.94507,807.47253,807.0696,747.03296,-0.0062255859375,0.00311279296875,0.98382568359375,2.115936279296875,-4.65057373046875,0.590667724609375,1.0,2.0,1.0,4.0,2.0,80.0,event
11:41:18.234,0.70091385,0.37688863,0.93043804,0.12798034,0.45498022,0.14917253,0.45979702,0.4217706,0.20562616,0.3197138,0.41848785,0.51949775,0.6802192,0.29638925,-0.16463774,0.3856137,0.20847157,-0.2396885,-0.59538,-0.061099645,844.1392,831.6484,694.65204,810.696,827.619,-0.0062255859375,0.00311279296875,0.98382568359375,2.115936279296875,-4.65057373046875,0.590667724609375,1.0,2.0,1.0,4.0,2.0,80.0,event
11:41:18.235,0.70091385,0.37688863,0.93043804,0.12798034,0.45498022,0.14917253,0.45979702,0.4217706,0.20562616,0.3197138,0.41848785,0.51949775,0.6802192,0.29638925,-0.16463774,0.3856137,0.20847157,-0.2396885,-0.59538,-0.061099645,711.5751,840.10986,732.52747,793.7729,729.304,-0.0062255859375,0.00311279296875,0.98382568359375,2.115936279296875,-4.65057373046875,0.590667724609375,1.0,2.0,1.0,4.0,2.0,80.0,event
11:41:18.265,0.70091385,0.37688863,0.93043804,0.12798034,0.45498022,0.14917253,0.45979702,0.4217706,0.20562616,0.3197138,0.41848785,0.51949775,0.6802192,0.29638925,-0.16463774,0.3856137,0.20847157,-0.2396885,-0.59538,-0.061099645,720.84247,842.9304,961.79486,801.02563,648.315,-0.01153564453125,0.000732421875,0.98760986328125,1.906585693359375,-3.805694580078125,0.979461669921875,1.0,2.0,1.0,4.0,2.0,80.0,event
11:41:18.266,0.70091385,0.37688863,0.93043804,0.12798034,0.45498022,0.14917253,0.45979702,0.4217706,0.20562616,0.3197138,0.41848785,0.51949775,0.6802192,0.29638925,-0.16463774,0.3856137,0.20847157,-0.2396885,-0.59538,-0.061099645,850.989,835.6777,884.0293,815.5311,710.7692,-0.01153564453125,0.000732421875,0.98760986328125,1.906585693359375,-3.805694580078125,0.979461669921875,1.0,2.0,1.0,4.0,2.0,80.0,event
11:41:18.267,0.70091385,0.37688863,0.93043804,0.12798034,0.45498022,0.14917253,0.45979702,0.4217706,0.20562616,0.3197138,0.41848785,0.51949775,0.6802192,0.29638925,-0.16463774,0.3856137,0.20847157,-0.2396885,-0.59538,-0.061099645,941.6484,836.4835,818.7546,821.978,749.0476,-0.01153564453125,0.000732421875,0.98760986328125,1.906585693359375,-3.805694580078125,0.979461669921875,1.0,2.0,1.0,4.0,2.0,80.0,event
11:41:18.268,0.70091385,0.37688863,0.93043804,0.12798034,0.45498022,0.14917253,0.45979702,0.4217706,0.20562616,0.3197138,0.41848785,0.51949775,0.6802192,0.29638925,-0.16463774,0.3856137,0.20847157,-0.2396885,-0.59538,-0.061099645,862.674,835.6777,921.0989,806.26373,730.5128,-0.01153564453125,0.000732421875,0.98760986328125,1.906585693359375,-3.805694580078125,0.979461669921875,1.0,2.0,1.0,4.0,2.0,80.0,event
11:41:18.269,0.70091385,0.37688863,0.93043804,0.12798034,0.45498022,0.14917253,0.45979702,0.4217706,0.20562616,0.3197138,0.41848785,0.51949775,0.6802192,0.29638925,-0.16463774,0.3856137,0.20847157,-0.2396885,-0.59538,-0.061099645,726.8865,834.87177,892.49084,791.75824,674.10254,-0.01153564453125,0.000732421875,0.98760986328125,1.906585693359375,-3.805694580078125,0.979461669921875,1.0,2.0,1.0,4.0,2.0,80.0,event
11:41:18.269,0.70091385,0.37688863,0.93043804,0.12798034,0.45498022,0.14917253,0.45979702,0.4217706,0.20562616,0.3197138,0.41848785,0.51949775,0.6802192,0.29638925,-0.16463774,0.3856137,0.20847157,-0.2396885,-0.59538,-0.061099645,702.71063,827.2161,581.4286,803.44324,803.0403,-0.01153564453125,0.000732421875,0.98760986328125,1.906585693359375,-3.805694580078125,0.979461669921875,1.0,2.0,1.0,4.0,2.0,80.0,event
11:41:18.270,0.70091385,0.37688863,0.93043804,0.12798034,0.45498022,0.14917253,0.45979702,0.4217706,0.20562616,0.3197138,0.41848785,0.51949775,0.6802192,0.29638925,-0.16463774,0.3856137,0.20847157,-0.2396885,-0.59538,-0.061099645,817.9487,823.5897,348.5348,823.9927,962.6007,-0.01153564453125,0.000732421875,0.98760986328125,1.906585693359375,-3.805694580078125,0.979461669921875,1.0,2.0,1.0,4.0,2.0,80.0,event
11:41:18.271,0.70091385,0.37688863,0.93043804,0.12798034,0.45498022,0.14917253,0.45979702,0.4217706,0.20562616,0.3197138,0.41848785,0.51949775,0.6802192,0.29638925,-0.16463774,0.3856137,0.20847157,-0.2396885,-0.59538,-0.061099645,938.4249,840.9158,752.27106,827.619,781.685,-0.01153564453125,0.000732421875,0.98760986328125,1.906585693359375,-3.805694580078125,0.979461669921875,1.0,2.0,1.0,4.0,2.0,80.0,event
11:41:18.272,0.70091385,0.37688863,0.93043804,0.12798034,0.45498022,0.14917253,0.45979702,0.4217706,0.20562616,0.3197138,0.41848785,0.51949775,0.6802192,0.29638925,-0.16463774,0.3856137,0.20847157,-0.2396885,-0.59538,-0.061099645,895.31134,841.7216,996.04395,814.3223,667.6557,-0.01153564453125,0.000732421875,0.98760986328125,1.906585693359375,-3.805694580078125,0.979461669921875,1.0,2.0,1.0,4.0,2.0,80.0,event
11:41:18.272,0.70091385,0.37688863,0.93043804,0.12798034,0.45498022,0.14917253,0.45979702,0.4217706,0.20562616,0.3197138,0.41848785,0.51949775,0.6802192,0.29638925,-0.16463774,0.3856137,0.20847157,-0.2396885,-0.59538,-0.061099645,745.0183,828.022,631.39197,805.4579,806.26373,-0.01153564453125,0.000732421875,0.98760986328125,1.906585693359375,-3.805694580078125,0.979461669921875,1.0,2.0,1.0,4.0,2.0,80.0,event
11:41:18.273,0.70091385,0.37688863,0.93043804,0.12798034,0.45498022,0.14917253,0.45979702,0.4217706,0.20562616,0.3197138,0.41848785,0.51949775,0.6802192,0.29638925,-0.16463774,0.3856137,0.20847157,-0.2396885,-0.59538,-0.061099645,702.3077,826.4103,545.16486,807.47253,869.12085,-0.01153564453125,0.000732421875,0.98760986328125,1.906585693359375,-3.805694580078125,0.979461669921875,1.0,2.0,1.0,4.0,2.0,80.0,event
