TimeStamp,Delta_TP9,Delta_AF7,Delta_AF8,Delta_TP10,Theta_TP9,Theta_AF7,Theta_AF8,Theta_TP10,Alpha_TP9,Alpha_AF7,Alpha_AF8,Alpha_TP10,Beta_TP9,Beta_AF7,Beta_AF8,Beta_TP10,Gamma_TP9,Gamma_AF7,Gamma_AF8,Gamma_TP10,RAW_TP9,RAW_AF7,RAW_AF8,RAW_TP10,AUX_RIGHT,Accelerometer_X,Accelerometer_Y,Accelerometer_Z,Gyro_X,Gyro_Y,Gyro_Z,HeadBandOn,HSI_TP9,HSI_AF7,HSI_AF8,HSI_TP10,Battery,Elements
11:31:13.410,1.1822646,-0.7601451,-0.25437874,0.87899446,0.9441921,-0.661685,-0.48068795,0.3597533,1.0568366,-0.21065937,-0.04033747,0.46617717,0.73426425,0.2247784,-0.31001362,0.9494225,0.30600002,0.07687183,-0.5952463,0.46178648,649.12085,809.0842,806.6667,670.07324,749.0476,-0.16961669921875,0.03839111328125,0.96905517578125,1.21124267578125,-2.31781005859375,-0.127105712890625,1.0,1.0,1.0,1.0,1.0,95.0,event
11:31:13.411,1.1822646,-0.7601451,-0.25437874,0.87899446,0.9441921,-0.661685,-0.48068795,0.3597533,1.0568366,-0.21065937,-0.04033747,0.46617717,0.73426425,0.2247784,-0.31001362,0.9494225,0.30600002,0.07687183,-0.5952463,0.46178648,649.92676,810.293,805.4579,664.83514,756.7033,-0.16961669921875,0.03839111328125,0.96905517578125,1.21124267578125,-2.31781005859375,-0.127105712890625,1.0,1.0,1.0,1.0,1.0,95.0,event
11:31:13.412,1.1822646,-0.7601451,-0.25437874,0.87899446,0.9441921,-0.661685,-0.48068795,0.3597533,1.0568366,-0.21065937,-0.04033747,0.46617717,0.73426425,0.2247784,-0.31001362,0.9494225,0.30600002,0.07687183,-0.5952463,0.46178648,645.09155,809.89014,801.8315,656.77655,836.08057,-0.16961669921875,0.03839111328125,0.96905517578125,1.21124267578125,-2.31781005859375,-0.127105712890625,1.0,1.0,1.0,1.0,1.0,95.0,event
11:31:13.412,1.1822646,-0.7601451,-0.25437874,0.87899446,0.9441921,-0.661685,-0.48068795,0.3597533,1.0568366,-0.21065937,-0.04033747,0.46617717,0.73426425,0.2247784,-0.31001362,0.9494225,0.30600002,0.07687183,-0.5952463,0.46178648,612.4542,800.2198,801.8315,623.73627,863.8828,-0.16961669921875,0.03839111328125,0.96905517578125,1.21124267578125,-2.31781005859375,-0.127105712890625,1.0,1.0,1.0,1.0,1.0,95.0,event
11:31:13.413,1.1822646,-0.7601451,-0.25437874,0.87899446,0.9441921,-0.661685,-0.48068795,0.3597533,1.0568366,-0.21065937,-0.04033747,0.46617717,0.73426425,0.2247784,-0.31001362,0.9494225,0.30600002,0.07687183,-0.5952463,0.46178648,597.5458,807.0696,799.81683,596.7399,713.9927,-0.16961669921875,0.03839111328125,0.96905517578125,1.21124267578125,-2.31781005859375,-0.127105712890625,1.0,1.0,1.0,1.0,1.0,95.0,event
11:31:13.414,1.1822646,-0.7601451,-0.25437874,0.87899446,0.9441921,-0.661685,-0.48068795,0.3597533,1.0568366,-0.21065937,-0.04033747,0.46617717,0.73426425,0.2247784,-0.31001362,0.9494225,0.30600002,0.07687183,-0.5952463,0.46178648,592.71063,806.26373,799.011,585.05493,719.2308,-0.16961669921875,0.03839111328125,0.96905517578125,1.21124267578125,-2.31781005859375,-0.127105712890625,1.0,1.0,1.0,1.0,1.0,95.0,event
11:31:13.414,1.1822646,-0.7601451,-0.25437874,0.87899446,0.9441921,-0.661685,-0.48068795,0.3597533,1.0568366,-0.21065937,-0.04033747,0.46617717,0.73426425,0.2247784,-0.31001362,0.9494225,0.30600002,0.07687183,-0.5952463,0.46178648,579.41394,805.05493,803.0403,592.71063,1007.72894,-0.16961669921875,0.03839111328125,0.96905517578125,1.21124267578125,-2.31781005859375,-0.127105712890625,1.0,1.0,1.0,1.0,1.0,95.0,event
11:31:13.415,1.1822646,-0.7601451,-0.25437874,0.87899446,0.9441921,-0.661685,-0.48068795,0.3597533,1.0568366,-0.21065937,-0.04033747,0.46617717,0.73426425,0.2247784,-0.31001362,0.9494225,0.30600002,0.07687183,-0.5952463,0.46178648,585.05493,813.91943,806.26373,594.7253,1048.8279,-0.16961669921875,0.03839111328125,0.96905517578125,1.21124267578125,-2.31781005859375,-0.127105712890625,1.0,1.0,1.0,1.0,1.0,95.0,event
11:31:13.416,1.1822646,-0.7601451,-0.25437874,0.87899446,0.9441921,-0.661685,-0.48068795,0.3597533,1.0568366,-0.21065937,-0.04033747,0.46617717,0.73426425,0.2247784,-0.31001362,0.9494225,0.30600002,0.07687183,-0.5952463,0.46178648,594.3223,805.05493,800.2198,587.0696,699.4872,-0.16961669921875,0.03839111328125,0.96905517578125,1.21124267578125,-2.31781005859375,-0.127105712890625,1.0,1.0,1.0,1.0,1.0,95.0,event
11:31:13.416,1.1822646,-0.7601451,-0.25437874,0.87899446,0.9441921,-0.661685,-0.48068795,0.3597533,1.0568366,-0.21065937,-0.04033747,0.46617717,0.73426425,0.2247784,-0.31001362,0.9494225,0.30600002,0.07687183,-0.5952463,0.46178648,599.5604,808.2784,801.8315,587.8755,724.87177,-0.16961669921875,0.03839111328125,0.96905517578125,1.21124267578125,-2.31781005859375,-0.127105712890625,1.0,1.0,1.0,1.0,1.0,95.0,event
11:31:13.417,1.1822646,-0.7601451,-0.25437874,0.87899446,0.9441921,-0.661685,-0.48068795,0.3597533,1.0568366,-0.21065937,-0.04033747,0.46617717,0.73426425,0.2247784,-0.31001362,0.9494225,0.30600002,0.07687183,-0.5952463,0.46178648,585.05493,808.2784,803.8461,580.6227,755.4945,-0.16961669921875,0.03839111328125,0.96905517578125,1.21124267578125,-2.31781005859375,-0.127105712890625,1.0,1.0,1.0,1.0,1.0,95.0,event
11:31:13.417,1.1822646,-0.7601451,-0.25437874,0.87899446,0.9441921,-0.661685,-0.48068795,0.3597533,1.0568366,-0.21065937,-0.04033747,0.46617717,0.73426425,0.2247784,-0.31001362,0.9494225,0.30600002,0.07687183,-0.5952463,0.46178648,581.02563,799.41394,801.4286,579.81683,703.1135,-0.16961669921875,0.03839111328125,0.96905517578125,1.21124267578125,-2.31781005859375,-0.127105712890625,1.0,1.0,1.0,1.0,1.0,95.0,event
11:31:13.459,1.1822646,-0.7601451,-0.25437874,0.87899446,0.9441921,-0.661685,-0.48068795,0.3597533,1.0568366,-0.21065937,-0.04033747,0.46617717,0.73426425,0.2247784,-0.31001362,0.9494225,0.30600002,0.07687183,-0.5952463,0.46178648,597.1429,799.41394,803.8461,590.696,705.12823,-0.16259765625,0.04168701171875,0.97613525390625,2.332763671875,-3.820648193359375,-0.897216796875,1.0,1.0,1.0,1.0,1.0,95.0,event
11:31:13.460,1.1822646,-0.7601451,-0.25437874,0.87899446,0.9441921,-0.661685,-0.48068795,0.3597533,1.0568366,-0.21065937,-0.04033747,0.46617717,0.73426425,0.2247784,-0.31001362,0.9494225,0.30600002,0.07687183,-0.5952463,0.46178648,631.39197,807.0696,809.0842,623.3333,782.8938,-0.16259765625,0.04168701171875,0.97613525390625,2.332763671875,-3.820648193359375,-0.897216796875,1.0,1.0,1.0,1.0,1.0,95.0,event
11:31:13.461,1.1822646,-0.7601451,-0.25437874,0.87899446,0.9441921,-0.661685,-0.48068795,0.3597533,1.0568366,-0.21065937,-0.04033747,0.46617717,0.73426425,0.2247784,-0.31001362,0.9494225,0.30600002,0.07687183,-0.5952463,0.46178648,634.61536,807.0696,807.0696,624.94507,765.56775,-0.16259765625,0.04168701171875,0.97613525390625,2.332763671875,-3.820648193359375,-0.897216796875,1.0,1.0,1.0,1.0,1.0,95.0,event
11:31:13.462,1.1822646,-0.7601451,-0.25437874,0.87899446,0.9441921,-0.661685,-0.48068795,0.3597533,1.0568366,-0.21065937,-0.04033747,0.46617717,0.73426425,0.2247784,-0.31001362,0.9494225,0.30600002,0.07687183,-0.5952463,0.46178648,608.8278,806.6667,804.65204,616.08057,630.58606,-0.16259765625,0.04168701171875,0.97613525390625,2.332763671875,-3.820648193359375,-0.897216796875,1.0,1.0,1.0,1.0,1.0,95.0,event
11:31:13.462,1.1822646,-0.7601451,-0.25437874,0.87899446,0.9441921,-0.661685,-0.48068795,0.3597533,1.0568366,-0.21065937,-0.04033747,0.46617717,0.73426425,0.2247784,-0.31001362,0.9494225,0.30600002,0.07687183,-0.5952463,0.46178648,624.94507,819.5604,808.2784,649.92676,652.3443,-0.16259765625,0.04168701171875,0.97613525390625,2.332763671875,-3.820648193359375,-0.897216796875,1.0,1.0,1.0,1.0,1.0,95.0,event
11:31:13.463,1.1822646,-0.7601451,-0.25437874,0.87899446,0.9441921,-0.661685,-0.48068795,0.3597533,1.0568366,-0.21065937,-0.04033747,0.46617717,0.73426425,0.2247784,-0.31001362,0.9494225,0.30600002,0.07687183,-0.5952463,0.46178648,659.19415,815.12823,810.293,677.72894,878.3883,-0.16259765625,0.04168701171875,0.97613525390625,2.332763671875,-3.820648193359375,-0.897216796875,1.0,1.0,1.0,1.0,1.0,95.0,event
11:31:13.464,1.1822646,-0.7601451,-0.25437874,0.87899446,0.9441921,-0.661685,-0.48068795,0.3597533,1.0568366,-0.21065937,-0.04033747,0.46617717,0.73426425,0.2247784,-0.31001362,0.9494225,0.30600002,0.07687183,-0.5952463,0.46178648,680.9524,802.6374,803.8461,689.41394,1041.5751,-0.16259765625,0.04168701171875,0.97613525390625,2.332763671875,-3.820648193359375,-0.897216796875,1.0,1.0,1.0,1.0,1.0,95.0,event
11:31:13.464,1.1822646,-0.7601451,-0.25437874,0.87899446,0.9441921,-0.661685,-0.48068795,0.3597533,1.0568366,-0.21065937,-0.04033747,0.46617717,0.73426425,0.2247784,-0.31001362,0.9494225,0.30600002,0.07687183,-0.5952463,0.46178648,701.50183,808.2784,798.60803,694.65204,865.4945,-0.16259765625,0.04168701171875,0.97613525390625,2.332763671875,-3.820648193359375,-0.897216796875,1.0,1.0,1.0,1.0,1.0,95.0,event
11:31:13.465,1.1822646,-0.7601451,-0.25437874,0.87899446,0.9441921,-0.661685,-0.48068795,0.3597533,1.0568366,-0.21065937,-0.04033747,0.46617717,0.73426425,0.2247784,-0.31001362,0.9494225,0.30600002,0.07687183,-0.5952463,0.46178648,703.91943,801.8315,795.78754,688.60803,682.96704,-0.16259765625,0.04168701171875,0.97613525390625,2.332763671875,-3.820648193359375,-0.897216796875,1.0,1.0,1.0,1.0,1.0,95.0,event
11:31:13.466,1.1822646,-0.7844813,-0.26863682,0.7810664,0.9441921,-0.6646008,-0.50551,0.26550886,1.0568366,-0.21065937,-0.034822315,0.4653957,0.73426425,0.24411239,-0.32838762,0.91374946,0.30600002,0.072523266,-0.5980086,0.32757998,708.7546,801.8315,799.41394,698.68134,793.36993,-0.16259765625,0.04168701171875,0.97613525390625,2.332763671875,-3.820648193359375,-0.897216796875,1.0,1.0,1.0,1.0,1.0,95.0,event
11:31:13.471,1.1822646,-0.7844813,-0.26863682,0.7810664,0.9441921,-0.6646008,-0.50551,0.26550886,1.0568366,-0.21065937,-0.034822315,0.4653957,0.73426425,0.24411239,-0.32838762,0.91374946,0.30600002,0.072523266,-0.5980086,0.32757998,728.49817,801.4286,802.6374,732.52747,981.13556,-0.16259765625,0.04168701171875,0.97613525390625,2.332763671875,-3.820648193359375,-0.897216796875,1.0,1.0,1.0,1.0,1.0,95.0,event
11:31:13.472,1.1822646,-0.7844813,-0.26863682,0.7810664,0.9441921,-0.6646008,-0.50551,0.26550886,1.0568366,-0.21065937,-0.034822315,0.4653957,0.73426425,0.24411239,-0.32838762,0.91374946,0.30600002,0.072523266,-0.5980086,0.32757998,761.9414,805.05493,800.6227,756.7033,835.6777,-0.16259765625,0.04168701171875,0.97613525390625,2.332763671875,-3.820648193359375,-0.897216796875,1.0,1.0,1.0,1.0,1.0,95.0,event
11:31:13.497,1.1822646,-0.7844813,-0.26863682,0.7810664,0.9441921,-0.6646008,-0.50551,0.26550886,1.0568366,-0.21065937,-0.034822315,0.4653957,0.73426425,0.24411239,-0.32838762,0.91374946,0.30600002,0.072523266,-0.5980086,0.32757998,769.19415,807.8755,798.20514,757.1062,759.92676,-0.15887451171875,0.0440673828125,0.974609375,2.220611572265625,-5.24871826171875,1.009368896484375,1.0,1.0,1.0,1.0,1.0,95.0,event
11:31:13.498,1.1822646,-0.7844813,-0.26863682,0.7810664,0.9441921,-0.6646008,-0.50551,0.26550886,1.0568366,-0.21065937,-0.034822315,0.4653957,0.73426425,0.24411239,-0.32838762,0.91374946,0.30600002,0.072523266,-0.5980086,0.32757998,771.2088,809.0842,799.41394,765.9707,767.1795,-0.15887451171875,0.0440673828125,0.974609375,2.220611572265625,-5.24871826171875,1.009368896484375,1.0,1.0,1.0,1.0,1.0,95.0,event
11:31:13.498,1.1822646,-0.7844813,-0.26863682,0.7810664,0.9441921,-0.6646008,-0.50551,0.26550886,1.0568366,-0.21065937,-0.034822315,0.4653957,0.73426425,0.24411239,-0.32838762,0.91374946,0.30600002,0.072523266,-0.5980086,0.32757998,788.5348,807.47253,801.02563,783.2967,708.3516,-0.15887451171875,0.0440673828125,0.974609375,2.220611572265625,-5.24871826171875,1.009368896484375,1.0,1.0,1.0,1.0,1.0,95.0,event
11:31:13.499,1.1822646,-0.7844813,-0.26863682,0.7810664,0.9441921,-0.6646008,-0.50551,0.26550886,1.0568366,-0.21065937,-0.034822315,0.4653957,0.73426425,0.24411239,-0.32838762,0.91374946,0.30600002,0.072523266,-0.5980086,0.32757998,799.41394,809.89014,804.65204,805.8608,718.8278,-0.15887451171875,0.0440673828125,0.974609375,2.220611572265625,-5.24871826171875,1.009368896484375,1.0,1.0,1.0,1.0,1.0,95.0,event
11:31:13.500,1.1822646,-0.7844813,-0.26863682,0.7810664,0.9441921,-0.6646008,-0.50551,0.26550886,1.0568366,-0.21065937,-0.034822315,0.4653957,0.73426425,0.24411239,-0.32838762,0.91374946,0.30600002,0.072523266,-0.5980086,0.32757998,812.3077,798.20514,802.6374,828.022,740.58606,-0.15887451171875,0.0440673828125,0.974609375,2.220611572265625,-5.24871826171875,1.009368896484375,1.0,1.0,1.0,1.0,1.0,95.0,event
11:31:13.500,1.1822646,-0.7844813,-0.26863682,0.7810664,0.9441921,-0.6646008,-0.50551,0.26550886,1.0568366,-0.21065937,-0.034822315,0.4653957,0.73426425,0.24411239,-0.32838762,0.91374946,0.30600002,0.072523266,-0.5980086,0.32757998,820.7692,786.9231,797.3993,829.6337,893.69965,-0.15887451171875,0.0440673828125,0.974609375,2.220611572265625,-5.24871826171875,1.009368896484375,1.0,1.0,1.0,1.0,1.0,95.0,event
11:31:13.501,1.1822646,-0.7844813,-0.26863682,0.7810664,0.9441921,-0.6646008,-0.50551,0.26550886,1.0568366,-0.21065937,-0.034822315,0.4653957,0.73426425,0.24411239,-0.32838762,0.91374946,0.30600002,0.072523266,-0.5980086,0.32757998,822.7839,800.6227,802.23444,830.4396,890.4762,-0.15887451171875,0.0440673828125,0.974609375,2.220611572265625,-5.24871826171875,1.009368896484375,1.0,1.0,1.0,1.0,1.0,95.0,event
11:31:13.501,1.1822646,-0.7844813,-0.26863682,0.7810664,0.9441921,-0.6646008,-0.50551,0.26550886,1.0568366,-0.21065937,-0.034822315,0.4653957,0.73426425,0.24411239,-0.32838762,0.91374946,0.30600002,0.072523266,-0.5980086,0.32757998,838.9011,808.68134,808.2784,849.7802,700.696,-0.15887451171875,0.0440673828125,0.974609375,2.220611572265625,-5.24871826171875,1.009368896484375,1.0,1.0,1.0,1.0,1.0,95.0,event
11:31:13.502,1.1822646,-0.7844813,-0.26863682,0.7810664,0.9441921,-0.6646008,-0.50551,0.26550886,1.0568366,-0.21065937,-0.034822315,0.4653957,0.73426425,0.24411239,-0.32838762,0.91374946,0.30600002,0.072523266,-0.5980086,0.32757998,858.24176,800.2198,804.2491,859.45056,706.337,-0.15887451171875,0.0440673828125,0.974609375,2.220611572265625,-5.24871826171875,1.009368896484375,1.0,1.0,1.0,1.0,1.0,95.0,event
11:31:13.502,1.1822646,-0.7844813,-0.26863682,0.7810664,0.9441921,-0.6646008,-0.50551,0.26550886,1.0568366,-0.21065937,-0.034822315,0.4653957,0.73426425,0.24411239,-0.32838762,0.91374946,0.30600002,0.072523266,-0.5980086,0.32757998,870.32965,813.5165,804.65204,887.25275,1012.5641,-0.15887451171875,0.0440673828125,0.974609375,2.220611572265625,-5.24871826171875,1.009368896484375,1.0,1.0,1.0,1.0,1.0,95.0,event
11:31:13.503,1.1822646,-0.7844813,-0.26863682,0.7810664,0.9441921,-0.6646008,-0.50551,0.26550886,1.0568366,-0.21065937,-0.034822315,0.4653957,0.73426425,0.24411239,-0.32838762,0.91374946,0.30600002,0.072523266,-0.5980086,0.32757998,873.1502,819.9634,808.2784,899.34064,987.98535,-0.15887451171875,0.0440673828125,0.974609375,2.220611572265625,-5.24871826171875,1.009368896484375,1.0,1.0,1.0,1.0,1.0,95.0,event
11:31:13.504,1.1822646,-0.7844813,-0.26863682,0.7810664,0.9441921,-0.6646008,-0.50551,0.26550886,1.0568366,-0.21065937,-0.034822315,0.4653957,0.73426425,0.24411239,-0.32838762,0.91374946,0.30600002,0.072523266,-0.5980086,0.32757998,866.7033,801.8315,805.4579,879.19415,638.24176,-0.15887451171875,0.0440673828125,0.974609375,2.220611572265625,-5.24871826171875,1.009368896484375,1.0,1.0,1.0,1.0,1.0,95.0,event
11:31:13.530,1.1822646,-0.7844813,-0.26863682,0.7810664,0.9441921,-0.6646008,-0.50551,0.26550886,1.0568366,-0.21065937,-0.034822315,0.4653957,0.73426425,0.24411239,-0.32838762,0.91374946,0.30600002,0.072523266,-0.5980086,0.32757998,871.53845,803.0403,803.8461,887.25275,676.52014,-0.16888427734375,0.044189453125,0.98614501953125,2.071075439453125,-3.3795166015625,0.3289794921875,1.0,1.0,1.0,1.0,1.0,95.0,event
11:31:13.532,1.1822646,-0.7844813,-0.26863682,0.7810664,0.9441921,-0.6646008,-0.50551,0.26550886,1.0568366,-0.21065937,-0.034822315,0.4653957,0.73426425,0.24411239,-0.32838762,0.91374946,0.30600002,0.072523266,-0.5980086,0.32757998,878.3883,805.8608,802.23444,887.6557,788.93774,-0.16888427734375,0.044189453125,0.98614501953125,2.071075439453125,-3.3795166015625,0.3289794921875,1.0,1.0,1.0,1.0,1.0,95.0,event
11:31:13.534,1.1822646,-0.7844813,-0.26863682,0.7810664,0.9441921,-0.6646008,-0.50551,0.26550886,1.0568366,-0.21065937,-0.034822315,0.4653957,0.73426425,0.24411239,-0.32838762,0.91374946,0.30600002,0.072523266,-0.5980086,0.32757998,895.31134,807.8755,801.4286,893.69965,793.7729,-0.16888427734375,0.044189453125,0.98614501953125,2.071075439453125,-3.3795166015625,0.3289794921875,1.0,1.0,1.0,1.0,1.0,95.0,event
11:31:13.535,1.1822646,-0.7844813,-0.26863682,0.7810664,0.9441921,-0.6646008,-0.50551,0.26550886,1.0568366,-0.21065937,-0.034822315,0.4653957,0.73426425,0.24411239,-0.32838762,0.91374946,0.30600002,0.072523266,-0.5980086,0.32757998,892.8938,808.2784,799.41394,902.5641,728.49817,-0.16888427734375,0.044189453125,0.98614501953125,2.071075439453125,-3.3795166015625,0.3289794921875,1.0,1.0,1.0,1.0,1.0,95.0,event
11:31:13.536,1.1822646,-0.7844813,-0.26863682,0.7810664,0.9441921,-0.6646008,-0.50551,0.26550886,1.0568366,-0.21065937,-0.034822315,0.4653957,0.73426425,0.24411239,-0.32838762,0.91374946,0.30600002,0.072523266,-0.5980086,0.32757998,875.9707,802.23444,797.3993,896.1172,761.9414,-0.16888427734375,0.044189453125,0.98614501953125,2.071075439453125,-3.3795166015625,0.3289794921875,1.0,1.0,1.0,1.0,1.0,95.0,event
11:31:13.536,1.1822646,-0.7844813,-0.26863682,0.7810664,0.9441921,-0.6646008,-0.50551,0.26550886,1.0568366,-0.21065937,-0.034822315,0.4653957,0.73426425,0.24411239,-0.32838762,0.91374946,0.30600002,0.072523266,-0.5980086,0.32757998,882.8205,810.293,801.4286,900.9524,900.9524,-0.16888427734375,0.044189453125,0.98614501953125,2.071075439453125,-3.3795166015625,0.3289794921875,1.0,1.0,1.0,1.0,1.0,95.0,event
11:31:13.537,1.1822646,-0.7844813,-0.26863682,0.7810664,0.9441921,-0.6646008,-0.50551,0.26550886,1.0568366,-0.21065937,-0.034822315,0.4653957,0.73426425,0.24411239,-0.32838762,0.91374946,0.30600002,0.072523266,-0.5980086,0.32757998,898.5348,818.7546,804.2491,906.1905,877.5824,-0.16888427734375,0.044189453125,0.98614501953125,2.071075439453125,-3.3795166015625,0.3289794921875,1.0,1.0,1.0,1.0,1.0,95.0,event
11:31:13.538,1.1822646,-0.7844813,-0.26863682,0.7810664,0.9441921,-0.6646008,-0.50551,0.26550886,1.0568366,-0.21065937,-0.034822315,0.4653957,0.73426425,0.24411239,-0.32838762,0.91374946,0.30600002,0.072523266,-0.5980086,0.32757998,894.10254,805.4579,800.6227,903.36993,740.58606,-0.16888427734375,0.044189453125,0.98614501953125,2.071075439453125,-3.3795166015625,0.3289794921875,1.0,1.0,1.0,1.0,1.0,95.0,event
11:31:13.538,1.1822646,-0.7844813,-0.26863682,0.7810664,0.9441921,-0.6646008,-0.50551,0.26550886,1.0568366,-0.21065937,-0.034822315,0.4653957,0.73426425,0.24411239,-0.32838762,0.91374946,0.30600002,0.072523266,-0.5980086,0.32757998,891.28204,796.1905,799.41394,916.26373,919.4872,-0.16888427734375,0.044189453125,0.98614501953125,2.071075439453125,-3.3795166015625,0.3289794921875,1.0,1.0,1.0,1.0,1.0,95.0,event
11:31:13.539,1.1822646,-0.7844813,-0.26863682,0.7810664,0.9441921,-0.6646008,-0.50551,0.26550886,1.0568366,-0.21065937,-0.034822315,0.4653957,0.73426425,0.24411239,-0.32838762,0.91374946,0.30600002,0.072523266,-0.5980086,0.32757998,890.87915,801.4286,799.41394,918.68134,1020.2198,-0.16888427734375,0.044189453125,0.98614501953125,2.071075439453125,-3.3795166015625,0.3289794921875,1.0,1.0,1.0,1.0,1.0,95.0,event
11:31:13.540,1.1822646,-0.7844813,-0.26863682,0.7810664,0.9441921,-0.6646008,-0.50551,0.26550886,1.0568366,-0.21065937,-0.034822315,0.4653957,0.73426425,0.24411239,-0.32838762,0.91374946,0.30600002,0.072523266,-0.5980086,0.32757998,897.326,808.2784,799.41394,906.1905,718.8278,-0.16888427734375,0.044189453125,0.98614501953125,2.071075439453125,-3.3795166015625,0.3289794921875,1.0,1.0,1.0,1.0,1.0,95.0,event
11:31:13.540,1.1822646,-0.79828125,-0.26163006,0.7810664,0.9441921,-0.6589654,-0.536637,0.26550886,1.0568366,-0.20500994,-0.05695981,0.4653957,0.73426425,0.26015866,-0.3395876,0.91374946,0.30600002,0.07145518,-0.60487753,0.32757998,891.28204,807.0696,802.23444,905.38464,653.5531,-0.16888427734375,0.044189453125,0.98614501953125,2.071075439453125,-3.3795166015625,0.3289794921875,1.0,1.0,1.0,1.0,1.0,95.0,event
11:31:13.543,,,,,,,,,,,,,,,,,,,,,,,,,,,,,,,,,,,,,,blink
11:31:13.610,1.1822646,-0.79828125,-0.26163006,0.7810664,0.9441921,-0.6589654,-0.536637,0.26550886,1.0568366,-0.20500994,-0.05695981,0.4653957,0.73426425,0.26015866,-0.3395876,0.91374946,0.30600002,0.07145518,-0.60487753,0.32757998,895.7143,809.89014,805.4579,918.2784,903.7729,-0.15948486328125,0.04351806640625,0.97393798828125,1.009368896484375,-4.35150146484375,-1.48040771484375,1.0,1.0,1.0,1.0,1.0,95.0,event
11:31:13.611,1.1822646,-0.79828125,-0.26163006,0.7810664,0.9441921,-0.6589654,-0.536637,0.26550886,1.0568366,-0.20500994,-0.05695981,0.4653957,0.73426425,0.26015866,-0.3395876,0.91374946,0.30600002,0.07145518,-0.60487753,0.32757998,900.14655,810.293,801.4286,915.8608,932.7839,-0.15948486328125,0.04351806640625,0.97393798828125,1.009368896484375,-4.35150146484375,-1.48040771484375,1.0,1.0,1.0,1.0,1.0,95.0,event
11:31:13.612,1.1822646,-0.79828125,-0.26163006,0.7810664,0.9441921,-0.6589654,-0.536637,0.26550886,1.0568366,-0.20500994,-0.05695981,0.4653957,0.73426425,0.26015866,-0.3395876,0.91374946,0.30600002,0.07145518,-0.60487753,0.32757998,881.2088,799.81683,799.41394,897.72894,707.5458,-0.15948486328125,0.04351806640625,0.97393798828125,1.009368896484375,-4.35150146484375,-1.48040771484375,1.0,1.0,1.0,1.0,1.0,95.0,event
11:31:13.612,1.1822646,-0.79828125,-0.26163006,0.7810664,0.9441921,-0.6589654,-0.536637,0.26550886,1.0568366,-0.20500994,-0.05695981,0.4653957,0.73426425,0.26015866,-0.3395876,0.91374946,0.30600002,0.07145518,-0.60487753,0.32757998,876.77655,805.05493,803.8461,904.57874,678.5348,-0.15948486328125,0.04351806640625,0.97393798828125,1.009368896484375,-4.35150146484375,-1.48040771484375,1.0,1.0,1.0,1.0,1.0,95.0,event
11:31:13.613,1.1822646,-0.79828125,-0.26163006,0.7810664,0.9441921,-0.6589654,-0.536637,0.26550886,1.0568366,-0.20500994,-0.05695981,0.4653957,0.73426425,0.26015866,-0.3395876,0.91374946,0.30600002,0.07145518,-0.60487753,0.32757998,880.80585,806.26373,801.8315,904.9817,785.7143,-0.15948486328125,0.04351806640625,0.97393798828125,1.009368896484375,-4.35150146484375,-1.48040771484375,1.0,1.0,1.0,1.0,1.0,95.0,event
11:31:13.614,1.1822646,-0.79828125,-0.26163006,0.7810664,0.9441921,-0.6589654,-0.536637,0.26550886,1.0568366,-0.20500994,-0.05695981,0.4653957,0.73426425,0.26015866,-0.3395876,0.91374946,0.30600002,0.07145518,-0.60487753,0.32757998,890.4762,795.78754,794.57874,901.3553,854.21246,-0.15948486328125,0.04351806640625,0.97393798828125,1.009368896484375,-4.35150146484375,-1.48040771484375,1.0,1.0,1.0,1.0,1.0,95.0,event
11:31:13.614,1.1822646,-0.79828125,-0.26163006,0.7810664,0.9441921,-0.6589654,-0.536637,0.26550886,1.0568366,-0.20500994,-0.05695981,0.4653957,0.73426425,0.26015866,-0.3395876,0.91374946,0.30600002,0.07145518,-0.60487753,0.32757998,888.86444,794.9817,794.9817,915.8608,874.7619,-0.15948486328125,0.04351806640625,0.97393798828125,1.009368896484375,-4.35150146484375,-1.48040771484375,1.0,1.0,1.0,1.0,1.0,95.0,event
11:31:13.615,1.1822646,-0.79828125,-0.26163006,0.7810664,0.9441921,-0.6589654,-0.536637,0.26550886,1.0568366,-0.20500994,-0.05695981,0.4653957,0.73426425,0.26015866,-0.3395876,0.91374946,0.30600002,0.07145518,-0.60487753,0.32757998,889.67035,801.4286,798.60803,903.36993,823.9927,-0.15948486328125,0.04351806640625,0.97393798828125,1.009368896484375,-4.35150146484375,-1.48040771484375,1.0,1.0,1.0,1.0,1.0,95.0,event
11:31:13.616,1.1822646,-0.79828125,-0.26163006,0.7810664,0.9441921,-0.6589654,-0.536637,0.26550886,1.0568366,-0.20500994,-0.05695981,0.4653957,0.73426425,0.26015866,-0.3395876,0.91374946,0.30600002,0.07145518,-0.60487753,0.32757998,892.8938,811.0989,801.8315,899.34064,933.5897,-0.15948486328125,0.04351806640625,0.97393798828125,1.009368896484375,-4.35150146484375,-1.48040771484375,1.0,1.0,1.0,1.0,1.0,95.0,event
11:31:13.617,1.1822646,-0.79828125,-0.26163006,0.7810664,0.9441921,-0.6589654,-0.536637,0.26550886,1.0568366,-0.20500994,-0.05695981,0.4653957,0.73426425,0.26015866,-0.3395876,0.91374946,0.30600002,0.07145518,-0.60487753,0.32757998,893.2967,810.293,800.2198,906.5934,976.7033,-0.15948486328125,0.04351806640625,0.97393798828125,1.009368896484375,-4.35150146484375,-1.48040771484375,1.0,1.0,1.0,1.0,1.0,95.0,event
11:31:13.617,1.1822646,-0.79828125,-0.26163006,0.7810664,0.9441921,-0.6589654,-0.536637,0.26550886,1.0568366,-0.20500994,-0.05695981,0.4653957,0.73426425,0.26015866,-0.3395876,0.91374946,0.30600002,0.07145518,-0.60487753,0.32757998,896.9231,806.6667,799.011,900.14655,757.1062,-0.15948486328125,0.04351806640625,0.97393798828125,1.009368896484375,-4.35150146484375,-1.48040771484375,1.0,1.0,1.0,1.0,1.0,95.0,event
11:31:13.618,1.1822646,-0.79828125,-0.26163006,0.7810664,0.9441921,-0.6589654,-0.536637,0.26550886,1.0568366,-0.20500994,-0.05695981,0.4653957,0.73426425,0.26015866,-0.3395876,0.91374946,0.30600002,0.07145518,-0.60487753,0.32757998,897.72894,809.4872,797.8022,898.93774,745.82416,-0.15948486328125,0.04351806640625,0.97393798828125,1.009368896484375,-4.35150146484375,-1.48040771484375,1.0,1.0,1.0,1.0,1.0,95.0,event
11:31:13.641,1.1822646,-0.79828125,-0.26163006,0.7810664,0.9441921,-0.6589654,-0.536637,0.26550886,1.0568366,-0.20500994,-0.05695981,0.4653957,0.73426425,0.26015866,-0.3395876,0.91374946,0.30600002,0.07145518,-0.60487753,0.32757998,886.8498,807.8755,797.8022,890.87915,768.3883,-0.15948486328125,0.04351806640625,0.97393798828125,1.009368896484375,-4.35150146484375,-1.48040771484375,1.0,1.0,1.0,1.0,1.0,95.0,event
11:31:13.642,1.1822646,-0.79828125,-0.26163006,0.7810664,0.9441921,-0.6589654,-0.536637,0.26550886,1.0568366,-0.20500994,-0.05695981,0.4653957,0.73426425,0.26015866,-0.3395876,0.91374946,0.30600002,0.07145518,-0.60487753,0.32757998,890.4762,807.0696,799.41394,877.98535,727.6923,-0.15948486328125,0.04351806640625,0.97393798828125,1.009368896484375,-4.35150146484375,-1.48040771484375,1.0,1.0,1.0,1.0,1.0,95.0,event
11:31:13.643,1.1822646,-0.79828125,-0.26163006,0.7810664,0.9441921,-0.6589654,-0.536637,0.26550886,1.0568366,-0.20500994,-0.05695981,0.4653957,0.73426425,0.26015866,-0.3395876,0.91374946,0.30600002,0.07145518,-0.60487753,0.32757998,894.90845,810.696,797.3993,871.53845,694.65204,-0.15948486328125,0.04351806640625,0.97393798828125,1.009368896484375,-4.35150146484375,-1.48040771484375,1.0,1.0,1.0,1.0,1.0,95.0,event
11:31:13.643,1.1822646,-0.79828125,-0.26163006,0.7810664,0.9441921,-0.6589654,-0.536637,0.26550886,1.0568366,-0.20500994,-0.05695981,0.4653957,0.73426425,0.26015866,-0.3395876,0.91374946,0.30600002,0.07145518,-0.60487753,0.32757998,882.01465,811.0989,796.99634,876.3736,858.24176,-0.15948486328125,0.04351806640625,0.97393798828125,1.009368896484375,-4.35150146484375,-1.48040771484375,1.0,1.0,1.0,1.0,1.0,95.0,event
11:31:13.644,1.1822646,-0.79828125,-0.26163006,0.7810664,0.9441921,-0.6589654,-0.536637,0.26550886,1.0568366,-0.20500994,-0.05695981,0.4653957,0.73426425,0.26015866,-0.3395876,0.91374946,0.30600002,0.07145518,-0.60487753,0.32757998,884.0293,802.23444,795.38464,879.19415,968.6447,-0.15948486328125,0.04351806640625,0.97393798828125,1.009368896484375,-4.35150146484375,-1.48040771484375,1.0,1.0,1.0,1.0,1.0,95.0,event
11:31:13.645,1.1822646,-0.79828125,-0.26163006,0.7810664,0.9441921,-0.6589654,-0.536637,0.26550886,1.0568366,-0.20500994,-0.05695981,0.4653957,0.73426425,0.26015866,-0.3395876,0.91374946,0.30600002,0.07145518,-0.60487753,0.32757998,882.4176,796.5934,793.7729,866.30035,826.4103,-0.15948486328125,0.04351806640625,0.97393798828125,1.009368896484375,-4.35150146484375,-1.48040771484375,1.0,1.0,1.0,1.0,1.0,95.0,event
11:31:13.645,1.1822646,-0.79828125,-0.26163006,0.7810664,0.9441921,-0.6589654,-0.536637,0.26550886,1.0568366,-0.20500994,-0.05695981,0.4653957,0.73426425,0.26015866,-0.3395876,0.91374946,0.30600002,0.07145518,-0.60487753,0.32757998,875.56775,799.41394,796.99634,875.16486,813.5165,-0.15948486328125,0.04351806640625,0.97393798828125,1.009368896484375,-4.35150146484375,-1.48040771484375,1.0,1.0,1.0,1.0,1.0,95.0,event
11:31:13.646,1.1822646,-0.79828125,-0.26163006,0.7810664,0.9441921,-0.6589654,-0.536637,0.26550886,1.0568366,-0.20500994,-0.05695981,0.4653957,0.73426425,0.26015866,-0.3395876,0.91374946,0.30600002,0.07145518,-0.60487753,0.32757998,881.2088,805.8608,795.78754,873.95605,1041.1721,-0.15948486328125,0.04351806640625,0.97393798828125,1.009368896484375,-4.35150146484375,-1.48040771484375,1.0,1.0,1.0,1.0,1.0,95.0,event
11:31:13.646,1.1822646,-0.79828125,-0.26163006,0.7810664,0.9441921,-0.6589654,-0.536637,0.26550886,1.0568366,-0.20500994,-0.05695981,0.4653957,0.73426425,0.26015866,-0.3395876,0.91374946,0.30600002,0.07145518,-0.60487753,0.32757998,876.3736,802.23444,798.60803,883.22345,932.7839,-0.15948486328125,0.04351806640625,0.97393798828125,1.009368896484375,-4.35150146484375,-1.48040771484375,1.0,1.0,1.0,1.0,1.0,95.0,event
11:31:13.647,1.1822646,-0.79828125,-0.26163006,0.7810664,0.9441921,-0.6589654,-0.536637,0.26550886,1.0568366,-0.20500994,-0.05695981,0.4653957,0.73426425,0.26015866,-0.3395876,0.91374946,0.30600002,0.07145518,-0.60487753,0.32757998,889.2674,810.293,794.9817,880.80585,826.8132,-0.15948486328125,0.04351806640625,0.97393798828125,1.009368896484375,-4.35150146484375,-1.48040771484375,1.0,1.0,1.0,1.0,1.0,95.0,event
11:31:13.647,1.1822646,-0.79828125,-0.26163006,0.7810664,0.9441921,-0.6589654,-0.536637,0.26550886,1.0568366,-0.20500994,-0.05695981,0.4653957,0.73426425,0.26015866,-0.3395876,0.91374946,0.30600002,0.07145518,-0.60487753,0.32757998,883.6264,807.8755,796.99634,877.1795,666.4469,-0.15948486328125,0.04351806640625,0.97393798828125,1.009368896484375,-4.35150146484375,-1.48040771484375,1.0,1.0,1.0,1.0,1.0,95.0,event
11:31:13.648,1.1822646,-0.79828125,-0.26163006,0.7810664,0.9441921,-0.6589654,-0.536637,0.26550886,1.0568366,-0.20500994,-0.05695981,0.4653957,0.73426425,0.26015866,-0.3395876,0.91374946,0.30600002,0.07145518,-0.60487753,0.32757998,876.3736,806.26373,799.81683,866.7033,751.06226,-0.15948486328125,0.04351806640625,0.97393798828125,1.009368896484375,-4.35150146484375,-1.48040771484375,1.0,1.0,1.0,1.0,1.0,95.0,event
11:31:13.677,1.1822646,-0.79828125,-0.26163006,0.7810664,0.9441921,-0.6589654,-0.536637,0.26550886,1.0568366,-0.20500994,-0.05695981,0.4653957,0.73426425,0.26015866,-0.3395876,0.91374946,0.30600002,0.07145518,-0.60487753,0.32757998,881.2088,809.89014,798.60803,870.7326,693.44324,-0.1536865234375,0.04022216796875,0.97705078125,1.495361328125,-4.44122314453125,-0.11962890625,1.0,1.0,1.0,1.0,1.0,95.0,event
11:31:13.678,1.1822646,-0.8068342,-0.24373458,0.7810664,0.9441921,-0.65789145,-0.55720687,0.26550886,1.0568366,-0.18618578,-0.10008374,0.4653957,0.73426425,0.26833034,-0.33939016,0.91374946,0.30600002,0.0644419,-0.6179992,0.32757998,868.315,811.0989,795.78754,875.9707,643.47986,-0.1536865234375,0.04022216796875,0.97705078125,1.495361328125,-4.44122314453125,-0.11962890625,1.0,1.0,1.0,1.0,1.0,95.0,event
11:31:13.682,1.1822646,-0.8068342,-0.24373458,0.7810664,0.9441921,-0.65789145,-0.55720687,0.26550886,1.0568366,-0.18618578,-0.10008374,0.4653957,0.73426425,0.26833034,-0.33939016,0.91374946,0.30600002,0.0644419,-0.6179992,0.32757998,863.0769,796.99634,794.9817,872.3443,672.0879,-0.1536865234375,0.04022216796875,0.97705078125,1.495361328125,-4.44122314453125,-0.11962890625,1.0,1.0,1.0,1.0,1.0,95.0,event
11:31:13.683,1.1822646,-0.8068342,-0.24373458,0.7810664,0.9441921,-0.65789145,-0.55720687,0.26550886,1.0568366,-0.18618578,-0.10008374,0.4653957,0.73426425,0.26833034,-0.33939016,0.91374946,0.30600002,0.0644419,-0.6179992,0.32757998,868.315,802.23444,796.99634,867.50916,728.9011,-0.1536865234375,0.04022216796875,0.97705078125,1.495361328125,-4.44122314453125,-0.11962890625,1.0,1.0,1.0,1.0,1.0,95.0,event
11:31:13.683,1.1822646,-0.8068342,-0.24373458,0.7810664,0.9441921,-0.65789145,-0.55720687,0.26550886,1.0568366,-0.18618578,-0.10008374,0.4653957,0.73426425,0.26833034,-0.33939016,0.91374946,0.30600002,0.0644419,-0.6179992,0.32757998,857.8388,806.26373,796.1905,858.24176,727.28937,-0.1536865234375,0.04022216796875,0.97705078125,1.495361328125,-4.44122314453125,-0.11962890625,1.0,1.0,1.0,1.0,1.0,95.0,event
11:31:13.684,1.1822646,-0.8068342,-0.24373458,0.7810664,0.9441921,-0.65789145,-0.55720687,0.26550886,1.0568366,-0.18618578,-0.10008374,0.4653957,0.73426425,0.26833034,-0.33939016,0.91374946,0.30600002,0.0644419,-0.6179992,0.32757998,859.0476,800.6227,793.36993,850.58606,788.1319,-0.1536865234375,0.04022216796875,0.97705078125,1.495361328125,-4.44122314453125,-0.11962890625,1.0,1.0,1.0,1.0,1.0,95.0,event
11:31:13.685,1.1822646,-0.8068342,-0.24373458,0.7810664,0.9441921,-0.65789145,-0.55720687,0.26550886,1.0568366,-0.18618578,-0.10008374,0.4653957,0.73426425,0.26833034,-0.33939016,0.91374946,0.30600002,0.0644419,-0.6179992,0.32757998,865.09155,808.2784,795.38464,853.4066,838.9011,-0.1536865234375,0.04022216796875,0.97705078125,1.495361328125,-4.44122314453125,-0.11962890625,1.0,1.0,1.0,1.0,1.0,95.0,event
11:31:13.685,1.1822646,-0.8068342,-0.24373458,0.7810664,0.9441921,-0.65789145,-0.55720687,0.26550886,1.0568366,-0.18618578,-0.10008374,0.4653957,0.73426425,0.26833034,-0.33939016,0.91374946,0.30600002,0.0644419,-0.6179992,0.32757998,866.7033,805.8608,796.5934,869.92676,983.1502,-0.1536865234375,0.04022216796875,0.97705078125,1.495361328125,-4.44122314453125,-0.11962890625,1.0,1.0,1.0,1.0,1.0,95.0,event
11:31:13.686,1.1822646,-0.8068342,-0.24373458,0.7810664,0.9441921,-0.65789145,-0.55720687,0.26550886,1.0568366,-0.18618578,-0.10008374,0.4653957,0.73426425,0.26833034,-0.33939016,0.91374946,0.30600002,0.0644419,-0.6179992,0.32757998,855.82416,793.7729,797.8022,859.0476,751.4652,-0.1536865234375,0.04022216796875,0.97705078125,1.495361328125,-4.44122314453125,-0.11962890625,1.0,1.0,1.0,1.0,1.0,95.0,event
11:31:13.686,1.1822646,-0.8068342,-0.24373458,0.7810664,0.9441921,-0.65789145,-0.55720687,0.26550886,1.0568366,-0.18618578,-0.10008374,0.4653957,0.73426425,0.26833034,-0.33939016,0.91374946,0.30600002,0.0644419,-0.6179992,0.32757998,857.03296,799.81683,794.57874,878.3883,1049.6337,-0.1536865234375,0.04022216796875,0.97705078125,1.495361328125,-4.44122314453125,-0.11962890625,1.0,1.0,1.0,1.0,1.0,95.0,event
11:31:13.687,1.1822646,-0.8068342,-0.24373458,0.7810664,0.9441921,-0.65789145,-0.55720687,0.26550886,1.0568366,-0.18618578,-0.10008374,0.4653957,0.73426425,0.26833034,-0.33939016,0.91374946,0.30600002,0.0644419,-0.6179992,0.32757998,857.03296,795.78754,799.011,848.1685,660.40295,-0.1536865234375,0.04022216796875,0.97705078125,1.495361328125,-4.44122314453125,-0.11962890625,1.0,1.0,1.0,1.0,1.0,95.0,event
11:31:13.689,1.1822646,-0.8068342,-0.24373458,0.7810664,0.9441921,-0.65789145,-0.55720687,0.26550886,1.0568366,-0.18618578,-0.10008374,0.4653957,0.73426425,0.26833034,-0.33939016,0.91374946,0.30600002,0.0644419,-0.6179992,0.32757998,843.3333,797.3993,794.57874,861.06226,716.8132,-0.1536865234375,0.04022216796875,0.97705078125,1.495361328125,-4.44122314453125,-0.11962890625,1.0,1.0,1.0,1.0,1.0,95.0,event
11:31:13.712,1.1822646,-0.8068342,-0.24373458,0.7810664,0.9441921,-0.65789145,-0.55720687,0.26550886,1.0568366,-0.18618578,-0.10008374,0.4653957,0.73426425,0.26833034,-0.33939016,0.91374946,0.30600002,0.0644419,-0.6179992,0.32757998,851.79486,796.99634,790.9524,872.3443,726.4835,-0.1597900390625,0.03802490234375,0.9752197265625,1.2261962890625,-5.061798095703125,0.515899658203125,1.0,1.0,1.0,1.0,1.0,95.0,event
11:31:13.713,1.1822646,-0.8068342,-0.24373458,0.7810664,0.9441921,-0.65789145,-0.55720687,0.26550886,1.0568366,-0.18618578,-0.10008374,0.4653957,0.73426425,0.26833034,-0.33939016,0.91374946,0.30600002,0.0644419,-0.6179992,0.32757998,851.79486,799.011,793.7729,870.32965,653.95605,-0.1597900390625,0.03802490234375,0.9752197265625,1.2261962890625,-5.061798095703125,0.515899658203125,1.0,1.0,1.0,1.0,1.0,95.0,event
11:31:13.714,1.1822646,-0.8068342,-0.24373458,0.7810664,0.9441921,-0.65789145,-0.55720687,0.26550886,1.0568366,-0.18618578,-0.10008374,0.4653957,0.73426425,0.26833034,-0.33939016,0.91374946,0.30600002,0.0644419,-0.6179992,0.32757998,845.7509,800.2198,790.9524,869.5238,660.40295,-0.1597900390625,0.03802490234375,0.9752197265625,1.2261962890625,-5.061798095703125,0.515899658203125,1.0,1.0,1.0,1.0,1.0,95.0,event
11:31:13.715,1.1822646,-0.8068342,-0.24373458,0.7810664,0.9441921,-0.65789145,-0.55720687,0.26550886,1.0568366,-0.18618578,-0.10008374,0.4653957,0.73426425,0.26833034,-0.33939016,0.91374946,0.30600002,0.0644419,-0.6179992,0.32757998,846.1539,796.99634,787.72894,860.2564,740.18317,-0.1597900390625,0.03802490234375,0.9752197265625,1.2261962890625,-5.061798095703125,0.515899658203125,1.0,1.0,1.0,1.0,1.0,95.0,event
11:31:13.719,1.1822646,-0.8068342,-0.24373458,0.7810664,0.9441921,-0.65789145,-0.55720687,0.26550886,1.0568366,-0.18618578,-0.10008374,0.4653957,0.73426425,0.26833034,-0.33939016,0.91374946,0.30600002,0.0644419,-0.6179992,0.32757998,840.10986,795.78754,792.5641,854.61536,708.3516,-0.1597900390625,0.03802490234375,0.9752197265625,1.2261962890625,-5.061798095703125,0.515899658203125,1.0,1.0,1.0,1.0,1.0,95.0,event
11:31:13.721,1.1822646,-0.8068342,-0.24373458,0.7810664,0.9441921,-0.65789145,-0.55720687,0.26550886,1.0568366,-0.18618578,-0.10008374,0.4653957,0.73426425,0.26833034,-0.33939016,0.91374946,0.30600002,0.0644419,-0.6179992,0.32757998,846.55676,800.6227,794.17584,869.12085,781.685,-0.1597900390625,0.03802490234375,0.9752197265625,1.2261962890625,-5.061798095703125,0.515899658203125,1.0,1.0,1.0,1.0,1.0,95.0,event
11:31:13.722,1.1822646,-0.8068342,-0.24373458,0.7810664,0.9441921,-0.65789145,-0.55720687,0.26550886,1.0568366,-0.18618578,-0.10008374,0.4653957,0.73426425,0.26833034,-0.33939016,0.91374946,0.30600002,0.0644419,-0.6179992,0.32757998,843.3333,799.41394,788.93774,857.4359,1001.28204,-0.1597900390625,0.03802490234375,0.9752197265625,1.2261962890625,-5.061798095703125,0.515899658203125,1.0,1.0,1.0,1.0,1.0,95.0,event
11:31:13.724,1.1822646,-0.8068342,-0.24373458,0.7810664,0.9441921,-0.65789145,-0.55720687,0.26550886,1.0568366,-0.18618578,-0.10008374,0.4653957,0.73426425,0.26833034,-0.33939016,0.91374946,0.30600002,0.0644419,-0.6179992,0.32757998,834.4689,800.2198,788.5348,839.707,1085.4945,-0.1597900390625,0.03802490234375,0.9752197265625,1.2261962890625,-5.061798095703125,0.515899658203125,1.0,1.0,1.0,1.0,1.0,95.0,event
11:31:13.725,1.1822646,-0.8068342,-0.24373458,0.7810664,0.9441921,-0.65789145,-0.55720687,0.26550886,1.0568366,-0.18618578,-0.10008374,0.4653957,0.73426425,0.26833034,-0.33939016,0.91374946,0.30600002,0.0644419,-0.6179992,0.32757998,841.31866,801.8315,792.96704,838.9011,809.89014,-0.1597900390625,0.03802490234375,0.9752197265625,1.2261962890625,-5.061798095703125,0.515899658203125,1.0,1.0,1.0,1.0,1.0,95.0,event
11:31:13.726,1.1822646,-0.8068342,-0.24373458,0.7810664,0.9441921,-0.65789145,-0.55720687,0.26550886,1.0568366,-0.18618578,-0.10008374,0.4653957,0.73426425,0.26833034,-0.33939016,0.91374946,0.30600002,0.0644419,-0.6179992,0.32757998,846.9597,794.9817,791.75824,842.9304,726.08057,-0.1597900390625,0.03802490234375,0.9752197265625,1.2261962890625,-5.061798095703125,0.515899658203125,1.0,1.0,1.0,1.0,1.0,95.0,event
11:31:13.726,1.1822646,-0.8068342,-0.24373458,0.7810664,0.9441921,-0.65789145,-0.55720687,0.26550886,1.0568366,-0.18618578,-0.10008374,0.4653957,0.73426425,0.26833034,-0.33939016,0.91374946,0.30600002,0.0644419,-0.6179992,0.32757998,848.1685,795.38464,791.75824,846.1539,884.83514,-0.1597900390625,0.03802490234375,0.9752197265625,1.2261962890625,-5.061798095703125,0.515899658203125,1.0,1.0,1.0,1.0,1.0,95.0,event
11:31:13.727,1.1822646,-0.8068342,-0.24373458,0.7810664,0.9441921,-0.65789145,-0.55720687,0.26550886,1.0568366,-0.18618578,-0.10008374,0.4653957,0.73426425,0.26833034,-0.33939016,0.91374946,0.30600002,0.0644419,-0.6179992,0.32757998,841.31866,804.2491,792.96704,841.7216,836.08057,-0.1597900390625,0.03802490234375,0.9752197265625,1.2261962890625,-5.061798095703125,0.515899658203125,1.0,1.0,1.0,1.0,1.0,95.0,event
11:31:13.775,1.1822646,-0.8068342,-0.24373458,0.7810664,0.9441921,-0.65789145,-0.55720687,0.26550886,1.0568366,-0.18618578,-0.10008374,0.4653957,0.73426425,0.26833034,-0.33939016,0.91374946,0.30600002,0.0644419,-0.6179992,0.32757998,837.28937,800.6227,790.14655,833.663,724.87177,-0.15789794921875,0.0396728515625,0.97509765625,2.609405517578125,-3.94775390625,0.037384033203125,1.0,1.0,1.0,1.0,1.0,95.0,event
11:31:13.776,1.1822646,-0.8068342,-0.24373458,0.7810664,0.9441921,-0.65789145,-0.55720687,0.26550886,1.0568366,-0.18618578,-0.10008374,0.4653957,0.73426425,0.26833034,-0.33939016,0.91374946,0.30600002,0.0644419,-0.6179992,0.32757998,853.00366,792.1612,788.1319,835.2747,655.16486,-0.15789794921875,0.0396728515625,0.97509765625,2.609405517578125,-3.94775390625,0.037384033203125,1.0,1.0,1.0,1.0,1.0,95.0,event
11:31:13.777,1.1822646,-0.8068342,-0.24373458,0.7810664,0.9441921,-0.65789145,-0.55720687,0.26550886,1.0568366,-0.18618578,-0.10008374,0.4653957,0.73426425,0.26833034,-0.33939016,0.91374946,0.30600002,0.0644419,-0.6179992,0.32757998,833.663,791.75824,788.1319,832.0513,674.10254,-0.15789794921875,0.0396728515625,0.97509765625,2.609405517578125,-3.94775390625,0.037384033203125,1.0,1.0,1.0,1.0,1.0,95.0,event
11:31:13.778,1.1822646,-0.80743885,-0.21393429,0.7810664,0.9441921,-0.66265744,-0.56407475,0.26550886,1.0568366,-0.16630127,-0.1545314,0.4653957,0.73426425,0.26645002,-0.3311347,0.91374946,0.30600002,0.045321066,-0.6390322,0.32757998,828.022,798.20514,789.7436,829.6337,733.73627,-0.15789794921875,0.0396728515625,0.97509765625,2.609405517578125,-3.94775390625,0.037384033203125,1.0,1.0,1.0,1.0,1.0,95.0,event
11:31:13.782,1.1822646,-0.80743885,-0.21393429,0.7810664,0.9441921,-0.66265744,-0.56407475,0.26550886,1.0568366,-0.16630127,-0.1545314,0.4653957,0.73426425,0.26645002,-0.3311347,0.91374946,0.30600002,0.045321066,-0.6390322,0.32757998,846.1539,801.02563,792.96704,841.31866,745.42126,-0.15789794921875,0.0396728515625,0.97509765625,2.609405517578125,-3.94775390625,0.037384033203125,1.0,1.0,1.0,1.0,1.0,95.0,event
11:31:13.782,1.1822646,-0.80743885,-0.21393429,0.7810664,0.9441921,-0.66265744,-0.56407475,0.26550886,1.0568366,-0.16630127,-0.1545314,0.4653957,0.73426425,0.26645002,-0.3311347,0.91374946,0.30600002,0.045321066,-0.6390322,0.32757998,830.4396,787.326,790.54944,836.08057,736.1539,-0.15789794921875,0.0396728515625,0.97509765625,2.609405517578125,-3.94775390625,0.037384033203125,1.0,1.0,1.0,1.0,1.0,95.0,event
11:31:13.783,1.1822646,-0.80743885,-0.21393429,0.7810664,0.9441921,-0.66265744,-0.56407475,0.26550886,1.0568366,-0.16630127,-0.1545314,0.4653957,0.73426425,0.26645002,-0.3311347,0.91374946,0.30600002,0.045321066,-0.6390322,0.32757998,823.1868,790.54944,788.93774,832.0513,960.18317,-0.15789794921875,0.0396728515625,0.97509765625,2.609405517578125,-3.94775390625,0.037384033203125,1.0,1.0,1.0,1.0,1.0,95.0,event
11:31:13.783,1.1822646,-0.80743885,-0.21393429,0.7810664,0.9441921,-0.66265744,-0.56407475,0.26550886,1.0568366,-0.16630127,-0.1545314,0.4653957,0.73426425,0.26645002,-0.3311347,0.91374946,0.30600002,0.045321066,-0.6390322,0.32757998,831.6484,792.1612,787.326,842.9304,960.58606,-0.15789794921875,0.0396728515625,0.97509765625,2.609405517578125,-3.94775390625,0.037384033203125,1.0,1.0,1.0,1.0,1.0,95.0,event
11:31:13.784,1.1822646,-0.80743885,-0.21393429,0.7810664,0.9441921,-0.66265744,-0.56407475,0.26550886,1.0568366,-0.16630127,-0.1545314,0.4653957,0.73426425,0.26645002,-0.3311347,0.91374946,0.30600002,0.045321066,-0.6390322,0.32757998,834.4689,782.8938,780.87915,837.6923,772.4176,-0.15789794921875,0.0396728515625,0.97509765625,2.609405517578125,-3.94775390625,0.037384033203125,1.0,1.0,1.0,1.0,1.0,95.0,event
11:31:13.784,1.1822646,-0.80743885,-0.21393429,0.7810664,0.9441921,-0.66265744,-0.56407475,0.26550886,1.0568366,-0.16630127,-0.1545314,0.4653957,0.73426425,0.26645002,-0.3311347,0.91374946,0.30600002,0.045321066,-0.6390322,0.32757998,840.9158,784.5055,782.0879,839.304,665.64105,-0.15789794921875,0.0396728515625,0.97509765625,2.609405517578125,-3.94775390625,0.037384033203125,1.0,1.0,1.0,1.0,1.0,95.0,event
11:31:13.785,1.1822646,-0.80743885,-0.21393429,0.7810664,0.9441921,-0.66265744,-0.56407475,0.26550886,1.0568366,-0.16630127,-0.1545314,0.4653957,0.73426425,0.26645002,-0.3311347,0.91374946,0.30600002,0.045321066,-0.6390322,0.32757998,822.381,790.54944,780.87915,836.08057,826.8132,-0.15789794921875,0.0396728515625,0.97509765625,2.609405517578125,-3.94775390625,0.037384033203125,1.0,1.0,1.0,1.0,1.0,95.0,event
11:31:13.785,1.1822646,-0.80743885,-0.21393429,0.7810664,0.9441921,-0.66265744,-0.56407475,0.26550886,1.0568366,-0.16630127,-0.1545314,0.4653957,0.73426425,0.26645002,-0.3311347,0.91374946,0.30600002,0.045321066,-0.6390322,0.32757998,818.3516,805.4579,786.52014,832.0513,721.2454,-0.15789794921875,0.0396728515625,0.97509765625,2.609405517578125,-3.94775390625,0.037384033203125,1.0,1.0,1.0,1.0,1.0,95.0,event
11:31:13.847,1.1822646,-0.80743885,-0.21393429,0.7810664,0.9441921,-0.66265744,-0.56407475,0.26550886,1.0568366,-0.16630127,-0.1545314,0.4653957,0.73426425,0.26645002,-0.3311347,0.91374946,0.30600002,0.045321066,-0.6390322,0.32757998,815.9341,796.5934,788.1319,835.2747,748.24176,-0.1549072265625,0.036376953125,0.98065185546875,2.175750732421875,-3.715972900390625,0.112152099609375,1.0,1.0,1.0,1.0,1.0,95.0,event
11:31:13.848,1.1822646,-0.80743885,-0.21393429,0.7810664,0.9441921,-0.66265744,-0.56407475,0.26550886,1.0568366,-0.16630127,-0.1545314,0.4653957,0.73426425,0.26645002,-0.3311347,0.91374946,0.30600002,0.045321066,-0.6390322,0.32757998,819.15753,787.326,782.0879,840.10986,844.5421,-0.1549072265625,0.036376953125,0.98065185546875,2.175750732421875,-3.715972900390625,0.112152099609375,1.0,1.0,1.0,1.0,1.0,95.0,event
11:31:13.849,1.1822646,-0.80743885,-0.21393429,0.7810664,0.9441921,-0.66265744,-0.56407475,0.26550886,1.0568366,-0.16630127,-0.1545314,0.4653957,0.73426425,0.26645002,-0.3311347,0.91374946,0.30600002,0.045321066,-0.6390322,0.32757998,830.0366,788.1319,780.07324,853.8095,838.49817,-0.1549072265625,0.036376953125,0.98065185546875,2.175750732421875,-3.715972900390625,0.112152099609375,1.0,1.0,1.0,1.0,1.0,95.0,event
11:31:13.850,1.1822646,-0.80743885,-0.21393429,0.7810664,0.9441921,-0.66265744,-0.56407475,0.26550886,1.0568366,-0.16630127,-0.1545314,0.4653957,0.73426425,0.26645002,-0.3311347,0.91374946,0.30600002,0.045321066,-0.6390322,0.32757998,846.9597,795.38464,784.10254,858.24176,693.8461,-0.1549072265625,0.036376953125,0.98065185546875,2.175750732421875,-3.715972900390625,0.112152099609375,1.0,1.0,1.0,1.0,1.0,95.0,event
11:31:13.851,1.1822646,-0.80743885,-0.21393429,0.7810664,0.9441921,-0.66265744,-0.56407475,0.26550886,1.0568366,-0.16630127,-0.1545314,0.4653957,0.73426425,0.26645002,-0.3311347,0.91374946,0.30600002,0.045321066,-0.6390322,0.32757998,846.55676,795.78754,785.7143,843.3333,701.50183,-0.1549072265625,0.036376953125,0.98065185546875,2.175750732421875,-3.715972900390625,0.112152099609375,1.0,1.0,1.0,1.0,1.0,95.0,event
11:31:13.852,1.1822646,-0.80743885,-0.21393429,0.7810664,0.9441921,-0.66265744,-0.56407475,0.26550886,1.0568366,-0.16630127,-0.1545314,0.4653957,0.73426425,0.26645002,-0.3311347,0.91374946,0.30600002,0.045321066,-0.6390322,0.32757998,823.1868,786.52014,784.10254,827.2161,951.31866,-0.1549072265625,0.036376953125,0.98065185546875,2.175750732421875,-3.715972900390625,0.112152099609375,1.0,1.0,1.0,1.0,1.0,95.0,event
11:31:13.853,1.1822646,-0.80743885,-0.21393429,0.7810664,0.9441921,-0.66265744,-0.56407475,0.26550886,1.0568366,-0.16630127,-0.1545314,0.4653957,0.73426425,0.26645002,-0.3311347,0.91374946,0.30600002,0.045321066,-0.6390322,0.32757998,817.1429,792.1612,784.90845,826.4103,1032.7106,-0.1549072265625,0.036376953125,0.98065185546875,2.175750732421875,-3.715972900390625,0.112152099609375,1.0,1.0,1.0,1.0,1.0,95.0,event
11:31:13.854,1.1822646,-0.80743885,-0.21393429,0.7810664,0.9441921,-0.66265744,-0.56407475,0.26550886,1.0568366,-0.16630127,-0.1545314,0.4653957,0.73426425,0.26645002,-0.3311347,0.91374946,0.30600002,0.045321066,-0.6390322,0.32757998,821.978,798.20514,785.7143,832.0513,848.5714,-0.1549072265625,0.036376953125,0.98065185546875,2.175750732421875,-3.715972900390625,0.112152099609375,1.0,1.0,1.0,1.0,1.0,95.0,event
11:31:13.855,1.1822646,-0.80743885,-0.21393429,0.7810664,0.9441921,-0.66265744,-0.56407475,0.26550886,1.0568366,-0.16630127,-0.1545314,0.4653957,0.73426425,0.26645002,-0.3311347,0.91374946,0.30600002,0.045321066,-0.6390322,0.32757998,817.1429,798.20514,786.52014,835.2747,690.2198,-0.1549072265625,0.036376953125,0.98065185546875,2.175750732421875,-3.715972900390625,0.112152099609375,1.0,1.0,1.0,1.0,1.0,95.0,event
11:31:13.856,1.1822646,-0.80743885,-0.21393429,0.7810664,0.9441921,-0.66265744,-0.56407475,0.26550886,1.0568366,-0.16630127,-0.1545314,0.4653957,0.73426425,0.26645002,-0.3311347,0.91374946,0.30600002,0.045321066,-0.6390322,0.32757998,812.71063,788.1319,782.8938,825.6044,834.4689,-0.1549072265625,0.036376953125,0.98065185546875,2.175750732421875,-3.715972900390625,0.112152099609375,1.0,1.0,1.0,1.0,1.0,95.0,event
11:31:13.857,1.1822646,-0.80743885,-0.21393429,0.7810664,0.9441921,-0.66265744,-0.56407475,0.26550886,1.0568366,-0.16630127,-0.1545314,0.4653957,0.73426425,0.26645002,-0.3311347,0.91374946,0.30600002,0.045321066,-0.6390322,0.32757998,821.978,789.34064,783.69965,815.9341,942.4542,-0.1549072265625,0.036376953125,0.98065185546875,2.175750732421875,-3.715972900390625,0.112152099609375,1.0,1.0,1.0,1.0,1.0,95.0,event
11:31:13.858,1.1822646,-0.80743885,-0.21393429,0.7810664,0.9441921,-0.66265744,-0.56407475,0.26550886,1.0568366,-0.16630127,-0.1545314,0.4653957,0.73426425,0.26645002,-0.3311347,0.91374946,0.30600002,0.045321066,-0.6390322,0.32757998,832.4542,788.5348,783.2967,816.7399,758.315,-0.1549072265625,0.036376953125,0.98065185546875,2.175750732421875,-3.715972900390625,0.112152099609375,1.0,1.0,1.0,1.0,1.0,95.0,event
11:31:13.886,1.1822646,-0.80743885,-0.21393429,0.7810664,0.9441921,-0.66265744,-0.56407475,0.26550886,1.0568366,-0.16630127,-0.1545314,0.4653957,0.73426425,0.26645002,-0.3311347,0.91374946,0.30600002,0.045321066,-0.6390322,0.32757998,828.8278,774.43225,781.685,832.4542,752.27106,-0.1549072265625,0.036376953125,0.98065185546875,2.175750732421875,-3.715972900390625,0.112152099609375,1.0,1.0,1.0,1.0,1.0,95.0,event
11:31:13.887,1.1822646,-0.80743885,-0.21393429,0.7810664,0.9441921,-0.66265744,-0.56407475,0.26550886,1.0568366,-0.16630127,-0.1545314,0.4653957,0.73426425,0.26645002,-0.3311347,0.91374946,0.30600002,0.045321066,-0.6390322,0.32757998,832.0513,778.86444,784.90845,847.76556,813.5165,-0.1549072265625,0.036376953125,0.98065185546875,2.175750732421875,-3.715972900390625,0.112152099609375,1.0,1.0,1.0,1.0,1.0,95.0,event
11:31:13.888,1.1822646,-0.80743885,-0.21393429,0.7810664,0.9441921,-0.66265744,-0.56407475,0.26550886,1.0568366,-0.16630127,-0.1545314,0.4653957,0.73426425,0.26645002,-0.3311347,0.91374946,0.30600002,0.045321066,-0.6390322,0.32757998,828.022,787.72894,783.2967,838.9011,737.3626,-0.1549072265625,0.036376953125,0.98065185546875,2.175750732421875,-3.715972900390625,0.112152099609375,1.0,1.0,1.0,1.0,1.0,95.0,event
11:31:13.889,1.1822646,-0.80743885,-0.21393429,0.7810664,0.9441921,-0.66265744,-0.56407475,0.26550886,1.0568366,-0.16630127,-0.1545314,0.4653957,0.73426425,0.26645002,-0.3311347,0.91374946,0.30600002,0.045321066,-0.6390322,0.32757998,827.619,793.36993,782.49084,832.4542,756.7033,-0.1549072265625,0.036376953125,0.98065185546875,2.175750732421875,-3.715972900390625,0.112152099609375,1.0,1.0,1.0,1.0,1.0,95.0,event
11:31:13.890,1.1822646,-0.724921,-0.14662789,0.7810664,0.9441921,-0.6669306,-0.5601163,0.26550886,1.0568366,-0.16620435,-0.19671953,0.4653957,0.73426425,0.25794867,-0.3233869,0.91374946,0.30600002,0.017998898,-0.6639914,0.32757998,836.4835,780.87915,782.49084,829.2308,896.1172,-0.1549072265625,0.036376953125,0.98065185546875,2.175750732421875,-3.715972900390625,0.112152099609375,1.0,1.0,1.0,1.0,1.0,95.0,event
11:31:13.890,1.1822646,-0.80743885,-0.21393429,0.7810664,0.9441921,-0.66265744,-0.56407475,0.26550886,1.0568366,-0.16630127,-0.1545314,0.4653957,0.73426425,0.26645002,-0.3311347,0.91374946,0.30600002,0.045321066,-0.6390322,0.32757998,830.4396,781.685,782.0879,830.0366,877.1795,-0.1549072265625,0.036376953125,0.98065185546875,2.175750732421875,-3.715972900390625,0.112152099609375,1.0,1.0,1.0,1.0,1.0,95.0,event
11:31:13.894,1.1822646,-0.724921,-0.14662789,0.7810664,0.9441921,-0.6669306,-0.5601163,0.26550886,1.0568366,-0.16620435,-0.19671953,0.4653957,0.73426425,0.25794867,-0.3233869,0.91374946,0.30600002,0.017998898,-0.6639914,0.32757998,834.0659,781.685,781.685,828.022,859.45056,-0.1549072265625,0.036376953125,0.98065185546875,2.175750732421875,-3.715972900390625,0.112152099609375,1.0,1.0,1.0,1.0,1.0,95.0,event
11:31:13.895,1.1822646,-0.724921,-0.14662789,0.7810664,0.9441921,-0.6669306,-0.5601163,0.26550886,1.0568366,-0.16620435,-0.19671953,0.4653957,0.73426425,0.25794867,-0.3233869,0.91374946,0.30600002,0.017998898,-0.6639914,0.32757998,815.9341,782.0879,781.685,818.7546,671.28204,-0.1549072265625,0.036376953125,0.98065185546875,2.175750732421875,-3.715972900390625,0.112152099609375,1.0,1.0,1.0,1.0,1.0,95.0,event
11:31:13.895,1.1822646,-0.724921,-0.14662789,0.7810664,0.9441921,-0.6669306,-0.5601163,0.26550886,1.0568366,-0.16620435,-0.19671953,0.4653957,0.73426425,0.25794867,-0.3233869,0.91374946,0.30600002,0.017998898,-0.6639914,0.32757998,813.5165,774.43225,778.46155,819.9634,732.1245,-0.1549072265625,0.036376953125,0.98065185546875,2.175750732421875,-3.715972900390625,0.112152099609375,1.0,1.0,1.0,1.0,1.0,95.0,event
11:31:13.897,1.1822646,-0.724921,-0.14662789,0.7810664,0.9441921,-0.6669306,-0.5601163,0.26550886,1.0568366,-0.16620435,-0.19671953,0.4653957,0.73426425,0.25794867,-0.3233869,0.91374946,0.30600002,0.017998898,-0.6639914,0.32757998,824.3956,788.1319,786.1172,828.8278,819.15753,-0.1549072265625,0.036376953125,0.98065185546875,2.175750732421875,-3.715972900390625,0.112152099609375,1.0,1.0,1.0,1.0,1.0,95.0,event
11:31:13.898,1.1822646,-0.724921,-0.14662789,0.7810664,0.9441921,-0.6669306,-0.5601163,0.26550886,1.0568366,-0.16620435,-0.19671953,0.4653957,0.73426425,0.25794867,-0.3233869,0.91374946,0.30600002,0.017998898,-0.6639914,0.32757998,825.2015,790.9524,786.1172,842.52747,755.4945,-0.1549072265625,0.036376953125,0.98065185546875,2.175750732421875,-3.715972900390625,0.112152099609375,1.0,1.0,1.0,1.0,1.0,95.0,event
11:31:13.899,1.1822646,-0.724921,-0.14662789,0.7810664,0.9441921,-0.6669306,-0.5601163,0.26550886,1.0568366,-0.16620435,-0.19671953,0.4653957,0.73426425,0.25794867,-0.3233869,0.91374946,0.30600002,0.017998898,-0.6639914,0.32757998,837.28937,785.7143,783.69965,844.5421,662.4176,-0.1549072265625,0.036376953125,0.98065185546875,2.175750732421875,-3.715972900390625,0.112152099609375,1.0,1.0,1.0,1.0,1.0,95.0,event
11:31:13.925,1.1822646,-0.724921,-0.14662789,0.7810664,0.9441921,-0.6669306,-0.5601163,0.26550886,1.0568366,-0.16620435,-0.19671953,0.4653957,0.73426425,0.25794867,-0.3233869,0.91374946,0.30600002,0.017998898,-0.6639914,0.32757998,824.3956,782.0879,783.2967,840.5128,733.3333,-0.15484619140625,0.0364990234375,0.97235107421875,1.734619140625,-3.581390380859375,0.052337646484375,1.0,1.0,1.0,1.0,1.0,95.0,event
11:31:13.926,1.1822646,-0.724921,-0.14662789,0.7810664,0.9441921,-0.6669306,-0.5601163,0.26550886,1.0568366,-0.16620435,-0.19671953,0.4653957,0.73426425,0.25794867,-0.3233869,0.91374946,0.30600002,0.017998898,-0.6639914,0.32757998,807.8755,784.5055,784.90845,844.1392,946.08057,-0.15484619140625,0.0364990234375,0.97235107421875,1.734619140625,-3.581390380859375,0.052337646484375,1.0,1.0,1.0,1.0,1.0,95.0,event
11:31:13.927,1.1822646,-0.724921,-0.14662789,0.7810664,0.9441921,-0.6669306,-0.5601163,0.26550886,1.0568366,-0.16620435,-0.19671953,0.4653957,0.73426425,0.25794867,-0.3233869,0.91374946,0.30600002,0.017998898,-0.6639914,0.32757998,827.2161,782.49084,783.69965,844.1392,902.1612,-0.15484619140625,0.0364990234375,0.97235107421875,1.734619140625,-3.581390380859375,0.052337646484375,1.0,1.0,1.0,1.0,1.0,95.0,event
11:31:13.927,1.1822646,-0.724921,-0.14662789,0.7810664,0.9441921,-0.6669306,-0.5601163,0.26550886,1.0568366,-0.16620435,-0.19671953,0.4653957,0.73426425,0.25794867,-0.3233869,0.91374946,0.30600002,0.017998898,-0.6639914,0.32757998,844.94507,788.5348,785.7143,839.707,693.0403,-0.15484619140625,0.0364990234375,0.97235107421875,1.734619140625,-3.581390380859375,0.052337646484375,1.0,1.0,1.0,1.0,1.0,95.0,event
11:31:13.928,1.1822646,-0.724921,-0.14662789,0.7810664,0.9441921,-0.6669306,-0.5601163,0.26550886,1.0568366,-0.16620435,-0.19671953,0.4653957,0.73426425,0.25794867,-0.3233869,0.91374946,0.30600002,0.017998898,-0.6639914,0.32757998,835.2747,790.14655,788.93774,828.8278,784.90845,-0.15484619140625,0.0364990234375,0.97235107421875,1.734619140625,-3.581390380859375,0.052337646484375,1.0,1.0,1.0,1.0,1.0,95.0,event
11:31:13.929,1.1822646,-0.724921,-0.14662789,0.7810664,0.9441921,-0.6669306,-0.5601163,0.26550886,1.0568366,-0.16620435,-0.19671953,0.4653957,0.73426425,0.25794867,-0.3233869,0.91374946,0.30600002,0.017998898,-0.6639914,0.32757998,828.4249,775.2381,782.0879,813.1135,820.7692,-0.15484619140625,0.0364990234375,0.97235107421875,1.734619140625,-3.581390380859375,0.052337646484375,1.0,1.0,1.0,1.0,1.0,95.0,event
11:31:13.929,1.1822646,-0.724921,-0.14662789,0.7810664,0.9441921,-0.6669306,-0.5601163,0.26550886,1.0568366,-0.16620435,-0.19671953,0.4653957,0.73426425,0.25794867,-0.3233869,0.91374946,0.30600002,0.017998898,-0.6639914,0.32757998,826.4103,771.2088,778.46155,805.4579,707.5458,-0.15484619140625,0.0364990234375,0.97235107421875,1.734619140625,-3.581390380859375,0.052337646484375,1.0,1.0,1.0,1.0,1.0,95.0,event
11:31:13.930,1.1822646,-0.724921,-0.14662789,0.7810664,0.9441921,-0.6669306,-0.5601163,0.26550886,1.0568366,-0.16620435,-0.19671953,0.4653957,0.73426425,0.25794867,-0.3233869,0.91374946,0.30600002,0.017998898,-0.6639914,0.32757998,820.7692,776.4469,782.0879,814.3223,753.8828,-0.15484619140625,0.0364990234375,0.97235107421875,1.734619140625,-3.581390380859375,0.052337646484375,1.0,1.0,1.0,1.0,1.0,95.0,event
11:31:13.930,1.1822646,-0.724921,-0.14662789,0.7810664,0.9441921,-0.6669306,-0.5601163,0.26550886,1.0568366,-0.16620435,-0.19671953,0.4653957,0.73426425,0.25794867,-0.3233869,0.91374946,0.30600002,0.017998898,-0.6639914,0.32757998,828.022,781.685,785.7143,836.08057,904.57874,-0.15484619140625,0.0364990234375,0.97235107421875,1.734619140625,-3.581390380859375,0.052337646484375,1.0,1.0,1.0,1.0,1.0,95.0,event
11:31:13.931,1.1822646,-0.724921,-0.14662789,0.7810664,0.9441921,-0.6669306,-0.5601163,0.26550886,1.0568366,-0.16620435,-0.19671953,0.4653957,0.73426425,0.25794867,-0.3233869,0.91374946,0.30600002,0.017998898,-0.6639914,0.32757998,833.663,784.90845,786.1172,849.7802,1111.6849,-0.15484619140625,0.0364990234375,0.97235107421875,1.734619140625,-3.581390380859375,0.052337646484375,1.0,1.0,1.0,1.0,1.0,95.0,event
11:31:13.932,1.1822646,-0.724921,-0.14662789,0.7810664,0.9441921,-0.6669306,-0.5601163,0.26550886,1.0568366,-0.16620435,-0.19671953,0.4653957,0.73426425,0.25794867,-0.3233869,0.91374946,0.30600002,0.017998898,-0.6639914,0.32757998,839.707,782.0879,781.685,831.6484,867.50916,-0.15484619140625,0.0364990234375,0.97235107421875,1.734619140625,-3.581390380859375,0.052337646484375,1.0,1.0,1.0,1.0,1.0,95.0,event
11:31:13.933,1.1822646,-0.724921,-0.14662789,0.7810664,0.9441921,-0.6669306,-0.5601163,0.26550886,1.0568366,-0.16620435,-0.19671953,0.4653957,0.73426425,0.25794867,-0.3233869,0.91374946,0.30600002,0.017998898,-0.6639914,0.32757998,834.0659,775.2381,782.0879,820.7692,620.10986,-0.15484619140625,0.0364990234375,0.97235107421875,1.734619140625,-3.581390380859375,0.052337646484375,1.0,1.0,1.0,1.0,1.0,95.0,event
11:31:13.957,1.1822646,-0.724921,-0.14662789,0.7810664,0.9441921,-0.6669306,-0.5601163,0.26550886,1.0568366,-0.16620435,-0.19671953,0.4653957,0.73426425,0.25794867,-0.3233869,0.91374946,0.30600002,0.017998898,-0.6639914,0.32757998,831.2454,770.40295,779.67035,834.0659,749.85345,-0.15673828125,0.03955078125,0.97613525390625,2.669219970703125,-3.54400634765625,0.844879150390625,1.0,1.0,1.0,1.0,1.0,95.0,event
11:31:13.957,1.1822646,-0.724921,-0.14662789,0.7810664,0.9441921,-0.6669306,-0.5601163,0.26550886,1.0568366,-0.16620435,-0.19671953,0.4653957,0.73426425,0.25794867,-0.3233869,0.91374946,0.30600002,0.017998898,-0.6639914,0.32757998,835.2747,771.2088,778.86444,834.87177,742.1978,-0.15673828125,0.03955078125,0.97613525390625,2.669219970703125,-3.54400634765625,0.844879150390625,1.0,1.0,1.0,1.0,1.0,95.0,event
11:31:13.958,1.1822646,-0.724921,-0.14662789,0.7810664,0.9441921,-0.6669306,-0.5601163,0.26550886,1.0568366,-0.16620435,-0.19671953,0.4653957,0.73426425,0.25794867,-0.3233869,0.91374946,0.30600002,0.017998898,-0.6639914,0.32757998,830.4396,775.64105,781.28204,834.87177,722.4542,-0.15673828125,0.03955078125,0.97613525390625,2.669219970703125,-3.54400634765625,0.844879150390625,1.0,1.0,1.0,1.0,1.0,95.0,event
11:31:13.959,1.1822646,-0.724921,-0.14662789,0.7810664,0.9441921,-0.6669306,-0.5601163,0.26550886,1.0568366,-0.16620435,-0.19671953,0.4653957,0.73426425,0.25794867,-0.3233869,0.91374946,0.30600002,0.017998898,-0.6639914,0.32757998,828.4249,780.07324,780.4762,834.87177,734.5421,-0.15673828125,0.03955078125,0.97613525390625,2.669219970703125,-3.54400634765625,0.844879150390625,1.0,1.0,1.0,1.0,1.0,95.0,event
11:31:13.959,1.1822646,-0.724921,-0.14662789,0.7810664,0.9441921,-0.6669306,-0.5601163,0.26550886,1.0568366,-0.16620435,-0.19671953,0.4653957,0.73426425,0.25794867,-0.3233869,0.91374946,0.30600002,0.017998898,-0.6639914,0.32757998,833.2601,787.72894,780.4762,820.7692,737.76556,-0.15673828125,0.03955078125,0.97613525390625,2.669219970703125,-3.54400634765625,0.844879150390625,1.0,1.0,1.0,1.0,1.0,95.0,event
11:31:13.960,1.1822646,-0.724921,-0.14662789,0.7810664,0.9441921,-0.6669306,-0.5601163,0.26550886,1.0568366,-0.16620435,-0.19671953,0.4653957,0.73426425,0.25794867,-0.3233869,0.91374946,0.30600002,0.017998898,-0.6639914,0.32757998,834.4689,787.326,782.49084,823.1868,774.43225,-0.15673828125,0.03955078125,0.97613525390625,2.669219970703125,-3.54400634765625,0.844879150390625,1.0,1.0,1.0,1.0,1.0,95.0,event
11:31:13.961,1.1822646,-0.724921,-0.14662789,0.7810664,0.9441921,-0.6669306,-0.5601163,0.26550886,1.0568366,-0.16620435,-0.19671953,0.4653957,0.73426425,0.25794867,-0.3233869,0.91374946,0.30600002,0.017998898,-0.6639914,0.32757998,830.84247,771.6117,782.49084,824.7985,823.1868,-0.15673828125,0.03955078125,0.97613525390625,2.669219970703125,-3.54400634765625,0.844879150390625,1.0,1.0,1.0,1.0,1.0,95.0,event
11:31:13.961,1.1822646,-0.45041442,-0.03564733,0.7810664,0.9441921,-0.66595393,-0.5551475,0.26550886,1.0568366,-0.16692209,-0.25925002,0.4653957,0.73426425,0.2490496,-0.3232273,0.91374946,0.30600002,-0.005855793,-0.684815,0.32757998,832.8571,774.43225,778.46155,824.7985,769.19415,-0.15673828125,0.03955078125,0.97613525390625,2.669219970703125,-3.54400634765625,0.844879150390625,1.0,1.0,1.0,1.0,1.0,95.0,event
11:31:13.965,1.1822646,-0.45041442,-0.03564733,0.7810664,0.9441921,-0.66595393,-0.5551475,0.26550886,1.0568366,-0.16692209,-0.25925002,0.4653957,0.73426425,0.2490496,-0.3232273,0.91374946,0.30600002,-0.005855793,-0.684815,0.32757998,826.4103,782.8938,782.8938,831.2454,882.4176,-0.15673828125,0.03955078125,0.97613525390625,2.669219970703125,-3.54400634765625,0.844879150390625,1.0,1.0,1.0,1.0,1.0,95.0,event
11:31:13.965,1.1822646,-0.45041442,-0.03564733,0.7810664,0.9441921,-0.66595393,-0.5551475,0.26550886,1.0568366,-0.16692209,-0.25925002,0.4653957,0.73426425,0.2490496,-0.3232273,0.91374946,0.30600002,-0.005855793,-0.684815,0.32757998,807.0696,770.80585,787.72894,830.0366,926.7399,-0.15673828125,0.03955078125,0.97613525390625,2.669219970703125,-3.54400634765625,0.844879150390625,1.0,1.0,1.0,1.0,1.0,95.0,event
11:31:13.966,1.1822646,-0.45041442,-0.03564733,0.7810664,0.9441921,-0.66595393,-0.5551475,0.26550886,1.0568366,-0.16692209,-0.25925002,0.4653957,0.73426425,0.2490496,-0.3232273,0.91374946,0.30600002,-0.005855793,-0.684815,0.32757998,817.5458,770.40295,787.326,823.9927,780.07324,-0.15673828125,0.03955078125,0.97613525390625,2.669219970703125,-3.54400634765625,0.844879150390625,1.0,1.0,1.0,1.0,1.0,95.0,event
11:31:13.967,1.1822646,-0.45041442,-0.03564733,0.7810664,0.9441921,-0.66595393,-0.5551475,0.26550886,1.0568366,-0.16692209,-0.25925002,0.4653957,0.73426425,0.2490496,-0.3232273,0.91374946,0.30600002,-0.005855793,-0.684815,0.32757998,830.0366,777.25275,783.69965,832.0513,845.7509,-0.15673828125,0.03955078125,0.97613525390625,2.669219970703125,-3.54400634765625,0.844879150390625,1.0,1.0,1.0,1.0,1.0,95.0,event
11:31:13.991,1.1822646,-0.45041442,-0.03564733,0.7810664,0.9441921,-0.66595393,-0.5551475,0.26550886,1.0568366,-0.16692209,-0.25925002,0.4653957,0.73426425,0.2490496,-0.3232273,0.91374946,0.30600002,-0.005855793,-0.684815,0.32757998,826.8132,783.2967,781.685,842.9304,909.41394,-0.15631103515625,0.04461669921875,0.970458984375,2.85614013671875,-3.93280029296875,0.83740234375,1.0,1.0,1.0,1.0,1.0,95.0,event
11:31:13.992,1.1822646,-0.45041442,-0.03564733,0.7810664,0.9441921,-0.66595393,-0.5551475,0.26550886,1.0568366,-0.16692209,-0.25925002,0.4653957,0.73426425,0.2490496,-0.3232273,0.91374946,0.30600002,-0.005855793,-0.684815,0.32757998,830.0366,783.2967,782.49084,834.87177,799.41394,-0.15631103515625,0.04461669921875,0.970458984375,2.85614013671875,-3.93280029296875,0.83740234375,1.0,1.0,1.0,1.0,1.0,95.0,event
11:31:13.993,1.1822646,-0.45041442,-0.03564733,0.7810664,0.9441921,-0.66595393,-0.5551475,0.26550886,1.0568366,-0.16692209,-0.25925002,0.4653957,0.73426425,0.2490496,-0.3232273,0.91374946,0.30600002,-0.005855793,-0.684815,0.32757998,823.9927,776.4469,787.72894,821.978,704.3223,-0.15631103515625,0.04461669921875,0.970458984375,2.85614013671875,-3.93280029296875,0.83740234375,1.0,1.0,1.0,1.0,1.0,95.0,event
11:31:13.993,1.1822646,-0.45041442,-0.03564733,0.7810664,0.9441921,-0.66595393,-0.5551475,0.26550886,1.0568366,-0.16692209,-0.25925002,0.4653957,0.73426425,0.2490496,-0.3232273,0.91374946,0.30600002,-0.005855793,-0.684815,0.32757998,820.7692,778.46155,792.96704,821.1722,765.56775,-0.15631103515625,0.04461669921875,0.970458984375,2.85614013671875,-3.93280029296875,0.83740234375,1.0,1.0,1.0,1.0,1.0,95.0,event
11:31:13.994,1.1822646,-0.45041442,-0.03564733,0.7810664,0.9441921,-0.66595393,-0.5551475,0.26550886,1.0568366,-0.16692209,-0.25925002,0.4653957,0.73426425,0.2490496,-0.3232273,0.91374946,0.30600002,-0.005855793,-0.684815,0.32757998,831.6484,780.87915,791.75824,826.4103,828.022,-0.15631103515625,0.04461669921875,0.970458984375,2.85614013671875,-3.93280029296875,0.83740234375,1.0,1.0,1.0,1.0,1.0,95.0,event
11:31:13.995,1.1822646,-0.45041442,-0.03564733,0.7810664,0.9441921,-0.66595393,-0.5551475,0.26550886,1.0568366,-0.16692209,-0.25925002,0.4653957,0.73426425,0.2490496,-0.3232273,0.91374946,0.30600002,-0.005855793,-0.684815,0.32757998,833.2601,778.0586,790.14655,833.663,851.39197,-0.15631103515625,0.04461669921875,0.970458984375,2.85614013671875,-3.93280029296875,0.83740234375,1.0,1.0,1.0,1.0,1.0,95.0,event
11:31:13.995,1.1822646,-0.45041442,-0.03564733,0.7810664,0.9441921,-0.66595393,-0.5551475,0.26550886,1.0568366,-0.16692209,-0.25925002,0.4653957,0.73426425,0.2490496,-0.3232273,0.91374946,0.30600002,-0.005855793,-0.684815,0.32757998,834.0659,784.10254,790.14655,836.4835,890.87915,-0.15631103515625,0.04461669921875,0.970458984375,2.85614013671875,-3.93280029296875,0.83740234375,1.0,1.0,1.0,1.0,1.0,95.0,event
11:31:13.996,1.1822646,-0.45041442,-0.03564733,0.7810664,0.9441921,-0.66595393,-0.5551475,0.26550886,1.0568366,-0.16692209,-0.25925002,0.4653957,0.73426425,0.2490496,-0.3232273,0.91374946,0.30600002,-0.005855793,-0.684815,0.32757998,820.7692,781.685,790.14655,830.0366,887.6557,-0.15631103515625,0.04461669921875,0.970458984375,2.85614013671875,-3.93280029296875,0.83740234375,1.0,1.0,1.0,1.0,1.0,95.0,event
11:31:13.996,1.1822646,-0.45041442,-0.03564733,0.7810664,0.9441921,-0.66595393,-0.5551475,0.26550886,1.0568366,-0.16692209,-0.25925002,0.4653957,0.73426425,0.2490496,-0.3232273,0.91374946,0.30600002,-0.005855793,-0.684815,0.32757998,818.3516,772.8205,790.54944,838.9011,927.9487,-0.15631103515625,0.04461669921875,0.970458984375,2.85614013671875,-3.93280029296875,0.83740234375,1.0,1.0,1.0,1.0,1.0,95.0,event
11:31:13.997,1.1822646,-0.45041442,-0.03564733,0.7810664,0.9441921,-0.66595393,-0.5551475,0.26550886,1.0568366,-0.16692209,-0.25925002,0.4653957,0.73426425,0.2490496,-0.3232273,0.91374946,0.30600002,-0.005855793,-0.684815,0.32757998,819.9634,778.46155,790.54944,836.08057,788.93774,-0.15631103515625,0.04461669921875,0.970458984375,2.85614013671875,-3.93280029296875,0.83740234375,1.0,1.0,1.0,1.0,1.0,95.0,event
11:31:13.998,1.1822646,-0.45041442,-0.03564733,0.7810664,0.9441921,-0.66595393,-0.5551475,0.26550886,1.0568366,-0.16692209,-0.25925002,0.4653957,0.73426425,0.2490496,-0.3232273,0.91374946,0.30600002,-0.005855793,-0.684815,0.32757998,843.3333,775.2381,786.9231,835.6777,767.1795,-0.15631103515625,0.04461669921875,0.970458984375,2.85614013671875,-3.93280029296875,0.83740234375,1.0,1.0,1.0,1.0,1.0,95.0,event
11:31:13.998,1.1822646,-0.45041442,-0.03564733,0.7810664,0.9441921,-0.66595393,-0.5551475,0.26550886,1.0568366,-0.16692209,-0.25925002,0.4653957,0.73426425,0.2490496,-0.3232273,0.91374946,0.30600002,-0.005855793,-0.684815,0.32757998,829.6337,781.685,788.5348,831.2454,705.5311,-0.15631103515625,0.04461669921875,0.970458984375,2.85614013671875,-3.93280029296875,0.83740234375,1.0,1.0,1.0,1.0,1.0,95.0,event
11:31:14.060,1.1822646,-0.45041442,-0.03564733,0.7810664,0.9441921,-0.66595393,-0.5551475,0.26550886,1.0568366,-0.16692209,-0.25925002,0.4653957,0.73426425,0.2490496,-0.3232273,0.91374946,0.30600002,-0.005855793,-0.684815,0.32757998,827.619,778.46155,787.72894,820.7692,755.4945,-0.15386962890625,0.041748046875,0.97479248046875,1.9140625,-3.27484130859375,0.13458251953125,1.0,1.0,1.0,1.0,1.0,95.0,event
11:31:14.060,1.1822646,-0.45041442,-0.03564733,0.7810664,0.9441921,-0.66595393,-0.5551475,0.26550886,1.0568366,-0.16692209,-0.25925002,0.4653957,0.73426425,0.2490496,-0.3232273,0.91374946,0.30600002,-0.005855793,-0.684815,0.32757998,819.9634,778.0586,788.93774,807.8755,751.06226,-0.15386962890625,0.041748046875,0.97479248046875,1.9140625,-3.27484130859375,0.13458251953125,1.0,1.0,1.0,1.0,1.0,95.0,event
11:31:14.061,1.1822646,-0.45041442,-0.03564733,0.7810664,0.9441921,-0.66595393,-0.5551475,0.26550886,1.0568366,-0.16692209,-0.25925002,0.4653957,0.73426425,0.2490496,-0.3232273,0.91374946,0.30600002,-0.005855793,-0.684815,0.32757998,825.6044,772.01465,788.5348,822.7839,747.8388,-0.15386962890625,0.041748046875,0.97479248046875,1.9140625,-3.27484130859375,0.13458251953125,1.0,1.0,1.0,1.0,1.0,95.0,event
11:31:14.062,1.1822646,-0.45041442,-0.03564733,0.7810664,0.9441921,-0.66595393,-0.5551475,0.26550886,1.0568366,-0.16692209,-0.25925002,0.4653957,0.73426425,0.2490496,-0.3232273,0.91374946,0.30600002,-0.005855793,-0.684815,0.32757998,831.6484,773.6264,786.52014,836.08057,834.0659,-0.15386962890625,0.041748046875,0.97479248046875,1.9140625,-3.27484130859375,0.13458251953125,1.0,1.0,1.0,1.0,1.0,95.0,event
11:31:14.062,1.1822646,-0.45041442,-0.03564733,0.7810664,0.9441921,-0.66595393,-0.5551475,0.26550886,1.0568366,-0.16692209,-0.25925002,0.4653957,0.73426425,0.2490496,-0.3232273,0.91374946,0.30600002,-0.005855793,-0.684815,0.32757998,831.2454,773.22345,782.49084,832.8571,844.5421,-0.15386962890625,0.041748046875,0.97479248046875,1.9140625,-3.27484130859375,0.13458251953125,1.0,1.0,1.0,1.0,1.0,95.0,event
11:31:14.063,1.1822646,-0.45041442,-0.03564733,0.7810664,0.9441921,-0.66595393,-0.5551475,0.26550886,1.0568366,-0.16692209,-0.25925002,0.4653957,0.73426425,0.2490496,-0.3232273,0.91374946,0.30600002,-0.005855793,-0.684815,0.32757998,817.9487,774.83514,784.10254,828.8278,804.2491,-0.15386962890625,0.041748046875,0.97479248046875,1.9140625,-3.27484130859375,0.13458251953125,1.0,1.0,1.0,1.0,1.0,95.0,event
11:31:14.064,1.1822646,-0.45041442,-0.03564733,0.7810664,0.9441921,-0.66595393,-0.5551475,0.26550886,1.0568366,-0.16692209,-0.25925002,0.4653957,0.73426425,0.2490496,-0.3232273,0.91374946,0.30600002,-0.005855793,-0.684815,0.32757998,820.3663,778.86444,788.93774,830.0366,821.978,-0.15386962890625,0.041748046875,0.97479248046875,1.9140625,-3.27484130859375,0.13458251953125,1.0,1.0,1.0,1.0,1.0,95.0,event
11:31:14.065,1.1822646,-0.45041442,-0.03564733,0.7810664,0.9441921,-0.66595393,-0.5551475,0.26550886,1.0568366,-0.16692209,-0.25925002,0.4653957,0.73426425,0.2490496,-0.3232273,0.91374946,0.30600002,-0.005855793,-0.684815,0.32757998,818.3516,766.77655,786.1172,828.8278,949.707,-0.15386962890625,0.041748046875,0.97479248046875,1.9140625,-3.27484130859375,0.13458251953125,1.0,1.0,1.0,1.0,1.0,95.0,event
11:31:14.065,1.1822646,-0.45041442,-0.03564733,0.7810664,0.9441921,-0.66595393,-0.5551475,0.26550886,1.0568366,-0.16692209,-0.25925002,0.4653957,0.73426425,0.2490496,-0.3232273,0.91374946,0.30600002,-0.005855793,-0.684815,0.32757998,827.619,775.2381,784.90845,837.6923,955.34796,-0.15386962890625,0.041748046875,0.97479248046875,1.9140625,-3.27484130859375,0.13458251953125,1.0,1.0,1.0,1.0,1.0,95.0,event
11:31:14.067,1.1822646,-0.09668887,0.09950912,0.7810664,0.9441921,-0.6629449,-0.55292386,0.26550886,1.0568366,-0.17224818,-0.3062583,0.4653957,0.73426425,0.24374674,-0.3298684,0.91374946,0.30600002,-0.016318623,-0.69668406,0.32757998,836.8865,781.685,784.10254,841.7216,683.36993,-0.15386962890625,0.041748046875,0.97479248046875,1.9140625,-3.27484130859375,0.13458251953125,1.0,1.0,1.0,1.0,1.0,95.0,event
11:31:14.072,1.1822646,-0.09668887,0.09950912,0.7810664,0.9441921,-0.6629449,-0.55292386,0.26550886,1.0568366,-0.17224818,-0.3062583,0.4653957,0.73426425,0.24374674,-0.3298684,0.91374946,0.30600002,-0.016318623,-0.69668406,0.32757998,830.4396,769.59705,784.5055,834.4689,691.8315,-0.15386962890625,0.041748046875,0.97479248046875,1.9140625,-3.27484130859375,0.13458251953125,1.0,1.0,1.0,1.0,1.0,95.0,event
11:31:14.073,1.1822646,-0.09668887,0.09950912,0.7810664,0.9441921,-0.6629449,-0.55292386,0.26550886,1.0568366,-0.17224818,-0.3062583,0.4653957,0.73426425,0.24374674,-0.3298684,0.91374946,0.30600002,-0.016318623,-0.69668406,0.32757998,824.3956,774.43225,787.72894,837.28937,791.75824,-0.15386962890625,0.041748046875,0.97479248046875,1.9140625,-3.27484130859375,0.13458251953125,1.0,1.0,1.0,1.0,1.0,95.0,event
11:31:14.102,1.1822646,-0.09668887,0.09950912,0.7810664,0.9441921,-0.6629449,-0.55292386,0.26550886,1.0568366,-0.17224818,-0.3062583,0.4653957,0.73426425,0.24374674,-0.3298684,0.91374946,0.30600002,-0.016318623,-0.69668406,0.32757998,824.7985,775.2381,792.1612,839.707,733.3333,-0.15386962890625,0.041748046875,0.97479248046875,1.9140625,-3.27484130859375,0.13458251953125,1.0,1.0,1.0,1.0,1.0,95.0,event
11:31:14.103,1.1822646,-0.09668887,0.09950912,0.7810664,0.9441921,-0.6629449,-0.55292386,0.26550886,1.0568366,-0.17224818,-0.3062583,0.4653957,0.73426425,0.24374674,-0.3298684,0.91374946,0.30600002,-0.016318623,-0.69668406,0.32757998,830.0366,770.80585,791.75824,846.1539,701.0989,-0.15386962890625,0.041748046875,0.97479248046875,1.9140625,-3.27484130859375,0.13458251953125,1.0,1.0,1.0,1.0,1.0,95.0,event
11:31:14.104,1.1822646,-0.09668887,0.09950912,0.7810664,0.9441921,-0.6629449,-0.55292386,0.26550886,1.0568366,-0.17224818,-0.3062583,0.4653957,0.73426425,0.24374674,-0.3298684,0.91374946,0.30600002,-0.016318623,-0.69668406,0.32757998,824.7985,775.64105,788.5348,838.9011,764.35895,-0.15386962890625,0.041748046875,0.97479248046875,1.9140625,-3.27484130859375,0.13458251953125,1.0,1.0,1.0,1.0,1.0,95.0,event
11:31:14.104,1.1822646,-0.09668887,0.09950912,0.7810664,0.9441921,-0.6629449,-0.55292386,0.26550886,1.0568366,-0.17224818,-0.3062583,0.4653957,0.73426425,0.24374674,-0.3298684,0.91374946,0.30600002,-0.016318623,-0.69668406,0.32757998,823.1868,774.43225,790.9524,827.619,768.3883,-0.15386962890625,0.041748046875,0.97479248046875,1.9140625,-3.27484130859375,0.13458251953125,1.0,1.0,1.0,1.0,1.0,95.0,event
11:31:14.105,1.1822646,-0.09668887,0.09950912,0.7810664,0.9441921,-0.6629449,-0.55292386,0.26550886,1.0568366,-0.17224818,-0.3062583,0.4653957,0.73426425,0.24374674,-0.3298684,0.91374946,0.30600002,-0.016318623,-0.69668406,0.32757998,821.978,771.2088,790.9524,824.3956,762.3443,-0.15386962890625,0.041748046875,0.97479248046875,1.9140625,-3.27484130859375,0.13458251953125,1.0,1.0,1.0,1.0,1.0,95.0,event
11:31:14.105,1.1822646,-0.09668887,0.09950912,0.7810664,0.9441921,-0.6629449,-0.55292386,0.26550886,1.0568366,-0.17224818,-0.3062583,0.4653957,0.73426425,0.24374674,-0.3298684,0.91374946,0.30600002,-0.016318623,-0.69668406,0.32757998,825.6044,778.0586,786.9231,821.1722,834.0659,-0.15386962890625,0.041748046875,0.97479248046875,1.9140625,-3.27484130859375,0.13458251953125,1.0,1.0,1.0,1.0,1.0,95.0,event
11:31:14.106,1.1822646,-0.09668887,0.09950912,0.7810664,0.9441921,-0.6629449,-0.55292386,0.26550886,1.0568366,-0.17224818,-0.3062583,0.4653957,0.73426425,0.24374674,-0.3298684,0.91374946,0.30600002,-0.016318623,-0.69668406,0.32757998,815.5311,775.2381,786.1172,831.2454,980.32965,-0.15386962890625,0.041748046875,0.97479248046875,1.9140625,-3.27484130859375,0.13458251953125,1.0,1.0,1.0,1.0,1.0,95.0,event
11:31:14.107,1.1822646,-0.09668887,0.09950912,0.7810664,0.9441921,-0.6629449,-0.55292386,0.26550886,1.0568366,-0.17224818,-0.3062583,0.4653957,0.73426425,0.24374674,-0.3298684,0.91374946,0.30600002,-0.016318623,-0.69668406,0.32757998,810.293,770.80585,786.9231,846.1539,1225.3114,-0.15386962890625,0.041748046875,0.97479248046875,1.9140625,-3.27484130859375,0.13458251953125,1.0,1.0,1.0,1.0,1.0,95.0,event
11:31:14.107,1.1822646,-0.09668887,0.09950912,0.7810664,0.9441921,-0.6629449,-0.55292386,0.26550886,1.0568366,-0.17224818,-0.3062583,0.4653957,0.73426425,0.24374674,-0.3298684,0.91374946,0.30600002,-0.016318623,-0.69668406,0.32757998,825.2015,769.59705,785.31134,849.3773,977.50916,-0.15386962890625,0.041748046875,0.97479248046875,1.9140625,-3.27484130859375,0.13458251953125,1.0,1.0,1.0,1.0,1.0,95.0,event
11:31:14.108,1.1822646,-0.09668887,0.09950912,0.7810664,0.9441921,-0.6629449,-0.55292386,0.26550886,1.0568366,-0.17224818,-0.3062583,0.4653957,0.73426425,0.24374674,-0.3298684,0.91374946,0.30600002,-0.016318623,-0.69668406,0.32757998,821.1722,762.74725,783.69965,837.6923,669.2674,-0.15386962890625,0.041748046875,0.97479248046875,1.9140625,-3.27484130859375,0.13458251953125,1.0,1.0,1.0,1.0,1.0,95.0,event
11:31:14.109,1.1822646,-0.09668887,0.09950912,0.7810664,0.9441921,-0.6629449,-0.55292386,0.26550886,1.0568366,-0.17224818,-0.3062583,0.4653957,0.73426425,0.24374674,-0.3298684,0.91374946,0.30600002,-0.016318623,-0.69668406,0.32757998,801.02563,764.7619,783.2967,817.9487,728.0952,-0.15386962890625,0.041748046875,0.97479248046875,1.9140625,-3.27484130859375,0.13458251953125,1.0,1.0,1.0,1.0,1.0,95.0,event
11:31:14.109,1.1822646,-0.09668887,0.09950912,0.7810664,0.9441921,-0.6629449,-0.55292386,0.26550886,1.0568366,-0.17224818,-0.3062583,0.4653957,0.73426425,0.24374674,-0.3298684,0.91374946,0.30600002,-0.016318623,-0.69668406,0.32757998,812.71063,769.19415,784.5055,823.1868,759.5238,-0.15386962890625,0.041748046875,0.97479248046875,1.9140625,-3.27484130859375,0.13458251953125,1.0,1.0,1.0,1.0,1.0,95.0,event
11:31:14.133,1.1822646,-0.09668887,0.09950912,0.7810664,0.9441921,-0.6629449,-0.55292386,0.26550886,1.0568366,-0.17224818,-0.3062583,0.4653957,0.73426425,0.24374674,-0.3298684,0.91374946,0.30600002,-0.016318623,-0.69668406,0.32757998,821.1722,775.64105,786.1172,843.3333,691.4286,-0.1571044921875,0.04248046875,0.9736328125,2.572021484375,-3.9178466796875,0.34393310546875,1.0,1.0,1.0,1.0,1.0,95.0,event
11:31:14.134,1.1822646,-0.09668887,0.09950912,0.7810664,0.9441921,-0.6629449,-0.55292386,0.26550886,1.0568366,-0.17224818,-0.3062583,0.4653957,0.73426425,0.24374674,-0.3298684,0.91374946,0.30600002,-0.016318623,-0.69668406,0.32757998,805.8608,778.0586,784.10254,831.6484,700.696,-0.1571044921875,0.04248046875,0.9736328125,2.572021484375,-3.9178466796875,0.34393310546875,1.0,1.0,1.0,1.0,1.0,95.0,event
11:31:14.135,1.1822646,-0.09668887,0.09950912,0.7810664,0.9441921,-0.6629449,-0.55292386,0.26550886,1.0568366,-0.17224818,-0.3062583,0.4653957,0.73426425,0.24374674,-0.3298684,0.91374946,0.30600002,-0.016318623,-0.69668406,0.32757998,788.5348,764.35895,779.2674,814.3223,765.9707,-0.1571044921875,0.04248046875,0.9736328125,2.572021484375,-3.9178466796875,0.34393310546875,1.0,1.0,1.0,1.0,1.0,95.0,event
11:31:14.135,1.1822646,-0.09668887,0.09950912,0.7810664,0.9441921,-0.6629449,-0.55292386,0.26550886,1.0568366,-0.17224818,-0.3062583,0.4653957,0.73426425,0.24374674,-0.3298684,0.91374946,0.30600002,-0.016318623,-0.69668406,0.32757998,791.3553,763.1502,780.4762,821.1722,738.5714,-0.1571044921875,0.04248046875,0.9736328125,2.572021484375,-3.9178466796875,0.34393310546875,1.0,1.0,1.0,1.0,1.0,95.0,event
11:31:14.136,1.1822646,-0.09668887,0.09950912,0.7810664,0.9441921,-0.6629449,-0.55292386,0.26550886,1.0568366,-0.17224818,-0.3062583,0.4653957,0.73426425,0.24374674,-0.3298684,0.91374946,0.30600002,-0.016318623,-0.69668406,0.32757998,809.0842,767.5824,784.90845,834.87177,753.47986,-0.1571044921875,0.04248046875,0.9736328125,2.572021484375,-3.9178466796875,0.34393310546875,1.0,1.0,1.0,1.0,1.0,95.0,event
11:31:14.137,1.1822646,-0.09668887,0.09950912,0.7810664,0.9441921,-0.6629449,-0.55292386,0.26550886,1.0568366,-0.17224818,-0.3062583,0.4653957,0.73426425,0.24374674,-0.3298684,0.91374946,0.30600002,-0.016318623,-0.69668406,0.32757998,822.7839,763.95605,782.8938,843.3333,888.0586,-0.1571044921875,0.04248046875,0.9736328125,2.572021484375,-3.9178466796875,0.34393310546875,1.0,1.0,1.0,1.0,1.0,95.0,event
11:31:14.137,1.1822646,-0.09668887,0.09950912,0.7810664,0.9441921,-0.6629449,-0.55292386,0.26550886,1.0568366,-0.17224818,-0.3062583,0.4653957,0.73426425,0.24374674,-0.3298684,0.91374946,0.30600002,-0.016318623,-0.69668406,0.32757998,819.9634,764.7619,778.46155,838.0952,1151.978,-0.1571044921875,0.04248046875,0.9736328125,2.572021484375,-3.9178466796875,0.34393310546875,1.0,1.0,1.0,1.0,1.0,95.0,event
11:31:14.138,1.1822646,-0.09668887,0.09950912,0.7810664,0.9441921,-0.6629449,-0.55292386,0.26550886,1.0568366,-0.17224818,-0.3062583,0.4653957,0.73426425,0.24374674,-0.3298684,0.91374946,0.30600002,-0.016318623,-0.69668406,0.32757998,812.3077,765.56775,778.46155,827.619,1094.359,-0.1571044921875,0.04248046875,0.9736328125,2.572021484375,-3.9178466796875,0.34393310546875,1.0,1.0,1.0,1.0,1.0,95.0,event
11:31:14.138,1.1822646,-0.09668887,0.09950912,0.7810664,0.9441921,-0.6629449,-0.55292386,0.26550886,1.0568366,-0.17224818,-0.3062583,0.4653957,0.73426425,0.24374674,-0.3298684,0.91374946,0.30600002,-0.016318623,-0.69668406,0.32757998,824.3956,766.77655,784.10254,827.619,718.022,-0.1571044921875,0.04248046875,0.9736328125,2.572021484375,-3.9178466796875,0.34393310546875,1.0,1.0,1.0,1.0,1.0,95.0,event
11:31:14.139,1.1822646,-0.09668887,0.09950912,0.7810664,0.9441921,-0.6629449,-0.55292386,0.26550886,1.0568366,-0.17224818,-0.3062583,0.4653957,0.73426425,0.24374674,-0.3298684,0.91374946,0.30600002,-0.016318623,-0.69668406,0.32757998,843.73627,771.2088,782.8938,838.0952,810.696,-0.1571044921875,0.04248046875,0.9736328125,2.572021484375,-3.9178466796875,0.34393310546875,1.0,1.0,1.0,1.0,1.0,95.0,event
11:31:14.139,1.1822646,-0.09668887,0.09950912,0.7810664,0.9441921,-0.6629449,-0.55292386,0.26550886,1.0568366,-0.17224818,-0.3062583,0.4653957,0.73426425,0.24374674,-0.3298684,0.91374946,0.30600002,-0.016318623,-0.69668406,0.32757998,834.0659,770.80585,786.1172,836.08057,684.9817,-0.1571044921875,0.04248046875,0.9736328125,2.572021484375,-3.9178466796875,0.34393310546875,1.0,1.0,1.0,1.0,1.0,95.0,event
11:31:14.140,1.1822646,-0.07110141,0.23556241,0.7810664,0.9441921,-0.6483972,-0.5525656,0.26550886,1.0568366,-0.19370478,-0.32202116,0.4653957,0.73426425,0.25040644,-0.3380431,0.91374946,0.30600002,-0.021817729,-0.7007316,0.32757998,840.10986,766.3736,781.685,831.2454,736.9597,-0.1571044921875,0.04248046875,0.9736328125,2.572021484375,-3.9178466796875,0.34393310546875,1.0,1.0,1.0,1.0,1.0,95.0,event
11:31:14.232,1.1822646,-0.07110141,0.23556241,0.7810664,0.9441921,-0.6483972,-0.5525656,0.26550886,1.0568366,-0.19370478,-0.32202116,0.4653957,0.73426425,0.25040644,-0.3380431,0.91374946,0.30600002,-0.021817729,-0.7007316,0.32757998,819.15753,769.59705,779.67035,814.3223,637.8388,-0.150390625,0.043701171875,0.976318359375,2.205657958984375,-4.18701171875,0.366363525390625,1.0,1.0,1.0,1.0,1.0,95.0,event
11:31:14.233,1.1822646,-0.07110141,0.23556241,0.7810664,0.9441921,-0.6483972,-0.5525656,0.26550886,1.0568366,-0.19370478,-0.32202116,0.4653957,0.73426425,0.25040644,-0.3380431,0.91374946,0.30600002,-0.021817729,-0.7007316,0.32757998,820.3663,774.0293,782.0879,822.381,721.2454,-0.150390625,0.043701171875,0.976318359375,2.205657958984375,-4.18701171875,0.366363525390625,1.0,1.0,1.0,1.0,1.0,95.0,event
11:31:14.234,1.1822646,-0.07110141,0.23556241,0.7810664,0.9441921,-0.6483972,-0.5525656,0.26550886,1.0568366,-0.19370478,-0.32202116,0.4653957,0.73426425,0.25040644,-0.3380431,0.91374946,0.30600002,-0.021817729,-0.7007316,0.32757998,823.5897,773.22345,781.685,831.2454,770.0,-0.150390625,0.043701171875,0.976318359375,2.205657958984375,-4.18701171875,0.366363525390625,1.0,1.0,1.0,1.0,1.0,95.0,event
11:31:14.234,1.1822646,-0.07110141,0.23556241,0.7810664,0.9441921,-0.6483972,-0.5525656,0.26550886,1.0568366,-0.19370478,-0.32202116,0.4653957,0.73426425,0.25040644,-0.3380431,0.91374946,0.30600002,-0.021817729,-0.7007316,0.32757998,820.3663,765.56775,780.87915,830.4396,775.64105,-0.150390625,0.043701171875,0.976318359375,2.205657958984375,-4.18701171875,0.366363525390625,1.0,1.0,1.0,1.0,1.0,95.0,event
11:31:14.235,1.1822646,-0.07110141,0.23556241,0.7810664,0.9441921,-0.6483972,-0.5525656,0.26550886,1.0568366,-0.19370478,-0.32202116,0.4653957,0.73426425,0.25040644,-0.3380431,0.91374946,0.30600002,-0.021817729,-0.7007316,0.32757998,822.7839,763.1502,786.1172,831.6484,792.5641,-0.150390625,0.043701171875,0.976318359375,2.205657958984375,-4.18701171875,0.366363525390625,1.0,1.0,1.0,1.0,1.0,95.0,event
11:31:14.236,1.1822646,-0.07110141,0.23556241,0.7810664,0.9441921,-0.6483972,-0.5525656,0.26550886,1.0568366,-0.19370478,-0.32202116,0.4653957,0.73426425,0.25040644,-0.3380431,0.91374946,0.30600002,-0.021817729,-0.7007316,0.32757998,812.3077,767.98535,787.326,819.15753,880.0,-0.150390625,0.043701171875,0.976318359375,2.205657958984375,-4.18701171875,0.366363525390625,1.0,1.0,1.0,1.0,1.0,95.0,event
11:31:14.237,1.1822646,-0.07110141,0.23556241,0.7810664,0.9441921,-0.6483972,-0.5525656,0.26550886,1.0568366,-0.19370478,-0.32202116,0.4653957,0.73426425,0.25040644,-0.3380431,0.91374946,0.30600002,-0.021817729,-0.7007316,0.32757998,809.0842,768.7912,786.9231,814.7253,965.82416,-0.150390625,0.043701171875,0.976318359375,2.205657958984375,-4.18701171875,0.366363525390625,1.0,1.0,1.0,1.0,1.0,95.0,event
11:31:14.237,1.1822646,-0.07110141,0.23556241,0.7810664,0.9441921,-0.6483972,-0.5525656,0.26550886,1.0568366,-0.19370478,-0.32202116,0.4653957,0.73426425,0.25040644,-0.3380431,0.91374946,0.30600002,-0.021817729,-0.7007316,0.32757998,825.6044,770.80585,787.72894,825.6044,836.08057,-0.150390625,0.043701171875,0.976318359375,2.205657958984375,-4.18701171875,0.366363525390625,1.0,1.0,1.0,1.0,1.0,95.0,event
11:31:14.238,1.1822646,-0.07110141,0.23556241,0.7810664,0.9441921,-0.6483972,-0.5525656,0.26550886,1.0568366,-0.19370478,-0.32202116,0.4653957,0.73426425,0.25040644,-0.3380431,0.91374946,0.30600002,-0.021817729,-0.7007316,0.32757998,834.0659,782.0879,791.3553,830.0366,734.1392,-0.150390625,0.043701171875,0.976318359375,2.205657958984375,-4.18701171875,0.366363525390625,1.0,1.0,1.0,1.0,1.0,95.0,event
11:31:14.239,1.1822646,-0.07110141,0.23556241,0.7810664,0.9441921,-0.6483972,-0.5525656,0.26550886,1.0568366,-0.19370478,-0.32202116,0.4653957,0.73426425,0.25040644,-0.3380431,0.91374946,0.30600002,-0.021817729,-0.7007316,0.32757998,830.0366,775.2381,782.0879,840.10986,938.8278,-0.150390625,0.043701171875,0.976318359375,2.205657958984375,-4.18701171875,0.366363525390625,1.0,1.0,1.0,1.0,1.0,95.0,event
11:31:14.239,1.1822646,-0.07110141,0.23556241,0.7810664,0.9441921,-0.6483972,-0.5525656,0.26550886,1.0568366,-0.19370478,-0.32202116,0.4653957,0.73426425,0.25040644,-0.3380431,0.91374946,0.30600002,-0.021817729,-0.7007316,0.32757998,830.4396,780.4762,788.1319,837.28937,829.6337,-0.150390625,0.043701171875,0.976318359375,2.205657958984375,-4.18701171875,0.366363525390625,1.0,1.0,1.0,1.0,1.0,95.0,event
11:31:14.240,1.1822646,-0.07110141,0.23556241,0.7810664,0.9441921,-0.6483972,-0.5525656,0.26550886,1.0568366,-0.19370478,-0.32202116,0.4653957,0.73426425,0.25040644,-0.3380431,0.91374946,0.30600002,-0.021817729,-0.7007316,0.32757998,826.4103,771.6117,783.69965,828.4249,832.0513,-0.150390625,0.043701171875,0.976318359375,2.205657958984375,-4.18701171875,0.366363525390625,1.0,1.0,1.0,1.0,1.0,95.0,event
11:31:14.265,1.1822646,-0.07110141,0.23556241,0.7810664,0.9441921,-0.6483972,-0.5525656,0.26550886,1.0568366,-0.19370478,-0.32202116,0.4653957,0.73426425,0.25040644,-0.3380431,0.91374946,0.30600002,-0.021817729,-0.7007316,0.32757998,827.2161,769.59705,785.31134,827.619,755.09155,-0.1533203125,0.0418701171875,0.97454833984375,1.607513427734375,-4.02252197265625,0.0299072265625,1.0,1.0,1.0,1.0,1.0,95.0,event
11:31:14.266,1.1822646,-0.07110141,0.23556241,0.7810664,0.9441921,-0.6483972,-0.5525656,0.26550886,1.0568366,-0.19370478,-0.32202116,0.4653957,0.73426425,0.25040644,-0.3380431,0.91374946,0.30600002,-0.021817729,-0.7007316,0.32757998,841.7216,764.35895,779.2674,841.31866,869.5238,-0.1533203125,0.0418701171875,0.97454833984375,1.607513427734375,-4.02252197265625,0.0299072265625,1.0,1.0,1.0,1.0,1.0,95.0,event
11:31:14.267,1.1822646,-0.07110141,0.23556241,0.7810664,0.9441921,-0.6483972,-0.5525656,0.26550886,1.0568366,-0.19370478,-0.32202116,0.4653957,0.73426425,0.25040644,-0.3380431,0.91374946,0.30600002,-0.021817729,-0.7007316,0.32757998,836.8865,772.01465,780.07324,834.4689,913.8461,-0.1533203125,0.0418701171875,0.97454833984375,1.607513427734375,-4.02252197265625,0.0299072265625,1.0,1.0,1.0,1.0,1.0,95.0,event
11:31:14.268,1.1822646,-0.07110141,0.23556241,0.7810664,0.9441921,-0.6483972,-0.5525656,0.26550886,1.0568366,-0.19370478,-0.32202116,0.4653957,0.73426425,0.25040644,-0.3380431,0.91374946,0.30600002,-0.021817729,-0.7007316,0.32757998,829.2308,780.87915,784.5055,821.5751,787.72894,-0.1533203125,0.0418701171875,0.97454833984375,1.607513427734375,-4.02252197265625,0.0299072265625,1.0,1.0,1.0,1.0,1.0,95.0,event
11:31:14.269,1.1822646,-0.07110141,0.23556241,0.7810664,0.9441921,-0.6483972,-0.5525656,0.26550886,1.0568366,-0.19370478,-0.32202116,0.4653957,0.73426425,0.25040644,-0.3380431,0.91374946,0.30600002,-0.021817729,-0.7007316,0.32757998,826.8132,774.43225,784.90845,823.9927,707.9487,-0.1533203125,0.0418701171875,0.97454833984375,1.607513427734375,-4.02252197265625,0.0299072265625,1.0,1.0,1.0,1.0,1.0,95.0,event
11:31:14.269,1.1822646,-0.07110141,0.23556241,0.7810664,0.9441921,-0.6483972,-0.5525656,0.26550886,1.0568366,-0.19370478,-0.32202116,0.4653957,0.73426425,0.25040644,-0.3380431,0.91374946,0.30600002,-0.021817729,-0.7007316,0.32757998,832.0513,767.98535,784.90845,823.5897,838.9011,-0.1533203125,0.0418701171875,0.97454833984375,1.607513427734375,-4.02252197265625,0.0299072265625,1.0,1.0,1.0,1.0,1.0,95.0,event
11:31:14.270,1.1822646,-0.07110141,0.23556241,0.7810664,0.9441921,-0.6483972,-0.5525656,0.26550886,1.0568366,-0.19370478,-0.32202116,0.4653957,0.73426425,0.25040644,-0.3380431,0.91374946,0.30600002,-0.021817729,-0.7007316,0.32757998,834.0659,767.98535,785.31134,823.5897,961.39197,-0.1533203125,0.0418701171875,0.97454833984375,1.607513427734375,-4.02252197265625,0.0299072265625,1.0,1.0,1.0,1.0,1.0,95.0,event
11:31:14.271,1.1822646,-0.07110141,0.23556241,0.7810664,0.9441921,-0.6483972,-0.5525656,0.26550886,1.0568366,-0.19370478,-0.32202116,0.4653957,0.73426425,0.25040644,-0.3380431,0.91374946,0.30600002,-0.021817729,-0.7007316,0.32757998,832.4542,776.4469,786.1172,844.1392,769.59705,-0.1533203125,0.0418701171875,0.97454833984375,1.607513427734375,-4.02252197265625,0.0299072265625,1.0,1.0,1.0,1.0,1.0,95.0,event
11:31:14.273,1.1822646,-0.07110141,0.23556241,0.7810664,0.9441921,-0.6483972,-0.5525656,0.26550886,1.0568366,-0.19370478,-0.32202116,0.4653957,0.73426425,0.25040644,-0.3380431,0.91374946,0.30600002,-0.021817729,-0.7007316,0.32757998,838.49817,780.87915,786.9231,840.10986,668.46155,-0.1533203125,0.0418701171875,0.97454833984375,1.607513427734375,-4.02252197265625,0.0299072265625,1.0,1.0,1.0,1.0,1.0,95.0,event
11:31:14.274,1.1822646,-0.07110141,0.23556241,0.7810664,0.9441921,-0.6483972,-0.5525656,0.26550886,1.0568366,-0.19370478,-0.32202116,0.4653957,0.73426425,0.25040644,-0.3380431,0.91374946,0.30600002,-0.021817729,-0.7007316,0.32757998,828.4249,780.4762,787.326,809.0842,871.13556,-0.1533203125,0.0418701171875,0.97454833984375,1.607513427734375,-4.02252197265625,0.0299072265625,1.0,1.0,1.0,1.0,1.0,95.0,event
11:31:14.275,1.1822646,-0.07110141,0.23556241,0.7810664,0.9441921,-0.6483972,-0.5525656,0.26550886,1.0568366,-0.19370478,-0.32202116,0.4653957,0.73426425,0.25040644,-0.3380431,0.91374946,0.30600002,-0.021817729,-0.7007316,0.32757998,823.9927,785.7143,786.1172,809.89014,861.4652,-0.1533203125,0.0418701171875,0.97454833984375,1.607513427734375,-4.02252197265625,0.0299072265625,1.0,1.0,1.0,1.0,1.0,95.0,event
11:31:14.276,1.1822646,-0.07110141,0.23556241,0.7810664,0.9441921,-0.6483972,-0.5525656,0.26550886,1.0568366,-0.19370478,-0.32202116,0.4653957,0.73426425,0.25040644,-0.3380431,0.91374946,0.30600002,-0.021817729,-0.7007316,0.32757998,839.304,784.10254,788.1319,827.2161,684.9817,-0.1533203125,0.0418701171875,0.97454833984375,1.607513427734375,-4.02252197265625,0.0299072265625,1.0,1.0,1.0,1.0,1.0,95.0,event
11:31:14.302,1.1822646,-0.07110141,0.23556241,0.7810664,0.9441921,-0.6483972,-0.5525656,0.26550886,1.0568366,-0.19370478,-0.32202116,0.4653957,0.73426425,0.25040644,-0.3380431,0.91374946,0.30600002,-0.021817729,-0.7007316,0.32757998,847.3626,760.7326,782.0879,830.84247,705.9341,-0.15386962890625,0.0406494140625,0.98040771484375,1.09161376953125,-3.60382080078125,-0.3887939453125,1.0,1.0,1.0,1.0,1.0,95.0,event
11:31:14.304,1.1822646,-0.04469705,0.33729365,0.7810664,0.9441921,-0.6389305,-0.5567564,0.26550886,1.0568366,-0.21988958,-0.30775794,0.4653957,0.73426425,0.26225987,-0.34285367,0.91374946,0.30600002,-0.016549692,-0.70040786,0.32757998,833.2601,763.1502,778.86444,825.2015,803.0403,-0.15386962890625,0.0406494140625,0.98040771484375,1.09161376953125,-3.60382080078125,-0.3887939453125,1.0,1.0,1.0,1.0,1.0,95.0,event
11:31:14.310,1.1822646,-0.04469705,0.33729365,0.7810664,0.9441921,-0.6389305,-0.5567564,0.26550886,1.0568366,-0.21988958,-0.30775794,0.4653957,0.73426425,0.26225987,-0.34285367,0.91374946,0.30600002,-0.016549692,-0.70040786,0.32757998,821.978,776.8498,782.49084,824.7985,777.25275,-0.15386962890625,0.0406494140625,0.98040771484375,1.09161376953125,-3.60382080078125,-0.3887939453125,1.0,1.0,1.0,1.0,1.0,95.0,event
11:31:14.311,1.1822646,-0.04469705,0.33729365,0.7810664,0.9441921,-0.6389305,-0.5567564,0.26550886,1.0568366,-0.21988958,-0.30775794,0.4653957,0.73426425,0.26225987,-0.34285367,0.91374946,0.30600002,-0.016549692,-0.70040786,0.32757998,824.7985,777.25275,782.0879,814.3223,677.72894,-0.15386962890625,0.0406494140625,0.98040771484375,1.09161376953125,-3.60382080078125,-0.3887939453125,1.0,1.0,1.0,1.0,1.0,95.0,event
11:31:14.312,1.1822646,-0.04469705,0.33729365,0.7810664,0.9441921,-0.6389305,-0.5567564,0.26550886,1.0568366,-0.21988958,-0.30775794,0.4653957,0.73426425,0.26225987,-0.34285367,0.91374946,0.30600002,-0.016549692,-0.70040786,0.32757998,830.4396,781.685,785.31134,811.9048,830.84247,-0.15386962890625,0.0406494140625,0.98040771484375,1.09161376953125,-3.60382080078125,-0.3887939453125,1.0,1.0,1.0,1.0,1.0,95.0,event
11:31:14.313,1.1822646,-0.04469705,0.33729365,0.7810664,0.9441921,-0.6389305,-0.5567564,0.26550886,1.0568366,-0.21988958,-0.30775794,0.4653957,0.73426425,0.26225987,-0.34285367,0.91374946,0.30600002,-0.016549692,-0.70040786,0.32757998,827.619,783.69965,785.7143,823.1868,1029.0842,-0.15386962890625,0.0406494140625,0.98040771484375,1.09161376953125,-3.60382080078125,-0.3887939453125,1.0,1.0,1.0,1.0,1.0,95.0,event
11:31:14.313,1.1822646,-0.04469705,0.33729365,0.7810664,0.9441921,-0.6389305,-0.5567564,0.26550886,1.0568366,-0.21988958,-0.30775794,0.4653957,0.73426425,0.26225987,-0.34285367,0.91374946,0.30600002,-0.016549692,-0.70040786,0.32757998,822.7839,782.0879,782.8938,819.15753,916.6667,-0.15386962890625,0.0406494140625,0.98040771484375,1.09161376953125,-3.60382080078125,-0.3887939453125,1.0,1.0,1.0,1.0,1.0,95.0,event
11:31:14.314,1.1822646,-0.04469705,0.33729365,0.7810664,0.9441921,-0.6389305,-0.5567564,0.26550886,1.0568366,-0.21988958,-0.30775794,0.4653957,0.73426425,0.26225987,-0.34285367,0.91374946,0.30600002,-0.016549692,-0.70040786,0.32757998,817.9487,776.4469,782.0879,809.0842,755.89746,-0.15386962890625,0.0406494140625,0.98040771484375,1.09161376953125,-3.60382080078125,-0.3887939453125,1.0,1.0,1.0,1.0,1.0,95.0,event
11:31:14.315,1.1822646,-0.04469705,0.33729365,0.7810664,0.9441921,-0.6389305,-0.5567564,0.26550886,1.0568366,-0.21988958,-0.30775794,0.4653957,0.73426425,0.26225987,-0.34285367,0.91374946,0.30600002,-0.016549692,-0.70040786,0.32757998,829.2308,777.25275,781.28204,828.022,1041.978,-0.15386962890625,0.0406494140625,0.98040771484375,1.09161376953125,-3.60382080078125,-0.3887939453125,1.0,1.0,1.0,1.0,1.0,95.0,event
11:31:14.315,1.1822646,-0.04469705,0.33729365,0.7810664,0.9441921,-0.6389305,-0.5567564,0.26550886,1.0568366,-0.21988958,-0.30775794,0.4653957,0.73426425,0.26225987,-0.34285367,0.91374946,0.30600002,-0.016549692,-0.70040786,0.32757998,826.0073,776.8498,780.07324,818.7546,832.8571,-0.15386962890625,0.0406494140625,0.98040771484375,1.09161376953125,-3.60382080078125,-0.3887939453125,1.0,1.0,1.0,1.0,1.0,95.0,event
11:31:14.316,1.1822646,-0.04469705,0.33729365,0.7810664,0.9441921,-0.6389305,-0.5567564,0.26550886,1.0568366,-0.21988958,-0.30775794,0.4653957,0.73426425,0.26225987,-0.34285367,0.91374946,0.30600002,-0.016549692,-0.70040786,0.32757998,824.3956,780.07324,782.8938,816.7399,819.15753,-0.15386962890625,0.0406494140625,0.98040771484375,1.09161376953125,-3.60382080078125,-0.3887939453125,1.0,1.0,1.0,1.0,1.0,95.0,event
11:31:14.316,1.1822646,-0.04469705,0.33729365,0.7810664,0.9441921,-0.6389305,-0.5567564,0.26550886,1.0568366,-0.21988958,-0.30775794,0.4653957,0.73426425,0.26225987,-0.34285367,0.91374946,0.30600002,-0.016549692,-0.70040786,0.32757998,817.5458,774.0293,780.87915,802.6374,624.5421,-0.15386962890625,0.0406494140625,0.98040771484375,1.09161376953125,-3.60382080078125,-0.3887939453125,1.0,1.0,1.0,1.0,1.0,95.0,event
11:31:14.341,1.1822646,-0.04469705,0.33729365,0.7810664,0.9441921,-0.6389305,-0.5567564,0.26550886,1.0568366,-0.21988958,-0.30775794,0.4653957,0.73426425,0.26225987,-0.34285367,0.91374946,0.30600002,-0.016549692,-0.70040786,0.32757998,814.3223,772.4176,783.69965,806.26373,691.02563,-0.15386962890625,0.0406494140625,0.98040771484375,1.09161376953125,-3.60382080078125,-0.3887939453125,1.0,1.0,1.0,1.0,1.0,95.0,event
11:31:14.342,1.1822646,-0.04469705,0.33729365,0.7810664,0.9441921,-0.6389305,-0.5567564,0.26550886,1.0568366,-0.21988958,-0.30775794,0.4653957,0.73426425,0.26225987,-0.34285367,0.91374946,0.30600002,-0.016549692,-0.70040786,0.32757998,821.978,781.685,784.90845,811.50183,700.293,-0.15386962890625,0.0406494140625,0.98040771484375,1.09161376953125,-3.60382080078125,-0.3887939453125,1.0,1.0,1.0,1.0,1.0,95.0,event
11:31:14.342,1.1822646,-0.04469705,0.33729365,0.7810664,0.9441921,-0.6389305,-0.5567564,0.26550886,1.0568366,-0.21988958,-0.30775794,0.4653957,0.73426425,0.26225987,-0.34285367,0.91374946,0.30600002,-0.016549692,-0.70040786,0.32757998,824.3956,782.8938,781.685,817.1429,687.3993,-0.15386962890625,0.0406494140625,0.98040771484375,1.09161376953125,-3.60382080078125,-0.3887939453125,1.0,1.0,1.0,1.0,1.0,95.0,event
11:31:14.343,1.1822646,-0.04469705,0.33729365,0.7810664,0.9441921,-0.6389305,-0.5567564,0.26550886,1.0568366,-0.21988958,-0.30775794,0.4653957,0.73426425,0.26225987,-0.34285367,0.91374946,0.30600002,-0.016549692,-0.70040786,0.32757998,830.4396,771.2088,778.46155,824.3956,745.42126,-0.15386962890625,0.0406494140625,0.98040771484375,1.09161376953125,-3.60382080078125,-0.3887939453125,1.0,1.0,1.0,1.0,1.0,95.0,event
11:31:14.344,1.1822646,-0.04469705,0.33729365,0.7810664,0.9441921,-0.6389305,-0.5567564,0.26550886,1.0568366,-0.21988958,-0.30775794,0.4653957,0.73426425,0.26225987,-0.34285367,0.91374946,0.30600002,-0.016549692,-0.70040786,0.32757998,837.28937,780.07324,777.6557,815.5311,793.7729,-0.15386962890625,0.0406494140625,0.98040771484375,1.09161376953125,-3.60382080078125,-0.3887939453125,1.0,1.0,1.0,1.0,1.0,95.0,event
11:31:14.344,1.1822646,-0.04469705,0.33729365,0.7810664,0.9441921,-0.6389305,-0.5567564,0.26550886,1.0568366,-0.21988958,-0.30775794,0.4653957,0.73426425,0.26225987,-0.34285367,0.91374946,0.30600002,-0.016549692,-0.70040786,0.32757998,822.381,780.87915,779.67035,814.3223,775.64105,-0.15386962890625,0.0406494140625,0.98040771484375,1.09161376953125,-3.60382080078125,-0.3887939453125,1.0,1.0,1.0,1.0,1.0,95.0,event
11:31:14.345,1.1822646,-0.04469705,0.33729365,0.7810664,0.9441921,-0.6389305,-0.5567564,0.26550886,1.0568366,-0.21988958,-0.30775794,0.4653957,0.73426425,0.26225987,-0.34285367,0.91374946,0.30600002,-0.016549692,-0.70040786,0.32757998,816.7399,771.6117,780.07324,821.1722,834.4689,-0.15386962890625,0.0406494140625,0.98040771484375,1.09161376953125,-3.60382080078125,-0.3887939453125,1.0,1.0,1.0,1.0,1.0,95.0,event
11:31:14.345,1.1822646,-0.04469705,0.33729365,0.7810664,0.9441921,-0.6389305,-0.5567564,0.26550886,1.0568366,-0.21988958,-0.30775794,0.4653957,0.73426425,0.26225987,-0.34285367,0.91374946,0.30600002,-0.016549692,-0.70040786,0.32757998,816.337,775.2381,778.86444,817.1429,797.8022,-0.15386962890625,0.0406494140625,0.98040771484375,1.09161376953125,-3.60382080078125,-0.3887939453125,1.0,1.0,1.0,1.0,1.0,95.0,event
11:31:14.346,1.1822646,-0.04469705,0.33729365,0.7810664,0.9441921,-0.6389305,-0.5567564,0.26550886,1.0568366,-0.21988958,-0.30775794,0.4653957,0.73426425,0.26225987,-0.34285367,0.91374946,0.30600002,-0.016549692,-0.70040786,0.32757998,826.8132,778.0586,776.04395,813.1135,1085.4945,-0.15386962890625,0.0406494140625,0.98040771484375,1.09161376953125,-3.60382080078125,-0.3887939453125,1.0,1.0,1.0,1.0,1.0,95.0,event
11:31:14.346,1.1822646,-0.04469705,0.33729365,0.7810664,0.9441921,-0.6389305,-0.5567564,0.26550886,1.0568366,-0.21988958,-0.30775794,0.4653957,0.73426425,0.26225987,-0.34285367,0.91374946,0.30600002,-0.016549692,-0.70040786,0.32757998,818.7546,773.6264,774.43225,817.1429,992.01465,-0.15386962890625,0.0406494140625,0.98040771484375,1.09161376953125,-3.60382080078125,-0.3887939453125,1.0,1.0,1.0,1.0,1.0,95.0,event
11:31:14.347,1.1822646,-0.04469705,0.33729365,0.7810664,0.9441921,-0.6389305,-0.5567564,0.26550886,1.0568366,-0.21988958,-0.30775794,0.4653957,0.73426425,0.26225987,-0.34285367,0.91374946,0.30600002,-0.016549692,-0.70040786,0.32757998,812.71063,773.6264,776.04395,802.6374,703.91943,-0.15386962890625,0.0406494140625,0.98040771484375,1.09161376953125,-3.60382080078125,-0.3887939453125,1.0,1.0,1.0,1.0,1.0,95.0,event
11:31:14.348,1.1822646,-0.04469705,0.33729365,0.7810664,0.9441921,-0.6389305,-0.5567564,0.26550886,1.0568366,-0.21988958,-0.30775794,0.4653957,0.73426425,0.26225987,-0.34285367,0.91374946,0.30600002,-0.016549692,-0.70040786,0.32757998,805.05493,769.59705,774.83514,813.1135,714.7985,-0.15386962890625,0.0406494140625,0.98040771484375,1.09161376953125,-3.60382080078125,-0.3887939453125,1.0,1.0,1.0,1.0,1.0,95.0,event
11:31:14.381,1.1822646,-0.04469705,0.33729365,0.7810664,0.9441921,-0.6389305,-0.5567564,0.26550886,1.0568366,-0.21988958,-0.30775794,0.4653957,0.73426425,0.26225987,-0.34285367,0.91374946,0.30600002,-0.016549692,-0.70040786,0.32757998,812.3077,779.2674,778.86444,817.1429,804.65204,-0.15826416015625,0.03680419921875,0.96954345703125,2.056121826171875,-3.342132568359375,0.19439697265625,1.0,1.0,1.0,1.0,1.0,95.0,event
11:31:14.383,1.1822646,-0.04469705,0.33729365,0.7810664,0.9441921,-0.6389305,-0.5567564,0.26550886,1.0568366,-0.21988958,-0.30775794,0.4653957,0.73426425,0.26225987,-0.34285367,0.91374946,0.30600002,-0.016549692,-0.70040786,0.32757998,819.9634,778.0586,778.46155,820.3663,750.2564,-0.15826416015625,0.03680419921875,0.96954345703125,2.056121826171875,-3.342132568359375,0.19439697265625,1.0,1.0,1.0,1.0,1.0,95.0,event
11:31:14.384,1.1822646,-0.04469705,0.33729365,0.7810664,0.9441921,-0.6389305,-0.5567564,0.26550886,1.0568366,-0.21988958,-0.30775794,0.4653957,0.73426425,0.26225987,-0.34285367,0.91374946,0.30600002,-0.016549692,-0.70040786,0.32757998,817.1429,770.40295,773.6264,821.5751,775.2381,-0.15826416015625,0.03680419921875,0.96954345703125,2.056121826171875,-3.342132568359375,0.19439697265625,1.0,1.0,1.0,1.0,1.0,95.0,event
11:31:14.384,1.1822646,-0.01616984,0.3906973,0.7810664,0.9441921,-0.63210064,-0.5639715,0.26550886,1.0568366,-0.2319022,-0.28767264,0.4653957,0.73426425,0.2759655,-0.3448758,0.91374946,0.30600002,-0.0050780266,-0.696355,0.32757998,810.293,775.64105,775.2381,817.5458,779.2674,-0.15826416015625,0.03680419921875,0.96954345703125,2.056121826171875,-3.342132568359375,0.19439697265625,1.0,1.0,1.0,1.0,1.0,95.0,event
11:31:14.389,1.1822646,-0.01616984,0.3906973,0.7810664,0.9441921,-0.63210064,-0.5639715,0.26550886,1.0568366,-0.2319022,-0.28767264,0.4653957,0.73426425,0.2759655,-0.3448758,0.91374946,0.30600002,-0.0050780266,-0.696355,0.32757998,801.4286,782.49084,776.4469,810.696,776.4469,-0.15826416015625,0.03680419921875,0.96954345703125,2.056121826171875,-3.342132568359375,0.19439697265625,1.0,1.0,1.0,1.0,1.0,95.0,event
11:31:14.389,1.1822646,-0.01616984,0.3906973,0.7810664,0.9441921,-0.63210064,-0.5639715,0.26550886,1.0568366,-0.2319022,-0.28767264,0.4653957,0.73426425,0.2759655,-0.3448758,0.91374946,0.30600002,-0.0050780266,-0.696355,0.32757998,805.4579,774.83514,773.22345,814.3223,830.0366,-0.15826416015625,0.03680419921875,0.96954345703125,2.056121826171875,-3.342132568359375,0.19439697265625,1.0,1.0,1.0,1.0,1.0,95.0,event
11:31:14.390,1.1822646,-0.01616984,0.3906973,0.7810664,0.9441921,-0.63210064,-0.5639715,0.26550886,1.0568366,-0.2319022,-0.28767264,0.4653957,0.73426425,0.2759655,-0.3448758,0.91374946,0.30600002,-0.0050780266,-0.696355,0.32757998,823.5897,768.7912,776.8498,815.12823,852.1978,-0.15826416015625,0.03680419921875,0.96954345703125,2.056121826171875,-3.342132568359375,0.19439697265625,1.0,1.0,1.0,1.0,1.0,95.0,event
11:31:14.391,1.1822646,-0.01616984,0.3906973,0.7810664,0.9441921,-0.63210064,-0.5639715,0.26550886,1.0568366,-0.2319022,-0.28767264,0.4653957,0.73426425,0.2759655,-0.3448758,0.91374946,0.30600002,-0.0050780266,-0.696355,0.32757998,804.2491,765.9707,778.0586,812.3077,1137.8755,-0.15826416015625,0.03680419921875,0.96954345703125,2.056121826171875,-3.342132568359375,0.19439697265625,1.0,1.0,1.0,1.0,1.0,95.0,event
11:31:14.391,1.1822646,-0.01616984,0.3906973,0.7810664,0.9441921,-0.63210064,-0.5639715,0.26550886,1.0568366,-0.2319022,-0.28767264,0.4653957,0.73426425,0.2759655,-0.3448758,0.91374946,0.30600002,-0.0050780266,-0.696355,0.32757998,824.7985,772.4176,780.87915,807.47253,912.6374,-0.15826416015625,0.03680419921875,0.96954345703125,2.056121826171875,-3.342132568359375,0.19439697265625,1.0,1.0,1.0,1.0,1.0,95.0,event
11:31:14.392,1.1822646,-0.01616984,0.3906973,0.7810664,0.9441921,-0.63210064,-0.5639715,0.26550886,1.0568366,-0.2319022,-0.28767264,0.4653957,0.73426425,0.2759655,-0.3448758,0.91374946,0.30600002,-0.0050780266,-0.696355,0.32757998,795.78754,767.5824,779.2674,822.381,927.1429,-0.15826416015625,0.03680419921875,0.96954345703125,2.056121826171875,-3.342132568359375,0.19439697265625,1.0,1.0,1.0,1.0,1.0,95.0,event
11:31:14.393,1.1822646,-0.01616984,0.3906973,0.7810664,0.9441921,-0.63210064,-0.5639715,0.26550886,1.0568366,-0.2319022,-0.28767264,0.4653957,0.73426425,0.2759655,-0.3448758,0.91374946,0.30600002,-0.0050780266,-0.696355,0.32757998,802.6374,774.43225,780.4762,819.15753,623.3333,-0.15826416015625,0.03680419921875,0.96954345703125,2.056121826171875,-3.342132568359375,0.19439697265625,1.0,1.0,1.0,1.0,1.0,95.0,event
11:31:14.393,1.1822646,-0.01616984,0.3906973,0.7810664,0.9441921,-0.63210064,-0.5639715,0.26550886,1.0568366,-0.2319022,-0.28767264,0.4653957,0.73426425,0.2759655,-0.3448758,0.91374946,0.30600002,-0.0050780266,-0.696355,0.32757998,806.26373,773.22345,776.8498,823.1868,708.3516,-0.15826416015625,0.03680419921875,0.96954345703125,2.056121826171875,-3.342132568359375,0.19439697265625,1.0,1.0,1.0,1.0,1.0,95.0,event
11:31:14.423,1.1822646,-0.01616984,0.3906973,0.7810664,0.9441921,-0.63210064,-0.5639715,0.26550886,1.0568366,-0.2319022,-0.28767264,0.4653957,0.73426425,0.2759655,-0.3448758,0.91374946,0.30600002,-0.0050780266,-0.696355,0.32757998,814.7253,784.10254,778.46155,838.49817,774.43225,-0.1580810546875,0.0396728515625,0.97772216796875,2.863616943359375,-2.519683837890625,0.28411865234375,1.0,1.0,1.0,1.0,1.0,95.0,event
11:31:14.424,1.1822646,-0.01616984,0.3906973,0.7810664,0.9441921,-0.63210064,-0.5639715,0.26550886,1.0568366,-0.2319022,-0.28767264,0.4653957,0.73426425,0.2759655,-0.3448758,0.91374946,0.30600002,-0.0050780266,-0.696355,0.32757998,814.7253,785.31134,780.4762,826.4103,716.4103,-0.1580810546875,0.0396728515625,0.97772216796875,2.863616943359375,-2.519683837890625,0.28411865234375,1.0,1.0,1.0,1.0,1.0,95.0,event
11:31:14.425,1.1822646,-0.01616984,0.3906973,0.7810664,0.9441921,-0.63210064,-0.5639715,0.26550886,1.0568366,-0.2319022,-0.28767264,0.4653957,0.73426425,0.2759655,-0.3448758,0.91374946,0.30600002,-0.0050780266,-0.696355,0.32757998,809.0842,774.43225,779.2674,815.12823,725.2747,-0.1580810546875,0.0396728515625,0.97772216796875,2.863616943359375,-2.519683837890625,0.28411865234375,1.0,1.0,1.0,1.0,1.0,95.0,event
11:31:14.425,1.1822646,-0.01616984,0.3906973,0.7810664,0.9441921,-0.63210064,-0.5639715,0.26550886,1.0568366,-0.2319022,-0.28767264,0.4653957,0.73426425,0.2759655,-0.3448758,0.91374946,0.30600002,-0.0050780266,-0.696355,0.32757998,812.3077,772.01465,780.4762,828.8278,718.8278,-0.1580810546875,0.0396728515625,0.97772216796875,2.863616943359375,-2.519683837890625,0.28411865234375,1.0,1.0,1.0,1.0,1.0,95.0,event
11:31:14.426,1.1822646,-0.01616984,0.3906973,0.7810664,0.9441921,-0.63210064,-0.5639715,0.26550886,1.0568366,-0.2319022,-0.28767264,0.4653957,0.73426425,0.2759655,-0.3448758,0.91374946,0.30600002,-0.0050780266,-0.696355,0.32757998,817.1429,765.56775,777.6557,830.4396,764.35895,-0.1580810546875,0.0396728515625,0.97772216796875,2.863616943359375,-2.519683837890625,0.28411865234375,1.0,1.0,1.0,1.0,1.0,95.0,event
11:31:14.426,1.1822646,-0.01616984,0.3906973,0.7810664,0.9441921,-0.63210064,-0.5639715,0.26550886,1.0568366,-0.2319022,-0.28767264,0.4653957,0.73426425,0.2759655,-0.3448758,0.91374946,0.30600002,-0.0050780266,-0.696355,0.32757998,818.3516,765.16486,772.8205,817.5458,841.31866,-0.1580810546875,0.0396728515625,0.97772216796875,2.863616943359375,-2.519683837890625,0.28411865234375,1.0,1.0,1.0,1.0,1.0,95.0,event
11:31:14.427,1.1822646,-0.01616984,0.3906973,0.7810664,0.9441921,-0.63210064,-0.5639715,0.26550886,1.0568366,-0.2319022,-0.28767264,0.4653957,0.73426425,0.2759655,-0.3448758,0.91374946,0.30600002,-0.0050780266,-0.696355,0.32757998,813.5165,777.6557,775.64105,816.7399,789.7436,-0.1580810546875,0.0396728515625,0.97772216796875,2.863616943359375,-2.519683837890625,0.28411865234375,1.0,1.0,1.0,1.0,1.0,95.0,event
11:31:14.428,1.1822646,-0.01616984,0.3906973,0.7810664,0.9441921,-0.63210064,-0.5639715,0.26550886,1.0568366,-0.2319022,-0.28767264,0.4653957,0.73426425,0.2759655,-0.3448758,0.91374946,0.30600002,-0.0050780266,-0.696355,0.32757998,812.71063,782.49084,780.07324,829.2308,940.0366,-0.1580810546875,0.0396728515625,0.97772216796875,2.863616943359375,-2.519683837890625,0.28411865234375,1.0,1.0,1.0,1.0,1.0,95.0,event
11:31:14.428,1.1822646,-0.01616984,0.3906973,0.7810664,0.9441921,-0.63210064,-0.5639715,0.26550886,1.0568366,-0.2319022,-0.28767264,0.4653957,0.73426425,0.2759655,-0.3448758,0.91374946,0.30600002,-0.0050780266,-0.696355,0.32757998,814.7253,780.07324,780.87915,832.4542,938.022,-0.1580810546875,0.0396728515625,0.97772216796875,2.863616943359375,-2.519683837890625,0.28411865234375,1.0,1.0,1.0,1.0,1.0,95.0,event
11:31:14.429,1.1822646,-0.01616984,0.3906973,0.7810664,0.9441921,-0.63210064,-0.5639715,0.26550886,1.0568366,-0.2319022,-0.28767264,0.4653957,0.73426425,0.2759655,-0.3448758,0.91374946,0.30600002,-0.0050780266,-0.696355,0.32757998,828.022,778.86444,773.22345,842.52747,734.94507,-0.1580810546875,0.0396728515625,0.97772216796875,2.863616943359375,-2.519683837890625,0.28411865234375,1.0,1.0,1.0,1.0,1.0,95.0,event
11:31:14.429,1.1822646,-0.01616984,0.3906973,0.7810664,0.9441921,-0.63210064,-0.5639715,0.26550886,1.0568366,-0.2319022,-0.28767264,0.4653957,0.73426425,0.2759655,-0.3448758,0.91374946,0.30600002,-0.0050780266,-0.696355,0.32757998,822.381,780.07324,779.2674,836.8865,705.9341,-0.1580810546875,0.0396728515625,0.97772216796875,2.863616943359375,-2.519683837890625,0.28411865234375,1.0,1.0,1.0,1.0,1.0,95.0,event
11:31:14.430,1.1822646,-0.01616984,0.3906973,0.7810664,0.9441921,-0.63210064,-0.5639715,0.26550886,1.0568366,-0.2319022,-0.28767264,0.4653957,0.73426425,0.2759655,-0.3448758,0.91374946,0.30600002,-0.0050780266,-0.696355,0.32757998,815.5311,772.8205,772.8205,826.4103,816.7399,-0.1580810546875,0.0396728515625,0.97772216796875,2.863616943359375,-2.519683837890625,0.28411865234375,1.0,1.0,1.0,1.0,1.0,95.0,event
11:31:14.498,1.1822646,-0.01616984,0.3906973,0.7810664,0.9441921,-0.63210064,-0.5639715,0.26550886,1.0568366,-0.2319022,-0.28767264,0.4653957,0.73426425,0.2759655,-0.3448758,0.91374946,0.30600002,-0.0050780266,-0.696355,0.32757998,808.2784,772.4176,774.83514,809.4872,743.00366,-0.157958984375,0.04022216796875,0.97662353515625,2.28790283203125,-4.164581298828125,0.8074951171875,1.0,1.0,1.0,1.0,1.0,95.0,event
11:31:14.500,1.1822646,-0.01616984,0.3906973,0.7810664,0.9441921,-0.63210064,-0.5639715,0.26550886,1.0568366,-0.2319022,-0.28767264,0.4653957,0.73426425,0.2759655,-0.3448758,0.91374946,0.30600002,-0.0050780266,-0.696355,0.32757998,816.337,771.6117,773.6264,813.1135,629.3773,-0.157958984375,0.04022216796875,0.97662353515625,2.28790283203125,-4.164581298828125,0.8074951171875,1.0,1.0,1.0,1.0,1.0,95.0,event
11:31:14.500,1.1822646,-0.01616984,0.3906973,0.7810664,0.9441921,-0.63210064,-0.5639715,0.26550886,1.0568366,-0.2319022,-0.28767264,0.4653957,0.73426425,0.2759655,-0.3448758,0.91374946,0.30600002,-0.0050780266,-0.696355,0.32757998,819.5604,777.25275,776.8498,823.9927,721.6484,-0.157958984375,0.04022216796875,0.97662353515625,2.28790283203125,-4.164581298828125,0.8074951171875,1.0,1.0,1.0,1.0,1.0,95.0,event
11:31:14.501,1.1822646,-0.01616984,0.3906973,0.7810664,0.9441921,-0.63210064,-0.5639715,0.26550886,1.0568366,-0.2319022,-0.28767264,0.4653957,0.73426425,0.2759655,-0.3448758,0.91374946,0.30600002,-0.0050780266,-0.696355,0.32757998,829.6337,787.326,779.67035,834.87177,887.6557,-0.157958984375,0.04022216796875,0.97662353515625,2.28790283203125,-4.164581298828125,0.8074951171875,1.0,1.0,1.0,1.0,1.0,95.0,event
11:31:14.503,1.1822646,-0.01616984,0.3906973,0.7810664,0.9441921,-0.63210064,-0.5639715,0.26550886,1.0568366,-0.2319022,-0.28767264,0.4653957,0.73426425,0.2759655,-0.3448758,0.91374946,0.30600002,-0.0050780266,-0.696355,0.32757998,833.2601,794.9817,777.25275,836.4835,796.1905,-0.157958984375,0.04022216796875,0.97662353515625,2.28790283203125,-4.164581298828125,0.8074951171875,1.0,1.0,1.0,1.0,1.0,95.0,event
11:31:14.504,1.1822646,0.016248308,0.40920213,0.7810664,0.9441921,-0.62370783,-0.57698345,0.26550886,1.0568366,-0.23324399,-0.2518307,0.4653957,0.73426425,0.28736058,-0.34541062,0.91374946,0.30600002,0.0117134405,-0.69094217,0.32757998,823.9927,789.34064,775.2381,829.2308,751.06226,-0.157958984375,0.04022216796875,0.97662353515625,2.28790283203125,-4.164581298828125,0.8074951171875,1.0,1.0,1.0,1.0,1.0,95.0,event
11:31:14.509,1.1822646,0.016248308,0.40920213,0.7810664,0.9441921,-0.62370783,-0.57698345,0.26550886,1.0568366,-0.23324399,-0.2518307,0.4653957,0.73426425,0.28736058,-0.34541062,0.91374946,0.30600002,0.0117134405,-0.69094217,0.32757998,836.08057,767.5824,774.0293,838.0952,915.8608,-0.157958984375,0.04022216796875,0.97662353515625,2.28790283203125,-4.164581298828125,0.8074951171875,1.0,1.0,1.0,1.0,1.0,95.0,event
11:31:14.510,1.1822646,0.016248308,0.40920213,0.7810664,0.9441921,-0.62370783,-0.57698345,0.26550886,1.0568366,-0.23324399,-0.2518307,0.4653957,0.73426425,0.28736058,-0.34541062,0.91374946,0.30600002,0.0117134405,-0.69094217,0.32757998,833.663,764.7619,773.6264,842.9304,1042.7839,-0.157958984375,0.04022216796875,0.97662353515625,2.28790283203125,-4.164581298828125,0.8074951171875,1.0,1.0,1.0,1.0,1.0,95.0,event
11:31:14.510,1.1822646,0.016248308,0.40920213,0.7810664,0.9441921,-0.62370783,-0.57698345,0.26550886,1.0568366,-0.23324399,-0.2518307,0.4653957,0.73426425,0.28736058,-0.34541062,0.91374946,0.30600002,0.0117134405,-0.69094217,0.32757998,814.3223,776.8498,775.2381,831.2454,851.39197,-0.157958984375,0.04022216796875,0.97662353515625,2.28790283203125,-4.164581298828125,0.8074951171875,1.0,1.0,1.0,1.0,1.0,95.0,event
11:31:14.511,1.1822646,0.016248308,0.40920213,0.7810664,0.9441921,-0.62370783,-0.57698345,0.26550886,1.0568366,-0.23324399,-0.2518307,0.4653957,0.73426425,0.28736058,-0.34541062,0.91374946,0.30600002,0.0117134405,-0.69094217,0.32757998,811.9048,782.0879,770.0,821.978,695.8608,-0.157958984375,0.04022216796875,0.97662353515625,2.28790283203125,-4.164581298828125,0.8074951171875,1.0,1.0,1.0,1.0,1.0,95.0,event
11:31:14.512,1.1822646,0.016248308,0.40920213,0.7810664,0.9441921,-0.62370783,-0.57698345,0.26550886,1.0568366,-0.23324399,-0.2518307,0.4653957,0.73426425,0.28736058,-0.34541062,0.91374946,0.30600002,0.0117134405,-0.69094217,0.32757998,853.4066,791.75824,769.59705,839.707,716.4103,-0.157958984375,0.04022216796875,0.97662353515625,2.28790283203125,-4.164581298828125,0.8074951171875,1.0,1.0,1.0,1.0,1.0,95.0,event
11:31:14.512,1.1822646,0.016248308,0.40920213,0.7810664,0.9441921,-0.62370783,-0.57698345,0.26550886,1.0568366,-0.23324399,-0.2518307,0.4653957,0.73426425,0.28736058,-0.34541062,0.91374946,0.30600002,0.0117134405,-0.69094217,0.32757998,830.4396,784.5055,765.56775,826.8132,706.337,-0.157958984375,0.04022216796875,0.97662353515625,2.28790283203125,-4.164581298828125,0.8074951171875,1.0,1.0,1.0,1.0,1.0,95.0,event
11:31:14.541,1.1822646,0.016248308,0.40920213,0.7810664,0.9441921,-0.62370783,-0.57698345,0.26550886,1.0568366,-0.23324399,-0.2518307,0.4653957,0.73426425,0.28736058,-0.34541062,0.91374946,0.30600002,0.0117134405,-0.69094217,0.32757998,857.03296,792.96704,775.2381,844.1392,694.2491,-0.157958984375,0.04022216796875,0.97662353515625,2.28790283203125,-4.164581298828125,0.8074951171875,1.0,1.0,1.0,1.0,1.0,95.0,event
11:31:14.542,1.1822646,0.016248308,0.40920213,0.7810664,0.9441921,-0.62370783,-0.57698345,0.26550886,1.0568366,-0.23324399,-0.2518307,0.4653957,0.73426425,0.28736058,-0.34541062,0.91374946,0.30600002,0.0117134405,-0.69094217,0.32757998,855.0183,787.72894,773.6264,852.6007,751.06226,-0.157958984375,0.04022216796875,0.97662353515625,2.28790283203125,-4.164581298828125,0.8074951171875,1.0,1.0,1.0,1.0,1.0,95.0,event
